DTS Sentinel unit serial number:	SN410029Multiplexer serial number:	ORYXHardware model number:	OX2-SRSoftware version number:	ORYX F/W v4,00 Oryx Data Collector v3.7.2.0data status	okinstallation	B3 Nyhavnadifferential loss correction	single-endedforward channel	channel 1reverse channel	N/Adate	2023/11/28time	21:52:31forward acquisition time	300,00reverse acquisition time	0,00gamma	499,1914k internal	0,3212k external	0,3212temperature offset calibration	1,0000default loss term (dB/km)	0,3820temperature slope calibration	1,0000multiplexer offset coefficient	1,0000multiplexer slope coefficient	1,0000fibre end	0,00T internal ref (°C)	8,44T ext. ref 1 (°C)	-5,97T ext. ref 2 (°C)	-6,13length (m)	temperature (°C)	Stokes	anti-Stokes-744,400	61,943	-0,306	-0,221
-743,385	-200,000	0,002	0,227
-742,371	9,467	-0,251	-0,137
-741,356	-200,000	0,056	0,359
-740,342	-27,406	-0,198	-0,083
-739,327	-200,000	-0,040	0,216
-738,312	163,830	-0,329	-0,335
-737,298	800,000	-0,145	0,296
-736,283	34,372	-0,215	-0,135
-735,269	-200,000	-0,011	0,177
-734,254	155,258	-0,198	-0,197
-733,239	8,248	-0,247	-0,134
-732,225	210,473	-0,198	-0,226
-731,210	462,347	0,067	0,108
-730,196	296,525	-0,041	-0,055
-729,181	800,000	-0,061	-0,184
-728,167	800,000	0,041	-0,129
-727,152	-61,681	-0,131	-0,039
-726,137	-200,000	-0,002	0,140
-725,123	317,319	-0,089	-0,122
-724,108	223,087	-0,118	-0,138
-723,094	520,214	-0,059	-0,100
-722,079	182,412	0,048	-0,052
-721,064	-200,000	-0,013	0,043
-720,050	800,000	0,060	-0,147
-719,035	229,114	0,014	-0,017
-718,021	62,636	-0,047	-0,034
-717,006	-200,000	0,036	-0,126
-715,991	2,876	-0,183	-0,096
-714,977	-200,000	-0,004	-0,055
-713,962	-62,919	-0,100	0,030
-712,948	97,007	0,071	0,059
-711,933	88,594	0,037	-0,030
-710,918	39,399	-0,039	-0,025
-709,904	183,072	-0,028	-0,030
-708,889	-25,674	-0,033	-0,014
-707,875	-9,593	0,050	-0,024
-706,860	700,028	-0,015	-0,029
-705,845	-200,000	-0,009	0,092
-704,831	88,756	-0,090	0,072
-703,816	-95,541	0,033	0,006
-702,802	98,167	0,088	-0,073
-701,787	800,000	-0,054	-0,157
-700,772	-25,331	-0,079	0,034
-699,758	-144,362	-0,056	0,004
-698,743	501,315	0,037	0,063
-697,729	-200,000	-0,015	0,126
-696,714	800,000	0,038	0,105
-695,699	-92,791	-0,128	-0,026
-694,685	18,708	-0,048	-0,028
-693,670	410,402	-0,042	-0,065
-692,656	-30,768	0,047	-0,019
-691,641	-76,584	0,129	0,033
-690,627	-200,000	-0,001	0,107
-689,612	-200,000	-0,014	-0,174
-688,597	-40,227	0,038	-0,014
-687,583	-92,376	-0,026	0,005
-686,568	24,933	-0,097	-0,058
-685,554	800,000	0,036	-0,092
-684,539	-48,436	-0,082	-0,029
-683,524	68,035	-0,064	0,047
-682,510	289,448	0,037	0,048
-681,495	86,432	-0,008	0,007
-680,481	800,000	-0,066	-0,178
-679,466	-200,000	0,004	-0,026
-678,451	748,259	-0,044	-0,087
-677,437	-200,000	-0,005	-0,135
-676,422	-73,570	-0,025	0,007
-675,408	202,932	0,015	-0,016
-674,393	159,159	-0,045	-0,045
-673,378	334,378	0,018	-0,025
-672,364	800,000	-0,067	-0,137
-671,349	227,426	-0,113	-0,133
-670,335	20,453	-0,017	0,010
-669,320	-200,000	-0,001	-0,028
-668,305	-192,873	0,083	0,001
-667,291	-200,000	-0,004	0,077
-666,276	-1,508	-0,051	-0,026
-665,262	-120,433	-0,121	0,015
-664,247	-200,000	-0,001	-0,010
-663,232	-119,291	0,087	-0,011
-662,218	-16,672	0,046	0,021
-661,203	-48,649	-0,040	0,014
-660,189	-56,956	-0,029	0,009
-659,174	370,996	0,058	-0,085
-658,159	94,478	0,063	-0,052
-657,145	188,642	-0,081	-0,088
-656,130	58,252	0,017	0,012
-655,116	-160,963	-0,181	0,007
-654,101	-33,256	0,095	0,038
-653,086	278,542	-0,044	-0,057
-652,072	800,000	-0,014	-0,036
-651,057	-184,451	0,043	0,000
-650,043	-171,947	-0,098	0,002
-649,028	800,000	0,033	-0,092
-648,014	-73,764	0,103	-0,027
-646,999	-60,603	-0,134	-0,041
-645,984	-170,361	0,092	-0,002
-644,970	150,429	-0,057	0,056
-643,955	-200,000	-0,002	-0,047
-642,941	196,882	-0,075	-0,083
-641,926	-114,928	0,075	-0,010
-640,911	-44,534	-0,076	0,027
-639,897	56,496	-0,041	0,029
-638,882	-200,000	-0,003	0,039
-637,868	30,747	0,131	-0,081
-636,853	800,000	0,065	-0,134
-635,838	-125,524	-0,229	-0,025
-634,824	11,724	0,109	-0,060
-633,809	-200,000	0,021	0,087
-632,795	-21,099	0,139	-0,061
-631,780	-200,000	0,037	0,117
-630,765	-80,905	-0,150	-0,036
-629,751	84,296	-0,146	-0,115
-628,736	-86,536	0,054	0,012
-627,722	337,712	0,056	0,079
-626,707	469,663	0,035	-0,056
-625,692	156,834	-0,086	0,086
-624,678	17,826	-0,031	-0,018
-623,663	56,752	-0,143	0,100
-622,649	104,720	-0,088	0,075
-621,634	117,298	-0,121	-0,107
-620,619	224,344	-0,126	-0,147
-619,605	232,796	0,058	0,069
-618,590	234,550	0,016	0,019
-617,576	87,115	0,101	0,080
-616,561	-200,000	-0,004	0,081
-615,546	-200,000	-0,001	0,080
-614,532	-200,000	0,006	-0,084
-613,517	-79,118	-0,063	0,015
-612,503	-94,559	0,051	0,010
-611,488	378,478	0,040	-0,060
-610,474	274,012	-0,122	-0,156
-609,459	-200,000	0,004	-0,025
-608,444	101,229	-0,132	-0,111
-607,430	39,748	-0,141	-0,091
-606,415	-200,000	0,001	0,005
-605,401	-200,000	0,028	0,137
-604,386	800,000	0,067	-0,187
-603,371	672,632	0,018	0,033
-602,357	800,000	0,078	0,157
-601,342	100,132	-0,123	0,103
-600,328	-113,524	-0,178	-0,025
-599,313	46,290	-0,044	0,029
-598,298	64,321	0,123	-0,089
-597,284	308,316	-0,047	0,064
-596,269	324,836	-0,061	-0,084
-595,255	-200,000	-0,002	-0,008
-594,240	-200,000	-0,009	-0,052
-593,225	-200,000	-0,007	-0,098
-592,211	800,000	-0,025	-0,078
-591,196	-200,000	0,018	-0,072
-590,182	-104,741	0,100	-0,016
-589,167	800,000	0,059	0,135
-588,152	40,533	-0,049	-0,032
-587,138	-93,241	0,067	0,013
-586,123	-64,270	-0,045	0,013
-585,109	-200,000	0,011	-0,073
-584,094	19,070	-0,137	-0,079
-583,079	-191,373	0,123	-0,001
-582,065	800,000	0,014	0,029
-581,050	132,797	-0,084	-0,078
-580,036	-200,000	0,014	0,143
-579,021	800,000	0,015	-0,046
-578,006	-29,110	0,140	0,058
-576,992	-200,000	-0,041	-0,142
-575,977	-89,366	0,078	0,016
-574,963	800,000	0,080	0,162
-573,948	-200,000	-0,001	0,012
-572,934	-200,000	-0,010	0,054
-571,919	-81,948	-0,110	-0,026
-570,904	93,897	0,127	-0,104
-569,890	800,000	-0,039	0,093
-568,875	-77,751	-0,047	-0,012
-567,861	-200,000	0,002	-0,059
-566,846	-62,332	-0,198	-0,059
-565,831	503,953	-0,048	0,080
-564,817	47,088	0,064	-0,043
-563,802	383,741	0,030	-0,045
-562,788	236,916	0,064	-0,076
-561,773	-200,000	-0,028	-0,096
-560,758	308,239	-0,044	0,059
-559,744	-27,350	-0,111	-0,046
-558,729	5,337	0,101	0,053
-557,715	-200,000	0,030	-0,232
-556,700	800,000	0,051	-0,134
-555,685	800,000	-0,054	-0,156
-554,671	702,530	0,018	0,034
-553,656	800,000	-0,043	0,106
-552,642	-200,000	0,014	0,117
-551,627	800,000	0,043	-0,107
-550,612	400,022	-0,008	0,012
-549,598	-97,676	-0,150	-0,028
-548,583	800,000	-0,061	-0,128
-547,569	-147,740	-0,036	0,002
-546,554	-8,231	0,082	0,040
-545,539	800,000	0,053	0,126
-544,525	570,188	-0,050	0,088
-543,510	-123,959	0,105	-0,012
-542,496	-92,910	-0,094	-0,019
-541,481	-200,000	-0,006	0,028
-540,466	-200,000	0,001	-0,015
-539,452	-81,438	0,109	-0,026
-538,437	283,274	0,066	0,085
-537,423	-32,705	0,087	0,035
-536,408	31,815	0,075	-0,046
-535,393	124,176	0,057	-0,052
-534,379	800,000	-0,025	0,066
-533,364	127,764	0,148	0,135
-532,350	-200,000	0,023	0,095
-531,335	-200,000	0,004	0,021
-530,321	-55,256	0,112	-0,036
-529,306	67,706	-0,057	0,042
-528,291	-200,000	-0,024	-0,107
-527,277	-35,767	0,108	0,042
-526,262	279,833	0,071	0,091
-525,248	-200,000	-0,032	0,170
-524,233	108,135	-0,060	-0,051
-523,218	800,000	0,028	0,083
-522,204	-60,782	0,049	-0,015
-521,189	800,000	-0,041	0,089
-520,175	-129,542	-0,176	-0,017
-519,160	688,479	-0,020	-0,037
-518,145	-42,149	0,064	0,023
-517,131	800,000	0,040	0,093
-516,116	-200,000	0,038	0,190
-515,102	-200,000	-0,019	0,077
-514,087	-144,811	0,161	0,010
-513,072	352,967	-0,029	-0,042
-512,058	-106,826	-0,033	0,005
-511,043	-98,110	-0,075	0,014
-510,029	475,396	-0,081	0,131
-509,014	455,819	-0,041	-0,065
-507,999	11,604	0,021	0,012
-506,985	70,659	-0,158	0,117
-505,970	658,845	-0,029	0,053
-504,956	-26,950	-0,057	0,024
-503,941	222,218	0,014	-0,016
-502,926	800,000	0,029	0,091
-501,912	-55,983	-0,123	-0,039
-500,897	52,249	0,023	0,015
-499,883	-200,000	-0,049	0,224
-498,868	-200,000	-0,017	-0,120
-497,853	800,000	-0,066	-0,140
-496,839	-200,000	-0,004	-0,130
-495,824	222,198	0,059	0,068
-494,810	558,353	0,027	0,048
-493,795	-200,000	-0,001	-0,034
-492,781	164,080	-0,127	0,129
-491,766	800,000	0,006	-0,015
-490,751	-200,000	0,009	-0,059
-489,737	59,603	-0,032	0,022
-488,722	130,498	0,064	-0,058
-487,708	-66,659	0,028	-0,008
-486,693	-43,327	-0,061	-0,022
-485,678	-200,000	0,003	-0,055
-484,664	-87,347	-0,168	-0,036
-483,649	54,783	0,071	0,049
-482,635	-48,996	-0,026	0,009
-481,620	72,916	-0,072	0,054
-480,605	-3,250	0,078	0,039
-479,591	-200,000	0,003	-0,119
-478,576	-120,174	-0,068	0,008
-477,562	800,000	-0,068	-0,144
-476,547	12,566	-0,116	-0,064
-475,532	800,000	0,014	-0,035
-474,518	-155,608	0,125	-0,006
-473,503	-37,252	0,073	-0,028
-472,489	280,973	0,112	0,145
-471,474	-100,231	0,143	-0,025
-470,459	189,443	-0,103	-0,111
-469,445	195,468	-0,050	0,055
-468,430	800,000	0,060	0,131
-467,416	-81,525	0,060	0,014
-466,401	761,738	-0,037	-0,072
-465,386	-26,860	0,147	-0,061
-464,372	-200,000	-0,030	0,098
-463,357	-157,409	-0,145	0,006
-462,343	39,826	0,047	-0,030
-461,328	800,000	0,048	-0,141
-460,313	800,000	-0,006	0,019
-459,299	-200,000	0,074	0,000
-458,284	-144,971	0,073	-0,005
-457,270	-200,000	-0,029	0,111
-456,255	234,519	-0,011	0,013
-455,241	292,593	-0,069	-0,090
-454,226	164,292	-0,060	0,060
-453,211	564,600	0,072	-0,125
-452,197	-50,565	-0,080	-0,027
-451,182	697,079	0,048	0,090
-450,168	-200,000	-0,003	-0,046
-449,153	800,000	-0,043	0,085
-448,138	432,227	0,075	0,116
-447,124	-23,216	0,002	0,001
-446,109	103,073	0,044	0,037
-445,095	359,755	-0,025	-0,036
-444,080	-128,095	0,067	0,007
-443,065	668,062	0,038	-0,070
-442,051	800,000	0,036	-0,082
-441,036	-155,031	0,079	0,004
-440,022	-200,000	0,005	-0,178
-439,007	-200,000	-0,006	-0,080
-437,992	74,532	0,105	0,079
-436,978	577,465	0,047	-0,082
-435,963	-200,000	0,015	0,206
-434,949	167,438	-0,083	0,085
-433,934	30,039	0,130	-0,079
-432,919	-15,986	-0,050	0,023
-431,905	43,548	0,004	0,002
-430,890	546,950	-0,043	0,075
-429,876	-38,261	0,065	-0,025
-428,861	-200,000	0,011	0,066
-427,846	800,000	0,028	-0,088
-426,832	-135,045	-0,094	-0,008
-425,817	130,685	-0,151	0,138
-424,803	-101,671	0,121	0,021
-423,788	-200,000	0,010	0,157
-422,773	364,757	0,034	-0,050
-421,759	800,000	-0,012	-0,034
-420,744	660,212	0,049	0,091
-419,730	-1,315	-0,121	-0,061
-418,715	-200,000	-0,009	-0,151
-417,701	35,972	-0,056	-0,035
-416,686	-29,899	0,035	0,014
-415,671	-200,000	0,028	0,128
-414,657	800,000	-0,026	0,078
-413,642	-200,000	-0,023	0,134
-412,628	-200,000	-0,037	-0,145
-411,613	-200,000	-0,041	-0,145
-410,598	800,000	-0,051	0,133
-409,584	-200,000	-0,002	-0,007
-408,569	785,000	0,063	0,123
-407,555	712,107	0,014	0,026
-406,540	48,559	-0,073	0,049
-405,525	661,372	-0,023	-0,042
-404,511	-51,522	-0,127	-0,042
-403,496	1,659	-0,238	0,122
-402,482	102,773	-0,041	-0,035
-401,467	662,404	-0,017	-0,032
-400,452	3,096	-0,087	-0,045
-399,438	128,738	-0,017	0,016
-398,423	665,286	-0,033	-0,061
-397,409	-200,000	0,040	-0,136
-396,394	-200,000	-0,008	-0,094
-395,379	-68,343	-0,127	-0,035
-394,365	-192,498	0,069	-0,000
-393,350	327,826	0,102	0,141
-392,336	-3,714	-0,037	-0,018
-391,321	-200,000	0,007	0,037
-390,306	54,470	-0,070	-0,048
-389,292	790,303	-0,073	-0,144
-388,277	-116,122	0,065	0,009
-387,263	90,826	0,019	0,016
-386,248	260,911	0,098	0,122
-385,233	-105,780	-0,144	0,023
-384,219	800,000	0,011	-0,033
-383,204	91,107	-0,044	-0,035
-382,190	-200,000	-0,011	0,072
-381,175	-200,000	-0,024	0,114
-380,160	800,000	0,078	0,184
-379,146	-200,000	0,016	0,065
-378,131	800,000	0,017	0,050
-377,117	-15,698	-0,095	0,043
-376,102	66,878	0,097	-0,071
-375,088	-200,000	0,003	-0,119
-374,073	218,525	0,130	-0,148
-373,058	632,720	-0,032	0,059
-372,044	-120,656	0,081	0,010
-371,029	-50,499	0,038	-0,013
-370,015	348,426	-0,039	0,054
-369,000	311,689	0,070	-0,094
-367,985	58,684	0,101	-0,071
-366,971	-78,873	0,078	-0,019
-365,956	-155,730	-0,048	0,002
-364,942	667,752	0,053	0,097
-363,927	800,000	0,036	-0,076
-362,912	-200,000	0,010	0,046
-361,898	-200,000	0,015	0,069
-360,883	800,000	-0,069	-0,201
-359,869	327,757	-0,048	-0,066
-358,854	-40,113	0,120	0,045
-357,839	800,000	0,046	0,136
-356,825	-84,530	0,104	-0,023
-355,810	-187,720	0,140	0,001
-354,796	-200,000	0,001	-0,069
-353,781	-36,042	-0,097	0,037
-352,766	-200,000	-0,002	0,031
-351,752	-200,000	-0,000	-0,042
-350,737	90,416	0,032	0,025
-349,723	-127,743	-0,132	-0,013
-348,708	161,854	0,017	0,017
-347,693	8,054	-0,122	-0,065
-346,679	63,433	-0,066	-0,047
-345,664	-200,000	-0,005	-0,277
-344,650	-91,383	0,081	0,016
-343,635	14,935	-0,071	-0,039
-342,620	-115,320	-0,174	0,023
-341,606	-17,738	0,160	0,072
-340,591	2,351	0,057	-0,029
-339,577	-62,511	0,018	0,005
-338,562	104,103	0,053	-0,044
-337,548	36,186	0,035	-0,022
-336,533	96,689	0,054	-0,044
-335,518	-69,614	0,179	0,049
-334,504	-73,291	-0,048	-0,012
-333,489	800,000	0,024	-0,053
-332,475	192,318	-0,104	-0,112
-331,460	800,000	-0,058	-0,140
-330,445	31,864	0,114	0,070
-329,431	-159,263	-0,060	0,002
-328,416	-32,856	0,137	0,054
-327,402	237,950	-0,090	-0,106
-326,387	-99,259	0,066	-0,012
-325,372	269,683	-0,012	-0,015
-324,358	-200,000	0,004	-0,068
-323,343	150,627	-0,044	-0,043
-322,329	462,754	-0,012	0,020
-321,314	-56,542	0,103	-0,033
-320,299	73,251	-0,103	-0,076
-319,285	-200,000	-0,027	-0,127
-318,270	-131,888	-0,124	0,011
-317,256	-53,817	0,186	-0,060
-316,241	70,954	-0,073	-0,054
-315,226	65,623	-0,100	-0,072
-314,212	54,597	-0,039	-0,027
-313,197	-48,681	0,122	0,042
-312,183	800,000	0,035	0,109
-311,168	-200,000	-0,008	0,091
-310,153	-200,000	0,004	-0,019
-309,139	800,000	-0,018	0,041
-308,124	40,032	0,079	-0,051
-307,110	-200,000	0,004	0,035
-306,095	58,027	0,094	-0,066
-305,080	351,605	-0,092	0,130
-304,066	-42,295	-0,065	-0,024
-303,051	-76,038	-0,089	0,022
-302,037	-200,000	0,012	-0,056
-301,022	-21,562	0,059	0,025
-300,008	274,250	-0,021	0,026
-298,993	-41,343	0,097	-0,036
-297,978	-173,264	0,125	0,003
-296,964	94,435	0,058	0,047
-295,949	800,000	0,024	-0,072
-294,935	3,900	-0,082	-0,042
-293,920	-200,000	0,015	0,063
-292,905	58,743	0,173	0,121
-291,891	186,106	0,120	0,127
-290,876	79,228	0,103	-0,079
-289,862	-200,000	-0,004	0,082
-288,847	215,283	-0,181	-0,205
-287,832	-25,050	-0,110	-0,046
-286,818	368,735	0,023	0,033
-285,803	-81,428	0,211	-0,049
-284,789	-158,380	-0,149	0,006
-283,774	-17,981	0,071	0,032
-282,759	45,583	-0,088	-0,058
-281,745	-9,003	-0,036	-0,017
-280,730	-55,731	0,006	0,002
-279,716	-137,245	-0,144	-0,011
-278,701	158,828	0,047	0,046
-277,686	-128,676	-0,043	-0,004
-276,672	680,890	0,030	-0,055
-275,657	-200,000	-0,004	0,017
-274,643	249,278	0,031	-0,037
-273,628	-27,417	0,071	0,029
-272,613	-200,000	-0,042	-0,140
-271,599	606,425	0,068	0,121
-270,584	800,000	0,026	0,070
-269,570	-86,944	0,091	0,020
-268,555	-200,000	0,015	-0,110
-267,540	-200,000	0,007	-0,084
-266,526	568,388	-0,080	-0,139
-265,511	-200,000	-0,016	-0,123
-264,497	-100,242	0,056	-0,010
-263,482	-27,557	-0,071	0,029
-262,467	800,000	0,064	0,131
-261,453	-58,136	0,148	0,046
-260,438	800,000	0,017	-0,036
-259,424	703,674	0,038	0,071
-258,409	-18,719	-0,100	0,044
-257,395	-125,831	0,020	-0,002
-256,380	-200,000	0,025	0,184
-255,365	589,141	0,055	-0,096
-254,351	-200,000	0,035	0,199
-253,336	-200,000	-0,042	0,174
-252,322	-76,246	0,112	-0,028
-251,307	75,268	-0,126	0,095
-250,292	800,000	0,033	0,091
-249,278	-25,397	0,084	-0,035
-248,263	160,464	-0,056	0,056
-247,249	800,000	-0,101	0,276
-246,234	591,776	-0,058	0,103
-245,219	219,259	-0,027	-0,031
-244,205	146,658	-0,170	-0,162
-243,190	800,000	0,001	0,004
-242,176	-200,000	-0,013	-0,092
-241,161	-200,000	0,035	0,203
-240,146	4,122	0,096	-0,050
-239,132	63,372	-0,055	-0,039
-238,117	-53,879	-0,080	0,026
-237,103	-200,000	-0,015	0,164
-236,088	137,012	-0,095	-0,088
-235,073	264,717	-0,047	-0,058
-234,059	569,623	0,015	0,025
-233,044	-200,000	-0,004	-0,059
-232,030	-200,000	-0,027	0,088
-231,015	-200,000	0,002	-0,063
-230,000	800,000	-0,047	-0,139
-228,986	-200,000	-0,019	-0,062
-227,971	104,461	-0,062	0,052
-226,957	-21,820	0,045	0,019
-225,942	75,656	0,057	0,043
-224,927	139,731	0,041	-0,038
-223,913	-200,000	-0,026	-0,099
-222,898	620,104	0,007	-0,013
-221,884	-9,399	-0,142	-0,067
-220,869	115,533	0,100	-0,087
-219,855	195,047	0,121	0,131
-218,840	-200,000	0,007	0,041
-217,825	16,237	-0,023	-0,013
-216,811	124,734	-0,070	-0,063
-215,796	-37,815	0,058	-0,022
-214,782	-200,000	-0,012	-0,162
-213,767	-123,102	0,245	0,028
-212,752	-200,000	0,001	0,084
-211,738	-5,917	-0,044	0,021
-210,723	-200,000	0,007	0,038
-209,709	5,657	-0,135	-0,070
-208,694	44,343	-0,111	-0,072
-207,679	-200,000	-0,043	0,169
-206,665	-200,000	0,012	-0,129
-205,650	800,000	-0,011	0,025
-204,636	-79,599	0,110	0,026
-203,621	15,743	-0,102	-0,057
-202,606	800,000	0,034	0,076
-201,592	16,261	0,072	0,040
-200,577	739,467	0,032	-0,061
-199,563	208,981	-0,038	0,042
-198,548	595,969	0,081	-0,143
-197,533	-65,745	0,112	-0,032
-196,519	21,008	-0,182	0,104
-195,504	-21,285	-0,163	-0,070
-194,490	258,934	0,070	-0,086
-193,475	-25,308	-0,131	-0,055
-192,460	-200,000	-0,011	0,069
-191,446	-38,582	0,027	-0,010
-190,431	161,671	0,086	-0,086
-189,417	-31,358	0,108	-0,043
-188,402	-98,654	0,159	0,028
-187,387	274,635	0,068	0,086
-186,373	-200,000	0,022	-0,093
-185,358	800,000	0,035	-0,074
-184,344	-200,000	-0,029	-0,101
-183,329	354,320	0,036	0,050
-182,315	380,663	0,026	0,037
-181,300	64,097	0,052	0,037
-180,285	-200,000	-0,024	-0,082
-179,271	-29,376	-0,143	0,058
-178,256	29,631	0,072	-0,043
-177,242	-42,544	0,101	-0,036
-176,227	800,000	0,068	0,184
-175,212	-200,000	-0,039	0,127
-174,198	-200,000	0,002	0,093
-173,183	117,105	-0,103	0,090
-172,169	32,244	-0,087	0,053
-171,154	-144,704	-0,081	0,005
-170,139	-117,176	0,096	0,012
-169,125	-200,000	0,047	-0,153
-168,110	-200,000	0,005	0,018
-167,096	-78,633	-0,079	-0,019
-166,081	374,299	-0,047	-0,068
-165,066	-200,000	-0,027	0,097
-164,052	800,000	0,031	0,078
-163,037	502,845	0,041	0,067
-162,023	467,618	0,058	0,093
-161,008	348,661	-0,072	0,100
-159,993	-200,000	0,017	0,163
-158,979	79,739	-0,115	-0,087
-157,964	734,092	0,033	-0,062
-156,950	800,000	0,030	-0,068
-155,935	800,000	0,050	0,150
-154,920	-42,479	0,035	0,013
-153,906	800,000	-0,045	0,097
-152,891	376,998	0,051	0,074
-151,877	67,839	0,043	-0,031
-150,862	26,242	-0,089	-0,053
-149,847	-200,000	0,003	0,125
-148,833	448,476	0,063	-0,098
-147,818	315,150	0,061	0,082
-146,804	800,000	0,058	0,128
-145,789	-32,444	-0,016	0,006
-144,775	-200,000	-0,005	-0,136
-143,760	800,000	-0,039	0,108
-142,745	-200,000	-0,004	0,032
-141,731	119,536	0,036	0,031
-140,716	252,918	0,015	0,018
-139,702	414,332	0,095	0,144
-138,687	-200,000	-0,006	0,036
-137,672	-200,000	-0,021	0,119
-136,658	209,641	-0,024	0,027
-135,643	-95,290	-0,051	-0,010
-134,629	226,304	-0,050	0,057
-133,614	145,939	-0,092	-0,088
-132,599	-61,766	0,143	0,042
-131,585	-44,798	0,056	-0,020
-130,570	134,188	-0,062	0,057
-129,556	-46,736	-0,268	-0,092
-128,541	307,781	0,117	-0,155
-127,526	-190,602	-0,066	0,000
-126,512	157,171	-0,119	0,117
-125,497	100,016	0,110	0,090
-124,483	40,043	0,055	0,035
-123,468	-43,092	-0,100	-0,036
-122,453	268,374	0,027	-0,034
-121,439	800,000	-0,053	-0,126
-120,424	-200,000	-0,034	-0,124
-119,410	-70,877	-0,074	0,020
-118,395	-200,000	0,026	-0,138
-117,380	-142,775	-0,093	0,006
-116,366	-110,890	0,024	0,003
-115,351	457,501	-0,009	0,014
-114,337	647,860	-0,041	-0,075
-113,322	237,209	-0,110	-0,130
-112,307	-200,000	0,017	0,131
-111,293	-200,000	-0,031	0,136
-110,278	57,059	-0,091	0,063
-109,264	-142,956	0,041	0,003
-108,249	89,995	-0,075	-0,059
-107,234	178,148	0,105	-0,108
-106,220	-102,103	0,122	-0,021
-105,205	800,000	0,063	0,154
-104,191	-20,242	0,123	-0,053
-103,176	-121,196	0,114	-0,013
-102,162	206,409	-0,030	-0,033
-101,147	800,000	-0,021	0,041
-100,132	-200,000	0,002	-0,094
-99,118	394,450	0,042	0,062
-98,103	-200,000	0,001	0,053
-97,089	1,384	0,037	-0,019
-96,074	298,135	0,037	-0,049
-95,059	-20,811	-0,073	0,031
-94,045	326,589	0,069	-0,093
-93,030	800,000	-0,054	0,166
-92,016	-200,000	-0,008	-0,030
-91,001	-84,597	-0,098	0,022
-89,986	-11,704	0,103	0,047
-88,972	74,959	0,128	0,095
-87,957	-200,000	0,008	0,136
-86,943	163,144	0,067	-0,067
-85,928	405,742	0,090	-0,135
-84,913	268,236	-0,113	-0,140
-83,899	800,000	0,024	0,052
-82,884	800,000	0,050	-0,121
-81,870	89,307	0,082	-0,064
-80,855	-83,763	0,056	0,013
-79,840	-155,854	0,075	0,003
-78,826	0,832	-0,108	0,055
-77,811	-86,561	0,124	0,027
-76,797	548,698	0,057	0,098
-75,782	-200,000	0,016	0,112
-74,767	38,807	0,043	0,027
-73,753	686,939	0,023	-0,042
-72,738	168,011	-0,059	0,059
-71,724	176,583	-0,084	0,086
-70,709	248,835	0,074	-0,089
-69,694	-149,977	-0,080	-0,004
-68,680	489,752	-0,041	0,067
-67,665	25,903	0,036	-0,021
-66,651	-137,241	0,054	0,004
-65,636	800,000	0,022	-0,070
-64,622	800,000	-0,030	-0,081
-63,607	-150,475	-0,172	0,009
-62,592	102,761	-0,066	0,055
-61,578	322,654	-0,152	0,205
-60,563	800,000	0,038	-0,106
-59,549	452,079	0,050	0,078
-58,534	67,420	-2,090	-1,503
-57,519	646,650	-1,082	-1,959
-56,505	-200,000	-0,315	-4,307
-55,490	800,000	0,888	1,794
-54,476	800,000	5,219	11,128
-53,461	-200,000	22,092	342,069
-52,446	800,000	757,007	2299,925
-51,432	535,257	1647,005	2766,925
-50,417	68,723	1645,112	1189,915
-49,403	16,122	1520,748	843,429
-48,388	10,299	1445,533	773,761
-47,373	19,164	1438,028	811,941
-46,359	13,777	1426,500	779,983
-45,344	8,581	1422,447	753,176
-44,330	8,590	1420,522	752,173
-43,315	8,530	1418,868	750,980
-42,300	8,513	1417,235	750,008
-41,286	8,553	1415,927	749,472
-40,271	8,496	1414,570	748,456
-39,257	8,521	1413,359	747,906
-38,242	8,578	1412,306	747,587
-37,227	8,557	1411,310	746,931
-36,213	8,526	1410,008	746,066
-35,198	8,538	1408,820	745,466
-34,184	8,545	1408,023	745,045
-33,169	8,492	1406,338	743,875
-32,154	8,534	1405,578	743,642
-31,140	8,515	1404,231	742,813
-30,125	8,583	1402,891	742,390
-29,111	8,499	1401,776	741,379
-28,096	8,544	1400,739	741,009
-27,082	8,475	1399,482	739,995
-26,067	8,431	1398,357	739,168
-25,052	8,491	1397,463	738,942
-24,038	8,467	1396,448	738,265
-23,023	8,450	1395,647	737,734
-22,009	8,449	1394,323	737,000
-20,994	8,479	1393,302	736,571
-19,979	8,477	1392,327	736,016
-18,965	8,439	1391,508	735,379
-17,950	8,444	1390,251	734,706
-16,936	8,396	1389,734	734,182
-15,921	8,345	1388,626	733,333
-14,906	8,364	1387,881	733,001
-13,892	8,420	1386,628	732,566
-12,877	8,378	1386,075	732,052
-11,863	8,389	1385,312	731,672
-10,848	8,373	1384,445	731,108
-9,833	8,339	1383,385	730,363
-8,819	8,321	1382,479	729,775
-7,804	8,297	1381,482	729,109
-6,790	8,288	1380,610	728,580
-5,775	8,272	1379,528	727,906
-4,760	8,341	1378,608	727,708
-3,746	8,379	1377,625	727,334
-2,731	8,301	1376,785	726,504
-1,717	8,313	1376,056	726,145
-0,702	8,322	1374,227	725,193
0,313	12,348	1285,823	696,777
1,327	28,058	679,076	403,086
2,342	43,737	116,673	75,167
3,356	-1,300	16,527	8,201
4,371	-0,449	3,794	1,893
5,386	1,877	1,355	0,687
6,400	397,011	0,373	0,551
7,415	92,522	-0,172	-0,137
8,429	-45,245	-0,335	-0,117
9,444	271,330	-0,259	-0,322
10,459	-22,896	-0,280	-0,119
11,473	100,929	-0,226	-0,185
12,488	-37,298	-0,082	0,031
13,502	59,542	-0,282	-0,196
14,517	43,627	-0,230	-0,148
15,531	114,517	-0,269	-0,231
16,546	31,299	-0,270	-0,163
17,561	-21,383	-0,479	-0,205
18,575	170,197	-0,288	-0,291
19,590	668,746	-0,142	-0,261
20,604	800,000	-0,070	-0,172
21,619	113,533	-0,402	-0,343
22,634	39,522	-0,413	-0,260
23,648	102,414	-0,385	-0,317
24,663	137,507	-0,347	-0,319
25,677	753,240	-0,186	-0,356
26,692	53,249	-0,369	-0,248
27,707	-24,520	-0,349	-0,145
28,721	126,539	-0,372	-0,331
29,736	158,003	-0,351	-0,343
30,750	252,786	-0,318	-0,382
31,765	79,861	-0,474	-0,358
32,780	-3,527	-0,466	-0,227
33,794	36,538	-0,251	-0,155
34,809	153,020	-0,261	-0,252
35,823	-28,426	-0,335	-0,135
36,838	-46,657	-0,432	-0,148
37,853	-38,417	-0,484	-0,179
38,867	-73,142	-0,466	-0,119
39,882	21,653	-0,256	-0,146
40,896	65,535	-0,202	-0,144
41,911	92,395	-0,321	-0,254
42,926	-45,382	-0,360	-0,125
43,940	237,156	-0,329	-0,383
44,955	87,300	-0,384	-0,298
45,969	17,482	-0,396	-0,220
46,984	-24,307	-0,313	-0,131
47,999	298,094	-0,203	-0,262
49,013	-13,678	-0,231	-0,105
50,028	71,019	-0,333	-0,242
51,042	444,208	-0,247	-0,382
52,057	80,928	-0,402	-0,304
53,071	85,070	-0,353	-0,272
54,086	165,641	-0,449	-0,446
55,101	-5,374	-0,425	-0,204
56,115	-33,240	-0,377	-0,146
57,130	20,798	-0,327	-0,186
58,144	45,360	-0,371	-0,240
59,159	62,233	-0,419	-0,293
60,174	44,438	-0,396	-0,255
61,188	29,478	-0,322	-0,192
62,203	-82,577	-0,300	-0,068
63,217	-90,312	-0,278	-0,056
64,232	51,935	-0,365	-0,244
65,247	-63,945	-0,434	-0,124
66,261	26,439	-0,408	-0,239
67,276	65,562	-0,383	-0,271
68,290	-57,690	-0,324	-0,099
69,305	56,418	-0,341	-0,232
70,320	-29,876	-0,352	-0,140
71,334	-19,013	-0,359	-0,156
72,349	117,698	-0,345	-0,297
73,363	-16,539	-0,392	-0,173
74,378	-24,609	-0,275	-0,114
75,393	557,333	-0,130	-0,220
76,407	-33,470	-0,280	-0,108
77,422	-161,006	-0,295	-0,011
78,436	-66,498	-0,241	-0,067
79,451	-15,229	-0,288	-0,129
80,466	61,181	-0,277	-0,193
81,480	212,687	-0,297	-0,329
82,495	-102,722	-0,312	-0,052
83,509	141,769	-0,215	-0,199
84,524	-94,024	-0,095	-0,018
85,539	85,271	-0,283	-0,217
86,553	90,930	-0,276	-0,216
87,568	423,482	-0,260	-0,393
88,582	243,684	-0,235	-0,277
89,597	44,904	-0,314	-0,202
90,611	57,152	-0,248	-0,169
91,626	43,234	-0,304	-0,194
92,641	-74,527	-0,315	-0,079
93,655	51,922	-0,219	-0,145
94,670	6,018	-0,313	-0,162
95,684	392,773	-0,076	-0,111
96,699	-34,285	-0,304	-0,116
97,714	-3,536	-0,306	-0,148
98,728	-9,703	-0,330	-0,153
99,743	113,491	-0,192	-0,163
100,757	313,074	-0,167	-0,220
101,772	-4,872	-0,388	-0,186
102,787	39,842	-0,361	-0,226
103,801	160,992	-0,392	-0,383
104,816	-34,325	-0,236	-0,090
105,830	-63,248	-0,284	-0,081
106,845	-92,032	-0,215	-0,042
107,860	235,245	-0,185	-0,214
108,874	89,336	-0,219	-0,170
109,889	39,469	-0,250	-0,156
110,903	-10,899	-0,149	-0,069
111,918	43,323	-0,226	-0,144
112,933	800,000	-0,112	-0,242
113,947	-119,536	-0,269	-0,032
114,962	103,266	-0,320	-0,262
115,976	99,133	-0,164	-0,133
116,991	-5,321	-0,344	-0,164
118,006	5,482	-0,369	-0,189
119,020	5,247	-0,289	-0,148
120,035	548,656	-0,115	-0,193
121,049	-110,997	-0,248	0,035
122,064	-134,736	-0,291	0,024
123,079	65,211	-0,196	-0,138
124,093	-24,945	-0,232	-0,096
125,108	41,522	-0,187	-0,118
126,122	128,821	-0,298	-0,265
127,137	193,823	-0,159	-0,168
128,151	401,088	-0,199	-0,291
129,166	54,640	-0,210	-0,141
130,181	-98,263	-0,298	-0,053
131,195	111,834	-0,260	-0,219
132,210	-2,754	-0,273	-0,132
133,224	65,165	-0,240	-0,169
134,239	242,485	-0,194	-0,226
135,254	1,331	-0,212	-0,106
136,268	153,510	-0,215	-0,206
137,283	151,059	-0,231	-0,220
138,297	-48,437	-0,324	-0,108
139,312	26,718	-0,301	-0,175
140,327	58,014	-0,227	-0,155
141,341	97,000	-0,223	-0,178
142,356	800,000	-0,131	-0,370
143,370	320,861	-0,152	-0,201
144,385	556,991	-0,154	-0,259
145,400	229,612	-0,224	-0,256
146,414	-5,605	-0,235	-0,112
147,429	-134,342	-0,217	-0,018
148,443	-46,360	-0,317	-0,108
149,458	-181,162	-0,193	-0,003
150,473	-19,612	-0,212	-0,091
151,487	-26,568	-0,233	-0,095
152,502	82,937	-0,319	-0,241
153,516	23,213	-0,352	-0,201
154,531	-11,232	-0,267	-0,122
155,546	176,867	-0,217	-0,220
156,560	-8,002	-0,214	-0,100
157,575	112,860	-0,249	-0,210
158,589	0,470	-0,262	-0,130
159,604	13,286	-0,179	-0,096
160,619	156,400	-0,285	-0,273
161,633	800,000	-0,112	-0,248
162,648	116,945	-0,191	-0,163
163,662	797,468	-0,106	-0,203
164,677	-62,762	-0,248	-0,071
165,692	75,948	-0,256	-0,188
166,706	-32,231	-0,263	-0,102
167,721	-26,322	-0,212	-0,086
168,735	-12,380	-0,324	-0,146
169,750	51,006	-0,221	-0,145
170,764	-200,000	0,025	-0,190
171,779	53,480	-0,193	-0,129
172,794	494,389	-0,226	-0,362
173,808	326,440	-0,133	-0,178
174,823	135,295	-0,258	-0,233
175,837	425,791	-0,166	-0,250
176,852	-62,296	-0,368	-0,106
177,867	-54,352	-0,115	0,036
178,881	74,307	-0,243	-0,177
179,896	-140,623	-0,216	-0,015
180,910	-38,055	-0,307	-0,113
181,925	193,899	-0,197	-0,207
182,940	-40,245	-0,332	-0,119
183,954	282,795	-0,169	-0,211
184,969	-180,220	-0,141	0,002
185,983	176,836	-0,186	-0,188
186,998	-70,358	-0,294	-0,077
188,013	48,752	-0,215	-0,140
189,027	263,238	-0,191	-0,230
190,042	23,157	-0,273	-0,155
191,056	100,228	-0,213	-0,171
192,071	115,527	-0,194	-0,164
193,086	-180,589	-0,252	-0,004
194,100	91,479	-0,241	-0,187
195,115	800,000	-0,085	-0,180
196,129	116,315	-0,287	-0,244
197,144	-87,565	-0,155	-0,032
198,159	800,000	-0,166	-0,368
199,173	164,262	-0,221	-0,216
200,188	34,550	-0,226	-0,137
201,202	-10,565	-0,167	-0,076
202,217	-132,080	-0,283	-0,025
203,232	50,865	-0,323	-0,211
204,246	59,142	-0,214	-0,146
205,261	800,000	-0,090	-0,209
206,275	111,849	-0,123	-0,103
207,290	-183,297	-0,196	-0,002
208,304	109,184	-0,098	-0,081
209,319	67,203	-0,189	-0,133
210,334	144,611	-0,176	-0,163
211,348	360,148	-0,196	-0,272
212,363	-107,206	-0,189	0,028
213,377	308,901	-0,151	-0,196
214,392	216,387	-0,102	-0,113
215,407	67,556	-0,192	-0,135
216,421	24,528	-0,345	-0,197
217,436	-55,010	-0,241	-0,075
218,450	-16,025	-0,199	-0,087
219,465	94,930	-0,185	-0,146
220,480	158,731	-0,230	-0,221
221,494	78,618	-0,264	-0,195
222,509	-82,829	-0,189	-0,042
223,523	800,000	-0,113	-0,248
224,538	39,389	-0,198	-0,122
225,553	-4,618	-0,183	-0,087
226,567	295,662	-0,147	-0,187
227,582	-14,113	-0,275	-0,122
228,596	-55,536	-0,244	-0,075
229,611	116,666	-0,150	-0,128
230,626	377,129	-0,101	-0,143
231,640	56,928	-0,192	-0,129
232,655	-49,097	-0,236	-0,078
233,669	462,977	-0,144	-0,223
234,684	-105,669	-0,164	-0,025
235,699	-158,933	-0,278	-0,011
236,713	-19,981	-0,222	-0,094
237,728	102,184	-0,186	-0,150
238,742	-57,214	-0,163	-0,049
239,757	61,206	-0,215	-0,147
240,772	64,292	-0,335	-0,232
241,786	448,670	-0,183	-0,280
242,801	68,895	-0,179	-0,126
243,815	-87,789	-0,263	-0,054
244,830	-157,503	-0,191	-0,008
245,844	-55,833	-0,225	-0,069
246,859	102,303	-0,228	-0,184
247,874	144,914	-0,149	-0,137
248,888	125,984	-0,141	-0,123
249,903	800,000	-0,068	-0,184
250,917	72,380	-0,147	-0,106
251,932	133,662	-0,104	-0,093
252,947	-61,513	-0,124	-0,036
253,961	-10,872	-0,040	-0,018
254,976	180,541	-0,162	-0,164
255,990	800,000	-0,068	-0,178
257,005	307,547	-0,183	-0,235
258,020	70,302	-0,199	-0,141
259,034	-200,000	-0,058	-0,238
260,049	18,568	-0,129	-0,071
261,063	800,000	-0,091	-0,230
262,078	-2,070	-0,283	-0,137
263,093	62,508	-0,132	-0,091
264,107	-43,857	-0,202	-0,070
265,122	100,749	-0,116	-0,093
266,136	202,744	-0,217	-0,231
267,151	305,380	-0,088	-0,113
268,166	800,000	-0,088	-0,232
269,180	122,339	-0,189	-0,163
270,195	40,637	-0,235	-0,146
271,209	263,383	-0,160	-0,192
272,224	61,946	-0,189	-0,129
273,239	-139,125	-0,112	-0,008
274,253	-109,756	-0,068	-0,010
275,268	800,000	-0,071	-0,169
276,282	29,136	-0,210	-0,122
277,297	377,283	-0,117	-0,164
278,312	800,000	-0,084	-0,193
279,326	237,959	-0,104	-0,118
280,341	121,480	-0,167	-0,143
281,355	-200,000	-0,039	-0,256
282,370	205,556	-0,200	-0,214
283,384	270,957	-0,154	-0,186
284,399	165,439	-0,229	-0,223
285,414	31,112	-0,134	-0,079
286,428	-100,959	-0,141	-0,024
287,443	-35,294	-0,182	-0,068
288,457	-12,343	-0,097	-0,044
289,472	-14,196	-0,194	-0,086
290,487	-120,986	-0,130	-0,015
291,501	82,219	-0,182	-0,135
292,516	612,245	-0,163	-0,282
293,530	52,104	-0,238	-0,156
294,545	14,823	-0,090	-0,048
295,560	-1,816	-0,146	-0,070
296,574	272,805	-0,092	-0,111
297,589	569,442	-0,081	-0,136
298,603	114,373	-0,266	-0,223
299,618	163,101	-0,209	-0,202
300,633	46,661	-0,090	-0,058
301,647	-65,074	-0,125	-0,034
302,662	67,346	-0,106	-0,074
303,676	-122,505	-0,162	-0,018
304,691	-19,634	-0,125	-0,053
305,706	-31,649	-0,207	-0,079
306,720	-129,431	-0,300	0,028
307,735	-85,391	-0,175	-0,037
308,749	26,832	-0,129	-0,074
309,764	-45,197	-0,129	-0,044
310,779	23,517	-0,128	-0,072
311,793	-140,331	-0,165	-0,012
312,808	40,974	-0,093	0,057
313,822	-1,191	-0,193	-0,093
314,837	-62,609	-0,080	-0,023
315,852	389,435	-0,055	-0,078
316,866	303,784	-0,109	-0,139
317,881	146,164	-0,097	-0,089
318,895	-110,927	-0,199	-0,028
319,910	-115,216	-0,297	-0,038
320,925	142,452	-0,150	-0,137
321,939	77,490	-0,155	-0,113
322,954	-119,458	-0,192	0,023
323,968	-113,940	-0,108	-0,014
324,983	86,437	-0,099	-0,075
325,997	163,807	-0,153	-0,147
327,012	-144,330	-0,051	-0,003
328,027	800,000	-0,076	-0,187
329,041	-181,968	-0,064	0,001
330,056	-96,860	-0,094	-0,017
331,070	-129,103	-0,079	0,008
332,085	-182,640	-0,079	0,001
333,100	-200,000	-0,023	-0,073
334,114	482,635	-0,070	-0,110
335,129	454,886	-0,055	-0,084
336,143	18,179	-0,105	-0,057
337,158	195,959	-0,070	-0,073
338,173	21,200	-0,089	0,049
339,187	187,924	-0,092	-0,094
340,202	-161,411	-0,088	-0,003
341,216	-60,817	-0,209	0,060
342,231	-22,412	-0,144	-0,060
343,246	-112,254	-0,183	-0,025
344,260	800,000	-0,116	-0,226
345,275	569,157	-0,025	-0,042
346,289	45,753	-0,137	-0,087
347,304	100,966	-0,119	-0,095
348,319	-49,961	-0,184	-0,060
349,333	-2,694	-0,137	-0,065
350,348	349,420	-0,156	-0,211
351,362	79,337	-0,157	-0,115
352,377	800,000	-0,047	-0,107
353,392	-144,176	-0,059	-0,004
354,406	-200,000	-0,012	-0,128
355,421	207,637	1305,544	1395,022
356,435	159,740	1465,097	1395,483
