DTS Sentinel unit serial number:	SN410029Multiplexer serial number:	ORYXHardware model number:	OX2-SRSoftware version number:	ORYX F/W v4,00 Oryx Data Collector v3.7.2.0data status	okinstallation	B3 Nyhavnadifferential loss correction	single-endedforward channel	channel 1reverse channel	N/Adate	2023/12/02time	23:57:30forward acquisition time	300,00reverse acquisition time	0,00gamma	499,1914k internal	0,3201k external	0,3201temperature offset calibration	1,0000default loss term (dB/km)	0,3820temperature slope calibration	1,0000multiplexer offset coefficient	1,0000multiplexer slope coefficient	1,0000fibre end	0,00T internal ref (°C)	13,26T ext. ref 1 (°C)	-1,70T ext. ref 2 (°C)	-1,71length (m)	temperature (°C)	Stokes	anti-Stokes-744,400	315,099	-0,132	-0,182
-743,385	-200,000	0,008	0,312
-742,371	796,457	-0,157	-0,317
-741,356	800,000	0,084	0,216
-740,342	112,246	-0,127	-0,111
-739,327	-200,000	-0,090	0,336
-738,312	-13,100	-0,301	-0,142
-737,298	800,000	-0,092	0,262
-736,283	-200,000	-0,059	-0,255
-735,269	-200,000	0,021	0,298
-734,254	800,000	-0,112	-0,250
-733,239	290,060	-0,077	0,102
-732,225	-200,000	-0,009	-0,252
-731,210	35,993	0,187	0,119
-730,196	347,297	-0,080	-0,114
-729,181	-200,000	0,004	0,062
-728,167	-101,288	0,099	0,017
-727,152	-200,000	0,007	-0,073
-726,137	-200,000	0,001	0,058
-725,123	-120,311	-0,142	0,017
-724,108	128,761	0,050	-0,047
-723,094	-155,011	-0,110	0,005
-722,079	800,000	0,058	-0,183
-721,064	800,000	-0,038	-0,084
-720,050	-108,819	-0,073	0,011
-719,035	-200,000	-0,003	-0,062
-718,021	800,000	-0,073	0,156
-717,006	618,646	0,007	0,013
-715,991	282,953	-0,011	-0,014
-714,977	800,000	-0,008	0,021
-713,962	-200,000	-0,046	-0,153
-712,948	17,013	0,023	-0,013
-711,933	58,767	0,065	0,046
-710,918	167,439	-0,060	0,062
-709,904	-200,000	-0,056	-0,233
-708,889	-200,000	-0,041	-0,158
-707,875	-200,000	0,033	-0,118
-706,860	-166,615	-0,135	0,004
-705,845	71,062	0,026	-0,019
-704,831	255,336	0,038	0,048
-703,816	-32,237	-0,097	-0,039
-702,802	25,647	-0,047	-0,029
-701,787	116,854	-0,117	-0,104
-700,772	-107,590	-0,098	-0,015
-699,758	-60,078	0,020	0,006
-698,743	-200,000	-0,020	0,130
-697,729	117,100	0,030	-0,027
-696,714	204,199	-0,101	0,114
-695,699	-200,000	-0,001	-0,086
-694,685	-44,289	-0,128	-0,046
-693,670	656,806	0,050	-0,094
-692,656	-200,000	-0,019	-0,105
-691,641	-200,000	0,039	-0,138
-690,627	632,472	-0,045	0,084
-689,612	-62,284	0,086	-0,026
-688,597	800,000	-0,089	-0,211
-687,583	608,585	0,066	-0,119
-686,568	27,044	-0,011	0,006
-685,554	-200,000	0,014	-0,073
-684,539	143,422	0,085	0,082
-683,524	24,084	0,191	0,114
-682,510	193,726	0,037	-0,040
-681,495	-137,550	0,101	-0,008
-680,481	-200,000	-0,009	-0,193
-679,466	-86,686	-0,092	-0,020
-678,451	-200,000	-0,005	0,076
-677,437	-200,000	-0,002	0,070
-676,422	-200,000	-0,020	0,066
-675,408	651,175	-0,021	0,039
-674,393	78,859	0,034	0,026
-673,378	-167,161	-0,118	-0,003
-672,364	-10,999	-0,034	-0,016
-671,349	-87,863	-0,082	-0,018
-670,335	-47,670	0,158	-0,055
-669,320	146,802	0,098	0,095
-668,305	69,379	0,091	0,068
-667,291	-40,240	0,136	0,051
-666,276	290,174	-0,045	-0,059
-665,262	81,963	-0,056	-0,044
-664,247	-200,000	0,021	-0,144
-663,232	-200,000	0,009	-0,059
-662,218	800,000	-0,024	0,051
-661,203	186,665	-0,030	-0,032
-660,189	319,153	0,048	0,066
-659,174	-45,092	-0,091	-0,033
-658,159	-46,764	-0,146	0,052
-657,145	-200,000	-0,013	-0,083
-656,130	-93,570	0,160	0,032
-655,116	800,000	0,023	-0,067
-654,101	-200,000	0,006	-0,044
-653,086	-99,473	-0,087	0,016
-652,072	-51,282	0,015	0,005
-651,057	428,729	-0,062	-0,098
-650,043	99,430	0,080	0,067
-649,028	-111,768	-0,042	0,006
-648,014	682,454	-0,020	-0,039
-646,999	-200,000	0,008	0,051
-645,984	49,658	-0,103	0,070
-644,970	-44,970	-0,075	-0,027
-643,955	800,000	-0,005	-0,013
-642,941	102,358	0,062	-0,053
-641,926	800,000	0,062	-0,129
-640,911	-200,000	0,024	-0,082
-639,897	201,759	-0,034	0,038
-638,882	544,010	-0,002	-0,004
-637,868	87,777	-0,053	-0,043
-636,853	37,461	-0,151	-0,097
-635,838	-200,000	-0,051	-0,185
-634,824	245,497	0,072	-0,088
-633,809	281,867	-0,050	-0,065
-632,795	-63,099	0,082	0,024
-631,780	-200,000	-0,014	-0,061
-630,765	-94,501	-0,096	-0,019
-629,751	-10,718	-0,087	-0,041
-628,736	-52,899	0,138	-0,046
-627,722	-190,950	-0,088	-0,001
-626,707	-200,000	0,024	0,173
-625,692	-200,000	0,003	0,133
-624,678	6,712	0,027	0,014
-623,663	-177,807	-0,076	-0,001
-622,649	41,354	0,036	0,023
-621,634	410,445	-0,076	-0,117
-620,619	15,001	0,088	-0,050
-619,605	7,120	0,043	-0,023
-618,590	-200,000	-0,039	-0,152
-617,576	-149,742	0,124	-0,007
-616,561	-200,000	-0,003	-0,082
-615,546	800,000	-0,006	0,012
-614,532	70,095	-0,071	-0,053
-613,517	619,341	0,023	-0,041
-612,503	584,664	0,016	0,029
-611,488	-92,002	0,174	-0,035
-610,474	374,379	0,073	0,108
-609,459	63,179	-0,129	0,093
-608,444	55,633	0,065	-0,046
-607,430	5,998	-0,098	-0,052
-606,415	43,886	0,027	-0,018
-605,401	-45,387	0,192	-0,069
-604,386	-135,769	-0,108	0,009
-603,371	485,597	-0,063	0,104
-602,357	-200,000	-0,024	0,210
-601,342	-56,495	-0,052	0,017
-600,328	93,139	-0,035	-0,029
-599,313	-14,363	-0,061	-0,028
-598,298	277,543	-0,103	-0,133
-597,284	-18,761	0,034	-0,015
-596,269	713,704	-0,077	0,148
-595,255	235,096	0,054	0,064
-594,240	480,826	-0,090	-0,149
-593,225	800,000	0,023	0,063
-592,211	-200,000	-0,002	-0,048
-591,196	-161,941	0,036	-0,001
-590,182	-84,551	0,122	0,028
-589,167	-200,000	0,031	0,144
-588,152	-200,000	0,006	0,019
-587,138	51,735	0,091	0,062
-586,123	800,000	-0,050	0,144
-585,109	318,518	0,035	-0,048
-584,094	-27,543	-0,135	-0,056
-583,079	56,349	0,017	-0,012
-582,065	-49,773	0,096	-0,033
-581,050	800,000	-0,057	0,134
-580,036	-200,000	-0,013	-0,067
-579,021	-200,000	0,025	-0,160
-578,006	-45,457	-0,165	-0,059
-576,992	-158,270	0,118	-0,005
-575,977	186,299	0,058	0,062
-574,963	394,580	0,057	0,086
-573,948	230,397	0,077	-0,091
-572,934	59,146	0,028	0,020
-571,919	-44,066	0,095	-0,034
-570,904	690,289	0,071	0,134
-569,890	-128,151	0,088	-0,009
-568,875	3,093	0,181	0,095
-567,861	-68,584	-0,026	-0,007
-566,846	-200,000	0,018	0,073
-565,831	313,767	-0,101	0,137
-564,817	165,184	-0,048	-0,049
-563,802	800,000	0,024	0,052
-562,788	-29,188	0,092	-0,038
-561,773	-200,000	0,032	0,126
-560,758	178,595	-0,022	0,023
-559,744	235,623	0,008	-0,009
-558,729	-181,742	0,024	-0,000
-557,715	-177,702	0,022	0,000
-556,700	24,800	0,020	0,012
-555,685	476,625	-0,034	-0,056
-554,671	-200,000	0,055	0,000
-553,656	26,039	0,163	0,098
-552,642	781,433	-0,063	0,126
-551,627	168,051	0,095	0,098
-550,612	22,273	-0,048	-0,028
-549,598	-182,194	-0,086	0,001
-548,583	-11,285	0,027	-0,013
-547,569	-200,000	0,007	-0,025
-546,554	769,009	-0,035	-0,069
-545,539	308,972	-0,040	-0,054
-544,525	-107,843	-0,158	0,025
-543,510	8,563	-0,086	0,047
-542,496	-91,769	-0,029	-0,006
-541,481	17,257	-0,086	-0,049
-540,466	-200,000	-0,001	-0,052
-539,452	-200,000	0,010	0,099
-538,437	-200,000	-0,012	0,071
-537,423	-57,983	-0,190	-0,059
-536,408	-45,082	0,105	0,037
-535,393	15,614	0,011	-0,006
-534,379	-93,228	-0,159	-0,032
-533,364	146,647	-0,057	-0,055
-532,350	-200,000	-0,002	0,046
-531,335	-200,000	-0,006	0,067
-530,321	50,124	0,088	-0,060
-529,306	-159,787	-0,145	0,006
-528,291	-200,000	0,023	-0,157
-527,277	-121,242	-0,049	-0,006
-526,262	41,650	0,053	0,035
-525,248	189,702	0,044	-0,048
-524,233	218,369	0,067	0,077
-523,218	373,291	-0,024	-0,035
-522,204	134,654	-0,103	-0,096
-521,189	-200,000	-0,017	-0,105
-520,175	27,547	-0,070	-0,042
-519,160	630,274	0,073	-0,134
-518,145	572,335	0,047	-0,083
-517,131	-200,000	0,002	-0,020
-516,116	-200,000	0,007	-0,037
-515,102	82,347	0,074	0,058
-514,087	-87,013	-0,066	-0,014
-513,072	-117,861	-0,103	0,013
-512,058	146,044	0,077	-0,074
-511,043	88,340	0,052	0,042
-510,029	5,577	0,047	0,025
-509,014	-140,181	-0,114	0,008
-507,999	-22,984	-0,023	-0,010
-506,985	451,148	-0,030	0,048
-505,970	-200,000	-0,011	-0,102
-504,956	107,976	0,096	-0,083
-503,941	215,767	-0,073	0,083
-502,926	-112,995	0,136	-0,019
-501,912	209,148	0,072	-0,081
-500,897	800,000	0,015	0,047
-499,883	-200,000	0,051	0,180
-498,868	283,432	-0,035	-0,045
-497,853	-200,000	0,015	-0,050
-496,839	-61,814	-0,033	0,010
-495,824	14,588	0,129	0,072
-494,810	-200,000	-0,013	0,224
-493,795	-200,000	-0,005	0,053
-492,781	800,000	0,014	0,037
-491,766	1,408	0,029	-0,015
-490,751	-131,356	-0,063	0,006
-489,737	153,250	0,143	0,141
-488,722	261,283	-0,070	0,088
-487,708	29,103	0,146	0,089
-486,693	-200,000	-0,005	0,065
-485,678	414,279	-0,099	-0,153
-484,664	3,014	-0,090	0,047
-483,649	-75,523	0,094	-0,024
-482,635	-200,000	0,005	0,024
-481,620	800,000	-0,036	0,107
-480,605	-200,000	-0,000	0,031
-479,591	-79,576	0,068	0,016
-478,576	-200,000	0,001	0,077
-477,562	-200,000	-0,014	0,122
-476,547	93,787	-0,079	-0,065
-475,532	71,318	0,039	-0,029
-474,518	-125,039	0,079	0,009
-473,503	18,853	0,081	0,047
-472,489	-200,000	-0,011	0,153
-471,474	48,087	-0,032	0,021
-470,459	-62,095	0,091	0,027
-469,445	-157,363	-0,172	0,007
-468,430	698,691	-0,071	-0,135
-467,416	-200,000	-0,016	0,092
-466,401	800,000	0,011	-0,029
-465,386	97,182	0,040	-0,033
-464,372	800,000	0,034	0,081
-463,357	-200,000	-0,003	-0,073
-462,343	-57,345	-0,066	0,021
-461,328	-200,000	0,024	-0,086
-460,313	-48,176	0,128	0,044
-459,299	-101,159	0,095	0,017
-458,284	-200,000	-0,036	0,146
-457,270	-200,000	-0,008	0,051
-456,255	-200,000	0,001	-0,024
-455,241	800,000	0,001	-0,003
-454,226	528,959	-0,050	-0,085
-453,211	743,384	0,035	0,068
-452,197	126,928	0,036	-0,033
-451,182	800,000	0,021	0,064
-450,168	800,000	-0,042	-0,101
-449,153	-200,000	-0,016	-0,121
-448,138	-200,000	-0,001	0,041
-447,124	86,381	0,110	0,087
-446,109	122,708	-0,171	-0,153
-445,095	516,586	0,022	0,038
-444,080	134,058	0,127	-0,118
-443,065	31,896	-0,069	-0,043
-442,051	-200,000	0,001	-0,072
-441,036	-133,988	0,048	-0,004
-440,022	-200,000	0,005	-0,026
-439,007	800,000	-0,039	-0,122
-437,992	105,100	0,041	0,035
-436,978	51,737	0,087	-0,059
-435,963	719,544	0,049	0,094
-434,949	-151,576	-0,097	-0,005
-433,934	410,580	-0,023	-0,035
-432,919	71,831	0,051	-0,038
-431,905	-95,938	-0,025	0,005
-430,890	121,322	-0,031	-0,027
-429,876	-45,994	0,126	0,045
-428,861	-141,430	-0,018	-0,001
-427,846	548,754	0,028	-0,049
-426,832	43,122	0,045	-0,030
-425,817	-200,000	0,006	-0,105
-424,803	-75,530	-0,099	-0,025
-423,788	-200,000	0,010	0,032
-422,773	-99,673	0,070	0,012
-421,759	-20,984	-0,154	0,068
-420,744	-91,041	-0,140	-0,029
-419,730	800,000	0,027	-0,084
-418,715	-200,000	-0,011	-0,051
-417,701	-156,274	-0,130	-0,006
-416,686	-58,990	-0,040	-0,012
-415,671	487,107	-0,046	-0,076
-414,657	3,111	-0,033	-0,017
-413,642	800,000	0,031	0,066
-412,628	688,753	-0,070	-0,132
-411,613	214,528	-0,047	-0,053
-410,598	-200,000	-0,009	0,090
-409,584	412,306	0,052	0,079
-408,569	76,006	0,044	0,033
-407,555	-139,129	-0,047	-0,004
-406,540	55,100	0,046	-0,032
-405,525	-200,000	-0,008	-0,152
-404,511	-200,000	-0,042	-0,140
-403,496	279,844	0,055	0,071
-402,482	89,745	-0,094	-0,075
-401,467	-200,000	-0,015	-0,060
-400,452	-16,406	-0,137	-0,062
-399,438	-161,343	-0,132	0,005
-398,423	800,000	-0,019	0,040
-397,409	-200,000	-0,016	0,141
-396,394	800,000	0,020	-0,061
-395,379	488,704	-0,020	0,033
-394,365	-200,000	0,001	0,082
-393,350	800,000	0,099	0,225
-392,336	-145,646	-0,027	-0,002
-391,321	-200,000	-0,017	0,108
-390,306	469,039	-0,015	-0,024
-389,292	-200,000	-0,021	-0,081
-388,277	-200,000	-0,007	-0,025
-387,263	33,248	0,065	-0,041
-386,248	-112,405	0,102	0,014
-385,233	-75,175	-0,133	0,034
-384,219	299,608	0,053	-0,071
-383,204	800,000	-0,049	-0,152
-382,190	-200,000	-0,014	-0,065
-381,175	-50,886	-0,129	-0,043
-380,160	-81,368	0,044	-0,010
-379,146	20,654	-0,087	-0,051
-378,131	-20,460	0,068	0,030
-377,117	760,380	0,046	0,089
-376,102	-18,710	-0,087	-0,039
-375,088	-84,831	0,068	0,015
-374,073	-71,764	0,015	-0,004
-373,058	-11,970	0,094	-0,044
-372,044	800,000	0,017	0,041
-371,029	191,054	-0,027	-0,030
-370,015	240,673	-0,064	-0,077
-369,000	-200,000	-0,018	-0,121
-367,985	-15,196	-0,086	0,039
-366,971	256,284	0,057	0,070
-365,956	800,000	0,012	0,038
-364,942	-9,967	0,042	-0,020
-363,927	-200,000	-0,030	0,114
-362,912	189,515	0,021	0,023
-361,898	528,119	-0,076	-0,128
-360,883	187,568	-0,069	-0,074
-359,869	785,512	0,019	-0,037
-358,854	-46,375	-0,076	-0,027
-357,839	447,381	0,043	0,068
-356,825	80,346	0,196	0,151
-355,810	231,836	-0,054	-0,063
-354,796	-101,935	0,124	-0,021
-353,781	-200,000	-0,005	0,053
-352,766	-200,000	0,027	-0,127
-351,752	351,839	0,096	-0,136
-350,737	800,000	-0,041	0,091
-349,723	-154,851	0,081	0,004
-348,708	-123,942	0,140	0,016
-347,693	-101,704	-0,100	-0,017
-346,679	118,803	-0,034	-0,031
-345,664	7,842	-0,111	-0,060
-344,650	-104,900	0,071	0,012
-343,635	231,954	-0,086	-0,101
-342,620	800,000	-0,058	0,116
-341,606	800,000	0,040	-0,093
-340,591	-84,096	-0,147	0,033
-339,577	253,607	-0,072	0,088
-338,562	-21,480	-0,155	-0,068
-337,548	8,363	-0,049	-0,026
-336,533	301,366	0,062	0,083
-335,518	-32,869	-0,115	-0,046
-334,504	81,116	-0,036	0,028
-333,489	216,117	-0,050	-0,057
-332,475	-200,000	0,002	-0,039
-331,460	800,000	-0,068	-0,174
-330,445	-4,456	-0,072	0,035
-329,431	-35,283	0,023	-0,009
-328,416	-200,000	-0,020	-0,094
-327,402	134,170	0,105	0,097
-326,387	-50,643	0,133	-0,045
-325,372	800,000	0,031	-0,061
-324,358	2,578	0,081	0,042
-323,343	-18,897	-0,089	0,039
-322,329	-200,000	0,018	0,093
-321,314	-102,912	0,032	-0,005
-320,299	27,186	-0,045	0,027
-319,285	39,088	0,091	0,058
-318,270	-164,613	-0,178	0,006
-317,256	-92,241	-0,147	0,029
-316,241	131,330	-0,013	-0,012
-315,226	800,000	0,030	0,079
-314,212	800,000	0,037	0,098
-313,197	-34,768	0,105	0,041
-312,183	19,624	-0,014	-0,008
-311,168	-200,000	-0,008	0,034
-310,153	80,228	0,054	0,042
-309,139	222,210	-0,067	-0,078
-308,124	-8,228	-0,112	0,054
-307,110	-124,302	-0,087	-0,010
-306,095	-17,282	0,140	0,063
-305,080	332,211	-0,115	0,159
-304,066	-66,309	-0,127	0,036
-303,051	5,356	-0,078	0,041
-302,037	-22,429	0,028	-0,012
-301,022	67,724	-0,079	0,058
-300,008	316,949	0,039	0,052
-298,993	405,564	0,035	0,053
-297,978	-13,809	0,050	-0,023
-296,964	800,000	-0,046	0,118
-295,949	800,000	-0,038	-0,083
-294,935	213,177	0,057	0,064
-293,920	355,844	0,059	0,084
-292,905	56,017	0,055	0,038
-291,891	-200,000	-0,002	0,115
-290,876	-200,000	0,008	0,143
-289,862	800,000	-0,032	-0,068
-288,847	-158,434	-0,064	0,003
-287,832	-200,000	-0,019	-0,089
-286,818	146,484	-0,064	0,062
-285,803	-106,806	0,095	0,015
-284,789	800,000	0,057	0,151
-283,774	96,992	0,100	0,082
-282,759	-47,754	0,065	-0,022
-281,745	-200,000	-0,035	-0,184
-280,730	-157,218	-0,051	-0,002
-279,716	-200,000	0,010	0,038
-278,701	313,531	-0,049	-0,066
-277,686	188,049	0,053	-0,057
-276,672	-28,020	-0,037	-0,015
-275,657	-13,942	0,080	0,037
-274,643	134,230	-0,040	-0,037
-273,628	411,586	-0,026	-0,040
-272,613	-86,525	-0,088	-0,019
-271,599	109,990	-0,047	0,041
-270,584	111,915	0,053	-0,045
-269,570	-159,136	0,135	-0,005
-268,555	800,000	0,095	0,211
-267,540	-121,986	-0,116	0,013
-266,526	761,835	0,033	0,064
-265,511	-200,000	-0,002	-0,152
-264,497	800,000	0,028	0,057
-263,482	-33,408	0,148	-0,058
-262,467	-200,000	0,022	0,177
-261,453	273,960	0,052	-0,065
-260,438	-116,433	0,073	-0,010
-259,424	100,364	-0,103	0,086
-258,409	31,310	0,072	-0,044
-257,395	18,324	-0,090	0,051
-256,380	-24,963	0,161	0,068
-255,365	763,223	0,088	0,172
-254,351	239,650	-0,062	-0,074
-253,336	800,000	0,068	-0,161
-252,322	430,288	-0,075	-0,117
-251,307	-76,679	0,134	0,033
-250,292	278,936	0,024	-0,031
-249,278	-200,000	-0,050	0,000
-248,263	-200,000	-0,018	0,073
-247,249	783,448	0,029	-0,058
-246,234	800,000	-0,028	-0,078
-245,219	116,113	-0,102	-0,089
-244,205	800,000	0,041	-0,083
-243,190	800,000	0,078	-0,196
-242,176	-200,000	0,016	0,088
-241,161	-167,408	0,094	-0,003
-240,146	324,945	-0,034	-0,046
-239,132	-70,071	-0,130	0,035
-238,117	93,695	0,041	-0,033
-237,103	68,179	-0,029	0,021
-236,088	157,277	-0,006	-0,006
-235,073	-200,000	0,004	0,069
-234,059	52,125	0,117	0,079
-233,044	-200,000	0,010	0,032
-232,030	-200,000	-0,002	-0,007
-231,015	301,843	-0,173	-0,228
-230,000	-130,794	-0,043	-0,004
-228,986	-195,839	-0,055	-0,000
-227,971	67,329	0,029	0,021
-226,957	-200,000	0,018	0,173
-225,942	800,000	0,037	0,084
-224,927	-200,000	0,024	-0,121
-223,913	157,151	-0,124	-0,123
-222,898	149,936	-0,091	-0,088
-221,884	-41,401	-0,121	-0,044
-220,869	-83,402	-0,090	-0,020
-219,855	800,000	0,011	0,025
-218,840	-23,398	0,100	0,043
-217,825	-200,000	0,004	0,104
-216,811	-122,561	-0,188	-0,022
-215,796	54,703	0,034	0,023
-214,782	631,807	0,029	0,053
-213,767	-28,254	-0,060	-0,024
-212,752	-151,413	0,086	-0,004
-211,738	-200,000	-0,017	0,131
-210,723	800,000	0,033	-0,070
-209,709	-140,196	0,141	-0,010
-208,694	-200,000	-0,001	-0,166
-207,679	-200,000	0,013	0,089
-206,665	-5,978	0,114	0,055
-205,650	364,955	0,129	0,186
-204,636	125,432	0,128	0,115
-203,621	-200,000	0,006	-0,116
-202,606	368,718	-0,059	-0,086
-201,592	-200,000	0,002	-0,082
-200,577	366,953	0,045	-0,065
-199,563	-113,734	0,053	0,007
-198,548	-113,285	-0,143	0,020
-197,533	800,000	0,061	-0,122
-196,519	-82,680	-0,033	0,008
-195,504	76,119	-0,019	-0,014
-194,490	800,000	0,065	0,178
-193,475	-92,991	-0,053	0,010
-192,460	172,574	0,097	0,099
-191,446	6,102	-0,063	-0,033
-190,431	-189,527	0,141	0,001
-189,417	-200,000	0,030	0,131
-188,402	-24,440	-0,077	-0,032
-187,387	-76,646	0,109	-0,027
-186,373	800,000	-0,034	-0,091
-185,358	-200,000	-0,023	-0,139
-184,344	-200,000	0,003	0,038
-183,329	125,967	-0,066	-0,060
-182,315	154,646	0,075	-0,073
-181,300	0,559	0,044	-0,022
-180,285	133,569	-0,088	-0,081
-179,271	267,117	-0,074	-0,092
-178,256	62,866	0,071	0,051
-177,242	731,672	0,027	0,052
-176,227	32,958	0,111	0,068
-175,212	-200,000	0,023	0,077
-174,198	60,350	0,040	0,028
-173,183	6,806	0,079	0,041
-172,169	665,017	0,044	-0,081
-171,154	90,003	-0,075	-0,060
-170,139	184,855	-0,026	0,027
-169,125	-10,679	0,037	0,017
-168,110	-153,460	0,153	0,007
-167,096	751,845	0,015	0,028
-166,081	-200,000	0,003	0,013
-165,066	-200,000	0,010	-0,058
-164,052	-200,000	-0,010	-0,087
-163,037	-54,544	-0,026	-0,008
-162,023	255,494	0,100	0,122
-161,008	800,000	-0,022	-0,050
-159,993	271,119	-0,045	0,057
-158,979	-136,766	-0,047	-0,004
-157,964	800,000	-0,054	-0,114
-156,950	31,847	-0,072	-0,044
-155,935	-9,589	0,069	0,033
-154,920	800,000	0,019	-0,052
-153,906	800,000	0,052	0,146
-152,891	-200,000	-0,022	0,099
-151,877	508,096	-0,031	-0,052
-150,862	-200,000	0,026	-0,113
-149,847	290,214	0,020	-0,026
-148,833	-200,000	-0,016	-0,079
-147,818	455,049	0,015	-0,023
-146,804	83,027	0,076	-0,059
-145,789	-181,011	0,190	0,003
-144,775	-68,868	-0,097	-0,026
-143,760	425,916	-0,087	-0,134
-142,745	-200,000	0,008	0,072
-141,731	-91,857	0,027	0,005
-140,716	-109,566	0,090	-0,013
-139,702	-112,187	0,108	0,015
-138,687	344,115	-0,016	0,022
-137,672	-79,210	0,021	-0,005
-136,658	45,462	-0,233	-0,152
-135,643	115,904	0,018	-0,016
-134,629	313,131	0,042	0,056
-133,614	200,062	-0,047	0,052
-132,599	-35,053	-0,051	0,020
-131,585	-165,107	0,054	0,002
-130,570	-100,853	-0,063	0,011
-129,556	-94,516	-0,135	0,026
-128,541	-84,084	-0,053	0,012
-127,526	-75,439	-0,100	-0,025
-126,512	-175,209	0,090	0,002
-125,497	-96,551	-0,166	-0,031
-124,483	800,000	0,025	-0,070
-123,468	-200,000	-0,018	-0,086
-122,453	-200,000	-0,007	0,040
-121,439	-200,000	0,021	-0,069
-120,424	800,000	-0,055	-0,142
-119,410	800,000	0,081	0,178
-118,395	684,114	-0,023	-0,042
-117,380	-200,000	0,047	0,168
-116,366	747,496	0,038	-0,073
-115,351	288,742	0,051	-0,066
-114,337	-51,109	-0,226	-0,075
-113,322	800,000	-0,069	-0,169
-112,307	58,506	-0,114	-0,080
-111,293	-200,000	-0,048	0,154
-110,278	-200,000	0,036	0,136
-109,264	112,193	0,038	0,033
-108,249	-30,537	0,054	-0,022
-107,234	800,000	-0,056	0,134
-106,220	63,905	0,035	0,025
-105,205	800,000	0,039	0,080
-104,191	-116,384	0,097	0,013
-103,176	-200,000	0,020	0,160
-102,162	-200,000	0,002	-0,037
-101,147	-200,000	0,004	0,106
-100,132	800,000	-0,030	-0,079
-99,118	-200,000	-0,008	-0,129
-98,103	800,000	0,046	-0,094
-97,089	399,944	0,026	0,039
-96,074	800,000	-0,065	0,159
-95,059	-200,000	0,008	0,110
-94,045	-200,000	0,006	0,022
-93,030	214,142	-0,071	-0,080
-92,016	-69,414	-0,170	0,046
-91,001	-190,038	0,091	-0,001
-89,986	-200,000	-0,016	0,104
-88,972	149,051	0,086	0,083
-87,957	76,952	-0,096	0,072
-86,943	-72,231	-0,135	0,035
-85,928	800,000	-0,033	-0,088
-84,913	-200,000	0,011	0,057
-83,899	-200,000	-0,007	0,056
-82,884	-27,593	0,126	0,051
-81,870	634,140	-0,065	0,117
-80,855	111,934	0,087	0,075
-79,840	529,740	0,028	-0,047
-78,826	-2,024	0,040	-0,020
-77,811	-200,000	0,025	-0,101
-76,797	219,727	0,054	-0,062
-75,782	-200,000	0,001	0,052
-74,767	25,796	0,060	0,035
-73,753	-24,233	0,115	0,048
-72,738	270,575	0,070	0,087
-71,724	-60,456	-0,034	0,010
-70,709	141,066	-0,103	-0,096
-69,694	-200,000	-0,010	-0,040
-68,680	50,774	0,093	0,062
-67,665	-200,000	-0,007	-0,065
-66,651	-200,000	-0,014	0,159
-65,636	107,185	-0,115	-0,097
-64,622	788,211	-0,012	-0,023
-63,607	11,130	-0,096	0,052
-62,592	800,000	0,063	-0,126
-61,578	114,755	-0,070	0,061
-60,563	-200,000	-0,002	0,033
-59,549	267,679	-0,075	-0,093
-58,534	-4,970	-1,600	-0,778
-57,519	423,931	-1,282	-1,958
-56,505	-200,000	-0,484	-4,551
-55,490	185,000	1,054	1,109
-54,476	800,000	4,997	11,402
-53,461	-200,000	19,293	321,147
-52,446	-200,000	741,048	2335,511
-51,432	573,281	1656,007	2869,873
-50,417	78,178	1671,338	1261,541
-49,403	21,233	1544,380	885,536
-48,388	15,152	1466,554	811,337
-47,373	18,011	1456,923	819,796
-46,359	16,657	1446,796	807,573
-45,344	13,425	1442,062	789,410
-44,330	13,309	1440,070	787,733
-43,315	13,340	1438,281	786,871
-42,300	13,331	1436,741	785,954
-41,286	13,312	1435,760	785,298
-40,271	13,301	1434,295	784,412
-39,257	13,290	1432,966	783,601
-38,242	13,318	1431,686	783,004
-37,227	13,329	1430,383	782,314
-36,213	13,348	1429,038	781,635
-35,198	13,346	1427,935	780,994
-34,184	13,407	1426,841	780,651
-33,169	13,358	1425,577	779,699
-32,154	13,416	1424,583	779,397
-31,140	13,392	1423,272	778,536
-30,125	13,343	1422,183	777,680
-29,111	13,411	1420,918	777,275
-28,096	13,371	1419,861	776,478
-27,082	13,316	1418,959	775,696
-26,067	13,299	1417,572	774,825
-25,052	13,255	1416,761	774,146
-24,038	13,242	1415,599	773,416
-23,023	13,274	1414,589	772,987
-22,009	13,304	1413,644	772,581
-20,994	13,252	1412,730	771,807
-19,979	13,247	1411,961	771,332
-18,965	13,220	1411,277	770,798
-17,950	13,218	1410,110	770,125
-16,936	13,220	1409,009	769,501
-15,921	13,207	1407,901	768,803
-14,906	13,202	1407,045	768,283
-13,892	13,204	1406,162	767,778
-12,877	13,158	1405,434	767,136
-11,863	13,177	1404,411	766,636
-10,848	13,220	1403,482	766,302
-9,833	13,139	1402,778	765,508
-8,819	13,144	1401,781	764,955
-7,804	13,068	1400,990	764,138
-6,790	13,170	1399,848	763,961
-5,775	13,102	1398,667	762,969
-4,760	13,108	1397,849	762,522
-3,746	13,095	1396,932	761,929
-2,731	13,040	1396,400	761,353
-1,717	13,002	1395,554	760,688
-0,702	13,014	1393,539	759,616
0,313	16,940	1310,252	732,383
1,327	33,157	703,990	431,001
2,342	51,442	123,234	82,694
3,356	3,634	16,617	8,548
4,371	6,429	3,220	1,686
5,386	-8,839	0,629	0,297
6,400	-200,000	0,066	0,371
7,415	118,195	-0,248	-0,217
8,429	65,792	-0,287	-0,206
9,444	257,272	-0,151	-0,184
10,459	19,125	-0,392	-0,222
11,473	338,261	-0,168	-0,232
12,488	-108,089	-0,267	0,040
13,502	-128,346	-0,335	0,033
14,517	-80,325	-0,258	-0,060
15,531	117,893	-0,288	-0,251
16,546	138,089	-0,234	-0,217
17,561	48,618	-0,415	-0,274
18,575	5,034	-0,264	-0,137
19,590	44,644	-0,321	-0,208
20,604	-59,365	-0,287	-0,087
21,619	106,660	-0,433	-0,363
22,634	403,827	-0,269	-0,401
23,648	233,859	-0,377	-0,440
24,663	72,212	-0,350	-0,257
25,677	138,786	-0,278	-0,258
26,692	-24,868	-0,352	-0,147
27,707	-16,287	-0,423	-0,189
28,721	374,525	-0,264	-0,380
29,736	93,374	-0,440	-0,352
30,750	233,457	-0,324	-0,377
31,765	220,694	-0,278	-0,315
32,780	-35,130	-0,398	-0,152
33,794	77,631	-0,371	-0,279
34,809	25,492	-0,343	-0,201
35,823	230,628	-0,262	-0,302
36,838	18,635	-0,382	-0,215
37,853	93,151	-0,381	-0,304
38,867	156,855	-0,221	-0,215
39,882	18,996	-0,368	-0,207
40,896	39,637	-0,293	-0,185
41,911	108,110	-0,309	-0,260
42,926	-121,328	-0,406	-0,047
43,940	53,734	-0,371	-0,251
44,955	338,512	-0,261	-0,359
45,969	13,826	-0,349	-0,191
46,984	151,823	-0,298	-0,287
47,999	97,312	-0,314	-0,254
49,013	687,393	-0,182	-0,336
50,028	229,765	-0,307	-0,354
51,042	126,284	-0,293	-0,262
52,057	62,962	-0,388	-0,273
53,071	61,143	-0,366	-0,255
54,086	143,248	-0,217	-0,204
55,101	85,286	-0,390	-0,302
56,115	-23,704	-0,430	-0,181
57,130	28,289	-0,293	-0,174
58,144	73,561	-0,280	-0,207
59,159	-5,201	-0,480	-0,231
60,174	177,996	-0,270	-0,278
61,188	-21,547	-0,203	-0,087
62,203	31,945	-0,346	-0,209
63,217	-24,264	-0,357	-0,149
64,232	99,975	-0,177	-0,144
65,247	114,076	-0,304	-0,260
66,261	30,707	-0,364	-0,219
67,276	252,467	-0,291	-0,350
68,290	186,074	-0,258	-0,270
69,305	268,431	-0,211	-0,260
70,320	63,695	-0,190	-0,134
71,334	111,343	-0,226	-0,191
72,349	239,329	-0,270	-0,316
73,363	97,661	-0,289	-0,233
74,378	-52,547	-0,456	-0,147
75,393	16,313	-0,349	-0,193
76,407	246,393	-0,221	-0,262
77,422	104,842	-0,330	-0,273
78,436	66,484	-0,267	-0,191
79,451	111,237	-0,228	-0,193
80,466	328,014	-0,306	-0,414
81,480	82,945	-0,401	-0,306
82,495	136,822	-0,311	-0,286
83,509	1,704	-0,302	-0,152
84,524	-171,356	-0,258	0,006
85,539	8,744	-0,326	-0,172
86,553	12,003	-0,371	-0,200
87,568	64,715	-0,336	-0,238
88,582	200,812	-0,341	-0,368
89,597	280,140	-0,300	-0,377
90,611	278,403	-0,165	-0,207
91,626	50,313	-0,258	-0,171
92,641	-27,214	-0,333	-0,135
93,655	49,745	-0,292	-0,193
94,670	72,122	-0,255	-0,186
95,684	128,571	-0,311	-0,278
96,699	110,636	-0,272	-0,229
97,714	49,897	-0,159	-0,105
98,728	32,578	-0,312	-0,189
99,743	6,239	-0,386	-0,200
100,757	54,836	-0,306	-0,207
101,772	57,373	-0,369	-0,253
102,787	800,000	-0,152	-0,387
103,801	107,331	-0,256	-0,213
104,816	-19,557	-0,264	-0,114
105,830	-20,125	-0,280	-0,120
106,845	202,242	-0,210	-0,227
107,860	96,700	-0,221	-0,178
108,874	-3,775	-0,314	-0,152
109,889	659,881	-0,216	-0,391
110,903	299,402	-0,188	-0,243
111,918	31,705	-0,246	-0,148
112,933	-79,270	-0,344	-0,081
113,947	136,110	-0,259	-0,237
114,962	256,863	-0,243	-0,294
115,976	-7,733	-0,267	-0,126
116,991	233,383	-0,329	-0,380
118,006	105,585	-0,342	-0,283
119,020	-59,307	-0,288	-0,086
120,035	172,732	-0,235	-0,238
121,049	-91,095	-0,247	-0,049
122,064	-120,816	-0,314	-0,037
123,079	-31,076	-0,198	-0,078
124,093	177,817	-0,223	-0,228
125,108	-7,338	-0,317	-0,150
126,122	800,000	-0,113	-0,226
127,137	65,853	-0,163	-0,116
128,151	-94,515	-0,175	-0,033
129,166	-19,839	-0,272	-0,117
130,181	302,887	-0,275	-0,357
131,195	72,237	-0,231	-0,168
132,210	-41,943	-0,365	-0,130
133,224	39,191	-0,264	-0,165
134,239	100,911	-0,202	-0,164
135,254	-8,425	-0,236	-0,110
136,268	-11,916	-0,082	-0,037
137,283	-45,325	-0,227	-0,078
138,297	5,820	-0,231	-0,119
139,312	27,189	-0,257	-0,151
140,327	191,879	-0,238	-0,251
141,341	15,570	-0,164	-0,090
142,356	-14,398	-0,336	-0,151
143,370	70,706	-0,249	-0,180
144,385	39,997	-0,300	-0,188
145,400	-112,126	-0,370	-0,051
146,414	17,516	-0,264	-0,146
147,429	28,702	-0,323	-0,191
148,443	520,524	-0,156	-0,256
149,458	-8,237	-0,266	-0,125
150,473	-48,479	-0,207	-0,069
151,487	193,970	-0,100	-0,106
152,502	219,847	-0,151	-0,169
153,516	18,761	-0,392	-0,219
154,531	-160,192	-0,182	0,007
155,546	214,900	-0,209	-0,232
156,560	800,000	-0,114	-0,222
157,575	123,335	-0,078	-0,068
158,589	213,636	-0,148	-0,164
159,604	29,780	-0,170	-0,101
160,619	167,592	-0,272	-0,270
161,633	235,414	-0,222	-0,256
162,648	-76,968	-0,262	-0,063
163,662	64,672	-0,256	-0,180
164,677	-48,002	-0,106	-0,036
165,692	328,126	-0,160	-0,215
166,706	148,551	-0,225	-0,212
167,721	210,940	-0,285	-0,313
168,735	151,504	-0,232	-0,221
169,750	155,776	-0,228	-0,219
170,764	132,918	-0,154	-0,139
171,779	282,267	-0,092	-0,115
172,794	638,509	-0,157	-0,280
173,808	147,831	-0,187	-0,175
174,823	33,875	-0,246	-0,149
175,837	-81,641	-0,253	-0,057
176,852	101,866	-0,308	-0,250
177,867	800,000	-0,107	-0,273
178,881	76,816	-0,132	-0,098
179,896	-45,499	-0,234	-0,080
180,910	164,455	-0,300	-0,295
181,925	606,888	-0,251	-0,437
182,940	46,402	-0,280	-0,180
183,954	126,341	-0,221	-0,194
184,969	126,934	-0,137	-0,121
185,983	-52,585	-0,189	-0,060
186,998	-63,322	-0,326	-0,093
188,013	200,758	-0,197	-0,212
189,027	130,237	-0,258	-0,230
190,042	-79,124	-0,222	-0,052
191,056	260,860	-0,196	-0,236
192,071	-58,032	-0,270	-0,082
193,086	219,076	-0,153	-0,170
194,100	-45,022	-0,309	-0,106
195,115	116,567	-0,342	-0,292
196,129	43,693	-0,277	-0,176
197,144	-109,938	-0,319	-0,046
198,159	-149,977	-0,200	0,011
199,173	71,527	-0,212	-0,153
200,188	112,541	-0,121	-0,102
201,202	143,562	-0,129	-0,120
202,217	800,000	-0,120	-0,232
203,232	-15,370	-0,213	-0,094
204,246	114,548	-0,222	-0,188
205,261	150,135	-0,215	-0,203
206,275	174,344	-0,131	-0,132
207,290	284,633	-0,088	-0,110
208,304	-116,058	-0,196	-0,025
209,319	82,715	-0,099	-0,074
210,334	-20,917	-0,252	-0,107
211,348	203,324	-0,243	-0,262
212,363	-43,332	-0,205	-0,072
213,377	-200,000	-0,030	-0,208
214,392	-98,871	-0,147	0,026
215,407	-40,896	-0,209	-0,075
216,421	-4,316	-0,132	-0,063
217,436	420,483	-0,197	-0,295
218,450	153,688	-0,174	-0,165
219,465	-24,579	-0,322	-0,132
220,480	11,488	-0,142	-0,076
221,494	247,038	-0,112	-0,131
222,509	-115,823	-0,184	0,024
223,523	-200,000	-0,012	-0,068
224,538	-139,980	-0,301	-0,022
225,553	325,629	-0,156	-0,207
226,567	307,919	-0,142	-0,185
227,582	-200,000	-0,044	-0,166
228,596	71,560	-0,183	-0,132
229,611	278,973	-0,140	-0,174
230,626	428,170	-0,155	-0,234
231,640	381,762	-0,176	-0,252
232,655	249,238	-0,174	-0,205
233,669	-9,112	-0,224	-0,103
234,684	-200,000	-0,003	-0,129
235,699	93,779	-0,120	-0,095
236,713	-168,978	-0,221	0,006
237,728	122,934	-0,138	-0,120
238,742	603,142	-0,133	-0,230
239,757	143,509	-0,165	-0,153
240,772	76,127	-0,219	-0,160
241,786	800,000	-0,087	-0,247
242,801	-200,000	-0,004	-0,093
243,815	800,000	-0,095	-0,208
244,830	-38,234	-0,053	-0,019
245,844	154,654	-0,175	-0,167
246,859	269,460	-0,240	-0,293
247,874	482,727	-0,130	-0,206
248,888	800,000	-0,102	-0,222
249,903	-83,084	-0,159	-0,035
250,917	95,864	-0,204	-0,161
251,932	127,987	-0,115	-0,101
252,947	-23,517	-0,201	-0,083
253,961	186,863	-0,168	-0,173
254,976	149,877	-0,151	-0,142
255,990	8,429	-0,202	-0,105
257,005	-16,419	-0,153	-0,067
258,020	14,360	-0,190	-0,102
259,034	14,832	-0,099	0,053
260,049	77,541	-0,085	-0,063
261,063	12,449	-0,331	-0,176
262,078	-142,527	-0,127	-0,008
263,093	1,913	-0,243	-0,121
264,107	42,266	-0,085	-0,054
265,122	286,936	-0,119	-0,149
266,136	800,000	-0,076	-0,224
267,151	180,980	-0,155	-0,158
268,166	-65,357	-0,249	-0,069
269,180	-132,553	-0,211	0,018
270,195	210,985	-0,240	-0,261
271,209	6,946	-0,305	-0,156
272,224	175,118	-0,193	-0,193
273,239	-36,770	-0,116	-0,043
274,253	800,000	-0,073	-0,145
275,268	-21,965	-0,292	0,122
276,282	-13,282	-0,218	-0,097
277,297	235,672	-0,123	-0,140
278,312	584,201	-0,083	-0,142
279,326	96,255	-0,121	-0,096
280,341	-193,719	-0,256	0,001
281,355	92,716	-0,209	-0,163
282,370	140,315	-0,192	-0,175
283,384	57,634	-0,206	-0,139
284,399	49,688	-0,209	-0,136
285,414	800,000	-0,058	-0,164
286,428	52,383	-0,130	-0,085
287,443	-200,000	0,005	-0,028
288,457	-159,222	-0,149	-0,006
289,472	521,436	-0,076	-0,124
290,487	-198,907	-0,133	-0,000
291,501	-34,741	-0,250	-0,094
292,516	159,214	-0,115	-0,110
293,530	319,700	-0,115	-0,151
294,545	800,000	-0,056	-0,145
295,560	-42,726	-0,084	0,029
296,574	-102,343	-0,228	-0,037
297,589	97,964	-0,279	-0,221
298,603	46,592	-0,161	-0,103
299,618	228,924	-0,223	-0,251
300,633	80,170	-0,066	-0,049
301,647	741,240	-0,055	-0,102
302,662	800,000	-0,044	-0,117
303,676	-27,739	-0,078	0,031
304,691	-41,495	-0,112	-0,039
305,706	450,674	-0,119	-0,181
306,720	378,790	-0,159	-0,224
307,735	-23,757	-0,177	-0,073
308,749	110,527	-0,100	-0,082
309,764	277,308	-0,132	-0,163
310,779	-158,426	-0,205	-0,008
311,793	30,907	-0,058	-0,034
312,808	-4,400	-0,198	-0,094
313,822	272,426	-0,095	-0,116
314,837	266,439	-0,138	-0,167
315,852	800,000	-0,055	-0,147
316,866	16,791	-0,145	-0,079
317,881	-48,134	-0,102	-0,034
318,895	-56,663	-0,190	-0,057
319,910	210,683	-0,194	-0,209
320,925	-28,951	-0,260	-0,102
321,939	-128,980	-0,081	-0,008
322,954	339,214	0,042	0,056
323,968	-9,070	-0,115	-0,053
324,983	463,029	-0,083	-0,128
325,997	415,687	0,016	0,023
327,012	324,548	-0,129	-0,170
328,027	92,535	-0,170	-0,132
329,041	800,000	-0,070	-0,148
330,056	-93,568	-0,216	0,041
331,070	-179,020	-0,154	-0,002
332,085	12,836	-0,125	-0,066
333,100	304,756	-0,102	-0,131
334,114	10,065	-0,202	-0,105
335,129	-73,477	-0,277	-0,069
336,143	-200,000	-0,001	-0,260
337,158	800,000	-0,069	-0,133
338,173	9,631	-0,137	-0,071
339,187	800,000	-0,060	-0,127
340,202	248,044	-0,082	-0,096
341,216	10,387	-0,183	-0,095
342,231	-200,000	0,033	-0,126
343,246	146,342	-0,074	-0,068
344,260	130,073	-0,159	-0,140
345,275	-200,000	-0,020	-0,102
346,289	-200,000	0,011	-0,077
347,304	-160,487	-0,097	-0,004
348,319	47,237	-0,134	-0,086
349,333	6,904	-0,188	-0,096
350,348	588,255	-0,113	-0,192
351,362	-200,000	-0,043	-0,178
352,377	-200,000	-0,014	-0,069
353,392	263,421	-0,080	-0,096
354,406	73,333	-0,093	-0,067
355,421	211,182	1312,021	1417,362
356,435	162,608	1472,409	1417,862
