DTS Sentinel unit serial number:	SN410029Multiplexer serial number:	ORYXHardware model number:	OX2-SRSoftware version number:	ORYX F/W v4,00 Oryx Data Collector v3.7.2.0data status	okinstallation	B3 Nyhavnadifferential loss correction	single-endedforward channel	channel 1reverse channel	N/Adate	2023/11/30time	18:27:30forward acquisition time	300,00reverse acquisition time	0,00gamma	499,1914k internal	0,3204k external	0,3204temperature offset calibration	1,0000default loss term (dB/km)	0,3820temperature slope calibration	1,0000multiplexer offset coefficient	1,0000multiplexer slope coefficient	1,0000fibre end	0,00T internal ref (°C)	12,68T ext. ref 1 (°C)	-2,58T ext. ref 2 (°C)	-2,68length (m)	temperature (°C)	Stokes	anti-Stokes-744,400	8,485	-0,182	-0,099
-743,385	-200,000	0,006	0,199
-742,371	605,887	-0,138	-0,252
-741,356	-200,000	0,016	0,318
-740,342	117,259	-0,263	-0,235
-739,327	-200,000	-0,064	0,339
-738,312	172,279	-0,215	-0,225
-737,298	193,939	-0,124	0,137
-736,283	470,785	-0,106	-0,173
-735,269	800,000	-0,092	0,256
-734,254	109,003	-0,159	-0,138
-733,239	467,969	-0,099	0,162
-732,225	800,000	-0,114	-0,234
-731,210	-118,690	0,272	-0,034
-730,196	-10,805	-0,035	0,017
-729,181	800,000	0,017	0,039
-728,167	-98,519	-0,110	-0,020
-727,152	616,881	-0,020	-0,037
-726,137	100,227	-0,105	-0,088
-725,123	-130,016	-0,076	-0,007
-724,108	-142,610	-0,196	-0,014
-723,094	64,864	0,036	-0,026
-722,079	5,866	-0,068	-0,037
-721,064	-109,671	0,053	0,008
-720,050	129,445	0,119	-0,111
-719,035	-200,000	0,019	-0,092
-718,021	-102,233	-0,153	0,026
-717,006	249,798	-0,066	-0,082
-715,991	601,255	-0,054	-0,097
-714,977	319,131	-0,130	-0,179
-713,962	-58,930	-0,070	0,022
-712,948	210,418	-0,137	0,157
-711,933	800,000	0,011	-0,026
-710,918	-200,000	0,031	-0,169
-709,904	-35,101	-0,093	0,037
-708,889	99,513	0,036	0,030
-707,875	751,407	-0,098	-0,194
-706,860	-134,839	0,144	0,013
-705,845	-120,627	0,129	0,016
-704,831	-127,979	-0,038	0,004
-703,816	-19,271	-0,085	0,038
-702,802	-47,525	0,024	0,009
-701,787	143,765	-0,081	-0,078
-700,772	800,000	-0,042	0,090
-699,758	218,911	0,067	0,078
-698,743	317,934	-0,034	0,047
-697,729	-200,000	0,003	0,076
-696,714	-194,879	-0,137	0,001
-695,699	-200,000	0,025	0,086
-694,685	48,159	0,033	0,022
-693,670	-95,344	-0,145	-0,028
-692,656	135,771	0,051	-0,048
-691,641	179,070	0,047	-0,050
-690,627	-200,000	0,008	0,116
-689,612	-105,513	-0,134	-0,022
-688,597	-61,079	0,095	0,029
-687,583	-200,000	-0,030	-0,114
-686,568	-128,872	0,017	-0,002
-685,554	152,253	-0,082	-0,081
-684,539	-200,000	-0,015	0,102
-683,524	-200,000	0,028	0,119
-682,510	98,584	0,085	-0,071
-681,495	-186,937	-0,108	-0,001
-680,481	-200,000	-0,000	-0,168
-679,466	-15,730	-0,052	0,024
-678,451	351,112	-0,045	-0,065
-677,437	800,000	0,047	-0,112
-676,422	-200,000	0,011	0,109
-675,408	229,617	-0,110	0,130
-674,393	-139,269	-0,063	0,005
-673,378	-200,000	0,016	-0,067
-672,364	211,013	-0,087	-0,099
-671,349	-90,198	-0,066	0,014
-670,335	411,328	-0,065	-0,100
-669,320	227,498	0,038	-0,045
-668,305	-200,000	-0,035	-0,237
-667,291	-35,891	0,113	-0,044
-666,276	200,662	-0,038	-0,042
-665,262	170,582	-0,172	-0,179
-664,247	-61,359	-0,059	0,018
-663,232	-97,970	-0,226	-0,042
-662,218	-200,000	-0,006	-0,041
-661,203	-62,432	-0,025	-0,008
-660,189	-145,318	0,027	-0,002
-659,174	-200,000	0,017	-0,171
-658,159	178,975	-0,092	-0,097
-657,145	-200,000	-0,002	-0,082
-656,130	9,570	0,154	0,084
-655,116	131,096	0,112	0,104
-654,101	208,300	0,069	0,079
-653,086	-200,000	0,006	0,027
-652,072	75,896	-0,131	-0,100
-651,057	658,830	-0,005	0,010
-650,043	451,734	0,088	-0,142
-649,028	-125,383	-0,085	0,009
-648,014	90,587	-0,100	0,081
-646,999	-200,000	0,003	-0,150
-645,984	288,960	0,109	-0,143
-644,970	-200,000	-0,000	0,044
-643,955	-53,704	0,097	-0,032
-642,941	-200,000	-0,002	0,029
-641,926	49,919	0,074	0,050
-640,911	720,105	0,025	-0,049
-639,897	-200,000	0,003	-0,154
-638,882	105,034	-0,100	0,086
-637,868	-200,000	0,014	0,046
-636,853	163,451	0,048	-0,049
-635,838	-118,587	-0,150	-0,019
-634,824	-95,407	-0,148	0,029
-633,809	800,000	0,008	-0,024
-632,795	11,173	-0,010	0,006
-631,780	-49,211	0,049	-0,017
-630,765	440,857	0,035	-0,056
-629,751	-49,815	-0,002	-0,001
-628,736	218,803	-0,021	0,024
-627,722	163,221	-0,055	0,056
-626,707	208,203	0,058	0,066
-625,692	322,286	0,121	-0,167
-624,678	800,000	-0,010	0,026
-623,663	160,587	-0,105	0,106
-622,649	-200,000	0,015	-0,123
-621,634	800,000	0,068	-0,144
-620,619	-200,000	0,038	-0,148
-619,605	12,787	-0,097	-0,054
-618,590	797,395	-0,019	0,037
-617,576	51,505	0,045	0,031
-616,561	35,400	-0,031	-0,020
-615,546	-200,000	0,016	-0,125
-614,532	-163,372	0,038	-0,001
-613,517	-12,656	-0,080	-0,037
-612,503	-113,174	0,098	0,014
-611,488	-69,314	0,015	0,004
-610,474	181,999	0,091	0,097
-609,459	328,612	-0,049	0,068
-608,444	-74,235	-0,126	0,033
-607,430	-200,000	-0,013	-0,081
-606,415	-46,600	0,060	0,021
-605,401	-200,000	0,001	-0,027
-604,386	-200,000	0,005	-0,093
-603,371	-200,000	0,004	-0,047
-602,357	-57,718	0,059	0,019
-601,342	211,272	0,071	-0,081
-600,328	30,804	-0,131	-0,081
-599,313	85,167	-0,139	-0,110
-598,298	-200,000	-0,000	0,009
-597,284	-104,388	0,012	0,002
-596,269	-200,000	0,046	0,184
-595,255	-160,471	-0,150	0,006
-594,240	575,103	0,016	-0,029
-593,225	-200,000	0,012	-0,063
-592,211	-200,000	-0,034	-0,163
-591,196	800,000	0,035	0,087
-590,182	-197,522	-0,154	0,001
-589,167	373,797	-0,034	0,050
-588,152	-200,000	0,000	0,038
-587,138	28,277	-0,039	-0,024
-586,123	-50,289	-0,158	0,054
-585,109	800,000	-0,051	0,137
-584,094	610,926	0,044	-0,079
-583,079	33,868	0,083	0,052
-582,065	156,348	-0,045	0,045
-581,050	-91,753	-0,048	-0,010
-580,036	17,390	0,094	-0,054
-579,021	101,422	-0,042	0,035
-578,006	-36,380	-0,038	0,015
-576,992	-200,000	0,021	0,111
-575,977	-59,686	-0,049	0,015
-574,963	-200,000	-0,009	0,144
-573,948	74,953	0,049	0,037
-572,934	800,000	-0,027	0,081
-571,919	-119,594	-0,094	-0,012
-570,904	-42,232	-0,013	-0,005
-569,890	-119,123	0,046	-0,006
-568,875	-162,248	0,055	0,002
-567,861	-200,000	0,042	-0,167
-566,846	564,260	-0,028	-0,049
-565,831	458,270	0,059	-0,094
-564,817	83,072	0,045	-0,035
-563,802	-200,000	-0,018	-0,170
-562,788	800,000	-0,058	-0,131
-561,773	-82,742	-0,116	-0,027
-560,758	800,000	0,054	-0,115
-559,744	62,039	-0,150	0,108
-558,729	-200,000	-0,022	-0,101
-557,715	139,697	-0,123	0,117
-556,700	264,668	-0,032	0,041
-555,685	482,400	-0,102	-0,168
-554,671	74,587	0,099	-0,075
-553,656	227,253	0,065	0,077
-552,642	-200,000	0,003	0,049
-551,627	112,489	-0,081	-0,071
-550,612	-14,443	-0,056	0,026
-549,598	382,407	-0,019	0,029
-548,583	-200,000	-0,034	-0,118
-547,569	35,559	0,118	-0,075
-546,554	-200,000	-0,007	0,152
-545,539	-120,637	0,118	0,014
-544,525	147,018	0,058	-0,056
-543,510	29,223	0,030	0,018
-542,496	292,873	-0,034	-0,044
-541,481	720,363	-0,046	-0,090
-540,466	1,129	0,079	-0,041
-539,452	800,000	-0,041	0,114
-538,437	268,241	-0,047	-0,060
-537,423	-73,050	-0,082	0,022
-536,408	16,090	0,044	0,025
-535,393	219,315	-0,049	0,057
-534,379	208,031	-0,061	-0,069
-533,364	194,023	-0,045	-0,049
-532,350	-200,000	0,003	0,076
-531,335	177,645	0,080	-0,084
-530,321	156,121	-0,101	0,101
-529,306	-42,859	-0,089	0,032
-528,291	-200,000	0,003	-0,044
-527,277	-34,263	-0,108	0,043
-526,262	-200,000	0,009	-0,032
-525,248	-200,000	0,019	0,095
-524,233	-6,769	0,075	0,037
-523,218	402,290	0,007	0,010
-522,204	-90,999	0,031	-0,006
-521,189	800,000	-0,101	-0,211
-520,175	-35,891	-0,099	-0,038
-519,160	187,164	0,037	0,039
-518,145	-129,684	-0,054	-0,005
-517,131	-200,000	-0,006	0,035
-516,116	-200,000	-0,001	-0,010
-515,102	-29,519	-0,040	0,016
-514,087	800,000	0,005	0,015
-513,072	800,000	0,028	-0,061
-512,058	800,000	0,050	0,135
-511,043	43,023	-0,092	-0,060
-510,029	-137,778	0,026	-0,002
-509,014	-200,000	0,010	0,054
-507,999	95,962	0,066	-0,054
-506,985	-200,000	0,003	0,067
-505,970	-94,505	-0,063	-0,012
-504,956	730,080	-0,054	0,104
-503,941	-200,000	-0,006	-0,123
-502,926	-122,042	0,019	0,002
-501,912	752,464	-0,016	-0,031
-500,897	-26,891	0,154	-0,064
-499,883	-200,000	-0,034	0,112
-498,868	56,623	0,019	0,013
-497,853	-200,000	0,013	0,093
-496,839	-16,012	0,115	0,052
-495,824	389,188	-0,156	0,233
-494,810	14,608	0,107	0,060
-493,795	355,773	-0,041	-0,058
-492,781	97,111	-0,065	-0,054
-491,766	800,000	0,038	-0,079
-490,751	-75,258	-0,092	-0,024
-489,737	-200,000	-0,015	0,091
-488,722	-200,000	-0,006	0,077
-487,708	-200,000	0,007	0,057
-486,693	800,000	-0,022	0,045
-485,678	-200,000	-0,008	-0,066
-484,664	800,000	0,053	-0,120
-483,649	489,483	0,033	-0,055
-482,635	-11,501	-0,109	0,051
-481,620	-81,476	0,086	0,020
-480,605	-109,851	0,115	0,017
-479,591	800,000	0,024	0,062
-478,576	55,160	-0,048	-0,033
-477,562	549,293	-0,036	-0,063
-476,547	-200,000	0,024	0,134
-475,532	800,000	-0,034	-0,102
-474,518	-178,327	0,117	-0,002
-473,503	-53,929	-0,064	-0,021
-472,489	22,041	-0,038	-0,022
-471,474	-200,000	0,007	0,028
-470,459	-200,000	0,004	0,069
-469,445	458,804	-0,052	-0,084
-468,430	5,005	-0,217	-0,114
-467,416	-83,786	0,198	0,045
-466,401	800,000	-0,048	0,119
-465,386	-200,000	-0,033	0,146
-464,372	-36,847	0,110	-0,042
-463,357	-200,000	0,014	-0,106
-462,343	-1,458	-0,081	0,041
-461,328	375,313	-0,034	0,050
-460,313	73,021	0,062	0,046
-459,299	-87,617	-0,147	-0,032
-458,284	383,507	-0,094	0,140
-457,270	49,682	0,075	-0,050
-456,255	5,343	-0,057	0,030
-455,241	-38,081	-0,103	-0,039
-454,226	348,656	-0,033	0,047
-453,211	156,573	0,090	-0,089
-452,197	-200,000	0,016	-0,121
-451,182	800,000	0,089	0,201
-450,168	-131,856	0,212	0,020
-449,153	-121,267	-0,058	0,007
-448,138	42,895	-0,147	-0,096
-447,124	-2,382	-0,036	-0,018
-446,109	-200,000	-0,008	0,109
-445,095	-105,500	0,116	-0,019
-444,080	-200,000	0,013	0,090
-443,065	81,844	-0,048	0,038
-442,051	21,552	-0,132	-0,077
-441,036	186,959	-0,047	-0,050
-440,022	800,000	-0,031	-0,078
-439,007	271,689	-0,072	0,091
-437,992	144,879	-0,096	0,092
-436,978	-200,000	0,011	-0,042
-435,963	185,817	-0,013	-0,014
-434,949	53,995	-0,044	-0,030
-433,934	603,539	0,076	-0,136
-432,919	-200,000	0,000	-0,154
-431,905	-200,000	-0,011	0,080
-430,890	-55,704	-0,060	-0,019
-429,876	-26,703	-0,059	0,025
-428,861	-50,924	0,104	0,035
-427,846	-59,788	-0,044	0,013
-426,832	147,010	-0,105	0,101
-425,817	-200,000	0,010	-0,077
-424,803	23,110	-0,083	-0,049
-423,788	-200,000	-0,003	0,171
-422,773	800,000	-0,019	0,058
-421,759	-128,004	0,166	-0,017
-420,744	-200,000	-0,013	-0,136
-419,730	107,776	0,022	0,019
-418,715	-97,796	-0,098	-0,018
-417,701	514,865	-0,019	-0,032
-416,686	-200,000	-0,010	0,074
-415,671	715,098	-0,025	0,048
-414,657	360,528	0,084	0,121
-413,642	-112,907	-0,074	0,010
-412,628	4,641	-0,111	0,059
-411,613	-104,996	-0,106	-0,017
-410,598	614,731	0,022	-0,039
-409,584	-200,000	0,001	-0,041
-408,569	-200,000	0,048	0,172
-407,555	427,471	0,079	0,122
-406,540	-200,000	0,006	0,138
-405,525	-49,623	-0,114	-0,039
-404,511	-63,799	-0,197	-0,057
-403,496	-50,800	0,014	-0,005
-402,482	30,960	-0,050	0,031
-401,467	-144,699	0,133	-0,009
-400,452	-200,000	0,008	0,060
-399,438	5,717	0,043	0,023
-398,423	800,000	-0,037	0,092
-397,409	431,196	-0,049	-0,076
-396,394	-30,108	-0,090	-0,037
-395,379	68,241	0,078	-0,057
-394,365	-200,000	0,002	-0,013
-393,350	511,480	-0,033	0,056
-392,336	-141,160	-0,124	-0,009
-391,321	-154,378	-0,050	-0,002
-390,306	-200,000	0,008	-0,055
-389,292	323,757	0,052	-0,071
-388,277	-158,851	-0,086	-0,003
-387,263	-101,651	0,137	0,024
-386,248	18,267	-0,098	0,056
-385,233	164,657	0,116	0,117
-384,219	26,491	-0,046	-0,027
-383,204	629,299	0,049	-0,089
-382,190	164,822	0,037	-0,037
-381,175	-77,052	0,056	0,014
-380,160	683,317	0,002	0,004
-379,146	800,000	0,057	0,159
-378,131	142,865	0,023	0,022
-377,117	-12,036	0,057	0,027
-376,102	-130,311	0,138	0,013
-375,088	-200,000	-0,033	-0,136
-374,073	-62,483	-0,132	-0,039
-373,058	-151,322	0,057	-0,003
-372,044	-200,000	-0,013	-0,112
-371,029	-16,246	-0,062	0,028
-370,015	151,371	0,022	-0,021
-369,000	-200,000	-0,035	-0,147
-367,985	-200,000	-0,043	-0,200
-366,971	-181,429	0,135	0,002
-365,956	89,701	0,083	0,066
-364,942	800,000	-0,018	-0,054
-363,927	-54,625	0,156	0,050
-362,912	800,000	0,033	-0,073
-361,898	800,000	-0,017	-0,047
-360,883	-71,901	0,056	0,015
-359,869	-200,000	0,006	-0,022
-358,854	-153,166	-0,162	0,008
-357,839	-42,830	0,024	0,009
-356,825	4,904	0,127	0,067
-355,810	490,020	-0,076	0,125
-354,796	14,143	0,031	0,017
-353,781	122,295	-0,046	-0,041
-352,766	713,910	-0,070	-0,133
-351,752	-69,670	0,134	-0,037
-350,737	-99,516	-0,035	0,006
-349,723	-104,888	0,088	0,014
-348,708	800,000	0,028	-0,059
-347,693	605,808	0,027	0,048
-346,679	-200,000	-0,013	-0,079
-345,664	58,059	0,021	-0,015
-344,650	-37,855	0,048	-0,018
-343,635	-175,816	-0,034	0,001
-342,620	139,280	0,071	0,067
-341,606	83,002	0,098	0,076
-340,591	56,756	0,069	-0,048
-339,577	-200,000	0,004	-0,036
-338,562	274,737	-0,035	-0,044
-337,548	-200,000	0,008	0,074
-336,533	800,000	0,015	0,037
-335,518	88,235	0,051	0,041
-334,504	-81,736	-0,112	-0,026
-333,489	-32,202	0,063	0,025
-332,475	800,000	0,032	-0,091
-331,460	170,826	-0,076	-0,078
-330,445	-42,365	0,074	0,027
-329,431	-10,003	0,034	-0,016
-328,416	-200,000	0,004	0,092
-327,402	-169,081	-0,124	0,003
-326,387	-21,360	-0,082	-0,036
-325,372	-108,126	-0,037	-0,006
-324,358	800,000	-0,032	-0,097
-323,343	-200,000	0,021	-0,121
-322,329	800,000	-0,012	0,033
-321,314	-200,000	-0,015	-0,072
-320,299	-168,761	-0,093	-0,002
-319,285	-77,650	-0,051	0,013
-318,270	68,081	-0,135	0,098
-317,256	196,140	-0,029	-0,032
-316,241	800,000	-0,027	0,066
-315,226	285,601	0,054	0,070
-314,212	1,776	0,160	0,082
-313,197	225,819	0,086	0,099
-312,183	800,000	-0,053	0,127
-311,168	800,000	0,038	-0,085
-310,153	800,000	0,070	-0,177
-309,139	16,907	0,097	0,055
-308,124	402,313	0,103	0,156
-307,110	17,460	0,197	0,111
-306,095	-200,000	0,003	0,149
-305,080	161,300	0,050	0,050
-304,066	437,130	-0,064	-0,099
-303,051	-132,691	0,047	0,004
-302,037	540,728	0,055	-0,094
-301,022	800,000	-0,011	-0,024
-300,008	-200,000	0,020	0,082
-298,993	-200,000	0,003	0,124
-297,978	-200,000	-0,005	0,016
-296,964	-164,229	-0,098	-0,003
-295,949	-114,783	-0,139	-0,019
-294,935	32,967	0,022	-0,013
-293,920	-55,458	0,094	-0,030
-292,905	162,326	0,060	-0,060
-291,891	-11,181	0,106	0,050
-290,876	-200,000	-0,038	-0,127
-289,862	674,970	-0,074	-0,138
-288,847	215,873	0,088	-0,099
-287,832	-95,112	-0,049	0,009
-286,818	-38,540	0,058	-0,022
-285,803	149,004	-0,074	0,071
-284,789	518,636	0,037	0,063
-283,774	-89,861	0,115	-0,024
-282,759	800,000	-0,021	-0,050
-281,745	563,043	-0,029	0,050
-280,730	-200,000	0,008	-0,037
-279,716	-67,622	-0,055	0,015
-278,701	-200,000	0,011	0,117
-277,686	800,000	0,017	0,046
-276,672	800,000	0,060	0,136
-275,657	1,111	0,154	0,079
-274,643	694,500	-0,014	0,027
-273,628	3,727	0,169	-0,088
-272,613	-12,713	-0,084	0,039
-271,599	800,000	0,046	0,121
-270,584	-200,000	0,001	0,089
-269,570	-200,000	0,047	0,266
-268,555	-71,359	-0,108	-0,029
-267,540	108,328	0,022	0,019
-266,526	247,509	-0,091	0,110
-265,511	-200,000	0,002	0,040
-264,497	800,000	0,052	0,108
-263,482	172,896	0,120	0,124
-262,467	-12,593	0,117	0,054
-261,453	28,530	0,080	0,048
-260,438	61,161	0,038	0,027
-259,424	-34,887	0,121	0,047
-258,409	-200,000	0,001	-0,022
-257,395	-24,787	0,114	0,048
-256,380	-200,000	-0,031	0,121
-255,365	-11,994	0,090	0,042
-254,351	72,190	0,051	0,038
-253,336	-107,638	0,099	-0,015
-252,322	-200,000	0,004	-0,034
-251,307	-87,563	0,083	-0,018
-250,292	-14,621	-0,039	-0,018
-249,278	-38,556	-0,038	0,014
-248,263	-93,524	0,064	0,013
-247,249	281,873	-0,081	-0,104
-246,234	-120,285	0,050	-0,006
-245,219	-95,079	-0,112	-0,021
-244,205	800,000	-0,026	0,065
-243,190	800,000	-0,036	0,091
-242,176	-72,734	-0,088	0,023
-241,161	-112,405	0,158	0,022
-240,146	370,752	0,051	-0,074
-239,132	27,345	-0,143	0,085
-238,117	266,991	-0,055	-0,069
-237,103	-200,000	0,015	-0,101
-236,088	-200,000	-0,006	0,067
-235,073	385,634	0,018	-0,026
-234,059	-100,740	0,156	0,027
-233,044	-44,228	0,091	-0,032
-232,030	664,556	-0,048	-0,090
-231,015	239,886	-0,051	-0,060
-230,000	-119,093	0,016	-0,002
-228,986	229,134	-0,136	-0,158
-227,971	-159,067	0,153	0,006
-226,957	179,599	0,055	0,058
-225,942	473,578	-0,015	-0,025
-224,927	-82,383	-0,105	-0,024
-223,913	800,000	-0,007	-0,020
-222,898	800,000	0,024	-0,060
-221,884	-200,000	-0,000	0,036
-220,869	110,557	0,085	0,073
-219,855	57,714	0,123	0,085
-218,840	52,817	-0,107	-0,073
-217,825	-106,113	-0,059	-0,009
-216,811	283,646	0,063	0,081
-215,796	771,930	0,053	-0,104
-214,782	-139,617	-0,136	0,010
-213,767	156,619	0,127	0,125
-212,752	246,773	0,070	-0,084
-211,738	800,000	0,033	0,070
-210,723	-200,000	-0,020	-0,151
-209,709	800,000	-0,022	-0,054
-208,694	-155,617	-0,121	0,005
-207,679	-200,000	-0,008	-0,044
-206,665	800,000	-0,057	-0,126
-205,650	82,991	-0,016	-0,012
-204,636	800,000	0,034	0,082
-203,621	-200,000	0,007	0,106
-202,606	-143,675	-0,145	0,010
-201,592	69,906	0,170	0,125
-200,577	10,454	-0,065	-0,035
-199,563	53,564	0,059	0,040
-198,548	574,934	-0,040	0,069
-197,533	800,000	0,054	0,137
-196,519	-200,000	-0,001	0,041
-195,504	94,634	-0,070	-0,057
-194,490	-7,920	-0,145	-0,069
-193,475	318,024	0,064	-0,086
-192,460	170,094	-0,017	0,017
-191,446	-106,514	-0,076	0,012
-190,431	627,593	0,059	0,106
-189,417	-200,000	-0,003	0,100
-188,402	65,419	0,061	-0,044
-187,387	334,027	-0,086	-0,119
-186,373	800,000	0,036	-0,088
-185,358	518,181	0,041	0,068
-184,344	-200,000	0,013	0,111
-183,329	394,266	0,047	0,070
-182,315	-7,707	0,051	0,025
-181,300	-200,000	-0,022	-0,069
-180,285	82,581	-0,073	-0,057
-179,271	674,452	-0,022	-0,041
-178,256	414,727	0,049	0,075
-177,242	-200,000	0,003	0,036
-176,227	-11,813	0,153	-0,071
-175,212	-87,082	0,071	-0,015
-174,198	-126,081	0,133	-0,014
-173,183	343,157	-0,037	-0,052
-172,169	392,497	-0,074	-0,109
-171,154	-200,000	0,006	-0,019
-170,139	323,240	-0,072	-0,098
-169,125	790,964	0,035	0,069
-168,110	-92,918	0,093	-0,018
-167,096	-200,000	-0,020	-0,078
-166,081	-200,000	-0,019	0,068
-165,066	216,640	-0,116	-0,132
-164,052	457,729	0,029	-0,046
-163,037	195,371	0,071	-0,077
-162,023	-42,220	-0,029	0,010
-161,008	-146,216	-0,132	0,008
-159,993	-113,473	0,079	-0,011
-158,979	183,989	0,066	-0,070
-157,964	800,000	0,047	-0,102
-156,950	-200,000	0,005	-0,109
-155,935	229,739	-0,067	0,078
-154,920	-200,000	-0,003	-0,112
-153,906	-13,920	0,073	-0,033
-152,891	-200,000	-0,013	-0,058
-151,877	103,788	-0,044	-0,037
-150,862	800,000	0,035	-0,086
-149,847	-118,336	-0,132	0,016
-148,833	7,681	0,089	-0,047
-147,818	219,081	0,043	-0,049
-146,804	691,981	0,071	-0,132
-145,789	751,403	-0,054	0,105
-144,775	-200,000	-0,009	0,145
-143,760	800,000	-0,056	0,164
-142,745	246,030	0,105	-0,126
-141,731	-146,172	-0,116	0,007
-140,716	-179,848	0,095	-0,001
-139,702	387,423	0,130	0,191
-138,687	-200,000	0,014	0,109
-137,672	252,287	-0,073	0,089
-136,658	471,941	-0,051	-0,082
-135,643	-26,683	0,048	0,020
-134,629	-54,765	0,082	-0,026
-133,614	27,985	0,065	-0,039
-132,599	-200,000	0,001	0,110
-131,585	26,702	0,113	-0,067
-130,570	-98,011	0,092	0,017
-129,556	-200,000	0,000	0,078
-128,541	-137,404	-0,045	-0,004
-127,526	-102,569	-0,178	0,030
-126,512	-117,746	0,074	0,009
-125,497	145,229	0,081	-0,077
-124,483	-8,324	0,092	-0,044
-123,468	-200,000	0,027	-0,107
-122,453	-42,603	0,103	-0,037
-121,439	578,283	0,021	0,037
-120,424	800,000	0,058	0,134
-119,410	-100,515	-0,088	-0,015
-118,395	-200,000	0,002	-0,025
-117,380	-200,000	0,010	-0,059
-116,366	800,000	0,044	0,096
-115,351	-31,095	-0,100	0,040
-114,337	-101,102	-0,025	0,004
-113,322	-46,223	-0,040	0,014
-112,307	-200,000	0,026	-0,099
-111,293	10,082	0,036	0,019
-110,278	-12,889	-0,100	0,046
-109,264	-200,000	0,007	0,027
-108,249	-169,767	0,100	-0,002
-107,234	-110,102	-0,129	-0,019
-106,220	234,272	0,074	-0,087
-105,205	-200,000	0,035	0,151
-104,191	-200,000	-0,014	-0,146
-103,176	209,019	0,079	-0,088
-102,162	633,366	-0,048	-0,086
-101,147	-200,000	-0,002	-0,071
-100,132	692,403	0,038	-0,071
-99,118	-41,847	-0,065	0,024
-98,103	-83,945	-0,070	0,016
-97,089	-200,000	-0,007	0,161
-96,074	800,000	-0,053	0,148
-95,059	307,162	0,052	0,068
-94,045	-200,000	0,006	0,128
-93,030	-94,497	-0,143	0,027
-92,016	422,370	-0,063	-0,097
-91,001	-200,000	0,010	-0,051
-89,986	-12,113	0,070	0,032
-88,972	-200,000	0,017	0,000
-87,957	-200,000	-0,033	0,121
-86,943	800,000	-0,031	-0,069
-85,928	-200,000	-0,028	0,099
-84,913	800,000	-0,003	0,007
-83,899	-200,000	-0,002	0,090
-82,884	-15,125	0,108	-0,049
-81,870	120,862	-0,060	-0,052
-80,855	204,237	0,087	0,095
-79,840	-126,638	-0,139	-0,014
-78,826	287,400	0,060	-0,077
-77,811	-200,000	0,039	-0,220
-76,797	-200,000	0,004	-0,105
-75,782	-200,000	-0,008	-0,108
-74,767	-200,000	0,042	0,149
-73,753	255,890	0,080	0,097
-72,738	800,000	-0,036	-0,110
-71,724	-200,000	-0,026	-0,107
-70,709	-200,000	-0,001	-0,091
-69,694	-7,473	-0,114	-0,054
-68,680	-181,157	0,088	0,001
-67,665	-41,088	0,076	0,028
-66,651	86,598	-0,057	-0,044
-65,636	-200,000	0,011	0,130
-64,622	-113,530	-0,127	-0,017
-63,607	-127,213	-0,217	0,022
-62,592	-159,490	0,118	0,005
-61,578	172,495	0,106	0,108
-60,563	402,145	0,030	0,045
-59,549	-200,000	-0,003	0,059
-58,534	3,640	-1,695	-0,872
-57,519	383,321	-1,439	-2,102
-56,505	-200,000	-0,573	-4,333
-55,490	480,874	0,838	1,350
-54,476	800,000	4,846	11,330
-53,461	-200,000	19,667	330,048
-52,446	-200,000	743,901	2338,720
-51,432	568,926	1653,287	2853,918
-50,417	77,004	1666,573	1250,864
-49,403	20,581	1540,205	879,053
-48,388	14,551	1462,649	805,545
-47,373	18,553	1452,940	819,439
-46,359	16,795	1442,597	805,178
-45,344	12,803	1438,244	783,650
-44,330	12,725	1436,106	782,083
-43,315	12,746	1434,335	781,188
-42,300	12,744	1432,839	780,332
-41,286	12,766	1431,514	779,684
-40,271	12,718	1430,287	778,757
-39,257	12,714	1428,817	777,908
-38,242	12,776	1427,517	777,464
-37,227	12,771	1426,469	776,839
-36,213	12,756	1425,301	776,102
-35,198	12,759	1423,916	775,329
-34,184	12,815	1423,094	775,115
-33,169	12,770	1421,532	774,021
-32,154	12,768	1420,677	773,516
-31,140	12,799	1419,435	772,957
-30,125	12,828	1418,254	772,419
-29,111	12,788	1417,065	771,552
-28,096	12,807	1415,985	771,021
-27,082	12,762	1415,042	770,266
-26,067	12,716	1413,997	769,449
-25,052	12,720	1413,039	768,917
-24,038	12,699	1412,021	768,233
-23,023	12,718	1410,811	767,634
-22,009	12,680	1409,785	766,867
-20,994	12,696	1408,988	766,478
-19,979	12,653	1408,245	765,843
-18,965	12,628	1407,246	765,154
-17,950	12,641	1406,128	764,574
-16,936	12,681	1405,337	764,304
-15,921	12,613	1404,301	763,393
-14,906	12,628	1403,310	762,890
-13,892	12,629	1402,373	762,356
-12,877	12,628	1401,517	761,855
-11,863	12,608	1400,761	761,323
-10,848	12,589	1399,823	760,692
-9,833	12,550	1399,007	760,041
-8,819	12,526	1398,094	759,402
-7,804	12,527	1397,372	758,985
-6,790	12,521	1396,325	758,356
-5,775	12,534	1394,992	757,665
-4,760	12,551	1393,979	757,163
-3,746	12,517	1393,153	756,525
-2,731	12,509	1392,260	755,975
-1,717	12,492	1391,564	755,487
-0,702	12,493	1389,706	754,453
0,313	16,242	1305,713	726,181
1,327	32,418	699,122	425,960
2,342	49,832	122,116	81,247
3,356	0,896	16,599	8,380
4,371	-2,483	3,258	1,607
5,386	-41,287	0,718	0,260
6,400	673,622	0,151	0,278
7,415	700,016	-0,125	-0,234
8,429	119,022	-0,364	-0,318
9,444	222,394	-0,219	-0,250
10,459	-0,290	-0,188	-0,094
11,473	189,314	-0,228	-0,241
12,488	-25,804	-0,206	-0,086
13,502	147,425	-0,247	-0,235
14,517	143,731	-0,309	-0,291
15,531	105,439	-0,410	-0,342
16,546	-65,501	-0,411	-0,116
17,561	263,558	-0,263	-0,324
18,575	-117,227	-0,217	-0,028
19,590	-67,958	-0,186	-0,051
20,604	56,980	-0,248	-0,170
21,619	46,440	-0,387	-0,253
22,634	164,569	-0,472	-0,470
23,648	256,726	-0,269	-0,326
24,663	124,920	-0,377	-0,335
25,677	23,964	-0,350	-0,203
26,692	-6,580	-0,299	-0,143
27,707	236,219	-0,202	-0,236
28,721	29,350	-0,458	-0,274
29,736	-87,909	-0,420	-0,088
30,750	60,626	-0,317	-0,221
31,765	27,801	-0,441	-0,261
32,780	149,966	-0,303	-0,290
33,794	172,690	-0,322	-0,327
34,809	-60,191	-0,284	-0,085
35,823	27,337	-0,417	-0,246
36,838	81,766	-0,328	-0,250
37,853	175,846	-0,364	-0,373
38,867	389,516	-0,259	-0,380
39,882	112,844	-0,364	-0,311
40,896	462,982	-0,210	-0,332
41,911	85,499	-0,267	-0,206
42,926	116,353	-0,326	-0,281
43,940	68,000	-0,392	-0,282
44,955	23,128	-0,271	-0,156
45,969	421,668	-0,283	-0,429
46,984	9,926	-0,429	-0,229
47,999	237,352	-0,214	-0,250
49,013	111,502	-0,418	-0,355
50,028	22,961	-0,405	-0,233
51,042	-22,782	-0,471	-0,199
52,057	213,272	-0,226	-0,252
53,071	-70,424	-0,465	-0,123
54,086	-28,005	-0,262	-0,106
55,101	-23,628	-0,275	-0,116
56,115	143,643	-0,267	-0,251
57,130	64,656	-0,324	-0,230
58,144	194,802	-0,311	-0,333
59,159	117,848	-0,393	-0,341
60,174	115,331	-0,320	-0,275
61,188	-45,200	-0,424	-0,147
62,203	168,218	-0,217	-0,217
63,217	-11,406	-0,290	-0,134
64,232	83,069	-0,296	-0,227
65,247	136,896	-0,353	-0,324
66,261	146,330	-0,362	-0,342
67,276	119,565	-0,273	-0,238
68,290	-35,507	-0,341	-0,129
69,305	44,127	-0,287	-0,184
70,320	-4,683	-0,339	-0,164
71,334	68,773	-0,289	-0,208
72,349	95,171	-0,281	-0,225
73,363	112,948	-0,355	-0,302
74,378	55,732	-0,271	-0,184
75,393	-103,514	-0,322	-0,053
76,407	-168,260	-0,142	0,004
77,422	-66,018	-0,281	-0,078
78,436	-39,423	-0,352	-0,129
79,451	13,436	-0,341	-0,185
80,466	147,513	-0,239	-0,226
81,480	-11,485	-0,294	-0,135
82,495	22,087	-0,351	-0,201
83,509	25,815	-0,261	-0,152
84,524	135,027	-0,315	-0,287
85,539	-15,216	-0,253	-0,113
86,553	-42,875	-0,386	-0,137
87,568	37,409	-0,302	-0,187
88,582	84,261	-0,289	-0,222
89,597	190,343	-0,238	-0,251
90,611	-17,808	-0,301	-0,132
91,626	82,726	-0,301	-0,229
92,641	51,599	-0,155	-0,103
93,655	190,668	-0,276	-0,291
94,670	109,537	-0,243	-0,204
95,684	8,714	-0,304	-0,160
96,699	29,380	-0,248	-0,147
97,714	43,380	-0,254	-0,162
98,728	-32,663	-0,311	-0,121
99,743	-90,434	-0,323	-0,065
100,757	42,470	-0,315	-0,200
101,772	44,167	-0,164	-0,105
102,787	-17,824	-0,237	-0,104
103,801	6,643	-0,177	-0,092
104,816	115,499	-0,208	-0,178
105,830	57,394	-0,324	-0,221
106,845	57,754	-0,251	-0,171
107,860	-61,319	-0,341	-0,100
108,874	14,566	-0,367	-0,200
109,889	-58,412	-0,457	-0,138
110,903	-8,281	-0,257	-0,121
111,918	224,580	-0,186	-0,211
112,933	10,848	-0,187	-0,100
113,947	137,767	-0,306	-0,280
114,962	24,965	-0,201	-0,117
115,976	36,445	-0,287	-0,177
116,991	170,072	-0,167	-0,168
118,006	444,836	-0,133	-0,205
119,020	-27,022	-0,239	-0,097
120,035	101,928	-0,157	-0,128
121,049	-38,235	-0,152	-0,056
122,064	142,916	-0,108	-0,100
123,079	133,961	-0,208	-0,189
124,093	-41,073	-0,420	-0,151
125,108	0,283	-0,196	-0,097
126,122	-26,511	-0,257	-0,105
127,137	-45,346	-0,366	-0,126
128,151	43,075	-0,116	-0,074
129,166	-11,617	-0,268	-0,123
130,181	90,057	-0,254	-0,198
131,195	259,954	-0,287	-0,347
132,210	112,171	-0,280	-0,237
133,224	398,061	-0,193	-0,284
134,239	-28,924	-0,215	-0,086
135,254	41,197	-0,294	-0,185
136,268	157,552	-0,185	-0,179
137,283	91,043	-0,142	-0,111
138,297	48,460	-0,188	-0,123
139,312	92,614	-0,198	-0,156
140,327	277,662	-0,207	-0,258
141,341	98,393	-0,256	-0,206
142,356	251,475	-0,123	-0,146
143,370	141,322	-0,186	-0,172
144,385	-78,807	-0,240	-0,057
145,400	24,704	-0,201	-0,116
146,414	69,116	-0,321	-0,230
147,429	418,769	-0,172	-0,258
148,443	2,366	-0,331	-0,166
149,458	74,754	-0,254	-0,186
150,473	26,385	-0,246	-0,143
151,487	62,763	-0,294	-0,205
152,502	197,849	-0,189	-0,202
153,516	41,504	-0,260	-0,164
154,531	-2,821	-0,180	-0,087
155,546	-108,120	-0,282	-0,042
156,560	191,357	-0,223	-0,235
157,575	114,509	-0,135	-0,115
158,589	20,219	-0,302	-0,169
159,604	101,619	-0,157	-0,127
160,619	15,249	-0,281	-0,153
161,633	13,829	-0,239	-0,129
162,648	173,111	-0,158	-0,159
163,662	-86,388	-0,136	0,029
164,677	-35,606	-0,163	-0,061
165,692	-63,850	-0,155	-0,044
166,706	138,121	-0,152	-0,139
167,721	222,049	-0,184	-0,206
168,735	14,050	-0,145	-0,078
169,750	-40,355	-0,155	-0,056
170,764	13,116	-0,243	-0,131
171,779	-114,978	-0,150	0,020
172,794	-104,144	-0,179	0,029
173,808	-34,181	-0,268	-0,102
174,823	212,881	-0,274	-0,301
175,837	663,583	-0,116	-0,210
176,852	69,642	-0,221	-0,158
177,867	-108,233	-0,163	-0,024
178,881	-143,899	-0,210	-0,014
179,896	-126,935	-0,278	-0,028
180,910	-49,026	-0,213	-0,070
181,925	-0,330	-0,319	-0,157
182,940	58,801	-0,201	-0,137
183,954	25,710	-0,213	-0,123
184,969	61,963	-0,268	-0,185
185,983	107,806	-0,193	-0,160
186,998	-9,813	-0,187	-0,086
188,013	-30,333	-0,131	-0,051
189,027	-84,756	-0,231	-0,050
190,042	105,559	-0,194	-0,159
191,056	173,155	-0,304	-0,305
192,071	651,560	-0,140	-0,250
193,086	154,162	-0,191	-0,183
194,100	800,000	-0,073	-0,183
195,115	-135,961	-0,259	0,021
196,129	-20,430	-0,244	-0,104
197,144	205,794	-0,221	-0,240
198,159	416,764	-0,173	-0,257
199,173	-24,868	-0,195	-0,080
200,188	140,620	-0,128	-0,117
201,202	-44,409	-0,170	-0,059
202,217	174,341	-0,066	-0,066
203,232	800,000	-0,132	-0,264
204,246	114,005	-0,255	-0,216
205,261	46,626	-0,221	-0,142
206,275	-49,389	-0,177	-0,058
207,290	-40,034	-0,241	-0,087
208,304	-24,302	-0,191	-0,079
209,319	-126,854	-0,200	-0,020
210,334	56,243	-0,219	-0,147
211,348	-123,597	-0,215	-0,023
212,363	302,039	-0,233	-0,299
213,377	249,547	-0,173	-0,204
214,392	86,630	-0,171	-0,131
215,407	97,134	-0,189	-0,150
216,421	-103,679	-0,187	-0,030
217,436	280,499	-0,106	-0,131
218,450	21,334	-0,340	-0,191
219,465	-18,489	-0,146	-0,063
220,480	-200,000	0,005	-0,226
221,494	800,000	-0,047	-0,119
222,509	6,821	-0,181	-0,093
223,523	67,620	-0,137	-0,097
224,538	226,185	-0,220	-0,247
225,553	32,941	-0,172	-0,103
226,567	173,929	-0,222	-0,223
227,582	-133,079	-0,218	-0,019
228,596	800,000	-0,083	-0,164
229,611	86,452	-0,073	-0,056
230,626	-152,638	-0,186	0,009
231,640	-22,688	-0,264	-0,110
232,655	28,753	-0,394	-0,230
233,669	-90,358	-0,233	-0,046
234,684	320,588	-0,179	-0,236
235,699	165,380	-0,151	-0,148
236,713	-78,762	-0,174	-0,041
237,728	-95,583	-0,223	-0,041
238,742	186,861	-0,124	-0,128
239,757	-16,894	-0,274	-0,119
240,772	13,857	-0,253	-0,136
241,786	13,918	-0,073	-0,039
242,801	244,761	-0,138	-0,161
243,815	-17,757	-0,135	-0,059
244,830	-110,616	-0,190	-0,027
245,844	-49,999	-0,267	-0,087
246,859	-34,078	-0,095	-0,036
247,874	195,449	-0,177	-0,186
248,888	253,302	-0,219	-0,259
249,903	351,680	-0,177	-0,244
250,917	13,740	-0,154	-0,083
251,932	800,000	-0,102	-0,259
252,947	-1,613	-0,188	-0,091
253,961	-79,668	-0,283	-0,066
254,976	-53,402	-0,174	-0,055
255,990	308,955	-0,147	-0,190
257,005	-200,000	-0,059	-0,284
258,020	-7,285	-0,183	-0,085
259,034	-41,233	-0,080	-0,028
260,049	800,000	-0,111	-0,269
261,063	241,151	-0,245	-0,284
262,078	447,839	-0,160	-0,244
263,093	-135,152	-0,175	-0,014
264,107	48,450	-0,185	-0,120
265,122	-19,517	-0,044	-0,019
266,136	47,243	-0,169	-0,109
267,151	265,680	-0,115	-0,139
268,166	313,177	-0,153	-0,200
269,180	800,000	-0,114	-0,290
270,195	32,636	-0,157	-0,094
271,209	800,000	-0,102	-0,291
272,224	-67,063	-0,241	-0,065
273,239	-99,043	-0,089	-0,015
274,253	-54,318	-0,165	0,051
275,268	460,437	-0,098	-0,151
276,282	278,474	-0,210	-0,259
277,297	-40,893	-0,350	-0,124
278,312	625,195	-0,096	-0,168
279,326	172,184	-0,128	-0,128
280,341	-72,770	-0,157	-0,040
281,355	-121,100	-0,165	-0,019
282,370	222,959	-0,225	-0,251
283,384	29,839	-0,113	-0,066
284,399	121,204	-0,270	-0,232
285,414	289,180	-0,150	-0,188
286,428	-155,714	-0,105	0,005
287,443	-200,000	0,006	-0,201
288,457	-200,000	0,022	-0,127
289,472	-41,356	-0,109	-0,038
290,487	-70,411	-0,177	-0,046
291,501	800,000	-0,106	-0,279
292,516	38,805	-0,181	-0,111
293,530	50,295	-0,130	-0,084
294,545	-149,763	-0,105	-0,006
295,560	-200,000	0,001	-0,059
296,574	-5,696	-0,174	-0,082
297,589	494,580	-0,089	-0,141
298,603	-2,878	-0,222	-0,107
299,618	188,293	-0,199	-0,205
300,633	-69,068	-0,183	0,048
301,647	41,053	-0,230	-0,143
302,662	332,842	-0,105	-0,140
303,676	124,107	-0,102	-0,088
304,691	137,919	-0,222	-0,200
305,706	49,962	-0,095	-0,062
306,720	15,284	-0,252	-0,136
307,735	165,709	-0,163	-0,159
308,749	-126,936	-0,124	0,012
309,764	448,154	0,033	0,051
310,779	139,670	-0,174	-0,158
311,793	-173,632	-0,262	0,005
312,808	180,875	-0,110	-0,111
313,822	800,000	-0,096	-0,225
314,837	695,973	-0,093	-0,170
315,852	136,785	-0,130	-0,116
316,866	-200,000	-0,030	-0,156
317,881	440,596	-0,077	0,117
318,895	175,366	-0,155	-0,155
319,910	-88,170	-0,206	-0,042
320,925	-32,429	-0,161	0,062
321,939	113,612	-0,127	-0,106
322,954	1,441	-0,125	-0,062
323,968	-200,000	-0,016	-0,122
324,983	127,595	-0,172	-0,150
325,997	370,283	-0,116	-0,162
327,012	217,137	-0,197	-0,216
328,027	800,000	-0,078	-0,220
329,041	54,781	-0,147	-0,097
330,056	-117,261	-0,199	-0,025
331,070	-200,000	0,016	0,063
332,085	22,517	-0,109	-0,061
333,100	464,100	-0,074	-0,114
334,114	800,000	-0,063	-0,147
335,129	66,018	-0,228	-0,158
336,143	301,854	-0,088	-0,112
337,158	-91,164	-0,086	-0,017
338,173	32,079	-0,081	-0,048
339,187	800,000	0,022	-0,047
340,202	277,527	-0,223	-0,273
341,216	-30,214	-0,175	-0,068
342,231	150,928	-0,157	-0,146
343,246	381,969	-0,108	-0,152
344,260	-44,146	-0,127	-0,044
345,275	-200,000	0,024	0,088
346,289	800,000	-0,069	-0,141
347,304	150,617	-0,144	-0,134
348,319	-200,000	0,009	-0,043
349,333	800,000	-0,113	-0,338
350,348	244,045	-0,180	-0,207
351,362	-200,000	-0,008	-0,032
352,377	800,000	-0,031	-0,067
353,392	-200,000	-0,008	-0,095
354,406	-108,772	-0,195	0,028
355,421	208,739	1311,531	1408,208
356,435	160,624	1471,888	1408,709
