DTS Sentinel unit serial number:	SN410029Multiplexer serial number:	ORYXHardware model number:	OX2-SRSoftware version number:	ORYX F/W v4,00 Oryx Data Collector v3.7.2.0data status	okinstallation	B3 Nyhavnadifferential loss correction	single-endedforward channel	channel 1reverse channel	N/Adate	2023/12/03time	02:42:30forward acquisition time	300,00reverse acquisition time	0,00gamma	499,1914k internal	0,3201k external	0,3201temperature offset calibration	1,0000default loss term (dB/km)	0,3820temperature slope calibration	1,0000multiplexer offset coefficient	1,0000multiplexer slope coefficient	1,0000fibre end	0,00T internal ref (°C)	13,31T ext. ref 1 (°C)	-1,72T ext. ref 2 (°C)	-1,74length (m)	temperature (°C)	Stokes	anti-Stokes-744,400	563,766	-0,157	-0,278
-743,385	-200,000	0,010	0,311
-742,371	-200,000	-0,060	-0,216
-741,356	-200,000	-0,022	0,307
-740,342	-125,382	-0,257	-0,028
-739,327	-200,000	-0,005	0,372
-738,312	156,815	-0,163	-0,164
-737,298	-200,000	0,013	0,152
-736,283	15,088	-0,268	-0,152
-735,269	-200,000	0,041	0,296
-734,254	800,000	-0,154	-0,375
-733,239	800,000	-0,102	0,207
-732,225	800,000	-0,093	-0,204
-731,210	123,356	0,087	0,080
-730,196	-200,000	0,019	0,072
-729,181	352,070	0,011	-0,016
-728,167	4,519	0,104	0,055
-727,152	-200,000	0,022	0,151
-726,137	-200,000	-0,019	0,073
-725,123	259,248	0,072	-0,090
-724,108	47,478	-0,193	-0,131
-723,094	548,065	-0,071	-0,124
-722,079	17,449	-0,082	-0,047
-721,064	2,059	-0,050	-0,026
-720,050	75,654	0,034	0,026
-719,035	306,741	-0,041	0,056
-718,021	221,166	-0,127	0,149
-717,006	44,300	-0,014	0,009
-715,991	-200,000	-0,003	-0,012
-714,977	773,752	-0,082	-0,162
-713,962	34,257	-0,124	-0,079
-712,948	-200,000	-0,013	-0,041
-711,933	79,871	-0,088	-0,069
-710,918	-47,492	0,120	0,042
-709,904	-31,158	-0,076	-0,031
-708,889	-200,000	0,032	-0,193
-707,875	361,717	-0,030	0,043
-706,860	800,000	0,036	-0,101
-705,845	-168,429	0,122	-0,003
-704,831	108,934	0,071	0,062
-703,816	214,208	-0,055	0,063
-702,802	-200,000	0,000	0,093
-701,787	72,250	-0,105	0,080
-700,772	800,000	0,019	0,056
-699,758	800,000	0,037	-0,082
-698,743	43,153	0,060	-0,040
-697,729	31,240	0,008	0,005
-696,714	-105,335	0,041	-0,007
-695,699	119,712	0,071	0,064
-694,685	73,020	-0,101	-0,076
-693,670	6,016	-0,123	-0,066
-692,656	-148,591	-0,065	0,004
-691,641	36,623	0,062	0,040
-690,627	-18,813	0,095	0,043
-689,612	-70,749	-0,087	0,024
-688,597	-200,000	-0,001	-0,140
-687,583	800,000	-0,036	-0,088
-686,568	471,608	-0,052	-0,085
-685,554	-56,502	-0,085	0,027
-684,539	-200,000	0,025	-0,089
-683,524	-200,000	0,018	0,078
-682,510	-3,682	0,146	0,074
-681,495	-172,676	-0,244	0,005
-680,481	-200,000	-0,023	-0,139
-679,466	-108,292	0,013	-0,002
-678,451	-200,000	-0,012	-0,069
-677,437	588,637	0,058	0,105
-676,422	-105,442	-0,170	0,028
-675,408	91,228	0,003	0,003
-674,393	12,261	0,046	-0,026
-673,378	800,000	-0,066	-0,164
-672,364	447,565	-0,087	-0,139
-671,349	-200,000	-0,033	-0,162
-670,335	-64,746	0,054	0,016
-669,320	461,831	0,044	0,072
-668,305	800,000	0,062	0,173
-667,291	800,000	-0,046	0,141
-666,276	25,870	-0,028	-0,017
-665,262	-200,000	-0,009	0,096
-664,247	35,821	-0,162	0,103
-663,232	127,954	0,051	-0,047
-662,218	-200,000	-0,025	-0,114
-661,203	-59,754	-0,006	-0,002
-660,189	712,603	-0,082	0,159
-659,174	172,887	0,017	-0,018
-658,159	-100,189	-0,057	0,010
-657,145	16,718	0,048	-0,027
-656,130	-200,000	-0,031	-0,122
-655,116	-200,000	-0,006	0,042
-654,101	-200,000	0,009	0,030
-653,086	-2,931	-0,230	0,116
-652,072	-143,727	-0,070	-0,005
-651,057	-73,721	0,007	-0,002
-650,043	-200,000	0,031	0,113
-649,028	-200,000	0,022	0,072
-648,014	-200,000	0,011	-0,097
-646,999	-67,521	-0,054	-0,015
-645,984	166,102	0,054	0,056
-644,970	28,889	-0,019	0,012
-643,955	-124,138	-0,093	0,010
-642,941	800,000	-0,034	-0,084
-641,926	399,918	0,002	-0,003
-640,911	-200,000	0,016	0,103
-639,897	-148,254	-0,154	-0,009
-638,882	-200,000	-0,020	0,068
-637,868	-3,454	-0,095	-0,048
-636,853	-101,611	-0,149	0,026
-635,838	-200,000	-0,033	-0,166
-634,824	800,000	0,035	-0,097
-633,809	184,727	0,029	-0,031
-632,795	120,915	0,054	0,048
-631,780	36,204	-0,033	0,021
-630,765	-130,633	-0,117	-0,011
-629,751	336,776	-0,051	-0,072
-628,736	-22,970	-0,088	-0,038
-627,722	-77,890	-0,066	0,016
-626,707	-154,712	0,033	0,002
-625,692	160,809	0,004	0,004
-624,678	-200,000	-0,037	-0,123
-623,663	-200,000	-0,002	0,028
-622,649	51,462	-0,060	-0,041
-621,634	-146,861	-0,133	0,008
-620,619	2,991	0,062	-0,032
-619,605	323,709	-0,039	0,054
-618,590	-14,017	0,121	0,056
-617,576	198,005	0,042	0,046
-616,561	-62,835	-0,023	-0,007
-615,546	800,000	-0,050	-0,100
-614,532	-98,785	-0,007	0,001
-613,517	-200,000	-0,023	0,090
-612,503	119,863	0,062	0,056
-611,488	-200,000	0,009	0,069
-610,474	-200,000	-0,031	0,131
-609,459	764,598	0,026	-0,051
-608,444	103,674	-0,157	-0,133
-607,430	800,000	-0,041	0,116
-606,415	108,026	-0,078	-0,067
-605,401	-132,814	0,038	-0,003
-604,386	79,781	0,132	0,103
-603,371	42,956	0,064	0,042
-602,357	-200,000	-0,023	-0,105
-601,342	800,000	0,015	-0,035
-600,328	86,996	-0,044	-0,035
-599,313	470,725	0,041	-0,067
-598,298	169,339	-0,117	-0,121
-597,284	392,612	-0,039	0,059
-596,269	-168,291	0,088	0,002
-595,255	260,997	-0,077	0,097
-594,240	-112,824	-0,069	0,010
-593,225	800,000	-0,040	-0,082
-592,211	-149,670	-0,189	0,011
-591,196	267,616	0,032	-0,040
-590,182	-130,526	0,107	0,010
-589,167	702,342	-0,037	-0,071
-588,152	315,144	-0,089	-0,122
-587,138	-200,000	0,014	-0,065
-586,123	587,525	-0,008	-0,015
-585,109	146,197	0,094	0,091
-584,094	12,172	0,074	0,041
-583,079	222,357	0,066	-0,077
-582,065	800,000	0,049	0,123
-581,050	764,672	-0,038	-0,075
-580,036	-88,037	0,035	-0,008
-579,021	-156,708	-0,145	-0,006
-578,006	134,218	-0,034	0,032
-576,992	800,000	-0,013	0,032
-575,977	-200,000	0,099	0,000
-574,963	800,000	0,021	0,056
-573,948	59,967	-0,130	-0,092
-572,934	800,000	-0,045	-0,129
-571,919	-200,000	0,017	0,090
-570,904	800,000	-0,083	-0,219
-569,890	-23,425	-0,078	0,034
-568,875	-151,029	-0,129	-0,007
-567,861	-161,023	0,216	0,008
-566,846	-200,000	-0,026	-0,102
-565,831	-144,760	0,120	0,008
-564,817	-200,000	-0,002	-0,011
-563,802	-23,895	-0,227	-0,097
-562,788	272,219	-0,016	-0,021
-561,773	-200,000	-0,036	0,145
-560,758	-5,254	0,084	0,042
-559,744	25,052	-0,075	-0,045
-558,729	233,853	0,080	-0,095
-557,715	-17,082	-0,065	0,030
-556,700	-200,000	-0,013	0,135
-555,685	-19,266	-0,045	-0,020
-554,671	2,565	0,079	-0,041
-553,656	-64,041	0,120	0,035
-552,642	79,629	-0,094	0,073
-551,627	70,719	0,065	0,049
-550,612	67,378	-0,066	-0,049
-549,598	800,000	0,019	-0,059
-548,583	627,048	0,033	-0,061
-547,569	769,526	0,021	0,041
-546,554	15,272	0,064	-0,036
-545,539	38,563	0,088	-0,056
-544,525	162,657	-0,033	0,034
-543,510	58,418	-0,068	0,048
-542,496	-200,000	-0,016	-0,112
-541,481	-200,000	-0,004	-0,109
-540,466	800,000	-0,027	-0,063
-539,452	800,000	0,046	0,134
-538,437	800,000	0,034	0,102
-537,423	-200,000	0,040	0,160
-536,408	39,566	0,040	-0,026
-535,393	15,417	-0,066	0,037
-534,379	264,592	-0,056	0,071
-533,364	800,000	0,027	-0,057
-532,350	19,693	0,149	0,086
-531,335	-96,435	-0,115	-0,022
-530,321	266,406	0,037	-0,047
-529,306	800,000	-0,061	-0,126
-528,291	103,108	-0,083	-0,070
-527,277	201,512	0,028	-0,031
-526,262	40,662	0,062	0,040
-525,248	-200,000	0,019	-0,070
-524,233	-200,000	-0,032	-0,128
-523,218	-177,820	0,126	-0,002
-522,204	146,286	-0,095	0,092
-521,189	-180,509	-0,143	0,002
-520,175	-200,000	0,011	-0,054
-519,160	800,000	-0,045	-0,095
-518,145	-151,427	0,087	0,005
-517,131	61,467	-0,009	-0,006
-516,116	-200,000	-0,024	0,155
-515,102	57,608	-0,113	-0,080
-514,087	132,210	-0,042	-0,039
-513,072	-48,454	-0,121	0,042
-512,058	-200,000	-0,005	0,141
-511,043	-200,000	0,013	-0,048
-510,029	-16,506	0,051	-0,023
-509,014	-198,082	0,113	0,000
-507,999	-119,494	0,040	-0,005
-506,985	34,121	0,064	-0,040
-505,970	-120,731	-0,117	0,014
-504,956	127,243	-0,120	-0,109
-503,941	-129,929	0,055	0,005
-502,926	-200,000	-0,007	0,109
-501,912	156,413	0,102	0,102
-500,897	-122,884	0,197	0,023
-499,883	499,764	-0,053	0,089
-498,868	-200,000	-0,019	-0,082
-497,853	-200,000	-0,003	-0,084
-496,839	-200,000	0,021	-0,073
-495,824	-57,166	-0,140	0,044
-494,810	84,296	0,217	0,171
-493,795	132,563	-0,110	0,102
-492,781	-166,222	-0,120	0,004
-491,766	45,442	-0,088	0,058
-490,751	263,965	-0,035	-0,044
-489,737	73,626	-0,039	-0,029
-488,722	-76,391	0,076	-0,019
-487,708	-200,000	-0,018	0,157
-486,693	7,840	0,095	-0,051
-485,678	319,304	-0,027	-0,037
-484,664	-46,198	-0,063	0,022
-483,649	179,816	0,054	-0,057
-482,635	-200,000	0,021	0,074
-481,620	-200,000	0,009	-0,062
-480,605	476,819	-0,049	0,080
-479,591	205,987	0,056	0,063
-478,576	200,823	0,058	-0,064
-477,562	380,180	-0,054	0,080
-476,547	800,000	-0,046	-0,094
-475,532	294,495	-0,034	-0,044
-474,518	-200,000	0,002	-0,013
-473,503	-59,485	0,150	-0,046
-472,489	-132,270	0,042	-0,004
-471,474	263,589	-0,064	0,080
-470,459	-200,000	0,018	-0,064
-469,445	800,000	0,044	0,093
-468,430	-139,674	-0,083	0,006
-467,416	-9,686	0,051	0,025
-466,401	79,481	0,119	-0,092
-465,386	-93,996	-0,076	-0,015
-464,372	-80,974	0,029	0,007
-463,357	-200,000	0,013	0,094
-462,343	199,313	0,042	-0,046
-461,328	-8,440	-0,086	-0,041
-460,313	7,919	0,107	0,058
-459,299	733,044	0,059	0,115
-458,284	82,921	0,045	0,035
-457,270	-200,000	0,015	0,095
-456,255	-200,000	-0,025	-0,117
-455,241	87,478	0,033	0,026
-454,226	-200,000	0,001	0,050
-453,211	-55,541	-0,086	-0,027
-452,197	-200,000	-0,003	0,031
-451,182	-76,275	0,132	0,033
-450,168	603,555	-0,061	-0,110
-449,153	-200,000	-0,029	-0,140
-448,138	269,902	0,015	-0,019
-447,124	-200,000	-0,041	-0,196
-446,109	-6,074	-0,119	0,058
-445,095	-200,000	-0,008	0,086
-444,080	-35,151	-0,143	0,056
-443,065	128,509	0,129	-0,118
-442,051	-78,167	0,049	0,012
-441,036	66,976	-0,165	-0,121
-440,022	-200,000	0,006	-0,200
-439,007	-77,831	0,019	0,005
-437,992	468,919	-0,004	0,006
-436,978	-200,000	0,003	0,092
-435,963	800,000	-0,057	0,165
-434,949	233,327	-0,096	-0,114
-433,934	800,000	-0,024	-0,048
-432,919	800,000	-0,036	-0,099
-431,905	-122,778	-0,124	0,014
-430,890	14,967	0,130	0,073
-429,876	-82,795	-0,138	0,032
-428,861	800,000	0,028	0,080
-427,846	388,889	-0,138	0,206
-426,832	800,000	0,010	0,024
-425,817	3,829	-0,094	0,049
-424,803	-26,291	0,055	0,023
-423,788	47,310	-0,031	0,021
-422,773	172,706	0,029	0,030
-421,759	218,278	0,113	0,129
-420,744	800,000	0,022	0,053
-419,730	-200,000	0,002	-0,091
-418,715	-200,000	-0,019	0,112
-417,701	-200,000	-0,022	-0,124
-416,686	-200,000	-0,001	0,046
-415,671	-122,056	0,078	0,009
-414,657	800,000	-0,027	0,079
-413,642	1,827	-0,071	0,037
-412,628	-82,062	0,034	-0,008
-411,613	-176,613	0,038	0,001
-410,598	37,186	-0,062	0,039
-409,584	229,897	-0,021	-0,024
-408,569	210,510	0,028	-0,032
-407,555	-200,000	0,015	0,094
-406,540	210,172	0,073	-0,082
-405,525	800,000	-0,035	0,088
-404,511	703,889	-0,044	-0,084
-403,496	800,000	-0,052	-0,159
-402,482	205,755	0,043	-0,048
-401,467	45,561	0,111	0,074
-400,452	66,306	0,075	0,054
-399,438	-200,000	-0,007	0,044
-398,423	-85,032	-0,057	-0,013
-397,409	800,000	-0,042	-0,089
-396,394	-163,077	0,088	-0,003
-395,379	149,987	0,030	0,029
-394,365	-49,550	0,146	0,049
-393,350	-116,534	0,204	-0,027
-392,336	-200,000	-0,002	0,008
-391,321	800,000	0,033	-0,081
-390,306	654,182	0,034	-0,063
-389,292	-128,510	-0,121	-0,012
-388,277	-53,896	-0,078	-0,025
-387,263	16,448	0,066	0,037
-386,248	-83,659	0,077	-0,018
-385,233	233,789	0,091	0,108
-384,219	-200,000	0,021	-0,141
-383,204	317,933	-0,040	0,054
-382,190	-200,000	-0,006	0,036
-381,175	800,000	-0,039	-0,092
-380,160	115,064	0,140	0,122
-379,146	800,000	0,020	-0,044
-378,131	800,000	0,022	-0,049
-377,117	426,460	0,035	-0,054
-376,102	-175,347	-0,066	-0,001
-375,088	-200,000	-0,023	-0,162
-374,073	-200,000	0,004	0,056
-373,058	-42,697	0,143	0,052
-372,044	-48,903	0,147	0,050
-371,029	170,786	0,060	0,062
-370,015	-200,000	0,065	0,237
-369,000	-200,000	0,014	-0,080
-367,985	-200,000	-0,017	-0,133
-366,971	257,291	-0,037	0,045
-365,956	249,322	-0,087	0,105
-364,942	800,000	0,055	0,131
-363,927	253,575	-0,060	0,074
-362,912	126,288	-0,096	-0,087
-361,898	-196,418	-0,144	0,001
-360,883	1,951	-0,067	-0,034
-359,869	800,000	0,061	0,130
-358,854	199,013	0,098	0,107
-357,839	-200,000	-0,011	-0,103
-356,825	222,378	0,069	0,080
-355,810	14,349	-0,130	0,072
-354,796	800,000	-0,021	-0,064
-353,781	95,808	-0,069	0,057
-352,766	21,484	-0,081	0,047
-351,752	83,533	-0,055	-0,043
-350,737	-200,000	-0,027	0,091
-349,723	-200,000	-0,014	0,071
-348,708	-200,000	-0,003	0,177
-347,693	800,000	-0,005	-0,010
-346,679	-200,000	0,004	0,044
-345,664	171,242	-0,052	-0,053
-344,650	800,000	-0,017	0,042
-343,635	76,478	0,107	0,081
-342,620	800,000	-0,040	0,102
-341,606	-66,778	0,125	-0,035
-340,591	-142,818	0,040	0,003
-339,577	800,000	-0,047	0,095
-338,562	456,799	0,074	0,118
-337,548	-200,000	-0,009	0,036
-336,533	148,864	-0,004	0,004
-335,518	800,000	0,021	-0,064
-334,504	430,312	-0,017	0,027
-333,489	-200,000	-0,018	-0,096
-332,475	-18,729	-0,115	-0,051
-331,460	-200,000	-0,003	0,062
-330,445	-175,921	0,066	0,001
-329,431	-118,268	-0,099	-0,012
-328,416	137,824	0,089	0,084
-327,402	382,575	-0,020	-0,030
-326,387	-200,000	0,019	-0,114
-325,372	-28,797	-0,018	-0,008
-324,358	-35,989	-0,088	0,034
-323,343	-176,596	0,068	0,001
-322,329	-179,052	0,094	-0,001
-321,314	-96,646	0,139	0,026
-320,299	-191,806	-0,052	0,000
-319,285	50,400	0,123	0,083
-318,270	-119,664	-0,070	-0,009
-317,256	-200,000	0,003	0,053
-316,241	-115,329	0,149	0,020
-315,226	800,000	-0,053	0,137
-314,212	238,028	-0,038	-0,045
-313,197	50,492	-0,077	0,052
-312,183	35,422	0,085	0,053
-311,168	688,625	0,049	0,091
-310,153	-52,020	-0,170	-0,056
-309,139	17,957	0,112	-0,064
-308,124	-123,088	0,041	-0,005
-307,110	800,000	0,019	0,038
-306,095	340,783	0,091	0,127
-305,080	800,000	0,074	0,204
-304,066	-77,547	-0,135	0,033
-303,051	150,970	-0,057	-0,056
-302,037	85,544	0,051	0,040
-301,022	-11,878	0,106	-0,049
-300,008	-1,600	0,025	0,012
-298,993	-200,000	0,026	-0,116
-297,978	-18,267	0,050	0,022
-296,964	717,558	-0,067	-0,127
-295,949	443,747	-0,074	-0,117
-294,935	-156,952	-0,155	-0,007
-293,920	19,960	0,117	0,067
-292,905	-60,571	0,092	-0,028
-291,891	197,943	-0,055	0,061
-290,876	27,994	0,132	0,079
-289,862	139,936	-0,070	-0,066
-288,847	625,817	0,024	-0,043
-287,832	-200,000	0,021	0,093
-286,818	364,360	0,015	0,021
-285,803	86,134	0,089	-0,070
-284,789	-5,182	0,075	-0,037
-283,774	800,000	-0,074	0,158
-282,759	228,825	-0,033	-0,038
-281,745	-99,998	0,146	0,026
-280,730	-35,893	-0,059	-0,023
-279,716	-94,399	0,073	0,014
-278,701	328,357	0,058	0,080
-277,686	-200,000	0,116	0,000
-276,672	800,000	-0,054	0,120
-275,657	20,173	-0,041	-0,024
-274,643	800,000	-0,070	-0,169
-273,628	-200,000	-0,023	-0,142
-272,613	98,615	-0,199	-0,164
-271,599	-186,558	0,069	0,001
-270,584	263,469	0,100	0,125
-269,570	-200,000	0,006	-0,027
-268,555	-200,000	-0,012	-0,040
-267,540	270,388	-0,029	-0,037
-266,526	-1,720	-0,116	-0,058
-265,511	-82,100	0,024	0,005
-264,497	-200,000	0,009	0,056
-263,482	-105,212	-0,044	-0,007
-262,467	-87,831	0,049	0,010
-261,453	-42,484	0,169	0,061
-260,438	-200,000	-0,020	-0,078
-259,424	220,785	0,008	0,009
-258,409	150,098	0,085	0,082
-257,395	301,340	-0,011	0,015
-256,380	84,122	0,144	-0,112
-255,365	-200,000	0,017	-0,109
-254,351	377,828	-0,056	-0,082
-253,336	800,000	0,065	-0,191
-252,322	87,054	-0,055	0,044
-251,307	584,429	-0,051	-0,090
-250,292	-84,735	-0,039	0,009
-249,278	317,900	0,081	0,109
-248,263	-200,000	0,014	0,108
-247,249	-200,000	-0,004	0,027
-246,234	800,000	0,052	-0,128
-245,219	-200,000	-0,011	-0,115
-244,205	-200,000	-0,081	-0,259
-243,190	-200,000	0,011	0,129
-242,176	-44,758	0,051	0,018
-241,161	-170,877	-0,094	-0,002
-240,146	126,623	0,157	0,142
-239,132	-130,134	-0,112	0,011
-238,117	-200,000	-0,012	-0,136
-237,103	-200,000	0,034	-0,178
-236,088	258,457	-0,063	0,078
-235,073	135,030	0,061	0,056
-234,059	-79,404	0,082	-0,020
-233,044	28,324	-0,050	-0,030
-232,030	800,000	-0,046	-0,115
-231,015	158,464	0,087	-0,086
-230,000	-200,000	-0,026	-0,097
-228,986	27,996	-0,094	-0,056
-227,971	298,598	-0,028	-0,036
-226,957	-200,000	-0,028	0,097
-225,942	37,050	-0,101	-0,064
-224,927	225,861	0,055	0,063
-223,913	-99,367	-0,060	-0,011
-222,898	-97,687	-0,142	-0,026
-221,884	800,000	0,027	-0,058
-220,869	137,973	0,035	0,033
-219,855	-86,075	0,098	-0,021
-218,840	-77,709	0,108	0,026
-217,825	-200,000	0,000	0,013
-216,811	-200,000	0,036	-0,164
-215,796	-123,587	-0,070	0,008
-214,782	800,000	-0,042	-0,118
-213,767	-79,102	-0,090	0,022
-212,752	-200,000	-0,028	0,153
-211,738	267,066	-0,057	0,072
-210,723	-100,337	0,172	0,030
-209,709	-200,000	-0,022	-0,261
-208,694	-92,105	-0,311	0,062
-207,679	-29,560	0,067	0,027
-206,665	222,885	-0,074	-0,085
-205,650	682,953	-0,034	0,063
-204,636	256,751	0,070	0,086
-203,621	261,138	-0,098	0,121
-202,606	-200,000	0,013	0,100
-201,592	155,767	0,060	-0,059
-200,577	-86,280	-0,098	0,021
-199,563	-200,000	0,008	-0,058
-198,548	24,181	0,158	0,093
-197,533	-114,011	0,123	0,017
-196,519	-90,890	-0,021	0,004
-195,504	-3,452	0,108	-0,054
-194,490	-200,000	0,046	-0,161
-193,475	506,944	0,009	0,015
-192,460	134,247	0,044	0,041
-191,446	-200,000	0,001	0,097
-190,431	-61,632	-0,037	0,011
-189,417	76,661	-0,027	-0,021
-188,402	8,199	0,070	0,038
-187,387	-56,665	0,066	-0,021
-186,373	-61,356	-0,068	0,020
-185,358	-117,308	0,069	-0,009
-184,344	444,353	0,047	-0,074
-183,329	556,066	0,039	-0,067
-182,315	-200,000	-0,002	0,070
-181,300	800,000	-0,025	0,069
-180,285	-156,757	0,023	0,001
-179,271	800,000	-0,094	-0,209
-178,256	-38,614	-0,054	-0,020
-177,242	369,916	0,053	0,077
-176,227	2,502	0,163	-0,084
-175,212	-125,179	0,030	-0,003
-174,198	-112,187	-0,094	-0,013
-173,183	-200,000	0,003	0,106
-172,169	-200,000	-0,008	-0,097
-171,154	-200,000	0,006	-0,022
-170,139	-200,000	-0,003	0,013
-169,125	5,088	0,112	0,058
-168,110	191,842	0,060	0,064
-167,096	245,256	-0,006	-0,008
-166,081	800,000	-0,021	0,041
-165,066	-200,000	-0,017	0,171
-164,052	178,415	-0,059	-0,061
-163,037	209,215	-0,048	-0,054
-162,023	800,000	-0,029	0,091
-161,008	260,313	0,029	0,036
-159,993	111,353	0,129	-0,111
-158,979	236,467	-0,139	-0,164
-157,964	800,000	0,048	-0,132
-156,950	-125,957	0,062	0,007
-155,935	49,040	0,036	-0,024
-154,920	22,856	0,061	-0,035
-153,906	50,019	-0,087	0,058
-152,891	328,773	0,132	0,180
-151,877	-108,667	-0,067	0,010
-150,862	41,388	-0,145	-0,093
-149,847	64,232	0,059	0,042
-148,833	79,583	-0,053	0,041
-147,818	308,044	-0,039	0,052
-146,804	800,000	-0,008	-0,025
-145,789	-10,776	0,113	0,053
-144,775	-16,339	0,113	-0,051
-143,760	164,579	-0,089	-0,089
-142,745	214,363	-0,043	-0,049
-141,731	-200,000	0,008	-0,076
-140,716	-200,000	-0,007	0,059
-139,702	-200,000	0,020	0,153
-138,687	241,827	-0,020	-0,023
-137,672	45,469	0,100	0,065
-136,658	-200,000	0,007	-0,074
-135,643	42,836	0,056	-0,036
-134,629	-22,658	0,114	0,049
-133,614	-200,000	-0,005	0,162
-132,599	-99,899	-0,099	-0,017
-131,585	662,222	-0,023	-0,043
-130,570	206,179	-0,026	0,028
-129,556	-88,354	0,116	-0,024
-128,541	659,107	-0,090	-0,166
-127,526	64,841	-0,122	0,088
-126,512	218,763	-0,045	0,051
-125,497	6,778	0,082	0,043
-124,483	800,000	0,016	-0,031
-123,468	241,400	-0,065	-0,077
-122,453	42,174	0,017	0,011
-121,439	-44,247	-0,153	-0,054
-120,424	-139,457	-0,108	-0,008
-119,410	-33,424	0,029	-0,011
-118,395	79,882	-0,051	0,039
-117,380	-200,000	0,012	0,062
-116,366	-200,000	-0,001	0,034
-115,351	89,289	-0,117	-0,093
-114,337	580,513	0,069	-0,121
-113,322	98,662	-0,076	0,062
-112,307	-200,000	-0,015	0,073
-111,293	-42,314	-0,043	0,016
-110,278	800,000	0,035	0,099
-109,264	-200,000	-0,051	0,166
-108,249	800,000	-0,045	-0,104
-107,234	-84,267	-0,193	0,043
-106,220	103,175	-0,017	0,014
-105,205	761,542	0,066	-0,127
-104,191	-200,000	0,026	-0,100
-103,176	57,368	0,174	0,120
-102,162	15,990	-0,045	0,025
-101,147	-40,139	-0,043	-0,016
-100,132	700,652	0,037	0,069
-99,118	297,159	-0,050	-0,065
-98,103	68,008	0,148	-0,107
-97,089	-200,000	0,039	0,142
-96,074	-199,031	-0,136	-0,001
-95,059	30,599	0,130	0,079
-94,045	-70,230	-0,132	-0,035
-93,030	-200,000	-0,031	0,110
-92,016	255,874	-0,095	0,116
-91,001	152,589	-0,102	0,099
-89,986	-188,090	-0,065	0,001
-88,972	800,000	-0,059	0,120
-87,957	-200,000	-0,021	0,110
-86,943	-87,022	-0,212	0,045
-85,928	382,070	0,065	0,095
-84,913	191,288	-0,031	0,034
-83,899	-74,335	0,153	0,039
-82,884	-200,000	-0,012	-0,079
-81,870	-200,000	0,006	0,038
-80,855	-200,000	0,009	0,074
-79,840	36,680	-0,108	-0,068
-78,826	-172,983	0,077	0,002
-77,811	-28,816	0,119	-0,048
-76,797	70,846	-0,093	-0,068
-75,782	-67,855	-0,087	0,024
-74,767	-200,000	0,047	0,157
-73,753	-200,000	-0,039	0,173
-72,738	66,676	0,181	0,130
-71,724	-200,000	0,024	-0,080
-70,709	-200,000	-0,020	0,068
-69,694	-131,929	-0,109	-0,010
-68,680	171,908	-0,008	-0,008
-67,665	-94,831	0,143	0,027
-66,651	800,000	0,071	0,217
-65,636	-14,388	-0,047	-0,021
-64,622	-200,000	0,021	-0,174
-63,607	-200,000	0,017	-0,115
-62,592	-97,975	-0,095	0,017
-61,578	-200,000	-0,007	0,066
-60,563	-114,589	0,019	-0,003
-59,549	161,552	0,041	-0,041
-58,534	-18,444	-1,642	-0,723
-57,519	433,552	-1,370	-2,114
-56,505	-200,000	-0,599	-4,528
-55,490	188,075	1,012	1,072
-54,476	800,000	4,973	11,385
-53,461	-200,000	19,300	320,805
-52,446	-200,000	740,728	2335,630
-51,432	573,432	1655,688	2869,650
-50,417	78,291	1670,958	1261,844
-49,403	21,300	1543,824	885,569
-48,388	15,180	1466,310	811,347
-47,373	17,977	1456,647	819,486
-46,359	16,688	1446,457	807,541
-45,344	13,398	1441,947	789,226
-44,330	13,336	1440,006	787,837
-43,315	13,358	1438,189	786,914
-42,300	13,358	1436,535	785,978
-41,286	13,313	1435,432	785,130
-40,271	13,355	1433,925	784,475
-39,257	13,335	1432,653	783,655
-38,242	13,374	1431,499	783,176
-37,227	13,428	1430,112	782,641
-36,213	13,426	1428,903	781,939
-35,198	13,393	1427,697	781,095
-34,184	13,447	1426,805	780,830
-33,169	13,391	1425,403	779,768
-32,154	13,419	1424,447	779,343
-31,140	13,403	1423,245	778,581
-30,125	13,428	1422,112	778,047
-29,111	13,417	1421,034	777,375
-28,096	13,420	1419,705	776,634
-27,082	13,319	1418,766	775,612
-26,067	13,340	1417,591	775,035
-25,052	13,339	1416,457	774,383
-24,038	13,306	1415,560	773,706
-23,023	13,354	1414,391	773,260
-22,009	13,312	1413,567	772,585
-20,994	13,297	1412,539	771,919
-19,979	13,296	1411,824	771,494
-18,965	13,288	1410,683	770,802
-17,950	13,275	1409,759	770,204
-16,936	13,302	1408,974	769,874
-15,921	13,252	1407,801	768,969
-14,906	13,247	1406,710	768,317
-13,892	13,265	1405,961	767,964
-12,877	13,269	1404,978	767,413
-11,863	13,257	1404,175	766,887
-10,848	13,244	1403,133	766,230
-9,833	13,210	1402,306	765,589
-8,819	13,177	1401,776	765,114
-7,804	13,197	1400,593	764,530
-6,790	13,167	1399,737	763,895
-5,775	13,165	1398,475	763,166
-4,760	13,143	1397,634	762,576
-3,746	13,154	1396,578	762,018
-2,731	13,170	1395,845	761,665
-1,717	13,095	1395,072	760,863
-0,702	13,101	1393,270	759,878
0,313	16,952	1309,988	732,293
1,327	33,168	704,031	431,055
2,342	51,668	123,117	82,705
3,356	2,375	16,630	8,485
4,371	-0,327	3,379	1,693
5,386	14,453	0,598	0,329
6,400	228,350	0,115	0,132
7,415	27,569	-0,291	-0,173
8,429	3,464	-0,376	-0,193
9,444	800,000	-0,158	-0,344
10,459	-12,800	-0,334	-0,153
11,473	106,714	-0,353	-0,296
12,488	203,598	-0,221	-0,242
13,502	-7,470	-0,445	-0,212
14,517	3,646	-0,225	-0,116
15,531	103,648	-0,403	-0,334
16,546	86,799	-0,341	-0,266
17,561	170,590	-0,368	-0,373
18,575	-82,007	-0,270	-0,062
19,590	15,371	-0,267	-0,148
20,604	95,112	-0,193	-0,155
21,619	90,193	-0,413	-0,326
22,634	100,062	-0,424	-0,347
23,648	110,260	-0,382	-0,324
24,663	62,741	-0,372	-0,262
25,677	84,708	-0,337	-0,261
26,692	4,646	-0,251	-0,129
27,707	99,873	-0,446	-0,365
28,721	53,219	-0,418	-0,282
29,736	58,651	-0,367	-0,254
30,750	105,485	-0,424	-0,353
31,765	116,614	-0,413	-0,357
32,780	224,574	-0,332	-0,380
33,794	128,623	-0,260	-0,234
34,809	136,735	-0,351	-0,324
35,823	-49,991	-0,446	-0,148
36,838	-87,533	-0,494	-0,105
37,853	18,139	-0,501	-0,281
38,867	200,911	-0,343	-0,372
39,882	137,126	-0,284	-0,261
40,896	-4,039	-0,365	-0,178
41,911	36,694	-0,258	-0,161
42,926	-26,241	-0,394	-0,163
43,940	253,314	-0,265	-0,320
44,955	39,016	-0,377	-0,237
45,969	376,029	-0,242	-0,348
46,984	800,000	-0,141	-0,391
47,999	111,776	-0,415	-0,353
49,013	-57,702	-0,386	-0,118
50,028	266,553	-0,268	-0,331
51,042	101,064	-0,335	-0,275
52,057	37,246	-0,411	-0,256
53,071	285,939	-0,295	-0,376
54,086	172,148	-0,325	-0,329
55,101	45,388	-0,373	-0,242
56,115	136,578	-0,332	-0,305
57,130	74,260	-0,200	-0,148
58,144	-24,850	-0,496	-0,207
59,159	100,491	-0,333	-0,272
60,174	-8,098	-0,434	-0,205
61,188	53,493	-0,414	-0,279
62,203	184,844	-0,285	-0,297
63,217	2,912	-0,391	-0,199
64,232	75,094	-0,293	-0,217
65,247	-104,086	-0,310	-0,050
66,261	52,865	-0,445	-0,299
67,276	111,645	-0,275	-0,234
68,290	93,105	-0,168	-0,134
69,305	159,017	-0,300	-0,294
70,320	201,022	-0,174	-0,188
71,334	-35,674	-0,288	-0,109
72,349	-61,548	-0,408	-0,120
73,363	140,371	-0,350	-0,325
74,378	14,859	-0,349	-0,192
75,393	117,092	-0,317	-0,274
76,407	-11,713	-0,306	-0,141
77,422	-12,041	-0,317	-0,145
78,436	26,347	-0,238	-0,139
79,451	-142,975	-0,286	-0,019
80,466	-52,265	-0,338	-0,109
81,480	-68,943	-0,328	-0,088
82,495	25,047	-0,339	-0,197
83,509	27,713	-0,358	-0,211
84,524	-25,368	-0,225	-0,093
85,539	77,114	-0,276	-0,206
86,553	-46,698	-0,352	-0,120
87,568	-31,372	-0,218	-0,086
88,582	172,368	-0,239	-0,242
89,597	-55,852	-0,505	-0,157
90,611	-1,220	-0,219	-0,108
91,626	456,901	-0,149	-0,234
92,641	116,683	-0,271	-0,234
93,655	245,546	-0,170	-0,201
94,670	22,513	-0,245	-0,140
95,684	34,734	-0,402	-0,246
96,699	121,520	-0,345	-0,302
97,714	-77,023	-0,291	-0,071
98,728	42,272	-0,296	-0,189
99,743	-11,351	-0,318	-0,147
100,757	3,902	-0,239	-0,122
101,772	-50,071	-0,279	-0,092
102,787	12,633	-0,329	-0,178
103,801	557,266	-0,139	-0,236
104,816	-127,216	-0,309	0,031
105,830	137,846	-0,149	-0,137
106,845	22,927	-0,355	-0,203
107,860	-19,167	-0,355	-0,154
108,874	102,189	-0,235	-0,192
109,889	-16,317	-0,347	-0,154
110,903	70,705	-0,212	-0,153
111,918	26,140	-0,315	-0,184
112,933	60,132	-0,176	-0,122
113,947	124,233	-0,146	-0,129
114,962	64,100	-0,149	-0,105
115,976	77,389	-0,204	-0,152
116,991	-72,379	-0,233	-0,060
118,006	189,632	-0,255	-0,268
119,020	147,983	-0,345	-0,326
120,035	401,130	-0,151	-0,223
121,049	-8,906	-0,291	-0,136
122,064	129,346	-0,130	-0,116
123,079	100,612	-0,206	-0,167
124,093	206,484	-0,191	-0,209
125,108	-4,012	-0,271	-0,131
126,122	132,227	-0,224	-0,202
127,137	47,661	-0,251	-0,163
128,151	-52,205	-0,206	-0,067
129,166	277,739	-0,202	-0,252
130,181	20,438	-0,301	-0,170
131,195	-69,058	-0,289	-0,077
132,210	90,733	-0,334	-0,262
133,224	250,737	-0,209	-0,249
134,239	-37,359	-0,318	-0,118
135,254	-23,592	-0,264	-0,110
136,268	117,756	-0,198	-0,170
137,283	-84,870	-0,268	-0,058
138,297	58,532	-0,275	-0,188
139,312	74,434	-0,329	-0,242
140,327	62,822	-0,304	-0,212
141,341	90,996	-0,255	-0,200
142,356	0,013	-0,234	-0,116
143,370	-146,869	-0,285	0,017
144,385	-90,059	-0,251	-0,051
145,400	-75,844	-0,319	-0,078
146,414	-31,320	-0,259	-0,101
147,429	118,233	-0,276	-0,238
148,443	229,756	-0,204	-0,233
149,458	-68,614	-0,206	-0,055
150,473	110,335	-0,176	-0,147
151,487	-4,915	-0,324	-0,155
152,502	261,953	-0,181	-0,219
153,516	268,189	-0,242	-0,297
154,531	23,086	-0,278	-0,159
155,546	211,795	-0,175	-0,193
156,560	-112,046	-0,223	0,031
157,575	78,852	-0,199	-0,149
158,589	-4,350	-0,299	-0,144
159,604	-99,019	-0,307	-0,054
160,619	52,445	-0,300	-0,199
161,633	5,373	-0,316	-0,162
162,648	199,711	-0,179	-0,192
163,662	106,394	-0,293	-0,242
164,677	-79,705	-0,189	-0,044
165,692	45,062	-0,195	-0,125
166,706	18,946	-0,272	-0,151
167,721	144,462	-0,223	-0,208
168,735	73,120	-0,221	-0,161
169,750	54,005	-0,237	-0,159
170,764	30,020	-0,207	-0,123
171,779	-154,133	-0,203	0,009
172,794	121,329	-0,320	-0,278
173,808	293,984	-0,198	-0,252
174,823	-52,024	-0,333	-0,107
175,837	24,222	-0,395	-0,227
176,852	15,617	-0,172	-0,094
177,867	211,063	-0,094	-0,103
178,881	-39,584	-0,238	-0,086
179,896	34,408	-0,213	-0,129
180,910	363,400	-0,194	-0,272
181,925	153,588	-0,200	-0,191
182,940	-45,482	-0,291	-0,100
183,954	56,580	-0,254	-0,172
184,969	150,968	-0,269	-0,254
185,983	696,998	-0,114	-0,210
186,998	22,604	-0,148	-0,084
188,013	-87,097	-0,262	-0,055
189,027	204,600	-0,248	-0,268
190,042	23,161	-0,226	-0,129
191,056	103,644	-0,145	-0,118
192,071	16,060	-0,283	-0,155
193,086	273,384	-0,161	-0,198
194,100	45,056	-0,243	-0,155
195,115	-125,294	-0,300	-0,032
196,129	-40,357	-0,255	-0,092
197,144	-65,036	-0,262	-0,073
198,159	149,560	-0,232	-0,218
199,173	-45,579	-0,217	-0,074
200,188	83,981	-0,242	-0,183
201,202	286,423	-0,116	-0,146
202,217	-159,528	-0,156	-0,006
203,232	182,395	-0,129	-0,132
204,246	292,148	-0,216	-0,274
205,261	143,960	-0,247	-0,229
206,275	-50,668	-0,205	-0,067
207,290	-106,607	-0,148	0,023
208,304	-132,161	-0,213	-0,019
209,319	321,778	-0,162	-0,214
210,334	-117,868	-0,254	-0,031
211,348	356,349	-0,193	-0,268
212,363	36,393	-0,157	-0,096
213,377	732,781	-0,085	-0,158
214,392	592,154	-0,122	-0,210
215,407	234,603	-0,119	-0,136
216,421	-106,939	-0,103	-0,016
217,436	186,172	-0,136	-0,141
218,450	36,219	-0,243	-0,148
219,465	655,837	-0,095	-0,169
220,480	153,286	-0,155	-0,148
221,494	291,273	-0,164	-0,207
222,509	800,000	-0,095	-0,204
223,523	494,732	-0,098	-0,157
224,538	800,000	-0,055	-0,132
225,553	272,695	-0,161	-0,198
226,567	800,000	-0,102	-0,208
227,582	471,257	-0,163	-0,255
228,596	340,943	-0,104	-0,142
229,611	800,000	-0,115	-0,231
230,626	171,409	-0,177	-0,177
231,640	-155,477	-0,154	-0,007
232,655	139,039	-0,203	-0,185
233,669	-58,090	-0,247	-0,074
234,684	364,726	-0,148	-0,207
235,699	435,856	-0,110	-0,166
236,713	175,517	-0,156	-0,157
237,728	-139,271	-0,236	-0,017
238,742	800,000	-0,091	-0,239
239,757	14,274	-0,255	-0,137
240,772	-200,000	-0,188	0,000
241,786	11,008	-0,219	-0,116
242,801	800,000	-0,064	-0,167
243,815	-200,000	0,001	-0,133
244,830	195,892	-0,133	-0,140
245,844	-6,903	-0,205	-0,096
246,859	71,162	-0,141	-0,101
247,874	86,618	-0,226	-0,172
248,888	27,446	-0,297	-0,173
249,903	-122,533	-0,261	-0,029
250,917	-67,123	-0,261	-0,071
251,932	-34,404	-0,150	-0,056
252,947	98,157	-0,199	-0,159
253,961	83,239	-0,343	-0,258
254,976	-13,313	-0,208	-0,093
255,990	6,525	-0,266	-0,136
257,005	-28,557	-0,090	-0,036
258,020	495,244	-0,101	-0,162
259,034	77,017	-0,199	-0,146
260,049	-4,340	-0,171	-0,081
261,063	429,638	-0,101	-0,151
262,078	20,148	-0,233	-0,130
263,093	-23,805	-0,232	-0,096
264,107	-200,000	-0,068	-0,242
265,122	197,542	-0,096	-0,102
266,136	-79,530	-0,160	-0,037
267,151	221,736	-0,076	-0,085
268,166	-130,991	-0,153	-0,014
269,180	-32,971	-0,200	-0,076
270,195	164,844	-0,191	-0,186
271,209	-196,819	-0,130	0,001
272,224	30,732	-0,192	-0,113
273,239	22,452	-0,134	-0,075
274,253	-110,277	-0,172	-0,024
275,268	164,150	-0,184	-0,179
276,282	10,670	-0,235	-0,123
277,297	45,754	-0,251	-0,160
278,312	177,881	-0,121	-0,122
279,326	82,899	-0,178	-0,133
280,341	11,356	-0,187	-0,099
281,355	-142,358	-0,128	-0,009
282,370	200,824	-0,166	-0,177
283,384	-16,219	-0,072	-0,032
284,399	138,235	-0,173	-0,156
285,414	276,691	-0,062	-0,076
286,428	-200,000	-0,002	-0,099
287,443	158,294	-0,145	-0,139
288,457	194,082	-0,125	-0,131
289,472	36,615	-0,114	-0,069
290,487	27,594	-0,144	0,083
291,501	-124,745	-0,132	0,014
292,516	-29,028	-0,166	-0,065
293,530	54,120	-0,203	-0,134
294,545	-200,000	-0,046	-0,231
295,560	800,000	-0,041	-0,101
296,574	-25,966	-0,137	0,055
297,589	371,832	-0,089	-0,125
298,603	36,164	-0,204	-0,124
299,618	67,994	-0,218	-0,154
300,633	-200,000	-0,011	-0,158
301,647	-123,343	-0,094	0,010
302,662	800,000	-0,061	-0,152
303,676	-82,523	-0,171	-0,038
304,691	-28,456	-0,089	-0,035
305,706	-104,725	-0,223	-0,035
306,720	119,233	-0,213	-0,181
307,735	129,420	-0,137	-0,121
308,749	270,830	-0,049	-0,059
309,764	-186,841	-0,158	-0,001
310,779	-73,944	-0,081	-0,020
311,793	154,585	-0,163	-0,154
312,808	-70,764	-0,127	-0,033
313,822	-49,630	-0,181	-0,059
314,837	-160,821	-0,193	-0,007
315,852	-123,868	-0,217	-0,023
316,866	-69,394	-0,164	0,043
317,881	23,046	-0,196	-0,110
318,895	-39,238	-0,250	-0,090
319,910	-10,348	-0,138	0,063
320,925	406,235	-0,114	-0,166
321,939	-140,357	-0,132	0,009
322,954	550,821	-0,142	-0,235
323,968	68,164	-0,162	-0,114
324,983	507,682	-0,128	-0,205
325,997	80,787	-0,152	-0,113
327,012	135,538	-0,120	-0,107
328,027	407,691	-0,075	-0,110
329,041	57,518	-0,209	-0,140
330,056	-6,754	-0,052	0,024
331,070	-200,000	-0,053	-0,169
332,085	-35,993	-0,132	-0,049
333,100	-162,296	-0,197	0,007
334,114	408,966	-0,078	-0,114
335,129	180,534	-0,119	-0,120
336,143	12,478	-0,137	-0,072
337,158	97,575	-0,128	-0,101
338,173	-74,065	-0,172	-0,043
339,187	-91,907	-0,117	0,022
340,202	109,051	-0,127	-0,104
341,216	88,359	-0,137	-0,105
342,231	23,523	-0,178	-0,101
343,246	683,313	-0,061	-0,109
344,260	241,975	-0,094	-0,109
345,275	-28,215	-0,173	-0,068
346,289	547,848	-0,015	-0,025
347,304	56,407	-0,118	-0,079
348,319	52,160	-0,174	-0,113
349,333	-14,443	-0,115	-0,051
350,348	72,123	-0,066	-0,047
351,362	623,404	-0,105	-0,182
352,377	642,520	-0,128	-0,224
353,392	-163,492	-0,197	0,006
354,406	-14,321	-0,047	0,021
355,421	210,588	1312,248	1415,829
356,435	162,125	1472,660	1416,315
