DTS Sentinel unit serial number:	SN410029Multiplexer serial number:	ORYXHardware model number:	OX2-SRSoftware version number:	ORYX F/W v4,00 Oryx Data Collector v3.7.2.0data status	okinstallation	B3 Nyhavnadifferential loss correction	single-endedforward channel	channel 1reverse channel	N/Adate	2023/12/02time	00:02:30forward acquisition time	300,00reverse acquisition time	0,00gamma	499,1914k internal	0,3196k external	0,3196temperature offset calibration	1,0000default loss term (dB/km)	0,3820temperature slope calibration	1,0000multiplexer offset coefficient	1,0000multiplexer slope coefficient	1,0000fibre end	0,00T internal ref (°C)	16,06T ext. ref 1 (°C)	1,60T ext. ref 2 (°C)	1,59length (m)	temperature (°C)	Stokes	anti-Stokes-744,400	232,628	-0,207	-0,248
-743,385	-200,000	0,046	0,340
-742,371	268,215	-0,140	-0,179
-741,356	-200,000	-0,006	0,302
-740,342	80,945	-0,277	-0,217
-739,327	800,000	0,105	0,321
-738,312	300,518	-0,239	-0,321
-737,298	-200,000	-0,044	0,204
-736,283	-200,000	-0,048	-0,253
-735,269	-200,000	-0,096	0,337
-734,254	189,237	-0,302	-0,330
-733,239	-83,643	-0,128	0,030
-732,225	800,000	-0,123	-0,303
-731,210	-200,000	-0,004	-0,065
-730,196	-140,046	-0,085	-0,006
-729,181	387,409	0,029	-0,044
-728,167	-123,372	-0,017	0,002
-727,152	505,608	0,048	-0,081
-726,137	-200,000	-0,001	-0,033
-725,123	800,000	-0,046	0,102
-724,108	-163,189	-0,125	0,004
-723,094	-200,000	-0,029	-0,207
-722,079	-38,631	0,106	-0,041
-721,064	-200,000	0,033	-0,154
-720,050	-200,000	-0,007	0,026
-719,035	-200,000	-0,009	-0,032
-718,021	286,987	-0,125	-0,165
-717,006	439,496	-0,089	-0,141
-715,991	100,927	-0,123	-0,104
-714,977	16,493	-0,143	-0,082
-713,962	-200,000	-0,008	0,057
-712,948	-200,000	-0,027	0,135
-711,933	-200,000	-0,006	0,094
-710,918	-138,513	-0,090	-0,007
-709,904	-200,000	-0,001	0,031
-708,889	208,885	0,042	0,047
-707,875	-119,812	-0,023	-0,003
-706,860	756,069	-0,007	-0,015
-705,845	-80,732	0,038	0,009
-704,831	85,314	0,149	0,119
-703,816	320,295	-0,061	0,084
-702,802	800,000	0,040	-0,117
-701,787	-127,516	-0,172	-0,018
-700,772	800,000	-0,018	-0,051
-699,758	-6,332	-0,245	-0,121
-698,743	-26,469	0,173	0,073
-697,729	-200,000	0,019	0,215
-696,714	-200,000	0,010	-0,064
-695,699	-32,978	-0,045	-0,018
-694,685	-200,000	0,005	-0,035
-693,670	11,269	-0,104	-0,058
-692,656	-3,447	-0,162	-0,081
-691,641	-21,642	0,091	0,040
-690,627	23,394	0,060	0,036
-689,612	339,256	0,069	-0,097
-688,597	142,234	-0,108	-0,104
-687,583	-200,000	-0,017	-0,072
-686,568	-200,000	0,000	-0,064
-685,554	-113,616	-0,073	0,010
-684,539	476,011	-0,068	0,112
-683,524	612,348	-0,053	0,097
-682,510	-98,193	-0,072	-0,013
-681,495	-200,000	0,001	0,038
-680,481	800,000	0,064	-0,131
-679,466	-200,000	-0,018	0,101
-678,451	233,669	0,066	-0,079
-677,437	800,000	-0,030	-0,086
-676,422	185,806	0,030	-0,032
-675,408	-200,000	-0,031	-0,129
-674,393	89,307	0,016	0,013
-673,378	79,932	-0,084	-0,065
-672,364	-79,288	-0,225	-0,055
-671,349	374,785	-0,045	0,066
-670,335	146,555	-0,022	-0,022
-669,320	279,075	-0,035	0,046
-668,305	273,055	-0,062	-0,079
-667,291	-111,075	-0,087	0,013
-666,276	423,879	-0,043	0,067
-665,262	481,065	-0,065	-0,107
-664,247	-29,678	-0,040	-0,016
-663,232	93,863	-0,058	-0,047
-662,218	90,905	0,096	-0,078
-661,203	-200,000	0,011	0,081
-660,189	269,589	0,042	0,054
-659,174	55,014	-0,052	-0,037
-658,159	153,791	-0,048	-0,048
-657,145	34,387	-0,079	-0,050
-656,130	-14,327	0,063	0,029
-655,116	-95,275	-0,132	-0,026
-654,101	-47,037	-0,067	0,023
-653,086	-1,010	-0,035	-0,018
-652,072	171,115	-0,067	-0,070
-651,057	33,921	0,087	-0,055
-650,043	800,000	-0,025	-0,055
-649,028	394,479	-0,075	-0,114
-648,014	23,818	-0,022	-0,013
-646,999	692,898	-0,046	0,088
-645,984	398,651	-0,064	-0,098
-644,970	800,000	-0,021	-0,047
-643,955	324,680	-0,078	-0,108
-642,941	-200,000	-0,010	0,040
-641,926	-200,000	-0,024	-0,107
-640,911	205,393	-0,049	0,056
-639,897	18,286	0,082	-0,047
-638,882	-148,501	-0,041	-0,002
-637,868	-18,805	0,083	0,037
-636,853	176,002	-0,039	-0,041
-635,838	-200,000	0,036	-0,126
-634,824	-200,000	-0,007	0,094
-633,809	800,000	-0,039	0,081
-632,795	-138,389	0,039	-0,003
-631,780	306,160	0,031	-0,042
-630,765	-3,480	-0,104	-0,052
-629,751	-98,117	0,048	-0,009
-628,736	97,958	-0,075	-0,063
-627,722	483,809	-0,043	-0,071
-626,707	800,000	-0,029	0,061
-625,692	800,000	-0,070	0,164
-624,678	409,733	-0,007	0,010
-623,663	-153,269	-0,127	0,006
-622,649	-9,344	-0,057	-0,027
-621,634	-35,727	0,125	0,049
-620,619	-200,000	0,014	-0,105
-619,605	800,000	0,033	0,098
-618,590	-200,000	-0,019	-0,066
-617,576	-200,000	0,016	0,055
-616,561	11,233	-0,086	-0,048
-615,546	-78,351	-0,115	-0,028
-614,532	62,733	-0,036	-0,026
-613,517	800,000	-0,032	0,071
-612,503	-56,656	-0,078	-0,025
-611,488	800,000	0,023	0,051
-610,474	-122,600	0,087	0,010
-609,459	-200,000	0,036	0,117
-608,444	-200,000	-0,014	0,054
-607,430	-200,000	-0,023	-0,092
-606,415	-200,000	0,011	-0,069
-605,401	28,330	0,051	-0,031
-604,386	-200,000	0,102	0,000
-603,371	-200,000	-0,039	-0,163
-602,357	-200,000	-0,009	-0,103
-601,342	45,670	-0,132	-0,088
-600,328	80,484	0,105	-0,082
-599,313	167,224	-0,066	-0,068
-598,298	-69,054	0,083	0,023
-597,284	-200,000	-0,007	-0,105
-596,269	-200,000	0,007	0,090
-595,255	345,760	0,035	0,050
-594,240	-200,000	-0,004	-0,031
-593,225	-52,439	-0,074	-0,025
-592,211	800,000	0,057	-0,146
-591,196	-161,488	0,072	0,003
-590,182	-200,000	-0,006	-0,084
-589,167	-81,747	-0,042	0,010
-588,152	-107,396	-0,118	-0,019
-587,138	-15,093	-0,129	-0,060
-586,123	-58,877	-0,021	-0,007
-585,109	-113,770	-0,021	-0,003
-584,094	41,458	0,113	0,074
-583,079	7,334	-0,032	0,017
-582,065	37,229	0,037	-0,024
-581,050	529,518	0,071	0,122
-580,036	25,181	-0,157	0,094
-579,021	-91,855	-0,053	-0,011
-578,006	348,205	-0,072	-0,103
-576,992	57,721	0,120	-0,085
-575,977	800,000	0,029	0,084
-574,963	800,000	0,063	-0,154
-573,948	21,785	0,055	0,033
-572,934	421,758	0,079	-0,123
-571,919	127,800	0,026	0,024
-570,904	-89,771	-0,082	0,017
-569,890	631,739	0,069	-0,127
-568,875	322,985	-0,014	-0,019
-567,861	526,775	0,034	-0,058
-566,846	-116,039	0,109	0,015
-565,831	51,442	-0,068	-0,047
-564,817	-200,000	-0,014	-0,129
-563,802	233,291	0,111	-0,132
-562,788	800,000	-0,100	-0,206
-561,773	-70,280	-0,132	-0,036
-560,758	442,603	-0,048	0,076
-559,744	-143,991	0,111	0,007
-558,729	272,844	-0,109	0,139
-557,715	-123,025	0,089	0,010
-556,700	-31,251	-0,021	-0,008
-555,685	82,946	-0,024	0,019
-554,671	560,633	0,013	-0,023
-553,656	-200,000	0,013	-0,109
-552,642	-88,899	-0,027	-0,006
-551,627	114,819	0,095	-0,084
-550,612	-196,874	0,078	0,000
-549,598	142,677	-0,050	0,048
-548,583	672,160	0,034	0,065
-547,569	291,046	-0,143	-0,188
-546,554	800,000	0,011	0,024
-545,539	410,114	-0,071	0,110
-544,525	-200,000	0,017	0,064
-543,510	-200,000	0,010	0,068
-542,496	141,924	0,054	-0,052
-541,481	356,984	0,041	-0,060
-540,466	-74,377	-0,164	0,043
-539,452	655,710	0,058	-0,108
-538,437	-200,000	-0,031	0,000
-537,423	352,657	-0,057	0,082
-536,408	60,321	-0,000	0,000
-535,393	-24,619	-0,219	0,094
-534,379	18,456	-0,094	-0,054
-533,364	-77,213	0,161	0,040
-532,350	257,300	-0,061	0,076
-531,335	323,658	-0,050	0,070
-530,321	92,019	0,112	0,091
-529,306	13,146	-0,043	-0,024
-528,291	225,017	0,078	0,091
-527,277	14,075	-0,126	-0,070
-526,262	800,000	-0,035	-0,093
-525,248	251,920	-0,039	-0,048
-524,233	800,000	0,028	0,071
-523,218	800,000	-0,046	0,112
-522,204	584,760	-0,081	-0,145
-521,189	-200,000	0,000	0,038
-520,175	757,790	-0,066	-0,129
-519,160	-31,824	-0,101	-0,041
-518,145	16,913	0,033	0,019
-517,131	-16,593	-0,066	-0,030
-516,116	-200,000	0,010	0,102
-515,102	-31,293	-0,086	-0,035
-514,087	13,459	0,020	0,011
-513,072	-154,970	-0,085	0,004
-512,058	-200,000	0,002	-0,068
-511,043	-200,000	-0,018	0,096
-510,029	360,337	-0,056	0,081
-509,014	566,431	0,057	0,100
-507,999	180,624	0,031	-0,033
-506,985	47,386	0,064	-0,043
-505,970	185,612	0,052	-0,056
-504,956	3,499	-0,159	0,083
-503,941	800,000	0,042	0,102
-502,926	-200,000	0,020	-0,172
-501,912	-175,786	0,141	-0,003
-500,897	-89,536	0,121	-0,026
-499,883	-200,000	0,014	0,141
-498,868	248,553	-0,057	0,070
-497,853	800,000	0,043	0,103
-496,839	-74,963	0,114	0,029
-495,824	469,719	0,045	-0,073
-494,810	800,000	-0,047	0,139
-493,795	-200,000	-0,014	0,176
-492,781	-107,154	0,120	-0,019
-491,766	276,751	-0,063	-0,080
-490,751	147,581	0,083	0,081
-489,737	120,624	-0,020	-0,018
-488,722	-17,228	0,029	-0,013
-487,708	-200,000	-0,010	-0,042
-486,693	99,020	0,092	-0,077
-485,678	-16,875	-0,143	-0,065
-484,664	800,000	0,039	-0,101
-483,649	-86,895	-0,130	-0,028
-482,635	94,587	0,021	-0,017
-481,620	-139,612	0,082	0,006
-480,605	353,563	0,033	0,048
-479,591	191,408	-0,086	-0,093
-478,576	168,744	0,038	-0,039
-477,562	415,796	-0,069	0,106
-476,547	167,266	-0,035	0,036
-475,532	427,990	-0,071	-0,111
-474,518	-148,279	0,051	0,003
-473,503	150,241	-0,117	-0,115
-472,489	-51,216	-0,060	-0,020
-471,474	-56,845	-0,066	0,021
-470,459	-55,352	-0,042	0,013
-469,445	-115,587	-0,157	0,021
-468,430	107,984	0,045	-0,039
-467,416	-200,000	0,015	0,187
-466,401	800,000	0,062	0,150
-465,386	106,396	-0,032	0,027
-464,372	-156,289	-0,085	0,004
-463,357	800,000	0,025	0,076
-462,343	-200,000	-0,011	-0,059
-461,328	800,000	0,021	0,053
-460,313	800,000	0,041	-0,128
-459,299	296,572	-0,070	-0,092
-458,284	98,874	0,128	-0,106
-457,270	-13,736	0,184	0,085
-456,255	-158,152	0,121	-0,005
-455,241	744,783	-0,044	-0,086
-454,226	800,000	0,022	0,068
-453,211	-80,499	-0,033	0,008
-452,197	-169,482	-0,104	0,003
-451,182	800,000	0,036	-0,077
-450,168	413,807	-0,022	0,033
-449,153	-76,816	-0,141	0,035
-448,138	-21,455	0,034	0,015
-447,124	-87,798	-0,064	-0,014
-446,109	476,676	0,028	0,046
-445,095	131,723	0,011	-0,010
-444,080	797,104	0,045	0,090
-443,065	5,532	0,144	-0,076
-442,051	800,000	-0,019	-0,043
-441,036	80,807	-0,131	-0,102
-440,022	-116,935	-0,142	-0,018
-439,007	24,332	-0,071	-0,042
-437,992	-200,000	0,013	0,066
-436,978	800,000	0,026	0,064
-435,963	800,000	-0,036	-0,073
-434,949	-10,437	-0,125	-0,059
-433,934	-200,000	-0,005	0,042
-432,919	-151,735	0,041	-0,002
-431,905	467,219	-0,101	-0,163
-430,890	282,058	0,044	-0,057
-429,876	800,000	-0,046	0,106
-428,861	-200,000	-0,022	0,130
-427,846	124,031	0,027	-0,024
-426,832	-153,001	-0,087	0,004
-425,817	287,174	0,074	0,096
-424,803	23,147	-0,071	-0,042
-423,788	-79,742	-0,118	-0,028
-422,773	-200,000	0,013	0,058
-421,759	62,827	0,083	0,060
-420,744	44,955	-0,113	-0,075
-419,730	127,146	-0,040	0,036
-418,715	32,980	-0,045	0,028
-417,701	800,000	-0,049	-0,128
-416,686	-81,581	0,011	0,003
-415,671	-200,000	-0,035	0,177
-414,657	24,630	0,130	0,077
-413,642	800,000	-0,037	0,087
-412,628	800,000	-0,016	-0,050
-411,613	-200,000	0,038	-0,156
-410,598	31,577	-0,011	-0,007
-409,584	-28,080	-0,103	0,043
-408,569	-200,000	0,026	0,111
-407,555	-200,000	-0,024	0,216
-406,540	800,000	0,020	0,052
-405,525	288,608	0,029	-0,038
-404,511	-84,217	-0,057	-0,013
-403,496	-31,049	0,014	0,006
-402,482	-200,000	-0,003	0,069
-401,467	36,686	0,171	0,108
-400,452	82,694	0,059	-0,046
-399,438	-108,797	-0,105	0,016
-398,423	-140,411	0,125	0,009
-397,409	-78,117	-0,075	0,018
-396,394	-200,000	0,003	-0,082
-395,379	-200,000	0,006	0,120
-394,365	52,915	0,176	0,121
-393,350	171,889	0,105	0,109
-392,336	244,242	-0,080	0,097
-391,321	186,919	-0,070	0,076
-390,306	-68,497	-0,014	-0,004
-389,292	800,000	-0,023	-0,066
-388,277	-45,630	0,051	0,018
-387,263	608,460	0,031	-0,056
-386,248	800,000	0,018	0,044
-385,233	443,297	0,014	0,021
-384,219	-0,834	-0,060	0,031
-383,204	-175,003	0,051	-0,001
-382,190	40,996	-0,060	0,039
-381,175	75,586	0,047	-0,035
-380,160	19,521	-0,106	-0,061
-379,146	43,879	0,043	0,028
-378,131	-39,087	0,079	-0,030
-377,117	102,309	-0,046	-0,039
-376,102	-200,000	0,012	0,066
-375,088	-200,000	0,010	0,057
-374,073	-43,658	0,165	-0,059
-373,058	150,545	-0,054	0,053
-372,044	-200,000	0,006	0,026
-371,029	-200,000	0,054	0,172
-370,015	20,460	-0,055	0,032
-369,000	367,888	-0,051	-0,075
-367,985	43,428	0,063	-0,041
-366,971	740,288	0,046	-0,089
-365,956	149,203	-0,051	0,050
-364,942	-41,900	0,075	0,028
-363,927	91,527	0,070	0,057
-362,912	-33,789	0,018	-0,007
-361,898	62,211	-0,052	0,037
-360,883	-128,071	-0,070	0,007
-359,869	-108,825	0,220	0,033
-358,854	-76,757	0,010	-0,003
-357,839	326,759	0,047	-0,065
-356,825	-200,000	0,046	0,218
-355,810	307,836	0,063	0,084
-354,796	565,938	0,033	-0,057
-353,781	79,316	-0,060	-0,046
-352,766	-57,243	-0,169	-0,053
-351,752	-111,220	0,085	0,012
-350,737	-200,000	-0,001	-0,044
-349,723	476,535	0,038	0,061
-348,708	-200,000	0,039	-0,129
-347,693	-106,967	-0,069	0,011
-346,679	195,117	-0,089	-0,097
-345,664	-200,000	0,017	-0,076
-344,650	-59,489	-0,017	-0,005
-343,635	-102,461	-0,093	0,016
-342,620	84,536	-0,034	0,026
-341,606	588,841	-0,045	0,081
-340,591	214,715	0,043	-0,049
-339,577	-200,000	0,064	-0,206
-338,562	121,089	-0,080	-0,071
-337,548	26,949	-0,055	-0,033
-336,533	-40,677	0,080	0,030
-335,518	-118,238	0,082	0,010
-334,504	-151,343	0,185	-0,010
-333,489	800,000	-0,035	-0,104
-332,475	180,891	0,062	-0,065
-331,460	-7,239	-0,123	0,060
-330,445	800,000	0,040	0,101
-329,431	36,434	0,078	0,049
-328,416	-200,000	-0,020	0,076
-327,402	-5,582	0,016	-0,008
-326,387	-175,260	0,152	-0,003
-325,372	-59,778	0,035	0,011
-324,358	-37,180	-0,107	0,041
-323,343	-200,000	-0,025	0,149
-322,329	-200,000	0,012	0,050
-321,314	-59,588	0,078	-0,024
-320,299	391,813	0,032	-0,048
-319,285	3,973	0,076	0,040
-318,270	800,000	0,030	-0,078
-317,256	-200,000	-0,018	-0,065
-316,241	217,684	-0,052	0,059
-315,226	-200,000	0,008	-0,103
-314,212	-200,000	-0,008	0,082
-313,197	-200,000	-0,008	-0,045
-312,183	800,000	0,050	-0,125
-311,168	107,836	0,076	0,065
-310,153	105,675	-0,045	0,038
-309,139	-200,000	-0,002	-0,015
-308,124	-58,301	0,106	0,033
-307,110	-200,000	0,032	0,113
-306,095	25,374	0,062	0,037
-305,080	-200,000	0,011	-0,077
-304,066	800,000	0,059	0,139
-303,051	-97,843	-0,108	-0,020
-302,037	514,133	0,016	0,027
-301,022	-37,483	-0,102	0,039
-300,008	-99,182	-0,095	-0,017
-298,993	609,663	0,029	0,053
-297,978	39,906	0,106	-0,068
-296,964	-200,000	0,003	0,012
-295,949	-28,609	-0,065	0,027
-294,935	800,000	-0,041	-0,117
-293,920	800,000	0,041	0,128
-292,905	40,928	-0,113	0,073
-291,891	0,370	0,151	0,077
-290,876	665,327	-0,057	0,106
-289,862	6,739	0,076	0,040
-288,847	-155,378	0,048	0,002
-287,832	-11,127	0,046	0,022
-286,818	800,000	0,082	0,166
-285,803	405,411	0,035	0,053
-284,789	56,457	0,036	0,025
-283,774	244,308	-0,029	-0,035
-282,759	100,775	-0,046	0,038
-281,745	-126,113	0,110	0,012
-280,730	800,000	-0,015	0,045
-279,716	-71,187	-0,039	-0,010
-278,701	-200,000	-0,008	-0,123
-277,686	17,104	0,041	0,023
-276,672	756,079	-0,045	0,087
-275,657	47,129	-0,040	0,027
-274,643	-72,250	-0,124	0,033
-273,628	-200,000	-0,062	0,000
-272,613	-200,000	-0,031	0,101
-271,599	-200,000	-0,009	0,059
-270,584	-26,678	0,174	0,072
-269,570	210,966	-0,025	0,028
-268,555	222,869	-0,034	-0,040
-267,540	328,360	0,034	0,046
-266,526	142,250	0,008	-0,007
-265,511	800,000	-0,019	-0,045
-264,497	146,577	0,067	0,064
-263,482	-51,763	0,158	0,052
-262,467	5,622	-0,065	0,034
-261,453	247,883	-0,026	0,031
-260,438	108,992	0,073	-0,062
-259,424	-65,536	-0,137	-0,039
-258,409	205,905	-0,105	-0,117
-257,395	134,157	0,032	-0,030
-256,380	382,976	0,031	-0,046
-255,365	-133,443	0,015	-0,001
-254,351	579,747	-0,016	-0,029
-253,336	-126,577	-0,082	-0,009
-252,322	-168,940	-0,240	0,006
-251,307	800,000	0,031	0,079
-250,292	-200,000	0,022	-0,119
-249,278	-200,000	-0,007	-0,099
-248,263	-133,799	0,146	0,013
-247,249	307,597	0,046	0,061
-246,234	26,038	-0,095	-0,057
-245,219	-200,000	-0,005	-0,167
-244,205	93,930	-0,065	-0,053
-243,190	800,000	0,047	0,121
-242,176	97,074	0,076	0,063
-241,161	-71,190	0,021	-0,006
-240,146	285,404	0,080	-0,104
-239,132	-28,173	0,098	-0,040
-238,117	-143,335	0,089	0,006
-237,103	-167,342	-0,181	-0,005
-236,088	34,876	0,128	-0,080
-235,073	800,000	-0,055	-0,161
-234,059	800,000	-0,033	0,070
-233,044	-46,692	-0,056	0,019
-232,030	-200,000	-0,011	0,086
-231,015	44,895	0,115	-0,075
-230,000	800,000	-0,044	-0,126
-228,986	25,740	-0,085	-0,050
-227,971	-200,000	0,035	0,115
-226,957	-115,474	-0,092	-0,012
-225,942	519,843	-0,070	0,117
-224,927	800,000	0,009	-0,018
-223,913	-200,000	0,022	-0,081
-222,898	60,752	0,071	-0,050
-221,884	165,025	0,049	0,050
-220,869	332,900	-0,050	-0,069
-219,855	360,445	0,038	0,055
-218,840	7,997	0,076	-0,040
-217,825	91,954	-0,114	0,092
-216,811	-137,877	-0,173	0,014
-215,796	800,000	-0,075	0,212
-214,782	800,000	-0,053	0,133
-213,767	800,000	0,035	0,110
-212,752	165,486	0,087	0,088
-211,738	33,955	0,101	0,063
-210,723	800,000	0,021	0,046
-209,709	800,000	-0,045	0,100
-208,694	200,315	-0,037	-0,041
-207,679	-200,000	0,015	-0,052
-206,665	37,158	0,053	-0,033
-205,650	800,000	-0,009	0,019
-204,636	-43,481	0,092	0,033
-203,621	93,073	0,060	0,048
-202,606	222,171	-0,096	-0,111
-201,592	44,937	0,196	-0,128
-200,577	161,790	-0,087	-0,087
-199,563	321,453	0,090	0,122
-198,548	-200,000	0,000	-0,149
-197,533	423,637	0,073	0,113
-196,519	-21,480	-0,109	-0,047
-195,504	800,000	0,036	-0,097
-194,490	333,713	-0,053	-0,073
-193,475	357,850	-0,011	0,016
-192,460	75,025	-0,026	-0,019
-191,446	309,091	0,044	-0,059
-190,431	800,000	-0,031	0,094
-189,417	-200,000	0,016	0,082
-188,402	-100,736	-0,081	0,014
-187,387	-200,000	-0,028	-0,096
-186,373	123,755	0,031	-0,027
-185,358	54,113	0,085	-0,058
-184,344	41,174	0,068	0,044
-183,329	-6,996	-0,097	0,047
-182,315	-101,754	0,077	0,013
-181,300	-200,000	0,050	-0,170
-180,285	-200,000	-0,008	-0,087
-179,271	-200,000	0,016	-0,062
-178,256	-200,000	-0,025	0,161
-177,242	800,000	0,038	0,098
-176,227	77,287	0,173	0,131
-175,212	-200,000	0,011	0,053
-174,198	-200,000	0,025	0,083
-173,183	-132,782	-0,078	-0,007
-172,169	-200,000	-0,012	0,056
-171,154	-145,766	0,060	-0,004
-170,139	68,395	0,027	-0,019
-169,125	-76,148	0,123	0,031
-168,110	280,391	0,012	0,015
-167,096	800,000	0,093	-0,197
-166,081	-200,000	0,015	-0,096
-165,066	-200,000	0,020	-0,165
-164,052	122,186	0,018	-0,016
-163,037	7,230	0,148	-0,078
-162,023	418,308	0,109	0,166
-161,008	600,468	-0,032	0,056
-159,993	63,428	-0,048	0,034
-158,979	-30,600	-0,095	-0,038
-157,964	-59,335	-0,044	-0,013
-156,950	247,718	0,080	-0,096
-155,935	-200,000	-0,004	-0,164
-154,920	-200,000	0,003	-0,065
-153,906	-200,000	0,001	-0,123
-152,891	-102,582	0,103	-0,017
-151,877	465,251	-0,040	0,064
-150,862	235,132	-0,085	-0,101
-149,847	800,000	-0,037	-0,114
-148,833	75,870	-0,035	0,027
-147,818	-67,813	-0,049	-0,014
-146,804	371,160	0,010	0,014
-145,789	-134,895	0,162	0,014
-144,775	-74,642	0,107	-0,027
-143,760	-83,960	0,139	0,031
-142,745	263,217	0,026	-0,033
-141,731	101,458	0,090	0,075
-140,716	222,779	0,071	-0,081
-139,702	-200,000	0,016	0,117
-138,687	-59,521	0,081	-0,025
-137,672	-90,794	-0,061	-0,012
-136,658	-136,701	-0,102	0,008
-135,643	38,714	-0,056	-0,035
-134,629	-200,000	-0,024	-0,188
-133,614	-200,000	0,006	0,041
-132,599	-151,465	0,041	-0,002
-131,585	-200,000	-0,003	0,022
-130,570	560,864	-0,055	-0,096
-129,556	588,072	-0,010	-0,017
-128,541	-1,436	0,019	-0,010
-127,526	492,993	0,048	-0,078
-126,512	-200,000	0,017	-0,099
-125,497	800,000	0,079	0,156
-124,483	-200,000	0,021	-0,085
-123,468	495,226	-0,060	0,099
-122,453	33,083	-0,079	-0,048
-121,439	-200,000	0,004	-0,035
-120,424	800,000	-0,008	0,021
-119,410	199,504	-0,074	0,081
-118,395	-200,000	-0,003	0,043
-117,380	55,066	0,128	0,088
-116,366	-200,000	-0,007	-0,058
-115,351	-102,998	-0,106	-0,018
-114,337	800,000	-0,055	-0,165
-113,322	719,896	-0,009	-0,017
-112,307	800,000	0,046	0,133
-111,293	-200,000	-0,002	0,076
-110,278	-111,081	0,157	-0,023
-109,264	-200,000	-0,002	-0,033
-108,249	-63,661	0,147	0,043
-107,234	-78,948	-0,078	-0,019
-106,220	107,426	0,037	-0,032
-105,205	208,653	0,045	-0,050
-104,191	28,740	-0,046	-0,028
-103,176	800,000	-0,030	0,076
-102,162	126,768	-0,019	0,017
-101,147	75,895	-0,026	-0,019
-100,132	274,730	0,068	-0,086
-99,118	-200,000	-0,022	-0,092
-98,103	-29,348	0,168	0,068
-97,089	287,211	-0,043	0,056
-96,074	28,670	0,100	0,060
-95,059	-19,365	0,043	0,019
-94,045	-74,454	-0,093	0,024
-93,030	-200,000	-0,029	-0,138
-92,016	-200,000	0,043	-0,136
-91,001	-200,000	0,001	-0,025
-89,986	15,349	0,131	0,073
-88,972	-200,000	0,018	0,091
-87,957	-108,278	-0,033	-0,005
-86,943	-80,889	-0,102	-0,024
-85,928	264,596	-0,041	0,051
-84,913	195,142	0,029	-0,031
-83,899	800,000	-0,040	0,082
-82,884	67,458	-0,137	-0,099
-81,870	-36,395	0,137	0,052
-80,855	278,739	-0,060	-0,076
-79,840	759,234	0,060	0,115
-78,826	152,039	-0,016	-0,015
-77,811	-70,695	-0,062	-0,016
-76,797	24,226	0,044	0,025
-75,782	-200,000	0,011	0,081
-74,767	-143,699	-0,078	0,005
-73,753	83,553	0,086	0,066
-72,738	-97,480	-0,029	0,005
-71,724	-36,044	-0,143	-0,054
-70,709	412,664	-0,038	-0,057
-69,694	38,275	0,136	-0,086
-68,680	43,812	-0,043	-0,028
-67,665	52,156	0,216	0,146
-66,651	-117,411	-0,150	0,019
-65,636	-200,000	0,003	-0,021
-64,622	-109,245	0,091	0,014
-63,607	317,126	-0,083	-0,112
-62,592	327,498	-0,086	-0,117
-61,578	-22,572	-0,106	0,045
-60,563	-200,000	-0,006	0,089
-59,549	25,764	0,053	-0,031
-58,534	-84,695	-1,454	-0,322
-57,519	290,747	-1,683	-2,174
-56,505	-200,000	-0,451	-4,379
-55,490	79,174	0,979	0,743
-54,476	800,000	4,749	11,442
-53,461	-200,000	17,636	278,860
-52,446	800,000	719,876	2214,075
-51,432	559,412	1633,817	2808,020
-50,417	80,991	1657,460	1267,198
-49,403	23,900	1531,808	893,165
-48,388	17,865	1455,207	819,407
-47,373	18,327	1444,350	815,478
-46,359	17,927	1435,112	808,326
-45,344	16,222	1430,529	797,613
-44,330	16,093	1428,763	795,982
-43,315	16,125	1426,984	795,109
-42,300	16,118	1425,445	794,189
-41,286	16,155	1424,114	793,591
-40,271	16,151	1422,863	792,844
-39,257	16,137	1421,493	791,985
-38,242	16,193	1420,072	791,426
-37,227	16,172	1419,183	790,800
-36,213	16,123	1417,920	789,829
-35,198	16,158	1416,648	789,258
-34,184	16,209	1415,564	788,863
-33,169	16,105	1414,500	787,747
-32,154	16,120	1413,295	787,115
-31,140	16,178	1411,850	786,552
-30,125	16,229	1410,653	786,094
-29,111	16,170	1409,726	785,271
-28,096	16,126	1408,723	784,473
-27,082	16,066	1407,714	783,601
-26,067	16,095	1406,336	782,935
-25,052	16,105	1405,260	782,353
-24,038	16,052	1404,599	781,706
-23,023	16,041	1403,411	780,963
-22,009	16,061	1402,376	780,449
-20,994	16,022	1401,480	779,741
-19,979	16,085	1400,515	779,464
-18,965	16,053	1399,374	778,651
-17,950	16,005	1398,440	777,879
-16,936	16,009	1397,699	777,450
-15,921	15,986	1396,195	776,477
-14,906	15,965	1395,470	775,947
-13,892	16,053	1394,420	775,737
-12,877	16,017	1393,597	775,085
-11,863	16,002	1392,612	774,434
-10,848	15,982	1391,889	773,911
-9,833	15,956	1390,783	773,144
-8,819	15,946	1389,888	772,570
-7,804	15,970	1388,934	772,119
-6,790	15,946	1387,830	771,368
-5,775	15,926	1386,929	770,740
-4,760	15,882	1386,193	770,100
-3,746	15,842	1385,550	769,527
-2,731	15,908	1384,306	769,112
-1,717	15,873	1383,429	768,430
-0,702	15,908	1381,615	767,552
0,313	19,650	1302,637	740,946
1,327	36,039	706,607	439,896
2,342	55,382	125,236	85,732
3,356	4,846	16,587	8,614
4,371	19,749	3,091	1,759
5,386	13,976	0,497	0,273
6,400	-200,000	-0,022	0,122
7,415	-150,483	-0,367	-0,020
8,429	24,988	-0,309	-0,181
9,444	224,001	-0,234	-0,268
10,459	22,615	-0,465	-0,269
11,473	37,531	-0,373	-0,234
12,488	-0,926	-0,238	-0,119
13,502	69,266	-0,314	-0,229
14,517	150,197	-0,294	-0,283
15,531	87,928	-0,261	-0,205
16,546	6,991	-0,433	-0,228
17,561	81,004	-0,295	-0,225
18,575	-174,303	-0,195	-0,004
19,590	800,000	-0,136	-0,284
20,604	-112,129	-0,292	-0,041
21,619	1,946	-0,497	-0,253
22,634	242,144	-0,413	-0,490
23,648	-24,455	-0,552	-0,232
24,663	280,779	-0,339	-0,430
25,677	114,257	-0,425	-0,365
26,692	-34,169	-0,467	-0,180
27,707	187,365	-0,285	-0,301
28,721	-54,429	-0,405	-0,129
29,736	800,000	-0,238	-0,466
30,750	5,872	-0,376	-0,196
31,765	105,599	-0,463	-0,387
32,780	99,613	-0,330	-0,270
33,794	25,322	-0,377	-0,221
34,809	-68,214	-0,428	-0,117
35,823	96,566	-0,371	-0,300
36,838	157,549	-0,347	-0,340
37,853	69,048	-0,424	-0,307
38,867	20,748	-0,345	-0,197
39,882	101,101	-0,470	-0,386
40,896	233,058	-0,279	-0,325
41,911	192,960	-0,403	-0,431
42,926	150,480	-0,335	-0,321
43,940	-20,453	-0,408	-0,176
44,955	20,012	-0,451	-0,256
45,969	32,257	-0,473	-0,288
46,984	91,534	-0,307	-0,244
47,999	204,549	-0,315	-0,345
49,013	84,456	-0,500	-0,386
50,028	-66,907	-0,252	-0,070
51,042	113,297	-0,294	-0,251
52,057	166,670	-0,346	-0,346
53,071	33,555	-0,329	-0,201
54,086	21,112	-0,247	-0,141
55,101	-14,385	-0,168	-0,076
56,115	119,680	-0,322	-0,281
57,130	54,164	-0,299	-0,202
58,144	72,842	-0,359	-0,264
59,159	64,062	-0,395	-0,280
60,174	43,080	-0,307	-0,197
61,188	527,005	-0,193	-0,322
62,203	212,578	-0,295	-0,328
63,217	181,057	-0,297	-0,307
64,232	92,658	-0,375	-0,298
65,247	37,144	-0,402	-0,250
66,261	85,159	-0,442	-0,341
67,276	114,249	-0,365	-0,313
68,290	185,692	-0,233	-0,244
69,305	198,387	-0,244	-0,263
70,320	287,347	-0,198	-0,253
71,334	71,468	-0,231	-0,168
72,349	-44,430	-0,310	-0,109
73,363	-8,383	-0,450	-0,213
74,378	33,719	-0,341	-0,208
75,393	171,989	-0,396	-0,401
76,407	152,587	-0,258	-0,248
77,422	-3,703	-0,382	-0,186
78,436	138,618	-0,322	-0,298
79,451	-8,959	-0,356	-0,167
80,466	183,166	-0,246	-0,256
81,480	49,005	-0,292	-0,193
82,495	60,190	-0,260	-0,181
83,509	-1,960	-0,283	-0,139
84,524	-145,418	-0,315	-0,020
85,539	-46,144	-0,349	-0,120
86,553	50,855	-0,326	-0,217
87,568	415,430	-0,178	-0,268
88,582	242,017	-0,262	-0,309
89,597	163,948	-0,272	-0,270
90,611	-41,437	-0,239	-0,086
91,626	145,769	-0,165	-0,156
92,641	142,195	-0,257	-0,240
93,655	79,469	-0,283	-0,213
94,670	-0,459	-0,361	-0,180
95,684	254,888	-0,272	-0,328
96,699	11,377	-0,283	-0,152
97,714	105,713	-0,296	-0,246
98,728	-120,602	-0,342	-0,040
99,743	77,893	-0,295	-0,220
100,757	-83,120	-0,318	-0,071
101,772	62,086	-0,323	-0,226
102,787	64,007	-0,366	-0,258
103,801	38,628	-0,373	-0,233
104,816	-10,789	-0,303	-0,140
105,830	418,133	-0,109	-0,163
106,845	123,379	-0,166	-0,146
107,860	75,261	-0,229	-0,169
108,874	113,930	-0,320	-0,273
109,889	-19,614	-0,335	-0,145
110,903	86,827	-0,321	-0,249
111,918	-29,940	-0,242	-0,096
112,933	-105,508	-0,155	-0,024
113,947	-7,045	-0,227	-0,108
114,962	4,306	-0,237	-0,122
115,976	-107,176	-0,342	-0,052
116,991	109,791	-0,277	-0,233
118,006	76,883	-0,246	-0,183
119,020	-18,587	-0,278	-0,121
120,035	638,906	-0,156	-0,279
121,049	89,497	-0,258	-0,201
122,064	53,413	-0,198	-0,133
123,079	-1,819	-0,243	-0,119
124,093	538,281	-0,153	-0,256
125,108	-38,599	-0,294	-0,108
126,122	331,484	-0,211	-0,286
127,137	-36,142	-0,259	-0,097
128,151	16,262	-0,201	-0,111
129,166	-112,928	-0,128	0,018
130,181	290,722	-0,194	-0,247
131,195	94,034	-0,302	-0,240
132,210	352,270	-0,209	-0,291
133,224	183,866	-0,274	-0,284
134,239	245,363	-0,199	-0,235
135,254	-62,073	-0,214	-0,062
136,268	124,980	-0,220	-0,194
137,283	-66,983	-0,322	-0,088
138,297	17,210	-0,299	-0,166
139,312	-85,483	-0,269	-0,058
140,327	125,582	-0,251	-0,222
141,341	13,094	-0,263	-0,142
142,356	7,451	-0,224	-0,117
143,370	12,720	-0,224	-0,121
144,385	-2,307	-0,331	-0,162
145,400	143,880	-0,237	-0,221
146,414	-86,681	-0,257	-0,055
147,429	38,505	-0,312	-0,194
148,443	144,584	-0,211	-0,197
149,458	-31,411	-0,211	-0,083
150,473	-42,400	-0,172	-0,061
151,487	87,490	-0,191	-0,148
152,502	139,969	-0,254	-0,234
153,516	61,756	-0,146	-0,101
154,531	29,989	-0,286	-0,170
155,546	32,640	-0,333	-0,201
156,560	204,500	-0,223	-0,242
157,575	-85,295	-0,152	-0,033
158,589	103,494	-0,128	-0,105
159,604	81,312	-0,197	-0,149
160,619	170,462	-0,247	-0,248
161,633	112,558	-0,330	-0,279
162,648	188,122	-0,271	-0,283
163,662	-71,770	-0,138	-0,036
164,677	242,105	-0,255	-0,299
165,692	307,813	-0,152	-0,199
166,706	-46,132	-0,293	-0,100
167,721	42,855	-0,313	-0,199
168,735	55,301	-0,258	-0,174
169,750	71,006	-0,196	-0,141
170,764	233,589	-0,156	-0,180
171,779	82,944	-0,222	-0,168
172,794	303,599	-0,149	-0,194
173,808	-98,171	-0,227	-0,040
174,823	98,505	-0,341	-0,274
175,837	100,175	-0,224	-0,181
176,852	95,023	-0,158	-0,125
177,867	57,410	-0,109	-0,074
178,881	110,272	-0,179	-0,150
179,896	241,441	-0,173	-0,202
180,910	-127,014	-0,221	-0,022
181,925	23,971	-0,309	-0,178
182,940	503,601	-0,203	-0,328
183,954	-120,116	-0,276	0,033
184,969	101,596	-0,250	-0,203
185,983	-2,551	-0,252	-0,123
186,998	107,849	-0,216	-0,180
188,013	800,000	-0,044	-0,132
189,027	110,279	-0,242	-0,203
190,042	-102,585	-0,272	-0,045
191,056	197,267	-0,193	-0,206
192,071	-200,000	-0,051	-0,193
193,086	100,361	-0,131	-0,106
194,100	12,003	-0,199	-0,106
195,115	81,017	-0,156	-0,117
196,129	62,023	-0,285	-0,198
197,144	40,420	-0,221	-0,139
198,159	87,907	-0,279	-0,215
199,173	-52,293	-0,233	-0,075
200,188	-119,648	-0,183	0,022
201,202	-189,854	-0,172	-0,001
202,217	-83,555	-0,232	-0,051
203,232	169,677	-0,165	-0,165
204,246	61,737	-0,235	-0,162
205,261	800,000	-0,067	-0,163
206,275	106,899	-0,245	-0,202
207,290	569,990	-0,135	-0,229
208,304	-32,305	-0,239	-0,093
209,319	-175,480	-0,217	-0,004
210,334	21,525	-0,250	-0,141
211,348	175,950	-0,266	-0,269
212,363	168,537	-0,216	-0,214
213,377	-13,247	-0,180	-0,081
214,392	74,681	-0,160	-0,117
215,407	179,809	-0,187	-0,191
216,421	-29,608	-0,056	0,022
217,436	800,000	-0,084	-0,170
218,450	-75,919	-0,274	-0,067
219,465	-117,674	-0,184	-0,023
220,480	147,067	-0,190	-0,178
221,494	97,247	-0,146	-0,116
222,509	-109,445	-0,130	-0,019
223,523	135,293	-0,070	-0,063
224,538	322,272	-0,105	-0,140
225,553	81,849	-0,277	-0,208
226,567	-1,232	-0,209	-0,102
227,582	169,117	-0,236	-0,234
228,596	800,000	-0,055	-0,139
229,611	-2,034	-0,203	-0,099
230,626	8,090	-0,230	-0,119
231,640	800,000	-0,116	-0,225
232,655	14,333	-0,308	-0,166
233,669	471,115	-0,161	-0,252
234,684	184,259	-0,291	-0,300
235,699	625,047	-0,075	-0,131
236,713	180,147	-0,183	-0,187
237,728	-134,333	-0,276	-0,023
238,742	185,475	-0,107	-0,110
239,757	76,623	-0,185	-0,136
240,772	237,638	-0,191	-0,221
241,786	329,123	-0,142	-0,190
242,801	-59,828	-0,225	-0,066
243,815	-73,422	-0,146	0,037
244,830	-38,781	-0,153	-0,056
245,844	-46,910	-0,210	-0,071
246,859	306,669	-0,082	-0,106
247,874	204,002	-0,195	-0,210
248,888	104,310	-0,255	-0,208
249,903	166,296	-0,110	-0,108
250,917	-85,055	-0,110	-0,024
251,932	135,369	-0,162	-0,146
252,947	78,756	-0,147	-0,109
253,961	71,883	-0,195	-0,141
254,976	19,372	-0,206	-0,114
255,990	-25,642	-0,171	-0,070
257,005	239,916	-0,202	-0,234
258,020	-136,809	-0,220	-0,017
259,034	5,581	-0,198	-0,101
260,049	-40,651	-0,205	-0,073
261,063	800,000	-0,065	-0,139
262,078	185,829	-0,203	-0,209
263,093	-135,686	-0,281	-0,023
264,107	-3,299	-0,158	-0,076
265,122	2,512	-0,256	-0,128
266,136	51,373	-0,084	-0,055
267,151	-97,619	-0,259	0,046
268,166	416,905	-0,110	-0,163
269,180	491,126	-0,126	-0,201
270,195	562,394	-0,135	-0,227
271,209	140,041	-0,196	-0,179
272,224	-63,670	-0,262	-0,074
273,239	-200,000	-0,072	-0,268
274,253	0,506	-0,181	-0,089
275,268	268,920	-0,100	-0,122
276,282	296,011	-0,161	-0,205
277,297	-109,718	-0,271	-0,039
278,312	65,407	-0,209	-0,146
279,326	800,000	-0,115	-0,260
280,341	70,387	-0,133	-0,095
281,355	204,863	-0,172	-0,185
282,370	328,832	-0,113	-0,151
283,384	59,152	-0,234	-0,159
284,399	-15,684	-0,283	-0,124
285,414	16,730	-0,213	-0,116
286,428	161,703	-0,191	-0,185
287,443	211,410	-0,141	-0,153
288,457	800,000	-0,127	-0,275
289,472	95,125	-0,125	-0,099
290,487	75,425	-0,189	-0,138
291,501	205,821	-0,236	-0,254
292,516	702,302	-0,125	-0,229
293,530	-22,738	-0,219	-0,091
294,545	35,463	-0,178	-0,108
295,560	-200,000	-0,030	-0,132
296,574	251,498	-0,166	-0,195
297,589	-73,426	-0,166	0,042
298,603	-52,076	-0,211	-0,067
299,618	-165,067	-0,099	-0,003
300,633	14,722	-0,149	-0,080
301,647	685,918	-0,024	-0,043
302,662	-98,890	-0,105	-0,018
303,676	800,000	-0,042	-0,083
304,691	355,628	-0,090	-0,123
305,706	16,050	-0,179	-0,097
306,720	-112,561	-0,167	0,023
307,735	800,000	-0,051	-0,122
308,749	-108,673	-0,115	0,017
309,764	-63,786	-0,157	-0,044
310,779	-35,844	-0,201	-0,075
311,793	-50,524	-0,114	-0,037
312,808	55,603	-0,134	-0,090
313,822	552,821	-0,099	-0,164
314,837	800,000	-0,030	-0,080
315,852	232,822	-0,049	-0,055
316,866	67,967	-0,086	0,061
317,881	-77,362	-0,102	0,024
318,895	552,645	-0,117	-0,195
319,910	384,787	-0,116	-0,165
320,925	753,341	-0,155	-0,290
321,939	-102,560	-0,069	-0,011
322,954	41,683	-0,097	0,060
323,968	-32,698	-0,117	-0,044
324,983	-52,312	-0,153	-0,049
325,997	64,877	-0,164	-0,114
327,012	135,444	-0,203	-0,182
328,027	194,890	-0,141	-0,148
329,041	-37,667	-0,077	-0,028
330,056	800,000	-0,086	-0,167
331,070	800,000	-0,063	-0,124
332,085	91,879	-0,208	-0,161
333,100	-81,507	-0,219	-0,049
334,114	800,000	-0,108	-0,229
335,129	800,000	-0,070	-0,200
336,143	167,713	-0,120	-0,117
337,158	50,712	-0,146	-0,095
338,173	178,654	-0,051	-0,052
339,187	-82,669	-0,092	0,020
340,202	-200,000	0,016	-0,159
341,216	628,557	-0,086	-0,151
342,231	168,603	-0,148	-0,145
343,246	4,946	-0,168	-0,085
344,260	800,000	-0,021	-0,061
345,275	-32,319	-0,084	-0,032
346,289	312,171	-0,049	-0,063
347,304	206,696	-0,130	-0,139
348,319	135,003	-0,177	-0,158
349,333	41,923	-0,258	-0,160
350,348	-170,254	-0,111	0,003
351,362	42,660	-0,188	-0,117
352,377	-200,000	-0,022	-0,109
353,392	-122,408	-0,179	-0,020
354,406	138,469	-0,149	-0,134
355,421	211,174	1311,667	1419,120
356,435	162,596	1472,067	1419,651
