DTS Sentinel unit serial number:	SN410029Multiplexer serial number:	ORYXHardware model number:	OX2-SRSoftware version number:	ORYX F/W v4,00 Oryx Data Collector v3.7.2.0data status	okinstallation	B3 Nyhavnadifferential loss correction	single-endedforward channel	channel 1reverse channel	N/Adate	2023/12/02time	19:47:30forward acquisition time	300,00reverse acquisition time	0,00gamma	499,1914k internal	0,3201k external	0,3201temperature offset calibration	1,0000default loss term (dB/km)	0,3820temperature slope calibration	1,0000multiplexer offset coefficient	1,0000multiplexer slope coefficient	1,0000fibre end	0,00T internal ref (°C)	13,32T ext. ref 1 (°C)	-1,84T ext. ref 2 (°C)	-1,86length (m)	temperature (°C)	Stokes	anti-Stokes-744,400	229,807	-0,166	-0,197
-743,385	-200,000	0,007	0,148
-742,371	-200,000	-0,070	-0,283
-741,356	-200,000	0,081	0,331
-740,342	204,392	-0,205	-0,232
-739,327	-200,000	-0,047	0,293
-738,312	800,000	-0,072	-0,168
-737,298	-200,000	-0,019	0,307
-736,283	-136,194	-0,120	0,010
-735,269	800,000	-0,045	0,107
-734,254	127,960	-0,208	-0,193
-733,239	24,756	-0,134	0,081
-732,225	357,478	-0,114	-0,165
-731,210	-98,853	0,134	-0,025
-730,196	-60,226	0,164	0,050
-729,181	41,991	-0,008	-0,005
-728,167	-200,000	-0,034	-0,127
-727,152	411,486	0,012	-0,019
-726,137	-35,549	-0,109	0,043
-725,123	-200,000	0,023	0,111
-724,108	-22,576	0,150	-0,066
-723,094	800,000	-0,076	-0,172
-722,079	-200,000	-0,018	-0,121
-721,064	-40,434	-0,091	-0,034
-720,050	-26,424	0,046	-0,020
-719,035	800,000	0,050	-0,130
-718,021	-19,031	-0,134	0,060
-717,006	71,390	-0,148	-0,111
-715,991	290,921	-0,154	-0,204
-714,977	218,334	0,012	-0,014
-713,962	-55,473	-0,056	-0,018
-712,948	-170,868	-0,097	0,002
-711,933	-200,000	-0,000	-0,038
-710,918	800,000	0,023	0,065
-709,904	-178,376	-0,174	-0,003
-708,889	-200,000	0,034	-0,115
-707,875	215,473	-0,064	-0,073
-706,860	15,477	-0,083	0,047
-705,845	-200,000	0,028	0,106
-704,831	-64,059	-0,233	0,069
-703,816	800,000	-0,029	0,061
-702,802	133,558	-0,078	-0,073
-701,787	444,157	-0,015	-0,024
-700,772	125,812	0,032	-0,029
-699,758	-200,000	0,033	0,113
-698,743	73,934	0,068	0,051
-697,729	-200,000	-0,001	-0,043
-696,714	86,336	0,060	0,048
-695,699	-125,587	-0,133	-0,014
-694,685	333,579	-0,056	-0,079
-693,670	-7,027	0,056	-0,028
-692,656	-72,264	-0,033	0,009
-691,641	684,442	0,056	0,107
-690,627	78,000	0,072	-0,055
-689,612	164,068	-0,041	0,042
-688,597	10,450	-0,117	-0,064
-687,583	-200,000	0,006	0,028
-686,568	49,050	-0,057	-0,039
-685,554	6,802	-0,212	-0,114
-684,539	90,261	0,055	0,045
-683,524	800,000	-0,024	0,062
-682,510	-34,797	-0,042	-0,017
-681,495	262,713	-0,010	0,013
-680,481	800,000	-0,032	-0,083
-679,466	-130,128	-0,114	0,011
-678,451	-40,640	-0,050	0,019
-677,437	800,000	-0,018	0,048
-676,422	274,221	0,058	-0,075
-675,408	31,195	0,054	-0,033
-674,393	341,444	-0,102	0,145
-673,378	-152,019	-0,028	-0,001
-672,364	-200,000	0,021	-0,126
-671,349	188,349	-0,087	-0,094
-670,335	476,347	0,046	-0,076
-669,320	-114,800	-0,113	0,015
-668,305	800,000	0,020	0,045
-667,291	800,000	-0,041	0,091
-666,276	-22,863	-0,073	-0,032
-665,262	42,826	-0,195	-0,129
-664,247	800,000	-0,043	-0,105
-663,232	-181,073	-0,127	-0,002
-662,218	-9,031	-0,061	-0,029
-661,203	16,763	-0,036	-0,021
-660,189	800,000	-0,042	0,105
-659,174	-76,020	-0,074	0,019
-658,159	-200,000	0,012	-0,080
-657,145	-172,690	-0,022	-0,000
-656,130	-60,989	-0,104	0,032
-655,116	55,537	0,116	0,081
-654,101	-101,057	0,130	-0,023
-653,086	50,897	-0,046	-0,032
-652,072	469,057	0,082	0,135
-651,057	-42,666	-0,100	-0,037
-650,043	-200,000	-0,061	-0,250
-649,028	-200,000	-0,033	-0,147
-648,014	553,601	0,053	0,093
-646,999	800,000	0,071	-0,190
-645,984	-200,000	-0,001	0,123
-644,970	-123,871	-0,098	-0,011
-643,955	651,555	-0,013	-0,024
-642,941	-115,450	-0,152	-0,020
-641,926	-200,000	0,001	0,012
-640,911	-6,430	0,073	0,036
-639,897	229,008	-0,115	-0,136
-638,882	99,224	-0,090	0,075
-637,868	800,000	0,019	0,060
-636,853	-51,035	-0,075	0,025
-635,838	325,279	0,043	-0,059
-634,824	-200,000	-0,009	-0,044
-633,809	67,488	0,066	-0,049
-632,795	424,502	-0,087	0,136
-631,780	274,245	0,054	-0,070
-630,765	-149,346	-0,089	-0,005
-629,751	-53,391	-0,023	-0,008
-628,736	488,363	-0,065	-0,108
-627,722	800,000	0,063	-0,135
-626,707	-200,000	0,002	0,093
-625,692	264,538	0,066	0,083
-624,678	-47,523	0,135	0,047
-623,663	-42,150	-0,126	0,046
-622,649	-200,000	0,025	-0,119
-621,634	800,000	-0,044	-0,114
-620,619	-147,257	-0,061	0,004
-619,605	221,892	-0,035	-0,041
-618,590	-45,251	0,068	-0,024
-617,576	232,133	0,062	0,074
-616,561	800,000	0,028	0,079
-615,546	-93,076	-0,114	-0,023
-614,532	-200,000	-0,043	-0,158
-613,517	-83,774	0,099	0,023
-612,503	-200,000	-0,019	0,070
-611,488	-51,809	0,027	0,009
-610,474	27,044	-0,065	0,039
-609,459	92,384	-0,134	0,109
-608,444	-86,852	-0,084	0,018
-607,430	73,137	-0,032	0,024
-606,415	-163,305	0,129	0,004
-605,401	-111,752	0,063	-0,009
-604,386	-200,000	0,023	0,193
-603,371	800,000	-0,048	0,109
-602,357	-200,000	0,012	0,063
-601,342	-91,097	-0,126	0,026
-600,328	-108,844	0,088	0,014
-599,313	-200,000	0,014	0,123
-598,298	-200,000	0,007	-0,101
-597,284	179,408	0,097	-0,103
-596,269	-200,000	-0,003	-0,030
-595,255	-36,720	-0,045	0,017
-594,240	-200,000	0,006	-0,048
-593,225	-200,000	-0,011	-0,098
-592,211	261,052	-0,096	-0,120
-591,196	-110,594	0,236	0,035
-590,182	132,584	0,045	0,042
-589,167	800,000	-0,099	0,256
-588,152	-4,698	0,049	0,024
-587,138	-27,500	-0,116	-0,048
-586,123	-200,000	-0,032	0,135
-585,109	800,000	0,035	-0,092
-584,094	800,000	0,023	0,070
-583,079	-139,991	0,079	0,006
-582,065	26,171	0,121	0,073
-581,050	144,247	-0,064	0,062
-580,036	526,188	-0,026	-0,045
-579,021	-200,000	-0,016	-0,063
-578,006	-200,000	0,018	-0,084
-576,992	-53,586	-0,083	-0,027
-575,977	244,403	-0,050	-0,061
-574,963	-200,000	0,003	-0,152
-573,948	724,263	-0,032	0,063
-572,934	466,242	-0,023	0,037
-571,919	-200,000	-0,171	-0,000
-570,904	-103,596	-0,039	0,006
-569,890	200,882	0,076	0,084
-568,875	202,509	-0,038	-0,043
-567,861	-200,000	-0,002	0,131
-566,846	214,109	-0,038	-0,043
-565,831	-200,000	-0,017	-0,066
-564,817	694,380	-0,046	-0,088
-563,802	-200,000	-0,005	-0,131
-562,788	39,101	-0,082	-0,053
-561,773	800,000	-0,036	-0,095
-560,758	59,040	0,101	0,071
-559,744	312,402	-0,094	-0,128
-558,729	69,665	0,108	-0,080
-557,715	2,395	-0,089	-0,046
-556,700	-200,000	0,029	-0,118
-555,685	133,755	-0,065	-0,060
-554,671	156,870	0,094	-0,094
-553,656	-94,779	-0,127	-0,025
-552,642	-200,000	0,015	0,067
-551,627	-200,000	0,001	0,142
-550,612	800,000	0,039	0,123
-549,598	208,307	-0,111	-0,126
-548,583	74,594	-0,062	-0,047
-547,569	-200,000	0,025	0,176
-546,554	-34,275	0,028	0,011
-545,539	-200,000	0,021	0,119
-544,525	17,515	0,035	0,020
-543,510	-200,000	-0,008	-0,030
-542,496	-200,000	-0,027	-0,101
-541,481	-200,000	-0,039	-0,135
-540,466	-115,210	0,053	-0,007
-539,452	486,712	-0,041	0,067
-538,437	-96,424	0,163	-0,031
-537,423	356,125	0,046	-0,066
-536,408	229,264	0,099	0,117
-535,393	500,900	-0,050	-0,084
-534,379	293,887	-0,063	-0,083
-533,364	308,745	-0,075	-0,101
-532,350	38,026	0,054	0,034
-531,335	-200,000	0,005	-0,085
-530,321	125,933	-0,071	0,064
-529,306	652,976	-0,023	0,043
-528,291	104,742	0,082	-0,070
-527,277	248,341	0,008	0,010
-526,262	-176,147	0,139	0,003
-525,248	648,806	-0,021	-0,039
-524,233	72,141	0,075	0,056
-523,218	781,914	0,056	0,111
-522,204	-200,000	-0,033	0,118
-521,189	309,887	-0,047	0,063
-520,175	350,103	0,072	-0,103
-519,160	117,086	0,077	0,068
-518,145	-109,097	-0,048	-0,007
-517,131	-55,285	0,084	-0,027
-516,116	-81,939	0,122	-0,029
-515,102	-200,000	0,019	0,090
-514,087	-79,960	-0,105	0,025
-513,072	248,863	-0,095	-0,117
-512,058	-200,000	0,003	-0,117
-511,043	128,781	-0,084	0,078
-510,029	-78,976	-0,012	0,003
-509,014	-200,000	0,014	0,166
-507,999	-200,000	-0,011	0,075
-506,985	128,374	0,014	-0,013
-505,970	-200,000	0,023	-0,158
-504,956	34,431	-0,042	-0,026
-503,941	-41,915	-0,005	-0,002
-502,926	-34,954	0,096	-0,038
-501,912	-8,837	0,024	-0,011
-500,897	570,452	-0,027	0,047
-499,883	392,781	-0,058	-0,087
-498,868	-8,014	-0,050	0,024
-497,853	0,533	-0,047	-0,024
-496,839	-200,000	-0,003	-0,010
-495,824	-44,703	0,033	0,012
-494,810	74,705	0,157	0,119
-493,795	230,645	-0,048	-0,057
-492,781	-75,102	-0,075	0,019
-491,766	-18,738	-0,079	-0,035
-490,751	-200,000	0,002	0,044
-489,737	514,401	-0,054	0,092
-488,722	-200,000	-0,008	0,096
-487,708	262,041	0,037	0,046
-486,693	-64,989	0,156	0,045
-485,678	-0,726	-0,093	0,048
-484,664	-200,000	0,030	-0,185
-483,649	-200,000	-0,077	-0,000
-482,635	116,615	-0,104	-0,092
-481,620	293,550	0,057	-0,075
-480,605	134,745	0,106	0,099
-479,591	-86,627	0,072	-0,016
-478,576	180,982	0,039	-0,041
-477,562	-165,668	0,106	-0,003
-476,547	-185,538	0,034	0,000
-475,532	-200,000	0,009	-0,184
-474,518	303,104	0,062	-0,082
-473,503	83,379	-0,021	-0,016
-472,489	-3,158	0,117	0,058
-471,474	185,715	-0,125	-0,133
-470,459	77,833	-0,049	-0,038
-469,445	-200,000	-0,035	0,123
-468,430	-200,000	-0,020	0,104
-467,416	-117,100	0,124	0,016
-466,401	-200,000	0,027	-0,131
-465,386	40,616	0,023	0,015
-464,372	-200,000	0,013	0,089
-463,357	51,404	-0,099	-0,068
-462,343	96,476	0,020	0,017
-461,328	800,000	0,035	-0,109
-460,313	251,675	0,039	0,048
-459,299	-82,659	0,083	0,019
-458,284	-200,000	-0,000	-0,019
-457,270	-200,000	0,012	0,182
-456,255	-200,000	-0,015	0,102
-455,241	-200,000	0,019	-0,074
-454,226	242,603	0,095	-0,114
-453,211	137,768	-0,104	-0,098
-452,197	800,000	0,067	0,152
-451,182	-200,000	-0,008	0,084
-450,168	89,607	-0,053	-0,042
-449,153	140,459	0,061	0,058
-448,138	800,000	-0,063	-0,177
-447,124	94,679	0,055	0,045
-446,109	-65,647	-0,073	-0,021
-445,095	-16,064	0,116	0,053
-444,080	800,000	-0,049	0,104
-443,065	394,520	0,077	-0,115
-442,051	-60,182	-0,146	-0,044
-441,036	-115,847	-0,073	0,010
-440,022	270,011	-0,109	-0,138
-439,007	800,000	0,046	-0,127
-437,992	140,463	0,066	0,063
-436,978	12,675	-0,027	-0,015
-435,963	-73,458	-0,079	-0,021
-434,949	-39,783	0,082	0,031
-433,934	800,000	-0,052	-0,160
-432,919	66,354	0,032	0,023
-431,905	29,165	0,040	0,024
-430,890	-71,623	-0,143	0,038
-429,876	331,032	0,115	0,159
-428,861	-48,525	-0,155	-0,053
-427,846	88,382	-0,046	-0,037
-426,832	274,139	-0,032	0,041
-425,817	489,992	0,023	-0,038
-424,803	38,481	-0,112	-0,072
-423,788	65,378	0,104	-0,075
-422,773	146,439	0,026	0,025
-421,759	-200,000	-0,001	0,038
-420,744	125,471	0,189	-0,171
-419,730	159,462	0,007	0,007
-418,715	800,000	0,061	-0,136
-417,701	184,434	-0,143	-0,152
-416,686	382,830	0,064	-0,095
-415,671	-136,500	0,035	0,003
-414,657	-200,000	0,010	0,036
-413,642	-200,000	0,026	-0,086
-412,628	336,133	-0,051	-0,072
-411,613	-63,945	-0,068	-0,020
-410,598	-144,775	0,060	-0,004
-409,584	-32,167	0,101	-0,040
-408,569	304,599	0,070	0,093
-407,555	-200,000	0,010	-0,117
-406,540	-38,080	0,109	0,041
-405,525	-149,571	-0,148	-0,008
-404,511	80,374	-0,092	0,071
-403,496	-200,000	-0,005	0,091
-402,482	800,000	-0,036	0,071
-401,467	-25,808	0,141	0,060
-400,452	-200,000	0,017	-0,135
-399,438	739,549	-0,015	0,029
-398,423	-164,095	-0,120	-0,004
-397,409	234,856	0,057	0,068
-396,394	-75,843	-0,010	-0,002
-395,379	800,000	0,016	-0,045
-394,365	-200,000	0,120	0,000
-393,350	-24,336	-0,104	0,044
-392,336	-200,000	0,005	0,032
-391,321	116,023	-0,024	0,021
-390,306	775,310	-0,034	-0,066
-389,292	10,667	-0,077	0,042
-388,277	-24,094	0,030	-0,013
-387,263	-90,691	0,015	-0,003
-386,248	-200,000	0,005	0,107
-385,233	-200,000	0,003	-0,055
-384,219	-68,422	0,079	-0,022
-383,204	-88,163	-0,057	-0,012
-382,190	-23,474	0,062	0,027
-381,175	-122,179	-0,076	0,009
-380,160	175,714	0,059	-0,062
-379,146	800,000	0,052	0,138
-378,131	201,632	0,003	-0,003
-377,117	-200,000	0,023	0,146
-376,102	269,047	0,057	0,071
-375,088	-130,124	-0,077	0,007
-374,073	-200,000	0,006	-0,049
-373,058	-90,206	0,076	0,016
-372,044	800,000	-0,010	0,027
-371,029	206,683	0,088	0,098
-370,015	-200,000	-0,016	-0,051
-369,000	60,705	-0,128	0,091
-367,985	800,000	-0,036	0,085
-366,971	-117,411	-0,135	-0,017
-365,956	-200,000	0,014	-0,045
-364,942	-149,453	0,102	-0,006
-363,927	-200,000	0,014	0,099
-362,912	-131,411	0,150	-0,014
-361,898	642,224	-0,035	-0,063
-360,883	-200,000	0,010	-0,040
-359,869	-185,845	-0,105	-0,001
-358,854	-200,000	-0,029	0,111
-357,839	114,314	0,053	0,046
-356,825	94,917	0,155	0,126
-355,810	-200,000	0,014	0,147
-354,796	-200,000	0,017	0,057
-353,781	800,000	-0,011	-0,031
-352,766	-26,961	-0,026	-0,011
-351,752	-200,000	-0,032	0,171
-350,737	800,000	0,017	0,040
-349,723	162,037	-0,058	0,058
-348,708	39,211	-0,072	0,046
-347,693	-200,000	0,020	-0,151
-346,679	-13,700	-0,122	0,057
-345,664	407,440	-0,032	0,049
-344,650	-200,000	-0,019	-0,062
-343,635	301,626	0,096	0,127
-342,620	-84,768	0,029	0,007
-341,606	173,532	0,065	0,067
-340,591	-30,343	0,062	-0,025
-339,577	280,005	-0,056	0,072
-338,562	248,496	-0,064	-0,077
-337,548	-200,000	0,001	0,175
-336,533	81,122	0,139	0,107
-335,518	570,578	0,011	0,020
-334,504	66,495	0,067	0,049
-333,489	-48,493	0,031	-0,011
-332,475	800,000	-0,023	0,059
-331,460	-128,478	-0,050	0,005
-330,445	-158,056	0,064	-0,003
-329,431	-59,177	0,066	-0,020
-328,416	718,982	0,058	-0,111
-327,402	332,055	-0,080	0,110
-326,387	350,780	-0,043	-0,061
-325,372	-200,000	-0,013	0,041
-324,358	800,000	-0,059	-0,138
-323,343	-131,116	0,191	0,018
-322,329	-3,845	0,087	-0,043
-321,314	41,319	-0,119	0,077
-320,299	256,982	0,051	0,063
-319,285	-67,946	-0,262	0,073
-318,270	55,450	-0,034	-0,024
-317,256	23,359	-0,057	-0,033
-316,241	-101,883	0,122	0,021
-315,226	367,407	0,033	-0,047
-314,212	202,723	-0,039	-0,043
-313,197	150,642	0,080	0,078
-312,183	-12,622	0,083	-0,039
-311,168	-119,082	-0,045	0,006
-310,153	-5,910	-0,165	0,081
-309,139	212,093	-0,080	-0,091
-308,124	-107,686	0,081	-0,013
-307,110	-94,804	0,196	-0,038
-306,095	178,238	0,104	-0,109
-305,080	166,988	0,033	-0,033
-304,066	94,345	-0,081	-0,066
-303,051	-110,388	-0,032	0,005
-302,037	800,000	0,023	-0,050
-301,022	-73,169	0,102	0,027
-300,008	55,443	0,060	0,042
-298,993	71,649	-0,055	0,041
-297,978	-94,191	0,187	0,036
-296,964	-200,000	-0,043	-0,176
-295,949	417,336	0,053	-0,081
-294,935	167,228	-0,093	-0,094
-293,920	110,391	-0,042	0,036
-292,905	-15,289	-0,093	-0,043
-291,891	490,475	0,073	-0,121
-290,876	-16,965	-0,114	0,051
-289,862	800,000	-0,035	-0,093
-288,847	800,000	-0,068	-0,167
-287,832	-163,196	-0,197	0,007
-286,818	-26,881	0,022	-0,009
-285,803	100,160	-0,034	-0,028
-284,789	311,369	0,061	0,081
-283,774	19,591	-0,092	-0,053
-282,759	-164,794	0,090	-0,003
-281,745	-160,161	0,066	0,003
-280,730	-79,698	-0,114	-0,027
-279,716	200,736	-0,062	0,069
-278,701	-200,000	-0,004	0,058
-277,686	-200,000	0,008	0,081
-276,672	461,886	-0,047	0,075
-275,657	-5,787	0,009	-0,005
-274,643	-200,000	0,010	0,047
-273,628	-61,990	-0,191	-0,057
-272,613	-200,000	0,001	-0,014
-271,599	-200,000	-0,003	-0,049
-270,584	30,684	0,103	-0,063
-269,570	800,000	-0,058	0,116
-268,555	-139,792	0,036	0,003
-267,540	-26,615	0,125	0,052
-266,526	-9,185	-0,062	0,029
-265,511	168,595	-0,047	-0,048
-264,497	492,616	-0,029	-0,048
-263,482	-51,515	0,060	0,020
-262,467	63,460	-0,050	0,036
-261,453	246,843	0,118	0,142
-260,438	98,424	-0,087	-0,072
-259,424	-200,000	0,035	-0,182
-258,409	597,601	0,005	0,009
-257,395	-200,000	-0,004	0,096
-256,380	-19,365	0,184	0,081
-255,365	-200,000	0,027	0,119
-254,351	-200,000	0,014	-0,060
-253,336	-72,855	-0,099	0,026
-252,322	559,187	-0,032	-0,056
-251,307	800,000	0,028	-0,084
-250,292	800,000	0,019	0,046
-249,278	-200,000	-0,034	-0,123
-248,263	800,000	0,064	0,135
-247,249	800,000	-0,011	-0,023
-246,234	-3,892	0,058	-0,029
-245,219	17,788	0,109	0,061
-244,205	165,999	0,087	0,088
-243,190	226,940	0,084	-0,098
-242,176	-98,884	0,099	0,018
-241,161	355,138	-0,023	-0,033
-240,146	-200,000	0,006	0,069
-239,132	62,559	0,067	-0,048
-238,117	227,434	0,075	-0,087
-237,103	-70,778	-0,089	0,024
-236,088	142,263	0,061	-0,058
-235,073	62,597	-0,120	0,085
-234,059	-41,953	0,014	-0,005
-233,044	513,191	0,062	0,104
-232,030	-200,000	-0,041	0,151
-231,015	92,604	-0,014	0,011
-230,000	-200,000	-0,017	-0,121
-228,986	-200,000	-0,004	-0,028
-227,971	255,787	0,011	-0,014
-226,957	-141,203	-0,265	-0,019
-225,942	-30,583	-0,158	0,064
-224,927	-105,209	-0,100	0,016
-223,913	-115,953	-0,114	0,015
-222,898	69,035	0,061	-0,045
-221,884	81,864	0,047	0,037
-220,869	207,825	0,062	0,069
-219,855	58,583	-0,077	0,054
-218,840	171,919	-0,064	0,066
-217,825	-200,000	0,001	0,149
-216,811	-46,519	-0,017	0,006
-215,796	-200,000	0,007	0,071
-214,782	58,728	-0,047	-0,033
-213,767	-200,000	0,005	0,028
-212,752	160,976	0,106	-0,105
-211,738	-200,000	0,020	0,145
-210,723	334,488	0,042	-0,058
-209,709	547,413	-0,056	-0,096
-208,694	-10,189	-0,054	0,025
-207,679	800,000	-0,067	-0,202
-206,665	655,858	-0,056	-0,102
-205,650	352,038	0,032	0,045
-204,636	18,117	0,107	0,060
-203,621	800,000	0,051	0,108
-202,606	317,249	-0,066	-0,089
-201,592	402,844	-0,032	-0,049
-200,577	166,308	-0,076	0,077
-199,563	94,550	0,134	0,108
-198,548	-88,805	0,114	-0,024
-197,533	267,301	0,040	-0,050
-196,519	246,371	0,080	0,097
-195,504	-13,225	-0,054	-0,025
-194,490	-57,406	0,127	0,039
-193,475	-200,000	-0,009	0,076
-192,460	-113,155	-0,211	0,029
-191,446	-56,684	-0,038	-0,012
-190,431	-10,368	0,126	-0,059
-189,417	-96,918	0,080	0,015
-188,402	610,065	-0,037	-0,066
-187,387	95,833	0,017	-0,014
-186,373	-200,000	-0,003	0,050
-185,358	-200,000	0,004	0,019
-184,344	800,000	0,072	-0,149
-183,329	800,000	-0,036	-0,082
-182,315	46,291	0,026	-0,017
-181,300	107,093	-0,019	-0,016
-180,285	-200,000	-0,016	-0,072
-179,271	89,283	-0,111	-0,088
-178,256	63,277	0,049	0,035
-177,242	266,402	0,032	0,040
-176,227	-137,402	0,059	0,005
-175,212	34,813	0,108	-0,067
-174,198	-131,405	0,079	-0,007
-173,183	-84,210	-0,074	-0,017
-172,169	297,590	-0,074	-0,097
-171,154	-188,946	0,040	-0,000
-170,139	38,950	-0,121	0,077
-169,125	-2,220	0,046	-0,023
-168,110	513,947	0,074	0,123
-167,096	35,679	-0,107	0,067
-166,081	-23,202	0,109	0,047
-165,066	210,307	-0,127	-0,142
-164,052	88,741	0,066	0,052
-163,037	-72,330	0,064	-0,017
-162,023	-196,468	0,102	0,000
-161,008	-200,000	-0,006	0,121
-159,993	600,254	0,065	0,115
-158,979	-17,070	-0,102	-0,046
-157,964	730,440	-0,033	-0,062
-156,950	-72,994	-0,120	0,031
-155,935	27,584	0,069	0,041
-154,920	84,267	-0,058	-0,045
-153,906	147,909	0,092	-0,088
-152,891	-56,628	-0,187	0,058
-151,877	-107,981	0,087	-0,013
-150,862	204,360	-0,102	-0,113
-149,847	-82,549	0,025	-0,006
-148,833	-200,000	0,029	0,127
-147,818	800,000	0,054	0,161
-146,804	-200,000	-0,009	0,050
-145,789	182,631	0,064	-0,067
-144,775	800,000	-0,031	-0,062
-143,760	211,065	0,027	0,030
-142,745	800,000	-0,031	0,069
-141,731	-200,000	-0,003	-0,104
-140,716	-200,000	-0,017	-0,094
-139,702	-106,616	0,091	0,014
-138,687	-60,173	-0,117	-0,035
-137,672	57,648	-0,040	0,028
-136,658	185,261	-0,067	0,070
-135,643	178,004	-0,064	-0,066
-134,629	800,000	0,008	-0,021
-133,614	8,722	0,131	0,070
-132,599	11,936	0,139	0,076
-131,585	-117,226	-0,037	-0,005
-130,570	96,503	0,062	0,050
-129,556	-200,000	-0,009	0,078
-128,541	-52,545	-0,111	0,036
-127,526	800,000	0,021	-0,045
-126,512	622,840	-0,036	0,064
-125,497	83,590	-0,040	-0,031
-124,483	-118,956	0,087	0,011
-123,468	340,581	0,021	-0,029
-122,453	24,654	0,058	0,034
-121,439	-32,549	0,077	-0,030
-120,424	-92,773	-0,168	0,033
-119,410	520,326	0,057	0,094
-118,395	800,000	0,070	-0,158
-117,380	-200,000	-0,010	0,076
-116,366	-1,996	-0,131	0,065
-115,351	147,510	-0,055	-0,052
-114,337	800,000	-0,041	-0,100
-113,322	-200,000	0,003	0,023
-112,307	-200,000	0,022	-0,089
-111,293	692,093	0,034	0,063
-110,278	305,265	-0,052	0,068
-109,264	154,543	-0,153	0,149
-108,249	-167,160	-0,057	0,002
-107,234	-56,796	-0,147	-0,046
-106,220	56,145	0,062	0,043
-105,205	-200,000	-0,003	-0,023
-104,191	48,806	-0,096	-0,064
-103,176	71,672	0,105	-0,077
-102,162	225,259	-0,061	0,070
-101,147	-52,843	-0,050	-0,016
-100,132	312,396	-0,020	-0,026
-99,118	-28,287	-0,052	-0,021
-98,103	800,000	-0,035	-0,086
-97,089	34,552	-0,074	0,046
-96,074	-71,020	0,152	0,040
-95,059	-200,000	-0,019	-0,127
-94,045	13,779	-0,085	-0,047
-93,030	-149,618	0,048	0,003
-92,016	-200,000	-0,048	-0,210
-91,001	632,251	0,060	-0,108
-89,986	333,693	0,044	0,060
-88,972	-147,296	0,061	0,004
-87,957	-55,709	0,033	0,010
-86,943	800,000	0,029	0,079
-85,928	-200,000	0,002	-0,023
-84,913	113,419	-0,111	-0,096
-83,899	608,217	0,030	0,054
-82,884	127,437	0,054	0,049
-81,870	-119,491	0,149	-0,018
-80,855	-132,369	0,013	-0,001
-79,840	51,755	-0,030	0,020
-78,826	-126,995	-0,078	0,008
-77,811	656,789	-0,047	-0,087
-76,797	-116,057	-0,033	-0,004
-75,782	-107,907	-0,030	0,005
-74,767	-200,000	0,000	0,053
-73,753	-200,000	0,057	0,205
-72,738	453,202	-0,035	-0,055
-71,724	-200,000	0,029	-0,130
-70,709	800,000	-0,050	-0,116
-69,694	800,000	-0,024	-0,048
-68,680	144,226	0,047	-0,045
-67,665	-45,268	0,091	-0,032
-66,651	-200,000	-0,006	-0,129
-65,636	235,372	-0,037	-0,043
-64,622	-23,572	0,087	0,037
-63,607	-91,862	-0,058	0,012
-62,592	760,604	0,046	0,090
-61,578	-200,000	0,002	-0,087
-60,563	42,645	0,119	0,077
-59,549	96,692	0,064	0,052
-58,534	-19,058	-1,664	-0,729
-57,519	350,824	-1,408	-1,978
-56,505	-200,000	-0,624	-4,526
-55,490	240,904	0,901	1,066
-54,476	800,000	4,944	11,453
-53,461	-200,000	19,250	320,050
-52,446	-200,000	741,113	2334,303
-51,432	573,107	1655,686	2869,119
-50,417	78,319	1671,137	1262,174
-49,403	21,336	1544,277	886,052
-48,388	15,226	1466,659	811,795
-47,373	17,967	1457,065	819,708
-46,359	16,698	1446,834	807,834
-45,344	13,455	1442,020	789,574
-44,330	13,357	1440,096	788,020
-43,315	13,368	1438,341	787,078
-42,300	13,394	1436,657	786,251
-41,286	13,378	1435,662	785,600
-40,271	13,366	1434,194	784,706
-39,257	13,336	1432,854	783,801
-38,242	13,354	1431,660	783,201
-37,227	13,413	1430,336	782,728
-36,213	13,424	1428,845	781,933
-35,198	13,407	1427,914	781,311
-34,184	13,464	1426,878	780,983
-33,169	13,394	1425,651	779,947
-32,154	13,443	1424,374	779,453
-31,140	13,461	1423,014	778,764
-30,125	13,470	1422,002	778,220
-29,111	13,467	1420,849	777,544
-28,096	13,416	1419,965	776,789
-27,082	13,385	1418,955	776,060
-26,067	13,336	1417,726	775,125
-25,052	13,349	1416,680	774,583
-24,038	13,367	1415,574	774,031
-23,023	13,344	1414,621	773,372
-22,009	13,352	1413,510	772,771
-20,994	13,295	1412,770	772,067
-19,979	13,330	1411,809	771,676
-18,965	13,296	1410,841	770,960
-17,950	13,283	1409,990	770,401
-16,936	13,307	1409,129	770,011
-15,921	13,328	1407,935	769,430
-14,906	13,270	1407,061	768,649
-13,892	13,313	1405,984	768,233
-12,877	13,228	1405,205	767,380
-11,863	13,288	1404,402	767,191
-10,848	13,209	1403,656	766,381
-9,833	13,172	1402,652	765,631
-8,819	13,213	1401,503	765,165
-7,804	13,166	1400,734	764,495
-6,790	13,149	1399,701	763,825
-5,775	13,160	1398,733	763,318
-4,760	13,223	1397,604	762,960
-3,746	13,186	1396,847	762,346
-2,731	13,142	1396,138	761,726
-1,717	13,123	1394,970	760,969
-0,702	13,166	1393,299	760,229
0,313	17,010	1310,224	732,708
1,327	33,222	703,824	431,070
2,342	51,196	123,271	82,627
3,356	3,408	16,750	8,605
4,371	3,597	3,212	1,652
5,386	-15,250	0,535	0,241
6,400	540,263	0,040	0,068
7,415	127,827	-0,174	-0,156
8,429	-81,841	-0,263	-0,060
9,444	4,377	-0,310	-0,160
10,459	-63,302	-0,322	-0,093
11,473	-7,139	-0,418	-0,200
12,488	6,543	-0,292	-0,153
13,502	-31,258	-0,462	-0,183
14,517	-71,705	-0,173	-0,045
15,531	-30,860	-0,430	-0,171
16,546	38,531	-0,352	-0,221
17,561	32,599	-0,470	-0,286
18,575	-141,384	-0,256	-0,018
19,590	477,284	-0,169	-0,271
20,604	-118,887	-0,209	0,026
21,619	24,767	-0,477	-0,278
22,634	137,491	-0,417	-0,386
23,648	179,970	-0,370	-0,384
24,663	-17,452	-0,499	-0,221
25,677	118,335	-0,332	-0,289
26,692	102,357	-0,342	-0,282
27,707	85,671	-0,314	-0,244
28,721	75,659	-0,459	-0,342
29,736	133,530	-0,414	-0,378
30,750	23,886	-0,539	-0,313
31,765	103,416	-0,450	-0,372
32,780	177,262	-0,387	-0,398
33,794	287,964	-0,334	-0,427
34,809	54,714	-0,462	-0,314
35,823	128,986	-0,279	-0,251
36,838	74,894	-0,372	-0,276
37,853	170,359	-0,401	-0,405
38,867	50,374	-0,387	-0,258
39,882	-41,381	-0,366	-0,132
40,896	117,965	-0,265	-0,230
41,911	108,168	-0,337	-0,283
42,926	104,517	-0,361	-0,299
43,940	206,067	-0,285	-0,313
44,955	53,657	-0,300	-0,203
45,969	-0,896	-0,447	-0,223
46,984	68,935	-0,275	-0,199
47,999	-60,626	-0,382	-0,113
49,013	-1,510	-0,270	-0,134
50,028	78,705	-0,347	-0,261
51,042	58,510	-0,376	-0,260
52,057	179,012	-0,286	-0,295
53,071	125,537	-0,362	-0,322
54,086	4,276	-0,378	-0,194
55,101	-24,030	-0,389	-0,163
56,115	-36,503	-0,335	-0,126
57,130	84,380	-0,396	-0,305
58,144	-0,472	-0,432	-0,215
59,159	40,053	-0,365	-0,231
60,174	19,152	-0,389	-0,219
61,188	120,570	-0,346	-0,303
62,203	184,967	-0,349	-0,365
63,217	57,236	-0,403	-0,276
64,232	35,917	-0,355	-0,219
65,247	11,633	-0,336	-0,181
66,261	-22,670	-0,437	-0,185
67,276	1,358	-0,333	-0,168
68,290	16,433	-0,381	-0,211
69,305	-9,461	-0,404	-0,189
70,320	-10,831	-0,320	-0,148
71,334	32,541	-0,273	-0,165
72,349	-40,328	-0,437	-0,159
73,363	92,069	-0,348	-0,276
74,378	44,875	-0,341	-0,220
75,393	247,957	-0,238	-0,283
76,407	-65,050	-0,299	-0,084
77,422	70,249	-0,207	-0,150
78,436	24,129	-0,252	-0,146
79,451	-55,180	-0,324	-0,102
80,466	-90,631	-0,288	-0,058
81,480	166,534	-0,161	-0,161
82,495	55,053	-0,362	-0,245
83,509	-28,786	-0,190	-0,077
84,524	410,592	-0,189	-0,282
85,539	72,306	-0,289	-0,211
86,553	-36,731	-0,294	-0,110
87,568	59,232	-0,297	-0,205
88,582	92,862	-0,245	-0,194
89,597	305,642	-0,212	-0,277
90,611	51,155	-0,316	-0,210
91,626	-32,914	-0,183	-0,071
92,641	-78,023	-0,307	-0,074
93,655	98,719	-0,227	-0,184
94,670	133,719	-0,150	-0,136
95,684	62,289	-0,296	-0,207
96,699	-20,751	-0,417	-0,179
97,714	103,398	-0,258	-0,212
98,728	-6,950	-0,423	-0,201
99,743	53,696	-0,263	-0,177
100,757	37,686	-0,302	-0,188
101,772	398,700	-0,232	-0,342
102,787	304,205	-0,236	-0,308
103,801	91,430	-0,306	-0,241
104,816	80,960	-0,201	-0,152
105,830	76,969	-0,235	-0,175
106,845	47,727	-0,167	-0,109
107,860	-40,140	-0,394	-0,143
108,874	4,518	-0,355	-0,182
109,889	109,972	-0,297	-0,250
110,903	251,583	-0,204	-0,244
111,918	19,055	-0,204	-0,114
112,933	1,659	-0,246	-0,124
113,947	-7,450	-0,303	-0,143
114,962	-39,517	-0,268	-0,098
115,976	32,558	-0,225	-0,136
116,991	99,347	-0,264	-0,214
118,006	193,667	-0,203	-0,215
119,020	-2,029	-0,343	-0,168
120,035	8,027	-0,256	-0,134
121,049	8,305	-0,374	-0,196
122,064	486,489	-0,147	-0,236
123,079	-57,551	-0,314	-0,096
124,093	39,744	-0,323	-0,203
125,108	143,150	-0,308	-0,287
126,122	196,044	-0,222	-0,237
127,137	141,822	-0,197	-0,182
128,151	-94,331	-0,337	0,064
129,166	25,540	-0,180	-0,105
130,181	19,859	-0,311	-0,175
131,195	-106,596	-0,229	-0,035
132,210	229,958	-0,244	-0,279
133,224	49,157	-0,241	-0,158
134,239	246,629	-0,173	-0,204
135,254	-81,303	-0,281	-0,064
136,268	93,732	-0,176	-0,139
137,283	68,133	-0,250	-0,179
138,297	326,991	-0,150	-0,202
139,312	33,434	-0,333	-0,202
140,327	258,973	-0,159	-0,192
141,341	-142,654	-0,271	-0,018
142,356	75,279	-0,111	-0,082
143,370	-2,485	-0,355	-0,173
144,385	16,262	-0,235	-0,129
145,400	-91,451	-0,252	-0,050
146,414	101,835	-0,228	-0,185
147,429	163,791	-0,266	-0,262
148,443	-14,894	-0,348	-0,155
149,458	60,692	-0,207	-0,143
150,473	-92,774	-0,236	-0,046
151,487	-60,776	-0,358	-0,105
152,502	-82,880	-0,322	-0,072
153,516	200,474	-0,228	-0,245
154,531	72,950	-0,307	-0,224
155,546	6,196	-0,220	-0,114
156,560	28,631	-0,233	-0,137
157,575	-100,056	-0,263	-0,045
158,589	25,466	-0,212	-0,123
159,604	800,000	-0,107	-0,269
160,619	91,002	-0,215	-0,168
161,633	-19,175	-0,328	-0,141
162,648	123,381	-0,217	-0,189
163,662	-38,261	-0,229	-0,084
164,677	73,146	-0,256	-0,187
165,692	800,000	-0,113	-0,241
166,706	238,688	-0,135	-0,156
167,721	81,655	-0,220	-0,166
168,735	32,130	-0,224	-0,135
169,750	21,818	-0,300	-0,170
170,764	68,275	-0,160	-0,114
171,779	152,125	-0,146	-0,139
172,794	61,615	-0,330	-0,228
173,808	-200,000	-0,378	0,000
174,823	47,219	-0,213	-0,138
175,837	480,959	-0,169	-0,268
176,852	74,181	-0,161	-0,118
177,867	158,552	-0,167	-0,162
178,881	106,874	-0,104	-0,086
179,896	-15,471	-0,267	-0,118
180,910	86,810	-0,190	-0,146
181,925	263,525	-0,192	-0,233
182,940	52,128	-0,272	-0,180
183,954	85,156	-0,253	-0,193
184,969	52,857	-0,171	-0,114
185,983	-10,844	-0,107	-0,049
186,998	73,818	-0,150	-0,110
188,013	-46,843	-0,228	-0,077
189,027	168,672	-0,202	-0,201
190,042	15,373	-0,217	-0,118
191,056	103,332	-0,255	-0,208
192,071	-62,404	-0,209	-0,060
193,086	-41,428	-0,190	-0,068
194,100	-130,803	-0,153	0,014
195,115	800,000	-0,109	-0,264
196,129	294,236	-0,236	-0,301
197,144	800,000	-0,089	-0,244
198,159	37,870	-0,271	-0,167
199,173	-200,000	-0,049	-0,201
200,188	334,349	-0,160	-0,216
201,202	99,195	-0,249	-0,200
202,217	389,727	-0,110	-0,160
203,232	628,627	-0,022	-0,038
204,246	-93,575	-0,241	0,046
205,261	325,141	-0,197	-0,263
206,275	778,733	-0,063	-0,120
207,290	246,130	-0,068	-0,080
208,304	210,360	-0,161	-0,176
209,319	259,203	-0,085	-0,102
210,334	293,715	-0,141	-0,179
211,348	313,554	-0,220	-0,288
212,363	-19,945	-0,201	-0,086
213,377	-70,529	-0,231	-0,060
214,392	137,042	-0,236	-0,214
215,407	374,030	-0,156	-0,220
216,421	47,731	-0,350	-0,226
217,436	30,284	-0,258	-0,153
218,450	35,279	-0,204	-0,124
219,465	52,572	-0,230	-0,152
220,480	787,490	-0,093	-0,178
221,494	278,593	-0,209	-0,259
222,509	7,329	-0,056	-0,029
223,523	69,204	-0,240	-0,171
224,538	49,540	-0,192	-0,125
225,553	491,119	-0,103	-0,163
226,567	-51,397	-0,209	-0,067
227,582	560,463	-0,169	-0,285
228,596	-200,000	-0,041	-0,246
229,611	-84,347	-0,224	-0,049
230,626	240,417	-0,174	-0,201
231,640	96,445	-0,096	-0,076
232,655	22,568	-0,180	-0,102
233,669	-165,292	-0,273	-0,008
234,684	-137,470	-0,248	-0,019
235,699	209,147	-0,147	-0,160
236,713	135,334	-0,262	-0,236
237,728	77,181	-0,164	-0,121
238,742	24,570	-0,145	-0,083
239,757	156,108	-0,195	-0,187
240,772	153,510	-0,259	-0,246
241,786	800,000	-0,072	-0,154
242,801	-91,377	-0,224	-0,044
243,815	75,930	-0,176	-0,128
244,830	734,718	-0,075	-0,140
245,844	-80,201	-0,127	-0,029
246,859	63,129	-0,275	-0,191
247,874	800,000	-0,088	-0,192
248,888	231,788	-0,172	-0,196
249,903	313,724	-0,155	-0,203
250,917	282,764	-0,125	-0,156
251,932	215,379	-0,157	-0,173
252,947	-89,435	-0,163	-0,033
253,961	36,064	-0,229	-0,139
254,976	58,120	-0,168	-0,114
255,990	278,028	-0,199	-0,246
257,005	37,926	-0,107	-0,066
258,020	78,511	-0,133	-0,098
259,034	-129,563	-0,177	-0,017
260,049	323,619	-0,112	-0,149
261,063	-144,954	-0,374	-0,023
262,078	86,836	-0,270	-0,206
263,093	126,655	-0,218	-0,191
264,107	800,000	-0,088	-0,267
265,122	-166,119	-0,153	0,004
266,136	-130,069	-0,102	0,010
267,151	-102,104	-0,264	-0,044
268,166	57,078	-0,182	-0,123
269,180	349,432	-0,077	-0,105
270,195	207,766	-0,110	-0,119
271,209	27,495	-0,222	-0,129
272,224	6,159	-0,179	-0,092
273,239	21,341	-0,283	-0,159
274,253	-200,000	-0,032	-0,123
275,268	2,850	-0,121	0,060
276,282	-12,413	-0,261	-0,117
277,297	103,672	-0,154	-0,125
278,312	99,820	-0,121	-0,097
279,326	-200,000	-0,079	-0,256
280,341	21,378	-0,182	-0,102
281,355	-200,000	-0,051	-0,221
282,370	170,641	-0,146	-0,144
283,384	754,770	-0,135	-0,253
284,399	91,907	-0,185	-0,144
285,414	70,740	-0,208	-0,148
286,428	800,000	-0,061	-0,141
287,443	137,915	-0,169	-0,153
288,457	71,749	-0,148	-0,106
289,472	273,889	-0,112	-0,137
290,487	26,519	-0,091	-0,052
291,501	-172,123	-0,213	0,005
292,516	-40,354	-0,264	-0,094
293,530	268,084	-0,159	-0,193
294,545	-66,327	-0,160	-0,043
295,560	-200,000	-0,002	-0,100
296,574	-3,931	-0,175	-0,083
297,589	800,000	-0,089	-0,175
298,603	112,291	-0,267	-0,222
299,618	-77,266	-0,275	-0,066
300,633	-197,117	-0,141	-0,001
301,647	-70,397	-0,099	-0,026
302,662	-53,524	-0,198	-0,062
303,676	793,538	-0,095	-0,181
304,691	182,497	-0,206	-0,209
305,706	-127,596	-0,175	-0,017
306,720	61,204	-0,164	-0,112
307,735	15,688	-0,091	-0,049
308,749	-50,275	-0,164	-0,053
309,764	-200,000	0,000	0,031
310,779	74,750	-0,136	-0,099
311,793	56,685	-0,187	-0,125
312,808	321,259	-0,168	-0,220
313,822	71,575	-0,134	-0,095
314,837	100,872	-0,191	-0,153
315,852	494,245	-0,055	-0,088
316,866	-91,804	-0,131	0,025
317,881	290,723	-0,063	-0,079
318,895	-48,514	-0,173	-0,057
319,910	800,000	-0,050	-0,149
320,925	542,513	-0,122	-0,201
321,939	112,119	-0,217	-0,180
322,954	-30,384	-0,193	-0,075
323,968	800,000	-0,053	-0,159
324,983	157,297	-0,108	-0,102
325,997	-67,248	-0,117	-0,031
327,012	89,260	-0,132	0,101
328,027	-136,201	-0,232	-0,018
329,041	-7,524	-0,172	-0,080
330,056	-131,555	-0,151	0,013
331,070	402,668	-0,041	0,060
332,085	-23,364	-0,204	-0,084
333,100	531,765	-0,067	-0,109
334,114	800,000	-0,140	-0,297
335,129	458,854	-0,176	-0,271
336,143	228,957	-0,152	-0,170
337,158	574,897	-0,051	-0,085
338,173	501,139	-0,093	-0,148
339,187	-38,266	-0,129	-0,047
340,202	241,662	0,053	0,061
341,216	332,508	-0,164	-0,218
342,231	132,141	-0,131	-0,116
343,246	52,405	-0,178	-0,116
344,260	800,000	-0,050	-0,141
345,275	124,147	-0,119	-0,102
346,289	107,695	-0,023	-0,019
347,304	-43,675	-0,172	-0,059
348,319	-16,118	-0,122	-0,053
349,333	-90,203	-0,341	-0,067
350,348	269,257	-0,160	-0,193
351,362	297,712	-0,126	-0,159
352,377	-90,472	-0,164	-0,032
353,392	800,000	-0,068	-0,145
354,406	380,548	-0,122	-0,173
355,421	209,153	1311,808	1411,075
356,435	160,962	1472,172	1411,561
