DTS Sentinel unit serial number:	SN410029Multiplexer serial number:	ORYXHardware model number:	OX2-SRSoftware version number:	ORYX F/W v4,00 Oryx Data Collector v3.7.2.0data status	okinstallation	B3 Nyhavnadifferential loss correction	single-endedforward channel	channel 1reverse channel	N/Adate	2023/11/29time	10:32:30forward acquisition time	300,00reverse acquisition time	0,00gamma	499,1914k internal	0,3212k external	0,3212temperature offset calibration	1,0000default loss term (dB/km)	0,3820temperature slope calibration	1,0000multiplexer offset coefficient	1,0000multiplexer slope coefficient	1,0000fibre end	0,00T internal ref (°C)	9,42T ext. ref 1 (°C)	-5,61T ext. ref 2 (°C)	-5,74length (m)	temperature (°C)	Stokes	anti-Stokes-744,400	229,107	-0,151	-0,179
-743,385	800,000	-0,070	0,160
-742,371	-200,000	-0,028	-0,250
-741,356	800,000	0,096	0,233
-740,342	589,212	-0,152	-0,272
-739,327	142,786	-0,155	0,150
-738,312	554,033	-0,124	-0,217
-737,298	-200,000	-0,041	0,267
-736,283	-41,627	-0,303	-0,112
-735,269	-200,000	0,039	0,263
-734,254	-139,161	-0,265	-0,020
-733,239	22,777	-0,295	0,175
-732,225	-200,000	-0,039	-0,137
-731,210	589,533	0,110	0,197
-730,196	158,507	-0,011	0,011
-729,181	-200,000	0,008	0,063
-728,167	-87,277	-0,120	-0,026
-727,152	-33,015	-0,043	-0,017
-726,137	-200,000	-0,034	-0,110
-725,123	-200,000	-0,043	-0,270
-724,108	-200,000	-0,013	-0,143
-723,094	790,903	0,031	0,063
-722,079	197,550	0,122	-0,135
-721,064	-1,868	-0,162	-0,082
-720,050	-200,000	-0,042	-0,185
-719,035	-105,544	-0,050	0,008
-718,021	13,376	-0,126	0,071
-717,006	-152,625	-0,107	-0,005
-715,991	-82,360	-0,109	-0,026
-714,977	800,000	-0,025	-0,077
-713,962	523,576	-0,012	0,020
-712,948	-200,000	0,002	-0,026
-711,933	800,000	0,008	-0,023
-710,918	233,789	-0,079	-0,095
-709,904	-72,646	-0,103	-0,027
-708,889	181,377	0,015	0,016
-707,875	128,179	0,013	0,012
-706,860	263,121	-0,047	-0,059
-705,845	30,217	-0,045	-0,028
-704,831	161,719	-0,006	-0,006
-703,816	-5,524	-0,030	0,015
-702,802	163,378	0,120	-0,123
-701,787	-14,033	-0,068	-0,032
-700,772	-74,318	-0,142	0,037
-699,758	253,417	-0,097	-0,119
-698,743	800,000	0,058	0,151
-697,729	51,845	0,038	-0,026
-696,714	800,000	-0,060	-0,123
-695,699	571,490	-0,043	0,076
-694,685	-200,000	0,013	-0,068
-693,670	637,770	0,034	0,064
-692,656	-200,000	-0,022	0,097
-691,641	177,918	-0,096	-0,101
-690,627	120,802	-0,082	-0,074
-689,612	-32,249	0,076	-0,030
-688,597	-58,512	-0,137	-0,043
-687,583	800,000	0,070	-0,184
-686,568	182,729	-0,131	-0,140
-685,554	-200,000	-0,033	-0,147
-684,539	-11,975	0,076	0,036
-683,524	81,770	0,172	0,135
-682,510	177,398	-0,013	0,014
-681,495	-76,016	-0,144	0,036
-680,481	-88,825	-0,113	-0,024
-679,466	-200,000	0,007	-0,089
-678,451	-200,000	-0,001	0,049
-677,437	559,415	0,013	0,023
-676,422	-200,000	0,005	0,189
-675,408	150,768	-0,015	0,015
-674,393	414,418	0,064	-0,099
-673,378	-200,000	0,007	0,126
-672,364	800,000	0,029	-0,077
-671,349	174,465	-0,191	-0,200
-670,335	800,000	-0,012	-0,027
-669,320	253,891	-0,038	0,046
-668,305	-200,000	0,020	0,166
-667,291	183,353	0,046	0,049
-666,276	236,343	-0,051	-0,061
-665,262	-200,000	-0,001	-0,169
-664,247	-200,000	0,003	-0,111
-663,232	225,465	-0,039	0,045
-662,218	-8,462	-0,053	0,026
-661,203	503,369	0,049	-0,083
-660,189	-200,000	-0,011	-0,262
-659,174	-200,000	0,016	-0,052
-658,159	-72,471	-0,126	-0,033
-657,145	139,387	0,079	0,075
-656,130	197,532	-0,050	0,056
-655,116	800,000	-0,040	-0,121
-654,101	-200,000	-0,012	-0,061
-653,086	-11,525	-0,092	-0,043
-652,072	-151,411	-0,079	-0,004
-651,057	92,489	-0,122	-0,099
-650,043	-200,000	-0,008	-0,049
-649,028	-200,000	-0,017	0,068
-648,014	24,339	-0,086	0,051
-646,999	-107,378	0,072	-0,011
-645,984	319,205	-0,100	0,137
-644,970	584,822	-0,050	0,088
-643,955	-33,310	-0,142	-0,056
-642,941	108,669	-0,045	-0,039
-641,926	12,946	-0,008	-0,004
-640,911	-9,919	0,035	-0,017
-639,897	-50,198	0,202	-0,069
-638,882	478,013	0,021	-0,034
-637,868	800,000	0,015	-0,047
-636,853	659,444	-0,065	-0,122
-635,838	800,000	-0,052	-0,121
-634,824	113,751	-0,027	-0,023
-633,809	20,174	0,095	0,055
-632,795	-67,872	0,077	-0,022
-631,780	-11,528	0,111	-0,053
-630,765	800,000	0,020	0,060
-629,751	-82,867	-0,222	-0,051
-628,736	-62,354	-0,126	-0,038
-627,722	380,120	0,071	-0,106
-626,707	-200,000	0,018	-0,072
-625,692	-152,814	0,138	0,007
-624,678	-9,521	-0,053	0,025
-623,663	76,097	-0,065	-0,049
-622,649	-200,000	0,002	-0,125
-621,634	-21,716	-0,125	0,055
-620,619	800,000	0,013	0,034
-619,605	180,883	-0,099	0,105
-618,590	-70,417	-0,028	0,007
-617,576	152,032	-0,037	0,037
-616,561	-200,000	0,000	0,051
-615,546	-126,009	0,196	-0,021
-614,532	-115,037	-0,148	0,020
-613,517	-13,441	0,085	-0,040
-612,503	-54,890	0,096	-0,031
-611,488	-108,366	-0,216	0,033
-610,474	800,000	0,048	0,148
-609,459	344,399	0,073	-0,103
-608,444	82,098	0,028	-0,022
-607,430	-32,985	-0,043	0,017
-606,415	661,518	-0,019	-0,035
-605,401	486,420	-0,068	0,112
-604,386	800,000	0,085	0,202
-603,371	526,803	-0,019	-0,033
-602,357	800,000	-0,045	-0,134
-601,342	-148,729	-0,104	0,006
-600,328	33,005	-0,049	-0,030
-599,313	-80,151	-0,043	-0,010
-598,298	-148,077	-0,058	-0,003
-597,284	-200,000	0,011	-0,089
-596,269	233,896	0,049	-0,059
-595,255	418,114	0,025	0,039
-594,240	20,556	-0,124	-0,072
-593,225	229,411	-0,028	0,033
-592,211	267,747	0,052	-0,065
-591,196	-200,000	0,007	-0,251
-590,182	54,316	-0,012	0,008
-589,167	-200,000	0,020	0,072
-588,152	441,770	0,080	-0,126
-587,138	349,256	-0,036	0,051
-586,123	800,000	0,032	-0,065
-585,109	-200,000	-0,002	0,033
-584,094	44,029	-0,068	0,045
-583,079	-200,000	0,044	0,167
-582,065	800,000	0,033	0,071
-581,050	62,301	0,071	0,051
-580,036	-16,079	-0,160	0,073
-579,021	-200,000	0,012	-0,123
-578,006	-200,000	-0,022	-0,077
-576,992	-22,463	-0,077	-0,033
-575,977	8,264	0,113	-0,061
-574,963	-74,247	0,213	0,055
-573,948	146,453	-0,101	0,098
-572,934	-88,508	0,076	-0,016
-571,919	-176,722	-0,057	0,001
-570,904	43,680	0,112	0,074
-569,890	20,503	-0,091	0,053
-568,875	-200,000	-0,005	0,025
-567,861	-200,000	-0,011	0,120
-566,846	-200,000	0,024	0,086
-565,831	-200,000	0,037	0,124
-564,817	-200,000	0,001	0,020
-563,802	300,922	-0,066	-0,088
-562,788	-200,000	-0,001	0,064
-561,773	-200,000	0,035	0,152
-560,758	610,105	0,044	0,080
-559,744	-200,000	-0,006	0,022
-558,729	-4,027	0,062	0,031
-557,715	-200,000	0,006	-0,071
-556,700	-20,317	0,165	-0,073
-555,685	73,791	-0,150	-0,113
-554,671	800,000	-0,046	-0,100
-553,656	800,000	0,009	0,027
-552,642	-200,000	0,035	0,125
-551,627	495,848	-0,027	-0,045
-550,612	-41,984	-0,105	-0,038
-549,598	108,608	-0,100	0,086
-548,583	19,858	-0,116	0,067
-547,569	800,000	-0,011	-0,029
-546,554	800,000	-0,047	0,108
-545,539	800,000	-0,034	0,073
-544,525	494,054	-0,052	-0,087
-543,510	417,259	0,040	-0,062
-542,496	-200,000	-0,024	-0,086
-541,481	-200,000	-0,001	-0,013
-540,466	384,250	0,044	0,066
-539,452	-200,000	0,020	0,084
-538,437	91,350	-0,027	0,022
-537,423	-200,000	-0,004	0,046
-536,408	37,280	0,089	0,056
-535,393	800,000	-0,054	-0,119
-534,379	-105,027	-0,183	-0,030
-533,364	66,136	-0,042	-0,031
-532,350	800,000	-0,035	-0,079
-531,335	-91,130	0,086	-0,018
-530,321	-200,000	-0,012	0,117
-529,306	-200,000	-0,002	0,079
-528,291	110,950	-0,044	0,038
-527,277	-137,548	-0,106	-0,008
-526,262	508,917	0,026	-0,043
-525,248	-200,000	-0,026	0,118
-524,233	16,716	-0,149	0,085
-523,218	202,011	-0,116	-0,129
-522,204	-200,000	-0,024	-0,103
-521,189	253,404	-0,061	0,074
-520,175	55,875	-0,065	-0,046
-519,160	800,000	-0,025	0,052
-518,145	800,000	-0,014	0,031
-517,131	-97,039	-0,120	0,022
-516,116	-67,900	-0,128	0,036
-515,102	800,000	0,015	-0,043
-514,087	-162,614	0,114	-0,004
-513,072	-121,457	-0,076	-0,009
-512,058	-40,528	0,123	0,046
-511,043	-200,000	-0,011	-0,156
-510,029	-101,665	-0,127	0,022
-509,014	154,442	0,112	0,111
-507,999	-2,313	-0,082	0,041
-506,985	800,000	0,015	-0,036
-505,970	800,000	-0,044	0,090
-504,956	146,523	0,073	-0,071
-503,941	680,271	0,021	0,040
-502,926	-200,000	0,006	0,140
-501,912	-200,000	0,026	0,140
-500,897	522,144	-0,043	-0,073
-499,883	-200,000	-0,025	-0,137
-498,868	195,620	-0,074	-0,081
-497,853	-200,000	0,010	0,039
-496,839	-133,030	0,088	-0,008
-495,824	-42,573	0,049	-0,018
-494,810	-200,000	0,007	-0,100
-493,795	-200,000	-0,022	0,126
-492,781	-7,595	-0,234	-0,113
-491,766	65,558	-0,185	-0,134
-490,751	-200,000	0,000	-0,157
-489,737	-200,000	-0,025	-0,080
-488,722	80,604	0,008	0,007
-487,708	-155,872	-0,071	0,003
-486,693	157,836	0,035	-0,035
-485,678	-58,373	-0,091	-0,028
-484,664	-42,575	-0,146	0,053
-483,649	-200,000	-0,002	-0,041
-482,635	-200,000	0,010	-0,036
-481,620	76,891	-0,075	-0,057
-480,605	596,348	0,091	0,163
-479,591	-200,000	0,015	-0,111
-478,576	800,000	-0,019	0,043
-477,562	-85,164	-0,088	0,019
-476,547	-0,842	0,081	0,041
-475,532	326,276	-0,046	-0,064
-474,518	-200,000	0,006	-0,037
-473,503	-200,000	0,006	0,064
-472,489	-17,421	0,086	0,039
-471,474	140,784	-0,063	-0,060
-470,459	207,139	0,070	-0,078
-469,445	-156,171	0,047	0,002
-468,430	206,645	0,030	-0,034
-467,416	-84,505	0,055	-0,012
-466,401	-82,748	0,011	0,003
-465,386	-23,820	-0,049	0,021
-464,372	43,274	0,105	0,069
-463,357	695,478	0,060	-0,114
-462,343	141,191	0,073	-0,069
-461,328	8,174	-0,049	0,026
-460,313	369,560	0,037	0,055
-459,299	-200,000	-0,022	-0,078
-458,284	-173,860	0,055	-0,001
-457,270	-10,516	-0,075	-0,036
-456,255	84,205	-0,068	-0,053
-455,241	205,041	-0,058	-0,065
-454,226	279,770	0,021	0,027
-453,211	-39,717	0,082	-0,031
-452,197	595,339	0,042	-0,074
-451,182	800,000	0,076	0,170
-450,168	-123,915	-0,058	0,006
-449,153	-200,000	-0,027	0,142
-448,138	257,447	0,025	0,031
-447,124	-200,000	-0,034	-0,156
-446,109	95,791	-0,021	0,017
-445,095	-60,924	0,201	-0,061
-444,080	-200,000	-0,021	0,071
-443,065	-177,849	-0,100	-0,002
-442,051	272,596	0,081	0,103
-441,036	-200,000	0,030	-0,115
-440,022	617,491	-0,023	0,042
-439,007	578,809	0,029	-0,051
-437,992	91,181	0,075	-0,060
-436,978	392,608	0,042	0,062
-435,963	471,200	0,117	0,190
-434,949	800,000	-0,044	0,109
-433,934	800,000	-0,026	-0,055
-432,919	-123,388	-0,087	0,010
-431,905	-79,377	-0,101	-0,024
-430,890	-92,307	0,075	0,015
-429,876	-131,139	0,053	-0,005
-428,861	-128,358	0,061	0,006
-427,846	191,280	-0,109	0,117
-426,832	47,699	-0,075	0,050
-425,817	-98,073	0,055	0,010
-424,803	-108,156	0,133	-0,020
-423,788	-47,531	0,056	-0,019
-422,773	-200,000	-0,017	0,091
-421,759	-152,477	0,050	0,003
-420,744	59,001	0,046	0,033
-419,730	-200,000	-0,003	-0,097
-418,715	-200,000	-0,062	-0,219
-417,701	36,374	-0,049	-0,031
-416,686	-134,101	0,045	-0,004
-415,671	-143,030	0,040	0,003
-414,657	244,456	-0,058	-0,070
-413,642	-32,172	-0,115	0,046
-412,628	200,749	-0,062	0,069
-411,613	100,785	-0,051	-0,042
-410,598	800,000	-0,014	0,031
-409,584	-120,452	0,066	-0,008
-408,569	476,585	0,020	-0,032
-407,555	-196,626	-0,080	0,000
-406,540	-200,000	0,007	0,076
-405,525	252,481	-0,048	-0,058
-404,511	-92,078	0,067	-0,013
-403,496	0,018	0,141	0,072
-402,482	-23,385	-0,059	0,025
-401,467	-200,000	-0,007	0,160
-400,452	146,767	0,053	0,051
-399,438	800,000	0,023	-0,061
-398,423	-200,000	0,017	0,067
-397,409	800,000	-0,025	0,057
-396,394	2,513	0,143	-0,074
-395,379	-200,000	-0,006	-0,046
-394,365	26,499	-0,156	-0,093
-393,350	-200,000	0,010	0,045
-392,336	-46,649	-0,087	0,030
-391,321	-131,870	-0,133	-0,012
-390,306	-1,636	-0,055	0,028
-389,292	-96,666	0,047	0,009
-388,277	-108,894	0,119	-0,018
-387,263	-200,000	-0,004	0,046
-386,248	59,162	0,062	-0,044
-385,233	-115,224	0,119	0,016
-384,219	-47,641	-0,064	0,022
-383,204	13,753	0,052	0,029
-382,190	800,000	0,025	0,055
-381,175	-104,232	0,103	0,017
-380,160	-200,000	0,008	0,193
-379,146	-200,000	0,014	0,134
-378,131	19,275	0,098	0,056
-377,117	-200,000	0,003	-0,130
-376,102	-170,925	-0,043	-0,001
-375,088	297,240	-0,164	-0,215
-374,073	-112,524	-0,066	-0,009
-373,058	8,891	-0,067	-0,036
-372,044	-90,586	0,135	0,028
-371,029	79,166	0,081	0,062
-370,015	-81,304	0,067	0,016
-369,000	800,000	0,005	-0,013
-367,985	188,361	0,010	-0,011
-366,971	-200,000	-0,005	-0,054
-365,956	800,000	0,024	-0,053
-364,942	597,449	-0,015	0,027
-363,927	-14,551	0,080	-0,037
-362,912	-177,674	0,042	-0,001
-361,898	67,691	-0,026	0,019
-360,883	158,454	0,061	-0,060
-359,869	171,042	0,072	-0,073
-358,854	-12,663	0,100	-0,046
-357,839	-80,097	0,140	-0,033
-356,825	445,513	0,023	-0,036
-355,810	43,451	-0,120	-0,078
-354,796	-16,317	0,088	-0,040
-353,781	-38,937	-0,231	-0,086
-352,766	157,052	0,111	-0,110
-351,752	-200,000	-0,006	0,021
-350,737	-99,759	0,049	0,009
-349,723	-84,011	0,075	0,017
-348,708	74,742	0,128	0,096
-347,693	336,953	0,039	-0,054
-346,679	586,913	-0,071	-0,126
-345,664	269,891	-0,069	-0,087
-344,650	-200,000	0,006	0,068
-343,635	800,000	0,067	-0,147
-342,620	-5,979	-0,007	-0,003
-341,606	119,636	-0,077	0,068
-340,591	-26,044	0,086	0,036
-339,577	548,845	0,047	0,080
-338,562	11,058	-0,047	-0,026
-337,548	-90,999	0,129	-0,026
-336,533	211,957	-0,032	-0,037
-335,518	-200,000	0,034	0,118
-334,504	-125,928	0,075	0,008
-333,489	-158,602	-0,026	-0,001
-332,475	50,867	-0,135	-0,091
-331,460	800,000	0,044	-0,123
-330,445	-23,411	-0,044	-0,019
-329,431	-200,000	-0,001	0,072
-328,416	746,693	0,065	0,125
-327,402	-200,000	0,013	-0,054
-326,387	-47,026	0,025	0,009
-325,372	800,000	-0,062	-0,148
-324,358	-86,539	-0,112	-0,024
-323,343	-200,000	0,015	0,072
-322,329	-43,085	0,133	0,048
-321,314	235,389	0,031	-0,036
-320,299	-200,000	0,000	-0,022
-319,285	-200,000	-0,001	-0,093
-318,270	800,000	0,003	0,008
-317,256	225,297	-0,097	-0,112
-316,241	-200,000	0,013	-0,069
-315,226	-38,144	0,112	-0,042
-314,212	52,676	-0,072	0,049
-313,197	800,000	-0,012	0,026
-312,183	408,439	-0,054	-0,081
-311,168	29,739	0,112	-0,068
-310,153	-200,000	-0,001	0,087
-309,139	800,000	0,010	-0,031
-308,124	-88,308	0,093	-0,020
-307,110	-95,142	-0,077	-0,015
-306,095	-46,992	0,077	0,027
-305,080	-21,257	0,073	0,031
-304,066	-128,304	0,054	0,005
-303,051	-200,000	-0,047	-0,153
-302,037	-107,252	0,048	-0,008
-301,022	737,927	0,033	-0,064
-300,008	39,434	0,147	-0,094
-298,993	-20,590	0,072	-0,031
-297,978	155,374	0,130	0,128
-296,964	149,085	-0,070	0,068
-295,949	4,549	-0,039	-0,020
-294,935	307,788	-0,057	-0,076
-293,920	15,131	0,139	0,077
-292,905	800,000	-0,186	0,399
-291,891	187,452	0,072	0,076
-290,876	800,000	-0,039	0,081
-289,862	36,558	-0,079	0,050
-288,847	-36,252	-0,120	0,046
-287,832	86,212	-0,074	-0,058
-286,818	45,196	0,091	-0,059
-285,803	-200,000	0,021	-0,079
-284,789	-200,000	0,063	0,000
-283,774	800,000	-0,044	0,120
-282,759	-200,000	-0,002	0,008
-281,745	-200,000	0,007	0,024
-280,730	-169,520	0,100	-0,003
-279,716	-200,000	0,001	-0,026
-278,701	-32,803	0,103	-0,041
-277,686	151,037	0,057	-0,056
-276,672	136,645	0,122	0,113
-275,657	144,577	-0,096	0,091
-274,643	343,217	-0,038	0,053
-273,628	-29,294	0,010	0,004
-272,613	46,657	0,065	-0,043
-271,599	116,654	0,013	0,012
-270,584	366,208	0,038	-0,055
-269,570	-200,000	0,009	-0,036
-268,555	800,000	0,051	0,144
-267,540	290,761	-0,131	-0,170
-266,526	67,066	0,129	-0,093
-265,511	-200,000	0,001	-0,012
-264,497	-82,113	-0,153	-0,035
-263,482	-58,627	0,121	0,037
-262,467	48,057	-0,064	-0,043
-261,453	-34,701	0,081	-0,031
-260,438	-4,084	-0,103	-0,050
-259,424	-200,000	-0,054	-0,272
-258,409	-20,223	0,037	-0,016
-257,395	-200,000	0,014	0,124
-256,380	800,000	-0,036	0,081
-255,365	785,221	0,087	0,171
-254,351	-86,731	0,123	-0,027
-253,336	-87,448	-0,085	-0,018
-252,322	-115,892	-0,072	-0,009
-251,307	800,000	-0,017	0,053
-250,292	-200,000	-0,036	0,169
-249,278	782,274	0,039	-0,076
-248,263	-200,000	0,003	0,092
-247,249	26,663	-0,043	0,025
-246,234	-200,000	-0,024	0,124
-245,219	800,000	0,047	0,099
-244,205	110,843	0,112	-0,096
-243,190	3,111	-0,058	-0,030
-242,176	-10,481	0,106	0,050
-241,161	-142,286	0,038	0,003
-240,146	-200,000	0,022	0,118
-239,132	-200,000	0,009	-0,064
-238,117	39,979	-0,185	-0,118
-237,103	800,000	-0,046	-0,118
-236,088	-70,722	0,108	-0,029
-235,073	-200,000	-0,003	0,105
-234,059	658,455	0,039	-0,072
-233,044	-10,783	-0,055	-0,026
-232,030	251,676	0,084	-0,102
-231,015	-200,000	0,026	-0,087
-230,000	514,797	-0,082	-0,136
-228,986	800,000	-0,028	-0,074
-227,971	-200,000	-0,014	-0,086
-226,957	116,963	-0,026	-0,022
-225,942	183,818	0,094	0,099
-224,927	800,000	-0,044	-0,113
-223,913	689,584	0,014	0,026
-222,898	-200,000	0,003	0,018
-221,884	800,000	-0,041	-0,113
-220,869	20,550	-0,067	0,039
-219,855	-76,445	0,079	0,020
-218,840	-200,000	-0,031	0,116
-217,825	-200,000	0,012	0,083
-216,811	-126,316	0,091	-0,010
-215,796	20,301	-0,158	-0,090
-214,782	547,115	0,026	-0,045
-213,767	19,785	0,150	-0,085
-212,752	800,000	0,019	0,039
-211,738	-18,491	-0,025	0,011
-210,723	165,196	-0,109	0,109
-209,709	-200,000	-0,020	-0,130
-208,694	-70,545	-0,048	0,013
-207,679	293,786	0,083	0,107
-206,665	-10,285	0,158	0,074
-205,650	505,020	0,042	0,069
-204,636	188,640	-0,075	0,079
-203,621	190,522	0,061	0,065
-202,606	-200,000	0,006	-0,024
-201,592	121,276	-0,041	0,036
-200,577	800,000	-0,021	0,057
-199,563	-0,932	0,059	0,030
-198,548	-200,000	0,000	0,013
-197,533	127,842	0,086	0,077
-196,519	-107,242	-0,169	0,026
-195,504	800,000	0,019	0,052
-194,490	-57,384	-0,040	-0,012
-193,475	478,033	-0,014	0,023
-192,460	323,702	0,015	-0,020
-191,446	-200,000	0,006	0,144
-190,431	353,326	0,068	0,096
-189,417	800,000	0,008	-0,015
-188,402	800,000	-0,048	-0,101
-187,387	-200,000	0,005	-0,038
-186,373	92,668	-0,063	0,050
-185,358	-200,000	0,036	0,191
-184,344	-33,129	0,085	-0,033
-183,329	80,517	0,096	0,073
-182,315	65,633	0,075	-0,054
-181,300	-200,000	0,022	-0,114
-180,285	-69,874	0,065	-0,018
-179,271	-200,000	0,004	-0,079
-178,256	-200,000	0,037	0,128
-177,242	-4,798	0,090	0,044
-176,227	221,449	-0,025	0,029
-175,212	390,641	-0,017	0,025
-174,198	-130,431	-0,078	-0,007
-173,183	-116,483	-0,158	0,020
-172,169	-25,847	-0,027	0,011
-171,154	111,218	-0,127	-0,108
-170,139	800,000	0,022	0,066
-169,125	293,851	0,079	0,102
-168,110	254,587	-0,091	0,110
-167,096	-19,201	-0,203	-0,089
-166,081	-29,001	0,102	-0,041
-165,066	205,158	0,033	0,037
-164,052	800,000	0,021	0,043
-163,037	-200,000	-0,017	0,118
-162,023	800,000	-0,027	0,058
-161,008	-108,615	0,124	-0,019
-159,993	-200,000	0,003	-0,023
-158,979	156,925	-0,114	-0,112
-157,964	800,000	0,015	-0,044
-156,950	-82,628	-0,069	0,016
-155,935	800,000	-0,040	-0,107
-154,920	-85,964	0,088	-0,019
-153,906	-200,000	0,010	-0,065
-152,891	-21,772	-0,052	-0,023
-151,877	-149,855	0,181	0,010
-150,862	-200,000	0,021	0,103
-149,847	800,000	0,045	0,134
-148,833	-200,000	-0,012	0,108
-147,818	181,875	0,026	-0,027
-146,804	72,933	0,110	0,081
-145,789	55,960	-0,034	-0,023
-144,775	-200,000	0,029	0,105
-143,760	489,063	-0,036	-0,058
-142,745	-36,499	-0,125	-0,047
-141,731	-121,011	0,079	0,009
-140,716	-200,000	0,029	0,112
-139,702	-59,909	-0,096	0,029
-138,687	800,000	0,033	0,086
-137,672	-200,000	0,017	-0,068
-136,658	-79,854	0,039	-0,009
-135,643	45,859	-0,083	0,054
-134,629	20,360	0,103	0,059
-133,614	-98,781	0,153	0,027
-132,599	191,977	-0,047	-0,050
-131,585	417,703	-0,132	0,200
-130,570	343,237	-0,072	-0,101
-129,556	360,682	0,024	0,034
-128,541	414,716	0,029	0,043
-127,526	18,978	-0,100	0,057
-126,512	-200,000	-0,033	0,143
-125,497	800,000	0,065	0,192
-124,483	303,104	0,059	0,077
-123,468	800,000	0,046	-0,099
-122,453	-62,091	-0,155	0,046
-121,439	800,000	-0,057	-0,116
-120,424	84,931	0,061	-0,047
-119,410	204,517	0,064	0,070
-118,395	-200,000	0,008	-0,059
-117,380	800,000	-0,021	0,048
-116,366	-200,000	-0,002	0,064
-115,351	634,677	0,058	-0,104
-114,337	242,571	-0,108	-0,128
-113,322	-200,000	-0,026	-0,105
-112,307	-200,000	-0,005	0,063
-111,293	-62,183	-0,079	-0,023
-110,278	128,966	-0,109	0,098
-109,264	-157,207	0,081	0,003
-108,249	140,359	0,055	0,051
-107,234	-97,669	-0,060	0,011
-106,220	-188,293	0,092	0,001
-105,205	-129,830	-0,027	-0,003
-104,191	51,860	-0,081	0,054
-103,176	744,398	-0,022	0,042
-102,162	-200,000	0,012	0,057
-101,147	152,181	-0,112	-0,108
-100,132	-200,000	-0,026	-0,098
-99,118	-46,952	0,102	-0,035
-98,103	-87,837	-0,059	-0,012
-97,089	-35,444	0,150	0,057
-96,074	800,000	-0,014	0,039
-95,059	800,000	-0,047	0,099
-94,045	244,940	-0,042	0,050
-93,030	-17,979	-0,183	-0,081
-92,016	-200,000	-0,040	-0,163
-91,001	-200,000	-0,017	-0,078
-89,986	115,583	-0,084	0,073
-88,972	255,546	-0,057	0,069
-87,957	116,869	-0,083	0,072
-86,943	497,936	-0,024	-0,038
-85,928	336,845	-0,086	-0,118
-84,913	800,000	-0,052	-0,109
-83,899	-200,000	-0,081	-0,254
-82,884	-48,747	0,085	0,029
-81,870	247,189	0,026	-0,031
-80,855	35,892	0,141	0,087
-79,840	-132,595	-0,079	0,007
-78,826	-46,880	-0,088	0,030
-77,811	174,593	-0,036	0,037
-76,797	129,346	-0,050	-0,045
-75,782	-61,750	0,023	-0,007
-74,767	-200,000	0,086	-0,000
-73,753	-34,772	-0,181	-0,069
-72,738	-6,734	0,074	0,036
-71,724	-37,972	-0,149	0,056
-70,709	437,865	0,046	-0,072
-69,694	-127,802	0,072	-0,007
-68,680	208,891	0,074	-0,082
-67,665	32,205	-0,015	-0,009
-66,651	102,064	-0,066	0,054
-65,636	99,080	-0,142	0,116
-64,622	-200,000	-0,012	0,092
-63,607	168,498	-0,080	-0,080
-62,592	365,542	0,067	-0,096
-61,578	199,210	-0,074	0,080
-60,563	331,444	-0,064	-0,087
-59,549	-45,121	-0,086	0,030
-58,534	56,414	-2,059	-1,410
-57,519	554,391	-1,158	-1,973
-56,505	-200,000	-0,441	-4,387
-55,490	457,446	0,896	1,409
-54,476	800,000	5,173	11,541
-53,461	-200,000	21,834	342,948
-52,446	800,000	762,946	2341,215
-51,432	547,165	1661,158	2815,552
-50,417	71,321	1657,037	1211,690
-49,403	17,211	1530,892	854,485
-48,388	11,222	1454,659	783,029
-47,373	19,320	1446,486	817,375
-46,359	14,755	1435,335	789,389
-45,344	9,528	1431,257	762,279
-44,330	9,485	1429,470	761,092
-43,315	9,480	1427,350	759,910
-42,300	9,478	1425,881	759,091
-41,286	9,538	1424,386	758,546
-40,271	9,445	1423,418	757,561
-39,257	9,480	1421,985	756,932
-38,242	9,508	1421,000	756,513
-37,227	9,497	1420,078	755,937
-36,213	9,482	1418,627	755,067
-35,198	9,521	1417,382	754,557
-34,184	9,577	1416,504	754,323
-33,169	9,444	1415,102	752,921
-32,154	9,462	1414,091	752,437
-31,140	9,499	1412,802	751,897
-30,125	9,540	1411,733	751,490
-29,111	9,537	1410,571	750,826
-28,096	9,490	1409,342	749,924
-27,082	9,462	1408,121	749,113
-26,067	9,397	1407,382	748,387
-25,052	9,425	1406,238	747,880
-24,038	9,471	1405,203	747,513
-23,023	9,443	1404,440	746,946
-22,009	9,442	1403,253	746,280
-20,994	9,456	1402,253	745,784
-19,979	9,433	1401,283	745,133
-18,965	9,464	1400,257	744,701
-17,950	9,385	1399,557	743,932
-16,936	9,382	1398,647	743,407
-15,921	9,333	1397,613	742,597
-14,906	9,365	1396,805	742,287
-13,892	9,404	1395,882	741,949
-12,877	9,379	1395,082	741,377
-11,863	9,405	1393,931	740,859
-10,848	9,354	1393,096	740,150
-9,833	9,324	1392,180	739,494
-8,819	9,260	1391,557	738,836
-7,804	9,254	1390,489	738,214
-6,790	9,234	1389,557	737,599
-5,775	9,264	1388,548	737,169
-4,760	9,300	1387,382	736,688
-3,746	9,295	1386,392	736,109
-2,731	9,301	1385,587	735,680
-1,717	9,272	1384,788	735,095
-0,702	9,271	1382,961	734,089
0,313	13,413	1295,188	706,355
1,327	29,625	686,490	410,957
2,342	45,899	118,441	77,117
3,356	3,523	16,473	8,439
4,371	8,644	3,610	1,911
5,386	49,534	1,107	0,734
6,400	800,000	0,225	0,654
7,415	-17,462	-0,209	-0,092
8,429	44,177	-0,338	-0,218
9,444	-112,713	-0,285	-0,039
10,459	243,553	-0,201	-0,238
11,473	21,296	-0,328	-0,188
12,488	-38,757	-0,275	-0,102
13,502	28,462	-0,333	-0,198
14,517	3,985	-0,395	-0,203
15,531	80,640	-0,301	-0,228
16,546	75,880	-0,252	-0,187
17,561	73,976	-0,407	-0,300
18,575	191,921	-0,111	-0,118
19,590	35,865	-0,169	-0,104
20,604	130,881	-0,158	-0,143
21,619	80,967	-0,469	-0,356
22,634	301,451	-0,321	-0,418
23,648	182,587	-0,317	-0,329
24,663	37,523	-0,343	-0,213
25,677	-2,805	-0,375	-0,184
26,692	23,909	-0,256	-0,148
27,707	0,846	-0,349	-0,175
28,721	18,287	-0,403	-0,226
29,736	146,386	-0,362	-0,342
30,750	132,604	-0,309	-0,280
31,765	-45,173	-0,280	-0,097
32,780	-5,573	-0,386	-0,185
33,794	11,471	-0,405	-0,217
34,809	187,793	-0,252	-0,265
35,823	62,534	-0,299	-0,210
36,838	56,970	-0,326	-0,223
37,853	-14,223	-0,406	-0,183
38,867	111,058	-0,380	-0,321
39,882	57,118	-0,401	-0,274
40,896	126,009	-0,295	-0,262
41,911	162,386	-0,301	-0,297
42,926	72,898	-0,261	-0,192
43,940	183,153	-0,293	-0,304
44,955	779,240	-0,201	-0,388
45,969	588,160	-0,140	-0,243
46,984	34,629	-0,243	-0,149
47,999	257,460	-0,165	-0,200
49,013	216,913	-0,160	-0,179
50,028	77,742	-0,299	-0,223
51,042	8,109	-0,336	-0,177
52,057	93,081	-0,306	-0,243
53,071	79,244	-0,376	-0,282
54,086	-38,410	-0,411	-0,152
55,101	-102,890	-0,318	-0,052
56,115	62,542	-0,244	-0,171
57,130	-25,876	-0,310	-0,128
58,144	48,004	-0,349	-0,229
59,159	200,319	-0,310	-0,335
60,174	247,948	-0,266	-0,317
61,188	223,236	-0,358	-0,406
62,203	91,053	-0,243	-0,191
63,217	86,761	-0,349	-0,270
64,232	644,673	-0,180	-0,323
65,247	102,974	-0,377	-0,309
66,261	72,749	-0,409	-0,299
67,276	186,734	-0,276	-0,289
68,290	260,536	-0,295	-0,359
69,305	43,844	-0,396	-0,254
70,320	40,767	-0,279	-0,176
71,334	650,423	-0,169	-0,305
72,349	197,393	-0,258	-0,276
73,363	251,142	-0,243	-0,290
74,378	251,428	-0,350	-0,418
75,393	182,331	-0,324	-0,335
76,407	-103,069	-0,356	-0,058
77,422	192,581	-0,189	-0,201
78,436	56,010	-0,245	-0,166
79,451	286,724	-0,156	-0,198
80,466	-16,983	-0,342	-0,151
81,480	7,424	-0,382	-0,199
82,495	32,220	-0,286	-0,173
83,509	-76,074	-0,341	-0,084
84,524	-4,538	-0,223	-0,107
85,539	53,612	-0,227	-0,152
86,553	-34,994	-0,214	-0,081
87,568	128,251	-0,278	-0,248
88,582	51,728	-0,425	-0,282
89,597	133,777	-0,268	-0,243
90,611	-3,286	-0,323	-0,157
91,626	-14,231	-0,231	-0,104
92,641	-37,013	-0,195	0,073
93,655	27,814	-0,269	-0,158
94,670	-22,439	-0,314	-0,133
95,684	58,439	-0,345	-0,236
96,699	174,703	-0,278	-0,281
97,714	90,403	-0,241	-0,189
98,728	88,308	-0,266	-0,206
99,743	-33,533	-0,236	-0,091
100,757	148,055	-0,227	-0,214
101,772	51,060	-0,311	-0,206
102,787	94,920	-0,326	-0,259
103,801	292,130	-0,197	-0,251
104,816	34,774	-0,210	-0,128
105,830	118,697	-0,209	-0,180
106,845	93,602	-0,201	-0,159
107,860	142,100	-0,271	-0,251
108,874	68,653	-0,375	-0,268
109,889	25,015	-0,316	-0,183
110,903	38,427	-0,280	-0,174
111,918	8,909	-0,213	-0,112
112,933	-32,280	-0,254	-0,099
113,947	-0,977	-0,337	-0,166
114,962	-36,835	-0,148	-0,055
115,976	122,434	-0,261	-0,228
116,991	-71,261	-0,256	-0,066
118,006	90,361	-0,254	-0,198
119,020	-39,139	-0,276	-0,101
120,035	-57,371	-0,188	-0,057
121,049	39,621	-0,192	-0,120
122,064	-103,122	-0,222	-0,036
123,079	77,951	-0,289	-0,215
124,093	54,745	-0,279	-0,188
125,108	563,628	-0,135	-0,229
126,122	192,648	-0,184	-0,194
127,137	-119,705	-0,320	-0,038
128,151	88,869	-0,084	-0,065
129,166	-62,142	-0,263	-0,076
130,181	226,531	-0,162	-0,184
131,195	139,652	-0,270	-0,248
132,210	329,219	-0,200	-0,269
133,224	68,915	-0,281	-0,201
134,239	-91,729	-0,346	-0,068
135,254	22,082	-0,280	-0,159
136,268	12,248	-0,294	-0,157
137,283	122,160	-0,168	-0,146
138,297	800,000	-0,099	-0,292
139,312	53,546	-0,225	-0,150
140,327	154,484	-0,331	-0,317
141,341	114,701	-0,262	-0,222
142,356	-75,162	-0,285	-0,070
143,370	-24,345	-0,314	-0,130
144,385	375,337	-0,167	-0,238
145,400	75,215	-0,233	-0,171
146,414	167,044	-0,209	-0,207
147,429	-43,615	-0,245	-0,086
148,443	62,327	-0,225	-0,156
149,458	800,000	-0,101	-0,222
150,473	283,333	-0,131	-0,164
151,487	-18,149	-0,239	-0,104
152,502	-200,000	-0,297	-0,000
153,516	-142,167	-0,304	-0,021
154,531	-28,203	-0,349	-0,140
155,546	78,493	-0,332	-0,247
156,560	12,857	-0,216	-0,116
157,575	-172,514	-0,203	-0,004
158,589	-30,684	-0,277	-0,108
159,604	228,318	-0,196	-0,223
160,619	27,738	-0,245	-0,143
161,633	-193,942	-0,354	0,002
162,648	-128,711	-0,173	-0,017
163,662	85,222	-0,150	-0,115
164,677	78,305	-0,186	-0,138
165,692	315,285	-0,081	-0,106
166,706	189,681	-0,231	-0,241
167,721	0,049	-0,272	-0,134
168,735	73,622	-0,216	-0,157
169,750	-27,640	-0,255	-0,102
170,764	32,498	-0,192	-0,115
171,779	80,503	-0,175	-0,130
172,794	22,388	-0,334	-0,189
173,808	320,764	-0,146	-0,193
174,823	800,000	-0,150	-0,291
175,837	31,721	-0,252	-0,150
176,852	308,703	-0,212	-0,276
177,867	158,403	-0,198	-0,191
178,881	279,040	-0,149	-0,185
179,896	333,545	-0,165	-0,222
180,910	195,627	-0,253	-0,267
181,925	-31,449	-0,329	-0,128
182,940	126,987	-0,306	-0,269
183,954	135,016	-0,259	-0,234
184,969	-200,000	-0,058	-0,227
185,983	471,228	-0,142	-0,222
186,998	549,326	-0,132	-0,220
188,013	131,727	-0,165	-0,147
189,027	162,882	-0,173	-0,168
190,042	-53,544	-0,204	-0,064
191,056	800,000	-0,105	-0,205
192,071	-200,000	-0,032	-0,132
193,086	-60,924	-0,141	-0,041
194,100	-51,104	-0,181	-0,058
195,115	-62,821	-0,229	-0,065
196,129	82,131	-0,345	-0,259
197,144	335,953	-0,155	-0,208
198,159	63,489	-0,259	-0,180
199,173	107,774	-0,184	-0,152
200,188	-200,000	-0,089	-0,289
201,202	80,234	-0,070	-0,052
202,217	539,849	-0,113	-0,187
203,232	-15,020	-0,245	-0,108
204,246	450,075	-0,148	-0,228
205,261	144,743	-0,213	-0,197
206,275	-48,108	-0,349	-0,116
207,290	-98,373	-0,150	-0,026
208,304	800,000	-0,064	-0,149
209,319	98,643	-0,200	-0,160
210,334	45,491	-0,133	-0,085
211,348	-80,029	-0,282	-0,065
212,363	427,212	-0,092	-0,138
213,377	800,000	-0,065	-0,170
214,392	-71,179	-0,225	0,058
215,407	-39,719	-0,175	-0,063
216,421	-142,374	-0,179	-0,012
217,436	-91,628	-0,236	-0,046
218,450	-19,358	-0,212	-0,091
219,465	49,114	-0,217	-0,141
220,480	268,542	-0,206	-0,250
221,494	177,139	-0,108	-0,108
222,509	-6,571	-0,218	-0,102
223,523	577,088	-0,102	-0,174
224,538	490,800	-0,086	-0,137
225,553	-25,969	-0,322	-0,130
226,567	-95,802	-0,099	-0,018
227,582	-15,759	-0,247	-0,108
228,596	-78,936	-0,229	-0,054
229,611	-115,744	-0,211	-0,027
230,626	166,264	-0,164	-0,160
231,640	-78,218	-0,140	-0,033
232,655	172,422	-0,223	-0,222
233,669	256,637	-0,121	-0,144
234,684	33,821	-0,181	-0,109
235,699	58,578	-0,194	-0,131
236,713	-118,899	-0,186	0,022
237,728	-105,489	-0,222	-0,034
238,742	384,713	-0,136	-0,194
239,757	-48,714	-0,281	-0,093
240,772	124,720	-0,217	-0,188
241,786	-48,955	-0,220	-0,072
242,801	341,846	-0,101	-0,137
243,815	326,470	-0,148	-0,197
244,830	10,473	-0,172	-0,090
245,844	-143,073	-0,244	0,016
246,859	-8,053	-0,215	-0,100
247,874	15,919	-0,160	-0,087
248,888	84,919	-0,126	-0,096
249,903	-171,503	-0,132	0,003
250,917	-200,000	-0,004	-0,256
251,932	-90,289	-0,027	-0,005
252,947	46,374	-0,064	-0,041
253,961	-125,524	-0,110	-0,011
254,976	-3,542	-0,197	-0,094
255,990	97,482	-0,218	-0,172
257,005	800,000	-0,076	-0,153
258,020	287,930	-0,150	-0,188
259,034	47,424	-0,095	-0,061
260,049	-9,784	-0,180	-0,082
261,063	-124,838	-0,216	-0,023
262,078	-68,321	-0,157	-0,042
263,093	-110,360	-0,295	-0,042
264,107	800,000	-0,107	-0,280
265,122	209,151	-0,116	-0,125
266,136	147,845	-0,158	-0,147
267,151	22,110	-0,215	-0,121
268,166	157,467	-0,159	-0,152
269,180	199,305	-0,143	-0,151
270,195	176,867	-0,236	-0,237
271,209	43,316	-0,294	-0,184
272,224	-1,845	-0,074	-0,036
273,239	800,000	-0,077	-0,209
274,253	-88,476	-0,151	-0,031
275,268	-62,963	-0,156	-0,044
276,282	237,981	-0,195	-0,223
277,297	800,000	-0,089	-0,242
278,312	26,203	-0,274	-0,157
279,326	-113,481	-0,239	0,032
280,341	-24,369	-0,168	-0,069
281,355	145,454	-0,099	-0,091
282,370	-53,814	-0,189	-0,059
283,384	-72,314	-0,149	-0,038
284,399	108,579	-0,174	-0,143
285,414	164,557	-0,180	-0,175
286,428	2,982	-0,172	-0,086
287,443	131,363	-0,206	-0,182
288,457	45,774	-0,172	-0,109
289,472	-75,200	-0,212	-0,052
290,487	68,358	-0,290	-0,204
291,501	136,393	-0,170	-0,153
292,516	389,013	-0,090	-0,129
293,530	102,549	-0,200	-0,160
294,545	800,000	-0,063	-0,145
295,560	-68,463	-0,187	-0,050
296,574	344,033	-0,191	-0,258
297,589	-35,722	-0,137	-0,051
298,603	42,204	-0,159	-0,099
299,618	-75,735	-0,165	-0,040
300,633	40,835	-0,109	-0,068
301,647	-59,858	-0,078	0,023
302,662	741,151	-0,043	-0,080
303,676	427,544	-0,112	-0,166
304,691	-8,810	-0,127	0,058
305,706	-33,541	-0,217	-0,082
306,720	-116,221	-0,205	-0,026
307,735	-84,431	0,022	-0,005
308,749	-51,326	-0,076	0,024
309,764	7,120	-0,070	-0,036
310,779	515,863	-0,081	-0,130
311,793	51,806	-0,226	-0,148
312,808	-200,000	-0,025	-0,208
313,822	-200,000	-0,093	-0,322
314,837	167,023	-0,149	-0,145
315,852	-69,235	-0,124	-0,032
316,866	-200,000	0,010	-0,124
317,881	370,491	-0,068	-0,095
318,895	-40,132	-0,050	0,018
319,910	90,043	-0,106	-0,081
320,925	302,194	-0,109	-0,138
321,939	86,845	-0,232	-0,176
322,954	-74,954	-0,200	-0,049
323,968	-122,218	-0,065	0,007
324,983	-200,000	-0,049	-0,226
325,997	44,524	-0,163	-0,103
327,012	-7,706	-0,150	-0,069
328,027	204,748	-0,121	-0,129
329,041	670,897	-0,108	-0,192
330,056	-68,838	-0,097	0,026
331,070	-143,889	-0,150	0,010
332,085	45,511	-0,114	-0,072
333,100	192,639	-0,186	-0,192
334,114	140,260	-0,065	-0,059
335,129	171,572	-0,042	-0,041
336,143	-96,938	-0,183	-0,033
337,158	144,053	-0,087	-0,079
338,173	82,838	-0,091	-0,068
339,187	800,000	-0,048	-0,094
340,202	127,423	-0,234	-0,203
341,216	-200,000	0,003	-0,135
342,231	-200,000	-0,016	-0,247
343,246	-51,235	-0,176	-0,056
344,260	-67,726	-0,213	-0,057
345,275	14,317	-0,120	0,064
346,289	-143,669	-0,150	-0,010
347,304	58,077	-0,238	-0,159
348,319	-40,347	-0,128	-0,045
349,333	-20,546	-0,157	-0,065
350,348	111,181	-0,245	-0,202
351,362	68,277	-0,115	-0,081
352,377	-200,000	-0,049	-0,170
353,392	-65,398	-0,045	-0,012
354,406	159,506	-0,146	-0,139
355,421	208,962	1306,325	1399,706
356,435	160,815	1465,992	1400,192
