DTS Sentinel unit serial number:	SN410029Multiplexer serial number:	ORYXHardware model number:	OX2-SRSoftware version number:	ORYX F/W v4,00 Oryx Data Collector v3.7.2.0data status	okinstallation	B3 Nyhavnadifferential loss correction	single-endedforward channel	channel 1reverse channel	N/Adate	2023/12/01time	17:17:30forward acquisition time	300,00reverse acquisition time	0,00gamma	499,1914k internal	0,3204k external	0,3204temperature offset calibration	1,0000default loss term (dB/km)	0,3820temperature slope calibration	1,0000multiplexer offset coefficient	1,0000multiplexer slope coefficient	1,0000fibre end	0,00T internal ref (°C)	13,99T ext. ref 1 (°C)	0,15T ext. ref 2 (°C)	0,13length (m)	temperature (°C)	Stokes	anti-Stokes-744,400	345,753	-0,152	-0,218
-743,385	-200,000	0,002	0,315
-742,371	800,000	-0,128	-0,280
-741,356	-200,000	-0,046	0,329
-740,342	219,175	-0,210	-0,244
-739,327	-200,000	-0,019	0,328
-738,312	800,000	-0,097	-0,260
-737,298	443,133	0,176	0,282
-736,283	800,000	-0,096	-0,279
-735,269	-200,000	0,067	0,266
-734,254	462,240	-0,179	-0,291
-733,239	135,708	-0,178	0,168
-732,225	-200,000	-0,040	-0,153
-731,210	-59,063	0,243	0,076
-730,196	-1,397	-0,055	0,028
-729,181	53,379	0,005	-0,003
-728,167	-95,667	0,118	-0,023
-727,152	-36,731	-0,088	0,034
-726,137	254,403	0,038	-0,047
-725,123	-200,000	-0,022	-0,106
-724,108	-200,000	-0,054	-0,176
-723,094	800,000	-0,057	-0,126
-722,079	-154,251	-0,048	-0,002
-721,064	23,422	-0,061	0,036
-720,050	145,153	0,047	-0,046
-719,035	-71,538	-0,100	-0,027
-718,021	-200,000	-0,012	0,062
-717,006	628,007	-0,089	-0,165
-715,991	800,000	-0,090	-0,190
-714,977	800,000	-0,019	-0,044
-713,962	52,539	0,025	0,017
-712,948	-34,830	0,079	0,031
-711,933	-200,000	-0,003	-0,101
-710,918	-91,489	0,151	-0,031
-709,904	-131,957	-0,079	0,007
-708,889	159,228	0,102	-0,103
-707,875	0,066	-0,053	0,027
-706,860	800,000	-0,007	-0,018
-705,845	-200,000	-0,003	0,029
-704,831	546,817	-0,016	0,027
-703,816	-158,527	0,137	-0,006
-702,802	-88,761	-0,138	0,029
-701,787	213,561	-0,055	-0,063
-700,772	-173,578	0,082	-0,002
-699,758	66,546	0,104	-0,077
-698,743	-200,000	-0,024	-0,101
-697,729	41,425	-0,083	0,054
-696,714	479,127	0,081	0,133
-695,699	186,002	-0,125	-0,135
-694,685	-142,378	-0,026	0,002
-693,670	447,951	0,055	-0,088
-692,656	-83,348	-0,067	-0,015
-691,641	-32,140	-0,081	-0,033
-690,627	-53,063	0,129	0,043
-689,612	-28,467	-0,035	0,015
-688,597	-200,000	-0,019	0,108
-687,583	-117,408	-0,073	0,009
-686,568	-200,000	-0,016	-0,157
-685,554	-73,087	0,111	-0,029
-684,539	-200,000	0,021	0,093
-683,524	-69,373	-0,105	-0,029
-682,510	-69,988	-0,077	-0,021
-681,495	-89,798	-0,107	0,023
-680,481	49,564	-0,072	0,049
-679,466	800,000	-0,055	-0,136
-678,451	-200,000	-0,010	-0,071
-677,437	-200,000	0,010	0,064
-676,422	-200,000	-0,019	0,132
-675,408	-200,000	-0,009	-0,039
-674,393	313,282	0,020	-0,027
-673,378	-39,046	-0,125	-0,047
-672,364	-94,831	-0,087	0,017
-671,349	800,000	-0,031	-0,075
-670,335	-105,351	0,055	-0,009
-669,320	69,735	-0,109	0,081
-668,305	621,805	-0,056	0,102
-667,291	-26,516	-0,051	-0,021
-666,276	-144,364	-0,212	-0,014
-665,262	2,883	-0,083	-0,044
-664,247	-200,000	-0,017	-0,203
-663,232	-167,314	-0,154	0,004
-662,218	-200,000	-0,014	-0,071
-661,203	-182,058	0,159	0,002
-660,189	145,146	-0,043	-0,041
-659,174	-120,173	-0,067	0,008
-658,159	-108,556	-0,132	-0,020
-657,145	102,776	0,060	-0,051
-656,130	-62,619	-0,062	-0,018
-655,116	21,251	-0,079	-0,047
-654,101	97,680	0,022	-0,018
-653,086	177,824	0,058	-0,062
-652,072	-200,000	-0,003	0,099
-651,057	-200,000	0,013	-0,097
-650,043	-22,252	0,055	-0,024
-649,028	5,756	0,059	-0,032
-648,014	800,000	0,018	0,042
-646,999	531,296	-0,071	0,123
-645,984	28,949	-0,120	0,074
-644,970	-132,178	-0,063	0,006
-643,955	20,072	0,142	-0,083
-642,941	197,912	-0,041	0,045
-641,926	-102,437	-0,048	0,008
-640,911	368,245	-0,044	0,065
-639,897	502,619	0,037	0,062
-638,882	-200,000	0,005	-0,165
-637,868	257,265	0,022	-0,028
-636,853	-200,000	0,024	-0,121
-635,838	321,612	-0,076	-0,105
-634,824	-200,000	0,015	0,049
-633,809	-200,000	0,002	0,090
-632,795	150,948	-0,048	-0,048
-631,780	110,550	0,038	-0,033
-630,765	-200,000	0,018	-0,095
-629,751	150,101	0,070	-0,069
-628,736	800,000	-0,015	-0,044
-627,722	-200,000	0,007	-0,026
-626,707	128,180	0,131	-0,120
-625,692	76,240	0,086	0,066
-624,678	-143,761	-0,126	-0,008
-623,663	-200,000	0,035	-0,144
-622,649	-34,482	-0,047	0,019
-621,634	-172,090	-0,113	0,003
-620,619	-50,732	-0,076	-0,026
-619,605	46,564	0,062	-0,041
-618,590	-200,000	0,019	0,116
-617,576	161,270	0,093	0,094
-616,561	-139,565	-0,046	0,004
-615,546	800,000	0,071	-0,155
-614,532	191,008	-0,071	0,077
-613,517	336,925	-0,033	-0,047
-612,503	-200,000	-0,017	-0,061
-611,488	790,051	0,020	0,039
-610,474	800,000	0,067	0,165
-609,459	229,514	-0,081	0,096
-608,444	-200,000	0,000	-0,111
-607,430	-200,000	-0,001	-0,096
-606,415	-200,000	-0,008	-0,118
-605,401	21,492	-0,099	0,058
-604,386	75,829	-0,061	0,046
-603,371	194,363	0,018	0,020
-602,357	-28,226	0,084	-0,035
-601,342	637,831	-0,038	0,070
-600,328	95,069	-0,097	-0,080
-599,313	-44,186	0,083	-0,030
-598,298	111,721	0,102	-0,089
-597,284	368,647	0,023	0,034
-596,269	468,213	0,071	-0,116
-595,255	-200,000	0,004	-0,032
-594,240	299,770	-0,018	0,023
-593,225	-68,297	-0,141	-0,039
-592,211	-11,049	-0,079	-0,037
-591,196	-200,000	-0,009	-0,053
-590,182	-45,959	0,047	-0,017
-589,167	24,937	-0,076	-0,045
-588,152	157,885	-0,075	-0,075
-587,138	32,599	0,054	0,034
-586,123	-75,022	-0,118	-0,030
-585,109	-84,524	-0,074	-0,017
-584,094	-55,449	-0,117	0,038
-583,079	-106,193	-0,138	0,022
-582,065	226,497	-0,029	-0,034
-581,050	-200,000	-0,010	0,130
-580,036	-116,695	0,041	0,005
-579,021	-128,399	0,092	0,009
-578,006	-200,000	-0,003	0,047
-576,992	800,000	0,040	-0,107
-575,977	-200,000	0,010	0,124
-574,963	57,391	0,099	0,070
-573,948	39,057	-0,079	-0,051
-572,934	-200,000	0,018	-0,095
-571,919	-84,664	-0,130	0,029
-570,904	-200,000	0,002	-0,034
-569,890	800,000	-0,057	-0,135
-568,875	645,346	0,034	-0,064
-567,861	-113,679	0,056	0,008
-566,846	58,895	-0,079	-0,056
-565,831	-46,657	-0,102	0,036
-564,817	283,624	0,056	-0,072
-563,802	116,949	-0,069	-0,061
-562,788	-99,815	0,084	-0,015
-561,773	-101,951	-0,048	-0,008
-560,758	-135,879	0,052	-0,004
-559,744	286,847	-0,059	0,077
-558,729	800,000	0,047	0,132
-557,715	-45,869	0,053	-0,019
-556,700	800,000	-0,050	-0,159
-555,685	-200,000	-0,006	-0,033
-554,671	24,785	0,073	-0,044
-553,656	-68,815	-0,076	-0,021
-552,642	16,962	0,121	0,069
-551,627	44,788	-0,047	-0,031
-550,612	-35,508	-0,027	0,010
-549,598	273,835	-0,024	0,030
-548,583	4,850	-0,083	-0,044
-547,569	55,903	0,151	0,105
-546,554	-200,000	0,039	0,228
-545,539	687,416	0,044	0,083
-544,525	-200,000	0,005	0,037
-543,510	70,624	-0,057	0,043
-542,496	-33,586	-0,044	-0,017
-541,481	197,537	-0,093	-0,103
-540,466	-23,363	-0,068	-0,029
-539,452	117,313	0,063	0,055
-538,437	96,332	0,052	-0,043
-537,423	159,418	-0,101	0,101
-536,408	263,986	-0,051	0,064
-535,393	-50,176	0,126	0,043
-534,379	-41,194	-0,061	0,022
-533,364	169,124	0,036	-0,037
-532,350	800,000	0,063	-0,127
-531,335	-74,446	0,155	-0,040
-530,321	193,994	-0,045	-0,050
-529,306	-130,579	-0,127	0,012
-528,291	173,482	-0,024	-0,025
-527,277	144,448	-0,106	0,102
-526,262	87,779	0,162	0,129
-525,248	-42,204	0,036	0,013
-524,233	-200,000	0,004	-0,091
-523,218	-200,000	0,022	-0,143
-522,204	-200,000	0,001	0,105
-521,189	-200,000	-0,017	0,075
-520,175	-200,000	-0,002	-0,077
-519,160	-90,595	0,049	0,010
-518,145	209,371	0,024	-0,027
-517,131	136,334	0,055	0,052
-516,116	96,974	-0,045	-0,037
-515,102	-13,586	-0,087	0,040
-514,087	445,854	0,040	0,063
-513,072	133,540	0,087	0,081
-512,058	297,406	-0,068	-0,091
-511,043	-200,000	-0,023	-0,114
-510,029	-148,133	0,145	0,009
-509,014	99,014	-0,049	-0,040
-507,999	13,191	-0,167	0,093
-506,985	124,217	0,024	0,022
-505,970	-45,536	-0,138	0,049
-504,956	61,693	-0,065	0,046
-503,941	-200,000	0,003	0,029
-502,926	-200,000	0,013	0,058
-501,912	106,217	-0,089	0,076
-500,897	42,187	-0,104	-0,068
-499,883	117,325	0,050	-0,045
-498,868	648,376	0,045	0,084
-497,853	-95,763	-0,149	0,028
-496,839	-179,363	0,163	-0,003
-495,824	412,467	0,058	-0,089
-494,810	-200,000	0,000	0,078
-493,795	-200,000	0,013	0,047
-492,781	-60,518	-0,064	0,019
-491,766	-200,000	0,002	0,028
-490,751	467,744	0,050	-0,081
-489,737	-158,266	-0,037	-0,002
-488,722	85,357	-0,109	-0,086
-487,708	204,755	0,096	0,107
-486,693	-91,182	0,136	0,028
-485,678	9,657	-0,145	0,079
-484,664	-85,075	-0,163	0,036
-483,649	327,797	-0,058	-0,080
-482,635	97,598	0,065	0,054
-481,620	-200,000	0,018	0,169
-480,605	428,506	-0,037	0,058
-479,591	-25,730	-0,099	-0,042
-478,576	800,000	-0,018	-0,042
-477,562	404,807	-0,082	-0,125
-476,547	-200,000	-0,002	-0,091
-475,532	-200,000	-0,015	-0,091
-474,518	800,000	0,043	0,088
-473,503	442,969	0,088	0,140
-472,489	-27,678	0,030	0,012
-471,474	195,028	-0,097	-0,106
-470,459	-23,447	0,125	0,054
-469,445	337,649	-0,048	0,067
-468,430	74,911	0,071	-0,054
-467,416	-1,878	0,060	-0,030
-466,401	800,000	-0,007	0,017
-465,386	-200,000	0,017	0,071
-464,372	29,844	0,047	-0,029
-463,357	794,011	0,048	-0,096
-462,343	-200,000	-0,007	0,034
-461,328	347,620	-0,065	-0,093
-460,313	-99,347	-0,107	0,019
-459,299	66,579	0,073	-0,053
-458,284	-99,402	-0,145	-0,026
-457,270	-90,036	0,081	0,017
-456,255	-112,312	-0,056	0,008
-455,241	539,777	0,038	-0,066
-454,226	800,000	0,035	0,080
-453,211	-16,728	0,092	-0,042
-452,197	153,283	0,015	-0,015
-451,182	-200,000	-0,020	-0,088
-450,168	207,166	-0,155	0,174
-449,153	800,000	0,043	-0,133
-448,138	-200,000	0,016	-0,103
-447,124	-121,856	-0,097	-0,011
-446,109	-89,110	-0,085	-0,018
-445,095	-10,088	0,053	0,025
-444,080	148,375	0,087	0,084
-443,065	-200,000	-0,024	-0,122
-442,051	-102,126	0,085	0,015
-441,036	252,255	-0,116	-0,142
-440,022	150,174	-0,033	0,032
-439,007	275,445	-0,024	0,030
-437,992	-62,997	0,238	-0,070
-436,978	501,940	0,096	0,159
-435,963	-95,564	-0,044	0,008
-434,949	-138,231	0,083	-0,006
-433,934	422,896	-0,055	-0,085
-432,919	199,381	-0,122	-0,134
-431,905	-200,000	0,041	-0,211
-430,890	-200,000	0,050	0,163
-429,876	-97,604	0,063	0,012
-428,861	704,659	0,048	0,092
-427,846	-70,077	0,039	-0,011
-426,832	-22,371	-0,126	0,054
-425,817	-200,000	-0,007	-0,128
-424,803	168,458	0,104	-0,107
-423,788	101,728	-0,057	0,048
-422,773	497,290	0,067	0,111
-421,759	-200,000	0,005	0,097
-420,744	-200,000	0,020	0,098
-419,730	800,000	-0,005	0,014
-418,715	-200,000	-0,013	0,050
-417,701	800,000	-0,013	-0,028
-416,686	-63,848	0,054	0,016
-415,671	-89,488	0,038	-0,008
-414,657	-200,000	-0,011	-0,076
-413,642	800,000	-0,037	0,081
-412,628	-34,690	0,097	0,038
-411,613	-71,496	0,009	-0,003
-410,598	-65,035	-0,139	-0,040
-409,584	-24,057	0,099	-0,042
-408,569	116,006	0,088	-0,077
-407,555	206,685	0,033	0,037
-406,540	-200,000	0,000	0,038
-405,525	-134,370	-0,068	-0,006
-404,511	800,000	-0,102	-0,219
-403,496	134,426	-0,082	-0,076
-402,482	426,874	-0,080	0,125
-401,467	-122,152	0,076	0,009
-400,452	-200,000	-0,015	0,068
-399,438	800,000	-0,042	0,128
-398,423	-200,000	-0,019	-0,062
-397,409	18,316	-0,055	-0,031
-396,394	187,618	-0,076	-0,081
-395,379	-200,000	0,029	0,107
-394,365	50,951	-0,154	0,105
-393,350	667,886	0,087	-0,163
-392,336	435,924	0,030	-0,048
-391,321	-200,000	-0,003	0,024
-390,306	115,668	-0,051	-0,044
-389,292	-69,043	-0,086	-0,024
-388,277	-200,000	-0,008	0,152
-387,263	-200,000	0,040	0,207
-386,248	3,542	0,044	0,023
-385,233	314,464	-0,070	0,095
-384,219	772,772	-0,055	-0,109
-383,204	-11,515	-0,156	-0,073
-382,190	-141,090	0,076	-0,006
-381,175	-54,812	-0,013	0,004
-380,160	-200,000	-0,001	0,128
-379,146	322,291	0,093	0,127
-378,131	34,011	0,048	-0,030
-377,117	301,988	0,078	0,103
-376,102	-200,000	0,031	-0,186
-375,088	199,316	-0,035	0,039
-374,073	800,000	0,011	0,027
-373,058	260,001	-0,045	0,055
-372,044	12,777	0,031	0,017
-371,029	177,030	0,068	0,071
-370,015	-200,000	-0,021	0,101
-369,000	315,812	-0,114	-0,154
-367,985	800,000	0,017	-0,046
-366,971	44,158	0,033	0,022
-365,956	-146,969	0,105	0,006
-364,942	361,640	0,091	0,131
-363,927	160,264	0,101	0,101
-362,912	-23,408	0,145	0,062
-361,898	-9,158	-0,062	0,029
-360,883	16,033	-0,044	0,025
-359,869	-89,317	-0,216	-0,045
-358,854	-95,055	0,123	-0,024
-357,839	221,235	0,014	-0,017
-356,825	524,767	0,081	0,136
-355,810	69,975	0,065	0,048
-354,796	800,000	0,041	-0,096
-353,781	49,714	0,159	-0,107
-352,766	98,875	-0,014	-0,011
-351,752	35,784	-0,127	-0,080
-350,737	-48,980	0,143	-0,049
-349,723	123,726	0,073	0,066
-348,708	-5,482	-0,076	0,037
-347,693	330,473	-0,031	0,043
-346,679	-145,955	-0,104	-0,007
-345,664	-2,468	-0,035	0,018
-344,650	800,000	-0,010	0,024
-343,635	273,138	0,043	0,055
-342,620	-200,000	0,017	0,109
-341,606	-148,280	-0,140	0,008
-340,591	-50,683	-0,110	-0,037
-339,577	-41,075	-0,024	-0,009
-338,562	-200,000	0,006	-0,071
-337,548	-200,000	0,003	-0,040
-336,533	389,911	0,090	0,134
-335,518	-200,000	0,004	0,061
-334,504	800,000	0,029	0,088
-333,489	-200,000	-0,018	0,110
-332,475	-200,000	-0,015	-0,053
-331,460	800,000	-0,025	-0,075
-330,445	722,662	0,017	0,032
-329,431	325,800	0,013	0,017
-328,416	-146,088	0,050	0,003
-327,402	110,455	-0,087	0,075
-326,387	-200,000	0,041	0,159
-325,372	-200,000	0,006	-0,027
-324,358	-75,709	0,101	-0,025
-323,343	-71,346	0,157	0,042
-322,329	692,740	-0,085	0,160
-321,314	764,993	-0,086	0,169
-320,299	489,386	0,031	0,050
-319,285	254,390	0,068	-0,084
-318,270	-200,000	-0,012	-0,270
-317,256	145,056	0,066	-0,063
-316,241	-200,000	-0,038	-0,208
-315,226	-117,948	-0,091	0,012
-314,212	14,326	0,129	0,072
-313,197	24,035	-0,095	0,056
-312,183	11,336	-0,124	0,068
-311,168	-148,544	-0,062	0,004
-310,153	119,136	0,058	-0,051
-309,139	96,908	0,087	-0,071
-308,124	-200,000	-0,020	-0,139
-307,110	-5,635	0,124	-0,061
-306,095	103,197	0,019	0,016
-305,080	-71,965	0,068	0,018
-304,066	-200,000	-0,003	0,055
-303,051	21,821	-0,075	0,044
-302,037	-200,000	-0,006	-0,063
-301,022	-88,908	0,069	-0,014
-300,008	-200,000	-0,002	0,046
-298,993	-200,000	0,017	0,166
-297,978	800,000	0,018	-0,053
-296,964	199,898	-0,059	-0,064
-295,949	-21,495	-0,196	-0,085
-294,935	-110,895	-0,083	-0,012
-293,920	-75,388	-0,064	-0,016
-292,905	62,432	0,132	0,094
-291,891	-40,452	0,114	0,042
-290,876	69,059	-0,116	-0,085
-289,862	455,651	0,030	0,048
-288,847	307,545	0,016	0,022
-287,832	58,540	0,052	0,036
-286,818	-56,948	-0,118	0,037
-285,803	227,062	-0,002	0,003
-284,789	-200,000	-0,015	0,093
-283,774	-200,000	0,020	0,146
-282,759	-200,000	-0,009	0,140
-281,745	435,053	-0,037	-0,057
-280,730	37,610	0,034	-0,021
-279,716	-62,428	-0,003	0,001
-278,701	-105,719	0,051	0,008
-277,686	384,941	0,090	-0,133
-276,672	-45,989	0,037	0,013
-275,657	-141,924	0,054	-0,004
-274,643	-59,379	-0,137	0,042
-273,628	-200,000	-0,052	-0,191
-272,613	-26,641	0,040	0,017
-271,599	-108,554	0,238	-0,036
-270,584	473,162	0,060	-0,097
-269,570	232,171	0,063	-0,074
-268,555	152,008	0,028	0,027
-267,540	-103,489	-0,223	-0,037
-266,526	800,000	-0,013	0,034
-265,511	5,719	0,073	0,038
-264,497	263,230	0,012	-0,015
-263,482	115,674	0,091	-0,080
-262,467	32,351	0,107	-0,066
-261,453	181,945	-0,074	-0,078
-260,438	97,121	-0,034	0,028
-259,424	-88,534	-0,033	-0,007
-258,409	628,301	-0,033	-0,061
-257,395	-30,812	0,135	-0,054
-256,380	-200,000	-0,003	-0,103
-255,365	-200,000	0,002	-0,037
-254,351	-200,000	-0,040	0,138
-253,336	-84,989	0,115	0,026
-252,322	-200,000	-0,002	0,043
-251,307	672,835	-0,025	0,046
-250,292	75,722	-0,049	0,036
-249,278	-56,033	0,097	-0,031
-248,263	191,080	0,043	-0,046
-247,249	-43,749	0,078	0,028
-246,234	-200,000	-0,013	0,069
-245,219	308,995	-0,046	-0,061
-244,205	75,756	0,048	0,036
-243,190	-80,433	-0,044	-0,010
-242,176	361,515	0,003	0,004
-241,161	-200,000	-0,007	0,066
-240,146	-176,049	0,052	0,001
-239,132	-200,000	-0,002	0,062
-238,117	161,502	0,039	0,039
-237,103	-123,652	-0,158	-0,018
-236,088	243,814	0,071	0,085
-235,073	-200,000	0,002	0,021
-234,059	800,000	-0,009	0,026
-233,044	52,917	0,031	0,021
-232,030	19,764	-0,030	-0,017
-231,015	-200,000	-0,010	-0,211
-230,000	246,663	-0,055	0,066
-228,986	59,875	-0,107	0,075
-227,971	-106,725	0,065	-0,010
-226,957	286,030	0,079	0,102
-225,942	-80,981	0,125	0,029
-224,927	-135,713	0,098	0,008
-223,913	-200,000	0,015	-0,083
-222,898	-200,000	-0,038	-0,205
-221,884	-200,000	-0,018	-0,104
-220,869	335,799	-0,029	-0,040
-219,855	-104,349	-0,079	0,013
-218,840	373,737	0,085	-0,123
-217,825	97,486	-0,086	-0,071
-216,811	800,000	0,059	0,120
-215,796	-115,122	0,038	-0,005
-214,782	707,938	-0,049	-0,093
-213,767	-200,000	0,035	0,129
-212,752	301,364	0,105	0,139
-211,738	-200,000	0,008	-0,082
-210,723	65,115	-0,085	-0,061
-209,709	-200,000	0,056	-0,211
-208,694	89,544	0,085	-0,068
-207,679	-118,030	0,133	0,017
-206,665	217,150	0,017	-0,019
-205,650	-200,000	-0,030	0,000
-204,636	-200,000	-0,001	-0,085
-203,621	-200,000	0,038	0,221
-202,606	-99,739	-0,103	0,018
-201,592	-69,783	-0,107	0,029
-200,577	800,000	0,041	-0,127
-199,563	651,884	0,039	-0,072
-198,548	-200,000	0,023	0,085
-197,533	800,000	-0,018	0,036
-196,519	800,000	0,036	0,075
-195,504	293,714	-0,050	-0,065
-194,490	-60,605	-0,109	-0,033
-193,475	225,195	0,071	0,081
-192,460	124,873	0,069	-0,061
-191,446	-72,162	-0,046	-0,012
-190,431	-42,378	0,076	0,028
-189,417	-200,000	-0,024	-0,097
-188,402	-200,000	-0,001	-0,013
-187,387	-108,964	0,035	0,005
-186,373	-200,000	0,024	-0,111
-185,358	-200,000	-0,003	-0,021
-184,344	-132,445	0,033	-0,003
-183,329	-58,860	0,140	-0,043
-182,315	74,858	-0,064	0,048
-181,300	-78,194	0,101	0,025
-180,285	-28,118	-0,108	0,044
-179,271	-200,000	-0,008	-0,079
-178,256	-200,000	0,014	0,086
-177,242	-95,497	-0,058	-0,011
-176,227	302,565	-0,044	0,058
-175,212	566,555	-0,062	-0,107
-174,198	317,886	0,081	-0,110
-173,183	-55,574	0,018	-0,006
-172,169	250,733	0,055	-0,067
-171,154	235,920	-0,045	-0,052
-170,139	364,580	0,079	0,113
-169,125	-200,000	0,020	0,141
-168,110	136,012	-0,029	-0,027
-167,096	274,654	-0,072	0,091
-166,081	42,473	-0,043	-0,027
-165,066	726,909	0,075	-0,142
-164,052	643,341	0,034	0,061
-163,037	515,080	-0,052	0,086
-162,023	800,000	0,066	0,188
-161,008	-136,740	-0,066	-0,005
-159,993	-169,786	-0,066	-0,002
-158,979	-200,000	0,017	0,064
-157,964	-47,042	-0,113	-0,039
-156,950	93,721	0,111	-0,089
-155,935	-37,619	-0,051	-0,019
-154,920	-9,429	-0,060	-0,028
-153,906	-200,000	0,026	0,158
-152,891	2,581	-0,075	0,038
-151,877	-200,000	-0,003	-0,056
-150,862	203,743	-0,097	-0,106
-149,847	-11,048	-0,106	-0,050
-148,833	-40,447	-0,072	-0,026
-147,818	72,133	-0,049	0,036
-146,804	177,636	0,210	0,218
-145,789	-200,000	0,002	0,030
-144,775	11,733	-0,091	0,049
-143,760	-200,000	0,003	0,017
-142,745	800,000	0,083	-0,173
-141,731	15,445	-0,049	-0,027
-140,716	-66,985	0,019	-0,005
-139,702	-65,712	-0,130	0,037
-138,687	-69,542	0,126	0,034
-137,672	-37,592	-0,068	-0,025
-136,658	-200,000	-0,008	-0,065
-135,643	168,746	-0,141	-0,143
-134,629	153,141	0,082	0,080
-133,614	-97,781	0,055	0,010
-132,599	259,261	-0,078	-0,096
-131,585	-157,973	0,173	0,007
-130,570	-1,401	0,051	0,026
-129,556	-54,725	-0,094	0,030
-128,541	52,456	0,056	-0,038
-127,526	800,000	-0,054	0,127
-126,512	-123,874	0,120	-0,013
-125,497	-135,803	0,139	-0,011
-124,483	320,253	-0,028	0,038
-123,468	-45,039	0,148	0,052
-122,453	-82,353	-0,113	-0,026
-121,439	-200,000	0,008	0,039
-120,424	-200,000	-0,031	0,000
-119,410	-89,191	0,048	0,010
-118,395	-60,266	0,062	-0,019
-117,380	160,093	-0,105	0,103
-116,366	169,903	-0,022	-0,022
-115,351	518,107	0,006	0,010
-114,337	132,310	-0,098	0,090
-113,322	19,235	-0,108	0,061
-112,307	-87,574	0,130	0,028
-111,293	109,139	-0,113	0,096
-110,278	-200,000	-0,005	0,045
-109,264	-85,781	-0,058	-0,013
-108,249	800,000	0,017	-0,042
-107,234	412,753	-0,056	-0,084
-106,220	800,000	-0,088	-0,179
-105,205	-19,172	0,120	-0,053
-104,191	299,451	-0,083	-0,108
-103,176	-200,000	-0,031	0,120
-102,162	-68,257	-0,037	0,010
-101,147	28,467	0,035	0,021
-100,132	-200,000	-0,002	-0,041
-99,118	-43,929	-0,088	0,031
-98,103	-28,798	-0,134	0,054
-97,089	-143,428	0,127	0,008
-96,074	202,717	0,071	-0,078
-95,059	500,362	-0,052	0,085
-94,045	-200,000	0,002	-0,008
-93,030	108,189	-0,024	-0,021
-92,016	16,246	-0,142	0,079
-91,001	196,935	0,049	-0,053
-89,986	675,488	-0,011	-0,021
-88,972	28,869	0,046	0,028
-87,957	-172,382	-0,089	-0,002
-86,943	136,110	-0,089	-0,082
-85,928	108,622	0,025	0,021
-84,913	-200,000	-0,030	-0,113
-83,899	-173,774	-0,068	0,001
-82,884	-200,000	0,018	0,071
-81,870	-200,000	-0,005	0,066
-80,855	226,212	0,068	0,078
-79,840	-77,255	-0,086	0,021
-78,826	-200,000	0,020	0,140
-77,811	79,423	-0,086	0,065
-76,797	800,000	-0,018	-0,042
-75,782	65,181	0,149	-0,106
-74,767	800,000	0,012	-0,034
-73,753	-163,665	0,148	0,005
-72,738	11,105	0,021	0,012
-71,724	-200,000	-0,008	0,046
-70,709	180,368	0,062	-0,065
-69,694	-200,000	-0,012	-0,166
-68,680	-22,479	-0,071	-0,030
-67,665	800,000	-0,060	0,128
-66,651	259,289	-0,087	0,107
-65,636	800,000	0,037	0,114
-64,622	-200,000	-0,052	0,171
-63,607	800,000	-0,092	-0,192
-62,592	154,235	0,110	-0,107
-61,578	6,488	0,063	0,033
-60,563	64,294	0,139	0,099
-59,549	-48,969	-0,062	-0,021
-58,534	-46,742	-1,640	-0,565
-57,519	332,757	-1,530	-2,097
-56,505	-200,000	-0,487	-4,346
-55,490	151,002	0,938	0,903
-54,476	800,000	4,998	11,696
-53,461	-200,000	18,674	302,147
-52,446	800,000	733,395	2265,995
-51,432	558,557	1647,851	2822,967
-50,417	78,183	1665,936	1256,104
-49,403	21,904	1539,023	884,901
-48,388	15,879	1461,946	811,422
-47,373	17,906	1452,144	815,703
-46,359	16,904	1442,387	805,404
-45,344	14,159	1437,439	789,518
-44,330	14,004	1435,774	787,835
-43,315	14,041	1434,020	787,019
-42,300	14,029	1432,369	786,024
-41,286	14,066	1431,211	785,530
-40,271	14,062	1429,788	784,702
-39,257	13,999	1428,632	783,735
-38,242	14,119	1427,361	783,577
-37,227	14,082	1426,162	782,711
-36,213	14,097	1424,859	782,037
-35,198	14,109	1423,594	781,371
-34,184	14,114	1422,757	780,902
-33,169	14,060	1421,414	779,879
-32,154	14,088	1420,283	779,359
-31,140	14,112	1418,989	778,731
-30,125	14,117	1417,827	778,088
-29,111	14,115	1416,784	777,473
-28,096	14,043	1415,784	776,555
-27,082	14,006	1414,782	775,800
-26,067	13,997	1413,588	775,074
-25,052	14,024	1412,481	774,561
-24,038	13,964	1411,563	773,748
-23,023	13,997	1410,408	773,236
-22,009	13,988	1409,666	772,760
-20,994	13,992	1408,675	772,203
-19,979	13,972	1407,798	771,598
-18,965	13,919	1406,935	770,846
-17,950	13,963	1405,809	770,405
-16,936	14,012	1404,846	770,073
-15,921	13,952	1403,834	769,210
-14,906	13,884	1403,085	768,452
-13,892	13,961	1401,985	768,178
-12,877	13,923	1401,181	767,529
-11,863	13,985	1400,159	767,229
-10,848	13,914	1399,420	766,462
-9,833	13,873	1398,578	765,783
-8,819	13,845	1397,628	765,100
-7,804	13,839	1396,704	764,539
-6,790	13,824	1395,584	763,825
-5,775	13,838	1394,520	763,274
-4,760	13,822	1393,514	762,619
-3,746	13,783	1392,725	761,979
-2,731	13,829	1391,743	761,626
-1,717	13,834	1391,093	761,262
-0,702	13,773	1389,411	760,029
0,313	17,761	1307,859	733,794
1,327	34,320	703,985	433,184
2,342	52,573	123,763	83,402
3,356	3,632	16,651	8,556
4,371	11,809	3,216	1,740
5,386	47,517	0,549	0,361
6,400	800,000	-0,062	0,157
7,415	-50,751	-0,221	-0,073
8,429	164,366	-0,242	-0,241
9,444	156,118	-0,176	-0,172
10,459	155,920	-0,296	-0,288
11,473	26,179	-0,311	-0,183
12,488	1,903	-0,259	-0,132
13,502	-103,388	-0,303	-0,050
14,517	247,349	-0,238	-0,284
15,531	230,748	-0,232	-0,268
16,546	-25,301	-0,318	-0,132
17,561	165,252	-0,379	-0,379
18,575	102,966	-0,147	-0,122
19,590	64,931	-0,302	-0,215
20,604	-99,538	-0,172	-0,030
21,619	-3,612	-0,356	-0,174
22,634	92,858	-0,462	-0,368
23,648	68,945	-0,326	-0,236
24,663	-22,656	-0,392	-0,166
25,677	49,585	-0,438	-0,291
26,692	118,629	-0,317	-0,276
27,707	102,900	-0,422	-0,348
28,721	67,745	-0,365	-0,262
29,736	57,046	-0,380	-0,261
30,750	81,633	-0,492	-0,375
31,765	83,508	-0,308	-0,237
32,780	186,179	-0,326	-0,342
33,794	37,934	-0,433	-0,271
34,809	5,310	-0,441	-0,228
35,823	31,742	-0,389	-0,235
36,838	-20,110	-0,365	-0,158
37,853	23,067	-0,434	-0,250
38,867	184,307	-0,369	-0,385
39,882	-57,100	-0,411	-0,127
40,896	30,325	-0,292	-0,175
41,911	-16,818	-0,456	-0,202
42,926	121,050	-0,375	-0,329
43,940	-52,190	-0,428	-0,139
44,955	135,533	-0,372	-0,341
45,969	139,852	-0,356	-0,330
46,984	135,732	-0,272	-0,250
47,999	41,376	-0,363	-0,231
49,013	478,977	-0,223	-0,357
50,028	96,928	-0,286	-0,231
51,042	84,815	-0,382	-0,294
52,057	18,096	-0,403	-0,226
53,071	108,326	-0,418	-0,351
54,086	90,286	-0,368	-0,289
55,101	60,104	-0,357	-0,248
56,115	-14,404	-0,320	-0,144
57,130	-39,084	-0,358	-0,132
58,144	-8,301	-0,479	-0,226
59,159	88,396	-0,364	-0,284
60,174	117,391	-0,353	-0,306
61,188	138,869	-0,288	-0,266
62,203	33,805	-0,377	-0,230
63,217	33,531	-0,269	-0,164
64,232	79,978	-0,305	-0,230
65,247	29,010	-0,347	-0,206
66,261	39,480	-0,452	-0,284
67,276	165,936	-0,335	-0,334
68,290	45,967	-0,396	-0,257
69,305	193,316	-0,258	-0,274
70,320	172,198	-0,300	-0,303
71,334	80,591	-0,265	-0,200
72,349	725,889	-0,189	-0,355
73,363	42,427	-0,410	-0,261
74,378	-0,608	-0,370	-0,183
75,393	6,847	-0,473	-0,247
76,407	101,329	-0,327	-0,267
77,422	89,329	-0,339	-0,265
78,436	147,602	-0,168	-0,159
79,451	72,341	-0,178	-0,130
80,466	13,182	-0,345	-0,187
81,480	16,611	-0,273	-0,151
82,495	-32,155	-0,214	-0,083
83,509	256,108	-0,156	-0,189
84,524	81,765	-0,352	-0,267
85,539	170,494	-0,198	-0,199
86,553	92,408	-0,300	-0,237
87,568	342,688	-0,228	-0,314
88,582	65,585	-0,286	-0,203
89,597	58,670	-0,340	-0,234
90,611	229,268	-0,220	-0,252
91,626	55,315	-0,331	-0,224
92,641	-45,455	-0,348	-0,120
93,655	71,628	-0,326	-0,238
94,670	-32,289	-0,348	-0,136
95,684	69,889	-0,341	-0,246
96,699	125,668	-0,307	-0,272
97,714	66,311	-0,275	-0,195
98,728	6,580	-0,272	-0,141
99,743	39,973	-0,238	-0,150
100,757	-30,387	-0,364	-0,144
101,772	-36,746	-0,288	-0,108
102,787	34,450	-0,208	-0,127
103,801	159,759	-0,251	-0,245
104,816	94,060	-0,227	-0,180
105,830	43,969	-0,253	-0,162
106,845	167,117	-0,274	-0,272
107,860	33,397	-0,085	-0,052
108,874	366,222	-0,149	-0,211
109,889	164,072	-0,254	-0,251
110,903	-77,853	-0,358	-0,086
111,918	-20,155	-0,211	-0,090
112,933	-20,544	-0,208	-0,089
113,947	43,332	-0,188	-0,120
114,962	-84,492	-0,312	-0,068
115,976	173,649	-0,188	-0,190
116,991	219,490	-0,220	-0,246
118,006	9,939	-0,401	-0,212
119,020	124,346	-0,171	-0,150
120,035	10,643	-0,199	-0,106
121,049	-37,684	-0,268	-0,099
122,064	80,182	-0,240	-0,180
123,079	-161,179	-0,212	-0,008
124,093	-122,573	-0,337	-0,038
125,108	202,240	-0,230	-0,249
126,122	117,253	-0,196	-0,168
127,137	481,861	-0,180	-0,286
128,151	-73,515	-0,230	-0,058
129,166	119,961	-0,145	-0,126
130,181	7,736	-0,285	-0,149
131,195	55,125	-0,361	-0,243
132,210	571,244	-0,206	-0,351
133,224	53,775	-0,334	-0,223
134,239	113,090	-0,235	-0,199
135,254	426,337	-0,157	-0,237
136,268	-28,569	-0,187	-0,075
137,283	356,889	-0,249	-0,347
138,297	166,137	-0,272	-0,269
139,312	32,080	-0,391	-0,235
140,327	149,019	-0,197	-0,186
141,341	64,052	-0,257	-0,180
142,356	207,893	-0,171	-0,186
143,370	-131,931	-0,206	-0,018
144,385	-112,655	-0,390	-0,054
145,400	39,843	-0,336	-0,210
146,414	96,957	-0,398	-0,318
147,429	-9,350	-0,347	-0,161
148,443	639,475	-0,111	-0,198
149,458	-80,568	-0,270	-0,062
150,473	399,186	-0,129	-0,190
151,487	-5,525	-0,266	-0,127
152,502	62,492	-0,212	-0,148
153,516	127,090	-0,296	-0,262
154,531	-94,361	-0,237	-0,045
155,546	109,329	-0,237	-0,198
156,560	800,000	-0,088	-0,246
157,575	96,382	-0,144	0,115
158,589	-200,000	-0,023	-0,097
159,604	69,550	-0,188	-0,135
160,619	236,711	-0,262	-0,303
161,633	61,042	-0,323	-0,223
162,648	118,977	-0,297	-0,256
163,662	-60,149	-0,369	-0,109
164,677	-63,069	-0,224	-0,064
165,692	-20,532	-0,224	-0,095
166,706	84,298	-0,316	-0,240
167,721	206,541	-0,251	-0,273
168,735	213,448	-0,188	-0,207
169,750	78,587	-0,222	-0,165
170,764	-67,277	-0,244	-0,066
171,779	107,679	-0,303	-0,251
172,794	53,833	-0,299	-0,200
173,808	-6,487	-0,273	-0,129
174,823	15,856	-0,246	-0,134
175,837	413,423	-0,167	-0,248
176,852	132,164	-0,191	-0,171
177,867	-129,913	-0,248	-0,023
178,881	-35,682	-0,248	-0,093
179,896	233,462	-0,196	-0,225
180,910	115,742	-0,174	-0,148
181,925	111,963	-0,273	-0,230
182,940	287,848	-0,269	-0,339
183,954	13,603	-0,246	-0,133
184,969	14,964	-0,136	-0,074
185,983	800,000	-0,146	-0,370
186,998	153,992	-0,162	-0,155
188,013	10,100	-0,180	-0,095
189,027	138,388	-0,233	-0,213
190,042	81,314	-0,275	-0,207
191,056	45,699	-0,155	-0,099
192,071	229,037	-0,231	-0,262
193,086	220,945	-0,183	-0,204
194,100	-21,420	-0,206	-0,087
195,115	800,000	-0,101	-0,308
196,129	220,227	-0,192	-0,215
197,144	-87,015	-0,284	-0,060
198,159	318,440	-0,146	-0,192
199,173	139,575	-0,205	-0,188
200,188	-75,835	-0,309	-0,076
201,202	132,183	-0,255	-0,229
202,217	275,296	-0,087	-0,107
203,232	125,178	-0,193	-0,169
204,246	-13,697	-0,302	-0,135
205,261	336,275	-0,156	-0,211
206,275	137,909	-0,218	-0,199
207,290	194,093	-0,196	-0,207
208,304	-54,952	-0,175	-0,054
209,319	800,000	-0,163	-0,376
210,334	60,632	-0,261	-0,179
211,348	62,332	-0,164	-0,113
212,363	248,174	-0,143	-0,168
213,377	170,082	-0,169	-0,168
214,392	88,995	-0,153	-0,118
215,407	38,345	-0,139	-0,086
216,421	169,439	-0,103	-0,102
217,436	-95,666	-0,326	-0,060
218,450	-78,164	-0,192	-0,045
219,465	183,814	-0,202	-0,207
220,480	284,266	-0,229	-0,286
221,494	565,795	-0,114	-0,192
222,509	20,100	-0,251	-0,140
223,523	219,294	-0,153	-0,170
224,538	35,105	-0,113	-0,068
225,553	61,342	-0,252	-0,173
226,567	214,332	-0,146	-0,160
227,582	800,000	-0,060	-0,172
228,596	72,517	-0,250	-0,180
229,611	427,970	-0,177	-0,266
230,626	-58,739	-0,153	-0,046
231,640	185,403	-0,066	-0,068
232,655	800,000	-0,114	-0,294
233,669	73,109	-0,318	-0,230
234,684	192,018	-0,142	-0,149
235,699	228,242	-0,214	-0,242
236,713	138,761	-0,212	-0,193
237,728	61,567	-0,144	-0,099
238,742	110,871	-0,189	-0,157
239,757	-16,583	-0,248	-0,108
240,772	154,483	-0,232	-0,221
241,786	152,502	-0,152	-0,144
242,801	12,809	-0,135	-0,072
243,815	217,017	-0,200	-0,220
244,830	57,912	-0,184	-0,125
245,844	63,991	-0,250	-0,173
246,859	200,905	-0,264	-0,281
247,874	-82,541	-0,246	-0,055
248,888	153,121	-0,211	-0,199
249,903	-35,041	-0,183	-0,069
250,917	124,828	-0,142	-0,124
251,932	-25,042	-0,232	-0,095
252,947	800,000	-0,082	-0,175
253,961	341,968	-0,148	-0,201
254,976	266,328	-0,216	-0,261
255,990	88,636	-0,239	-0,183
257,005	198,024	-0,174	-0,184
258,020	207,526	-0,165	-0,178
259,034	46,016	-0,224	-0,143
260,049	-45,521	-0,260	-0,088
261,063	18,663	-0,336	-0,185
262,078	117,483	-0,205	-0,174
263,093	1,726	-0,094	-0,047
264,107	800,000	-0,096	-0,184
265,122	78,807	-0,099	-0,073
266,136	200,741	-0,142	-0,151
267,151	-41,619	-0,233	-0,082
268,166	229,033	-0,093	-0,104
269,180	-88,114	-0,259	-0,053
270,195	310,088	-0,115	-0,149
271,209	1,173	-0,250	-0,124
272,224	775,533	-0,148	-0,280
273,239	140,073	-0,142	-0,130
274,253	-200,000	-0,003	-0,074
275,268	59,000	-0,261	-0,177
276,282	349,378	-0,167	-0,228
277,297	160,344	-0,156	-0,150
278,312	-200,000	-0,059	-0,249
279,326	-200,000	-0,027	-0,243
280,341	-124,152	-0,089	-0,010
281,355	277,993	-0,099	-0,122
282,370	23,348	-0,128	-0,073
283,384	451,669	-0,095	-0,145
284,399	39,178	-0,183	-0,113
285,414	800,000	-0,110	-0,223
286,428	1,669	-0,257	-0,127
287,443	55,314	-0,111	-0,074
288,457	-106,195	-0,057	-0,009
289,472	325,509	-0,102	-0,135
290,487	396,266	-0,095	-0,136
291,501	144,337	-0,082	-0,075
292,516	157,217	-0,164	-0,157
293,530	-54,132	-0,173	-0,054
294,545	-66,703	-0,118	-0,032
295,560	104,772	-0,227	-0,184
296,574	438,581	-0,087	-0,131
297,589	87,695	-0,139	-0,106
298,603	-41,392	-0,219	-0,077
299,618	352,706	-0,186	-0,254
300,633	-33,788	-0,285	-0,107
301,647	-119,488	-0,142	-0,017
302,662	71,917	-0,111	-0,080
303,676	169,131	-0,103	-0,102
304,691	65,086	-0,144	-0,100
305,706	43,407	-0,175	-0,110
306,720	64,143	-0,084	-0,058
307,735	221,259	-0,100	-0,110
308,749	308,322	-0,079	-0,102
309,764	51,302	-0,175	-0,114
310,779	341,895	-0,107	-0,145
311,793	134,605	-0,180	-0,161
312,808	-44,293	-0,273	-0,093
313,822	-50,574	-0,196	-0,063
314,837	187,096	-0,105	-0,108
315,852	-200,000	0,003	0,033
316,866	305,080	-0,111	-0,142
317,881	800,000	-0,051	-0,126
318,895	-40,824	-0,168	-0,059
319,910	102,747	-0,105	-0,085
320,925	74,016	-0,160	-0,115
321,939	221,016	-0,161	-0,178
322,954	67,165	-0,141	-0,099
323,968	-6,521	-0,135	0,063
324,983	795,861	-0,054	-0,103
325,997	195,572	-0,121	-0,127
327,012	507,435	-0,101	-0,162
328,027	70,698	-0,161	-0,114
329,041	49,964	-0,163	-0,105
330,056	73,078	-0,191	-0,137
331,070	125,057	-0,109	-0,095
332,085	550,574	-0,050	-0,082
333,100	-200,000	-0,014	-0,282
334,114	353,340	-0,074	-0,101
335,129	159,855	-0,243	-0,232
336,143	84,696	-0,134	-0,101
337,158	462,115	-0,120	-0,184
338,173	137,668	-0,199	-0,179
339,187	-200,000	-0,043	-0,172
340,202	80,950	-0,101	-0,074
341,216	135,933	-0,193	-0,173
342,231	-58,958	-0,136	-0,040
343,246	-30,020	-0,117	-0,045
344,260	-124,643	-0,153	-0,016
345,275	282,321	-0,071	-0,087
346,289	64,846	-0,066	-0,045
347,304	-83,077	-0,172	-0,038
348,319	91,855	-0,203	-0,157
349,333	38,470	-0,195	-0,119
350,348	4,624	-0,238	-0,119
351,362	-131,670	-0,126	-0,011
352,377	-77,509	-0,067	-0,016
353,392	800,000	-0,013	0,030
354,406	126,621	-0,162	-0,140
355,421	208,655	1312,351	1408,522
356,435	160,560	1472,796	1409,031
