DTS Sentinel unit serial number:	SN410029Multiplexer serial number:	ORYXHardware model number:	OX2-SRSoftware version number:	ORYX F/W v4,00 Oryx Data Collector v3.7.2.0data status	okinstallation	B3 Nyhavnadifferential loss correction	single-endedforward channel	channel 1reverse channel	N/Adate	2023/12/04time	17:02:30forward acquisition time	300,00reverse acquisition time	0,00gamma	499,1914k internal	0,3200k external	0,3200temperature offset calibration	1,0000default loss term (dB/km)	0,3820temperature slope calibration	1,0000multiplexer offset coefficient	1,0000multiplexer slope coefficient	1,0000fibre end	0,00T internal ref (°C)	15,17T ext. ref 1 (°C)	0,09T ext. ref 2 (°C)	0,07length (m)	temperature (°C)	Stokes	anti-Stokes-744,400	800,000	-0,173	-0,353
-743,385	-200,000	0,031	0,299
-742,371	478,495	-0,171	-0,282
-741,356	-200,000	0,019	0,352
-740,342	-11,142	-0,206	-0,099
-739,327	-200,000	0,037	0,283
-738,312	66,082	-0,248	-0,183
-737,298	-200,000	-0,006	0,289
-736,283	278,279	-0,205	-0,266
-735,269	-200,000	-0,028	0,307
-734,254	483,505	-0,160	-0,265
-733,239	97,286	-0,127	0,106
-732,225	56,495	-0,139	-0,098
-731,210	127,754	0,111	0,102
-730,196	800,000	0,039	0,085
-729,181	83,887	-0,057	-0,045
-728,167	800,000	-0,032	0,065
-727,152	-135,722	0,023	0,002
-726,137	-38,849	-0,114	-0,044
-725,123	94,822	-0,081	0,067
-724,108	-200,000	0,011	-0,073
-723,094	289,337	-0,130	0,171
-722,079	-11,003	0,042	-0,020
-721,064	800,000	-0,017	-0,038
-720,050	-93,978	-0,069	0,014
-719,035	52,485	-0,084	0,058
-718,021	-85,666	-0,096	-0,021
-717,006	83,542	-0,173	-0,137
-715,991	124,464	-0,056	-0,051
-714,977	211,277	0,035	-0,040
-713,962	325,133	0,046	-0,064
-712,948	-24,959	0,190	0,082
-711,933	180,311	-0,090	0,096
-710,918	-200,000	-0,001	0,057
-709,904	-0,803	-0,072	-0,037
-708,889	-27,004	-0,034	0,014
-707,875	-200,000	-0,025	-0,142
-706,860	293,856	0,027	-0,036
-705,845	-200,000	0,017	-0,105
-704,831	-163,724	-0,049	0,002
-703,816	-200,000	-0,007	0,110
-702,802	364,790	-0,015	-0,022
-701,787	800,000	-0,016	0,036
-700,772	-25,485	-0,045	-0,019
-699,758	43,205	-0,029	-0,019
-698,743	274,057	-0,068	-0,088
-697,729	-52,941	0,086	0,029
-696,714	567,999	-0,074	0,130
-695,699	-200,000	0,008	0,147
-694,685	91,865	-0,130	-0,107
-693,670	441,294	-0,005	0,009
-692,656	166,338	-0,013	0,014
-691,641	-15,466	0,073	0,034
-690,627	-56,041	-0,030	-0,009
-689,612	-24,112	0,077	0,033
-688,597	800,000	-0,056	-0,131
-687,583	-92,737	-0,222	-0,045
-686,568	-123,654	-0,028	-0,003
-685,554	-185,333	0,088	-0,001
-684,539	-129,442	-0,102	-0,010
-683,524	440,746	-0,093	0,149
-682,510	13,932	0,040	-0,023
-681,495	532,250	-0,091	0,156
-680,481	800,000	-0,043	-0,092
-679,466	800,000	0,034	-0,109
-678,451	800,000	-0,027	0,073
-677,437	231,152	0,070	-0,084
-676,422	800,000	-0,061	0,181
-675,408	-53,401	-0,149	0,049
-674,393	-83,397	0,022	0,005
-673,378	-200,000	0,005	-0,137
-672,364	95,120	0,066	-0,055
-671,349	-149,101	-0,083	-0,005
-670,335	172,738	-0,110	0,115
-669,320	400,251	-0,048	0,074
-668,305	800,000	0,013	0,032
-667,291	800,000	0,038	-0,090
-666,276	-200,000	-0,004	-0,062
-665,262	45,044	-0,100	-0,067
-664,247	-50,266	-0,036	0,012
-663,232	-194,320	-0,036	-0,000
-662,218	53,176	-0,077	0,053
-661,203	-89,871	0,050	-0,011
-660,189	800,000	0,107	0,237
-659,174	-200,000	0,010	-0,089
-658,159	-53,478	-0,199	-0,066
-657,145	-200,000	-0,011	0,082
-656,130	226,396	-0,049	-0,058
-655,116	237,751	-0,099	0,119
-654,101	350,613	0,062	0,088
-653,086	41,474	0,105	0,069
-652,072	-140,401	-0,072	-0,005
-651,057	-200,000	0,010	-0,058
-650,043	145,512	0,067	-0,065
-649,028	-18,013	-0,143	-0,065
-648,014	414,315	0,057	0,089
-646,999	33,451	-0,091	0,057
-645,984	-200,000	-0,028	-0,126
-644,970	-200,000	-0,014	0,072
-643,955	280,125	0,034	-0,044
-642,941	422,284	-0,114	-0,178
-641,926	29,744	-0,088	0,054
-640,911	-55,388	0,068	-0,022
-639,897	389,113	0,023	0,034
-638,882	-200,000	0,026	0,123
-637,868	-200,000	-0,022	0,134
-636,853	-186,688	-0,056	0,001
-635,838	-200,000	0,035	-0,115
-634,824	51,683	-0,019	-0,013
-633,809	-104,515	-0,059	0,010
-632,795	3,093	0,118	0,062
-631,780	329,502	-0,042	0,058
-630,765	800,000	-0,033	0,089
-629,751	1,121	0,028	-0,014
-628,736	-48,628	-0,127	-0,044
-627,722	800,000	0,045	-0,112
-626,707	-77,793	-0,047	0,012
-625,692	-200,000	0,008	-0,159
-624,678	-200,000	-0,025	-0,092
-623,663	269,760	-0,084	0,106
-622,649	310,607	0,027	0,036
-621,634	-119,947	-0,104	-0,013
-620,619	41,436	0,069	0,045
-619,605	800,000	-0,012	0,028
-618,590	108,970	-0,037	-0,032
-617,576	-35,372	0,049	0,019
-616,561	-56,166	0,061	-0,020
-615,546	-106,313	0,182	0,029
-614,532	-200,000	-0,001	-0,037
-613,517	84,103	0,099	-0,078
-612,503	-57,981	-0,012	-0,004
-611,488	144,595	0,035	-0,034
-610,474	-11,570	-0,069	0,033
-609,459	-200,000	0,002	-0,049
-608,444	-200,000	0,008	-0,044
-607,430	-200,000	-0,044	-0,210
-606,415	-200,000	-0,001	-0,062
-605,401	283,033	0,024	-0,031
-604,386	195,171	0,077	0,084
-603,371	70,926	0,113	-0,085
-602,357	800,000	0,038	-0,088
-601,342	-200,000	0,000	-0,039
-600,328	-129,987	-0,121	-0,012
-599,313	-200,000	0,006	-0,028
-598,298	135,775	0,022	-0,021
-597,284	-113,859	0,124	0,017
-596,269	-63,982	0,055	0,016
-595,255	800,000	0,008	-0,023
-594,240	-200,000	0,020	-0,063
-593,225	269,073	0,030	0,038
-592,211	278,735	-0,054	-0,070
-591,196	-37,543	-0,085	0,033
-590,182	260,156	0,043	0,054
-589,167	26,883	-0,094	0,057
-588,152	347,410	0,056	0,080
-587,138	800,000	-0,058	0,157
-586,123	232,032	-0,104	-0,124
-585,109	-132,199	0,068	-0,006
-584,094	-200,000	-0,001	-0,021
-583,079	-46,741	0,045	0,016
-582,065	485,869	0,051	0,085
-581,050	0,117	-0,096	-0,049
-580,036	-200,000	0,019	-0,117
-579,021	-200,000	0,008	-0,054
-578,006	800,000	0,010	0,022
-576,992	-154,869	-0,101	0,005
-575,977	-200,000	-0,012	-0,177
-574,963	-200,000	0,008	0,040
-573,948	-43,644	0,064	-0,023
-572,934	800,000	0,050	0,156
-571,919	153,892	-0,042	-0,042
-570,904	498,178	-0,019	0,032
-569,890	-200,000	-0,010	0,071
-568,875	800,000	0,057	0,158
-567,861	253,439	-0,067	0,083
-566,846	-200,000	-0,013	-0,071
-565,831	800,000	-0,053	-0,138
-564,817	-200,000	-0,006	-0,053
-563,802	800,000	0,014	-0,032
-562,788	-64,267	0,129	0,038
-561,773	800,000	0,032	-0,074
-560,758	-200,000	0,006	0,085
-559,744	246,082	0,072	-0,088
-558,729	-200,000	-0,004	-0,063
-557,715	-99,190	-0,121	0,022
-556,700	-200,000	-0,006	-0,025
-555,685	-57,397	-0,103	-0,033
-554,671	-47,192	0,124	0,043
-553,656	241,469	-0,089	0,107
-552,642	-200,000	0,001	-0,010
-551,627	110,363	0,049	0,043
-550,612	-200,000	-0,017	0,111
-549,598	-75,139	-0,182	-0,047
-548,583	38,153	0,052	-0,033
-547,569	-200,000	0,008	-0,139
-546,554	-12,073	0,156	0,073
-545,539	64,380	-0,143	0,104
-544,525	131,919	-0,068	0,063
-543,510	178,449	-0,138	0,146
-542,496	356,682	-0,066	-0,096
-541,481	97,452	-0,045	0,038
-540,466	183,918	0,052	0,056
-539,452	266,610	-0,053	0,067
-538,437	-131,614	-0,025	0,002
-537,423	290,099	0,050	-0,065
-536,408	172,544	-0,031	-0,033
-535,393	-63,118	-0,123	-0,036
-534,379	-200,000	-0,020	-0,074
-533,364	-200,000	-0,016	0,074
-532,350	-200,000	0,007	0,172
-531,335	-139,408	0,053	0,004
-530,321	-200,000	-0,021	0,105
-529,306	-101,939	0,165	0,028
-528,291	-83,225	-0,123	0,028
-527,277	-200,000	0,006	-0,051
-526,262	800,000	0,050	-0,159
-525,248	-200,000	-0,013	0,142
-524,233	-120,049	-0,053	0,006
-523,218	-30,053	-0,096	0,039
-522,204	57,348	0,111	0,078
-521,189	-200,000	0,011	0,144
-520,175	-200,000	0,017	-0,143
-519,160	-23,814	-0,077	-0,033
-518,145	-200,000	-0,028	-0,128
-517,131	514,960	-0,008	0,013
-516,116	489,998	-0,003	0,005
-515,102	-200,000	0,009	-0,032
-514,087	60,270	0,067	-0,048
-513,072	20,387	-0,041	0,024
-512,058	-200,000	0,002	0,096
-511,043	-23,737	-0,114	0,049
-510,029	164,505	0,070	-0,072
-509,014	-180,558	0,059	-0,001
-507,999	-200,000	-0,006	0,048
-506,985	-25,371	-0,063	-0,027
-505,970	-200,000	0,009	-0,045
-504,956	-65,995	0,052	-0,015
-503,941	-88,312	0,007	-0,001
-502,926	23,085	0,108	-0,064
-501,912	44,925	-0,074	0,049
-500,897	-49,433	0,150	-0,051
-499,883	-200,000	0,007	0,052
-498,868	87,731	-0,127	0,102
-497,853	762,900	-0,086	0,170
-496,839	-75,791	0,148	-0,038
-495,824	-155,542	-0,104	0,005
-494,810	-84,042	0,060	-0,014
-493,795	-28,544	0,106	0,044
-492,781	-200,000	-0,016	-0,078
-491,766	60,563	-0,181	-0,129
-490,751	-200,000	-0,029	-0,106
-489,737	208,507	0,108	-0,122
-488,722	-31,961	0,104	0,042
-487,708	229,922	0,004	-0,005
-486,693	-200,000	-0,003	-0,055
-485,678	53,797	-0,070	-0,048
-484,664	248,444	0,040	-0,048
-483,649	126,781	-0,055	0,050
-482,635	288,289	0,059	-0,077
-481,620	190,725	0,029	0,031
-480,605	-200,000	0,006	0,114
-479,591	156,663	0,104	0,104
-478,576	-11,457	-0,092	0,044
-477,562	216,895	-0,070	-0,081
-476,547	-16,837	-0,107	-0,049
-475,532	33,144	-0,005	0,003
-474,518	206,890	-0,043	-0,049
-473,503	-200,000	-0,018	0,082
-472,489	-68,952	-0,090	-0,025
-471,474	800,000	-0,049	-0,132
-470,459	403,199	-0,017	-0,025
-469,445	800,000	-0,027	-0,073
-468,430	-200,000	0,008	-0,103
-467,416	-54,720	0,092	-0,030
-466,401	-200,000	0,010	-0,072
-465,386	-200,000	0,003	-0,021
-464,372	-167,016	-0,063	-0,002
-463,357	-14,858	-0,095	0,044
-462,343	-200,000	0,022	-0,121
-461,328	800,000	0,041	-0,094
-460,313	-60,525	0,090	-0,027
-459,299	456,899	-0,037	0,059
-458,284	-200,000	0,059	0,197
-457,270	-200,000	-0,007	0,085
-456,255	-200,000	0,007	-0,083
-455,241	-27,644	-0,036	0,015
-454,226	800,000	-0,035	-0,090
-453,211	224,039	0,083	-0,096
-452,197	800,000	0,024	0,051
-451,182	-200,000	0,002	-0,047
-450,168	-200,000	0,004	-0,197
-449,153	-200,000	-0,008	-0,042
-448,138	-200,000	-0,022	-0,076
-447,124	-44,682	-0,025	-0,009
-446,109	45,611	0,075	0,050
-445,095	-24,792	-0,059	0,025
-444,080	-200,000	-0,009	-0,049
-443,065	478,627	0,039	0,063
-442,051	-125,400	0,104	-0,011
-441,036	800,000	-0,044	-0,132
-440,022	800,000	-0,043	-0,127
-439,007	48,544	0,073	0,049
-437,992	800,000	0,035	0,088
-436,978	-125,129	0,114	0,012
-435,963	559,179	0,102	0,178
-434,949	115,625	-0,098	0,086
-433,934	22,239	-0,038	-0,022
-432,919	-52,118	0,031	0,010
-431,905	-200,000	0,006	-0,092
-430,890	154,187	-0,077	-0,076
-429,876	230,246	0,098	0,116
-428,861	59,488	0,051	-0,036
-427,846	800,000	0,041	0,125
-426,832	1,376	-0,132	-0,068
-425,817	-200,000	0,010	-0,200
-424,803	-200,000	-0,020	0,084
-423,788	-200,000	-0,002	-0,017
-422,773	-107,757	-0,163	-0,025
-421,759	-42,349	0,146	0,053
-420,744	354,558	-0,005	0,007
-419,730	5,689	0,037	-0,019
-418,715	278,633	-0,009	-0,011
-417,701	603,261	0,087	-0,156
-416,686	294,949	-0,013	-0,017
-415,671	-168,251	0,119	-0,003
-414,657	800,000	0,023	-0,054
-413,642	-186,260	-0,063	-0,001
-412,628	-200,000	0,014	-0,088
-411,613	-0,778	-0,071	-0,036
-410,598	-200,000	-0,009	-0,119
-409,584	98,544	-0,028	0,023
-408,569	49,621	-0,054	-0,037
-407,555	-105,043	0,069	0,011
-406,540	-200,000	0,016	-0,053
-405,525	36,854	0,079	0,050
-404,511	53,983	-0,053	-0,036
-403,496	43,278	0,106	-0,070
-402,482	-113,936	0,117	-0,016
-401,467	479,635	-0,072	0,117
-400,452	-113,312	0,061	0,009
-399,438	72,853	-0,127	-0,095
-398,423	38,849	0,085	0,054
-397,409	111,468	-0,058	-0,050
-396,394	-200,000	-0,009	-0,079
-395,379	-124,535	-0,094	0,010
-394,365	49,372	-0,031	0,021
-393,350	-200,000	-0,003	0,207
-392,336	63,392	0,039	-0,028
-391,321	-200,000	-0,007	0,046
-390,306	-200,000	-0,012	-0,180
-389,292	800,000	-0,044	0,110
-388,277	629,231	0,046	0,084
-387,263	578,164	0,016	0,028
-386,248	-20,769	-0,041	0,018
-385,233	53,236	0,042	0,029
-384,219	-200,000	0,021	0,068
-383,204	-112,878	0,103	0,014
-382,190	303,659	0,018	0,024
-381,175	760,913	-0,022	0,044
-380,160	-158,363	0,111	0,005
-379,146	-146,714	-0,039	-0,002
-378,131	-66,784	-0,046	0,013
-377,117	-159,314	0,189	-0,007
-376,102	517,633	-0,140	0,236
-375,088	113,600	0,028	-0,024
-374,073	372,241	0,019	0,028
-373,058	-200,000	-0,012	0,182
-372,044	95,332	0,036	0,029
-371,029	800,000	0,080	0,161
-370,015	-200,000	-0,007	0,039
-369,000	-87,704	-0,169	-0,036
-367,985	321,588	0,050	0,069
-366,971	-100,738	-0,080	-0,014
-365,956	95,179	0,055	-0,045
-364,942	-51,289	0,119	-0,040
-363,927	43,302	-0,079	0,052
-362,912	-1,475	0,083	-0,042
-361,898	30,349	-0,179	0,109
-360,883	712,076	-0,071	0,136
-359,869	-103,444	0,100	-0,017
-358,854	407,706	0,043	0,065
-357,839	800,000	0,026	-0,069
-356,825	-4,059	0,043	-0,021
-355,810	800,000	0,050	-0,108
-354,796	800,000	0,033	0,086
-353,781	145,305	-0,090	-0,086
-352,766	-37,454	0,017	-0,006
-351,752	679,480	-0,077	-0,145
-350,737	-160,315	0,143	0,005
-349,723	-200,000	0,004	0,047
-348,708	165,852	0,060	-0,061
-347,693	-21,624	0,173	-0,075
-346,679	-165,745	-0,203	0,006
-345,664	-42,684	-0,067	-0,024
-344,650	157,954	0,077	0,077
-343,635	196,632	0,124	-0,135
-342,620	-200,000	-0,021	0,084
-341,606	126,253	0,041	0,037
-340,591	144,521	0,080	-0,077
-339,577	-57,561	-0,125	0,039
-338,562	144,770	-0,067	0,064
-337,548	800,000	0,025	0,054
-336,533	800,000	0,027	-0,070
-335,518	-65,030	0,156	0,045
-334,504	-200,000	-0,016	0,070
-333,489	-200,000	-0,004	0,140
-332,475	800,000	-0,054	0,147
-331,460	-200,000	-0,014	-0,075
-330,445	-84,553	0,090	-0,020
-329,431	-15,702	-0,034	0,015
-328,416	800,000	-0,024	0,054
-327,402	205,383	-0,079	0,087
-326,387	35,228	-0,128	0,080
-325,372	-200,000	-0,044	-0,185
-324,358	725,838	-0,064	-0,122
-323,343	33,654	-0,116	-0,072
-322,329	800,000	0,007	0,016
-321,314	800,000	-0,025	0,073
-320,299	-35,535	0,116	-0,045
-319,285	-76,202	-0,070	-0,018
-318,270	800,000	0,012	-0,030
-317,256	-200,000	0,033	-0,162
-316,241	-200,000	-0,007	-0,096
-315,226	-39,498	-0,173	-0,064
-314,212	508,613	-0,076	0,127
-313,197	115,665	0,049	-0,043
-312,183	-200,000	0,019	0,083
-311,168	-200,000	0,002	-0,020
-310,153	-77,001	0,066	-0,016
-309,139	-36,493	0,104	0,040
-308,124	208,143	-0,047	0,052
-307,110	-92,885	0,070	0,014
-306,095	800,000	0,029	0,059
-305,080	72,683	-0,101	-0,075
-304,066	-200,000	-0,011	0,165
-303,051	435,513	0,020	-0,032
-302,037	125,809	0,117	-0,106
-301,022	241,734	-0,036	0,044
-300,008	8,760	0,090	-0,048
-298,993	-9,437	-0,113	0,054
-297,978	800,000	-0,023	-0,064
-296,964	-200,000	0,002	0,041
-295,949	-200,000	-0,002	-0,034
-294,935	159,945	-0,051	-0,051
-293,920	800,000	-0,031	0,066
-292,905	157,924	0,057	0,056
-291,891	-200,000	-0,024	-0,108
-290,876	-200,000	0,018	-0,068
-289,862	69,433	-0,062	-0,045
-288,847	81,435	-0,121	0,093
-287,832	19,568	0,025	-0,014
-286,818	-38,909	0,070	-0,026
-285,803	-25,806	0,050	-0,021
-284,789	-200,000	-0,003	0,009
-283,774	-24,707	0,088	0,037
-282,759	-68,084	-0,100	-0,028
-281,745	-200,000	-0,035	-0,112
-280,730	-77,279	-0,083	0,021
-279,716	-200,000	0,014	-0,065
-278,701	-99,138	0,057	-0,010
-277,686	161,540	0,035	-0,035
-276,672	-37,395	0,105	-0,040
-275,657	-5,210	-0,113	0,056
-274,643	800,000	0,036	-0,083
-273,628	163,226	0,054	0,054
-272,613	228,577	0,119	0,138
-271,599	157,732	-0,102	-0,101
-270,584	35,312	0,055	0,034
-269,570	-200,000	0,020	0,087
-268,555	92,168	-0,108	0,087
-267,540	356,627	0,079	0,113
-266,526	-110,550	-0,036	-0,005
-265,511	-200,000	0,001	-0,117
-264,497	800,000	-0,026	-0,060
-263,482	102,426	0,083	-0,070
-262,467	13,925	-0,019	-0,011
-261,453	-138,098	0,138	0,011
-260,438	187,827	-0,062	-0,066
-259,424	155,551	0,038	0,037
-258,409	33,328	0,075	-0,047
-257,395	800,000	0,034	0,078
-256,380	2,373	0,049	0,025
-255,365	752,849	-0,053	0,102
-254,351	497,203	0,063	0,104
-253,336	-78,198	-0,086	0,021
-252,322	365,209	0,066	-0,095
-251,307	800,000	-0,027	0,078
-250,292	321,968	-0,063	0,086
-249,278	195,254	0,047	-0,051
-248,263	23,825	0,106	0,062
-247,249	-57,378	0,146	-0,046
-246,234	-200,000	0,004	-0,118
-245,219	11,630	0,064	0,035
-244,205	412,240	-0,007	0,011
-243,190	47,034	0,177	0,118
-242,176	1,516	0,099	0,051
-241,161	-82,688	0,064	0,015
-240,146	-200,000	0,007	0,021
-239,132	-200,000	0,001	-0,048
-238,117	-94,629	-0,048	0,009
-237,103	-200,000	-0,002	-0,022
-236,088	186,324	-0,087	0,093
-235,073	-200,000	-0,017	0,060
-234,059	-26,776	0,201	0,083
-233,044	326,110	-0,038	0,052
-232,030	-200,000	-0,003	0,014
-231,015	-200,000	-0,018	-0,071
-230,000	-84,200	-0,087	-0,019
-228,986	-123,810	0,016	-0,002
-227,971	-126,874	0,173	0,018
-226,957	-27,530	0,059	0,024
-225,942	-83,223	0,107	0,024
-224,927	-67,216	-0,063	-0,018
-223,913	322,557	0,061	0,083
-222,898	800,000	0,040	-0,095
-221,884	-146,600	0,131	-0,008
-220,869	-79,465	-0,051	-0,012
-219,855	26,180	0,103	0,061
-218,840	800,000	0,014	-0,039
-217,825	-76,345	0,023	-0,006
-216,811	800,000	0,020	-0,049
-215,796	279,100	0,038	-0,048
-214,782	-52,340	-0,156	-0,051
-213,767	-61,949	-0,092	0,027
-212,752	408,746	-0,068	0,102
-211,738	-200,000	-0,036	0,158
-210,723	-200,000	-0,000	0,025
-209,709	-91,541	-0,123	0,025
-208,694	153,130	-0,005	0,005
-207,679	591,514	-0,030	-0,053
-206,665	-200,000	-0,025	0,084
-205,650	-200,000	-0,001	0,009
-204,636	-91,838	0,091	0,018
-203,621	-200,000	0,004	-0,059
-202,606	73,181	-0,020	0,015
-201,592	-4,007	-0,052	-0,026
-200,577	111,483	-0,049	-0,042
-199,563	-146,080	-0,049	0,003
-198,548	-3,869	0,157	0,077
-197,533	-147,944	0,117	0,007
-196,519	-172,164	0,096	-0,002
-195,504	29,700	0,047	0,028
-194,490	47,286	-0,038	-0,025
-193,475	-121,815	-0,096	0,011
-192,460	594,010	-0,060	-0,106
-191,446	84,740	0,035	0,028
-190,431	389,389	-0,106	0,157
-189,417	-100,788	-0,065	-0,011
-188,402	-200,000	-0,041	-0,140
-187,387	-107,673	-0,112	0,017
-186,373	-200,000	-0,001	-0,181
-185,358	-200,000	0,000	0,014
-184,344	-141,953	0,086	-0,006
-183,329	-19,263	0,069	-0,030
-182,315	608,254	0,052	-0,093
-181,300	-24,880	-0,071	0,030
-180,285	-147,644	-0,110	-0,006
-179,271	97,949	-0,046	0,038
-178,256	-200,000	-0,016	-0,055
-177,242	-127,527	0,099	0,010
-176,227	208,212	0,095	0,106
-175,212	776,748	0,014	0,027
-174,198	715,771	0,013	-0,025
-173,183	350,631	0,067	-0,094
-172,169	-200,000	0,005	-0,142
-171,154	668,411	-0,015	0,027
-170,139	-200,000	0,008	0,147
-169,125	-200,000	-0,002	0,137
-168,110	149,535	0,035	0,034
-167,096	-12,662	0,039	-0,018
-166,081	141,662	-0,135	-0,127
-165,066	97,121	-0,083	-0,068
-164,052	66,981	-0,061	0,044
-163,037	105,285	-0,032	0,027
-162,023	-200,000	0,003	0,069
-161,008	800,000	-0,039	-0,090
-159,993	-200,000	0,001	0,138
-158,979	83,335	0,072	-0,056
-157,964	-71,533	-0,166	-0,044
-156,950	89,160	-0,158	0,125
-155,935	-19,485	-0,143	0,063
-154,920	-200,000	-0,036	0,131
-153,906	-95,727	-0,061	-0,011
-152,891	-131,321	-0,096	-0,009
-151,877	-200,000	-0,007	0,086
-150,862	72,401	0,065	0,048
-149,847	-200,000	-0,022	0,168
-148,833	-61,985	-0,024	-0,007
-147,818	-200,000	0,023	0,104
-146,804	-107,403	-0,113	0,017
-145,789	-98,313	-0,042	0,008
-144,775	237,261	0,080	-0,094
-143,760	-166,133	-0,114	0,003
-142,745	108,897	-0,036	-0,031
-141,731	335,560	-0,066	-0,091
-140,716	-118,313	0,099	-0,012
-139,702	-31,416	-0,080	0,032
-138,687	123,812	0,104	-0,093
-137,672	-200,000	0,004	0,031
-136,658	-14,681	-0,069	-0,031
-135,643	360,967	0,021	-0,030
-134,629	-200,000	0,015	0,055
-133,614	145,709	0,077	0,073
-132,599	383,695	0,035	0,052
-131,585	-126,512	0,169	-0,018
-130,570	-200,000	0,008	0,048
-129,556	419,759	-0,057	0,087
-128,541	800,000	-0,058	-0,158
-127,526	42,099	0,036	0,023
-126,512	95,733	0,115	0,093
-125,497	-200,000	0,008	-0,063
-124,483	-180,822	0,030	-0,000
-123,468	56,034	-0,058	0,040
-122,453	-200,000	-0,015	-0,097
-121,439	-200,000	0,007	-0,066
-120,424	-200,000	-0,014	-0,047
-119,410	-200,000	-0,001	0,016
-118,395	171,868	0,131	0,133
-117,380	800,000	-0,040	-0,124
-116,366	-200,000	-0,020	-0,077
-115,351	-200,000	-0,001	0,144
-114,337	707,854	0,092	0,174
-113,322	800,000	0,022	0,056
-112,307	-200,000	0,001	-0,081
-111,293	800,000	0,039	-0,101
-110,278	756,908	0,013	-0,025
-109,264	-200,000	-0,030	0,098
-108,249	-139,423	-0,030	-0,002
-107,234	353,350	0,037	-0,052
-106,220	-45,474	-0,123	-0,043
-105,205	800,000	-0,014	-0,029
-104,191	-34,541	0,097	-0,037
-103,176	-33,961	0,008	-0,003
-102,162	-200,000	0,025	-0,136
-101,147	800,000	0,041	-0,101
-100,132	-200,000	-0,010	-0,079
-99,118	-177,586	-0,102	-0,002
-98,103	-68,667	0,063	-0,017
-97,089	129,454	-0,058	0,052
-96,074	800,000	0,033	-0,092
-95,059	-200,000	0,001	0,013
-94,045	241,061	-0,072	-0,086
-93,030	39,530	-0,101	-0,064
-92,016	-200,000	-0,041	-0,133
-91,001	-200,000	-0,022	-0,075
-89,986	800,000	0,048	-0,145
-88,972	233,544	0,052	-0,061
-87,957	-200,000	-0,029	-0,113
-86,943	-200,000	0,094	-0,000
-85,928	310,345	0,092	-0,123
-84,913	149,056	0,085	-0,082
-83,899	-80,410	-0,142	-0,033
-82,884	53,711	0,099	0,067
-81,870	-28,856	-0,101	0,041
-80,855	-200,000	-0,002	0,040
-79,840	518,040	-0,030	0,050
-78,826	431,771	-0,086	0,133
-77,811	-200,000	-0,025	-0,084
-76,797	-54,793	-0,099	0,032
-75,782	263,732	0,078	-0,096
-74,767	-73,139	0,080	0,021
-73,753	-200,000	-0,000	0,019
-72,738	800,000	-0,054	0,164
-71,724	-200,000	-0,009	-0,032
-70,709	-200,000	-0,001	-0,010
-69,694	-102,194	-0,080	-0,013
-68,680	-13,518	0,077	-0,035
-67,665	800,000	0,005	-0,013
-66,651	800,000	0,030	-0,063
-65,636	-200,000	-0,030	0,151
-64,622	-200,000	-0,007	-0,051
-63,607	335,095	-0,076	-0,105
-62,592	800,000	0,021	-0,064
-61,578	-200,000	-0,023	0,087
-60,563	-200,000	-0,004	0,106
-59,549	243,180	-0,067	-0,080
-58,534	-33,753	-1,551	-0,603
-57,519	364,361	-1,491	-2,131
-56,505	-200,000	-0,598	-4,546
-55,490	73,052	1,003	0,742
-54,476	800,000	4,706	11,282
-53,461	-200,000	18,216	286,001
-52,446	800,000	727,146	2222,891
-51,432	553,109	1642,570	2806,841
-50,417	79,363	1664,603	1262,900
-49,403	23,044	1538,178	891,477
-48,388	17,045	1461,533	818,017
-47,373	17,846	1451,663	816,318
-46,359	17,333	1441,977	808,388
-45,344	15,273	1437,559	796,049
-44,330	15,221	1435,533	794,646
-43,315	15,194	1433,923	793,593
-42,300	15,235	1432,143	792,774
-41,286	15,267	1431,023	792,272
-40,271	15,262	1429,899	791,596
-39,257	15,219	1428,555	790,617
-38,242	15,302	1427,135	790,192
-37,227	15,299	1426,082	789,563
-36,213	15,270	1424,771	788,670
-35,198	15,233	1423,795	787,922
-34,184	15,315	1422,665	787,656
-33,169	15,206	1421,411	786,414
-32,154	15,308	1420,351	786,277
-31,140	15,298	1419,133	785,526
-30,125	15,326	1417,992	784,995
-29,111	15,309	1416,659	784,145
-28,096	15,278	1415,541	783,349
-27,082	15,219	1414,560	782,498
-26,067	15,155	1413,522	781,594
-25,052	15,191	1412,521	781,177
-24,038	15,136	1411,633	780,399
-23,023	15,189	1410,578	780,032
-22,009	15,176	1409,420	779,298
-20,994	15,150	1408,705	778,749
-19,979	15,126	1407,585	777,987
-18,965	15,130	1406,566	777,415
-17,950	15,134	1405,453	776,784
-16,936	15,143	1404,668	776,365
-15,921	15,059	1403,624	775,362
-14,906	15,071	1402,648	774,850
-13,892	15,127	1401,613	774,507
-12,877	15,119	1400,882	774,038
-11,863	15,050	1400,164	773,286
-10,848	15,109	1399,066	772,925
-9,833	15,063	1398,164	772,180
-8,819	15,013	1397,404	771,499
-7,804	15,005	1396,137	770,731
-6,790	15,007	1395,277	770,237
-5,775	15,038	1394,176	769,741
-4,760	14,984	1393,531	769,103
-3,746	15,011	1392,616	768,694
-2,731	15,016	1391,670	768,164
-1,717	14,996	1390,969	767,653
-0,702	14,983	1389,000	766,480
0,313	18,803	1308,478	739,714
1,327	35,210	707,197	437,834
2,342	54,450	124,739	84,923
3,356	4,750	16,683	8,648
4,371	4,504	3,186	1,649
5,386	-13,812	0,503	0,229
6,400	-200,000	-0,055	0,193
7,415	-70,818	-0,243	-0,064
8,429	121,705	-0,251	-0,222
9,444	72,697	-0,351	-0,259
10,459	55,326	-0,268	-0,183
11,473	-42,925	-0,444	-0,159
12,488	-2,686	-0,346	-0,171
13,502	64,592	-0,237	-0,169
14,517	238,968	-0,276	-0,325
15,531	318,073	-0,263	-0,353
16,546	205,465	-0,311	-0,342
17,561	65,994	-0,433	-0,310
18,575	-46,341	-0,259	-0,090
19,590	79,863	-0,379	-0,287
20,604	249,606	-0,089	-0,107
21,619	45,067	-0,544	-0,353
22,634	18,380	-0,416	-0,234
23,648	121,328	-0,403	-0,355
24,663	84,615	-0,432	-0,333
25,677	-26,530	-0,312	-0,129
26,692	174,682	-0,259	-0,265
27,707	-3,685	-0,430	-0,210
28,721	96,009	-0,317	-0,255
29,736	90,358	-0,363	-0,286
30,750	47,539	-0,368	-0,242
31,765	110,375	-0,298	-0,253
32,780	78,698	-0,422	-0,318
33,794	15,989	-0,370	-0,205
34,809	21,029	-0,417	-0,238
35,823	69,263	-0,425	-0,308
36,838	323,615	-0,329	-0,444
37,853	114,748	-0,341	-0,293
38,867	78,342	-0,392	-0,295
39,882	245,199	-0,276	-0,329
40,896	117,782	-0,306	-0,266
41,911	47,628	-0,389	-0,256
42,926	26,651	-0,308	-0,181
43,940	63,591	-0,362	-0,256
44,955	336,924	-0,326	-0,448
45,969	85,536	-0,311	-0,241
46,984	42,054	-0,360	-0,230
47,999	5,167	-0,305	-0,158
49,013	220,779	-0,223	-0,253
50,028	133,698	-0,268	-0,245
51,042	217,144	-0,323	-0,363
52,057	92,919	-0,300	-0,239
53,071	115,238	-0,333	-0,286
54,086	34,034	-0,278	-0,170
55,101	223,621	-0,316	-0,360
56,115	49,787	-0,416	-0,276
57,130	64,522	-0,414	-0,293
58,144	368,892	-0,305	-0,436
59,159	114,832	-0,344	-0,295
60,174	35,373	-0,366	-0,226
61,188	174,468	-0,324	-0,330
62,203	118,158	-0,228	-0,197
63,217	235,533	-0,210	-0,244
64,232	-52,892	-0,359	-0,116
65,247	20,178	-0,370	-0,209
66,261	13,453	-0,428	-0,233
67,276	64,271	-0,439	-0,311
68,290	64,421	-0,338	-0,240
69,305	800,000	-0,138	-0,275
70,320	115,075	-0,238	-0,204
71,334	-45,058	-0,288	-0,100
72,349	63,954	-0,506	-0,358
73,363	149,578	-0,254	-0,242
74,378	45,544	-0,257	-0,167
75,393	10,254	-0,417	-0,222
76,407	185,816	-0,258	-0,270
77,422	26,331	-0,314	-0,184
78,436	142,846	-0,187	-0,175
79,451	-196,933	-0,392	0,002
80,466	138,241	-0,318	-0,293
81,480	151,256	-0,336	-0,321
82,495	65,678	-0,293	-0,208
83,509	-21,616	-0,339	-0,145
84,524	67,421	-0,324	-0,232
85,539	-66,356	-0,243	0,068
86,553	121,348	-0,268	-0,235
87,568	247,388	-0,223	-0,265
88,582	70,707	-0,288	-0,209
89,597	104,313	-0,326	-0,269
90,611	3,607	-0,326	-0,166
91,626	-26,192	-0,368	-0,151
92,641	72,960	-0,295	-0,217
93,655	539,723	-0,162	-0,271
94,670	110,305	-0,328	-0,277
95,684	103,177	-0,370	-0,304
96,699	160,928	-0,228	-0,223
97,714	-1,127	-0,279	-0,138
98,728	29,460	-0,289	-0,172
99,743	145,266	-0,229	-0,215
100,757	-16,848	-0,305	-0,135
101,772	-6,778	-0,389	-0,185
102,787	205,083	-0,231	-0,252
103,801	111,728	-0,371	-0,314
104,816	134,593	-0,230	-0,209
105,830	183,184	-0,207	-0,215
106,845	242,307	-0,158	-0,186
107,860	306,545	-0,244	-0,319
108,874	348,310	-0,157	-0,217
109,889	114,005	-0,301	-0,257
110,903	369,300	-0,228	-0,324
111,918	98,447	-0,247	-0,200
112,933	13,009	-0,261	-0,141
113,947	-38,896	-0,211	-0,078
114,962	74,479	-0,255	-0,188
115,976	-15,807	-0,395	-0,175
116,991	3,464	-0,320	-0,163
118,006	-59,339	-0,214	-0,064
119,020	-62,289	-0,329	-0,095
120,035	-70,975	-0,237	-0,062
121,049	159,536	-0,119	-0,116
122,064	32,645	-0,270	-0,163
123,079	-58,933	-0,256	-0,077
124,093	-71,405	-0,270	-0,070
125,108	-46,453	-0,255	-0,087
126,122	23,087	-0,244	-0,140
127,137	7,107	-0,295	-0,153
128,151	160,169	-0,185	-0,180
129,166	-0,726	-0,279	-0,138
130,181	-4,520	-0,392	-0,189
131,195	695,815	-0,175	-0,324
132,210	606,845	-0,169	-0,296
133,224	193,999	-0,145	-0,154
134,239	-87,830	-0,308	-0,064
135,254	2,906	-0,240	-0,121
136,268	-93,623	-0,105	-0,020
137,283	-57,740	-0,275	-0,084
138,297	-20,430	-0,301	-0,129
139,312	800,000	-0,125	-0,363
140,327	-81,484	-0,294	-0,067
141,341	-46,843	-0,273	-0,093
142,356	-78,860	-0,317	-0,075
143,370	323,940	-0,103	-0,137
144,385	34,263	-0,326	-0,198
145,400	250,231	-0,249	-0,296
146,414	416,468	-0,282	-0,422
147,429	159,368	-0,213	-0,207
148,443	93,968	-0,217	-0,172
149,458	-32,057	-0,293	-0,114
150,473	207,271	-0,153	-0,167
151,487	-53,163	-0,352	-0,112
152,502	266,085	-0,211	-0,257
153,516	301,738	-0,195	-0,252
154,531	67,554	-0,240	-0,171
155,546	65,897	-0,186	-0,132
156,560	52,397	-0,231	-0,153
157,575	-31,367	-0,205	-0,080
158,589	192,773	-0,129	-0,136
159,604	32,416	-0,244	-0,147
160,619	365,926	-0,226	-0,319
161,633	49,910	-0,315	-0,207
162,648	120,582	-0,166	-0,144
163,662	21,306	-0,186	-0,105
164,677	118,610	-0,118	-0,101
165,692	-18,215	-0,156	-0,068
166,706	41,729	-0,228	-0,144
167,721	71,685	-0,347	-0,251
168,735	129,120	-0,233	-0,207
169,750	15,647	-0,353	-0,193
170,764	-20,459	-0,245	-0,104
171,779	-69,432	-0,246	-0,065
172,794	57,392	-0,261	-0,178
173,808	49,970	-0,327	-0,215
174,823	176,232	-0,240	-0,243
175,837	187,391	-0,189	-0,196
176,852	-23,523	-0,279	-0,116
177,867	-2,719	-0,280	-0,136
178,881	-9,495	-0,122	-0,057
179,896	161,625	-0,170	-0,166
180,910	438,592	-0,202	-0,309
181,925	103,910	-0,193	-0,158
182,940	172,938	-0,294	-0,295
183,954	-33,567	-0,361	-0,138
184,969	283,128	-0,241	-0,302
185,983	39,576	-0,256	-0,159
186,998	-85,690	-0,241	0,052
188,013	-34,238	-0,252	-0,096
189,027	114,065	-0,230	-0,195
190,042	-18,652	-0,217	-0,094
191,056	92,956	-0,151	-0,119
192,071	-97,234	-0,212	-0,038
193,086	79,706	-0,216	-0,161
194,100	-106,335	-0,172	-0,026
195,115	94,351	-0,200	-0,158
196,129	-62,344	-0,245	-0,071
197,144	22,664	-0,322	-0,183
198,159	129,828	-0,269	-0,239
199,173	492,461	-0,142	-0,227
200,188	64,900	-0,168	-0,118
201,202	41,285	-0,170	-0,107
202,217	383,760	-0,136	-0,195
203,232	31,993	-0,223	-0,133
204,246	222,339	-0,172	-0,193
205,261	90,903	-0,238	-0,185
206,275	4,129	-0,246	-0,125
207,290	3,884	-0,288	-0,146
208,304	24,281	-0,246	-0,141
209,319	418,197	-0,110	-0,164
210,334	-16,387	-0,284	-0,125
211,348	2,893	-0,203	-0,102
212,363	-35,863	-0,168	-0,063
213,377	235,260	-0,124	-0,142
214,392	11,132	-0,177	-0,094
215,407	-96,897	-0,270	-0,049
216,421	427,036	-0,134	-0,201
217,436	132,463	-0,179	-0,161
218,450	-109,272	-0,244	-0,036
219,465	590,191	-0,123	-0,211
220,480	-46,817	-0,198	-0,067
221,494	-20,035	-0,061	-0,026
222,509	73,348	-0,098	-0,071
223,523	31,711	-0,186	-0,111
224,538	-22,882	-0,210	-0,087
225,553	18,279	-0,246	-0,136
226,567	800,000	-0,045	-0,123
227,582	286,937	-0,193	-0,242
228,596	-127,827	-0,102	-0,010
229,611	164,972	-0,145	-0,142
230,626	-179,589	-0,278	-0,004
231,640	-170,449	-0,150	-0,004
232,655	120,225	-0,228	-0,196
233,669	412,845	-0,129	-0,191
234,684	145,183	-0,271	-0,251
235,699	761,025	-0,049	-0,092
236,713	-58,450	-0,155	0,046
237,728	44,370	-0,259	-0,164
238,742	-68,247	-0,184	-0,049
239,757	92,354	-0,121	-0,094
240,772	-61,117	-0,265	-0,077
241,786	429,069	-0,123	-0,185
242,801	301,519	-0,197	-0,252
243,815	158,991	-0,226	-0,218
244,830	5,030	-0,232	-0,118
245,844	29,982	-0,289	-0,170
246,859	-24,317	-0,252	-0,104
247,874	-51,389	-0,252	-0,081
248,888	230,992	-0,119	-0,135
249,903	72,959	-0,160	-0,116
250,917	167,417	-0,193	-0,190
251,932	159,807	-0,113	-0,109
252,947	-46,776	-0,257	0,087
253,961	194,878	-0,125	-0,132
254,976	579,075	-0,177	-0,302
255,990	605,987	-0,095	-0,165
257,005	90,533	-0,179	-0,139
258,020	-76,235	-0,260	-0,063
259,034	292,621	-0,138	-0,174
260,049	-96,944	-0,228	0,041
261,063	3,350	-0,092	-0,046
262,078	-17,099	-0,248	-0,108
263,093	-121,067	-0,255	-0,029
264,107	153,651	-0,099	-0,094
265,122	160,602	-0,227	-0,219
266,136	-34,364	-0,279	-0,105
267,151	-65,723	-0,182	-0,050
268,166	20,383	-0,120	0,067
269,180	75,587	-0,208	-0,151
270,195	164,204	-0,157	-0,153
271,209	291,538	-0,215	-0,271
272,224	21,453	-0,270	-0,151
273,239	-200,000	-0,045	-0,216
274,253	-118,382	-0,178	-0,022
275,268	-43,558	-0,171	-0,059
276,282	118,978	-0,150	-0,128
277,297	507,367	-0,143	-0,230
278,312	177,433	-0,193	-0,194
279,326	147,001	-0,056	-0,052
280,341	231,882	-0,140	-0,159
281,355	-28,590	-0,168	-0,066
282,370	25,658	-0,197	-0,113
283,384	11,687	-0,249	-0,131
284,399	209,912	-0,183	-0,198
285,414	-69,426	-0,052	0,014
286,428	-183,694	-0,149	-0,002
287,443	32,067	-0,062	-0,037
288,457	800,000	-0,098	-0,223
289,472	255,559	-0,147	-0,175
290,487	269,079	-0,104	-0,126
291,501	9,003	-0,197	-0,102
292,516	800,000	0,046	-0,099
293,530	-4,839	-0,088	-0,042
294,545	73,883	-0,104	0,075
295,560	67,121	-0,131	-0,092
296,574	-40,530	-0,072	-0,025
297,589	199,018	-0,192	-0,203
298,603	12,715	-0,203	-0,108
299,618	5,134	-0,122	-0,062
300,633	301,469	-0,107	-0,137
301,647	-77,840	-0,054	0,013
302,662	-79,475	-0,164	-0,038
303,676	13,690	-0,147	-0,078
304,691	135,240	-0,137	-0,123
305,706	81,381	-0,206	-0,154
306,720	40,286	-0,236	-0,146
307,735	800,000	-0,061	-0,129
308,749	209,655	-0,116	-0,125
309,764	-63,437	-0,192	-0,054
310,779	20,075	-0,160	-0,089
311,793	45,577	-0,072	0,046
312,808	342,394	-0,089	-0,120
313,822	341,907	-0,152	-0,205
314,837	-37,653	-0,181	-0,066
315,852	49,477	-0,104	0,067
316,866	-130,709	-0,224	0,020
317,881	97,598	-0,196	-0,155
318,895	-200,000	-0,036	-0,163
319,910	-134,824	-0,218	0,018
320,925	1,557	-0,216	-0,106
321,939	800,000	-0,086	-0,180
322,954	14,052	-0,132	-0,070
323,968	266,334	-0,134	-0,161
324,983	5,965	-0,107	0,054
325,997	-200,000	-0,081	0,000
327,012	272,469	-0,184	-0,223
328,027	-132,726	-0,150	-0,013
329,041	215,696	-0,163	-0,179
330,056	-126,439	-0,162	-0,016
331,070	-106,297	-0,206	0,031
332,085	-200,000	-0,004	-0,028
333,100	800,000	-0,041	-0,110
334,114	43,334	-0,246	-0,154
335,129	157,502	-0,149	-0,142
336,143	-52,941	-0,193	-0,061
337,158	-52,912	-0,075	-0,024
338,173	240,015	-0,094	-0,108
339,187	-59,560	-0,174	-0,051
340,202	179,164	-0,040	0,041
341,216	332,253	-0,066	-0,087
342,231	-150,206	-0,190	-0,010
343,246	178,708	-0,114	-0,115
344,260	15,440	-0,101	-0,055
345,275	-200,000	-0,043	-0,153
346,289	111,744	-0,147	-0,122
347,304	-132,579	-0,103	-0,009
348,319	-200,000	-0,023	-0,218
349,333	21,149	-0,150	-0,083
350,348	629,359	-0,097	-0,170
351,362	431,337	-0,102	-0,152
352,377	-200,000	-0,014	-0,178
353,392	47,062	-0,206	-0,132
354,406	243,956	-0,139	-0,160
355,421	207,337	1318,940	1413,610
356,435	159,486	1480,201	1414,107
