DTS Sentinel unit serial number:	SN410029Multiplexer serial number:	ORYXHardware model number:	OX2-SRSoftware version number:	ORYX F/W v4,00 Oryx Data Collector v3.7.2.0data status	okinstallation	B3 Nyhavnadifferential loss correction	single-endedforward channel	channel 1reverse channel	N/Adate	2023/11/30time	22:37:30forward acquisition time	300,00reverse acquisition time	0,00gamma	499,1914k internal	0,3210k external	0,3210temperature offset calibration	1,0000default loss term (dB/km)	0,3820temperature slope calibration	1,0000multiplexer offset coefficient	1,0000multiplexer slope coefficient	1,0000fibre end	0,00T internal ref (°C)	10,01T ext. ref 1 (°C)	-5,09T ext. ref 2 (°C)	-5,22length (m)	temperature (°C)	Stokes	anti-Stokes-744,400	640,662	-0,127	-0,235
-743,385	-200,000	-0,014	0,204
-742,371	800,000	-0,087	-0,245
-741,356	-200,000	0,019	0,272
-740,342	77,909	-0,181	-0,140
-739,327	-200,000	-0,085	0,298
-738,312	189,103	-0,311	-0,339
-737,298	-200,000	0,055	0,317
-736,283	121,866	-0,150	-0,136
-735,269	-200,000	0,062	0,212
-734,254	173,148	-0,190	-0,198
-733,239	-124,518	-0,249	0,028
-732,225	449,083	-0,141	-0,226
-731,210	227,085	0,096	0,113
-730,196	800,000	-0,038	-0,098
-729,181	-200,000	-0,020	-0,093
-728,167	800,000	0,080	-0,183
-727,152	114,873	0,050	-0,044
-726,137	56,235	-0,076	0,054
-725,123	-21,523	-0,075	0,033
-724,108	59,693	-0,150	-0,107
-723,094	17,903	0,081	-0,047
-722,079	-87,643	-0,084	-0,018
-721,064	-121,112	-0,072	0,009
-720,050	302,403	0,035	0,047
-719,035	534,669	-0,051	0,088
-718,021	-102,260	-0,063	-0,011
-717,006	800,000	-0,063	-0,146
-715,991	-200,000	-0,011	-0,164
-714,977	-37,303	0,032	0,012
-713,962	-200,000	0,001	-0,006
-712,948	20,644	0,172	0,101
-711,933	0,810	-0,141	-0,073
-710,918	800,000	-0,033	0,069
-709,904	-101,940	-0,148	-0,026
-708,889	-200,000	0,010	0,071
-707,875	-200,000	-0,026	-0,134
-706,860	243,560	0,083	-0,101
-705,845	-124,423	0,078	0,009
-704,831	-19,419	0,143	0,064
-703,816	159,836	-0,075	-0,076
-702,802	-200,000	0,011	-0,058
-701,787	-66,350	-0,090	0,026
-700,772	-200,000	0,005	-0,083
-699,758	186,051	-0,045	-0,049
-698,743	268,667	0,060	0,076
-697,729	16,430	0,175	0,100
-696,714	384,118	-0,092	0,137
-695,699	185,986	-0,042	-0,046
-694,685	204,721	-0,070	-0,079
-693,670	-200,000	-0,009	-0,082
-692,656	-200,000	-0,002	-0,032
-691,641	444,509	-0,040	0,064
-690,627	105,784	0,055	0,047
-689,612	-200,000	0,001	0,063
-688,597	178,179	-0,046	0,049
-687,583	-200,000	0,005	0,058
-686,568	800,000	0,042	-0,121
-685,554	800,000	-0,032	-0,072
-684,539	592,141	0,036	-0,065
-683,524	182,802	0,149	-0,159
-682,510	-166,622	-0,017	-0,000
-681,495	144,052	-0,064	-0,062
-680,481	-200,000	-0,008	-0,033
-679,466	800,000	-0,035	-0,086
-678,451	-31,227	-0,174	-0,071
-677,437	-6,142	-0,046	-0,023
-676,422	800,000	0,068	-0,138
-675,408	-46,063	-0,093	0,033
-674,393	-115,959	-0,194	-0,026
-673,378	780,630	0,027	0,053
-672,364	800,000	0,047	-0,111
-671,349	103,895	-0,129	0,109
-670,335	-200,000	-0,005	0,086
-669,320	-200,000	-0,014	0,161
-668,305	-101,359	-0,070	-0,012
-667,291	350,693	-0,065	0,093
-666,276	-28,442	-0,181	0,075
-665,262	-162,124	-0,121	0,004
-664,247	29,950	0,031	0,019
-663,232	-63,364	0,065	-0,019
-662,218	-130,926	0,116	0,011
-661,203	25,637	0,092	0,055
-660,189	-200,000	-0,015	0,123
-659,174	521,111	-0,060	0,102
-658,159	-103,758	-0,044	-0,007
-657,145	-200,000	0,032	-0,113
-656,130	219,871	0,049	-0,057
-655,116	-200,000	0,009	-0,054
-654,101	406,940	0,032	0,050
-653,086	228,971	-0,007	-0,008
-652,072	7,581	-0,122	0,066
-651,057	200,419	-0,048	-0,053
-650,043	83,265	-0,102	0,080
-649,028	-73,894	0,066	-0,017
-648,014	-200,000	0,028	0,099
-646,999	-30,902	0,108	-0,044
-645,984	255,353	-0,086	0,106
-644,970	-89,579	0,070	0,015
-643,955	57,376	-0,041	-0,029
-642,941	476,067	0,021	-0,035
-641,926	-200,000	0,006	0,019
-640,911	-200,000	-0,026	-0,090
-639,897	-200,000	0,029	0,119
-638,882	-200,000	-0,011	-0,077
-637,868	6,708	-0,121	-0,065
-636,853	800,000	-0,002	0,004
-635,838	-32,952	-0,053	0,021
-634,824	57,482	-0,079	-0,056
-633,809	-46,352	0,067	-0,024
-632,795	535,075	0,079	-0,136
-631,780	64,184	0,118	-0,086
-630,765	-14,317	0,074	-0,034
-629,751	139,131	-0,044	-0,042
-628,736	800,000	-0,019	0,046
-627,722	213,019	-0,060	-0,068
-626,707	75,762	0,041	0,031
-625,692	-200,000	-0,011	-0,063
-624,678	419,479	-0,080	0,124
-623,663	302,165	0,076	-0,102
-622,649	191,646	-0,138	-0,150
-621,634	-200,000	0,001	-0,186
-620,619	13,072	-0,065	0,036
-619,605	800,000	-0,008	-0,020
-618,590	52,469	0,099	0,068
-617,576	76,660	-0,109	0,083
-616,561	60,344	-0,138	-0,098
-615,546	181,330	-0,084	-0,090
-614,532	-200,000	0,010	-0,110
-613,517	569,592	0,071	-0,125
-612,503	751,658	0,027	0,054
-611,488	682,345	-0,020	-0,038
-610,474	374,008	-0,009	0,014
-609,459	-142,276	-0,039	0,003
-608,444	-39,105	-0,122	-0,046
-607,430	-22,984	-0,104	-0,045
-606,415	-200,000	-0,002	-0,104
-605,401	-200,000	-0,004	-0,092
-604,386	-117,969	-0,045	-0,006
-603,371	-49,372	-0,064	-0,022
-602,357	-103,103	-0,058	-0,010
-601,342	-200,000	0,018	-0,142
-600,328	-133,000	0,111	-0,010
-599,313	343,308	-0,084	0,119
-598,298	-200,000	-0,003	0,043
-597,284	-200,000	-0,013	0,107
-596,269	-93,219	-0,052	-0,010
-595,255	-42,426	0,106	0,039
-594,240	435,381	-0,074	-0,117
-593,225	524,860	-0,138	-0,235
-592,211	101,195	0,049	-0,041
-591,196	374,451	-0,055	-0,080
-590,182	185,168	0,091	-0,097
-589,167	800,000	0,046	0,096
-588,152	800,000	0,040	0,121
-587,138	800,000	-0,059	-0,121
-586,123	657,423	0,067	-0,124
-585,109	129,348	-0,060	0,056
-584,094	-78,474	0,097	-0,024
-583,079	11,768	-0,036	-0,020
-582,065	-200,000	0,009	0,138
-581,050	255,642	0,111	0,137
-580,036	-90,337	-0,087	-0,018
-579,021	319,716	-0,063	0,087
-578,006	-56,899	0,157	-0,050
-576,992	-82,501	0,072	0,017
-575,977	244,643	0,069	-0,084
-574,963	181,552	0,027	0,029
-573,948	387,248	-0,030	-0,045
-572,934	213,421	-0,061	-0,070
-571,919	-165,774	0,053	0,002
-570,904	534,684	-0,075	-0,128
-569,890	-62,688	-0,139	-0,041
-568,875	12,899	0,081	0,045
-567,861	633,326	0,095	0,174
-566,846	414,157	0,027	0,041
-565,831	-200,000	0,013	0,042
-564,817	-26,427	-0,085	-0,036
-563,802	-129,972	-0,052	0,005
-562,788	20,476	-0,127	0,074
-561,773	800,000	0,064	0,135
-560,758	418,929	0,033	0,051
-559,744	-100,517	-0,026	0,005
-558,729	108,101	-0,040	-0,034
-557,715	-36,536	0,091	0,035
-556,700	-91,087	-0,114	0,023
-555,685	800,000	0,015	-0,038
-554,671	800,000	-0,066	-0,151
-553,656	-200,000	0,014	0,072
-552,642	-200,000	-0,002	0,020
-551,627	31,445	-0,081	0,050
-550,612	-116,999	-0,049	-0,006
-549,598	-181,741	-0,064	-0,001
-548,583	800,000	0,040	-0,104
-547,569	-200,000	0,019	0,107
-546,554	-108,060	0,167	-0,026
-545,539	-70,927	0,041	-0,011
-544,525	-99,251	-0,067	-0,012
-543,510	-4,370	-0,088	0,043
-542,496	-103,415	-0,098	0,016
-541,481	-74,129	-0,117	0,030
-540,466	-200,000	0,005	-0,103
-539,452	-200,000	0,021	0,141
-538,437	-152,478	-0,067	-0,003
-537,423	800,000	-0,013	-0,028
-536,408	36,500	-0,072	-0,046
-535,393	-200,000	0,022	-0,072
-534,379	102,604	-0,051	-0,043
-533,364	-84,446	-0,138	0,031
-532,350	187,111	0,055	0,059
-531,335	-200,000	0,018	-0,116
-530,321	-44,397	0,062	-0,022
-529,306	-42,558	-0,144	-0,053
-528,291	351,363	-0,059	-0,085
-527,277	-29,614	-0,016	0,007
-526,262	-95,756	0,115	-0,022
-525,248	-141,713	-0,115	-0,008
-524,233	-51,833	0,093	0,031
-523,218	-200,000	0,032	0,196
-522,204	-200,000	-0,018	-0,109
-521,189	-200,000	0,014	-0,176
-520,175	159,690	-0,101	-0,101
-519,160	-200,000	-0,013	0,131
-518,145	-25,402	0,079	0,033
-517,131	398,879	-0,045	0,068
-516,116	203,528	0,054	0,060
-515,102	89,362	-0,030	-0,024
-514,087	269,076	-0,083	-0,105
-513,072	435,206	-0,046	0,072
-512,058	-200,000	0,036	0,141
-511,043	-25,769	0,066	-0,028
-510,029	16,394	0,040	-0,023
-509,014	-200,000	0,024	-0,128
-507,999	-136,349	-0,066	-0,005
-506,985	441,553	-0,093	-0,147
-505,970	-54,402	-0,032	-0,010
-504,956	68,402	-0,119	0,088
-503,941	-58,124	0,188	0,059
-502,926	71,027	0,022	-0,016
-501,912	151,186	0,101	-0,099
-500,897	-190,936	0,192	-0,001
-499,883	116,197	-0,026	0,023
-498,868	800,000	0,019	0,041
-497,853	800,000	0,043	-0,119
-496,839	395,686	0,029	-0,043
-495,824	419,649	-0,061	0,094
-494,810	-200,000	-0,024	0,085
-493,795	-34,986	0,133	0,052
-492,781	115,498	-0,059	-0,052
-491,766	-12,939	0,100	-0,047
-490,751	153,482	0,029	-0,029
-489,737	75,009	-0,123	-0,093
-488,722	800,000	0,048	0,110
-487,708	222,630	0,106	0,123
-486,693	35,572	0,132	-0,083
-485,678	341,121	-0,020	-0,028
-484,664	275,869	0,040	0,051
-483,649	105,904	-0,108	-0,092
-482,635	-200,000	-0,009	-0,090
-481,620	162,876	-0,070	-0,070
-480,605	176,168	0,016	-0,017
-479,591	302,577	0,092	0,123
-478,576	395,200	0,029	-0,043
-477,562	-200,000	0,025	-0,091
-476,547	753,078	-0,038	0,074
-475,532	3,063	-0,111	-0,058
-474,518	129,982	0,122	0,112
-473,503	800,000	0,026	0,068
-472,489	-69,978	-0,126	0,034
-471,474	-200,000	0,037	-0,148
-470,459	-200,000	-0,001	-0,031
-469,445	800,000	0,039	-0,108
-468,430	-200,000	0,019	-0,149
-467,416	-123,155	0,104	-0,012
-466,401	463,653	0,045	-0,072
-465,386	800,000	-0,030	0,076
-464,372	-120,738	-0,141	0,017
-463,357	-161,838	-0,071	-0,003
-462,343	-149,218	-0,157	-0,009
-461,328	-200,000	-0,012	-0,127
-460,313	-200,000	0,000	-0,111
-459,299	800,000	0,031	-0,084
-458,284	-17,247	0,151	0,068
-457,270	224,502	0,171	0,198
-456,255	-183,881	-0,137	0,002
-455,241	192,766	0,039	-0,042
-454,226	800,000	0,057	-0,152
-453,211	-143,907	-0,126	-0,008
-452,197	-52,307	-0,042	0,014
-451,182	-99,450	0,092	-0,016
-450,168	370,910	0,048	0,070
-449,153	-120,126	-0,057	0,007
-448,138	-22,000	0,082	-0,035
-447,124	-200,000	-0,003	0,076
-446,109	-200,000	0,013	0,070
-445,095	-10,271	0,130	-0,062
-444,080	-200,000	0,003	-0,147
-443,065	800,000	-0,053	0,110
-442,051	84,380	0,054	0,042
-441,036	242,436	-0,010	0,012
-440,022	-2,490	-0,062	0,031
-439,007	-200,000	-0,013	0,138
-437,992	-200,000	0,001	0,054
-436,978	101,979	0,122	0,102
-435,963	-36,150	0,056	0,022
-434,949	27,101	-0,092	-0,055
-433,934	124,168	0,099	-0,089
-432,919	-200,000	-0,004	-0,118
-431,905	-200,000	0,015	-0,055
-430,890	165,368	0,086	-0,087
-429,876	800,000	-0,011	-0,027
-428,861	800,000	-0,036	0,079
-427,846	18,540	0,067	0,038
-426,832	-200,000	0,032	-0,171
-425,817	28,551	-0,184	-0,111
-424,803	-52,816	0,066	0,022
-423,788	46,741	-0,154	-0,103
-422,773	-9,951	0,131	0,062
-421,759	800,000	-0,022	-0,052
-420,744	-94,191	-0,195	-0,038
-419,730	-92,916	0,062	-0,012
-418,715	-38,859	-0,036	-0,014
-417,701	175,849	0,023	-0,024
-416,686	499,018	0,057	0,094
-415,671	-95,171	-0,037	0,007
-414,657	536,901	0,047	-0,080
-413,642	-109,512	-0,066	-0,010
-412,628	-78,098	0,108	0,027
-411,613	69,729	-0,107	-0,079
-410,598	219,900	0,052	0,060
-409,584	-200,000	0,003	-0,016
-408,569	-200,000	0,007	0,074
-407,555	189,841	-0,126	0,135
-406,540	-200,000	0,008	0,030
-405,525	-39,465	-0,025	-0,009
-404,511	687,338	-0,033	-0,063
-403,496	-41,470	-0,081	-0,030
-402,482	607,221	-0,025	0,044
-401,467	6,924	-0,095	0,050
-400,452	165,466	0,022	0,022
-399,438	-200,000	0,030	0,105
-398,423	37,050	-0,022	-0,014
-397,409	370,309	-0,112	-0,163
-396,394	800,000	0,071	0,208
-395,379	57,117	-0,067	-0,047
-394,365	662,122	0,022	0,040
-393,350	800,000	0,040	0,080
-392,336	-103,692	0,053	-0,009
-391,321	-131,298	0,167	0,016
-390,306	48,475	-0,093	-0,062
-389,292	-200,000	-0,018	0,059
-388,277	109,539	-0,044	-0,038
-387,263	-200,000	-0,001	-0,086
-386,248	626,374	0,038	0,069
-385,233	-200,000	0,006	-0,020
-384,219	95,055	-0,069	-0,056
-383,204	-200,000	0,017	0,136
-382,190	-106,796	0,017	-0,003
-381,175	-200,000	-0,012	0,050
-380,160	461,002	-0,031	-0,050
-379,146	-200,000	0,032	0,136
-378,131	81,317	-0,115	-0,089
-377,117	728,563	-0,114	-0,219
-376,102	800,000	0,042	0,108
-375,088	147,290	-0,109	-0,105
-374,073	800,000	0,010	0,028
-373,058	800,000	0,012	0,029
-372,044	-200,000	0,004	0,094
-371,029	-22,139	0,072	0,031
-370,015	107,987	-0,053	0,046
-369,000	-115,594	-0,043	-0,006
-367,985	210,166	-0,078	0,088
-366,971	800,000	-0,079	-0,176
-365,956	-196,074	0,122	-0,001
-364,942	800,000	0,094	0,196
-363,927	-200,000	0,025	0,090
-362,912	33,834	0,093	0,058
-361,898	147,539	-0,103	0,099
-360,883	49,578	0,067	-0,045
-359,869	-111,434	-0,105	-0,015
-358,854	-200,000	-0,008	-0,049
-357,839	800,000	-0,029	0,065
-356,825	153,582	0,069	0,068
-355,810	800,000	-0,040	0,125
-354,796	56,328	-0,080	-0,056
-353,781	559,420	-0,057	-0,099
-352,766	310,145	-0,098	-0,131
-351,752	264,660	-0,057	0,071
-350,737	-200,000	-0,037	0,206
-349,723	800,000	-0,058	0,126
-348,708	800,000	0,006	-0,016
-347,693	686,992	0,014	-0,027
-346,679	-200,000	-0,001	-0,160
-345,664	560,623	-0,034	-0,060
-344,650	248,438	0,046	-0,056
-343,635	636,064	-0,030	-0,054
-342,620	57,296	0,105	-0,073
-341,606	-29,172	-0,061	-0,025
-340,591	66,210	0,112	-0,081
-339,577	189,052	-0,027	-0,029
-338,562	120,417	-0,034	0,030
-337,548	-200,000	-0,002	0,112
-336,533	-5,575	0,134	-0,066
-335,518	120,268	0,072	0,064
-334,504	-200,000	-0,009	0,108
-333,489	283,843	-0,103	-0,132
-332,475	-200,000	-0,002	-0,032
-331,460	-89,903	-0,163	0,034
-330,445	270,456	0,064	-0,080
-329,431	-49,483	-0,034	-0,012
-328,416	-200,000	0,038	0,197
-327,402	800,000	-0,054	0,156
-326,387	-97,240	0,088	0,016
-325,372	-72,829	-0,028	0,007
-324,358	277,143	-0,057	-0,073
-323,343	481,958	-0,057	0,093
-322,329	91,950	-0,057	0,046
-321,314	141,999	0,067	0,064
-320,299	50,160	0,106	0,071
-319,285	-200,000	0,010	0,133
-318,270	292,930	-0,029	-0,038
-317,256	-115,345	0,094	-0,013
-316,241	143,532	0,042	0,040
-315,226	-200,000	-0,004	0,027
-314,212	-9,542	-0,049	-0,023
-313,197	230,747	0,050	0,059
-312,183	-200,000	-0,004	0,085
-311,168	-47,764	-0,033	0,011
-310,153	-200,000	-0,002	-0,026
-309,139	-200,000	0,006	-0,088
-308,124	181,185	0,072	0,075
-307,110	270,308	0,082	0,103
-306,095	256,499	0,077	0,094
-305,080	44,715	-0,037	0,024
-304,066	7,239	-0,054	-0,029
-303,051	800,000	0,008	0,016
-302,037	-38,179	-0,117	0,044
-301,022	-200,000	-0,005	0,086
-300,008	-5,401	0,059	0,029
-298,993	30,112	-0,044	0,027
-297,978	-98,125	0,070	-0,013
-296,964	54,440	-0,110	0,075
-295,949	-100,253	0,050	0,009
-294,935	-181,735	-0,077	0,001
-293,920	800,000	-0,031	-0,070
-292,905	-200,000	-0,003	0,041
-291,891	-200,000	0,007	0,132
-290,876	-200,000	-0,008	0,039
-289,862	800,000	0,022	-0,050
-288,847	-0,263	-0,100	-0,050
-287,832	31,693	-0,165	-0,101
-286,818	-83,544	0,082	0,019
-285,803	800,000	0,070	0,146
-284,789	-122,664	-0,130	0,015
-283,774	800,000	0,059	-0,132
-282,759	492,728	-0,066	-0,108
-281,745	-107,232	0,029	-0,004
-280,730	133,953	0,062	-0,057
-279,716	163,416	-0,127	-0,128
-278,701	-200,000	-0,025	0,000
-277,686	131,947	0,082	0,076
-276,672	153,544	0,056	0,055
-275,657	426,201	0,012	-0,018
-274,643	-200,000	-0,017	0,074
-273,628	-84,993	-0,100	-0,022
-272,613	52,960	0,020	0,013
-271,599	-200,000	0,044	0,281
-270,584	-76,610	0,117	0,029
-269,570	133,417	0,105	0,097
-268,555	64,003	-0,150	-0,107
-267,540	47,141	0,054	0,036
-266,526	-200,000	0,020	-0,091
-265,511	-29,643	0,144	-0,058
-264,497	-200,000	0,013	0,066
-263,482	-200,000	-0,001	-0,082
-262,467	255,035	0,053	-0,065
-261,453	452,360	-0,069	0,108
-260,438	-200,000	0,005	-0,051
-259,424	-200,000	-0,035	-0,156
-258,409	800,000	0,030	0,094
-257,395	-200,000	-0,000	0,006
-256,380	-12,319	-0,062	0,029
-255,365	-74,125	0,119	0,031
-254,351	168,214	0,027	-0,028
-253,336	107,731	0,060	-0,050
-252,322	-200,000	0,016	-0,229
-251,307	-200,000	-0,005	-0,019
-250,292	92,182	0,055	0,044
-249,278	292,879	-0,031	0,040
-248,263	-40,612	0,144	0,053
-247,249	60,318	0,071	-0,050
-246,234	800,000	0,017	-0,033
-245,219	-59,958	-0,106	-0,032
-244,205	222,023	-0,069	-0,079
-243,190	760,896	-0,011	0,021
-242,176	-200,000	0,004	0,212
-241,161	-200,000	0,022	0,085
-240,146	215,128	0,030	0,033
-239,132	-200,000	-0,007	0,072
-238,117	232,824	0,062	-0,072
-237,103	-200,000	0,016	-0,183
-236,088	-126,499	0,084	0,009
-235,073	-89,645	0,099	-0,021
-234,059	105,607	0,100	-0,084
-233,044	-128,944	-0,078	0,008
-232,030	192,538	-0,094	-0,101
-231,015	-11,703	-0,106	-0,049
-230,000	203,582	-0,038	-0,042
-228,986	800,000	-0,033	-0,094
-227,971	-56,893	0,028	-0,009
-226,957	83,828	-0,040	0,031
-225,942	-200,000	-0,007	0,064
-224,927	383,191	0,031	-0,045
-223,913	-93,952	0,095	-0,018
-222,898	800,000	-0,044	-0,090
-221,884	7,093	0,112	-0,059
-220,869	-5,987	-0,008	-0,004
-219,855	712,820	-0,036	0,068
-218,840	-200,000	-0,001	-0,025
-217,825	800,000	-0,030	-0,063
-216,811	-153,901	-0,190	0,009
-215,796	-200,000	0,022	-0,174
-214,782	452,014	0,037	0,058
-213,767	-174,884	0,080	0,002
-212,752	-200,000	0,001	0,152
-211,738	-200,000	0,009	0,097
-210,723	439,027	-0,076	0,118
-209,709	526,620	-0,024	-0,040
-208,694	800,000	-0,027	-0,059
-207,679	247,170	0,111	-0,134
-206,665	72,221	0,115	0,085
-205,650	9,486	0,006	-0,003
-204,636	-200,000	-0,013	0,098
-203,621	402,632	-0,065	0,098
-202,606	251,227	-0,058	-0,071
-201,592	463,239	0,027	-0,043
-200,577	-200,000	0,015	0,177
-199,563	-200,000	-0,010	0,064
-198,548	-200,000	0,003	-0,056
-197,533	-54,441	0,073	-0,023
-196,519	-84,918	0,091	-0,020
-195,504	52,011	-0,071	-0,048
-194,490	800,000	-0,063	0,142
-193,475	-200,000	-0,004	0,124
-192,460	-200,000	0,010	0,140
-191,446	-153,494	0,126	0,006
-190,431	42,951	0,035	0,022
-189,417	50,299	-0,086	-0,058
-188,402	150,545	0,132	0,127
-187,387	-200,000	-0,001	-0,024
-186,373	-200,000	-0,011	0,083
-185,358	380,012	0,067	0,098
-184,344	20,698	0,092	0,053
-183,329	-200,000	0,045	0,155
-182,315	-200,000	-0,020	0,078
-181,300	652,453	0,056	0,103
-180,285	8,860	-0,106	-0,056
-179,271	581,866	-0,048	-0,083
-178,256	330,511	-0,104	0,143
-177,242	386,181	0,033	-0,049
-176,227	60,963	-0,085	0,060
-175,212	91,587	0,051	-0,041
-174,198	-62,752	0,064	0,019
-173,183	136,704	0,086	0,079
-172,169	475,825	-0,049	-0,079
-171,154	800,000	0,007	-0,020
-170,139	-200,000	-0,006	-0,075
-169,125	379,516	0,116	0,169
-168,110	128,551	0,080	0,072
-167,096	39,866	0,111	0,070
-166,081	269,215	-0,050	-0,062
-165,066	20,772	0,134	-0,077
-164,052	-84,775	0,050	-0,011
-163,037	24,617	0,116	0,068
-162,023	-89,992	0,063	-0,013
-161,008	-140,302	-0,033	0,002
-159,993	800,000	-0,031	0,086
-158,979	-200,000	0,007	0,072
-157,964	-76,891	0,101	-0,025
-156,950	90,781	-0,116	-0,092
-155,935	89,645	0,046	-0,036
-154,920	-79,017	0,095	0,023
-153,906	71,071	0,048	-0,036
-152,891	-55,349	-0,123	-0,039
-151,877	800,000	-0,028	-0,070
-150,862	13,973	-0,053	-0,029
-149,847	-200,000	0,003	-0,159
-148,833	-162,149	-0,048	-0,002
-147,818	800,000	-0,042	-0,107
-146,804	412,110	0,022	-0,033
-145,789	226,793	-0,056	0,064
-144,775	800,000	-0,054	0,117
-143,760	291,848	0,075	0,097
-142,745	-200,000	0,020	0,069
-141,731	-46,127	-0,033	-0,012
-140,716	-103,941	0,078	-0,013
-139,702	-123,595	0,154	0,017
-138,687	-21,578	-0,161	0,069
-137,672	800,000	-0,028	-0,063
-136,658	-200,000	0,060	0,205
-135,643	408,905	0,025	-0,038
-134,629	800,000	-0,030	-0,062
-133,614	-200,000	0,020	0,133
-132,599	406,531	0,042	0,062
-131,585	-200,000	-0,020	0,124
-130,570	147,134	-0,038	0,036
-129,556	225,853	-0,078	0,089
-128,541	-200,000	-0,044	-0,182
-127,526	-200,000	0,009	-0,110
-126,512	131,521	0,117	0,107
-125,497	63,546	-0,020	0,014
-124,483	800,000	0,060	0,179
-123,468	117,122	-0,085	-0,074
-122,453	-85,264	-0,103	-0,023
-121,439	800,000	-0,023	-0,063
-120,424	800,000	-0,041	-0,094
-119,410	25,299	0,058	-0,034
-118,395	30,099	0,122	0,074
-117,380	78,951	0,081	0,061
-116,366	-92,008	0,069	0,014
-115,351	-200,000	-0,045	-0,162
-114,337	-14,834	-0,093	-0,042
-113,322	283,549	0,062	0,079
-112,307	800,000	-0,032	0,076
-111,293	192,323	0,046	-0,050
-110,278	87,025	0,073	0,057
-109,264	-61,555	0,082	0,024
-108,249	289,213	-0,086	-0,111
-107,234	30,974	-0,014	0,008
-106,220	45,002	-0,126	-0,082
-105,205	-144,849	0,083	0,005
-104,191	800,000	0,028	-0,087
-103,176	44,798	-0,074	-0,048
-102,162	177,605	-0,029	0,030
-101,147	742,042	0,081	-0,155
-100,132	-200,000	-0,044	-0,138
-99,118	-32,608	-0,041	0,016
-98,103	344,793	-0,037	-0,052
-97,089	-25,545	0,104	0,043
-96,074	83,029	0,039	-0,030
-95,059	-200,000	-0,006	0,078
-94,045	-152,512	-0,057	0,003
-93,030	526,489	0,041	-0,068
-92,016	191,626	-0,068	0,072
-91,001	595,956	-0,041	-0,073
-89,986	-160,026	0,067	0,003
-88,972	150,477	-0,073	-0,070
-87,957	-127,620	-0,061	0,006
-86,943	250,405	0,029	-0,035
-85,928	641,172	-0,028	-0,051
-84,913	317,449	-0,089	0,120
-83,899	800,000	0,031	0,078
-82,884	-83,070	-0,063	0,014
-81,870	-200,000	-0,006	0,094
-80,855	-0,572	0,121	0,060
-79,840	297,296	-0,078	0,101
-78,826	800,000	0,027	0,063
-77,811	800,000	-0,007	-0,017
-76,797	-53,187	-0,035	-0,011
-75,782	-131,296	-0,050	-0,005
-74,767	329,062	0,046	0,063
-73,753	-134,754	0,084	-0,007
-72,738	-200,000	0,006	0,069
-71,724	800,000	-0,073	-0,190
-70,709	-132,841	-0,034	0,003
-69,694	93,646	-0,072	-0,058
-68,680	-178,899	0,020	0,000
-67,665	63,777	-0,100	0,071
-66,651	119,180	0,107	0,094
-65,636	103,012	-0,080	0,066
-64,622	70,926	0,042	-0,031
-63,607	-43,043	-0,080	0,028
-62,592	-135,318	0,036	0,003
-61,578	-101,555	0,120	-0,020
-60,563	-112,729	0,145	-0,020
-59,549	800,000	0,049	-0,098
-58,534	40,663	-1,929	-1,225
-57,519	750,133	-1,070	-2,047
-56,505	-200,000	-0,472	-4,380
-55,490	334,877	0,862	1,182
-54,476	800,000	5,311	11,816
-53,461	-200,000	21,534	346,013
-52,446	800,000	763,282	2369,450
-51,432	557,858	1666,366	2847,809
-50,417	73,266	1663,618	1226,972
-49,403	17,893	1537,053	861,758
-48,388	11,867	1460,704	789,754
-47,373	19,673	1451,842	822,448
-46,359	15,418	1440,953	795,985
-45,344	10,155	1436,818	768,571
-44,330	10,043	1435,141	767,106
-43,315	10,057	1433,104	766,056
-42,300	10,057	1431,541	765,188
-41,286	10,077	1430,257	764,566
-40,271	10,037	1429,045	763,698
-39,257	10,075	1427,907	763,239
-38,242	10,059	1426,786	762,535
-37,227	10,076	1425,612	761,957
-36,213	10,055	1424,437	761,198
-35,198	10,138	1422,803	760,687
-34,184	10,109	1422,161	760,180
-33,169	10,027	1420,868	759,068
-32,154	10,149	1419,748	759,019
-31,140	10,103	1418,534	758,122
-30,125	10,115	1417,582	757,641
-29,111	10,107	1416,364	756,921
-28,096	10,115	1415,089	756,245
-27,082	10,044	1413,813	755,203
-26,067	9,963	1413,015	754,365
-25,052	10,038	1411,820	754,048
-24,038	10,073	1410,909	753,697
-23,023	9,997	1409,896	752,766
-22,009	10,018	1409,145	752,436
-20,994	10,070	1407,810	751,935
-19,979	10,032	1407,177	751,391
-18,965	10,010	1406,196	750,733
-17,950	9,989	1405,213	750,083
-16,936	9,981	1404,330	749,546
-15,921	9,926	1403,458	748,790
-14,906	9,957	1402,530	748,411
-13,892	9,986	1401,445	747,937
-12,877	9,921	1400,832	747,279
-11,863	9,937	1399,918	746,835
-10,848	9,931	1398,851	746,210
-9,833	9,871	1398,246	745,577
-8,819	9,860	1397,138	744,905
-7,804	9,867	1396,316	744,469
-6,790	9,878	1395,227	743,913
-5,775	9,885	1394,115	743,322
-4,760	9,839	1393,483	742,743
-3,746	9,837	1392,360	742,106
-2,731	9,826	1391,492	741,560
-1,717	9,829	1390,602	741,072
-0,702	9,846	1388,751	740,136
0,313	13,893	1300,970	711,887
1,327	30,146	690,449	414,678
2,342	46,548	119,560	78,126
3,356	0,393	16,561	8,315
4,371	10,359	3,496	1,871
5,386	-9,918	1,127	0,527
6,400	-200,000	0,160	0,553
7,415	-42,627	-0,162	-0,058
8,429	99,590	-0,285	-0,233
9,444	298,465	-0,184	-0,239
10,459	-106,657	-0,388	-0,060
11,473	65,452	-0,236	-0,168
12,488	92,511	-0,279	-0,222
13,502	122,951	-0,240	-0,212
14,517	97,637	-0,285	-0,231
15,531	326,828	-0,247	-0,335
16,546	1,236	-0,439	-0,221
17,561	23,358	-0,429	-0,248
18,575	368,956	-0,151	-0,216
19,590	273,473	-0,268	-0,334
20,604	72,698	-0,166	-0,122
21,619	-40,403	-0,404	-0,147
22,634	78,402	-0,436	-0,328
23,648	183,464	-0,298	-0,310
24,663	88,293	-0,371	-0,290
25,677	57,265	-0,257	-0,176
26,692	30,485	-0,249	-0,149
27,707	59,763	-0,327	-0,227
28,721	29,218	-0,348	-0,207
29,736	183,200	-0,396	-0,412
30,750	93,430	-0,442	-0,352
31,765	187,040	-0,403	-0,423
32,780	701,600	-0,144	-0,268
33,794	75,883	-0,378	-0,281
34,809	196,439	-0,265	-0,285
35,823	248,524	-0,290	-0,345
36,838	128,224	-0,364	-0,326
37,853	92,835	-0,413	-0,328
38,867	21,721	-0,377	-0,216
39,882	27,654	-0,271	-0,160
40,896	330,345	-0,234	-0,318
41,911	55,407	-0,368	-0,250
42,926	139,950	-0,282	-0,261
43,940	200,921	-0,329	-0,356
44,955	393,181	-0,263	-0,385
45,969	261,070	-0,239	-0,291
46,984	140,968	-0,321	-0,298
47,999	168,205	-0,267	-0,268
49,013	126,640	-0,193	-0,172
50,028	8,140	-0,296	-0,156
51,042	120,255	-0,328	-0,286
52,057	136,255	-0,339	-0,311
53,071	131,886	-0,273	-0,247
54,086	800,000	-0,177	-0,361
55,101	108,668	-0,256	-0,214
56,115	154,125	-0,272	-0,262
57,130	159,275	-0,257	-0,251
58,144	800,000	-0,160	-0,325
59,159	428,136	-0,204	-0,310
60,174	169,641	-0,237	-0,238
61,188	-37,058	-0,373	-0,139
62,203	5,719	-0,230	-0,119
63,217	28,464	-0,262	-0,155
64,232	30,375	-0,321	-0,192
65,247	-31,509	-0,380	-0,149
66,261	20,174	-0,348	-0,196
67,276	109,713	-0,343	-0,288
68,290	72,095	-0,240	-0,175
69,305	19,788	-0,336	-0,189
70,320	149,591	-0,234	-0,222
71,334	145,455	-0,299	-0,281
72,349	28,673	-0,299	-0,177
73,363	55,245	-0,346	-0,234
74,378	275,709	-0,207	-0,257
75,393	92,921	-0,270	-0,213
76,407	57,806	-0,291	-0,199
77,422	671,356	-0,114	-0,207
78,436	-91,005	-0,304	-0,061
79,451	52,454	-0,229	-0,153
80,466	-82,368	-0,209	-0,047
81,480	-14,894	-0,345	-0,154
82,495	115,758	-0,275	-0,235
83,509	19,385	-0,329	-0,185
84,524	-50,782	-0,242	-0,079
85,539	-99,633	-0,195	-0,034
86,553	-111,689	-0,372	-0,052
87,568	46,171	-0,194	-0,125
88,582	278,372	-0,317	-0,397
89,597	399,357	-0,168	-0,248
90,611	25,460	-0,347	-0,202
91,626	203,547	-0,161	-0,175
92,641	-55,794	-0,348	-0,108
93,655	-3,964	-0,315	-0,152
94,670	138,517	-0,270	-0,248
95,684	99,864	-0,309	-0,250
96,699	110,227	-0,268	-0,225
97,714	223,717	-0,186	-0,211
98,728	236,337	-0,200	-0,232
99,743	80,900	-0,202	-0,152
100,757	-70,175	-0,290	-0,077
101,772	20,134	-0,244	-0,137
102,787	143,156	-0,314	-0,292
103,801	72,703	-0,402	-0,293
104,816	96,488	-0,217	-0,173
105,830	499,040	-0,181	-0,292
106,845	2,446	-0,241	-0,121
107,860	66,926	-0,303	-0,215
108,874	168,453	-0,272	-0,271
109,889	344,964	-0,233	-0,320
110,903	-4,328	-0,362	-0,174
111,918	81,798	-0,266	-0,201
112,933	-19,774	-0,288	-0,124
113,947	129,117	-0,241	-0,215
114,962	98,432	-0,206	-0,165
115,976	55,032	-0,243	-0,163
116,991	361,985	-0,270	-0,380
118,006	800,000	-0,178	-0,358
119,020	76,515	-0,226	-0,167
120,035	265,456	-0,219	-0,267
121,049	-21,858	-0,279	-0,118
122,064	233,865	-0,208	-0,239
123,079	13,066	-0,262	-0,141
124,093	-16,203	-0,282	-0,124
125,108	114,523	-0,354	-0,301
126,122	14,701	-0,359	-0,195
127,137	57,904	-0,255	-0,174
128,151	-123,390	-0,117	0,013
129,166	-65,619	-0,319	-0,089
130,181	198,699	-0,224	-0,240
131,195	-113,278	-0,389	-0,053
132,210	52,555	-0,362	-0,240
133,224	-54,780	-0,244	-0,077
134,239	429,522	-0,173	-0,261
135,254	142,922	-0,124	-0,115
136,268	-41,908	-0,344	-0,122
137,283	-68,188	-0,219	-0,059
138,297	52,134	-0,208	-0,138
139,312	204,470	-0,160	-0,173
140,327	-15,347	-0,289	-0,128
141,341	8,265	-0,279	-0,145
142,356	-5,621	-0,268	-0,128
143,370	-42,474	-0,179	-0,063
144,385	76,363	-0,262	-0,193
145,400	29,392	-0,318	-0,188
146,414	671,779	-0,168	-0,304
147,429	101,728	-0,306	-0,248
148,443	418,334	-0,226	-0,338
149,458	259,232	-0,129	-0,155
150,473	717,698	-0,152	-0,283
151,487	104,227	-0,229	-0,187
152,502	203,845	-0,226	-0,244
153,516	276,861	-0,227	-0,281
154,531	383,953	-0,204	-0,293
155,546	223,044	-0,209	-0,235
156,560	-70,028	-0,195	-0,051
157,575	-86,540	-0,197	-0,042
158,589	-49,145	-0,258	-0,085
159,604	-58,592	-0,115	-0,035
160,619	145,556	-0,228	-0,212
161,633	263,560	-0,332	-0,402
162,648	233,543	-0,192	-0,220
163,662	-54,342	-0,270	-0,085
164,677	678,369	-0,088	-0,161
165,692	-147,765	-0,197	-0,011
166,706	200,444	-0,224	-0,240
167,721	304,378	-0,193	-0,250
168,735	501,601	-0,143	-0,231
169,750	-160,603	-0,195	-0,007
170,764	372,512	-0,104	-0,147
171,779	-4,291	-0,155	-0,074
172,794	245,336	-0,096	-0,112
173,808	37,050	-0,145	-0,089
174,823	93,912	-0,313	-0,247
175,837	-19,051	-0,261	-0,112
176,852	274,481	-0,195	-0,240
177,867	-81,359	-0,215	0,049
178,881	205,468	-0,208	-0,225
179,896	-61,445	-0,232	-0,067
180,910	-15,171	-0,335	-0,148
181,925	136,116	-0,250	-0,226
182,940	425,891	-0,232	-0,349
183,954	-67,781	-0,238	-0,064
184,969	-6,078	-0,220	-0,104
185,983	252,953	-0,189	-0,225
186,998	-200,000	-0,018	-0,173
188,013	-105,335	-0,217	-0,034
189,027	259,132	-0,124	-0,149
190,042	-42,090	-0,232	-0,082
191,056	-17,454	-0,282	-0,123
192,071	131,271	-0,181	-0,162
193,086	283,781	-0,103	-0,129
194,100	184,889	-0,105	-0,108
195,115	-119,057	-0,230	-0,028
196,129	273,656	-0,257	-0,316
197,144	800,000	-0,123	-0,282
198,159	201,542	-0,212	-0,226
199,173	255,657	-0,173	-0,206
200,188	69,862	-0,140	-0,100
201,202	178,548	-0,228	-0,231
202,217	545,815	-0,103	-0,172
203,232	236,883	-0,193	-0,222
204,246	120,714	-0,209	-0,180
205,261	157,760	-0,186	-0,179
206,275	-35,049	-0,171	-0,064
207,290	63,868	-0,243	-0,169
208,304	-26,780	-0,161	-0,065
209,319	-200,000	0,045	-0,196
210,334	-14,663	-0,122	-0,054
211,348	170,656	-0,197	-0,195
212,363	800,000	-0,177	-0,416
213,377	-200,000	-0,040	-0,147
214,392	-98,755	-0,161	-0,028
215,407	10,470	-0,079	0,042
216,421	-29,536	-0,145	-0,057
217,436	147,879	-0,188	-0,176
218,450	800,000	-0,089	-0,198
219,465	331,873	-0,107	-0,143
220,480	-84,898	-0,306	-0,066
221,494	159,242	-0,113	-0,109
222,509	-13,881	-0,183	-0,081
223,523	-8,621	-0,166	-0,077
224,538	19,459	-0,120	-0,067
225,553	639,234	-0,167	-0,295
226,567	210,372	-0,141	-0,154
227,582	37,991	-0,159	-0,098
228,596	105,468	-0,115	-0,094
229,611	128,413	-0,207	-0,182
230,626	237,284	-0,132	-0,151
231,640	412,406	-0,142	-0,209
232,655	454,267	-0,182	-0,280
233,669	6,859	-0,225	-0,116
234,684	-140,634	-0,131	-0,009
235,699	128,107	-0,190	-0,167
236,713	499,312	-0,059	0,094
237,728	800,000	-0,048	-0,147
238,742	-115,233	-0,284	-0,037
239,757	303,625	-0,170	-0,219
240,772	62,058	-0,261	-0,179
241,786	204,165	-0,134	-0,144
242,801	-200,000	-0,020	-0,150
243,815	-122,403	-0,130	0,014
244,830	-135,118	-0,074	0,006
245,844	409,742	-0,106	-0,156
246,859	107,512	-0,186	-0,153
247,874	-200,000	-0,070	-0,214
248,888	55,579	-0,123	0,082
249,903	27,836	-0,163	-0,095
250,917	81,276	-0,213	-0,159
251,932	-20,689	-0,218	-0,092
252,947	243,853	-0,084	-0,098
253,961	-146,866	-0,231	0,013
254,976	247,206	-0,097	-0,114
255,990	213,148	-0,207	-0,226
257,005	800,000	-0,144	-0,304
258,020	-86,145	-0,162	-0,034
259,034	137,977	-0,105	-0,095
260,049	-2,366	-0,141	-0,068
261,063	-45,184	-0,191	-0,065
262,078	38,164	-0,130	-0,080
263,093	90,588	-0,239	-0,185
264,107	-12,184	-0,248	-0,111
265,122	-33,613	-0,197	-0,075
266,136	-92,790	-0,115	0,022
267,151	47,500	-0,178	-0,114
268,166	-28,360	-0,181	-0,072
269,180	-17,950	-0,214	-0,092
270,195	162,086	-0,264	-0,255
271,209	209,714	-0,118	-0,128
272,224	-119,799	-0,145	-0,017
273,239	-155,957	-0,087	-0,004
274,253	800,000	-0,077	-0,151
275,268	283,537	-0,101	-0,125
276,282	117,252	-0,305	-0,258
277,297	249,606	-0,136	-0,160
278,312	108,509	-0,160	-0,132
279,326	5,417	-0,061	-0,031
280,341	108,160	-0,147	-0,121
281,355	62,176	-0,176	-0,121
282,370	-69,950	-0,202	-0,053
283,384	-14,605	-0,076	-0,034
284,399	-200,000	-0,056	-0,181
285,414	368,814	-0,147	-0,205
286,428	4,606	-0,134	-0,068
287,443	-200,000	-0,005	0,103
288,457	17,166	-0,160	-0,087
289,472	-178,808	-0,293	-0,004
290,487	-128,527	-0,249	-0,024
291,501	-98,077	-0,192	0,034
292,516	65,403	-0,078	-0,054
293,530	-83,731	-0,164	-0,036
294,545	800,000	-0,082	-0,193
295,560	-200,000	-0,004	-0,161
296,574	280,377	-0,095	-0,116
297,589	-66,941	-0,113	-0,030
298,603	286,252	-0,154	-0,191
299,618	98,330	-0,112	-0,089
300,633	-200,000	-0,068	-0,290
301,647	-3,220	-0,112	-0,053
302,662	127,410	-0,174	-0,152
303,676	101,879	-0,144	-0,115
304,691	-26,714	-0,107	-0,043
305,706	-83,388	-0,156	0,034
306,720	-120,908	-0,248	-0,028
307,735	261,418	-0,098	-0,117
308,749	17,167	-0,164	-0,089
309,764	-46,216	-0,145	-0,049
310,779	104,806	-0,091	-0,074
311,793	-200,000	-0,037	-0,202
312,808	63,138	-0,146	-0,100
313,822	-79,918	-0,239	-0,055
314,837	-26,776	-0,207	-0,083
315,852	-16,809	-0,194	-0,084
316,866	-132,361	-0,219	-0,019
317,881	-63,819	-0,119	0,033
318,895	800,000	-0,119	-0,259
319,910	800,000	-0,058	-0,169
320,925	-109,163	-0,114	-0,016
321,939	-49,954	-0,152	0,049
322,954	143,451	-0,102	-0,093
323,968	-127,491	-0,114	0,011
324,983	-120,069	-0,283	0,033
325,997	-72,166	-0,185	-0,047
327,012	58,442	-0,172	-0,115
328,027	-200,000	-0,045	-0,175
329,041	-144,458	-0,181	0,011
330,056	-43,586	-0,222	0,076
331,070	-200,000	-0,022	-0,101
332,085	-115,236	-0,099	0,013
333,100	156,459	-0,044	-0,042
334,114	-75,254	-0,156	0,038
335,129	-200,000	0,005	-0,161
336,143	-29,010	-0,120	0,047
337,158	800,000	0,035	-0,093
338,173	83,952	-0,055	-0,041
339,187	-147,477	-0,174	0,010
340,202	632,303	-0,102	-0,178
341,216	-62,588	-0,154	-0,043
342,231	211,007	-0,122	-0,131
343,246	140,751	-0,234	-0,211
344,260	260,774	-0,075	-0,089
345,275	32,064	-0,185	-0,109
346,289	-33,189	-0,084	-0,032
347,304	800,000	-0,055	-0,156
348,319	155,442	-0,110	-0,104
349,333	495,813	-0,105	-0,166
350,348	64,907	-0,182	-0,126
351,362	139,583	-0,103	-0,093
352,377	-19,543	-0,081	-0,034
353,392	271,655	-0,092	-0,111
354,406	-94,534	-0,164	-0,030
355,421	209,543	1310,069	1406,074
356,435	161,283	1470,196	1406,553
