DTS Sentinel unit serial number:	SN410029Multiplexer serial number:	ORYXHardware model number:	OX2-SRSoftware version number:	ORYX F/W v4,00 Oryx Data Collector v3.7.2.0data status	okinstallation	B3 Nyhavnadifferential loss correction	single-endedforward channel	channel 1reverse channel	N/Adate	2023/11/29time	20:02:30forward acquisition time	300,00reverse acquisition time	0,00gamma	499,1914k internal	0,3210k external	0,3210temperature offset calibration	1,0000default loss term (dB/km)	0,3820temperature slope calibration	1,0000multiplexer offset coefficient	1,0000multiplexer slope coefficient	1,0000fibre end	0,00T internal ref (°C)	10,88T ext. ref 1 (°C)	-4,30T ext. ref 2 (°C)	-4,40length (m)	temperature (°C)	Stokes	anti-Stokes-744,400	173,003	-0,200	-0,210
-743,385	-200,000	0,036	0,376
-742,371	800,000	-0,111	-0,315
-741,356	-200,000	0,009	0,276
-740,342	71,881	-0,197	-0,149
-739,327	-200,000	0,070	0,319
-738,312	39,607	-0,279	-0,181
-737,298	800,000	-0,061	0,178
-736,283	800,000	-0,150	-0,378
-735,269	-200,000	0,056	0,251
-734,254	99,981	-0,256	-0,215
-733,239	9,449	-0,176	0,096
-732,225	261,320	-0,184	-0,231
-731,210	170,385	0,153	0,158
-730,196	79,037	0,082	0,063
-729,181	-154,200	-0,186	-0,009
-728,167	800,000	0,080	0,190
-727,152	-94,659	-0,132	0,026
-726,137	234,201	-0,065	-0,078
-725,123	-200,000	0,013	0,125
-724,108	800,000	-0,086	-0,220
-723,094	435,522	-0,039	-0,061
-722,079	373,228	0,039	-0,057
-721,064	23,598	-0,044	-0,026
-720,050	800,000	0,047	0,132
-719,035	113,479	-0,053	0,046
-718,021	800,000	-0,101	-0,213
-717,006	-200,000	0,002	-0,244
-715,991	-200,000	-0,000	-0,112
-714,977	-0,995	-0,119	-0,061
-713,962	45,437	-0,071	0,047
-712,948	-50,279	0,113	-0,038
-711,933	-5,215	0,115	0,057
-710,918	-65,711	-0,121	0,035
-709,904	-200,000	-0,002	-0,100
-708,889	-200,000	0,002	-0,021
-707,875	800,000	-0,031	-0,086
-706,860	-200,000	0,016	0,061
-705,845	220,990	0,026	-0,030
-704,831	-70,626	0,034	0,009
-703,816	252,748	-0,128	-0,158
-702,802	-161,041	0,102	-0,004
-701,787	309,122	-0,099	-0,134
-700,772	175,073	0,071	0,075
-699,758	800,000	-0,061	-0,157
-698,743	402,513	0,036	0,055
-697,729	800,000	0,044	0,100
-696,714	800,000	0,045	-0,122
-695,699	-26,894	-0,127	0,054
-694,685	556,944	0,047	-0,082
-693,670	800,000	0,077	-0,169
-692,656	573,417	0,016	0,028
-691,641	800,000	0,022	-0,058
-690,627	-63,220	-0,046	-0,014
-689,612	-200,000	-0,015	0,129
-688,597	-87,931	0,143	-0,031
-687,583	339,546	0,084	-0,119
-686,568	14,150	-0,074	-0,042
-685,554	-15,284	0,130	-0,060
-684,539	-136,673	0,098	-0,008
-683,524	113,378	-0,084	0,074
-682,510	-101,789	0,028	0,005
-681,495	800,000	-0,030	-0,069
-680,481	411,182	0,043	-0,066
-679,466	94,642	-0,082	-0,067
-678,451	496,537	-0,023	0,039
-677,437	-145,261	-0,047	-0,003
-676,422	347,401	0,059	0,084
-675,408	455,310	-0,049	0,078
-674,393	800,000	-0,020	-0,056
-673,378	-39,169	0,068	0,026
-672,364	261,515	0,024	-0,030
-671,349	54,637	-0,110	-0,077
-670,335	20,674	0,085	-0,049
-669,320	456,995	-0,100	0,161
-668,305	10,632	-0,032	0,017
-667,291	-200,000	0,011	0,087
-666,276	-138,955	-0,054	0,004
-665,262	-200,000	0,036	-0,128
-664,247	-200,000	-0,016	-0,161
-663,232	-39,413	0,032	0,012
-662,218	-166,443	-0,069	-0,002
-661,203	800,000	-0,060	0,148
-660,189	77,800	-0,042	-0,032
-659,174	554,243	-0,073	-0,128
-658,159	-59,349	-0,150	0,046
-657,145	-200,000	0,006	-0,028
-656,130	400,730	0,018	-0,028
-655,116	48,073	0,068	-0,046
-654,101	677,605	-0,007	-0,014
-653,086	-200,000	-0,007	-0,029
-652,072	458,103	-0,047	-0,076
-651,057	-98,419	-0,147	0,027
-650,043	-200,000	-0,017	-0,116
-649,028	34,496	0,055	0,035
-648,014	-200,000	0,030	0,196
-646,999	188,747	0,093	0,101
-645,984	72,270	0,045	-0,033
-644,970	66,899	-0,122	-0,090
-643,955	800,000	-0,027	0,057
-642,941	800,000	-0,038	-0,099
-641,926	-118,051	0,091	-0,012
-640,911	-200,000	-0,022	-0,109
-639,897	-200,000	0,015	0,117
-638,882	-200,000	-0,007	0,051
-637,868	-90,633	0,151	-0,031
-636,853	-21,188	-0,143	0,063
-635,838	-200,000	0,026	-0,086
-634,824	800,000	-0,031	-0,097
-633,809	-200,000	0,004	0,037
-632,795	-37,630	0,099	0,038
-631,780	5,137	0,087	-0,046
-630,765	44,615	-0,088	-0,059
-629,751	44,762	-0,119	-0,079
-628,736	-86,561	-0,086	0,019
-627,722	800,000	0,023	0,070
-626,707	-123,641	-0,109	-0,012
-625,692	800,000	0,048	0,111
-624,678	236,725	-0,087	0,104
-623,663	800,000	-0,041	-0,106
-622,649	4,770	0,034	-0,018
-621,634	334,718	0,062	0,087
-620,619	-102,732	-0,134	-0,023
-619,605	61,655	0,135	-0,097
-618,590	30,446	0,060	-0,037
-617,576	34,311	-0,111	0,070
-616,561	203,686	-0,054	0,060
-615,546	800,000	0,053	-0,110
-614,532	165,984	-0,076	0,078
-613,517	-32,050	-0,064	-0,026
-612,503	-18,697	-0,017	0,007
-611,488	236,428	-0,038	0,046
-610,474	52,264	0,045	0,031
-609,459	89,299	-0,047	-0,038
-608,444	800,000	-0,049	-0,101
-607,430	9,948	-0,142	-0,077
-606,415	183,810	0,101	-0,108
-605,401	-45,106	0,146	0,052
-604,386	111,224	-0,091	-0,079
-603,371	-60,825	-0,039	0,012
-602,357	-200,000	-0,016	-0,133
-601,342	-57,284	0,130	-0,041
-600,328	-23,018	0,068	-0,030
-599,313	59,471	0,019	0,014
-598,298	296,678	-0,083	0,110
-597,284	402,579	0,029	0,043
-596,269	-147,121	0,089	0,005
-595,255	-40,897	0,042	0,015
-594,240	-200,000	0,001	-0,122
-593,225	-46,581	-0,152	-0,053
-592,211	254,710	0,071	-0,088
-591,196	-200,000	-0,003	0,098
-590,182	-200,000	-0,021	0,076
-589,167	800,000	-0,016	0,039
-588,152	-25,056	-0,053	-0,023
-587,138	-200,000	0,007	0,024
-586,123	-62,334	-0,139	-0,041
-585,109	800,000	-0,050	-0,130
-584,094	22,310	0,022	-0,013
-583,079	284,408	-0,022	0,028
-582,065	-200,000	0,009	0,127
-581,050	-14,567	0,016	0,007
-580,036	-66,659	0,054	-0,015
-579,021	207,441	-0,094	-0,106
-578,006	-59,544	-0,163	-0,050
-576,992	-200,000	-0,038	-0,136
-575,977	-115,746	0,068	-0,009
-574,963	-200,000	-0,023	0,093
-573,948	800,000	0,045	-0,104
-572,934	800,000	0,082	0,184
-571,919	210,752	0,032	0,037
-570,904	-19,310	0,120	-0,054
-569,890	-200,000	-0,034	-0,120
-568,875	-103,568	-0,089	-0,015
-567,861	42,488	-0,023	0,015
-566,846	-98,636	0,092	0,017
-565,831	-187,578	-0,173	-0,002
-564,817	-200,000	0,009	-0,033
-563,802	-200,000	0,009	-0,073
-562,788	702,719	-0,027	-0,052
-561,773	-56,011	0,048	-0,015
-560,758	26,753	0,048	0,029
-559,744	-200,000	-0,017	-0,060
-558,729	191,887	0,053	-0,058
-557,715	-73,206	0,073	-0,019
-556,700	66,710	0,089	0,065
-555,685	800,000	-0,019	0,038
-554,671	-144,763	0,139	-0,009
-553,656	-200,000	-0,027	-0,164
-552,642	250,823	0,053	0,065
-551,627	68,554	0,145	-0,107
-550,612	132,530	-0,096	-0,090
-549,598	-200,000	0,008	0,034
-548,583	-200,000	-0,006	0,039
-547,569	437,947	-0,018	0,029
-546,554	-200,000	-0,019	-0,112
-545,539	212,740	0,064	-0,072
-544,525	-200,000	0,009	-0,035
-543,510	480,609	-0,011	-0,017
-542,496	-11,212	-0,035	0,017
-541,481	536,557	-0,096	0,165
-540,466	411,726	-0,051	-0,077
-539,452	217,626	0,071	0,082
-538,437	539,638	-0,022	0,038
-537,423	105,713	0,099	0,084
-536,408	44,882	-0,069	0,046
-535,393	-123,995	-0,018	-0,002
-534,379	706,988	-0,062	-0,119
-533,364	-177,046	0,068	0,001
-532,350	-127,111	-0,088	-0,009
-531,335	183,372	0,106	0,113
-530,321	3,117	-0,084	0,044
-529,306	278,374	-0,020	-0,026
-528,291	-200,000	0,008	-0,108
-527,277	-200,000	-0,022	-0,072
-526,262	-52,456	-0,011	0,004
-525,248	-200,000	0,025	-0,141
-524,233	-8,547	0,111	0,053
-523,218	0,436	0,054	-0,028
-522,204	12,705	0,077	0,043
-521,189	800,000	0,006	-0,016
-520,175	407,546	-0,043	0,065
-519,160	-62,265	-0,034	-0,010
-518,145	56,674	0,138	0,097
-517,131	-23,261	-0,021	-0,009
-516,116	399,847	0,065	0,098
-515,102	800,000	0,020	0,055
-514,087	123,838	0,073	-0,066
-513,072	-200,000	-0,052	-0,253
-512,058	-34,232	0,080	0,031
-511,043	-8,597	0,113	-0,054
-510,029	-76,596	-0,024	-0,006
-509,014	-81,836	0,053	0,012
-507,999	463,247	-0,107	0,173
-506,985	-99,778	0,087	-0,015
-505,970	800,000	0,052	-0,109
-504,956	125,353	0,012	0,011
-503,941	800,000	0,038	-0,082
-502,926	-97,995	-0,084	0,015
-501,912	11,873	0,142	0,078
-500,897	-200,000	-0,022	-0,139
-499,883	800,000	-0,066	0,133
-498,868	-53,770	-0,090	-0,029
-497,853	-200,000	-0,005	-0,105
-496,839	-200,000	0,019	0,139
-495,824	271,573	0,017	-0,022
-494,810	-71,767	0,110	-0,029
-493,795	244,011	-0,069	0,083
-492,781	50,089	0,039	-0,026
-491,766	64,122	-0,017	0,012
-490,751	4,098	-0,053	-0,028
-489,737	-200,000	-0,006	0,051
-488,722	280,180	0,027	-0,035
-487,708	247,967	0,050	-0,061
-486,693	-81,743	0,101	-0,024
-485,678	800,000	-0,038	0,119
-484,664	286,659	-0,053	-0,068
-483,649	123,176	-0,030	0,027
-482,635	188,395	0,049	0,053
-481,620	263,345	-0,031	0,038
-480,605	81,075	-0,079	0,061
-479,591	283,836	0,009	0,012
-478,576	-79,522	0,056	0,014
-477,562	89,135	-0,113	-0,091
-476,547	308,009	0,039	0,053
-475,532	800,000	-0,008	0,025
-474,518	-125,044	0,102	-0,011
-473,503	800,000	-0,038	0,120
-472,489	-116,293	-0,071	-0,009
-471,474	117,204	-0,023	-0,020
-470,459	-200,000	-0,001	-0,008
-469,445	-5,419	0,055	-0,027
-468,430	800,000	0,002	-0,006
-467,416	347,909	0,119	0,168
-466,401	-200,000	-0,001	-0,003
-465,386	-200,000	0,022	0,096
-464,372	-200,000	-0,007	0,074
-463,357	-200,000	0,029	0,098
-462,343	31,847	-0,071	-0,044
-461,328	58,078	-0,004	0,002
-460,313	800,000	0,036	0,100
-459,299	159,280	0,090	0,090
-458,284	-200,000	0,014	-0,048
-457,270	12,646	-0,070	-0,038
-456,255	283,501	0,024	-0,031
-455,241	-52,049	-0,146	-0,048
-454,226	162,481	-0,059	-0,060
-453,211	-200,000	0,005	0,094
-452,197	59,464	0,116	-0,082
-451,182	-37,550	0,099	-0,038
-450,168	186,524	-0,036	-0,038
-449,153	-98,242	-0,039	0,007
-448,138	609,852	0,014	0,025
-447,124	47,191	-0,053	-0,035
-446,109	-39,912	0,065	0,024
-445,095	-200,000	-0,033	-0,177
-444,080	800,000	0,082	0,213
-443,065	-200,000	-0,003	0,197
-442,051	106,490	-0,025	0,021
-441,036	127,539	0,078	-0,071
-440,022	-156,701	0,042	-0,002
-439,007	-200,000	0,010	-0,116
-437,992	37,776	0,151	-0,096
-436,978	42,698	-0,025	0,016
-435,963	183,678	0,096	0,102
-434,949	-13,824	-0,087	-0,040
-433,934	-137,628	-0,050	-0,004
-432,919	38,454	-0,030	0,019
-431,905	222,012	0,025	-0,029
-430,890	679,105	0,017	-0,033
-429,876	281,289	0,102	0,131
-428,861	-96,352	-0,126	0,024
-427,846	-94,450	-0,012	-0,002
-426,832	800,000	-0,043	-0,100
-425,817	18,219	0,075	-0,043
-424,803	-31,310	-0,124	0,050
-423,788	301,710	0,059	0,078
-422,773	728,296	-0,058	0,112
-421,759	-150,689	-0,177	-0,009
-420,744	-200,000	-0,039	0,133
-419,730	183,676	-0,055	-0,058
-418,715	800,000	-0,066	-0,143
-417,701	28,887	0,093	-0,056
-416,686	111,816	0,026	0,022
-415,671	800,000	-0,021	-0,056
-414,657	695,997	-0,054	-0,102
-413,642	430,832	-0,049	0,076
-412,628	373,210	-0,015	-0,022
-411,613	567,604	-0,020	0,035
-410,598	61,017	0,150	0,106
-409,584	800,000	0,033	0,093
-408,569	-42,350	0,125	-0,045
-407,555	800,000	-0,004	0,010
-406,540	-6,085	-0,094	-0,046
-405,525	-200,000	-0,039	-0,164
-404,511	96,333	-0,122	-0,100
-403,496	140,881	-0,110	-0,104
-402,482	-200,000	0,023	-0,249
-401,467	92,711	0,039	-0,031
-400,452	191,124	0,107	0,116
-399,438	-200,000	0,023	0,086
-398,423	796,094	-0,020	-0,039
-397,409	4,263	-0,033	-0,017
-396,394	425,569	-0,053	-0,082
-395,379	-200,000	-0,026	-0,105
-394,365	-148,128	0,046	-0,003
-393,350	-200,000	0,026	0,177
-392,336	800,000	0,036	0,080
-391,321	120,714	-0,099	0,088
-390,306	30,454	-0,084	0,052
-389,292	25,584	-0,040	0,024
-388,277	-48,714	-0,036	0,012
-387,263	-42,979	0,119	0,043
-386,248	764,695	-0,035	-0,068
-385,233	-200,000	0,006	-0,036
-384,219	-200,000	-0,003	-0,061
-383,204	180,749	-0,029	0,031
-382,190	-150,996	0,043	-0,002
-381,175	-175,803	-0,012	0,000
-380,160	234,135	0,040	0,047
-379,146	38,743	0,147	0,093
-378,131	-200,000	-0,018	-0,113
-377,117	157,588	-0,062	-0,061
-376,102	-63,789	-0,189	-0,055
-375,088	770,475	-0,028	0,055
-374,073	800,000	-0,016	-0,034
-373,058	-200,000	0,012	0,138
-372,044	103,667	0,057	0,048
-371,029	45,096	0,107	-0,070
-370,015	-140,431	-0,141	0,010
-369,000	-108,709	-0,039	-0,006
-367,985	-200,000	0,000	0,014
-366,971	-177,336	-0,151	0,003
-365,956	-49,758	0,119	0,040
-364,942	-102,796	0,098	0,017
-363,927	-59,114	0,185	-0,057
-362,912	800,000	-0,028	0,080
-361,898	-200,000	0,004	0,053
-360,883	800,000	0,039	-0,092
-359,869	772,015	-0,024	0,047
-358,854	451,767	0,078	0,124
-357,839	415,855	-0,032	0,048
-356,825	-200,000	0,121	-0,000
-355,810	530,460	-0,025	-0,042
-354,796	220,735	-0,087	0,100
-353,781	490,194	-0,082	-0,135
-352,766	-200,000	-0,016	-0,162
-351,752	76,394	0,058	-0,044
-350,737	78,558	0,166	0,127
-349,723	201,227	-0,119	0,131
-348,708	-5,399	-0,058	0,028
-347,693	667,149	0,053	-0,098
-346,679	-124,730	0,046	-0,005
-345,664	-200,000	0,003	0,124
-344,650	42,483	0,131	0,085
-343,635	-78,680	0,049	0,012
-342,620	-200,000	0,027	0,133
-341,606	-200,000	0,006	0,167
-340,591	77,800	0,063	0,048
-339,577	623,832	-0,109	-0,198
-338,562	154,137	0,026	-0,026
-337,548	800,000	-0,018	-0,052
-336,533	530,292	-0,073	0,124
-335,518	-200,000	0,006	0,109
-334,504	-6,884	0,087	0,042
-333,489	-166,969	-0,045	-0,001
-332,475	495,890	0,019	0,032
-331,460	368,976	-0,092	-0,134
-330,445	426,807	-0,061	0,095
-329,431	36,136	0,066	0,042
-328,416	-116,351	0,128	0,017
-327,402	274,316	0,017	-0,021
-326,387	110,254	-0,074	-0,064
-325,372	-200,000	0,003	-0,096
-324,358	-121,890	0,135	0,016
-323,343	-200,000	0,012	-0,094
-322,329	800,000	-0,050	0,122
-321,314	124,810	-0,038	0,034
-320,299	-200,000	0,019	0,104
-319,285	-73,601	-0,061	-0,016
-318,270	-166,581	-0,144	-0,004
-317,256	800,000	0,006	-0,014
-316,241	89,201	-0,109	-0,087
-315,226	-200,000	-0,024	-0,140
-314,212	357,661	-0,122	0,173
-313,197	97,778	-0,068	-0,055
-312,183	75,669	0,071	-0,053
-311,168	-200,000	-0,018	0,114
-310,153	3,057	-0,178	0,092
-309,139	475,358	0,031	-0,050
-308,124	800,000	-0,028	-0,062
-307,110	800,000	0,082	0,167
-306,095	-3,442	-0,040	0,020
-305,080	-200,000	-0,004	0,113
-304,066	-200,000	0,022	-0,140
-303,051	-46,184	-0,030	0,011
-302,037	66,375	0,152	-0,110
-301,022	-59,072	0,118	0,036
-300,008	-200,000	-0,003	-0,045
-298,993	115,117	-0,070	0,061
-297,978	76,661	0,044	0,034
-296,964	268,486	-0,002	0,003
-295,949	-200,000	0,018	0,066
-294,935	-101,778	0,012	-0,002
-293,920	40,803	-0,152	0,097
-292,905	157,067	0,018	0,017
-291,891	800,000	0,017	-0,043
-290,876	-200,000	-0,012	-0,067
-289,862	-127,212	0,126	-0,013
-288,847	-68,834	0,023	-0,006
-287,832	-169,897	-0,142	-0,004
-286,818	-200,000	-0,021	0,069
-285,803	-200,000	-0,008	-0,070
-284,789	792,992	-0,055	-0,108
-283,774	-59,665	-0,075	-0,023
-282,759	152,148	0,064	-0,062
-281,745	-152,867	-0,122	0,006
-280,730	90,823	0,032	-0,025
-279,716	116,743	-0,033	-0,029
-278,701	-43,177	0,111	0,040
-277,686	101,477	0,110	0,091
-276,672	-56,074	-0,150	-0,047
-275,657	-7,567	0,096	0,046
-274,643	800,000	0,012	-0,026
-273,628	647,028	0,043	-0,079
-272,613	6,223	0,097	0,051
-271,599	-39,333	-0,110	-0,041
-270,584	-200,000	0,000	-0,039
-269,570	800,000	-0,025	-0,053
-268,555	374,826	0,046	-0,068
-267,540	-200,000	-0,014	-0,132
-266,526	-200,000	0,002	-0,090
-265,511	-87,612	-0,124	0,026
-264,497	13,667	-0,046	0,026
-263,482	257,407	-0,035	-0,043
-262,467	23,424	-0,079	-0,046
-261,453	39,081	0,069	-0,044
-260,438	800,000	0,021	0,054
-259,424	95,974	-0,110	-0,089
-258,409	-27,376	-0,096	0,040
-257,395	-200,000	0,028	-0,117
-256,380	245,103	-0,104	0,125
-255,365	671,054	0,087	0,161
-254,351	-70,321	0,053	0,014
-253,336	-71,693	0,039	-0,010
-252,322	-45,703	0,093	0,032
-251,307	-144,490	0,018	0,001
-250,292	800,000	0,040	-0,110
-249,278	29,220	0,032	0,019
-248,263	-120,004	0,128	0,015
-247,249	333,271	-0,118	0,163
-246,234	36,207	0,143	-0,090
-245,219	106,480	0,052	-0,044
-244,205	170,551	-0,013	-0,013
-243,190	632,934	0,051	0,092
-242,176	507,901	0,028	-0,046
-241,161	-157,889	-0,065	-0,003
-240,146	66,182	0,111	0,080
-239,132	-72,824	-0,138	-0,036
-238,117	-200,000	0,002	0,027
-237,103	81,130	-0,078	-0,060
-236,088	107,534	-0,085	-0,072
-235,073	191,412	0,041	0,044
-234,059	-25,922	-0,123	0,051
-233,044	-20,085	0,097	-0,042
-232,030	-92,308	-0,057	-0,011
-231,015	186,568	-0,066	-0,070
-230,000	-200,000	-0,011	-0,070
-228,986	89,442	0,069	-0,054
-227,971	170,188	0,088	0,090
-226,957	11,473	0,140	-0,076
-225,942	-102,443	-0,022	-0,004
-224,927	26,248	-0,113	-0,067
-223,913	-10,031	0,081	-0,038
-222,898	98,347	-0,024	0,020
-221,884	-99,828	0,082	-0,014
-220,869	800,000	-0,055	0,158
-219,855	91,195	0,102	0,081
-218,840	-82,925	0,056	-0,013
-217,825	-200,000	-0,012	-0,055
-216,811	237,770	-0,100	0,118
-215,796	459,163	0,044	-0,069
-214,782	-102,018	-0,114	-0,019
-213,767	165,344	0,039	0,039
-212,752	-200,000	0,040	0,148
-211,738	-147,822	-0,081	0,005
-210,723	399,795	-0,056	0,084
-209,709	387,434	0,036	0,053
-208,694	306,145	-0,047	-0,062
-207,679	-104,988	0,062	-0,010
-206,665	-138,003	-0,088	-0,007
-205,650	368,474	0,114	0,164
-204,636	-200,000	0,010	0,169
-203,621	800,000	0,007	-0,018
-202,606	90,455	-0,016	-0,013
-201,592	38,920	-0,058	-0,037
-200,577	-97,153	-0,163	-0,030
-199,563	-149,030	0,096	-0,005
-198,548	-200,000	0,008	0,047
-197,533	36,234	-0,022	0,014
-196,519	257,722	0,040	-0,049
-195,504	73,660	0,062	-0,046
-194,490	-110,406	-0,053	0,008
-193,475	-188,832	-0,115	0,001
-192,460	457,200	0,039	-0,062
-191,446	-200,000	0,017	0,099
-190,431	-182,295	-0,033	-0,000
-189,417	800,000	-0,031	0,091
-188,402	-200,000	-0,007	-0,093
-187,387	39,737	-0,101	-0,064
-186,373	27,271	-0,101	-0,060
-185,358	800,000	-0,050	0,151
-184,344	-200,000	0,008	0,110
-183,329	-148,521	0,096	0,006
-182,315	800,000	-0,054	0,147
-181,300	53,936	-0,112	0,076
-180,285	303,754	0,024	0,032
-179,271	-200,000	-0,051	-0,243
-178,256	-116,793	0,147	-0,019
-177,242	-54,472	0,165	0,053
-176,227	132,769	0,078	0,071
-175,212	36,526	-0,082	0,051
-174,198	-200,000	0,032	-0,159
-173,183	-173,840	-0,079	-0,002
-172,169	-200,000	0,026	-0,125
-171,154	288,958	-0,062	-0,080
-170,139	284,907	0,089	0,114
-169,125	545,124	0,043	0,074
-168,110	71,988	0,099	0,073
-167,096	28,944	-0,033	-0,020
-166,081	-138,530	-0,068	0,005
-165,066	161,360	0,133	-0,132
-164,052	-200,000	-0,001	-0,011
-163,037	-200,000	0,005	0,131
-162,023	-83,628	0,173	-0,039
-161,008	-125,197	-0,105	0,011
-159,993	-200,000	-0,012	0,083
-158,979	23,716	-0,130	-0,076
-157,964	-65,487	0,071	-0,020
-156,950	800,000	-0,041	-0,112
-155,935	-200,000	-0,010	-0,085
-154,920	800,000	0,056	-0,150
-153,906	224,239	-0,078	-0,090
-152,891	483,426	-0,045	0,072
-151,877	1,377	-0,151	0,077
-150,862	-86,563	-0,110	-0,024
-149,847	111,668	0,003	-0,002
-148,833	283,472	-0,008	-0,010
-147,818	297,918	0,090	0,118
-146,804	-30,620	0,057	-0,023
-145,789	-90,050	0,080	-0,016
-144,775	97,916	-0,082	-0,066
-143,760	366,262	-0,091	-0,130
-142,745	703,795	0,035	-0,067
-141,731	101,380	-0,141	-0,116
-140,716	286,596	0,111	0,143
-139,702	-200,000	0,014	0,055
-138,687	24,561	0,061	0,036
-137,672	90,844	-0,058	-0,046
-136,658	101,554	0,038	-0,032
-135,643	-200,000	-0,014	0,046
-134,629	-144,755	0,086	-0,006
-133,614	340,489	-0,017	0,024
-132,599	78,933	-0,049	0,037
-131,585	32,239	0,058	-0,035
-130,570	-141,519	0,172	-0,012
-129,556	-8,440	-0,146	-0,069
-128,541	800,000	0,035	-0,101
-127,526	260,666	-0,045	0,055
-126,512	78,532	0,085	0,064
-125,497	-200,000	-0,013	0,082
-124,483	-87,541	0,171	0,036
-123,468	-65,805	-0,101	0,028
-122,453	-81,979	-0,014	-0,003
-121,439	277,050	-0,104	-0,132
-120,424	-200,000	0,005	0,108
-119,410	-200,000	-0,013	0,082
-118,395	-166,373	0,174	0,005
-117,380	-200,000	0,021	0,141
-116,366	-70,815	0,053	-0,014
-115,351	800,000	-0,049	-0,104
-114,337	-72,042	-0,139	-0,036
-113,322	-200,000	0,000	-0,154
-112,307	221,233	0,041	0,047
-111,293	800,000	-0,021	-0,063
-110,278	-83,637	-0,056	-0,013
-109,264	342,722	-0,018	0,025
-108,249	162,521	0,020	-0,020
-107,234	92,910	-0,081	0,065
-106,220	-51,317	-0,272	-0,090
-105,205	-200,000	-0,005	-0,138
-104,191	222,467	-0,052	-0,060
-103,176	-16,568	-0,106	0,047
-102,162	-96,793	0,101	-0,019
-101,147	-59,712	-0,119	0,036
-100,132	22,235	0,105	-0,061
-99,118	-61,578	-0,123	-0,036
-98,103	-179,345	0,042	0,001
-97,089	172,664	0,047	0,048
-96,074	43,092	-0,116	0,075
-95,059	-111,575	-0,017	-0,002
-94,045	287,937	-0,062	-0,080
-93,030	55,535	0,112	-0,077
-92,016	-5,589	-0,167	0,081
-91,001	59,763	0,080	-0,056
-89,986	241,640	0,038	0,045
-88,972	-200,000	-0,010	0,086
-87,957	800,000	0,035	-0,098
-86,943	81,009	0,056	0,043
-85,928	66,408	0,070	-0,050
-84,913	-200,000	0,045	-0,162
-83,899	-134,876	0,096	0,008
-82,884	-106,073	0,131	-0,021
-81,870	800,000	0,056	0,120
-80,855	-29,248	0,034	0,014
-79,840	16,707	-0,092	-0,051
-78,826	172,853	0,041	-0,041
-77,811	381,341	-0,028	-0,041
-76,797	-8,133	0,051	-0,024
-75,782	-92,404	0,091	-0,018
-74,767	-2,108	0,107	0,053
-73,753	-200,000	0,003	-0,043
-72,738	-106,823	0,055	0,009
-71,724	141,028	0,080	-0,075
-70,709	-162,849	-0,067	0,002
-69,694	-122,671	-0,111	0,013
-68,680	-114,975	0,028	-0,004
-67,665	117,369	0,041	0,035
-66,651	-140,064	0,166	-0,012
-65,636	-200,000	-0,014	-0,086
-64,622	-27,276	-0,100	0,041
-63,607	800,000	0,033	-0,097
-62,592	349,087	-0,064	-0,090
-61,578	-161,586	-0,137	-0,005
-60,563	-13,398	0,067	-0,030
-59,549	451,949	0,054	-0,084
-58,534	38,036	-1,978	-1,240
-57,519	424,743	-1,331	-2,029
-56,505	-200,000	-0,284	-4,191
-55,490	539,705	0,859	1,450
-54,476	800,000	5,033	11,105
-53,461	-200,000	20,998	329,895
-52,446	800,000	757,632	2323,694
-51,432	549,437	1662,621	2824,802
-50,417	73,405	1664,054	1228,353
-49,403	18,742	1537,150	866,368
-48,388	12,747	1459,993	793,867
-47,373	19,066	1450,959	819,276
-46,359	15,878	1440,290	798,043
-45,344	10,959	1436,133	772,266
-44,330	10,940	1434,236	771,122
-43,315	10,903	1432,421	769,939
-42,300	10,902	1430,652	768,954
-41,286	10,983	1429,070	768,460
-40,271	10,921	1427,982	767,549
-39,257	10,875	1427,134	766,845
-38,242	10,960	1425,634	766,408
-37,227	10,936	1424,816	765,828
-36,213	10,973	1423,458	765,240
-35,198	10,932	1422,206	764,346
-34,184	10,997	1421,408	764,191
-33,169	10,930	1420,039	763,109
-32,154	10,995	1419,036	762,845
-31,140	10,975	1417,915	762,118
-30,125	11,052	1416,665	761,782
-29,111	11,001	1415,472	760,866
-28,096	10,987	1414,464	760,229
-27,082	10,980	1412,977	759,367
-26,067	10,924	1411,979	758,538
-25,052	10,888	1411,262	757,954
-24,038	10,962	1410,028	757,611
-23,023	10,876	1409,444	756,864
-22,009	10,904	1408,135	756,260
-20,994	10,895	1406,950	755,553
-19,979	10,934	1406,168	755,286
-18,965	10,848	1405,301	754,389
-17,950	10,823	1404,483	753,803
-16,936	10,815	1403,647	753,285
-15,921	10,829	1402,471	752,691
-14,906	10,782	1401,795	752,079
-13,892	10,864	1400,632	751,808
-12,877	10,818	1399,760	751,096
-11,863	10,789	1399,173	750,614
-10,848	10,783	1398,204	750,036
-9,833	10,788	1397,077	749,426
-8,819	10,730	1396,459	748,794
-7,804	10,681	1395,556	748,056
-6,790	10,696	1394,494	747,527
-5,775	10,783	1393,346	747,280
-4,760	10,726	1392,412	746,489
-3,746	10,709	1391,656	745,975
-2,731	10,740	1390,713	745,584
-1,717	10,660	1390,037	744,824
-0,702	10,681	1388,106	743,855
0,313	14,805	1301,470	716,299
1,327	31,174	692,750	418,499
2,342	48,830	120,126	79,392
3,356	2,272	16,465	8,373
4,371	8,984	3,446	1,829
5,386	46,894	0,803	0,526
6,400	-200,000	0,058	0,539
7,415	-91,147	-0,280	-0,056
8,429	229,330	-0,223	-0,258
9,444	67,271	-0,395	-0,284
10,459	621,036	-0,148	-0,264
11,473	189,080	-0,232	-0,245
12,488	-32,288	-0,261	-0,102
13,502	-49,901	-0,264	-0,088
14,517	-88,704	-0,354	-0,074
15,531	15,292	-0,310	-0,171
16,546	-3,925	-0,306	-0,149
17,561	11,057	-0,411	-0,221
18,575	87,151	-0,171	-0,133
19,590	14,240	-0,295	-0,161
20,604	-38,061	-0,248	-0,092
21,619	26,142	-0,430	-0,252
22,634	11,563	-0,531	-0,286
23,648	8,237	-0,534	-0,282
24,663	5,026	-0,510	-0,264
25,677	-19,214	-0,331	-0,144
26,692	152,883	-0,245	-0,236
27,707	-25,651	-0,332	-0,137
28,721	30,435	-0,326	-0,196
29,736	32,679	-0,449	-0,273
30,750	25,774	-0,464	-0,271
31,765	3,718	-0,530	-0,272
32,780	-68,539	-0,382	-0,103
33,794	57,160	-0,318	-0,218
34,809	5,382	-0,388	-0,201
35,823	92,562	-0,383	-0,304
36,838	92,357	-0,318	-0,252
37,853	447,991	-0,242	-0,376
38,867	91,122	-0,387	-0,305
39,882	50,334	-0,312	-0,207
40,896	81,051	-0,322	-0,244
41,911	28,481	-0,345	-0,205
42,926	470,728	-0,162	-0,257
43,940	34,557	-0,324	-0,199
44,955	800,000	-0,162	-0,388
45,969	214,806	-0,314	-0,351
46,984	472,516	-0,256	-0,406
47,999	108,238	-0,307	-0,257
49,013	-11,894	-0,346	-0,159
50,028	2,845	-0,340	-0,173
51,042	57,041	-0,337	-0,231
52,057	-9,228	-0,397	-0,186
53,071	30,671	-0,369	-0,221
54,086	208,786	-0,331	-0,364
55,101	66,973	-0,363	-0,259
56,115	14,409	-0,372	-0,203
57,130	113,920	-0,424	-0,362
58,144	145,770	-0,360	-0,339
59,159	61,489	-0,376	-0,262
60,174	231,418	-0,267	-0,308
61,188	136,657	-0,286	-0,262
62,203	35,971	-0,326	-0,201
63,217	-6,417	-0,320	-0,153
64,232	-105,452	-0,197	-0,031
65,247	-81,587	-0,367	-0,084
66,261	72,463	-0,336	-0,246
67,276	-2,440	-0,353	-0,173
68,290	101,189	-0,183	-0,149
69,305	189,723	-0,179	-0,188
70,320	28,324	-0,344	-0,203
71,334	-18,443	-0,329	-0,144
72,349	259,811	-0,257	-0,312
73,363	238,803	-0,160	-0,187
74,378	-69,759	-0,268	-0,071
75,393	73,448	-0,297	-0,218
76,407	55,960	-0,349	-0,237
77,422	84,247	-0,279	-0,214
78,436	41,208	-0,180	-0,114
79,451	73,027	-0,290	-0,212
80,466	75,712	-0,256	-0,190
81,480	102,973	-0,352	-0,289
82,495	-85,815	-0,322	-0,069
83,509	38,307	-0,258	-0,160
84,524	-46,564	-0,234	-0,080
85,539	-77,186	-0,391	-0,095
86,553	-4,397	-0,342	-0,165
87,568	182,125	-0,261	-0,269
88,582	101,920	-0,197	-0,161
89,597	-35,656	-0,443	-0,167
90,611	18,355	-0,347	-0,193
91,626	-48,709	-0,295	-0,098
92,641	-102,299	-0,260	0,043
93,655	299,279	-0,270	-0,348
94,670	122,601	-0,344	-0,301
95,684	8,959	-0,303	-0,159
96,699	228,349	-0,248	-0,283
97,714	47,699	-0,392	-0,256
98,728	157,185	-0,224	-0,217
99,743	16,769	-0,276	-0,152
100,757	-22,409	-0,273	-0,115
101,772	174,636	-0,299	-0,303
102,787	14,942	-0,378	-0,206
103,801	125,361	-0,214	-0,189
104,816	102,335	-0,233	-0,190
105,830	73,608	-0,226	-0,165
106,845	226,026	-0,247	-0,281
107,860	1,094	-0,345	-0,172
108,874	11,390	-0,245	-0,131
109,889	-86,803	-0,436	-0,092
110,903	-115,650	-0,257	-0,033
111,918	46,345	-0,160	-0,103
112,933	53,240	-0,235	-0,157
113,947	223,036	-0,149	-0,168
114,962	71,289	-0,283	-0,205
115,976	170,196	-0,208	-0,208
116,991	94,531	-0,290	-0,230
118,006	-21,815	-0,298	-0,126
119,020	-33,272	-0,372	-0,143
120,035	210,644	-0,267	-0,294
121,049	789,240	-0,121	-0,233
122,064	166,820	-0,230	-0,228
123,079	161,411	-0,252	-0,246
124,093	73,750	-0,333	-0,243
125,108	169,785	-0,229	-0,229
126,122	-34,184	-0,309	-0,118
127,137	520,338	-0,147	-0,242
128,151	31,192	-0,262	-0,156
129,166	-115,681	-0,239	0,031
130,181	-10,949	-0,189	-0,087
131,195	54,872	-0,214	-0,144
132,210	143,956	-0,285	-0,266
133,224	365,191	-0,176	-0,248
134,239	-58,754	-0,233	-0,070
135,254	-16,584	-0,201	-0,088
136,268	-39,626	-0,299	-0,108
137,283	321,770	-0,186	-0,248
138,297	36,822	-0,249	-0,153
139,312	143,212	-0,268	-0,249
140,327	-98,929	-0,316	-0,055
141,341	-55,294	-0,262	-0,082
142,356	22,507	-0,265	-0,151
143,370	-20,771	-0,370	-0,158
144,385	149,260	-0,307	-0,289
145,400	9,943	-0,257	-0,135
146,414	19,052	-0,253	-0,141
147,429	132,115	-0,260	-0,233
148,443	299,241	-0,241	-0,309
149,458	388,200	-0,129	-0,186
150,473	227,387	-0,238	-0,270
151,487	-50,856	-0,300	-0,098
152,502	375,071	-0,181	-0,257
153,516	125,853	-0,228	-0,201
154,531	63,172	-0,372	-0,259
155,546	251,690	-0,158	-0,187
156,560	-151,101	-0,199	-0,010
157,575	-137,630	-0,183	-0,014
158,589	-129,805	-0,292	-0,028
159,604	107,396	-0,326	-0,270
160,619	71,707	-0,317	-0,229
161,633	122,023	-0,159	-0,138
162,648	95,285	-0,296	-0,234
163,662	-115,476	-0,264	-0,034
164,677	129,287	-0,179	-0,159
165,692	50,595	-0,277	-0,182
166,706	-29,197	-0,250	-0,099
167,721	183,729	-0,174	-0,179
168,735	230,803	-0,202	-0,230
169,750	133,989	-0,223	-0,201
170,764	20,458	-0,291	-0,163
171,779	194,217	-0,069	-0,073
172,794	-155,891	-0,184	0,008
173,808	167,477	-0,154	-0,152
174,823	250,432	-0,181	-0,215
175,837	145,660	-0,291	-0,271
176,852	154,374	-0,313	-0,298
177,867	478,735	-0,104	-0,164
178,881	-200,000	-0,035	-0,118
179,896	252,334	-0,167	-0,198
180,910	14,004	-0,243	-0,131
181,925	97,349	-0,201	-0,160
182,940	160,822	-0,257	-0,250
183,954	152,122	-0,225	-0,213
184,969	-113,024	-0,230	0,031
185,983	203,399	-0,150	-0,161
186,998	89,020	-0,213	-0,164
188,013	202,660	-0,143	-0,153
189,027	247,181	-0,151	-0,177
190,042	21,576	-0,254	-0,143
191,056	244,225	-0,210	-0,245
192,071	-1,180	-0,245	-0,120
193,086	54,457	-0,248	-0,165
194,100	23,698	-0,171	-0,097
195,115	314,157	-0,163	-0,214
196,129	531,935	-0,164	-0,270
197,144	154,960	-0,218	-0,208
198,159	127,783	-0,170	-0,150
199,173	-127,514	-0,214	-0,021
200,188	-42,667	-0,236	-0,083
201,202	4,965	-0,158	-0,080
202,217	-57,872	-0,212	-0,064
203,232	-35,699	-0,128	-0,048
204,246	97,966	-0,228	-0,182
205,261	105,347	-0,227	-0,186
206,275	-107,308	-0,211	-0,032
207,290	-25,118	-0,082	-0,034
208,304	353,648	-0,137	-0,189
209,319	126,744	-0,280	-0,246
210,334	179,076	-0,174	-0,177
211,348	103,539	-0,268	-0,218
212,363	-200,000	-0,045	-0,229
213,377	-20,671	-0,182	-0,077
214,392	-108,553	-0,205	-0,030
215,407	-34,789	-0,137	-0,052
216,421	800,000	-0,037	-0,083
217,436	47,175	-0,141	-0,091
218,450	15,877	-0,294	-0,160
219,465	212,843	-0,147	-0,161
220,480	461,511	-0,122	-0,189
221,494	800,000	-0,105	-0,311
222,509	25,681	-0,144	0,083
223,523	-68,055	-0,279	-0,075
224,538	169,508	-0,202	-0,200
225,553	42,638	-0,186	-0,117
226,567	382,353	-0,187	-0,267
227,582	95,556	-0,174	-0,137
228,596	2,999	-0,181	-0,091
229,611	18,019	-0,254	-0,140
230,626	-9,650	-0,187	-0,086
231,640	80,137	-0,286	-0,213
232,655	104,474	-0,287	-0,234
233,669	-40,038	-0,363	-0,130
234,684	99,993	-0,224	-0,179
235,699	104,067	-0,112	-0,091
236,713	80,189	-0,113	-0,084
237,728	541,950	-0,101	-0,167
238,742	-82,297	-0,282	-0,063
239,757	125,140	-0,177	-0,154
240,772	277,275	-0,133	-0,164
241,786	-38,678	-0,295	-0,107
242,801	87,518	-0,292	-0,223
243,815	-57,028	-0,185	-0,056
244,830	50,645	-0,059	-0,038
245,844	131,869	-0,243	-0,216
246,859	259,835	-0,145	-0,174
247,874	637,859	-0,206	-0,364
248,888	-66,829	-0,193	-0,052
249,903	81,736	-0,217	-0,162
250,917	-34,944	-0,154	-0,058
251,932	-46,958	-0,116	-0,039
252,947	-166,243	-0,125	-0,004
253,961	86,914	-0,128	-0,098
254,976	-167,718	-0,315	0,008
255,990	619,067	-0,127	-0,222
257,005	35,467	-0,258	-0,156
258,020	800,000	-0,100	-0,214
259,034	800,000	-0,081	-0,242
260,049	606,273	-0,127	-0,220
261,063	-28,436	-0,279	-0,111
262,078	96,932	-0,141	-0,111
263,093	84,593	-0,251	-0,189
264,107	96,331	-0,058	-0,046
265,122	800,000	-0,034	-0,075
266,136	-87,707	-0,066	-0,014
267,151	22,998	-0,272	-0,154
268,166	68,151	-0,172	-0,121
269,180	301,850	-0,094	-0,120
270,195	173,116	-0,139	-0,138
271,209	-6,231	-0,200	-0,094
272,224	74,054	-0,066	-0,048
273,239	566,022	0,064	-0,107
274,253	290,412	-0,149	-0,187
275,268	-69,570	-0,170	-0,044
276,282	132,198	-0,208	-0,185
277,297	131,537	-0,162	-0,144
278,312	112,928	-0,183	-0,153
279,326	-174,774	-0,193	-0,004
280,341	-200,000	-0,002	-0,136
281,355	-148,154	-0,229	-0,013
282,370	-25,610	-0,134	-0,054
283,384	-118,915	-0,162	0,019
284,399	588,119	-0,156	-0,265
285,414	91,023	-0,200	-0,154
286,428	-48,806	-0,081	0,027
287,443	525,460	-0,134	-0,217
288,457	152,190	-0,125	-0,117
289,472	-142,283	-0,145	0,010
290,487	457,000	-0,219	-0,336
291,501	300,881	-0,132	-0,168
292,516	723,447	-0,125	-0,230
293,530	-10,543	-0,186	-0,084
294,545	800,000	-0,102	-0,239
295,560	654,197	-0,067	-0,119
296,574	800,000	-0,093	-0,190
297,589	-67,745	-0,219	0,058
298,603	147,250	-0,127	-0,117
299,618	12,664	-0,236	-0,125
300,633	7,420	-0,151	0,077
301,647	-29,617	-0,200	-0,078
302,662	-200,000	0,015	-0,067
303,676	-55,190	-0,140	-0,043
304,691	87,804	-0,099	-0,075
305,706	-155,364	-0,163	-0,007
306,720	158,119	-0,140	-0,134
307,735	-16,586	-0,082	-0,036
308,749	395,423	-0,104	-0,149
309,764	-86,110	-0,165	0,035
310,779	141,765	-0,194	-0,177
311,793	-89,993	-0,159	0,032
312,808	-81,515	-0,166	-0,037
313,822	-131,491	-0,118	0,011
314,837	341,481	-0,141	-0,190
315,852	-165,485	-0,136	0,004
316,866	-149,929	-0,117	0,006
317,881	-51,945	-0,116	-0,037
318,895	-118,425	-0,126	-0,015
319,910	-117,921	-0,118	-0,014
320,925	318,318	-0,079	-0,102
321,939	286,183	-0,096	-0,119
322,954	260,740	-0,090	-0,107
323,968	118,563	-0,105	-0,089
324,983	16,451	-0,066	-0,035
325,997	-131,399	-0,110	0,010
327,012	-12,260	-0,198	-0,089
328,027	-15,568	-0,181	-0,079
329,041	108,672	-0,164	-0,135
330,056	49,478	-0,144	-0,093
331,070	232,737	-0,130	-0,146
332,085	683,814	-0,036	-0,065
333,100	800,000	-0,051	-0,134
334,114	376,981	-0,151	-0,212
335,129	68,944	-0,093	-0,066
336,143	-62,317	-0,102	-0,029
337,158	664,464	-0,112	-0,198
338,173	49,422	-0,137	-0,088
339,187	-59,430	-0,060	-0,017
340,202	743,102	-0,057	0,106
341,216	-51,559	-0,297	-0,094
342,231	-33,407	-0,071	-0,027
343,246	68,292	-0,193	-0,135
344,260	225,105	-0,093	-0,104
345,275	-13,111	-0,185	-0,082
346,289	177,424	-0,093	-0,093
347,304	105,672	-0,164	-0,133
348,319	47,532	-0,168	-0,107
349,333	800,000	-0,095	-0,197
350,348	-128,122	-0,184	-0,018
351,362	-200,000	-0,025	-0,107
352,377	238,273	-0,028	-0,032
353,392	76,224	-0,070	-0,051
354,406	273,781	-0,131	-0,158
355,421	205,635	1309,059	1393,580
356,435	158,115	1469,082	1394,077
