DTS Sentinel unit serial number:	SN410029Multiplexer serial number:	ORYXHardware model number:	OX2-SRSoftware version number:	ORYX F/W v4,00 Oryx Data Collector v3.7.2.0data status	okinstallation	B3 Nyhavnadifferential loss correction	single-endedforward channel	channel 1reverse channel	N/Adate	2023/11/29time	00:22:30forward acquisition time	300,00reverse acquisition time	0,00gamma	499,1914k internal	0,3212k external	0,3212temperature offset calibration	1,0000default loss term (dB/km)	0,3820temperature slope calibration	1,0000multiplexer offset coefficient	1,0000multiplexer slope coefficient	1,0000fibre end	0,00T internal ref (°C)	9,08T ext. ref 1 (°C)	-5,20T ext. ref 2 (°C)	-5,33length (m)	temperature (°C)	Stokes	anti-Stokes-744,400	144,259	-0,188	-0,182
-743,385	-200,000	-0,077	0,351
-742,371	113,137	-0,191	-0,168
-741,356	-200,000	-0,011	0,331
-740,342	86,498	-0,162	-0,130
-739,327	-200,000	-0,037	0,251
-738,312	408,451	-0,228	-0,351
-737,298	599,461	0,064	0,115
-736,283	366,519	-0,128	-0,187
-735,269	-200,000	0,070	0,303
-734,254	275,329	-0,184	-0,237
-733,239	-37,417	-0,249	0,096
-732,225	-200,000	-0,100	-0,367
-731,210	-200,000	0,043	0,169
-730,196	197,399	-0,026	0,028
-729,181	-200,000	0,020	0,121
-728,167	436,642	0,041	0,064
-727,152	800,000	0,043	-0,089
-726,137	585,334	-0,015	0,027
-725,123	30,786	-0,180	-0,111
-724,108	-200,000	-0,036	-0,197
-723,094	260,602	-0,097	-0,122
-722,079	-120,763	-0,157	0,019
-721,064	5,995	-0,132	-0,071
-720,050	-200,000	-0,004	0,038
-719,035	21,360	-0,071	0,042
-718,021	800,000	0,021	-0,054
-717,006	-106,536	-0,142	-0,023
-715,991	13,663	0,043	0,024
-714,977	800,000	-0,017	-0,043
-713,962	-19,048	0,061	0,027
-712,948	-56,854	-0,140	0,044
-711,933	61,999	0,034	0,025
-710,918	-200,000	0,001	0,036
-709,904	-137,790	-0,112	0,009
-708,889	800,000	-0,023	-0,072
-707,875	-200,000	0,011	-0,126
-706,860	-23,847	-0,149	0,064
-705,845	-200,000	0,006	-0,035
-704,831	-118,889	0,082	0,010
-703,816	800,000	0,025	-0,068
-702,802	800,000	-0,015	-0,040
-701,787	256,898	-0,058	-0,073
-700,772	-200,000	0,004	-0,029
-699,758	-134,751	-0,121	0,010
-698,743	114,789	0,035	0,031
-697,729	-200,000	-0,029	0,103
-696,714	93,330	-0,095	0,078
-695,699	394,811	0,026	0,040
-694,685	132,330	-0,082	-0,076
-693,670	188,761	-0,130	-0,141
-692,656	-75,296	0,090	0,023
-691,641	800,000	-0,035	-0,074
-690,627	-136,140	-0,030	0,002
-689,612	-38,394	0,148	0,056
-688,597	-105,416	0,205	0,033
-687,583	-172,838	-0,195	-0,004
-686,568	800,000	0,009	-0,019
-685,554	-149,769	-0,062	0,003
-684,539	-139,108	0,068	0,005
-683,524	-200,000	0,008	0,116
-682,510	-103,884	0,071	0,012
-681,495	-200,000	-0,008	0,051
-680,481	204,732	-0,022	0,024
-679,466	-103,401	-0,048	0,008
-678,451	-200,000	-0,006	-0,027
-677,437	15,005	-0,038	-0,021
-676,422	800,000	0,042	0,120
-675,408	-200,000	-0,012	0,055
-674,393	347,905	-0,050	-0,071
-673,378	74,639	0,115	-0,088
-672,364	23,804	-0,048	-0,029
-671,349	-27,295	-0,090	-0,038
-670,335	314,766	-0,074	-0,101
-669,320	-200,000	-0,005	0,048
-668,305	-200,000	0,009	-0,031
-667,291	-52,087	0,021	0,007
-666,276	-51,958	-0,120	0,040
-665,262	800,000	-0,040	-0,110
-664,247	230,735	0,026	-0,031
-663,232	-75,825	0,175	-0,044
-662,218	226,748	-0,097	-0,114
-661,203	493,991	0,059	0,098
-660,189	-161,587	0,036	-0,001
-659,174	233,574	-0,105	-0,125
-658,159	-200,000	0,014	-0,179
-657,145	232,498	-0,049	0,058
-656,130	-200,000	-0,015	0,062
-655,116	52,181	0,148	0,102
-654,101	-73,642	0,038	0,010
-653,086	6,509	0,060	0,032
-652,072	800,000	0,025	-0,065
-651,057	200,239	0,038	0,042
-650,043	-102,715	-0,118	0,020
-649,028	296,492	0,011	-0,014
-648,014	684,311	0,060	0,114
-646,999	-64,395	-0,048	0,014
-645,984	413,037	0,058	0,090
-644,970	-200,000	0,000	0,117
-643,955	-80,211	-0,160	-0,038
-642,941	167,059	0,061	-0,063
-641,926	-108,277	-0,117	0,018
-640,911	286,100	-0,033	-0,043
-639,897	63,366	0,067	0,048
-638,882	284,217	0,030	-0,039
-637,868	115,540	-0,018	0,016
-636,853	-200,000	0,009	-0,057
-635,838	5,131	0,038	0,020
-634,824	695,030	-0,021	0,041
-633,809	795,779	0,027	0,054
-632,795	-173,316	0,036	0,001
-631,780	800,000	0,049	0,111
-630,765	-200,000	-0,004	-0,191
-629,751	800,000	-0,041	-0,089
-628,736	249,352	-0,052	-0,063
-627,722	-161,553	-0,069	-0,003
-626,707	320,157	0,020	0,027
-625,692	100,229	0,083	0,070
-624,678	76,301	0,154	0,118
-623,663	97,441	0,044	-0,037
-622,649	184,028	0,026	0,028
-621,634	-77,356	-0,081	-0,020
-620,619	800,000	-0,050	-0,147
-619,605	429,661	-0,061	-0,095
-618,590	-200,000	-0,000	0,082
-617,576	123,445	-0,129	0,117
-616,561	-72,791	-0,055	0,015
-615,546	177,240	-0,116	-0,122
-614,532	227,689	-0,072	0,084
-613,517	-200,000	0,018	-0,100
-612,503	-102,426	-0,067	-0,012
-611,488	-200,000	-0,012	0,071
-610,474	777,717	0,110	0,217
-609,459	800,000	-0,048	-0,095
-608,444	-104,923	0,026	-0,004
-607,430	145,054	-0,148	-0,143
-606,415	275,511	0,088	-0,113
-605,401	84,570	-0,094	0,074
-604,386	-22,444	-0,105	-0,046
-603,371	-192,523	0,113	0,001
-602,357	800,000	0,035	0,108
-601,342	180,804	-0,035	0,037
-600,328	-138,488	-0,160	-0,013
-599,313	444,760	-0,051	-0,082
-598,298	175,233	0,020	-0,021
-597,284	-87,203	0,142	-0,031
-596,269	-200,000	0,032	0,118
-595,255	-200,000	0,009	0,054
-594,240	800,000	-0,073	-0,192
-593,225	45,099	-0,067	-0,044
-592,211	-200,000	-0,059	-0,210
-591,196	471,663	-0,041	-0,067
-590,182	-193,180	-0,142	0,001
-589,167	-200,000	-0,001	0,008
-588,152	3,285	0,105	-0,055
-587,138	-56,034	0,028	-0,009
-586,123	187,887	-0,130	-0,140
-585,109	-200,000	-0,034	-0,178
-584,094	-96,579	0,033	-0,006
-583,079	-200,000	0,028	0,099
-582,065	-82,313	0,038	-0,009
-581,050	800,000	0,033	-0,081
-580,036	677,040	-0,058	0,109
-579,021	56,473	-0,118	-0,082
-578,006	800,000	-0,037	-0,097
-576,992	50,060	0,033	-0,023
-575,977	15,810	0,017	0,010
-574,963	-166,275	0,137	0,004
-573,948	-200,000	-0,008	0,034
-572,934	47,877	-0,091	0,061
-571,919	-180,131	0,059	0,001
-570,904	-83,664	0,070	0,016
-569,890	-88,633	-0,089	0,019
-568,875	-200,000	-0,004	0,141
-567,861	727,940	0,010	0,019
-566,846	5,382	0,231	0,122
-565,831	800,000	0,017	0,034
-564,817	351,937	-0,071	-0,101
-563,802	368,536	0,061	0,089
-562,788	49,916	-0,081	-0,055
-561,773	-60,737	-0,124	0,037
-560,758	-130,718	0,022	-0,002
-559,744	-96,964	-0,093	-0,017
-558,729	-85,079	0,102	0,023
-557,715	-44,938	-0,062	0,022
-556,700	150,797	-0,046	-0,045
-555,685	-142,710	-0,091	0,006
-554,671	527,639	0,067	-0,114
-553,656	-149,152	-0,186	-0,011
-552,642	800,000	-0,036	0,090
-551,627	-200,000	-0,041	0,144
-550,612	-94,720	-0,088	0,017
-549,598	227,598	-0,025	-0,029
-548,583	-200,000	0,005	0,116
-547,569	145,259	0,047	0,046
-546,554	135,776	0,123	0,115
-545,539	800,000	0,015	0,044
-544,525	-24,773	-0,056	0,024
-543,510	337,135	-0,033	0,046
-542,496	-22,750	-0,092	-0,040
-541,481	-200,000	-0,012	0,087
-540,466	352,659	-0,115	0,164
-539,452	-110,370	0,137	-0,020
-538,437	528,734	0,031	0,053
-537,423	252,260	-0,076	0,093
-536,408	286,363	0,034	-0,044
-535,393	176,513	0,048	-0,050
-534,379	-200,000	-0,020	-0,129
-533,364	-200,000	-0,005	0,042
-532,350	38,002	0,101	0,064
-531,335	-200,000	0,021	0,143
-530,321	-200,000	-0,029	0,126
-529,306	-200,000	0,027	-0,109
-528,291	-100,291	-0,092	-0,016
-527,277	-200,000	0,049	-0,162
-526,262	-200,000	-0,001	-0,018
-525,248	-200,000	0,002	-0,033
-524,233	-13,425	-0,031	0,014
-523,218	19,643	-0,108	0,062
-522,204	-200,000	-0,013	-0,212
-521,189	53,921	-0,106	-0,073
-520,175	497,938	-0,064	0,105
-519,160	-55,100	0,054	0,017
-518,145	800,000	0,020	-0,058
-517,131	25,538	0,049	0,029
-516,116	-200,000	0,006	0,165
-515,102	-162,871	-0,047	-0,002
-514,087	-200,000	-0,022	-0,077
-513,072	-200,000	0,005	-0,060
-512,058	137,155	-0,043	-0,040
-511,043	-200,000	-0,001	0,071
-510,029	-142,959	0,083	0,006
-509,014	572,530	-0,106	-0,186
-507,999	30,918	0,103	-0,063
-506,985	-73,172	0,115	-0,030
-505,970	407,818	0,015	0,023
-504,956	-200,000	0,023	-0,166
-503,941	151,695	-0,007	0,007
-502,926	132,234	0,044	-0,041
-501,912	185,365	-0,064	0,068
-500,897	137,568	-0,091	0,086
-499,883	702,314	-0,113	0,215
-498,868	-54,299	-0,020	-0,006
-497,853	800,000	-0,034	-0,108
-496,839	-60,519	0,126	0,038
-495,824	-122,382	0,079	0,009
-494,810	684,214	0,021	0,040
-493,795	-200,000	0,029	0,120
-492,781	-200,000	-0,028	-0,152
-491,766	70,397	0,101	-0,075
-490,751	-2,171	0,084	-0,042
-489,737	-200,000	-0,029	-0,114
-488,722	505,802	0,052	0,087
-487,708	56,878	-0,079	0,055
-486,693	577,743	-0,105	0,184
-485,678	65,824	-0,057	-0,041
-484,664	-9,363	0,088	-0,042
-483,649	-31,243	0,016	0,006
-482,635	800,000	-0,014	0,037
-481,620	203,244	0,079	-0,088
-480,605	800,000	0,052	-0,109
-479,591	-200,000	0,025	0,105
-478,576	206,486	0,053	-0,060
-477,562	143,012	-0,038	-0,036
-476,547	32,974	0,077	-0,047
-475,532	-200,000	-0,007	0,031
-474,518	800,000	0,013	0,029
-473,503	8,293	-0,032	0,017
-472,489	-200,000	0,019	0,077
-471,474	-144,565	-0,039	0,003
-470,459	-43,912	-0,061	0,022
-469,445	191,356	0,020	0,022
-468,430	800,000	-0,081	0,178
-467,416	153,307	0,039	-0,039
-466,401	-200,000	0,016	0,103
-465,386	-200,000	-0,012	-0,176
-464,372	112,048	-0,049	-0,043
-463,357	59,793	0,066	-0,047
-462,343	-200,000	0,002	-0,059
-461,328	97,900	0,029	-0,024
-460,313	176,537	-0,088	-0,092
-459,299	268,813	0,019	-0,024
-458,284	-200,000	0,036	0,117
-457,270	61,047	0,116	0,082
-456,255	800,000	0,012	0,031
-455,241	-48,881	0,124	-0,042
-454,226	46,430	0,083	-0,055
-453,211	491,314	0,009	-0,015
-452,197	-162,531	0,103	0,004
-451,182	-101,766	-0,075	-0,013
-450,168	800,000	0,049	-0,149
-449,153	800,000	-0,030	-0,092
-448,138	-200,000	-0,029	0,110
-447,124	719,094	-0,084	0,160
-446,109	124,303	-0,029	-0,026
-445,095	800,000	0,033	0,076
-444,080	1,221	-0,047	-0,024
-443,065	24,005	0,093	0,055
-442,051	-200,000	0,012	-0,050
-441,036	18,238	-0,075	-0,043
-440,022	800,000	-0,031	0,091
-439,007	-58,132	-0,070	0,022
-437,992	-200,000	0,019	-0,084
-436,978	-59,711	0,090	-0,028
-435,963	-7,877	-0,042	0,020
-434,949	245,732	0,023	-0,027
-433,934	800,000	-0,079	-0,174
-432,919	111,179	-0,196	-0,169
-431,905	130,465	-0,058	0,054
-430,890	350,202	-0,072	0,102
-429,876	-115,729	0,108	0,014
-428,861	-1,308	-0,029	-0,014
-427,846	800,000	0,051	-0,109
-426,832	93,587	-0,108	-0,088
-425,817	79,137	0,046	0,035
-424,803	19,950	-0,015	-0,009
-423,788	800,000	-0,034	0,072
-422,773	242,079	0,146	0,175
-421,759	-11,659	0,071	-0,033
-420,744	78,089	-0,098	-0,075
-419,730	473,972	-0,027	-0,044
-418,715	-200,000	0,010	-0,087
-417,701	19,719	-0,040	0,023
-416,686	-45,830	0,055	-0,019
-415,671	800,000	-0,060	-0,141
-414,657	-113,263	0,088	0,012
-413,642	-200,000	0,001	0,014
-412,628	800,000	-0,058	0,156
-411,613	800,000	-0,040	-0,123
-410,598	429,564	0,075	-0,117
-409,584	-200,000	-0,042	0,166
-408,569	-200,000	0,018	0,060
-407,555	763,171	-0,053	0,104
-406,540	800,000	-0,042	0,126
-405,525	-95,056	0,064	-0,012
-404,511	800,000	-0,031	-0,064
-403,496	-89,715	0,076	0,016
-402,482	39,423	-0,099	0,063
-401,467	800,000	-0,065	0,135
-400,452	603,340	-0,034	0,061
-399,438	115,777	0,077	0,067
-398,423	-79,739	-0,181	-0,043
-397,409	402,041	-0,039	0,059
-396,394	-156,710	0,048	-0,002
-395,379	-200,000	-0,017	0,084
-394,365	54,484	0,068	0,047
-393,350	0,022	0,042	0,021
-392,336	499,156	0,085	0,140
-391,321	48,633	0,163	0,109
-390,306	800,000	-0,007	-0,015
-389,292	160,739	0,016	0,016
-388,277	432,036	0,011	-0,017
-387,263	42,346	-0,075	0,049
-386,248	-54,620	0,022	0,007
-385,233	-17,155	-0,073	0,033
-384,219	-12,457	-0,011	-0,005
-383,204	-200,000	-0,001	-0,148
-382,190	-200,000	0,006	0,032
-381,175	-134,265	-0,017	-0,001
-380,160	-125,183	0,081	0,009
-379,146	-60,017	0,068	-0,021
-378,131	-70,169	0,209	0,056
-377,117	-200,000	0,014	-0,062
-376,102	253,208	0,019	-0,023
-375,088	183,600	0,183	-0,194
-374,073	-200,000	-0,005	-0,176
-373,058	800,000	0,022	0,049
-372,044	-46,550	0,154	0,054
-371,029	-6,317	0,129	0,062
-370,015	281,466	-0,034	0,043
-369,000	-200,000	0,000	0,042
-367,985	800,000	0,007	0,016
-366,971	-98,956	-0,120	0,022
-365,956	-200,000	0,000	-0,024
-364,942	378,280	-0,046	-0,067
-363,927	-15,935	0,102	0,046
-362,912	132,423	-0,188	-0,173
-361,898	706,906	-0,068	-0,129
-360,883	800,000	-0,049	-0,147
-359,869	156,299	-0,062	-0,061
-358,854	25,349	-0,029	-0,017
-357,839	-200,000	-0,004	0,046
-356,825	-121,322	-0,052	0,006
-355,810	11,019	0,156	-0,085
-354,796	437,576	-0,016	0,025
-353,781	314,285	-0,055	0,074
-352,766	-39,220	0,068	0,025
-351,752	-200,000	0,100	0,000
-350,737	-200,000	-0,006	-0,069
-349,723	230,224	0,023	0,027
-348,708	-200,000	0,021	0,122
-347,693	-113,047	0,035	0,005
-346,679	-162,506	-0,190	-0,007
-345,664	-200,000	0,022	-0,142
-344,650	-200,000	0,012	-0,041
-343,635	-200,000	-0,000	-0,086
-342,620	-17,468	0,102	0,046
-341,606	-72,631	0,057	-0,015
-340,591	-200,000	0,010	0,069
-339,577	477,613	-0,028	0,045
-338,562	-145,620	-0,110	0,007
-337,548	26,488	0,055	0,033
-336,533	800,000	-0,016	0,034
-335,518	539,945	0,025	-0,042
-334,504	-98,176	0,075	-0,014
-333,489	576,656	-0,070	-0,123
-332,475	-200,000	-0,040	-0,133
-331,460	54,142	-0,027	-0,019
-330,445	-200,000	0,000	0,079
-329,431	105,035	0,079	0,066
-328,416	800,000	0,044	-0,124
-327,402	800,000	0,038	-0,107
-326,387	800,000	0,020	0,047
-325,372	339,861	0,072	-0,100
-324,358	-98,499	0,024	0,004
-323,343	455,498	0,014	0,022
-322,329	-200,000	-0,010	0,133
-321,314	60,567	-0,038	-0,027
-320,299	120,972	-0,108	0,095
-319,285	-200,000	0,067	-0,297
-318,270	21,934	0,132	-0,077
-317,256	-11,940	-0,146	-0,068
-316,241	800,000	-0,027	-0,075
-315,226	97,390	-0,082	0,067
-314,212	-73,713	-0,135	-0,035
-313,197	127,793	0,003	0,003
-312,183	-33,039	-0,037	-0,015
-311,168	-137,432	-0,163	-0,013
-310,153	-57,884	0,048	-0,015
-309,139	-54,920	-0,038	-0,012
-308,124	800,000	0,005	0,012
-307,110	-200,000	0,005	0,064
-306,095	-200,000	0,008	0,068
-305,080	188,220	-0,138	-0,148
-304,066	800,000	0,053	-0,131
-303,051	527,343	-0,084	-0,141
-302,037	-76,696	-0,140	-0,035
-301,022	0,655	0,033	0,017
-300,008	752,820	-0,039	0,076
-298,993	-66,931	0,228	-0,064
-297,978	-7,661	-0,004	0,002
-296,964	800,000	-0,015	0,030
-295,949	-107,271	-0,110	-0,017
-294,935	302,652	-0,053	-0,071
-293,920	363,727	-0,017	0,025
-292,905	800,000	-0,038	0,092
-291,891	-144,054	0,099	0,006
-290,876	370,690	0,028	0,040
-289,862	80,895	-0,065	-0,050
-288,847	-200,000	-0,006	0,050
-287,832	-200,000	-0,008	0,116
-286,818	-27,331	0,078	-0,032
-285,803	800,000	-0,035	-0,101
-284,789	800,000	-0,006	0,018
-283,774	-200,000	0,005	0,151
-282,759	-200,000	-0,005	0,081
-281,745	-121,318	-0,036	0,004
-280,730	-200,000	0,027	-0,169
-279,716	-200,000	-0,001	-0,064
-278,701	435,503	0,061	0,095
-277,686	-139,563	0,119	-0,009
-276,672	371,994	-0,076	0,110
-275,657	532,447	0,061	0,103
-274,643	754,007	-0,028	-0,054
-273,628	-200,000	-0,029	-0,105
-272,613	-42,989	-0,152	0,055
-271,599	107,871	0,137	0,116
-270,584	-12,483	0,097	0,045
-269,570	-139,458	0,128	-0,010
-268,555	-200,000	0,004	0,060
-267,540	4,342	-0,115	-0,060
-266,526	17,615	-0,061	0,034
-265,511	800,000	-0,012	-0,032
-264,497	192,490	0,018	-0,019
-263,482	800,000	0,042	0,112
-262,467	-146,040	0,149	-0,009
-261,453	62,888	-0,053	-0,038
-260,438	-200,000	0,020	-0,088
-259,424	-137,565	0,123	-0,010
-258,409	-38,556	-0,096	-0,036
-257,395	1,800	-0,083	-0,043
-256,380	4,342	0,094	0,049
-255,365	-108,178	0,112	0,017
-254,351	-200,000	-0,026	0,095
-253,336	-53,568	0,124	-0,040
-252,322	-147,650	-0,122	-0,007
-251,307	1,041	0,058	0,030
-250,292	-200,000	0,006	-0,058
-249,278	-200,000	0,009	0,161
-248,263	363,028	0,030	-0,043
-247,249	-98,088	-0,074	-0,013
-246,234	-157,030	0,071	-0,003
-245,219	87,766	-0,058	-0,045
-244,205	309,811	0,034	-0,046
-243,190	-85,977	0,023	0,005
-242,176	-82,197	0,113	0,026
-241,161	-60,309	0,109	0,033
-240,146	-136,320	0,098	0,008
-239,132	-200,000	-0,038	-0,139
-238,117	-200,000	0,003	-0,037
-237,103	97,742	-0,090	-0,074
-236,088	157,925	0,049	-0,048
-235,073	-200,000	0,012	-0,097
-234,059	-200,000	0,003	0,021
-233,044	-49,295	0,047	-0,016
-232,030	65,918	0,059	0,042
-231,015	582,075	0,076	0,133
-230,000	800,000	-0,043	-0,088
-228,986	-200,000	-0,012	0,084
-227,971	800,000	0,038	-0,087
-226,957	-68,959	0,123	0,033
-225,942	454,856	-0,120	0,189
-224,927	-200,000	0,016	0,060
-223,913	-131,948	0,087	0,008
-222,898	119,124	0,056	0,049
-221,884	100,423	0,052	-0,043
-220,869	58,413	-0,097	-0,067
-219,855	252,991	-0,102	0,124
-218,840	-42,287	-0,092	0,033
-217,825	-64,252	0,125	0,036
-216,811	-200,000	0,007	-0,068
-215,796	-200,000	0,012	-0,053
-214,782	461,322	0,086	-0,137
-213,767	-126,517	-0,084	-0,009
-212,752	-88,069	0,100	-0,021
-211,738	-24,296	-0,064	-0,027
-210,723	-125,210	0,050	0,005
-209,709	-58,301	0,107	-0,033
-208,694	800,000	-0,013	0,038
-207,679	-200,000	0,012	-0,181
-206,665	-96,796	0,041	-0,008
-205,650	-200,000	0,018	0,116
-204,636	-200,000	0,004	0,089
-203,621	-126,201	0,137	-0,014
-202,606	-200,000	-0,003	0,147
-201,592	75,951	-0,081	0,061
-200,577	800,000	-0,032	-0,087
-199,563	800,000	-0,024	0,052
-198,548	-97,483	0,131	0,024
-197,533	111,729	-0,100	-0,086
-196,519	112,395	-0,087	-0,075
-195,504	397,562	0,058	-0,087
-194,490	79,467	-0,071	-0,054
-193,475	-200,000	-0,002	-0,079
-192,460	-200,000	0,014	0,044
-191,446	-113,573	0,102	-0,014
-190,431	-27,322	0,052	-0,021
-189,417	-200,000	-0,012	0,098
-188,402	-200,000	0,019	-0,069
-187,387	-200,000	0,027	-0,171
-186,373	138,949	0,033	-0,031
-185,358	-97,255	-0,130	0,024
-184,344	705,045	0,043	0,080
-183,329	-200,000	-0,023	0,138
-182,315	15,121	0,033	-0,018
-181,300	800,000	0,041	0,083
-180,285	102,994	0,088	0,073
-179,271	567,649	-0,035	-0,060
-178,256	-87,396	-0,055	0,012
-177,242	-1,267	-0,115	-0,057
-176,227	-71,244	0,103	-0,027
-175,212	-200,000	0,014	0,070
-174,198	88,915	-0,083	0,066
-173,183	565,684	0,022	-0,038
-172,169	-16,763	0,109	-0,049
-171,154	3,882	-0,117	0,061
-170,139	212,189	0,080	0,089
-169,125	-136,859	-0,060	0,005
-168,110	86,311	0,113	-0,088
-167,096	-94,969	-0,046	-0,009
-166,081	-123,665	-0,090	0,010
-165,066	-78,580	-0,047	-0,011
-164,052	321,234	0,060	-0,081
-163,037	-200,000	-0,014	0,053
-162,023	-113,667	-0,095	-0,013
-161,008	-200,000	0,033	0,121
-159,993	18,688	-0,131	0,074
-158,979	-200,000	0,022	0,189
-157,964	62,711	-0,079	-0,056
-156,950	-38,847	0,105	0,039
-155,935	103,928	-0,125	0,104
-154,920	498,895	0,070	0,114
-153,906	64,535	0,112	0,080
-152,891	470,286	-0,101	0,161
-151,877	-200,000	0,000	-0,145
-150,862	73,968	-0,124	0,092
-149,847	800,000	0,035	-0,093
-148,833	-200,000	-0,010	0,094
-147,818	35,502	0,104	0,064
-146,804	-112,335	0,110	-0,015
-145,789	198,728	0,050	0,055
-144,775	800,000	-0,025	-0,056
-143,760	128,382	0,129	-0,116
-142,745	-13,917	-0,140	-0,064
-141,731	16,451	0,016	0,009
-140,716	207,958	0,064	0,071
-139,702	-200,000	0,000	0,078
-138,687	521,262	-0,066	0,110
-137,672	-200,000	0,008	-0,048
-136,658	385,768	-0,021	-0,031
-135,643	-200,000	0,022	-0,187
-134,629	33,737	0,125	0,077
-133,614	800,000	0,046	0,095
-132,599	800,000	-0,003	-0,008
-131,585	-127,033	-0,054	0,006
-130,570	75,055	-0,116	0,087
-129,556	83,480	-0,096	0,074
-128,541	-200,000	-0,003	-0,048
-127,526	43,518	0,118	-0,076
-126,512	-200,000	-0,022	0,078
-125,497	-108,767	-0,056	0,008
-124,483	-120,987	0,192	-0,023
-123,468	606,527	0,077	0,136
-122,453	266,347	0,119	0,148
-121,439	-200,000	-0,026	0,103
-120,424	-177,646	0,091	-0,002
-119,410	-41,487	0,049	-0,018
-118,395	500,327	-0,045	-0,073
-117,380	84,349	-0,064	-0,050
-116,366	78,582	-0,065	-0,049
-115,351	537,776	-0,081	-0,137
-114,337	-81,517	0,128	-0,029
-113,322	85,294	-0,056	-0,044
-112,307	-200,000	0,029	0,123
-111,293	104,453	0,065	-0,054
-110,278	350,588	-0,067	0,094
-109,264	800,000	0,038	-0,077
-108,249	86,781	0,058	-0,045
-107,234	-200,000	-0,040	-0,223
-106,220	209,324	0,042	-0,047
-105,205	-200,000	0,007	-0,107
-104,191	-200,000	0,008	0,056
-103,176	800,000	-0,018	-0,049
-102,162	-90,731	0,043	0,009
-101,147	-135,296	0,106	-0,009
-100,132	-200,000	-0,026	0,132
-99,118	28,204	-0,133	0,079
-98,103	164,993	0,123	-0,123
-97,089	11,473	0,143	0,077
-96,074	-200,000	-0,028	0,095
-95,059	800,000	0,077	0,152
-94,045	-200,000	0,036	0,123
-93,030	260,557	0,028	-0,034
-92,016	-200,000	-0,028	-0,213
-91,001	-11,572	0,108	-0,050
-89,986	94,110	-0,029	-0,024
-88,972	81,072	0,059	-0,045
-87,957	-158,854	0,142	-0,006
-86,943	-117,371	0,184	-0,023
-85,928	410,811	0,058	0,087
-84,913	-7,537	-0,100	-0,047
-83,899	9,450	0,110	-0,059
-82,884	-144,575	-0,065	-0,004
-81,870	800,000	0,062	0,147
-80,855	189,261	-0,095	0,101
-79,840	282,538	-0,038	-0,049
-78,826	-200,000	0,018	-0,094
-77,811	-200,000	0,007	0,060
-76,797	800,000	-0,088	-0,210
-75,782	219,822	0,091	-0,103
-74,767	100,717	0,056	0,046
-73,753	-55,377	0,081	0,025
-72,738	-50,218	0,024	-0,008
-71,724	-92,938	-0,085	-0,017
-70,709	7,857	-0,052	0,028
-69,694	91,120	-0,104	0,083
-68,680	22,801	0,112	-0,065
-67,665	95,187	0,059	0,048
-66,651	89,455	0,061	0,048
-65,636	-105,300	-0,119	-0,019
-64,622	282,074	0,031	-0,039
-63,607	75,532	0,017	-0,013
-62,592	800,000	-0,075	-0,190
-61,578	-48,080	0,086	-0,029
-60,563	800,000	-0,057	0,165
-59,549	-200,000	0,026	0,093
-58,534	28,163	-2,092	-1,244
-57,519	416,187	-1,277	-1,928
-56,505	-200,000	-0,321	-4,217
-55,490	569,831	0,971	1,672
-54,476	800,000	5,068	11,050
-53,461	-200,000	21,842	338,045
-52,446	800,000	760,349	2306,099
-51,432	536,445	1654,597	2781,834
-50,417	69,783	1651,647	1199,887
-49,403	16,758	1525,999	849,440
-48,388	10,885	1450,460	779,118
-47,373	19,034	1442,117	813,520
-46,359	14,276	1431,296	784,869
-45,344	9,215	1427,012	758,509
-44,330	9,148	1425,242	757,221
-43,315	9,113	1423,425	756,057
-42,300	9,115	1421,618	755,079
-41,286	9,185	1420,344	754,701
-40,271	9,153	1419,268	753,947
-39,257	9,121	1417,999	753,093
-38,242	9,172	1416,959	752,752
-37,227	9,169	1415,584	751,976
-36,213	9,133	1414,606	751,260
-35,198	9,175	1413,406	750,791
-34,184	9,207	1412,204	750,270
-33,169	9,103	1411,174	749,205
-32,154	9,162	1410,085	748,876
-31,140	9,147	1408,613	747,993
-30,125	9,273	1407,281	747,845
-29,111	9,188	1406,398	746,947
-28,096	9,184	1405,297	746,315
-27,082	9,136	1403,947	745,347
-26,067	9,074	1403,099	744,577
-25,052	9,089	1402,078	744,076
-24,038	9,141	1401,045	743,741
-23,023	9,158	1400,066	743,269
-22,009	9,109	1399,084	742,489
-20,994	9,124	1397,945	741,928
-19,979	9,085	1397,118	741,278
-18,965	9,103	1396,224	740,854
-17,950	9,085	1395,190	740,194
-16,936	9,082	1394,250	739,653
-15,921	8,999	1393,235	738,698
-14,906	9,028	1392,439	738,382
-13,892	9,072	1391,359	737,987
-12,877	9,024	1390,747	737,407
-11,863	8,994	1389,952	736,818
-10,848	9,032	1389,012	736,466
-9,833	8,957	1388,046	735,580
-8,819	8,932	1387,288	735,032
-7,804	8,910	1386,299	734,379
-6,790	8,927	1385,111	733,802
-5,775	8,910	1384,389	733,311
-4,760	8,942	1383,284	732,845
-3,746	8,940	1382,337	732,301
-2,731	8,995	1381,291	731,974
-1,717	8,982	1380,323	731,371
-0,702	8,920	1378,632	730,160
0,313	12,933	1290,812	701,893
1,327	28,827	683,136	407,158
2,342	45,049	117,758	76,350
3,356	-2,268	16,561	8,163
4,371	0,351	3,621	1,817
5,386	13,309	1,253	0,683
6,400	264,471	0,303	0,372
7,415	-57,411	-0,342	-0,105
8,429	252,654	-0,193	-0,232
9,444	15,013	-0,283	-0,156
10,459	-62,565	-0,212	-0,062
11,473	-141,615	-0,479	-0,033
12,488	-109,973	-0,284	-0,041
13,502	-24,158	-0,342	-0,143
14,517	-36,651	-0,338	-0,127
15,531	127,959	-0,345	-0,309
16,546	100,691	-0,287	-0,235
17,561	269,974	-0,256	-0,317
18,575	-94,137	-0,259	-0,050
19,590	800,000	-0,096	-0,189
20,604	-185,820	-0,315	-0,003
21,619	124,264	-0,365	-0,323
22,634	1,740	-0,459	-0,232
23,648	151,429	-0,360	-0,345
24,663	24,359	-0,422	-0,245
25,677	55,423	-0,402	-0,273
26,692	82,213	-0,381	-0,290
27,707	36,793	-0,372	-0,231
28,721	62,884	-0,380	-0,267
29,736	-57,219	-0,403	-0,124
30,750	177,522	-0,344	-0,353
31,765	100,932	-0,358	-0,293
32,780	117,018	-0,325	-0,280
33,794	-68,204	-0,341	-0,093
34,809	21,297	-0,415	-0,236
35,823	42,626	-0,393	-0,251
36,838	14,255	-0,318	-0,174
37,853	288,616	-0,327	-0,417
38,867	-7,120	-0,299	-0,142
39,882	21,964	-0,435	-0,249
40,896	48,239	-0,338	-0,222
41,911	21,905	-0,385	-0,220
42,926	205,592	-0,247	-0,270
43,940	-0,384	-0,324	-0,161
44,955	-10,198	-0,315	-0,146
45,969	136,149	-0,285	-0,261
46,984	269,759	-0,264	-0,326
47,999	62,234	-0,277	-0,194
49,013	39,857	-0,377	-0,237
50,028	41,082	-0,272	-0,172
51,042	490,075	-0,202	-0,326
52,057	193,042	-0,266	-0,283
53,071	112,067	-0,330	-0,280
54,086	193,805	-0,272	-0,289
55,101	106,738	-0,347	-0,289
56,115	81,904	-0,404	-0,307
57,130	65,951	-0,260	-0,185
58,144	-20,431	-0,595	-0,256
59,159	-20,227	-0,358	-0,154
60,174	-65,502	-0,511	-0,143
61,188	104,461	-0,371	-0,307
62,203	229,061	-0,230	-0,264
63,217	86,799	-0,413	-0,319
64,232	86,771	-0,209	-0,162
65,247	-66,687	-0,375	-0,104
66,261	81,223	-0,276	-0,209
67,276	-18,837	-0,392	-0,171
68,290	104,243	-0,265	-0,218
69,305	47,150	-0,388	-0,253
70,320	-16,575	-0,413	-0,183
71,334	-41,413	-0,338	-0,121
72,349	170,348	-0,303	-0,304
73,363	-9,332	-0,449	-0,209
74,378	115,228	-0,348	-0,298
75,393	-81,214	-0,280	-0,064
76,407	339,904	-0,147	-0,202
77,422	129,119	-0,308	-0,276
78,436	-2,424	-0,312	-0,153
79,451	-75,904	-0,289	-0,071
80,466	273,795	-0,152	-0,188
81,480	-1,271	-0,406	-0,200
82,495	647,190	-0,156	-0,279
83,509	67,659	-0,324	-0,232
84,524	-38,342	-0,367	-0,135
85,539	-64,937	-0,276	-0,078
86,553	-111,402	-0,273	-0,039
87,568	24,881	-0,319	-0,184
88,582	-87,259	-0,270	-0,057
89,597	-70,898	-0,423	-0,111
90,611	139,711	-0,169	-0,156
91,626	24,624	-0,234	-0,135
92,641	156,127	-0,213	-0,205
93,655	-60,578	-0,313	-0,092
94,670	-5,109	-0,216	-0,104
95,684	558,016	-0,122	-0,207
96,699	98,286	-0,361	-0,291
97,714	38,937	-0,248	-0,154
98,728	3,258	-0,235	-0,119
99,743	-31,711	-0,296	-0,116
100,757	8,225	-0,306	-0,160
101,772	37,746	-0,298	-0,184
102,787	-7,787	-0,277	-0,130
103,801	60,732	-0,290	-0,201
104,816	102,606	-0,170	-0,139
105,830	-50,834	-0,269	-0,088
106,845	-184,637	-0,307	-0,003
107,860	176,629	-0,209	-0,212
108,874	-5,661	-0,302	-0,144
109,889	179,778	-0,339	-0,347
110,903	115,607	-0,171	-0,146
111,918	32,120	-0,252	-0,151
112,933	-106,653	-0,303	-0,047
113,947	-26,429	-0,165	-0,067
114,962	153,963	-0,266	-0,254
115,976	117,247	-0,176	-0,151
116,991	155,390	-0,188	-0,180
118,006	145,714	-0,278	-0,260
119,020	364,212	-0,145	-0,205
120,035	97,118	-0,197	-0,157
121,049	171,415	-0,221	-0,221
122,064	43,100	-0,200	-0,127
123,079	10,861	-0,252	-0,134
124,093	49,221	-0,244	-0,160
125,108	175,971	-0,220	-0,223
126,122	400,077	-0,127	-0,186
127,137	-105,346	-0,263	-0,041
128,151	-54,299	-0,277	-0,087
129,166	-13,161	-0,223	-0,101
130,181	-59,326	-0,250	-0,074
131,195	343,947	-0,180	-0,247
132,210	93,902	-0,218	-0,172
133,224	-96,839	-0,187	-0,034
134,239	-6,040	-0,173	-0,082
135,254	112,091	-0,231	-0,195
136,268	-99,679	-0,191	-0,033
137,283	-112,245	-0,264	-0,037
138,297	122,513	-0,205	-0,179
139,312	111,063	-0,279	-0,234
140,327	61,261	-0,303	-0,209
141,341	-200,000	-0,056	-0,243
142,356	-88,558	-0,332	-0,068
143,370	587,815	-0,116	-0,200
144,385	30,173	-0,232	-0,138
145,400	41,420	-0,339	-0,213
146,414	104,595	-0,200	-0,164
147,429	104,197	-0,146	-0,119
148,443	66,511	-0,257	-0,182
149,458	706,027	-0,079	-0,145
150,473	312,061	-0,185	-0,242
151,487	47,341	-0,199	-0,129
152,502	-55,376	-0,295	-0,092
153,516	107,880	-0,240	-0,199
154,531	372,881	-0,149	-0,212
155,546	328,006	-0,165	-0,220
156,560	-88,117	-0,243	-0,050
157,575	-200,000	-0,029	-0,107
158,589	75,204	-0,235	-0,172
159,604	437,491	-0,171	-0,260
160,619	800,000	-0,152	-0,425
161,633	372,422	-0,231	-0,327
162,648	222,138	-0,211	-0,237
163,662	131,082	-0,256	-0,229
164,677	-36,098	-0,185	-0,069
165,692	390,937	-0,131	-0,189
166,706	-86,641	-0,273	-0,058
167,721	105,044	-0,275	-0,225
168,735	143,007	-0,277	-0,256
169,750	108,138	-0,211	-0,175
170,764	12,447	-0,260	-0,139
171,779	0,621	-0,170	-0,084
172,794	-59,964	-0,260	-0,077
173,808	219,592	-0,195	-0,217
174,823	72,210	-0,247	-0,178
175,837	234,827	-0,236	-0,271
176,852	64,777	-0,231	-0,161
177,867	201,873	-0,091	-0,098
178,881	-39,801	-0,244	-0,088
179,896	-86,906	-0,099	-0,021
180,910	72,268	-0,161	-0,117
181,925	392,408	-0,152	-0,220
182,940	173,947	-0,236	-0,237
183,954	22,777	-0,211	-0,120
184,969	194,210	-0,178	-0,188
185,983	-3,993	-0,173	-0,083
186,998	-62,626	-0,104	-0,030
188,013	118,717	-0,144	-0,123
189,027	800,000	-0,120	-0,267
190,042	-110,458	-0,304	-0,043
191,056	50,492	-0,200	-0,131
192,071	-89,981	-0,254	0,051
193,086	-29,407	-0,231	-0,091
194,100	76,760	-0,223	-0,164
195,115	327,700	-0,152	-0,203
196,129	17,535	-0,207	-0,114
197,144	373,236	-0,078	-0,110
198,159	-30,976	-0,220	-0,086
199,173	-18,714	-0,328	-0,141
200,188	406,454	-0,158	-0,231
201,202	92,157	-0,106	-0,082
202,217	262,637	-0,119	-0,144
203,232	345,120	-0,207	-0,283
204,246	174,412	-0,268	-0,269
205,261	221,527	-0,151	-0,168
206,275	-111,227	-0,167	-0,023
207,290	13,862	-0,145	-0,078
208,304	800,000	-0,029	-0,075
209,319	231,997	-0,180	-0,205
210,334	167,168	-0,183	-0,180
211,348	127,845	-0,196	-0,172
212,363	84,931	-0,196	-0,149
213,377	800,000	-0,090	-0,234
214,392	-78,275	-0,169	-0,040
215,407	800,000	-0,048	-0,132
216,421	106,128	-0,150	-0,123
217,436	800,000	-0,078	-0,155
218,450	233,903	-0,166	-0,189
219,465	242,038	-0,135	-0,156
220,480	91,194	-0,147	-0,114
221,494	-5,527	-0,194	-0,092
222,509	-119,479	-0,121	0,014
223,523	10,704	-0,166	-0,088
224,538	-69,050	-0,222	-0,059
225,553	-200,000	-0,044	-0,213
226,567	-114,352	-0,125	0,016
227,582	-109,695	-0,159	-0,023
228,596	800,000	-0,088	-0,211
229,611	-61,402	-0,213	-0,062
230,626	26,746	-0,194	-0,112
231,640	-200,000	-0,108	-0,341
232,655	276,831	-0,189	-0,233
233,669	30,844	-0,134	-0,079
234,684	-200,000	-0,052	-0,233
235,699	273,493	-0,173	-0,212
236,713	132,844	-0,026	0,023
237,728	-7,128	-0,283	-0,132
238,742	27,771	-0,134	-0,078
239,757	102,767	-0,215	-0,174
240,772	555,326	-0,112	-0,187
241,786	139,431	-0,190	-0,173
242,801	-25,470	-0,157	-0,064
243,815	-57,120	-0,246	-0,074
244,830	-51,557	-0,171	-0,055
245,844	125,436	-0,102	-0,089
246,859	61,847	-0,269	-0,185
247,874	66,605	-0,208	-0,146
248,888	289,566	-0,114	-0,143
249,903	640,375	-0,060	-0,106
250,917	108,624	-0,166	-0,137
251,932	481,728	-0,158	-0,249
252,947	-29,377	-0,272	-0,107
253,961	188,530	-0,197	-0,203
254,976	1,833	-0,294	-0,146
255,990	91,192	-0,245	-0,190
257,005	-14,446	-0,269	-0,119
258,020	26,368	-0,176	-0,101
259,034	9,946	-0,099	-0,052
260,049	484,196	-0,093	-0,146
261,063	193,982	-0,188	-0,196
262,078	115,691	-0,265	-0,223
263,093	139,003	-0,226	-0,205
264,107	67,975	-0,131	-0,092
265,122	258,835	-0,120	-0,143
266,136	-76,425	-0,212	0,051
267,151	-67,101	-0,247	-0,067
268,166	800,000	-0,052	-0,142
269,180	-62,980	-0,182	-0,051
270,195	-100,403	-0,161	0,027
271,209	118,813	-0,147	-0,125
272,224	-151,093	-0,106	0,005
273,239	-107,033	-0,106	-0,016
274,253	800,000	-0,090	-0,179
275,268	206,270	-0,110	-0,118
276,282	43,355	-0,236	-0,148
277,297	90,443	-0,207	-0,160
278,312	-13,978	-0,283	-0,125
279,326	-200,000	-0,038	-0,206
280,341	-12,674	-0,235	-0,105
281,355	-28,247	-0,095	-0,038
282,370	47,113	-0,197	-0,126
283,384	133,148	-0,135	-0,120
284,399	273,179	-0,136	-0,166
285,414	687,712	-0,106	-0,191
286,428	-135,982	-0,121	0,010
287,443	49,475	-0,178	-0,115
288,457	-155,605	-0,164	-0,007
289,472	-165,929	-0,090	-0,003
290,487	1,678	-0,185	-0,091
291,501	118,628	-0,088	-0,074
292,516	800,000	-0,131	-0,260
293,530	-200,000	-0,039	0,160
294,545	164,037	-0,083	-0,080
295,560	214,170	-0,128	-0,139
296,574	55,643	-0,198	-0,132
297,589	-107,411	-0,147	-0,022
298,603	385,553	-0,196	-0,279
299,618	-64,350	-0,294	-0,082
300,633	-200,000	-0,045	-0,203
301,647	5,406	-0,094	-0,047
302,662	261,747	-0,118	-0,140
303,676	-95,390	-0,114	-0,021
304,691	214,151	-0,081	-0,089
305,706	-37,896	-0,152	-0,055
306,720	219,325	-0,191	-0,210
307,735	436,332	-0,113	-0,169
308,749	-200,000	-0,014	-0,114
309,764	-81,815	-0,160	0,036
310,779	33,049	-0,140	-0,083
311,793	-41,447	-0,114	-0,040
312,808	-130,156	-0,202	-0,019
313,822	91,779	-0,180	-0,139
314,837	-100,744	-0,106	0,018
315,852	-6,597	-0,167	-0,078
316,866	247,884	-0,106	-0,123
317,881	68,548	-0,139	-0,098
318,895	-8,351	-0,120	-0,055
319,910	-113,185	-0,119	0,016
320,925	48,671	-0,130	-0,084
321,939	161,254	-0,119	-0,114
322,954	388,858	-0,055	-0,078
323,968	208,302	-0,072	-0,077
324,983	-101,124	-0,116	0,019
325,997	43,913	-0,215	-0,134
327,012	337,074	-0,145	-0,194
328,027	-38,101	-0,173	-0,062
329,041	-76,905	-0,121	-0,029
330,056	609,011	0,035	-0,060
331,070	-86,954	-0,149	-0,031
332,085	104,140	-0,094	-0,076
333,100	88,868	-0,074	-0,057
334,114	-152,730	-0,180	0,009
335,129	265,529	-0,122	-0,146
336,143	-3,180	-0,171	-0,082
337,158	16,583	-0,093	0,050
338,173	-50,634	-0,149	-0,048
339,187	800,000	-0,039	-0,113
340,202	276,836	-0,095	-0,115
341,216	-35,709	-0,138	-0,051
342,231	240,156	-0,191	-0,218
343,246	-31,484	-0,202	-0,077
344,260	134,723	-0,154	-0,137
345,275	306,620	-0,083	-0,106
346,289	-99,809	-0,110	0,019
347,304	-50,037	-0,188	0,061
348,319	190,542	-0,135	-0,139
349,333	263,644	-0,039	-0,046
350,348	269,225	-0,122	-0,146
351,362	157,112	-0,124	-0,117
352,377	293,950	-0,093	-0,116
353,392	58,839	-0,112	-0,075
354,406	-130,354	-0,084	0,008
355,421	207,219	1306,006	1394,071
356,435	159,403	1465,627	1394,551
