DTS Sentinel unit serial number:	SN410029Multiplexer serial number:	ORYXHardware model number:	OX2-SRSoftware version number:	ORYX F/W v4,00 Oryx Data Collector v3.7.2.0data status	okinstallation	B3 Nyhavnadifferential loss correction	single-endedforward channel	channel 1reverse channel	N/Adate	2023/12/04time	06:37:30forward acquisition time	300,00reverse acquisition time	0,00gamma	499,1914k internal	0,3206k external	0,3206temperature offset calibration	1,0000default loss term (dB/km)	0,3820temperature slope calibration	1,0000multiplexer offset coefficient	1,0000multiplexer slope coefficient	1,0000fibre end	0,00T internal ref (°C)	12,06T ext. ref 1 (°C)	-2,79T ext. ref 2 (°C)	-2,82length (m)	temperature (°C)	Stokes	anti-Stokes-744,400	112,566	-0,209	-0,184
-743,385	-200,000	-0,049	0,276
-742,371	186,778	-0,174	-0,189
-741,356	-200,000	0,011	0,313
-740,342	800,000	-0,093	-0,234
-739,327	-200,000	0,007	0,306
-738,312	508,851	-0,169	-0,286
-737,298	323,863	-0,130	0,181
-736,283	15,180	-0,270	-0,153
-735,269	-200,000	0,049	0,206
-734,254	182,756	-0,171	-0,184
-733,239	131,621	-0,139	0,130
-732,225	-200,000	-0,059	-0,249
-731,210	-124,652	0,223	-0,025
-730,196	-46,572	-0,085	0,030
-729,181	-56,292	-0,019	0,006
-728,167	-200,000	-0,020	0,178
-727,152	354,340	-0,056	-0,081
-726,137	17,960	0,114	0,066
-725,123	800,000	-0,021	-0,048
-724,108	-166,324	-0,164	0,005
-723,094	-200,000	0,023	-0,092
-722,079	-87,758	-0,092	0,020
-721,064	-89,925	-0,132	-0,028
-720,050	800,000	-0,008	-0,019
-719,035	-200,000	-0,009	0,128
-718,021	523,057	-0,079	0,135
-717,006	779,972	-0,053	-0,106
-715,991	150,678	-0,064	0,063
-714,977	800,000	0,061	-0,178
-713,962	-20,809	-0,139	0,061
-712,948	-14,206	0,012	0,005
-711,933	800,000	-0,039	-0,107
-710,918	-200,000	0,013	-0,083
-709,904	-200,000	0,029	-0,157
-708,889	114,575	-0,071	-0,063
-707,875	67,491	-0,098	-0,072
-706,860	-200,000	0,049	-0,225
-705,845	16,106	-0,075	-0,043
-704,831	-28,115	-0,095	0,040
-703,816	800,000	-0,024	0,050
-702,802	-78,446	0,114	0,028
-701,787	800,000	-0,082	-0,172
-700,772	-63,025	-0,110	0,033
-699,758	159,507	0,067	0,068
-698,743	348,565	0,026	0,038
-697,729	-15,227	-0,109	-0,050
-696,714	-200,000	0,026	-0,087
-695,699	95,870	0,043	-0,036
-694,685	-90,902	-0,111	0,023
-693,670	-200,000	-0,008	-0,039
-692,656	-102,521	-0,058	-0,010
-691,641	-51,786	-0,031	-0,010
-690,627	9,543	0,165	0,090
-689,612	-77,083	0,114	0,029
-688,597	800,000	-0,064	0,132
-687,583	-200,000	-0,000	-0,160
-686,568	800,000	-0,011	0,028
-685,554	187,368	-0,102	0,111
-684,539	288,523	-0,032	-0,041
-683,524	-72,478	0,047	-0,012
-682,510	-72,130	0,118	0,032
-681,495	800,000	-0,066	-0,157
-680,481	800,000	-0,059	-0,164
-679,466	222,527	-0,096	0,112
-678,451	83,801	-0,099	0,078
-677,437	495,130	0,046	-0,077
-676,422	11,532	0,112	0,062
-675,408	-107,569	-0,108	-0,017
-674,393	-46,888	-0,120	-0,042
-673,378	800,000	-0,030	-0,079
-672,364	102,097	-0,052	-0,044
-671,349	318,138	-0,039	0,054
-670,335	-82,841	-0,148	-0,034
-669,320	-126,171	0,018	-0,002
-668,305	322,561	-0,055	0,076
-667,291	-61,230	-0,035	-0,011
-666,276	-200,000	-0,024	-0,126
-665,262	204,627	-0,055	-0,061
-664,247	-200,000	-0,002	-0,029
-663,232	-200,000	-0,009	-0,069
-662,218	47,749	-0,051	0,035
-661,203	391,808	-0,064	-0,096
-660,189	-29,256	0,083	0,034
-659,174	68,196	-0,064	0,047
-658,159	211,970	-0,045	-0,051
-657,145	-200,000	0,013	-0,076
-656,130	-182,192	0,116	-0,002
-655,116	120,934	0,067	-0,060
-654,101	114,324	0,044	-0,039
-653,086	-200,000	-0,009	0,063
-652,072	-32,193	0,037	0,015
-651,057	135,037	-0,051	-0,048
-650,043	-200,000	-0,005	-0,166
-649,028	3,347	0,035	-0,019
-648,014	117,543	-0,060	0,054
-646,999	-127,300	0,078	-0,008
-645,984	41,098	-0,173	-0,113
-644,970	267,537	0,041	-0,053
-643,955	-116,157	-0,090	0,012
-642,941	-73,427	0,080	0,021
-641,926	800,000	-0,029	-0,080
-640,911	-112,401	-0,058	0,008
-639,897	71,536	0,155	0,116
-638,882	-200,000	-0,004	0,090
-637,868	297,793	-0,049	-0,065
-636,853	-5,791	-0,189	-0,093
-635,838	-200,000	0,004	-0,195
-634,824	800,000	-0,029	0,087
-633,809	527,952	-0,089	0,152
-632,795	638,467	-0,048	-0,088
-631,780	-119,856	0,164	0,020
-630,765	-59,132	-0,086	-0,027
-629,751	76,885	-0,127	-0,097
-628,736	172,989	-0,048	-0,050
-627,722	-200,000	-0,004	-0,041
-626,707	636,902	0,097	0,180
-625,692	282,661	-0,032	0,042
-624,678	800,000	0,063	0,169
-623,663	-55,469	-0,156	-0,050
-622,649	-25,748	0,101	0,043
-621,634	-96,900	-0,164	-0,031
-620,619	-200,000	-0,005	0,035
-619,605	171,550	0,168	0,174
-618,590	-58,567	0,144	-0,045
-617,576	800,000	0,033	0,071
-616,561	88,490	-0,065	-0,052
-615,546	268,929	0,013	0,016
-614,532	318,682	-0,074	-0,101
-613,517	132,848	-0,180	-0,168
-612,503	-112,294	0,086	-0,012
-611,488	398,443	0,130	0,197
-610,474	21,508	0,073	-0,043
-609,459	-200,000	-0,007	-0,052
-608,444	-75,445	-0,113	-0,029
-607,430	-200,000	0,009	-0,098
-606,415	342,244	-0,060	-0,085
-605,401	800,000	0,026	-0,057
-604,386	-53,263	-0,074	-0,024
-603,371	800,000	0,045	0,094
-602,357	-76,413	-0,080	-0,020
-601,342	271,992	-0,062	0,079
-600,328	458,739	0,022	0,035
-599,313	-156,840	-0,139	-0,006
-598,298	533,654	0,067	0,115
-597,284	-200,000	-0,017	-0,064
-596,269	70,225	-0,058	-0,043
-595,255	206,167	0,093	0,105
-594,240	-76,459	-0,062	-0,016
-593,225	157,186	-0,038	0,038
-592,211	27,633	0,052	-0,032
-591,196	643,417	-0,029	-0,054
-590,182	404,510	0,024	0,037
-589,167	140,798	0,096	-0,092
-588,152	-19,991	0,078	-0,035
-587,138	400,697	-0,109	-0,166
-586,123	469,136	-0,102	-0,166
-585,109	-135,092	0,049	0,004
-584,094	-16,262	0,105	0,048
-583,079	409,944	0,080	0,122
-582,065	800,000	0,016	-0,035
-581,050	-200,000	-0,001	-0,067
-580,036	-200,000	-0,002	-0,084
-579,021	800,000	-0,043	-0,116
-578,006	-200,000	-0,001	-0,050
-576,992	800,000	0,023	0,054
-575,977	-115,136	0,144	-0,019
-574,963	-200,000	-0,001	0,032
-573,948	-200,000	-0,006	0,050
-572,934	800,000	-0,032	0,083
-571,919	-132,719	-0,124	0,011
-570,904	178,553	-0,150	-0,158
-569,890	51,057	0,054	-0,037
-568,875	-38,910	0,065	-0,025
-567,861	-57,549	0,063	0,020
-566,846	-200,000	-0,013	0,055
-565,831	-81,849	-0,144	-0,034
-564,817	21,716	0,030	0,018
-563,802	-200,000	-0,018	-0,157
-562,788	264,665	0,016	-0,020
-561,773	-4,089	0,064	-0,032
-560,758	-96,954	0,061	-0,011
-559,744	-200,000	0,010	-0,135
-558,729	-200,000	-0,012	-0,087
-557,715	-200,000	0,003	0,051
-556,700	-20,056	-0,051	-0,022
-555,685	800,000	0,010	0,026
-554,671	-48,866	-0,071	0,024
-553,656	800,000	0,040	0,110
-552,642	800,000	-0,021	0,056
-551,627	185,055	0,052	0,056
-550,612	-200,000	-0,021	-0,245
-549,598	453,515	-0,041	-0,065
-548,583	417,382	-0,039	0,061
-547,569	327,891	0,099	0,137
-546,554	416,947	0,042	0,065
-545,539	-200,000	-0,024	0,185
-544,525	-200,000	-0,010	0,117
-543,510	-200,000	-0,017	0,111
-542,496	-31,212	-0,057	0,023
-541,481	-65,764	0,084	-0,024
-540,466	-200,000	-0,007	-0,119
-539,452	12,630	-0,066	0,036
-538,437	800,000	0,025	0,065
-537,423	-57,933	0,103	0,032
-536,408	-93,097	0,128	-0,026
-535,393	213,195	-0,052	0,059
-534,379	-147,040	0,087	0,005
-533,364	248,621	0,028	-0,034
-532,350	184,677	0,070	0,075
-531,335	-59,801	-0,146	0,045
-530,321	-66,107	0,042	0,012
-529,306	-23,489	-0,084	-0,036
-528,291	418,747	-0,032	-0,050
-527,277	407,464	0,069	-0,106
-526,262	-200,000	-0,018	-0,067
-525,248	-112,726	0,058	-0,008
-524,233	-80,924	-0,084	0,020
-523,218	-85,969	0,047	0,010
-522,204	149,703	-0,047	0,046
-521,189	445,788	-0,117	-0,186
-520,175	-200,000	-0,022	-0,077
-519,160	114,212	-0,037	0,032
-518,145	419,906	-0,032	0,049
-517,131	800,000	0,027	-0,080
-516,116	178,374	-0,056	-0,059
-515,102	275,161	0,040	-0,052
-514,087	228,959	0,040	-0,047
-513,072	-57,722	0,050	-0,016
-512,058	-200,000	0,002	-0,116
-511,043	404,489	-0,070	-0,106
-510,029	-200,000	-0,000	0,052
-509,014	800,000	-0,014	-0,036
-507,999	92,248	0,092	0,074
-506,985	-200,000	0,011	-0,081
-505,970	352,858	-0,063	-0,091
-504,956	-200,000	0,011	-0,156
-503,941	-200,000	0,018	-0,105
-502,926	800,000	0,026	0,083
-501,912	-200,000	0,021	0,127
-500,897	-35,971	0,034	0,013
-499,883	26,971	0,060	0,036
-498,868	50,079	0,063	-0,043
-497,853	-200,000	0,033	-0,135
-496,839	-76,808	0,073	-0,018
-495,824	-200,000	-0,002	0,017
-494,810	-96,988	-0,057	0,011
-493,795	-58,764	0,118	-0,037
-492,781	418,862	0,048	0,074
-491,766	-13,199	-0,055	0,026
-490,751	800,000	-0,025	0,050
-489,737	-200,000	0,010	0,101
-488,722	410,423	0,131	0,201
-487,708	456,469	0,008	0,013
-486,693	-200,000	0,020	0,079
-485,678	-46,001	0,059	-0,021
-484,664	197,809	-0,067	0,074
-483,649	-64,839	-0,116	0,033
-482,635	-120,742	-0,053	-0,006
-481,620	800,000	0,026	0,075
-480,605	-141,548	0,076	0,005
-479,591	9,142	0,097	0,053
-478,576	31,586	-0,036	0,022
-477,562	159,843	0,071	-0,071
-476,547	67,106	-0,053	0,039
-475,532	6,180	0,118	0,063
-474,518	243,289	-0,100	0,121
-473,503	-114,342	0,079	-0,011
-472,489	116,178	-0,080	0,071
-471,474	-200,000	0,014	0,166
-470,459	-200,000	0,004	-0,024
-469,445	-28,118	-0,046	0,019
-468,430	-200,000	0,007	-0,173
-467,416	-40,039	0,118	0,044
-466,401	-200,000	0,006	-0,082
-465,386	-133,256	0,074	-0,007
-464,372	369,479	0,050	0,073
-463,357	-200,000	0,003	0,064
-462,343	110,210	-0,058	-0,050
-461,328	800,000	0,036	-0,091
-460,313	101,588	0,114	-0,095
-459,299	184,818	0,108	0,115
-458,284	-153,191	-0,034	0,002
-457,270	30,759	0,092	0,056
-456,255	-105,353	-0,107	0,017
-455,241	-128,671	-0,088	0,009
-454,226	445,958	-0,076	-0,121
-453,211	44,868	-0,040	-0,026
-452,197	800,000	-0,043	0,132
-451,182	-76,451	0,087	-0,022
-450,168	-77,481	0,043	0,011
-449,153	-0,470	-0,083	0,042
-448,138	800,000	0,023	-0,065
-447,124	-200,000	-0,002	0,068
-446,109	800,000	0,028	-0,084
-445,095	-52,035	0,069	0,023
-444,080	-104,137	-0,034	0,006
-443,065	-182,761	-0,078	-0,001
-442,051	523,914	-0,028	0,048
-441,036	-200,000	0,003	-0,121
-440,022	-74,726	-0,082	0,021
-439,007	-113,929	-0,088	-0,012
-437,992	-162,300	0,075	-0,003
-436,978	-200,000	0,028	-0,099
-435,963	-200,000	0,011	-0,160
-434,949	-200,000	-0,014	0,096
-433,934	-200,000	0,001	0,169
-432,919	98,316	-0,177	-0,146
-431,905	250,862	-0,025	-0,030
-430,890	-200,000	0,019	0,101
-429,876	30,555	0,013	0,008
-428,861	219,532	0,106	0,122
-427,846	-200,000	-0,045	0,163
-426,832	46,656	-0,095	0,063
-425,817	800,000	0,023	-0,045
-424,803	-115,006	-0,064	0,009
-423,788	-200,000	0,025	0,107
-422,773	365,703	0,057	0,082
-421,759	114,760	0,021	-0,018
-420,744	800,000	0,020	-0,049
-419,730	53,884	-0,132	-0,091
-418,715	-47,660	0,055	0,019
-417,701	319,888	0,068	-0,093
-416,686	401,102	-0,041	0,061
-415,671	-84,920	0,142	-0,032
-414,657	-200,000	0,014	-0,062
-413,642	712,962	-0,050	-0,096
-412,628	169,663	0,010	-0,010
-411,613	380,726	-0,086	-0,127
-410,598	313,278	-0,092	-0,124
-409,584	-106,469	-0,069	-0,011
-408,569	380,467	0,055	0,082
-407,555	800,000	-0,045	-0,114
-406,540	-117,239	0,135	0,017
-405,525	-2,836	0,097	0,048
-404,511	340,485	-0,068	0,095
-403,496	608,220	0,044	0,079
-402,482	-200,000	-0,003	0,063
-401,467	8,084	0,080	-0,043
-400,452	800,000	0,053	0,157
-399,438	-30,647	-0,120	0,049
-398,423	117,437	0,097	0,085
-397,409	98,362	-0,096	-0,079
-396,394	-72,691	-0,041	-0,011
-395,379	252,700	-0,118	0,144
-394,365	39,126	-0,023	-0,015
-393,350	4,424	0,077	0,040
-392,336	-114,394	0,052	0,007
-391,321	-200,000	-0,006	-0,049
-390,306	800,000	0,013	-0,026
-389,292	-42,103	-0,070	0,026
-388,277	-8,675	-0,050	0,024
-387,263	800,000	-0,043	0,086
-386,248	-200,000	-0,005	0,058
-385,233	-200,000	0,020	0,075
-384,219	175,212	-0,081	0,084
-383,204	800,000	-0,052	-0,153
-382,190	36,396	0,012	-0,008
-381,175	72,197	0,060	-0,045
-380,160	-200,000	-0,010	0,049
-379,146	-51,119	-0,167	-0,056
-378,131	-125,254	0,075	0,008
-377,117	577,231	-0,069	0,122
-376,102	39,554	-0,078	0,050
-375,088	800,000	0,026	-0,070
-374,073	221,053	0,043	-0,050
-373,058	171,029	-0,043	0,045
-372,044	595,028	-0,007	0,013
-371,029	115,127	0,072	0,063
-370,015	382,803	0,065	-0,096
-369,000	94,211	-0,029	-0,024
-367,985	-200,000	0,026	-0,174
-366,971	-200,000	-0,014	0,053
-365,956	-200,000	-0,006	-0,081
-364,942	800,000	-0,019	0,044
-363,927	800,000	0,036	0,104
-362,912	-12,285	0,047	0,022
-361,898	800,000	-0,054	-0,116
-360,883	773,253	-0,015	-0,030
-359,869	133,744	0,035	-0,032
-358,854	-3,520	0,033	0,016
-357,839	233,083	0,088	-0,104
-356,825	-138,248	0,103	0,008
-355,810	-127,680	0,093	0,009
-354,796	-45,984	0,153	-0,054
-353,781	443,476	-0,090	-0,141
-352,766	-126,807	-0,047	-0,005
-351,752	800,000	-0,013	0,034
-350,737	-85,823	0,067	0,015
-349,723	34,460	-0,070	0,044
-348,708	136,605	-0,057	0,053
-347,693	-200,000	0,003	-0,029
-346,679	800,000	-0,017	0,045
-345,664	33,830	-0,103	-0,064
-344,650	494,693	0,045	-0,074
-343,635	-41,741	0,145	0,053
-342,620	-3,928	-0,128	0,063
-341,606	266,664	0,083	-0,104
-340,591	402,756	0,031	0,047
-339,577	-86,032	-0,112	-0,025
-338,562	800,000	0,050	0,105
-337,548	-200,000	-0,006	-0,181
-336,533	800,000	-0,014	-0,029
-335,518	360,086	-0,041	0,059
-334,504	59,422	-0,101	0,071
-333,489	574,700	-0,026	-0,045
-332,475	-66,606	-0,111	-0,031
-331,460	56,139	-0,088	0,061
-330,445	-36,809	0,022	-0,008
-329,431	-200,000	0,025	0,085
-328,416	800,000	-0,034	-0,099
-327,402	123,996	0,109	0,098
-326,387	-200,000	0,033	0,112
-325,372	-200,000	-0,032	-0,164
-324,358	187,506	-0,106	-0,113
-323,343	344,322	-0,086	-0,121
-322,329	422,408	-0,089	0,138
-321,314	60,178	-0,041	0,029
-320,299	65,756	0,168	0,122
-319,285	800,000	0,013	0,035
-318,270	-200,000	-0,062	-0,198
-317,256	218,820	0,056	0,065
-316,241	-200,000	-0,018	0,108
-315,226	180,011	-0,034	-0,036
-314,212	800,000	0,043	0,111
-313,197	269,922	-0,054	0,067
-312,183	-200,000	0,028	0,158
-311,168	10,077	0,079	-0,043
-310,153	-22,815	-0,070	-0,030
-309,139	-139,198	0,042	0,003
-308,124	-200,000	-0,009	0,036
-307,110	275,130	0,178	0,226
-306,095	784,372	0,020	0,040
-305,080	219,395	0,057	0,065
-304,066	108,783	0,048	-0,041
-303,051	80,013	0,051	-0,039
-302,037	-200,000	0,020	-0,140
-301,022	83,581	0,091	-0,071
-300,008	-89,208	0,090	-0,019
-298,993	-2,646	0,159	-0,079
-297,978	265,293	0,071	0,088
-296,964	47,328	-0,031	-0,021
-295,949	227,137	-0,115	-0,134
-294,935	800,000	-0,075	-0,156
-293,920	44,330	0,139	-0,091
-292,905	-200,000	-0,013	-0,105
-291,891	50,437	-0,033	0,022
-290,876	92,354	0,146	0,117
-289,862	800,000	-0,048	0,115
-288,847	183,584	-0,075	-0,080
-287,832	545,861	-0,090	-0,153
-286,818	-200,000	0,040	-0,127
-285,803	80,152	-0,083	-0,064
-284,789	-200,000	-0,009	0,155
-283,774	-83,256	-0,134	0,030
-282,759	-200,000	-0,017	-0,132
-281,745	-200,000	-0,045	-0,159
-280,730	-200,000	0,017	-0,080
-279,716	247,423	0,074	-0,089
-278,701	154,290	-0,027	0,027
-277,686	634,858	-0,033	0,061
-276,672	21,919	0,152	0,088
-275,657	-12,603	0,091	0,042
-274,643	800,000	-0,046	0,130
-273,628	-53,079	-0,019	-0,006
-272,613	-165,609	0,167	0,005
-271,599	-55,379	0,073	-0,023
-270,584	-39,697	0,089	-0,033
-269,570	-74,711	0,133	0,034
-268,555	-200,000	-0,011	0,056
-267,540	-200,000	0,037	-0,163
-266,526	-200,000	0,012	0,048
-265,511	776,858	0,018	-0,036
-264,497	-22,379	0,098	-0,042
-263,482	-200,000	0,018	0,113
-262,467	299,750	0,037	-0,049
-261,453	800,000	-0,033	0,085
-260,438	73,821	-0,068	0,051
-259,424	111,829	-0,053	-0,046
-258,409	-200,000	-0,009	-0,031
-257,395	-200,000	0,044	-0,155
-256,380	-101,617	0,154	0,026
-255,365	-200,000	-0,001	0,069
-254,351	800,000	-0,018	-0,038
-253,336	447,337	-0,019	-0,029
-252,322	-194,043	0,117	-0,001
-251,307	800,000	-0,019	0,045
-250,292	-200,000	-0,018	-0,067
-249,278	265,857	0,033	0,041
-248,263	-2,581	0,131	0,065
-247,249	14,721	-0,099	0,055
-246,234	232,515	-0,110	0,129
-245,219	-69,420	-0,097	-0,026
-244,205	-147,696	-0,064	0,004
-243,190	128,409	-0,050	0,045
-242,176	-200,000	-0,017	0,129
-241,161	-200,000	-0,001	0,160
-240,146	800,000	0,029	0,066
-239,132	-200,000	-0,006	-0,020
-238,117	675,649	0,071	-0,132
-237,103	800,000	-0,055	0,145
-236,088	800,000	-0,077	0,190
-235,073	-126,171	0,148	-0,016
-234,059	73,528	-0,129	0,096
-233,044	545,311	-0,067	0,114
-232,030	800,000	0,023	-0,064
-231,015	800,000	0,031	-0,073
-230,000	48,748	-0,149	-0,099
-228,986	701,053	0,049	-0,092
-227,971	-107,076	0,146	0,023
-226,957	-200,000	-0,011	-0,097
-225,942	-200,000	-0,008	0,066
-224,927	326,371	0,055	0,075
-223,913	-200,000	-0,030	-0,120
-222,898	-200,000	0,027	-0,127
-221,884	573,607	-0,080	-0,140
-220,869	800,000	0,016	-0,039
-219,855	800,000	-0,054	0,131
-218,840	-130,258	-0,049	0,005
-217,825	-61,697	-0,140	0,041
-216,811	36,918	0,037	-0,023
-215,796	-200,000	-0,029	0,101
-214,782	-48,034	0,063	0,021
-213,767	106,882	-0,084	-0,071
-212,752	127,727	0,127	-0,115
-211,738	196,458	-0,049	0,054
-210,723	-108,149	-0,074	-0,011
-209,709	800,000	-0,066	-0,140
-208,694	-200,000	-0,009	-0,066
-207,679	26,459	-0,137	0,082
-206,665	-57,312	0,064	-0,020
-205,650	-200,000	-0,004	0,017
-204,636	132,882	-0,045	0,041
-203,621	394,145	0,050	0,075
-202,606	554,085	-0,038	0,065
-201,592	131,017	-0,140	-0,128
-200,577	-38,102	-0,084	-0,031
-199,563	-128,901	-0,094	-0,009
-198,548	-200,000	0,003	0,173
-197,533	-200,000	0,034	0,164
-196,519	-96,761	0,054	0,010
-195,504	800,000	0,027	-0,065
-194,490	171,411	-0,066	-0,068
-193,475	-200,000	-0,032	-0,118
-192,460	56,265	0,028	-0,019
-191,446	-200,000	-0,019	0,096
-190,431	229,343	-0,015	-0,018
-189,417	242,074	-0,081	-0,096
-188,402	-100,694	0,158	0,027
-187,387	800,000	-0,018	-0,050
-186,373	-6,947	-0,087	0,042
-185,358	48,382	0,064	0,043
-184,344	-64,710	-0,152	0,044
-183,329	800,000	0,069	0,148
-182,315	343,084	0,068	0,095
-181,300	134,760	-0,074	-0,068
-180,285	-200,000	0,006	-0,093
-179,271	464,340	0,031	-0,049
-178,256	800,000	0,062	0,167
-177,242	-200,000	0,007	0,113
-176,227	13,648	0,126	-0,069
-175,212	3,431	-0,101	0,052
-174,198	800,000	-0,043	0,125
-173,183	295,802	-0,064	-0,083
-172,169	-105,028	-0,062	-0,010
-171,154	16,529	-0,124	-0,070
-170,139	800,000	0,030	-0,081
-169,125	-200,000	-0,020	-0,069
-168,110	187,057	0,073	0,077
-167,096	171,681	-0,056	0,057
-166,081	-200,000	0,011	-0,107
-165,066	11,627	0,037	-0,020
-164,052	10,724	-0,048	0,026
-163,037	406,613	-0,033	0,050
-162,023	289,002	0,152	0,196
-161,008	800,000	0,009	-0,019
-159,993	-200,000	0,035	-0,137
-158,979	223,870	-0,072	-0,083
-157,964	-106,564	0,063	0,010
-156,950	-200,000	0,018	-0,080
-155,935	-102,654	0,063	-0,011
-154,920	-200,000	0,013	-0,044
-153,906	-200,000	-0,004	0,053
-152,891	76,652	0,140	0,105
-151,877	-200,000	0,017	-0,096
-150,862	360,010	0,088	-0,125
-149,847	-200,000	0,023	0,110
-148,833	-142,642	0,059	-0,004
-147,818	656,505	0,062	0,114
-146,804	-200,000	-0,005	0,073
-145,789	-116,088	0,016	0,002
-144,775	424,509	-0,001	0,001
-143,760	-43,895	0,047	0,017
-142,745	-144,845	0,109	0,007
-141,731	-2,803	-0,024	0,012
-140,716	-200,000	0,004	-0,054
-139,702	-200,000	-0,006	0,143
-138,687	287,934	-0,062	-0,080
-137,672	800,000	-0,032	-0,087
-136,658	154,729	0,021	-0,020
-135,643	220,615	0,047	-0,054
-134,629	-200,000	-0,014	0,101
-133,614	529,568	-0,076	0,128
-132,599	34,022	0,187	0,115
-131,585	39,039	0,063	-0,040
-130,570	-200,000	0,009	-0,162
-129,556	-90,315	-0,173	-0,035
-128,541	154,943	0,021	-0,020
-127,526	424,056	0,103	0,157
-126,512	-130,346	-0,090	-0,009
-125,497	-66,228	-0,107	0,030
-124,483	-46,493	-0,061	-0,021
-123,468	534,827	0,097	0,163
-122,453	451,899	0,059	0,093
-121,439	161,704	-0,093	-0,092
-120,424	-107,587	0,026	0,004
-119,410	-200,000	-0,010	0,073
-118,395	74,669	0,056	0,042
-117,380	-200,000	-0,001	0,103
-116,366	162,804	-0,080	0,079
-115,351	341,679	-0,087	-0,120
-114,337	-200,000	-0,042	-0,153
-113,322	-200,000	0,001	-0,035
-112,307	-200,000	-0,002	0,008
-111,293	-200,000	-0,011	0,035
-110,278	-35,301	0,046	0,017
-109,264	487,037	-0,099	0,160
-108,249	-77,539	0,100	-0,024
-107,234	193,308	-0,028	0,030
-106,220	-179,669	-0,109	-0,002
-105,205	-200,000	-0,006	-0,118
-104,191	-17,745	0,072	-0,032
-103,176	244,173	0,051	0,061
-102,162	418,215	-0,026	-0,040
-101,147	117,422	0,034	0,030
-100,132	-76,301	-0,128	-0,032
-99,118	271,573	-0,059	-0,074
-98,103	-98,357	0,096	0,017
-97,089	624,782	0,045	-0,081
-96,074	-74,913	0,159	-0,040
-95,059	143,166	0,037	0,035
-94,045	-106,277	0,026	0,004
-93,030	-60,542	-0,023	-0,007
-92,016	536,905	0,032	-0,054
-91,001	-58,627	-0,112	0,034
-89,986	800,000	0,047	0,141
-88,972	83,281	0,070	0,054
-87,957	800,000	0,048	-0,099
-86,943	800,000	-0,083	-0,183
-85,928	319,763	0,029	0,039
-84,913	-200,000	-0,001	-0,028
-83,899	-161,618	-0,155	-0,006
-82,884	40,084	-0,089	0,057
-81,870	4,879	0,203	0,105
-80,855	-35,421	-0,044	0,017
-79,840	800,000	-0,049	-0,103
-78,826	-109,648	-0,103	-0,015
-77,811	-200,000	0,018	-0,150
-76,797	-200,000	0,011	-0,103
-75,782	182,822	-0,092	0,097
-74,767	800,000	0,045	-0,117
-73,753	-121,905	0,111	0,013
-72,738	-200,000	0,028	-0,099
-71,724	800,000	-0,009	-0,024
-70,709	128,300	-0,094	-0,084
-69,694	-200,000	0,002	-0,014
-68,680	-41,969	0,071	0,025
-67,665	334,486	0,030	-0,042
-66,651	9,858	0,067	0,036
-65,636	356,330	-0,048	-0,067
-64,622	800,000	0,026	0,069
-63,607	77,272	-0,085	0,064
-62,592	-98,222	0,059	-0,011
-61,578	-35,573	-0,066	0,025
-60,563	-200,000	-0,010	0,114
-59,549	23,832	0,133	0,077
-58,534	22,914	-1,715	-0,992
-57,519	373,885	-1,280	-1,847
-56,505	-200,000	-0,605	-4,556
-55,490	502,394	0,906	1,486
-54,476	800,000	4,881	11,180
-53,461	-200,000	20,194	323,860
-52,446	800,000	752,365	2311,235
-51,432	548,982	1663,326	2828,470
-50,417	74,827	1671,824	1242,881
-49,403	19,894	1544,707	877,561
-48,388	13,903	1467,077	804,320
-47,373	18,379	1457,432	820,620
-46,359	16,344	1446,954	804,938
-45,344	12,168	1442,384	782,370
-44,330	12,110	1440,641	781,114
-43,315	12,092	1438,853	780,026
-42,300	12,121	1437,060	779,164
-41,286	12,150	1435,808	778,591
-40,271	12,071	1434,550	777,502
-39,257	12,092	1433,157	776,818
-38,242	12,188	1432,019	776,626
-37,227	12,113	1430,905	775,634
-36,213	12,120	1429,699	774,983
-35,198	12,183	1428,283	774,482
-34,184	12,159	1427,507	773,920
-33,169	12,128	1425,839	772,835
-32,154	12,165	1424,807	772,421
-31,140	12,190	1423,500	771,801
-30,125	12,198	1422,491	771,261
-29,111	12,166	1421,425	770,500
-28,096	12,179	1420,397	769,975
-27,082	12,089	1419,138	768,837
-26,067	12,115	1418,234	768,439
-25,052	12,080	1417,046	767,601
-24,038	12,142	1415,825	767,197
-23,023	12,108	1415,089	766,612
-22,009	12,088	1414,018	765,908
-20,994	12,062	1413,160	765,287
-19,979	12,045	1412,423	764,781
-18,965	12,061	1411,283	764,207
-17,950	12,016	1410,618	763,607
-16,936	12,066	1409,459	763,183
-15,921	11,955	1408,569	762,151
-14,906	11,991	1407,598	761,763
-13,892	12,055	1406,565	761,471
-12,877	12,002	1405,893	760,831
-11,863	12,007	1405,044	760,365
-10,848	11,977	1404,045	759,655
-9,833	11,863	1403,359	758,723
-8,819	11,901	1402,236	758,259
-7,804	11,874	1401,348	757,625
-6,790	11,920	1400,462	757,330
-5,775	11,957	1399,173	756,776
-4,760	11,906	1398,233	756,002
-3,746	11,887	1397,289	755,371
-2,731	11,841	1396,623	754,769
-1,717	11,844	1395,851	754,336
-0,702	11,883	1393,887	753,423
0,313	15,895	1309,041	726,071
1,327	32,472	699,636	426,128
2,342	50,357	121,760	81,162
3,356	1,585	16,539	8,382
4,371	11,098	3,287	1,770
5,386	36,965	0,620	0,387
6,400	-200,000	-0,053	0,377
7,415	30,981	-0,214	-0,129
8,429	-18,691	-0,272	-0,119
9,444	-54,655	-0,310	-0,098
10,459	153,024	-0,248	-0,239
11,473	139,544	-0,260	-0,242
12,488	165,797	-0,216	-0,216
13,502	-54,082	-0,355	-0,113
14,517	100,172	-0,246	-0,201
15,531	17,965	-0,354	-0,198
16,546	69,421	-0,352	-0,256
17,561	66,023	-0,273	-0,195
18,575	223,137	-0,212	-0,242
19,590	344,688	-0,159	-0,221
20,604	17,725	-0,199	-0,111
21,619	1,959	-0,590	-0,299
22,634	49,488	-0,529	-0,351
23,648	49,591	-0,461	-0,306
24,663	56,013	-0,315	-0,215
25,677	-10,389	-0,367	-0,171
26,692	128,314	-0,370	-0,332
27,707	-8,325	-0,409	-0,193
28,721	169,444	-0,307	-0,309
29,736	85,717	-0,401	-0,310
30,750	200,888	-0,333	-0,362
31,765	39,070	-0,385	-0,242
32,780	-64,585	-0,444	-0,126
33,794	126,504	-0,287	-0,256
34,809	185,854	-0,303	-0,318
35,823	63,969	-0,358	-0,253
36,838	309,727	-0,311	-0,410
37,853	206,555	-0,350	-0,384
38,867	208,612	-0,336	-0,370
39,882	132,290	-0,409	-0,371
40,896	94,502	-0,398	-0,318
41,911	331,307	-0,187	-0,254
42,926	-44,691	-0,365	-0,128
43,940	48,659	-0,277	-0,183
44,955	29,883	-0,300	-0,180
45,969	-18,533	-0,407	-0,178
46,984	34,061	-0,315	-0,192
47,999	116,711	-0,315	-0,272
49,013	93,443	-0,319	-0,254
50,028	-29,246	-0,339	-0,136
51,042	68,795	-0,393	-0,283
52,057	-16,180	-0,385	-0,171
53,071	44,053	-0,520	-0,334
54,086	149,852	-0,192	-0,183
55,101	206,910	-0,328	-0,360
56,115	-24,767	-0,387	-0,161
57,130	93,703	-0,374	-0,298
58,144	374,013	-0,246	-0,353
59,159	45,935	-0,323	-0,210
60,174	-38,972	-0,375	-0,138
61,188	13,659	-0,360	-0,196
62,203	61,772	-0,220	-0,154
63,217	16,569	-0,403	-0,223
64,232	-16,461	-0,483	-0,214
65,247	84,640	-0,348	-0,267
66,261	147,195	-0,313	-0,296
67,276	63,331	-0,388	-0,273
68,290	94,451	-0,284	-0,226
69,305	211,689	-0,188	-0,209
70,320	18,425	-0,418	-0,234
71,334	-127,385	-0,263	-0,027
72,349	82,273	-0,276	-0,210
73,363	-26,026	-0,392	-0,161
74,378	83,928	-0,275	-0,211
75,393	45,253	-0,356	-0,230
76,407	-9,724	-0,174	-0,081
77,422	59,110	-0,276	-0,190
78,436	32,297	-0,296	-0,179
79,451	160,447	-0,335	-0,328
80,466	-21,330	-0,233	-0,099
81,480	30,324	-0,354	-0,212
82,495	245,651	-0,257	-0,304
83,509	197,763	-0,294	-0,315
84,524	-59,217	-0,404	-0,121
85,539	146,206	-0,148	-0,139
86,553	-5,182	-0,374	-0,180
87,568	101,556	-0,246	-0,201
88,582	45,102	-0,261	-0,168
89,597	253,510	-0,271	-0,325
90,611	-22,006	-0,309	-0,131
91,626	-73,381	-0,258	-0,066
92,641	-25,084	-0,159	-0,066
93,655	-71,126	-0,333	-0,087
94,670	31,400	-0,421	-0,253
95,684	89,259	-0,304	-0,238
96,699	137,282	-0,163	-0,150
97,714	-40,302	-0,328	-0,119
98,728	-14,271	-0,248	-0,112
99,743	-103,003	-0,273	-0,045
100,757	-3,108	-0,359	-0,175
101,772	41,257	-0,296	-0,187
102,787	298,741	-0,221	-0,285
103,801	108,007	-0,224	-0,187
104,816	328,316	-0,228	-0,307
105,830	-12,843	-0,304	-0,138
106,845	-165,089	-0,288	-0,009
107,860	648,938	-0,134	-0,242
108,874	22,428	-0,253	-0,144
109,889	358,253	-0,178	-0,249
110,903	-16,735	-0,224	-0,099
111,918	278,600	-0,205	-0,256
112,933	-46,826	-0,152	-0,052
113,947	-106,201	-0,225	-0,035
114,962	-142,511	-0,253	-0,017
115,976	13,338	-0,287	-0,155
116,991	16,577	-0,364	-0,201
118,006	49,033	-0,305	-0,200
119,020	87,645	-0,255	-0,197
120,035	-8,157	-0,266	-0,125
121,049	-91,877	-0,281	-0,055
122,064	-15,603	-0,325	-0,144
123,079	20,081	-0,141	-0,079
124,093	106,274	-0,231	-0,191
125,108	31,188	-0,235	-0,141
126,122	-16,240	-0,243	-0,108
127,137	72,142	-0,174	-0,126
128,151	-49,727	-0,222	-0,073
129,166	100,455	-0,217	-0,176
130,181	38,981	-0,328	-0,205
131,195	66,327	-0,224	-0,159
132,210	50,271	-0,342	-0,225
133,224	29,768	-0,280	-0,166
134,239	800,000	-0,049	-0,146
135,254	232,124	-0,213	-0,245
136,268	98,240	-0,284	-0,228
137,283	-64,982	-0,311	-0,087
138,297	52,799	-0,391	-0,260
139,312	378,871	-0,187	-0,268
140,327	93,655	-0,270	-0,213
141,341	161,305	-0,221	-0,216
142,356	115,725	-0,249	-0,212
143,370	348,194	-0,208	-0,287
144,385	51,372	-0,343	-0,227
145,400	61,482	-0,240	-0,167
146,414	170,441	-0,171	-0,171
147,429	70,879	-0,269	-0,194
148,443	45,073	-0,268	-0,172
149,458	188,059	-0,150	-0,156
150,473	20,171	-0,252	-0,141
151,487	355,725	-0,141	-0,197
152,502	-124,676	-0,341	-0,036
153,516	26,507	-0,169	-0,098
154,531	276,614	-0,250	-0,311
155,546	233,862	-0,252	-0,290
156,560	108,948	-0,150	-0,125
157,575	268,762	-0,252	-0,309
158,589	149,915	-0,299	-0,283
159,604	37,678	-0,330	-0,204
160,619	-46,077	-0,302	-0,103
161,633	64,206	-0,282	-0,197
162,648	50,223	-0,314	-0,206
163,662	162,543	-0,210	-0,205
164,677	-22,063	-0,136	-0,057
165,692	-62,322	-0,201	-0,058
166,706	-54,393	-0,329	-0,103
167,721	77,212	-0,210	-0,155
168,735	153,439	-0,199	-0,190
169,750	60,215	-0,169	-0,116
170,764	800,000	-0,021	-0,060
171,779	-118,489	-0,239	-0,029
172,794	800,000	-0,132	-0,310
173,808	-16,144	-0,192	-0,085
174,823	79,655	-0,353	-0,264
175,837	221,051	-0,216	-0,242
176,852	-37,538	-0,386	-0,143
177,867	-54,440	-0,258	-0,081
178,881	-115,379	-0,215	-0,028
179,896	-130,757	-0,134	-0,012
180,910	245,335	-0,137	-0,160
181,925	179,514	-0,160	-0,163
182,940	149,409	-0,277	-0,261
183,954	48,407	-0,189	-0,123
184,969	135,546	-0,117	-0,106
185,983	-138,086	-0,207	-0,016
186,998	108,709	-0,295	-0,245
188,013	273,638	-0,175	-0,215
189,027	199,322	-0,283	-0,302
190,042	87,148	-0,261	-0,201
191,056	311,629	-0,199	-0,260
192,071	228,506	-0,140	-0,159
193,086	229,662	-0,156	-0,177
194,100	99,772	-0,228	-0,183
195,115	14,277	-0,224	-0,121
196,129	-78,772	-0,225	-0,053
197,144	138,882	-0,253	-0,231
198,159	-200,000	-0,009	-0,115
199,173	-18,077	-0,222	-0,096
200,188	-55,815	-0,294	-0,091
201,202	40,651	-0,215	-0,134
202,217	-96,934	-0,182	-0,033
203,232	313,099	-0,205	-0,268
204,246	-38,144	-0,234	-0,086
205,261	-85,908	-0,277	-0,059
206,275	105,696	-0,191	-0,157
207,290	-200,000	-0,014	-0,099
208,304	303,912	-0,087	-0,112
209,319	23,206	-0,270	-0,153
210,334	198,335	-0,233	-0,247
211,348	44,603	-0,210	-0,134
212,363	28,847	-0,351	-0,206
213,377	93,260	-0,162	-0,127
214,392	-115,929	-0,212	-0,027
215,407	124,644	-0,168	-0,147
216,421	-35,238	-0,158	-0,059
217,436	118,613	-0,257	-0,220
218,450	455,028	-0,084	-0,129
219,465	453,840	-0,104	-0,161
220,480	34,606	-0,068	-0,041
221,494	515,755	-0,083	-0,134
222,509	83,276	-0,088	-0,066
223,523	123,238	-0,145	-0,126
224,538	-13,040	-0,086	-0,039
225,553	8,497	-0,275	-0,143
226,567	62,997	-0,260	-0,180
227,582	-28,949	-0,175	-0,069
228,596	-100,587	-0,274	-0,046
229,611	121,794	-0,158	-0,136
230,626	44,495	-0,164	-0,104
231,640	72,802	-0,233	-0,168
232,655	-9,109	-0,233	-0,108
233,669	114,504	-0,194	-0,164
234,684	206,789	-0,138	-0,149
235,699	152,036	-0,153	-0,145
236,713	109,388	-0,170	-0,141
237,728	29,829	-0,204	-0,120
238,742	-66,818	-0,347	-0,094
239,757	586,671	-0,140	-0,239
240,772	-10,180	-0,150	-0,069
241,786	257,570	-0,174	-0,207
242,801	461,317	-0,111	-0,171
243,815	12,574	-0,225	-0,120
244,830	-65,185	-0,114	0,032
245,844	353,678	-0,120	-0,165
246,859	37,193	-0,227	-0,139
247,874	434,661	-0,232	-0,349
248,888	76,038	-0,265	-0,193
249,903	105,588	-0,087	-0,071
250,917	800,000	-0,078	-0,186
251,932	-124,075	-0,138	-0,015
252,947	382,390	-0,117	-0,167
253,961	244,975	-0,096	-0,111
254,976	-143,506	-0,184	0,012
255,990	302,589	-0,213	-0,273
257,005	-63,173	-0,205	-0,058
258,020	-136,330	-0,239	0,019
259,034	-169,943	-0,242	-0,006
260,049	197,415	-0,212	-0,224
261,063	273,653	-0,087	-0,106
262,078	450,863	-0,105	-0,161
263,093	646,319	-0,175	-0,311
264,107	800,000	-0,046	-0,130
265,122	-13,016	-0,167	-0,075
266,136	124,946	-0,200	-0,174
267,151	-161,128	-0,277	0,010
268,166	35,123	-0,236	-0,142
269,180	760,819	-0,120	-0,225
270,195	53,361	-0,131	-0,086
271,209	233,713	-0,166	-0,188
272,224	182,338	-0,148	-0,150
273,239	240,770	-0,138	-0,159
274,253	800,000	-0,098	-0,238
275,268	183,481	-0,124	-0,126
276,282	182,805	-0,091	-0,093
277,297	52,588	-0,222	-0,146
278,312	134,455	-0,136	-0,122
279,326	-83,063	-0,123	-0,027
280,341	-109,173	-0,086	0,012
281,355	-143,662	-0,029	-0,002
282,370	-142,984	-0,249	0,016
283,384	-104,046	-0,192	-0,031
284,399	95,863	-0,193	-0,152
285,414	85,310	-0,218	-0,165
286,428	516,270	-0,105	-0,170
287,443	-109,846	-0,150	-0,021
288,457	78,757	-0,188	0,138
289,472	2,617	-0,269	-0,134
290,487	-200,000	-0,036	-0,196
291,501	241,742	-0,139	-0,160
292,516	163,342	-0,159	-0,154
293,530	10,880	-0,220	-0,116
294,545	-200,000	-0,027	-0,177
295,560	-127,115	-0,154	-0,015
296,574	-44,983	-0,229	-0,078
297,589	122,043	-0,188	-0,162
298,603	33,106	-0,150	-0,089
299,618	252,981	-0,139	-0,164
300,633	800,000	-0,041	-0,118
301,647	-42,994	-0,171	-0,059
302,662	-54,541	-0,163	-0,051
303,676	106,344	-0,194	-0,158
304,691	-106,455	-0,102	-0,015
305,706	596,336	-0,104	-0,178
306,720	439,633	-0,142	-0,214
307,735	70,625	-0,177	-0,126
308,749	108,488	-0,122	-0,100
309,764	240,310	-0,091	-0,104
310,779	-69,514	-0,216	0,056
311,793	264,459	0,049	-0,059
312,808	194,290	-0,176	-0,183
313,822	258,313	-0,115	-0,137
314,837	234,803	-0,175	-0,198
315,852	-87,063	-0,187	-0,039
316,866	420,357	-0,116	-0,171
317,881	59,365	-0,110	-0,074
318,895	207,142	-0,180	-0,193
319,910	250,799	-0,175	-0,205
320,925	-200,000	-0,045	-0,189
321,939	-200,000	-0,025	-0,099
322,954	-52,308	-0,196	-0,062
323,968	37,063	-0,152	0,092
324,983	86,400	-0,125	-0,095
325,997	-24,304	-0,184	-0,075
327,012	800,000	-0,124	-0,321
328,027	128,404	-0,165	-0,144
329,041	27,700	-0,229	-0,132
330,056	78,490	-0,100	-0,073
331,070	-200,000	0,000	-0,042
332,085	-29,205	-0,086	-0,034
333,100	-200,000	-0,036	-0,186
334,114	33,860	-0,106	0,063
335,129	-45,546	-0,137	-0,046
336,143	-200,000	0,012	-0,156
337,158	-136,740	-0,099	0,008
338,173	-62,081	-0,160	-0,045
339,187	-154,732	-0,170	-0,008
340,202	800,000	-0,040	0,082
341,216	730,352	-0,120	-0,222
342,231	-65,406	-0,273	-0,075
343,246	264,431	-0,120	-0,143
344,260	442,957	-0,042	-0,064
345,275	249,859	-0,085	-0,100
346,289	72,224	-0,052	-0,037
347,304	-61,736	-0,220	-0,063
348,319	44,522	-0,159	-0,100
349,333	38,371	-0,177	-0,108
350,348	-87,519	-0,213	-0,044
351,362	-81,099	-0,179	-0,040
352,377	445,245	-0,068	0,102
353,392	-106,880	-0,138	0,021
354,406	217,112	-0,133	-0,146
355,421	209,184	1316,062	1413,534
356,435	160,986	1476,934	1414,006
