DTS Sentinel unit serial number:	SN410029Multiplexer serial number:	ORYXHardware model number:	OX2-SRSoftware version number:	ORYX F/W v4,00 Oryx Data Collector v3.7.2.0data status	okinstallation	B3 Nyhavnadifferential loss correction	single-endedforward channel	channel 1reverse channel	N/Adate	2023/12/04time	07:12:30forward acquisition time	300,00reverse acquisition time	0,00gamma	499,1914k internal	0,3206k external	0,3206temperature offset calibration	1,0000default loss term (dB/km)	0,3820temperature slope calibration	1,0000multiplexer offset coefficient	1,0000multiplexer slope coefficient	1,0000fibre end	0,00T internal ref (°C)	12,17T ext. ref 1 (°C)	-2,36T ext. ref 2 (°C)	-2,41length (m)	temperature (°C)	Stokes	anti-Stokes-744,400	192,031	-0,261	-0,286
-743,385	-200,000	0,014	0,295
-742,371	253,616	0,062	-0,077
-741,356	-200,000	0,040	0,206
-740,342	530,280	-0,127	-0,218
-739,327	238,006	-0,206	0,249
-738,312	53,618	-0,384	-0,268
-737,298	-200,000	-0,075	0,363
-736,283	362,371	-0,123	-0,180
-735,269	-200,000	-0,027	0,164
-734,254	-6,765	-0,306	-0,151
-733,239	-153,287	-0,227	-0,011
-732,225	32,063	-0,309	-0,193
-731,210	47,528	0,199	0,134
-730,196	668,980	0,037	-0,070
-729,181	559,761	-0,099	-0,174
-728,167	800,000	0,038	-0,079
-727,152	800,000	-0,011	-0,028
-726,137	-135,705	-0,191	-0,016
-725,123	392,944	-0,110	-0,166
-724,108	-147,090	-0,081	0,005
-723,094	-200,000	-0,030	-0,145
-722,079	800,000	-0,058	-0,173
-721,064	278,723	-0,038	0,049
-720,050	97,317	-0,043	0,035
-719,035	704,805	-0,083	-0,160
-718,021	-171,184	-0,077	-0,002
-717,006	-43,376	-0,106	-0,039
-715,991	-200,000	0,003	-0,080
-714,977	800,000	-0,101	-0,214
-713,962	139,210	-0,085	-0,081
-712,948	-200,000	0,011	0,059
-711,933	760,163	0,049	0,097
-710,918	-50,116	-0,088	-0,030
-709,904	-200,000	-0,037	-0,162
-708,889	154,551	-0,076	-0,076
-707,875	-200,000	0,014	-0,063
-706,860	-141,907	0,135	0,010
-705,845	12,945	0,099	0,056
-704,831	-200,000	0,028	0,197
-703,816	-200,000	0,007	0,142
-702,802	-200,000	-0,050	0,000
-701,787	800,000	-0,044	-0,104
-700,772	-200,000	-0,013	-0,129
-699,758	161,975	0,066	-0,067
-698,743	-71,480	-0,156	-0,042
-697,729	-200,000	-0,025	0,130
-696,714	247,436	0,050	0,061
-695,699	18,406	-0,043	-0,025
-694,685	98,938	-0,065	-0,054
-693,670	-23,375	0,113	-0,049
-692,656	23,143	-0,150	-0,089
-691,641	136,741	0,085	0,081
-690,627	128,931	0,088	-0,081
-689,612	-72,185	-0,075	-0,020
-688,597	800,000	-0,047	-0,120
-687,583	173,776	-0,046	-0,048
-686,568	-150,908	-0,159	0,009
-685,554	694,060	0,056	-0,107
-684,539	-200,000	-0,006	-0,023
-683,524	-157,860	0,236	-0,010
-682,510	-98,577	-0,025	-0,005
-681,495	800,000	-0,029	-0,086
-680,481	-40,975	-0,115	0,043
-679,466	-200,000	0,003	0,035
-678,451	81,517	0,100	-0,078
-677,437	35,600	0,175	-0,111
-676,422	800,000	0,027	-0,055
-675,408	166,744	-0,066	0,067
-674,393	399,076	0,041	0,063
-673,378	-200,000	-0,007	-0,030
-672,364	114,088	-0,175	-0,154
-671,349	56,216	-0,142	-0,100
-670,335	-200,000	0,010	0,061
-669,320	-32,317	0,083	-0,033
-668,305	-27,535	-0,078	0,033
-667,291	-6,397	-0,088	0,043
-666,276	800,000	0,023	0,063
-665,262	-200,000	-0,000	-0,010
-664,247	-35,514	0,153	0,060
-663,232	800,000	-0,052	0,127
-662,218	484,588	-0,037	-0,062
-661,203	32,944	0,128	0,080
-660,189	226,533	-0,041	0,048
-659,174	-86,788	0,069	-0,015
-658,159	54,457	-0,107	-0,074
-657,145	252,682	-0,032	0,040
-656,130	179,420	-0,065	-0,069
-655,116	113,286	-0,028	0,025
-654,101	-200,000	0,019	0,086
-653,086	-158,126	-0,075	0,003
-652,072	47,143	-0,093	0,063
-651,057	18,753	-0,040	-0,023
-650,043	-200,000	-0,019	-0,091
-649,028	591,588	0,103	0,184
-648,014	-200,000	-0,028	0,121
-646,999	-93,672	0,052	-0,010
-645,984	-17,380	-0,095	-0,043
-644,970	-69,907	-0,081	0,022
-643,955	315,441	-0,031	-0,043
-642,941	134,354	-0,121	-0,113
-641,926	-122,102	-0,019	0,002
-640,911	-200,000	0,026	0,105
-639,897	-79,422	-0,068	-0,016
-638,882	46,686	-0,066	0,044
-637,868	129,859	-0,092	-0,085
-636,853	421,447	-0,093	-0,145
-635,838	-200,000	0,003	-0,110
-634,824	-158,627	0,098	-0,004
-633,809	-155,098	-0,090	-0,004
-632,795	-200,000	-0,019	-0,089
-631,780	189,737	-0,024	0,026
-630,765	-89,733	-0,096	-0,020
-629,751	-85,278	-0,010	0,002
-628,736	439,743	-0,056	0,089
-627,722	302,456	-0,056	-0,075
-626,707	-121,701	0,036	-0,004
-625,692	-69,190	-0,048	-0,013
-624,678	763,848	-0,031	-0,060
-623,663	562,719	0,061	0,107
-622,649	-200,000	0,011	0,057
-621,634	198,725	-0,088	-0,097
-620,619	-81,612	0,049	-0,011
-619,605	800,000	-0,061	0,180
-618,590	-200,000	-0,023	0,122
-617,576	-75,267	-0,035	-0,009
-616,561	-85,305	-0,065	-0,014
-615,546	800,000	-0,030	0,079
-614,532	-200,000	-0,007	0,149
-613,517	154,523	-0,057	0,057
-612,503	-200,000	0,004	-0,083
-611,488	214,340	-0,031	0,035
-610,474	265,045	0,043	-0,055
-609,459	-8,927	-0,017	0,008
-608,444	800,000	-0,027	-0,071
-607,430	-200,000	0,008	-0,100
-606,415	148,453	-0,171	-0,167
-605,401	-175,167	0,054	-0,001
-604,386	-200,000	-0,001	-0,025
-603,371	800,000	0,048	-0,115
-602,357	-76,357	0,184	0,046
-601,342	-200,000	-0,011	-0,041
-600,328	-200,000	-0,026	-0,130
-599,313	-20,035	-0,025	0,011
-598,298	-96,091	-0,015	0,003
-597,284	-161,437	0,092	0,003
-596,269	800,000	0,013	0,039
-595,255	293,493	0,079	0,104
-594,240	-200,000	-0,006	0,066
-593,225	-200,000	-0,011	-0,080
-592,211	278,059	0,023	0,029
-591,196	51,501	0,048	-0,033
-590,182	-200,000	-0,012	-0,050
-589,167	800,000	0,021	0,054
-588,152	796,351	0,008	-0,015
-587,138	5,116	-0,037	0,020
-586,123	14,434	-0,061	-0,034
-585,109	-200,000	-0,034	-0,123
-584,094	722,193	-0,035	0,068
-583,079	800,000	-0,018	-0,052
-582,065	157,814	-0,011	0,011
-581,050	110,514	0,086	-0,075
-580,036	72,419	-0,174	-0,131
-579,021	-200,000	-0,005	-0,095
-578,006	-200,000	0,006	-0,042
-576,992	118,747	0,146	-0,130
-575,977	-104,694	0,169	0,028
-574,963	-200,000	-0,015	0,102
-573,948	-200,000	0,001	0,032
-572,934	-200,000	-0,018	0,085
-571,919	-200,000	-0,021	-0,104
-570,904	-108,142	-0,100	-0,015
-569,890	-200,000	-0,019	-0,081
-568,875	-200,000	0,010	0,062
-567,861	156,810	0,043	0,042
-566,846	-93,188	0,147	-0,029
-565,831	-200,000	-0,002	-0,155
-564,817	-74,308	-0,059	-0,015
-563,802	-121,694	-0,048	0,006
-562,788	800,000	0,042	0,088
-561,773	-177,896	0,141	-0,002
-560,758	293,117	0,069	-0,092
-559,744	470,424	0,089	0,145
-558,729	-172,802	-0,046	0,001
-557,715	28,950	-0,070	0,043
-556,700	694,967	-0,048	-0,092
-555,685	-38,383	0,017	-0,006
-554,671	-133,895	0,019	-0,002
-553,656	-3,760	0,004	0,002
-552,642	5,644	0,062	0,033
-551,627	800,000	-0,062	-0,139
-550,612	409,903	0,038	-0,058
-549,598	-69,083	0,074	-0,020
-548,583	38,542	-0,074	-0,048
-547,569	68,058	0,043	-0,032
-546,554	560,286	0,039	-0,068
-545,539	800,000	-0,036	-0,100
-544,525	-53,857	0,047	-0,015
-543,510	-200,000	-0,012	-0,083
-542,496	402,412	-0,023	0,035
-541,481	-200,000	0,004	-0,178
-540,466	-200,000	0,001	-0,150
-539,452	271,752	0,084	0,107
-538,437	60,389	0,112	0,080
-537,423	-200,000	-0,002	-0,071
-536,408	-69,782	0,021	-0,006
-535,393	284,098	-0,147	0,190
-534,379	774,456	0,011	0,022
-533,364	83,814	0,078	-0,061
-532,350	104,784	0,060	0,051
-531,335	104,628	-0,010	0,008
-530,321	-200,000	-0,007	0,178
-529,306	216,909	-0,083	-0,095
-528,291	-104,489	-0,075	-0,012
-527,277	233,217	-0,086	-0,102
-526,262	20,179	0,008	-0,005
-525,248	477,293	0,105	0,172
-524,233	706,853	-0,051	-0,097
-523,218	-200,000	0,009	0,033
-522,204	-200,000	-0,001	-0,036
-521,189	561,256	-0,006	-0,010
-520,175	94,088	-0,047	-0,038
-519,160	-200,000	0,009	-0,106
-518,145	511,406	0,072	0,122
-517,131	129,217	0,063	0,058
-516,116	-27,003	0,044	0,019
-515,102	-125,908	-0,047	-0,005
-514,087	-200,000	0,027	-0,172
-513,072	484,411	0,016	-0,027
-512,058	124,459	0,039	-0,035
-511,043	-200,000	0,010	-0,087
-510,029	-200,000	-0,017	-0,068
-509,014	322,459	0,010	-0,014
-507,999	-200,000	0,000	0,062
-506,985	230,122	0,021	-0,025
-505,970	103,235	-0,060	-0,050
-504,956	-63,683	0,044	-0,013
-503,941	170,284	0,035	-0,036
-502,926	800,000	0,013	0,038
-501,912	-200,000	-0,002	0,017
-500,897	-46,046	0,062	-0,022
-499,883	69,554	0,075	0,056
-498,868	-31,206	-0,050	0,020
-497,853	423,805	-0,022	-0,035
-496,839	298,770	-0,047	-0,063
-495,824	-96,754	0,104	-0,019
-494,810	751,054	-0,041	0,080
-493,795	-154,924	0,068	0,003
-492,781	-157,421	-0,173	-0,007
-491,766	-120,204	-0,054	-0,007
-490,751	-45,290	-0,098	-0,035
-489,737	-200,000	0,024	-0,104
-488,722	296,759	-0,051	0,067
-487,708	-42,693	0,083	-0,030
-486,693	800,000	-0,015	0,033
-485,678	110,777	-0,073	-0,063
-484,664	-116,943	-0,063	-0,008
-483,649	17,358	0,028	-0,016
-482,635	180,945	-0,019	-0,020
-481,620	166,694	0,100	-0,102
-480,605	-200,000	0,008	-0,042
-479,591	800,000	-0,036	-0,103
-478,576	150,880	0,068	-0,067
-477,562	-122,937	-0,127	-0,015
-476,547	-200,000	0,002	0,111
-475,532	800,000	0,021	-0,051
-474,518	-18,236	0,091	0,041
-473,503	139,974	0,111	0,105
-472,489	-200,000	0,021	0,107
-471,474	-200,000	-0,017	0,098
-470,459	800,000	-0,035	0,077
-469,445	800,000	-0,076	-0,192
-468,430	-200,000	0,004	-0,085
-467,416	-200,000	0,009	0,092
-466,401	258,788	0,031	0,038
-465,386	-110,252	0,092	0,014
-464,372	129,966	0,064	0,059
-463,357	-200,000	0,009	-0,086
-462,343	680,686	-0,032	0,060
-461,328	-66,419	-0,112	-0,032
-460,313	55,632	0,042	0,029
-459,299	-152,052	-0,049	0,003
-458,284	72,180	0,029	-0,022
-457,270	72,989	0,119	0,089
-456,255	-50,432	-0,039	0,013
-455,241	8,198	-0,132	0,071
-454,226	342,401	0,064	0,090
-453,211	800,000	0,033	0,101
-452,197	-103,190	0,190	0,032
-451,182	800,000	0,086	0,182
-450,168	90,601	-0,074	-0,059
-449,153	20,890	-0,149	-0,087
-448,138	-109,400	0,128	-0,019
-447,124	37,379	-0,128	-0,081
-446,109	114,609	0,068	-0,060
-445,095	800,000	-0,013	0,034
-444,080	800,000	-0,039	0,122
-443,065	-6,240	0,112	0,055
-442,051	-200,000	0,027	0,132
-441,036	-21,862	0,112	0,049
-440,022	-48,324	-0,135	-0,046
-439,007	-42,796	0,069	0,025
-437,992	-200,000	0,033	-0,122
-436,978	-58,316	0,093	-0,029
-435,963	413,338	-0,044	0,067
-434,949	-200,000	0,017	-0,137
-433,934	108,926	-0,064	-0,055
-432,919	110,101	-0,022	-0,019
-431,905	800,000	0,049	-0,130
-430,890	21,020	0,019	0,011
-429,876	197,073	-0,067	-0,073
-428,861	-6,990	0,072	-0,035
-427,846	65,897	-0,096	0,070
-426,832	800,000	-0,056	-0,130
-425,817	-148,774	-0,111	0,006
-424,803	-141,593	-0,081	-0,006
-423,788	800,000	0,067	0,144
-422,773	-111,634	0,110	-0,016
-421,759	453,519	-0,023	0,037
-420,744	-200,000	0,027	0,103
-419,730	78,221	-0,077	0,059
-418,715	-200,000	0,023	0,107
-417,701	234,777	-0,064	0,075
-416,686	265,194	-0,098	0,122
-415,671	456,671	0,070	0,111
-414,657	-71,552	0,027	-0,007
-413,642	-200,000	-0,001	0,038
-412,628	-54,540	0,046	-0,015
-411,613	236,562	0,027	0,033
-410,598	-200,000	0,026	-0,129
-409,584	233,555	0,049	-0,058
-408,569	642,448	0,058	0,106
-407,555	-27,299	0,140	-0,058
-406,540	224,670	-0,118	0,137
-405,525	2,650	-0,052	0,027
-404,511	185,067	0,021	-0,023
-403,496	101,920	0,091	-0,076
-402,482	56,594	0,066	0,046
-401,467	-170,536	0,106	0,003
-400,452	-200,000	0,021	-0,093
-399,438	-25,413	0,019	0,008
-398,423	800,000	-0,040	0,083
-397,409	102,724	-0,097	-0,081
-396,394	540,506	0,053	-0,090
-395,379	90,991	0,012	0,010
-394,365	-200,000	0,010	0,066
-393,350	-200,000	0,021	0,134
-392,336	331,170	-0,032	0,044
-391,321	117,500	-0,079	0,070
-390,306	-151,084	-0,181	-0,010
-389,292	723,643	0,020	-0,037
-388,277	-177,786	-0,060	0,001
-387,263	-200,000	-0,006	-0,021
-386,248	569,704	0,101	0,177
-385,233	-200,000	0,002	0,090
-384,219	50,097	-0,051	0,035
-383,204	-44,859	0,030	-0,011
-382,190	-42,347	0,118	-0,043
-381,175	-0,895	0,060	0,030
-380,160	124,297	0,124	0,112
-379,146	158,952	-0,123	0,123
-378,131	-200,000	-0,019	0,182
-377,117	-32,123	0,138	0,055
-376,102	800,000	-0,054	-0,149
-375,088	800,000	0,033	0,088
-374,073	-200,000	-0,016	-0,103
-373,058	800,000	0,032	0,077
-372,044	-178,814	0,104	0,002
-371,029	-96,328	0,166	0,031
-370,015	304,246	0,063	0,084
-369,000	763,243	-0,031	-0,061
-367,985	-127,981	-0,045	-0,005
-366,971	75,597	-0,081	-0,061
-365,956	800,000	-0,032	-0,078
-364,942	244,198	0,050	-0,060
-363,927	-55,665	0,060	0,019
-362,912	-67,331	-0,039	-0,011
-361,898	340,966	-0,055	-0,077
-360,883	724,854	-0,069	-0,132
-359,869	-200,000	-0,027	-0,114
-358,854	114,387	0,106	0,092
-357,839	61,044	-0,122	0,086
-356,825	800,000	0,058	0,178
-355,810	-200,000	0,013	0,110
-354,796	-65,713	0,046	0,013
-353,781	294,935	0,044	0,058
-352,766	800,000	-0,025	-0,064
-351,752	-200,000	-0,006	0,059
-350,737	-2,600	-0,048	0,024
-349,723	800,000	0,026	0,077
-348,708	-200,000	0,039	-0,161
-347,693	274,420	-0,096	-0,122
-346,679	-200,000	-0,024	0,076
-345,664	-200,000	-0,041	-0,175
-344,650	96,398	0,034	0,028
-343,635	614,891	0,035	0,063
-342,620	800,000	0,025	0,068
-341,606	800,000	-0,016	-0,047
-340,591	-200,000	-0,078	0,000
-339,577	36,128	-0,077	0,049
-338,562	800,000	-0,094	-0,232
-337,548	-27,510	0,097	-0,040
-336,533	-72,136	0,087	0,023
-335,518	800,000	-0,026	0,064
-334,504	-60,692	0,090	-0,027
-333,489	800,000	-0,038	-0,089
-332,475	-200,000	-0,156	-0,000
-331,460	-125,387	-0,074	0,008
-330,445	800,000	-0,079	-0,162
-329,431	138,692	0,012	0,011
-328,416	113,067	0,203	0,176
-327,402	57,744	-0,089	0,062
-326,387	800,000	0,053	0,122
-325,372	-99,295	-0,228	-0,041
-324,358	392,879	-0,081	0,120
-323,343	-200,000	0,003	-0,054
-322,329	-153,280	0,110	0,005
-321,314	-200,000	-0,018	-0,074
-320,299	-200,000	0,003	-0,053
-319,285	-200,000	0,014	0,045
-318,270	-77,700	-0,164	0,040
-317,256	800,000	-0,066	0,179
-316,241	116,478	-0,027	0,024
-315,226	31,533	0,143	-0,088
-314,212	581,145	0,092	0,162
-313,197	-89,447	0,127	-0,027
-312,183	-167,139	-0,076	-0,002
-311,168	124,128	0,007	0,006
-310,153	-110,573	-0,168	-0,025
-309,139	-200,000	-0,003	-0,048
-308,124	344,023	0,074	0,104
-307,110	26,449	0,052	0,031
-306,095	-174,027	0,100	0,002
-305,080	-200,000	0,013	-0,103
-304,066	-200,000	0,011	0,036
-303,051	-124,834	0,093	-0,010
-302,037	116,720	-0,068	-0,059
-301,022	-130,637	-0,093	-0,009
-300,008	741,679	-0,016	0,031
-298,993	-200,000	-0,012	0,052
-297,978	-200,000	0,038	0,168
-296,964	110,128	0,084	0,072
-295,949	-12,417	-0,121	-0,056
-294,935	800,000	0,070	-0,163
-293,920	52,413	0,149	-0,101
-292,905	-71,061	0,097	-0,026
-291,891	623,242	-0,053	0,096
-290,876	-71,201	0,056	0,015
-289,862	-29,164	-0,088	0,036
-288,847	-85,557	-0,066	-0,015
-287,832	-26,975	-0,042	-0,017
-286,818	-200,000	-0,008	0,089
-285,803	-91,765	-0,071	0,014
-284,789	281,469	0,042	0,054
-283,774	12,619	-0,073	0,040
-282,759	-200,000	-0,020	0,123
-281,745	-71,174	-0,127	-0,034
-280,730	-200,000	0,002	-0,139
-279,716	-200,000	0,022	0,135
-278,701	800,000	0,028	0,065
-277,686	800,000	-0,017	-0,041
-276,672	-200,000	-0,006	0,048
-275,657	-200,000	0,012	-0,078
-274,643	-60,268	-0,067	-0,020
-273,628	-29,635	0,065	-0,026
-272,613	-200,000	0,001	-0,043
-271,599	-166,687	0,116	-0,003
-270,584	-90,987	-0,072	-0,015
-269,570	-184,474	0,067	-0,001
-268,555	65,490	0,025	0,018
-267,540	301,499	0,070	0,092
-266,526	-125,087	-0,049	0,005
-265,511	800,000	0,021	0,066
-264,497	800,000	0,054	-0,108
-263,482	-200,000	-0,018	0,071
-262,467	-200,000	-0,019	0,149
-261,453	-114,904	-0,113	0,015
-260,438	193,209	0,083	-0,090
-259,424	455,282	-0,062	-0,098
-258,409	157,152	0,021	0,021
-257,395	383,313	-0,049	-0,073
-256,380	-54,179	0,091	0,029
-255,365	-200,000	-0,027	-0,102
-254,351	213,526	-0,047	0,053
-253,336	-9,961	-0,081	0,038
-252,322	6,599	-0,032	0,017
-251,307	-200,000	-0,009	-0,180
-250,292	-125,160	-0,141	-0,015
-249,278	-63,908	0,049	0,014
-248,263	800,000	-0,014	0,029
-247,249	800,000	-0,026	-0,082
-246,234	-84,636	0,113	0,025
-245,219	-47,985	-0,067	0,023
-244,205	-177,723	0,011	-0,000
-243,190	14,130	-0,039	-0,021
-242,176	-200,000	-0,013	0,072
-241,161	-1,664	0,062	-0,031
-240,146	63,091	0,087	-0,062
-239,132	30,817	-0,087	0,053
-238,117	800,000	0,047	-0,117
-237,103	-200,000	-0,018	-0,061
-236,088	-200,000	-0,039	0,172
-235,073	60,557	0,151	0,106
-234,059	7,686	-0,144	0,076
-233,044	-200,000	0,013	-0,073
-232,030	68,081	-0,067	-0,049
-231,015	255,424	0,122	-0,149
-230,000	69,126	0,109	-0,080
-228,986	-31,321	-0,053	-0,021
-227,971	-113,705	-0,014	-0,002
-226,957	-200,000	0,013	0,062
-225,942	-153,515	0,019	-0,001
-224,927	227,719	0,126	-0,147
-223,913	800,000	0,011	-0,030
-222,898	127,989	-0,093	-0,084
-221,884	-159,683	0,114	-0,004
-220,869	326,669	0,056	0,076
-219,855	-69,316	-0,059	-0,016
-218,840	-200,000	0,016	0,066
-217,825	800,000	-0,026	0,064
-216,811	483,088	-0,049	-0,079
-215,796	-87,720	-0,128	-0,027
-214,782	-76,241	0,199	-0,050
-213,767	800,000	-0,029	-0,083
-212,752	-200,000	0,005	0,018
-211,738	-200,000	-0,005	0,092
-210,723	-200,000	-0,007	0,113
-209,709	142,050	-0,072	0,068
-208,694	117,867	-0,046	0,040
-207,679	270,519	0,068	-0,086
-206,665	172,059	0,032	0,033
-205,650	340,148	-0,103	0,143
-204,636	706,049	0,027	0,050
-203,621	800,000	-0,018	-0,036
-202,606	800,000	0,019	-0,038
-201,592	-92,939	-0,082	-0,016
-200,577	-200,000	-0,031	-0,107
-199,563	4,113	-0,033	0,017
-198,548	20,021	0,137	0,078
-197,533	624,642	-0,041	0,074
-196,519	88,763	-0,061	-0,048
-195,504	-200,000	-0,025	-0,142
-194,490	800,000	-0,023	0,067
-193,475	-15,788	-0,061	-0,028
-192,460	800,000	0,022	-0,067
-191,446	-8,153	0,083	-0,040
-190,431	38,022	0,230	0,145
-189,417	95,186	-0,052	0,042
-188,402	-67,936	-0,194	0,053
-187,387	-200,000	0,011	-0,080
-186,373	-200,000	0,024	-0,110
-185,358	-137,174	0,071	0,006
-184,344	800,000	0,062	-0,133
-183,329	-200,000	-0,015	0,079
-182,315	-129,553	0,105	0,010
-181,300	800,000	-0,020	0,054
-180,285	40,471	-0,033	0,021
-179,271	-200,000	-0,016	0,098
-178,256	-200,000	-0,021	-0,177
-177,242	-200,000	-0,010	0,180
-176,227	-48,515	0,077	0,026
-175,212	-200,000	-0,007	0,057
-174,198	217,826	-0,027	-0,030
-173,183	-109,173	-0,133	-0,020
-172,169	-200,000	0,012	-0,112
-171,154	28,219	-0,084	-0,050
-170,139	800,000	-0,062	-0,161
-169,125	-30,126	0,194	-0,078
-168,110	667,873	-0,119	0,220
-167,096	629,661	0,075	0,135
-166,081	-97,972	-0,159	-0,029
-165,066	41,733	0,032	-0,021
-164,052	-7,216	-0,082	-0,039
-163,037	88,376	-0,009	0,007
-162,023	-94,206	0,053	0,010
-161,008	82,115	0,034	-0,026
-159,993	225,475	-0,038	-0,044
-158,979	-177,881	-0,099	0,002
-157,964	-90,570	0,054	0,011
-156,950	-67,181	-0,050	0,014
-155,935	72,673	0,038	0,028
-154,920	-79,737	0,114	-0,027
-153,906	-29,891	0,067	0,027
-152,891	561,861	0,049	0,084
-151,877	800,000	-0,028	-0,056
-150,862	341,230	-0,066	-0,091
-149,847	12,323	-0,054	0,029
-148,833	106,629	0,036	-0,031
-147,818	-122,500	0,121	-0,014
-146,804	-54,213	0,208	-0,067
-145,789	244,314	0,064	0,076
-144,775	58,556	-0,103	0,072
-143,760	-86,667	-0,116	0,025
-142,745	-4,590	-0,116	0,057
-141,731	800,000	0,013	0,036
-140,716	327,621	-0,048	0,066
-139,702	166,257	0,058	-0,058
-138,687	-200,000	0,032	-0,148
-137,672	800,000	0,048	-0,131
-136,658	160,019	-0,013	-0,013
-135,643	105,798	-0,018	-0,015
-134,629	-200,000	0,018	0,089
-133,614	-26,943	0,063	0,026
-132,599	-200,000	0,004	0,055
-131,585	17,342	-0,049	0,028
-130,570	-61,663	-0,179	-0,053
-129,556	137,783	-0,068	-0,064
-128,541	34,024	-0,084	0,052
-127,526	-103,995	0,132	0,022
-126,512	-83,696	0,103	-0,023
-125,497	-128,149	0,122	-0,012
-124,483	-51,631	-0,041	0,013
-123,468	190,341	0,093	0,099
-122,453	-200,000	0,018	0,073
-121,439	-129,001	-0,083	-0,008
-120,424	-200,000	0,010	-0,088
-119,410	-35,661	-0,106	0,040
-118,395	-101,996	-0,049	-0,008
-117,380	-61,257	-0,048	0,014
-116,366	-138,646	0,079	0,006
-115,351	800,000	0,047	0,126
-114,337	188,092	-0,098	-0,104
-113,322	497,162	0,011	-0,018
-112,307	-200,000	-0,019	0,156
-111,293	78,527	0,066	-0,050
-110,278	800,000	0,027	0,084
-109,264	273,811	0,060	-0,076
-108,249	-173,209	-0,085	-0,002
-107,234	-25,028	-0,058	-0,024
-106,220	255,418	-0,047	-0,057
-105,205	206,262	-0,056	-0,062
-104,191	-31,656	-0,070	0,028
-103,176	-52,492	0,121	-0,039
-102,162	-45,829	0,077	-0,027
-101,147	160,703	0,124	0,123
-100,132	800,000	-0,025	-0,080
-99,118	330,660	0,026	0,035
-98,103	800,000	0,026	0,060
-97,089	-200,000	-0,086	-0,000
-96,074	137,999	0,015	-0,014
-95,059	800,000	-0,022	0,060
-94,045	363,552	0,051	0,073
-93,030	-4,466	-0,052	-0,025
-92,016	182,719	0,010	0,011
-91,001	282,784	0,072	0,092
-89,986	47,733	-0,051	-0,034
-88,972	186,833	-0,023	0,025
-87,957	46,782	-0,071	-0,047
-86,943	30,823	-0,049	0,030
-85,928	-200,000	0,053	-0,205
-84,913	-18,234	-0,044	0,019
-83,899	276,415	-0,033	0,041
-82,884	27,815	-0,080	0,048
-81,870	159,246	0,076	0,075
-80,855	800,000	0,051	0,122
-79,840	-200,000	-0,002	0,034
-78,826	-200,000	0,029	0,158
-77,811	424,290	-0,088	-0,135
-76,797	800,000	-0,031	0,070
-75,782	-28,235	0,077	0,031
-74,767	800,000	0,031	0,084
-73,753	-143,444	0,177	0,012
-72,738	800,000	0,029	0,079
-71,724	535,149	0,035	0,059
-70,709	-156,596	0,180	0,008
-69,694	-20,283	-0,035	0,015
-68,680	-200,000	-0,025	-0,094
-67,665	800,000	0,051	-0,129
-66,651	800,000	0,017	0,040
-65,636	84,237	0,091	-0,070
-64,622	-0,754	-0,118	-0,059
-63,607	0,030	-0,059	-0,029
-62,592	-129,346	0,029	-0,003
-61,578	74,516	0,070	0,052
-60,563	53,143	-0,035	-0,024
-59,549	52,309	-0,022	-0,015
-58,534	-8,935	-1,812	-0,855
-57,519	325,873	-1,358	-1,843
-56,505	-200,000	-0,571	-4,516
-55,490	288,829	1,131	1,452
-54,476	800,000	4,857	10,949
-53,461	-200,000	20,077	323,587
-52,446	800,000	751,451	2312,148
-51,432	550,262	1662,817	2830,211
-50,417	75,147	1671,910	1244,555
-49,403	20,017	1544,599	878,111
-48,388	13,955	1467,141	804,589
-47,373	18,346	1457,076	820,242
-46,359	16,384	1446,506	804,864
-45,344	12,282	1442,067	782,725
-44,330	12,222	1440,408	781,505
-43,315	12,221	1438,658	780,521
-42,300	12,233	1436,732	779,504
-41,286	12,263	1435,622	779,011
-40,271	12,219	1434,243	778,023
-39,257	12,210	1433,028	777,291
-38,242	12,263	1431,887	776,892
-37,227	12,221	1430,719	776,028
-36,213	12,258	1429,365	775,440
-35,198	12,287	1428,017	774,817
-34,184	12,319	1427,139	774,462
-33,169	12,251	1425,728	773,341
-32,154	12,296	1424,619	772,920
-31,140	12,269	1423,473	772,140
-30,125	12,313	1422,396	771,737
-29,111	12,298	1421,059	770,908
-28,096	12,271	1420,009	770,178
-27,082	12,228	1418,922	769,356
-26,067	12,192	1418,171	768,750
-25,052	12,215	1416,843	768,107
-24,038	12,211	1415,793	767,490
-23,023	12,165	1415,101	766,867
-22,009	12,176	1413,696	766,128
-20,994	12,168	1412,739	765,539
-19,979	12,209	1411,892	765,244
-18,965	12,168	1411,086	764,582
-17,950	12,152	1410,085	763,936
-16,936	12,140	1409,476	763,519
-15,921	12,132	1408,121	762,718
-14,906	12,105	1407,379	762,158
-13,892	12,136	1406,257	761,669
-12,877	12,075	1405,599	760,995
-11,863	12,080	1404,661	760,480
-10,848	12,056	1403,593	759,761
-9,833	12,062	1402,737	759,295
-8,819	12,037	1401,954	758,723
-7,804	11,998	1401,062	758,030
-6,790	12,014	1400,135	757,571
-5,775	12,009	1399,150	756,987
-4,760	12,051	1397,957	756,507
-3,746	12,016	1397,043	755,818
-2,731	11,991	1396,404	755,329
-1,717	11,990	1395,489	754,799
-0,702	11,992	1393,701	753,808
0,313	16,118	1308,686	726,824
1,327	32,792	700,092	427,125
2,342	51,004	122,094	81,634
3,356	2,115	16,509	8,396
4,371	11,046	3,231	1,739
5,386	-61,297	0,715	0,211
6,400	-200,000	0,006	0,307
7,415	62,090	-0,177	-0,124
8,429	-78,860	-0,320	-0,076
9,444	162,717	-0,190	-0,189
10,459	51,589	-0,332	-0,222
11,473	325,823	-0,206	-0,279
12,488	130,998	-0,164	-0,148
13,502	-97,124	-0,310	-0,057
14,517	326,537	-0,246	-0,333
15,531	246,212	-0,245	-0,292
16,546	401,774	-0,222	-0,330
17,561	50,151	-0,434	-0,289
18,575	277,939	-0,204	-0,256
19,590	224,199	-0,204	-0,232
20,604	6,627	-0,311	-0,163
21,619	47,573	-0,528	-0,347
22,634	74,273	-0,384	-0,284
23,648	76,902	-0,322	-0,241
24,663	4,982	-0,328	-0,170
25,677	52,723	-0,288	-0,194
26,692	32,086	-0,392	-0,238
27,707	72,662	-0,461	-0,339
28,721	-12,615	-0,412	-0,189
29,736	81,777	-0,387	-0,295
30,750	98,786	-0,296	-0,241
31,765	-123,191	-0,307	-0,034
32,780	101,363	-0,352	-0,289
33,794	14,166	-0,314	-0,172
34,809	58,508	-0,232	-0,160
35,823	77,412	-0,403	-0,302
36,838	68,743	-0,431	-0,311
37,853	105,887	-0,377	-0,314
38,867	64,979	-0,372	-0,264
39,882	-5,387	-0,439	-0,212
40,896	272,506	-0,263	-0,328
41,911	39,356	-0,426	-0,268
42,926	71,113	-0,333	-0,243
43,940	89,264	-0,410	-0,322
44,955	46,575	-0,350	-0,228
45,969	-45,861	-0,384	-0,133
46,984	74,396	-0,382	-0,282
47,999	55,349	-0,258	-0,175
49,013	28,706	-0,299	-0,178
50,028	76,919	-0,368	-0,275
51,042	129,731	-0,491	-0,442
52,057	116,391	-0,385	-0,332
53,071	311,763	-0,261	-0,346
54,086	779,275	-0,149	-0,287
55,101	109,452	-0,353	-0,298
56,115	10,938	-0,377	-0,202
57,130	197,088	-0,280	-0,301
58,144	-10,189	-0,349	-0,162
59,159	-0,730	-0,434	-0,215
60,174	26,033	-0,337	-0,197
61,188	72,683	-0,319	-0,234
62,203	14,040	-0,384	-0,209
63,217	446,679	-0,217	-0,336
64,232	76,762	-0,345	-0,257
65,247	39,362	-0,415	-0,260
66,261	41,877	-0,351	-0,223
67,276	172,922	-0,253	-0,257
68,290	22,981	-0,316	-0,182
69,305	345,006	-0,234	-0,323
70,320	-96,750	-0,298	-0,055
71,334	122,440	-0,285	-0,250
72,349	-26,058	-0,391	-0,161
73,363	-43,406	-0,426	-0,150
74,378	102,633	-0,263	-0,216
75,393	52,725	-0,384	-0,257
76,407	-12,886	-0,383	-0,174
77,422	28,971	-0,332	-0,197
78,436	-32,961	-0,234	-0,091
79,451	-17,286	-0,310	-0,137
80,466	2,475	-0,337	-0,170
81,480	17,040	-0,320	-0,178
82,495	111,900	-0,310	-0,263
83,509	150,618	-0,245	-0,233
84,524	7,298	-0,308	-0,161
85,539	-115,563	-0,199	-0,026
86,553	-48,457	-0,388	-0,130
87,568	141,018	-0,259	-0,240
88,582	-137,949	-0,410	-0,032
89,597	17,813	-0,295	-0,164
90,611	141,274	-0,179	-0,166
91,626	419,987	-0,186	-0,280
92,641	218,106	-0,190	-0,213
93,655	43,543	-0,281	-0,180
94,670	118,377	-0,282	-0,243
95,684	195,935	-0,289	-0,309
96,699	255,039	-0,306	-0,367
97,714	74,745	-0,261	-0,192
98,728	-74,538	-0,218	-0,055
99,743	475,559	-0,195	-0,309
100,757	158,300	-0,276	-0,268
101,772	-16,833	-0,288	-0,127
102,787	-98,711	-0,358	-0,063
103,801	40,480	-0,352	-0,221
104,816	-45,847	-0,290	-0,100
105,830	400,008	-0,191	-0,282
106,845	-87,972	-0,236	-0,049
107,860	40,939	-0,208	-0,131
108,874	197,817	-0,252	-0,269
109,889	48,681	-0,307	-0,201
110,903	84,610	-0,272	-0,208
111,918	258,958	-0,168	-0,203
112,933	64,254	-0,286	-0,201
113,947	205,283	-0,200	-0,218
114,962	162,834	-0,251	-0,247
115,976	-85,176	-0,341	-0,074
116,991	26,841	-0,275	-0,161
118,006	31,983	-0,322	-0,194
119,020	159,854	-0,192	-0,187
120,035	15,846	-0,216	-0,118
121,049	-49,994	-0,329	-0,109
122,064	-54,724	-0,105	-0,033
123,079	313,222	-0,116	-0,152
124,093	271,266	-0,134	-0,166
125,108	245,339	-0,156	-0,184
126,122	113,826	-0,329	-0,279
127,137	689,853	-0,110	-0,202
128,151	50,183	-0,285	-0,188
129,166	299,620	-0,174	-0,225
130,181	14,443	-0,236	-0,128
131,195	260,497	-0,132	-0,160
132,210	-6,342	-0,245	-0,117
133,224	-23,568	-0,411	-0,171
134,239	352,262	-0,110	-0,152
135,254	437,113	-0,141	-0,215
136,268	142,359	-0,286	-0,265
137,283	3,865	-0,318	-0,162
138,297	318,603	-0,178	-0,236
139,312	43,776	-0,277	-0,177
140,327	213,926	-0,250	-0,276
141,341	51,393	-0,289	-0,191
142,356	25,991	-0,264	-0,153
143,370	-35,327	-0,200	-0,076
144,385	392,892	-0,233	-0,340
145,400	-0,655	-0,194	-0,096
146,414	111,999	-0,302	-0,254
147,429	34,363	-0,237	-0,144
148,443	75,658	-0,252	-0,185
149,458	-200,000	-0,076	-0,283
150,473	-18,254	-0,194	-0,084
151,487	276,774	-0,180	-0,224
152,502	95,332	-0,239	-0,190
153,516	115,262	-0,188	-0,160
154,531	353,201	-0,186	-0,259
155,546	91,277	-0,287	-0,225
156,560	-14,460	-0,230	-0,103
157,575	75,531	-0,209	-0,153
158,589	321,711	-0,184	-0,245
159,604	36,737	-0,327	-0,201
160,619	65,711	-0,322	-0,227
161,633	6,381	-0,353	-0,182
162,648	379,902	-0,198	-0,284
163,662	180,587	-0,175	-0,179
164,677	-46,046	-0,239	-0,082
165,692	59,125	-0,291	-0,199
166,706	30,914	-0,278	-0,166
167,721	74,286	-0,244	-0,178
168,735	40,210	-0,261	-0,163
169,750	25,153	-0,329	-0,190
170,764	-133,750	-0,194	0,017
171,779	70,036	-0,152	-0,109
172,794	89,467	-0,276	-0,214
173,808	-89,397	-0,302	-0,061
174,823	62,620	-0,233	-0,162
175,837	109,133	-0,259	-0,215
176,852	239,730	-0,183	-0,213
177,867	-86,915	-0,284	-0,060
178,881	-98,118	-0,290	-0,051
179,896	25,381	-0,178	-0,103
180,910	32,860	-0,310	-0,186
181,925	167,670	-0,159	-0,158
182,940	258,150	-0,201	-0,241
183,954	303,849	-0,173	-0,224
184,969	266,575	-0,112	-0,136
185,983	136,851	-0,201	-0,182
186,998	-79,865	-0,270	-0,063
188,013	-47,285	-0,183	-0,062
189,027	-37,302	-0,229	-0,085
190,042	800,000	-0,072	-0,206
191,056	37,828	-0,271	-0,167
192,071	100,934	-0,128	-0,103
193,086	44,861	-0,134	-0,085
194,100	-33,566	-0,214	-0,082
195,115	-35,507	-0,247	-0,093
196,129	4,127	-0,278	-0,141
197,144	441,618	-0,162	-0,247
198,159	800,000	-0,075	-0,160
199,173	-200,000	-0,023	-0,123
200,188	-10,428	-0,030	-0,014
201,202	-44,274	-0,259	-0,090
202,217	602,141	-0,138	-0,239
203,232	299,572	-0,081	-0,104
204,246	278,020	-0,224	-0,277
205,261	800,000	-0,139	-0,304
206,275	94,109	-0,166	-0,130
207,290	800,000	-0,089	-0,193
208,304	-131,786	-0,183	0,016
209,319	75,666	-0,215	-0,157
210,334	304,792	-0,190	-0,245
211,348	-45,789	-0,158	-0,054
212,363	129,630	-0,172	-0,153
213,377	-77,143	-0,172	-0,041
214,392	200,436	-0,202	-0,216
215,407	-158,963	-0,265	-0,010
216,421	44,316	-0,169	-0,107
217,436	373,841	-0,184	-0,261
218,450	86,919	-0,143	-0,110
219,465	-200,000	-0,107	-0,375
220,480	207,529	-0,165	-0,178
221,494	23,122	-0,142	-0,080
222,509	800,000	-0,050	-0,105
223,523	-85,289	-0,231	-0,050
224,538	30,969	-0,157	-0,093
225,553	287,728	-0,160	-0,201
226,567	334,446	-0,217	-0,291
227,582	398,915	-0,141	-0,204
228,596	-94,399	-0,194	-0,036
229,611	-57,746	-0,131	-0,039
230,626	315,565	-0,142	-0,185
231,640	243,437	-0,122	-0,142
232,655	-49,218	-0,210	-0,069
233,669	96,293	-0,196	-0,155
234,684	800,000	-0,099	-0,191
235,699	-19,012	-0,253	-0,108
236,713	52,186	-0,057	-0,037
237,728	8,435	-0,263	-0,136
238,742	-43,782	-0,152	0,053
239,757	71,631	-0,218	-0,156
240,772	-13,489	-0,332	-0,148
241,786	-200,000	-0,040	-0,214
242,801	106,090	-0,198	-0,162
243,815	44,229	-0,290	-0,183
244,830	-85,801	-0,250	-0,053
245,844	3,269	-0,192	-0,096
246,859	-200,000	-0,020	-0,086
247,874	-1,046	-0,213	-0,104
248,888	-16,606	-0,294	-0,128
249,903	421,625	-0,107	-0,159
250,917	19,528	-0,146	-0,081
251,932	-121,548	-0,277	-0,031
252,947	119,404	-0,183	-0,156
253,961	-200,000	-0,070	-0,337
254,976	97,030	-0,269	-0,213
255,990	6,757	-0,183	-0,094
257,005	-126,125	-0,221	0,023
258,020	220,767	-0,103	-0,114
259,034	-186,067	-0,255	0,003
260,049	-200,000	-0,018	-0,067
261,063	-18,100	-0,163	-0,070
262,078	83,212	-0,164	-0,123
263,093	-26,508	-0,214	-0,086
264,107	343,678	-0,098	-0,133
265,122	-135,313	-0,278	-0,023
266,136	-179,956	-0,180	-0,003
267,151	-150,332	-0,166	0,009
268,166	-154,187	-0,167	-0,008
269,180	7,079	-0,233	-0,119
270,195	91,983	-0,184	-0,143
271,209	255,231	-0,155	-0,184
272,224	448,899	-0,098	-0,150
273,239	12,671	-0,119	-0,063
274,253	-55,325	-0,058	-0,018
275,268	98,961	-0,124	-0,098
276,282	58,336	-0,147	-0,099
277,297	12,867	-0,194	-0,103
278,312	-41,627	-0,190	-0,067
279,326	-47,268	-0,318	-0,106
280,341	-116,979	-0,156	0,019
281,355	-14,709	-0,199	-0,088
282,370	101,324	-0,259	-0,208
283,384	-200,000	-0,060	-0,206
284,399	247,031	-0,187	-0,218
285,414	259,786	-0,157	-0,188
286,428	288,460	-0,087	-0,108
287,443	137,285	-0,136	-0,122
288,457	305,926	-0,120	-0,154
289,472	-11,282	-0,157	-0,071
290,487	1,286	-0,182	-0,090
291,501	252,747	-0,209	-0,246
292,516	-67,422	-0,077	-0,021
293,530	-113,464	-0,339	-0,045
294,545	-22,166	-0,142	-0,059
295,560	183,071	-0,118	-0,120
296,574	82,698	-0,115	-0,086
297,589	75,956	-0,176	-0,128
298,603	659,003	-0,087	-0,154
299,618	85,178	-0,129	-0,097
300,633	800,000	-0,068	-0,204
301,647	-102,044	-0,130	0,021
302,662	117,261	-0,122	-0,103
303,676	-16,035	-0,129	0,056
304,691	25,636	-0,060	0,034
305,706	213,618	-0,109	-0,118
306,720	169,081	-0,136	-0,134
307,735	76,087	-0,060	-0,044
308,749	-130,598	-0,202	0,018
309,764	4,566	-0,159	-0,080
310,779	346,889	-0,129	-0,175
311,793	-11,386	-0,185	-0,083
312,808	-200,000	-0,020	-0,173
313,822	-86,675	-0,228	-0,047
314,837	-125,323	-0,137	-0,014
315,852	-122,523	-0,153	-0,017
316,866	385,537	-0,086	-0,122
317,881	-82,152	-0,075	-0,017
318,895	-159,075	-0,224	-0,009
319,910	137,665	-0,140	-0,126
320,925	800,000	-0,055	-0,139
321,939	-200,000	-0,031	-0,132
322,954	-43,696	-0,221	-0,076
323,968	-104,124	-0,129	-0,020
324,983	-36,620	-0,146	-0,054
325,997	90,939	-0,198	-0,152
327,012	14,607	-0,183	-0,098
328,027	116,084	-0,168	-0,141
329,041	51,958	-0,107	-0,070
330,056	295,866	-0,115	-0,145
331,070	-144,166	-0,053	0,003
332,085	25,224	-0,194	-0,110
333,100	800,000	-0,039	-0,091
334,114	800,000	-0,086	-0,165
335,129	-200,000	-0,036	-0,171
336,143	44,373	-0,080	-0,051
337,158	800,000	-0,050	-0,126
338,173	-11,625	-0,161	-0,072
339,187	-27,025	-0,213	-0,085
340,202	278,646	-0,124	-0,152
341,216	112,830	-0,116	-0,096
342,231	257,441	-0,123	-0,146
343,246	11,654	-0,161	-0,084
344,260	-79,001	-0,151	0,035
345,275	86,477	-0,081	-0,061
346,289	145,045	-0,053	-0,049
347,304	-4,318	-0,099	-0,047
348,319	197,103	-0,194	-0,204
349,333	179,528	-0,210	-0,211
350,348	800,000	-0,082	-0,229
351,362	-167,426	-0,152	-0,004
352,377	189,626	-0,085	-0,087
353,392	266,591	-0,078	-0,094
354,406	-169,134	-0,120	-0,003
355,421	207,912	1315,554	1409,094
356,435	159,956	1476,365	1409,568
