DTS Sentinel unit serial number:	SN410029Multiplexer serial number:	ORYXHardware model number:	OX2-SRSoftware version number:	ORYX F/W v4,00 Oryx Data Collector v3.7.2.0data status	okinstallation	B3 Nyhavnadifferential loss correction	single-endedforward channel	channel 1reverse channel	N/Adate	2023/12/03time	08:32:30forward acquisition time	300,00reverse acquisition time	0,00gamma	499,1914k internal	0,3200k external	0,3200temperature offset calibration	1,0000default loss term (dB/km)	0,3820temperature slope calibration	1,0000multiplexer offset coefficient	1,0000multiplexer slope coefficient	1,0000fibre end	0,00T internal ref (°C)	13,32T ext. ref 1 (°C)	-1,68T ext. ref 2 (°C)	-1,69length (m)	temperature (°C)	Stokes	anti-Stokes-744,400	-200,000	-0,073	-0,317
-743,385	-200,000	0,063	0,322
-742,371	498,006	-0,124	-0,208
-741,356	-200,000	0,071	0,461
-740,342	288,601	-0,126	-0,166
-739,327	91,307	0,118	0,097
-738,312	153,131	-0,236	-0,235
-737,298	-200,000	-0,084	0,317
-736,283	101,069	-0,288	-0,243
-735,269	-200,000	-0,059	0,331
-734,254	-111,128	-0,129	0,019
-733,239	-121,249	-0,070	0,008
-732,225	141,413	-0,133	-0,128
-731,210	-200,000	-0,013	0,197
-730,196	-119,039	-0,046	0,006
-729,181	800,000	-0,059	-0,127
-728,167	-56,556	-0,109	0,035
-727,152	257,554	-0,070	0,088
-726,137	-129,643	-0,095	0,009
-725,123	208,498	-0,068	0,077
-724,108	150,844	-0,121	-0,120
-723,094	194,515	0,075	-0,083
-722,079	-200,000	-0,008	0,092
-721,064	361,878	-0,019	-0,027
-720,050	25,947	-0,092	0,055
-719,035	-99,611	-0,029	-0,005
-718,021	-25,206	0,094	-0,040
-717,006	47,601	-0,056	0,038
-715,991	-200,000	-0,031	-0,157
-714,977	-200,000	0,011	-0,037
-713,962	-54,934	-0,029	-0,010
-712,948	-200,000	0,004	-0,060
-711,933	140,231	0,079	-0,076
-710,918	11,749	-0,145	-0,080
-709,904	800,000	0,034	-0,095
-708,889	-120,268	-0,065	-0,008
-707,875	-200,000	0,006	-0,079
-706,860	49,335	-0,091	-0,062
-705,845	18,958	-0,085	-0,050
-704,831	89,473	0,095	0,077
-703,816	800,000	0,027	-0,060
-702,802	3,632	0,081	-0,043
-701,787	-200,000	-0,015	-0,092
-700,772	-86,547	-0,143	-0,032
-699,758	-115,830	0,032	-0,004
-698,743	337,340	-0,093	-0,132
-697,729	-200,000	-0,019	0,110
-696,714	-8,835	-0,159	0,077
-695,699	-81,582	0,084	-0,020
-694,685	-124,927	-0,150	0,017
-693,670	-200,000	0,028	0,106
-692,656	-200,000	-0,033	-0,146
-691,641	53,938	0,071	0,049
-690,627	-75,188	0,111	-0,029
-689,612	-200,000	0,003	0,170
-688,597	800,000	-0,019	-0,042
-687,583	706,364	-0,096	-0,184
-686,568	-200,000	0,037	-0,153
-685,554	269,698	0,022	0,028
-684,539	800,000	0,042	0,131
-683,524	800,000	-0,043	0,094
-682,510	-200,000	0,044	-0,160
-681,495	39,652	0,044	0,029
-680,481	753,554	0,031	0,061
-679,466	800,000	-0,030	-0,082
-678,451	-1,544	-0,091	-0,046
-677,437	258,380	0,034	0,043
-676,422	39,099	-0,068	-0,044
-675,408	339,598	-0,021	0,030
-674,393	-67,919	-0,190	-0,054
-673,378	101,000	0,072	-0,061
-672,364	98,212	0,045	-0,038
-671,349	128,679	-0,074	0,069
-670,335	800,000	0,034	-0,097
-669,320	-24,844	0,130	0,056
-668,305	64,551	-0,058	0,042
-667,291	-200,000	-0,065	0,215
-666,276	-137,050	0,074	0,006
-665,262	-101,679	-0,046	-0,008
-664,247	16,157	-0,024	0,014
-663,232	-95,606	-0,173	0,033
-662,218	800,000	0,032	0,068
-661,203	405,162	-0,074	0,114
-660,189	800,000	-0,033	-0,084
-659,174	-85,875	0,077	0,017
-658,159	-37,692	-0,184	-0,071
-657,145	18,242	0,133	-0,077
-656,130	-200,000	0,000	0,094
-655,116	26,125	0,111	-0,067
-654,101	49,933	-0,148	0,101
-653,086	59,871	-0,066	-0,047
-652,072	-3,079	-0,035	-0,018
-651,057	-200,000	0,038	-0,141
-650,043	-200,000	-0,037	-0,280
-649,028	235,512	0,049	-0,059
-648,014	-200,000	-0,006	-0,034
-646,999	-48,876	0,087	-0,030
-645,984	168,879	0,082	-0,085
-644,970	-200,000	-0,016	-0,166
-643,955	-55,732	0,030	-0,010
-642,941	-85,379	-0,082	0,018
-641,926	800,000	-0,040	-0,088
-640,911	-177,438	-0,020	-0,000
-639,897	199,758	-0,133	0,148
-638,882	-200,000	0,020	0,094
-637,868	-27,333	-0,086	-0,036
-636,853	-200,000	-0,031	-0,135
-635,838	367,226	-0,057	-0,084
-634,824	-59,997	-0,069	-0,021
-633,809	29,703	-0,033	0,020
-632,795	-48,745	-0,109	-0,038
-631,780	800,000	0,049	0,136
-630,765	745,332	-0,027	-0,053
-629,751	-152,302	-0,037	0,002
-628,736	24,857	0,048	0,029
-627,722	-48,820	-0,135	0,047
-626,707	-200,000	0,000	0,027
-625,692	198,544	0,118	-0,131
-624,678	-103,501	0,055	-0,009
-623,663	136,102	-0,058	0,055
-622,649	458,927	0,074	-0,119
-621,634	800,000	0,031	-0,090
-620,619	-33,445	-0,150	-0,060
-619,605	-96,102	0,097	0,019
-618,590	-116,294	-0,146	0,019
-617,576	98,152	0,024	0,020
-616,561	44,712	0,069	0,046
-615,546	16,676	0,146	-0,084
-614,532	800,000	0,051	-0,152
-613,517	-123,798	0,077	-0,009
-612,503	800,000	0,044	0,097
-611,488	235,259	0,073	0,087
-610,474	-34,523	-0,045	-0,018
-609,459	-200,000	-0,009	-0,058
-608,444	-200,000	-0,007	-0,048
-607,430	518,932	0,085	0,145
-606,415	84,107	-0,041	0,032
-605,401	800,000	-0,017	-0,046
-604,386	800,000	0,077	0,179
-603,371	800,000	-0,011	0,030
-602,357	-54,724	-0,048	-0,016
-601,342	194,936	-0,068	0,075
-600,328	800,000	-0,065	-0,146
-599,313	-25,958	0,076	-0,032
-598,298	-200,000	0,011	-0,109
-597,284	-200,000	-0,002	-0,024
-596,269	-30,737	-0,046	0,019
-595,255	264,351	0,050	0,063
-594,240	189,019	-0,078	0,085
-593,225	30,588	0,116	-0,072
-592,211	-124,625	-0,089	0,010
-591,196	430,563	0,031	0,048
-590,182	-200,000	0,003	-0,065
-589,167	774,791	0,060	0,118
-588,152	-114,149	-0,122	-0,017
-587,138	31,495	0,098	0,061
-586,123	-119,994	-0,132	-0,016
-585,109	-200,000	0,052	-0,195
-584,094	-12,808	0,044	-0,020
-583,079	288,989	0,043	-0,057
-582,065	113,832	-0,031	0,027
-581,050	198,666	-0,046	0,051
-580,036	-96,303	0,022	-0,004
-579,021	-200,000	-0,011	-0,050
-578,006	-200,000	0,003	-0,063
-576,992	282,756	-0,022	0,028
-575,977	-200,000	-0,029	0,102
-574,963	-200,000	0,013	0,066
-573,948	-60,303	0,077	0,023
-572,934	-103,983	-0,083	0,014
-571,919	-200,000	-0,017	-0,113
-570,904	84,342	-0,067	-0,053
-569,890	141,280	-0,113	-0,108
-568,875	117,169	0,110	-0,097
-567,861	742,644	-0,054	-0,106
-566,846	-95,456	-0,068	-0,013
-565,831	-3,065	0,032	0,016
-564,817	-127,194	-0,072	0,008
-563,802	800,000	-0,019	0,044
-562,788	-52,128	-0,083	-0,028
-561,773	101,813	-0,105	-0,088
-560,758	329,115	-0,010	-0,014
-559,744	132,076	-0,033	-0,031
-558,729	-24,590	0,023	-0,010
-557,715	-200,000	0,039	-0,205
-556,700	140,062	-0,140	-0,134
-555,685	355,609	0,056	0,081
-554,671	113,346	-0,055	-0,049
-553,656	789,588	-0,052	-0,104
-552,642	142,683	-0,069	-0,066
-551,627	74,285	0,058	0,044
-550,612	-16,324	0,073	0,033
-549,598	41,878	-0,101	-0,066
-548,583	-26,294	-0,092	-0,039
-547,569	-71,587	0,183	0,049
-546,554	-200,000	-0,026	0,089
-545,539	-5,828	0,129	-0,063
-544,525	-92,280	0,072	0,014
-543,510	800,000	0,032	0,098
-542,496	-54,215	0,056	-0,018
-541,481	225,127	0,028	0,032
-540,466	145,510	0,129	0,125
-539,452	256,844	0,070	0,087
-538,437	385,101	-0,007	0,010
-537,423	800,000	-0,026	0,074
-536,408	155,667	-0,072	-0,072
-535,393	-178,372	0,060	-0,001
-534,379	0,292	0,123	-0,063
-533,364	800,000	0,034	0,070
-532,350	54,297	0,096	0,067
-531,335	217,171	0,090	-0,104
-530,321	-120,568	0,122	-0,015
-529,306	-22,396	0,137	-0,060
-528,291	-94,208	-0,163	-0,032
-527,277	124,269	-0,048	-0,044
-526,262	365,192	-0,071	0,104
-525,248	62,803	0,089	0,064
-524,233	800,000	0,038	0,103
-523,218	7,929	0,061	0,033
-522,204	623,781	0,023	-0,042
-521,189	-42,296	-0,043	-0,016
-520,175	-72,499	-0,080	0,021
-519,160	-160,445	-0,145	0,005
-518,145	73,718	0,113	0,085
-517,131	-88,620	-0,036	0,008
-516,116	-145,647	0,101	-0,006
-515,102	-59,982	0,066	-0,020
-514,087	65,445	-0,026	0,019
-513,072	-200,000	-0,004	0,015
-512,058	-116,718	0,073	0,010
-511,043	-98,047	0,155	0,028
-510,029	-23,885	-0,155	-0,067
-509,014	513,023	-0,046	0,078
-507,999	149,831	0,055	0,054
-506,985	-6,077	-0,024	0,012
-505,970	-67,040	0,087	-0,025
-504,956	124,053	-0,043	-0,039
-503,941	492,088	-0,056	0,093
-502,926	-76,466	0,134	0,034
-501,912	-177,057	-0,041	0,001
-500,897	92,818	0,062	0,051
-499,883	-200,000	0,002	0,110
-498,868	-57,343	0,034	-0,011
-497,853	-200,000	0,031	-0,110
-496,839	-3,168	0,193	0,097
-495,824	-38,555	0,070	0,026
-494,810	800,000	-0,017	0,043
-493,795	32,787	-0,108	0,067
-492,781	-200,000	0,019	-0,145
-491,766	-62,807	-0,017	0,005
-490,751	-93,638	-0,067	-0,013
-489,737	-200,000	0,023	-0,099
-488,722	367,057	0,039	-0,057
-487,708	170,006	0,053	-0,054
-486,693	70,973	0,076	-0,057
-485,678	506,926	0,118	-0,198
-484,664	477,435	-0,033	0,055
-483,649	153,518	-0,062	-0,061
-482,635	37,884	0,061	0,039
-481,620	800,000	0,026	-0,071
-480,605	800,000	0,014	0,029
-479,591	119,677	0,060	-0,053
-478,576	236,035	-0,030	0,036
-477,562	-96,303	0,032	0,006
-476,547	-51,257	0,046	-0,016
-475,532	-150,178	0,063	0,003
-474,518	-152,782	-0,239	-0,012
-473,503	-137,078	0,118	-0,010
-472,489	-200,000	0,019	0,127
-471,474	45,391	0,070	0,046
-470,459	-95,427	-0,018	-0,003
-469,445	-137,620	-0,152	-0,012
-468,430	-56,349	-0,130	0,041
-467,416	120,240	0,085	-0,076
-466,401	-41,827	-0,112	-0,041
-465,386	584,802	0,047	0,084
-464,372	-100,540	-0,102	0,018
-463,357	-200,000	0,013	-0,048
-462,343	-200,000	0,004	0,046
-461,328	-25,907	-0,062	0,026
-460,313	-17,310	0,044	-0,020
-459,299	11,634	0,127	-0,070
-458,284	-163,932	-0,139	-0,005
-457,270	-200,000	-0,022	-0,075
-456,255	-200,000	-0,017	0,118
-455,241	-129,938	0,057	0,006
-454,226	800,000	-0,044	0,113
-453,211	576,423	-0,030	0,053
-452,197	72,005	-0,057	0,043
-451,182	85,390	-0,068	0,054
-450,168	396,360	-0,053	0,080
-449,153	-200,000	0,007	0,101
-448,138	-163,340	-0,102	0,003
-447,124	800,000	-0,051	-0,109
-446,109	-84,181	0,085	0,019
-445,095	-200,000	-0,020	0,079
-444,080	-200,000	-0,008	-0,163
-443,065	-200,000	0,021	-0,191
-442,051	214,070	-0,070	-0,080
-441,036	171,221	-0,042	-0,043
-440,022	-70,205	0,064	-0,017
-439,007	-10,616	-0,123	0,058
-437,992	-21,703	0,149	-0,065
-436,978	573,208	0,045	0,079
-435,963	144,096	0,128	0,123
-434,949	800,000	0,026	-0,056
-433,934	-86,996	-0,074	0,016
-432,919	136,241	0,050	-0,047
-431,905	77,639	-0,110	-0,084
-430,890	-77,287	0,045	-0,011
-429,876	800,000	0,040	-0,096
-428,861	-200,000	-0,010	0,053
-427,846	2,880	0,095	-0,049
-426,832	-200,000	0,018	0,107
-425,817	576,175	0,022	-0,039
-424,803	97,372	-0,040	0,033
-423,788	-200,000	-0,036	-0,127
-422,773	330,698	-0,028	0,039
-421,759	227,378	-0,049	-0,057
-420,744	-200,000	-0,001	0,051
-419,730	-143,928	-0,145	-0,010
-418,715	-110,808	-0,169	-0,025
-417,701	-200,000	0,022	0,094
-416,686	-200,000	-0,004	0,137
-415,671	-98,253	0,184	0,034
-414,657	-200,000	0,035	0,170
-413,642	-116,420	-0,091	0,012
-412,628	469,645	-0,026	0,043
-411,613	185,128	-0,093	-0,099
-410,598	426,049	0,115	0,179
-409,584	478,989	0,053	-0,087
-408,569	235,895	0,066	-0,079
-407,555	414,887	-0,071	0,109
-406,540	-29,292	0,133	-0,054
-405,525	24,554	-0,069	-0,041
-404,511	-11,714	0,062	-0,029
-403,496	800,000	0,067	-0,138
-402,482	303,659	0,046	0,061
-401,467	-200,000	0,009	0,029
-400,452	-7,877	-0,098	-0,047
-399,438	-150,253	-0,058	-0,003
-398,423	-110,956	-0,143	-0,021
-397,409	204,499	-0,110	0,122
-396,394	-200,000	-0,003	0,094
-395,379	112,888	0,029	0,025
-394,365	-200,000	0,031	0,115
-393,350	-102,348	0,071	-0,012
-392,336	36,071	-0,066	-0,041
-391,321	-200,000	-0,006	-0,041
-390,306	3,255	-0,113	0,059
-389,292	736,111	0,018	-0,034
-388,277	-74,098	0,128	0,033
-387,263	264,707	0,007	-0,009
-386,248	294,252	0,009	-0,012
-385,233	800,000	0,064	0,150
-384,219	-36,295	-0,088	0,034
-383,204	-27,877	-0,018	0,008
-382,190	-113,841	-0,127	0,018
-381,175	-83,913	0,103	-0,023
-380,160	364,936	-0,104	0,151
-379,146	-100,744	0,051	0,009
-378,131	-200,000	-0,003	0,073
-377,117	-200,000	-0,021	0,113
-376,102	-128,982	-0,189	0,019
-375,088	800,000	-0,005	-0,012
-374,073	29,353	0,106	-0,065
-373,058	57,723	0,107	-0,075
-372,044	-200,000	-0,007	-0,028
-371,029	800,000	-0,043	0,113
-370,015	-173,598	-0,014	0,000
-369,000	800,000	0,044	-0,096
-367,985	260,530	0,030	-0,038
-366,971	-200,000	0,014	-0,047
-365,956	-51,485	0,120	-0,040
-364,942	74,346	0,041	0,031
-363,927	800,000	0,044	0,106
-362,912	-15,783	-0,058	-0,026
-361,898	-77,817	0,121	-0,030
-360,883	-200,000	0,009	0,033
-359,869	73,992	-0,086	0,065
-358,854	94,265	0,045	0,036
-357,839	-26,484	0,118	-0,049
-356,825	-200,000	0,010	0,070
-355,810	-168,721	-0,101	0,003
-354,796	800,000	0,025	-0,064
-353,781	-167,755	0,034	0,001
-352,766	-200,000	0,004	-0,073
-351,752	249,342	0,073	-0,089
-350,737	-200,000	0,014	-0,118
-349,723	190,633	0,037	0,040
-348,708	-200,000	0,020	0,182
-347,693	-200,000	0,022	-0,097
-346,679	136,979	0,042	-0,040
-345,664	-74,490	-0,125	-0,032
-344,650	578,402	0,057	-0,101
-343,635	-93,397	0,132	-0,026
-342,620	-200,000	-0,027	-0,138
-341,606	-194,910	0,116	0,001
-340,591	62,834	0,068	0,048
-339,577	54,047	-0,086	-0,059
-338,562	-58,403	0,076	-0,023
-337,548	-100,869	0,120	-0,021
-336,533	-138,702	-0,108	0,008
-335,518	0,129	0,144	0,073
-334,504	800,000	-0,006	0,017
-333,489	-95,706	-0,065	0,012
-332,475	213,349	-0,055	-0,062
-331,460	56,856	0,086	0,060
-330,445	5,595	-0,071	0,038
-329,431	-200,000	-0,002	-0,039
-328,416	-69,720	-0,083	0,023
-327,402	-200,000	0,004	0,048
-326,387	125,141	0,034	0,030
-325,372	-200,000	0,009	-0,078
-324,358	-27,328	0,055	0,023
-323,343	-188,141	-0,143	0,001
-322,329	17,262	0,104	0,059
-321,314	-200,000	0,010	0,069
-320,299	267,116	0,069	0,087
-319,285	273,462	-0,045	-0,057
-318,270	-200,000	0,002	0,085
-317,256	-62,261	-0,037	-0,011
-316,241	-20,980	0,121	-0,053
-315,226	-20,949	0,089	0,039
-314,212	63,100	0,085	0,061
-313,197	-200,000	-0,017	0,062
-312,183	-89,705	0,052	0,011
-311,168	83,142	-0,026	-0,020
-310,153	800,000	0,011	-0,024
-309,139	269,106	-0,045	-0,057
-308,124	800,000	-0,017	-0,039
-307,110	365,899	0,054	0,078
-306,095	221,675	-0,058	0,067
-305,080	-37,070	-0,061	-0,023
-304,066	-200,000	0,006	-0,065
-303,051	25,353	0,044	-0,026
-302,037	-200,000	0,002	-0,056
-301,022	28,728	-0,151	0,091
-300,008	-200,000	-0,006	-0,039
-298,993	50,391	-0,043	0,029
-297,978	131,223	-0,099	0,091
-296,964	800,000	-0,017	0,035
-295,949	355,929	-0,066	-0,094
-294,935	-58,545	-0,127	-0,039
-293,920	123,739	0,072	0,064
-292,905	-64,345	0,143	0,041
-291,891	193,263	0,059	0,063
-290,876	94,557	-0,116	0,094
-289,862	-87,171	-0,048	-0,010
-288,847	127,483	-0,064	-0,058
-287,832	-116,458	0,125	0,016
-286,818	-159,546	0,148	-0,006
-285,803	-200,000	-0,008	0,104
-284,789	800,000	0,043	0,093
-283,774	-200,000	0,027	0,147
-282,759	415,066	-0,010	0,015
-281,745	-88,867	-0,066	-0,014
-280,730	153,365	-0,033	-0,033
-279,716	800,000	0,013	-0,037
-278,701	-200,000	0,134	-0,000
-277,686	233,469	0,103	0,122
-276,672	128,423	-0,140	0,128
-275,657	-66,370	0,079	0,022
-274,643	-163,515	-0,121	-0,004
-273,628	800,000	-0,033	-0,092
-272,613	-200,000	0,011	-0,120
-271,599	53,299	0,024	-0,016
-270,584	137,792	0,054	0,051
-269,570	3,191	0,068	0,035
-268,555	98,525	-0,076	-0,063
-267,540	800,000	-0,029	-0,086
-266,526	196,630	-0,059	-0,064
-265,511	800,000	0,048	-0,115
-264,497	154,973	-0,104	0,102
-263,482	-200,000	-0,018	0,118
-262,467	-175,534	0,047	-0,001
-261,453	158,789	-0,027	0,027
-260,438	-42,338	-0,099	-0,036
-259,424	29,222	-0,040	-0,024
-258,409	555,918	-0,058	-0,100
-257,395	-80,135	0,099	-0,023
-256,380	-200,000	-0,046	0,156
-255,365	232,702	-0,024	0,028
-254,351	385,985	0,031	0,046
-253,336	-136,183	0,039	0,003
-252,322	800,000	0,056	-0,134
-251,307	800,000	-0,027	0,066
-250,292	76,120	0,064	0,048
-249,278	-2,888	-0,120	0,060
-248,263	-41,352	0,048	0,018
-247,249	-200,000	-0,007	0,046
-246,234	-113,960	0,158	0,022
-245,219	48,552	-0,100	-0,067
-244,205	-200,000	-0,030	-0,146
-243,190	-73,954	0,097	0,025
-242,176	-15,135	0,108	-0,049
-241,161	640,500	-0,041	0,076
-240,146	553,294	-0,080	-0,138
-239,132	35,728	0,073	-0,045
-238,117	-118,180	-0,143	-0,018
-237,103	-200,000	0,007	0,094
-236,088	60,815	0,051	0,036
-235,073	789,479	0,032	-0,062
-234,059	-2,193	-0,018	-0,009
-233,044	233,945	-0,088	0,104
-232,030	-200,000	-0,014	0,067
-231,015	338,359	-0,106	0,147
-230,000	36,129	-0,174	-0,109
-228,986	54,458	0,045	-0,031
-227,971	-0,796	0,067	-0,034
-226,957	-200,000	-0,025	0,116
-225,942	25,991	-0,079	0,047
-224,927	800,000	0,009	-0,022
-223,913	-200,000	0,024	-0,102
-222,898	800,000	-0,017	0,045
-221,884	429,240	-0,022	0,035
-220,869	627,492	-0,053	0,096
-219,855	-28,993	0,026	-0,011
-218,840	352,385	0,028	0,040
-217,825	-200,000	0,028	-0,179
-216,811	-170,432	0,094	-0,002
-215,796	330,734	-0,063	0,087
-214,782	-80,126	-0,086	0,020
-213,767	-169,857	0,033	0,001
-212,752	171,729	0,025	0,025
-211,738	-200,000	0,028	0,143
-210,723	425,884	0,050	0,077
-209,709	78,279	-0,032	0,024
-208,694	-57,492	-0,137	-0,043
-207,679	-200,000	-0,010	-0,050
-206,665	-143,016	0,110	-0,007
-205,650	362,157	-0,017	-0,024
-204,636	-184,652	0,147	-0,002
-203,621	115,440	-0,100	-0,087
-202,606	55,144	-0,125	-0,086
-201,592	40,190	-0,119	-0,076
-200,577	-200,000	0,002	-0,101
-199,563	-200,000	0,021	-0,106
-198,548	800,000	0,014	-0,028
-197,533	800,000	0,013	0,038
-196,519	537,771	0,039	0,066
-195,504	251,089	-0,015	0,018
-194,490	181,907	-0,114	-0,120
-193,475	800,000	-0,018	0,039
-192,460	-200,000	-0,026	0,260
-191,446	173,761	0,072	-0,074
-190,431	131,884	-0,047	-0,043
-189,417	-200,000	0,003	0,071
-188,402	-200,000	-0,019	-0,061
-187,387	44,399	-0,041	-0,026
-186,373	-37,660	-0,024	-0,009
-185,358	225,378	-0,162	-0,187
-184,344	-200,000	0,026	0,084
-183,329	-200,000	0,082	0,000
-182,315	580,444	0,057	0,100
-181,300	-200,000	-0,019	0,139
-180,285	-200,000	-0,013	-0,067
-179,271	133,856	-0,021	0,019
-178,256	-9,518	-0,162	-0,077
-177,242	2,142	-0,038	-0,019
-176,227	357,433	-0,022	-0,031
-175,212	321,532	-0,014	-0,019
-174,198	-66,584	-0,073	0,020
-173,183	-200,000	-0,016	-0,079
-172,169	50,395	0,091	0,061
-171,154	246,887	-0,042	-0,051
-170,139	59,582	0,070	0,049
-169,125	-84,625	0,157	0,035
-168,110	-172,756	0,145	-0,003
-167,096	-200,000	-0,002	-0,018
-166,081	56,607	-0,114	-0,079
-165,066	-200,000	0,005	0,019
-164,052	-200,000	0,003	0,079
-163,037	34,649	-0,018	-0,011
-162,023	-138,739	-0,067	0,005
-161,008	72,753	-0,061	0,046
-159,993	124,624	0,080	-0,072
-158,979	-9,104	-0,094	-0,045
-157,964	-200,000	0,040	-0,188
-156,950	-93,726	0,087	-0,017
-155,935	-146,794	-0,098	0,006
-154,920	-10,842	0,072	0,034
-153,906	60,469	-0,024	-0,017
-152,891	800,000	-0,037	0,089
-151,877	-70,887	-0,160	-0,043
-150,862	800,000	-0,023	-0,064
-149,847	-123,174	0,028	0,003
-148,833	-81,660	0,041	-0,010
-147,818	-200,000	-0,008	0,078
-146,804	-2,016	-0,057	-0,028
-145,789	-200,000	-0,009	0,107
-144,775	117,257	0,067	-0,058
-143,760	-27,032	0,054	0,022
-142,745	40,561	-0,056	-0,036
-141,731	800,000	0,056	-0,132
-140,716	-200,000	-0,007	-0,105
-139,702	-167,004	0,185	0,005
-138,687	-91,415	-0,136	-0,027
-137,672	-7,871	0,091	0,044
-136,658	110,746	0,062	0,053
-135,643	245,799	0,049	0,059
-134,629	456,847	-0,040	0,063
-133,614	93,599	0,039	0,031
-132,599	32,091	-0,095	-0,058
-131,585	72,948	0,063	0,047
-130,570	-200,000	-0,002	-0,011
-129,556	150,476	-0,068	0,065
-128,541	-100,893	-0,107	0,018
-127,526	161,067	-0,041	-0,040
-126,512	-49,133	-0,007	-0,002
-125,497	-27,162	0,183	0,075
-124,483	-200,000	0,009	-0,121
-123,468	800,000	-0,056	0,133
-122,453	143,887	-0,068	-0,065
-121,439	570,338	0,083	-0,144
-120,424	-200,000	0,011	0,075
-119,410	800,000	-0,017	-0,053
-118,395	127,639	0,033	0,030
-117,380	255,941	-0,054	0,065
-116,366	800,000	0,033	0,100
-115,351	-200,000	-0,016	-0,075
-114,337	24,029	-0,069	0,040
-113,322	327,048	-0,083	-0,113
-112,307	-200,000	-0,012	-0,058
-111,293	317,008	0,011	-0,015
-110,278	-137,264	-0,083	-0,007
-109,264	461,512	-0,026	-0,041
-108,249	-94,515	0,134	0,026
-107,234	-200,000	-0,007	-0,072
-106,220	-200,000	0,005	0,045
-105,205	-200,000	-0,012	0,079
-104,191	98,903	0,109	0,090
-103,176	800,000	-0,021	0,063
-102,162	225,807	0,045	0,052
-101,147	-163,033	-0,044	0,001
-100,132	263,948	-0,088	0,108
-99,118	800,000	-0,042	-0,085
-98,103	394,436	0,059	0,087
-97,089	534,073	0,074	0,125
-96,074	-200,000	-0,029	0,107
-95,059	142,270	0,099	0,093
-94,045	-171,513	-0,146	-0,003
-93,030	-200,000	-0,004	-0,051
-92,016	800,000	-0,093	-0,188
-91,001	800,000	0,044	-0,122
-89,986	761,040	0,041	-0,080
-88,972	473,398	0,021	-0,034
-87,957	262,206	-0,023	-0,028
-86,943	175,579	0,074	-0,076
-85,928	-200,000	0,006	0,032
-84,913	-23,269	-0,141	0,060
-83,899	14,876	-0,145	-0,080
-82,884	163,397	0,146	0,146
-81,870	-64,802	0,066	-0,019
-80,855	-38,349	-0,066	-0,025
-79,840	-200,000	-0,011	-0,111
-78,826	-200,000	0,028	0,103
-77,811	-200,000	-0,038	0,134
-76,797	-200,000	-0,019	-0,094
-75,782	10,606	0,055	0,030
-74,767	107,915	0,077	0,065
-73,753	-200,000	-0,039	0,201
-72,738	387,893	0,017	-0,025
-71,724	-137,478	0,052	-0,004
-70,709	-200,000	-0,029	-0,185
-69,694	-200,000	-0,007	0,090
-68,680	800,000	0,033	0,072
-67,665	164,652	0,038	-0,038
-66,651	-53,681	0,015	0,005
-65,636	-200,000	-0,026	0,086
-64,622	127,461	-0,070	0,063
-63,607	115,764	-0,117	0,101
-62,592	300,134	0,037	0,048
-61,578	212,982	0,041	0,046
-60,563	626,982	0,053	0,096
-59,549	456,492	-0,111	0,175
-58,534	-9,417	-1,553	-0,732
-57,519	380,141	-1,328	-1,934
-56,505	-200,000	-0,562	-4,524
-55,490	188,129	0,934	0,989
-54,476	800,000	4,998	11,539
-53,461	-200,000	19,269	320,273
-52,446	-200,000	740,374	2335,096
-51,432	573,679	1655,469	2870,105
-50,417	78,295	1671,270	1262,247
-49,403	21,327	1544,030	885,929
-48,388	15,164	1466,435	811,435
-47,373	17,955	1456,790	819,556
-46,359	16,665	1446,676	807,648
-45,344	13,434	1441,969	789,506
-44,330	13,324	1440,063	787,903
-43,315	13,387	1438,159	787,131
-42,300	13,361	1436,656	786,151
-41,286	13,435	1435,177	785,665
-40,271	13,372	1433,954	784,663
-39,257	13,367	1432,748	783,951
-38,242	13,404	1431,368	783,342
-37,227	13,414	1430,218	782,728
-36,213	13,363	1429,215	781,907
-35,198	13,432	1427,652	781,346
-34,184	13,452	1427,003	781,055
-33,169	13,439	1425,357	780,060
-32,154	13,432	1424,387	779,466
-31,140	13,432	1423,264	778,820
-30,125	13,444	1422,128	778,227
-29,111	13,467	1420,916	777,638
-28,096	13,394	1419,944	776,732
-27,082	13,327	1418,865	775,798
-26,067	13,336	1417,719	775,181
-25,052	13,354	1416,513	774,576
-24,038	13,323	1415,717	773,965
-23,023	13,308	1414,661	773,286
-22,009	13,284	1413,793	772,664
-20,994	13,285	1412,625	772,000
-19,979	13,299	1411,976	771,684
-18,965	13,286	1410,834	770,966
-17,950	13,283	1409,876	770,400
-16,936	13,353	1408,994	770,212
-15,921	13,277	1407,894	769,226
-14,906	13,226	1407,158	768,554
-13,892	13,265	1405,991	768,071
-12,877	13,285	1405,225	767,712
-11,863	13,311	1404,065	767,171
-10,848	13,245	1403,454	766,499
-9,833	13,167	1402,689	765,687
-8,819	13,203	1401,733	765,303
-7,804	13,170	1400,738	764,575
-6,790	13,197	1399,749	764,133
-5,775	13,149	1398,758	763,338
-4,760	13,181	1397,642	762,845
-3,746	13,128	1396,963	762,199
-2,731	13,152	1396,159	761,841
-1,717	13,115	1395,009	761,010
-0,702	13,122	1393,398	760,136
0,313	17,001	1310,252	732,740
1,327	33,277	703,996	431,335
2,342	50,884	123,428	82,616
3,356	1,987	16,614	8,456
4,371	0,347	3,265	1,644
5,386	-62,227	0,643	0,188
6,400	-200,000	0,015	0,251
7,415	-46,776	-0,156	-0,054
8,429	66,624	-0,376	-0,270
9,444	-29,019	-0,342	-0,138
10,459	-54,685	-0,249	-0,079
11,473	367,715	-0,220	-0,315
12,488	423,502	-0,228	-0,347
13,502	101,307	-0,367	-0,302
14,517	-21,280	-0,277	-0,119
15,531	165,910	-0,227	-0,227
16,546	42,834	-0,345	-0,222
17,561	33,707	-0,423	-0,259
18,575	14,481	-0,107	-0,059
19,590	201,306	-0,200	-0,218
20,604	175,079	-0,159	-0,162
21,619	176,851	-0,376	-0,386
22,634	97,292	-0,477	-0,387
23,648	42,123	-0,465	-0,298
24,663	172,038	-0,385	-0,391
25,677	208,074	-0,407	-0,450
26,692	128,890	-0,406	-0,366
27,707	73,268	-0,453	-0,334
28,721	19,259	-0,330	-0,187
29,736	77,988	-0,337	-0,254
30,750	105,642	-0,390	-0,325
31,765	-22,661	-0,494	-0,210
32,780	47,948	-0,412	-0,271
33,794	-91,116	-0,312	-0,063
34,809	49,244	-0,393	-0,260
35,823	143,784	-0,221	-0,208
36,838	231,925	-0,338	-0,392
37,853	151,214	-0,363	-0,348
38,867	-42,979	-0,518	-0,184
39,882	-22,234	-0,408	-0,174
40,896	39,453	-0,443	-0,279
41,911	131,144	-0,250	-0,227
42,926	127,173	-0,422	-0,377
43,940	75,744	-0,366	-0,273
44,955	-1,188	-0,412	-0,205
45,969	13,544	-0,423	-0,231
46,984	51,203	-0,391	-0,261
47,999	26,923	-0,334	-0,197
49,013	52,333	-0,414	-0,278
50,028	15,547	-0,366	-0,202
51,042	285,884	-0,261	-0,332
52,057	12,493	-0,317	-0,172
53,071	178,036	-0,348	-0,358
54,086	91,178	-0,313	-0,247
55,101	-29,442	-0,488	-0,196
56,115	-32,227	-0,459	-0,180
57,130	12,708	-0,407	-0,221
58,144	18,585	-0,396	-0,222
59,159	288,142	-0,296	-0,379
60,174	183,350	-0,337	-0,351
61,188	206,852	-0,356	-0,391
62,203	114,415	-0,318	-0,273
63,217	61,798	-0,324	-0,226
64,232	114,443	-0,353	-0,303
65,247	41,016	-0,411	-0,260
66,261	-5,079	-0,416	-0,201
67,276	109,536	-0,307	-0,259
68,290	106,785	-0,275	-0,230
69,305	-0,653	-0,427	-0,212
70,320	7,134	-0,236	-0,123
71,334	63,513	-0,310	-0,219
72,349	45,193	-0,285	-0,185
73,363	-46,776	-0,490	-0,168
74,378	-29,232	-0,351	-0,141
75,393	103,627	-0,270	-0,223
76,407	-35,892	-0,284	-0,107
77,422	7,947	-0,258	-0,135
78,436	87,694	-0,254	-0,197
79,451	177,403	-0,213	-0,218
80,466	14,589	-0,274	-0,150
81,480	7,776	-0,364	-0,191
82,495	71,772	-0,245	-0,179
83,509	-23,099	-0,317	-0,134
84,524	-82,005	-0,306	-0,070
85,539	-58,337	-0,336	-0,102
86,553	300,333	-0,196	-0,254
87,568	146,923	-0,309	-0,292
88,582	72,240	-0,289	-0,211
89,597	-168,951	-0,240	-0,006
90,611	-41,159	-0,235	-0,085
91,626	7,840	-0,272	-0,143
92,641	-12,969	-0,352	-0,160
93,655	100,893	-0,243	-0,198
94,670	192,037	-0,221	-0,234
95,684	47,662	-0,269	-0,176
96,699	-132,180	-0,414	-0,037
97,714	-116,888	-0,297	-0,038
98,728	320,400	-0,260	-0,347
99,743	60,541	-0,237	-0,164
100,757	220,784	-0,227	-0,256
101,772	-46,132	-0,247	-0,085
102,787	-28,106	-0,327	-0,132
103,801	161,474	-0,321	-0,315
104,816	203,445	-0,207	-0,225
105,830	29,992	-0,110	-0,066
106,845	-112,167	-0,158	-0,022
107,860	-74,262	-0,292	-0,074
108,874	156,572	-0,257	-0,249
109,889	8,808	-0,314	-0,166
110,903	145,662	-0,246	-0,231
111,918	-22,136	-0,317	-0,134
112,933	64,565	-0,228	-0,161
113,947	191,440	-0,276	-0,292
114,962	-37,383	-0,213	-0,079
115,976	38,176	-0,301	-0,188
116,991	15,255	-0,284	-0,155
118,006	63,418	-0,339	-0,238
119,020	122,626	-0,256	-0,224
120,035	-69,748	-0,325	-0,086
121,049	22,670	-0,195	-0,112
122,064	-78,035	-0,267	-0,064
123,079	181,887	-0,226	-0,233
124,093	-29,659	-0,273	-0,108
125,108	68,154	-0,301	-0,215
126,122	152,260	-0,212	-0,203
127,137	58,687	-0,151	-0,104
128,151	411,875	-0,145	-0,216
129,166	-125,939	-0,314	-0,033
130,181	29,836	-0,342	-0,203
131,195	493,033	-0,155	-0,249
132,210	250,791	-0,227	-0,270
133,224	379,803	-0,193	-0,277
134,239	24,867	-0,258	-0,149
135,254	27,172	-0,155	-0,091
136,268	78,912	-0,208	-0,156
137,283	46,845	-0,196	-0,127
138,297	64,058	-0,294	-0,206
139,312	79,112	-0,254	-0,190
140,327	-0,588	-0,274	-0,136
141,341	49,818	-0,279	-0,184
142,356	163,986	-0,144	-0,142
143,370	171,239	-0,258	-0,259
144,385	-82,361	-0,326	-0,074
145,400	-3,607	-0,194	-0,094
146,414	108,646	-0,252	-0,210
147,429	115,102	-0,342	-0,292
148,443	6,629	-0,209	-0,108
149,458	178,747	-0,219	-0,224
150,473	-0,395	-0,192	-0,095
151,487	13,913	-0,271	-0,147
152,502	-21,170	-0,313	-0,133
153,516	288,613	-0,224	-0,283
154,531	209,999	-0,234	-0,257
155,546	67,440	-0,211	-0,150
156,560	286,773	-0,131	-0,165
157,575	100,210	-0,238	-0,193
158,589	26,933	-0,371	-0,217
159,604	-32,515	-0,367	-0,142
160,619	79,189	-0,310	-0,232
161,633	198,678	-0,248	-0,265
162,648	28,006	-0,254	-0,149
163,662	263,755	-0,193	-0,235
164,677	43,999	-0,276	-0,176
165,692	185,032	-0,178	-0,185
166,706	175,912	-0,159	-0,162
167,721	106,732	-0,292	-0,242
168,735	40,757	-0,200	-0,125
169,750	47,148	-0,222	-0,144
170,764	150,374	-0,123	-0,116
171,779	62,448	-0,197	-0,137
172,794	147,548	-0,069	-0,064
173,808	293,081	-0,205	-0,262
174,823	165,015	-0,235	-0,232
175,837	-2,422	-0,230	-0,112
176,852	800,000	-0,081	-0,161
177,867	271,604	-0,285	-0,351
178,881	84,207	-0,224	-0,170
179,896	-145,001	-0,106	-0,007
180,910	26,644	-0,263	-0,153
181,925	-6,417	-0,361	-0,171
182,940	277,995	-0,264	-0,329
183,954	240,991	-0,214	-0,249
184,969	106,872	-0,176	-0,145
185,983	-112,602	-0,211	-0,029
186,998	-113,732	-0,176	-0,024
188,013	56,901	-0,197	-0,134
189,027	534,547	-0,138	-0,229
190,042	232,694	-0,178	-0,203
191,056	-46,628	-0,296	-0,100
192,071	-42,893	-0,322	-0,113
193,086	77,409	-0,135	-0,099
194,100	52,786	-0,213	-0,142
195,115	162,816	-0,176	-0,172
196,129	394,260	-0,234	-0,340
197,144	398,896	-0,188	-0,275
198,159	55,353	-0,252	-0,169
199,173	39,729	-0,344	-0,214
200,188	315,914	-0,065	-0,086
201,202	17,681	-0,160	-0,088
202,217	-52,594	-0,263	-0,084
203,232	50,743	-0,161	-0,106
204,246	-0,214	-0,390	-0,192
205,261	-76,551	-0,197	-0,048
206,275	205,109	-0,200	-0,216
207,290	66,736	-0,122	-0,087
208,304	-108,664	-0,271	-0,040
209,319	-33,335	-0,284	-0,109
210,334	-28,415	-0,181	-0,072
211,348	-200,000	-0,020	-0,218
212,363	91,506	-0,212	-0,165
213,377	126,459	-0,194	-0,170
214,392	28,724	-0,171	-0,100
215,407	213,457	-0,136	-0,150
216,421	88,002	-0,147	-0,113
217,436	25,132	-0,251	-0,144
218,450	82,972	-0,180	-0,136
219,465	438,389	-0,190	-0,289
220,480	15,392	-0,196	-0,107
221,494	-0,626	-0,256	-0,126
222,509	218,361	-0,196	-0,217
223,523	59,248	-0,229	-0,156
224,538	66,506	-0,138	0,097
225,553	6,482	-0,230	-0,118
226,567	37,924	-0,199	-0,123
227,582	-20,261	-0,213	-0,091
228,596	800,000	-0,122	-0,258
229,611	74,839	-0,260	-0,190
230,626	169,689	-0,081	-0,080
231,640	-175,033	-0,142	0,003
232,655	27,393	-0,274	-0,159
233,669	52,443	-0,238	-0,157
234,684	-92,858	-0,152	-0,029
235,699	65,131	-0,150	-0,105
236,713	114,654	-0,100	-0,084
237,728	53,131	-0,272	-0,180
238,742	231,422	-0,226	-0,257
239,757	52,034	-0,201	-0,133
240,772	-56,464	-0,230	-0,070
241,786	76,995	-0,250	-0,184
242,801	-200,000	0,005	-0,204
243,815	-7,151	-0,127	-0,060
244,830	-31,011	-0,096	-0,037
245,844	158,378	-0,165	-0,159
246,859	224,013	-0,179	-0,201
247,874	161,034	-0,221	-0,214
248,888	233,223	-0,097	-0,111
249,903	-63,584	-0,224	-0,063
250,917	139,953	-0,200	-0,182
251,932	253,193	-0,096	-0,113
252,947	-112,305	-0,112	0,015
253,961	-59,801	-0,158	-0,046
254,976	-75,328	-0,223	-0,055
255,990	45,596	-0,222	-0,142
257,005	-40,410	-0,169	-0,061
258,020	-105,709	-0,067	0,010
259,034	-31,252	-0,122	-0,047
260,049	135,797	-0,190	-0,171
261,063	-42,080	-0,256	-0,090
262,078	-18,416	-0,279	-0,120
263,093	109,632	-0,160	-0,132
264,107	127,212	-0,094	-0,083
265,122	-26,748	-0,228	-0,092
266,136	-124,583	-0,229	-0,024
267,151	-15,639	-0,160	-0,070
268,166	-200,000	-0,043	-0,156
269,180	205,650	-0,129	-0,139
270,195	-18,240	-0,286	-0,123
271,209	179,254	-0,093	-0,094
272,224	-111,984	-0,165	0,023
273,239	-122,453	-0,199	-0,022
274,253	62,211	-0,128	-0,088
275,268	54,089	-0,267	-0,177
276,282	521,203	-0,065	-0,105
277,297	-31,848	-0,112	-0,043
278,312	65,453	-0,038	-0,026
279,326	29,348	-0,181	-0,106
280,341	-200,000	0,010	-0,122
281,355	-12,924	-0,190	-0,085
282,370	358,554	-0,092	-0,127
283,384	-49,751	-0,192	-0,063
284,399	800,000	-0,080	-0,160
285,414	-107,077	-0,251	-0,038
286,428	-96,801	-0,148	0,027
287,443	800,000	-0,062	0,131
288,457	206,883	-0,144	-0,155
289,472	73,628	-0,167	-0,121
290,487	215,216	-0,108	-0,118
291,501	-173,042	-0,103	0,002
292,516	-183,013	-0,137	-0,002
293,530	238,537	-0,115	-0,132
294,545	-200,000	-0,089	-0,272
295,560	-199,973	-0,220	0,001
296,574	-94,132	-0,138	0,026
297,589	16,600	-0,130	-0,071
298,603	30,477	-0,103	-0,061
299,618	368,536	-0,147	-0,205
300,633	-19,314	-0,131	-0,056
301,647	-114,985	-0,092	0,012
302,662	240,077	-0,070	-0,081
303,676	-45,524	-0,305	-0,103
304,691	123,514	-0,136	-0,117
305,706	108,342	-0,150	-0,123
306,720	-0,195	-0,167	-0,081
307,735	44,609	-0,114	-0,072
308,749	-200,000	-0,005	-0,072
309,764	234,585	-0,151	-0,171
310,779	-200,000	-0,023	-0,098
311,793	-85,094	-0,086	0,018
312,808	45,153	-0,195	-0,124
313,822	275,934	-0,098	-0,120
314,837	-66,968	-0,079	-0,021
315,852	800,000	-0,092	-0,218
316,866	537,644	-0,060	-0,098
317,881	-4,222	-0,196	-0,093
318,895	-138,778	-0,130	0,010
319,910	-145,230	-0,212	-0,013
320,925	320,431	-0,109	-0,143
321,939	800,000	-0,086	-0,189
322,954	-64,302	-0,147	0,041
323,968	-11,498	-0,230	0,104
324,983	-200,000	-0,007	0,042
325,997	10,026	-0,195	-0,101
327,012	126,881	-0,186	-0,162
328,027	99,119	-0,215	-0,171
329,041	800,000	-0,059	-0,152
330,056	686,827	-0,075	-0,136
331,070	459,250	-0,092	-0,141
332,085	36,153	-0,047	0,028
333,100	-15,390	-0,164	-0,072
334,114	-70,234	-0,168	-0,044
335,129	800,000	-0,072	-0,151
336,143	-1,883	-0,241	-0,116
337,158	104,294	-0,151	-0,122
338,173	250,751	-0,064	0,075
339,187	-24,965	-0,173	0,070
340,202	-34,650	-0,112	-0,042
341,216	165,557	-0,182	-0,177
342,231	16,171	-0,070	0,038
343,246	-200,000	-0,013	-0,181
344,260	403,603	-0,166	-0,241
345,275	215,197	-0,091	-0,099
346,289	800,000	-0,049	-0,116
347,304	79,281	-0,189	-0,139
348,319	-200,000	0,044	-0,146
349,333	-61,411	-0,207	-0,059
350,348	-11,305	-0,137	-0,062
351,362	680,409	-0,017	-0,031
352,377	560,777	-0,048	-0,079
353,392	-39,263	-0,071	-0,026
354,406	17,061	-0,187	-0,102
355,421	208,570	1314,451	1412,256
356,435	160,489	1475,149	1412,751
