DTS Sentinel unit serial number:	SN410029Multiplexer serial number:	ORYXHardware model number:	OX2-SRSoftware version number:	ORYX F/W v4,00 Oryx Data Collector v3.7.2.0data status	okinstallation	B3 Nyhavnadifferential loss correction	single-endedforward channel	channel 1reverse channel	N/Adate	2023/12/05time	03:07:30forward acquisition time	300,00reverse acquisition time	0,00gamma	499,1914k internal	0,3201k external	0,3201temperature offset calibration	1,0000default loss term (dB/km)	0,3820temperature slope calibration	1,0000multiplexer offset coefficient	1,0000multiplexer slope coefficient	1,0000fibre end	0,00T internal ref (°C)	14,06T ext. ref 1 (°C)	-0,66T ext. ref 2 (°C)	-0,69length (m)	temperature (°C)	Stokes	anti-Stokes-744,400	-60,686	-0,238	-0,073
-743,385	800,000	0,142	0,439
-742,371	-147,873	-0,202	0,012
-741,356	-200,000	-0,031	0,257
-740,342	266,114	-0,164	-0,208
-739,327	-200,000	-0,025	0,251
-738,312	-200,000	-0,081	-0,269
-737,298	800,000	0,089	0,258
-736,283	245,149	-0,174	-0,213
-735,269	-200,000	-0,065	0,283
-734,254	81,263	-0,189	-0,149
-733,239	85,158	-0,133	0,106
-732,225	651,880	-0,138	-0,259
-731,210	-127,503	0,085	0,009
-730,196	-200,000	0,015	0,196
-729,181	800,000	0,025	0,061
-728,167	252,815	0,044	-0,055
-727,152	150,911	0,099	-0,098
-726,137	357,091	-0,107	0,155
-725,123	-84,755	0,099	-0,023
-724,108	252,301	-0,067	-0,083
-723,094	212,424	0,019	0,021
-722,079	38,633	-0,082	-0,053
-721,064	211,576	-0,043	-0,050
-720,050	5,062	0,172	0,092
-719,035	-200,000	0,001	-0,117
-718,021	-143,582	-0,232	-0,016
-717,006	-200,000	0,004	-0,039
-715,991	117,367	-0,085	0,076
-714,977	18,097	0,018	-0,011
-713,962	231,695	-0,101	-0,120
-712,948	13,622	-0,063	0,035
-711,933	-102,893	0,031	-0,005
-710,918	218,386	0,089	-0,103
-709,904	331,664	-0,054	-0,076
-708,889	-200,000	0,000	-0,157
-707,875	25,763	0,070	0,043
-706,860	391,914	-0,066	0,099
-705,845	-164,662	0,022	-0,001
-704,831	99,502	-0,089	0,075
-703,816	-200,000	0,018	0,091
-702,802	378,833	-0,038	0,056
-701,787	-11,208	-0,007	-0,003
-700,772	800,000	-0,051	-0,102
-699,758	-44,029	-0,082	0,030
-698,743	-200,000	0,001	-0,044
-697,729	-200,000	0,026	0,100
-696,714	234,079	0,035	-0,042
-695,699	267,364	-0,097	-0,123
-694,685	800,000	0,045	-0,119
-693,670	313,376	0,026	-0,035
-692,656	121,688	0,049	0,045
-691,641	132,192	-0,014	0,013
-690,627	547,133	-0,017	0,029
-689,612	-200,000	-0,010	-0,136
-688,597	-178,286	0,029	0,000
-687,583	-83,801	-0,123	-0,028
-686,568	771,132	-0,052	-0,103
-685,554	108,774	-0,100	-0,087
-684,539	-200,000	-0,017	-0,062
-683,524	800,000	0,033	-0,082
-682,510	800,000	0,061	0,129
-681,495	-36,683	-0,177	0,069
-680,481	-142,150	-0,071	-0,005
-679,466	280,552	0,058	-0,075
-678,451	-11,183	-0,130	-0,062
-677,437	96,340	-0,077	-0,064
-676,422	92,317	-0,048	0,039
-675,408	25,216	-0,030	0,018
-674,393	-17,203	0,035	0,016
-673,378	422,415	-0,036	0,056
-672,364	-3,803	-0,216	-0,108
-671,349	800,000	-0,031	-0,068
-670,335	-32,817	0,175	0,070
-669,320	-74,564	-0,098	0,025
-668,305	320,798	-0,009	0,012
-667,291	-65,115	0,054	0,016
-666,276	553,976	0,047	-0,082
-665,262	626,299	-0,058	-0,107
-664,247	769,072	-0,035	-0,069
-663,232	4,298	0,082	-0,043
-662,218	2,400	0,042	0,022
-661,203	800,000	0,040	0,123
-660,189	168,446	-0,037	-0,038
-659,174	57,409	-0,042	0,030
-658,159	-200,000	-0,030	0,108
-657,145	800,000	0,085	0,181
-656,130	42,451	-0,120	0,079
-655,116	800,000	-0,010	0,025
-654,101	-112,080	-0,153	0,022
-653,086	-200,000	-0,013	0,126
-652,072	-99,404	-0,036	0,007
-651,057	-200,000	0,014	-0,096
-650,043	77,629	-0,095	-0,073
-649,028	-200,000	-0,009	0,059
-648,014	-119,254	0,090	-0,011
-646,999	-200,000	-0,000	-0,014
-645,984	-49,461	0,082	-0,028
-644,970	800,000	0,028	0,060
-643,955	800,000	-0,030	0,083
-642,941	-36,160	-0,145	-0,056
-641,926	-200,000	0,008	0,158
-640,911	800,000	0,083	0,187
-639,897	501,272	-0,030	0,050
-638,882	-37,957	0,090	0,034
-637,868	119,307	0,058	-0,052
-636,853	-200,000	-0,002	-0,089
-635,838	-116,414	0,095	0,013
-634,824	230,239	-0,042	-0,050
-633,809	-53,403	-0,084	-0,028
-632,795	98,487	0,049	-0,041
-631,780	14,912	-0,064	-0,036
-630,765	800,000	-0,055	-0,160
-629,751	6,879	-0,083	0,045
-628,736	117,953	-0,049	-0,044
-627,722	-200,000	-0,038	-0,159
-626,707	214,317	-0,059	0,068
-625,692	-200,000	-0,004	0,058
-624,678	114,666	-0,097	0,085
-623,663	800,000	-0,038	-0,104
-622,649	-87,677	0,060	0,013
-621,634	392,164	0,057	-0,086
-620,619	-56,091	-0,021	-0,007
-619,605	335,214	-0,061	0,086
-618,590	150,334	0,054	0,053
-617,576	800,000	-0,040	0,095
-616,561	800,000	-0,019	-0,059
-615,546	-130,815	-0,113	-0,011
-614,532	-40,643	0,043	0,016
-613,517	-11,241	-0,082	-0,039
-612,503	434,949	-0,034	0,054
-611,488	333,341	-0,062	-0,087
-610,474	122,058	-0,071	0,064
-609,459	-139,462	0,118	0,009
-608,444	10,731	-0,186	-0,102
-607,430	-200,000	0,044	-0,171
-606,415	-200,000	-0,021	-0,085
-605,401	324,625	0,064	-0,089
-604,386	800,000	0,037	-0,109
-603,371	-145,223	-0,021	-0,001
-602,357	-35,524	-0,053	-0,021
-601,342	-200,000	-0,002	0,023
-600,328	800,000	0,066	-0,134
-599,313	37,597	-0,009	-0,006
-598,298	-22,691	0,056	-0,024
-597,284	163,710	0,104	0,105
-596,269	-157,329	-0,114	-0,005
-595,255	282,110	0,055	0,072
-594,240	-200,000	0,001	0,050
-593,225	800,000	0,017	-0,044
-592,211	66,642	0,070	0,051
-591,196	-200,000	-0,018	-0,073
-590,182	59,431	-0,057	-0,041
-589,167	-121,874	-0,072	0,008
-588,152	544,658	0,020	0,035
-587,138	309,830	0,073	0,099
-586,123	-200,000	0,007	-0,037
-585,109	-200,000	0,029	-0,157
-584,094	-66,537	-0,123	-0,035
-583,079	369,712	0,068	-0,100
-582,065	71,167	0,125	-0,094
-581,050	-200,000	-0,009	-0,036
-580,036	-98,205	-0,121	0,022
-579,021	324,208	-0,108	-0,149
-578,006	20,506	-0,109	-0,063
-576,992	-4,554	0,115	-0,057
-575,977	586,021	-0,071	-0,126
-574,963	800,000	0,082	0,168
-573,948	800,000	-0,027	-0,060
-572,934	292,293	-0,014	-0,019
-571,919	-79,121	0,081	0,020
-570,904	-200,000	-0,042	0,148
-569,890	177,096	0,085	-0,090
-568,875	171,063	0,079	-0,082
-567,861	-148,653	0,040	-0,002
-566,846	688,809	-0,071	0,134
-565,831	-89,562	-0,152	-0,032
-564,817	800,000	0,027	0,063
-563,802	429,147	-0,049	0,077
-562,788	-46,255	-0,102	0,036
-561,773	-71,267	0,088	-0,024
-560,758	-30,819	0,073	0,030
-559,744	97,649	0,052	0,043
-558,729	247,897	0,140	0,172
-557,715	26,798	-0,014	0,009
-556,700	-144,160	0,045	-0,003
-555,685	710,049	-0,037	0,071
-554,671	-10,031	0,067	0,032
-553,656	-92,604	-0,092	0,018
-552,642	800,000	-0,060	0,135
-551,627	724,932	0,021	-0,040
-550,612	-43,054	0,075	0,027
-549,598	106,931	0,031	0,027
-548,583	143,990	0,082	-0,079
-547,569	-21,016	0,103	0,045
-546,554	-200,000	0,021	0,095
-545,539	-29,671	0,025	-0,010
-544,525	383,535	-0,086	0,128
-543,510	800,000	0,064	0,142
-542,496	-200,000	0,003	-0,078
-541,481	-65,506	-0,062	0,018
-540,466	-9,425	0,067	0,032
-539,452	-200,000	-0,005	0,061
-538,437	132,308	-0,029	-0,027
-537,423	-11,090	-0,035	0,016
-536,408	-6,780	-0,094	0,046
-535,393	136,078	-0,073	-0,069
-534,379	-27,631	-0,129	-0,054
-533,364	121,959	0,113	-0,102
-532,350	722,106	0,016	0,030
-531,335	-200,000	0,040	0,135
-530,321	-51,851	0,036	0,012
-529,306	59,277	-0,091	-0,064
-528,291	96,729	0,057	-0,047
-527,277	59,868	0,052	-0,037
-526,262	355,477	-0,098	-0,141
-525,248	-120,790	0,056	-0,007
-524,233	439,129	-0,042	0,066
-523,218	165,443	-0,046	-0,047
-522,204	162,754	-0,097	-0,099
-521,189	535,494	-0,033	0,057
-520,175	565,139	0,064	-0,112
-519,160	-165,875	-0,197	-0,006
-518,145	365,489	0,040	-0,059
-517,131	582,651	-0,043	-0,077
-516,116	-94,684	-0,128	0,025
-515,102	25,033	0,103	0,062
-514,087	165,567	0,035	0,036
-513,072	800,000	0,029	-0,087
-512,058	-84,656	-0,098	-0,022
-511,043	-30,605	0,244	-0,099
-510,029	169,286	-0,038	-0,039
-509,014	-131,447	-0,074	-0,007
-507,999	64,635	0,102	-0,074
-506,985	-30,347	-0,074	-0,030
-505,970	6,181	-0,059	0,031
-504,956	113,682	-0,034	0,030
-503,941	305,826	0,038	-0,051
-502,926	231,145	-0,052	0,062
-501,912	98,443	0,081	0,067
-500,897	800,000	0,078	0,175
-499,883	-115,790	-0,123	0,016
-498,868	-168,951	-0,161	-0,004
-497,853	-200,000	0,005	-0,198
-496,839	468,354	-0,059	-0,096
-495,824	-200,000	-0,089	0,000
-494,810	800,000	-0,021	0,048
-493,795	124,361	-0,068	-0,062
-492,781	-200,000	0,016	-0,071
-491,766	-47,822	-0,097	-0,034
-490,751	-200,000	-0,025	0,110
-489,737	198,642	-0,102	0,112
-488,722	276,749	0,062	-0,079
-487,708	40,503	0,079	0,051
-486,693	-55,979	-0,066	0,021
-485,678	23,012	-0,056	-0,033
-484,664	-200,000	0,000	-0,091
-483,649	-64,620	0,110	-0,032
-482,635	-20,796	-0,074	-0,033
-481,620	534,258	-0,073	-0,125
-480,605	1,771	-0,035	-0,018
-479,591	139,835	-0,016	0,015
-478,576	800,000	0,043	-0,129
-477,562	-200,000	0,007	-0,109
-476,547	-200,000	-0,060	-0,197
-475,532	-200,000	-0,020	0,065
-474,518	-97,454	0,083	-0,015
-473,503	-95,634	0,054	0,010
-472,489	-70,609	0,133	-0,036
-471,474	172,910	0,037	-0,038
-470,459	-27,167	0,096	0,040
-469,445	215,154	0,029	-0,033
-468,430	586,720	-0,035	0,061
-467,416	199,583	0,014	0,015
-466,401	20,971	0,100	0,058
-465,386	143,299	0,109	0,104
-464,372	488,906	0,012	0,020
-463,357	-57,421	-0,127	-0,040
-462,343	-200,000	0,013	0,092
-461,328	22,420	-0,012	-0,007
-460,313	-82,601	0,149	0,035
-459,299	-15,942	-0,079	0,036
-458,284	155,154	-0,025	0,024
-457,270	-133,187	-0,232	0,021
-456,255	142,002	-0,093	-0,088
-455,241	123,117	0,109	-0,098
-454,226	127,565	-0,060	-0,055
-453,211	-200,000	-0,002	0,108
-452,197	184,559	-0,032	0,034
-451,182	-167,455	0,090	0,003
-450,168	-200,000	-0,010	0,043
-449,153	-200,000	-0,017	0,136
-448,138	-200,000	-0,004	0,056
-447,124	13,483	0,015	-0,008
-446,109	-83,512	-0,102	-0,023
-445,095	-116,082	0,042	0,006
-444,080	444,586	0,047	0,074
-443,065	-200,000	0,008	-0,097
-442,051	97,404	0,101	0,083
-441,036	720,017	-0,050	-0,097
-440,022	121,913	-0,067	0,060
-439,007	580,019	-0,057	0,102
-437,992	-38,199	-0,096	-0,036
-436,978	-200,000	-0,034	0,122
-435,963	195,147	-0,078	0,085
-434,949	794,948	-0,041	-0,082
-433,934	210,946	-0,066	0,074
-432,919	-82,595	-0,045	-0,010
-431,905	-32,527	-0,064	-0,026
-430,890	-200,000	0,007	0,062
-429,876	-5,886	-0,143	0,070
-428,861	-200,000	0,046	0,154
-427,846	800,000	-0,033	-0,098
-426,832	-131,570	-0,047	0,004
-425,817	-59,664	-0,087	0,027
-424,803	409,000	-0,072	-0,110
-423,788	800,000	-0,004	-0,008
-422,773	518,244	0,034	0,058
-421,759	-200,000	0,001	0,013
-420,744	72,732	0,086	0,065
-419,730	19,800	-0,092	-0,053
-418,715	-200,000	-0,002	-0,014
-417,701	-118,778	-0,032	0,004
-416,686	146,627	0,042	0,040
-415,671	-92,324	0,080	0,016
-414,657	162,402	-0,062	0,062
-413,642	66,239	0,052	-0,038
-412,628	-200,000	0,006	-0,069
-411,613	-11,018	-0,069	0,032
-410,598	309,242	0,002	0,003
-409,584	-200,000	0,006	0,100
-408,569	628,161	0,042	-0,077
-407,555	-1,482	0,072	0,037
-406,540	377,922	0,077	0,113
-405,525	5,897	0,065	-0,034
-404,511	574,147	-0,030	-0,052
-403,496	-39,791	-0,249	-0,093
-402,482	61,365	0,062	0,044
-401,467	184,658	0,041	0,043
-400,452	-71,582	0,053	0,014
-399,438	-35,173	-0,058	0,022
-398,423	255,962	0,047	-0,058
-397,409	177,252	-0,042	0,044
-396,394	357,335	0,060	-0,086
-395,379	-115,631	0,088	-0,012
-394,365	800,000	0,031	0,093
-393,350	-200,000	0,048	0,183
-392,336	-52,843	0,106	-0,035
-391,321	-200,000	-0,027	0,089
-390,306	-82,911	-0,084	-0,019
-389,292	-81,952	-0,100	-0,023
-388,277	-200,000	0,010	-0,061
-387,263	-200,000	0,037	0,144
-386,248	-200,000	-0,012	0,042
-385,233	65,346	0,073	-0,053
-384,219	104,088	0,131	-0,110
-383,204	182,055	-0,078	-0,083
-382,190	-170,443	-0,134	0,003
-381,175	-200,000	0,004	0,018
-380,160	800,000	0,032	-0,076
-379,146	-135,139	0,180	-0,015
-378,131	-128,159	-0,052	-0,005
-377,117	162,076	0,068	-0,069
-376,102	191,670	-0,055	-0,060
-375,088	-200,000	0,007	0,076
-374,073	259,833	-0,046	-0,057
-373,058	800,000	0,031	-0,069
-372,044	318,494	0,097	0,132
-371,029	-94,470	0,139	-0,027
-370,015	-200,000	0,004	-0,044
-369,000	-58,056	-0,138	-0,043
-367,985	-200,000	-0,011	-0,050
-366,971	211,001	-0,063	-0,071
-365,956	271,701	-0,025	0,031
-364,942	273,691	-0,003	-0,004
-363,927	83,712	-0,056	0,044
-362,912	32,484	-0,118	0,073
-361,898	-200,000	-0,005	-0,069
-360,883	-85,972	-0,055	0,012
-359,869	137,881	-0,125	-0,117
-358,854	-55,108	0,123	-0,039
-357,839	85,992	0,035	-0,027
-356,825	-3,058	0,144	0,072
-355,810	-42,288	0,076	-0,028
-354,796	-63,528	-0,012	-0,004
-353,781	161,726	-0,048	-0,048
-352,766	-200,000	0,038	0,141
-351,752	-200,000	0,039	0,183
-350,737	-40,917	0,051	0,019
-349,723	182,238	-0,071	0,075
-348,708	32,734	0,074	-0,046
-347,693	167,832	0,059	0,060
-346,679	528,894	0,006	0,011
-345,664	-83,687	-0,143	-0,032
-344,650	-200,000	-0,036	0,130
-343,635	-200,000	0,018	0,128
-342,620	233,302	0,053	-0,062
-341,606	800,000	-0,051	0,134
-340,591	363,580	-0,044	0,064
-339,577	-200,000	-0,011	-0,078
-338,562	800,000	0,094	-0,199
-337,548	-21,211	-0,103	-0,045
-336,533	800,000	-0,023	0,055
-335,518	225,855	0,069	0,080
-334,504	-200,000	0,008	-0,054
-333,489	-8,760	0,104	0,050
-332,475	-200,000	-0,005	-0,034
-331,460	201,520	-0,068	-0,075
-330,445	-110,727	-0,015	0,002
-329,431	800,000	0,057	0,173
-328,416	331,292	0,049	0,067
-327,402	-105,059	0,132	-0,021
-326,387	-51,057	0,160	0,053
-325,372	166,598	-0,097	-0,098
-324,358	-72,881	-0,132	-0,034
-323,343	126,458	-0,044	-0,040
-322,329	282,028	-0,076	0,098
-321,314	204,556	0,084	-0,093
-320,299	-200,000	0,032	-0,104
-319,285	-122,882	0,080	0,009
-318,270	388,338	0,046	0,069
-317,256	680,860	-0,052	-0,098
-316,241	208,975	-0,029	0,033
-315,226	-200,000	0,007	0,099
-314,212	-200,000	-0,015	0,122
-313,197	-46,382	-0,109	-0,038
-312,183	-200,000	-0,005	-0,039
-311,168	24,347	0,086	-0,051
-310,153	-47,921	-0,158	-0,054
-309,139	-187,505	0,077	-0,001
-308,124	47,508	-0,104	-0,069
-307,110	800,000	0,054	-0,136
-306,095	-200,000	0,010	0,104
-305,080	-200,000	0,014	0,104
-304,066	659,351	0,044	-0,081
-303,051	191,417	0,059	0,064
-302,037	304,720	0,014	-0,019
-301,022	800,000	0,005	-0,014
-300,008	59,372	0,101	-0,071
-298,993	-17,680	0,090	0,040
-297,978	800,000	0,047	0,138
-296,964	-98,799	0,065	0,012
-295,949	-173,541	-0,269	-0,006
-294,935	247,104	-0,039	0,047
-293,920	37,274	0,203	0,128
-292,905	800,000	-0,022	-0,062
-291,891	-200,000	-0,011	0,065
-290,876	-4,524	0,173	0,085
-289,862	468,717	-0,032	0,051
-288,847	110,527	0,045	0,039
-287,832	-108,710	-0,030	-0,005
-286,818	800,000	-0,052	-0,113
-285,803	83,984	-0,015	0,012
-284,789	-200,000	0,034	0,160
-283,774	-68,594	0,097	0,027
-282,759	-23,498	0,007	0,003
-281,745	332,391	0,105	-0,145
-280,730	-49,283	0,055	-0,019
-279,716	30,877	-0,081	0,050
-278,701	14,439	-0,186	-0,103
-277,686	800,000	0,050	0,118
-276,672	-62,615	0,056	-0,016
-275,657	93,375	-0,027	-0,022
-274,643	172,568	0,055	0,056
-273,628	800,000	0,004	-0,012
-272,613	473,381	0,037	-0,059
-271,599	-113,382	0,109	-0,015
-270,584	-200,000	0,014	0,051
-269,570	7,478	0,058	-0,031
-268,555	103,955	0,036	0,031
-267,540	-200,000	0,020	-0,077
-266,526	268,963	-0,105	-0,132
-265,511	72,930	0,071	-0,053
-264,497	299,139	0,064	-0,085
-263,482	-82,316	0,122	-0,028
-262,467	-200,000	-0,015	0,112
-261,453	10,242	0,064	-0,034
-260,438	800,000	0,016	0,041
-259,424	781,253	0,068	-0,134
-258,409	-51,058	-0,060	0,020
-257,395	1,399	0,077	0,039
-256,380	658,823	0,056	0,104
-255,365	-86,967	0,104	-0,023
-254,351	12,501	0,073	0,040
-253,336	-46,496	-0,065	0,023
-252,322	287,917	-0,096	0,124
-251,307	-135,585	0,025	-0,002
-250,292	-166,116	-0,056	0,002
-249,278	800,000	-0,035	-0,088
-248,263	-0,950	0,101	0,051
-247,249	75,046	0,065	0,049
-246,234	800,000	0,029	-0,072
-245,219	-10,184	0,061	0,029
-244,205	800,000	0,010	-0,020
-243,190	182,968	0,097	-0,102
-242,176	-81,196	-0,066	-0,015
-241,161	-200,000	-0,010	0,039
-240,146	60,885	0,083	0,059
-239,132	-200,000	0,003	-0,017
-238,117	697,612	-0,052	-0,098
-237,103	-181,888	-0,158	-0,002
-236,088	6,830	0,006	-0,003
-235,073	-200,000	0,019	0,064
-234,059	800,000	-0,092	0,202
-233,044	172,905	0,049	0,050
-232,030	10,145	-0,138	0,074
-231,015	-200,000	-0,022	0,147
-230,000	13,239	-0,128	-0,070
-228,986	241,652	0,044	-0,052
-227,971	-200,000	-0,008	-0,031
-226,957	272,868	0,079	0,100
-225,942	800,000	0,033	0,088
-224,927	558,957	-0,031	-0,054
-223,913	-48,822	-0,141	-0,048
-222,898	-12,011	0,153	0,071
-221,884	-200,000	-0,012	-0,104
-220,869	449,029	0,061	-0,096
-219,855	800,000	-0,078	-0,210
-218,840	138,796	-0,038	-0,036
-217,825	-200,000	-0,042	-0,166
-216,811	437,787	-0,042	-0,065
-215,796	23,884	-0,084	0,049
-214,782	292,009	0,029	-0,037
-213,767	572,845	-0,052	0,090
-212,752	54,600	0,036	-0,025
-211,738	194,499	0,119	0,128
-210,723	800,000	-0,028	-0,057
-209,709	208,352	-0,094	0,105
-208,694	43,836	-0,169	-0,110
-207,679	-200,000	0,004	-0,089
-206,665	800,000	0,052	-0,131
-205,650	-77,824	0,098	-0,024
-204,636	-24,953	0,066	-0,028
-203,621	-200,000	0,029	0,107
-202,606	224,728	0,090	0,104
-201,592	-57,715	-0,020	-0,006
-200,577	373,035	0,008	0,012
-199,563	-200,000	0,003	-0,036
-198,548	-179,402	0,073	-0,001
-197,533	-200,000	0,016	0,134
-196,519	-200,000	-0,009	0,100
-195,504	759,134	0,079	0,152
-194,490	-88,807	-0,168	-0,035
-193,475	-129,104	-0,054	0,005
-192,460	-200,000	0,004	-0,070
-191,446	-61,417	0,126	0,037
-190,431	-200,000	-0,029	0,111
-189,417	610,067	0,006	-0,011
-188,402	-14,112	0,052	-0,024
-187,387	63,073	-0,158	-0,112
-186,373	302,086	0,096	-0,127
-185,358	-200,000	0,005	0,027
-184,344	-112,259	-0,069	0,010
-183,329	-31,959	-0,014	-0,006
-182,315	-199,688	0,013	0,000
-181,300	-200,000	0,033	0,131
-180,285	725,165	-0,075	0,143
-179,271	711,884	0,038	-0,072
-178,256	89,804	-0,016	0,013
-177,242	-90,171	0,150	-0,031
-176,227	437,912	0,066	0,103
-175,212	-95,213	0,021	-0,004
-174,198	15,548	-0,051	0,029
-173,183	50,739	-0,080	-0,054
-172,169	-183,130	-0,109	-0,001
-171,154	800,000	0,044	-0,096
-170,139	-179,091	0,185	0,003
-169,125	-102,387	0,091	0,015
-168,110	722,888	-0,084	0,159
-167,096	319,424	0,048	0,065
-166,081	-200,000	-0,051	-0,182
-165,066	454,100	0,093	-0,148
-164,052	373,595	0,026	-0,037
-163,037	-97,876	-0,141	-0,026
-162,023	-1,885	0,063	0,031
-161,008	-85,477	-0,092	0,020
-159,993	-39,101	-0,104	0,039
-158,979	-17,116	-0,052	0,023
-157,964	-200,000	0,016	-0,059
-156,950	131,264	0,080	-0,073
-155,935	441,527	0,039	-0,061
-154,920	-73,619	0,079	0,020
-153,906	-200,000	0,004	0,032
-152,891	-200,000	-0,008	-0,091
-151,877	-30,117	0,046	-0,019
-150,862	-200,000	0,027	-0,104
-149,847	-198,937	0,103	0,000
-148,833	8,098	0,011	-0,006
-147,818	800,000	-0,009	0,022
-146,804	-200,000	0,002	0,079
-145,789	134,889	0,026	0,024
-144,775	430,063	-0,037	0,056
-143,760	-200,000	0,009	0,040
-142,745	-59,383	-0,084	-0,025
-141,731	-39,050	-0,105	0,039
-140,716	-200,000	-0,027	0,168
-139,702	193,672	0,017	-0,019
-138,687	-140,278	-0,026	-0,002
-137,672	385,820	-0,033	0,049
-136,658	-200,000	-0,006	-0,078
-135,643	178,867	-0,037	-0,039
-134,629	800,000	-0,034	-0,097
-133,614	25,464	0,150	-0,088
-132,599	429,212	-0,023	-0,035
-131,585	-200,000	-0,006	0,030
-130,570	-70,784	0,047	0,012
-129,556	-200,000	0,001	0,083
-128,541	232,664	-0,053	0,062
-127,526	-200,000	-0,003	-0,016
-126,512	710,971	0,065	-0,123
-125,497	-200,000	-0,001	-0,019
-124,483	114,529	-0,068	-0,059
-123,468	-200,000	0,014	0,054
-122,453	-96,650	-0,084	-0,016
-121,439	-144,536	0,036	0,002
-120,424	124,732	-0,093	-0,083
-119,410	800,000	0,055	-0,137
-118,395	715,504	0,025	0,048
-117,380	545,240	-0,008	0,014
-116,366	800,000	-0,029	0,064
-115,351	86,012	0,039	0,031
-114,337	-123,176	0,075	-0,008
-113,322	-93,666	0,107	0,021
-112,307	35,303	-0,069	-0,043
-111,293	-21,417	-0,086	0,037
-110,278	-136,118	-0,088	-0,007
-109,264	-200,000	0,008	0,082
-108,249	-60,043	-0,078	0,023
-107,234	91,315	-0,086	0,068
-106,220	153,743	0,013	-0,013
-105,205	-98,624	-0,075	-0,013
-104,191	175,781	0,071	-0,073
-103,176	108,177	0,126	0,106
-102,162	335,270	0,066	-0,092
-101,147	-93,513	-0,019	0,004
-100,132	800,000	-0,038	-0,091
-99,118	348,926	-0,078	-0,109
-98,103	171,016	-0,040	-0,041
-97,089	-200,000	0,015	0,064
-96,074	24,611	-0,014	0,008
-95,059	800,000	0,019	0,057
-94,045	-94,986	-0,039	0,007
-93,030	-108,544	-0,205	-0,031
-92,016	558,169	0,048	0,082
-91,001	-200,000	0,017	0,079
-89,986	-59,938	-0,197	0,059
-88,972	-159,832	-0,092	-0,004
-87,957	244,249	-0,039	0,046
-86,943	800,000	0,052	0,149
-85,928	-127,216	-0,130	-0,013
-84,913	-200,000	-0,006	-0,022
-83,899	-75,185	-0,111	0,028
-82,884	163,599	0,118	0,117
-81,870	-125,709	0,202	-0,021
-80,855	-96,476	-0,096	-0,018
-79,840	-49,662	0,085	0,029
-78,826	182,141	-0,090	0,094
-77,811	385,946	0,034	0,050
-76,797	634,595	0,049	0,088
-75,782	31,288	-0,061	-0,037
-74,767	512,442	0,047	0,078
-73,753	-130,777	0,049	0,005
-72,738	-200,000	0,001	0,080
-71,724	-200,000	0,011	0,076
-70,709	-200,000	-0,001	0,041
-69,694	-130,694	-0,214	-0,020
-68,680	-200,000	0,027	0,094
-67,665	-200,000	0,035	0,122
-66,651	653,836	-0,098	0,179
-65,636	11,465	0,046	-0,025
-64,622	212,967	-0,035	-0,039
-63,607	584,139	0,023	-0,040
-62,592	-107,604	-0,073	0,011
-61,578	-155,655	0,090	0,004
-60,563	173,451	0,080	0,082
-59,549	800,000	-0,022	0,055
-58,534	-21,461	-1,587	-0,682
-57,519	406,408	-1,397	-2,094
-56,505	-200,000	-0,669	-4,674
-55,490	187,337	1,038	1,097
-54,476	800,000	5,048	11,613
-53,461	-200,000	18,791	305,830
-52,446	800,000	736,965	2297,181
-51,432	568,734	1653,160	2855,258
-50,417	79,017	1670,252	1264,741
-49,403	22,012	1543,531	888,845
-48,388	15,939	1466,081	814,745
-47,373	17,727	1456,120	817,812
-46,359	16,814	1446,377	807,927
-45,344	14,156	1441,681	792,552
-44,330	14,142	1439,582	791,299
-43,315	14,123	1437,946	790,276
-42,300	14,141	1436,110	789,324
-41,286	14,172	1435,034	788,845
-40,271	14,087	1433,853	787,760
-39,257	14,111	1432,552	787,130
-38,242	14,163	1431,301	786,659
-37,227	14,132	1430,164	785,856
-36,213	14,176	1428,685	785,222
-35,198	14,149	1427,722	784,530
-34,184	14,202	1426,709	784,194
-33,169	14,166	1425,186	783,157
-32,154	14,198	1424,038	782,645
-31,140	14,173	1422,985	781,917
-30,125	14,201	1421,618	781,268
-29,111	14,192	1420,513	780,587
-28,096	14,185	1419,580	780,010
-27,082	14,099	1418,649	779,064
-26,067	14,108	1417,444	778,412
-25,052	14,070	1416,610	777,745
-24,038	14,084	1415,377	777,103
-23,023	14,063	1414,490	776,484
-22,009	14,048	1413,679	775,939
-20,994	14,037	1412,690	775,312
-19,979	14,065	1411,706	774,874
-18,965	14,057	1410,673	774,241
-17,950	14,062	1409,639	773,665
-16,936	14,041	1408,881	773,122
-15,921	14,017	1407,630	772,292
-14,906	13,989	1406,837	771,694
-13,892	14,008	1405,878	771,226
-12,877	13,996	1405,065	770,691
-11,863	13,993	1403,954	770,040
-10,848	13,940	1403,244	769,372
-9,833	13,906	1402,497	768,773
-8,819	13,941	1401,450	768,330
-7,804	13,860	1400,898	767,621
-6,790	13,949	1399,277	767,119
-5,775	13,877	1398,334	766,234
-4,760	13,941	1397,583	766,089
-3,746	13,890	1396,658	765,317
-2,731	13,877	1395,916	764,818
-1,717	13,882	1394,874	764,241
-0,702	13,850	1393,294	763,195
0,313	17,669	1311,144	735,903
1,327	33,999	705,793	433,953
2,342	52,474	123,976	83,582
3,356	3,055	16,655	8,534
4,371	24,164	3,132	1,825
5,386	84,560	0,438	0,339
6,400	-200,000	0,023	0,150
7,415	165,480	-0,304	-0,304
8,429	14,832	-0,251	-0,138
9,444	-16,746	-0,295	-0,131
10,459	66,251	-0,363	-0,260
11,473	-26,454	-0,412	-0,170
12,488	-84,093	-0,261	-0,058
13,502	28,876	-0,189	-0,113
14,517	-44,868	-0,274	-0,096
15,531	18,183	-0,403	-0,226
16,546	16,372	-0,347	-0,193
17,561	157,805	-0,257	-0,251
18,575	-55,654	-0,350	-0,110
19,590	114,004	-0,233	-0,201
20,604	93,109	-0,208	-0,166
21,619	95,701	-0,426	-0,343
22,634	220,226	-0,432	-0,490
23,648	-10,624	-0,506	-0,235
24,663	42,994	-0,380	-0,244
25,677	10,304	-0,365	-0,196
26,692	120,045	-0,205	-0,180
27,707	94,265	-0,383	-0,307
28,721	38,381	-0,476	-0,299
29,736	429,910	-0,209	-0,320
30,750	118,900	-0,349	-0,304
31,765	19,264	-0,385	-0,217
32,780	40,687	-0,373	-0,237
33,794	-0,172	-0,385	-0,192
34,809	159,491	-0,352	-0,345
35,823	56,954	-0,431	-0,296
36,838	48,708	-0,374	-0,247
37,853	83,332	-0,487	-0,374
38,867	203,902	-0,404	-0,442
39,882	51,721	-0,440	-0,295
40,896	70,891	-0,346	-0,252
41,911	-1,356	-0,232	-0,115
42,926	-45,874	-0,422	-0,146
43,940	122,158	-0,324	-0,285
44,955	13,324	-0,368	-0,200
45,969	80,143	-0,422	-0,319
46,984	195,045	-0,212	-0,227
47,999	125,426	-0,318	-0,283
49,013	90,226	-0,347	-0,273
50,028	317,193	-0,217	-0,290
51,042	418,815	-0,207	-0,313
52,057	142,960	-0,363	-0,340
53,071	54,677	-0,383	-0,259
54,086	146,011	-0,270	-0,255
55,101	127,503	-0,271	-0,242
56,115	108,153	-0,294	-0,247
57,130	44,728	-0,340	-0,220
58,144	164,972	-0,261	-0,259
59,159	135,711	-0,378	-0,347
60,174	206,303	-0,411	-0,451
61,188	74,974	-0,335	-0,248
62,203	100,115	-0,276	-0,225
63,217	-16,231	-0,308	-0,137
64,232	-18,932	-0,410	-0,179
65,247	62,627	-0,243	-0,170
66,261	68,536	-0,460	-0,331
67,276	109,730	-0,387	-0,327
68,290	-24,072	-0,427	-0,179
69,305	217,948	-0,296	-0,333
70,320	800,000	-0,131	-0,260
71,334	337,043	-0,148	-0,202
72,349	95,271	-0,351	-0,281
73,363	99,274	-0,304	-0,247
74,378	188,014	-0,337	-0,354
75,393	232,756	-0,197	-0,227
76,407	147,006	-0,230	-0,218
77,422	214,889	-0,185	-0,207
78,436	8,542	-0,321	-0,169
79,451	-70,299	-0,304	-0,081
80,466	-152,573	-0,353	-0,017
81,480	-5,832	-0,401	-0,192
82,495	192,231	-0,304	-0,323
83,509	12,365	-0,311	-0,168
84,524	-59,318	-0,289	-0,087
85,539	15,703	-0,286	-0,158
86,553	49,086	-0,313	-0,206
87,568	112,482	-0,251	-0,213
88,582	109,784	-0,283	-0,238
89,597	208,728	-0,214	-0,236
90,611	-21,411	-0,291	-0,124
91,626	122,225	-0,224	-0,197
92,641	13,440	-0,311	-0,169
93,655	65,404	-0,293	-0,208
94,670	152,253	-0,278	-0,266
95,684	9,233	-0,325	-0,172
96,699	141,290	-0,264	-0,245
97,714	-42,284	-0,318	-0,113
98,728	-47,393	-0,277	-0,094
99,743	158,308	-0,247	-0,240
100,757	65,103	-0,306	-0,216
101,772	397,285	-0,189	-0,277
102,787	9,544	-0,301	-0,159
103,801	169,158	-0,303	-0,303
104,816	-9,608	-0,314	-0,146
105,830	-149,984	-0,288	-0,015
106,845	68,783	-0,162	-0,116
107,860	157,584	-0,208	-0,202
108,874	194,168	-0,196	-0,208
109,889	145,348	-0,290	-0,273
110,903	561,962	-0,209	-0,356
111,918	-1,129	-0,281	-0,139
112,933	-80,434	-0,285	-0,066
113,947	-10,694	-0,227	-0,105
114,962	314,841	-0,140	-0,185
115,976	-88,185	-0,346	0,072
116,991	7,687	-0,265	-0,138
118,006	38,095	-0,302	-0,188
119,020	37,138	-0,297	-0,184
120,035	189,149	-0,216	-0,227
121,049	79,704	-0,163	-0,123
122,064	102,038	-0,163	-0,133
123,079	12,955	-0,280	-0,151
124,093	168,424	-0,247	-0,246
125,108	281,555	-0,211	-0,265
126,122	404,707	-0,130	-0,193
127,137	-0,044	-0,241	-0,120
128,151	-34,154	-0,329	-0,126
129,166	-38,925	-0,185	-0,068
130,181	-10,389	-0,163	-0,075
131,195	0,625	-0,452	-0,225
132,210	3,365	-0,228	-0,116
133,224	259,198	-0,260	-0,314
134,239	5,766	-0,213	-0,110
135,254	-6,810	-0,312	-0,148
136,268	-55,425	-0,228	-0,071
137,283	-58,659	-0,262	-0,079
138,297	-4,228	-0,173	-0,084
139,312	-29,814	-0,285	-0,113
140,327	433,126	-0,124	-0,189
141,341	-68,426	-0,285	-0,077
142,356	8,232	-0,281	-0,147
143,370	155,288	-0,093	-0,090
144,385	220,369	-0,251	-0,282
145,400	128,583	-0,228	-0,203
146,414	149,703	-0,259	-0,245
147,429	-59,573	-0,434	-0,129
148,443	-2,095	-0,325	-0,159
149,458	42,282	-0,236	-0,149
150,473	-81,510	-0,325	-0,074
151,487	18,586	-0,308	-0,171
152,502	124,273	-0,232	-0,203
153,516	196,186	-0,153	-0,163
154,531	28,553	-0,235	-0,138
155,546	132,403	-0,317	-0,286
156,560	51,430	-0,175	-0,116
157,575	-103,137	-0,216	-0,035
158,589	80,983	-0,221	-0,166
159,604	-5,619	-0,269	-0,128
160,619	800,000	-0,148	-0,384
161,633	27,433	-0,301	-0,176
162,648	2,385	-0,162	-0,082
163,662	303,209	-0,169	-0,219
164,677	-36,249	-0,328	-0,123
165,692	179,966	-0,243	-0,249
166,706	304,361	-0,186	-0,241
167,721	179,853	-0,171	-0,174
168,735	56,830	-0,126	-0,085
169,750	116,905	-0,205	-0,175
170,764	-52,133	-0,254	-0,082
171,779	-181,624	-0,185	-0,002
172,794	258,894	-0,120	-0,145
173,808	118,996	-0,229	-0,197
174,823	82,412	-0,191	-0,145
175,837	23,660	-0,245	-0,140
176,852	144,419	-0,291	-0,271
177,867	568,380	-0,132	-0,224
178,881	565,625	-0,040	-0,067
179,896	154,248	-0,249	-0,238
180,910	181,574	-0,199	-0,204
181,925	10,378	-0,284	-0,150
182,940	91,955	-0,173	-0,135
183,954	49,061	-0,249	-0,162
184,969	-16,947	-0,196	-0,086
185,983	30,171	-0,152	-0,090
186,998	173,940	-0,248	-0,250
188,013	-56,252	-0,275	-0,085
189,027	-52,219	-0,316	-0,101
190,042	246,136	-0,210	-0,246
191,056	125,067	-0,225	-0,197
192,071	-187,901	-0,214	0,002
193,086	156,231	-0,143	-0,138
194,100	-28,032	-0,095	-0,038
195,115	109,838	-0,169	-0,141
196,129	288,792	-0,205	-0,259
197,144	84,554	-0,219	-0,166
198,159	-50,730	-0,230	-0,075
199,173	441,715	-0,148	-0,227
200,188	-23,808	-0,140	-0,058
201,202	-2,449	-0,161	-0,078
202,217	110,825	-0,150	-0,125
203,232	-62,071	-0,111	-0,032
204,246	116,559	-0,200	-0,170
205,261	-2,447	-0,255	-0,124
206,275	58,059	-0,168	-0,114
207,290	-59,190	-0,195	-0,058
208,304	-61,116	-0,106	-0,031
209,319	44,146	-0,168	-0,107
210,334	52,729	-0,237	-0,157
211,348	16,833	-0,439	-0,241
212,363	438,486	-0,120	-0,183
213,377	26,978	-0,224	-0,130
214,392	93,519	-0,168	-0,132
215,407	-112,905	-0,167	-0,023
216,421	186,666	-0,113	-0,117
217,436	-142,021	-0,023	0,002
218,450	83,099	-0,150	-0,114
219,465	340,971	-0,120	-0,164
220,480	192,886	-0,178	-0,187
221,494	134,262	-0,242	-0,218
222,509	-33,602	-0,258	-0,098
223,523	-15,367	-0,157	-0,069
224,538	-71,015	-0,166	-0,043
225,553	-200,000	-0,102	-0,369
226,567	-200,000	-0,051	-0,165
227,582	79,575	-0,193	-0,143
228,596	151,892	-0,154	-0,146
229,611	14,975	-0,166	-0,090
230,626	228,799	-0,129	-0,147
231,640	62,286	-0,244	-0,168
232,655	295,818	-0,162	-0,206
233,669	93,474	-0,247	-0,193
234,684	82,882	-0,252	-0,190
235,699	800,000	-0,083	-0,163
236,713	800,000	-0,086	-0,214
237,728	-7,259	-0,176	-0,082
238,742	18,563	-0,193	-0,107
239,757	-131,608	-0,191	-0,017
240,772	-143,468	-0,261	-0,017
241,786	111,172	-0,193	-0,161
242,801	154,780	-0,059	0,056
243,815	-128,599	-0,256	0,025
244,830	153,217	-0,070	-0,066
245,844	120,395	-0,208	-0,179
246,859	258,775	-0,163	-0,195
247,874	134,034	-0,231	-0,207
248,888	14,499	-0,190	-0,103
249,903	120,202	-0,105	-0,090
250,917	-106,923	-0,271	-0,041
251,932	68,852	-0,212	-0,151
252,947	256,082	-0,121	0,143
253,961	268,544	-0,175	-0,212
254,976	-104,574	-0,245	-0,039
255,990	432,226	-0,097	-0,146
257,005	-166,840	-0,157	-0,004
258,020	679,237	-0,099	-0,180
259,034	151,233	-0,230	-0,216
260,049	-53,064	-0,260	-0,082
261,063	386,679	-0,140	-0,201
262,078	146,922	-0,174	-0,162
263,093	-130,660	-0,223	-0,020
264,107	26,868	-0,068	-0,039
265,122	-66,892	-0,105	-0,028
266,136	478,237	-0,120	-0,188
267,151	90,145	-0,120	-0,093
268,166	101,589	-0,087	-0,070
269,180	-65,535	-0,179	0,049
270,195	49,907	-0,179	-0,117
271,209	318,258	-0,131	-0,171
272,224	-200,000	-0,071	-0,244
273,239	-144,058	-0,116	0,007
274,253	-116,323	-0,131	-0,017
275,268	-60,636	-0,152	-0,044
276,282	-6,181	-0,134	-0,063
277,297	62,636	-0,227	-0,157
278,312	6,043	-0,263	-0,134
279,326	397,574	-0,149	-0,216
280,341	128,697	-0,114	-0,100
281,355	-0,874	-0,118	-0,057
282,370	106,604	-0,078	-0,064
283,384	165,699	-0,201	-0,196
284,399	259,582	-0,107	-0,127
285,414	14,624	-0,158	-0,085
286,428	23,664	-0,250	-0,141
287,443	150,676	-0,149	0,140
288,457	41,693	-0,115	-0,072
289,472	506,356	-0,100	-0,161
290,487	61,009	-0,117	-0,080
291,501	-12,309	-0,115	0,051
292,516	-200,000	-0,033	-0,221
293,530	800,000	-0,063	-0,139
294,545	-140,579	-0,175	-0,012
295,560	-75,928	-0,117	-0,028
296,574	800,000	-0,064	-0,169
297,589	800,000	-0,089	-0,268
298,603	90,483	-0,285	-0,220
299,618	-10,550	-0,220	-0,100
300,633	14,603	-0,154	-0,083
301,647	800,000	-0,064	-0,137
302,662	-200,000	-0,022	-0,140
303,676	265,775	-0,225	-0,271
304,691	-127,025	-0,079	-0,008
305,706	22,905	-0,180	-0,101
306,720	-4,219	-0,173	0,082
307,735	28,476	-0,260	-0,151
308,749	-98,158	-0,152	-0,027
309,764	-33,002	-0,215	-0,082
310,779	76,953	-0,172	-0,126
311,793	18,664	-0,161	-0,088
312,808	191,200	-0,133	-0,138
313,822	-200,000	-0,036	-0,174
314,837	-200,000	0,014	-0,116
315,852	297,050	-0,108	-0,137
316,866	45,878	-0,075	-0,048
317,881	-9,786	-0,173	-0,079
318,895	159,050	-0,259	-0,248
319,910	172,047	-0,117	-0,116
320,925	81,792	-0,157	-0,117
321,939	120,561	-0,229	-0,195
322,954	-200,000	-0,013	-0,087
323,968	-18,957	-0,103	0,044
324,983	176,612	-0,091	0,091
325,997	-188,572	-0,112	-0,001
327,012	-200,000	-0,050	-0,245
328,027	208,784	-0,138	-0,149
329,041	-126,581	-0,183	-0,018
330,056	-179,953	-0,216	-0,003
331,070	385,233	0,090	-0,128
332,085	117,790	-0,146	-0,124
333,100	-200,000	0,007	-0,081
334,114	26,187	-0,108	-0,062
335,129	-88,096	-0,208	-0,043
336,143	27,367	-0,159	-0,091
337,158	-47,226	-0,134	-0,045
338,173	229,680	-0,096	0,108
339,187	522,399	-0,024	-0,039
340,202	283,816	-0,090	-0,111
341,216	45,909	-0,156	-0,099
342,231	-61,243	-0,212	-0,061
343,246	-102,462	-0,226	-0,037
344,260	-109,243	-0,119	0,017
345,275	-150,482	-0,105	-0,005
346,289	197,165	-0,122	-0,128
347,304	-124,750	-0,163	0,017
348,319	666,235	-0,101	-0,179
349,333	-200,000	0,023	-0,152
350,348	128,307	-0,090	-0,079
351,362	800,000	-0,090	-0,209
352,377	-200,000	0,010	-0,049
353,392	-159,273	-0,090	0,003
354,406	-200,000	-0,015	0,109
355,421	207,824	1315,383	1410,523
356,435	159,886	1476,182	1411,012
