DTS Sentinel unit serial number:	SN410029Multiplexer serial number:	ORYXHardware model number:	OX2-SRSoftware version number:	ORYX F/W v4,00 Oryx Data Collector v3.7.2.0data status	okinstallation	B3 Nyhavnadifferential loss correction	single-endedforward channel	channel 1reverse channel	N/Adate	2023/12/01time	15:42:30forward acquisition time	300,00reverse acquisition time	0,00gamma	499,1914k internal	0,3208k external	0,3208temperature offset calibration	1,0000default loss term (dB/km)	0,3820temperature slope calibration	1,0000multiplexer offset coefficient	1,0000multiplexer slope coefficient	1,0000fibre end	0,00T internal ref (°C)	12,32T ext. ref 1 (°C)	-1,10T ext. ref 2 (°C)	-1,15length (m)	temperature (°C)	Stokes	anti-Stokes-744,400	138,896	-0,289	-0,275
-743,385	-200,000	0,001	0,364
-742,371	73,716	-0,141	-0,107
-741,356	-200,000	0,011	0,335
-740,342	78,351	-0,221	-0,171
-739,327	-200,000	0,042	0,285
-738,312	149,309	-0,293	-0,287
-737,298	617,139	-0,141	0,258
-736,283	303,161	-0,240	-0,324
-735,269	-200,000	0,013	0,245
-734,254	-200,000	-0,038	-0,207
-733,239	16,400	-0,257	0,147
-732,225	800,000	-0,084	-0,219
-731,210	-101,779	-0,088	0,015
-730,196	782,547	0,011	0,022
-729,181	800,000	-0,029	0,059
-728,167	800,000	-0,071	-0,174
-727,152	77,914	-0,100	0,077
-726,137	151,122	-0,067	0,066
-725,123	-200,000	-0,005	-0,034
-724,108	185,830	-0,140	-0,151
-723,094	187,962	-0,050	-0,054
-722,079	211,980	-0,099	-0,113
-721,064	-31,766	-0,119	-0,048
-720,050	-84,704	0,127	-0,029
-719,035	632,518	0,032	0,059
-718,021	-135,896	-0,055	-0,005
-717,006	586,785	-0,092	-0,165
-715,991	-200,000	0,030	-0,214
-714,977	657,912	-0,037	-0,069
-713,962	57,261	-0,121	-0,085
-712,948	-200,000	0,004	0,014
-711,933	95,639	-0,050	-0,042
-710,918	-81,487	-0,091	0,021
-709,904	-157,065	-0,204	0,009
-708,889	-200,000	0,021	0,089
-707,875	270,656	-0,073	-0,094
-706,860	225,948	-0,079	-0,093
-705,845	-200,000	-0,012	-0,050
-704,831	-200,000	0,012	0,094
-703,816	-200,000	-0,007	-0,088
-702,802	1,220	0,076	0,039
-701,787	193,924	0,042	0,047
-700,772	-103,719	-0,126	0,021
-699,758	-131,597	-0,133	-0,013
-698,743	800,000	-0,007	0,015
-697,729	-200,000	0,009	0,082
-696,714	675,915	0,051	-0,097
-695,699	-200,000	0,009	-0,183
-694,685	-79,109	-0,078	0,019
-693,670	-200,000	0,006	-0,065
-692,656	800,000	0,052	0,164
-691,641	427,487	0,002	0,003
-690,627	-200,000	0,002	0,020
-689,612	260,765	-0,029	0,037
-688,597	618,971	-0,041	-0,075
-687,583	26,685	-0,107	0,064
-686,568	42,265	-0,103	-0,067
-685,554	-200,000	0,011	-0,061
-684,539	-108,697	0,152	0,023
-683,524	-66,472	-0,030	-0,009
-682,510	800,000	-0,019	0,059
-681,495	10,623	0,040	0,022
-680,481	800,000	-0,025	0,059
-679,466	-200,000	-0,017	-0,100
-678,451	-200,000	0,009	-0,152
-677,437	158,107	-0,006	-0,006
-676,422	-200,000	-0,008	0,133
-675,408	-23,273	0,104	-0,045
-674,393	-32,644	-0,166	0,066
-673,378	208,983	-0,052	0,059
-672,364	-130,785	-0,039	0,004
-671,349	67,834	-0,045	-0,033
-670,335	-200,000	0,021	0,108
-669,320	-102,135	0,088	0,015
-668,305	-103,390	-0,090	0,015
-667,291	-112,356	0,122	-0,018
-666,276	-30,626	0,054	-0,022
-665,262	455,669	-0,020	-0,033
-664,247	-148,580	-0,137	0,008
-663,232	536,307	-0,050	0,085
-662,218	-200,000	-0,013	0,051
-661,203	-123,218	0,115	0,013
-660,189	-96,041	-0,029	-0,006
-659,174	53,442	0,068	-0,047
-658,159	800,000	-0,061	-0,123
-657,145	-200,000	-0,027	-0,113
-656,130	800,000	-0,014	0,037
-655,116	800,000	0,023	0,068
-654,101	301,532	0,123	0,165
-653,086	-150,638	-0,046	0,002
-652,072	367,123	-0,049	0,071
-651,057	428,907	-0,091	-0,143
-650,043	144,095	-0,121	-0,117
-649,028	-110,074	0,173	0,026
-648,014	-58,021	0,060	-0,019
-646,999	-126,807	0,041	-0,004
-645,984	-104,633	-0,081	-0,013
-644,970	-200,000	-0,047	-0,159
-643,955	323,829	-0,032	-0,044
-642,941	146,314	0,082	-0,080
-641,926	185,981	-0,086	-0,093
-640,911	800,000	-0,037	-0,103
-639,897	800,000	-0,035	-0,075
-638,882	-200,000	0,016	0,057
-637,868	144,294	-0,073	0,070
-636,853	-200,000	-0,008	-0,069
-635,838	-200,000	0,047	-0,174
-634,824	-200,000	0,022	-0,083
-633,809	-200,000	-0,030	0,144
-632,795	327,092	0,036	0,050
-631,780	9,610	-0,069	0,037
-630,765	-200,000	-0,016	0,056
-629,751	210,603	0,081	-0,092
-628,736	-200,000	0,046	-0,151
-627,722	800,000	0,006	0,018
-626,707	106,470	-0,102	-0,087
-625,692	-200,000	-0,004	-0,065
-624,678	-200,000	0,009	-0,073
-623,663	214,959	0,039	-0,045
-622,649	800,000	0,029	0,066
-621,634	209,979	-0,030	-0,034
-620,619	-200,000	0,009	-0,074
-619,605	-200,000	0,017	-0,063
-618,590	-150,316	0,087	-0,005
-617,576	-200,000	0,004	0,031
-616,561	800,000	-0,006	0,013
-615,546	-200,000	-0,031	-0,216
-614,532	-200,000	-0,003	-0,063
-613,517	-62,618	-0,077	-0,023
-612,503	-200,000	0,017	0,174
-611,488	-156,605	0,067	-0,003
-610,474	34,721	-0,040	-0,025
-609,459	443,449	-0,009	0,014
-608,444	-200,000	-0,078	0,000
-607,430	-200,000	0,004	-0,032
-606,415	-84,948	-0,100	-0,022
-605,401	60,910	0,088	0,063
-604,386	235,004	0,115	0,137
-603,371	172,556	-0,013	-0,014
-602,357	236,819	0,046	-0,055
-601,342	-200,000	0,015	-0,145
-600,328	-200,000	0,022	-0,114
-599,313	90,643	-0,037	-0,030
-598,298	-139,989	-0,068	0,005
-597,284	-93,305	-0,080	-0,016
-596,269	-17,338	0,038	0,017
-595,255	73,968	-0,049	0,037
-594,240	324,297	-0,020	-0,028
-593,225	263,515	-0,032	-0,040
-592,211	-200,000	0,020	-0,068
-591,196	587,588	0,046	-0,083
-590,182	100,575	-0,050	0,042
-589,167	800,000	0,024	-0,050
-588,152	102,899	-0,084	0,071
-587,138	-83,339	-0,118	0,027
-586,123	-36,310	0,044	0,017
-585,109	800,000	0,044	-0,114
-584,094	172,998	-0,065	-0,068
-583,079	152,432	0,069	-0,068
-582,065	248,518	0,028	-0,034
-581,050	800,000	0,096	0,284
-580,036	699,699	-0,071	0,135
-579,021	-95,673	-0,045	-0,009
-578,006	300,040	-0,089	-0,119
-576,992	800,000	0,043	0,099
-575,977	100,104	0,076	0,063
-574,963	54,541	0,084	0,058
-573,948	-68,609	-0,061	-0,017
-572,934	-32,312	-0,058	0,023
-571,919	-200,000	-0,013	-0,091
-570,904	-123,865	0,165	-0,018
-569,890	301,381	0,111	-0,148
-568,875	149,309	0,044	0,043
-567,861	183,433	-0,062	0,066
-566,846	-68,928	-0,084	0,023
-565,831	62,336	-0,027	0,020
-564,817	800,000	-0,028	-0,060
-563,802	336,933	-0,066	-0,093
-562,788	259,857	-0,067	-0,083
-561,773	-200,000	-0,012	-0,145
-560,758	75,279	0,096	-0,073
-559,744	782,958	-0,016	-0,032
-558,729	-138,462	-0,098	0,008
-557,715	568,603	-0,036	-0,063
-556,700	-178,183	-0,099	-0,002
-555,685	800,000	-0,056	-0,143
-554,671	-200,000	-0,010	-0,065
-553,656	-200,000	-0,046	0,153
-552,642	103,058	0,142	0,120
-551,627	800,000	0,060	0,131
-550,612	362,611	-0,049	0,071
-549,598	349,213	-0,048	0,068
-548,583	168,095	-0,091	-0,094
-547,569	525,284	-0,039	0,066
-546,554	24,684	0,043	-0,025
-545,539	800,000	0,057	0,116
-544,525	-37,036	-0,064	0,024
-543,510	205,954	-0,069	0,077
-542,496	-89,195	-0,140	0,030
-541,481	452,751	-0,095	-0,152
-540,466	-200,000	0,004	-0,026
-539,452	230,280	0,014	-0,017
-538,437	-45,982	-0,042	0,015
-537,423	-200,000	0,006	0,065
-536,408	-70,136	-0,032	0,009
-535,393	172,089	0,078	0,081
-534,379	-127,859	-0,069	0,007
-533,364	-200,000	-0,010	0,226
-532,350	266,990	-0,047	0,060
-531,335	392,962	-0,048	-0,072
-530,321	800,000	0,005	-0,015
-529,306	-16,507	0,123	-0,056
-528,291	57,824	-0,059	-0,041
-527,277	221,941	-0,092	-0,106
-526,262	673,069	-0,041	-0,077
-525,248	292,552	-0,024	0,031
-524,233	-200,000	-0,040	0,180
-523,218	143,785	0,072	0,069
-522,204	-200,000	0,025	0,146
-521,189	407,943	0,077	-0,118
-520,175	318,063	-0,025	-0,034
-519,160	325,803	0,053	-0,074
-518,145	143,783	0,103	0,098
-517,131	800,000	0,037	0,093
-516,116	166,943	-0,098	0,100
-515,102	196,554	0,059	0,064
-514,087	73,512	0,055	-0,041
-513,072	91,380	-0,137	0,110
-512,058	-200,000	0,006	-0,133
-511,043	137,165	0,062	-0,058
-510,029	562,997	0,042	-0,073
-509,014	-48,501	0,017	-0,006
-507,999	800,000	0,051	-0,133
-506,985	800,000	-0,025	0,078
-505,970	800,000	0,020	0,058
-504,956	651,162	-0,054	-0,100
-503,941	14,686	-0,075	0,042
-502,926	-23,649	0,095	0,041
-501,912	800,000	0,018	-0,043
-500,897	-26,926	0,046	0,019
-499,883	-54,594	-0,125	0,040
-498,868	-200,000	-0,008	-0,090
-497,853	-127,587	-0,119	-0,012
-496,839	800,000	0,051	0,103
-495,824	-200,000	-0,014	0,071
-494,810	284,650	0,076	0,099
-493,795	145,696	0,055	-0,053
-492,781	-200,000	0,051	-0,215
-491,766	-119,702	-0,106	0,013
-490,751	-172,808	-0,152	0,003
-489,737	-200,000	0,012	0,041
-488,722	-15,995	0,085	-0,039
-487,708	-157,720	0,102	0,004
-486,693	-200,000	-0,003	0,043
-485,678	91,172	0,054	0,044
-484,664	-200,000	-0,016	0,110
-483,649	800,000	0,040	-0,111
-482,635	85,752	-0,056	-0,044
-481,620	-200,000	0,006	-0,067
-480,605	52,636	0,028	0,019
-479,591	-13,469	0,038	-0,018
-478,576	118,546	-0,021	0,018
-477,562	483,867	-0,042	-0,069
-476,547	-121,744	0,059	0,007
-475,532	-200,000	0,015	0,139
-474,518	-200,000	-0,013	0,156
-473,503	39,792	0,039	-0,025
-472,489	800,000	-0,035	0,088
-471,474	-200,000	0,001	-0,019
-470,459	800,000	-0,009	-0,018
-469,445	32,415	-0,136	-0,084
-468,430	-200,000	0,027	-0,135
-467,416	800,000	0,033	-0,077
-466,401	-200,000	-0,013	0,093
-465,386	-124,406	0,145	0,016
-464,372	122,370	0,048	-0,043
-463,357	-200,000	-0,009	-0,083
-462,343	201,234	-0,083	-0,092
-461,328	37,681	0,086	-0,055
-460,313	-79,861	-0,118	0,028
-459,299	-200,000	0,003	0,183
-458,284	-162,952	-0,165	-0,006
-457,270	800,000	0,036	-0,104
-456,255	800,000	-0,018	0,044
-455,241	142,986	0,046	-0,044
-454,226	371,484	-0,058	-0,084
-453,211	-6,338	0,072	-0,035
-452,197	661,128	0,026	-0,048
-451,182	550,795	0,073	0,127
-450,168	-23,797	0,062	0,026
-449,153	800,000	-0,018	0,055
-448,138	320,627	-0,095	-0,129
-447,124	772,148	-0,066	-0,129
-446,109	51,773	0,046	-0,031
-445,095	-200,000	0,000	-0,020
-444,080	-170,205	0,131	-0,003
-443,065	468,154	-0,036	0,059
-442,051	800,000	-0,010	0,021
-441,036	-200,000	0,023	-0,123
-440,022	25,941	0,027	-0,016
-439,007	56,582	0,052	0,036
-437,992	-200,000	-0,021	0,082
-436,978	115,751	-0,144	0,126
-435,963	-200,000	-0,003	-0,039
-434,949	-158,719	-0,142	-0,006
-433,934	104,772	-0,049	0,042
-432,919	61,507	0,061	0,044
-431,905	91,896	-0,055	-0,044
-430,890	-23,121	0,098	0,042
-429,876	-200,000	0,017	0,109
-428,861	447,031	0,056	0,089
-427,846	800,000	0,023	-0,065
-426,832	-200,000	-0,014	-0,105
-425,817	25,250	-0,090	-0,054
-424,803	-25,670	0,089	0,038
-423,788	-62,153	0,116	-0,034
-422,773	-200,000	-0,002	-0,022
-421,759	-200,000	-0,005	0,160
-420,744	144,961	0,065	0,062
-419,730	81,203	0,013	0,010
-418,715	-200,000	-0,027	-0,150
-417,701	81,307	-0,099	-0,077
-416,686	384,381	0,045	0,067
-415,671	-200,000	-0,027	0,092
-414,657	98,627	0,074	0,061
-413,642	184,652	-0,004	0,004
-412,628	-51,634	-0,091	-0,030
-411,613	-200,000	0,009	-0,109
-410,598	80,080	-0,081	0,063
-409,584	800,000	0,048	0,120
-408,569	-200,000	-0,001	0,070
-407,555	178,704	-0,032	0,034
-406,540	364,958	-0,059	0,085
-405,525	-32,999	-0,131	0,052
-404,511	49,033	-0,102	-0,069
-403,496	-184,670	-0,106	-0,001
-402,482	800,000	0,054	-0,116
-401,467	-200,000	-0,008	-0,094
-400,452	800,000	0,038	0,093
-399,438	800,000	-0,036	0,083
-398,423	359,040	-0,030	0,044
-397,409	-200,000	-0,006	-0,153
-396,394	325,342	-0,046	-0,063
-395,379	155,186	0,165	-0,162
-394,365	-200,000	-0,004	-0,103
-393,350	-146,498	0,044	-0,003
-392,336	162,181	0,060	0,060
-391,321	177,843	-0,025	-0,026
-390,306	103,784	0,095	-0,080
-389,292	56,223	0,096	0,067
-388,277	9,325	-0,060	0,032
-387,263	800,000	0,068	0,145
-386,248	-105,515	0,122	0,020
-385,233	-183,606	-0,028	-0,000
-384,219	6,456	0,103	0,055
-383,204	-200,000	0,030	-0,126
-382,190	-96,632	0,120	0,022
-381,175	453,178	-0,025	0,039
-380,160	-101,852	0,139	-0,024
-379,146	49,637	-0,078	0,052
-378,131	416,330	-0,089	0,136
-377,117	40,572	0,076	0,049
-376,102	800,000	-0,041	-0,117
-375,088	-14,227	-0,024	-0,011
-374,073	172,822	0,035	0,037
-373,058	-58,679	-0,080	0,025
-372,044	-124,772	0,083	-0,009
-371,029	-8,060	-0,032	-0,015
-370,015	61,524	-0,028	-0,020
-369,000	-33,670	-0,035	0,014
-367,985	135,868	0,045	-0,042
-366,971	599,984	-0,038	0,067
-365,956	208,471	0,054	0,061
-364,942	2,707	0,146	0,076
-363,927	453,896	0,025	-0,040
-362,912	-27,331	0,025	0,010
-361,898	110,645	0,025	0,022
-360,883	-200,000	-0,014	-0,125
-359,869	-104,473	-0,098	0,016
-358,854	800,000	0,037	-0,106
-357,839	-120,058	0,178	0,022
-356,825	163,623	0,131	0,132
-355,810	-200,000	-0,022	0,117
-354,796	42,352	0,046	-0,030
-353,781	800,000	0,073	0,205
-352,766	-76,592	-0,077	0,019
-351,752	-85,360	0,093	0,021
-350,737	-200,000	0,008	-0,029
-349,723	7,277	0,024	0,013
-348,708	-18,954	0,057	0,025
-347,693	45,552	0,072	-0,047
-346,679	-87,234	-0,094	-0,020
-345,664	186,205	-0,030	-0,032
-344,650	-43,069	0,053	-0,019
-343,635	248,074	0,025	-0,030
-342,620	-119,180	0,131	-0,016
-341,606	-47,569	-0,108	-0,037
-340,591	-200,000	0,011	0,050
-339,577	800,000	0,034	-0,074
-338,562	-102,750	-0,019	0,003
-337,548	-110,767	0,066	-0,010
-336,533	-55,633	0,075	0,024
-335,518	-117,138	-0,050	0,006
-334,504	-83,174	-0,107	0,024
-333,489	-200,000	-0,019	0,096
-332,475	-24,674	-0,089	0,038
-331,460	-200,000	0,015	-0,051
-330,445	-89,890	0,071	0,015
-329,431	136,958	0,109	-0,102
-328,416	-89,570	-0,030	0,006
-327,402	88,158	-0,028	-0,022
-326,387	-200,000	0,016	-0,134
-325,372	-91,768	-0,137	0,028
-324,358	227,478	-0,016	-0,019
-323,343	-200,000	0,029	-0,148
-322,329	-200,000	-0,025	0,190
-321,314	-130,601	-0,190	0,018
-320,299	-140,380	0,140	-0,010
-319,285	-141,190	-0,051	-0,004
-318,270	101,434	-0,063	0,052
-317,256	-200,000	0,004	-0,023
-316,241	-85,079	-0,068	-0,015
-315,226	238,617	-0,061	0,073
-314,212	-106,629	0,104	-0,016
-313,197	-200,000	0,000	0,036
-312,183	-200,000	0,004	0,160
-311,168	-88,436	-0,063	0,013
-310,153	297,488	0,084	-0,111
-309,139	14,988	-0,060	-0,033
-308,124	-13,145	0,157	-0,073
-307,110	800,000	-0,050	0,111
-306,095	800,000	0,020	-0,055
-305,080	-135,497	-0,067	-0,006
-304,066	-124,069	0,045	0,005
-303,051	541,649	-0,018	0,030
-302,037	120,746	-0,040	-0,035
-301,022	-200,000	-0,003	-0,022
-300,008	331,807	-0,024	0,034
-298,993	47,013	0,143	0,095
-297,978	4,076	-0,140	0,073
-296,964	-159,697	-0,104	-0,004
-295,949	-114,090	0,086	0,012
-294,935	161,704	0,045	-0,045
-293,920	-200,000	-0,013	-0,090
-292,905	800,000	0,051	-0,126
-291,891	-141,620	-0,012	-0,001
-290,876	87,605	-0,007	-0,006
-289,862	0,063	0,135	-0,068
-288,847	-79,408	-0,065	-0,016
-287,832	771,112	-0,108	-0,211
-286,818	-200,000	0,011	0,041
-285,803	383,438	0,025	-0,037
-284,789	-21,244	0,101	-0,044
-283,774	141,101	0,070	-0,066
-282,759	38,262	0,091	0,057
-281,745	-13,585	-0,097	0,044
-280,730	-200,000	0,004	-0,022
-279,716	-35,265	-0,027	0,011
-278,701	148,957	0,039	0,037
-277,686	-52,943	0,061	0,020
-276,672	61,896	0,045	0,032
-275,657	533,464	-0,100	0,170
-274,643	212,338	0,030	0,033
-273,628	-200,000	0,001	0,048
-272,613	125,369	-0,020	0,018
-271,599	419,547	-0,039	0,059
-270,584	-200,000	0,036	0,145
-269,570	259,061	-0,016	-0,019
-268,555	800,000	0,042	0,100
-267,540	-200,000	-0,022	0,071
-266,526	242,710	0,011	0,013
-265,511	123,094	-0,084	-0,075
-264,497	800,000	0,025	-0,062
-263,482	-124,770	0,136	-0,015
-262,467	-117,582	-0,066	-0,008
-261,453	-102,506	0,163	-0,027
-260,438	-60,060	0,144	0,044
-259,424	172,333	-0,104	-0,106
-258,409	-18,947	-0,136	-0,060
-257,395	-134,625	0,090	-0,008
-256,380	-200,000	-0,000	-0,031
-255,365	-100,197	0,127	0,022
-254,351	619,517	0,051	0,092
-253,336	-165,093	-0,031	0,001
-252,322	-200,000	-0,013	-0,133
-251,307	118,237	-0,132	-0,115
-250,292	800,000	0,048	-0,118
-249,278	-116,517	-0,019	0,002
-248,263	-200,000	-0,018	0,056
-247,249	-23,759	0,151	0,064
-246,234	73,670	-0,105	-0,078
-245,219	207,894	-0,114	-0,127
-244,205	75,177	0,078	-0,059
-243,190	800,000	0,040	-0,089
-242,176	36,858	0,074	0,046
-241,161	-200,000	-0,004	0,034
-240,146	-200,000	0,015	0,069
-239,132	-114,170	0,160	0,022
-238,117	105,653	0,030	0,026
-237,103	-95,305	0,112	0,021
-236,088	69,049	-0,077	0,056
-235,073	521,216	-0,056	0,094
-234,059	79,398	-0,036	0,027
-233,044	-13,851	-0,093	0,042
-232,030	-5,074	-0,123	0,060
-231,015	-200,000	-0,034	0,200
-230,000	800,000	-0,016	0,037
-228,986	-84,526	-0,140	-0,031
-227,971	-11,575	0,143	0,067
-226,957	728,176	0,040	0,076
-225,942	85,179	0,034	-0,026
-224,927	6,093	0,140	-0,074
-223,913	141,443	-0,078	-0,074
-222,898	-133,253	-0,055	-0,005
-221,884	63,254	-0,036	-0,026
-220,869	-96,614	0,029	-0,005
-219,855	-173,067	0,172	-0,004
-218,840	-151,641	0,094	0,005
-217,825	-164,266	-0,087	0,003
-216,811	-5,060	-0,086	-0,042
-215,796	291,976	-0,096	-0,125
-214,782	-200,000	-0,042	0,168
-213,767	365,998	0,011	-0,015
-212,752	50,924	0,114	0,076
-211,738	-200,000	-0,019	-0,112
-210,723	294,708	-0,023	0,030
-209,709	-41,110	-0,097	0,035
-208,694	-123,128	-0,070	-0,008
-207,679	-23,695	-0,136	-0,058
-206,665	759,546	-0,041	0,079
-205,650	-200,000	0,016	0,050
-204,636	-31,882	-0,054	-0,021
-203,621	-200,000	0,019	-0,078
-202,606	583,128	-0,082	-0,144
-201,592	-74,951	-0,049	0,012
-200,577	33,617	-0,151	0,093
-199,563	-200,000	-0,030	-0,142
-198,548	-172,589	0,103	0,002
-197,533	-200,000	-0,028	0,173
-196,519	160,123	0,038	0,038
-195,504	-200,000	-0,017	0,075
-194,490	-200,000	-0,017	-0,109
-193,475	-133,722	-0,070	0,006
-192,460	589,796	-0,016	0,029
-191,446	-132,778	0,066	0,006
-190,431	41,468	-0,100	0,064
-189,417	119,170	-0,086	-0,076
-188,402	-200,000	-0,017	0,095
-187,387	269,358	0,081	-0,102
-186,373	-200,000	0,007	0,050
-185,358	800,000	-0,009	0,019
-184,344	180,356	0,116	0,121
-183,329	800,000	-0,054	0,136
-182,315	-200,000	0,000	0,140
-181,300	800,000	0,027	-0,058
-180,285	-48,358	0,095	-0,032
-179,271	-200,000	-0,018	-0,066
-178,256	-200,000	-0,015	-0,059
-177,242	-200,000	-0,014	0,226
-176,227	18,010	0,140	-0,079
-175,212	184,270	-0,109	0,114
-174,198	-37,859	0,075	-0,028
-173,183	-143,028	-0,056	0,004
-172,169	448,153	-0,087	-0,136
-171,154	-200,000	-0,007	0,110
-170,139	-200,000	-0,000	0,002
-169,125	-149,287	0,073	0,004
-168,110	194,866	-0,002	-0,002
-167,096	-164,166	0,108	-0,003
-166,081	-28,639	-0,120	0,049
-165,066	-200,000	-0,012	-0,191
-164,052	-92,481	-0,014	-0,003
-163,037	-86,569	0,053	0,011
-162,023	800,000	-0,023	0,066
-161,008	800,000	-0,030	0,065
-159,993	-170,367	-0,133	0,003
-158,979	500,474	0,073	0,119
-157,964	10,753	-0,111	-0,060
-156,950	-160,952	0,073	0,003
-155,935	-92,517	0,162	-0,032
-154,920	-200,000	0,012	0,065
-153,906	69,002	-0,080	0,058
-152,891	-200,000	-0,014	0,044
-151,877	53,564	-0,132	-0,090
-150,862	201,034	-0,040	0,044
-149,847	-134,823	0,009	-0,001
-148,833	-200,000	0,006	0,071
-147,818	-200,000	-0,029	0,119
-146,804	-88,957	0,091	0,019
-145,789	800,000	0,035	0,089
-144,775	439,066	-0,048	-0,075
-143,760	800,000	-0,031	-0,067
-142,745	99,654	-0,034	-0,028
-141,731	61,636	0,139	-0,098
-140,716	800,000	0,055	-0,160
-139,702	-96,462	0,175	-0,032
-138,687	-200,000	-0,016	0,083
-137,672	29,671	0,126	-0,076
-136,658	692,908	-0,041	-0,076
-135,643	800,000	-0,062	-0,160
-134,629	800,000	0,030	-0,089
-133,614	800,000	-0,027	0,079
-132,599	-200,000	0,004	0,086
-131,585	-96,322	0,121	-0,022
-130,570	-200,000	-0,024	-0,144
-129,556	-200,000	-0,010	-0,095
-128,541	-122,220	0,127	-0,014
-127,526	-105,058	-0,012	0,002
-126,512	-200,000	0,000	-0,156
-125,497	214,028	0,044	0,049
-124,483	-200,000	0,013	0,075
-123,468	560,756	-0,049	0,084
-122,453	-200,000	0,016	-0,179
-121,439	21,864	-0,029	-0,017
-120,424	608,999	-0,071	-0,125
-119,410	-200,000	0,022	0,128
-118,395	-116,271	0,008	-0,001
-117,380	-66,293	0,088	-0,025
-116,366	-105,337	0,091	0,015
-115,351	-35,054	-0,065	0,025
-114,337	-50,288	-0,136	-0,045
-113,322	-200,000	0,033	0,107
-112,307	27,308	0,033	-0,020
-111,293	-200,000	0,007	0,062
-110,278	-200,000	-0,017	0,085
-109,264	-74,379	0,093	0,024
-108,249	-200,000	0,026	-0,099
-107,234	245,400	-0,030	0,036
-106,220	-200,000	-0,030	0,118
-105,205	800,000	-0,008	-0,017
-104,191	800,000	0,006	0,015
-103,176	746,636	0,108	0,206
-102,162	-200,000	0,008	-0,143
-101,147	-200,000	0,015	-0,085
-100,132	-200,000	0,002	-0,011
-99,118	800,000	-0,017	-0,051
-98,103	316,551	-0,032	-0,043
-97,089	97,884	0,058	-0,047
-96,074	800,000	-0,069	0,137
-95,059	97,008	0,053	0,043
-94,045	-38,902	-0,067	-0,025
-93,030	-115,007	-0,028	0,004
-92,016	159,724	0,059	0,058
-91,001	-21,082	0,098	-0,042
-89,986	226,367	0,043	0,049
-88,972	770,375	-0,058	0,113
-87,957	17,452	-0,102	0,057
-86,943	17,454	-0,063	0,035
-85,928	-200,000	-0,008	-0,114
-84,913	22,970	-0,116	-0,067
-83,899	17,785	0,033	0,019
-82,884	-67,652	0,029	-0,008
-81,870	-20,762	-0,027	-0,012
-80,855	46,249	0,072	-0,047
-79,840	800,000	-0,033	0,072
-78,826	128,979	-0,041	0,037
-77,811	-128,368	-0,027	-0,003
-76,797	-27,494	0,032	0,013
-75,782	-157,091	0,017	0,001
-74,767	800,000	0,068	0,136
-73,753	800,000	-0,034	0,079
-72,738	229,260	0,039	-0,045
-71,724	-72,782	-0,061	0,016
-70,709	-27,587	0,044	-0,018
-69,694	481,763	-0,116	-0,188
-68,680	-200,000	0,001	-0,005
-67,665	-200,000	0,012	0,042
-66,651	-200,000	0,029	0,115
-65,636	-67,743	-0,076	-0,021
-64,622	2,730	-0,109	0,056
-63,607	800,000	-0,014	0,040
-62,592	110,432	-0,068	-0,058
-61,578	150,238	-0,038	-0,036
-60,563	800,000	-0,061	0,138
-59,549	-200,000	0,020	0,267
-58,534	-4,695	-1,878	-0,913
-57,519	491,004	-1,338	-2,171
-56,505	-200,000	-0,476	-4,547
-55,490	371,560	0,842	1,211
-54,476	800,000	4,913	11,090
-53,461	-200,000	19,649	330,498
-52,446	-200,000	744,347	2333,186
-51,432	566,688	1652,856	2844,668
-50,417	76,511	1665,125	1245,511
-49,403	20,293	1538,788	875,550
-48,388	14,199	1461,331	801,982
-47,373	18,591	1451,607	817,723
-46,359	16,612	1441,202	802,395
-45,344	12,412	1436,820	779,910
-44,330	12,339	1434,845	778,461
-43,315	12,370	1433,044	777,598
-42,300	12,347	1431,528	776,637
-41,286	12,397	1430,165	776,103
-40,271	12,362	1428,919	775,231
-39,257	12,373	1427,518	774,491
-38,242	12,419	1426,163	773,943
-37,227	12,403	1425,179	773,303
-36,213	12,447	1423,551	772,598
-35,198	12,399	1422,666	771,858
-34,184	12,459	1421,646	771,561
-33,169	12,410	1419,971	770,387
-32,154	12,427	1419,539	770,202
-31,140	12,457	1417,905	769,430
-30,125	12,421	1417,068	768,772
-29,111	12,473	1415,767	768,282
-28,096	12,434	1414,705	767,492
-27,082	12,381	1413,631	766,632
-26,067	12,367	1412,573	765,958
-25,052	12,372	1411,654	765,456
-24,038	12,335	1410,475	764,610
-23,023	12,293	1409,603	763,911
-22,009	12,349	1408,410	763,497
-20,994	12,301	1407,568	762,785
-19,979	12,297	1406,771	762,306
-18,965	12,316	1405,623	761,740
-17,950	12,305	1404,868	761,249
-16,936	12,301	1404,084	760,778
-15,921	12,261	1403,047	760,001
-14,906	12,233	1402,104	759,329
-13,892	12,289	1400,995	758,956
-12,877	12,232	1400,330	758,301
-11,863	12,244	1399,503	757,879
-10,848	12,278	1398,530	757,481
-9,833	12,215	1397,609	756,658
-8,819	12,147	1396,778	755,863
-7,804	12,163	1395,857	755,409
-6,790	12,196	1394,938	755,036
-5,775	12,193	1393,677	754,309
-4,760	12,185	1392,704	753,715
-3,746	12,126	1391,845	752,946
-2,731	12,094	1391,200	752,420
-1,717	12,157	1390,092	752,083
-0,702	12,093	1388,726	751,020
0,313	16,197	1304,688	724,400
1,327	32,696	698,395	425,552
2,342	49,995	122,075	81,168
3,356	1,268	16,542	8,359
4,371	3,581	3,271	1,678
5,386	-8,103	0,684	0,324
6,400	800,000	0,138	0,428
7,415	38,083	-0,136	-0,085
8,429	90,971	-0,338	-0,267
9,444	22,371	-0,298	-0,171
10,459	56,872	-0,296	-0,203
11,473	52,025	-0,253	-0,170
12,488	-25,855	-0,353	-0,146
13,502	84,545	-0,309	-0,238
14,517	402,949	-0,216	-0,321
15,531	20,148	-0,399	-0,226
16,546	61,923	-0,258	-0,181
17,561	-3,410	-0,348	-0,170
18,575	-169,430	-0,277	0,007
19,590	233,775	-0,271	-0,315
20,604	-113,173	-0,246	-0,034
21,619	43,690	-0,504	-0,324
22,634	73,558	-0,421	-0,310
23,648	79,451	-0,440	-0,332
24,663	48,654	-0,352	-0,232
25,677	-33,825	-0,335	-0,130
26,692	-61,019	-0,449	-0,133
27,707	-13,058	-0,432	-0,197
28,721	300,725	-0,324	-0,422
29,736	203,873	-0,347	-0,379
30,750	69,193	-0,391	-0,283
31,765	191,697	-0,352	-0,374
32,780	0,505	-0,316	-0,159
33,794	11,526	-0,275	-0,148
34,809	-0,464	-0,370	-0,184
35,823	16,140	-0,411	-0,227
36,838	86,690	-0,367	-0,285
37,853	319,060	-0,302	-0,403
38,867	176,465	-0,370	-0,379
39,882	102,774	-0,345	-0,284
40,896	130,223	-0,355	-0,320
41,911	22,318	-0,301	-0,173
42,926	-16,128	-0,406	-0,181
43,940	93,700	-0,322	-0,256
44,955	154,196	-0,361	-0,348
45,969	68,078	-0,397	-0,285
46,984	36,393	-0,329	-0,204
47,999	-11,747	-0,247	-0,113
49,013	-47,097	-0,408	-0,139
50,028	52,973	-0,306	-0,206
51,042	86,796	-0,390	-0,303
52,057	190,248	-0,369	-0,390
53,071	-2,648	-0,391	-0,191
54,086	110,433	-0,307	-0,259
55,101	-10,302	-0,410	-0,190
56,115	36,418	-0,220	-0,136
57,130	116,927	-0,251	-0,217
58,144	4,382	-0,397	-0,204
59,159	228,388	-0,256	-0,293
60,174	-7,796	-0,296	-0,140
61,188	170,339	-0,272	-0,273
62,203	81,617	-0,332	-0,252
63,217	56,277	-0,301	-0,205
64,232	36,697	-0,303	-0,187
65,247	289,062	-0,224	-0,286
66,261	7,092	-0,396	-0,207
67,276	58,047	-0,431	-0,296
68,290	43,205	-0,317	-0,203
69,305	81,553	-0,391	-0,296
70,320	-55,369	-0,299	-0,094
71,334	-9,321	-0,450	-0,210
72,349	96,271	-0,193	-0,155
73,363	319,076	-0,218	-0,291
74,378	-10,910	-0,434	-0,200
75,393	180,277	-0,237	-0,244
76,407	86,692	-0,209	-0,162
77,422	21,210	-0,215	-0,122
78,436	165,444	-0,176	-0,175
79,451	-134,190	-0,300	-0,026
80,466	77,319	-0,325	-0,242
81,480	36,812	-0,400	-0,247
82,495	64,882	-0,220	-0,155
83,509	-162,547	-0,271	-0,009
84,524	-27,708	-0,351	-0,142
85,539	5,288	-0,333	-0,171
86,553	102,285	-0,300	-0,246
87,568	76,630	-0,261	-0,194
88,582	-31,445	-0,426	-0,167
89,597	106,381	-0,349	-0,290
90,611	122,178	-0,306	-0,268
91,626	239,079	-0,184	-0,214
92,641	206,112	-0,204	-0,223
93,655	-67,461	-0,328	-0,090
94,670	-83,483	-0,276	-0,061
95,684	106,835	-0,342	-0,284
96,699	115,902	-0,258	-0,221
97,714	15,099	-0,234	-0,128
98,728	170,113	-0,219	-0,219
99,743	-13,308	-0,145	-0,066
100,757	55,883	-0,213	-0,144
101,772	88,203	-0,370	-0,287
102,787	50,237	-0,350	-0,231
103,801	-0,888	-0,243	-0,120
104,816	24,585	-0,327	-0,189
105,830	-96,153	-0,233	-0,043
106,845	70,842	-0,068	-0,049
107,860	-7,257	-0,260	-0,123
108,874	122,953	-0,239	-0,209
109,889	474,552	-0,217	-0,344
110,903	59,913	-0,283	-0,195
111,918	38,981	-0,348	-0,217
112,933	-4,890	-0,203	-0,098
113,947	34,373	-0,275	-0,167
114,962	-27,287	-0,224	-0,091
115,976	80,736	-0,309	-0,233
116,991	-6,408	-0,217	-0,103
118,006	-34,458	-0,178	-0,068
119,020	-98,093	-0,285	-0,051
120,035	-85,323	-0,186	-0,040
121,049	150,769	-0,151	-0,143
122,064	219,777	-0,189	-0,212
123,079	18,088	-0,245	-0,136
124,093	370,510	-0,212	-0,301
125,108	158,933	-0,243	-0,236
126,122	229,666	-0,228	-0,261
127,137	-102,527	-0,115	-0,019
128,151	56,588	-0,287	-0,195
129,166	800,000	-0,112	-0,252
130,181	114,308	-0,172	-0,146
131,195	339,044	-0,286	-0,390
132,210	14,831	-0,273	-0,149
133,224	77,534	-0,267	-0,198
134,239	190,617	-0,275	-0,289
135,254	9,726	-0,178	-0,094
136,268	800,000	-0,100	-0,242
137,283	81,323	-0,219	-0,165
138,297	-44,212	-0,185	-0,064
139,312	60,300	-0,200	-0,138
140,327	139,156	-0,291	-0,267
141,341	800,000	-0,087	-0,206
142,356	-102,473	-0,207	-0,034
143,370	388,824	-0,150	-0,217
144,385	53,404	-0,298	-0,199
145,400	271,684	-0,182	-0,223
146,414	96,169	-0,284	-0,226
147,429	307,119	-0,230	-0,299
148,443	20,306	-0,239	-0,134
149,458	50,089	-0,137	-0,090
150,473	48,074	-0,157	-0,102
151,487	800,000	-0,112	-0,221
152,502	-65,482	-0,310	-0,086
153,516	56,889	-0,270	-0,183
154,531	136,746	-0,264	-0,240
155,546	499,855	-0,140	-0,225
156,560	-43,984	-0,259	-0,090
157,575	29,024	-0,070	-0,041
158,589	242,057	-0,248	-0,290
159,604	-53,540	-0,168	-0,053
160,619	-108,316	-0,330	-0,049
161,633	36,195	-0,196	-0,120
162,648	75,102	-0,338	-0,248
163,662	131,656	-0,230	-0,206
164,677	124,514	-0,229	-0,201
165,692	536,857	-0,125	-0,207
166,706	477,367	-0,111	-0,175
167,721	93,017	-0,289	-0,227
168,735	159,528	-0,103	-0,100
169,750	68,389	-0,348	-0,248
170,764	219,025	-0,203	-0,226
171,779	-69,108	-0,135	-0,036
172,794	0,516	-0,200	-0,099
173,808	-25,535	-0,219	-0,090
174,823	-4,934	-0,303	-0,145
175,837	40,103	-0,192	-0,120
176,852	79,383	-0,281	-0,209
177,867	30,917	-0,184	-0,110
178,881	-76,078	-0,122	-0,030
179,896	-122,035	-0,332	-0,037
180,910	223,931	-0,224	-0,252
181,925	121,486	-0,200	-0,173
182,940	325,379	-0,215	-0,286
183,954	59,876	-0,192	-0,132
184,969	118,879	-0,148	-0,127
185,983	133,456	-0,233	-0,209
186,998	510,906	-0,114	-0,185
188,013	0,478	-0,249	-0,123
189,027	125,566	-0,122	-0,107
190,042	800,000	-0,107	-0,214
191,056	91,561	-0,299	-0,233
192,071	157,666	-0,225	-0,216
193,086	-70,163	-0,176	0,046
194,100	136,262	-0,251	-0,227
195,115	-112,186	-0,249	0,034
196,129	70,723	-0,238	-0,171
197,144	101,093	-0,218	-0,176
198,159	303,990	-0,124	-0,160
199,173	152,996	-0,253	-0,240
200,188	-124,001	-0,201	0,022
201,202	307,464	-0,175	-0,227
202,217	249,504	-0,167	-0,196
203,232	128,122	-0,177	-0,157
204,246	-11,378	-0,243	-0,110
205,261	105,730	-0,166	-0,136
206,275	207,464	-0,232	-0,251
207,290	100,988	-0,236	-0,190
208,304	169,240	-0,181	-0,179
209,319	205,149	-0,186	-0,201
210,334	285,241	-0,231	-0,289
211,348	246,060	-0,205	-0,240
212,363	148,188	-0,193	-0,181
213,377	253,060	-0,135	-0,160
214,392	303,137	-0,046	-0,059
215,407	-15,205	-0,099	-0,044
216,421	120,060	-0,024	-0,021
217,436	235,267	-0,138	-0,159
218,450	117,347	-0,259	-0,221
219,465	289,964	-0,130	-0,163
220,480	148,462	-0,170	-0,159
221,494	-75,254	-0,129	-0,032
222,509	162,711	-0,163	-0,159
223,523	14,762	-0,164	-0,089
224,538	113,252	-0,204	-0,172
225,553	184,796	-0,137	-0,140
226,567	137,340	-0,206	-0,187
227,582	-15,672	-0,131	-0,058
228,596	80,128	-0,134	-0,099
229,611	144,777	-0,245	-0,226
230,626	797,413	-0,116	-0,221
231,640	63,032	-0,195	-0,135
232,655	220,719	-0,224	-0,249
233,669	485,394	-0,170	-0,269
234,684	364,858	-0,192	-0,268
235,699	-53,093	-0,123	-0,039
236,713	-107,118	-0,113	-0,017
237,728	158,097	-0,126	-0,121
238,742	237,570	-0,230	-0,264
239,757	-144,934	-0,318	-0,020
240,772	564,062	-0,088	-0,148
241,786	436,677	-0,134	-0,203
242,801	301,104	-0,042	0,053
243,815	-49,595	-0,115	-0,037
244,830	-132,554	-0,151	0,013
245,844	-200,000	-0,042	-0,131
246,859	191,948	-0,240	-0,250
247,874	717,919	-0,109	-0,200
248,888	293,098	-0,182	-0,230
249,903	212,427	-0,086	-0,093
250,917	40,306	-0,106	-0,066
251,932	169,857	-0,134	-0,133
252,947	800,000	-0,073	-0,164
253,961	60,552	-0,161	-0,110
254,976	-125,264	-0,159	0,017
255,990	54,691	-0,220	-0,147
257,005	502,747	-0,092	-0,147
258,020	-132,537	-0,239	0,021
259,034	41,351	-0,194	-0,121
260,049	247,478	-0,119	-0,139
261,063	54,343	-0,159	-0,106
262,078	-200,000	-0,011	-0,200
263,093	20,761	-0,299	-0,167
264,107	-200,000	-0,091	-0,297
265,122	-101,003	-0,182	-0,030
266,136	152,704	-0,187	-0,177
267,151	46,054	-0,166	-0,106
268,166	432,905	-0,175	-0,263
269,180	556,769	-0,176	-0,294
270,195	42,465	-0,102	-0,064
271,209	100,557	-0,184	-0,147
272,224	342,287	-0,156	-0,210
273,239	287,679	-0,070	-0,087
274,253	-123,200	-0,162	-0,018
275,268	-200,000	-0,028	-0,210
276,282	279,922	-0,217	-0,268
277,297	228,227	-0,170	-0,191
278,312	31,753	-0,075	-0,045
279,326	160,523	-0,074	-0,071
280,341	206,226	-0,193	-0,208
281,355	-2,677	-0,177	0,085
282,370	-62,769	-0,120	0,034
283,384	179,275	-0,178	-0,180
284,399	800,000	-0,036	-0,107
285,414	275,371	-0,134	-0,164
286,428	121,813	-0,216	-0,186
287,443	800,000	0,041	-0,084
288,457	59,089	-0,148	-0,100
289,472	409,899	-0,179	-0,261
290,487	800,000	-0,133	-0,280
291,501	84,710	-0,185	-0,139
292,516	-19,497	-0,199	-0,084
293,530	93,490	-0,224	-0,175
294,545	229,824	-0,118	-0,133
295,560	45,724	-0,106	0,067
296,574	-105,449	-0,256	-0,040
297,589	-53,251	-0,218	-0,068
298,603	183,408	-0,176	-0,179
299,618	260,891	-0,090	-0,107
300,633	-79,577	-0,183	-0,042
301,647	233,578	-0,100	-0,113
302,662	65,283	-0,050	-0,035
303,676	104,798	-0,195	-0,158
304,691	-35,879	-0,119	-0,044
305,706	-12,085	-0,159	-0,071
306,720	67,670	-0,215	-0,151
307,735	285,332	-0,076	-0,094
308,749	510,871	-0,038	0,061
309,764	-44,970	-0,162	-0,055
310,779	-137,616	-0,168	0,013
311,793	-69,366	-0,167	0,044
312,808	404,723	-0,075	-0,109
313,822	-120,862	-0,199	-0,023
314,837	-97,221	-0,145	-0,026
315,852	-200,000	-0,027	-0,093
316,866	-117,008	-0,086	-0,011
317,881	-169,720	-0,130	-0,003
318,895	-50,028	-0,111	-0,036
319,910	-200,000	-0,088	0,000
320,925	65,403	-0,176	-0,122
321,939	800,000	-0,078	-0,205
322,954	627,701	-0,062	-0,108
323,968	-200,000	-0,030	-0,107
324,983	-45,837	-0,142	-0,048
325,997	-111,509	-0,192	-0,026
327,012	300,722	-0,176	-0,223
328,027	-110,300	-0,199	-0,028
329,041	-101,940	-0,157	-0,026
330,056	-28,828	-0,135	-0,053
331,070	481,825	-0,087	-0,135
332,085	679,521	-0,094	-0,168
333,100	-3,933	-0,186	-0,088
334,114	-44,201	-0,243	-0,083
335,129	483,486	-0,111	-0,174
336,143	647,905	-0,090	-0,158
337,158	51,454	-0,046	-0,030
338,173	-200,000	0,024	-0,112
339,187	-149,488	-0,253	-0,014
340,202	205,779	-0,119	-0,127
341,216	378,036	-0,106	-0,148
342,231	235,320	-0,139	-0,157
343,246	800,000	-0,069	-0,166
344,260	4,214	-0,151	-0,076
345,275	-200,000	-0,014	-0,048
346,289	-200,000	0,016	-0,074
347,304	144,379	-0,198	-0,181
348,319	-67,470	-0,146	-0,039
349,333	399,549	-0,142	-0,204
350,348	800,000	-0,099	-0,222
351,362	566,259	-0,106	-0,178
352,377	160,268	-0,095	-0,091
353,392	-70,764	-0,207	-0,053
354,406	-78,511	-0,252	-0,059
355,421	208,592	1312,446	1406,764
356,435	160,508	1472,897	1407,262
