DTS Sentinel unit serial number:	SN410029Multiplexer serial number:	ORYXHardware model number:	OX2-SRSoftware version number:	ORYX F/W v4,00 Oryx Data Collector v3.7.2.0data status	okinstallation	B3 Nyhavnadifferential loss correction	single-endedforward channel	channel 1reverse channel	N/Adate	2023/12/04time	06:52:30forward acquisition time	300,00reverse acquisition time	0,00gamma	499,1914k internal	0,3206k external	0,3206temperature offset calibration	1,0000default loss term (dB/km)	0,3820temperature slope calibration	1,0000multiplexer offset coefficient	1,0000multiplexer slope coefficient	1,0000fibre end	0,00T internal ref (°C)	12,08T ext. ref 1 (°C)	-2,63T ext. ref 2 (°C)	-2,66length (m)	temperature (°C)	Stokes	anti-Stokes-744,400	-11,894	-0,287	-0,136
-743,385	800,000	0,140	0,305
-742,371	253,933	-0,127	-0,158
-741,356	-200,000	-0,018	0,304
-740,342	167,979	-0,195	-0,202
-739,327	-200,000	-0,027	0,376
-738,312	126,346	-0,190	-0,174
-737,298	-200,000	-0,083	0,268
-736,283	149,763	-0,187	-0,184
-735,269	-200,000	0,056	0,286
-734,254	800,000	-0,070	-0,221
-733,239	800,000	-0,105	0,248
-732,225	501,622	-0,071	-0,120
-731,210	152,882	0,120	0,120
-730,196	-200,000	-0,024	-0,096
-729,181	-24,144	0,106	-0,046
-728,167	235,211	0,060	-0,072
-727,152	92,600	-0,046	0,038
-726,137	-64,825	-0,099	0,029
-725,123	211,249	-0,080	-0,091
-724,108	31,343	-0,064	-0,040
-723,094	6,717	-0,124	-0,066
-722,079	-200,000	-0,006	0,038
-721,064	-200,000	-0,012	0,116
-720,050	-200,000	-0,002	-0,079
-719,035	-200,000	0,018	0,153
-718,021	-200,000	-0,016	-0,057
-717,006	-95,166	-0,148	-0,029
-715,991	575,323	-0,048	0,085
-714,977	102,821	0,015	0,013
-713,962	4,989	0,129	-0,069
-712,948	71,538	0,094	-0,071
-711,933	57,071	0,042	-0,029
-710,918	-113,323	-0,044	-0,006
-709,904	-94,313	-0,134	0,026
-708,889	-119,311	0,059	-0,007
-707,875	176,207	-0,064	-0,068
-706,860	-193,555	0,129	0,001
-705,845	-200,000	-0,010	0,095
-704,831	341,288	0,073	0,104
-703,816	-177,196	0,048	0,001
-702,802	-200,000	0,007	0,207
-701,787	800,000	-0,026	0,065
-700,772	-186,406	-0,125	-0,001
-699,758	800,000	0,048	-0,101
-698,743	-40,976	-0,043	0,016
-697,729	232,118	-0,039	-0,046
-696,714	-76,690	-0,027	-0,007
-695,699	-200,000	0,004	-0,132
-694,685	800,000	0,044	-0,090
-693,670	-200,000	0,030	-0,142
-692,656	800,000	0,039	-0,085
-691,641	-200,000	-0,005	-0,051
-690,627	-200,000	-0,017	0,067
-689,612	128,736	-0,066	0,061
-688,597	2,970	-0,091	-0,048
-687,583	-93,750	-0,077	-0,015
-686,568	-200,000	0,023	0,087
-685,554	-125,762	-0,183	-0,020
-684,539	250,459	0,036	0,044
-683,524	343,631	-0,107	0,152
-682,510	-79,938	0,025	-0,006
-681,495	-155,942	-0,040	0,002
-680,481	40,946	-0,123	-0,080
-679,466	444,564	-0,090	0,143
-678,451	1,651	-0,045	0,023
-677,437	-52,525	0,043	0,014
-676,422	287,618	0,026	0,034
-675,408	-172,420	0,033	0,001
-674,393	72,587	0,107	0,081
-673,378	-200,000	-0,149	0,000
-672,364	-200,000	-0,028	0,089
-671,349	343,357	-0,068	-0,096
-670,335	800,000	0,038	0,122
-669,320	-200,000	0,037	0,216
-668,305	165,253	-0,056	0,057
-667,291	-200,000	-0,006	0,101
-666,276	-36,200	-0,030	0,012
-665,262	31,479	0,038	-0,024
-664,247	-39,739	-0,167	-0,063
-663,232	109,158	0,120	0,104
-662,218	-200,000	0,018	-0,115
-661,203	88,596	-0,098	0,079
-660,189	-38,142	-0,060	0,023
-659,174	-200,000	0,030	0,158
-658,159	800,000	-0,007	-0,015
-657,145	303,763	0,028	-0,038
-656,130	458,312	-0,037	-0,060
-655,116	-200,000	-0,013	-0,060
-654,101	-200,000	-0,003	0,094
-653,086	264,486	-0,021	-0,027
-652,072	619,163	-0,040	-0,074
-651,057	452,113	-0,087	0,139
-650,043	-120,917	-0,041	0,005
-649,028	-148,864	0,053	-0,003
-648,014	-31,117	0,074	0,030
-646,999	141,847	0,014	0,014
-645,984	800,000	0,054	-0,127
-644,970	-3,693	-0,121	0,061
-643,955	-200,000	0,018	-0,146
-642,941	800,000	-0,021	-0,050
-641,926	-200,000	0,021	-0,089
-640,911	800,000	-0,040	-0,085
-639,897	-200,000	-0,012	0,055
-638,882	800,000	0,013	0,029
-637,868	695,237	-0,036	-0,069
-636,853	-200,000	-0,018	-0,091
-635,838	800,000	0,035	0,112
-634,824	-200,000	0,007	-0,057
-633,809	-200,000	0,005	0,144
-632,795	-142,804	-0,067	-0,005
-631,780	-200,000	0,004	0,034
-630,765	132,548	-0,080	-0,074
-629,751	671,364	-0,031	-0,058
-628,736	800,000	-0,054	-0,133
-627,722	-19,092	0,080	0,036
-626,707	-116,347	-0,093	-0,012
-625,692	-23,154	0,069	0,030
-624,678	-200,000	-0,010	0,106
-623,663	800,000	0,018	0,047
-622,649	247,478	-0,142	0,173
-621,634	-200,000	0,001	0,013
-620,619	-200,000	0,024	-0,082
-619,605	-200,000	0,022	0,096
-618,590	-200,000	0,025	-0,089
-617,576	-200,000	0,006	0,138
-616,561	9,448	-0,029	-0,016
-615,546	800,000	-0,076	-0,176
-614,532	-78,814	-0,109	-0,027
-613,517	38,199	0,025	-0,016
-612,503	-200,000	0,001	-0,052
-611,488	-38,712	0,075	-0,028
-610,474	-79,797	-0,106	0,025
-609,459	127,383	-0,095	0,087
-608,444	-53,419	-0,065	0,021
-607,430	686,243	0,010	0,019
-606,415	-200,000	-0,003	-0,078
-605,401	125,702	-0,048	0,043
-604,386	-200,000	0,008	-0,129
-603,371	78,167	-0,057	0,044
-602,357	-112,152	0,132	0,019
-601,342	800,000	-0,062	-0,130
-600,328	63,415	0,034	-0,025
-599,313	-28,438	-0,106	-0,044
-598,298	225,582	0,045	-0,052
-597,284	184,380	-0,063	0,068
-596,269	98,222	-0,157	-0,130
-595,255	-125,630	0,097	-0,010
-594,240	800,000	-0,028	0,087
-593,225	731,695	0,058	-0,112
-592,211	-200,000	0,011	-0,092
-591,196	-34,411	-0,095	-0,037
-590,182	39,789	0,113	-0,073
-589,167	-146,089	0,131	0,008
-588,152	289,611	0,034	0,044
-587,138	49,585	0,010	-0,006
-586,123	89,336	-0,182	-0,146
-585,109	83,632	-0,100	-0,079
-584,094	359,311	0,002	0,003
-583,079	-200,000	-0,033	0,154
-582,065	-200,000	0,014	0,082
-581,050	-52,238	0,113	0,038
-580,036	55,177	-0,059	-0,041
-579,021	310,804	-0,051	-0,069
-578,006	281,568	-0,031	-0,040
-576,992	800,000	-0,045	-0,106
-575,977	0,546	0,061	-0,031
-574,963	-200,000	0,013	0,071
-573,948	201,122	-0,049	-0,054
-572,934	-200,000	-0,022	0,110
-571,919	200,696	0,047	-0,052
-570,904	-200,000	0,017	-0,108
-569,890	355,210	-0,075	-0,108
-568,875	-200,000	-0,014	-0,079
-567,861	800,000	-0,005	-0,012
-566,846	-200,000	-0,008	-0,078
-565,831	-200,000	0,006	-0,035
-564,817	34,213	0,029	0,018
-563,802	-117,093	-0,131	-0,017
-562,788	-24,401	0,141	0,060
-561,773	148,578	-0,067	0,066
-560,758	-200,000	0,015	0,134
-559,744	24,069	0,105	0,063
-558,729	85,930	-0,142	-0,112
-557,715	-200,000	0,004	0,069
-556,700	-93,259	-0,085	-0,017
-555,685	800,000	-0,041	-0,106
-554,671	94,467	0,114	0,093
-553,656	-91,928	0,096	-0,019
-552,642	686,565	0,007	0,013
-551,627	-13,913	0,107	0,050
-550,612	387,500	-0,034	0,051
-549,598	-200,000	0,007	0,049
-548,583	-200,000	-0,025	-0,114
-547,569	-200,000	0,002	-0,058
-546,554	0,869	-0,094	0,049
-545,539	-15,595	0,190	0,087
-544,525	276,727	-0,013	-0,016
-543,510	78,436	-0,062	-0,048
-542,496	-71,751	-0,117	0,031
-541,481	277,551	0,026	0,034
-540,466	-60,020	0,053	0,016
-539,452	800,000	-0,030	0,077
-538,437	-157,690	-0,024	0,001
-537,423	-79,384	-0,098	-0,024
-536,408	175,986	-0,058	-0,060
-535,393	800,000	-0,025	-0,065
-534,379	-145,145	-0,021	0,001
-533,364	77,730	0,087	-0,067
-532,350	253,121	0,036	0,044
-531,335	-155,152	0,009	0,000
-530,321	24,021	-0,073	0,043
-529,306	-200,000	-0,040	0,134
-528,291	-103,691	-0,018	0,003
-527,277	800,000	-0,051	-0,114
-526,262	449,228	-0,083	0,133
-525,248	89,127	0,080	0,064
-524,233	-62,136	0,032	-0,009
-523,218	84,948	0,073	-0,058
-522,204	-200,000	0,001	-0,021
-521,189	467,865	0,033	-0,053
-520,175	800,000	-0,009	-0,021
-519,160	-176,057	0,168	0,003
-518,145	-200,000	-0,036	0,130
-517,131	108,235	0,101	0,087
-516,116	-68,545	0,044	0,012
-515,102	20,490	-0,025	-0,015
-514,087	-189,352	-0,076	-0,001
-513,072	48,839	-0,039	0,027
-512,058	-200,000	0,019	-0,073
-511,043	90,613	-0,026	-0,021
-510,029	-30,698	0,079	-0,032
-509,014	-69,999	0,049	-0,013
-507,999	748,299	0,065	0,127
-506,985	-14,377	-0,098	-0,045
-505,970	-200,000	0,002	0,018
-504,956	-60,304	-0,069	-0,021
-503,941	-124,743	-0,061	-0,007
-502,926	-200,000	0,042	0,197
-501,912	36,726	0,024	0,015
-500,897	-200,000	-0,027	0,135
-499,883	5,629	0,055	-0,029
-498,868	-200,000	-0,046	-0,193
-497,853	12,398	-0,065	-0,036
-496,839	-24,439	-0,070	-0,030
-495,824	191,772	-0,016	-0,018
-494,810	-200,000	0,027	0,116
-493,795	-63,951	-0,048	0,014
-492,781	-200,000	-0,020	-0,129
-491,766	-90,147	-0,023	-0,005
-490,751	48,160	-0,082	-0,055
-489,737	540,498	0,052	-0,089
-488,722	-137,742	0,096	0,008
-487,708	44,162	-0,063	-0,041
-486,693	412,354	-0,018	0,027
-485,678	-12,538	0,079	0,037
-484,664	73,611	0,055	0,041
-483,649	-139,116	0,172	-0,013
-482,635	-200,000	0,035	-0,123
-481,620	-54,624	0,080	0,026
-480,605	-200,000	-0,007	0,081
-479,591	-70,672	-0,074	-0,020
-478,576	-134,432	-0,028	0,002
-477,562	-3,260	0,033	-0,017
-476,547	-60,792	0,064	-0,019
-475,532	209,256	-0,052	-0,058
-474,518	800,000	0,040	0,101
-473,503	-200,000	-0,001	0,104
-472,489	-200,000	0,026	0,091
-471,474	800,000	-0,069	0,179
-470,459	267,427	0,088	-0,110
-469,445	453,455	0,018	0,029
-468,430	800,000	-0,054	0,152
-467,416	639,411	-0,063	-0,116
-466,401	-200,000	-0,011	0,049
-465,386	-72,152	-0,033	0,009
-464,372	460,039	0,077	0,124
-463,357	-95,679	-0,099	-0,019
-462,343	-178,525	0,119	0,002
-461,328	-200,000	0,015	-0,091
-460,313	93,868	-0,037	0,030
-459,299	130,480	-0,060	-0,055
-458,284	237,502	0,104	0,125
-457,270	-49,485	-0,071	0,024
-456,255	-188,829	-0,176	0,002
-455,241	-7,325	-0,176	0,085
-454,226	124,508	-0,023	0,021
-453,211	14,702	-0,066	0,037
-452,197	79,100	0,052	0,040
-451,182	690,897	0,028	-0,052
-450,168	800,000	0,043	-0,122
-449,153	-200,000	-0,008	-0,089
-448,138	338,214	0,015	-0,021
-447,124	-200,000	-0,004	-0,023
-446,109	216,505	0,085	0,097
-445,095	320,535	0,030	-0,041
-444,080	-200,000	0,027	0,140
-443,065	-200,000	0,016	0,052
-442,051	800,000	0,022	0,057
-441,036	-85,599	-0,075	-0,017
-440,022	-102,480	0,050	-0,008
-439,007	-54,342	-0,060	0,019
-437,992	718,977	-0,024	0,045
-436,978	486,544	-0,070	0,116
-435,963	-100,931	0,103	-0,018
-434,949	-200,000	0,031	0,141
-433,934	-200,000	0,017	-0,160
-432,919	301,072	0,047	-0,062
-431,905	-4,419	-0,118	-0,058
-430,890	-24,051	0,037	-0,016
-429,876	210,014	-0,033	-0,038
-428,861	210,856	-0,106	0,120
-427,846	721,700	-0,081	0,154
-426,832	337,595	-0,022	-0,031
-425,817	-39,838	-0,074	-0,027
-424,803	103,306	-0,063	-0,053
-423,788	-94,738	0,045	0,009
-422,773	800,000	0,073	0,145
-421,759	-2,283	0,076	-0,038
-420,744	488,161	-0,014	0,023
-419,730	4,951	0,029	-0,015
-418,715	-200,000	-0,001	-0,097
-417,701	800,000	-0,028	-0,058
-416,686	-8,412	0,035	0,017
-415,671	-96,512	-0,259	-0,048
-414,657	-107,571	0,092	-0,014
-413,642	337,870	0,031	-0,043
-412,628	-120,405	0,079	0,010
-411,613	437,237	-0,037	0,059
-410,598	298,108	-0,023	0,030
-409,584	-200,000	-0,021	0,133
-408,569	-146,668	0,121	0,007
-407,555	102,443	0,083	-0,070
-406,540	800,000	0,078	-0,200
-405,525	800,000	0,020	0,055
-404,511	65,247	-0,036	0,026
-403,496	-55,360	-0,188	0,060
-402,482	-8,512	-0,155	-0,075
-401,467	219,811	0,089	0,103
-400,452	800,000	-0,060	0,177
-399,438	-200,000	-0,016	0,054
-398,423	-22,177	-0,100	-0,043
-397,409	518,453	0,041	0,069
-396,394	-200,000	0,009	0,093
-395,379	-200,000	0,038	-0,146
-394,365	169,051	0,046	-0,047
-393,350	-200,000	-0,012	0,092
-392,336	98,537	-0,049	0,041
-391,321	123,490	-0,030	0,027
-390,306	800,000	0,051	-0,109
-389,292	-200,000	0,004	0,030
-388,277	711,064	-0,041	0,079
-387,263	680,114	0,046	0,087
-386,248	800,000	-0,016	0,041
-385,233	800,000	-0,019	0,046
-384,219	139,465	-0,063	-0,059
-383,204	43,427	0,062	-0,041
-382,190	456,597	0,015	0,025
-381,175	800,000	-0,060	-0,135
-380,160	-88,042	0,188	0,040
-379,146	71,817	-0,054	-0,040
-378,131	800,000	0,053	-0,121
-377,117	-200,000	0,006	-0,029
-376,102	-200,000	-0,013	-0,130
-375,088	-7,494	-0,062	0,030
-374,073	516,139	0,023	-0,039
-373,058	161,120	-0,017	0,017
-372,044	-100,574	-0,023	-0,004
-371,029	-79,028	0,190	-0,046
-370,015	-122,787	-0,130	-0,015
-369,000	-32,654	-0,109	-0,043
-367,985	-200,000	-0,000	-0,092
-366,971	-200,000	0,025	-0,111
-365,956	800,000	-0,058	0,146
-364,942	-15,764	-0,047	-0,021
-363,927	77,624	-0,056	-0,043
-362,912	187,787	-0,022	-0,024
-361,898	65,497	-0,107	-0,077
-360,883	177,732	0,056	-0,059
-359,869	115,697	0,050	-0,044
-358,854	450,530	-0,087	-0,138
-357,839	10,472	0,130	0,071
-356,825	24,082	0,018	-0,011
-355,810	-101,636	0,033	-0,006
-354,796	243,138	0,021	0,025
-353,781	34,890	-0,047	-0,029
-352,766	-115,586	-0,062	0,008
-351,752	-200,000	-0,006	0,042
-350,737	150,197	-0,119	0,115
-349,723	-200,000	0,016	0,117
-348,708	-13,134	0,036	0,017
-347,693	800,000	0,021	-0,044
-346,679	15,546	0,043	-0,024
-345,664	173,985	-0,086	-0,089
-344,650	800,000	-0,047	-0,133
-343,635	106,190	0,035	-0,030
-342,620	80,207	0,049	0,038
-341,606	-16,053	0,177	-0,080
-340,591	134,068	-0,080	-0,074
-339,577	370,398	0,063	-0,091
-338,562	137,699	0,051	-0,048
-337,548	53,128	0,059	0,041
-336,533	115,509	0,110	0,096
-335,518	53,116	0,023	0,016
-334,504	301,571	0,089	0,118
-333,489	384,586	-0,019	-0,029
-332,475	-200,000	-0,016	-0,075
-331,460	-67,500	0,029	-0,008
-330,445	-200,000	-0,003	0,037
-329,431	193,151	0,133	0,143
-328,416	800,000	0,015	-0,038
-327,402	233,899	0,054	0,064
-326,387	0,578	0,126	0,064
-325,372	466,951	-0,090	-0,144
-324,358	115,338	0,044	0,039
-323,343	537,184	-0,033	0,057
-322,329	92,064	0,160	0,129
-321,314	-200,000	0,040	0,144
-320,299	-142,145	0,147	0,010
-319,285	-200,000	-0,035	-0,182
-318,270	593,895	-0,048	-0,086
-317,256	-108,856	-0,128	-0,019
-316,241	251,513	-0,053	0,064
-315,226	-200,000	0,000	0,089
-314,212	-31,898	-0,106	-0,042
-313,197	800,000	0,054	-0,163
-312,183	-200,000	-0,006	-0,138
-311,168	360,056	-0,075	-0,108
-310,153	-200,000	0,007	0,037
-309,139	-200,000	0,027	0,092
-308,124	59,786	0,085	0,060
-307,110	95,000	0,155	-0,126
-306,095	84,534	-0,083	0,065
-305,080	-123,149	0,135	-0,015
-304,066	-113,837	-0,096	0,013
-303,051	800,000	-0,044	-0,111
-302,037	-20,510	0,108	0,047
-301,022	-104,745	0,046	-0,008
-300,008	-200,000	-0,019	-0,129
-298,993	-200,000	0,001	-0,025
-297,978	-200,000	-0,009	0,032
-296,964	800,000	-0,015	0,045
-295,949	-55,313	-0,201	-0,064
-294,935	-99,242	-0,043	0,008
-293,920	800,000	-0,019	-0,052
-292,905	800,000	-0,052	0,113
-291,891	205,246	-0,080	0,089
-290,876	-200,000	-0,003	0,074
-289,862	800,000	0,036	0,087
-288,847	-200,000	-0,001	-0,045
-287,832	-178,072	0,130	0,002
-286,818	-200,000	0,008	-0,091
-285,803	-159,617	-0,139	-0,005
-284,789	53,962	0,085	0,058
-283,774	-200,000	0,013	0,081
-282,759	-200,000	0,029	0,116
-281,745	-200,000	-0,029	-0,144
-280,730	293,922	0,022	-0,029
-279,716	-175,005	0,278	-0,005
-278,701	471,116	0,023	0,037
-277,686	-105,692	0,083	0,013
-276,672	800,000	-0,032	-0,063
-275,657	85,443	0,071	-0,056
-274,643	54,423	-0,131	0,090
-273,628	-200,000	0,009	-0,104
-272,613	800,000	-0,049	-0,107
-271,599	-50,563	-0,040	0,013
-270,584	61,139	0,038	0,027
-269,570	800,000	0,015	0,039
-268,555	401,012	0,071	0,106
-267,540	32,563	0,087	0,053
-266,526	-18,682	-0,055	-0,024
-265,511	800,000	0,029	0,077
-264,497	330,837	-0,028	-0,038
-263,482	-200,000	-0,007	-0,034
-262,467	453,289	0,026	0,041
-261,453	800,000	0,027	0,070
-260,438	-200,000	-0,005	0,052
-259,424	128,495	-0,064	-0,058
-258,409	-125,594	0,042	0,004
-257,395	-111,149	0,177	-0,025
-256,380	-200,000	-0,035	0,113
-255,365	-123,353	-0,062	-0,007
-254,351	98,858	0,072	0,059
-253,336	800,000	-0,044	0,101
-252,322	1,671	-0,102	0,052
-251,307	-131,058	0,023	0,002
-250,292	38,399	0,138	0,088
-249,278	5,691	-0,005	-0,003
-248,263	-200,000	-0,007	0,192
-247,249	800,000	0,023	0,064
-246,234	-200,000	0,004	-0,028
-245,219	-23,614	-0,129	0,055
-244,205	-200,000	-0,008	-0,194
-243,190	-200,000	-0,009	0,043
-242,176	800,000	0,063	-0,148
-241,161	58,896	0,112	-0,078
-240,146	-148,888	0,035	0,002
-239,132	17,894	-0,079	0,045
-238,117	151,379	0,039	0,038
-237,103	-200,000	-0,017	-0,108
-236,088	212,419	-0,108	-0,122
-235,073	-46,260	-0,046	0,016
-234,059	-81,956	-0,013	0,003
-233,044	800,000	-0,023	0,049
-232,030	-200,000	0,013	0,056
-231,015	67,159	-0,121	0,088
-230,000	-17,288	-0,116	-0,052
-228,986	25,948	-0,071	-0,042
-227,971	114,909	0,146	-0,127
-226,957	-8,120	0,062	0,030
-225,942	-80,092	-0,024	-0,006
-224,927	99,059	0,106	0,087
-223,913	-49,030	-0,065	0,022
-222,898	364,299	0,063	-0,090
-221,884	173,052	-0,106	-0,109
-220,869	408,160	-0,047	0,072
-219,855	-200,000	0,060	0,229
-218,840	-200,000	-0,003	0,064
-217,825	-200,000	-0,011	0,078
-216,811	-200,000	-0,023	-0,156
-215,796	102,550	-0,057	-0,047
-214,782	250,548	-0,008	-0,010
-213,767	800,000	-0,043	-0,125
-212,752	-63,961	-0,034	0,010
-211,738	412,512	0,044	0,066
-210,723	800,000	0,056	0,164
-209,709	-51,058	0,129	-0,043
-208,694	262,890	-0,083	-0,103
-207,679	-150,186	0,148	0,008
-206,665	140,171	-0,094	-0,088
-205,650	34,212	0,070	-0,043
-204,636	800,000	0,021	-0,044
-203,621	-63,142	0,055	0,016
-202,606	448,457	0,081	-0,127
-201,592	-200,000	-0,084	0,000
-200,577	5,395	0,108	-0,056
-199,563	-19,063	0,045	0,020
-198,548	-122,436	-0,182	0,021
-197,533	263,772	0,037	-0,045
-196,519	64,193	0,147	0,105
-195,504	79,095	-0,107	-0,081
-194,490	-25,342	-0,049	-0,020
-193,475	-200,000	-0,019	0,130
-192,460	97,580	0,083	0,067
-191,446	330,608	0,029	0,039
-190,431	6,937	-0,031	0,016
-189,417	11,920	-0,059	-0,032
-188,402	327,505	0,026	0,035
-187,387	257,761	-0,040	0,049
-186,373	-200,000	0,040	-0,147
-185,358	87,103	-0,027	-0,021
-184,344	-200,000	0,005	0,053
-183,329	-200,000	0,027	0,132
-182,315	35,984	-0,116	-0,073
-181,300	258,278	0,044	0,055
-180,285	-6,660	-0,058	-0,028
-179,271	800,000	0,029	0,067
-178,256	61,496	-0,104	0,073
-177,242	-146,727	0,134	0,008
-176,227	800,000	0,029	0,082
-175,212	800,000	-0,021	0,044
-174,198	-162,526	-0,126	-0,004
-173,183	-200,000	0,037	-0,199
-172,169	132,026	-0,071	0,065
-171,154	273,006	-0,071	-0,090
-170,139	84,956	0,071	0,055
-169,125	566,557	-0,063	0,109
-168,110	-170,597	0,165	0,004
-167,096	-200,000	0,006	-0,053
-166,081	-12,832	0,057	0,026
-165,066	800,000	-0,028	-0,067
-164,052	-200,000	-0,018	-0,080
-163,037	800,000	0,010	-0,028
-162,023	-117,667	0,110	-0,014
-161,008	-165,050	0,104	-0,003
-159,993	167,360	-0,073	0,074
-158,979	-72,781	0,162	0,042
-157,964	-39,726	0,128	0,047
-156,950	-200,000	-0,012	-0,117
-155,935	-200,000	-0,000	0,070
-154,920	335,925	0,036	0,050
-153,906	-200,000	0,011	0,059
-152,891	243,524	-0,051	0,061
-151,877	299,731	0,130	0,170
-150,862	704,985	-0,023	-0,043
-149,847	2,012	-0,180	0,092
-148,833	1,290	-0,097	0,049
-147,818	-153,203	0,073	-0,004
-146,804	-19,482	0,112	0,049
-145,789	25,358	0,067	0,039
-144,775	102,971	-0,027	-0,022
-143,760	-102,089	-0,117	0,020
-142,745	-86,326	0,046	0,010
-141,731	-200,000	-0,006	-0,046
-140,716	-12,277	-0,113	0,052
-139,702	303,790	0,095	-0,125
-138,687	-91,673	0,035	0,007
-137,672	-30,299	0,099	-0,040
-136,658	800,000	0,016	0,048
-135,643	54,847	-0,213	0,145
-134,629	273,385	0,047	0,059
-133,614	271,218	-0,035	-0,044
-132,599	800,000	-0,070	0,151
-131,585	132,300	0,037	0,034
-130,570	94,291	-0,092	0,074
-129,556	-89,853	0,079	-0,016
-128,541	800,000	-0,031	-0,092
-127,526	4,886	-0,088	0,046
-126,512	-200,000	0,028	0,133
-125,497	74,168	0,064	-0,048
-124,483	800,000	-0,011	-0,024
-123,468	-200,000	0,006	0,049
-122,453	800,000	-0,050	-0,109
-121,439	-200,000	0,007	-0,158
-120,424	418,404	0,038	0,057
-119,410	800,000	-0,020	0,056
-118,395	-200,000	0,001	-0,070
-117,380	401,220	0,086	0,128
-116,366	11,798	0,070	-0,038
-115,351	-200,000	-0,037	-0,258
-114,337	-200,000	-0,011	-0,064
-113,322	-151,030	0,052	-0,003
-112,307	-35,394	0,097	-0,037
-111,293	-200,000	-0,011	0,049
-110,278	-30,401	-0,073	0,029
-109,264	741,488	-0,060	0,114
-108,249	800,000	-0,018	0,047
-107,234	-200,000	-0,009	0,048
-106,220	-38,684	-0,049	0,018
-105,205	-66,511	0,044	0,012
-104,191	-122,489	0,138	0,016
-103,176	-87,355	-0,101	0,022
-102,162	547,880	-0,039	0,067
-101,147	-62,276	0,125	0,037
-100,132	-148,316	0,209	0,012
-99,118	-148,210	-0,081	0,005
-98,103	285,685	-0,040	-0,052
-97,089	279,493	0,043	-0,055
-96,074	-200,000	-0,001	0,054
-95,059	296,178	0,077	0,100
-94,045	-200,000	0,000	-0,008
-93,030	301,586	-0,060	-0,079
-92,016	-200,000	-0,011	-0,088
-91,001	76,770	0,091	0,069
-89,986	524,397	-0,013	-0,022
-88,972	103,230	0,072	-0,060
-87,957	371,815	-0,015	-0,021
-86,943	800,000	0,057	0,112
-85,928	108,812	-0,065	-0,055
-84,913	-168,270	-0,162	-0,004
-83,899	-155,555	0,127	-0,006
-82,884	-116,603	0,124	0,016
-81,870	-66,629	0,139	-0,039
-80,855	800,000	-0,091	0,209
-79,840	401,083	0,091	0,135
-78,826	-33,286	0,166	0,065
-77,811	-8,020	-0,036	-0,017
-76,797	-200,000	0,029	0,105
-75,782	581,528	0,044	-0,077
-74,767	599,738	-0,065	0,115
-73,753	-46,819	0,062	0,021
-72,738	42,839	0,014	0,009
-71,724	-200,000	-0,003	-0,035
-70,709	800,000	0,030	-0,091
-69,694	339,258	-0,035	0,049
-68,680	48,777	0,032	0,021
-67,665	91,399	-0,031	0,024
-66,651	-200,000	0,016	0,095
-65,636	227,207	0,011	0,012
-64,622	-200,000	-0,020	0,065
-63,607	-72,530	-0,055	0,014
-62,592	-200,000	-0,008	-0,128
-61,578	-200,000	0,007	-0,038
-60,563	-26,016	0,049	0,020
-59,549	-136,111	-0,102	0,008
-58,534	1,953	-1,763	-0,897
-57,519	438,227	-1,334	-2,065
-56,505	-200,000	-0,568	-4,652
-55,490	278,672	1,156	1,460
-54,476	800,000	4,817	11,128
-53,461	-200,000	20,281	323,282
-52,446	800,000	751,806	2310,531
-51,432	549,193	1663,167	2828,465
-50,417	74,911	1671,657	1243,109
-49,403	19,886	1544,875	877,566
-48,388	13,926	1467,186	804,438
-47,373	18,414	1457,320	820,674
-46,359	16,331	1446,816	804,749
-45,344	12,286	1442,236	782,806
-44,330	12,127	1440,536	781,088
-43,315	12,128	1438,822	780,137
-42,300	12,073	1437,248	778,985
-41,286	12,159	1435,698	778,525
-40,271	12,143	1434,116	777,564
-39,257	12,141	1433,296	777,075
-38,242	12,187	1432,049	776,587
-37,227	12,137	1431,002	775,754
-36,213	12,157	1429,520	775,012
-35,198	12,166	1428,496	774,468
-34,184	12,209	1427,489	774,100
-33,169	12,179	1425,865	773,046
-32,154	12,199	1424,805	772,533
-31,140	12,198	1423,672	771,885
-30,125	12,233	1422,434	771,347
-29,111	12,240	1421,328	770,750
-28,096	12,169	1420,365	769,860
-27,082	12,095	1419,111	768,805
-26,067	12,110	1418,234	768,367
-25,052	12,118	1416,942	767,676
-24,038	12,113	1416,122	767,176
-23,023	12,058	1415,270	766,424
-22,009	12,103	1414,030	765,934
-20,994	12,051	1413,057	765,133
-19,979	12,080	1412,285	764,821
-18,965	12,055	1411,351	764,168
-17,950	12,113	1410,262	763,818
-16,936	12,089	1409,477	763,254
-15,921	12,012	1408,474	762,320
-14,906	11,955	1407,839	761,677
-13,892	11,993	1406,624	761,168
-12,877	12,042	1405,734	760,887
-11,863	12,051	1404,706	760,339
-10,848	11,986	1403,938	759,589
-9,833	11,951	1403,218	759,010
-8,819	11,919	1402,277	758,321
-7,804	11,930	1401,260	757,791
-6,790	11,897	1400,487	757,189
-5,775	11,966	1399,165	756,767
-4,760	11,957	1398,244	756,195
-3,746	11,925	1397,499	755,615
-2,731	11,898	1396,620	754,985
-1,717	11,919	1395,631	754,516
-0,702	11,857	1394,083	753,361
0,313	16,051	1308,711	726,518
1,327	32,795	699,847	426,968
2,342	51,067	121,969	81,571
3,356	3,957	16,496	8,491
4,371	9,370	3,301	1,759
5,386	43,448	0,581	0,374
6,400	-200,000	-0,001	0,449
7,415	-200,000	-0,005	0,019
8,429	324,620	-0,137	-0,186
9,444	114,230	-0,267	-0,229
10,459	66,322	-0,329	-0,236
11,473	-78,498	-0,332	-0,080
12,488	-13,701	-0,228	-0,104
13,502	-108,266	-0,309	-0,047
14,517	70,575	-0,246	-0,179
15,531	21,186	-0,439	-0,251
16,546	362,903	-0,229	-0,325
17,561	98,691	-0,363	-0,296
18,575	332,814	-0,141	-0,192
19,590	370,020	-0,209	-0,299
20,604	112,421	-0,227	-0,194
21,619	70,522	-0,329	-0,240
22,634	70,737	-0,497	-0,362
23,648	101,036	-0,446	-0,366
24,663	176,940	-0,337	-0,346
25,677	58,172	-0,431	-0,297
26,692	351,621	-0,203	-0,285
27,707	-1,849	-0,386	-0,191
28,721	12,230	-0,407	-0,220
29,736	2,900	-0,357	-0,182
30,750	178,359	-0,302	-0,311
31,765	24,837	-0,431	-0,251
32,780	8,950	-0,440	-0,233
33,794	305,502	-0,243	-0,319
34,809	135,936	-0,343	-0,314
35,823	178,413	-0,241	-0,248
36,838	161,756	-0,353	-0,348
37,853	86,634	-0,382	-0,296
38,867	381,758	-0,219	-0,318
39,882	111,728	-0,290	-0,247
40,896	-20,332	-0,382	-0,165
41,911	-86,545	-0,386	-0,083
42,926	-32,268	-0,391	-0,153
43,940	31,452	-0,435	-0,263
44,955	107,689	-0,372	-0,311
45,969	54,523	-0,370	-0,251
46,984	274,515	-0,249	-0,311
47,999	28,710	-0,320	-0,190
49,013	55,863	-0,284	-0,193
50,028	5,369	-0,248	-0,128
51,042	-0,212	-0,367	-0,183
52,057	64,271	-0,499	-0,353
53,071	56,946	-0,383	-0,262
54,086	143,509	-0,282	-0,264
55,101	-40,213	-0,286	-0,104
56,115	89,736	-0,256	-0,201
57,130	45,755	-0,274	-0,178
58,144	90,712	-0,413	-0,325
59,159	70,752	-0,389	-0,283
60,174	56,110	-0,317	-0,216
61,188	29,567	-0,416	-0,248
62,203	-26,774	-0,316	-0,129
63,217	4,524	-0,291	-0,150
64,232	800,000	-0,079	-0,245
65,247	13,677	-0,191	-0,104
66,261	59,538	-0,337	-0,233
67,276	190,810	-0,342	-0,362
68,290	138,544	-0,332	-0,306
69,305	84,113	-0,329	-0,252
70,320	88,726	-0,261	-0,204
71,334	33,669	-0,239	-0,146
72,349	37,827	-0,318	-0,198
73,363	64,980	-0,417	-0,295
74,378	-65,304	-0,380	-0,107
75,393	24,779	-0,283	-0,164
76,407	290,790	-0,268	-0,343
77,422	70,234	-0,180	-0,130
78,436	-9,387	-0,332	-0,155
79,451	111,599	-0,350	-0,296
80,466	46,587	-0,208	-0,135
81,480	42,969	-0,366	-0,234
82,495	110,908	-0,305	-0,257
83,509	48,697	-0,328	-0,215
84,524	124,831	-0,286	-0,253
85,539	9,716	-0,313	-0,166
86,553	55,886	-0,251	-0,170
87,568	-91,253	-0,385	-0,077
88,582	0,927	-0,285	-0,142
89,597	158,821	-0,294	-0,287
90,611	-14,952	-0,356	-0,159
91,626	-7,222	-0,223	-0,106
92,641	117,683	-0,243	-0,209
93,655	0,386	-0,191	-0,095
94,670	58,729	-0,262	-0,180
95,684	144,696	-0,329	-0,308
96,699	275,342	-0,207	-0,257
97,714	-13,675	-0,237	-0,107
98,728	107,257	-0,220	-0,184
99,743	-47,550	-0,348	-0,118
100,757	-78,872	-0,321	-0,076
101,772	62,610	-0,240	-0,168
102,787	-78,956	-0,278	-0,066
103,801	178,476	-0,227	-0,232
104,816	241,229	-0,202	-0,236
105,830	113,567	-0,251	-0,213
106,845	-200,000	-0,252	-0,001
107,860	-126,342	-0,243	-0,025
108,874	550,738	-0,178	-0,301
109,889	588,584	-0,200	-0,346
110,903	800,000	-0,095	-0,257
111,918	259,631	-0,285	-0,345
112,933	-22,970	-0,170	-0,071
113,947	164,723	-0,232	-0,229
114,962	-160,890	-0,260	0,009
115,976	81,960	-0,173	-0,131
116,991	126,674	-0,185	-0,163
118,006	-21,974	-0,411	-0,174
119,020	-49,312	-0,212	-0,070
120,035	526,306	-0,176	-0,291
121,049	32,574	-0,286	-0,173
122,064	-68,668	-0,310	-0,083
123,079	113,764	-0,253	-0,215
124,093	246,220	-0,228	-0,269
125,108	-200,000	-0,024	-0,286
126,122	-24,911	-0,196	-0,081
127,137	57,974	-0,208	-0,142
128,151	55,584	-0,174	-0,117
129,166	698,675	-0,117	-0,216
130,181	230,978	-0,149	-0,171
131,195	50,751	-0,274	-0,181
132,210	30,363	-0,293	-0,174
133,224	-200,000	-0,095	-0,382
134,239	186,869	-0,232	-0,242
135,254	-21,342	-0,272	-0,115
136,268	-84,369	-0,305	-0,067
137,283	598,328	-0,061	-0,106
138,297	178,173	-0,249	-0,254
139,312	41,275	-0,273	-0,172
140,327	-44,767	-0,279	-0,097
141,341	268,960	-0,215	-0,264
142,356	335,374	-0,125	-0,169
143,370	-84,833	-0,245	-0,053
144,385	800,000	-0,177	-0,345
145,400	356,641	-0,157	-0,218
146,414	31,772	-0,254	-0,152
147,429	127,166	-0,305	-0,270
148,443	-17,682	-0,212	-0,092
149,458	-42,185	-0,315	-0,112
150,473	208,378	-0,089	-0,097
151,487	-131,299	-0,302	0,028
152,502	139,789	-0,264	-0,243
153,516	60,613	-0,242	-0,167
154,531	4,868	-0,313	-0,160
155,546	229,717	-0,199	-0,227
156,560	-77,633	-0,211	-0,050
157,575	58,433	-0,280	-0,191
158,589	-56,337	-0,323	-0,099
159,604	14,071	-0,297	-0,160
160,619	259,379	-0,254	-0,305
161,633	11,576	-0,311	-0,166
162,648	83,580	-0,173	-0,131
163,662	29,105	-0,226	-0,133
164,677	314,878	-0,223	-0,293
165,692	275,775	-0,211	-0,262
166,706	182,262	-0,253	-0,260
167,721	32,109	-0,247	-0,148
168,735	199,045	-0,179	-0,191
169,750	-5,366	-0,303	-0,144
170,764	33,771	-0,148	-0,090
171,779	-200,000	-0,020	-0,128
172,794	62,613	-0,308	-0,214
173,808	46,838	-0,231	-0,149
174,823	141,837	-0,247	-0,228
175,837	85,945	-0,270	-0,206
176,852	199,615	-0,193	-0,206
177,867	4,615	-0,416	-0,212
178,881	-43,960	-0,177	-0,061
179,896	261,981	-0,180	-0,217
180,910	29,440	-0,120	-0,071
181,925	247,000	-0,173	-0,203
182,940	-32,686	-0,189	-0,073
183,954	-123,116	-0,225	-0,025
184,969	-37,498	-0,283	-0,104
185,983	-75,115	-0,179	-0,044
186,998	28,529	-0,146	-0,086
188,013	37,572	-0,198	-0,122
189,027	94,756	-0,121	-0,095
190,042	45,611	-0,201	-0,129
191,056	170,454	-0,201	-0,201
192,071	616,836	-0,079	-0,139
193,086	178,729	-0,207	-0,210
194,100	-169,962	-0,114	-0,003
195,115	-105,271	-0,214	-0,034
196,129	-45,624	-0,301	-0,103
197,144	393,531	-0,210	-0,304
198,159	100,461	-0,230	-0,185
199,173	-31,460	-0,300	-0,117
200,188	41,465	-0,265	-0,166
201,202	25,605	-0,310	-0,179
202,217	-91,601	-0,179	0,035
203,232	512,187	-0,170	-0,275
204,246	25,321	-0,221	-0,127
205,261	19,347	-0,186	-0,103
206,275	12,574	-0,184	-0,098
207,290	443,282	-0,162	-0,247
208,304	17,048	-0,210	-0,115
209,319	-123,232	-0,324	-0,036
210,334	32,389	-0,244	-0,146
211,348	37,452	-0,263	-0,161
212,363	-200,000	-0,079	-0,246
213,377	800,000	-0,163	-0,326
214,392	800,000	-0,103	-0,202
215,407	3,708	-0,113	-0,057
216,421	-7,796	-0,210	-0,098
217,436	629,026	-0,147	-0,258
218,450	11,990	-0,202	-0,107
219,465	124,796	-0,221	-0,193
220,480	658,267	-0,076	-0,137
221,494	-200,000	-0,026	-0,189
222,509	800,000	-0,044	-0,085
223,523	-79,816	-0,188	0,044
224,538	113,069	-0,126	-0,106
225,553	-8,126	-0,171	-0,080
226,567	109,547	-0,166	-0,138
227,582	69,019	-0,207	-0,147
228,596	479,380	-0,104	-0,164
229,611	369,227	-0,094	-0,132
230,626	704,731	-0,075	-0,138
231,640	0,489	-0,219	-0,108
232,655	-11,330	-0,279	-0,127
233,669	53,708	-0,172	-0,114
234,684	98,881	-0,171	-0,137
235,699	800,000	-0,085	-0,195
236,713	-48,945	-0,122	0,040
237,728	800,000	-0,023	-0,062
238,742	-22,775	-0,179	-0,074
239,757	-107,703	-0,241	-0,036
240,772	36,380	-0,159	-0,097
241,786	217,645	-0,093	-0,103
242,801	122,537	-0,114	-0,099
243,815	87,807	-0,187	-0,144
244,830	329,113	-0,104	-0,139
245,844	-80,573	-0,113	-0,026
246,859	74,300	-0,269	-0,195
247,874	401,559	-0,162	-0,236
248,888	800,000	-0,093	-0,206
249,903	429,719	-0,103	-0,154
250,917	-200,000	-0,016	-0,119
251,932	800,000	-0,053	-0,132
252,947	535,239	-0,099	-0,164
253,961	-0,971	-0,237	-0,115
254,976	143,351	-0,192	-0,177
255,990	37,842	-0,258	-0,158
257,005	36,922	-0,170	-0,104
258,020	-2,352	-0,158	-0,076
259,034	33,959	-0,102	-0,061
260,049	93,388	-0,255	-0,200
261,063	-89,654	-0,269	-0,054
262,078	17,969	-0,195	-0,107
263,093	66,504	-0,241	-0,169
264,107	20,791	-0,049	-0,027
265,122	7,817	-0,176	-0,091
266,136	-86,648	-0,096	0,020
267,151	-200,000	-0,132	0,000
268,166	67,885	-0,058	-0,041
269,180	-163,781	-0,144	0,005
270,195	800,000	-0,059	-0,114
271,209	-106,081	-0,073	-0,011
272,224	538,087	-0,059	-0,098
273,239	178,099	-0,090	-0,090
274,253	45,678	-0,183	-0,117
275,268	-7,845	-0,214	-0,099
276,282	-147,328	-0,167	-0,010
277,297	102,995	-0,187	-0,151
278,312	219,367	-0,033	-0,037
279,326	-84,749	-0,201	-0,043
280,341	629,731	-0,030	-0,053
281,355	27,839	-0,131	0,076
282,370	-43,708	-0,125	-0,043
283,384	800,000	-0,075	-0,161
284,399	69,010	-0,149	-0,105
285,414	-200,000	0,018	-0,138
286,428	-19,028	-0,214	-0,091
287,443	-36,576	-0,105	-0,039
288,457	31,267	-0,115	-0,068
289,472	-76,545	-0,179	0,043
290,487	121,451	-0,101	-0,087
291,501	-200,000	-0,048	-0,259
292,516	37,246	-0,143	-0,087
293,530	-54,145	-0,160	-0,050
294,545	164,591	-0,040	-0,039
295,560	22,938	-0,148	-0,083
296,574	-18,144	-0,082	-0,035
297,589	89,383	-0,183	-0,141
298,603	-6,482	-0,197	-0,092
299,618	-51,788	-0,102	-0,033
300,633	167,167	-0,125	-0,123
301,647	-173,574	-0,215	0,004
302,662	-200,000	-0,013	-0,056
303,676	-123,279	-0,149	-0,016
304,691	-107,917	-0,255	-0,038
305,706	32,797	-0,159	-0,095
306,720	73,634	-0,287	-0,206
307,735	413,525	-0,128	-0,188
308,749	2,069	-0,087	0,043
309,764	-121,106	-0,114	0,013
310,779	-51,948	-0,160	-0,051
311,793	-87,269	-0,171	-0,035
312,808	175,780	-0,164	-0,164
313,822	693,325	-0,060	-0,108
314,837	-14,692	-0,160	0,070
315,852	345,099	-0,123	-0,166
316,866	-200,000	-0,025	-0,111
317,881	399,592	-0,021	0,030
318,895	-93,170	-0,228	-0,043
319,910	-12,988	-0,201	-0,090
320,925	800,000	-0,071	-0,182
321,939	-128,480	-0,202	0,019
322,954	-50,085	-0,213	-0,069
323,968	-148,293	-0,139	-0,008
324,983	-60,373	-0,145	-0,042
325,997	800,000	-0,064	-0,188
327,012	585,262	-0,067	-0,114
328,027	95,540	-0,129	-0,101
329,041	-59,160	-0,125	-0,037
330,056	-4,321	-0,170	-0,081
331,070	40,776	-0,174	-0,108
332,085	-110,789	-0,073	0,010
333,100	-41,924	-0,152	-0,053
334,114	60,039	-0,151	-0,102
335,129	102,075	-0,179	-0,143
336,143	168,306	-0,108	-0,106
337,158	761,499	-0,041	-0,076
338,173	48,491	-0,111	-0,071
339,187	-166,338	-0,141	0,004
340,202	-122,769	-0,184	-0,020
341,216	-10,019	-0,186	-0,085
342,231	74,069	-0,222	-0,160
343,246	299,367	-0,102	-0,129
344,260	-140,734	-0,217	0,015
345,275	800,000	-0,047	-0,122
346,289	-53,849	-0,134	-0,042
347,304	-133,897	-0,241	-0,020
348,319	-78,970	-0,212	-0,049
349,333	800,000	-0,104	-0,223
350,348	-61,269	0,025	0,007
351,362	-195,278	-0,219	-0,001
352,377	129,098	-0,096	-0,084
353,392	-200,000	-0,030	-0,112
354,406	116,052	-0,052	0,043
355,421	209,351	1315,312	1413,148
356,435	161,123	1476,094	1413,626
