DTS Sentinel unit serial number:	SN410029Multiplexer serial number:	ORYXHardware model number:	OX2-SRSoftware version number:	ORYX F/W v4,00 Oryx Data Collector v3.7.2.0data status	okinstallation	B3 Nyhavnadifferential loss correction	single-endedforward channel	channel 1reverse channel	N/Adate	2023/11/28time	20:02:30forward acquisition time	300,00reverse acquisition time	0,00gamma	499,1914k internal	0,3212k external	0,3212temperature offset calibration	1,0000default loss term (dB/km)	0,3820temperature slope calibration	1,0000multiplexer offset coefficient	1,0000multiplexer slope coefficient	1,0000fibre end	0,00T internal ref (°C)	7,81T ext. ref 1 (°C)	-6,81T ext. ref 2 (°C)	-6,94length (m)	temperature (°C)	Stokes	anti-Stokes-744,400	504,018	-0,131	-0,221
-743,385	-200,000	-0,024	0,160
-742,371	-200,000	-0,063	-0,289
-741,356	-200,000	0,072	0,246
-740,342	306,148	-0,195	-0,264
-739,327	443,924	-0,100	0,160
-738,312	123,635	-0,227	-0,207
-737,298	-200,000	0,056	0,243
-736,283	228,245	-0,190	-0,224
-735,269	-200,000	-0,027	0,289
-734,254	404,779	-0,189	-0,289
-733,239	40,430	-0,191	0,125
-732,225	-200,000	-0,023	-0,182
-731,210	-109,060	0,129	-0,020
-730,196	-125,521	-0,053	0,006
-729,181	-166,824	0,074	-0,002
-728,167	642,771	-0,013	-0,023
-727,152	800,000	0,050	-0,120
-726,137	-200,000	0,009	-0,048
-725,123	-200,000	0,002	0,028
-724,108	-66,112	-0,101	0,029
-723,094	54,261	-0,177	-0,123
-722,079	12,325	-0,118	0,066
-721,064	7,829	-0,033	-0,018
-720,050	-95,183	-0,044	-0,008
-719,035	263,822	0,073	-0,092
-718,021	407,104	-0,077	-0,117
-717,006	-89,357	-0,197	-0,042
-715,991	-56,184	-0,134	0,043
-714,977	-29,361	-0,063	-0,026
-713,962	-200,000	-0,019	-0,077
-712,948	-87,016	-0,078	0,017
-711,933	597,446	0,058	0,105
-710,918	-56,117	-0,037	0,012
-709,904	82,208	-0,105	-0,082
-708,889	161,710	-0,010	-0,011
-707,875	-200,000	-0,006	-0,081
-706,860	166,092	-0,056	-0,058
-705,845	144,983	-0,071	-0,069
-704,831	193,817	0,040	-0,043
-703,816	351,236	-0,023	-0,033
-702,802	-96,958	-0,094	0,018
-701,787	500,168	-0,051	-0,086
-700,772	-54,557	-0,082	-0,027
-699,758	-178,268	0,130	-0,002
-698,743	39,696	0,060	0,039
-697,729	13,380	-0,115	0,064
-696,714	764,331	-0,038	0,076
-695,699	-200,000	-0,005	-0,093
-694,685	338,492	-0,051	-0,072
-693,670	-64,487	0,016	-0,005
-692,656	-200,000	-0,004	0,113
-691,641	-200,000	-0,036	-0,129
-690,627	-163,609	-0,145	-0,005
-689,612	15,850	0,057	0,032
-688,597	42,771	-0,041	-0,027
-687,583	-200,000	-0,011	-0,052
-686,568	15,775	-0,079	0,045
-685,554	-62,147	-0,049	-0,015
-684,539	-200,000	0,016	0,072
-683,524	445,777	0,058	0,093
-682,510	-200,000	-0,007	0,175
-681,495	-60,248	-0,030	0,009
-680,481	-156,472	0,046	0,002
-679,466	-200,000	0,019	-0,179
-678,451	-60,263	-0,106	-0,033
-677,437	588,384	-0,077	-0,137
-676,422	-139,261	0,065	0,005
-675,408	-96,211	-0,009	-0,002
-674,393	772,821	-0,061	0,120
-673,378	-200,000	0,027	-0,139
-672,364	-73,526	-0,102	0,027
-671,349	-200,000	-0,002	-0,019
-670,335	55,623	0,058	0,041
-669,320	-23,143	-0,042	0,018
-668,305	57,337	0,050	0,035
-667,291	-98,322	0,081	0,015
-666,276	-200,000	-0,016	-0,174
-665,262	133,612	-0,106	-0,099
-664,247	-200,000	0,002	-0,022
-663,232	-200,000	-0,008	0,063
-662,218	-84,369	0,143	-0,032
-661,203	-200,000	-0,002	-0,071
-660,189	-32,867	0,042	-0,017
-659,174	55,423	-0,089	0,062
-658,159	128,938	-0,090	0,083
-657,145	56,547	0,078	-0,055
-656,130	-200,000	0,018	0,247
-655,116	318,567	0,022	-0,030
-654,101	97,959	0,077	-0,064
-653,086	-133,768	-0,020	0,002
-652,072	-200,000	0,027	-0,168
-651,057	484,477	-0,097	-0,161
-650,043	-88,596	-0,033	-0,007
-649,028	-200,000	0,001	-0,103
-648,014	313,144	-0,064	0,087
-646,999	-64,801	0,064	0,018
-645,984	662,882	0,090	0,169
-644,970	-170,001	-0,142	0,004
-643,955	800,000	-0,059	-0,126
-642,941	356,589	0,086	-0,124
-641,926	-200,000	-0,021	-0,079
-640,911	322,733	-0,082	0,112
-639,897	-43,774	0,111	-0,040
-638,882	-93,597	-0,206	-0,041
-637,868	-73,298	0,057	0,015
-636,853	-200,000	-0,009	0,033
-635,838	777,138	0,005	-0,009
-634,824	800,000	0,033	0,070
-633,809	-92,346	0,123	-0,025
-632,795	-19,671	0,085	0,038
-631,780	23,815	0,094	-0,056
-630,765	514,614	0,015	0,025
-629,751	-184,425	-0,217	0,002
-628,736	-125,011	-0,183	0,020
-627,722	117,268	0,095	-0,084
-626,707	-200,000	0,002	-0,020
-625,692	29,088	0,053	0,032
-624,678	-200,000	-0,003	-0,110
-623,663	-78,591	0,053	0,013
-622,649	219,022	0,062	-0,071
-621,634	49,808	-0,129	-0,087
-620,619	-69,796	0,052	-0,014
-619,605	73,227	-0,052	-0,040
-618,590	-200,000	-0,004	-0,094
-617,576	-70,074	-0,073	-0,020
-616,561	133,936	-0,011	-0,011
-615,546	-200,000	0,052	-0,220
-614,532	800,000	-0,004	-0,011
-613,517	92,139	0,098	0,080
-612,503	-200,000	0,003	0,087
-611,488	484,888	-0,019	-0,032
-610,474	-200,000	0,036	-0,123
-609,459	-104,625	0,114	0,019
-608,444	212,983	-0,046	-0,053
-607,430	-200,000	0,008	0,027
-606,415	-176,414	0,024	0,000
-605,401	800,000	-0,079	0,171
-604,386	-200,000	0,013	0,063
-603,371	11,675	-0,053	-0,029
-602,357	36,985	0,102	0,065
-601,342	-200,000	-0,018	-0,226
-600,328	800,000	-0,049	-0,111
-599,313	488,197	-0,022	-0,036
-598,298	773,080	0,030	0,060
-597,284	-46,262	-0,039	0,014
-596,269	682,347	-0,091	-0,171
-595,255	418,203	0,051	-0,079
-594,240	-9,565	-0,081	-0,039
-593,225	800,000	0,054	-0,137
-592,211	-200,000	-0,006	-0,075
-591,196	-200,000	-0,005	0,143
-590,182	-200,000	0,007	-0,024
-589,167	-62,304	-0,085	0,025
-588,152	800,000	0,013	0,036
-587,138	56,265	-0,143	-0,100
-586,123	-54,703	0,114	0,037
-585,109	70,489	-0,031	-0,023
-584,094	-200,000	0,002	0,027
-583,079	-200,000	-0,027	0,129
-582,065	-200,000	0,001	-0,046
-581,050	-200,000	0,009	0,072
-580,036	158,573	-0,033	0,033
-579,021	-200,000	-0,003	0,043
-578,006	-87,268	-0,071	0,015
-576,992	-3,879	0,061	0,030
-575,977	237,705	0,057	0,068
-574,963	131,895	-0,033	0,031
-573,948	-89,957	-0,099	0,021
-572,934	108,184	-0,078	0,067
-571,919	-200,000	0,000	0,037
-570,904	-9,305	-0,022	0,011
-569,890	29,162	-0,130	-0,079
-568,875	-154,067	0,153	0,007
-567,861	116,511	-0,092	0,081
-566,846	-87,419	-0,035	0,008
-565,831	-125,009	0,091	-0,010
-564,817	800,000	-0,073	-0,167
-563,802	-151,525	-0,080	0,004
-562,788	217,635	0,108	-0,125
-561,773	-200,000	0,008	-0,114
-560,758	800,000	0,045	0,102
-559,744	-184,732	0,105	-0,001
-558,729	40,136	-0,053	0,034
-557,715	70,487	-0,133	0,099
-556,700	175,263	-0,068	-0,071
-555,685	159,961	-0,072	0,072
-554,671	339,153	-0,052	-0,073
-553,656	-116,091	0,021	-0,003
-552,642	39,004	0,070	0,045
-551,627	109,955	-0,117	0,101
-550,612	40,271	-0,156	0,101
-549,598	246,950	0,027	-0,033
-548,583	-200,000	0,023	0,099
-547,569	53,919	0,088	-0,061
-546,554	45,136	-0,061	-0,040
-545,539	-125,510	0,106	-0,011
-544,525	196,258	0,060	-0,066
-543,510	-200,000	0,005	0,055
-542,496	133,707	-0,124	-0,116
-541,481	-128,900	-0,052	0,005
-540,466	800,000	0,020	-0,055
-539,452	102,867	0,074	0,062
-538,437	33,040	0,040	0,025
-537,423	137,834	-0,047	-0,044
-536,408	-147,801	-0,066	-0,004
-535,393	-0,142	-0,056	0,028
-534,379	-200,000	-0,023	-0,079
-533,364	-98,598	0,156	0,028
-532,350	-34,876	-0,085	0,033
-531,335	-200,000	0,009	0,138
-530,321	-52,208	-0,104	-0,035
-529,306	-200,000	0,008	0,141
-528,291	-200,000	0,012	-0,117
-527,277	8,574	-0,037	0,020
-526,262	-6,320	-0,078	0,038
-525,248	286,866	-0,065	-0,084
-524,233	-200,000	0,003	0,146
-523,218	-90,523	-0,123	0,025
-522,204	125,599	-0,105	-0,096
-521,189	-200,000	0,024	-0,125
-520,175	216,297	-0,026	-0,029
-519,160	-200,000	0,006	-0,030
-518,145	190,931	0,028	-0,031
-517,131	275,859	-0,090	0,114
-516,116	86,352	0,077	-0,061
-515,102	94,158	0,033	-0,027
-514,087	-200,000	-0,006	-0,020
-513,072	-156,226	-0,102	0,005
-512,058	-131,702	-0,079	-0,007
-511,043	-12,709	0,050	0,023
-510,029	-200,000	0,009	0,110
-509,014	-168,495	-0,060	0,002
-507,999	184,201	-0,016	0,017
-506,985	800,000	0,021	0,057
-505,970	144,584	0,017	0,016
-504,956	-200,000	-0,022	-0,075
-503,941	800,000	-0,068	-0,151
-502,926	800,000	0,048	-0,099
-501,912	687,649	0,052	-0,097
-500,897	-200,000	0,021	0,068
-499,883	356,965	0,090	0,129
-498,868	-200,000	-0,011	0,047
-497,853	-193,295	-0,072	0,000
-496,839	-99,093	-0,036	-0,006
-495,824	68,077	0,108	0,080
-494,810	147,243	0,033	-0,032
-493,795	568,212	0,037	-0,064
-492,781	-200,000	-0,015	-0,148
-491,766	-200,000	-0,021	0,138
-490,751	-200,000	-0,009	0,098
-489,737	-200,000	-0,015	0,101
-488,722	144,351	-0,109	0,104
-487,708	-200,000	0,023	0,142
-486,693	186,111	0,057	0,061
-485,678	79,606	-0,086	-0,066
-484,664	-109,573	-0,126	0,019
-483,649	-36,500	0,054	0,021
-482,635	-200,000	0,013	-0,107
-481,620	-45,695	0,064	-0,022
-480,605	383,391	0,101	0,150
-479,591	579,522	0,052	0,092
-478,576	-9,195	0,078	0,037
-477,562	-58,256	-0,061	-0,019
-476,547	262,243	-0,067	-0,084
-475,532	-65,520	0,025	0,007
-474,518	-18,280	0,170	-0,076
-473,503	12,332	0,128	0,070
-472,489	572,150	-0,029	-0,050
-471,474	-200,000	0,017	-0,123
-470,459	-24,805	0,048	-0,020
-469,445	-200,000	-0,028	0,118
-468,430	-200,000	-0,002	-0,155
-467,416	70,872	0,075	0,056
-466,401	-200,000	-0,028	-0,169
-465,386	144,610	-0,071	0,068
-464,372	-52,180	0,051	0,017
-463,357	40,750	-0,016	-0,010
-462,343	118,093	-0,038	-0,034
-461,328	158,247	0,052	-0,052
-460,313	652,203	0,020	0,037
-459,299	-200,000	0,014	0,087
-458,284	800,000	0,021	0,062
-457,270	38,350	0,121	0,077
-456,255	-4,158	-0,119	0,059
-455,241	-131,235	-0,066	-0,006
-454,226	561,305	-0,094	-0,164
-453,211	-200,000	0,006	-0,021
-452,197	-200,000	-0,095	0,000
-451,182	-200,000	-0,010	-0,080
-450,168	45,747	-0,053	-0,035
-449,153	-77,607	-0,090	0,022
-448,138	-200,000	-0,128	0,000
-447,124	40,963	-0,078	0,051
-446,109	274,792	0,054	-0,068
-445,095	-200,000	-0,003	0,113
-444,080	-200,000	-0,009	0,240
-443,065	339,430	-0,055	0,077
-442,051	-94,847	-0,064	0,012
-441,036	-116,285	-0,067	-0,009
-440,022	-29,103	-0,120	0,049
-439,007	-43,296	0,134	-0,048
-437,992	-73,841	0,062	0,016
-436,978	6,812	-0,055	-0,029
-435,963	83,446	-0,068	0,053
-434,949	41,317	0,030	-0,019
-433,934	800,000	-0,020	-0,040
-432,919	53,744	-0,027	0,019
-431,905	626,636	-0,035	-0,063
-430,890	-130,088	-0,016	-0,002
-429,876	-79,540	-0,053	0,013
-428,861	85,667	0,119	0,094
-427,846	800,000	-0,043	-0,105
-426,832	523,509	-0,085	-0,144
-425,817	365,140	0,105	-0,152
-424,803	41,094	-0,064	0,042
-423,788	-56,357	0,063	-0,020
-422,773	65,611	0,044	0,032
-421,759	19,725	-0,066	-0,038
-420,744	163,639	0,080	0,080
-419,730	247,116	0,058	-0,071
-418,715	-110,845	-0,088	-0,013
-417,701	194,269	0,029	-0,031
-416,686	-105,538	0,067	0,011
-415,671	309,328	-0,046	0,061
-414,657	-101,371	0,209	0,036
-413,642	-200,000	0,005	-0,033
-412,628	187,500	0,075	-0,080
-411,613	39,862	-0,115	-0,074
-410,598	-8,488	-0,022	0,010
-409,584	-200,000	0,101	0,000
-408,569	-132,217	-0,072	0,007
-407,555	-200,000	0,009	0,082
-406,540	-40,383	0,041	-0,015
-405,525	61,486	-0,129	-0,092
-404,511	2,832	0,014	-0,007
-403,496	-200,000	0,066	-0,000
-402,482	356,289	-0,083	0,119
-401,467	-60,674	0,036	0,011
-400,452	54,775	0,078	-0,053
-399,438	-39,583	0,079	0,029
-398,423	120,914	-0,037	-0,033
-397,409	800,000	-0,056	-0,124
-396,394	-200,000	0,008	0,034
-395,379	-45,347	-0,074	0,026
-394,365	800,000	0,030	0,070
-393,350	-68,396	-0,056	-0,015
-392,336	277,308	0,056	-0,071
-391,321	-128,899	0,057	0,006
-390,306	800,000	-0,022	-0,056
-389,292	372,383	0,022	0,033
-388,277	-200,000	0,007	0,055
-387,263	800,000	-0,044	0,121
-386,248	453,945	-0,072	0,115
-385,233	174,886	0,045	0,047
-384,219	-84,841	-0,054	0,012
-383,204	180,338	-0,042	-0,044
-382,190	237,147	0,043	-0,051
-381,175	208,164	0,071	0,080
-380,160	-200,000	-0,004	0,036
-379,146	-98,540	0,131	-0,024
-378,131	180,842	-0,067	-0,070
-377,117	-200,000	0,004	0,035
-376,102	115,863	0,036	-0,031
-375,088	49,139	-0,092	-0,061
-374,073	156,379	0,115	0,114
-373,058	22,803	0,097	-0,057
-372,044	-42,471	0,079	-0,029
-371,029	121,174	0,096	0,085
-370,015	9,721	0,032	0,017
-369,000	227,173	-0,135	-0,157
-367,985	800,000	0,028	-0,063
-366,971	-28,534	-0,112	0,046
-365,956	216,051	0,092	0,104
-364,942	-200,000	0,013	-0,110
-363,927	17,829	-0,137	-0,078
-362,912	800,000	-0,028	0,086
-361,898	174,678	-0,043	0,044
-360,883	-200,000	-0,010	-0,105
-359,869	-92,628	0,065	-0,013
-358,854	-31,101	0,095	-0,038
-357,839	234,582	0,090	0,106
-356,825	-168,750	-0,131	-0,003
-355,810	-200,000	-0,000	0,013
-354,796	506,090	-0,072	-0,120
-353,781	-101,217	-0,079	-0,014
-352,766	-200,000	0,026	-0,133
-351,752	373,037	0,059	0,087
-350,737	-200,000	-0,020	0,125
-349,723	-56,994	-0,061	-0,019
-348,708	112,414	-0,063	-0,055
-347,693	-200,000	-0,027	-0,149
-346,679	-89,345	0,121	0,025
-345,664	671,680	-0,067	0,124
-344,650	-200,000	0,004	0,049
-343,635	533,897	0,023	-0,040
-342,620	98,433	0,060	-0,049
-341,606	195,865	-0,082	0,089
-340,591	87,396	-0,126	-0,099
-339,577	95,010	-0,076	-0,062
-338,562	-200,000	0,014	-0,060
-337,548	-19,731	-0,030	-0,013
-336,533	200,889	0,121	0,133
-335,518	171,556	0,016	0,016
-334,504	800,000	0,031	0,092
-333,489	800,000	0,029	-0,069
-332,475	142,575	0,062	0,059
-331,460	309,835	-0,077	0,103
-330,445	-15,940	0,060	0,027
-329,431	-200,000	0,015	0,071
-328,416	-200,000	0,029	0,125
-327,402	-200,000	0,050	0,210
-326,387	317,111	0,044	0,059
-325,372	416,825	-0,040	-0,061
-324,358	50,269	-0,043	-0,029
-323,343	189,586	0,075	0,080
-322,329	-59,235	0,051	0,016
-321,314	-200,000	0,207	-0,000
-320,299	427,824	0,044	-0,067
-319,285	-44,075	-0,113	-0,040
-318,270	-200,000	-0,036	-0,115
-317,256	-91,831	0,208	-0,042
-316,241	14,723	-0,156	0,087
-315,226	800,000	0,047	0,118
-314,212	273,097	-0,012	-0,015
-313,197	-32,209	0,071	-0,028
-312,183	-200,000	0,005	-0,177
-311,168	22,902	0,071	-0,041
-310,153	441,918	-0,092	0,144
-309,139	-12,613	-0,080	-0,037
-308,124	670,048	0,014	0,026
-307,110	35,548	0,075	0,047
-306,095	800,000	0,070	0,169
-305,080	-200,000	-0,029	0,160
-304,066	-53,319	0,030	-0,010
-303,051	800,000	0,019	-0,060
-302,037	330,780	0,031	-0,042
-301,022	71,345	-0,096	-0,071
-300,008	219,207	0,042	-0,048
-298,993	86,539	-0,097	-0,076
-297,978	800,000	-0,021	-0,054
-296,964	161,850	0,082	-0,082
-295,949	-200,000	-0,012	-0,060
-294,935	-73,022	-0,109	0,028
-293,920	50,483	0,042	-0,028
-292,905	29,244	0,046	0,028
-291,891	620,481	0,083	0,149
-290,876	-200,000	-0,010	-0,080
-289,862	135,230	-0,063	-0,058
-288,847	459,847	0,030	-0,047
-287,832	-200,000	0,004	-0,074
-286,818	-38,029	-0,119	-0,045
-285,803	-153,168	0,161	0,008
-284,789	75,796	0,088	-0,066
-283,774	800,000	-0,038	0,085
-282,759	431,526	-0,038	-0,058
-281,745	-80,664	-0,146	-0,034
-280,730	-200,000	0,016	-0,113
-279,716	800,000	0,013	-0,040
-278,701	800,000	0,033	-0,085
-277,686	-136,829	0,125	0,010
-276,672	-99,836	-0,044	0,008
-275,657	-200,000	0,021	-0,067
-274,643	-100,771	-0,107	-0,019
-273,628	-200,000	0,018	0,060
-272,613	437,479	0,038	-0,059
-271,599	184,118	0,056	0,059
-270,584	800,000	-0,005	-0,011
-269,570	-55,058	0,051	0,016
-268,555	-68,289	0,093	0,025
-267,540	-52,217	0,053	0,017
-266,526	-123,651	-0,081	-0,009
-265,511	-120,870	-0,060	0,007
-264,497	103,621	-0,008	-0,007
-263,482	111,116	0,035	0,030
-262,467	-200,000	-0,013	0,090
-261,453	800,000	-0,049	0,130
-260,438	182,596	-0,108	-0,114
-259,424	93,638	-0,102	-0,082
-258,409	428,725	-0,122	-0,188
-257,395	800,000	-0,039	-0,110
-256,380	-56,505	0,113	0,035
-255,365	187,832	0,055	0,058
-254,351	77,861	0,029	-0,022
-253,336	-28,052	0,101	-0,041
-252,322	291,505	0,035	-0,046
-251,307	800,000	-0,041	-0,110
-250,292	-200,000	0,010	-0,040
-249,278	30,054	0,100	0,061
-248,263	200,456	0,072	0,079
-247,249	142,091	0,070	0,066
-246,234	-200,000	0,014	0,124
-245,219	-200,000	0,015	-0,071
-244,205	-75,808	0,144	-0,036
-243,190	-6,175	-0,182	0,088
-242,176	-63,454	0,135	0,039
-241,161	800,000	-0,032	0,085
-240,146	-59,768	0,024	-0,007
-239,132	-93,209	0,055	0,011
-238,117	-96,512	-0,207	0,038
-237,103	-87,871	0,119	0,025
-236,088	358,000	-0,066	-0,094
-235,073	687,234	0,025	0,047
-234,059	-200,000	-0,011	0,143
-233,044	36,844	-0,045	0,028
-232,030	-53,629	0,053	-0,017
-231,015	17,524	-0,076	-0,043
-230,000	-9,633	-0,089	-0,042
-228,986	800,000	0,034	-0,105
-227,971	-49,041	0,102	-0,035
-226,957	119,412	0,025	0,022
-225,942	258,874	-0,027	-0,033
-224,927	-200,000	-0,003	0,019
-223,913	-200,000	-0,126	0,000
-222,898	270,225	0,078	-0,097
-221,884	221,757	0,012	-0,014
-220,869	180,586	0,132	0,137
-219,855	596,258	-0,028	0,049
-218,840	65,991	0,160	-0,115
-217,825	24,429	-0,020	-0,012
-216,811	421,017	-0,025	0,038
-215,796	-18,437	-0,143	-0,063
-214,782	84,277	0,108	-0,084
-213,767	63,883	-0,035	0,025
-212,752	800,000	0,004	0,011
-211,738	-0,910	0,030	-0,015
-210,723	-65,484	-0,125	-0,035
-209,709	-81,650	-0,050	-0,012
-208,694	800,000	-0,039	0,081
-207,679	145,393	-0,041	0,039
-206,665	-5,231	-0,094	-0,046
-205,650	316,398	0,099	-0,133
-204,636	-200,000	0,005	-0,037
-203,621	56,230	0,149	0,102
-202,606	13,299	-0,086	-0,047
-201,592	205,603	-0,052	-0,058
-200,577	-108,259	0,051	-0,008
-199,563	-103,079	-0,089	0,015
-198,548	472,695	-0,054	0,086
-197,533	800,000	0,058	0,155
-196,519	-200,000	0,014	0,055
-195,504	69,753	0,081	0,060
-194,490	800,000	-0,067	0,169
-193,475	752,400	-0,085	-0,164
-192,460	-200,000	0,011	-0,148
-191,446	-200,000	-0,005	0,034
-190,431	800,000	-0,042	0,114
-189,417	-95,574	0,089	0,017
-188,402	286,372	0,013	-0,016
-187,387	-11,114	-0,120	-0,056
-186,373	800,000	0,018	0,039
-185,358	-89,844	-0,107	0,022
-184,344	-200,000	0,030	0,095
-183,329	-200,000	0,003	-0,023
-182,315	29,792	0,129	0,078
-181,300	-200,000	-0,001	-0,029
-180,285	-146,972	-0,060	0,004
-179,271	282,718	0,025	0,032
-178,256	448,047	0,049	0,076
-177,242	-76,386	0,129	-0,032
-176,227	-155,499	0,142	-0,006
-175,212	120,026	-0,049	0,043
-174,198	-127,205	-0,081	-0,008
-173,183	-66,907	0,163	-0,045
-172,169	800,000	-0,041	0,091
-171,154	-6,032	0,049	-0,024
-170,139	-151,452	0,169	0,009
-169,125	136,795	0,078	0,072
-168,110	800,000	0,054	-0,127
-167,096	-114,085	-0,081	-0,011
-166,081	-200,000	-0,017	-0,081
-165,066	800,000	0,009	-0,019
-164,052	190,093	0,058	0,062
-163,037	538,154	-0,044	0,074
-162,023	800,000	0,074	0,206
-161,008	99,699	0,067	0,055
-159,993	800,000	0,029	0,068
-158,979	129,553	0,050	-0,045
-157,964	-140,729	0,069	-0,005
-156,950	800,000	-0,005	0,010
-155,935	-200,000	-0,017	-0,115
-154,920	-200,000	0,019	0,104
-153,906	800,000	0,068	0,153
-152,891	-43,492	-0,074	-0,026
-151,877	5,958	-0,078	-0,041
-150,862	-41,282	-0,137	-0,050
-149,847	-117,172	0,092	0,012
-148,833	138,296	-0,041	-0,038
-147,818	322,415	0,087	-0,118
-146,804	-104,792	0,043	0,007
-145,789	-200,000	-0,000	0,167
-144,775	-200,000	-0,019	-0,071
-143,760	-200,000	-0,062	-0,226
-142,745	119,093	0,019	0,017
-141,731	33,328	-0,084	-0,052
-140,716	626,853	0,059	0,106
-139,702	-200,000	-0,006	0,033
-138,687	-133,900	0,065	0,006
-137,672	-200,000	-0,002	-0,036
-136,658	800,000	-0,015	-0,033
-135,643	-133,585	-0,115	0,010
-134,629	12,408	-0,108	-0,059
-133,614	-200,000	-0,018	-0,057
-132,599	67,061	0,057	0,041
-131,585	285,017	-0,035	-0,044
-130,570	-193,520	-0,109	-0,001
-129,556	-0,688	-0,210	0,105
-128,541	-200,000	0,013	-0,079
-127,526	-54,901	0,047	0,015
-126,512	27,091	0,152	0,090
-125,497	800,000	0,033	0,082
-124,483	-129,150	0,169	-0,017
-123,468	-131,758	0,074	-0,007
-122,453	270,104	-0,039	0,049
-121,439	-200,000	-0,013	-0,133
-120,424	-200,000	0,014	-0,055
-119,410	-114,876	0,154	-0,021
-118,395	-47,020	0,046	0,016
-117,380	-200,000	-0,006	0,062
-116,366	-37,121	0,100	-0,038
-115,351	-200,000	0,011	0,057
-114,337	-200,000	-0,010	-0,057
-113,322	-42,435	-0,023	-0,008
-112,307	0,394	0,044	0,022
-111,293	-200,000	-0,055	0,000
-110,278	-166,114	0,110	-0,003
-109,264	599,804	-0,094	0,165
-108,249	491,365	0,068	-0,110
-107,234	-78,776	-0,170	-0,041
-106,220	-79,235	-0,044	-0,010
-105,205	-124,625	0,114	-0,012
-104,191	90,488	0,100	0,079
-103,176	52,941	0,042	0,029
-102,162	151,791	0,028	0,027
-101,147	-200,000	-0,020	0,184
-100,132	429,393	-0,073	-0,112
-99,118	-27,847	-0,028	-0,011
-98,103	-57,412	-0,050	-0,016
-97,089	800,000	-0,038	0,087
-96,074	-43,915	0,117	0,041
-95,059	322,395	-0,040	0,053
-94,045	-37,684	-0,084	0,031
-93,030	-11,637	-0,177	-0,082
-92,016	80,178	0,073	-0,056
-91,001	33,337	-0,119	0,073
-89,986	-46,459	0,092	-0,032
-88,972	441,494	-0,088	0,137
-87,957	371,985	-0,011	0,016
-86,943	-200,000	-0,034	-0,129
-85,928	-200,000	-0,009	-0,154
-84,913	270,914	-0,055	0,068
-83,899	800,000	0,003	0,008
-82,884	-49,114	0,085	0,029
-81,870	608,408	0,071	0,125
-80,855	214,366	0,040	-0,045
-79,840	576,177	0,030	0,052
-78,826	800,000	-0,028	-0,058
-77,811	800,000	-0,032	0,075
-76,797	-13,238	0,053	-0,024
-75,782	800,000	0,011	-0,029
-74,767	-200,000	0,001	-0,018
-73,753	-57,765	0,115	0,035
-72,738	94,051	-0,003	-0,002
-71,724	217,008	0,058	-0,065
-70,709	31,821	-0,169	-0,103
-69,694	-123,317	0,186	0,021
-68,680	88,416	-0,094	0,073
-67,665	-200,000	-0,051	0,216
-66,651	-145,173	0,010	0,001
-65,636	-24,665	-0,087	0,036
-64,622	17,953	-0,043	0,024
-63,607	800,000	0,026	-0,054
-62,592	159,547	0,026	-0,026
-61,578	800,000	-0,070	-0,174
-60,563	-200,000	-0,037	-0,139
-59,549	-2,556	0,096	-0,047
-58,534	55,752	-2,244	-1,532
-57,519	601,561	-1,175	-2,069
-56,505	-200,000	-0,424	-4,325
-55,490	754,008	0,884	1,693
-54,476	800,000	5,151	11,082
-53,461	-200,000	22,202	345,783
-52,446	800,000	755,451	2285,484
-51,432	530,686	1638,981	2743,159
-50,417	67,406	1637,428	1177,416
-49,403	15,474	1514,979	836,786
-48,388	9,722	1441,154	768,468
-47,373	19,190	1434,338	809,790
-46,359	13,199	1422,683	774,990
-45,344	7,952	1418,683	748,039
-44,330	7,968	1416,660	747,018
-43,315	7,849	1415,182	745,648
-42,300	7,875	1413,148	744,671
-41,286	7,932	1411,951	744,278
-40,271	7,893	1410,877	743,499
-39,257	7,867	1409,750	742,751
-38,242	7,956	1408,509	742,488
-37,227	7,883	1407,523	741,595
-36,213	7,917	1406,222	741,041
-35,198	7,874	1405,134	740,238
-34,184	7,969	1403,815	739,955
-33,169	7,883	1402,718	738,945
-32,154	7,852	1402,039	738,417
-31,140	7,880	1400,619	737,767
-30,125	7,880	1399,490	737,145
-29,111	7,906	1398,229	736,572
-28,096	7,925	1396,960	735,961
-27,082	7,835	1395,940	734,976
-26,067	7,847	1395,002	734,512
-25,052	7,841	1393,921	733,886
-24,038	7,859	1392,857	733,380
-23,023	7,889	1391,919	732,995
-22,009	7,836	1390,792	732,126
-20,994	7,827	1389,915	731,596
-19,979	7,828	1388,915	731,043
-18,965	7,817	1387,866	730,410
-17,950	7,794	1386,853	729,743
-16,936	7,763	1386,053	729,148
-15,921	7,721	1385,323	728,544
-14,906	7,727	1383,996	727,847
-13,892	7,780	1383,354	727,721
-12,877	7,704	1382,800	727,051
-11,863	7,720	1381,683	726,509
-10,848	7,731	1380,819	726,076
-9,833	7,680	1379,942	725,353
-8,819	7,707	1378,852	724,873
-7,804	7,684	1378,075	724,333
-6,790	7,673	1377,091	723,734
-5,775	7,699	1375,951	723,227
-4,760	7,640	1375,213	722,541
-3,746	7,670	1374,332	722,186
-2,731	7,738	1373,193	721,868
-1,717	7,661	1372,560	721,155
-0,702	7,649	1370,833	720,165
0,313	11,693	1281,112	691,276
1,327	27,495	674,355	398,950
2,342	42,275	115,744	74,008
3,356	-1,410	16,469	8,164
4,371	-0,995	3,927	1,952
5,386	-24,037	1,517	0,636
6,400	800,000	0,221	0,575
7,415	35,318	-0,182	-0,112
8,429	28,602	-0,157	-0,093
9,444	-74,037	-0,147	0,037
10,459	-169,460	-0,082	0,002
11,473	125,719	-0,256	-0,228
12,488	64,525	-0,283	-0,200
13,502	-100,439	-0,239	-0,041
14,517	-9,925	-0,317	-0,148
15,531	42,089	-0,265	-0,169
16,546	82,567	-0,235	-0,180
17,561	132,589	-0,353	-0,320
18,575	469,079	-0,148	-0,234
19,590	87,293	-0,297	-0,231
20,604	-118,423	-0,232	-0,029
21,619	37,584	-0,383	-0,239
22,634	81,580	-0,463	-0,353
23,648	140,501	-0,285	-0,265
24,663	34,459	-0,484	-0,297
25,677	232,298	-0,261	-0,302
26,692	142,319	-0,358	-0,334
27,707	98,569	-0,268	-0,217
28,721	-53,429	-0,432	-0,138
29,736	38,107	-0,464	-0,290
30,750	38,940	-0,422	-0,265
31,765	34,177	-0,427	-0,261
32,780	65,533	-0,308	-0,219
33,794	16,188	-0,357	-0,197
34,809	-3,992	-0,347	-0,168
35,823	21,378	-0,331	-0,189
36,838	32,500	-0,401	-0,243
37,853	101,772	-0,289	-0,237
38,867	30,611	-0,413	-0,248
39,882	281,244	-0,292	-0,368
40,896	-69,426	-0,278	-0,075
41,911	40,606	-0,325	-0,206
42,926	133,085	-0,316	-0,287
43,940	96,281	-0,334	-0,268
44,955	60,552	-0,396	-0,275
45,969	131,812	-0,299	-0,270
46,984	7,068	-0,308	-0,161
47,999	108,763	-0,385	-0,323
49,013	-9,433	-0,293	-0,137
50,028	45,375	-0,370	-0,239
51,042	82,548	-0,423	-0,322
52,057	14,560	-0,343	-0,187
53,071	51,418	-0,292	-0,195
54,086	14,126	-0,242	-0,132
55,101	-137,671	-0,390	-0,030
56,115	218,043	-0,213	-0,239
57,130	-36,952	-0,311	-0,117
58,144	109,999	-0,370	-0,312
59,159	28,917	-0,377	-0,224
60,174	-40,384	-0,413	-0,150
61,188	24,448	-0,381	-0,220
62,203	69,391	-0,319	-0,230
63,217	23,030	-0,368	-0,211
64,232	115,992	-0,318	-0,273
65,247	310,389	-0,293	-0,386
66,261	50,763	-0,408	-0,270
67,276	136,387	-0,421	-0,385
68,290	47,954	-0,263	-0,172
69,305	140,237	-0,186	-0,172
70,320	-91,725	-0,317	-0,063
71,334	36,434	-0,232	-0,143
72,349	800,000	-0,136	-0,266
73,363	66,318	-0,468	-0,333
74,378	146,676	-0,232	-0,218
75,393	-102,400	-0,398	-0,066
76,407	111,049	-0,226	-0,190
77,422	-25,285	-0,275	-0,114
78,436	152,274	-0,128	-0,122
79,451	66,634	-0,272	-0,194
80,466	148,599	-0,228	-0,216
81,480	49,192	-0,309	-0,203
82,495	-39,749	-0,273	-0,099
83,509	-28,929	-0,291	-0,117
84,524	72,065	-0,147	-0,107
85,539	-32,129	-0,281	-0,109
86,553	-66,149	-0,247	-0,068
87,568	16,268	-0,344	-0,189
88,582	144,737	-0,293	-0,274
89,597	60,470	-0,397	-0,275
90,611	67,863	-0,222	-0,159
91,626	40,978	-0,328	-0,207
92,641	61,062	-0,300	-0,208
93,655	-82,729	-0,297	-0,067
94,670	-64,486	-0,231	-0,065
95,684	10,393	-0,284	-0,151
96,699	179,098	-0,245	-0,251
97,714	175,976	-0,219	-0,222
98,728	-20,355	-0,235	-0,101
99,743	-9,633	-0,251	-0,116
100,757	77,428	-0,204	-0,152
101,772	187,802	-0,227	-0,237
102,787	137,717	-0,188	-0,172
103,801	46,469	-0,293	-0,189
104,816	58,351	-0,190	-0,130
105,830	-9,670	-0,268	-0,124
106,845	138,300	-0,156	-0,143
107,860	-30,477	-0,195	-0,077
108,874	-22,970	-0,305	-0,128
109,889	254,493	-0,284	-0,340
110,903	70,408	-0,269	-0,194
111,918	341,981	-0,188	-0,257
112,933	-103,909	-0,203	0,033
113,947	5,359	-0,244	-0,125
114,962	344,070	-0,172	-0,237
115,976	101,936	-0,205	-0,167
116,991	88,950	-0,377	-0,292
118,006	17,548	-0,285	-0,158
119,020	-11,789	-0,197	-0,090
120,035	194,459	-0,196	-0,207
121,049	-11,469	-0,296	-0,135
122,064	-70,485	-0,245	-0,064
123,079	122,286	-0,218	-0,190
124,093	43,478	-0,354	-0,225
125,108	44,133	-0,271	-0,173
126,122	41,272	-0,367	-0,231
127,137	-22,580	-0,241	-0,101
128,151	63,185	-0,187	-0,130
129,166	365,326	-0,142	-0,200
130,181	107,141	-0,185	-0,153
131,195	59,600	-0,291	-0,200
132,210	270,163	-0,273	-0,335
133,224	404,420	-0,208	-0,307
134,239	112,597	-0,189	-0,160
135,254	165,859	-0,199	-0,196
136,268	-11,091	-0,248	-0,113
137,283	132,903	-0,226	-0,204
138,297	188,668	-0,262	-0,273
139,312	51,208	-0,257	-0,169
140,327	25,069	-0,255	-0,147
141,341	-10,415	-0,245	-0,113
142,356	95,027	-0,201	-0,159
143,370	-23,358	-0,242	-0,101
144,385	-24,984	-0,117	-0,048
145,400	-47,903	-0,399	-0,134
146,414	-50,238	-0,367	-0,120
147,429	66,697	-0,278	-0,196
148,443	112,112	-0,249	-0,210
149,458	-63,461	-0,182	-0,052
150,473	252,173	-0,170	-0,202
151,487	150,783	-0,244	-0,230
152,502	800,000	-0,126	-0,245
153,516	686,211	-0,173	-0,315
154,531	800,000	-0,128	-0,319
155,546	423,559	-0,199	-0,298
156,560	42,106	-0,322	-0,203
157,575	50,097	-0,300	-0,196
158,589	-79,280	-0,206	-0,048
159,604	148,141	-0,144	-0,136
160,619	24,440	-0,355	-0,204
161,633	-180,727	-0,218	-0,003
162,648	53,680	-0,240	-0,160
163,662	84,311	-0,190	-0,144
164,677	42,591	-0,223	-0,141
165,692	-56,738	-0,166	-0,051
166,706	53,478	-0,172	-0,114
167,721	85,361	-0,247	-0,188
168,735	238,263	-0,189	-0,219
169,750	-48,273	-0,190	-0,063
170,764	-23,529	-0,232	-0,096
171,779	287,155	-0,069	-0,087
172,794	-131,374	-0,196	-0,018
173,808	-97,758	-0,138	-0,025
174,823	51,046	-0,292	-0,192
175,837	109,342	-0,313	-0,260
176,852	43,183	-0,368	-0,233
177,867	254,658	-0,162	-0,193
178,881	127,567	-0,103	-0,091
179,896	110,200	-0,176	-0,147
180,910	92,002	-0,153	-0,119
181,925	64,480	-0,183	-0,128
182,940	50,181	-0,217	-0,142
183,954	477,263	-0,131	-0,206
184,969	-7,909	-0,265	-0,123
185,983	674,456	-0,079	-0,143
186,998	62,719	-0,327	-0,226
188,013	-200,000	-0,043	-0,230
189,027	239,914	-0,151	-0,175
190,042	61,884	-0,174	-0,120
191,056	155,836	-0,242	-0,231
192,071	624,470	-0,064	-0,113
193,086	137,806	-0,104	-0,094
194,100	23,374	-0,249	-0,142
195,115	156,758	-0,144	-0,138
196,129	74,598	-0,209	-0,152
197,144	372,784	-0,132	-0,187
198,159	262,017	-0,135	-0,163
199,173	125,480	-0,236	-0,206
200,188	29,643	-0,140	-0,082
201,202	51,180	-0,148	-0,097
202,217	14,837	-0,205	-0,111
203,232	98,561	-0,239	-0,191
204,246	-35,875	-0,257	-0,096
205,261	-69,729	-0,275	-0,072
206,275	406,787	-0,104	-0,153
207,290	42,184	-0,155	-0,097
208,304	-6,714	-0,116	-0,055
209,319	190,481	-0,177	-0,185
210,334	381,247	-0,122	-0,174
211,348	656,163	-0,150	-0,268
212,363	58,926	-0,257	-0,174
213,377	225,095	-0,138	-0,155
214,392	9,232	-0,115	-0,060
215,407	137,498	-0,151	-0,137
216,421	-200,000	-0,156	0,000
217,436	777,552	-0,113	-0,215
218,450	546,867	-0,153	-0,254
219,465	10,277	-0,251	-0,132
220,480	51,485	-0,173	-0,113
221,494	-151,390	-0,092	0,005
222,509	234,819	-0,176	-0,201
223,523	366,238	-0,185	-0,259
224,538	42,965	-0,111	-0,070
225,553	-5,131	-0,290	-0,137
226,567	13,370	-0,153	-0,082
227,582	110,086	-0,156	-0,129
228,596	800,000	-0,056	-0,161
229,611	-156,609	-0,172	0,007
230,626	-200,000	-0,009	-0,096
231,640	-24,821	-0,187	-0,077
232,655	120,804	-0,183	-0,157
233,669	22,502	-0,195	-0,110
234,684	11,132	-0,255	-0,134
235,699	188,913	-0,178	-0,185
236,713	44,314	-0,222	-0,140
237,728	-123,109	-0,308	-0,034
238,742	-59,840	-0,295	-0,087
239,757	87,610	-0,166	-0,126
240,772	-151,243	-0,221	-0,011
241,786	120,258	-0,278	-0,239
242,801	800,000	-0,098	-0,297
243,815	68,690	-0,228	-0,162
244,830	-17,327	-0,081	-0,035
245,844	-123,162	-0,253	-0,028
246,859	-94,336	-0,175	-0,033
247,874	341,287	-0,067	-0,090
248,888	800,000	-0,055	-0,119
249,903	-43,081	-0,150	-0,052
250,917	-39,298	-0,134	0,048
251,932	36,165	-0,134	-0,081
252,947	-22,626	-0,216	-0,090
253,961	332,418	-0,190	-0,253
254,976	337,056	-0,128	-0,172
255,990	59,257	-0,286	-0,194
257,005	-163,107	-0,268	-0,009
258,020	253,506	-0,135	-0,159
259,034	79,805	-0,209	-0,155
260,049	-40,826	-0,126	-0,045
261,063	12,659	-0,206	-0,110
262,078	158,977	-0,176	-0,168
263,093	177,591	-0,136	-0,136
264,107	150,431	-0,126	-0,118
265,122	-38,315	-0,178	-0,065
266,136	211,604	-0,068	0,073
267,151	-101,363	-0,143	-0,024
268,166	8,246	-0,174	-0,090
269,180	188,350	-0,118	-0,121
270,195	52,265	-0,149	-0,098
271,209	491,737	-0,113	-0,178
272,224	-43,238	-0,103	0,036
273,239	443,958	-0,035	-0,053
274,253	-99,702	-0,158	-0,027
275,268	41,777	-0,173	-0,108
276,282	800,000	-0,079	-0,164
277,297	97,014	-0,277	-0,219
278,312	104,301	-0,134	-0,108
279,326	-200,000	0,000	-0,027
280,341	77,506	-0,133	-0,097
281,355	440,545	-0,095	-0,144
282,370	22,290	-0,093	-0,052
283,384	-26,550	-0,114	-0,046
284,399	116,064	-0,309	-0,260
285,414	-200,000	-0,005	-0,128
286,428	-200,000	-0,006	-0,224
287,443	288,065	-0,190	-0,237
288,457	-200,000	-0,042	-0,146
289,472	367,171	-0,091	-0,127
290,487	128,205	-0,219	-0,192
291,501	-5,589	-0,114	-0,054
292,516	6,245	-0,108	-0,055
293,530	-47,322	-0,091	-0,030
294,545	-169,007	-0,099	0,002
295,560	-40,972	-0,090	0,032
296,574	-24,095	-0,242	-0,099
297,589	9,982	-0,175	-0,091
298,603	247,625	-0,156	-0,182
299,618	362,411	-0,135	-0,186
300,633	-25,125	-0,177	-0,072
301,647	78,799	-0,107	-0,078
302,662	307,298	0,098	-0,126
303,676	-200,000	-0,018	-0,075
304,691	152,955	-0,138	-0,130
305,706	338,058	-0,076	-0,102
306,720	294,834	-0,117	-0,147
307,735	179,055	-0,063	-0,063
308,749	396,042	-0,073	0,105
309,764	800,000	-0,010	-0,021
310,779	256,388	-0,132	-0,156
311,793	-28,505	-0,206	-0,081
312,808	1,920	-0,186	-0,092
313,822	195,943	-0,215	-0,225
314,837	-106,095	-0,091	-0,014
315,852	-65,455	-0,206	-0,056
316,866	364,032	0,087	-0,120
317,881	-40,908	-0,189	-0,067
318,895	67,581	-0,291	-0,204
319,910	800,000	-0,095	-0,245
320,925	75,776	-0,211	-0,153
321,939	-139,546	-0,172	0,012
322,954	64,670	-0,134	-0,092
323,968	-28,249	-0,116	-0,046
324,983	51,569	-0,206	-0,134
325,997	613,827	-0,142	-0,244
327,012	13,768	-0,222	-0,118
328,027	-50,893	-0,118	-0,038
329,041	-113,989	-0,086	-0,011
330,056	312,188	-0,154	-0,198
331,070	-22,146	-0,093	-0,039
332,085	-25,261	-0,091	0,037
333,100	146,576	-0,247	-0,227
334,114	243,283	-0,085	-0,098
335,129	416,950	-0,102	-0,150
336,143	676,181	0,049	-0,087
337,158	-33,825	-0,156	-0,059
338,173	33,267	-0,179	-0,106
339,187	138,431	-0,137	-0,123
340,202	403,620	-0,109	-0,158
341,216	-23,947	-0,213	-0,087
342,231	355,350	-0,127	-0,174
343,246	800,000	-0,089	-0,205
344,260	-200,000	-0,017	-0,230
345,275	-12,666	-0,184	-0,082
346,289	-114,469	-0,190	0,025
347,304	471,461	-0,173	-0,267
348,319	147,250	-0,139	-0,128
349,333	21,400	-0,131	-0,073
350,348	116,022	-0,148	-0,124
351,362	-135,117	-0,184	-0,015
352,377	753,871	-0,095	-0,177
353,392	-64,605	-0,187	-0,051
354,406	354,276	-0,089	-0,121
355,421	206,009	1306,610	1390,919
356,435	158,419	1466,297	1391,384
