DTS Sentinel unit serial number:	SN410029Multiplexer serial number:	ORYXHardware model number:	OX2-SRSoftware version number:	ORYX F/W v4,00 Oryx Data Collector v3.7.2.0data status	okinstallation	B3 Nyhavnadifferential loss correction	single-endedforward channel	channel 1reverse channel	N/Adate	2023/12/02time	06:07:30forward acquisition time	300,00reverse acquisition time	0,00gamma	499,1914k internal	0,3194k external	0,3194temperature offset calibration	1,0000default loss term (dB/km)	0,3820temperature slope calibration	1,0000multiplexer offset coefficient	1,0000multiplexer slope coefficient	1,0000fibre end	0,00T internal ref (°C)	16,06T ext. ref 1 (°C)	0,77T ext. ref 2 (°C)	0,76length (m)	temperature (°C)	Stokes	anti-Stokes-744,400	26,901	-0,179	-0,109
-743,385	800,000	0,186	0,417
-742,371	58,580	-0,258	-0,185
-741,356	-200,000	-0,035	0,388
-740,342	269,981	-0,215	-0,276
-739,327	-200,000	0,030	0,225
-738,312	25,033	-0,280	-0,169
-737,298	-200,000	0,025	0,235
-736,283	155,467	-0,284	-0,285
-735,269	-200,000	0,088	0,384
-734,254	17,435	-0,298	-0,172
-733,239	283,919	-0,110	0,145
-732,225	800,000	-0,148	-0,305
-731,210	-200,000	0,006	0,131
-730,196	-200,000	0,026	0,117
-729,181	251,801	-0,058	-0,072
-728,167	295,696	-0,019	-0,025
-727,152	12,337	-0,144	-0,081
-726,137	-116,815	-0,152	0,020
-725,123	-130,041	-0,116	0,011
-724,108	312,162	-0,095	-0,131
-723,094	28,444	-0,124	-0,076
-722,079	800,000	-0,041	-0,126
-721,064	-200,000	-0,002	-0,044
-720,050	-194,182	-0,157	-0,001
-719,035	-76,114	0,102	0,026
-718,021	408,567	-0,040	-0,063
-717,006	-48,723	-0,096	-0,033
-715,991	-200,000	-0,009	0,038
-714,977	392,811	0,084	-0,127
-713,962	-200,000	-0,007	-0,108
-712,948	431,650	0,050	-0,079
-711,933	-172,536	-0,065	0,001
-710,918	155,213	-0,111	0,111
-709,904	-71,672	-0,057	0,015
-708,889	19,925	0,064	-0,038
-707,875	655,226	0,015	-0,028
-706,860	800,000	0,051	-0,145
-705,845	420,197	-0,023	0,035
-704,831	-139,938	0,082	-0,006
-703,816	800,000	0,062	-0,141
-702,802	163,490	-0,112	0,115
-701,787	84,109	0,044	-0,035
-700,772	-51,689	-0,113	-0,038
-699,758	136,893	-0,098	-0,093
-698,743	401,942	-0,037	0,056
-697,729	754,549	0,009	0,017
-696,714	13,617	0,146	0,082
-695,699	9,034	-0,081	0,044
-694,685	568,384	-0,023	0,040
-693,670	-110,772	-0,093	-0,014
-692,656	-200,000	0,005	0,046
-691,641	-200,000	0,002	0,115
-690,627	-200,000	0,020	0,078
-689,612	-81,332	0,168	-0,040
-688,597	254,309	-0,097	0,120
-687,583	-101,108	-0,071	-0,013
-686,568	-200,000	-0,004	-0,157
-685,554	460,235	0,064	-0,105
-684,539	138,829	0,055	-0,053
-683,524	-200,000	0,007	0,030
-682,510	149,990	0,078	-0,077
-681,495	800,000	0,038	-0,082
-680,481	409,693	0,029	0,046
-679,466	800,000	0,045	-0,101
-678,451	638,583	0,039	0,072
-677,437	-49,546	-0,121	0,042
-676,422	-120,239	0,135	0,017
-675,408	-200,000	-0,001	0,182
-674,393	74,172	-0,063	0,048
-673,378	-200,000	-0,010	0,046
-672,364	-200,000	-0,004	-0,037
-671,349	51,929	-0,092	0,063
-670,335	800,000	-0,027	0,072
-669,320	255,909	0,020	-0,025
-668,305	-163,178	-0,070	0,002
-667,291	-158,925	0,014	-0,001
-666,276	-200,000	-0,012	-0,045
-665,262	519,505	-0,083	-0,142
-664,247	148,094	-0,046	-0,045
-663,232	271,382	-0,031	0,040
-662,218	3,226	-0,077	0,041
-661,203	264,516	-0,077	0,097
-660,189	-200,000	-0,030	-0,151
-659,174	396,984	-0,119	0,181
-658,159	70,416	-0,058	-0,044
-657,145	-200,000	-0,002	0,031
-656,130	-24,548	-0,087	-0,038
-655,116	-200,000	0,006	0,031
-654,101	172,347	0,059	0,062
-653,086	94,966	-0,029	0,024
-652,072	236,909	-0,036	-0,044
-651,057	-111,646	-0,060	0,009
-650,043	473,090	-0,046	0,075
-649,028	-200,000	0,000	0,061
-648,014	-18,879	-0,078	0,035
-646,999	-191,344	0,066	-0,000
-645,984	466,070	-0,043	-0,069
-644,970	800,000	-0,012	0,034
-643,955	318,364	-0,076	-0,105
-642,941	-200,000	0,000	-0,093
-641,926	51,844	0,024	0,016
-640,911	-30,641	-0,043	0,018
-639,897	359,118	-0,030	-0,044
-638,882	-118,745	0,118	0,015
-637,868	800,000	0,008	-0,021
-636,853	503,847	-0,079	-0,133
-635,838	4,014	-0,012	0,007
-634,824	-200,000	-0,051	-0,170
-633,809	-97,477	-0,069	0,013
-632,795	256,848	0,106	0,132
-631,780	322,321	-0,043	0,060
-630,765	-200,000	-0,031	0,132
-629,751	106,718	-0,050	0,043
-628,736	-200,000	0,008	-0,052
-627,722	-154,783	0,068	-0,003
-626,707	97,496	-0,060	0,050
-625,692	-139,723	-0,124	0,009
-624,678	3,624	-0,116	0,061
-623,663	13,146	-0,071	0,040
-622,649	480,388	-0,069	-0,113
-621,634	137,090	-0,139	-0,132
-620,619	800,000	0,084	-0,173
-619,605	-38,695	-0,090	-0,034
-618,590	800,000	0,067	-0,158
-617,576	72,094	-0,040	-0,031
-616,561	-82,165	0,103	0,024
-615,546	-43,955	-0,040	0,015
-614,532	-45,594	-0,143	-0,051
-613,517	558,280	-0,045	-0,079
-612,503	6,870	0,165	0,089
-611,488	444,420	0,026	-0,042
-610,474	-135,382	-0,069	0,006
-609,459	800,000	0,028	0,063
-608,444	112,342	0,041	0,036
-607,430	-18,976	-0,055	-0,024
-606,415	-30,531	0,028	-0,011
-605,401	-151,231	-0,156	0,008
-604,386	800,000	-0,050	0,131
-603,371	800,000	-0,013	0,028
-602,357	800,000	-0,030	0,080
-601,342	-124,330	0,034	0,004
-600,328	97,290	-0,085	-0,071
-599,313	-101,932	-0,080	-0,014
-598,298	317,757	-0,075	0,103
-597,284	60,957	-0,033	0,024
-596,269	683,604	0,081	0,154
-595,255	-2,966	0,091	-0,046
-594,240	316,082	-0,081	0,111
-593,225	-200,000	0,020	0,071
-592,211	800,000	-0,038	-0,105
-591,196	271,878	0,058	-0,074
-590,182	16,269	0,120	0,068
-589,167	-45,500	-0,067	0,024
-588,152	224,156	-0,029	0,034
-587,138	60,638	-0,098	-0,070
-586,123	800,000	0,062	-0,146
-585,109	-79,638	-0,100	-0,024
-584,094	286,756	0,051	0,067
-583,079	-200,000	-0,003	-0,032
-582,065	-69,013	0,047	-0,013
-581,050	800,000	-0,038	0,097
-580,036	-81,271	-0,068	0,016
-579,021	-153,321	0,105	0,005
-578,006	63,332	-0,081	-0,059
-576,992	-200,000	-0,038	-0,121
-575,977	800,000	0,081	0,173
-574,963	99,092	0,086	0,072
-573,948	708,333	0,038	-0,073
-572,934	90,022	-0,034	0,028
-571,919	-200,000	0,013	-0,100
-570,904	-125,644	-0,203	-0,022
-569,890	16,133	-0,122	-0,069
-568,875	578,510	0,025	0,044
-567,861	-200,000	0,015	-0,118
-566,846	-156,903	0,174	0,008
-565,831	83,292	0,060	0,048
-564,817	-200,000	0,010	-0,167
-563,802	-123,441	0,121	0,014
-562,788	-66,729	0,054	0,015
-561,773	800,000	0,059	-0,138
-560,758	40,713	-0,059	0,038
-559,744	257,065	0,057	-0,072
-558,729	-200,000	-0,001	-0,022
-557,715	194,192	0,093	-0,102
-556,700	-200,000	0,029	-0,129
-555,685	51,841	0,029	-0,020
-554,671	58,157	-0,100	-0,070
-553,656	-24,961	-0,035	-0,015
-552,642	113,763	-0,064	0,056
-551,627	49,381	0,098	0,067
-550,612	-200,000	-0,031	-0,105
-549,598	800,000	-0,023	-0,049
-548,583	-85,170	0,004	0,001
-547,569	-2,461	0,072	0,037
-546,554	-108,836	-0,052	-0,008
-545,539	403,788	-0,072	0,110
-544,525	112,996	0,060	0,053
-543,510	-171,817	-0,147	0,003
-542,496	63,280	-0,094	-0,068
-541,481	-9,659	-0,197	-0,094
-540,466	-200,000	0,019	-0,085
-539,452	-168,618	0,010	0,000
-538,437	-39,926	0,036	0,014
-537,423	-42,379	-0,059	0,022
-536,408	406,779	-0,008	0,013
-535,393	-200,000	0,023	0,192
-534,379	-62,859	-0,055	-0,016
-533,364	-200,000	-0,001	-0,072
-532,350	657,874	-0,056	0,104
-531,335	-146,299	0,096	0,006
-530,321	800,000	-0,042	0,114
-529,306	-14,473	0,122	0,057
-528,291	-1,663	0,060	-0,030
-527,277	-200,000	-0,066	-0,215
-526,262	-67,023	-0,097	-0,028
-525,248	-200,000	-0,007	0,072
-524,233	-97,402	0,116	-0,022
-523,218	-97,387	-0,085	-0,016
-522,204	-64,125	-0,117	-0,034
-521,189	-200,000	0,017	-0,122
-520,175	-168,076	-0,064	0,002
-519,160	-109,529	-0,126	0,019
-518,145	46,058	-0,063	0,042
-517,131	800,000	0,050	0,118
-516,116	-38,310	0,039	-0,015
-515,102	-39,289	-0,068	-0,026
-514,087	-200,000	0,022	0,089
-513,072	-200,000	0,017	-0,062
-512,058	104,002	0,043	-0,037
-511,043	-200,000	-0,013	-0,045
-510,029	238,240	-0,056	0,067
-509,014	-200,000	0,021	0,072
-507,999	-200,000	-0,033	0,114
-506,985	166,794	0,065	0,067
-505,970	-68,809	-0,153	-0,043
-504,956	800,000	-0,048	-0,116
-503,941	-46,729	0,064	0,022
-502,926	96,070	0,089	0,074
-501,912	800,000	0,037	0,095
-500,897	800,000	-0,011	0,024
-499,883	-200,000	0,026	-0,092
-498,868	-200,000	0,016	-0,080
-497,853	221,401	-0,053	-0,061
-496,839	-10,489	0,088	0,042
-495,824	172,115	-0,037	0,039
-494,810	789,730	0,105	0,208
-493,795	-200,000	-0,043	0,136
-492,781	483,195	0,031	0,050
-491,766	-200,000	0,016	0,073
-490,751	-4,246	0,106	0,053
-489,737	4,618	0,031	0,016
-488,722	374,485	-0,095	0,140
-487,708	91,737	0,116	0,094
-486,693	17,428	-0,092	0,053
-485,678	405,541	0,070	0,106
-484,664	31,655	-0,045	-0,028
-483,649	-75,690	-0,108	-0,028
-482,635	-77,266	0,060	0,015
-481,620	-200,000	0,013	0,132
-480,605	98,151	0,106	-0,088
-479,591	-200,000	0,041	0,242
-478,576	800,000	-0,066	0,172
-477,562	267,451	0,013	0,016
-476,547	-182,171	0,126	-0,002
-475,532	186,888	-0,028	-0,030
-474,518	127,386	0,067	-0,061
-473,503	-55,173	-0,063	0,020
-472,489	117,088	0,117	-0,103
-471,474	-78,908	0,096	-0,023
-470,459	-200,000	-0,008	-0,054
-469,445	483,308	0,065	-0,108
-468,430	362,007	0,015	0,022
-467,416	374,435	0,046	0,068
-466,401	315,525	0,054	-0,073
-465,386	129,200	-0,168	0,155
-464,372	-9,857	0,073	-0,035
-463,357	54,348	0,029	0,020
-462,343	186,220	-0,064	-0,069
-461,328	-118,893	-0,178	0,022
-460,313	149,586	-0,044	0,043
-459,299	308,234	0,057	-0,077
-458,284	-63,120	0,137	-0,041
-457,270	-200,000	-0,000	-0,007
-456,255	800,000	0,034	-0,088
-455,241	-200,000	-0,013	-0,094
-454,226	69,491	-0,018	-0,013
-453,211	800,000	0,015	-0,032
-452,197	-80,278	0,049	0,012
-451,182	-200,000	-0,021	0,074
-450,168	-118,456	0,048	0,006
-449,153	118,054	0,094	-0,084
-448,138	-200,000	0,024	-0,076
-447,124	566,368	-0,050	-0,088
-446,109	-200,000	-0,036	-0,143
-445,095	8,660	0,124	0,067
-444,080	7,057	0,151	0,081
-443,065	-200,000	0,018	0,147
-442,051	114,530	-0,037	0,033
-441,036	-65,525	-0,266	-0,076
-440,022	800,000	-0,043	-0,098
-439,007	-200,000	0,002	-0,046
-437,992	-200,000	-0,004	0,082
-436,978	-26,586	0,030	0,013
-435,963	-69,624	-0,023	-0,006
-434,949	-73,182	0,099	0,026
-433,934	57,581	-0,043	-0,030
-432,919	-200,000	0,007	-0,119
-431,905	-200,000	0,003	0,045
-430,890	-90,140	0,015	-0,003
-429,876	-111,802	0,045	-0,006
-428,861	-86,206	0,098	0,022
-427,846	-97,498	0,055	0,010
-426,832	289,793	-0,137	-0,180
-425,817	88,292	0,038	0,030
-424,803	4,248	-0,071	-0,037
-423,788	722,532	0,024	0,047
-422,773	-200,000	0,037	-0,171
-421,759	-94,726	-0,061	0,012
-420,744	-200,000	0,003	-0,103
-419,730	469,773	0,043	-0,070
-418,715	725,450	-0,019	0,036
-417,701	800,000	-0,052	-0,125
-416,686	800,000	0,068	0,148
-415,671	800,000	-0,055	0,137
-414,657	135,988	0,074	-0,069
-413,642	-99,695	0,105	0,019
-412,628	534,592	0,041	0,070
-411,613	193,158	-0,079	-0,087
-410,598	-117,774	-0,109	0,014
-409,584	307,671	-0,024	0,032
-408,569	553,635	-0,030	-0,053
-407,555	16,827	-0,099	-0,056
-406,540	-92,793	-0,026	0,005
-405,525	-200,000	0,012	-0,114
-404,511	-28,108	-0,203	0,084
-403,496	362,922	-0,033	0,048
-402,482	-200,000	-0,022	-0,073
-401,467	-200,000	0,013	-0,074
-400,452	227,325	0,090	0,106
-399,438	-140,891	-0,005	-0,000
-398,423	-37,252	0,084	-0,032
-397,409	800,000	0,057	-0,177
-396,394	-200,000	-0,013	-0,103
-395,379	20,708	-0,131	0,076
-394,365	-103,171	0,034	0,006
-393,350	-62,905	0,091	0,027
-392,336	516,697	-0,058	0,098
-391,321	800,000	-0,021	0,046
-390,306	363,360	0,018	0,026
-389,292	-200,000	0,017	-0,099
-388,277	800,000	0,065	-0,181
-387,263	115,264	0,049	-0,043
-386,248	451,955	0,116	-0,185
-385,233	314,765	-0,092	0,125
-384,219	152,935	0,065	0,064
-383,204	175,669	-0,066	-0,069
-382,190	-84,256	0,101	-0,023
-381,175	66,975	0,108	0,079
-380,160	33,228	0,066	0,041
-379,146	567,877	0,037	0,064
-378,131	-107,001	0,036	0,006
-377,117	-200,000	-0,088	0,000
-376,102	234,374	0,042	-0,050
-375,088	-111,904	-0,142	-0,020
-374,073	-95,056	0,039	0,008
-373,058	189,824	0,047	-0,050
-372,044	119,400	0,059	-0,052
-371,029	-172,707	0,130	0,003
-370,015	-200,000	-0,004	0,093
-369,000	141,644	-0,039	-0,037
-367,985	559,563	-0,041	-0,071
-366,971	-200,000	0,034	0,148
-365,956	800,000	-0,058	0,145
-364,942	-37,852	-0,057	0,022
-363,927	-200,000	0,002	0,064
-362,912	-117,422	-0,027	0,003
-361,898	-158,638	0,117	-0,005
-360,883	100,605	0,068	-0,057
-359,869	91,357	-0,042	0,034
-358,854	-9,527	-0,009	-0,004
-357,839	-200,000	-0,006	-0,039
-356,825	78,078	0,059	0,045
-355,810	-200,000	0,020	-0,094
-354,796	-200,000	0,002	-0,016
-353,781	288,530	0,093	0,121
-352,766	410,896	0,027	-0,042
-351,752	-189,261	-0,088	-0,001
-350,737	800,000	-0,038	0,099
-349,723	800,000	0,027	0,085
-348,708	49,091	0,181	0,122
-347,693	-89,657	-0,076	0,016
-346,679	-72,822	-0,152	-0,040
-345,664	189,694	0,105	-0,113
-344,650	615,028	0,040	-0,073
-343,635	-50,071	0,099	-0,033
-342,620	427,630	0,041	-0,064
-341,606	302,135	0,030	-0,040
-340,591	555,724	0,058	0,100
-339,577	165,406	0,105	-0,106
-338,562	343,334	-0,106	-0,150
-337,548	-48,962	0,151	0,052
-336,533	160,481	-0,048	0,048
-335,518	140,341	0,056	-0,053
-334,504	-147,868	0,054	0,003
-333,489	450,697	-0,023	0,037
-332,475	-23,499	-0,090	-0,039
-331,460	141,143	-0,011	-0,010
-330,445	800,000	-0,032	-0,099
-329,431	-200,000	-0,032	0,106
-328,416	576,496	0,082	0,144
-327,402	-200,000	0,000	0,170
-326,387	456,737	-0,096	0,153
-325,372	-200,000	0,012	-0,163
-324,358	-200,000	-0,003	-0,122
-323,343	-68,028	0,027	-0,008
-322,329	-200,000	0,005	-0,048
-321,314	-119,169	0,057	0,007
-320,299	800,000	0,049	0,116
-319,285	-106,716	-0,091	0,014
-318,270	685,822	-0,047	-0,089
-317,256	124,063	-0,068	-0,061
-316,241	800,000	-0,013	0,032
-315,226	-12,018	0,099	0,046
-314,212	200,149	0,033	0,036
-313,197	800,000	0,045	0,135
-312,183	626,567	-0,072	0,131
-311,168	470,091	-0,060	0,097
-310,153	75,783	-0,099	0,075
-309,139	-200,000	0,027	0,088
-308,124	96,043	-0,065	-0,053
-307,110	232,266	0,037	0,044
-306,095	60,578	0,107	0,076
-305,080	75,519	-0,076	0,057
-304,066	-200,000	-0,008	0,119
-303,051	57,959	-0,115	-0,081
-302,037	386,510	-0,060	-0,089
-301,022	177,517	-0,097	0,101
-300,008	247,660	0,128	0,156
-298,993	-105,024	0,092	-0,015
-297,978	800,000	0,030	0,061
-296,964	25,966	0,152	-0,091
-295,949	115,110	-0,065	-0,057
-294,935	-200,000	-0,016	-0,108
-293,920	167,419	0,077	-0,078
-292,905	222,215	0,035	0,040
-291,891	-92,397	0,130	-0,026
-290,876	-85,404	0,018	0,004
-289,862	800,000	0,055	-0,114
-288,847	-200,000	-0,035	-0,112
-287,832	-150,951	-0,056	0,003
-286,818	71,550	-0,102	0,076
-285,803	-168,172	-0,113	0,003
-284,789	726,845	0,038	-0,073
-283,774	-157,936	-0,087	-0,004
-282,759	30,144	0,120	-0,073
-281,745	-90,714	-0,046	-0,009
-280,730	-200,000	0,003	-0,083
-279,716	-151,298	-0,114	0,006
-278,701	153,685	-0,032	0,032
-277,686	27,070	-0,190	-0,114
-276,672	-130,441	0,101	0,010
-275,657	96,717	0,031	0,025
-274,643	800,000	0,064	-0,133
-273,628	-200,000	-0,045	-0,200
-272,613	144,836	-0,139	-0,133
-271,599	800,000	-0,051	0,123
-270,584	198,124	-0,057	0,062
-269,570	30,132	-0,111	0,068
-268,555	164,631	-0,026	0,026
-267,540	15,028	0,092	0,051
-266,526	351,861	-0,077	-0,109
-265,511	-200,000	-0,016	-0,078
-264,497	782,512	0,014	0,028
-263,482	133,335	0,160	-0,148
-262,467	-92,643	0,054	0,011
-261,453	-200,000	-0,009	0,029
-260,438	800,000	-0,006	-0,016
-259,424	174,451	0,052	-0,054
-258,409	-200,000	-0,011	0,049
-257,395	-29,853	0,080	-0,032
-256,380	377,822	0,112	0,165
-255,365	-200,000	0,022	0,143
-254,351	-200,000	0,017	-0,155
-253,336	-173,369	-0,181	0,004
-252,322	-200,000	-0,002	-0,102
-251,307	54,671	-0,102	0,070
-250,292	-200,000	-0,001	-0,047
-249,278	-135,895	0,096	0,008
-248,263	-19,776	-0,048	0,021
-247,249	145,309	-0,090	-0,086
-246,234	798,960	0,024	0,048
-245,219	-200,000	-0,008	0,044
-244,205	-134,361	-0,164	0,014
-243,190	317,091	-0,019	-0,025
-242,176	-2,867	0,017	0,008
-241,161	229,619	-0,014	-0,017
-240,146	54,440	0,066	0,045
-239,132	98,860	0,044	-0,036
-238,117	431,103	0,038	0,060
-237,103	254,984	0,036	-0,044
-236,088	-200,000	0,001	0,080
-235,073	-196,607	0,079	-0,000
-234,059	239,710	-0,014	-0,017
-233,044	800,000	0,092	0,197
-232,030	-200,000	-0,002	0,149
-231,015	217,509	-0,096	-0,109
-230,000	-200,000	-0,033	0,123
-228,986	-200,000	0,001	-0,042
-227,971	346,863	0,023	0,033
-226,957	-200,000	-0,016	0,073
-225,942	-83,595	0,113	0,026
-224,927	490,029	-0,031	0,051
-223,913	134,152	-0,067	-0,062
-222,898	800,000	-0,036	0,106
-221,884	-200,000	-0,042	0,140
-220,869	-200,000	-0,007	-0,078
-219,855	-200,000	0,000	0,011
-218,840	800,000	0,009	0,019
-217,825	-95,771	0,020	-0,004
-216,811	100,203	-0,048	0,040
-215,796	-200,000	0,004	0,035
-214,782	48,648	0,050	0,033
-213,767	-200,000	0,019	-0,063
-212,752	-200,000	0,010	0,049
-211,738	-135,957	0,103	0,009
-210,723	44,193	0,096	-0,063
-209,709	-200,000	-0,010	-0,059
-208,694	-200,000	-0,008	-0,065
-207,679	800,000	0,020	-0,042
-206,665	-29,617	-0,079	0,032
-205,650	-81,036	0,082	-0,019
-204,636	-200,000	-0,003	0,118
-203,621	800,000	0,027	0,084
-202,606	377,859	0,083	0,121
-201,592	57,968	-0,123	-0,086
-200,577	49,570	-0,150	-0,100
-199,563	800,000	0,066	0,136
-198,548	3,535	0,054	-0,028
-197,533	-200,000	-0,001	0,013
-196,519	800,000	0,025	0,070
-195,504	156,855	-0,029	0,029
-194,490	-21,847	-0,182	-0,079
-193,475	168,274	-0,077	-0,078
-192,460	40,306	0,136	-0,087
-191,446	-200,000	0,004	0,024
-190,431	299,497	0,103	-0,135
-189,417	-49,247	-0,023	-0,008
-188,402	800,000	-0,042	-0,098
-187,387	-200,000	-0,023	-0,114
-186,373	78,826	0,077	-0,059
-185,358	-22,717	0,090	-0,039
-184,344	40,057	-0,062	-0,040
-183,329	31,331	0,098	0,060
-182,315	554,848	0,057	0,097
-181,300	-69,445	0,091	0,025
-180,285	97,106	-0,101	-0,083
-179,271	343,117	-0,079	-0,111
-178,256	-200,000	-0,007	-0,160
-177,242	210,712	0,071	0,080
-176,227	-200,000	0,006	0,135
-175,212	-24,402	0,148	-0,063
-174,198	800,000	0,008	-0,022
-173,183	-200,000	-0,037	-0,122
-172,169	-200,000	-0,012	-0,064
-171,154	79,565	-0,127	-0,097
-170,139	81,684	-0,087	-0,067
-169,125	-177,143	0,113	0,002
-168,110	-200,000	0,033	0,181
-167,096	800,000	0,055	0,109
-166,081	-45,654	-0,141	0,050
-165,066	81,696	0,108	-0,083
-164,052	346,504	-0,002	0,003
-163,037	-61,972	0,157	0,047
-162,023	-200,000	0,006	0,114
-161,008	-200,000	-0,017	0,101
-159,993	800,000	-0,024	0,071
-158,979	615,758	0,040	-0,071
-157,964	-78,695	-0,143	0,035
-156,950	-200,000	0,009	0,122
-155,935	294,856	0,041	0,054
-154,920	-103,199	0,095	-0,016
-153,906	-200,000	0,002	0,146
-152,891	-60,783	-0,096	0,029
-151,877	-155,881	0,089	0,004
-150,862	-15,149	-0,052	0,024
-149,847	-22,649	0,057	0,024
-148,833	-95,495	0,035	-0,007
-147,818	800,000	-0,057	0,148
-146,804	133,884	-0,036	-0,033
-145,789	69,437	0,202	-0,148
-144,775	-200,000	0,001	-0,022
-143,760	800,000	0,017	-0,043
-142,745	-91,182	-0,078	0,016
-141,731	-200,000	0,029	-0,113
-140,716	800,000	0,007	-0,018
-139,702	-200,000	0,002	0,052
-138,687	360,820	0,061	0,088
-137,672	279,912	-0,086	-0,110
-136,658	-84,146	0,023	-0,005
-135,643	26,082	0,041	0,024
-134,629	55,623	-0,117	0,081
-133,614	-113,400	0,111	0,015
-132,599	800,000	-0,026	-0,066
-131,585	296,367	-0,037	-0,048
-130,570	56,487	-0,105	-0,073
-129,556	3,808	-0,074	-0,039
-128,541	-200,000	0,008	0,183
-127,526	-21,825	-0,016	-0,007
-126,512	-126,850	0,115	-0,012
-125,497	800,000	0,018	-0,036
-124,483	-96,400	-0,067	-0,013
-123,468	800,000	0,047	0,117
-122,453	-200,000	-0,017	0,226
-121,439	198,930	0,030	0,033
-120,424	0,211	-0,089	0,045
-119,410	800,000	-0,022	-0,060
-118,395	-40,203	-0,125	0,046
-117,380	-200,000	0,015	0,128
-116,366	33,916	-0,078	0,048
-115,351	193,321	0,053	-0,058
-114,337	-79,599	-0,066	0,016
-113,322	197,818	0,118	-0,128
-112,307	800,000	-0,096	0,211
-111,293	-156,000	-0,130	-0,006
-110,278	-157,617	0,045	0,002
-109,264	-124,922	0,128	0,014
-108,249	-20,702	-0,105	0,046
-107,234	-11,334	-0,077	-0,036
-106,220	203,851	0,100	0,110
-105,205	-200,000	-0,030	0,127
-104,191	800,000	0,089	0,276
-103,176	639,161	0,070	0,128
-102,162	-200,000	0,006	0,051
-101,147	-200,000	-0,026	-0,141
-100,132	169,977	-0,096	0,097
-99,118	800,000	-0,059	-0,129
-98,103	57,630	-0,096	-0,067
-97,089	-200,000	-0,008	-0,114
-96,074	355,749	0,017	-0,024
-95,059	28,858	0,029	0,018
-94,045	-200,000	0,013	-0,079
-93,030	-200,000	-0,009	-0,095
-92,016	269,123	0,082	-0,102
-91,001	5,066	0,096	-0,050
-89,986	-157,229	0,110	0,005
-88,972	-200,000	-0,030	0,108
-87,957	8,445	0,030	0,016
-86,943	-68,190	0,091	0,025
-85,928	4,676	-0,050	0,026
-84,913	-76,384	0,042	0,010
-83,899	330,479	0,056	0,077
-82,884	-192,320	-0,010	0,000
-81,870	165,591	-0,080	-0,080
-80,855	107,447	0,019	0,016
-79,840	22,740	-0,146	0,084
-78,826	-200,000	0,006	-0,124
-77,811	-107,338	-0,212	-0,033
-76,797	800,000	-0,020	0,057
-75,782	-43,096	0,015	-0,005
-74,767	259,449	0,036	0,044
-73,753	-4,407	0,069	-0,034
-72,738	-58,871	-0,104	-0,032
-71,724	800,000	-0,071	-0,197
-70,709	482,831	-0,038	-0,062
-69,694	-7,409	-0,037	0,018
-68,680	87,743	-0,056	0,044
-67,665	157,423	-0,062	0,061
-66,651	71,817	0,140	-0,103
-65,636	800,000	-0,024	0,052
-64,622	-47,333	0,047	0,016
-63,607	-99,577	-0,124	-0,022
-62,592	-99,776	-0,051	-0,009
-61,578	154,100	-0,109	-0,106
-60,563	-31,543	0,096	0,038
-59,549	-11,506	-0,166	0,077
-58,534	-63,655	-1,306	-0,378
-57,519	553,653	-1,275	-2,184
-56,505	-200,000	-0,603	-4,415
-55,490	64,239	0,986	0,704
-54,476	800,000	4,732	11,106
-53,461	-200,000	17,606	280,831
-52,446	800,000	719,489	2223,166
-51,432	564,221	1634,008	2820,124
-50,417	81,291	1658,321	1270,310
-49,403	23,902	1532,316	894,137
-48,388	17,852	1455,557	820,151
-47,373	18,335	1445,036	816,508
-46,359	17,941	1435,936	809,454
-45,344	16,229	1430,920	798,454
-44,330	16,118	1429,006	796,827
-43,315	16,138	1427,316	795,945
-42,300	16,147	1425,884	795,160
-41,286	16,166	1424,519	794,459
-40,271	16,126	1423,362	793,593
-39,257	16,147	1422,024	792,914
-38,242	16,196	1420,727	792,389
-37,227	16,174	1419,556	791,600
-36,213	16,175	1418,138	790,782
-35,198	16,163	1416,983	790,052
-34,184	16,209	1415,880	789,622
-33,169	16,113	1414,701	788,485
-32,154	16,125	1413,898	788,059
-31,140	16,174	1412,415	787,433
-30,125	16,226	1411,164	786,947
-29,111	16,209	1410,118	786,253
-28,096	16,143	1409,199	785,398
-27,082	16,062	1408,252	784,463
-26,067	16,098	1406,928	783,860
-25,052	16,133	1405,685	783,301
-24,038	16,097	1404,947	782,689
-23,023	16,065	1403,920	781,937
-22,009	16,093	1402,792	781,410
-20,994	16,040	1401,899	780,637
-19,979	16,012	1401,040	779,993
-18,965	16,012	1399,884	779,320
-17,950	16,026	1399,037	778,884
-16,936	15,991	1398,131	778,183
-15,921	15,989	1396,888	777,454
-14,906	16,040	1395,711	777,001
-13,892	15,995	1394,929	776,331
-12,877	15,982	1394,068	775,759
-11,863	16,055	1393,025	775,485
-10,848	16,009	1392,304	774,839
-9,833	15,939	1391,531	774,055
-8,819	15,934	1390,229	773,275
-7,804	15,903	1389,360	772,622
-6,790	15,871	1388,468	771,944
-5,775	15,863	1387,445	771,309
-4,760	15,877	1386,675	770,915
-3,746	15,864	1385,795	770,337
-2,731	15,890	1385,030	770,002
-1,717	15,882	1383,876	769,291
-0,702	15,870	1381,983	768,152
0,313	19,613	1303,083	741,590
1,327	36,206	706,898	440,787
2,342	55,374	125,397	85,903
3,356	3,945	16,538	8,544
4,371	15,839	3,094	1,722
5,386	-36,698	0,547	0,207
6,400	275,715	0,095	0,120
7,415	65,093	-0,254	-0,182
8,429	138,037	-0,239	-0,222
9,444	253,050	-0,275	-0,333
10,459	-2,976	-0,354	-0,174
11,473	6,716	-0,318	-0,167
12,488	254,651	-0,252	-0,306
13,502	379,157	-0,157	-0,229
14,517	-18,074	-0,314	-0,139
15,531	207,748	-0,245	-0,271
16,546	110,583	-0,291	-0,248
17,561	109,185	-0,421	-0,357
18,575	-39,680	-0,143	-0,053
19,590	356,511	-0,189	-0,267
20,604	-2,625	-0,320	-0,158
21,619	-38,794	-0,468	-0,174
22,634	18,297	-0,368	-0,207
23,648	67,168	-0,521	-0,375
24,663	7,389	-0,414	-0,218
25,677	64,709	-0,350	-0,250
26,692	-103,747	-0,321	-0,053
27,707	-40,060	-0,472	-0,173
28,721	-2,015	-0,351	-0,174
29,736	95,088	-0,358	-0,288
30,750	-69,093	-0,432	-0,117
31,765	44,671	-0,379	-0,246
32,780	189,826	-0,323	-0,343
33,794	128,826	-0,285	-0,257
34,809	43,977	-0,441	-0,285
35,823	308,482	-0,297	-0,393
36,838	796,474	-0,219	-0,428
37,853	105,283	-0,422	-0,352
38,867	76,860	-0,421	-0,315
39,882	2,798	-0,430	-0,220
40,896	72,635	-0,373	-0,275
41,911	110,139	-0,240	-0,204
42,926	156,866	-0,254	-0,249
43,940	47,084	-0,483	-0,317
44,955	129,543	-0,314	-0,284
45,969	38,491	-0,327	-0,205
46,984	33,547	-0,287	-0,176
47,999	53,829	-0,274	-0,186
49,013	176,701	-0,314	-0,323
50,028	-21,119	-0,371	-0,160
51,042	13,537	-0,410	-0,224
52,057	152,434	-0,231	-0,223
53,071	-50,929	-0,363	-0,120
54,086	266,343	-0,173	-0,214
55,101	131,342	-0,354	-0,321
56,115	64,506	-0,306	-0,218
57,130	191,822	-0,238	-0,254
58,144	-13,491	-0,348	-0,158
59,159	440,040	-0,246	-0,380
60,174	-51,708	-0,413	-0,135
61,188	31,161	-0,297	-0,179
62,203	13,660	-0,359	-0,196
63,217	263,013	-0,221	-0,271
64,232	700,763	-0,240	-0,447
65,247	187,843	-0,338	-0,357
66,261	-46,413	-0,511	-0,176
67,276	180,653	-0,271	-0,281
68,290	70,878	-0,295	-0,215
69,305	26,972	-0,286	-0,169
70,320	112,859	-0,342	-0,292
71,334	-0,509	-0,281	-0,140
72,349	15,179	-0,352	-0,194
73,363	-1,353	-0,410	-0,203
74,378	87,729	-0,351	-0,274
75,393	15,200	-0,371	-0,204
76,407	-24,947	-0,280	-0,117
77,422	221,968	-0,151	-0,172
78,436	-75,950	-0,153	-0,038
79,451	94,883	-0,332	-0,266
80,466	-13,732	-0,307	-0,139
81,480	154,934	-0,288	-0,279
82,495	53,603	-0,206	-0,139
83,509	553,449	-0,103	-0,175
84,524	-14,140	-0,413	-0,187
85,539	-55,552	-0,314	-0,099
86,553	62,778	-0,364	-0,256
87,568	193,733	-0,353	-0,376
88,582	127,144	-0,266	-0,238
89,597	212,649	-0,276	-0,306
90,611	26,340	-0,254	-0,149
91,626	58,768	-0,298	-0,206
92,641	22,769	-0,238	-0,137
93,655	0,976	-0,274	-0,138
94,670	116,453	-0,228	-0,196
95,684	134,214	-0,279	-0,254
96,699	22,030	-0,249	-0,143
97,714	251,769	-0,209	-0,250
98,728	65,816	-0,213	-0,152
99,743	9,344	-0,151	-0,080
100,757	-91,523	-0,297	-0,059
101,772	64,189	-0,242	-0,171
102,787	23,583	-0,294	-0,170
103,801	-31,755	-0,308	-0,121
104,816	132,168	-0,248	-0,225
105,830	800,000	-0,111	-0,222
106,845	-70,760	-0,183	0,048
107,860	60,963	-0,220	-0,153
108,874	233,894	-0,206	-0,239
109,889	220,360	-0,214	-0,241
110,903	63,105	-0,268	-0,188
111,918	-83,174	-0,284	0,064
112,933	-13,737	-0,221	-0,100
113,947	215,467	-0,172	-0,192
114,962	-51,638	-0,282	-0,092
115,976	74,620	-0,306	-0,226
116,991	204,564	-0,264	-0,288
118,006	10,804	-0,339	-0,181
119,020	14,557	-0,242	-0,132
120,035	-60,673	-0,273	-0,081
121,049	63,718	-0,276	-0,194
122,064	38,889	-0,222	-0,139
123,079	45,875	-0,168	-0,109
124,093	-26,392	-0,375	-0,153
125,108	-79,558	-0,363	-0,085
126,122	19,017	-0,243	-0,136
127,137	87,105	-0,173	-0,134
128,151	31,264	-0,228	-0,137
129,166	-74,333	-0,211	-0,053
130,181	-52,297	-0,396	-0,128
131,195	13,414	-0,371	-0,201
132,210	-67,320	-0,386	-0,106
133,224	213,109	-0,087	-0,096
134,239	28,895	-0,194	-0,115
135,254	-133,003	-0,371	-0,033
136,268	-26,040	-0,289	-0,118
137,283	-46,816	-0,256	-0,087
138,297	-40,526	-0,360	-0,130
139,312	26,837	-0,340	-0,199
140,327	-11,995	-0,319	-0,146
141,341	-31,814	-0,257	-0,100
142,356	172,530	-0,139	-0,140
143,370	17,148	-0,187	-0,103
144,385	129,269	-0,292	-0,261
145,400	18,266	-0,321	-0,179
146,414	153,615	-0,204	-0,195
147,429	-38,049	-0,411	-0,152
148,443	99,963	-0,204	-0,166
149,458	-100,343	-0,394	-0,068
150,473	800,000	-0,106	-0,224
151,487	378,601	-0,168	-0,242
152,502	24,639	-0,241	-0,139
153,516	25,920	-0,256	-0,149
154,531	42,238	-0,467	-0,297
155,546	-2,144	-0,216	-0,106
156,560	131,232	-0,244	-0,219
157,575	-15,229	-0,163	-0,073
158,589	-38,097	-0,214	-0,079
159,604	-36,534	-0,284	-0,106
160,619	245,155	-0,268	-0,315
161,633	-43,147	-0,271	-0,096
162,648	81,506	-0,263	-0,199
163,662	304,788	-0,161	-0,209
164,677	198,215	-0,143	-0,153
165,692	65,342	-0,162	-0,115
166,706	176,024	-0,293	-0,298
167,721	159,099	-0,260	-0,253
168,735	181,817	-0,321	-0,331
169,750	-10,983	-0,303	-0,139
170,764	-1,909	-0,176	-0,086
171,779	-69,471	-0,271	-0,072
172,794	134,002	-0,130	-0,117
173,808	118,723	-0,137	-0,118
174,823	47,832	-0,302	-0,196
175,837	-47,630	-0,306	-0,103
176,852	186,372	-0,246	-0,256
177,867	-19,436	-0,280	-0,120
178,881	173,083	-0,234	-0,235
179,896	263,673	-0,150	-0,183
180,910	3,961	-0,218	-0,111
181,925	82,492	-0,226	-0,171
182,940	321,210	-0,120	-0,160
183,954	-39,480	-0,334	-0,122
184,969	644,218	-0,177	-0,316
185,983	214,829	-0,210	-0,233
186,998	59,284	-0,209	-0,144
188,013	-52,851	-0,226	-0,072
189,027	25,966	-0,205	-0,119
190,042	-6,089	-0,331	-0,157
191,056	37,307	-0,202	-0,125
192,071	122,741	-0,195	-0,170
193,086	168,995	-0,130	-0,129
194,100	-47,224	-0,373	-0,126
195,115	-60,054	-0,290	-0,086
196,129	128,326	-0,200	-0,177
197,144	-54,762	-0,331	-0,104
198,159	11,873	-0,313	-0,167
199,173	42,163	-0,202	-0,128
200,188	-78,605	-0,126	0,030
201,202	260,444	-0,122	-0,147
202,217	132,345	-0,150	-0,135
203,232	-10,114	-0,120	-0,055
204,246	435,301	-0,103	-0,156
205,261	-97,006	-0,396	-0,072
206,275	150,514	-0,234	-0,221
207,290	-5,154	-0,140	-0,067
208,304	-48,990	-0,187	-0,062
209,319	66,034	-0,120	-0,085
210,334	135,791	-0,186	-0,169
211,348	512,632	-0,206	-0,335
212,363	-142,076	-0,218	-0,015
213,377	92,070	-0,160	-0,125
214,392	-36,476	-0,168	-0,063
215,407	-62,294	-0,178	-0,051
216,421	55,120	-0,211	-0,142
217,436	235,726	-0,285	-0,328
218,450	44,905	-0,311	-0,199
219,465	100,155	-0,132	-0,107
220,480	-24,057	-0,257	-0,106
221,494	-200,000	-0,040	-0,136
222,509	800,000	-0,092	-0,233
223,523	-45,933	-0,086	-0,029
224,538	-200,000	-0,010	-0,124
225,553	131,817	-0,201	-0,180
226,567	51,005	-0,239	-0,157
227,582	146,325	-0,159	-0,148
228,596	-152,426	-0,248	-0,012
229,611	220,320	-0,147	-0,164
230,626	-38,222	-0,206	-0,075
231,640	49,746	-0,261	-0,171
232,655	-30,942	-0,266	-0,104
233,669	85,257	-0,231	-0,176
234,684	76,681	-0,146	-0,107
235,699	-142,314	-0,258	-0,017
236,713	-88,891	-0,139	-0,028
237,728	-200,000	-0,019	-0,081
238,742	-153,288	-0,106	-0,005
239,757	-41,580	-0,173	-0,062
240,772	52,805	-0,155	-0,103
241,786	-199,886	-0,141	-0,000
242,801	31,547	-0,231	-0,137
243,815	800,000	-0,041	-0,117
244,830	53,192	-0,085	-0,056
245,844	-49,094	-0,177	-0,058
246,859	80,146	-0,191	-0,142
247,874	336,504	-0,173	-0,233
248,888	235,674	-0,139	-0,159
249,903	240,770	-0,173	-0,200
250,917	70,742	-0,240	-0,172
251,932	-15,176	-0,234	-0,103
252,947	-47,759	-0,185	-0,062
253,961	123,472	-0,136	-0,118
254,976	31,001	-0,160	-0,095
255,990	201,493	-0,147	-0,157
257,005	340,084	-0,103	-0,140
258,020	681,494	-0,135	-0,245
259,034	-62,053	-0,236	0,068
260,049	800,000	-0,081	-0,188
261,063	108,577	-0,139	-0,115
262,078	0,133	-0,197	-0,097
263,093	567,921	-0,128	-0,216
264,107	-200,000	-0,063	-0,236
265,122	-58,659	-0,159	0,047
266,136	-51,614	-0,230	-0,074
267,151	-105,296	-0,211	-0,033
268,166	437,580	-0,159	-0,241
269,180	-114,362	-0,363	-0,048
270,195	108,981	-0,150	-0,125
271,209	171,713	-0,122	-0,121
272,224	587,010	-0,158	-0,271
273,239	-60,157	-0,099	-0,029
274,253	-121,296	-0,166	-0,019
275,268	-167,498	-0,115	-0,003
276,282	47,306	-0,296	-0,190
277,297	52,904	-0,304	-0,201
278,312	-43,047	-0,167	0,058
279,326	657,228	-0,062	-0,112
280,341	-200,000	0,019	-0,204
281,355	86,169	-0,156	-0,119
282,370	-76,644	-0,132	-0,032
283,384	34,357	-0,204	-0,123
284,399	-71,823	-0,170	-0,044
285,414	96,694	-0,207	-0,164
286,428	141,953	-0,145	-0,133
287,443	-92,288	-0,074	0,014
288,457	-131,484	-0,194	-0,017
289,472	71,497	-0,197	-0,141
290,487	-200,000	-0,006	-0,202
291,501	-166,824	-0,177	-0,005
292,516	490,874	-0,100	-0,159
293,530	800,000	-0,094	-0,284
294,545	-200,000	-0,021	-0,086
295,560	-131,966	-0,126	-0,011
296,574	-29,069	-0,230	-0,091
297,589	70,799	-0,219	-0,157
298,603	110,351	-0,107	-0,089
299,618	142,003	-0,177	-0,162
300,633	-200,000	-0,037	-0,164
301,647	341,427	-0,078	-0,105
302,662	-34,647	-0,136	-0,051
303,676	139,232	-0,131	-0,119
304,691	406,409	-0,158	-0,231
305,706	-121,511	-0,197	-0,022
306,720	36,528	-0,163	-0,099
307,735	201,031	-0,112	-0,119
308,749	361,606	-0,078	-0,108
309,764	-75,079	-0,176	-0,043
310,779	382,986	-0,048	-0,068
311,793	-41,393	-0,129	-0,046
312,808	800,000	-0,063	-0,183
313,822	800,000	-0,068	-0,203
314,837	602,015	-0,098	-0,168
315,852	-63,686	-0,113	-0,032
316,866	56,143	-0,144	-0,096
317,881	15,228	-0,105	-0,057
318,895	200,076	-0,185	-0,196
319,910	800,000	-0,110	-0,295
320,925	-200,000	-0,044	-0,182
321,939	-24,771	-0,130	-0,053
322,954	128,158	-0,123	-0,107
323,968	555,966	-0,074	-0,123
324,983	356,944	-0,073	-0,101
325,997	-176,524	-0,260	-0,005
327,012	-144,985	-0,148	0,009
328,027	184,283	-0,169	-0,172
329,041	-200,000	-0,004	-0,014
330,056	-50,931	-0,114	-0,037
331,070	244,209	-0,101	-0,117
332,085	81,456	-0,012	-0,009
333,100	45,041	-0,259	-0,164
334,114	105,035	-0,218	-0,177
335,129	235,491	-0,157	-0,179
336,143	-21,520	-0,072	0,030
337,158	-200,000	0,001	-0,153
338,173	175,896	-0,026	0,026
339,187	-200,000	0,000	-0,235
340,202	17,912	-0,130	-0,071
341,216	17,279	-0,196	-0,107
342,231	302,797	-0,069	-0,089
343,246	168,160	-0,167	-0,164
344,260	675,641	-0,081	-0,145
345,275	31,204	-0,171	-0,101
346,289	33,479	-0,067	0,040
347,304	-200,000	-0,024	-0,103
348,319	93,005	-0,202	-0,157
349,333	282,712	-0,193	-0,239
350,348	149,146	-0,203	-0,189
351,362	99,881	-0,125	-0,100
352,377	-122,177	-0,192	0,021
353,392	-135,926	-0,106	0,008
354,406	-139,922	-0,193	-0,014
355,421	208,392	1314,052	1414,308
356,435	160,346	1474,726	1414,834
