DTS Sentinel unit serial number:	SN410029Multiplexer serial number:	ORYXHardware model number:	OX2-SRSoftware version number:	ORYX F/W v4,00 Oryx Data Collector v3.7.2.0data status	okinstallation	B3 Nyhavnadifferential loss correction	single-endedforward channel	channel 1reverse channel	N/Adate	2023/12/01time	19:12:30forward acquisition time	300,00reverse acquisition time	0,00gamma	499,1914k internal	0,3200k external	0,3200temperature offset calibration	1,0000default loss term (dB/km)	0,3820temperature slope calibration	1,0000multiplexer offset coefficient	1,0000multiplexer slope coefficient	1,0000fibre end	0,00T internal ref (°C)	15,31T ext. ref 1 (°C)	1,22T ext. ref 2 (°C)	1,19length (m)	temperature (°C)	Stokes	anti-Stokes-744,400	516,243	-0,184	-0,314
-743,385	-200,000	-0,019	0,322
-742,371	-48,236	-0,256	-0,089
-741,356	215,112	0,249	0,288
-740,342	341,427	-0,127	-0,181
-739,327	-200,000	-0,030	0,183
-738,312	214,444	-0,269	-0,310
-737,298	647,979	0,082	0,153
-736,283	17,191	-0,312	-0,180
-735,269	-200,000	0,026	0,386
-734,254	378,096	-0,208	-0,310
-733,239	-25,004	-0,210	0,090
-732,225	-200,000	-0,018	-0,273
-731,210	-28,271	0,084	0,035
-730,196	-119,104	-0,098	0,012
-729,181	21,435	0,069	-0,041
-728,167	-200,000	-0,005	-0,207
-727,152	-200,000	-0,012	0,112
-726,137	-200,000	0,004	-0,048
-725,123	218,242	-0,018	-0,021
-724,108	-35,668	-0,140	-0,055
-723,094	-200,000	0,024	-0,191
-722,079	287,371	-0,075	-0,099
-721,064	-34,056	0,015	-0,006
-720,050	321,467	-0,070	0,097
-719,035	800,000	0,046	-0,140
-718,021	-84,488	0,153	-0,035
-717,006	800,000	-0,048	-0,109
-715,991	10,446	-0,152	0,084
-714,977	436,217	-0,055	-0,087
-713,962	70,420	-0,049	0,036
-712,948	-88,321	0,114	0,025
-711,933	223,270	-0,071	0,084
-710,918	-58,264	-0,056	-0,018
-709,904	-200,000	-0,016	-0,122
-708,889	42,546	-0,232	-0,153
-707,875	-73,295	0,072	0,019
-706,860	-200,000	-0,002	-0,077
-705,845	-22,588	0,116	-0,051
-704,831	-200,000	0,022	-0,070
-703,816	-102,716	0,040	-0,007
-702,802	800,000	-0,058	-0,124
-701,787	-73,296	-0,115	0,030
-700,772	150,394	-0,050	0,050
-699,758	-77,560	-0,178	-0,044
-698,743	-200,000	-0,003	-0,072
-697,729	-81,566	0,025	0,006
-696,714	85,280	-0,061	0,049
-695,699	205,437	-0,023	-0,026
-694,685	-200,000	0,015	-0,125
-693,670	277,103	-0,038	0,049
-692,656	-200,000	-0,001	0,093
-691,641	-38,297	-0,054	0,021
-690,627	-200,000	-0,006	-0,145
-689,612	187,025	-0,020	-0,021
-688,597	-200,000	0,010	-0,148
-687,583	12,306	-0,044	-0,025
-686,568	-200,000	0,002	-0,011
-685,554	-200,000	0,000	-0,161
-684,539	-115,220	0,153	-0,021
-683,524	-120,431	-0,063	0,008
-682,510	800,000	-0,056	-0,120
-681,495	-76,192	-0,065	0,016
-680,481	-28,466	-0,087	-0,036
-679,466	-200,000	0,007	-0,030
-678,451	171,094	0,039	-0,041
-677,437	-200,000	-0,010	0,038
-676,422	800,000	0,013	0,039
-675,408	-200,000	0,002	0,056
-674,393	800,000	-0,035	0,100
-673,378	-9,583	0,061	-0,030
-672,364	-26,282	-0,086	0,036
-671,349	800,000	0,044	-0,118
-670,335	25,278	-0,047	-0,029
-669,320	-77,550	-0,067	-0,017
-668,305	43,723	0,031	-0,021
-667,291	-18,092	-0,070	0,032
-666,276	14,832	0,064	-0,036
-665,262	-121,158	0,040	0,005
-664,247	118,547	-0,143	-0,128
-663,232	800,000	0,012	0,025
-662,218	800,000	0,045	0,091
-661,203	74,118	-0,107	-0,081
-660,189	-94,932	0,088	0,017
-659,174	57,705	-0,135	-0,096
-658,159	800,000	-0,035	-0,096
-657,145	-132,522	-0,129	0,012
-656,130	-200,000	0,008	-0,093
-655,116	-50,097	0,132	-0,045
-654,101	622,573	0,035	0,064
-653,086	-126,675	0,099	0,010
-652,072	59,682	-0,101	-0,072
-651,057	-84,900	-0,092	-0,021
-650,043	60,705	0,082	-0,059
-649,028	153,768	0,112	0,112
-648,014	663,528	-0,034	0,063
-646,999	-200,000	-0,013	0,071
-645,984	-200,000	0,014	-0,065
-644,970	-115,711	0,087	-0,012
-643,955	-200,000	-0,011	-0,042
-642,941	172,205	-0,108	-0,113
-641,926	-33,314	0,044	0,018
-640,911	-5,019	0,086	0,043
-639,897	-200,000	0,007	0,043
-638,882	214,912	0,032	0,037
-637,868	253,891	-0,129	0,160
-636,853	266,095	-0,093	0,118
-635,838	181,462	0,068	0,073
-634,824	226,939	0,055	-0,064
-633,809	72,957	-0,081	0,061
-632,795	800,000	0,070	0,155
-631,780	-89,489	-0,051	0,011
-630,765	210,706	-0,038	0,043
-629,751	800,000	-0,063	-0,156
-628,736	45,189	-0,162	-0,108
-627,722	-200,000	-0,011	0,127
-626,707	31,634	0,039	0,024
-625,692	-200,000	-0,032	0,178
-624,678	26,772	0,171	0,104
-623,663	151,121	-0,078	-0,077
-622,649	685,179	0,064	-0,121
-621,634	-200,000	-0,037	-0,136
-620,619	-200,000	0,001	-0,080
-619,605	236,673	0,107	0,129
-618,590	191,097	-0,090	0,098
-617,576	149,025	-0,054	0,053
-616,561	560,087	0,048	0,085
-615,546	800,000	0,059	-0,137
-614,532	50,009	-0,048	-0,033
-613,517	-39,114	-0,035	0,013
-612,503	-21,066	0,204	0,090
-611,488	39,226	0,126	0,082
-610,474	-52,854	-0,074	0,025
-609,459	8,169	0,106	0,057
-608,444	-50,479	-0,117	0,040
-607,430	9,051	0,052	-0,029
-606,415	-200,000	-0,000	-0,123
-605,401	301,073	0,068	0,091
-604,386	532,830	0,056	0,096
-603,371	345,055	0,017	-0,024
-602,357	-200,000	0,006	0,042
-601,342	-92,694	-0,056	-0,011
-600,328	-200,000	-0,011	-0,141
-599,313	-200,000	0,011	-0,090
-598,298	152,967	-0,105	-0,104
-597,284	-200,000	0,022	0,100
-596,269	-152,125	0,093	-0,005
-595,255	-200,000	0,012	-0,094
-594,240	-109,922	0,093	0,014
-593,225	-200,000	-0,011	-0,092
-592,211	332,107	-0,133	-0,187
-591,196	13,236	-0,092	0,052
-590,182	-127,009	-0,060	0,006
-589,167	219,436	0,039	0,045
-588,152	-200,000	-0,006	0,095
-587,138	-200,000	0,010	0,055
-586,123	-3,095	0,089	-0,045
-585,109	800,000	0,014	0,030
-584,094	589,705	-0,069	0,124
-583,079	800,000	0,012	-0,034
-582,065	179,023	0,075	-0,079
-581,050	-128,326	0,091	-0,009
-580,036	800,000	-0,039	-0,118
-579,021	800,000	-0,051	-0,112
-578,006	102,026	-0,133	0,112
-576,992	-60,841	0,166	-0,050
-575,977	-54,551	-0,024	-0,008
-574,963	-61,770	0,093	-0,028
-573,948	-161,511	-0,066	-0,002
-572,934	357,364	0,023	0,033
-571,919	-200,000	0,000	-0,133
-570,904	-121,314	0,083	-0,010
-569,890	-41,393	-0,057	0,021
-568,875	252,129	-0,055	-0,068
-567,861	41,711	-0,011	0,007
-566,846	-200,000	0,008	0,151
-565,831	800,000	-0,028	0,064
-564,817	-74,126	0,045	-0,012
-563,802	-117,688	-0,090	0,012
-562,788	-122,032	-0,122	0,014
-561,773	-200,000	-0,007	0,179
-560,758	10,815	0,190	0,105
-559,744	252,074	0,045	0,056
-558,729	-17,860	-0,055	0,025
-557,715	-200,000	0,015	0,104
-556,700	-200,000	-0,014	-0,125
-555,685	363,448	-0,056	-0,081
-554,671	78,603	0,078	-0,060
-553,656	-200,000	-0,011	0,056
-552,642	133,928	0,036	0,034
-551,627	55,144	0,088	0,062
-550,612	800,000	0,028	0,085
-549,598	-200,000	0,002	-0,158
-548,583	251,105	-0,056	0,069
-547,569	465,200	0,089	0,145
-546,554	185,510	-0,123	-0,132
-545,539	-0,486	0,067	-0,034
-544,525	155,326	-0,021	0,021
-543,510	6,865	-0,107	-0,057
-542,496	238,857	-0,037	-0,045
-541,481	-62,846	-0,054	-0,016
-540,466	-200,000	0,010	-0,051
-539,452	556,587	-0,066	0,115
-538,437	-99,488	0,131	-0,024
-537,423	-200,000	0,026	0,183
-536,408	116,256	0,089	-0,079
-535,393	800,000	-0,047	-0,103
-534,379	306,245	-0,054	-0,073
-533,364	-85,204	0,145	-0,032
-532,350	-98,310	-0,033	-0,006
-531,335	-200,000	-0,014	-0,062
-530,321	-200,000	0,017	0,060
-529,306	-65,640	0,074	-0,021
-528,291	701,120	0,009	0,018
-527,277	800,000	-0,069	-0,161
-526,262	-200,000	0,009	-0,093
-525,248	800,000	0,023	-0,073
-524,233	-200,000	0,000	-0,020
-523,218	61,363	-0,083	0,059
-522,204	72,000	0,073	0,055
-521,189	203,992	-0,046	-0,051
-520,175	57,508	0,100	-0,070
-519,160	-200,000	0,026	-0,151
-518,145	224,961	-0,021	0,025
-517,131	800,000	0,032	-0,097
-516,116	79,990	0,029	0,023
-515,102	800,000	-0,055	0,138
-514,087	72,038	0,046	0,035
-513,072	-200,000	0,001	-0,086
-512,058	-56,076	-0,068	-0,022
-511,043	224,318	-0,103	0,120
-510,029	396,274	0,066	0,099
-509,014	-200,000	0,037	0,122
-507,999	-21,283	-0,035	-0,015
-506,985	77,056	-0,067	0,051
-505,970	345,025	-0,050	-0,072
-504,956	540,443	-0,046	-0,079
-503,941	800,000	-0,032	0,070
-502,926	-49,647	0,081	0,028
-501,912	-146,274	0,074	0,005
-500,897	-200,000	-0,012	0,097
-499,883	-200,000	-0,007	-0,038
-498,868	178,590	0,032	0,033
-497,853	-75,245	-0,033	0,008
-496,839	-60,402	-0,048	0,015
-495,824	32,391	-0,030	0,018
-494,810	-110,634	0,016	-0,002
-493,795	-135,618	0,100	-0,008
-492,781	800,000	-0,008	-0,019
-491,766	-200,000	0,006	0,101
-490,751	206,431	0,104	0,117
-489,737	-113,850	-0,135	0,019
-488,722	70,198	0,019	0,014
-487,708	233,430	0,092	0,110
-486,693	214,527	-0,057	-0,065
-485,678	297,328	-0,096	-0,127
-484,664	85,779	0,119	0,094
-483,649	107,733	-0,080	-0,068
-482,635	-117,947	0,038	0,005
-481,620	-82,639	0,022	0,005
-480,605	259,940	0,105	0,130
-479,591	-25,053	-0,031	0,013
-478,576	393,241	0,029	0,044
-477,562	314,732	-0,145	-0,197
-476,547	-90,486	-0,092	0,019
-475,532	-150,328	-0,070	-0,004
-474,518	800,000	0,070	-0,174
-473,503	111,537	0,125	-0,108
-472,489	-200,000	0,032	-0,153
-471,474	800,000	0,055	0,113
-470,459	-200,000	0,002	0,030
-469,445	-200,000	0,014	-0,081
-468,430	-200,000	-0,002	0,021
-467,416	800,000	-0,041	0,086
-466,401	216,211	0,049	-0,056
-465,386	-44,675	0,042	0,015
-464,372	-200,000	-0,021	0,098
-463,357	-200,000	0,008	0,138
-462,343	769,616	-0,036	0,070
-461,328	-7,211	-0,035	-0,017
-460,313	-120,770	0,078	-0,009
-459,299	-200,000	-0,024	0,119
-458,284	-200,000	0,007	-0,028
-457,270	327,383	-0,008	0,011
-456,255	719,629	-0,055	-0,105
-455,241	-88,768	-0,084	0,018
-454,226	-200,000	0,012	0,102
-453,211	-200,000	-0,024	0,115
-452,197	-24,404	-0,050	-0,021
-451,182	162,879	-0,049	0,049
-450,168	567,161	0,029	0,050
-449,153	765,582	-0,032	0,064
-448,138	-130,325	-0,079	-0,008
-447,124	-200,000	-0,003	0,025
-446,109	-132,086	-0,068	0,006
-445,095	-22,214	-0,148	0,064
-444,080	800,000	0,061	0,136
-443,065	800,000	0,008	-0,021
-442,051	800,000	0,015	-0,045
-441,036	-52,023	0,074	0,025
-440,022	49,565	-0,194	-0,131
-439,007	-200,000	0,001	-0,162
-437,992	-200,000	-0,002	-0,098
-436,978	-2,416	0,038	-0,019
-435,963	-115,347	0,082	-0,011
-434,949	-200,000	-0,010	-0,144
-433,934	-200,000	-0,031	-0,126
-432,919	-2,180	-0,170	-0,086
-431,905	-181,785	0,163	-0,002
-430,890	-119,264	0,041	0,005
-429,876	-115,334	-0,100	0,013
-428,861	800,000	-0,035	0,091
-427,846	-95,110	-0,126	0,024
-426,832	-14,803	-0,036	-0,016
-425,817	-200,000	-0,004	-0,021
-424,803	-49,720	-0,009	-0,003
-423,788	-200,000	0,003	-0,027
-422,773	-128,922	0,171	0,017
-421,759	106,768	-0,059	-0,050
-420,744	-200,000	0,034	-0,158
-419,730	248,779	0,084	0,102
-418,715	-113,255	0,106	0,015
-417,701	-85,458	0,109	-0,024
-416,686	531,773	-0,047	-0,080
-415,671	-200,000	-0,012	0,106
-414,657	-200,000	0,001	-0,068
-413,642	-104,527	-0,124	0,020
-412,628	120,909	-0,093	-0,084
-411,613	-48,350	-0,089	-0,030
-410,598	162,895	0,001	-0,001
-409,584	-27,505	-0,057	-0,024
-408,569	403,185	0,032	0,049
-407,555	789,661	-0,036	-0,070
-406,540	140,718	-0,039	-0,037
-405,525	-191,062	-0,108	-0,001
-404,511	-200,000	0,021	-0,096
-403,496	-110,493	-0,082	-0,012
-402,482	-18,084	-0,107	-0,048
-401,467	365,843	0,057	-0,082
-400,452	-196,343	-0,055	-0,000
-399,438	276,802	0,071	0,091
-398,423	-200,000	-0,025	0,113
-397,409	-162,399	-0,146	-0,005
-396,394	800,000	0,028	-0,073
-395,379	-172,649	0,067	0,001
-394,365	-200,000	0,026	0,127
-393,350	338,775	0,119	0,166
-392,336	-79,550	0,223	0,054
-391,321	49,969	-0,045	-0,031
-390,306	33,881	0,034	-0,021
-389,292	-200,000	-0,004	-0,060
-388,277	25,707	-0,052	0,031
-387,263	184,129	-0,095	0,101
-386,248	-65,034	0,184	0,053
-385,233	126,863	0,085	0,077
-384,219	-65,582	0,094	-0,027
-383,204	215,776	-0,132	-0,150
-382,190	156,968	0,040	-0,040
-381,175	334,892	0,053	0,074
-380,160	-46,014	0,096	-0,034
-379,146	-200,000	0,008	-0,103
-378,131	22,923	0,092	0,054
-377,117	381,425	0,045	0,067
-376,102	-200,000	-0,009	0,044
-375,088	800,000	-0,043	-0,125
-374,073	-36,132	-0,123	0,047
-373,058	-18,449	0,129	0,058
-372,044	-200,000	-0,018	0,104
-371,029	800,000	0,085	0,221
-370,015	-200,000	0,007	0,086
-369,000	-49,700	0,052	0,018
-367,985	-143,030	-0,134	0,009
-366,971	175,680	-0,073	0,076
-365,956	-3,434	-0,057	-0,029
-364,942	-200,000	0,028	-0,104
-363,927	-101,614	0,111	0,019
-362,912	20,534	0,118	0,068
-361,898	-200,000	0,015	-0,093
-360,883	-200,000	-0,001	0,036
-359,869	135,470	-0,031	-0,029
-358,854	155,345	0,014	-0,014
-357,839	-200,000	-0,015	0,090
-356,825	64,878	-0,058	-0,042
-355,810	0,433	0,099	0,051
-354,796	192,690	-0,060	-0,065
-353,781	705,283	0,028	-0,053
-352,766	3,647	-0,055	-0,029
-351,752	-22,606	0,104	-0,045
-350,737	40,872	0,004	-0,002
-349,723	680,286	-0,086	0,162
-348,708	491,985	-0,022	0,037
-347,693	612,512	0,053	-0,095
-346,679	-38,887	0,106	0,040
-345,664	-200,000	0,005	-0,080
-344,650	14,912	0,110	0,062
-343,635	-200,000	0,000	0,134
-342,620	-139,737	-0,025	-0,002
-341,606	314,889	0,107	0,145
-340,591	-200,000	-0,007	-0,098
-339,577	-60,958	0,081	0,024
-338,562	166,706	-0,100	-0,102
-337,548	800,000	-0,062	-0,157
-336,533	-192,868	0,150	0,001
-335,518	89,781	0,024	-0,019
-334,504	-139,009	-0,055	-0,004
-333,489	486,870	-0,045	0,074
-332,475	-200,000	0,001	-0,064
-331,460	-51,037	-0,135	-0,045
-330,445	-72,161	0,085	0,022
-329,431	-11,630	-0,137	0,064
-328,416	-158,218	0,261	-0,011
-327,402	-103,241	0,149	0,025
-326,387	74,527	-0,109	0,082
-325,372	-200,000	-0,008	-0,043
-324,358	800,000	-0,025	-0,069
-323,343	800,000	-0,050	-0,100
-322,329	-61,501	0,073	-0,022
-321,314	8,644	0,138	0,074
-320,299	-102,295	-0,033	0,006
-319,285	-63,610	-0,004	0,001
-318,270	21,636	0,014	0,008
-317,256	-200,000	0,010	0,088
-316,241	5,403	0,083	-0,044
-315,226	2,665	-0,029	-0,015
-314,212	-57,121	0,143	0,045
-313,197	764,230	-0,007	-0,013
-312,183	-200,000	-0,014	0,104
-311,168	-200,000	0,006	-0,039
-310,153	800,000	-0,103	-0,204
-309,139	118,994	-0,044	-0,039
-308,124	542,734	0,021	0,035
-307,110	280,895	0,190	0,244
-306,095	515,339	-0,034	-0,057
-305,080	377,724	0,065	-0,095
-304,066	-200,000	-0,027	-0,092
-303,051	282,064	-0,027	-0,035
-302,037	-7,216	-0,034	0,016
-301,022	-200,000	-0,032	0,148
-300,008	24,253	0,032	0,019
-298,993	-200,000	-0,011	0,167
-297,978	-39,471	-0,144	-0,054
-296,964	-200,000	-0,004	-0,088
-295,949	473,900	-0,102	-0,165
-294,935	800,000	-0,076	0,179
-293,920	-2,309	0,087	0,043
-292,905	141,558	-0,062	-0,059
-291,891	12,139	0,043	0,024
-290,876	56,187	-0,030	0,021
-289,862	-148,604	-0,113	0,006
-288,847	-78,500	-0,137	0,033
-287,832	52,430	0,057	-0,039
-286,818	35,392	0,091	0,057
-285,803	-18,068	0,031	-0,014
-284,789	219,991	0,056	-0,064
-283,774	800,000	0,032	0,078
-282,759	17,669	-0,034	-0,019
-281,745	-48,301	-0,084	-0,029
-280,730	473,961	-0,073	-0,118
-279,716	84,014	0,068	0,053
-278,701	463,420	0,069	0,110
-277,686	-200,000	-0,002	0,073
-276,672	211,923	0,097	0,109
-275,657	-49,733	0,077	0,026
-274,643	386,244	-0,053	-0,079
-273,628	82,952	-0,047	0,036
-272,613	-200,000	0,033	0,141
-271,599	-200,000	0,009	0,087
-270,584	-9,055	0,014	0,007
-269,570	-200,000	0,004	-0,112
-268,555	-35,807	-0,128	0,049
-267,540	185,218	0,083	0,088
-266,526	365,871	0,038	0,055
-265,511	-108,873	0,065	0,010
-264,497	800,000	-0,035	-0,090
-263,482	156,222	0,051	-0,050
-262,467	-12,650	0,084	0,039
-261,453	-188,840	-0,099	0,001
-260,438	-24,259	-0,159	-0,068
-259,424	-200,000	-0,036	-0,125
-258,409	-200,000	-0,008	-0,095
-257,395	-200,000	0,025	-0,128
-256,380	270,003	0,082	0,103
-255,365	93,593	0,091	-0,073
-254,351	-151,503	0,117	0,006
-253,336	-181,720	-0,155	-0,002
-252,322	-200,000	-0,012	-0,199
-251,307	26,372	-0,054	-0,032
-250,292	102,458	-0,085	-0,071
-249,278	160,191	-0,033	0,033
-248,263	800,000	-0,039	0,084
-247,249	-65,975	0,217	0,061
-246,234	36,488	-0,091	-0,057
-245,219	-200,000	-0,021	-0,087
-244,205	276,982	-0,067	0,085
-243,190	148,005	0,017	-0,016
-242,176	-178,034	-0,029	-0,000
-241,161	-200,000	0,011	0,076
-240,146	75,904	-0,041	-0,031
-239,132	-33,099	-0,134	0,053
-238,117	800,000	-0,024	-0,073
-237,103	366,190	0,034	0,049
-236,088	-200,000	-0,010	-0,071
-235,073	-200,000	0,028	-0,090
-234,059	28,934	-0,073	-0,044
-233,044	800,000	0,041	-0,096
-232,030	800,000	-0,024	-0,075
-231,015	-200,000	-0,021	-0,076
-230,000	-12,784	0,050	0,023
-228,986	166,559	-0,080	0,081
-227,971	800,000	0,002	-0,007
-226,957	787,497	0,074	0,146
-225,942	-5,631	0,084	0,041
-224,927	-40,579	-0,203	0,075
-223,913	26,324	-0,085	0,051
-222,898	36,450	-0,114	0,072
-221,884	-19,841	0,117	-0,051
-220,869	-95,243	0,074	0,014
-219,855	-136,030	0,122	0,010
-218,840	-17,390	0,057	0,026
-217,825	-152,375	0,149	0,008
-216,811	29,106	-0,032	-0,019
-215,796	800,000	-0,083	-0,177
-214,782	-200,000	-0,022	-0,140
-213,767	171,696	0,116	-0,118
-212,752	-42,843	0,059	-0,021
-211,738	-200,000	0,027	0,111
-210,723	-200,000	0,007	-0,154
-209,709	-200,000	0,002	-0,092
-208,694	-23,181	-0,074	-0,031
-207,679	-200,000	-0,021	-0,145
-206,665	-200,000	-0,011	-0,058
-205,650	-144,987	0,136	0,009
-204,636	-200,000	0,009	0,062
-203,621	-200,000	0,006	-0,028
-202,606	-99,334	-0,157	-0,028
-201,592	69,521	-0,104	-0,076
-200,577	162,272	-0,050	0,050
-199,563	-36,166	0,083	0,032
-198,548	-200,000	0,002	0,079
-197,533	800,000	0,051	0,113
-196,519	427,792	0,043	0,066
-195,504	-140,342	-0,158	0,012
-194,490	130,749	-0,022	-0,020
-193,475	-200,000	-0,014	-0,162
-192,460	-200,000	0,063	0,217
-191,446	-200,000	-0,003	-0,171
-190,431	310,729	0,044	0,059
-189,417	691,004	-0,083	0,156
-188,402	456,230	0,064	-0,102
-187,387	-200,000	-0,006	-0,152
-186,373	-170,620	0,028	-0,001
-185,358	-200,000	-0,001	-0,177
-184,344	392,774	0,067	0,099
-183,329	-200,000	0,002	0,123
-182,315	142,969	0,135	0,127
-181,300	-200,000	0,006	0,071
-180,285	94,037	-0,069	-0,055
-179,271	800,000	-0,012	0,026
-178,256	13,564	-0,163	-0,090
-177,242	-200,000	0,020	-0,095
-176,227	800,000	0,024	0,058
-175,212	-200,000	-0,034	0,163
-174,198	-55,412	0,107	0,034
-173,183	117,347	-0,076	-0,067
-172,169	67,339	-0,089	-0,065
-171,154	73,290	-0,070	0,052
-170,139	117,893	0,075	-0,066
-169,125	-200,000	-0,007	0,082
-168,110	-10,996	0,086	0,040
-167,096	113,434	-0,105	-0,090
-166,081	356,895	-0,040	-0,057
-165,066	30,847	-0,111	0,068
-164,052	-41,903	-0,044	-0,016
-163,037	-83,793	-0,028	-0,006
-162,023	768,498	0,056	-0,108
-161,008	247,796	0,030	0,036
-159,993	-200,000	-0,036	-0,177
-158,979	20,930	-0,125	-0,072
-157,964	-22,329	-0,111	-0,048
-156,950	-200,000	0,006	-0,092
-155,935	678,728	-0,021	0,039
-154,920	-2,857	-0,084	0,042
-153,906	-154,735	0,086	0,004
-152,891	350,754	-0,047	-0,066
-151,877	800,000	0,032	-0,068
-150,862	-200,000	0,021	-0,086
-149,847	65,026	-0,128	-0,092
-148,833	60,536	-0,104	0,073
-147,818	66,120	-0,068	0,049
-146,804	-200,000	0,009	0,047
-145,789	-200,000	-0,010	0,181
-144,775	111,019	0,093	0,080
-143,760	406,452	0,068	-0,102
-142,745	800,000	-0,034	0,101
-141,731	800,000	-0,055	-0,161
-140,716	-200,000	0,010	0,060
-139,702	-200,000	0,018	0,100
-138,687	-200,000	0,008	0,074
-137,672	-34,124	0,139	0,054
-136,658	800,000	0,055	-0,118
-135,643	59,470	-0,085	-0,060
-134,629	220,191	-0,023	-0,026
-133,614	18,377	-0,098	-0,055
-132,599	-200,000	0,020	0,168
-131,585	-200,000	-0,035	0,132
-130,570	304,631	-0,028	0,038
-129,556	132,353	0,059	-0,054
-128,541	-126,219	-0,076	-0,008
-127,526	-200,000	-0,016	-0,096
-126,512	-200,000	-0,005	0,062
-125,497	-125,839	0,053	0,006
-124,483	349,437	-0,065	-0,092
-123,468	-158,044	-0,076	0,003
-122,453	-74,663	-0,143	0,036
-121,439	-59,136	0,042	-0,013
-120,424	159,995	0,098	-0,097
-119,410	800,000	-0,039	-0,100
-118,395	613,727	0,069	0,124
-117,380	136,981	-0,082	-0,076
-116,366	-122,091	-0,135	0,016
-115,351	197,871	0,086	0,094
-114,337	-200,000	0,005	0,047
-113,322	-61,036	0,007	0,002
-112,307	48,934	0,073	0,048
-111,293	65,875	-0,024	0,017
-110,278	9,946	0,101	0,054
-109,264	-49,840	0,056	-0,019
-108,249	348,400	-0,030	0,042
-107,234	800,000	-0,058	-0,115
-106,220	-200,000	0,012	-0,152
-105,205	-200,000	0,013	0,055
-104,191	-200,000	0,028	-0,163
-103,176	-200,000	-0,013	0,116
-102,162	366,031	-0,033	0,047
-101,147	-200,000	0,009	-0,039
-100,132	-14,782	-0,193	0,088
-99,118	53,445	-0,161	-0,110
-98,103	-113,415	0,116	-0,016
-97,089	-99,957	0,094	-0,016
-96,074	-100,747	0,062	-0,011
-95,059	-64,794	0,060	0,017
-94,045	13,906	-0,043	0,024
-93,030	800,000	-0,044	-0,098
-92,016	126,117	-0,025	-0,023
-91,001	228,429	-0,035	-0,041
-89,986	-200,000	0,006	0,079
-88,972	339,353	0,092	0,127
-87,957	106,190	-0,092	0,077
-86,943	-124,033	-0,140	-0,015
-85,928	-79,583	-0,087	0,021
-84,913	235,467	-0,118	-0,138
-83,899	-200,000	-0,008	-0,122
-82,884	-61,758	-0,095	0,028
-81,870	-86,982	0,063	0,013
-80,855	-200,000	-0,002	0,064
-79,840	-154,927	0,051	0,002
-78,826	127,044	-0,048	-0,043
-77,811	548,679	-0,037	-0,064
-76,797	800,000	0,011	-0,024
-75,782	800,000	0,025	-0,054
-74,767	-9,569	-0,059	0,028
-73,753	100,309	-0,067	0,055
-72,738	62,028	0,133	-0,094
-71,724	800,000	0,018	0,053
-70,709	238,980	-0,135	-0,160
-69,694	23,266	-0,014	0,008
-68,680	570,652	-0,047	-0,082
-67,665	800,000	0,060	0,168
-66,651	474,474	0,078	0,125
-65,636	-200,000	0,038	-0,143
-64,622	60,162	-0,082	-0,057
-63,607	17,945	0,081	-0,046
-62,592	109,342	-0,064	0,054
-61,578	-200,000	-0,016	-0,056
-60,563	-200,000	0,042	0,156
-59,549	329,970	0,063	0,086
-58,534	-54,033	-1,402	-0,449
-57,519	419,301	-1,533	-2,332
-56,505	-200,000	-0,460	-4,350
-55,490	95,741	0,909	0,735
-54,476	800,000	4,772	11,266
-53,461	-200,000	17,902	286,712
-52,446	800,000	723,694	2229,403
-51,432	559,530	1637,879	2811,809
-50,417	80,054	1660,834	1263,497
-49,403	23,182	1534,893	890,241
-48,388	17,162	1458,311	816,758
-47,373	17,933	1448,162	814,742
-46,359	17,460	1438,744	807,158
-45,344	15,434	1433,929	794,781
-44,330	15,360	1431,926	793,287
-43,315	15,369	1430,380	792,442
-42,300	15,383	1428,641	791,511
-41,286	15,396	1427,493	790,905
-40,271	15,382	1426,205	790,097
-39,257	15,378	1425,026	789,390
-38,242	15,438	1423,772	788,951
-37,227	15,469	1422,262	788,229
-36,213	15,421	1421,184	787,373
-35,198	15,410	1420,049	786,662
-34,184	15,452	1419,111	786,309
-33,169	15,360	1417,885	785,163
-32,154	15,389	1416,823	784,680
-31,140	15,430	1415,604	784,170
-30,125	15,464	1414,441	783,653
-29,111	15,411	1413,169	782,666
-28,096	15,395	1412,219	782,037
-27,082	15,358	1411,102	781,213
-26,067	15,312	1410,057	780,389
-25,052	15,298	1408,913	779,661
-24,038	15,354	1407,757	779,249
-23,023	15,340	1406,744	778,592
-22,009	15,293	1405,993	777,927
-20,994	15,285	1404,993	777,305
-19,979	15,308	1403,920	776,787
-18,965	15,273	1402,957	776,060
-17,950	15,251	1401,998	775,396
-16,936	15,305	1401,118	775,129
-15,921	15,285	1399,689	774,218
-14,906	15,213	1398,955	773,446
-13,892	15,251	1398,029	773,082
-12,877	15,234	1397,261	772,545
-11,863	15,253	1396,345	772,097
-10,848	15,264	1395,508	771,654
-9,833	15,205	1394,677	770,891
-8,819	15,179	1393,608	770,150
-7,804	15,142	1392,692	769,439
-6,790	15,094	1391,766	768,675
-5,775	15,143	1390,685	768,275
-4,760	15,158	1389,807	767,831
-3,746	15,121	1389,013	767,190
-2,731	15,142	1388,190	766,800
-1,717	15,122	1387,225	766,147
-0,702	15,095	1385,565	765,073
0,313	19,006	1305,472	738,872
1,327	35,418	706,640	437,954
2,342	54,743	124,944	85,176
3,356	1,131	16,652	8,430
4,371	13,040	3,012	1,644
5,386	-5,515	0,534	0,258
6,400	800,000	-0,053	0,119
7,415	29,500	-0,252	-0,151
8,429	4,557	-0,372	-0,193
9,444	191,436	-0,217	-0,232
10,459	65,100	-0,361	-0,258
11,473	31,906	-0,298	-0,181
12,488	-42,714	-0,163	-0,058
13,502	156,100	-0,248	-0,242
14,517	153,817	-0,337	-0,327
15,531	304,748	-0,262	-0,345
16,546	141,506	-0,397	-0,371
17,561	66,898	-0,402	-0,289
18,575	-118,361	-0,192	-0,024
19,590	113,641	-0,305	-0,262
20,604	15,474	-0,321	-0,178
21,619	30,706	-0,491	-0,296
22,634	196,342	-0,461	-0,496
23,648	26,005	-0,484	-0,285
24,663	-32,915	-0,322	-0,126
25,677	-23,437	-0,435	-0,184
26,692	10,754	-0,336	-0,181
27,707	-23,322	-0,326	-0,138
28,721	-94,330	-0,351	-0,067
29,736	83,499	-0,360	-0,276
30,750	159,865	-0,306	-0,301
31,765	-22,365	-0,367	-0,156
32,780	51,016	-0,440	-0,294
33,794	41,098	-0,323	-0,205
34,809	48,990	-0,426	-0,282
35,823	3,237	-0,330	-0,169
36,838	264,318	-0,325	-0,400
37,853	298,625	-0,342	-0,445
38,867	578,516	-0,190	-0,329
39,882	68,907	-0,335	-0,242
40,896	43,712	-0,321	-0,207
41,911	143,113	-0,420	-0,395
42,926	67,785	-0,310	-0,224
43,940	41,252	-0,282	-0,179
44,955	41,046	-0,338	-0,215
45,969	45,966	-0,202	-0,132
46,984	14,719	-0,332	-0,182
47,999	-111,189	-0,179	-0,026
49,013	173,674	-0,243	-0,247
50,028	123,563	-0,343	-0,303
51,042	69,830	-0,388	-0,282
52,057	144,966	-0,294	-0,277
53,071	83,898	-0,347	-0,267
54,086	100,842	-0,296	-0,242
55,101	99,308	-0,325	-0,265
56,115	-34,716	-0,293	-0,112
57,130	-27,771	-0,360	-0,147
58,144	105,874	-0,394	-0,328
59,159	85,708	-0,309	-0,239
60,174	328,383	-0,212	-0,288
61,188	168,571	-0,394	-0,396
62,203	23,115	-0,311	-0,179
63,217	-22,944	-0,410	-0,173
64,232	-31,341	-0,368	-0,145
65,247	-47,654	-0,390	-0,132
66,261	-76,397	-0,491	-0,121
67,276	30,959	-0,361	-0,217
68,290	34,123	-0,355	-0,217
69,305	-55,850	-0,402	-0,125
70,320	-32,220	-0,445	-0,174
71,334	-30,512	-0,300	-0,119
72,349	72,225	-0,355	-0,260
73,363	18,791	-0,297	-0,167
74,378	176,956	-0,199	-0,204
75,393	164,036	-0,231	-0,229
76,407	15,197	-0,360	-0,198
77,422	-21,229	-0,301	-0,129
78,436	7,767	-0,291	-0,153
79,451	36,075	-0,387	-0,239
80,466	353,078	-0,221	-0,309
81,480	43,423	-0,344	-0,221
82,495	30,435	-0,396	-0,237
83,509	-3,658	-0,417	-0,203
84,524	185,245	-0,251	-0,262
85,539	-27,273	-0,277	-0,113
86,553	-18,433	-0,219	-0,096
87,568	-31,767	-0,302	-0,118
88,582	115,193	-0,254	-0,218
89,597	-17,385	-0,298	-0,131
90,611	27,256	-0,292	-0,172
91,626	15,391	-0,187	-0,103
92,641	-49,018	-0,304	-0,102
93,655	429,461	-0,212	-0,322
94,670	82,292	-0,285	-0,217
95,684	355,839	-0,257	-0,361
96,699	88,058	-0,379	-0,295
97,714	-63,429	-0,232	-0,066
98,728	91,566	-0,262	-0,206
99,743	-9,067	-0,292	-0,137
100,757	200,709	-0,111	-0,120
101,772	10,777	-0,389	-0,208
102,787	-11,126	-0,376	-0,173
103,801	251,393	-0,203	-0,243
104,816	36,639	-0,208	-0,129
105,830	145,582	-0,198	-0,186
106,845	404,430	-0,214	-0,317
107,860	58,077	-0,342	-0,234
108,874	567,840	-0,185	-0,316
109,889	59,524	-0,311	-0,214
110,903	206,350	-0,204	-0,223
111,918	43,020	-0,227	-0,145
112,933	177,585	-0,131	-0,134
113,947	2,228	-0,157	-0,079
114,962	145,434	-0,129	-0,121
115,976	-10,139	-0,364	-0,169
116,991	129,659	-0,247	-0,221
118,006	-9,340	-0,366	-0,171
119,020	501,135	-0,197	-0,320
120,035	-21,449	-0,253	-0,107
121,049	-89,003	-0,242	-0,050
122,064	-138,493	-0,285	-0,022
123,079	-29,965	-0,332	-0,132
124,093	46,334	-0,319	-0,207
125,108	75,551	-0,223	-0,165
126,122	79,936	-0,215	-0,162
127,137	163,734	-0,181	-0,179
128,151	-66,903	-0,242	-0,066
129,166	-15,961	-0,256	-0,114
130,181	105,833	-0,264	-0,219
131,195	-77,020	-0,348	-0,084
132,210	142,532	-0,281	-0,261
133,224	151,433	-0,202	-0,192
134,239	186,383	-0,201	-0,209
135,254	-30,370	-0,303	-0,120
136,268	15,804	-0,289	-0,158
137,283	1,425	-0,308	-0,154
138,297	181,003	-0,250	-0,258
139,312	230,713	-0,239	-0,274
140,327	181,634	-0,229	-0,236
141,341	-102,057	-0,315	-0,053
142,356	-71,277	-0,289	-0,075
143,370	129,913	-0,125	-0,112
144,385	101,506	-0,087	-0,071
145,400	-12,501	-0,379	-0,172
146,414	66,921	-0,300	-0,213
147,429	205,808	-0,250	-0,272
148,443	30,834	-0,279	-0,167
149,458	-140,073	-0,375	0,027
150,473	-55,802	-0,171	-0,053
151,487	80,812	-0,233	-0,176
152,502	147,031	-0,213	-0,201
153,516	169,537	-0,205	-0,205
154,531	170,494	-0,220	-0,220
155,546	87,377	-0,151	-0,116
156,560	-164,989	-0,265	0,008
157,575	800,000	-0,108	-0,318
158,589	6,264	-0,223	-0,115
159,604	-83,879	-0,241	-0,053
160,619	82,001	-0,309	-0,233
161,633	118,618	-0,243	-0,209
162,648	54,114	-0,325	-0,218
163,662	40,175	-0,206	-0,129
164,677	7,465	-0,260	-0,135
165,692	-95,424	-0,288	-0,053
166,706	800,000	-0,124	-0,282
167,721	8,188	-0,330	-0,172
168,735	32,965	-0,260	-0,157
169,750	151,656	-0,253	-0,241
170,764	-36,382	-0,244	-0,091
171,779	5,785	-0,303	-0,156
172,794	172,110	-0,198	-0,198
173,808	75,034	-0,169	-0,124
174,823	80,674	-0,210	-0,158
175,837	170,492	-0,211	-0,211
176,852	161,273	-0,271	-0,265
177,867	152,637	-0,176	-0,168
178,881	108,574	-0,172	-0,143
179,896	-44,870	-0,183	-0,063
180,910	739,126	-0,083	-0,156
181,925	225,400	-0,236	-0,267
182,940	96,864	-0,164	-0,131
183,954	404,462	-0,164	-0,242
184,969	198,806	-0,231	-0,247
185,983	6,445	-0,260	-0,134
186,998	-139,519	-0,274	-0,020
188,013	-2,557	-0,209	-0,102
189,027	329,863	-0,216	-0,290
190,042	8,546	-0,251	-0,131
191,056	106,824	-0,241	-0,199
192,071	99,182	-0,275	-0,221
193,086	116,786	-0,166	-0,142
194,100	75,789	-0,178	-0,131
195,115	71,158	-0,313	-0,226
196,129	74,564	-0,291	-0,213
197,144	250,019	-0,168	-0,198
198,159	47,708	-0,251	-0,163
199,173	-23,962	-0,237	-0,098
200,188	126,045	-0,145	-0,128
201,202	6,851	-0,249	-0,128
202,217	326,551	-0,122	-0,163
203,232	-31,064	-0,256	-0,100
204,246	-29,967	-0,356	-0,140
205,261	94,563	-0,246	-0,194
206,275	21,675	-0,321	-0,181
207,290	-25,301	-0,176	0,072
208,304	193,075	-0,144	-0,151
209,319	-97,208	-0,243	0,044
210,334	-39,899	-0,140	-0,051
211,348	96,441	-0,169	-0,134
212,363	-200,000	-0,040	-0,222
213,377	226,077	-0,150	-0,169
214,392	-92,706	-0,289	-0,056
215,407	203,682	-0,119	-0,128
216,421	-1,337	-0,296	-0,145
217,436	-116,382	-0,280	-0,036
218,450	43,785	-0,172	-0,109
219,465	377,159	-0,136	-0,193
220,480	800,000	-0,107	-0,224
221,494	4,779	-0,221	-0,112
222,509	-177,001	-0,199	-0,003
223,523	-124,827	-0,146	0,015
224,538	186,693	-0,122	-0,126
225,553	-54,619	-0,220	-0,069
226,567	-35,969	-0,282	-0,105
227,582	303,580	-0,172	-0,221
228,596	141,711	-0,165	-0,151
229,611	13,927	-0,145	-0,078
230,626	-135,528	-0,103	-0,008
231,640	395,086	-0,071	-0,102
232,655	-39,039	-0,169	-0,061
233,669	800,000	-0,069	-0,199
234,684	255,527	-0,140	-0,167
235,699	111,604	-0,191	-0,160
236,713	-62,089	-0,185	-0,053
237,728	109,017	-0,148	-0,123
238,742	57,192	-0,137	-0,093
239,757	59,113	-0,124	-0,085
240,772	352,923	-0,137	-0,189
241,786	78,654	-0,225	-0,166
242,801	-60,122	-0,179	-0,053
243,815	-84,762	-0,217	0,047
244,830	-5,846	-0,112	-0,053
245,844	-40,716	-0,197	-0,070
246,859	-68,739	-0,163	-0,043
247,874	-71,054	-0,156	-0,040
248,888	-22,514	-0,178	-0,074
249,903	30,036	-0,242	-0,143
250,917	800,000	-0,073	-0,168
251,932	21,619	-0,205	-0,115
252,947	-19,398	-0,212	-0,091
253,961	60,657	-0,254	-0,174
254,976	353,934	-0,187	-0,257
255,990	28,070	-0,210	-0,122
257,005	318,932	-0,094	-0,124
258,020	-184,141	-0,142	0,002
259,034	616,704	-0,040	-0,070
260,049	-200,000	-0,038	-0,176
261,063	114,584	-0,222	-0,187
262,078	281,638	-0,160	-0,199
263,093	14,054	-0,216	-0,116
264,107	800,000	-0,050	-0,116
265,122	208,281	-0,202	-0,218
266,136	79,667	-0,154	-0,114
267,151	-105,250	-0,158	-0,025
268,166	361,453	-0,105	-0,146
269,180	-58,453	-0,191	-0,057
270,195	559,448	-0,094	-0,157
271,209	800,000	-0,119	-0,276
272,224	502,960	-0,123	-0,197
273,239	81,870	-0,191	-0,143
274,253	256,274	-0,091	-0,108
275,268	-96,549	-0,218	0,039
276,282	184,559	-0,155	-0,159
277,297	-156,207	-0,140	-0,006
278,312	14,691	-0,207	-0,111
279,326	232,563	-0,039	-0,044
280,341	-200,000	-0,011	-0,078
281,355	521,849	-0,120	-0,195
282,370	33,651	-0,082	-0,049
283,384	419,633	-0,109	-0,162
284,399	211,694	-0,216	-0,236
285,414	-87,550	-0,273	-0,057
286,428	-103,944	-0,205	-0,033
287,443	-76,601	-0,242	0,058
288,457	71,024	-0,112	-0,080
289,472	-15,807	-0,255	-0,112
290,487	110,433	-0,228	-0,189
291,501	120,100	-0,121	-0,103
292,516	-67,733	-0,286	-0,077
293,530	-132,734	-0,204	0,018
294,545	-34,500	-0,122	-0,046
295,560	-148,663	-0,173	0,010
296,574	553,764	-0,090	-0,150
297,589	74,393	-0,211	-0,153
298,603	107,006	-0,137	-0,112
299,618	10,420	-0,215	-0,113
300,633	230,750	-0,182	-0,206
301,647	-41,464	-0,140	-0,050
302,662	-180,508	-0,126	-0,002
303,676	36,918	-0,107	-0,065
304,691	73,251	-0,219	-0,158
305,706	85,772	-0,232	-0,175
306,720	163,973	-0,170	-0,165
307,735	21,201	-0,166	-0,093
308,749	63,285	-0,112	-0,077
309,764	800,000	-0,075	-0,166
310,779	800,000	-0,086	-0,180
311,793	206,011	-0,177	-0,190
312,808	19,494	-0,179	-0,099
313,822	-39,404	-0,145	-0,052
314,837	118,704	-0,107	-0,091
315,852	800,000	-0,025	-0,066
316,866	212,581	-0,163	-0,177
317,881	207,747	-0,141	-0,152
318,895	-46,889	-0,133	-0,045
319,910	53,928	-0,215	-0,142
320,925	68,004	-0,101	-0,071
321,939	310,076	-0,074	-0,096
322,954	250,792	-0,141	-0,166
323,968	-127,788	-0,058	-0,006
324,983	262,810	-0,180	-0,215
325,997	23,934	-0,195	-0,110
327,012	-71,692	-0,116	-0,030
328,027	-54,182	-0,168	-0,052
329,041	800,000	-0,085	-0,178
330,056	308,109	-0,103	-0,133
331,070	360,306	-0,067	-0,092
332,085	-64,848	-0,079	-0,022
333,100	3,005	-0,134	0,067
334,114	800,000	-0,066	-0,127
335,129	71,476	-0,296	-0,211
336,143	112,547	-0,158	-0,131
337,158	92,345	-0,180	-0,139
338,173	-85,248	-0,147	-0,031
339,187	654,425	-0,087	-0,155
340,202	126,330	-0,115	-0,100
341,216	280,332	-0,083	-0,102
342,231	-166,773	-0,138	-0,004
343,246	140,393	-0,098	-0,088
344,260	-62,377	-0,126	-0,036
345,275	-175,226	-0,220	0,004
346,289	560,428	-0,092	-0,153
347,304	271,917	-0,129	-0,156
348,319	162,390	-0,075	-0,073
349,333	236,931	-0,157	-0,179
350,348	190,712	-0,171	-0,177
351,362	-84,873	-0,205	-0,044
352,377	53,866	-0,079	-0,052
353,392	-90,608	-0,132	-0,026
354,406	80,827	-0,068	-0,050
355,421	207,918	1313,655	1409,672
356,435	159,961	1474,280	1410,190
