DTS Sentinel unit serial number:	SN410029Multiplexer serial number:	ORYXHardware model number:	OX2-SRSoftware version number:	ORYX F/W v4,00 Oryx Data Collector v3.7.2.0data status	okinstallation	B3 Nyhavnadifferential loss correction	single-endedforward channel	channel 1reverse channel	N/Adate	2023/11/30time	12:37:30forward acquisition time	300,00reverse acquisition time	0,00gamma	499,1914k internal	0,3213k external	0,3213temperature offset calibration	1,0000default loss term (dB/km)	0,3820temperature slope calibration	1,0000multiplexer offset coefficient	1,0000multiplexer slope coefficient	1,0000fibre end	0,00T internal ref (°C)	9,80T ext. ref 1 (°C)	-4,23T ext. ref 2 (°C)	-4,30length (m)	temperature (°C)	Stokes	anti-Stokes-744,400	39,863	-0,260	-0,169
-743,385	-200,000	-0,047	0,262
-742,371	452,292	-0,152	-0,244
-741,356	-200,000	0,060	0,390
-740,342	612,789	-0,120	-0,219
-739,327	-200,000	-0,003	0,124
-738,312	639,151	-0,191	-0,354
-737,298	-200,000	0,008	0,185
-736,283	559,805	-0,083	-0,145
-735,269	-200,000	-0,043	0,179
-734,254	800,000	-0,141	-0,313
-733,239	5,922	-0,262	0,140
-732,225	321,606	-0,117	-0,162
-731,210	-200,000	-0,019	0,110
-730,196	317,623	-0,064	0,088
-729,181	-151,989	-0,083	0,004
-728,167	-10,818	-0,137	-0,065
-727,152	-3,774	-0,042	-0,021
-726,137	546,405	0,060	-0,104
-725,123	800,000	-0,025	0,052
-724,108	-34,576	-0,074	-0,029
-723,094	39,609	-0,122	-0,079
-722,079	221,583	0,038	-0,044
-721,064	-122,406	-0,168	-0,020
-720,050	-49,549	-0,054	0,019
-719,035	40,925	-0,069	0,045
-718,021	-200,000	0,028	-0,143
-717,006	5,417	-0,094	-0,050
-715,991	270,946	-0,059	-0,075
-714,977	-65,366	-0,138	-0,040
-713,962	-100,862	0,069	-0,012
-712,948	-200,000	0,001	0,046
-711,933	-34,163	-0,016	0,006
-710,918	800,000	-0,008	-0,025
-709,904	-200,000	-0,008	-0,028
-708,889	421,109	0,032	-0,050
-707,875	80,927	0,024	-0,019
-706,860	-200,000	0,007	0,023
-705,845	338,372	-0,050	-0,071
-704,831	-80,952	0,097	0,023
-703,816	-200,000	0,017	-0,060
-702,802	-21,167	0,069	0,030
-701,787	529,900	0,047	-0,080
-700,772	-34,077	-0,005	-0,002
-699,758	-32,447	0,075	-0,030
-698,743	566,656	-0,084	-0,148
-697,729	-136,794	0,155	0,013
-696,714	0,359	-0,051	-0,026
-695,699	49,296	-0,110	-0,075
-694,685	-200,000	0,006	-0,093
-693,670	-200,000	0,012	-0,155
-692,656	-98,749	0,073	0,013
-691,641	-200,000	-0,013	-0,109
-690,627	235,080	-0,033	0,039
-689,612	-200,000	-0,020	-0,183
-688,597	800,000	-0,068	-0,174
-687,583	-200,000	-0,004	-0,031
-686,568	-77,110	-0,190	-0,047
-685,554	800,000	-0,020	0,049
-684,539	257,880	-0,030	-0,037
-683,524	800,000	-0,065	0,165
-682,510	-106,397	-0,028	0,005
-681,495	459,813	-0,042	0,068
-680,481	800,000	0,104	-0,215
-679,466	-127,827	-0,076	-0,008
-678,451	-200,000	-0,047	-0,169
-677,437	800,000	0,019	-0,058
-676,422	488,868	-0,069	-0,115
-675,408	-200,000	0,009	-0,051
-674,393	-200,000	0,021	0,069
-673,378	311,334	0,072	-0,098
-672,364	219,469	-0,006	-0,007
-671,349	121,243	-0,101	-0,091
-670,335	-200,000	0,014	-0,098
-669,320	407,439	0,064	0,099
-668,305	-72,025	0,034	0,009
-667,291	149,351	-0,038	0,038
-666,276	59,364	-0,045	-0,032
-665,262	182,283	0,016	-0,017
-664,247	-200,000	-0,002	-0,089
-663,232	800,000	-0,058	-0,122
-662,218	59,459	0,032	-0,023
-661,203	401,805	-0,014	-0,021
-660,189	800,000	-0,069	-0,155
-659,174	29,773	-0,033	0,021
-658,159	171,053	-0,085	-0,088
-657,145	138,440	-0,118	-0,112
-656,130	353,696	-0,066	0,095
-655,116	-200,000	-0,001	0,035
-654,101	-69,301	0,126	-0,035
-653,086	-200,000	-0,014	-0,163
-652,072	-139,924	-0,107	-0,008
-651,057	171,996	-0,066	-0,068
-650,043	-153,021	-0,060	0,003
-649,028	800,000	-0,018	0,036
-648,014	800,000	-0,033	0,083
-646,999	800,000	0,089	0,184
-645,984	-35,121	0,038	-0,015
-644,970	-200,000	-0,012	0,097
-643,955	-200,000	0,005	-0,164
-642,941	-85,193	-0,159	0,036
-641,926	-81,784	-0,100	-0,023
-640,911	800,000	0,046	0,126
-639,897	59,731	-0,034	0,024
-638,882	53,302	0,138	0,095
-637,868	277,860	-0,043	0,055
-636,853	-57,585	-0,129	0,041
-635,838	-85,827	0,041	-0,009
-634,824	214,454	0,074	-0,084
-633,809	-200,000	-0,004	-0,047
-632,795	-200,000	-0,004	0,141
-631,780	-21,674	0,092	0,040
-630,765	-200,000	-0,000	-0,009
-629,751	221,175	-0,103	-0,119
-628,736	588,321	-0,053	-0,095
-627,722	800,000	-0,030	-0,085
-626,707	800,000	-0,022	0,055
-625,692	137,250	0,122	0,116
-624,678	-29,880	-0,030	0,012
-623,663	800,000	0,026	0,058
-622,649	27,903	-0,144	0,087
-621,634	-200,000	-0,018	-0,081
-620,619	746,141	-0,055	-0,108
-619,605	222,879	0,048	0,056
-618,590	137,625	-0,056	0,052
-617,576	62,191	0,110	0,079
-616,561	800,000	-0,042	-0,129
-615,546	-134,556	-0,133	-0,012
-614,532	600,137	0,037	-0,067
-613,517	64,822	-0,052	-0,038
-612,503	3,890	0,191	0,101
-611,488	205,796	-0,091	-0,102
-610,474	-90,399	-0,177	-0,037
-609,459	357,510	0,040	-0,057
-608,444	-200,000	-0,027	-0,118
-607,430	-91,159	-0,038	-0,008
-606,415	-33,471	-0,036	-0,014
-605,401	657,709	0,027	-0,051
-604,386	66,358	0,074	0,054
-603,371	-200,000	0,023	0,123
-602,357	-89,622	0,026	-0,006
-601,342	800,000	0,022	0,065
-600,328	800,000	-0,071	-0,160
-599,313	-130,577	0,106	-0,010
-598,298	-200,000	0,000	-0,178
-597,284	-76,316	0,031	-0,008
-596,269	-27,498	0,098	-0,041
-595,255	-90,376	-0,068	0,014
-594,240	74,991	0,035	-0,026
-593,225	-200,000	0,015	-0,064
-592,211	42,778	0,165	-0,108
-591,196	374,458	-0,096	-0,142
-590,182	242,037	-0,021	0,025
-589,167	-200,000	0,047	0,148
-588,152	-200,000	-0,006	-0,092
-587,138	800,000	-0,022	-0,045
-586,123	-72,452	-0,087	0,023
-585,109	-5,987	-0,059	-0,029
-584,094	800,000	-0,063	-0,136
-583,079	-192,321	0,177	0,001
-582,065	-200,000	0,015	0,050
-581,050	237,228	-0,095	-0,114
-580,036	800,000	0,028	0,076
-579,021	-92,569	-0,041	0,008
-578,006	-200,000	-0,011	-0,160
-576,992	-166,179	0,051	-0,002
-575,977	-200,000	-0,012	-0,119
-574,963	800,000	-0,046	0,108
-573,948	213,288	0,048	-0,054
-572,934	53,429	-0,071	-0,049
-571,919	-200,000	0,032	-0,112
-570,904	155,728	-0,080	0,079
-569,890	63,446	-0,071	-0,051
-568,875	261,047	-0,021	-0,026
-567,861	25,074	0,091	-0,054
-566,846	260,604	-0,051	-0,064
-565,831	800,000	-0,044	-0,125
-564,817	-200,000	0,038	-0,207
-563,802	-27,489	0,241	-0,100
-562,788	-146,064	-0,107	0,007
-561,773	-200,000	0,108	0,000
-560,758	14,274	0,055	-0,031
-559,744	748,764	-0,015	-0,029
-558,729	800,000	0,026	0,069
-557,715	-200,000	-0,024	-0,107
-556,700	223,201	-0,149	-0,173
-555,685	800,000	-0,038	-0,118
-554,671	800,000	0,039	0,111
-553,656	575,498	0,044	0,077
-552,642	-110,004	0,028	0,004
-551,627	50,633	-0,030	0,021
-550,612	-200,000	0,002	0,059
-549,598	111,592	-0,077	-0,067
-548,583	17,378	-0,114	-0,065
-547,569	485,327	-0,042	-0,069
-546,554	-200,000	-0,007	-0,205
-545,539	314,577	0,057	0,077
-544,525	-200,000	0,015	-0,086
-543,510	800,000	0,047	-0,107
-542,496	800,000	-0,038	-0,118
-541,481	-13,579	-0,185	-0,086
-540,466	152,087	0,080	0,078
-539,452	292,091	-0,126	0,166
-538,437	25,052	-0,183	0,109
-537,423	156,919	0,010	0,010
-536,408	-200,000	-0,012	0,088
-535,393	-200,000	-0,041	-0,139
-534,379	-200,000	-0,021	-0,100
-533,364	-200,000	0,010	0,063
-532,350	-86,757	0,083	-0,018
-531,335	783,338	0,025	0,050
-530,321	357,759	-0,067	0,097
-529,306	-200,000	-0,010	-0,033
-528,291	-200,000	0,026	-0,240
-527,277	-104,009	-0,082	0,014
-526,262	358,152	0,023	-0,033
-525,248	-200,000	-0,009	0,037
-524,233	-200,000	0,027	0,116
-523,218	72,459	-0,090	0,068
-522,204	-200,000	-0,013	-0,118
-521,189	57,941	0,027	-0,019
-520,175	-19,553	-0,054	0,024
-519,160	-200,000	0,015	-0,063
-518,145	-200,000	-0,009	-0,070
-517,131	64,141	-0,058	-0,042
-516,116	-200,000	-0,059	0,211
-515,102	472,400	-0,060	0,097
-514,087	360,195	0,070	0,101
-513,072	-200,000	0,015	-0,153
-512,058	119,452	-0,137	0,122
-511,043	-94,632	-0,056	0,011
-510,029	44,013	0,096	0,063
-509,014	626,729	0,034	-0,062
-507,999	-200,000	0,010	-0,127
-506,985	800,000	-0,032	-0,069
-505,970	411,883	0,048	-0,074
-504,956	-98,535	0,080	0,015
-503,941	-200,000	0,007	-0,038
-502,926	442,444	0,077	0,122
-501,912	800,000	0,002	-0,005
-500,897	-121,078	0,118	0,014
-499,883	800,000	0,023	-0,049
-498,868	-112,570	-0,119	-0,017
-497,853	-82,458	0,087	0,020
-496,839	-200,000	0,006	-0,114
-495,824	32,495	0,043	0,026
-494,810	137,804	0,021	-0,020
-493,795	-200,000	0,018	0,087
-492,781	-200,000	-0,006	0,069
-491,766	-48,517	-0,054	0,019
-490,751	-77,687	0,018	-0,004
-489,737	189,510	0,047	0,050
-488,722	800,000	0,036	0,113
-487,708	419,282	0,072	0,111
-486,693	-200,000	-0,008	-0,115
-485,678	346,890	-0,101	-0,143
-484,664	-200,000	0,000	0,016
-483,649	-4,503	0,197	0,097
-482,635	-18,931	-0,105	0,047
-481,620	-200,000	-0,005	0,058
-480,605	-135,926	-0,031	0,003
-479,591	-123,102	0,138	0,016
-478,576	-103,168	-0,170	0,029
-477,562	-200,000	-0,013	-0,069
-476,547	3,763	0,053	-0,028
-475,532	606,350	-0,059	-0,107
-474,518	318,154	-0,031	0,042
-473,503	331,319	0,068	0,094
-472,489	193,420	0,003	-0,003
-471,474	-71,299	0,061	-0,016
-470,459	14,686	-0,055	0,031
-469,445	94,025	-0,108	-0,088
-468,430	-200,000	0,008	-0,078
-467,416	-200,000	0,003	0,032
-466,401	219,804	-0,077	0,089
-465,386	-61,487	0,061	-0,018
-464,372	189,858	-0,022	-0,024
-463,357	368,032	-0,075	0,109
-462,343	144,640	0,076	-0,073
-461,328	79,458	0,035	0,027
-460,313	645,011	0,058	-0,106
-459,299	-79,617	-0,106	-0,026
-458,284	-200,000	-0,033	0,114
-457,270	-200,000	0,000	-0,098
-456,255	-200,000	0,009	-0,147
-455,241	-70,325	-0,112	0,030
-454,226	-200,000	-0,029	-0,111
-453,211	-34,186	0,073	-0,029
-452,197	-109,115	0,126	0,019
-451,182	-200,000	-0,023	0,154
-450,168	-114,365	0,084	-0,011
-449,153	-200,000	-0,011	-0,156
-448,138	252,076	0,045	-0,055
-447,124	20,245	-0,057	-0,033
-446,109	56,565	0,018	0,013
-445,095	79,696	-0,092	0,071
-444,080	-125,996	0,207	-0,022
-443,065	184,188	-0,023	0,025
-442,051	269,898	-0,027	0,035
-441,036	-167,947	-0,160	0,004
-440,022	-110,803	0,129	-0,019
-439,007	-7,511	-0,166	0,080
-437,992	180,089	0,113	0,119
-436,978	-200,000	-0,006	0,098
-435,963	-160,858	0,099	0,004
-434,949	-125,497	0,048	0,005
-433,934	-136,030	-0,047	0,004
-432,919	465,086	0,075	-0,121
-431,905	-104,672	0,079	0,013
-430,890	-200,000	-0,006	-0,073
-429,876	403,562	0,091	0,137
-428,861	800,000	-0,024	0,049
-427,846	94,557	-0,031	0,025
-426,832	800,000	0,017	-0,037
-425,817	-87,360	-0,042	0,009
-424,803	53,230	0,055	-0,038
-423,788	-53,431	-0,083	-0,027
-422,773	536,432	0,045	0,077
-421,759	369,252	0,029	0,042
-420,744	271,307	0,045	-0,057
-419,730	-200,000	-0,004	-0,041
-418,715	63,434	-0,210	-0,151
-417,701	-200,000	0,029	0,110
-416,686	-89,530	0,045	0,009
-415,671	-200,000	-0,052	0,237
-414,657	-200,000	-0,010	-0,083
-413,642	-200,000	-0,015	0,055
-412,628	-200,000	0,011	-0,162
-411,613	164,558	0,061	0,062
-410,598	539,922	-0,092	-0,157
-409,584	-200,000	-0,000	-0,026
-408,569	486,001	-0,039	0,063
-407,555	612,231	0,091	0,163
-406,540	-200,000	-0,007	0,086
-405,525	-174,615	-0,158	-0,003
-404,511	-200,000	-0,034	0,130
-403,496	221,690	0,017	0,020
-402,482	-104,051	-0,088	0,014
-401,467	800,000	0,060	0,129
-400,452	324,328	-0,014	0,019
-399,438	-200,000	0,009	-0,032
-398,423	426,444	-0,055	-0,085
-397,409	90,150	-0,101	0,081
-396,394	-15,670	0,049	-0,022
-395,379	800,000	0,076	-0,164
-394,365	63,518	-0,098	-0,070
-393,350	-84,728	0,045	-0,010
-392,336	-200,000	-0,006	-0,116
-391,321	-142,483	-0,075	-0,005
-390,306	56,670	-0,083	0,058
-389,292	-200,000	0,038	-0,148
-388,277	-5,170	0,076	-0,037
-387,263	-33,345	-0,093	-0,037
-386,248	106,230	0,095	0,080
-385,233	800,000	0,034	0,082
-384,219	199,409	-0,024	0,026
-383,204	-200,000	0,015	-0,115
-382,190	56,985	0,053	-0,037
-381,175	-62,085	-0,104	-0,031
-380,160	88,847	-0,068	0,054
-379,146	-200,000	0,002	0,239
-378,131	190,846	-0,131	0,140
-377,117	-93,994	-0,069	0,013
-376,102	4,204	0,005	0,003
-375,088	347,727	-0,057	0,081
-374,073	413,943	-0,002	-0,004
-373,058	312,505	0,060	-0,081
-372,044	-43,036	0,057	0,021
-371,029	-200,000	-0,007	0,065
-370,015	-68,591	0,108	-0,030
-369,000	800,000	-0,011	-0,030
-367,985	147,852	-0,089	-0,086
-366,971	-116,515	-0,090	-0,012
-365,956	-87,025	0,196	0,042
-364,942	-200,000	0,007	0,034
-363,927	-39,639	0,067	0,025
-362,912	83,265	-0,096	0,074
-361,898	800,000	0,035	-0,069
-360,883	-200,000	0,011	-0,160
-359,869	324,045	-0,056	0,077
-358,854	528,959	0,031	0,052
-357,839	346,439	-0,080	0,112
-356,825	-105,403	0,179	0,029
-355,810	62,951	-0,034	0,024
-354,796	514,717	-0,034	0,057
-353,781	800,000	-0,048	-0,103
-352,766	187,823	-0,030	0,032
-351,752	212,736	-0,102	0,115
-350,737	368,467	0,080	-0,116
-349,723	91,749	-0,092	0,073
-348,708	398,671	0,017	-0,026
-347,693	393,098	-0,015	-0,022
-346,679	-200,000	0,010	-0,148
-345,664	-200,000	0,002	-0,057
-344,650	800,000	0,019	0,050
-343,635	-27,306	0,044	-0,018
-342,620	800,000	0,038	0,078
-341,606	-200,000	-0,009	-0,036
-340,591	191,818	-0,080	-0,086
-339,577	729,759	0,053	-0,102
-338,562	800,000	0,031	0,069
-337,548	800,000	-0,038	0,081
-336,533	-200,000	0,024	0,163
-335,518	-12,175	-0,103	0,048
-334,504	800,000	0,039	0,107
-333,489	800,000	0,067	-0,143
-332,475	-200,000	-0,016	0,078
-331,460	-42,111	-0,087	0,031
-330,445	66,782	-0,019	0,014
-329,431	-200,000	0,009	-0,095
-328,416	-115,769	0,159	0,021
-327,402	-200,000	-0,035	0,172
-326,387	57,424	-0,060	-0,042
-325,372	-200,000	-0,002	0,039
-324,358	9,494	0,067	-0,036
-323,343	-133,124	0,057	0,005
-322,329	800,000	-0,045	0,125
-321,314	-78,627	0,087	0,021
-320,299	796,664	0,020	-0,040
-319,285	-73,541	-0,041	-0,011
-318,270	80,732	0,074	-0,057
-317,256	-125,983	-0,044	0,005
-316,241	-199,345	-0,031	-0,000
-315,226	800,000	0,041	-0,092
-314,212	481,010	0,035	0,057
-313,197	614,400	0,061	0,109
-312,183	-61,902	0,107	-0,032
-311,168	62,335	-0,056	-0,040
-310,153	2,427	-0,121	-0,062
-309,139	-200,000	0,002	-0,018
-308,124	-200,000	-0,015	-0,058
-307,110	-38,173	0,222	0,084
-306,095	319,587	0,043	0,058
-305,080	800,000	-0,040	0,107
-304,066	-200,000	-0,004	0,107
-303,051	-48,419	0,069	-0,024
-302,037	-37,996	-0,132	-0,050
-301,022	-9,231	0,074	-0,035
-300,008	640,972	0,035	0,063
-298,993	-122,148	0,095	-0,011
-297,978	-200,000	-0,006	0,079
-296,964	-113,295	-0,239	-0,033
-295,949	-200,000	-0,038	-0,170
-294,935	-115,217	0,050	-0,007
-293,920	36,446	-0,034	-0,021
-292,905	7,387	0,143	-0,076
-291,891	-148,204	-0,077	-0,004
-290,876	675,712	-0,011	0,020
-289,862	800,000	0,023	-0,062
-288,847	-26,493	-0,020	-0,008
-287,832	-141,966	-0,077	-0,005
-286,818	-200,000	0,004	0,017
-285,803	800,000	0,067	0,160
-284,789	333,071	0,107	-0,148
-283,774	-50,611	0,075	0,025
-282,759	243,386	-0,036	0,043
-281,745	258,911	-0,072	-0,089
-280,730	450,860	0,019	-0,031
-279,716	172,247	0,042	-0,043
-278,701	-58,841	0,060	-0,018
-277,686	-148,545	-0,100	-0,006
-276,672	-70,468	0,140	0,038
-275,657	-200,000	0,023	0,086
-274,643	-83,631	-0,130	-0,029
-273,628	-200,000	-0,002	-0,109
-272,613	578,670	0,058	0,102
-271,599	554,863	-0,005	-0,008
-270,584	-101,021	-0,051	0,009
-269,570	-172,864	0,130	-0,003
-268,555	-200,000	0,011	-0,095
-267,540	206,620	-0,010	0,011
-266,526	348,946	-0,084	-0,118
-265,511	545,724	-0,039	0,066
-264,497	800,000	0,070	0,141
-263,482	-200,000	-0,010	-0,035
-262,467	800,000	0,040	0,105
-261,453	-43,560	0,089	-0,032
-260,438	-81,222	0,119	-0,028
-259,424	800,000	-0,057	-0,123
-258,409	255,552	-0,049	-0,060
-257,395	61,781	-0,100	0,071
-256,380	128,666	0,153	0,139
-255,365	51,238	0,062	-0,042
-254,351	294,863	-0,047	-0,062
-253,336	-200,000	0,006	0,032
-252,322	-148,242	0,047	-0,003
-251,307	-84,826	-0,107	-0,024
-250,292	-25,359	0,101	0,042
-249,278	-198,751	0,168	0,001
-248,263	0,269	0,117	0,059
-247,249	-200,000	-0,022	0,207
-246,234	-200,000	-0,009	0,087
-245,219	37,640	-0,073	-0,046
-244,205	800,000	-0,068	-0,139
-243,190	658,402	0,028	0,051
-242,176	-200,000	0,009	0,075
-241,161	125,328	-0,033	0,029
-240,146	-85,380	0,112	0,025
-239,132	800,000	-0,008	-0,017
-238,117	-126,306	-0,181	0,019
-237,103	800,000	0,035	-0,098
-236,088	-58,316	0,014	-0,004
-235,073	-64,354	0,182	-0,052
-234,059	499,171	-0,095	0,157
-233,044	336,628	-0,107	0,148
-232,030	-56,591	-0,077	0,024
-231,015	-84,077	-0,044	0,010
-230,000	-200,000	-0,017	-0,138
-228,986	558,617	-0,039	-0,067
-227,971	-127,388	0,125	-0,013
-226,957	-60,605	0,180	-0,054
-225,942	-200,000	-0,002	0,060
-224,927	2,240	-0,062	0,032
-223,913	-200,000	-0,013	-0,139
-222,898	382,698	0,022	-0,032
-221,884	-38,985	-0,134	-0,050
-220,869	267,018	0,020	-0,025
-219,855	90,238	0,086	-0,068
-218,840	-3,044	0,047	-0,023
-217,825	37,303	0,036	0,023
-216,811	-83,200	-0,079	-0,018
-215,796	41,287	0,054	0,034
-214,782	800,000	-0,057	-0,157
-213,767	136,564	0,132	-0,122
-212,752	79,504	0,130	-0,099
-211,738	175,675	-0,047	0,049
-210,723	65,715	-0,034	-0,025
-209,709	-200,000	0,015	0,119
-208,694	-139,427	-0,151	-0,011
-207,679	-200,000	-0,022	-0,072
-206,665	-200,000	0,017	0,084
-205,650	800,000	0,043	0,132
-204,636	-48,035	0,076	0,026
-203,621	-200,000	-0,008	0,174
-202,606	-200,000	-0,002	0,011
-201,592	-151,834	-0,088	0,005
-200,577	-32,717	-0,169	0,066
-199,563	403,431	0,033	-0,049
-198,548	-173,259	-0,071	0,002
-197,533	-41,406	0,084	0,030
-196,519	268,796	-0,036	-0,044
-195,504	-200,000	-0,005	0,040
-194,490	-17,191	-0,008	0,003
-193,475	800,000	0,051	-0,145
-192,460	-200,000	-0,002	0,051
-191,446	430,470	0,057	0,088
-190,431	110,829	0,128	-0,109
-189,417	-200,000	-0,003	0,057
-188,402	182,981	-0,062	0,065
-187,387	348,984	-0,013	-0,018
-186,373	800,000	-0,021	0,042
-185,358	-136,190	-0,077	-0,006
-184,344	-200,000	0,003	0,027
-183,329	-85,875	0,128	0,028
-182,315	323,259	-0,085	0,115
-181,300	-75,658	0,121	0,030
-180,285	-101,920	-0,078	-0,013
-179,271	-200,000	0,014	-0,097
-178,256	-200,000	0,017	-0,075
-177,242	-200,000	0,009	-0,042
-176,227	107,068	-0,002	-0,001
-175,212	-0,177	-0,107	0,054
-174,198	-200,000	0,008	0,180
-173,183	118,727	0,088	-0,077
-172,169	-200,000	-0,003	0,025
-171,154	456,935	-0,090	0,141
-170,139	663,062	-0,033	0,060
-169,125	-200,000	0,003	0,108
-168,110	-200,000	0,062	0,208
-167,096	800,000	-0,010	-0,022
-166,081	-104,196	-0,060	-0,010
-165,066	800,000	0,060	0,185
-164,052	-42,863	0,176	0,063
-163,037	20,725	-0,062	0,036
-162,023	-200,000	-0,003	-0,086
-161,008	52,605	-0,015	0,010
-159,993	282,620	0,075	0,096
-158,979	41,112	-0,083	0,053
-157,964	800,000	-0,018	0,038
-156,950	178,420	0,044	0,045
-155,935	-200,000	-0,104	-0,000
-154,920	268,900	0,070	-0,088
-153,906	47,668	0,102	-0,068
-152,891	-102,579	0,111	0,019
-151,877	800,000	0,049	-0,145
-150,862	800,000	-0,007	-0,017
-149,847	548,009	0,015	0,025
-148,833	99,706	-0,105	-0,086
-147,818	-200,000	-0,002	-0,044
-146,804	176,928	0,058	-0,060
-145,789	-62,248	0,033	0,010
-144,775	-200,000	-0,035	-0,127
-143,760	-53,016	0,076	-0,025
-142,745	375,833	-0,007	-0,010
-141,731	-104,964	0,080	0,013
-140,716	3,219	-0,093	-0,048
-139,702	-200,000	0,006	-0,069
-138,687	-2,767	0,089	-0,044
-137,672	325,786	-0,059	-0,080
-136,658	-24,974	-0,053	-0,022
-135,643	138,782	0,129	-0,120
-134,629	50,561	-0,098	-0,065
-133,614	163,862	0,019	0,019
-132,599	193,733	0,052	-0,055
-131,585	-166,978	0,076	0,002
-130,570	800,000	-0,066	-0,153
-129,556	42,477	-0,064	-0,041
-128,541	-200,000	0,033	-0,151
-127,526	-200,000	0,018	-0,082
-126,512	49,795	-0,090	-0,060
-125,497	306,965	0,055	-0,073
-124,483	379,885	0,031	-0,045
-123,468	800,000	-0,039	-0,113
-122,453	135,794	-0,102	0,094
-121,439	-4,036	-0,087	-0,043
-120,424	-167,516	-0,239	-0,007
-119,410	-46,524	0,140	-0,048
-118,395	-119,842	0,113	0,014
-117,380	129,422	0,086	0,077
-116,366	800,000	-0,044	0,089
-115,351	514,497	0,023	-0,037
-114,337	800,000	-0,027	-0,080
-113,322	103,701	0,065	0,054
-112,307	-200,000	0,025	0,085
-111,293	551,295	0,046	0,078
-110,278	-34,459	-0,057	-0,022
-109,264	-23,085	0,077	0,033
-108,249	-115,579	0,244	0,032
-107,234	25,563	-0,054	0,032
-106,220	-88,833	0,141	-0,029
-105,205	-200,000	-0,033	-0,112
-104,191	53,662	0,061	-0,042
-103,176	42,777	0,104	0,067
-102,162	-200,000	-0,007	-0,075
-101,147	193,759	0,033	-0,035
-100,132	419,216	0,099	-0,150
-99,118	-52,921	0,104	0,034
-98,103	626,912	-0,041	-0,074
-97,089	-200,000	0,004	-0,030
-96,074	-200,000	0,017	0,087
-95,059	-93,466	0,107	-0,021
-94,045	-80,421	-0,075	-0,018
-93,030	47,752	-0,104	-0,068
-92,016	-200,000	0,018	0,132
-91,001	-56,386	-0,084	-0,026
-89,986	-112,597	0,090	-0,013
-88,972	-200,000	0,015	0,083
-87,957	-200,000	-0,008	-0,053
-86,943	54,756	-0,109	0,074
-85,928	155,111	-0,043	-0,042
-84,913	372,903	-0,053	-0,077
-83,899	16,678	-0,034	0,019
-82,884	160,332	-0,011	-0,011
-81,870	2,170	-0,014	0,007
-80,855	-200,000	-0,007	0,159
-79,840	7,806	-0,150	0,079
-78,826	-147,023	-0,101	0,006
-77,811	-66,036	-0,038	0,011
-76,797	66,542	0,073	0,052
-75,782	-20,738	-0,088	-0,038
-74,767	-200,000	-0,013	-0,081
-73,753	210,925	0,035	-0,039
-72,738	479,261	-0,031	0,051
-71,724	-200,000	0,014	-0,107
-70,709	156,239	0,040	0,039
-69,694	-200,000	-0,015	0,055
-68,680	74,234	-0,068	0,050
-67,665	800,000	0,052	0,105
-66,651	-200,000	0,004	0,054
-65,636	-69,676	0,041	-0,011
-64,622	650,452	0,037	-0,068
-63,607	-200,000	0,007	-0,039
-62,592	-200,000	-0,026	-0,100
-61,578	-200,000	-0,008	0,043
-60,563	-200,000	0,001	0,089
-59,549	-45,440	-0,151	0,053
-58,534	46,132	-1,961	-1,279
-57,519	550,250	-1,242	-2,110
-56,505	-200,000	-0,326	-4,425
-55,490	800,000	0,835	1,704
-54,476	800,000	5,094	11,121
-53,461	-200,000	21,537	345,005
-52,446	800,000	762,800	2365,296
-51,432	557,442	1665,147	2843,061
-50,417	73,081	1662,049	1224,094
-49,403	17,673	1535,409	859,170
-48,388	11,644	1458,772	787,127
-47,373	19,592	1450,188	820,601
-46,359	15,259	1439,386	793,858
-45,344	9,879	1435,219	765,907
-44,330	9,839	1433,371	764,703
-43,315	9,803	1431,521	763,512
-42,300	9,863	1429,635	762,760
-41,286	9,859	1428,290	761,994
-40,271	9,830	1427,330	761,315
-39,257	9,855	1425,924	760,651
-38,242	9,868	1424,884	760,132
-37,227	9,871	1423,806	759,537
-36,213	9,904	1422,333	758,880
-35,198	9,922	1421,178	758,315
-34,184	9,962	1420,312	758,012
-33,169	9,833	1418,969	756,658
-32,154	9,838	1418,092	756,184
-31,140	9,910	1416,585	755,692
-30,125	9,952	1415,440	755,249
-29,111	9,878	1414,666	754,458
-28,096	9,881	1413,259	753,690
-27,082	9,851	1412,095	752,900
-26,067	9,848	1411,004	752,271
-25,052	9,835	1410,055	751,677
-24,038	9,840	1408,984	751,098
-23,023	9,822	1408,193	750,561
-22,009	9,826	1407,100	749,969
-20,994	9,801	1406,042	749,261
-19,979	9,814	1405,213	748,848
-18,965	9,798	1404,269	748,240
-17,950	9,800	1403,224	747,664
-16,936	9,798	1402,412	747,191
-15,921	9,668	1401,707	746,179
-14,906	9,735	1400,568	745,858
-13,892	9,814	1399,613	745,686
-12,877	9,764	1399,003	745,097
-11,863	9,739	1397,789	744,305
-10,848	9,718	1397,054	743,788
-9,833	9,683	1396,296	743,194
-8,819	9,657	1395,286	742,504
-7,804	9,632	1394,459	741,919
-6,790	9,651	1393,351	741,391
-5,775	9,673	1392,246	740,873
-4,760	9,651	1391,317	740,248
-3,746	9,661	1390,478	739,819
-2,731	9,592	1389,726	739,072
-1,717	9,645	1388,803	738,797
-0,702	9,663	1386,960	737,868
0,313	13,701	1299,398	709,749
1,327	29,759	689,854	413,186
2,342	46,479	119,309	77,886
3,356	-0,203	16,635	8,313
4,371	0,017	3,602	1,803
5,386	27,873	1,056	0,626
6,400	800,000	0,221	0,581
7,415	128,276	-0,140	-0,126
8,429	3,535	-0,363	-0,186
9,444	96,774	-0,274	-0,221
10,459	-50,492	-0,433	-0,143
11,473	-17,567	-0,331	-0,146
12,488	151,205	-0,310	-0,297
13,502	-39,678	-0,426	-0,156
14,517	27,307	-0,283	-0,167
15,531	40,453	-0,468	-0,296
16,546	218,221	-0,255	-0,287
17,561	111,918	-0,315	-0,268
18,575	77,173	-0,192	-0,143
19,590	-17,955	-0,227	-0,100
20,604	153,892	-0,203	-0,196
21,619	34,911	-0,524	-0,322
22,634	43,115	-0,412	-0,264
23,648	33,963	-0,466	-0,285
24,663	21,251	-0,411	-0,234
25,677	20,855	-0,387	-0,220
26,692	15,570	-0,292	-0,161
27,707	-32,371	-0,439	-0,172
28,721	82,437	-0,400	-0,305
29,736	256,972	-0,278	-0,336
30,750	196,574	-0,361	-0,387
31,765	139,506	-0,334	-0,310
32,780	30,745	-0,423	-0,254
33,794	178,345	-0,376	-0,387
34,809	41,430	-0,353	-0,224
35,823	42,867	-0,325	-0,208
36,838	91,371	-0,304	-0,240
37,853	604,118	-0,170	-0,299
38,867	112,643	-0,346	-0,295
39,882	40,920	-0,496	-0,314
40,896	157,508	-0,434	-0,422
41,911	253,993	-0,254	-0,306
42,926	6,193	-0,313	-0,163
43,940	45,317	-0,286	-0,185
44,955	168,188	-0,272	-0,272
45,969	123,637	-0,415	-0,365
46,984	26,322	-0,218	-0,127
47,999	2,903	-0,269	-0,137
49,013	-27,071	-0,398	-0,162
50,028	-11,711	-0,374	-0,172
51,042	89,662	-0,341	-0,267
52,057	267,660	-0,309	-0,381
53,071	-76,492	-0,385	-0,094
54,086	-5,003	-0,490	-0,236
55,101	46,651	-0,250	-0,162
56,115	131,654	-0,287	-0,259
57,130	-17,242	-0,293	-0,129
58,144	46,238	-0,324	-0,210
59,159	94,924	-0,327	-0,261
60,174	73,117	-0,346	-0,253
61,188	89,844	-0,237	-0,186
62,203	52,201	-0,272	-0,181
63,217	35,317	-0,276	-0,170
64,232	-73,793	-0,445	-0,113
65,247	36,874	-0,398	-0,246
66,261	-14,884	-0,442	-0,198
67,276	170,237	-0,395	-0,396
68,290	133,228	-0,228	-0,207
69,305	-51,377	-0,409	-0,133
70,320	-28,985	-0,279	-0,112
71,334	-22,750	-0,432	-0,182
72,349	-24,797	-0,297	-0,123
73,363	46,431	-0,298	-0,193
74,378	32,735	-0,390	-0,236
75,393	111,869	-0,302	-0,256
76,407	-106,198	-0,410	-0,064
77,422	141,030	-0,300	-0,278
78,436	82,170	-0,256	-0,194
79,451	-33,067	-0,407	-0,157
80,466	32,159	-0,290	-0,175
81,480	182,521	-0,221	-0,228
82,495	-28,816	-0,431	-0,172
83,509	201,156	-0,189	-0,204
84,524	129,667	-0,200	-0,179
85,539	-11,225	-0,206	-0,094
86,553	2,614	-0,354	-0,179
87,568	81,985	-0,283	-0,214
88,582	272,771	-0,294	-0,364
89,597	26,021	-0,310	-0,181
90,611	-53,484	-0,290	-0,092
91,626	-146,098	-0,217	-0,013
92,641	-77,989	-0,302	-0,072
93,655	-95,401	-0,283	-0,053
94,670	95,218	-0,283	-0,226
95,684	498,287	-0,249	-0,402
96,699	83,497	-0,361	-0,275
97,714	50,568	-0,174	-0,115
98,728	-22,196	-0,347	-0,146
99,743	323,640	-0,120	-0,160
100,757	-67,968	-0,302	-0,082
101,772	34,758	-0,333	-0,203
102,787	75,179	-0,280	-0,206
103,801	105,285	-0,291	-0,240
104,816	87,018	-0,233	-0,180
105,830	-26,167	-0,298	-0,122
106,845	13,736	-0,302	-0,163
107,860	60,860	-0,287	-0,199
108,874	-45,590	-0,280	-0,096
109,889	91,702	-0,246	-0,193
110,903	108,443	-0,214	-0,179
111,918	36,248	-0,305	-0,187
112,933	-51,362	-0,260	-0,084
113,947	95,574	-0,185	-0,148
114,962	1,215	-0,217	-0,109
115,976	-11,475	-0,308	-0,141
116,991	-1,841	-0,302	-0,148
118,006	147,224	-0,289	-0,272
119,020	77,702	-0,252	-0,187
120,035	-66,045	-0,323	-0,089
121,049	-62,649	-0,284	-0,082
122,064	-22,449	-0,236	-0,099
123,079	-9,202	-0,223	-0,104
124,093	135,226	-0,226	-0,205
125,108	153,600	-0,284	-0,272
126,122	12,358	-0,308	-0,165
127,137	67,625	-0,098	-0,070
128,151	198,931	-0,120	-0,128
129,166	734,685	-0,096	-0,181
130,181	-89,208	-0,184	-0,037
131,195	216,321	-0,222	-0,247
132,210	172,605	-0,296	-0,297
133,224	98,414	-0,247	-0,199
134,239	129,595	-0,199	-0,177
135,254	81,653	-0,175	-0,132
136,268	51,769	-0,193	-0,127
137,283	-79,038	-0,252	0,059
138,297	10,604	-0,361	-0,191
139,312	-37,919	-0,286	-0,105
140,327	106,222	-0,302	-0,249
141,341	731,486	-0,133	-0,249
142,356	116,369	-0,174	-0,148
143,370	133,375	-0,215	-0,194
144,385	31,308	-0,293	-0,175
145,400	-84,844	-0,240	-0,052
146,414	92,580	-0,301	-0,237
147,429	89,368	-0,190	-0,147
148,443	240,748	-0,193	-0,225
149,458	109,238	-0,213	-0,178
150,473	-56,179	-0,281	-0,087
151,487	243,317	-0,245	-0,287
152,502	-10,026	-0,214	-0,099
153,516	80,279	-0,270	-0,202
154,531	-62,417	-0,369	-0,106
155,546	88,916	-0,195	-0,151
156,560	399,593	-0,163	-0,238
157,575	-91,647	-0,141	-0,028
158,589	-69,825	-0,265	-0,070
159,604	168,115	-0,236	-0,234
160,619	81,554	-0,309	-0,232
161,633	546,918	-0,175	-0,292
162,648	143,854	-0,266	-0,246
163,662	217,520	-0,150	-0,166
164,677	-200,000	-0,066	-0,229
165,692	-18,401	-0,130	-0,056
166,706	4,654	-0,242	-0,123
167,721	292,473	-0,165	-0,210
168,735	72,374	-0,331	-0,239
169,750	-133,416	-0,148	-0,013
170,764	70,464	-0,259	-0,186
171,779	74,790	-0,249	-0,182
172,794	-72,638	-0,261	-0,066
173,808	17,324	-0,282	-0,155
174,823	112,420	-0,200	-0,168
175,837	116,486	-0,254	-0,216
176,852	800,000	-0,144	-0,343
177,867	-119,131	-0,230	-0,028
178,881	-138,249	-0,171	0,013
179,896	104,956	-0,329	-0,269
180,910	105,607	-0,261	-0,214
181,925	1,669	-0,305	-0,152
182,940	336,657	-0,206	-0,278
183,954	61,838	-0,326	-0,225
184,969	179,408	-0,155	-0,158
185,983	-75,905	-0,199	-0,049
186,998	330,812	-0,080	-0,107
188,013	94,276	-0,238	-0,187
189,027	800,000	-0,151	-0,295
190,042	97,220	-0,236	-0,187
191,056	138,227	-0,226	-0,206
192,071	-107,045	-0,281	-0,043
193,086	800,000	-0,095	-0,192
194,100	800,000	-0,084	-0,214
195,115	30,788	-0,230	-0,136
196,129	103,521	-0,170	-0,138
197,144	135,767	-0,172	-0,155
198,159	72,413	-0,131	-0,094
199,173	658,299	-0,163	-0,291
200,188	333,156	-0,088	-0,119
201,202	-119,718	-0,330	-0,039
202,217	-174,214	-0,246	0,005
203,232	-70,995	-0,258	-0,067
204,246	94,508	-0,271	-0,213
205,261	-37,480	-0,086	-0,032
206,275	300,920	-0,144	-0,185
207,290	36,092	-0,146	-0,089
208,304	-67,124	-0,208	-0,056
209,319	132,194	-0,087	-0,078
210,334	106,704	-0,170	-0,139
211,348	155,605	-0,193	-0,184
212,363	6,910	-0,272	-0,140
213,377	-13,591	-0,159	-0,071
214,392	-72,757	-0,232	-0,059
215,407	352,507	-0,076	-0,104
216,421	70,344	-0,184	-0,131
217,436	41,069	-0,178	-0,111
218,450	152,680	-0,294	-0,278
219,465	56,848	-0,340	-0,229
220,480	115,382	-0,169	-0,143
221,494	639,973	-0,135	-0,239
222,509	149,386	-0,147	-0,138
223,523	240,716	-0,173	-0,200
224,538	94,060	-0,172	-0,134
225,553	1,082	-0,226	-0,112
226,567	485,574	-0,133	-0,211
227,582	63,582	-0,239	-0,166
228,596	33,097	-0,225	-0,135
229,611	104,178	-0,174	-0,141
230,626	239,091	-0,139	-0,160
231,640	358,994	-0,066	-0,091
232,655	282,361	-0,183	-0,227
233,669	336,659	-0,155	-0,209
234,684	7,567	-0,276	-0,142
235,699	-54,128	-0,230	-0,072
236,713	-47,894	-0,183	-0,061
237,728	35,028	-0,099	0,060
238,742	55,412	-0,133	-0,089
239,757	399,322	-0,131	-0,190
240,772	42,788	-0,156	-0,098
241,786	118,622	-0,191	-0,163
242,801	-72,894	-0,154	-0,039
243,815	-123,321	-0,113	-0,012
244,830	-85,448	-0,296	-0,063
245,844	-200,000	0,013	-0,099
246,859	26,132	-0,071	-0,041
247,874	58,770	-0,188	-0,127
248,888	14,265	-0,192	-0,103
249,903	183,465	-0,130	-0,133
250,917	183,256	-0,072	-0,073
251,932	152,602	-0,059	-0,056
252,947	279,712	-0,165	-0,204
253,961	-13,286	-0,184	-0,082
254,976	306,185	-0,163	-0,209
255,990	208,010	-0,142	-0,153
257,005	-195,775	-0,207	-0,001
258,020	-166,101	-0,188	-0,005
259,034	-136,521	-0,078	-0,006
260,049	-60,811	-0,115	-0,033
261,063	-2,545	-0,307	-0,148
262,078	129,610	-0,229	-0,202
263,093	36,497	-0,219	-0,133
264,107	69,415	-0,133	-0,094
265,122	-98,633	-0,089	0,016
266,136	-200,000	-0,061	-0,225
267,151	514,058	-0,144	-0,232
268,166	340,191	-0,132	-0,178
269,180	-150,050	-0,146	-0,008
270,195	142,302	-0,238	-0,218
271,209	249,336	-0,192	-0,225
272,224	203,406	-0,188	-0,201
273,239	800,000	-0,064	-0,182
274,253	-41,928	-0,132	0,046
275,268	-77,040	-0,168	0,040
276,282	-26,728	-0,316	-0,127
277,297	-198,960	-0,154	-0,001
278,312	-200,000	0,038	-0,194
279,326	109,625	-0,144	-0,118
280,341	-36,666	-0,186	-0,069
281,355	-20,281	-0,212	-0,090
282,370	-164,382	-0,186	-0,006
283,384	158,563	-0,252	-0,241
284,399	90,655	-0,201	-0,154
285,414	-13,553	-0,261	-0,116
286,428	167,952	-0,213	-0,208
287,443	682,119	-0,151	-0,272
288,457	-15,156	-0,129	-0,057
289,472	542,457	-0,152	-0,249
290,487	542,370	-0,141	-0,233
291,501	140,994	-0,288	-0,262
292,516	442,181	-0,089	-0,134
293,530	52,608	-0,159	-0,104
294,545	177,833	-0,061	-0,061
295,560	-105,720	-0,193	0,030
296,574	543,879	-0,149	-0,245
297,589	65,821	-0,267	-0,186
298,603	-86,475	-0,239	-0,050
299,618	117,310	-0,157	-0,132
300,633	-9,061	-0,158	-0,072
301,647	349,943	-0,064	-0,086
302,662	89,269	-0,198	-0,151
303,676	73,396	-0,177	-0,127
304,691	-15,859	-0,186	-0,081
305,706	-66,562	-0,246	-0,067
306,720	-141,355	-0,201	0,014
307,735	800,000	-0,054	-0,119
308,749	-35,009	-0,191	-0,071
309,764	-121,537	-0,178	-0,020
310,779	22,888	0,037	-0,021
311,793	-200,000	-0,020	-0,142
312,808	219,747	-0,210	-0,231
313,822	250,640	-0,132	-0,154
314,837	-7,649	-0,092	-0,042
315,852	244,600	0,041	-0,047
316,866	183,428	-0,172	-0,174
317,881	-48,957	-0,257	-0,084
318,895	800,000	-0,102	-0,204
319,910	432,697	-0,118	-0,175
320,925	-20,233	-0,196	0,083
321,939	157,950	-0,177	-0,169
322,954	103,511	-0,078	-0,063
323,968	-136,941	-0,127	-0,010
324,983	-107,325	-0,190	0,028
325,997	-93,456	-0,114	-0,022
327,012	-20,212	-0,286	-0,120
328,027	-101,352	-0,182	-0,030
329,041	147,284	-0,087	-0,080
330,056	198,341	-0,183	-0,192
331,070	124,176	-0,125	-0,108
332,085	288,319	-0,154	-0,191
333,100	-200,000	-0,181	0,000
334,114	134,504	-0,091	-0,081
335,129	59,705	-0,190	-0,128
336,143	336,274	-0,113	-0,150
337,158	-55,803	-0,247	-0,075
338,173	-81,611	-0,093	-0,021
339,187	188,399	-0,164	-0,168
340,202	-200,000	-0,028	-0,131
341,216	149,534	-0,070	-0,065
342,231	-200,000	-0,006	-0,231
343,246	64,698	-0,065	-0,045
344,260	168,156	-0,098	-0,095
345,275	140,148	-0,113	-0,102
346,289	63,029	-0,141	-0,096
347,304	-200,000	0,039	-0,203
348,319	189,696	-0,130	-0,134
349,333	177,138	-0,182	-0,181
350,348	88,555	-0,181	-0,137
351,362	800,000	-0,054	-0,109
352,377	221,560	0,069	-0,076
353,392	222,062	-0,098	-0,108
354,406	-127,890	-0,137	-0,013
355,421	208,754	1308,559	1401,186
356,435	160,643	1468,497	1401,657
