DTS Sentinel unit serial number:	SN410029Multiplexer serial number:	ORYXHardware model number:	OX2-SRSoftware version number:	ORYX F/W v4,00 Oryx Data Collector v3.7.2.0data status	okinstallation	B3 Nyhavnadifferential loss correction	single-endedforward channel	channel 1reverse channel	N/Adate	2023/11/29time	21:12:30forward acquisition time	300,00reverse acquisition time	0,00gamma	499,1914k internal	0,3210k external	0,3210temperature offset calibration	1,0000default loss term (dB/km)	0,3820temperature slope calibration	1,0000multiplexer offset coefficient	1,0000multiplexer slope coefficient	1,0000fibre end	0,00T internal ref (°C)	10,82T ext. ref 1 (°C)	-4,34T ext. ref 2 (°C)	-4,42length (m)	temperature (°C)	Stokes	anti-Stokes-744,400	153,834	-0,277	-0,276
-743,385	-200,000	0,068	0,289
-742,371	-200,000	-0,028	-0,161
-741,356	-200,000	-0,002	0,277
-740,342	800,000	-0,082	-0,259
-739,327	-200,000	-0,031	0,280
-738,312	-78,248	-0,129	0,032
-737,298	-200,000	-0,091	0,334
-736,283	800,000	-0,105	-0,317
-735,269	-200,000	0,135	0,437
-734,254	130,996	-0,227	-0,211
-733,239	-6,199	-0,240	-0,118
-732,225	785,489	-0,060	-0,121
-731,210	-200,000	-0,040	0,192
-730,196	674,048	-0,017	0,033
-729,181	-200,000	0,005	-0,035
-728,167	-200,000	-0,009	-0,090
-727,152	108,577	0,057	0,049
-726,137	-200,000	0,015	-0,156
-725,123	800,000	-0,053	-0,137
-724,108	-3,427	-0,062	-0,031
-723,094	636,824	-0,047	-0,086
-722,079	-38,707	-0,005	0,002
-721,064	28,501	0,090	-0,055
-720,050	318,934	0,077	0,106
-719,035	190,782	-0,084	-0,091
-718,021	190,390	0,079	-0,086
-717,006	715,417	0,036	-0,069
-715,991	-200,000	0,023	-0,094
-714,977	648,879	-0,062	-0,115
-713,962	-200,000	-0,001	-0,033
-712,948	800,000	0,026	-0,060
-711,933	-38,753	-0,152	-0,058
-710,918	-200,000	0,003	0,124
-709,904	75,898	-0,240	-0,184
-708,889	-200,000	-0,001	-0,011
-707,875	-200,000	-0,007	-0,048
-706,860	185,006	-0,033	0,035
-705,845	439,109	0,032	-0,051
-704,831	288,719	-0,040	0,053
-703,816	800,000	0,047	0,128
-702,802	-200,000	0,004	-0,026
-701,787	-200,000	0,015	-0,061
-700,772	-200,000	-0,003	-0,115
-699,758	4,003	-0,080	-0,042
-698,743	-79,573	-0,031	-0,008
-697,729	-200,000	-0,004	-0,035
-696,714	82,858	0,173	0,136
-695,699	44,066	0,100	0,066
-694,685	-200,000	0,008	-0,177
-693,670	-200,000	-0,014	-0,269
-692,656	-109,505	0,139	-0,021
-691,641	-58,497	0,035	0,011
-690,627	-78,919	-0,038	-0,009
-689,612	800,000	0,016	0,047
-688,597	800,000	0,029	-0,092
-687,583	255,973	0,012	-0,015
-686,568	-200,000	-0,013	0,067
-685,554	491,316	-0,078	-0,130
-684,539	534,582	0,031	-0,054
-683,524	-200,000	-0,015	0,084
-682,510	-1,062	0,045	-0,023
-681,495	111,844	-0,059	0,052
-680,481	800,000	0,038	0,094
-679,466	-53,667	-0,087	-0,029
-678,451	-133,800	-0,045	-0,004
-677,437	95,358	0,184	0,151
-676,422	-200,000	0,034	0,113
-675,408	118,780	-0,098	0,088
-674,393	800,000	-0,052	-0,141
-673,378	-91,328	0,089	0,018
-672,364	224,001	-0,151	-0,176
-671,349	800,000	-0,053	-0,117
-670,335	132,956	-0,040	-0,038
-669,320	64,353	0,123	0,090
-668,305	230,976	-0,040	-0,048
-667,291	270,171	-0,040	0,051
-666,276	-144,339	-0,124	-0,008
-665,262	-200,000	-0,006	-0,048
-664,247	-200,000	-0,006	0,049
-663,232	-18,054	0,074	-0,034
-662,218	-99,268	-0,024	-0,004
-661,203	-57,177	0,183	-0,058
-660,189	193,576	-0,070	-0,076
-659,174	-1,042	0,043	0,022
-658,159	800,000	-0,034	-0,105
-657,145	-109,289	-0,092	0,014
-656,130	254,851	0,062	0,077
-655,116	224,442	0,094	0,110
-654,101	-30,440	-0,055	0,023
-653,086	-200,000	0,026	-0,222
-652,072	-118,651	0,040	-0,005
-651,057	574,509	-0,039	0,069
-650,043	-112,628	-0,205	-0,029
-649,028	-39,364	-0,093	-0,035
-648,014	18,359	0,099	0,057
-646,999	718,972	0,064	0,123
-645,984	519,288	-0,037	0,063
-644,970	402,150	-0,106	-0,161
-643,955	800,000	-0,045	-0,103
-642,941	-66,762	-0,127	-0,036
-641,926	-200,000	0,017	-0,095
-640,911	64,614	0,115	0,084
-639,897	800,000	0,024	-0,066
-638,882	363,993	-0,110	0,160
-637,868	-18,698	0,026	0,012
-636,853	-17,718	0,043	-0,019
-635,838	-200,000	-0,027	-0,095
-634,824	800,000	-0,013	-0,031
-633,809	54,149	0,088	-0,061
-632,795	-200,000	0,002	-0,014
-631,780	-142,314	0,113	0,008
-630,765	-5,992	-0,081	-0,040
-629,751	209,336	0,109	-0,123
-628,736	-7,211	-0,173	-0,085
-627,722	-200,000	0,016	0,081
-626,707	-28,850	0,048	0,020
-625,692	-200,000	0,005	0,073
-624,678	-200,000	0,017	-0,098
-623,663	255,920	-0,054	0,067
-622,649	800,000	-0,044	0,106
-621,634	-171,448	-0,144	-0,003
-620,619	-112,812	0,118	-0,017
-619,605	-200,000	0,008	-0,045
-618,590	-200,000	-0,009	0,037
-617,576	160,281	-0,071	0,072
-616,561	800,000	0,027	0,061
-615,546	-43,624	0,033	-0,012
-614,532	408,310	-0,129	-0,197
-613,517	-9,856	0,128	0,061
-612,503	-31,130	-0,052	0,021
-611,488	419,953	0,091	0,141
-610,474	402,458	-0,056	0,085
-609,459	-0,441	0,116	0,059
-608,444	-48,499	-0,182	-0,063
-607,430	31,810	-0,121	-0,075
-606,415	582,067	0,055	-0,097
-605,401	610,467	0,006	-0,011
-604,386	800,000	-0,040	-0,121
-603,371	86,815	0,138	-0,110
-602,357	800,000	-0,033	0,074
-601,342	274,934	-0,041	0,053
-600,328	114,203	-0,054	-0,047
-599,313	-101,776	-0,114	-0,020
-598,298	-39,167	0,068	-0,026
-597,284	172,976	0,012	0,013
-596,269	-200,000	0,001	-0,020
-595,255	800,000	-0,038	0,084
-594,240	-200,000	-0,001	0,122
-593,225	196,179	-0,193	-0,213
-592,211	800,000	0,025	0,065
-591,196	207,151	0,026	-0,029
-590,182	57,659	0,055	-0,039
-589,167	800,000	0,045	-0,110
-588,152	170,294	-0,056	-0,058
-587,138	-200,000	0,033	0,157
-586,123	800,000	0,005	0,011
-585,109	5,207	-0,098	-0,052
-584,094	800,000	0,017	-0,041
-583,079	800,000	0,047	0,134
-582,065	-63,990	0,072	-0,021
-581,050	184,853	-0,038	0,041
-580,036	388,770	-0,041	0,061
-579,021	-16,534	-0,151	-0,069
-578,006	275,723	0,051	-0,065
-576,992	217,657	-0,116	-0,134
-575,977	18,787	0,073	0,042
-574,963	-200,000	0,000	0,118
-573,948	142,409	0,049	-0,047
-572,934	296,403	0,097	0,129
-571,919	-200,000	0,030	0,139
-570,904	-200,000	-0,012	-0,061
-569,890	242,043	-0,063	-0,076
-568,875	-200,000	0,017	-0,055
-567,861	389,823	0,075	0,113
-566,846	164,071	-0,024	-0,025
-565,831	-23,498	0,027	-0,011
-564,817	-112,347	-0,071	0,010
-563,802	-102,875	-0,020	0,003
-562,788	123,009	-0,160	0,144
-561,773	-6,535	0,089	-0,044
-560,758	346,812	-0,033	-0,047
-559,744	149,577	-0,107	0,104
-558,729	773,529	0,052	0,102
-557,715	102,336	-0,077	0,064
-556,700	800,000	-0,040	-0,083
-555,685	15,792	-0,082	-0,046
-554,671	657,787	0,011	0,021
-553,656	-200,000	0,002	-0,087
-552,642	-7,328	0,100	0,049
-551,627	-91,971	-0,065	0,013
-550,612	-54,089	-0,115	-0,037
-549,598	37,316	-0,059	-0,037
-548,583	4,787	0,011	-0,006
-547,569	-200,000	-0,023	-0,193
-546,554	800,000	-0,020	0,046
-545,539	-120,447	0,098	0,012
-544,525	-200,000	-0,006	-0,122
-543,510	225,547	0,035	0,041
-542,496	-70,879	-0,122	-0,033
-541,481	-70,513	0,094	0,025
-540,466	-200,000	0,007	-0,084
-539,452	394,501	0,054	0,081
-538,437	-168,093	0,054	0,001
-537,423	-200,000	0,041	0,152
-536,408	-110,875	-0,079	0,012
-535,393	-17,337	-0,107	0,048
-534,379	-148,351	0,092	0,005
-533,364	131,214	0,054	0,050
-532,350	-51,449	-0,050	0,017
-531,335	-176,715	0,104	-0,002
-530,321	-5,025	0,023	0,011
-529,306	-200,000	0,008	0,033
-528,291	450,743	0,053	0,085
-527,277	-169,737	-0,086	-0,002
-526,262	800,000	0,048	-0,138
-525,248	-200,000	0,018	0,113
-524,233	756,611	0,028	0,055
-523,218	-115,510	-0,055	0,007
-522,204	-200,000	-0,022	0,087
-521,189	-200,000	0,026	-0,120
-520,175	214,016	-0,053	-0,060
-519,160	-25,599	-0,004	0,002
-518,145	92,783	0,100	-0,081
-517,131	-56,605	-0,082	0,026
-516,116	31,876	0,059	0,037
-515,102	-94,046	-0,104	0,020
-514,087	-66,906	0,049	0,014
-513,072	800,000	-0,027	-0,068
-512,058	98,728	0,105	0,087
-511,043	185,347	-0,062	-0,066
-510,029	51,622	0,153	0,104
-509,014	272,582	-0,083	0,105
-507,999	-0,459	0,131	0,067
-506,985	541,098	0,092	0,158
-505,970	10,410	-0,059	-0,032
-504,956	-200,000	-0,002	-0,122
-503,941	-84,448	0,089	0,020
-502,926	437,559	0,030	-0,048
-501,912	800,000	0,016	0,046
-500,897	800,000	-0,066	-0,163
-499,883	-17,695	0,045	-0,020
-498,868	39,982	0,075	-0,048
-497,853	235,026	-0,050	-0,060
-496,839	-48,301	0,142	-0,049
-495,824	-200,000	0,024	0,111
-494,810	-109,963	0,067	-0,010
-493,795	120,276	0,083	-0,074
-492,781	-6,476	-0,110	-0,054
-491,766	-56,306	-0,150	-0,048
-490,751	24,006	0,111	-0,066
-489,737	77,097	-0,066	0,050
-488,722	800,000	0,039	0,082
-487,708	59,096	0,050	0,036
-486,693	60,030	-0,057	-0,040
-485,678	182,727	0,025	-0,027
-484,664	129,775	-0,066	0,060
-483,649	675,869	-0,020	-0,037
-482,635	19,749	-0,020	-0,011
-481,620	-200,000	-0,002	0,046
-480,605	800,000	-0,053	0,160
-479,591	-200,000	-0,032	0,143
-478,576	-97,739	-0,157	0,029
-477,562	-134,726	0,017	0,001
-476,547	-179,818	0,102	-0,002
-475,532	82,320	0,005	0,004
-474,518	473,090	-0,046	0,074
-473,503	375,371	0,057	-0,083
-472,489	155,006	0,035	0,034
-471,474	301,519	-0,067	-0,090
-470,459	800,000	-0,068	-0,191
-469,445	-108,439	0,137	0,021
-468,430	390,911	0,061	0,091
-467,416	800,000	-0,047	-0,112
-466,401	277,285	0,148	0,189
-465,386	730,537	-0,031	0,059
-464,372	-27,882	-0,081	0,034
-463,357	363,515	-0,106	-0,154
-462,343	139,357	-0,099	-0,094
-461,328	-200,000	0,001	-0,119
-460,313	-200,000	0,003	0,022
-459,299	800,000	0,096	0,195
-458,284	48,729	0,078	0,052
-457,270	-41,905	0,086	0,031
-456,255	201,937	0,078	-0,086
-455,241	-162,946	-0,169	-0,006
-454,226	-200,000	-0,012	0,076
-453,211	251,575	-0,079	0,097
-452,197	2,057	0,079	0,041
-451,182	217,590	0,096	-0,110
-450,168	800,000	-0,016	-0,037
-449,153	772,758	-0,009	0,018
-448,138	727,897	-0,049	0,093
-447,124	183,683	-0,054	0,058
-446,109	-200,000	-0,009	-0,090
-445,095	-200,000	0,007	-0,040
-444,080	-79,071	0,074	0,018
-443,065	9,988	-0,032	0,017
-442,051	800,000	-0,034	0,086
-441,036	-112,467	-0,087	0,012
-440,022	800,000	-0,041	-0,118
-439,007	188,458	0,086	-0,092
-437,992	14,089	0,067	0,038
-436,978	-200,000	0,037	0,178
-435,963	800,000	-0,033	0,096
-434,949	47,709	-0,116	0,077
-433,934	800,000	-0,013	-0,040
-432,919	-12,073	-0,077	-0,036
-431,905	-1,385	0,090	0,045
-430,890	-133,637	0,046	-0,004
-429,876	-200,000	0,007	0,068
-428,861	257,777	0,019	0,023
-427,846	-58,653	-0,077	0,024
-426,832	800,000	-0,024	-0,054
-425,817	-200,000	0,002	-0,114
-424,803	-94,614	0,052	-0,010
-423,788	800,000	-0,027	-0,081
-422,773	-200,000	-0,027	0,116
-421,759	-200,000	0,019	0,069
-420,744	800,000	-0,067	0,166
-419,730	-58,166	0,181	0,056
-418,715	713,197	-0,015	-0,029
-417,701	-51,573	-0,124	-0,041
-416,686	800,000	0,067	0,149
-415,671	-91,758	0,100	0,020
-414,657	-200,000	-0,015	0,067
-413,642	-200,000	-0,028	-0,093
-412,628	-146,680	0,071	-0,004
-411,613	133,097	-0,040	-0,037
-410,598	-191,952	0,043	0,000
-409,584	-200,000	0,012	0,065
-408,569	411,776	0,037	-0,056
-407,555	568,183	0,016	-0,028
-406,540	-200,000	-0,007	0,025
-405,525	800,000	-0,015	-0,040
-404,511	-200,000	0,001	-0,141
-403,496	614,877	0,072	-0,130
-402,482	800,000	-0,019	0,058
-401,467	800,000	-0,018	-0,041
-400,452	-54,733	0,027	0,009
-399,438	649,721	-0,058	-0,107
-398,423	-200,000	-0,001	0,043
-397,409	-161,625	-0,079	-0,003
-396,394	28,182	-0,039	0,023
-395,379	144,035	0,066	-0,063
-394,365	-200,000	-0,005	-0,064
-393,350	-46,352	0,152	-0,053
-392,336	-200,000	0,036	0,165
-391,321	-200,000	-0,001	-0,009
-390,306	53,588	-0,021	-0,015
-389,292	800,000	0,031	-0,079
-388,277	158,123	0,036	0,036
-387,263	248,003	-0,042	0,051
-386,248	231,706	0,035	0,041
-385,233	800,000	0,033	0,091
-384,219	-200,000	0,028	-0,104
-383,204	800,000	-0,038	-0,083
-382,190	800,000	-0,035	0,088
-381,175	36,161	0,117	-0,074
-380,160	-200,000	-0,001	-0,035
-379,146	-200,000	0,011	-0,088
-378,131	-132,668	0,120	0,011
-377,117	282,010	-0,101	0,130
-376,102	-200,000	-0,009	-0,046
-375,088	5,783	-0,274	-0,144
-374,073	-200,000	-0,024	0,130
-373,058	800,000	0,089	0,198
-372,044	-107,513	-0,045	-0,007
-371,029	-165,305	-0,146	0,005
-370,015	277,658	-0,078	-0,100
-369,000	-18,682	-0,071	-0,031
-367,985	-175,082	0,068	-0,001
-366,971	800,000	0,039	0,089
-365,956	800,000	-0,035	-0,071
-364,942	230,626	0,027	-0,032
-363,927	120,253	0,088	0,078
-362,912	800,000	-0,043	-0,098
-361,898	-200,000	0,008	0,048
-360,883	254,316	0,023	0,028
-359,869	-200,000	-0,008	-0,037
-358,854	-25,409	0,087	0,037
-357,839	726,987	0,036	0,070
-356,825	151,233	-0,142	0,138
-355,810	-83,282	0,014	-0,003
-354,796	396,547	0,012	-0,018
-353,781	-57,025	-0,146	-0,046
-352,766	-40,789	-0,056	-0,020
-351,752	137,750	-0,118	0,111
-350,737	153,498	0,051	0,050
-349,723	151,650	-0,076	-0,074
-348,708	800,000	0,024	0,069
-347,693	570,802	-0,022	-0,038
-346,679	-77,988	0,041	0,010
-345,664	212,911	-0,013	0,015
-344,650	104,936	-0,031	-0,026
-343,635	18,217	-0,064	0,036
-342,620	335,405	-0,061	-0,085
-341,606	321,887	-0,029	-0,040
-340,591	101,530	0,100	-0,083
-339,577	800,000	0,029	0,073
-338,562	-47,419	0,129	-0,045
-337,548	737,187	-0,041	-0,080
-336,533	-50,095	0,068	0,023
-335,518	162,347	0,155	0,155
-334,504	236,713	0,043	0,051
-333,489	-200,000	0,003	-0,069
-332,475	800,000	-0,019	-0,042
-331,460	-200,000	-0,013	-0,084
-330,445	-68,147	0,080	0,022
-329,431	-67,269	0,046	-0,013
-328,416	242,591	-0,021	0,025
-327,402	-200,000	-0,034	0,176
-326,387	289,069	0,004	0,005
-325,372	128,358	0,089	0,081
-324,358	-55,690	-0,050	-0,016
-323,343	152,163	-0,082	-0,080
-322,329	-104,677	-0,128	-0,021
-321,314	-108,179	0,116	0,018
-320,299	-200,000	0,013	0,093
-319,285	612,790	0,125	0,223
-318,270	-111,665	-0,027	-0,004
-317,256	-66,299	-0,127	0,036
-316,241	-200,000	-0,008	0,043
-315,226	-17,840	0,034	0,015
-314,212	-200,000	-0,023	-0,079
-313,197	-200,000	0,022	0,132
-312,183	49,463	-0,110	0,074
-311,168	-9,076	-0,146	-0,070
-310,153	62,953	0,049	-0,035
-309,139	-20,510	0,057	-0,025
-308,124	-200,000	0,024	-0,098
-307,110	-197,311	-0,067	0,000
-306,095	467,775	-0,027	-0,043
-305,080	-200,000	0,007	0,029
-304,066	-157,513	-0,173	-0,007
-303,051	-111,445	-0,020	0,003
-302,037	20,269	0,031	-0,018
-301,022	-46,330	0,111	-0,039
-300,008	-130,158	0,148	0,014
-298,993	-200,000	0,000	0,243
-297,978	90,003	0,023	0,019
-296,964	561,455	-0,029	-0,049
-295,949	93,393	-0,053	-0,043
-294,935	-64,875	0,018	-0,005
-293,920	-200,000	-0,005	-0,068
-292,905	86,785	0,047	0,037
-291,891	-146,953	0,089	0,005
-290,876	-30,023	0,185	-0,075
-289,862	392,666	-0,049	-0,074
-288,847	632,906	0,029	-0,053
-287,832	168,471	-0,075	-0,076
-286,818	-200,000	-0,001	-0,063
-285,803	800,000	-0,031	0,089
-284,789	-1,303	0,054	-0,027
-283,774	-200,000	-0,025	0,105
-282,759	-77,484	-0,138	0,034
-281,745	126,986	0,064	0,058
-280,730	800,000	-0,057	-0,113
-279,716	365,641	0,044	0,064
-278,701	800,000	-0,048	0,097
-277,686	190,284	0,049	0,052
-276,672	800,000	0,037	-0,081
-275,657	-200,000	0,010	-0,050
-274,643	-200,000	-0,001	-0,097
-273,628	96,966	-0,093	0,076
-272,613	-200,000	0,009	-0,046
-271,599	101,916	0,043	0,036
-270,584	20,276	0,051	0,029
-269,570	-200,000	0,014	-0,138
-268,555	519,751	0,044	-0,073
-267,540	1,192	-0,024	-0,012
-266,526	60,262	-0,100	-0,071
-265,511	-125,012	0,141	0,015
-264,497	208,663	0,081	0,090
-263,482	-200,000	0,009	0,054
-262,467	30,887	-0,048	0,029
-261,453	540,269	0,078	0,133
-260,438	78,627	-0,079	0,060
-259,424	800,000	-0,073	-0,200
-258,409	-15,106	-0,059	-0,027
-257,395	148,333	0,025	0,024
-256,380	-200,000	-0,001	0,096
-255,365	659,137	0,046	0,084
-254,351	-112,998	0,100	-0,014
-253,336	321,049	-0,046	0,062
-252,322	-200,000	-0,023	-0,092
-251,307	176,628	-0,125	-0,129
-250,292	800,000	-0,017	-0,049
-249,278	794,841	0,071	0,140
-248,263	-200,000	-0,002	-0,052
-247,249	-200,000	-0,005	0,111
-246,234	800,000	0,091	-0,195
-245,219	33,011	0,127	-0,078
-244,205	-184,451	0,098	-0,001
-243,190	-200,000	-0,017	0,075
-242,176	540,343	-0,042	0,071
-241,161	39,124	-0,069	-0,044
-240,146	736,060	0,030	-0,058
-239,132	270,964	0,037	-0,047
-238,117	-200,000	-0,015	-0,190
-237,103	279,024	-0,044	-0,056
-236,088	54,565	-0,074	0,050
-235,073	59,411	-0,071	-0,050
-234,059	800,000	0,006	-0,017
-233,044	272,755	0,008	-0,010
-232,030	-200,000	0,003	0,028
-231,015	-116,613	0,130	-0,017
-230,000	193,096	-0,096	-0,103
-228,986	-59,887	0,047	0,014
-227,971	-163,469	0,105	-0,003
-226,957	-34,905	0,199	0,077
-225,942	96,874	0,015	0,012
-224,927	800,000	0,043	0,121
-223,913	469,628	-0,057	-0,092
-222,898	647,588	-0,057	-0,105
-221,884	800,000	-0,067	-0,136
-220,869	44,401	0,091	0,059
-219,855	-200,000	-0,013	0,054
-218,840	28,734	0,054	-0,033
-217,825	65,783	0,108	-0,077
-216,811	800,000	-0,051	-0,103
-215,796	57,614	0,056	0,039
-214,782	-28,098	-0,029	0,012
-213,767	235,817	-0,070	-0,082
-212,752	-20,875	0,105	-0,046
-211,738	532,797	-0,018	0,030
-210,723	66,408	0,139	0,101
-209,709	-90,837	0,084	-0,017
-208,694	335,041	-0,093	-0,128
-207,679	-200,000	-0,025	-0,082
-206,665	-200,000	-0,030	0,099
-205,650	-116,683	0,081	-0,010
-204,636	-4,366	-0,071	0,035
-203,621	-41,712	-0,030	0,011
-202,606	-30,890	0,065	0,026
-201,592	120,358	-0,098	-0,087
-200,577	-51,938	-0,061	-0,020
-199,563	533,283	0,089	0,150
-198,548	800,000	0,059	0,135
-197,533	23,052	-0,132	0,077
-196,519	81,489	0,045	-0,035
-195,504	789,621	-0,055	-0,107
-194,490	-18,090	-0,035	-0,015
-193,475	89,708	0,043	0,034
-192,460	-166,265	-0,115	-0,003
-191,446	146,020	-0,090	-0,086
-190,431	-36,284	-0,094	0,036
-189,417	800,000	0,073	-0,175
-188,402	-12,719	-0,112	-0,051
-187,387	45,751	0,177	-0,116
-186,373	-195,012	-0,149	-0,001
-185,358	114,023	0,024	-0,020
-184,344	800,000	0,021	0,058
-183,329	62,266	0,056	0,039
-182,315	636,936	0,076	-0,138
-181,300	-143,389	-0,060	-0,004
-180,285	477,353	0,063	0,101
-179,271	42,150	-0,097	0,063
-178,256	54,366	0,026	-0,018
-177,242	-46,097	0,083	0,029
-176,227	121,954	0,081	0,072
-175,212	-200,000	-0,001	0,062
-174,198	-200,000	-0,028	-0,097
-173,183	126,783	0,087	-0,079
-172,169	553,860	-0,040	-0,069
-171,154	-200,000	-0,036	-0,123
-170,139	-200,000	0,028	0,175
-169,125	-54,605	0,108	-0,035
-168,110	-200,000	-0,018	-0,080
-167,096	800,000	-0,040	-0,115
-166,081	353,200	0,011	0,015
-165,066	319,990	-0,042	0,056
-164,052	-200,000	0,018	-0,075
-163,037	800,000	-0,060	0,132
-162,023	-113,221	0,283	-0,039
-161,008	-103,496	-0,081	-0,013
-159,993	798,727	-0,067	0,132
-158,979	-128,961	-0,242	-0,024
-157,964	-200,000	-0,042	-0,134
-156,950	22,927	-0,050	0,029
-155,935	-76,101	0,085	0,021
-154,920	693,230	0,048	0,089
-153,906	-200,000	0,004	0,043
-152,891	112,659	-0,060	0,052
-151,877	49,755	-0,106	0,071
-150,862	92,971	-0,120	-0,096
-149,847	-200,000	0,015	-0,147
-148,833	111,810	0,008	-0,007
-147,818	161,940	-0,041	0,041
-146,804	-122,865	0,169	-0,019
-145,789	-200,000	-0,002	0,095
-144,775	-8,761	-0,031	-0,015
-143,760	92,577	-0,017	-0,013
-142,745	487,226	-0,035	-0,057
-141,731	29,694	-0,068	-0,041
-140,716	-200,000	-0,000	0,058
-139,702	-200,000	0,022	-0,107
-138,687	49,016	0,076	0,051
-137,672	80,783	-0,072	-0,055
-136,658	-200,000	-0,013	0,041
-135,643	-141,847	0,025	-0,002
-134,629	-200,000	0,007	-0,113
-133,614	-79,931	0,068	0,016
-132,599	116,179	-0,071	0,062
-131,585	-31,113	0,090	-0,036
-130,570	-200,000	-0,016	0,051
-129,556	-200,000	-0,009	-0,123
-128,541	800,000	-0,014	0,042
-127,526	326,108	-0,078	0,106
-126,512	-200,000	-0,003	0,031
-125,497	96,802	0,165	0,134
-124,483	-145,261	-0,179	-0,011
-123,468	23,002	-0,063	0,036
-122,453	7,713	-0,077	0,041
-121,439	-122,075	-0,072	-0,008
-120,424	-200,000	0,007	-0,149
-119,410	214,589	0,054	-0,061
-118,395	87,442	-0,080	-0,063
-117,380	-200,000	0,007	0,023
-116,366	800,000	0,035	0,092
-115,351	220,680	-0,091	-0,103
-114,337	249,019	-0,111	-0,133
-113,322	-200,000	0,014	-0,099
-112,307	438,267	0,079	-0,123
-111,293	584,718	-0,060	0,105
-110,278	545,588	-0,047	0,080
-109,264	722,119	0,052	0,098
-108,249	-116,255	0,079	0,010
-107,234	800,000	0,068	-0,142
-106,220	-63,835	-0,065	-0,019
-105,205	-150,005	0,172	-0,009
-104,191	125,366	0,099	-0,089
-103,176	800,000	0,017	0,044
-102,162	533,364	0,064	0,108
-101,147	80,489	0,069	0,052
-100,132	-200,000	-0,004	0,042
-99,118	25,004	-0,106	0,062
-98,103	-2,372	-0,021	-0,010
-97,089	94,335	0,124	0,099
-96,074	-92,272	0,145	0,029
-95,059	110,279	0,119	0,101
-94,045	-31,347	-0,029	-0,012
-93,030	800,000	0,018	0,049
-92,016	-90,587	-0,139	0,028
-91,001	331,594	0,078	-0,106
-89,986	-200,000	0,000	0,012
-88,972	800,000	0,029	0,088
-87,957	447,009	0,030	0,047
-86,943	-33,647	-0,124	-0,048
-85,928	221,719	-0,026	0,030
-84,913	-200,000	0,018	-0,062
-83,899	800,000	0,009	-0,024
-82,884	-48,609	-0,126	0,043
-81,870	423,795	0,078	0,119
-80,855	800,000	0,044	0,090
-79,840	-59,744	0,070	0,021
-78,826	94,947	0,018	-0,014
-77,811	196,342	0,036	-0,039
-76,797	185,543	0,047	0,049
-75,782	-200,000	-0,022	0,075
-74,767	-12,585	-0,114	-0,052
-73,753	-23,030	0,083	0,035
-72,738	72,373	-0,088	0,065
-71,724	-200,000	0,020	0,146
-70,709	-96,671	0,069	0,013
-69,694	-107,458	0,216	-0,033
-68,680	606,040	0,042	-0,074
-67,665	-195,427	0,036	0,000
-66,651	267,938	-0,085	0,106
-65,636	800,000	0,020	0,043
-64,622	-200,000	0,009	-0,065
-63,607	-200,000	0,001	0,041
-62,592	163,413	0,044	-0,044
-61,578	-200,000	-0,013	0,051
-60,563	-200,000	0,024	0,124
-59,549	366,998	0,022	-0,032
-58,534	34,368	-1,889	-1,162
-57,519	381,771	-1,381	-2,009
-56,505	-200,000	-0,273	-4,308
-55,490	318,788	1,045	1,401
-54,476	800,000	5,134	11,149
-53,461	-200,000	20,891	330,444
-52,446	800,000	757,828	2326,193
-51,432	550,395	1662,707	2826,962
-50,417	73,471	1664,259	1228,854
-49,403	18,643	1537,344	865,982
-48,388	12,671	1460,167	793,598
-47,373	19,127	1451,186	819,704
-46,359	15,873	1440,643	798,220
-45,344	10,919	1436,437	772,241
-44,330	10,860	1434,347	770,807
-43,315	10,823	1432,528	769,621
-42,300	10,854	1430,764	768,791
-41,286	10,858	1429,510	768,108
-40,271	10,823	1428,149	767,177
-39,257	10,853	1427,139	766,749
-38,242	10,851	1425,903	766,043
-37,227	10,916	1424,670	765,661
-36,213	10,927	1423,411	765,002
-35,198	10,908	1422,463	764,373
-34,184	10,920	1421,591	763,930
-33,169	10,876	1420,121	762,902
-32,154	10,938	1418,955	762,540
-31,140	10,974	1417,777	762,045
-30,125	10,959	1416,896	761,470
-29,111	10,967	1415,632	760,800
-28,096	10,905	1414,508	759,876
-27,082	10,858	1413,315	758,982
-26,067	10,804	1412,535	758,283
-25,052	10,850	1411,288	757,795
-24,038	10,890	1410,283	757,415
-23,023	10,856	1409,349	756,722
-22,009	10,822	1408,256	755,947
-20,994	10,810	1407,180	755,283
-19,979	10,830	1406,276	754,861
-18,965	10,808	1405,300	754,204
-17,950	10,773	1404,582	753,629
-16,936	10,783	1403,743	753,194
-15,921	10,694	1402,800	752,245
-14,906	10,721	1401,799	751,801
-13,892	10,750	1400,636	751,285
-12,877	10,749	1400,114	750,967
-11,863	10,785	1399,034	750,526
-10,848	10,764	1398,151	749,926
-9,833	10,719	1397,209	749,181
-8,819	10,630	1396,616	748,420
-7,804	10,623	1395,641	747,838
-6,790	10,659	1394,618	747,427
-5,775	10,693	1393,401	746,899
-4,760	10,644	1392,625	746,227
-3,746	10,707	1391,575	745,927
-2,731	10,673	1390,749	745,298
-1,717	10,656	1390,010	744,795
-0,702	10,662	1388,107	743,774
0,313	14,679	1301,716	715,897
1,327	30,888	692,919	417,960
2,342	47,814	120,135	79,011
3,356	-1,469	16,492	8,180
4,371	10,984	3,546	1,906
5,386	6,247	0,905	0,472
6,400	800,000	0,159	0,382
7,415	23,927	-0,269	-0,156
8,429	-39,778	-0,188	-0,069
9,444	-14,338	-0,362	-0,164
10,459	-42,326	-0,284	-0,102
11,473	25,980	-0,325	-0,191
12,488	84,239	-0,187	-0,144
13,502	-180,811	-0,307	0,004
14,517	-43,252	-0,468	-0,166
15,531	11,097	-0,296	-0,159
16,546	92,649	-0,184	-0,146
17,561	203,917	-0,371	-0,405
18,575	-191,832	-0,165	-0,001
19,590	-27,299	-0,385	-0,157
20,604	134,263	-0,164	-0,150
21,619	15,555	-0,419	-0,231
22,634	62,113	-0,433	-0,304
23,648	9,194	-0,406	-0,215
24,663	164,238	-0,289	-0,287
25,677	-84,369	-0,322	-0,071
26,692	106,363	-0,347	-0,290
27,707	81,951	-0,376	-0,286
28,721	201,694	-0,372	-0,405
29,736	281,880	-0,380	-0,481
30,750	72,112	-0,463	-0,339
31,765	101,051	-0,407	-0,333
32,780	2,218	-0,328	-0,166
33,794	111,625	-0,363	-0,308
34,809	87,219	-0,327	-0,254
35,823	49,928	-0,402	-0,266
36,838	55,196	-0,360	-0,244
37,853	32,525	-0,532	-0,322
38,867	539,002	-0,236	-0,397
39,882	17,427	-0,357	-0,199
40,896	186,751	-0,351	-0,368
41,911	-61,862	-0,494	-0,144
42,926	28,999	-0,402	-0,239
43,940	36,163	-0,391	-0,242
44,955	6,948	-0,400	-0,209
45,969	47,976	-0,355	-0,233
46,984	89,139	-0,300	-0,235
47,999	-8,578	-0,331	-0,156
49,013	38,441	-0,296	-0,185
50,028	0,318	-0,340	-0,170
51,042	133,326	-0,255	-0,232
52,057	-6,405	-0,416	-0,199
53,071	38,251	-0,340	-0,212
54,086	135,091	-0,370	-0,337
55,101	6,670	-0,321	-0,167
56,115	-10,206	-0,253	-0,117
57,130	72,192	-0,282	-0,206
58,144	317,747	-0,203	-0,270
59,159	25,883	-0,299	-0,175
60,174	53,109	-0,323	-0,217
61,188	126,245	-0,248	-0,220
62,203	152,432	-0,293	-0,281
63,217	37,297	-0,273	-0,169
64,232	-63,357	-0,250	-0,072
65,247	112,688	-0,351	-0,298
66,261	-25,543	-0,392	-0,162
67,276	50,669	-0,489	-0,324
68,290	85,585	-0,388	-0,299
69,305	34,441	-0,187	-0,114
70,320	139,392	-0,231	-0,213
71,334	106,948	-0,272	-0,227
72,349	35,148	-0,312	-0,191
73,363	110,086	-0,386	-0,325
74,378	232,070	-0,268	-0,309
75,393	2,489	-0,394	-0,199
76,407	-102,558	-0,309	-0,051
77,422	-39,729	-0,158	-0,058
78,436	48,700	-0,270	-0,177
79,451	-45,219	-0,431	-0,149
80,466	246,018	-0,273	-0,323
81,480	-88,287	-0,428	-0,089
82,495	800,000	-0,167	-0,395
83,509	-75,872	-0,354	-0,087
84,524	-108,896	-0,208	0,031
85,539	361,704	-0,179	-0,252
86,553	198,897	-0,332	-0,357
87,568	23,466	-0,319	-0,183
88,582	20,472	-0,209	-0,118
89,597	323,803	-0,209	-0,280
90,611	-59,511	-0,288	-0,086
91,626	122,992	-0,212	-0,186
92,641	7,660	-0,335	-0,175
93,655	172,440	-0,257	-0,260
94,670	97,467	-0,311	-0,250
95,684	38,766	-0,293	-0,183
96,699	40,559	-0,336	-0,212
97,714	67,986	-0,275	-0,197
98,728	-33,404	-0,180	-0,069
99,743	445,688	-0,117	-0,180
100,757	-29,280	-0,232	-0,092
101,772	-44,615	-0,325	-0,113
102,787	534,372	-0,245	-0,407
103,801	593,032	-0,212	-0,367
104,816	182,608	-0,208	-0,214
105,830	21,909	-0,340	-0,193
106,845	-3,060	-0,242	-0,118
107,860	126,344	-0,176	-0,156
108,874	57,475	-0,278	-0,189
109,889	597,637	-0,190	-0,330
110,903	115,969	-0,342	-0,292
111,918	-15,169	-0,260	-0,116
112,933	-41,192	-0,120	-0,043
113,947	46,445	-0,236	-0,153
114,962	26,698	-0,247	-0,144
115,976	9,124	-0,255	-0,134
116,991	123,134	-0,315	-0,276
118,006	231,875	-0,255	-0,292
119,020	0,203	-0,346	-0,172
120,035	351,751	-0,165	-0,229
121,049	152,520	-0,163	-0,156
122,064	55,335	-0,206	-0,139
123,079	298,005	-0,147	-0,189
124,093	52,267	-0,198	-0,132
125,108	-66,355	-0,405	-0,112
126,122	543,441	-0,200	-0,335
127,137	-8,618	-0,318	-0,148
128,151	15,672	-0,286	-0,156
129,166	-121,346	-0,270	-0,031
130,181	583,677	-0,078	-0,134
131,195	341,974	-0,180	-0,247
132,210	36,688	-0,362	-0,223
133,224	207,003	-0,174	-0,190
134,239	207,721	-0,154	-0,168
135,254	20,643	-0,143	-0,080
136,268	13,296	-0,207	-0,112
137,283	46,049	-0,307	-0,198
138,297	40,605	-0,261	-0,164
139,312	240,017	-0,275	-0,319
140,327	-62,187	-0,244	-0,070
141,341	112,275	-0,099	-0,084
142,356	1,250	-0,209	-0,104
143,370	-191,841	-0,233	-0,002
144,385	-8,609	-0,257	-0,120
145,400	55,131	-0,300	-0,202
146,414	457,548	-0,200	-0,311
147,429	157,447	-0,242	-0,233
148,443	59,151	-0,239	-0,164
149,458	220,208	-0,148	-0,165
150,473	119,146	-0,169	-0,145
151,487	123,549	-0,225	-0,197
152,502	68,606	-0,172	-0,123
153,516	16,958	-0,278	-0,153
154,531	216,081	-0,157	-0,174
155,546	73,350	-0,201	-0,146
156,560	76,720	-0,268	-0,198
157,575	42,129	-0,283	-0,178
158,589	46,353	-0,205	-0,132
159,604	13,274	-0,325	-0,175
160,619	271,549	-0,234	-0,288
161,633	222,424	-0,189	-0,212
162,648	80,261	-0,219	-0,164
163,662	-16,786	-0,337	-0,148
164,677	-80,699	-0,196	-0,045
165,692	-72,437	-0,255	-0,065
166,706	237,601	-0,273	-0,316
167,721	397,813	-0,116	-0,169
168,735	73,041	-0,200	-0,145
169,750	67,452	-0,307	-0,217
170,764	-64,531	-0,228	-0,064
171,779	345,072	-0,151	-0,207
172,794	-1,795	-0,264	-0,129
173,808	-92,139	-0,200	-0,039
174,823	13,833	-0,174	-0,094
175,837	-53,737	-0,349	-0,110
176,852	-25,942	-0,174	-0,071
177,867	-0,179	-0,191	-0,094
178,881	70,415	-0,201	-0,144
179,896	-35,173	-0,212	-0,080
180,910	242,664	-0,216	-0,252
181,925	115,727	-0,241	-0,204
182,940	472,191	-0,189	-0,296
183,954	437,613	-0,129	-0,196
184,969	43,432	-0,089	-0,057
185,983	800,000	-0,064	-0,138
186,998	111,125	-0,131	-0,109
188,013	800,000	-0,112	-0,295
189,027	533,439	-0,199	-0,328
190,042	332,461	-0,209	-0,281
191,056	462,915	-0,159	-0,247
192,071	62,740	-0,179	-0,124
193,086	34,349	-0,175	-0,106
194,100	-120,008	-0,239	-0,028
195,115	-105,493	-0,288	-0,045
196,129	125,228	-0,132	-0,116
197,144	131,843	-0,266	-0,237
198,159	164,683	-0,181	-0,177
199,173	487,006	-0,093	-0,147
200,188	209,242	-0,164	-0,179
201,202	84,264	-0,193	-0,146
202,217	-43,714	-0,281	-0,098
203,232	-46,066	-0,160	-0,054
204,246	-44,043	-0,340	-0,118
205,261	-121,921	-0,067	0,008
206,275	122,201	-0,230	-0,199
207,290	-23,724	-0,240	-0,099
208,304	194,793	-0,148	-0,155
209,319	-200,000	-0,031	-0,137
210,334	226,670	-0,192	-0,216
211,348	99,990	-0,233	-0,187
212,363	-65,047	-0,267	-0,074
213,377	94,703	-0,256	-0,201
214,392	462,209	-0,129	-0,200
215,407	125,037	-0,119	-0,103
216,421	-69,074	-0,135	-0,036
217,436	124,810	-0,236	-0,205
218,450	-200,000	-0,034	-0,154
219,465	-30,679	-0,249	-0,097
220,480	89,084	-0,164	-0,126
221,494	-91,589	-0,184	0,036
222,509	-109,464	-0,238	-0,034
223,523	-6,958	-0,218	-0,102
224,538	33,568	-0,041	-0,025
225,553	-17,952	-0,212	-0,092
226,567	133,760	-0,160	-0,143
227,582	800,000	-0,091	-0,200
228,596	30,376	-0,079	-0,047
229,611	385,165	-0,155	-0,222
230,626	194,150	-0,188	-0,197
231,640	74,097	-0,162	-0,117
232,655	60,085	-0,253	-0,173
233,669	45,455	-0,247	-0,157
234,684	165,394	-0,186	-0,182
235,699	800,000	-0,109	-0,254
236,713	50,407	-0,140	-0,091
237,728	-117,857	-0,207	0,025
238,742	6,960	-0,169	-0,087
239,757	86,417	-0,171	-0,130
240,772	-0,549	-0,185	-0,090
241,786	53,480	-0,230	-0,152
242,801	-13,185	-0,151	-0,068
243,815	-89,421	0,052	-0,011
244,830	-79,102	-0,273	-0,064
245,844	225,788	-0,068	-0,076
246,859	101,330	-0,244	-0,196
247,874	371,137	-0,138	-0,193
248,888	-27,172	-0,145	-0,058
249,903	178,841	-0,078	-0,079
250,917	-200,000	0,005	-0,046
251,932	-200,000	-0,053	-0,171
252,947	366,017	-0,207	-0,289
253,961	359,861	-0,144	-0,200
254,976	800,000	-0,062	-0,155
255,990	-71,350	-0,182	-0,047
257,005	298,706	-0,208	-0,265
258,020	-8,371	-0,258	-0,119
259,034	152,323	-0,084	-0,079
260,049	-10,793	-0,049	0,022
261,063	423,959	-0,112	-0,166
262,078	103,371	-0,142	-0,115
263,093	-0,761	-0,197	-0,096
264,107	325,946	-0,162	-0,214
265,122	800,000	-0,082	-0,203
266,136	-48,951	-0,251	-0,083
267,151	-146,734	-0,150	-0,009
268,166	-38,320	-0,150	-0,054
269,180	-87,704	-0,164	0,034
270,195	215,943	-0,198	-0,217
271,209	329,231	-0,193	-0,256
272,224	278,605	-0,061	-0,075
273,239	72,330	-0,116	-0,083
274,253	626,203	-0,104	-0,182
275,268	196,607	-0,157	-0,165
276,282	450,913	-0,177	-0,271
277,297	546,600	-0,089	-0,147
278,312	-200,000	-0,076	-0,241
279,326	-200,000	-0,004	-0,077
280,341	289,385	-0,144	-0,180
281,355	12,510	-0,249	-0,132
282,370	3,055	-0,243	-0,121
283,384	-200,000	-0,063	-0,229
284,399	800,000	-0,069	-0,153
285,414	-200,000	-0,052	-0,162
286,428	553,155	-0,026	-0,044
287,443	228,154	-0,073	-0,082
288,457	601,031	-0,076	-0,131
289,472	-43,730	-0,125	-0,043
290,487	-43,061	-0,144	-0,050
291,501	312,445	-0,136	-0,175
292,516	27,202	-0,173	-0,100
293,530	-149,442	-0,208	-0,011
294,545	-130,311	-0,182	-0,017
295,560	138,280	-0,148	-0,133
296,574	-80,791	-0,168	0,038
297,589	117,402	-0,171	-0,145
298,603	-200,000	-0,025	-0,233
299,618	-131,904	-0,122	0,011
300,633	800,000	-0,093	-0,242
301,647	-15,313	-0,231	-0,101
302,662	-182,389	-0,259	0,003
303,676	178,670	-0,030	-0,030
304,691	-200,000	-0,040	-0,148
305,706	179,333	-0,162	-0,163
306,720	262,543	-0,133	-0,159
307,735	-83,002	-0,211	0,046
308,749	-26,951	-0,111	-0,044
309,764	78,071	-0,049	-0,036
310,779	-60,902	-0,108	-0,031
311,793	-170,467	-0,181	-0,004
312,808	113,236	-0,217	-0,181
313,822	-73,837	-0,171	-0,042
314,837	3,684	-0,187	-0,093
315,852	-138,328	-0,204	-0,015
316,866	-67,772	-0,057	-0,015
317,881	-108,520	-0,170	-0,025
318,895	2,055	-0,219	-0,108
319,910	281,453	-0,119	-0,147
320,925	177,070	-0,129	-0,129
321,939	-138,852	-0,047	-0,003
322,954	383,757	-0,083	-0,118
323,968	-123,229	-0,068	-0,007
324,983	642,914	-0,128	-0,225
325,997	-89,710	-0,190	-0,038
327,012	93,522	-0,173	-0,134
328,027	-92,376	-0,175	-0,034
329,041	437,265	-0,092	-0,137
330,056	19,445	-0,148	0,081
331,070	25,163	-0,271	-0,154
332,085	-71,584	-0,168	-0,043
333,100	-50,632	-0,174	-0,056
334,114	-143,215	-0,131	0,008
335,129	264,458	-0,114	-0,137
336,143	-31,463	-0,258	-0,099
337,158	-136,503	-0,117	0,009
338,173	4,915	-0,104	-0,052
339,187	176,394	-0,163	-0,162
340,202	800,000	-0,088	-0,203
341,216	-32,785	-0,092	-0,035
342,231	-111,064	-0,184	-0,026
343,246	-200,000	0,012	-0,200
344,260	94,989	-0,191	-0,149
345,275	41,374	-0,067	-0,042
346,289	7,570	-0,057	0,029
347,304	470,705	-0,112	-0,173
348,319	-200,000	-0,037	-0,197
349,333	-81,854	-0,196	-0,044
350,348	-21,020	-0,112	-0,047
351,362	352,258	-0,096	-0,131
352,377	380,812	-0,095	-0,134
353,392	-200,000	-0,007	-0,032
354,406	-174,639	-0,251	-0,005
355,421	208,454	1306,731	1399,626
356,435	160,398	1466,470	1400,117
