DTS Sentinel unit serial number:	SN410029Multiplexer serial number:	ORYXHardware model number:	OX2-SRSoftware version number:	ORYX F/W v4,00 Oryx Data Collector v3.7.2.0data status	okinstallation	B3 Nyhavnadifferential loss correction	single-endedforward channel	channel 1reverse channel	N/Adate	2023/12/04time	07:17:30forward acquisition time	300,00reverse acquisition time	0,00gamma	499,1914k internal	0,3206k external	0,3206temperature offset calibration	1,0000default loss term (dB/km)	0,3820temperature slope calibration	1,0000multiplexer offset coefficient	1,0000multiplexer slope coefficient	1,0000fibre end	0,00T internal ref (°C)	12,19T ext. ref 1 (°C)	-2,31T ext. ref 2 (°C)	-2,35length (m)	temperature (°C)	Stokes	anti-Stokes-744,400	97,490	-0,206	-0,172
-743,385	800,000	0,133	0,278
-742,371	36,477	-0,277	-0,177
-741,356	-200,000	-0,034	0,368
-740,342	-200,000	-0,057	-0,239
-739,327	-200,000	0,016	0,107
-738,312	408,911	-0,162	-0,250
-737,298	-200,000	0,018	0,204
-736,283	90,906	-0,145	-0,118
-735,269	-200,000	-0,075	0,408
-734,254	528,197	-0,130	-0,224
-733,239	-38,504	-0,167	0,064
-732,225	800,000	-0,089	-0,185
-731,210	72,940	0,075	0,057
-730,196	280,866	-0,100	-0,130
-729,181	0,616	-0,114	0,059
-728,167	-200,000	-0,017	-0,117
-727,152	56,156	0,036	0,026
-726,137	26,666	-0,089	-0,054
-725,123	-37,410	-0,066	-0,025
-724,108	352,736	-0,090	-0,130
-723,094	-200,000	0,012	0,054
-722,079	-61,925	0,013	-0,004
-721,064	-200,000	-0,008	0,133
-720,050	-89,935	0,043	-0,009
-719,035	79,977	-0,107	0,084
-718,021	-200,000	0,003	-0,027
-717,006	-92,666	-0,041	0,008
-715,991	-105,114	-0,102	-0,017
-714,977	14,385	-0,133	-0,075
-713,962	800,000	0,025	-0,070
-712,948	-200,000	-0,004	-0,084
-711,933	-138,233	0,114	0,009
-710,918	466,777	-0,061	0,099
-709,904	226,262	-0,077	-0,091
-708,889	800,000	0,043	-0,114
-707,875	-100,454	-0,159	-0,028
-706,860	441,352	-0,043	0,068
-705,845	782,502	0,043	0,085
-704,831	36,711	0,150	0,096
-703,816	5,451	-0,012	0,006
-702,802	-2,295	-0,142	-0,072
-701,787	800,000	0,025	-0,078
-700,772	800,000	0,071	-0,162
-699,758	800,000	-0,015	-0,048
-698,743	67,637	-0,018	-0,013
-697,729	-150,652	0,031	0,002
-696,714	-200,000	-0,038	0,131
-695,699	513,069	0,034	-0,057
-694,685	-200,000	0,036	0,169
-693,670	-200,000	0,137	-0,000
-692,656	-200,000	0,004	0,044
-691,641	-144,632	-0,265	-0,017
-690,627	146,959	-0,059	0,058
-689,612	-200,000	0,013	0,047
-688,597	-72,784	0,023	0,006
-687,583	-200,000	0,030	-0,163
-686,568	-57,016	-0,054	-0,017
-685,554	-122,047	-0,156	-0,018
-684,539	-36,673	0,110	-0,043
-683,524	30,081	0,093	-0,058
-682,510	-89,098	0,053	0,011
-681,495	-64,161	-0,090	0,026
-680,481	26,653	-0,105	0,064
-679,466	207,084	-0,125	-0,141
-678,451	-200,000	-0,021	-0,146
-677,437	153,525	0,045	-0,045
-676,422	-200,000	0,005	0,019
-675,408	800,000	-0,059	-0,131
-674,393	-200,000	-0,007	-0,078
-673,378	-6,180	-0,154	-0,076
-672,364	34,384	-0,056	0,035
-671,349	-200,000	0,020	-0,131
-670,335	-200,000	-0,003	-0,044
-669,320	628,016	-0,015	0,028
-668,305	731,331	-0,054	0,106
-667,291	63,898	0,085	-0,062
-666,276	-200,000	-0,018	-0,155
-665,262	-200,000	-0,042	-0,144
-664,247	-172,281	-0,045	0,001
-663,232	-200,000	-0,011	0,084
-662,218	69,044	0,069	-0,051
-661,203	800,000	0,037	0,102
-660,189	-97,443	-0,082	-0,015
-659,174	-110,748	0,057	0,008
-658,159	69,359	-0,077	-0,057
-657,145	-200,000	-0,053	-0,216
-656,130	-76,103	-0,084	0,021
-655,116	800,000	0,013	-0,033
-654,101	-200,000	0,041	0,199
-653,086	247,065	0,073	-0,090
-652,072	-28,934	0,126	-0,052
-651,057	-39,191	-0,117	-0,044
-650,043	25,205	0,038	-0,023
-649,028	-166,871	-0,153	0,004
-648,014	602,518	-0,028	0,051
-646,999	-200,000	-0,005	0,066
-645,984	428,066	0,060	0,094
-644,970	-200,000	0,007	-0,047
-643,955	85,322	0,039	0,031
-642,941	-66,226	-0,146	0,042
-641,926	635,874	-0,107	0,198
-640,911	-133,113	0,057	0,005
-639,897	356,477	0,083	0,120
-638,882	565,347	0,045	-0,079
-637,868	-200,000	-0,014	-0,062
-636,853	-200,000	-0,014	0,085
-635,838	-200,000	-0,017	-0,238
-634,824	-200,000	-0,032	-0,159
-633,809	165,828	0,070	0,071
-632,795	109,725	0,012	0,010
-631,780	59,048	0,131	0,093
-630,765	-130,324	-0,107	0,010
-629,751	-71,601	-0,155	0,042
-628,736	800,000	-0,033	-0,100
-627,722	-200,000	0,006	-0,060
-626,707	63,592	0,115	-0,084
-625,692	85,279	-0,061	0,048
-624,678	-120,280	0,094	-0,012
-623,663	240,990	0,120	-0,145
-622,649	-72,583	-0,037	0,010
-621,634	-200,000	0,004	-0,088
-620,619	129,089	0,116	-0,107
-619,605	-200,000	-0,022	-0,085
-618,590	301,939	0,025	-0,033
-617,576	-200,000	0,018	-0,096
-616,561	7,555	0,053	-0,029
-615,546	-76,733	-0,137	-0,034
-614,532	800,000	0,025	-0,061
-613,517	-200,000	0,007	-0,040
-612,503	800,000	-0,072	-0,207
-611,488	255,212	0,145	0,180
-610,474	-0,012	-0,062	-0,032
-609,459	-200,000	0,003	0,054
-608,444	-200,000	-0,004	-0,078
-607,430	-200,000	0,011	-0,071
-606,415	166,206	-0,064	-0,066
-605,401	161,757	0,141	-0,142
-604,386	318,266	-0,024	0,032
-603,371	-137,620	0,048	-0,004
-602,357	-116,197	-0,092	-0,012
-601,342	-200,000	-0,026	-0,142
-600,328	-44,986	-0,018	0,006
-599,313	-200,000	0,029	-0,097
-598,298	244,230	-0,075	-0,091
-597,284	350,037	0,048	-0,069
-596,269	-200,000	-0,003	0,191
-595,255	787,418	-0,045	0,090
-594,240	800,000	0,049	-0,139
-593,225	-94,645	-0,075	-0,015
-592,211	800,000	-0,012	-0,031
-591,196	-200,000	0,019	-0,066
-590,182	215,113	0,074	0,085
-589,167	69,932	-0,020	0,015
-588,152	48,000	-0,185	-0,124
-587,138	-200,000	0,039	0,183
-586,123	313,972	-0,053	-0,073
-585,109	-200,000	-0,014	-0,241
-584,094	26,121	-0,099	-0,059
-583,079	800,000	-0,054	-0,160
-582,065	-89,556	-0,048	-0,010
-581,050	-194,426	0,066	0,000
-580,036	50,495	0,012	0,008
-579,021	-200,000	0,001	-0,117
-578,006	209,534	-0,111	-0,126
-576,992	121,535	0,101	-0,091
-575,977	-71,845	0,051	-0,014
-574,963	292,886	0,044	-0,058
-573,948	-200,000	0,005	0,055
-572,934	195,525	-0,105	0,115
-571,919	-200,000	-0,022	-0,110
-570,904	609,368	-0,039	-0,071
-569,890	-6,400	0,101	-0,050
-568,875	-200,000	0,022	-0,085
-567,861	-200,000	0,019	0,070
-566,846	271,247	0,082	0,105
-565,831	739,197	-0,053	-0,103
-564,817	370,584	0,030	-0,044
-563,802	207,703	-0,093	-0,105
-562,788	92,159	-0,059	-0,048
-561,773	-65,026	0,073	0,021
-560,758	800,000	-0,013	-0,040
-559,744	-192,795	0,058	0,000
-558,729	-200,000	0,002	0,036
-557,715	449,445	-0,046	-0,074
-556,700	800,000	0,058	-0,129
-555,685	271,364	-0,038	0,048
-554,671	-78,173	0,044	-0,011
-553,656	9,500	-0,072	-0,039
-552,642	800,000	-0,090	0,201
-551,627	-127,263	-0,088	0,009
-550,612	-141,486	-0,025	-0,002
-549,598	800,000	0,016	0,034
-548,583	-200,000	-0,009	-0,031
-547,569	-197,729	-0,142	-0,001
-546,554	800,000	-0,046	0,104
-545,539	-200,000	-0,000	-0,059
-544,525	-120,012	0,191	-0,023
-543,510	-110,846	0,117	-0,017
-542,496	390,803	-0,047	-0,071
-541,481	126,227	-0,108	-0,099
-540,466	800,000	0,034	-0,090
-539,452	-200,000	0,010	-0,057
-538,437	105,111	-0,046	-0,039
-537,423	200,611	-0,066	0,074
-536,408	-156,952	-0,175	0,008
-535,393	158,964	0,057	-0,057
-534,379	69,249	0,018	-0,013
-533,364	630,065	-0,082	-0,150
-532,350	-11,990	-0,046	0,022
-531,335	62,593	0,049	-0,035
-530,321	303,512	0,035	0,046
-529,306	800,000	-0,016	-0,037
-528,291	-200,000	0,000	0,092
-527,277	-110,778	0,050	0,007
-526,262	-200,000	-0,006	-0,059
-525,248	-200,000	-0,021	0,088
-524,233	93,450	0,092	0,075
-523,218	460,293	-0,034	0,055
-522,204	-200,000	-0,020	0,087
-521,189	-135,618	-0,124	-0,010
-520,175	-129,345	0,044	-0,004
-519,160	281,606	-0,109	-0,141
-518,145	92,850	-0,072	0,058
-517,131	800,000	0,025	-0,051
-516,116	236,517	-0,021	0,025
-515,102	-149,924	0,024	0,001
-514,087	14,495	-0,053	-0,030
-513,072	109,924	-0,162	-0,140
-512,058	800,000	0,017	0,036
-511,043	-200,000	-0,016	0,053
-510,029	-48,920	-0,098	0,034
-509,014	-200,000	-0,003	-0,111
-507,999	99,304	0,078	0,065
-506,985	-200,000	-0,008	0,025
-505,970	-63,112	-0,042	-0,012
-504,956	116,980	0,099	0,087
-503,941	-200,000	-0,005	0,052
-502,926	-94,331	-0,067	0,013
-501,912	800,000	0,015	0,042
-500,897	800,000	0,068	0,160
-499,883	-200,000	0,009	-0,189
-498,868	800,000	0,032	0,070
-497,853	800,000	-0,038	-0,109
-496,839	24,076	0,069	-0,041
-495,824	-200,000	0,018	-0,123
-494,810	-37,807	0,136	0,052
-493,795	-200,000	-0,010	0,079
-492,781	800,000	-0,026	-0,056
-491,766	722,151	0,057	0,109
-490,751	239,498	-0,053	-0,064
-489,737	653,723	-0,030	-0,056
-488,722	-4,572	0,145	0,072
-487,708	-88,691	0,160	0,034
-486,693	-86,276	0,180	-0,040
-485,678	-51,435	-0,106	0,035
-484,664	-55,334	-0,064	0,020
-483,649	297,613	-0,101	0,133
-482,635	295,571	-0,038	-0,050
-481,620	800,000	0,040	0,085
-480,605	-200,000	-0,001	0,086
-479,591	800,000	-0,008	0,021
-478,576	188,625	-0,040	-0,043
-477,562	-115,762	0,046	0,006
-476,547	762,495	0,040	0,078
-475,532	-200,000	-0,006	-0,035
-474,518	675,889	0,034	-0,064
-473,503	-124,140	0,105	0,012
-472,489	13,650	-0,156	0,087
-471,474	-200,000	0,021	0,074
-470,459	-98,528	0,107	-0,020
-469,445	231,223	-0,122	-0,144
-468,430	800,000	-0,034	0,075
-467,416	252,997	0,054	-0,066
-466,401	433,019	0,019	0,030
-465,386	-120,727	0,075	-0,009
-464,372	19,086	-0,116	-0,067
-463,357	800,000	-0,043	-0,100
-462,343	-112,723	-0,088	0,012
-461,328	94,129	-0,009	0,007
-460,313	800,000	-0,032	0,094
-459,299	23,643	-0,041	0,024
-458,284	190,503	0,006	0,007
-457,270	-200,000	0,009	0,200
-456,255	444,523	-0,078	-0,124
-455,241	98,073	-0,061	-0,050
-454,226	-200,000	0,027	0,087
-453,211	436,610	0,040	-0,063
-452,197	-200,000	0,008	-0,119
-451,182	-62,150	0,017	-0,005
-450,168	-131,745	0,079	-0,007
-449,153	356,564	0,052	0,075
-448,138	-200,000	0,038	-0,153
-447,124	-154,323	-0,136	-0,006
-446,109	-200,000	0,019	0,091
-445,095	447,579	-0,045	0,072
-444,080	800,000	0,016	0,046
-443,065	56,093	0,021	0,015
-442,051	-200,000	-0,007	0,031
-441,036	149,488	0,088	-0,086
-440,022	340,917	-0,073	0,103
-439,007	263,560	-0,062	-0,078
-437,992	288,797	0,038	-0,050
-436,978	-117,840	0,211	0,027
-435,963	43,219	-0,076	-0,050
-434,949	36,285	0,118	-0,074
-433,934	-80,864	-0,095	0,023
-432,919	135,950	0,107	-0,100
-431,905	800,000	-0,058	-0,129
-430,890	-149,256	-0,164	-0,009
-429,876	-6,059	0,102	-0,050
-428,861	164,024	-0,091	0,092
-427,846	-14,741	0,082	-0,038
-426,832	-200,000	0,001	-0,088
-425,817	341,985	0,099	-0,139
-424,803	100,297	0,091	-0,076
-423,788	-108,322	0,050	-0,008
-422,773	-148,084	0,036	-0,002
-421,759	-171,055	0,075	-0,002
-420,744	719,521	-0,037	-0,072
-419,730	615,239	0,031	-0,056
-418,715	422,900	-0,100	-0,154
-417,701	492,671	0,088	-0,145
-416,686	-200,000	0,023	0,126
-415,671	-200,000	0,003	0,029
-414,657	150,616	-0,054	0,053
-413,642	-200,000	0,051	-0,186
-412,628	-93,728	0,074	-0,015
-411,613	162,237	0,018	-0,018
-410,598	-200,000	0,010	-0,040
-409,584	-82,593	0,011	0,003
-408,569	-0,539	0,055	-0,028
-407,555	800,000	-0,023	0,067
-406,540	210,701	-0,006	-0,006
-405,525	245,319	0,064	0,078
-404,511	394,744	-0,074	-0,112
-403,496	-200,000	-0,017	-0,131
-402,482	-20,366	0,082	-0,036
-401,467	130,603	0,058	0,053
-400,452	800,000	-0,042	0,110
-399,438	-37,173	-0,059	0,023
-398,423	-200,000	-0,027	-0,086
-397,409	60,914	0,109	-0,077
-396,394	800,000	-0,020	0,053
-395,379	-200,000	-0,018	-0,060
-394,365	800,000	0,022	-0,045
-393,350	256,020	-0,036	0,045
-392,336	-16,143	-0,087	-0,039
-391,321	97,544	-0,108	-0,089
-390,306	800,000	-0,043	0,105
-389,292	10,888	0,044	0,024
-388,277	754,979	0,019	0,037
-387,263	34,582	-0,122	-0,076
-386,248	-133,619	0,147	-0,013
-385,233	26,191	0,075	0,045
-384,219	29,030	0,072	-0,044
-383,204	-69,830	0,123	-0,033
-382,190	230,064	-0,028	0,033
-381,175	-33,191	-0,045	-0,018
-380,160	5,877	-0,072	0,038
-379,146	-200,000	0,044	0,142
-378,131	81,328	0,071	0,055
-377,117	278,195	0,081	0,104
-376,102	-158,266	0,065	-0,003
-375,088	69,618	-0,044	-0,033
-374,073	21,018	0,065	-0,038
-373,058	800,000	0,039	0,090
-372,044	-200,000	-0,025	0,121
-371,029	-150,023	0,084	-0,005
-370,015	-48,703	0,125	0,043
-369,000	42,771	-0,061	-0,040
-367,985	76,857	0,032	0,025
-366,971	-200,000	0,033	-0,111
-365,956	-63,340	-0,048	0,014
-364,942	130,426	0,093	0,085
-363,927	-200,000	-0,004	0,120
-362,912	800,000	0,029	0,063
-361,898	-18,516	-0,125	0,056
-360,883	-7,327	-0,125	-0,060
-359,869	-68,519	-0,080	0,022
-358,854	-200,000	0,009	0,047
-357,839	24,292	0,048	-0,028
-356,825	64,674	-0,027	0,019
-355,810	-200,000	-0,015	-0,081
-354,796	-102,157	0,062	0,011
-353,781	-96,417	0,074	-0,014
-352,766	800,000	-0,025	-0,057
-351,752	-20,062	0,075	0,033
-350,737	135,038	-0,062	-0,058
-349,723	-78,082	-0,075	-0,018
-348,708	-159,421	0,054	-0,002
-347,693	632,035	-0,018	0,032
-346,679	-10,171	-0,055	0,026
-345,664	443,445	-0,060	0,095
-344,650	95,625	0,040	-0,032
-343,635	79,890	0,122	-0,094
-342,620	-18,123	0,048	0,021
-341,606	710,376	0,056	0,106
-340,591	800,000	0,039	0,124
-339,577	278,687	0,063	-0,080
-338,562	800,000	-0,010	0,021
-337,548	686,420	0,068	0,128
-336,533	-68,151	0,130	0,036
-335,518	312,958	-0,055	0,074
-334,504	422,020	-0,038	0,059
-333,489	-38,824	-0,044	-0,016
-332,475	-200,000	-0,025	-0,181
-331,460	-200,000	-0,004	-0,097
-330,445	359,968	0,055	0,079
-329,431	47,169	0,131	0,087
-328,416	-84,311	0,110	0,025
-327,402	-1,006	-0,127	-0,064
-326,387	229,194	-0,095	0,111
-325,372	800,000	-0,018	-0,050
-324,358	143,766	-0,089	0,084
-323,343	-200,000	-0,021	-0,092
-322,329	192,055	0,034	0,037
-321,314	-116,273	0,112	-0,015
-320,299	-87,509	0,055	0,012
-319,285	800,000	0,063	-0,185
-318,270	-200,000	-0,015	-0,061
-317,256	-31,270	-0,045	-0,018
-316,241	800,000	0,022	-0,055
-315,226	-200,000	0,049	0,219
-314,212	63,566	0,046	-0,033
-313,197	-112,006	-0,097	0,014
-312,183	800,000	-0,044	0,123
-311,168	266,674	-0,075	0,094
-310,153	100,634	0,099	-0,082
-309,139	-192,943	0,062	-0,000
-308,124	90,138	0,083	-0,066
-307,110	-200,000	-0,020	0,111
-306,095	800,000	0,067	0,151
-305,080	-86,488	-0,063	-0,014
-304,066	-118,409	0,074	-0,009
-303,051	-200,000	0,009	0,031
-302,037	100,450	-0,183	0,152
-301,022	-44,101	0,071	-0,025
-300,008	-161,054	-0,055	-0,002
-298,993	-74,934	-0,112	-0,028
-297,978	316,610	0,025	0,034
-296,964	434,841	-0,044	-0,068
-295,949	204,403	-0,139	0,154
-294,935	-200,000	-0,007	-0,034
-293,920	437,790	-0,042	0,066
-292,905	-77,001	-0,007	-0,002
-291,891	-200,000	-0,018	0,081
-290,876	-133,119	-0,065	0,006
-289,862	-200,000	0,016	-0,100
-288,847	-0,722	-0,147	-0,074
-287,832	-200,000	-0,002	0,033
-286,818	285,376	-0,077	0,100
-285,803	-200,000	0,007	-0,049
-284,789	-1,968	0,029	0,015
-283,774	-57,972	-0,009	0,003
-282,759	99,793	-0,114	-0,094
-281,745	658,648	0,061	0,113
-280,730	192,896	-0,061	0,065
-279,716	-133,947	-0,139	-0,012
-278,701	-200,000	0,015	-0,049
-277,686	52,029	0,081	0,055
-276,672	800,000	-0,057	0,123
-275,657	-52,437	-0,068	0,022
-274,643	540,117	-0,069	0,118
-273,628	-72,693	-0,074	-0,019
-272,613	222,745	-0,081	0,093
-271,599	-9,651	0,077	0,036
-270,584	115,601	0,108	0,094
-269,570	-200,000	-0,014	0,087
-268,555	-200,000	0,008	0,102
-267,540	-78,177	0,061	-0,015
-266,526	18,794	-0,039	0,022
-265,511	-27,287	-0,064	-0,027
-264,497	-200,000	0,003	0,011
-263,482	-200,000	-0,034	0,131
-262,467	-58,730	0,082	0,025
-261,453	-200,000	-0,003	-0,093
-260,438	-32,506	-0,152	-0,060
-259,424	-200,000	-0,034	-0,163
-258,409	-122,813	-0,132	-0,015
-257,395	-107,925	0,109	0,017
-256,380	716,470	-0,005	0,010
-255,365	-200,000	0,026	0,167
-254,351	-52,376	0,091	0,030
-253,336	-39,602	-0,088	0,033
-252,322	-14,634	-0,140	-0,064
-251,307	-35,700	-0,107	-0,041
-250,292	535,863	-0,015	-0,025
-249,278	800,000	0,026	0,076
-248,263	63,064	0,042	0,030
-247,249	-200,000	-0,005	0,070
-246,234	-200,000	-0,009	-0,077
-245,219	-10,211	0,046	0,022
-244,205	200,215	-0,046	-0,050
-243,190	-104,728	-0,098	0,016
-242,176	116,460	0,041	-0,036
-241,161	417,280	-0,069	0,105
-240,146	-200,000	-0,001	0,031
-239,132	-9,586	0,103	-0,049
-238,117	-26,974	0,096	-0,040
-237,103	165,367	-0,034	-0,034
-236,088	800,000	0,018	-0,040
-235,073	1,874	0,093	0,047
-234,059	-49,272	-0,138	0,047
-233,044	-52,256	0,097	0,032
-232,030	8,395	0,088	0,047
-231,015	-129,706	-0,060	-0,006
-230,000	-3,120	-0,113	-0,056
-228,986	244,652	-0,045	-0,054
-227,971	300,302	-0,050	-0,066
-226,957	-112,546	0,123	0,017
-225,942	-200,000	-0,002	-0,021
-224,927	-200,000	-0,026	0,133
-223,913	-200,000	0,009	0,042
-222,898	-200,000	0,009	0,031
-221,884	297,464	0,036	0,047
-220,869	-200,000	0,002	0,078
-219,855	-188,252	-0,044	-0,000
-218,840	-200,000	0,034	0,177
-217,825	-200,000	-0,014	0,138
-216,811	-167,386	-0,018	-0,000
-215,796	-120,012	0,071	-0,009
-214,782	94,579	0,128	-0,104
-213,767	800,000	0,028	0,085
-212,752	-200,000	0,044	0,195
-211,738	-200,000	-0,011	0,113
-210,723	86,981	0,133	0,105
-209,709	67,319	-0,074	0,054
-208,694	-174,194	-0,210	0,004
-207,679	342,508	0,003	-0,004
-206,665	469,573	-0,074	0,118
-205,650	22,616	-0,051	0,030
-204,636	-83,230	0,164	0,037
-203,621	-200,000	0,013	0,095
-202,606	-66,201	-0,070	-0,020
-201,592	-95,249	-0,019	0,004
-200,577	-88,208	-0,088	-0,019
-199,563	-200,000	-0,007	-0,024
-198,548	-200,000	-0,001	0,081
-197,533	-124,711	0,036	0,004
-196,519	-134,128	-0,117	0,010
-195,504	800,000	0,017	-0,036
-194,490	155,451	0,005	-0,005
-193,475	800,000	-0,037	0,095
-192,460	-109,986	0,008	-0,001
-191,446	-200,000	0,010	0,124
-190,431	-121,883	0,149	0,017
-189,417	173,282	0,053	-0,055
-188,402	-200,000	-0,001	-0,022
-187,387	-146,020	-0,057	0,003
-186,373	-200,000	0,022	0,142
-185,358	-131,396	0,101	-0,009
-184,344	-200,000	-0,019	0,103
-183,329	85,394	0,068	0,053
-182,315	-200,000	-0,020	0,115
-181,300	350,977	-0,062	-0,087
-180,285	-94,182	0,050	-0,010
-179,271	96,416	-0,121	-0,098
-178,256	800,000	-0,002	-0,006
-177,242	-64,858	-0,083	0,024
-176,227	800,000	-0,022	0,051
-175,212	186,501	0,112	-0,118
-174,198	41,251	0,030	-0,019
-173,183	-20,858	-0,034	-0,015
-172,169	44,577	-0,039	0,026
-171,154	335,791	0,041	0,057
-170,139	480,482	0,082	-0,132
-169,125	-200,000	0,000	0,059
-168,110	800,000	-0,006	0,014
-167,096	56,817	0,051	-0,035
-166,081	123,784	-0,031	-0,027
-165,066	800,000	-0,023	-0,061
-164,052	-200,000	0,026	-0,106
-163,037	142,185	0,081	-0,076
-162,023	43,119	0,086	0,056
-161,008	157,109	0,083	0,081
-159,993	245,113	-0,058	-0,070
-158,979	-18,776	-0,082	-0,036
-157,964	800,000	0,028	0,079
-156,950	-73,747	0,142	-0,036
-155,935	800,000	0,048	0,099
-154,920	-108,392	0,074	0,011
-153,906	-129,886	0,170	0,016
-152,891	-200,000	-0,005	-0,078
-151,877	800,000	0,015	-0,045
-150,862	-63,369	-0,013	0,004
-149,847	-200,000	-0,035	-0,172
-148,833	161,174	-0,094	-0,093
-147,818	36,632	0,023	-0,014
-146,804	-0,553	0,094	-0,047
-145,789	-200,000	-0,011	0,172
-144,775	-0,942	0,132	-0,066
-143,760	168,251	-0,162	-0,163
-142,745	256,344	-0,085	-0,103
-141,731	-35,670	-0,090	-0,034
-140,716	-50,491	0,105	0,035
-139,702	-85,247	0,183	-0,040
-138,687	376,993	-0,037	-0,054
-137,672	21,220	0,125	-0,072
-136,658	246,185	-0,123	-0,147
-135,643	-200,000	-0,008	-0,031
-134,629	-200,000	-0,010	0,183
-133,614	291,238	0,109	0,142
-132,599	-200,000	0,035	0,117
-131,585	-200,000	0,022	0,163
-130,570	-71,020	-0,046	-0,012
-129,556	5,330	-0,138	0,072
-128,541	129,616	-0,091	0,082
-127,526	80,506	-0,036	0,028
-126,512	-200,000	-0,004	0,094
-125,497	561,764	0,065	0,111
-124,483	5,305	-0,077	-0,040
-123,468	-200,000	-0,012	-0,042
-122,453	-200,000	0,003	-0,128
-121,439	800,000	0,051	-0,111
-120,424	-200,000	0,012	0,053
-119,410	-200,000	0,001	-0,137
-118,395	-200,000	-0,001	0,024
-117,380	800,000	-0,047	0,133
-116,366	-104,514	-0,069	-0,011
-115,351	719,375	0,020	0,038
-114,337	-12,537	0,073	-0,033
-113,322	219,320	0,022	-0,025
-112,307	800,000	0,008	-0,021
-111,293	-200,000	-0,005	-0,082
-110,278	132,664	0,106	-0,097
-109,264	-99,379	-0,050	0,009
-108,249	-16,332	-0,058	-0,026
-107,234	-200,000	0,006	-0,175
-106,220	-75,618	0,098	-0,024
-105,205	800,000	-0,048	-0,138
-104,191	-69,446	0,115	0,031
-103,176	65,323	-0,026	0,019
-102,162	333,906	-0,020	0,028
-101,147	156,502	-0,090	0,088
-100,132	-200,000	0,005	-0,035
-99,118	800,000	-0,047	-0,130
-98,103	-200,000	-0,018	0,108
-97,089	233,296	0,019	-0,023
-96,074	-200,000	0,008	0,125
-95,059	128,493	-0,084	0,076
-94,045	-84,838	-0,137	-0,030
-93,030	-170,458	-0,055	0,001
-92,016	137,517	0,023	-0,021
-91,001	-187,812	0,125	0,001
-89,986	-200,000	-0,010	0,073
-88,972	800,000	0,031	-0,077
-87,957	800,000	-0,052	-0,103
-86,943	-88,315	-0,152	-0,032
-85,928	-85,821	-0,164	-0,036
-84,913	-72,656	0,124	0,032
-83,899	428,077	-0,070	-0,107
-82,884	661,578	0,061	-0,112
-81,870	22,849	-0,190	-0,110
-80,855	-200,000	-0,024	-0,153
-79,840	216,727	-0,021	-0,023
-78,826	-120,864	-0,021	0,002
-77,811	139,914	0,042	-0,040
-76,797	-200,000	-0,005	-0,113
-75,782	22,044	0,115	-0,066
-74,767	800,000	0,011	-0,023
-73,753	124,698	0,062	0,055
-72,738	-200,000	0,021	0,000
-71,724	107,826	-0,129	-0,108
-70,709	-200,000	0,002	-0,048
-69,694	-200,000	0,013	-0,096
-68,680	115,587	0,031	-0,027
-67,665	-32,453	0,063	0,025
-66,651	-136,276	0,096	-0,008
-65,636	-200,000	-0,002	-0,065
-64,622	-200,000	-0,000	0,077
-63,607	-200,000	0,016	0,064
-62,592	-200,000	-0,028	0,100
-61,578	110,091	-0,062	-0,053
-60,563	-200,000	0,029	0,140
-59,549	-48,481	-0,062	-0,021
-58,534	32,419	-1,788	-1,089
-57,519	428,794	-1,285	-1,970
-56,505	-200,000	-0,518	-4,653
-55,490	349,984	1,025	1,436
-54,476	800,000	4,809	11,165
-53,461	-200,000	20,037	324,169
-52,446	800,000	751,577	2313,158
-51,432	550,580	1662,596	2830,484
-50,417	75,206	1671,618	1244,636
-49,403	20,022	1544,692	878,184
-48,388	14,043	1466,984	804,929
-47,373	18,322	1457,092	820,129
-46,359	16,350	1446,582	804,738
-45,344	12,346	1442,216	783,112
-44,330	12,239	1440,323	781,540
-43,315	12,252	1438,595	780,632
-42,300	12,217	1436,936	779,535
-41,286	12,271	1435,723	779,104
-40,271	12,201	1434,317	777,974
-39,257	12,200	1433,177	777,319
-38,242	12,306	1431,637	776,957
-37,227	12,295	1430,478	776,248
-36,213	12,281	1429,296	775,510
-35,198	12,313	1428,137	774,998
-34,184	12,355	1427,022	774,564
-33,169	12,254	1425,626	773,299
-32,154	12,318	1424,486	772,952
-31,140	12,317	1423,574	772,420
-30,125	12,330	1422,369	771,799
-29,111	12,304	1421,082	770,947
-28,096	12,291	1420,059	770,298
-27,082	12,221	1419,036	769,382
-26,067	12,189	1417,992	768,636
-25,052	12,238	1416,856	768,221
-24,038	12,208	1415,839	767,496
-23,023	12,200	1414,860	766,896
-22,009	12,274	1413,482	766,470
-20,994	12,200	1412,765	765,704
-19,979	12,163	1411,925	765,041
-18,965	12,168	1411,095	764,586
-17,950	12,140	1410,122	763,898
-16,936	12,199	1409,157	763,621
-15,921	12,131	1408,257	762,786
-14,906	12,127	1407,438	762,291
-13,892	12,125	1406,454	761,719
-12,877	12,113	1405,486	761,107
-11,863	12,091	1404,596	760,493
-10,848	12,130	1403,587	760,099
-9,833	12,082	1402,874	759,459
-8,819	12,021	1402,167	758,760
-7,804	11,989	1401,287	758,106
-6,790	12,004	1400,110	757,508
-5,775	12,038	1399,000	757,040
-4,760	12,041	1397,998	756,481
-3,746	11,983	1397,245	755,774
-2,731	12,026	1396,357	755,463
-1,717	11,978	1395,594	754,794
-0,702	11,976	1393,659	753,710
0,313	16,047	1308,740	726,542
1,327	32,469	699,934	426,293
2,342	50,178	122,042	81,278
3,356	1,432	16,630	8,419
4,371	1,018	3,171	1,601
5,386	30,794	0,580	0,350
6,400	-200,000	-0,004	0,317
7,415	149,497	-0,133	-0,128
8,429	38,961	-0,276	-0,174
9,444	38,927	-0,310	-0,195
10,459	-4,262	-0,292	-0,142
11,473	5,185	-0,255	-0,132
12,488	-18,584	-0,374	-0,164
13,502	25,051	-0,388	-0,227
14,517	29,116	-0,310	-0,185
15,531	60,232	-0,352	-0,245
16,546	77,901	-0,289	-0,217
17,561	20,219	-0,348	-0,198
18,575	-27,482	-0,189	-0,077
19,590	132,267	-0,250	-0,227
20,604	-45,808	-0,177	-0,061
21,619	17,979	-0,523	-0,293
22,634	-38,749	-0,487	-0,180
23,648	116,995	-0,330	-0,286
24,663	21,630	-0,342	-0,196
25,677	-43,705	-0,284	-0,100
26,692	51,751	-0,248	-0,166
27,707	80,304	-0,297	-0,225
28,721	170,366	-0,318	-0,321
29,736	90,758	-0,361	-0,285
30,750	6,645	-0,256	-0,134
31,765	141,626	-0,410	-0,383
32,780	65,785	-0,353	-0,252
33,794	59,094	-0,340	-0,235
34,809	9,810	-0,537	-0,286
35,823	201,447	-0,305	-0,332
36,838	94,509	-0,343	-0,274
37,853	160,263	-0,360	-0,354
38,867	172,211	-0,282	-0,286
39,882	12,964	-0,466	-0,253
40,896	759,178	-0,167	-0,320
41,911	75,715	-0,292	-0,217
42,926	104,857	-0,357	-0,296
43,940	79,758	-0,274	-0,207
44,955	91,655	-0,419	-0,332
45,969	144,763	-0,275	-0,259
46,984	68,379	-0,321	-0,231
47,999	184,519	-0,344	-0,359
49,013	152,983	-0,374	-0,360
50,028	11,771	-0,332	-0,179
51,042	194,193	-0,232	-0,248
52,057	19,656	-0,410	-0,232
53,071	5,966	-0,314	-0,163
54,086	80,789	-0,303	-0,229
55,101	89,463	-0,345	-0,270
56,115	-42,327	-0,325	-0,116
57,130	127,006	-0,185	-0,165
58,144	41,390	-0,351	-0,223
59,159	121,694	-0,347	-0,304
60,174	39,546	-0,345	-0,217
61,188	475,006	-0,211	-0,336
62,203	32,362	-0,315	-0,191
63,217	100,942	-0,221	-0,180
64,232	132,098	-0,229	-0,207
65,247	204,434	-0,250	-0,273
66,261	-62,786	-0,256	-0,074
67,276	14,658	-0,217	-0,119
68,290	64,164	-0,412	-0,291
69,305	58,061	-0,263	-0,181
70,320	-63,948	-0,351	-0,100
71,334	-22,323	-0,284	-0,120
72,349	-79,622	-0,357	-0,084
73,363	171,064	-0,303	-0,305
74,378	21,671	-0,396	-0,225
75,393	100,003	-0,296	-0,241
76,407	686,859	-0,134	-0,246
77,422	377,618	-0,220	-0,316
78,436	153,205	-0,225	-0,216
79,451	2,986	-0,330	-0,168
80,466	32,231	-0,358	-0,216
81,480	233,099	-0,247	-0,286
82,495	224,569	-0,244	-0,277
83,509	73,349	-0,132	-0,097
84,524	48,043	-0,171	-0,112
85,539	151,884	-0,201	-0,192
86,553	-113,231	-0,346	0,047
87,568	-0,054	-0,341	-0,169
88,582	221,125	-0,277	-0,312
89,597	-60,115	-0,331	-0,098
90,611	55,467	-0,289	-0,196
91,626	285,146	-0,176	-0,223
92,641	-41,630	-0,279	-0,100
93,655	94,300	-0,314	-0,249
94,670	116,717	-0,284	-0,244
95,684	-87,340	-0,315	-0,066
96,699	226,795	-0,289	-0,329
97,714	101,044	-0,281	-0,229
98,728	140,894	-0,184	-0,171
99,743	207,309	-0,143	-0,157
100,757	92,547	-0,247	-0,195
101,772	261,382	-0,272	-0,330
102,787	262,269	-0,204	-0,249
103,801	-111,467	-0,284	-0,040
104,816	25,337	-0,204	-0,119
105,830	449,058	-0,169	-0,261
106,845	548,788	-0,148	-0,249
107,860	-70,657	-0,191	-0,050
108,874	-46,138	-0,293	-0,100
109,889	-52,870	-0,205	-0,066
110,903	800,000	-0,098	-0,290
111,918	172,248	-0,288	-0,290
112,933	375,698	-0,227	-0,324
113,947	61,001	-0,218	-0,151
114,962	-55,222	-0,283	-0,089
115,976	5,007	-0,426	-0,219
116,991	323,814	-0,258	-0,345
118,006	134,167	-0,261	-0,237
119,020	257,249	-0,199	-0,240
120,035	110,279	-0,159	-0,133
121,049	0,004	-0,410	-0,204
122,064	100,134	-0,273	-0,221
123,079	32,232	-0,280	-0,168
124,093	-90,941	-0,245	-0,049
125,108	-78,509	-0,255	-0,061
126,122	-31,849	-0,253	-0,098
127,137	50,985	-0,293	-0,194
128,151	329,690	-0,147	-0,198
129,166	-30,085	-0,240	-0,095
130,181	-87,511	-0,147	-0,031
131,195	131,064	-0,191	-0,171
132,210	625,883	-0,202	-0,358
133,224	187,172	-0,225	-0,234
134,239	800,000	-0,093	-0,203
135,254	246,828	-0,161	-0,191
136,268	-27,463	-0,217	-0,088
137,283	42,910	-0,231	-0,147
138,297	357,609	-0,228	-0,319
139,312	170,981	-0,221	-0,221
140,327	128,539	-0,196	-0,174
141,341	296,444	-0,168	-0,216
142,356	60,101	-0,116	-0,080
143,370	-88,002	-0,320	-0,067
144,385	535,562	-0,114	-0,189
145,400	126,206	-0,192	-0,169
146,414	167,419	-0,176	-0,175
147,429	234,733	-0,316	-0,365
148,443	187,643	-0,259	-0,270
149,458	46,508	-0,193	-0,125
150,473	-24,678	-0,191	-0,079
151,487	-101,192	-0,309	-0,052
152,502	100,074	-0,188	-0,152
153,516	73,048	-0,345	-0,251
154,531	56,496	-0,196	-0,132
155,546	299,823	-0,236	-0,303
156,560	-4,584	-0,231	-0,111
157,575	-73,309	-0,173	-0,044
158,589	17,829	-0,109	-0,060
159,604	800,000	-0,161	-0,318
160,619	46,106	-0,239	-0,154
161,633	114,533	-0,151	-0,128
162,648	153,359	-0,336	-0,321
163,662	196,714	-0,176	-0,187
164,677	-177,271	-0,208	0,004
165,692	-122,163	-0,379	-0,043
166,706	95,453	-0,191	-0,152
167,721	-24,800	-0,301	-0,124
168,735	-102,029	-0,332	-0,055
169,750	-8,317	-0,231	-0,108
170,764	40,637	-0,268	-0,168
171,779	98,412	-0,204	-0,163
172,794	593,486	-0,049	-0,085
173,808	29,037	-0,327	-0,193
174,823	253,082	-0,182	-0,216
175,837	-49,673	-0,249	-0,082
176,852	210,725	-0,187	-0,204
177,867	-71,871	-0,173	-0,045
178,881	57,500	-0,175	-0,119
179,896	77,592	-0,173	-0,128
180,910	-36,010	-0,250	-0,093
181,925	286,260	-0,179	-0,225
182,940	242,357	-0,248	-0,289
183,954	157,758	-0,191	-0,184
184,969	184,082	-0,111	-0,114
185,983	-78,608	-0,214	-0,050
186,998	372,231	-0,235	-0,333
188,013	31,932	-0,265	-0,158
189,027	535,975	-0,204	-0,337
190,042	142,274	-0,247	-0,228
191,056	451,933	-0,120	-0,185
192,071	-124,930	-0,194	-0,020
193,086	124,061	-0,153	-0,134
194,100	-125,884	-0,151	0,016
195,115	101,654	-0,210	-0,170
196,129	90,757	-0,171	-0,133
197,144	247,684	-0,286	-0,336
198,159	371,258	-0,181	-0,256
199,173	48,480	-0,223	-0,145
200,188	137,161	-0,207	-0,188
201,202	-110,480	-0,125	-0,018
202,217	238,754	-0,165	-0,190
203,232	44,857	-0,161	-0,103
204,246	301,626	-0,172	-0,221
205,261	35,465	-0,251	-0,153
206,275	167,020	-0,186	-0,184
207,290	17,339	-0,213	-0,117
208,304	170,523	-0,142	-0,141
209,319	281,415	-0,154	-0,192
210,334	-46,801	-0,319	-0,108
211,348	481,294	-0,172	-0,271
212,363	44,468	-0,238	-0,151
213,377	6,604	-0,290	-0,149
214,392	79,530	-0,154	-0,114
215,407	463,184	-0,154	-0,239
216,421	-200,000	-0,049	-0,233
217,436	-35,128	-0,182	-0,069
218,450	-65,213	-0,251	-0,070
219,465	161,182	-0,227	-0,220
220,480	67,697	-0,127	-0,090
221,494	764,289	-0,148	-0,279
222,509	-96,292	-0,195	-0,035
223,523	-113,057	-0,123	-0,017
224,538	-46,777	-0,302	-0,102
225,553	230,528	-0,207	-0,235
226,567	686,515	-0,161	-0,293
227,582	654,403	-0,163	-0,292
228,596	133,168	-0,225	-0,201
229,611	-48,466	-0,170	-0,056
230,626	375,588	-0,110	-0,155
231,640	28,445	-0,137	-0,080
232,655	58,007	-0,319	-0,216
233,669	377,079	-0,167	-0,237
234,684	125,630	-0,184	-0,161
235,699	-11,521	-0,159	-0,072
236,713	171,017	-0,164	-0,163
237,728	-200,000	-0,042	-0,137
238,742	87,831	-0,256	-0,196
239,757	166,838	-0,179	-0,176
240,772	800,000	-0,128	-0,277
241,786	42,187	-0,206	-0,129
242,801	800,000	-0,059	-0,133
243,815	40,862	-0,095	-0,059
244,830	-89,827	-0,185	-0,037
245,844	189,309	-0,139	-0,144
246,859	61,598	-0,240	-0,165
247,874	191,858	-0,194	-0,202
248,888	140,012	-0,214	-0,195
249,903	95,219	-0,144	-0,113
250,917	-107,360	-0,113	-0,017
251,932	-200,000	0,005	-0,179
252,947	43,348	-0,275	-0,173
253,961	-80,675	-0,234	-0,053
254,976	237,626	-0,144	-0,165
255,990	132,263	-0,211	-0,188
257,005	75,901	-0,168	-0,122
258,020	64,019	-0,162	-0,112
259,034	-97,740	-0,194	0,034
260,049	230,297	-0,103	-0,116
261,063	289,973	-0,118	-0,149
262,078	180,459	-0,276	-0,280
263,093	205,737	-0,188	-0,202
264,107	96,098	-0,161	-0,127
265,122	-200,000	-0,105	0,000
266,136	-50,163	-0,079	-0,026
267,151	-93,104	-0,278	-0,053
268,166	-99,167	-0,230	-0,040
269,180	195,110	-0,204	-0,214
270,195	800,000	-0,083	-0,208
271,209	-200,000	-0,018	-0,160
272,224	-200,000	-0,007	-0,027
273,239	86,904	-0,212	-0,162
274,253	210,784	-0,223	-0,242
275,268	65,656	-0,157	-0,109
276,282	85,578	-0,226	-0,171
277,297	30,761	-0,093	-0,055
278,312	148,119	-0,141	-0,131
279,326	-68,969	-0,147	-0,039
280,341	-133,380	-0,239	0,020
281,355	800,000	-0,082	-0,201
282,370	-200,000	-0,016	-0,065
283,384	109,242	-0,195	-0,161
284,399	100,877	-0,213	-0,171
285,414	107,155	-0,134	-0,110
286,428	63,509	-0,129	-0,089
287,443	560,397	-0,083	-0,139
288,457	-200,000	-0,050	-0,190
289,472	48,126	-0,083	-0,053
290,487	800,000	-0,024	0,054
291,501	98,903	-0,162	-0,129
292,516	449,028	-0,133	-0,202
293,530	100,889	-0,100	-0,080
294,545	-200,000	-0,049	-0,218
295,560	55,071	-0,132	-0,088
296,574	128,488	-0,171	-0,150
297,589	166,167	-0,233	-0,227
298,603	181,187	-0,166	-0,168
299,618	49,065	-0,178	-0,115
300,633	-1,921	-0,160	-0,077
301,647	-14,656	-0,102	-0,045
302,662	800,000	-0,010	0,022
303,676	140,417	-0,065	0,059
304,691	338,099	-0,080	-0,108
305,706	-65,937	-0,291	-0,080
306,720	17,341	-0,243	-0,132
307,735	-14,011	-0,133	-0,059
308,749	-192,081	-0,144	-0,001
309,764	158,357	-0,093	-0,089
310,779	105,482	-0,024	-0,020
311,793	-199,159	-0,194	0,001
312,808	-103,847	-0,168	-0,027
313,822	-78,123	-0,276	-0,065
314,837	-11,023	-0,220	-0,100
315,852	177,551	-0,012	-0,012
316,866	149,509	-0,059	-0,055
317,881	-14,807	-0,198	0,087
318,895	29,902	-0,131	-0,077
319,910	355,351	-0,109	-0,150
320,925	189,548	-0,171	-0,177
321,939	153,437	-0,162	-0,152
322,954	800,000	-0,030	-0,071
323,968	-91,970	-0,153	0,029
324,983	-12,823	-0,085	-0,038
325,997	-22,086	-0,142	-0,059
327,012	-13,747	-0,186	-0,082
328,027	800,000	-0,064	-0,122
329,041	155,274	-0,105	-0,099
330,056	-191,584	-0,123	-0,001
331,070	-153,927	-0,126	-0,006
332,085	128,517	-0,138	-0,121
333,100	29,725	-0,202	-0,118
334,114	483,900	-0,161	-0,252
335,129	-1,710	-0,265	-0,127
336,143	-21,139	-0,048	-0,020
337,158	290,317	-0,123	-0,153
338,173	16,427	-0,163	-0,088
339,187	192,957	-0,140	-0,145
340,202	221,940	-0,162	-0,179
341,216	96,787	-0,053	0,041
342,231	-26,849	-0,164	-0,066
343,246	536,786	-0,129	-0,211
344,260	38,813	-0,164	-0,100
345,275	202,955	-0,093	-0,099
346,289	-200,000	0,027	-0,162
347,304	-200,000	-0,040	-0,134
348,319	110,846	-0,134	-0,110
349,333	167,589	-0,173	-0,168
350,348	487,513	-0,121	-0,190
351,362	138,220	-0,055	-0,049
352,377	-163,917	-0,257	0,008
353,392	-200,000	0,002	-0,170
354,406	83,360	-0,213	-0,159
355,421	208,447	1315,085	1410,211
356,435	160,388	1475,848	1410,690
