DTS Sentinel unit serial number:	SN410029Multiplexer serial number:	ORYXHardware model number:	OX2-SRSoftware version number:	ORYX F/W v4,00 Oryx Data Collector v3.7.2.0data status	okinstallation	B3 Nyhavnadifferential loss correction	single-endedforward channel	channel 1reverse channel	N/Adate	2023/12/02time	04:47:30forward acquisition time	300,00reverse acquisition time	0,00gamma	499,1914k internal	0,3194k external	0,3194temperature offset calibration	1,0000default loss term (dB/km)	0,3820temperature slope calibration	1,0000multiplexer offset coefficient	1,0000multiplexer slope coefficient	1,0000fibre end	0,00T internal ref (°C)	16,43T ext. ref 1 (°C)	1,22T ext. ref 2 (°C)	1,21length (m)	temperature (°C)	Stokes	anti-Stokes-744,400	419,715	-0,167	-0,261
-743,385	-200,000	-0,014	0,123
-742,371	212,961	-0,044	-0,050
-741,356	695,337	0,120	0,231
-740,342	760,039	-0,185	-0,366
-739,327	-200,000	0,063	0,310
-738,312	142,258	-0,166	-0,161
-737,298	800,000	-0,116	0,283
-736,283	160,406	-0,311	-0,317
-735,269	-200,000	0,052	0,299
-734,254	189,145	-0,258	-0,282
-733,239	134,123	-0,206	0,194
-732,225	89,785	-0,175	-0,142
-731,210	724,493	0,061	0,119
-730,196	-40,318	0,111	-0,042
-729,181	-193,785	-0,075	-0,000
-728,167	69,612	-0,057	-0,042
-727,152	142,561	-0,058	0,056
-726,137	242,228	0,077	0,094
-725,123	-200,000	0,022	0,125
-724,108	-200,000	0,010	-0,100
-723,094	-200,000	0,059	-0,212
-722,079	-24,691	0,075	0,032
-721,064	725,961	-0,026	-0,051
-720,050	84,002	0,046	-0,037
-719,035	89,370	0,037	0,030
-718,021	800,000	-0,013	-0,027
-717,006	-78,619	-0,094	-0,023
-715,991	174,492	-0,082	-0,086
-714,977	-200,000	0,035	-0,154
-713,962	-200,000	0,011	0,057
-712,948	22,951	0,090	0,054
-711,933	99,883	0,116	-0,098
-710,918	-200,000	0,008	-0,143
-709,904	553,643	0,017	-0,029
-708,889	99,430	-0,127	-0,107
-707,875	530,440	0,049	-0,085
-706,860	-83,416	0,043	0,010
-705,845	-200,000	0,001	-0,068
-704,831	254,299	-0,044	-0,055
-703,816	28,173	-0,183	-0,112
-702,802	285,755	0,047	-0,061
-701,787	-121,205	-0,029	0,003
-700,772	171,026	0,091	-0,095
-699,758	402,827	-0,077	-0,118
-698,743	54,937	0,187	0,131
-697,729	-124,662	0,034	0,004
-696,714	-192,347	-0,030	0,000
-695,699	800,000	-0,022	-0,056
-694,685	-200,000	-0,007	-0,106
-693,670	80,916	-0,082	-0,064
-692,656	-200,000	-0,002	-0,047
-691,641	-200,000	0,001	0,035
-690,627	-138,757	0,093	-0,007
-689,612	-139,682	0,082	-0,006
-688,597	-200,000	-0,012	0,051
-687,583	290,592	-0,047	-0,062
-686,568	189,602	-0,054	0,059
-685,554	-93,951	-0,080	0,016
-684,539	-200,000	0,003	-0,018
-683,524	44,341	-0,094	0,063
-682,510	51,681	0,076	-0,053
-681,495	-150,699	-0,219	0,012
-680,481	800,000	0,011	-0,032
-679,466	-200,000	-0,008	-0,071
-678,451	20,052	-0,254	-0,148
-677,437	-200,000	-0,014	0,102
-676,422	70,516	0,097	0,073
-675,408	121,841	-0,114	-0,103
-674,393	-200,000	-0,006	-0,066
-673,378	4,691	-0,025	0,013
-672,364	152,287	0,056	-0,056
-671,349	-62,570	-0,044	-0,013
-670,335	319,160	-0,029	-0,040
-669,320	-19,808	0,064	0,029
-668,305	308,066	0,063	-0,086
-667,291	-53,131	-0,142	-0,047
-666,276	-200,000	0,015	-0,096
-665,262	387,905	-0,069	-0,104
-664,247	-200,000	-0,034	-0,175
-663,232	98,645	0,086	-0,072
-662,218	-200,000	-0,001	0,026
-661,203	-36,142	0,071	0,028
-660,189	-107,100	-0,068	-0,011
-659,174	72,521	0,007	0,005
-658,159	-200,000	0,004	-0,069
-657,145	-200,000	0,022	-0,099
-656,130	774,869	0,037	-0,073
-655,116	90,904	0,068	-0,055
-654,101	-109,691	0,139	-0,021
-653,086	-200,000	0,003	-0,038
-652,072	-149,698	-0,158	-0,009
-651,057	-200,000	0,003	-0,031
-650,043	-56,874	0,230	0,073
-649,028	-20,959	-0,131	0,058
-648,014	800,000	-0,029	-0,087
-646,999	-139,807	-0,060	0,005
-645,984	-200,000	0,023	-0,110
-644,970	-200,000	-0,009	-0,095
-643,955	800,000	-0,053	0,125
-642,941	153,532	-0,131	-0,131
-641,926	43,741	0,092	-0,061
-640,911	-200,000	0,002	-0,061
-639,897	800,000	0,044	0,096
-638,882	89,944	0,074	0,060
-637,868	-18,982	0,052	-0,023
-636,853	93,636	-0,039	-0,032
-635,838	-114,884	-0,076	-0,010
-634,824	-0,542	-0,030	-0,016
-633,809	-200,000	0,022	-0,083
-632,795	712,840	0,085	0,164
-631,780	800,000	0,017	0,044
-630,765	143,114	-0,065	0,062
-629,751	205,325	-0,069	-0,078
-628,736	109,938	-0,027	0,024
-627,722	108,983	-0,069	-0,060
-626,707	579,932	-0,082	-0,146
-625,692	-200,000	0,015	0,095
-624,678	48,144	-0,099	-0,067
-623,663	123,480	0,074	0,068
-622,649	-166,596	-0,021	-0,001
-621,634	475,696	0,062	-0,102
-620,619	152,578	-0,116	-0,115
-619,605	800,000	0,005	-0,015
-618,590	391,627	-0,076	-0,114
-617,576	-200,000	0,016	0,100
-616,561	-28,645	-0,019	-0,008
-615,546	760,240	0,043	-0,084
-614,532	772,904	-0,033	-0,065
-613,517	71,630	-0,064	0,048
-612,503	-200,000	-0,027	-0,184
-611,488	189,154	0,109	0,118
-610,474	68,683	0,105	0,078
-609,459	64,265	-0,090	0,066
-608,444	-200,000	-0,007	0,037
-607,430	-0,994	-0,073	-0,037
-606,415	800,000	-0,022	-0,070
-605,401	-105,549	0,169	-0,028
-604,386	-175,403	0,152	0,003
-603,371	-200,000	0,018	0,076
-602,357	-200,000	0,002	0,135
-601,342	16,709	-0,073	0,042
-600,328	-200,000	-0,009	-0,110
-599,313	-52,976	0,067	0,022
-598,298	604,567	-0,047	-0,085
-597,284	800,000	0,055	0,154
-596,269	800,000	0,022	0,051
-595,255	-200,000	-0,011	0,059
-594,240	-41,801	-0,128	-0,047
-593,225	413,253	-0,035	-0,055
-592,211	-60,467	-0,068	0,021
-591,196	800,000	-0,023	-0,068
-590,182	-21,866	0,137	0,060
-589,167	-200,000	-0,005	0,065
-588,152	52,069	0,116	0,080
-587,138	-200,000	0,036	-0,155
-586,123	-200,000	0,022	-0,120
-585,109	-162,813	0,063	-0,002
-584,094	-200,000	0,015	0,121
-583,079	159,594	0,059	0,059
-582,065	133,551	0,080	0,075
-581,050	-200,000	-0,019	0,125
-580,036	48,881	-0,085	0,058
-579,021	-27,469	-0,126	0,053
-578,006	-200,000	-0,009	-0,116
-576,992	-120,054	0,128	0,016
-575,977	20,176	-0,070	-0,041
-574,963	-113,141	-0,159	0,022
-573,948	147,817	0,027	0,026
-572,934	265,081	0,031	0,039
-571,919	30,552	0,005	-0,003
-570,904	-37,352	-0,153	-0,059
-569,890	121,342	-0,051	-0,046
-568,875	-70,318	-0,069	0,019
-567,861	800,000	0,010	0,032
-566,846	800,000	0,062	0,137
-565,831	43,848	-0,041	0,027
-564,817	146,670	0,080	-0,077
-563,802	250,233	-0,049	-0,061
-562,788	210,528	-0,029	-0,033
-561,773	691,198	0,050	-0,096
-560,758	800,000	0,077	0,165
-559,744	800,000	-0,081	0,170
-558,729	-94,723	-0,122	0,024
-557,715	-112,264	-0,057	0,008
-556,700	-200,000	-0,004	-0,141
-555,685	-77,396	0,068	-0,017
-554,671	21,734	-0,107	-0,063
-553,656	-149,761	0,017	-0,001
-552,642	59,369	-0,140	0,100
-551,627	-42,685	-0,036	0,013
-550,612	42,819	0,022	0,015
-549,598	-200,000	-0,028	0,102
-548,583	-54,661	-0,125	-0,041
-547,569	624,286	0,055	0,101
-546,554	-69,512	-0,034	-0,009
-545,539	-200,000	0,015	0,155
-544,525	549,564	-0,034	0,060
-543,510	33,481	0,177	-0,111
-542,496	-127,956	-0,140	-0,014
-541,481	75,329	-0,058	-0,044
-540,466	-12,014	-0,104	-0,049
-539,452	81,025	0,056	0,044
-538,437	164,280	-0,055	-0,056
-537,423	169,804	0,051	0,053
-536,408	-200,000	-0,017	-0,165
-535,393	535,118	0,150	-0,258
-534,379	-96,296	0,107	0,020
-533,364	-200,000	-0,011	-0,042
-532,350	800,000	0,063	-0,161
-531,335	-200,000	-0,041	0,154
-530,321	701,269	0,058	0,110
-529,306	576,332	-0,011	0,020
-528,291	-200,000	0,046	-0,155
-527,277	800,000	-0,052	-0,138
-526,262	-200,000	-0,056	-0,200
-525,248	290,452	0,057	-0,075
-524,233	-151,740	-0,091	0,005
-523,218	-123,826	0,125	0,014
-522,204	428,459	0,049	0,076
-521,189	-93,109	-0,155	-0,031
-520,175	669,697	-0,037	0,069
-519,160	91,742	-0,041	-0,033
-518,145	162,385	0,079	-0,080
-517,131	-200,000	-0,004	0,032
-516,116	50,558	-0,047	0,032
-515,102	-96,813	0,118	0,022
-514,087	444,119	0,047	0,075
-513,072	-200,000	-0,002	-0,140
-512,058	700,374	-0,037	0,071
-511,043	-200,000	0,014	-0,148
-510,029	259,774	0,045	0,057
-509,014	252,961	-0,047	0,058
-507,999	194,998	-0,029	-0,032
-506,985	145,486	-0,034	-0,033
-505,970	43,094	-0,115	0,075
-504,956	70,820	-0,019	0,014
-503,941	-87,376	0,109	0,024
-502,926	800,000	-0,052	0,114
-501,912	212,575	0,047	-0,054
-500,897	216,396	0,076	-0,087
-499,883	-23,698	0,047	0,020
-498,868	800,000	0,056	0,174
-497,853	-4,142	-0,057	-0,028
-496,839	-28,564	0,085	0,035
-495,824	-29,859	0,023	0,010
-494,810	-8,167	0,090	-0,043
-493,795	142,570	-0,045	-0,043
-492,781	219,678	-0,055	0,064
-491,766	-200,000	-0,015	-0,164
-490,751	411,721	0,084	-0,129
-489,737	-157,274	-0,027	0,001
-488,722	-200,000	-0,005	-0,071
-487,708	-37,131	0,049	0,019
-486,693	60,183	0,075	-0,053
-485,678	185,905	-0,127	-0,137
-484,664	-66,976	-0,088	-0,025
-483,649	-142,108	0,121	0,009
-482,635	800,000	0,062	-0,133
-481,620	44,102	-0,101	-0,067
-480,605	-200,000	0,022	-0,141
-479,591	800,000	-0,054	0,133
-478,576	41,278	0,038	0,025
-477,562	608,445	-0,064	-0,116
-476,547	-200,000	0,003	-0,076
-475,532	-200,000	0,008	-0,047
-474,518	-200,000	0,010	-0,084
-473,503	-200,000	0,006	0,033
-472,489	3,833	-0,030	0,016
-471,474	69,908	0,013	0,010
-470,459	-200,000	-0,011	-0,043
-469,445	344,577	-0,054	-0,076
-468,430	-200,000	-0,003	0,149
-467,416	500,745	0,068	0,114
-466,401	-200,000	0,003	0,103
-465,386	126,315	0,078	0,071
-464,372	118,245	-0,019	0,017
-463,357	494,853	-0,019	0,032
-462,343	800,000	-0,043	0,110
-461,328	90,056	0,080	0,065
-460,313	800,000	-0,012	-0,032
-459,299	-200,000	0,005	0,096
-458,284	21,585	0,082	0,048
-457,270	-135,467	-0,084	0,007
-456,255	373,496	-0,062	0,091
-455,241	-117,762	-0,084	-0,011
-454,226	-200,000	-0,024	-0,133
-453,211	-82,993	-0,027	0,006
-452,197	-94,414	0,099	0,019
-451,182	-52,832	0,049	0,016
-450,168	800,000	-0,049	0,129
-449,153	-200,000	0,003	-0,087
-448,138	385,904	0,071	-0,106
-447,124	800,000	0,017	0,044
-446,109	-200,000	0,006	-0,025
-445,095	43,801	-0,068	0,045
-444,080	-183,309	0,103	-0,001
-443,065	-200,000	-0,004	0,209
-442,051	132,643	-0,068	-0,063
-441,036	800,000	-0,035	-0,111
-440,022	13,668	-0,010	-0,005
-439,007	-200,000	0,004	0,013
-437,992	550,690	-0,046	-0,081
-436,978	211,803	0,075	-0,085
-435,963	800,000	-0,059	0,119
-434,949	-200,000	-0,024	0,080
-433,934	316,862	0,062	0,085
-432,919	800,000	-0,010	0,027
-431,905	-79,075	-0,165	-0,040
-430,890	-104,526	-0,180	0,030
-429,876	-200,000	0,006	-0,067
-428,861	-65,373	0,040	0,012
-427,846	12,811	-0,122	-0,068
-426,832	41,423	0,071	0,046
-425,817	800,000	0,019	-0,048
-424,803	128,109	0,119	-0,109
-423,788	66,029	0,059	-0,043
-422,773	-200,000	-0,021	0,097
-421,759	800,000	-0,057	0,141
-420,744	117,636	0,031	0,028
-419,730	-41,263	-0,108	0,040
-418,715	-111,192	0,032	0,005
-417,701	58,028	-0,068	-0,048
-416,686	209,829	0,060	0,067
-415,671	-60,484	-0,073	0,022
-414,657	800,000	0,032	-0,084
-413,642	800,000	0,030	0,087
-412,628	2,947	-0,176	-0,092
-411,613	31,271	-0,108	-0,067
-410,598	-15,590	-0,022	0,010
-409,584	15,290	0,100	0,056
-408,569	445,457	0,021	-0,033
-407,555	800,000	0,045	0,100
-406,540	282,461	0,085	0,109
-405,525	-4,754	0,047	-0,023
-404,511	-200,000	0,016	0,089
-403,496	800,000	-0,072	-0,180
-402,482	52,261	0,094	-0,064
-401,467	-150,526	0,061	-0,003
-400,452	250,079	0,042	-0,052
-399,438	-91,541	0,070	0,014
-398,423	800,000	-0,037	-0,099
-397,409	-95,915	-0,030	0,006
-396,394	800,000	0,036	-0,101
-395,379	800,000	0,047	0,118
-394,365	-107,794	0,048	0,007
-393,350	140,174	-0,080	-0,076
-392,336	-55,655	0,039	-0,012
-391,321	-29,418	0,060	0,025
-390,306	-200,000	-0,043	-0,147
-389,292	109,063	0,134	-0,115
-388,277	-200,000	0,004	-0,058
-387,263	-75,188	0,102	-0,026
-386,248	-200,000	0,005	0,031
-385,233	-200,000	-0,024	0,098
-384,219	-200,000	0,024	-0,177
-383,204	800,000	-0,034	-0,084
-382,190	-200,000	-0,006	-0,043
-381,175	226,934	-0,125	-0,146
-380,160	-116,471	-0,068	-0,009
-379,146	293,075	-0,119	0,156
-378,131	-51,185	0,042	0,014
-377,117	-94,283	-0,095	-0,019
-376,102	-200,000	0,023	0,133
-375,088	615,893	-0,051	-0,093
-374,073	-145,980	-0,092	-0,006
-373,058	80,541	0,159	-0,123
-372,044	42,403	-0,085	0,055
-371,029	-27,850	-0,037	0,015
-370,015	62,280	-0,113	-0,081
-369,000	117,461	-0,044	-0,039
-367,985	32,195	-0,076	0,047
-366,971	-200,000	-0,023	0,078
-365,956	800,000	0,050	-0,143
-364,942	102,259	0,072	0,061
-363,927	800,000	0,027	0,054
-362,912	800,000	0,034	0,106
-361,898	114,473	-0,076	-0,066
-360,883	-2,055	-0,035	0,018
-359,869	-200,000	0,005	-0,205
-358,854	-182,254	-0,039	-0,001
-357,839	305,854	0,004	-0,006
-356,825	-200,000	0,010	0,051
-355,810	-200,000	0,014	0,129
-354,796	-10,427	-0,055	-0,026
-353,781	-200,000	-0,005	-0,071
-352,766	-99,669	-0,145	-0,026
-351,752	139,199	0,097	-0,091
-350,737	25,570	0,112	-0,066
-349,723	-200,000	0,035	-0,135
-348,708	800,000	0,045	0,100
-347,693	-132,161	-0,064	0,006
-346,679	-200,000	0,005	0,087
-345,664	-200,000	0,002	-0,102
-344,650	390,688	0,018	-0,028
-343,635	800,000	-0,009	0,028
-342,620	800,000	-0,054	-0,151
-341,606	-200,000	0,004	0,031
-340,591	800,000	-0,035	0,100
-339,577	627,953	-0,031	-0,057
-338,562	800,000	0,019	-0,038
-337,548	-200,000	-0,012	-0,065
-336,533	-56,985	-0,032	0,010
-335,518	-133,366	0,077	-0,007
-334,504	132,581	0,004	0,004
-333,489	-200,000	-0,010	-0,068
-332,475	44,022	-0,026	-0,017
-331,460	-90,117	0,041	0,008
-330,445	189,943	0,064	0,069
-329,431	-200,000	-0,033	-0,114
-328,416	-200,000	0,010	0,065
-327,402	-200,000	-0,000	-0,035
-326,387	-15,758	0,081	0,037
-325,372	-71,471	-0,173	0,046
-324,358	-27,731	0,101	-0,042
-323,343	83,693	0,103	0,081
-322,329	243,359	-0,034	0,041
-321,314	-200,000	0,018	0,062
-320,299	-144,903	0,062	0,004
-319,285	-200,000	-0,003	-0,041
-318,270	-200,000	-0,004	-0,017
-317,256	603,381	-0,071	-0,127
-316,241	-200,000	0,026	0,088
-315,226	-33,903	0,041	0,016
-314,212	-94,598	0,069	0,013
-313,197	-25,612	0,063	0,026
-312,183	-200,000	0,008	0,091
-311,168	-122,761	0,073	-0,008
-310,153	182,108	-0,087	-0,092
-309,139	-29,657	-0,038	-0,015
-308,124	-200,000	-0,027	0,094
-307,110	-79,497	0,110	0,026
-306,095	75,090	0,074	-0,056
-305,080	-200,000	-0,014	0,171
-304,066	73,937	0,095	0,072
-303,051	123,049	-0,055	0,049
-302,037	113,372	0,026	-0,023
-301,022	79,599	-0,077	0,059
-300,008	-116,824	0,088	-0,011
-298,993	11,100	0,100	0,055
-297,978	800,000	-0,051	0,139
-296,964	-200,000	0,030	-0,134
-295,949	-200,000	0,002	-0,053
-294,935	477,347	-0,032	0,053
-293,920	-200,000	-0,028	-0,107
-292,905	449,516	0,066	0,104
-291,891	800,000	-0,046	0,098
-290,876	53,123	-0,093	0,064
-289,862	-4,479	0,083	0,041
-288,847	-200,000	0,010	-0,095
-287,832	-42,316	-0,242	-0,088
-286,818	-111,308	0,122	-0,018
-285,803	-200,000	-0,022	0,132
-284,789	-63,045	0,089	-0,026
-283,774	-200,000	-0,001	0,016
-282,759	480,484	0,059	0,096
-281,745	-72,447	-0,150	-0,039
-280,730	123,134	-0,105	-0,095
-279,716	34,916	0,045	-0,028
-278,701	-158,259	0,164	-0,007
-277,686	-200,000	0,012	0,112
-276,672	52,770	-0,027	0,019
-275,657	147,851	0,064	-0,062
-274,643	-88,477	0,012	0,002
-273,628	182,439	0,041	0,043
-272,613	800,000	0,020	-0,050
-271,599	43,705	-0,171	0,112
-270,584	-4,694	-0,104	0,051
-269,570	161,838	-0,061	0,061
-268,555	-32,148	-0,009	0,004
-267,540	79,577	-0,028	0,022
-266,526	47,870	0,060	0,040
-265,511	22,711	0,106	0,062
-264,497	-116,619	0,058	-0,008
-263,482	-200,000	-0,004	0,216
-262,467	197,380	0,066	-0,072
-261,453	-200,000	-0,003	-0,049
-260,438	800,000	0,041	-0,088
-259,424	36,974	0,113	-0,071
-258,409	-200,000	0,000	0,010
-257,395	-200,000	0,002	-0,023
-256,380	-128,131	-0,048	0,005
-255,365	-200,000	0,011	0,123
-254,351	74,817	0,088	-0,066
-253,336	800,000	0,046	0,097
-252,322	-70,666	-0,057	0,015
-251,307	464,609	0,034	0,054
-250,292	-200,000	-0,047	-0,164
-249,278	108,896	-0,049	-0,042
-248,263	-169,927	0,055	0,001
-247,249	-200,000	-0,025	0,135
-246,234	8,083	-0,050	-0,027
-245,219	-200,000	0,030	-0,147
-244,205	-200,000	-0,004	-0,061
-243,190	-200,000	0,013	-0,080
-242,176	-200,000	0,001	0,041
-241,161	-40,485	0,072	0,027
-240,146	-200,000	0,021	-0,098
-239,132	537,971	0,095	-0,161
-238,117	79,170	-0,080	0,061
-237,103	-200,000	0,024	0,164
-236,088	79,358	0,107	0,082
-235,073	171,759	0,105	-0,108
-234,059	-96,190	-0,061	-0,011
-233,044	800,000	-0,038	-0,111
-232,030	120,729	-0,061	0,054
-231,015	-77,151	-0,010	-0,003
-230,000	201,347	-0,081	0,089
-228,986	51,299	0,040	0,027
-227,971	-200,000	0,010	0,070
-226,957	195,920	-0,083	0,090
-225,942	209,957	0,089	0,100
-224,927	40,238	-0,009	-0,006
-223,913	145,541	-0,036	0,034
-222,898	611,227	0,042	-0,075
-221,884	-200,000	-0,015	-0,059
-220,869	-63,401	-0,087	0,026
-219,855	123,161	0,051	-0,046
-218,840	-169,320	0,083	-0,002
-217,825	-200,000	0,028	0,099
-216,811	-39,679	0,039	0,015
-215,796	-200,000	0,002	-0,072
-214,782	800,000	-0,036	0,088
-213,767	-106,565	-0,124	-0,019
-212,752	-92,335	0,156	-0,031
-211,738	139,841	0,051	0,048
-210,723	-109,747	-0,095	-0,014
-209,709	247,037	0,024	-0,029
-208,694	-8,022	-0,028	-0,013
-207,679	204,352	-0,055	-0,061
-206,665	-45,469	0,130	-0,046
-205,650	-105,584	0,183	0,029
-204,636	-17,275	0,123	0,055
-203,621	-67,118	-0,068	0,019
-202,606	-75,872	0,035	0,009
-201,592	-62,158	-0,148	0,044
-200,577	-160,772	-0,164	0,006
-199,563	23,847	-0,032	0,019
-198,548	165,453	0,036	0,037
-197,533	-200,000	-0,007	0,101
-196,519	-200,000	0,006	0,103
-195,504	75,578	-0,104	0,078
-194,490	106,601	0,136	-0,115
-193,475	157,732	0,056	-0,055
-192,460	800,000	0,048	0,130
-191,446	-74,941	0,062	-0,016
-190,431	-200,000	0,006	0,028
-189,417	800,000	0,046	0,104
-188,402	-36,197	-0,067	0,026
-187,387	-200,000	-0,015	0,063
-186,373	748,793	0,015	-0,030
-185,358	18,613	-0,051	0,029
-184,344	-200,000	-0,008	-0,158
-183,329	467,357	0,040	-0,063
-182,315	-200,000	0,011	0,062
-181,300	335,714	-0,097	0,135
-180,285	800,000	0,029	0,076
-179,271	-103,369	-0,134	-0,022
-178,256	261,917	-0,019	-0,024
-177,242	800,000	0,032	0,084
-176,227	800,000	0,059	-0,121
-175,212	86,410	-0,055	0,043
-174,198	-116,896	0,093	-0,012
-173,183	338,708	0,080	0,112
-172,169	588,074	0,012	-0,021
-171,154	195,433	-0,050	-0,054
-170,139	-200,000	-0,003	0,080
-169,125	-102,129	0,195	-0,033
-168,110	-150,353	-0,173	0,009
-167,096	-200,000	0,007	0,069
-166,081	363,274	-0,053	-0,076
-165,066	-26,929	0,109	-0,045
-164,052	-44,068	-0,126	0,045
-163,037	800,000	0,025	0,058
-162,023	-200,000	-0,014	-0,078
-161,008	800,000	0,041	0,127
-159,993	644,238	-0,030	-0,054
-158,979	-200,000	-0,011	-0,082
-157,964	422,955	-0,025	0,038
-156,950	-135,074	0,176	0,015
-155,935	-10,777	-0,010	-0,004
-154,920	7,578	0,030	-0,016
-153,906	800,000	0,041	0,082
-152,891	-200,000	0,003	0,057
-151,877	286,212	-0,050	0,064
-150,862	45,799	0,052	0,034
-149,847	800,000	-0,032	-0,079
-148,833	-200,000	0,017	0,118
-147,818	800,000	-0,047	0,109
-146,804	508,069	0,100	0,166
-145,789	-33,224	0,089	-0,035
-144,775	-30,614	-0,081	0,033
-143,760	79,762	-0,168	-0,128
-142,745	218,600	0,115	0,131
-141,731	25,848	-0,035	0,020
-140,716	199,406	-0,035	-0,038
-139,702	721,586	0,061	0,116
-138,687	82,516	-0,075	0,058
-137,672	63,054	0,044	0,031
-136,658	-119,479	-0,170	0,021
-135,643	-125,404	-0,192	-0,021
-134,629	800,000	0,026	-0,056
-133,614	-200,000	0,011	0,176
-132,599	-200,000	0,050	0,163
-131,585	-79,163	0,065	0,016
-130,570	197,381	-0,086	-0,094
-129,556	-170,060	-0,112	-0,003
-128,541	-31,011	-0,078	0,031
-127,526	-200,000	-0,029	0,092
-126,512	-200,000	-0,024	0,193
-125,497	-90,262	0,231	-0,047
-124,483	-50,911	-0,058	-0,019
-123,468	-200,000	0,047	0,161
-122,453	429,643	-0,013	0,020
-121,439	419,096	-0,147	-0,225
-120,424	259,143	0,178	-0,219
-119,410	192,514	0,065	-0,070
-118,395	-200,000	-0,036	0,341
-117,380	-57,758	-0,093	-0,029
-116,366	53,084	-0,129	-0,088
-115,351	-168,010	-0,093	0,003
-114,337	-144,059	-0,087	-0,006
-113,322	-200,000	-0,008	-0,042
-112,307	-14,783	0,136	-0,062
-111,293	30,866	0,133	0,081
-110,278	51,888	0,057	-0,038
-109,264	-200,000	0,013	-0,090
-108,249	271,864	0,078	0,098
-107,234	800,000	0,028	-0,075
-106,220	800,000	-0,052	-0,110
-105,205	800,000	0,036	-0,095
-104,191	-200,000	0,007	-0,025
-103,176	-61,610	0,097	0,029
-102,162	787,756	-0,033	0,065
-101,147	800,000	0,013	-0,036
-100,132	-53,422	0,020	0,006
-99,118	210,676	-0,103	-0,115
-98,103	800,000	-0,023	0,064
-97,089	800,000	0,031	0,073
-96,074	93,537	0,089	0,072
-95,059	-79,220	0,010	0,002
-94,045	-200,000	0,028	-0,132
-93,030	-200,000	-0,004	-0,126
-92,016	-200,000	-0,010	-0,135
-91,001	-200,000	0,022	0,094
-89,986	-200,000	-0,017	0,088
-88,972	430,743	0,050	0,077
-87,957	-4,366	-0,098	-0,048
-86,943	-133,593	-0,043	0,004
-85,928	172,943	-0,027	-0,028
-84,913	56,937	0,045	-0,031
-83,899	-85,181	0,048	-0,010
-82,884	65,943	0,078	0,056
-81,870	-153,106	0,143	0,007
-80,855	272,751	0,067	0,084
-79,840	4,286	0,091	-0,047
-78,826	506,108	-0,066	-0,108
-77,811	391,516	-0,042	-0,062
-76,797	-96,123	-0,121	-0,023
-75,782	-25,896	0,028	-0,011
-74,767	491,673	-0,105	0,171
-73,753	90,838	0,130	0,104
-72,738	58,237	-0,064	0,044
-71,724	800,000	-0,032	-0,084
-70,709	129,870	0,017	-0,016
-69,694	-200,000	-0,002	0,020
-68,680	-171,749	-0,106	0,002
-67,665	-54,322	0,070	-0,022
-66,651	321,307	-0,025	-0,033
-65,636	-200,000	-0,020	0,134
-64,622	-200,000	-0,029	0,000
-63,607	-66,848	-0,064	0,018
-62,592	688,516	-0,060	-0,112
-61,578	160,243	0,031	-0,031
-60,563	-6,918	0,113	-0,054
-59,549	800,000	0,040	0,083
-58,534	-74,366	-1,405	-0,357
-57,519	415,633	-1,497	-2,272
-56,505	-200,000	-0,514	-4,443
-55,490	62,473	0,803	0,569
-54,476	800,000	4,683	11,458
-53,461	-200,000	17,526	273,918
-52,446	800,000	717,249	2197,146
-51,432	556,093	1631,315	2798,584
-50,417	81,341	1656,045	1268,597
-49,403	24,262	1530,700	894,856
-48,388	18,263	1453,874	821,042
-47,373	18,486	1443,172	816,035
-46,359	18,118	1434,076	809,108
-45,344	16,553	1429,517	799,074
-44,330	16,493	1427,327	797,529
-43,315	16,541	1425,568	796,743
-42,300	16,547	1423,935	795,830
-41,286	16,602	1422,869	795,462
-40,271	16,535	1421,517	794,355
-39,257	16,493	1420,354	793,477
-38,242	16,577	1418,860	793,005
-37,227	16,512	1417,885	792,124
-36,213	16,517	1416,524	791,356
-35,198	16,528	1415,274	790,681
-34,184	16,571	1414,196	790,246
-33,169	16,466	1413,162	789,142
-32,154	16,554	1412,105	788,937
-31,140	16,546	1411,007	788,253
-30,125	16,580	1409,676	787,636
-29,111	16,520	1408,543	786,691
-28,096	16,520	1407,404	786,024
-27,082	16,503	1406,293	785,296
-26,067	16,463	1405,210	784,471
-25,052	16,462	1404,244	783,895
-24,038	16,417	1403,242	783,099
-23,023	16,476	1402,003	782,651
-22,009	16,375	1401,287	781,746
-20,994	16,385	1400,216	781,166
-19,979	16,383	1399,317	780,622
-18,965	16,405	1398,392	780,180
-17,950	16,393	1397,347	779,509
-16,936	16,399	1396,341	778,945
-15,921	16,357	1395,250	778,110
-14,906	16,355	1394,190	777,481
-13,892	16,367	1393,353	777,039
-12,877	16,346	1392,529	776,449
-11,863	16,388	1391,150	775,843
-10,848	16,352	1390,541	775,307
-9,833	16,363	1389,628	774,821
-8,819	16,300	1388,681	773,972
-7,804	16,270	1387,811	773,314
-6,790	16,280	1386,798	772,766
-5,775	16,276	1385,779	772,149
-4,760	16,235	1385,047	771,523
-3,746	16,278	1384,187	771,209
-2,731	16,253	1383,321	770,583
-1,717	16,289	1382,334	770,170
-0,702	16,285	1380,275	768,973
0,313	20,173	1301,962	743,236
1,327	36,737	707,564	442,346
2,342	56,369	125,763	86,535
3,356	4,647	16,600	8,614
4,371	-3,246	3,082	1,517
5,386	-54,061	0,402	0,129
6,400	800,000	-0,083	0,175
7,415	280,467	-0,205	-0,260
8,429	147,098	-0,278	-0,266
9,444	74,149	-0,310	-0,231
10,459	64,121	-0,178	-0,127
11,473	155,014	-0,261	-0,255
12,488	88,515	-0,450	-0,354
13,502	115,660	-0,265	-0,230
14,517	159,117	-0,358	-0,353
15,531	43,103	-0,380	-0,245
16,546	119,536	-0,317	-0,278
17,561	725,795	-0,315	-0,598
18,575	115,017	-0,180	-0,156
19,590	165,595	-0,152	-0,152
20,604	-89,633	-0,414	-0,085
21,619	78,479	-0,365	-0,276
22,634	116,179	-0,420	-0,364
23,648	-59,072	-0,391	-0,119
24,663	103,759	-0,476	-0,395
25,677	27,185	-0,435	-0,258
26,692	41,465	-0,364	-0,232
27,707	131,931	-0,271	-0,247
28,721	71,688	-0,368	-0,270
29,736	178,863	-0,332	-0,344
30,750	49,462	-0,415	-0,276
31,765	102,141	-0,374	-0,309
32,780	74,879	-0,393	-0,292
33,794	187,478	-0,336	-0,355
34,809	125,134	-0,369	-0,329
35,823	116,545	-0,325	-0,282
36,838	93,782	-0,517	-0,414
37,853	148,292	-0,370	-0,353
38,867	133,629	-0,335	-0,307
39,882	60,049	-0,340	-0,237
40,896	155,621	-0,356	-0,346
41,911	127,962	-0,381	-0,342
42,926	168,898	-0,317	-0,320
43,940	15,775	-0,472	-0,262
44,955	86,731	-0,326	-0,254
45,969	221,068	-0,416	-0,473
46,984	153,156	-0,401	-0,388
47,999	186,353	-0,243	-0,255
49,013	45,487	-0,339	-0,221
50,028	113,401	-0,379	-0,325
51,042	-199,737	-0,383	0,001
52,057	149,513	-0,220	-0,210
53,071	15,187	-0,350	-0,193
54,086	65,707	-0,341	-0,244
55,101	172,430	-0,214	-0,218
56,115	-9,893	-0,445	-0,208
57,130	-57,264	-0,376	-0,116
58,144	90,199	-0,310	-0,244
59,159	27,417	-0,382	-0,226
60,174	4,198	-0,495	-0,255
61,188	-26,750	-0,296	-0,122
62,203	121,309	-0,330	-0,290
63,217	49,560	-0,338	-0,224
64,232	-66,624	-0,335	-0,093
65,247	91,138	-0,352	-0,278
66,261	54,819	-0,434	-0,295
67,276	-39,868	-0,402	-0,147
68,290	94,169	-0,245	-0,196
69,305	47,433	-0,380	-0,249
70,320	252,184	-0,217	-0,261
71,334	-28,273	-0,332	-0,135
72,349	46,698	-0,316	-0,206
73,363	485,719	-0,222	-0,357
74,378	162,758	-0,351	-0,348
75,393	381,288	-0,211	-0,306
76,407	57,023	-0,352	-0,241
77,422	800,000	-0,104	-0,289
78,436	213,793	-0,183	-0,204
79,451	32,368	-0,305	-0,185
80,466	81,286	-0,219	-0,167
81,480	-3,287	-0,336	-0,164
82,495	8,897	-0,283	-0,150
83,509	5,996	-0,260	-0,135
84,524	156,224	-0,213	-0,207
85,539	22,717	-0,196	-0,113
86,553	-48,979	-0,243	-0,081
87,568	-16,221	-0,350	-0,156
88,582	-14,522	-0,324	-0,146
89,597	53,383	-0,387	-0,261
90,611	264,206	-0,192	-0,236
91,626	76,281	-0,333	-0,248
92,641	102,575	-0,315	-0,259
93,655	189,670	-0,238	-0,251
94,670	183,944	-0,283	-0,294
95,684	-14,193	-0,181	-0,082
96,699	86,901	-0,309	-0,240
97,714	126,600	-0,278	-0,248
98,728	122,778	-0,283	-0,249
99,743	12,286	-0,327	-0,177
100,757	52,150	-0,190	-0,127
101,772	156,175	-0,294	-0,285
102,787	21,630	-0,358	-0,205
103,801	57,299	-0,299	-0,205
104,816	61,226	-0,329	-0,230
105,830	-55,357	-0,320	-0,100
106,845	83,868	-0,257	-0,197
107,860	133,563	-0,258	-0,234
108,874	183,254	-0,245	-0,255
109,889	104,626	-0,338	-0,280
110,903	120,824	-0,258	-0,225
111,918	59,525	-0,252	-0,175
112,933	74,624	-0,274	-0,202
113,947	135,710	-0,197	-0,180
114,962	119,218	-0,224	-0,194
115,976	29,336	-0,329	-0,196
116,991	64,651	-0,267	-0,188
118,006	-56,264	-0,245	-0,076
119,020	148,359	-0,222	-0,210
120,035	800,000	-0,084	-0,184
121,049	43,187	-0,212	-0,136
122,064	380,596	-0,232	-0,335
123,079	-128,781	-0,318	-0,031
124,093	69,805	-0,305	-0,220
125,108	8,792	-0,246	-0,130
126,122	97,844	-0,169	-0,136
127,137	43,914	-0,202	-0,129
128,151	106,683	-0,195	-0,162
129,166	-10,807	-0,293	-0,135
130,181	341,832	-0,178	-0,244
131,195	230,316	-0,224	-0,257
132,210	181,550	-0,286	-0,295
133,224	227,210	-0,221	-0,252
134,239	157,256	-0,216	-0,209
135,254	37,810	-0,214	-0,133
136,268	-31,313	-0,173	-0,068
137,283	89,052	-0,277	-0,216
138,297	-21,107	-0,346	-0,148
139,312	-56,874	-0,360	-0,111
140,327	41,158	-0,340	-0,215
141,341	191,822	-0,231	-0,244
142,356	327,127	-0,201	-0,271
143,370	125,969	-0,150	-0,133
144,385	84,134	-0,233	-0,178
145,400	67,521	-0,324	-0,232
146,414	82,799	-0,348	-0,265
147,429	53,709	-0,271	-0,182
148,443	291,140	-0,153	-0,195
149,458	213,198	-0,192	-0,212
150,473	-42,570	-0,289	-0,103
151,487	136,708	-0,229	-0,209
152,502	24,702	-0,332	-0,192
153,516	293,219	-0,220	-0,282
154,531	206,022	-0,254	-0,276
155,546	339,969	-0,166	-0,228
156,560	312,235	-0,164	-0,215
157,575	800,000	-0,067	-0,196
158,589	167,572	-0,206	-0,205
159,604	-24,745	-0,204	-0,084
160,619	-62,559	-0,318	-0,092
161,633	160,104	-0,214	-0,209
162,648	41,701	-0,163	-0,103
163,662	42,213	-0,275	-0,175
164,677	49,251	-0,336	-0,220
165,692	557,090	-0,130	-0,220
166,706	-200,000	-0,033	-0,245
167,721	-16,262	-0,222	-0,098
168,735	137,160	-0,305	-0,279
169,750	173,428	-0,202	-0,203
170,764	147,816	-0,203	-0,191
171,779	35,665	-0,272	-0,167
172,794	502,579	-0,121	-0,196
173,808	-27,094	-0,304	-0,123
174,823	277,288	-0,281	-0,350
175,837	157,122	-0,211	-0,204
176,852	-112,397	-0,193	-0,027
177,867	-18,861	-0,153	-0,066
178,881	112,163	-0,170	-0,143
179,896	37,473	-0,174	-0,107
180,910	-3,267	-0,229	-0,111
181,925	115,746	-0,226	-0,193
182,940	284,227	-0,175	-0,220
183,954	-200,000	-0,043	-0,259
184,969	800,000	-0,141	-0,300
185,983	72,918	-0,166	-0,121
186,998	34,947	-0,270	-0,165
188,013	-190,698	-0,286	-0,002
189,027	-45,469	-0,248	-0,085
190,042	-64,020	-0,193	-0,055
191,056	99,416	-0,180	-0,146
192,071	-200,000	-0,057	-0,194
193,086	-121,057	-0,210	-0,024
194,100	271,315	-0,143	-0,176
195,115	72,444	-0,200	-0,146
196,129	-9,413	-0,163	-0,076
197,144	118,217	-0,259	-0,223
198,159	292,997	-0,188	-0,240
199,173	41,962	-0,241	-0,152
200,188	98,455	-0,222	-0,178
201,202	379,208	-0,179	-0,256
202,217	177,514	-0,119	-0,121
203,232	351,657	-0,179	-0,248
204,246	141,462	-0,227	-0,210
205,261	24,243	-0,238	-0,137
206,275	391,408	-0,192	-0,279
207,290	9,686	-0,087	-0,046
208,304	-7,970	-0,162	-0,076
209,319	-138,281	-0,300	-0,023
210,334	94,689	-0,079	-0,063
211,348	163,609	-0,165	-0,162
212,363	20,646	-0,291	-0,164
213,377	540,076	-0,116	-0,193
214,392	-45,921	-0,202	-0,069
215,407	313,193	-0,134	-0,175
216,421	-200,000	-0,034	-0,242
217,436	71,931	-0,187	-0,135
218,450	149,279	-0,164	-0,155
219,465	367,808	-0,161	-0,227
220,480	46,991	-0,233	-0,151
221,494	-15,971	-0,245	-0,108
222,509	542,632	-0,118	-0,196
223,523	33,784	-0,131	-0,079
224,538	-59,567	-0,200	-0,059
225,553	97,137	-0,165	-0,131
226,567	187,818	-0,202	-0,210
227,582	71,385	-0,206	-0,148
228,596	173,074	-0,099	-0,100
229,611	174,808	-0,200	-0,202
230,626	800,000	-0,060	-0,156
231,640	372,965	-0,107	-0,152
232,655	169,354	-0,176	-0,175
233,669	217,749	-0,177	-0,196
234,684	-200,000	-0,091	-0,290
235,699	-28,930	-0,067	-0,027
236,713	163,703	-0,058	-0,057
237,728	-59,537	-0,265	-0,079
238,742	79,937	-0,193	-0,144
239,757	134,031	-0,170	-0,153
240,772	689,594	-0,120	-0,219
241,786	76,454	-0,205	-0,151
242,801	3,429	-0,273	-0,138
243,815	566,837	-0,093	-0,158
244,830	-60,315	-0,198	-0,058
245,844	-69,620	-0,219	-0,058
246,859	98,155	-0,184	-0,147
247,874	519,661	-0,113	-0,185
248,888	87,747	-0,191	-0,146
249,903	223,047	-0,252	-0,282
250,917	748,296	-0,109	-0,205
251,932	63,236	-0,104	0,072
252,947	287,056	-0,102	-0,128
253,961	800,000	-0,077	-0,192
254,976	111,241	-0,169	-0,142
255,990	405,827	-0,147	-0,216
257,005	243,905	-0,174	-0,203
258,020	8,685	-0,190	-0,099
259,034	592,846	-0,074	-0,127
260,049	-94,919	-0,106	0,020
261,063	-53,824	-0,124	-0,039
262,078	38,302	-0,237	-0,146
263,093	334,351	-0,211	-0,283
264,107	72,449	-0,174	-0,125
265,122	129,566	-0,162	-0,143
266,136	800,000	-0,087	-0,196
267,151	800,000	-0,071	-0,178
268,166	471,256	-0,175	-0,273
269,180	52,373	-0,218	-0,144
270,195	69,174	-0,219	-0,156
271,209	18,156	-0,189	-0,104
272,224	-1,445	-0,207	-0,101
273,239	34,292	-0,247	-0,149
274,253	387,151	-0,136	-0,195
275,268	45,710	-0,119	-0,076
276,282	130,564	-0,181	-0,160
277,297	-152,110	-0,136	-0,007
278,312	682,029	-0,106	-0,193
279,326	667,623	-0,090	-0,161
280,341	-74,889	-0,114	-0,028
281,355	219,136	-0,163	-0,181
282,370	279,831	-0,106	-0,131
283,384	-10,871	-0,310	-0,141
284,399	77,975	-0,213	-0,157
285,414	211,034	-0,143	-0,155
286,428	168,064	-0,185	-0,182
287,443	629,625	-0,087	-0,153
288,457	-0,703	-0,112	-0,055
289,472	-115,584	-0,141	-0,018
290,487	182,979	-0,146	-0,150
291,501	170,671	-0,200	-0,198
292,516	99,147	-0,138	-0,110
293,530	126,862	-0,278	-0,244
294,545	-33,772	-0,207	-0,078
295,560	-151,967	-0,164	-0,008
296,574	53,260	-0,150	-0,099
297,589	173,614	-0,102	-0,102
298,603	-200,000	-0,030	-0,101
299,618	112,892	-0,091	-0,076
300,633	95,011	-0,248	-0,195
301,647	141,040	-0,047	-0,043
302,662	-111,789	-0,228	-0,031
303,676	35,247	-0,091	0,055
304,691	178,266	-0,198	-0,200
305,706	29,609	-0,109	-0,064
306,720	454,572	-0,139	-0,214
307,735	102,293	-0,135	-0,109
308,749	-63,683	-0,173	-0,049
309,764	27,594	-0,165	-0,096
310,779	132,350	-0,067	-0,060
311,793	164,060	0,026	-0,025
312,808	800,000	-0,108	-0,207
313,822	373,672	-0,089	-0,126
314,837	-13,783	-0,273	-0,121
315,852	-32,885	-0,163	-0,062
316,866	89,546	-0,089	-0,068
317,881	-151,082	-0,240	-0,012
318,895	-107,476	-0,109	-0,016
319,910	2,647	-0,152	-0,075
320,925	-117,875	-0,047	-0,006
321,939	274,667	-0,147	-0,180
322,954	-92,584	-0,100	-0,019
323,968	-135,754	-0,138	0,011
324,983	-109,650	-0,187	0,027
325,997	-88,828	-0,167	0,034
327,012	218,062	-0,120	-0,132
328,027	800,000	-0,047	-0,132
329,041	529,488	-0,092	-0,150
330,056	166,451	-0,139	-0,136
331,070	23,088	-0,120	-0,068
332,085	28,069	-0,156	-0,091
333,100	-200,000	0,023	-0,127
334,114	800,000	-0,143	-0,318
335,129	388,044	-0,134	-0,191
336,143	-45,218	-0,221	0,075
337,158	205,242	-0,158	-0,170
338,173	247,518	0,021	0,024
339,187	158,608	-0,165	-0,158
340,202	150,945	-0,135	-0,126
341,216	256,328	-0,160	-0,190
342,231	262,036	-0,094	-0,112
343,246	301,751	-0,211	-0,269
344,260	247,689	-0,175	-0,204
345,275	345,394	-0,060	-0,081
346,289	-41,234	-0,071	0,025
347,304	-200,000	-0,013	-0,082
348,319	-115,959	-0,172	-0,022
349,333	-44,717	-0,251	-0,086
350,348	-38,684	-0,110	-0,040
351,362	800,000	-0,046	-0,120
352,377	501,438	-0,107	-0,170
353,392	-137,601	-0,104	0,008
354,406	-145,933	-0,178	-0,011
355,421	209,839	1312,532	1416,818
356,435	161,514	1473,040	1417,348
