DTS Sentinel unit serial number:	SN410029Multiplexer serial number:	ORYXHardware model number:	OX2-SRSoftware version number:	ORYX F/W v4,00 Oryx Data Collector v3.7.2.0data status	okinstallation	B3 Nyhavnadifferential loss correction	single-endedforward channel	channel 1reverse channel	N/Adate	2023/12/02time	19:27:30forward acquisition time	300,00reverse acquisition time	0,00gamma	499,1914k internal	0,3200k external	0,3200temperature offset calibration	1,0000default loss term (dB/km)	0,3820temperature slope calibration	1,0000multiplexer offset coefficient	1,0000multiplexer slope coefficient	1,0000fibre end	0,00T internal ref (°C)	13,38T ext. ref 1 (°C)	-1,85T ext. ref 2 (°C)	-1,87length (m)	temperature (°C)	Stokes	anti-Stokes-744,400	-52,480	-0,108	-0,036
-743,385	800,000	0,149	0,346
-742,371	-200,000	-0,009	-0,125
-741,356	-200,000	0,042	0,239
-740,342	64,027	-0,269	-0,196
-739,327	-200,000	-0,009	0,257
-738,312	737,324	-0,109	-0,214
-737,298	800,000	-0,084	0,222
-736,283	800,000	-0,102	-0,247
-735,269	779,717	0,104	0,207
-734,254	41,485	-0,231	-0,152
-733,239	-33,253	-0,207	0,083
-732,225	800,000	-0,173	-0,382
-731,210	496,028	0,040	0,066
-730,196	-200,000	-0,011	-0,043
-729,181	298,542	-0,055	0,074
-728,167	32,938	-0,162	-0,102
-727,152	-9,215	0,075	0,036
-726,137	-200,000	0,005	0,085
-725,123	334,710	-0,065	-0,092
-724,108	126,162	0,084	-0,078
-723,094	430,671	-0,043	-0,068
-722,079	180,416	-0,104	-0,111
-721,064	800,000	0,055	-0,150
-720,050	157,204	0,068	0,068
-719,035	736,364	-0,045	0,087
-718,021	19,437	0,037	0,022
-717,006	28,829	-0,078	-0,048
-715,991	149,939	-0,115	-0,114
-714,977	119,000	-0,033	-0,029
-713,962	-77,899	0,201	-0,050
-712,948	19,744	0,101	-0,059
-711,933	800,000	-0,067	-0,140
-710,918	-100,003	-0,089	-0,016
-709,904	98,645	-0,113	-0,095
-708,889	-163,542	-0,142	-0,005
-707,875	109,495	0,065	-0,056
-706,860	-75,793	-0,058	0,015
-705,845	-200,000	-0,025	0,100
-704,831	141,189	-0,027	-0,026
-703,816	-147,003	0,152	-0,009
-702,802	150,717	-0,022	0,022
-701,787	623,984	-0,046	-0,085
-700,772	-8,985	-0,166	-0,080
-699,758	-93,079	0,073	-0,015
-698,743	800,000	0,052	-0,106
-697,729	-67,873	-0,067	0,019
-696,714	272,143	-0,087	0,112
-695,699	-200,000	0,012	-0,092
-694,685	48,944	-0,155	-0,106
-693,670	800,000	0,032	-0,073
-692,656	-139,297	0,117	-0,009
-691,641	-200,000	0,025	-0,153
-690,627	-200,000	0,029	-0,124
-689,612	-142,439	0,043	-0,003
-688,597	-134,436	0,037	-0,003
-687,583	37,914	-0,145	0,094
-686,568	30,562	0,027	-0,017
-685,554	199,318	-0,091	-0,101
-684,539	111,517	0,070	-0,061
-683,524	152,081	0,095	0,094
-682,510	-79,466	0,071	-0,017
-681,495	388,065	0,011	-0,016
-680,481	380,907	-0,039	-0,058
-679,466	-13,018	-0,097	-0,046
-678,451	-135,439	-0,144	0,012
-677,437	-200,000	-0,023	-0,105
-676,422	202,813	0,018	0,020
-675,408	208,849	-0,055	0,063
-674,393	134,885	0,095	-0,089
-673,378	304,453	-0,025	-0,034
-672,364	70,856	-0,048	0,036
-671,349	102,814	-0,034	-0,029
-670,335	464,988	0,046	-0,075
-669,320	149,821	0,122	0,121
-668,305	800,000	0,027	0,074
-667,291	-200,000	-0,002	-0,090
-666,276	-200,000	0,012	-0,121
-665,262	-65,448	-0,138	0,040
-664,247	-34,437	0,008	-0,003
-663,232	-200,000	-0,015	0,051
-662,218	86,115	0,071	0,056
-661,203	-27,326	-0,102	0,043
-660,189	-200,000	-0,005	-0,099
-659,174	-54,469	0,034	0,011
-658,159	-200,000	-0,019	-0,064
-657,145	326,641	-0,031	-0,043
-656,130	800,000	-0,003	0,008
-655,116	94,274	0,102	-0,084
-654,101	800,000	0,005	-0,013
-653,086	349,141	0,019	0,027
-652,072	184,645	0,041	-0,044
-651,057	-28,118	-0,079	-0,033
-650,043	18,119	-0,111	-0,064
-649,028	-49,760	0,061	0,021
-648,014	-200,000	-0,002	0,042
-646,999	42,228	-0,051	0,034
-645,984	-200,000	-0,028	0,112
-644,970	33,365	0,138	0,086
-643,955	210,241	-0,038	-0,044
-642,941	-53,484	-0,064	0,021
-641,926	-55,619	-0,079	-0,025
-640,911	800,000	-0,018	0,056
-639,897	82,929	0,073	-0,057
-638,882	-200,000	0,002	-0,115
-637,868	-200,000	0,009	-0,137
-636,853	-152,208	-0,120	-0,006
-635,838	-200,000	-0,026	-0,233
-634,824	800,000	-0,029	-0,090
-633,809	59,676	-0,048	-0,034
-632,795	37,138	0,078	-0,050
-631,780	-87,625	-0,115	-0,025
-630,765	-200,000	0,020	-0,101
-629,751	-200,000	-0,001	0,051
-628,736	229,920	0,089	-0,105
-627,722	-120,789	-0,126	0,015
-626,707	-99,278	0,076	-0,014
-625,692	452,380	0,025	-0,040
-624,678	-200,000	0,012	0,056
-623,663	282,973	0,031	-0,041
-622,649	-83,363	-0,166	0,038
-621,634	-200,000	0,029	-0,135
-620,619	-128,731	0,058	-0,006
-619,605	287,679	-0,089	-0,117
-618,590	800,000	-0,029	-0,073
-617,576	-42,373	0,038	-0,014
-616,561	800,000	0,048	-0,115
-615,546	-55,658	-0,110	-0,036
-614,532	-200,000	-0,064	-0,261
-613,517	-4,043	-0,179	0,089
-612,503	103,970	0,054	-0,046
-611,488	-200,000	-0,022	0,103
-610,474	-200,000	0,027	0,215
-609,459	-101,368	0,086	0,015
-608,444	-149,909	-0,103	0,006
-607,430	54,247	-0,087	0,060
-606,415	-78,677	-0,140	-0,034
-605,401	-200,000	-0,006	0,211
-604,386	139,731	0,016	-0,015
-603,371	-62,541	-0,076	-0,023
-602,357	41,431	0,048	0,031
-601,342	-200,000	-0,019	0,098
-600,328	27,105	-0,103	-0,063
-599,313	800,000	0,032	0,070
-598,298	176,198	-0,099	-0,104
-597,284	9,305	0,104	-0,057
-596,269	75,342	0,161	0,123
-595,255	164,562	0,050	0,051
-594,240	-92,330	0,029	-0,006
-593,225	-30,429	0,036	0,015
-592,211	-200,000	-0,010	0,052
-591,196	415,162	0,031	0,048
-590,182	-53,941	-0,064	0,021
-589,167	-32,743	-0,048	0,019
-588,152	-200,000	-0,030	-0,174
-587,138	-176,922	-0,124	-0,002
-586,123	800,000	-0,083	-0,181
-585,109	800,000	-0,044	-0,121
-584,094	-146,571	-0,060	-0,004
-583,079	734,395	0,075	-0,146
-582,065	800,000	-0,067	0,177
-581,050	63,208	0,042	0,031
-580,036	-148,766	-0,131	0,008
-579,021	-200,000	-0,033	-0,108
-578,006	178,495	-0,103	-0,109
-576,992	-147,668	0,147	-0,009
-575,977	247,015	-0,070	-0,085
-574,963	100,586	0,055	0,046
-573,948	92,660	0,151	-0,123
-572,934	-76,883	0,027	-0,007
-571,919	-110,420	-0,060	-0,009
-570,904	-90,422	-0,109	-0,023
-569,890	-200,000	0,010	0,077
-568,875	-200,000	-0,011	-0,146
-567,861	-200,000	0,028	-0,203
-566,846	142,260	0,022	0,021
-565,831	336,678	0,075	0,106
-564,817	-200,000	0,002	0,035
-563,802	-132,148	-0,108	-0,010
-562,788	160,369	-0,055	-0,056
-561,773	800,000	0,055	0,132
-560,758	5,930	0,118	0,063
-559,744	-36,597	-0,047	-0,018
-558,729	-200,000	0,014	0,206
-557,715	662,519	-0,047	-0,087
-556,700	1,264	-0,046	-0,024
-555,685	-200,000	-0,029	-0,105
-554,671	111,245	0,027	0,023
-553,656	195,432	-0,074	0,082
-552,642	-164,174	0,094	-0,003
-551,627	-200,000	-0,022	0,099
-550,612	-168,853	0,071	-0,002
-549,598	-200,000	-0,026	0,095
-548,583	83,798	-0,059	0,046
-547,569	577,383	0,012	0,022
-546,554	19,044	-0,053	0,031
-545,539	-200,000	0,016	-0,091
-544,525	107,859	0,089	-0,077
-543,510	268,139	0,018	0,022
-542,496	-200,000	-0,011	0,048
-541,481	-139,673	0,090	-0,007
-540,466	281,151	-0,079	-0,102
-539,452	249,656	0,083	0,102
-538,437	-200,000	0,012	0,101
-537,423	102,282	-0,067	-0,056
-536,408	-200,000	0,017	0,059
-535,393	800,000	-0,021	-0,054
-534,379	800,000	-0,044	-0,099
-533,364	-200,000	0,005	-0,016
-532,350	60,868	0,116	0,083
-531,335	-200,000	-0,002	0,009
-530,321	492,248	-0,055	-0,092
-529,306	31,394	0,052	0,032
-528,291	-81,873	-0,064	-0,015
-527,277	607,238	-0,048	-0,087
-526,262	123,428	-0,005	-0,005
-525,248	-200,000	0,030	-0,137
-524,233	60,351	0,094	-0,067
-523,218	212,162	0,083	0,094
-522,204	97,391	0,069	0,057
-521,189	44,819	-0,108	0,072
-520,175	363,974	0,021	0,030
-519,160	266,095	-0,068	0,086
-518,145	119,613	-0,079	-0,070
-517,131	-30,192	0,075	-0,031
-516,116	800,000	0,057	-0,118
-515,102	-200,000	0,021	-0,085
-514,087	-47,414	-0,126	-0,044
-513,072	800,000	-0,048	-0,098
-512,058	408,785	0,069	0,105
-511,043	-37,739	-0,034	-0,013
-510,029	-59,580	0,153	0,047
-509,014	623,610	0,010	-0,019
-507,999	-200,000	-0,007	0,196
-506,985	-200,000	0,000	-0,014
-505,970	76,017	-0,094	-0,072
-504,956	-67,519	-0,019	-0,005
-503,941	429,274	0,023	-0,036
-502,926	-20,295	-0,006	0,003
-501,912	31,906	0,188	0,116
-500,897	-155,447	-0,056	0,003
-499,883	-200,000	-0,002	-0,034
-498,868	207,103	-0,087	-0,098
-497,853	441,824	-0,030	-0,047
-496,839	17,097	0,092	0,052
-495,824	506,280	0,073	0,122
-494,810	81,999	0,087	0,067
-493,795	-7,713	-0,146	-0,071
-492,781	-124,789	0,119	0,013
-491,766	103,613	0,030	-0,025
-490,751	280,852	0,002	-0,003
-489,737	-200,000	-0,001	-0,116
-488,722	-200,000	0,029	0,101
-487,708	-54,060	0,067	0,022
-486,693	800,000	-0,021	-0,055
-485,678	-69,289	-0,040	-0,011
-484,664	-133,559	-0,161	0,014
-483,649	143,687	0,104	-0,100
-482,635	-117,968	-0,089	-0,011
-481,620	423,155	0,130	0,202
-480,605	-200,000	0,012	0,060
-479,591	-200,000	-0,006	0,133
-478,576	190,670	0,072	-0,079
-477,562	-105,186	0,108	-0,018
-476,547	207,017	-0,024	-0,027
-475,532	-200,000	-0,010	0,043
-474,518	-200,000	0,008	0,091
-473,503	800,000	0,070	0,190
-472,489	-42,060	0,036	-0,013
-471,474	800,000	-0,017	0,043
-470,459	314,809	-0,016	0,022
-469,445	75,361	0,076	0,058
-468,430	673,037	-0,036	0,068
-467,416	-76,248	-0,048	0,012
-466,401	145,128	0,118	0,114
-465,386	-163,235	-0,193	0,007
-464,372	-200,000	-0,001	-0,157
-463,357	44,097	-0,034	0,022
-462,343	-200,000	-0,015	-0,061
-461,328	293,032	-0,059	-0,078
-460,313	361,320	-0,017	0,025
-459,299	-200,000	-0,009	-0,120
-458,284	800,000	0,033	-0,082
-457,270	43,385	0,083	0,054
-456,255	800,000	-0,041	0,109
-455,241	-0,651	-0,146	0,074
-454,226	-200,000	-0,007	0,106
-453,211	239,423	0,037	-0,045
-452,197	-23,624	0,062	-0,027
-451,182	-43,011	0,209	0,076
-450,168	-98,760	0,038	0,007
-449,153	222,062	0,057	-0,066
-448,138	220,229	-0,032	0,037
-447,124	-47,393	-0,109	-0,038
-446,109	350,326	0,038	-0,055
-445,095	221,100	-0,072	0,083
-444,080	30,481	0,089	0,055
-443,065	-132,853	0,033	0,003
-442,051	-200,000	-0,010	0,087
-441,036	-150,322	-0,149	-0,008
-440,022	499,646	0,021	-0,035
-439,007	439,910	0,046	-0,073
-437,992	96,251	0,048	0,039
-436,978	173,883	-0,118	0,122
-435,963	800,000	-0,043	0,101
-434,949	800,000	0,068	0,141
-433,934	8,869	-0,092	-0,050
-432,919	-200,000	-0,004	-0,066
-431,905	-79,181	0,042	-0,010
-430,890	114,195	-0,035	0,031
-429,876	138,818	0,063	0,059
-428,861	101,211	-0,061	-0,051
-427,846	-60,921	0,091	-0,028
-426,832	-116,891	0,023	-0,003
-425,817	800,000	-0,011	-0,029
-424,803	233,689	-0,082	0,097
-423,788	-27,936	-0,068	-0,028
-422,773	-8,195	0,079	-0,038
-421,759	800,000	0,041	0,095
-420,744	-85,817	-0,081	-0,018
-419,730	49,019	0,039	0,027
-418,715	15,110	0,050	0,028
-417,701	111,191	0,171	-0,148
-416,686	-200,000	0,020	-0,087
-415,671	-200,000	0,010	-0,040
-414,657	58,267	0,026	0,018
-413,642	800,000	-0,039	-0,092
-412,628	308,683	0,021	-0,029
-411,613	-200,000	-0,006	0,145
-410,598	-200,000	0,009	-0,046
-409,584	647,182	-0,022	-0,040
-408,569	195,070	0,125	0,136
-407,555	-177,025	0,062	-0,001
-406,540	-200,000	-0,048	-0,162
-405,525	30,872	-0,080	-0,049
-404,511	41,623	-0,125	-0,081
-403,496	-72,164	-0,221	-0,059
-402,482	-103,719	0,168	0,028
-401,467	-5,005	-0,024	0,012
-400,452	800,000	0,014	0,039
-399,438	-11,111	0,033	0,016
-398,423	42,946	0,044	-0,029
-397,409	208,544	-0,070	0,079
-396,394	63,801	-0,071	0,051
-395,379	-200,000	-0,025	0,111
-394,365	800,000	-0,014	-0,040
-393,350	29,596	0,071	0,043
-392,336	186,743	-0,015	0,016
-391,321	124,085	-0,048	-0,043
-390,306	-200,000	-0,045	-0,162
-389,292	-77,228	0,046	0,011
-388,277	800,000	-0,023	-0,059
-387,263	148,255	0,077	0,075
-386,248	-200,000	0,010	-0,061
-385,233	-102,322	0,048	0,008
-384,219	800,000	-0,026	-0,061
-383,204	-48,923	-0,133	-0,045
-382,190	-200,000	-0,001	0,125
-381,175	494,162	-0,042	-0,069
-380,160	-200,000	-0,012	-0,171
-379,146	767,503	-0,033	0,064
-378,131	800,000	-0,077	0,179
-377,117	-200,000	0,019	0,141
-376,102	-21,431	-0,202	0,088
-375,088	183,383	0,056	0,060
-374,073	-200,000	0,011	-0,095
-373,058	-200,000	0,014	-0,098
-372,044	9,043	0,125	0,068
-371,029	-138,230	0,159	-0,012
-370,015	183,519	0,075	-0,080
-369,000	237,788	-0,029	-0,034
-367,985	-112,548	-0,097	0,014
-366,971	288,110	-0,069	0,089
-365,956	253,009	0,053	-0,065
-364,942	714,059	0,063	-0,120
-363,927	-12,031	0,125	0,059
-362,912	-200,000	0,022	0,071
-361,898	666,887	0,027	0,051
-360,883	-200,000	0,013	0,077
-359,869	447,543	-0,049	0,078
-358,854	44,227	0,103	0,068
-357,839	171,345	0,028	0,029
-356,825	-77,900	0,126	-0,031
-355,810	67,626	-0,079	0,058
-354,796	-200,000	0,000	0,013
-353,781	151,228	-0,082	0,080
-352,766	-66,669	0,025	0,007
-351,752	2,739	0,096	-0,050
-350,737	265,839	-0,099	0,124
-349,723	3,415	-0,067	0,035
-348,708	-69,731	-0,085	0,023
-347,693	-200,000	0,004	-0,052
-346,679	-191,155	0,043	0,000
-345,664	-180,475	0,100	-0,001
-344,650	-152,395	-0,015	-0,001
-343,635	-200,000	-0,002	-0,094
-342,620	37,390	-0,031	0,020
-341,606	-200,000	0,037	-0,152
-340,591	-146,231	0,073	0,005
-339,577	-31,060	-0,056	0,023
-338,562	-107,444	-0,036	-0,006
-337,548	-200,000	-0,037	-0,168
-336,533	28,381	0,052	0,032
-335,518	-33,546	-0,140	0,055
-334,504	-20,671	0,105	-0,046
-333,489	-88,510	-0,126	-0,027
-332,475	302,744	0,035	-0,046
-331,460	-113,156	0,046	0,006
-330,445	-1,838	-0,046	0,023
-329,431	12,089	-0,071	-0,039
-328,416	129,722	0,115	0,105
-327,402	233,755	0,131	0,155
-326,387	-20,394	-0,062	-0,027
-325,372	-21,697	-0,036	0,016
-324,358	-200,000	0,028	0,142
-323,343	646,167	-0,038	-0,070
-322,329	10,014	0,091	0,049
-321,314	800,000	0,035	-0,093
-320,299	-52,995	0,086	-0,028
-319,285	-200,000	0,011	0,077
-318,270	-121,485	-0,129	0,015
-317,256	121,244	0,124	-0,111
-316,241	143,299	0,043	-0,041
-315,226	-200,000	0,000	-0,079
-314,212	88,546	0,094	0,075
-313,197	-34,019	0,018	0,007
-312,183	-39,691	-0,119	0,044
-311,168	43,991	-0,116	0,076
-310,153	-200,000	-0,002	-0,140
-309,139	-200,000	-0,006	-0,077
-308,124	800,000	0,026	-0,059
-307,110	389,254	0,053	0,079
-306,095	800,000	-0,045	0,110
-305,080	105,964	0,049	-0,041
-304,066	375,687	0,080	0,118
-303,051	83,764	-0,169	0,132
-302,037	576,335	0,060	-0,106
-301,022	-200,000	-0,032	-0,103
-300,008	-200,000	0,009	0,126
-298,993	164,712	0,098	0,099
-297,978	-179,333	0,132	0,002
-296,964	-200,000	0,017	0,074
-295,949	454,913	-0,070	-0,112
-294,935	-200,000	0,004	-0,057
-293,920	161,070	0,065	0,065
-292,905	-65,584	0,070	0,020
-291,891	103,386	-0,015	0,013
-290,876	-143,383	0,070	0,005
-289,862	330,257	0,045	-0,062
-288,847	-72,051	-0,134	-0,035
-287,832	-200,000	-0,002	0,091
-286,818	-60,728	0,112	-0,034
-285,803	636,155	-0,045	-0,083
-284,789	63,057	0,109	0,078
-283,774	284,198	0,137	0,177
-282,759	-200,000	-0,022	-0,071
-281,745	648,506	-0,098	0,180
-280,730	18,777	-0,044	-0,025
-279,716	800,000	0,021	0,046
-278,701	-151,345	0,104	0,005
-277,686	-38,424	0,026	-0,010
-276,672	-49,598	0,149	0,050
-275,657	298,235	-0,089	0,117
-274,643	142,027	-0,113	-0,107
-273,628	243,197	-0,042	-0,050
-272,613	118,002	0,087	-0,077
-271,599	193,815	0,051	-0,055
-270,584	122,872	0,032	-0,029
-269,570	179,097	0,075	0,079
-268,555	253,296	0,012	0,014
-267,540	-66,229	-0,119	0,034
-266,526	-140,487	-0,039	0,003
-265,511	-200,000	0,002	0,131
-264,497	-200,000	-0,003	0,051
-263,482	-200,000	0,030	-0,136
-262,467	-30,870	-0,063	0,025
-261,453	-200,000	0,014	0,047
-260,438	-111,814	-0,130	-0,019
-259,424	97,423	-0,109	-0,090
-258,409	-200,000	0,001	0,061
-257,395	-110,348	0,112	-0,016
-256,380	734,751	-0,033	0,064
-255,365	-200,000	0,022	-0,127
-254,351	800,000	-0,033	0,070
-253,336	-200,000	0,035	-0,153
-252,322	65,540	-0,032	-0,023
-251,307	-200,000	0,027	0,102
-250,292	664,529	-0,096	-0,178
-249,278	800,000	0,051	0,140
-248,263	-34,277	0,042	0,016
-247,249	-200,000	-0,017	-0,060
-246,234	3,108	0,069	-0,036
-245,219	-200,000	-0,004	-0,025
-244,205	-103,270	-0,058	0,010
-243,190	-200,000	0,001	-0,036
-242,176	-150,753	-0,015	0,001
-241,161	191,586	-0,071	0,076
-240,146	-200,000	0,018	0,068
-239,132	125,829	-0,166	-0,150
-238,117	-200,000	0,046	0,155
-237,103	473,940	0,062	-0,101
-236,088	800,000	-0,007	-0,014
-235,073	-29,555	0,092	0,037
-234,059	53,598	0,138	0,094
-233,044	-59,210	-0,028	0,008
-232,030	-44,958	-0,072	0,025
-231,015	800,000	0,072	-0,177
-230,000	-58,635	-0,155	0,048
-228,986	251,476	0,082	0,099
-227,971	511,649	-0,051	-0,085
-226,957	-47,096	-0,093	-0,032
-225,942	800,000	0,036	-0,079
-224,927	-200,000	-0,003	0,041
-223,913	435,838	0,040	0,063
-222,898	800,000	-0,018	-0,038
-221,884	-200,000	0,023	-0,150
-220,869	-30,135	-0,029	-0,012
-219,855	800,000	0,093	0,224
-218,840	-200,000	0,010	0,041
-217,825	800,000	0,057	0,120
-216,811	236,866	0,039	-0,046
-215,796	144,404	-0,069	-0,066
-214,782	-2,090	0,084	-0,042
-213,767	-200,000	0,029	0,098
-212,752	-200,000	-0,015	0,086
-211,738	-200,000	-0,004	0,031
-210,723	83,527	0,049	-0,038
-209,709	800,000	0,051	0,124
-208,694	12,857	-0,044	0,024
-207,679	-22,413	0,109	-0,047
-206,665	335,402	-0,104	-0,143
-205,650	-119,643	0,072	-0,009
-204,636	-0,404	-0,082	0,042
-203,621	29,817	0,046	-0,028
-202,606	800,000	0,064	-0,135
-201,592	29,631	-0,081	-0,049
-200,577	16,096	-0,082	-0,046
-199,563	-66,215	0,022	0,006
-198,548	351,281	0,057	0,081
-197,533	-200,000	-0,012	-0,076
-196,519	-137,562	0,108	0,009
-195,504	-4,013	-0,198	-0,097
-194,490	800,000	-0,044	-0,130
-193,475	-200,000	-0,003	-0,014
-192,460	498,371	-0,044	0,073
-191,446	262,678	0,016	-0,019
-190,431	800,000	-0,010	0,030
-189,417	-120,768	-0,118	0,014
-188,402	373,582	0,013	-0,019
-187,387	800,000	-0,036	-0,111
-186,373	-63,700	-0,011	0,003
-185,358	800,000	0,067	-0,136
-184,344	26,980	-0,100	-0,059
-183,329	-200,000	0,044	-0,244
-182,315	407,317	0,022	0,034
-181,300	-141,065	-0,064	-0,005
-180,285	-102,509	-0,113	-0,019
-179,271	-200,000	0,002	-0,031
-178,256	76,853	-0,084	-0,063
-177,242	-91,687	0,098	0,020
-176,227	45,117	0,157	0,103
-175,212	800,000	-0,030	0,088
-174,198	-200,000	-0,029	-0,111
-173,183	-200,000	0,024	0,077
-172,169	-148,587	-0,072	-0,004
-171,154	306,119	0,046	-0,061
-170,139	120,219	0,015	0,013
-169,125	-180,999	-0,043	0,001
-168,110	-200,000	-0,020	0,087
-167,096	800,000	0,048	-0,105
-166,081	-68,052	-0,072	0,020
-165,066	-200,000	-0,051	0,200
-164,052	-131,041	-0,041	0,004
-163,037	655,288	0,037	0,067
-162,023	52,030	0,038	-0,026
-161,008	83,778	0,025	0,020
-159,993	-1,612	0,071	-0,035
-158,979	-200,000	-0,013	0,090
-157,964	67,520	-0,049	-0,036
-156,950	-68,763	-0,081	0,022
-155,935	-200,000	-0,002	0,020
-154,920	-42,118	0,104	-0,038
-153,906	-200,000	-0,044	0,147
-152,891	-27,211	0,072	0,030
-151,877	-200,000	-0,007	-0,051
-150,862	800,000	-0,021	-0,047
-149,847	-200,000	0,028	-0,123
-148,833	-200,000	0,024	0,144
-147,818	-29,536	0,229	0,093
-146,804	-200,000	-0,029	0,130
-145,789	454,031	-0,071	0,112
-144,775	-149,267	0,038	0,002
-143,760	-200,000	-0,005	-0,035
-142,745	226,963	-0,016	0,019
-141,731	246,152	-0,063	0,075
-140,716	-200,000	0,010	0,225
-139,702	147,963	0,071	0,068
-138,687	-41,293	0,115	-0,042
-137,672	188,920	0,018	0,019
-136,658	-22,241	-0,207	-0,089
-135,643	366,623	0,005	-0,007
-134,629	-148,885	-0,108	-0,006
-133,614	-6,681	0,093	0,045
-132,599	-110,788	0,031	0,004
-131,585	66,561	-0,060	0,043
-130,570	358,758	-0,035	0,050
-129,556	65,320	-0,057	0,041
-128,541	110,320	-0,106	-0,090
-127,526	593,290	-0,068	0,120
-126,512	-200,000	-0,034	0,143
-125,497	240,304	0,081	0,096
-124,483	-80,286	-0,108	0,026
-123,468	386,738	0,017	-0,024
-122,453	800,000	0,044	0,127
-121,439	-105,715	0,024	-0,004
-120,424	2,208	-0,047	0,024
-119,410	-200,000	0,009	-0,058
-118,395	800,000	0,031	0,062
-117,380	800,000	0,050	0,104
-116,366	106,007	-0,090	0,075
-115,351	-6,842	0,070	-0,034
-114,337	797,341	0,013	0,026
-113,322	87,465	-0,094	-0,074
-112,307	-80,845	0,019	0,004
-111,293	10,299	0,131	0,071
-110,278	800,000	0,038	0,104
-109,264	800,000	0,019	0,059
-108,249	41,352	-0,076	0,048
-107,234	548,356	-0,067	-0,114
-106,220	343,349	0,042	0,059
-105,205	-200,000	-0,006	0,041
-104,191	665,253	-0,039	0,072
-103,176	70,681	-0,061	-0,045
-102,162	-77,627	0,071	-0,017
-101,147	130,677	0,049	-0,045
-100,132	-56,954	0,138	-0,043
-99,118	73,730	-0,118	-0,087
-98,103	271,505	0,108	-0,136
-97,089	577,259	-0,070	0,122
-96,074	65,433	0,136	0,097
-95,059	800,000	-0,031	0,070
-94,045	780,764	-0,021	0,041
-93,030	-200,000	0,023	-0,126
-92,016	557,303	-0,045	0,077
-91,001	-58,359	-0,014	-0,004
-89,986	800,000	-0,025	0,078
-88,972	298,104	-0,038	0,050
-87,957	137,692	0,074	-0,068
-86,943	800,000	-0,007	0,017
-85,928	-93,967	-0,107	0,021
-84,913	83,930	-0,037	0,029
-83,899	-200,000	0,004	0,038
-82,884	73,955	-0,048	-0,036
-81,870	800,000	0,049	0,100
-80,855	-200,000	-0,018	0,070
-79,840	7,131	0,012	0,007
-78,826	-200,000	-0,006	0,096
-77,811	-104,844	-0,144	-0,023
-76,797	-5,967	0,068	0,033
-75,782	-19,448	0,126	0,055
-74,767	130,784	-0,027	-0,025
-73,753	164,290	0,123	-0,123
-72,738	213,017	0,072	0,081
-71,724	102,038	0,092	-0,076
-70,709	-200,000	-0,003	-0,105
-69,694	-37,283	-0,158	-0,060
-68,680	36,301	0,149	-0,093
-67,665	176,290	-0,041	0,042
-66,651	450,962	0,045	0,071
-65,636	762,323	0,005	0,010
-64,622	-63,777	0,054	-0,016
-63,607	-34,519	-0,049	-0,019
-62,592	-200,000	0,031	-0,123
-61,578	800,000	0,017	-0,044
-60,563	527,508	0,013	0,021
-59,549	679,736	-0,038	0,070
-58,534	-39,367	-1,661	-0,614
-57,519	395,192	-1,402	-2,077
-56,505	-200,000	-0,490	-4,624
-55,490	200,001	0,977	1,064
-54,476	800,000	5,064	11,505
-53,461	-200,000	19,182	320,850
-52,446	-200,000	740,897	2336,523
-51,432	572,919	1655,984	2869,847
-50,417	78,346	1671,395	1262,768
-49,403	21,365	1544,423	886,466
-48,388	15,254	1466,870	812,215
-47,373	18,071	1456,970	820,324
-46,359	16,746	1446,891	808,257
-45,344	13,486	1442,261	790,015
-44,330	13,429	1440,250	788,613
-43,315	13,432	1438,716	787,753
-42,300	13,439	1436,837	786,728
-41,286	13,421	1435,718	785,995
-40,271	13,442	1434,274	785,274
-39,257	13,459	1432,986	784,622
-38,242	13,432	1431,860	783,841
-37,227	13,485	1430,648	783,401
-36,213	13,488	1429,276	782,635
-35,198	13,471	1428,030	781,841
-34,184	13,522	1427,016	781,497
-33,169	13,441	1425,747	780,386
-32,154	13,493	1424,605	779,976
-31,140	13,522	1423,283	779,357
-30,125	13,525	1422,200	778,749
-29,111	13,483	1421,235	777,991
-28,096	13,501	1420,137	777,444
-27,082	13,399	1419,201	776,419
-26,067	13,365	1418,057	775,601
-25,052	13,389	1416,950	775,077
-24,038	13,421	1415,580	774,448
-23,023	13,384	1414,843	773,840
-22,009	13,389	1413,745	773,234
-20,994	13,353	1413,081	772,671
-19,979	13,361	1412,214	772,201
-18,965	13,335	1411,027	771,399
-17,950	13,362	1410,049	770,964
-16,936	13,342	1409,202	770,375
-15,921	13,310	1408,243	769,672
-14,906	13,345	1407,305	769,292
-13,892	13,326	1406,325	768,635
-12,877	13,338	1405,349	768,126
-11,863	13,309	1404,325	767,404
-10,848	13,304	1403,508	766,904
-9,833	13,288	1402,905	766,469
-8,819	13,222	1402,036	765,656
-7,804	13,245	1401,105	765,223
-6,790	13,235	1399,975	764,530
-5,775	13,267	1398,795	764,001
-4,760	13,206	1397,965	763,235
-3,746	13,228	1396,972	762,765
-2,731	13,208	1396,249	762,250
-1,717	13,185	1395,231	761,554
-0,702	13,203	1393,582	760,706
0,313	17,047	1310,123	732,963
1,327	33,194	703,725	431,035
2,342	50,707	123,256	82,442
3,356	2,261	16,669	8,501
4,371	8,075	3,300	1,747
5,386	-26,449	0,616	0,254
6,400	-200,000	0,058	0,218
7,415	-33,271	-0,233	-0,091
8,429	192,227	-0,192	-0,205
9,444	1,874	-0,330	-0,168
10,459	-88,546	-0,352	-0,073
11,473	-32,551	-0,211	-0,083
12,488	69,690	-0,285	-0,208
13,502	-87,377	-0,358	-0,076
14,517	106,877	-0,165	-0,139
15,531	104,382	-0,412	-0,342
16,546	157,105	-0,281	-0,275
17,561	33,075	-0,431	-0,263
18,575	-100,295	-0,208	0,036
19,590	172,079	-0,203	-0,206
20,604	-47,746	-0,343	-0,117
21,619	-17,024	-0,435	-0,193
22,634	61,394	-0,454	-0,319
23,648	110,477	-0,400	-0,340
24,663	95,156	-0,417	-0,336
25,677	308,086	-0,293	-0,388
26,692	140,112	-0,335	-0,312
27,707	34,067	-0,426	-0,262
28,721	18,191	-0,418	-0,235
29,736	11,812	-0,400	-0,216
30,750	-2,791	-0,424	-0,209
31,765	2,242	-0,391	-0,199
32,780	275,213	-0,236	-0,296
33,794	2,394	-0,376	-0,192
34,809	21,203	-0,296	-0,169
35,823	491,924	-0,236	-0,383
36,838	47,546	-0,502	-0,330
37,853	102,937	-0,299	-0,247
38,867	242,772	-0,308	-0,365
39,882	474,746	-0,219	-0,350
40,896	173,002	-0,245	-0,249
41,911	152,649	-0,336	-0,324
42,926	69,995	-0,330	-0,240
43,940	1,319	-0,348	-0,176
44,955	40,264	-0,306	-0,194
45,969	82,675	-0,389	-0,297
46,984	63,631	-0,347	-0,245
47,999	275,674	-0,176	-0,220
49,013	139,198	-0,321	-0,298
50,028	416,902	-0,229	-0,345
51,042	101,094	-0,320	-0,263
52,057	161,701	-0,239	-0,236
53,071	19,291	-0,408	-0,230
54,086	17,866	-0,428	-0,240
55,101	95,443	-0,301	-0,242
56,115	83,890	-0,366	-0,281
57,130	49,717	-0,240	-0,159
58,144	-51,265	-0,386	-0,127
59,159	115,947	-0,323	-0,278
60,174	54,285	-0,328	-0,222
61,188	10,368	-0,451	-0,241
62,203	58,480	-0,246	-0,170
63,217	24,521	-0,338	-0,196
64,232	17,561	-0,253	-0,141
65,247	34,175	-0,336	-0,206
66,261	74,713	-0,414	-0,306
67,276	245,394	-0,323	-0,383
68,290	-6,500	-0,320	-0,153
69,305	4,218	-0,389	-0,200
70,320	7,541	-0,320	-0,168
71,334	95,657	-0,377	-0,303
72,349	6,625	-0,306	-0,159
73,363	22,152	-0,465	-0,266
74,378	8,424	-0,371	-0,195
75,393	-116,831	-0,344	-0,044
76,407	44,166	-0,288	-0,186
77,422	19,863	-0,293	-0,166
78,436	245,619	-0,173	-0,206
79,451	96,038	-0,353	-0,283
80,466	-157,821	-0,434	-0,018
81,480	-8,077	-0,422	-0,199
82,495	128,124	-0,347	-0,311
83,509	116,585	-0,299	-0,258
84,524	292,544	-0,112	-0,144
85,539	70,592	-0,255	-0,185
86,553	107,210	-0,223	-0,187
87,568	253,450	-0,269	-0,324
88,582	101,750	-0,385	-0,315
89,597	800,000	-0,114	-0,318
90,611	7,897	-0,355	-0,187
91,626	-200,000	-0,048	-0,283
92,641	-7,681	-0,309	-0,146
93,655	-67,447	-0,320	-0,088
94,670	-166,678	-0,331	-0,009
95,684	58,275	-0,250	-0,172
96,699	103,761	-0,350	-0,288
97,714	47,402	-0,309	-0,202
98,728	-73,194	-0,299	-0,076
99,743	118,137	-0,203	-0,175
100,757	82,700	-0,240	-0,183
101,772	97,304	-0,316	-0,255
102,787	58,948	-0,442	-0,305
103,801	54,210	-0,242	-0,163
104,816	13,452	-0,249	-0,135
105,830	81,642	-0,241	-0,183
106,845	800,000	-0,130	-0,270
107,860	-14,576	-0,264	-0,119
108,874	167,113	-0,298	-0,297
109,889	-35,438	-0,373	-0,141
110,903	139,429	-0,266	-0,246
111,918	691,350	-0,165	-0,305
112,933	117,957	-0,229	-0,198
113,947	-35,660	-0,133	-0,050
114,962	-23,313	-0,288	-0,121
115,976	-4,957	-0,288	-0,139
116,991	-37,001	-0,283	-0,106
118,006	-74,423	-0,323	-0,081
119,020	51,075	-0,249	-0,165
120,035	253,820	-0,187	-0,224
121,049	-159,263	-0,242	0,009
122,064	-83,691	-0,228	-0,051
123,079	198,319	-0,181	-0,194
124,093	87,324	-0,224	-0,173
125,108	50,366	-0,223	-0,148
126,122	73,397	-0,256	-0,187
127,137	101,155	-0,265	-0,216
128,151	-25,821	-0,367	-0,151
129,166	-78,109	-0,133	-0,032
130,181	42,575	-0,276	-0,176
131,195	66,937	-0,176	-0,125
132,210	225,405	-0,320	-0,363
133,224	144,658	-0,178	-0,167
134,239	429,991	-0,161	-0,245
135,254	373,530	-0,143	-0,204
136,268	275,017	-0,165	-0,205
137,283	216,025	-0,127	-0,142
138,297	800,000	-0,113	-0,291
139,312	570,492	-0,151	-0,258
140,327	237,089	-0,220	-0,255
141,341	434,186	-0,202	-0,307
142,356	-119,931	-0,359	0,043
143,370	-158,201	-0,160	0,006
144,385	351,214	-0,126	-0,174
145,400	29,490	-0,274	-0,162
146,414	261,201	-0,254	-0,308
147,429	-130,417	-0,307	-0,029
148,443	221,293	-0,138	-0,155
149,458	7,814	-0,233	-0,121
150,473	317,467	-0,202	-0,268
151,487	-35,338	-0,200	-0,076
152,502	297,200	-0,247	-0,318
153,516	130,020	-0,228	-0,203
154,531	21,681	-0,205	-0,116
155,546	-108,762	-0,407	-0,060
156,560	-91,822	-0,152	-0,030
157,575	-51,118	-0,182	-0,059
158,589	150,791	-0,256	-0,243
159,604	280,976	-0,168	-0,210
160,619	60,882	-0,293	-0,203
161,633	162,629	-0,285	-0,279
162,648	124,643	-0,233	-0,205
163,662	158,981	-0,210	-0,204
164,677	216,475	-0,203	-0,225
165,692	-34,118	-0,291	-0,111
166,706	61,143	-0,265	-0,183
167,721	8,320	-0,235	-0,123
168,735	149,598	-0,240	-0,227
169,750	257,798	-0,284	-0,342
170,764	-83,564	-0,307	-0,068
171,779	71,274	-0,168	-0,121
172,794	103,260	-0,112	-0,091
173,808	125,901	-0,277	-0,244
174,823	73,539	-0,293	-0,213
175,837	-7,576	-0,249	-0,117
176,852	-45,855	-0,202	-0,069
177,867	-62,052	-0,215	-0,062
178,881	388,624	-0,102	-0,148
179,896	-30,823	-0,246	-0,096
180,910	76,104	-0,215	-0,159
181,925	-55,841	-0,399	-0,123
182,940	149,128	-0,183	-0,173
183,954	-68,053	-0,231	-0,062
184,969	136,691	-0,129	-0,118
185,983	-1,744	-0,167	-0,081
186,998	60,517	-0,225	-0,155
188,013	43,358	-0,223	-0,142
189,027	113,760	-0,230	-0,195
190,042	214,478	-0,172	-0,190
191,056	421,868	-0,127	-0,191
192,071	548,172	-0,091	-0,152
193,086	502,693	-0,100	-0,161
194,100	226,787	-0,156	-0,177
195,115	12,470	-0,220	-0,118
196,129	82,158	-0,182	-0,137
197,144	94,781	-0,214	-0,170
198,159	-58,391	-0,141	-0,042
199,173	756,862	-0,163	-0,309
200,188	86,019	-0,148	-0,113
201,202	-47,427	-0,221	-0,074
202,217	387,665	-0,124	-0,179
203,232	208,103	-0,191	-0,208
204,246	223,121	-0,125	-0,140
205,261	800,000	-0,131	-0,281
206,275	-29,713	-0,183	-0,072
207,290	128,988	-0,164	-0,146
208,304	92,870	-0,173	-0,136
209,319	153,884	-0,131	-0,125
210,334	-54,124	-0,271	-0,085
211,348	15,636	-0,220	-0,120
212,363	772,671	-0,167	-0,318
213,377	0,855	-0,251	-0,125
214,392	-107,636	-0,174	0,026
215,407	1,688	-0,192	-0,096
216,421	36,923	-0,107	-0,066
217,436	59,748	-0,149	-0,102
218,450	800,000	-0,144	-0,320
219,465	436,734	-0,123	-0,186
220,480	135,768	-0,173	-0,157
221,494	-78,601	-0,145	-0,034
222,509	291,888	-0,180	-0,229
223,523	58,907	-0,240	-0,163
224,538	-67,515	-0,309	-0,084
225,553	-82,116	-0,310	-0,070
226,567	12,309	-0,207	-0,111
227,582	77,753	-0,292	-0,215
228,596	190,362	-0,241	-0,251
229,611	-8,870	-0,154	-0,071
230,626	-87,599	-0,160	0,033
231,640	1,486	-0,224	-0,111
232,655	532,778	-0,120	-0,198
233,669	155,899	-0,233	-0,223
234,684	11,993	-0,255	-0,136
235,699	76,346	-0,178	-0,131
236,713	-200,000	0,003	-0,088
237,728	-198,134	-0,141	-0,001
238,742	-63,865	-0,269	-0,076
239,757	376,933	-0,183	-0,259
240,772	139,925	-0,171	-0,156
241,786	-75,964	-0,223	-0,054
242,801	226,129	-0,179	-0,201
243,815	29,984	-0,217	-0,128
244,830	-4,540	-0,165	0,078
245,844	92,529	-0,193	-0,150
246,859	493,270	-0,134	-0,214
247,874	234,116	-0,161	-0,184
248,888	292,709	-0,214	-0,271
249,903	97,764	-0,083	-0,066
250,917	668,511	-0,087	-0,156
251,932	79,902	-0,255	-0,190
252,947	238,782	-0,089	-0,102
253,961	74,072	-0,128	-0,093
254,976	44,256	-0,219	-0,139
255,990	64,247	-0,129	-0,090
257,005	-64,000	-0,256	-0,072
258,020	193,200	-0,196	-0,206
259,034	-84,636	-0,130	-0,028
260,049	355,782	-0,100	-0,138
261,063	546,872	-0,113	-0,188
262,078	-0,675	-0,166	-0,081
263,093	487,047	-0,121	-0,192
264,107	-70,910	-0,096	0,025
265,122	293,403	-0,113	-0,143
266,136	15,612	-0,123	-0,066
267,151	-25,119	-0,102	-0,041
268,166	508,291	-0,212	-0,342
269,180	376,890	-0,196	-0,277
270,195	43,981	-0,141	-0,089
271,209	12,305	-0,134	-0,071
272,224	-107,939	-0,324	-0,048
273,239	512,512	-0,132	-0,213
274,253	-53,376	-0,168	-0,053
275,268	-200,000	-0,008	-0,051
276,282	16,651	-0,202	-0,110
277,297	544,367	-0,099	-0,164
278,312	175,178	-0,179	-0,179
279,326	140,209	-0,093	-0,085
280,341	800,000	-0,064	-0,155
281,355	46,089	-0,145	-0,093
282,370	244,933	-0,165	-0,191
283,384	187,572	-0,161	-0,166
284,399	302,505	-0,160	-0,205
285,414	-200,000	-0,037	-0,204
286,428	520,307	-0,073	-0,119
287,443	26,459	-0,229	-0,132
288,457	-6,995	-0,100	-0,047
289,472	-84,227	-0,146	-0,032
290,487	11,369	-0,135	-0,071
291,501	64,344	-0,164	-0,114
292,516	-134,590	-0,160	-0,013
293,530	21,121	-0,112	-0,062
294,545	103,470	-0,110	-0,089
295,560	-200,000	-0,027	-0,082
296,574	644,521	-0,075	-0,133
297,589	-10,631	-0,091	-0,041
298,603	67,260	-0,175	-0,123
299,618	-79,198	-0,208	-0,048
300,633	118,317	-0,086	-0,073
301,647	-21,597	-0,103	-0,043
302,662	-105,324	-0,176	-0,027
303,676	-176,254	-0,193	-0,003
304,691	-156,594	-0,049	-0,002
305,706	37,818	-0,160	-0,098
306,720	221,648	-0,132	-0,146
307,735	-142,950	-0,200	0,013
308,749	-200,000	-0,060	-0,270
309,764	-200,000	-0,030	-0,138
310,779	-107,458	-0,215	-0,032
311,793	325,357	-0,113	-0,150
312,808	40,651	-0,161	-0,100
313,822	-114,409	-0,216	-0,028
314,837	295,018	-0,167	-0,211
315,852	-175,981	-0,178	-0,003
316,866	715,344	-0,089	-0,164
317,881	66,467	-0,048	-0,034
318,895	38,001	-0,138	-0,084
319,910	647,096	-0,096	-0,170
320,925	587,045	-0,051	-0,087
321,939	67,367	-0,125	-0,088
322,954	-13,680	-0,071	0,032
323,968	-200,000	-0,031	-0,112
324,983	800,000	-0,040	-0,086
325,997	-144,621	-0,248	0,016
327,012	800,000	-0,102	-0,206
328,027	85,915	-0,165	-0,124
329,041	-200,000	0,026	-0,101
330,056	-200,000	-0,016	0,086
331,070	800,000	-0,083	-0,213
332,085	-6,757	-0,146	-0,068
333,100	800,000	-0,036	-0,075
334,114	186,419	-0,076	-0,078
335,129	800,000	-0,132	-0,258
336,143	454,385	-0,065	-0,100
337,158	147,805	-0,105	-0,097
338,173	800,000	-0,070	-0,193
339,187	800,000	-0,048	-0,124
340,202	24,441	-0,067	-0,038
341,216	-90,752	-0,216	-0,042
342,231	-63,322	-0,041	-0,011
343,246	523,290	-0,068	-0,111
344,260	-69,713	-0,192	-0,050
345,275	-200,000	-0,023	-0,075
346,289	-110,976	-0,106	-0,015
347,304	-70,955	-0,255	0,065
348,319	800,000	-0,070	-0,196
349,333	800,000	-0,093	-0,236
350,348	-27,379	-0,129	-0,051
351,362	-84,414	-0,241	-0,052
352,377	800,000	-0,114	-0,248
353,392	800,000	-0,070	-0,156
354,406	32,998	-0,117	-0,070
355,421	208,141	1312,330	1408,855
356,435	160,146	1472,769	1409,367
