DTS Sentinel unit serial number:	SN410029Multiplexer serial number:	ORYXHardware model number:	OX2-SRSoftware version number:	ORYX F/W v4,00 Oryx Data Collector v3.7.2.0data status	okinstallation	B3 Nyhavnadifferential loss correction	single-endedforward channel	channel 1reverse channel	N/Adate	2023/12/03time	02:27:30forward acquisition time	300,00reverse acquisition time	0,00gamma	499,1914k internal	0,3201k external	0,3201temperature offset calibration	1,0000default loss term (dB/km)	0,3820temperature slope calibration	1,0000multiplexer offset coefficient	1,0000multiplexer slope coefficient	1,0000fibre end	0,00T internal ref (°C)	13,31T ext. ref 1 (°C)	-1,74T ext. ref 2 (°C)	-1,75length (m)	temperature (°C)	Stokes	anti-Stokes-744,400	107,943	-0,206	-0,178
-743,385	-200,000	-0,001	0,455
-742,371	-58,435	-0,199	0,063
-741,356	800,000	-0,124	0,339
-740,342	-200,000	-0,033	-0,174
-739,327	467,503	-0,111	0,182
-738,312	194,803	-0,278	-0,307
-737,298	-200,000	-0,046	0,277
-736,283	522,879	-0,074	-0,126
-735,269	-200,000	-0,035	0,342
-734,254	159,000	-0,163	-0,165
-733,239	101,605	-0,125	0,106
-732,225	-200,000	-0,046	-0,266
-731,210	141,114	0,147	0,142
-730,196	211,830	0,066	-0,076
-729,181	31,541	-0,067	-0,042
-728,167	-200,000	-0,008	-0,212
-727,152	-105,825	0,106	-0,017
-726,137	-200,000	-0,036	-0,141
-725,123	44,041	-0,158	-0,105
-724,108	628,857	-0,097	-0,179
-723,094	-200,000	-0,030	-0,169
-722,079	169,529	-0,133	-0,138
-721,064	800,000	-0,028	0,057
-720,050	800,000	0,034	0,102
-719,035	15,398	0,025	-0,014
-718,021	-200,000	-0,004	0,021
-717,006	-143,889	-0,091	-0,006
-715,991	-76,596	-0,095	0,024
-714,977	188,061	-0,041	-0,044
-713,962	181,741	0,093	-0,099
-712,948	800,000	-0,046	0,126
-711,933	-200,000	0,018	0,139
-710,918	423,435	-0,072	-0,113
-709,904	63,816	-0,072	-0,053
-708,889	642,980	-0,052	-0,098
-707,875	101,517	-0,038	-0,032
-706,860	-190,207	-0,135	-0,001
-705,845	-153,247	-0,164	0,008
-704,831	130,908	0,100	0,093
-703,816	-200,000	-0,001	-0,036
-702,802	2,438	-0,172	0,090
-701,787	-200,000	-0,021	-0,138
-700,772	75,491	-0,106	-0,081
-699,758	310,517	0,042	0,058
-698,743	19,601	0,020	0,012
-697,729	149,900	0,081	0,080
-696,714	-65,125	-0,155	0,045
-695,699	-123,964	0,109	0,012
-694,685	-200,000	-0,007	-0,088
-693,670	-200,000	-0,009	-0,065
-692,656	-136,736	-0,192	-0,016
-691,641	-200,000	-0,001	0,017
-690,627	102,639	-0,037	-0,031
-689,612	30,108	0,055	0,034
-688,597	69,987	-0,067	0,050
-687,583	-200,000	-0,023	-0,118
-686,568	-82,749	-0,129	-0,030
-685,554	800,000	-0,065	-0,145
-684,539	800,000	-0,025	-0,059
-683,524	-200,000	-0,027	-0,171
-682,510	35,282	0,079	0,050
-681,495	425,997	0,074	-0,115
-680,481	64,644	0,036	0,026
-679,466	182,297	0,016	-0,018
-678,451	156,697	0,060	-0,061
-677,437	-200,000	0,008	0,110
-676,422	10,204	0,156	0,086
-675,408	84,144	-0,155	0,123
-674,393	-200,000	-0,050	-0,164
-673,378	326,906	-0,021	-0,030
-672,364	800,000	-0,059	-0,145
-671,349	40,957	-0,075	-0,049
-670,335	800,000	0,032	-0,089
-669,320	-200,000	0,018	0,105
-668,305	-50,613	0,015	0,005
-667,291	-72,580	-0,078	-0,021
-666,276	-142,198	0,016	0,001
-665,262	50,003	-0,052	-0,035
-664,247	-84,278	-0,090	0,020
-663,232	-152,159	0,118	0,006
-662,218	642,909	0,071	-0,132
-661,203	-200,000	0,023	0,118
-660,189	85,702	0,080	0,064
-659,174	-63,590	-0,145	0,043
-658,159	230,895	-0,078	-0,092
-657,145	-147,233	-0,102	0,006
-656,130	-200,000	-0,022	0,102
-655,116	-200,000	0,014	0,128
-654,101	-106,414	-0,125	0,020
-653,086	-145,168	0,084	0,005
-652,072	290,344	0,032	-0,042
-651,057	-5,828	-0,063	-0,031
-650,043	110,690	-0,080	0,070
-649,028	178,562	0,016	0,017
-648,014	-200,000	0,004	0,091
-646,999	-55,805	0,026	-0,008
-645,984	11,274	-0,190	0,105
-644,970	-59,718	-0,096	-0,030
-643,955	-156,284	-0,080	0,004
-642,941	800,000	-0,049	-0,123
-641,926	211,200	-0,052	0,060
-640,911	260,981	-0,091	-0,114
-639,897	-98,365	-0,048	0,009
-638,882	-200,000	-0,014	0,085
-637,868	-200,000	0,003	0,080
-636,853	-136,919	-0,102	0,008
-635,838	-200,000	-0,000	-0,046
-634,824	108,539	0,090	-0,077
-633,809	800,000	-0,017	-0,051
-632,795	2,052	-0,076	0,039
-631,780	1,150	0,058	0,030
-630,765	-200,000	0,004	0,016
-629,751	-200,000	-0,002	-0,032
-628,736	33,955	-0,082	-0,052
-627,722	-200,000	0,048	-0,224
-626,707	363,003	0,048	-0,071
-625,692	-4,855	0,093	0,046
-624,678	-118,074	0,032	0,004
-623,663	-20,067	-0,086	0,038
-622,649	-42,207	-0,030	0,011
-621,634	800,000	-0,077	-0,157
-620,619	210,049	0,088	-0,100
-619,605	-200,000	-0,007	-0,117
-618,590	-92,923	0,042	-0,008
-617,576	-200,000	0,010	-0,051
-616,561	48,920	0,084	0,057
-615,546	800,000	-0,031	-0,075
-614,532	-93,656	-0,055	-0,011
-613,517	89,181	-0,102	-0,082
-612,503	531,802	0,011	-0,019
-611,488	282,823	0,038	0,050
-610,474	800,000	-0,051	-0,130
-609,459	18,154	-0,023	0,013
-608,444	-41,695	-0,011	-0,004
-607,430	-58,983	-0,067	0,021
-606,415	102,561	-0,088	-0,075
-605,401	-200,000	0,005	0,119
-604,386	-200,000	-0,021	0,078
-603,371	253,781	0,046	0,057
-602,357	-190,559	-0,179	0,001
-601,342	45,058	-0,130	0,086
-600,328	800,000	-0,028	-0,085
-599,313	800,000	-0,010	0,027
-598,298	-200,000	-0,053	-0,190
-597,284	-188,910	0,111	-0,001
-596,269	800,000	0,029	-0,074
-595,255	-111,687	-0,021	0,003
-594,240	-188,865	0,083	0,001
-593,225	209,042	-0,022	-0,025
-592,211	-171,727	-0,114	0,003
-591,196	-6,582	0,102	0,050
-590,182	-200,000	0,003	-0,015
-589,167	-200,000	0,015	-0,085
-588,152	-5,653	-0,039	-0,019
-587,138	-193,604	-0,175	-0,001
-586,123	-200,000	0,022	-0,098
-585,109	-200,000	0,000	-0,137
-584,094	672,403	0,031	0,058
-583,079	800,000	-0,025	0,056
-582,065	119,681	0,040	0,036
-581,050	88,867	-0,093	-0,075
-580,036	-17,774	-0,046	-0,021
-579,021	-200,000	0,023	-0,076
-578,006	-173,912	-0,080	0,002
-576,992	502,482	0,056	0,095
-575,977	-200,000	0,006	0,061
-574,963	-44,653	0,064	0,023
-573,948	70,994	0,051	0,038
-572,934	200,278	-0,015	0,017
-571,919	-200,000	-0,011	0,035
-570,904	800,000	0,037	-0,080
-569,890	-137,610	-0,112	-0,009
-568,875	-200,000	0,022	0,081
-567,861	287,329	0,048	-0,063
-566,846	612,010	-0,050	0,091
-565,831	85,503	-0,070	-0,056
-564,817	184,528	-0,062	-0,066
-563,802	7,605	-0,058	0,031
-562,788	-41,710	0,131	0,048
-561,773	335,857	-0,074	-0,105
-560,758	53,847	0,072	0,050
-559,744	72,304	0,029	-0,022
-558,729	584,689	-0,039	0,069
-557,715	-93,676	-0,070	-0,014
-556,700	-200,000	0,001	-0,056
-555,685	-200,000	-0,147	-0,000
-554,671	589,958	-0,023	0,041
-553,656	86,901	0,068	0,054
-552,642	-200,000	-0,028	0,209
-551,627	411,103	0,073	0,113
-550,612	-200,000	0,005	-0,025
-549,598	89,748	0,044	0,035
-548,583	800,000	0,015	0,038
-547,569	800,000	-0,021	0,051
-546,554	-148,356	-0,060	0,003
-545,539	78,692	0,064	0,049
-544,525	-46,423	0,087	-0,031
-543,510	-106,586	0,081	-0,013
-542,496	-200,000	-0,030	-0,149
-541,481	481,153	0,043	-0,070
-540,466	53,003	0,031	-0,022
-539,452	419,449	-0,034	-0,052
-538,437	-96,504	0,069	0,013
-537,423	800,000	0,022	0,052
-536,408	-27,366	0,029	-0,012
-535,393	-50,854	0,025	-0,008
-534,379	237,765	0,068	-0,082
-533,364	198,074	0,010	0,011
-532,350	-29,539	0,150	-0,062
-531,335	198,041	-0,052	0,058
-530,321	800,000	-0,043	0,094
-529,306	800,000	-0,008	-0,022
-528,291	-200,000	0,005	0,032
-527,277	-200,000	0,011	0,059
-526,262	-20,395	-0,056	-0,025
-525,248	107,975	-0,027	0,023
-524,233	32,165	-0,138	0,086
-523,218	204,674	-0,006	-0,007
-522,204	190,434	-0,060	-0,065
-521,189	-200,000	0,010	0,096
-520,175	89,714	-0,113	-0,091
-519,160	87,956	-0,087	-0,069
-518,145	-111,222	-0,056	0,008
-517,131	114,122	0,037	-0,033
-516,116	-119,069	-0,090	-0,011
-515,102	156,456	-0,101	-0,101
-514,087	-200,000	0,022	-0,118
-513,072	800,000	-0,024	0,061
-512,058	-200,000	-0,004	0,028
-511,043	-200,000	0,016	0,082
-510,029	83,585	0,062	0,049
-509,014	-200,000	-0,013	0,062
-507,999	61,341	-0,140	-0,100
-506,985	126,415	0,053	-0,049
-505,970	-200,000	-0,022	-0,112
-504,956	800,000	0,047	0,103
-503,941	-200,000	0,003	0,075
-502,926	-44,458	0,129	-0,046
-501,912	-61,260	0,049	0,015
-500,897	-18,442	-0,086	0,038
-499,883	-200,000	0,013	-0,076
-498,868	800,000	0,046	-0,095
-497,853	393,924	0,012	-0,019
-496,839	-131,574	0,074	0,007
-495,824	-200,000	0,015	0,098
-494,810	-80,526	-0,104	0,025
-493,795	-66,064	0,091	0,026
-492,781	70,248	-0,081	-0,060
-491,766	-200,000	-0,015	-0,064
-490,751	9,768	-0,190	-0,104
-489,737	-200,000	-0,024	0,077
-488,722	-200,000	-0,008	0,097
-487,708	215,525	-0,092	0,105
-486,693	154,958	0,095	0,094
-485,678	56,376	-0,128	0,090
-484,664	-200,000	-0,007	-0,039
-483,649	5,252	0,086	0,045
-482,635	10,908	-0,178	-0,098
-481,620	396,040	-0,034	0,051
-480,605	83,076	0,053	0,041
-479,591	453,629	0,048	0,078
-478,576	233,671	-0,073	-0,086
-477,562	43,493	-0,085	0,056
-476,547	800,000	0,003	0,008
-475,532	32,605	0,032	0,020
-474,518	800,000	0,031	0,084
-473,503	150,527	0,113	0,111
-472,489	97,595	0,109	0,090
-471,474	-200,000	-0,033	0,127
-470,459	185,925	0,120	-0,128
-469,445	-39,761	-0,046	0,017
-468,430	800,000	-0,000	-0,001
-467,416	-179,687	0,087	0,001
-466,401	45,064	0,138	0,092
-465,386	171,392	-0,088	0,091
-464,372	390,567	-0,039	0,059
-463,357	-63,947	-0,036	-0,011
-462,343	15,159	-0,125	0,070
-461,328	-200,000	-0,006	-0,021
-460,313	244,659	0,048	-0,059
-459,299	800,000	0,052	0,114
-458,284	800,000	0,029	0,064
-457,270	36,594	0,048	-0,031
-456,255	264,029	-0,050	-0,062
-455,241	352,906	0,015	-0,022
-454,226	-163,593	-0,144	-0,005
-453,211	-200,000	0,019	-0,092
-452,197	-197,865	-0,089	-0,000
-451,182	-200,000	0,003	0,160
-450,168	-200,000	-0,004	-0,052
-449,153	-106,048	-0,064	0,010
-448,138	800,000	0,023	-0,070
-447,124	402,018	-0,044	-0,067
-446,109	81,899	0,039	0,031
-445,095	18,240	-0,022	0,013
-444,080	-85,892	0,067	-0,015
-443,065	-76,450	0,118	-0,030
-442,051	-110,505	-0,200	0,029
-441,036	629,936	-0,096	-0,175
-440,022	-200,000	0,013	0,044
-439,007	90,173	0,026	0,021
-437,992	-200,000	0,009	0,088
-436,978	-200,000	-0,013	-0,110
-435,963	643,817	-0,055	0,101
-434,949	338,057	0,037	0,052
-433,934	-200,000	0,005	0,055
-432,919	-200,000	0,007	-0,086
-431,905	-3,238	-0,026	-0,013
-430,890	763,817	0,008	0,016
-429,876	82,055	0,012	-0,010
-428,861	73,650	-0,095	-0,072
-427,846	-62,836	0,166	0,049
-426,832	800,000	0,003	0,007
-425,817	-90,615	-0,073	-0,015
-424,803	-200,000	-0,017	0,069
-423,788	35,991	0,025	0,016
-422,773	98,449	0,057	0,047
-421,759	-109,138	-0,033	0,005
-420,744	568,609	-0,039	0,068
-419,730	162,650	-0,077	0,078
-418,715	39,208	0,084	-0,054
-417,701	800,000	0,048	0,108
-416,686	6,499	0,092	0,049
-415,671	96,549	0,058	0,047
-414,657	25,318	0,026	-0,016
-413,642	328,151	-0,021	-0,029
-412,628	-200,000	-0,020	-0,080
-411,613	-200,000	-0,013	-0,073
-410,598	73,955	-0,070	0,053
-409,584	179,207	-0,112	0,117
-408,569	-75,826	0,114	-0,029
-407,555	488,014	-0,042	0,069
-406,540	418,691	0,019	0,029
-405,525	31,623	0,065	-0,040
-404,511	-200,000	0,007	-0,091
-403,496	-200,000	-0,006	-0,096
-402,482	-186,033	0,108	0,001
-401,467	800,000	0,033	0,084
-400,452	-91,343	-0,118	-0,024
-399,438	-52,342	0,164	-0,054
-398,423	6,238	-0,092	0,049
-397,409	-158,974	0,042	0,002
-396,394	163,195	0,037	0,037
-395,379	-200,000	0,001	0,091
-394,365	-50,604	-0,041	-0,014
-393,350	800,000	0,055	0,147
-392,336	-44,630	0,100	-0,035
-391,321	-200,000	0,009	-0,071
-390,306	64,431	0,081	0,059
-389,292	84,742	-0,057	-0,045
-388,277	132,337	0,006	-0,006
-387,263	-200,000	0,005	0,078
-386,248	380,296	-0,099	0,146
-385,233	212,594	0,017	0,019
-384,219	-20,449	0,062	-0,027
-383,204	-98,178	-0,113	-0,021
-382,190	28,938	-0,104	-0,063
-381,175	-149,611	0,073	-0,004
-380,160	-96,575	-0,134	-0,025
-379,146	-93,436	0,152	0,030
-378,131	-99,771	-0,071	-0,013
-377,117	113,275	0,101	0,088
-376,102	258,188	-0,092	-0,114
-375,088	99,285	-0,023	-0,019
-374,073	325,573	-0,026	0,036
-373,058	231,736	0,030	0,036
-372,044	388,544	0,070	-0,104
-371,029	139,457	0,043	-0,040
-370,015	40,253	0,003	-0,002
-369,000	-32,897	0,131	0,052
-367,985	800,000	0,027	-0,068
-366,971	133,386	-0,080	-0,074
-365,956	-55,415	0,139	-0,044
-364,942	-52,381	0,165	0,054
-363,927	-132,953	0,062	0,006
-362,912	219,191	-0,093	-0,107
-361,898	321,766	-0,043	-0,059
-360,883	142,528	0,016	-0,015
-359,869	132,760	0,019	-0,018
-358,854	-78,143	-0,013	-0,003
-357,839	79,849	0,059	0,045
-356,825	121,168	-0,122	0,109
-355,810	101,127	-0,139	0,116
-354,796	236,515	-0,022	-0,027
-353,781	201,285	0,030	-0,033
-352,766	69,283	0,024	-0,018
-351,752	237,493	0,035	0,041
-350,737	98,752	0,106	-0,087
-349,723	-38,463	0,074	-0,028
-348,708	478,821	-0,047	0,076
-347,693	206,317	-0,067	-0,074
-346,679	-82,654	0,161	0,037
-345,664	-22,185	-0,054	0,023
-344,650	-98,083	0,140	0,026
-343,635	41,522	0,080	0,052
-342,620	-121,386	-0,172	-0,020
-341,606	-200,000	0,013	0,086
-340,591	95,678	-0,061	-0,050
-339,577	151,831	-0,070	-0,068
-338,562	800,000	-0,048	-0,116
-337,548	168,035	0,128	0,130
-336,533	-47,519	0,108	-0,037
-335,518	-200,000	0,013	0,091
-334,504	-200,000	0,002	0,040
-333,489	800,000	0,051	-0,121
-332,475	-200,000	-0,047	-0,226
-331,460	800,000	-0,034	-0,095
-330,445	226,978	-0,089	-0,103
-329,431	-62,230	0,110	-0,033
-328,416	-200,000	0,001	0,018
-327,402	309,970	0,081	0,109
-326,387	170,735	0,103	0,105
-325,372	236,660	0,049	-0,058
-324,358	-57,572	0,059	0,018
-323,343	286,512	0,082	-0,106
-322,329	-200,000	0,001	-0,027
-321,314	75,805	0,091	0,069
-320,299	800,000	-0,016	-0,038
-319,285	-200,000	-0,018	0,059
-318,270	-104,875	-0,138	0,022
-317,256	800,000	0,054	-0,158
-316,241	-200,000	-0,043	0,168
-315,226	241,149	0,067	-0,081
-314,212	260,170	-0,011	0,013
-313,197	396,292	0,052	0,079
-312,183	-79,298	-0,082	0,020
-311,168	-12,186	-0,058	-0,027
-310,153	800,000	0,027	0,066
-309,139	-5,942	-0,183	0,089
-308,124	760,793	-0,015	0,029
-307,110	-44,892	0,107	0,038
-306,095	-0,029	0,145	0,074
-305,080	435,219	0,083	0,129
-304,066	171,862	0,030	-0,031
-303,051	60,940	-0,073	-0,051
-302,037	139,659	0,069	-0,065
-301,022	-200,000	-0,004	-0,078
-300,008	-53,015	0,085	-0,028
-298,993	69,578	-0,056	-0,041
-297,978	65,108	0,065	0,047
-296,964	-37,983	-0,093	-0,035
-295,949	104,514	-0,066	-0,056
-294,935	297,951	-0,040	-0,052
-293,920	380,890	0,045	-0,066
-292,905	417,733	0,080	0,122
-291,891	-200,000	0,002	-0,078
-290,876	-200,000	0,020	0,082
-289,862	376,718	0,034	0,050
-288,847	409,708	0,043	-0,066
-287,832	-20,668	0,086	-0,038
-286,818	-100,553	-0,175	-0,031
-285,803	36,154	0,031	0,019
-284,789	-90,504	-0,057	0,012
-283,774	-200,000	0,003	0,038
-282,759	-200,000	0,013	-0,048
-281,745	-190,219	-0,008	0,000
-280,730	800,000	0,014	-0,037
-279,716	-77,685	-0,150	0,037
-278,701	-200,000	0,004	0,056
-277,686	-45,048	0,194	-0,069
-276,672	34,003	0,056	0,035
-275,657	-115,551	0,015	0,002
-274,643	-200,000	0,015	0,127
-273,628	-82,978	-0,177	0,040
-272,613	800,000	0,013	0,039
-271,599	-62,461	-0,122	0,036
-270,584	-200,000	-0,007	0,035
-269,570	-200,000	-0,006	-0,049
-268,555	121,682	0,029	0,026
-267,540	-200,000	-0,028	-0,117
-266,526	800,000	0,063	-0,140
-265,511	13,742	-0,108	0,060
-264,497	726,273	0,045	-0,086
-263,482	-6,448	0,045	0,022
-262,467	499,766	-0,061	0,101
-261,453	-42,150	0,049	-0,018
-260,438	-40,581	-0,101	0,037
-259,424	97,831	-0,070	-0,058
-258,409	60,546	-0,099	-0,070
-257,395	-177,070	0,102	0,002
-256,380	36,223	0,159	0,100
-255,365	-30,292	0,300	0,121
-254,351	-200,000	-0,003	0,040
-253,336	-112,261	-0,108	-0,015
-252,322	-200,000	0,017	-0,132
-251,307	-45,950	-0,052	0,018
-250,292	2,100	0,064	-0,033
-249,278	-200,000	0,033	0,178
-248,263	-64,016	0,044	-0,013
-247,249	-200,000	0,020	0,070
-246,234	-13,136	-0,087	-0,040
-245,219	156,229	-0,077	0,075
-244,205	70,537	-0,076	0,056
-243,190	-171,894	-0,126	-0,003
-242,176	-200,000	0,019	-0,076
-241,161	-53,902	0,047	-0,015
-240,146	-200,000	0,019	0,080
-239,132	7,945	0,010	0,006
-238,117	109,386	-0,007	0,006
-237,103	-200,000	0,004	-0,078
-236,088	355,270	0,042	-0,059
-235,073	-135,675	0,151	0,013
-234,059	800,000	0,038	-0,111
-233,044	-156,101	0,084	-0,004
-232,030	706,182	0,017	-0,033
-231,015	-200,000	0,034	-0,152
-230,000	-3,204	-0,074	-0,037
-228,986	249,094	0,049	-0,060
-227,971	800,000	-0,012	0,025
-226,957	-95,460	0,073	0,014
-225,942	-164,795	-0,113	-0,004
-224,927	100,509	-0,033	-0,027
-223,913	143,579	-0,056	-0,054
-222,898	213,570	-0,071	-0,080
-221,884	473,076	-0,032	-0,051
-220,869	128,304	0,046	0,041
-219,855	-120,556	0,102	0,012
-218,840	236,677	0,044	0,053
-217,825	117,167	-0,094	0,083
-216,811	145,736	0,010	0,010
-215,796	459,782	-0,045	-0,072
-214,782	-60,511	0,037	-0,011
-213,767	721,296	0,081	-0,153
-212,752	-101,763	0,088	0,015
-211,738	800,000	0,049	0,114
-210,723	-23,437	-0,094	0,040
-209,709	252,489	0,013	0,015
-208,694	-200,000	-0,015	-0,123
-207,679	-200,000	-0,010	-0,042
-206,665	-127,786	0,141	0,014
-205,650	93,180	0,082	0,066
-204,636	216,716	0,101	0,115
-203,621	526,929	0,029	-0,049
-202,606	355,187	0,025	-0,035
-201,592	-31,650	-0,099	0,039
-200,577	-117,790	-0,139	-0,018
-199,563	-120,379	0,031	0,004
-198,548	-36,490	0,112	0,043
-197,533	-200,000	0,021	0,193
-196,519	392,294	0,022	-0,032
-195,504	87,482	0,005	-0,004
-194,490	-158,210	-0,091	-0,004
-193,475	409,875	0,085	-0,128
-192,460	-200,000	-0,009	0,130
-191,446	124,629	0,107	0,096
-190,431	800,000	-0,044	0,091
-189,417	176,354	0,065	0,067
-188,402	191,951	0,021	-0,023
-187,387	-200,000	0,016	-0,085
-186,373	-200,000	0,000	-0,265
-185,358	-200,000	-0,039	0,137
-184,344	-200,000	0,019	0,187
-183,329	-108,236	-0,054	0,008
-182,315	-200,000	0,024	0,150
-181,300	-117,074	0,041	0,005
-180,285	-76,213	0,072	0,018
-179,271	800,000	-0,016	-0,045
-178,256	343,257	0,125	-0,175
-177,242	800,000	-0,013	0,029
-176,227	-200,000	-0,006	0,081
-175,212	-67,774	0,056	-0,016
-174,198	-46,030	-0,117	-0,041
-173,183	-111,440	-0,158	0,023
-172,169	115,853	0,042	0,036
-171,154	157,562	-0,042	0,041
-170,139	-200,000	0,043	-0,138
-169,125	800,000	0,024	0,062
-168,110	800,000	-0,039	0,117
-167,096	75,155	0,094	-0,070
-166,081	-0,059	-0,224	-0,113
-165,066	132,951	-0,127	-0,117
-164,052	-200,000	-0,017	-0,087
-163,037	-67,227	0,165	0,046
-162,023	-144,776	0,063	-0,004
-161,008	-12,079	0,123	0,057
-159,993	102,612	0,040	0,033
-158,979	-200,000	0,018	-0,143
-157,964	713,630	-0,069	-0,130
-156,950	-132,262	-0,136	-0,012
-155,935	800,000	-0,018	0,044
-154,920	-128,019	0,051	-0,005
-153,906	800,000	-0,017	0,050
-152,891	800,000	0,037	-0,075
-151,877	-200,000	-0,017	-0,144
-150,862	125,010	-0,041	0,037
-149,847	408,023	0,069	0,104
-148,833	793,538	-0,051	0,100
-147,818	-3,534	-0,032	-0,016
-146,804	-59,102	0,081	0,025
-145,789	-17,298	0,079	-0,035
-144,775	800,000	-0,032	-0,097
-143,760	130,727	0,100	0,091
-142,745	485,035	-0,049	-0,080
-141,731	-200,000	-0,027	-0,123
-140,716	101,829	-0,102	-0,085
-139,702	-200,000	-0,002	-0,092
-138,687	-147,410	0,128	0,008
-137,672	-200,000	0,009	-0,115
-136,658	-49,939	0,043	-0,014
-135,643	156,882	-0,084	0,083
-134,629	361,893	0,005	-0,007
-133,614	800,000	0,009	0,022
-132,599	-72,578	-0,082	0,021
-131,585	-200,000	0,018	0,117
-130,570	-200,000	-0,006	0,038
-129,556	-101,691	-0,145	-0,025
-128,541	-58,614	-0,045	0,014
-127,526	-200,000	-0,053	-0,171
-126,512	-125,057	0,233	0,025
-125,497	-32,942	0,109	0,043
-124,483	-200,000	0,012	0,081
-123,468	-200,000	0,001	0,056
-122,453	-200,000	0,007	-0,058
-121,439	-165,889	-0,024	0,001
-120,424	-73,951	-0,080	-0,020
-119,410	800,000	-0,033	-0,074
-118,395	274,112	0,069	0,087
-117,380	-8,543	0,103	0,049
-116,366	-200,000	-0,008	-0,195
-115,351	357,678	-0,114	-0,162
-114,337	150,716	-0,140	-0,135
-113,322	96,335	-0,160	-0,130
-112,307	364,140	0,042	-0,060
-111,293	-7,381	0,066	-0,032
-110,278	-200,000	-0,004	0,066
-109,264	-82,218	-0,034	0,008
-108,249	800,000	-0,021	-0,064
-107,234	800,000	0,043	-0,096
-106,220	-200,000	-0,026	-0,100
-105,205	43,969	-0,012	0,008
-104,191	585,124	-0,054	0,094
-103,176	-125,736	0,050	-0,005
-102,162	3,611	0,022	-0,011
-101,147	200,894	0,039	-0,043
-100,132	-200,000	-0,011	-0,062
-99,118	-200,000	0,012	-0,057
-98,103	132,540	0,012	-0,011
-97,089	-200,000	-0,019	0,111
-96,074	-127,642	0,034	-0,003
-95,059	292,999	0,084	0,109
-94,045	800,000	-0,053	0,124
-93,030	800,000	-0,016	0,033
-92,016	-52,042	-0,139	-0,046
-91,001	800,000	0,050	-0,123
-89,986	452,097	0,084	0,132
-88,972	-200,000	-0,029	0,139
-87,957	-200,000	-0,005	-0,052
-86,943	20,562	0,101	0,058
-85,928	111,229	-0,161	-0,137
-84,913	-82,597	0,027	-0,006
-83,899	-72,326	0,155	-0,040
-82,884	159,966	0,039	0,038
-81,870	-99,568	0,075	0,013
-80,855	1,853	-0,123	-0,063
-79,840	-8,317	0,077	-0,037
-78,826	243,848	-0,053	-0,063
-77,811	-92,305	-0,070	0,014
-76,797	-9,087	-0,054	-0,025
-75,782	374,374	0,126	-0,182
-74,767	-74,431	-0,021	0,005
-73,753	800,000	0,032	0,093
-72,738	800,000	-0,041	0,100
-71,724	265,536	-0,092	-0,114
-70,709	-102,785	0,106	-0,018
-69,694	152,289	-0,035	0,034
-68,680	12,774	-0,030	-0,016
-67,665	530,723	0,042	-0,071
-66,651	24,821	0,111	-0,065
-65,636	-200,000	0,002	-0,025
-64,622	-34,273	0,042	0,016
-63,607	-52,195	0,095	-0,031
-62,592	-200,000	0,012	-0,050
-61,578	-200,000	0,006	0,055
-60,563	800,000	0,029	0,060
-59,549	-200,000	-0,018	0,254
-58,534	-44,417	-1,615	-0,569
-57,519	395,466	-1,376	-2,038
-56,505	-200,000	-0,512	-4,551
-55,490	229,050	0,867	1,003
-54,476	800,000	4,986	11,508
-53,461	-200,000	19,121	319,465
-52,446	-200,000	740,398	2333,988
-51,432	573,692	1655,443	2869,919
-50,417	78,357	1671,001	1262,287
-49,403	21,289	1544,120	885,739
-48,388	15,183	1466,504	811,515
-47,373	17,960	1456,653	819,454
-46,359	16,644	1446,598	807,455
-45,344	13,411	1441,801	789,257
-44,330	13,335	1439,948	787,848
-43,315	13,370	1438,288	787,075
-42,300	13,348	1436,359	785,883
-41,286	13,362	1435,266	785,318
-40,271	13,285	1434,099	784,282
-39,257	13,327	1432,763	783,719
-38,242	13,378	1431,254	783,109
-37,227	13,398	1430,128	782,556
-36,213	13,376	1428,797	781,690
-35,198	13,407	1427,687	781,199
-34,184	13,445	1426,796	780,861
-33,169	13,381	1425,429	779,779
-32,154	13,419	1424,149	779,227
-31,140	13,436	1423,079	778,694
-30,125	13,465	1421,848	778,127
-29,111	13,453	1420,591	777,349
-28,096	13,368	1419,822	776,500
-27,082	13,336	1418,617	775,656
-26,067	13,315	1417,648	774,997
-25,052	13,367	1416,348	774,500
-24,038	13,328	1415,394	773,767
-23,023	13,281	1414,525	773,037
-22,009	13,358	1413,308	772,702
-20,994	13,330	1412,454	772,075
-19,979	13,319	1411,682	771,569
-18,965	13,302	1410,542	770,836
-17,950	13,300	1409,706	770,342
-16,936	13,277	1408,908	769,767
-15,921	13,263	1407,548	768,926
-14,906	13,250	1406,833	768,446
-13,892	13,226	1405,979	767,837
-12,877	13,251	1405,009	767,394
-11,863	13,257	1404,199	766,948
-10,848	13,247	1403,267	766,359
-9,833	13,230	1402,284	765,713
-8,819	13,162	1401,672	765,031
-7,804	13,152	1400,862	764,512
-6,790	13,143	1399,521	763,710
-5,775	13,216	1398,344	763,376
-4,760	13,162	1397,578	762,676
-3,746	13,153	1396,552	762,047
-2,731	13,157	1395,860	761,655
-1,717	13,135	1394,912	761,009
-0,702	13,114	1393,240	759,966
0,313	17,003	1310,009	732,570
1,327	33,237	703,789	431,091
2,342	51,473	123,238	82,714
3,356	3,607	16,615	8,546
4,371	0,055	3,263	1,640
5,386	25,234	0,617	0,362
6,400	-200,000	0,005	0,384
7,415	-103,059	-0,319	-0,053
8,429	64,453	-0,332	-0,236
9,444	92,637	-0,243	-0,194
10,459	39,670	-0,282	-0,178
11,473	-1,495	-0,348	-0,173
12,488	-7,628	-0,189	-0,090
13,502	137,842	-0,300	-0,277
14,517	150,930	-0,310	-0,299
15,531	41,013	-0,365	-0,233
16,546	-30,306	-0,388	-0,155
17,561	122,291	-0,372	-0,329
18,575	-64,698	-0,236	-0,067
19,590	81,916	-0,234	-0,179
20,604	33,978	-0,239	-0,147
21,619	-8,474	-0,467	-0,221
22,634	88,766	-0,467	-0,367
23,648	82,871	-0,516	-0,396
24,663	282,096	-0,316	-0,401
25,677	-49,547	-0,393	-0,131
26,692	327,295	-0,320	-0,434
27,707	11,803	-0,437	-0,236
28,721	152,353	-0,455	-0,438
29,736	94,035	-0,416	-0,333
30,750	56,967	-0,420	-0,289
31,765	19,688	-0,511	-0,290
32,780	651,113	-0,234	-0,425
33,794	178,732	-0,306	-0,316
34,809	94,962	-0,281	-0,225
35,823	76,688	-0,429	-0,321
36,838	51,944	-0,524	-0,351
37,853	62,410	-0,396	-0,278
38,867	130,866	-0,394	-0,357
39,882	101,119	-0,214	-0,175
40,896	30,352	-0,326	-0,196
41,911	-14,455	-0,375	-0,169
42,926	85,592	-0,369	-0,286
43,940	-35,427	-0,389	-0,148
44,955	93,200	-0,323	-0,257
45,969	102,759	-0,265	-0,219
46,984	207,569	-0,271	-0,299
47,999	7,420	-0,345	-0,181
49,013	-15,454	-0,342	-0,153
50,028	-152,950	-0,280	-0,014
51,042	205,790	-0,257	-0,282
52,057	34,138	-0,425	-0,260
53,071	142,908	-0,454	-0,425
54,086	308,658	-0,211	-0,278
55,101	142,203	-0,272	-0,254
56,115	33,559	-0,384	-0,234
57,130	-31,496	-0,412	-0,162
58,144	152,602	-0,288	-0,277
59,159	22,958	-0,381	-0,219
60,174	137,433	-0,396	-0,365
61,188	-22,244	-0,391	-0,166
62,203	-16,027	-0,377	-0,168
63,217	271,126	-0,209	-0,259
64,232	385,401	-0,192	-0,280
65,247	-55,460	-0,439	-0,138
66,261	-88,550	-0,374	-0,078
67,276	-28,167	-0,414	-0,168
68,290	22,298	-0,345	-0,198
69,305	142,723	-0,268	-0,250
70,320	63,038	-0,292	-0,206
71,334	-144,380	-0,254	0,016
72,349	394,839	-0,253	-0,372
73,363	48,271	-0,377	-0,247
74,378	237,822	-0,289	-0,338
75,393	42,874	-0,259	-0,165
76,407	573,640	-0,129	-0,222
77,422	155,677	-0,213	-0,206
78,436	81,913	-0,290	-0,220
79,451	-30,890	-0,349	-0,138
80,466	189,834	-0,250	-0,264
81,480	484,207	-0,214	-0,344
82,495	49,772	-0,276	-0,183
83,509	-0,086	-0,299	-0,149
84,524	21,982	-0,256	-0,146
85,539	85,785	-0,188	-0,145
86,553	-31,111	-0,391	-0,154
87,568	-99,008	-0,353	-0,062
88,582	131,391	-0,357	-0,322
89,597	-9,319	-0,363	-0,169
90,611	119,930	-0,277	-0,241
91,626	37,509	-0,368	-0,229
92,641	91,539	-0,232	-0,183
93,655	183,069	-0,213	-0,221
94,670	-16,773	-0,295	-0,130
95,684	-20,893	-0,437	-0,187
96,699	-18,109	-0,294	-0,128
97,714	62,831	-0,276	-0,193
98,728	0,937	-0,228	-0,114
99,743	98,081	-0,309	-0,250
100,757	-74,312	-0,179	-0,045
101,772	61,318	-0,294	-0,204
102,787	80,183	-0,473	-0,357
103,801	56,327	-0,310	-0,211
104,816	71,618	-0,231	-0,168
105,830	302,043	-0,223	-0,289
106,845	78,893	-0,229	-0,172
107,860	116,304	-0,259	-0,223
108,874	-5,640	-0,230	-0,110
109,889	20,072	-0,301	-0,169
110,903	-12,187	-0,276	-0,126
111,918	73,996	-0,190	-0,140
112,933	-44,800	-0,201	-0,070
113,947	-55,500	-0,261	-0,081
114,962	466,700	-0,144	-0,227
115,976	87,808	-0,234	-0,182
116,991	44,261	-0,195	-0,125
118,006	-122,501	-0,470	0,053
119,020	-61,277	-0,240	-0,070
120,035	-55,892	-0,232	-0,072
121,049	79,675	-0,211	-0,159
122,064	389,912	-0,190	-0,276
123,079	111,279	-0,231	-0,195
124,093	291,563	-0,226	-0,288
125,108	150,637	-0,134	-0,128
126,122	-2,958	-0,298	-0,145
127,137	-3,450	-0,162	-0,078
128,151	491,150	-0,140	-0,226
129,166	-33,888	-0,260	-0,100
130,181	-153,198	-0,232	-0,011
131,195	155,121	-0,209	-0,202
132,210	81,420	-0,312	-0,235
133,224	234,838	-0,164	-0,190
134,239	11,096	-0,327	-0,175
135,254	35,227	-0,161	-0,099
136,268	800,000	-0,113	-0,322
137,283	-38,171	-0,167	-0,062
138,297	58,898	-0,241	-0,165
139,312	3,758	-0,376	-0,191
140,327	237,437	-0,217	-0,252
141,341	248,230	-0,197	-0,233
142,356	25,793	-0,221	-0,128
143,370	44,722	-0,231	-0,148
144,385	165,891	-0,257	-0,254
145,400	-56,120	-0,314	-0,097
146,414	329,511	-0,231	-0,312
147,429	-23,926	-0,245	-0,102
148,443	479,739	-0,151	-0,241
149,458	425,362	-0,125	-0,189
150,473	326,126	-0,167	-0,224
151,487	-29,433	-0,280	-0,111
152,502	-5,133	-0,316	-0,151
153,516	75,875	-0,353	-0,260
154,531	96,373	-0,279	-0,223
155,546	399,407	-0,134	-0,197
156,560	209,277	-0,139	-0,152
157,575	-95,920	-0,121	-0,022
158,589	314,233	-0,097	-0,127
159,604	205,974	-0,196	-0,214
160,619	-93,369	-0,237	-0,046
161,633	216,757	-0,235	-0,261
162,648	800,000	-0,119	-0,250
163,662	-109,957	-0,187	-0,027
164,677	217,130	-0,235	-0,261
165,692	22,815	-0,226	-0,129
166,706	30,448	-0,162	-0,096
167,721	52,159	-0,224	-0,149
168,735	233,415	-0,249	-0,286
169,750	-56,382	-0,354	-0,109
170,764	167,952	-0,182	-0,181
171,779	800,000	-0,059	-0,180
172,794	-35,722	-0,135	-0,051
173,808	-46,809	-0,237	-0,080
174,823	20,317	-0,261	-0,147
175,837	142,146	-0,308	-0,285
176,852	174,947	-0,147	-0,149
177,867	45,370	-0,302	-0,194
178,881	800,000	-0,062	-0,125
179,896	373,716	-0,133	-0,189
180,910	173,449	-0,130	-0,131
181,925	574,967	-0,241	-0,412
182,940	284,962	-0,228	-0,286
183,954	56,474	-0,253	-0,171
184,969	57,801	-0,161	-0,110
185,983	-62,777	-0,271	-0,077
186,998	15,503	-0,188	-0,103
188,013	-71,748	-0,297	-0,077
189,027	-29,825	-0,267	-0,105
190,042	111,537	-0,240	-0,201
191,056	-35,670	-0,281	-0,105
192,071	47,760	-0,215	-0,139
193,086	-28,146	-0,157	-0,063
194,100	-46,004	-0,219	-0,075
195,115	-65,938	-0,205	-0,057
196,129	551,373	-0,114	-0,191
197,144	54,875	-0,165	-0,111
198,159	91,535	-0,130	-0,102
199,173	34,783	-0,090	-0,054
200,188	-102,804	-0,168	0,027
201,202	13,065	-0,203	-0,109
202,217	-40,178	-0,266	-0,096
203,232	-51,332	-0,173	-0,056
204,246	35,859	-0,273	-0,167
205,261	54,353	-0,144	-0,096
206,275	96,291	-0,130	-0,103
207,290	-107,319	-0,085	0,013
208,304	246,777	-0,165	-0,193
209,319	800,000	-0,085	-0,200
210,334	107,296	-0,239	-0,197
211,348	-42,921	-0,258	-0,091
212,363	246,337	-0,189	-0,221
213,377	205,812	-0,141	-0,153
214,392	-31,838	-0,163	-0,063
215,407	-85,780	-0,231	-0,049
216,421	103,495	-0,217	-0,177
217,436	25,297	-0,212	-0,122
218,450	52,052	-0,196	-0,129
219,465	-200,000	0,005	-0,151
220,480	1,346	-0,219	-0,109
221,494	-5,299	-0,140	-0,066
222,509	-200,000	-0,031	-0,114
223,523	118,291	-0,204	-0,175
224,538	800,000	-0,138	-0,342
225,553	-3,561	-0,270	-0,130
226,567	-14,846	-0,161	-0,071
227,582	84,213	-0,181	-0,137
228,596	83,721	-0,065	-0,049
229,611	89,967	-0,098	-0,076
230,626	13,396	-0,270	-0,145
231,640	-18,764	-0,265	-0,114
232,655	-15,570	-0,210	-0,093
233,669	800,000	-0,107	-0,267
234,684	401,282	-0,202	-0,294
235,699	322,915	-0,069	-0,092
236,713	-200,000	-0,051	-0,165
237,728	-47,955	-0,093	-0,031
238,742	78,400	-0,195	-0,144
239,757	76,097	-0,148	-0,109
240,772	88,841	-0,203	-0,157
241,786	-122,737	-0,108	-0,012
242,801	406,853	-0,098	-0,143
243,815	196,204	-0,087	-0,092
244,830	53,465	-0,093	0,061
245,844	13,304	-0,101	-0,054
246,859	12,429	-0,216	-0,115
247,874	16,504	-0,155	-0,084
248,888	68,060	-0,220	-0,156
249,903	-37,440	-0,159	0,058
250,917	-23,621	-0,134	-0,056
251,932	-11,810	-0,225	-0,102
252,947	-20,314	-0,187	-0,079
253,961	80,833	-0,109	-0,082
254,976	71,272	-0,137	-0,098
255,990	194,001	-0,105	-0,110
257,005	494,211	0,026	-0,041
258,020	9,568	-0,225	-0,117
259,034	35,699	-0,175	-0,106
260,049	488,930	-0,107	-0,170
261,063	192,374	-0,156	-0,163
262,078	93,147	-0,182	-0,142
263,093	-200,000	-0,044	-0,232
264,107	151,000	-0,206	-0,194
265,122	87,579	-0,117	-0,089
266,136	-161,922	-0,194	0,007
267,151	-88,049	-0,072	0,015
268,166	91,110	-0,143	-0,111
269,180	-160,982	-0,154	-0,005
270,195	-11,880	-0,262	-0,118
271,209	405,369	-0,069	-0,101
272,224	131,436	-0,161	-0,143
273,239	193,815	-0,194	-0,204
274,253	-3,476	-0,203	-0,097
275,268	21,254	-0,236	-0,132
276,282	-81,148	-0,271	-0,061
277,297	10,121	-0,280	-0,147
278,312	58,041	-0,196	-0,132
279,326	412,422	-0,089	-0,132
280,341	148,043	-0,093	-0,087
281,355	-32,620	-0,087	0,033
282,370	-68,005	-0,149	-0,040
283,384	412,998	-0,126	-0,186
284,399	51,651	-0,207	-0,136
285,414	202,764	-0,128	-0,137
286,428	-87,380	-0,157	-0,033
287,443	126,718	-0,072	-0,063
288,457	50,666	-0,145	-0,095
289,472	332,449	-0,123	-0,164
290,487	127,574	-0,112	-0,099
291,501	17,563	-0,088	-0,048
292,516	800,000	-0,084	-0,202
293,530	58,904	-0,183	-0,124
294,545	309,345	0,025	0,032
295,560	-186,366	-0,109	-0,001
296,574	-150,093	-0,165	0,009
297,589	44,074	-0,162	-0,102
298,603	152,677	-0,172	-0,162
299,618	-74,783	-0,209	-0,051
300,633	352,805	-0,132	-0,182
301,647	446,417	-0,090	-0,137
302,662	20,488	-0,216	-0,120
303,676	22,497	-0,224	-0,126
304,691	157,965	-0,193	-0,185
305,706	137,009	-0,133	-0,120
306,720	108,930	-0,170	-0,140
307,735	-131,095	-0,186	-0,017
308,749	21,766	-0,181	-0,101
309,764	-25,026	-0,174	-0,071
310,779	146,398	-0,135	-0,125
311,793	30,029	-0,159	-0,093
312,808	54,073	-0,105	-0,070
313,822	-3,203	-0,168	-0,080
314,837	150,246	-0,086	-0,080
315,852	31,006	-0,154	-0,091
316,866	-152,589	-0,099	-0,005
317,881	297,287	-0,143	-0,181
318,895	67,898	-0,190	-0,134
319,910	-200,000	-0,018	-0,144
320,925	39,927	-0,187	-0,115
321,939	800,000	-0,094	-0,245
322,954	541,927	-0,078	-0,128
323,968	24,945	-0,100	-0,057
324,983	102,337	-0,161	-0,130
325,997	412,382	-0,096	-0,141
327,012	43,131	-0,153	-0,096
328,027	131,351	-0,156	-0,137
329,041	332,312	-0,115	-0,153
330,056	199,907	-0,059	-0,063
331,070	628,596	-0,075	-0,131
332,085	-110,724	-0,154	-0,022
333,100	-22,383	-0,200	-0,083
334,114	-142,422	-0,128	-0,009
335,129	91,842	-0,184	-0,142
336,143	800,000	-0,037	-0,083
337,158	367,453	-0,065	-0,091
338,173	274,544	-0,081	-0,099
339,187	56,119	-0,130	-0,086
340,202	-200,000	-0,047	-0,183
341,216	800,000	-0,129	-0,306
342,231	-200,000	-0,030	-0,216
343,246	-55,196	-0,112	-0,034
344,260	166,034	-0,098	-0,095
345,275	113,223	-0,085	-0,071
346,289	159,781	-0,148	-0,142
347,304	287,649	-0,041	0,051
348,319	-200,000	-0,042	-0,162
349,333	-134,665	-0,243	-0,020
350,348	67,977	-0,194	-0,136
351,362	191,831	-0,068	-0,070
352,377	-90,836	-0,075	0,015
353,392	-66,260	0,021	-0,006
354,406	-200,000	-0,011	-0,188
355,421	209,606	1313,636	1414,441
356,435	161,331	1474,220	1414,934
