DTS Sentinel unit serial number:	SN410029Multiplexer serial number:	ORYXHardware model number:	OX2-SRSoftware version number:	ORYX F/W v4,00 Oryx Data Collector v3.7.2.0data status	okinstallation	B3 Nyhavnadifferential loss correction	single-endedforward channel	channel 1reverse channel	N/Adate	2023/12/04time	02:02:30forward acquisition time	300,00reverse acquisition time	0,00gamma	499,1914k internal	0,3204k external	0,3204temperature offset calibration	1,0000default loss term (dB/km)	0,3820temperature slope calibration	1,0000multiplexer offset coefficient	1,0000multiplexer slope coefficient	1,0000fibre end	0,00T internal ref (°C)	12,33T ext. ref 1 (°C)	-2,92T ext. ref 2 (°C)	-2,95length (m)	temperature (°C)	Stokes	anti-Stokes-744,400	270,276	-0,242	-0,309
-743,385	-200,000	-0,006	0,196
-742,371	800,000	-0,088	-0,241
-741,356	800,000	0,042	0,116
-740,342	111,756	-0,242	-0,212
-739,327	800,000	-0,102	0,268
-738,312	215,470	-0,166	-0,192
-737,298	-200,000	0,017	0,169
-736,283	752,766	-0,123	-0,242
-735,269	648,828	0,155	0,290
-734,254	32,443	-0,238	-0,149
-733,239	-127,648	-0,240	0,025
-732,225	-200,000	-0,036	-0,238
-731,210	800,000	-0,052	0,113
-730,196	-200,000	0,016	0,076
-729,181	403,003	-0,036	-0,056
-728,167	-17,992	0,073	0,033
-727,152	150,445	-0,086	-0,085
-726,137	95,999	-0,095	-0,079
-725,123	54,342	-0,119	-0,083
-724,108	448,042	-0,068	-0,109
-723,094	179,091	-0,093	-0,099
-722,079	658,424	-0,079	-0,147
-721,064	-200,000	0,001	-0,006
-720,050	74,266	-0,059	-0,045
-719,035	-200,000	-0,035	-0,121
-718,021	-200,000	0,007	0,063
-717,006	-31,103	-0,127	0,052
-715,991	-122,623	-0,109	-0,013
-714,977	108,265	0,082	-0,071
-713,962	-61,104	-0,079	-0,024
-712,948	800,000	-0,048	-0,136
-711,933	128,081	-0,006	-0,005
-710,918	201,574	-0,025	-0,028
-709,904	403,049	-0,036	0,056
-708,889	297,753	-0,100	-0,134
-707,875	-107,316	-0,150	0,024
-706,860	800,000	0,042	-0,099
-705,845	-111,500	0,059	0,009
-704,831	-117,141	0,149	-0,019
-703,816	290,537	-0,072	-0,095
-702,802	266,266	-0,099	-0,126
-701,787	-100,487	-0,101	-0,018
-700,772	61,913	-0,112	-0,081
-699,758	-57,703	-0,026	-0,008
-698,743	236,553	0,052	0,063
-697,729	31,610	0,058	-0,036
-696,714	-56,895	0,039	-0,013
-695,699	580,265	-0,071	-0,127
-694,685	-125,073	-0,083	-0,009
-693,670	53,499	-0,053	-0,037
-692,656	-27,520	0,068	-0,028
-691,641	-200,000	0,001	-0,080
-690,627	-74,394	0,025	0,006
-689,612	81,249	0,102	0,080
-688,597	-200,000	0,008	-0,038
-687,583	114,518	-0,071	-0,063
-686,568	96,172	0,048	-0,040
-685,554	-16,846	0,042	0,019
-684,539	-91,100	-0,060	-0,012
-683,524	-200,000	0,004	0,043
-682,510	70,477	-0,052	0,039
-681,495	-70,158	-0,034	-0,009
-680,481	-200,000	0,008	0,053
-679,466	16,148	-0,199	0,113
-678,451	-25,018	0,117	-0,050
-677,437	-200,000	0,007	-0,106
-676,422	53,099	-0,037	-0,026
-675,408	-133,502	0,107	-0,010
-674,393	-54,397	-0,044	-0,014
-673,378	-22,611	0,047	0,021
-672,364	-200,000	0,003	0,089
-671,349	56,226	-0,086	0,060
-670,335	665,809	-0,021	-0,040
-669,320	510,319	0,085	0,143
-668,305	-200,000	-0,011	0,166
-667,291	-200,000	-0,028	0,102
-666,276	-200,000	0,006	0,066
-665,262	155,135	-0,106	-0,106
-664,247	446,924	-0,019	-0,030
-663,232	258,825	-0,082	0,103
-662,218	84,384	-0,025	0,020
-661,203	-129,051	0,118	-0,012
-660,189	59,657	0,017	-0,012
-659,174	800,000	-0,033	-0,082
-658,159	176,333	-0,048	-0,050
-657,145	107,203	0,013	-0,011
-656,130	800,000	-0,051	-0,138
-655,116	120,717	0,057	-0,051
-654,101	-114,542	0,049	-0,007
-653,086	-200,000	-0,020	0,110
-652,072	185,001	0,137	-0,147
-651,057	-150,635	-0,152	0,008
-650,043	-200,000	-0,015	-0,216
-649,028	76,916	0,032	-0,025
-648,014	-69,495	0,108	0,030
-646,999	800,000	-0,020	0,056
-645,984	106,841	0,102	0,088
-644,970	76,559	0,055	-0,043
-643,955	78,649	-0,209	-0,161
-642,941	-104,971	-0,139	-0,023
-641,926	342,752	-0,073	-0,104
-640,911	-17,700	0,163	0,074
-639,897	44,972	0,037	-0,025
-638,882	-4,710	0,037	0,018
-637,868	-70,326	-0,091	-0,025
-636,853	218,363	-0,049	-0,057
-635,838	322,479	-0,040	-0,056
-634,824	-200,000	-0,012	-0,179
-633,809	-200,000	-0,119	-0,000
-632,795	-29,496	0,122	0,050
-631,780	-165,291	-0,030	0,001
-630,765	-200,000	-0,005	0,038
-629,751	232,492	0,042	0,051
-628,736	461,602	-0,041	-0,066
-627,722	590,682	-0,032	0,058
-626,707	355,681	0,048	0,070
-625,692	57,055	0,107	0,075
-624,678	800,000	-0,049	0,113
-623,663	76,689	-0,137	0,105
-622,649	-200,000	0,022	0,108
-621,634	-200,000	-0,037	0,129
-620,619	-200,000	-0,009	-0,048
-619,605	-66,868	-0,071	0,020
-618,590	-200,000	0,021	0,184
-617,576	61,733	0,039	0,028
-616,561	-200,000	0,012	-0,120
-615,546	-200,000	-0,014	0,057
-614,532	-78,371	-0,143	-0,035
-613,517	-200,000	-0,017	-0,078
-612,503	-200,000	0,052	-0,179
-611,488	800,000	0,011	0,031
-610,474	-200,000	-0,006	0,076
-609,459	57,992	0,068	0,048
-608,444	800,000	-0,058	-0,136
-607,430	-35,749	-0,068	-0,027
-606,415	-200,000	-0,036	-0,144
-605,401	210,840	0,047	0,053
-604,386	-171,011	0,096	0,002
-603,371	-144,447	0,068	0,005
-602,357	-66,049	-0,092	-0,026
-601,342	-200,000	-0,004	0,056
-600,328	103,272	0,078	0,066
-599,313	-200,000	0,002	0,050
-598,298	4,945	-0,088	-0,047
-597,284	244,473	0,076	0,093
-596,269	223,904	0,081	0,094
-595,255	204,079	0,009	-0,010
-594,240	17,567	-0,072	-0,041
-593,225	52,822	0,064	-0,044
-592,211	800,000	0,050	-0,142
-591,196	619,118	0,047	0,086
-590,182	-16,282	0,124	0,057
-589,167	800,000	-0,036	0,113
-588,152	630,969	0,063	-0,116
-587,138	42,081	-0,030	-0,019
-586,123	-200,000	0,029	0,108
-585,109	55,097	-0,032	0,022
-584,094	800,000	-0,008	-0,022
-583,079	-137,111	0,052	0,004
-582,065	88,057	0,076	0,061
-581,050	-200,000	0,023	0,120
-580,036	800,000	0,002	0,003
-579,021	-106,862	0,027	0,004
-578,006	-94,808	-0,070	-0,014
-576,992	317,785	0,084	-0,115
-575,977	-200,000	0,023	0,101
-574,963	-86,772	0,093	-0,020
-573,948	217,565	0,063	-0,072
-572,934	800,000	-0,051	0,107
-571,919	-13,884	-0,066	-0,031
-570,904	-125,438	-0,162	-0,018
-569,890	800,000	-0,052	-0,116
-568,875	-76,018	-0,059	-0,015
-567,861	506,223	-0,026	-0,044
-566,846	-128,967	-0,066	-0,007
-565,831	-200,000	0,021	0,072
-564,817	38,649	-0,159	0,102
-563,802	260,046	-0,011	-0,014
-562,788	-66,951	-0,057	-0,016
-561,773	53,805	0,124	0,086
-560,758	164,746	0,108	0,110
-559,744	-120,975	0,061	0,007
-558,729	-69,908	-0,041	0,011
-557,715	297,092	0,056	-0,074
-556,700	-200,000	-0,029	0,197
-555,685	112,267	-0,073	0,063
-554,671	800,000	-0,054	-0,128
-553,656	151,931	-0,055	0,054
-552,642	-127,670	0,084	-0,009
-551,627	-48,357	-0,077	-0,027
-550,612	-169,254	0,107	0,003
-549,598	134,985	-0,101	-0,095
-548,583	173,951	-0,047	-0,049
-547,569	-68,573	-0,098	-0,027
-546,554	-33,915	0,144	-0,057
-545,539	310,555	0,035	0,047
-544,525	290,900	0,045	-0,059
-543,510	-164,382	0,058	0,002
-542,496	-62,424	-0,050	0,015
-541,481	-185,853	-0,128	0,001
-540,466	10,529	0,109	0,060
-539,452	-61,706	-0,051	0,015
-538,437	136,946	0,096	0,090
-537,423	416,250	0,037	0,058
-536,408	45,447	-0,091	0,060
-535,393	59,538	-0,091	-0,065
-534,379	-200,000	0,002	0,063
-533,364	-61,466	-0,068	0,021
-532,350	2,241	0,108	0,056
-531,335	800,000	0,036	0,112
-530,321	-200,000	-0,008	0,102
-529,306	-200,000	0,003	-0,050
-528,291	-23,203	0,080	-0,035
-527,277	325,416	0,028	-0,038
-526,262	-200,000	-0,001	0,168
-525,248	800,000	-0,059	0,148
-524,233	800,000	0,056	0,128
-523,218	-77,347	-0,019	-0,005
-522,204	-200,000	0,006	0,070
-521,189	800,000	-0,032	0,088
-520,175	106,144	-0,215	-0,184
-519,160	-41,592	0,073	-0,027
-518,145	-1,258	-0,128	0,065
-517,131	271,464	-0,017	-0,022
-516,116	-44,711	-0,044	0,016
-515,102	225,089	0,046	-0,054
-514,087	-11,447	-0,082	-0,039
-513,072	17,744	0,130	-0,074
-512,058	107,178	-0,146	-0,125
-511,043	476,509	-0,053	0,086
-510,029	-109,770	0,033	-0,005
-509,014	-200,000	0,003	0,146
-507,999	-200,000	-0,021	-0,100
-506,985	781,300	0,070	-0,139
-505,970	560,978	-0,037	0,065
-504,956	-166,977	-0,122	-0,004
-503,941	-31,023	0,025	-0,010
-502,926	390,685	0,058	-0,086
-501,912	549,032	-0,035	0,061
-500,897	10,258	-0,055	0,030
-499,883	-8,304	0,119	0,057
-498,868	645,673	0,061	-0,113
-497,853	-33,297	-0,242	0,096
-496,839	413,803	0,031	0,047
-495,824	141,619	0,055	-0,053
-494,810	713,090	-0,026	-0,050
-493,795	-72,411	-0,068	-0,018
-492,781	-200,000	-0,028	0,129
-491,766	209,877	-0,037	0,042
-490,751	800,000	0,026	-0,080
-489,737	-25,876	0,054	-0,023
-488,722	-200,000	0,022	0,075
-487,708	313,404	0,041	0,056
-486,693	-75,005	0,095	0,024
-485,678	-200,000	-0,009	-0,031
-484,664	121,435	0,047	-0,042
-483,649	800,000	0,053	-0,166
-482,635	231,678	0,073	0,087
-481,620	314,876	0,062	-0,084
-480,605	800,000	0,080	-0,197
-479,591	-74,263	0,073	-0,019
-478,576	-105,700	0,071	0,011
-477,562	-200,000	0,003	-0,021
-476,547	66,625	-0,035	0,026
-475,532	800,000	-0,012	-0,026
-474,518	-200,000	-0,009	-0,038
-473,503	-200,000	0,022	-0,072
-472,489	800,000	0,050	0,152
-471,474	43,615	0,026	-0,017
-470,459	800,000	-0,066	-0,163
-469,445	-87,548	-0,113	0,024
-468,430	30,873	0,071	0,044
-467,416	800,000	-0,025	0,064
-466,401	800,000	-0,031	0,089
-465,386	-151,840	0,052	0,003
-464,372	125,323	-0,074	-0,067
-463,357	19,980	0,052	0,030
-462,343	-55,245	-0,025	-0,008
-461,328	800,000	0,030	-0,063
-460,313	-200,000	0,020	-0,117
-459,299	800,000	0,042	0,093
-458,284	-200,000	-0,024	-0,101
-457,270	109,611	0,020	0,017
-456,255	16,314	-0,108	-0,061
-455,241	-200,000	-0,013	-0,077
-454,226	404,863	0,044	0,067
-453,211	-200,000	0,017	-0,086
-452,197	-64,409	0,036	-0,011
-451,182	-113,714	-0,062	0,009
-450,168	243,944	0,054	0,065
-449,153	-94,272	-0,108	-0,021
-448,138	-96,831	-0,123	-0,023
-447,124	444,977	0,032	0,050
-446,109	-109,588	0,070	-0,011
-445,095	800,000	0,036	0,093
-444,080	90,929	0,010	0,008
-443,065	-53,517	-0,087	-0,028
-442,051	20,823	0,072	0,042
-441,036	138,491	-0,038	0,036
-440,022	-99,697	-0,124	-0,022
-439,007	94,110	0,036	0,029
-437,992	-2,201	0,057	0,029
-436,978	800,000	0,055	0,147
-435,963	-200,000	-0,022	0,185
-434,949	800,000	0,025	-0,057
-433,934	-50,715	-0,076	0,025
-432,919	262,103	-0,089	-0,111
-431,905	146,169	-0,092	-0,089
-430,890	-200,000	0,007	-0,080
-429,876	-200,000	0,026	0,152
-428,861	-147,978	0,149	-0,009
-427,846	440,524	0,049	0,077
-426,832	-166,245	0,032	0,001
-425,817	475,013	-0,065	-0,106
-424,803	-1,243	-0,069	0,035
-423,788	-95,293	0,159	0,030
-422,773	-10,253	-0,045	0,021
-421,759	71,502	0,027	0,020
-420,744	72,217	0,047	0,035
-419,730	120,248	-0,135	-0,120
-418,715	-200,000	-0,055	-0,198
-417,701	81,226	-0,243	-0,188
-416,686	66,513	-0,061	0,044
-415,671	-117,665	0,141	-0,018
-414,657	447,589	-0,058	0,092
-413,642	25,950	0,055	0,033
-412,628	106,508	0,038	-0,032
-411,613	-37,120	0,038	-0,015
-410,598	-62,780	0,129	-0,038
-409,584	-200,000	-0,001	0,028
-408,569	-62,909	0,107	-0,032
-407,555	800,000	-0,032	0,092
-406,540	800,000	0,049	-0,098
-405,525	-29,449	-0,063	-0,026
-404,511	-195,046	0,077	0,000
-403,496	-80,735	-0,096	-0,023
-402,482	283,008	0,094	0,121
-401,467	82,934	0,044	-0,034
-400,452	145,269	-0,052	0,050
-399,438	93,329	0,101	-0,082
-398,423	-200,000	0,007	-0,083
-397,409	800,000	-0,021	0,049
-396,394	85,083	-0,054	-0,043
-395,379	82,889	-0,082	-0,064
-394,365	-200,000	0,018	0,141
-393,350	-200,000	-0,017	0,170
-392,336	498,222	-0,060	-0,099
-391,321	-184,794	-0,072	0,001
-390,306	-60,680	-0,085	0,026
-389,292	138,139	-0,074	0,070
-388,277	800,000	-0,060	-0,158
-387,263	-200,000	0,002	-0,054
-386,248	685,150	0,026	0,049
-385,233	-200,000	-0,005	0,108
-384,219	-200,000	0,024	-0,153
-383,204	-69,013	-0,056	0,015
-382,190	-77,876	0,065	0,016
-381,175	357,347	-0,095	-0,137
-380,160	225,688	0,072	-0,084
-379,146	460,082	0,019	-0,031
-378,131	71,854	-0,044	0,033
-377,117	-200,000	0,001	-0,004
-376,102	711,515	-0,033	-0,064
-375,088	-109,485	0,036	-0,005
-374,073	53,835	0,034	0,023
-373,058	89,450	0,086	0,069
-372,044	-76,746	0,101	0,025
-371,029	-86,834	0,123	0,027
-370,015	597,614	0,024	0,043
-369,000	-55,760	-0,023	-0,007
-367,985	-149,680	-0,068	0,004
-366,971	-200,000	-0,048	0,153
-365,956	-165,066	0,091	-0,003
-364,942	86,569	0,015	0,012
-363,927	147,790	0,068	-0,066
-362,912	-56,252	0,042	-0,013
-361,898	120,114	0,070	-0,062
-360,883	58,373	-0,061	-0,043
-359,869	41,678	-0,128	-0,083
-358,854	-48,472	0,065	0,022
-357,839	-200,000	-0,013	0,213
-356,825	-169,701	0,105	-0,003
-355,810	170,742	-0,160	0,164
-354,796	124,014	-0,063	-0,057
-353,781	-200,000	0,007	-0,074
-352,766	-41,950	0,092	0,033
-351,752	6,408	0,081	0,043
-350,737	538,751	0,046	0,079
-349,723	255,457	0,077	0,095
-348,708	2,180	0,091	-0,047
-347,693	-200,000	-0,021	-0,140
-346,679	44,513	0,058	-0,038
-345,664	-200,000	0,009	0,074
-344,650	29,293	-0,018	0,011
-343,635	14,722	0,020	0,011
-342,620	-200,000	-0,042	0,139
-341,606	-137,743	0,030	0,002
-340,591	-200,000	-0,018	0,067
-339,577	121,162	-0,083	-0,074
-338,562	800,000	-0,015	0,039
-337,548	722,449	-0,041	-0,079
-336,533	-57,597	0,072	-0,022
-335,518	-104,765	0,101	0,016
-334,504	10,882	-0,044	0,024
-333,489	-137,747	0,076	0,006
-332,475	377,696	0,028	0,041
-331,460	800,000	0,078	-0,180
-330,445	-200,000	0,003	-0,055
-329,431	157,955	0,036	-0,036
-328,416	-47,105	0,058	0,020
-327,402	160,470	0,133	0,132
-326,387	101,532	0,118	0,098
-325,372	85,364	-0,082	-0,065
-324,358	-186,652	-0,040	-0,000
-323,343	-18,338	0,092	0,041
-322,329	-58,902	0,047	0,014
-321,314	-123,738	-0,024	-0,003
-320,299	13,963	-0,171	0,095
-319,285	-200,000	0,005	0,045
-318,270	-108,236	-0,192	-0,029
-317,256	800,000	0,037	-0,086
-316,241	-200,000	-0,005	-0,065
-315,226	-21,555	0,057	0,025
-314,212	-200,000	-0,015	0,098
-313,197	-200,000	0,020	0,085
-312,183	150,960	0,050	-0,048
-311,168	153,225	-0,109	0,107
-310,153	127,777	-0,101	0,092
-309,139	628,373	-0,065	0,118
-308,124	-200,000	0,059	0,202
-307,110	676,307	0,081	-0,151
-306,095	35,480	0,060	-0,037
-305,080	103,272	0,070	-0,058
-304,066	29,897	-0,147	-0,089
-303,051	800,000	-0,020	0,049
-302,037	0,943	-0,019	-0,010
-301,022	-56,554	-0,018	0,006
-300,008	400,166	0,051	-0,077
-298,993	-200,000	0,012	0,079
-297,978	334,732	-0,075	0,104
-296,964	260,412	0,062	0,077
-295,949	210,558	-0,023	0,025
-294,935	-82,132	0,093	-0,021
-293,920	676,708	-0,084	-0,157
-292,905	417,991	0,099	-0,151
-291,891	71,966	0,006	0,004
-290,876	124,181	-0,150	-0,134
-289,862	132,476	0,074	-0,069
-288,847	597,683	-0,089	-0,157
-287,832	800,000	0,019	-0,059
-286,818	-26,241	0,056	0,023
-285,803	-1,074	0,112	0,056
-284,789	90,282	0,084	0,067
-283,774	800,000	0,057	0,160
-282,759	-118,583	0,093	-0,012
-281,745	180,812	-0,016	-0,016
-280,730	481,556	-0,108	-0,176
-279,716	795,993	0,071	0,140
-278,701	793,238	0,071	-0,139
-277,686	-117,145	0,121	-0,016
-276,672	251,264	0,115	0,140
-275,657	-56,951	-0,102	-0,032
-274,643	-8,820	-0,065	0,031
-273,628	-167,863	-0,073	-0,002
-272,613	-32,873	0,124	-0,049
-271,599	210,983	-0,070	0,079
-270,584	230,452	-0,057	0,067
-269,570	800,000	-0,057	0,149
-268,555	161,497	0,024	0,024
-267,540	-119,495	-0,071	-0,009
-266,526	800,000	-0,054	-0,116
-265,511	642,464	0,029	-0,052
-264,497	-200,000	-0,009	-0,032
-263,482	148,234	0,085	0,081
-262,467	-200,000	-0,005	-0,149
-261,453	91,077	-0,048	-0,039
-260,438	133,655	-0,021	0,020
-259,424	-16,823	-0,134	-0,060
-258,409	-108,345	0,042	-0,006
-257,395	400,854	0,074	-0,111
-256,380	-148,512	-0,125	-0,007
-255,365	82,971	0,089	0,069
-254,351	603,427	-0,056	0,100
-253,336	17,135	0,142	-0,080
-252,322	-30,606	-0,048	0,019
-251,307	171,283	0,046	0,047
-250,292	85,643	-0,058	-0,045
-249,278	11,407	-0,138	0,075
-248,263	432,296	0,085	0,131
-247,249	-133,224	-0,011	0,001
-246,234	43,291	-0,099	-0,065
-245,219	128,174	-0,017	-0,016
-244,205	-140,515	0,065	-0,005
-243,190	12,538	-0,062	0,034
-242,176	180,795	0,024	0,025
-241,161	134,143	0,097	0,090
-240,146	-200,000	0,002	-0,130
-239,132	-39,059	-0,130	-0,048
-238,117	800,000	-0,081	-0,241
-237,103	-200,000	-0,056	-0,187
-236,088	666,208	-0,016	-0,030
-235,073	101,469	0,035	-0,029
-234,059	134,959	-0,061	0,056
-233,044	379,160	0,104	0,152
-232,030	732,311	0,032	0,061
-231,015	65,021	-0,108	-0,078
-230,000	165,409	-0,057	0,058
-228,986	-200,000	0,008	-0,126
-227,971	23,847	-0,114	0,067
-226,957	-74,930	0,105	0,027
-225,942	701,975	-0,053	0,100
-224,927	23,769	0,128	0,075
-223,913	800,000	-0,067	-0,138
-222,898	-200,000	-0,011	-0,177
-221,884	88,078	0,062	-0,049
-220,869	-100,954	-0,080	0,014
-219,855	800,000	-0,049	-0,102
-218,840	-200,000	-0,000	0,121
-217,825	28,241	0,121	0,073
-216,811	-155,873	-0,052	-0,002
-215,796	146,688	0,065	-0,062
-214,782	-200,000	-0,016	-0,080
-213,767	95,057	0,089	-0,072
-212,752	143,371	0,047	-0,045
-211,738	-200,000	0,000	0,052
-210,723	114,652	0,069	0,060
-209,709	800,000	-0,048	-0,098
-208,694	326,769	-0,039	-0,054
-207,679	-126,578	0,152	0,016
-206,665	5,022	-0,052	0,027
-205,650	800,000	0,036	0,111
-204,636	-37,790	0,047	0,018
-203,621	52,085	0,057	0,039
-202,606	167,290	-0,078	-0,079
-201,592	96,645	-0,078	-0,064
-200,577	210,240	0,047	-0,052
-199,563	207,949	-0,041	-0,045
-198,548	264,854	-0,046	0,058
-197,533	-126,648	0,117	0,012
-196,519	775,541	0,040	-0,078
-195,504	127,671	-0,101	0,091
-194,490	-200,000	0,000	-0,153
-193,475	169,850	-0,120	-0,122
-192,460	-52,279	0,021	0,007
-191,446	-109,318	-0,068	-0,010
-190,431	-123,409	0,143	0,016
-189,417	-160,166	0,041	-0,002
-188,402	-17,760	-0,157	0,070
-187,387	-200,000	0,011	0,105
-186,373	12,739	-0,077	-0,042
-185,358	567,816	0,101	-0,176
-184,344	-200,000	-0,013	0,057
-183,329	83,104	0,072	0,055
-182,315	592,836	-0,096	0,170
-181,300	-185,620	-0,039	0,000
-180,285	-128,964	-0,118	-0,012
-179,271	-84,933	-0,046	0,010
-178,256	-84,663	-0,097	-0,021
-177,242	-5,450	0,057	-0,028
-176,227	252,408	0,053	0,064
-175,212	132,348	-0,111	0,102
-174,198	-110,098	-0,111	-0,016
-173,183	-23,696	-0,113	-0,048
-172,169	559,889	-0,020	-0,035
-171,154	179,995	0,074	-0,077
-170,139	800,000	-0,049	0,104
-169,125	-200,000	0,000	0,045
-168,110	-34,849	0,119	-0,046
-167,096	-20,118	0,072	0,031
-166,081	581,928	0,093	-0,162
-165,066	19,830	-0,149	-0,085
-164,052	-127,221	0,060	-0,006
-163,037	109,428	-0,054	0,046
-162,023	-15,397	0,056	0,025
-161,008	343,614	-0,036	-0,051
-159,993	800,000	-0,056	-0,112
-158,979	64,589	-0,072	0,051
-157,964	-59,385	0,064	0,019
-156,950	800,000	-0,027	0,058
-155,935	157,373	0,160	-0,157
-154,920	159,652	0,029	-0,028
-153,906	-52,286	0,072	-0,024
-152,891	277,918	-0,009	0,011
-151,877	-127,169	-0,059	0,006
-150,862	541,452	-0,048	0,081
-149,847	179,928	-0,047	-0,049
-148,833	-200,000	-0,006	-0,076
-147,818	-12,261	0,064	0,030
-146,804	473,072	-0,052	0,083
-145,789	-200,000	0,006	-0,056
-144,775	-200,000	-0,024	-0,147
-143,760	-200,000	0,062	0,300
-142,745	507,602	0,054	0,089
-141,731	-200,000	0,008	0,034
-140,716	319,269	0,099	-0,134
-139,702	-88,810	0,074	0,015
-138,687	800,000	0,034	0,092
-137,672	-200,000	-0,001	-0,041
-136,658	167,828	-0,064	0,065
-135,643	-121,773	-0,074	-0,009
-134,629	185,970	0,124	-0,131
-133,614	800,000	0,079	0,159
-132,599	800,000	-0,017	0,041
-131,585	800,000	-0,021	-0,059
-130,570	430,831	0,059	-0,091
-129,556	-200,000	0,006	-0,032
-128,541	175,717	-0,066	-0,068
-127,526	212,971	0,060	-0,067
-126,512	-112,855	0,112	-0,016
-125,497	793,094	0,081	0,158
-124,483	-200,000	0,000	0,003
-123,468	800,000	-0,023	0,059
-122,453	-113,378	0,034	-0,005
-121,439	154,292	-0,079	0,077
-120,424	800,000	0,082	0,168
-119,410	-200,000	-0,001	0,103
-118,395	-84,520	0,150	0,033
-117,380	11,577	-0,097	0,053
-116,366	-153,413	0,076	-0,004
-115,351	124,150	-0,131	0,117
-114,337	-200,000	-0,007	0,058
-113,322	47,677	-0,053	-0,035
-112,307	-2,410	-0,038	-0,019
-111,293	800,000	-0,020	0,054
-110,278	-29,197	0,044	-0,018
-109,264	547,267	-0,056	0,095
-108,249	429,762	-0,025	-0,039
-107,234	800,000	-0,028	0,068
-106,220	178,311	0,057	0,059
-105,205	-22,928	-0,094	-0,040
-104,191	-120,205	0,053	-0,006
-103,176	179,591	-0,041	0,043
-102,162	94,572	0,096	-0,077
-101,147	44,162	-0,064	0,042
-100,132	145,076	-0,102	0,097
-99,118	2,014	-0,020	-0,010
-98,103	129,430	-0,124	-0,112
-97,089	800,000	0,035	0,108
-96,074	-60,490	0,007	0,002
-95,059	-200,000	0,011	0,089
-94,045	-112,639	-0,111	-0,015
-93,030	46,089	-0,042	0,028
-92,016	148,203	-0,041	-0,039
-91,001	486,886	0,035	-0,057
-89,986	-100,632	-0,044	0,008
-88,972	334,072	0,081	0,112
-87,957	800,000	0,033	-0,089
-86,943	800,000	0,015	0,041
-85,928	-127,576	-0,164	-0,017
-84,913	218,284	-0,128	-0,144
-83,899	601,128	0,009	-0,015
-82,884	-91,556	-0,132	0,026
-81,870	236,795	-0,135	0,158
-80,855	-27,006	0,077	-0,032
-79,840	427,057	-0,078	-0,120
-78,826	-200,000	0,017	-0,247
-77,811	-200,000	0,019	0,097
-76,797	-174,808	-0,109	-0,002
-75,782	-200,000	0,124	-0,000
-74,767	457,915	0,104	0,164
-73,753	-200,000	-0,039	0,144
-72,738	-31,503	-0,018	0,007
-71,724	144,656	-0,139	-0,132
-70,709	-142,207	-0,082	0,006
-69,694	433,389	0,037	-0,057
-68,680	-200,000	0,007	-0,054
-67,665	504,505	0,041	-0,068
-66,651	42,641	-0,068	0,044
-65,636	391,651	-0,021	0,032
-64,622	-200,000	0,010	0,095
-63,607	-200,000	0,001	-0,096
-62,592	59,172	-0,097	-0,068
-61,578	-200,000	0,012	-0,099
-60,563	-65,853	-0,088	0,025
-59,549	-48,601	0,049	-0,017
-58,534	22,192	-1,601	-0,922
-57,519	588,106	-1,230	-2,152
-56,505	-200,000	-0,603	-4,547
-55,490	254,553	1,044	1,265
-54,476	800,000	4,966	11,181
-53,461	-200,000	20,029	324,480
-52,446	800,000	751,547	2315,603
-51,432	551,038	1663,051	2833,448
-50,417	75,417	1672,282	1246,753
-49,403	20,190	1544,861	879,520
-48,388	14,189	1467,311	806,168
-47,373	18,258	1457,543	820,435
-46,359	16,379	1447,130	805,534
-45,344	12,454	1442,525	784,136
-44,330	12,397	1440,583	782,777
-43,315	12,381	1439,001	781,811
-42,300	12,384	1437,164	780,794
-41,286	12,381	1436,109	780,175
-40,271	12,356	1434,626	779,220
-39,257	12,356	1433,338	778,491
-38,242	12,432	1432,282	778,250
-37,227	12,422	1430,927	777,436
-36,213	12,392	1429,686	776,585
-35,198	12,412	1428,437	775,970
-34,184	12,446	1427,600	775,647
-33,169	12,379	1426,138	774,507
-32,154	12,465	1425,006	774,269
-31,140	12,454	1423,864	773,564
-30,125	12,490	1422,481	772,952
-29,111	12,461	1421,456	772,225
-28,096	12,412	1420,539	771,468
-27,082	12,361	1419,515	770,640
-26,067	12,358	1418,244	769,905
-25,052	12,357	1417,310	769,361
-24,038	12,358	1416,217	768,742
-23,023	12,313	1415,296	768,001
-22,009	12,362	1414,215	767,614
-20,994	12,315	1413,349	766,893
-19,979	12,316	1412,339	766,318
-18,965	12,291	1411,369	765,644
-17,950	12,271	1410,789	765,209
-16,936	12,298	1409,614	764,668
-15,921	12,303	1408,585	764,102
-14,906	12,276	1407,861	763,549
-13,892	12,292	1406,647	762,938
-12,877	12,244	1405,889	762,273
-11,863	12,264	1405,060	761,887
-10,848	12,241	1404,116	761,235
-9,833	12,202	1403,311	760,585
-8,819	12,185	1402,559	760,072
-7,804	12,184	1401,515	759,469
-6,790	12,173	1400,469	758,823
-5,775	12,208	1399,375	758,360
-4,760	12,215	1398,291	757,777
-3,746	12,192	1397,443	757,179
-2,731	12,122	1396,675	756,411
-1,717	12,116	1395,878	755,919
-0,702	12,138	1394,090	755,024
0,313	16,036	1309,229	727,083
1,327	32,369	700,219	426,425
2,342	50,007	122,118	81,297
3,356	0,645	16,557	8,342
4,371	6,999	3,288	1,726
5,386	8,817	0,603	0,320
6,400	-200,000	0,035	0,282
7,415	-76,183	-0,237	-0,059
8,429	91,239	-0,229	-0,181
9,444	90,141	-0,294	-0,232
10,459	135,217	-0,214	-0,196
11,473	-9,694	-0,267	-0,125
12,488	31,422	-0,225	-0,136
13,502	245,143	-0,246	-0,293
14,517	45,232	-0,238	-0,154
15,531	1,730	-0,285	-0,145
16,546	-36,518	-0,351	-0,133
17,561	151,370	-0,307	-0,295
18,575	66,066	-0,147	-0,105
19,590	8,605	-0,194	-0,103
20,604	184,159	-0,181	-0,189
21,619	102,527	-0,338	-0,279
22,634	43,122	-0,553	-0,355
23,648	171,542	-0,309	-0,313
24,663	58,581	-0,454	-0,314
25,677	289,152	-0,234	-0,300
26,692	-40,632	-0,470	-0,171
27,707	155,498	-0,351	-0,341
28,721	81,296	-0,449	-0,342
29,736	67,017	-0,400	-0,287
30,750	125,132	-0,342	-0,304
31,765	144,734	-0,334	-0,315
32,780	98,649	-0,305	-0,248
33,794	6,854	-0,331	-0,173
34,809	-37,766	-0,342	-0,128
35,823	21,576	-0,485	-0,277
36,838	85,926	-0,354	-0,274
37,853	186,536	-0,321	-0,337
38,867	15,890	-0,385	-0,213
39,882	81,304	-0,307	-0,233
40,896	385,012	-0,243	-0,353
41,911	113,196	-0,367	-0,313
42,926	-32,967	-0,404	-0,157
43,940	142,776	-0,245	-0,229
44,955	-25,100	-0,460	-0,191
45,969	202,267	-0,368	-0,401
46,984	335,519	-0,227	-0,311
47,999	1,295	-0,286	-0,144
49,013	-49,014	-0,281	-0,094
50,028	30,900	-0,344	-0,207
51,042	-2,299	-0,393	-0,193
52,057	65,948	-0,392	-0,279
53,071	-76,266	-0,373	-0,092
54,086	53,820	-0,297	-0,200
55,101	-76,519	-0,288	-0,071
56,115	56,243	-0,262	-0,179
57,130	322,426	-0,280	-0,376
58,144	26,067	-0,350	-0,205
59,159	-68,199	-0,461	-0,125
60,174	57,890	-0,397	-0,273
61,188	132,464	-0,361	-0,327
62,203	-84,983	-0,365	-0,080
63,217	127,568	-0,242	-0,216
64,232	84,158	-0,250	-0,192
65,247	109,865	-0,260	-0,219
66,261	46,010	-0,319	-0,207
67,276	57,883	-0,319	-0,219
68,290	52,309	-0,397	-0,266
69,305	-58,593	-0,237	-0,072
70,320	-11,929	-0,290	-0,133
71,334	218,779	-0,255	-0,287
72,349	145,985	-0,270	-0,254
73,363	190,026	-0,268	-0,283
74,378	291,798	-0,218	-0,280
75,393	-47,866	-0,415	-0,140
76,407	108,494	-0,328	-0,275
77,422	-10,334	-0,373	-0,173
78,436	32,733	-0,370	-0,224
79,451	369,952	-0,165	-0,235
80,466	62,941	-0,267	-0,187
81,480	83,338	-0,200	-0,152
82,495	17,276	-0,180	-0,100
83,509	89,835	-0,313	-0,245
84,524	-69,395	-0,263	-0,070
85,539	-149,074	-0,301	0,017
86,553	218,085	-0,210	-0,235
87,568	97,828	-0,340	-0,274
88,582	-15,065	-0,309	-0,138
89,597	240,390	-0,227	-0,266
90,611	76,597	-0,305	-0,226
91,626	23,269	-0,251	-0,144
92,641	51,286	-0,256	-0,170
93,655	262,249	-0,214	-0,261
94,670	407,872	-0,161	-0,239
95,684	-52,802	-0,409	-0,131
96,699	-17,314	-0,272	-0,120
97,714	151,822	-0,197	-0,188
98,728	-31,655	-0,289	-0,113
99,743	-71,810	-0,294	-0,076
100,757	51,629	-0,273	-0,181
101,772	100,103	-0,340	-0,276
102,787	208,137	-0,285	-0,313
103,801	90,759	-0,271	-0,212
104,816	128,333	-0,286	-0,255
105,830	74,259	-0,256	-0,188
106,845	105,407	-0,254	-0,210
107,860	-108,498	-0,436	-0,065
108,874	-9,712	-0,298	-0,139
109,889	294,151	-0,217	-0,278
110,903	-51,538	-0,307	-0,100
111,918	-41,612	-0,303	-0,108
112,933	-59,160	-0,244	-0,073
113,947	122,063	-0,154	-0,135
114,962	-54,245	-0,256	-0,081
115,976	19,229	-0,280	-0,157
116,991	182,202	-0,216	-0,223
118,006	72,751	-0,431	-0,314
119,020	606,918	-0,214	-0,374
120,035	202,662	-0,232	-0,251
121,049	167,315	-0,140	-0,139
122,064	21,605	-0,278	-0,158
123,079	186,186	-0,126	-0,132
124,093	129,437	-0,257	-0,229
125,108	17,948	-0,271	-0,151
126,122	143,235	-0,161	-0,150
127,137	-53,421	-0,133	-0,042
128,151	-79,904	-0,302	-0,070
129,166	20,778	-0,287	-0,162
130,181	151,914	-0,222	-0,212
131,195	18,870	-0,284	-0,159
132,210	131,688	-0,294	-0,265
133,224	12,411	-0,337	-0,181
134,239	2,647	-0,330	-0,166
135,254	-81,163	-0,185	-0,042
136,268	284,822	-0,149	-0,188
137,283	49,855	-0,240	-0,158
138,297	49,054	-0,364	-0,238
139,312	13,555	-0,307	-0,166
140,327	124,784	-0,214	-0,189
141,341	76,689	-0,275	-0,203
142,356	535,142	-0,171	-0,285
143,370	164,443	-0,251	-0,247
144,385	-48,153	-0,293	-0,098
145,400	107,610	-0,272	-0,226
146,414	-3,689	-0,305	-0,148
147,429	115,613	-0,369	-0,315
148,443	132,669	-0,287	-0,259
149,458	-23,001	-0,309	-0,129
150,473	167,956	-0,124	-0,123
151,487	213,585	-0,206	-0,227
152,502	70,106	-0,203	-0,146
153,516	-49,993	-0,254	-0,084
154,531	139,364	-0,218	-0,201
155,546	123,094	-0,226	-0,197
156,560	402,282	-0,167	-0,246
157,575	47,348	-0,226	-0,147
158,589	96,346	-0,255	-0,203
159,604	76,493	-0,237	-0,175
160,619	63,908	-0,318	-0,222
161,633	199,183	-0,253	-0,271
162,648	21,050	-0,301	-0,170
163,662	194,717	-0,201	-0,213
164,677	201,894	-0,226	-0,243
165,692	25,166	-0,227	-0,131
166,706	-95,681	-0,227	0,042
167,721	-4,759	-0,268	-0,128
168,735	374,339	-0,145	-0,206
169,750	88,699	-0,190	-0,147
170,764	49,352	-0,281	-0,184
171,779	54,292	-0,207	-0,138
172,794	-15,065	-0,162	-0,072
173,808	232,923	-0,129	-0,148
174,823	239,177	-0,229	-0,266
175,837	420,516	-0,174	-0,261
176,852	605,989	-0,167	-0,292
177,867	312,914	-0,168	-0,220
178,881	621,715	-0,083	-0,146
179,896	-47,724	-0,238	-0,080
180,910	133,195	-0,309	-0,278
181,925	228,245	-0,143	-0,162
182,940	26,382	-0,367	-0,213
183,954	314,681	-0,182	-0,240
184,969	15,022	-0,145	-0,078
185,983	-31,476	-0,318	-0,124
186,998	800,000	-0,158	-0,305
188,013	-21,724	-0,225	-0,095
189,027	-180,543	-0,290	-0,004
190,042	46,198	-0,152	-0,097
191,056	219,316	-0,191	-0,212
192,071	-57,894	-0,347	-0,105
193,086	117,133	-0,219	-0,187
194,100	-4,994	-0,436	-0,208
195,115	-116,843	-0,208	-0,026
196,129	383,662	-0,194	-0,278
197,144	178,344	-0,267	-0,271
198,159	166,204	-0,203	-0,200
199,173	146,358	-0,191	-0,178
200,188	-139,616	-0,293	-0,021
201,202	71,069	-0,156	-0,112
202,217	-147,101	-0,170	0,010
203,232	508,512	-0,172	-0,278
204,246	800,000	-0,102	-0,217
205,261	21,946	-0,227	-0,128
206,275	-200,000	-0,036	-0,127
207,290	331,586	-0,201	-0,270
208,304	56,083	-0,199	-0,134
209,319	800,000	-0,106	-0,223
210,334	229,831	-0,143	-0,162
211,348	330,060	-0,207	-0,277
212,363	5,849	-0,247	-0,127
213,377	53,627	-0,256	-0,170
214,392	89,870	-0,125	-0,096
215,407	6,016	-0,101	-0,051
216,421	-200,000	-0,044	-0,143
217,436	800,000	-0,140	-0,271
218,450	684,473	-0,126	-0,229
219,465	684,237	-0,128	-0,233
220,480	175,369	-0,062	-0,063
221,494	-131,262	-0,279	-0,025
222,509	-200,000	-0,019	-0,185
223,523	282,955	-0,193	-0,240
224,538	37,861	-0,212	-0,130
225,553	-98,713	-0,218	-0,038
226,567	-9,994	-0,216	-0,099
227,582	150,174	-0,157	-0,148
228,596	402,949	-0,119	-0,174
229,611	16,975	-0,189	-0,104
230,626	-105,347	-0,271	-0,042
231,640	154,629	-0,119	-0,113
232,655	428,087	-0,151	-0,227
233,669	130,253	-0,159	-0,141
234,684	62,577	-0,087	-0,060
235,699	673,236	-0,076	-0,137
236,713	336,536	-0,123	-0,166
237,728	-82,896	-0,238	-0,053
238,742	33,884	-0,225	-0,135
239,757	800,000	-0,078	-0,177
240,772	113,111	-0,306	-0,257
241,786	-10,832	-0,148	-0,067
242,801	212,907	-0,098	-0,107
243,815	75,508	-0,206	-0,150
244,830	50,387	-0,119	-0,078
245,844	-145,189	-0,205	0,013
246,859	195,194	-0,109	-0,114
247,874	51,077	-0,096	-0,063
248,888	314,975	-0,206	-0,269
249,903	111,744	-0,157	-0,131
250,917	-48,305	-0,097	-0,032
251,932	800,000	-0,127	-0,264
252,947	55,790	-0,182	-0,122
253,961	76,854	-0,216	-0,158
254,976	131,059	-0,123	-0,109
255,990	114,425	-0,120	-0,101
257,005	2,682	-0,247	-0,123
258,020	50,683	-0,182	0,119
259,034	-106,887	-0,200	-0,030
260,049	73,446	-0,178	-0,129
261,063	136,043	-0,176	-0,159
262,078	-156,118	-0,211	-0,009
263,093	112,301	-0,286	-0,239
264,107	139,487	-0,083	-0,075
265,122	257,444	-0,092	-0,109
266,136	138,472	-0,052	-0,047
267,151	-49,592	-0,217	-0,071
268,166	-33,110	-0,164	-0,062
269,180	-88,102	-0,226	-0,046
270,195	-29,355	-0,200	-0,079
271,209	43,521	-0,148	-0,093
272,224	-152,489	-0,052	-0,003
273,239	-69,413	-0,182	-0,048
274,253	-63,479	-0,213	0,060
275,268	-74,828	-0,184	-0,045
276,282	3,929	-0,214	-0,107
277,297	4,479	-0,313	-0,158
278,312	60,957	-0,261	-0,179
279,326	-19,389	-0,257	-0,110
280,341	800,000	-0,077	-0,166
281,355	800,000	0,047	-0,100
282,370	419,429	-0,044	-0,065
283,384	-40,757	-0,110	-0,039
284,399	405,827	-0,145	-0,212
285,414	74,093	-0,260	-0,188
286,428	-56,782	-0,108	-0,033
287,443	150,039	-0,131	-0,123
288,457	166,448	-0,082	0,080
289,472	-95,851	-0,236	-0,043
290,487	-116,588	-0,170	-0,021
291,501	-193,206	-0,132	-0,001
292,516	416,942	-0,120	-0,177
293,530	219,122	-0,088	-0,097
294,545	90,900	-0,163	-0,126
295,560	331,562	-0,031	-0,041
296,574	800,000	-0,110	-0,283
297,589	800,000	-0,148	-0,291
298,603	45,722	-0,242	-0,154
299,618	177,079	-0,119	-0,119
300,633	70,331	-0,219	-0,155
301,647	800,000	-0,077	-0,169
302,662	-81,253	-0,130	0,029
303,676	-93,023	-0,142	0,027
304,691	22,177	-0,133	-0,075
305,706	235,408	-0,121	-0,138
306,720	87,571	-0,168	-0,128
307,735	23,661	-0,162	-0,092
308,749	147,492	-0,137	-0,127
309,764	800,000	-0,071	-0,148
310,779	118,343	-0,124	-0,105
311,793	146,961	-0,272	-0,252
312,808	-10,068	-0,168	-0,076
313,822	-36,241	-0,180	-0,067
314,837	645,793	-0,091	-0,161
315,852	-48,257	-0,139	-0,046
316,866	-170,100	-0,247	-0,006
317,881	-171,522	-0,156	-0,003
318,895	149,506	-0,107	-0,099
319,910	106,103	-0,126	-0,103
320,925	-73,194	-0,190	-0,047
321,939	477,381	-0,089	-0,139
322,954	61,632	-0,152	-0,104
323,968	-200,000	-0,027	-0,220
324,983	45,708	-0,256	-0,162
325,997	-200,000	-0,062	-0,238
327,012	1,998	-0,083	-0,041
328,027	431,174	-0,161	-0,241
329,041	473,118	-0,048	-0,074
330,056	-25,482	-0,103	-0,042
331,070	242,428	-0,055	-0,063
332,085	800,000	-0,056	-0,112
333,100	437,949	-0,104	-0,156
334,114	800,000	-0,094	-0,210
335,129	406,251	-0,106	-0,153
336,143	431,065	-0,187	-0,278
337,158	53,438	-0,285	-0,187
338,173	173,670	-0,133	-0,132
339,187	-139,018	-0,083	0,006
340,202	-41,359	-0,169	0,059
341,216	-119,541	-0,206	0,024
342,231	-3,741	-0,308	-0,146
343,246	-183,810	-0,080	0,001
344,260	-200,000	-0,034	-0,191
345,275	543,213	-0,074	-0,122
346,289	61,208	-0,133	-0,090
347,304	-34,777	-0,160	-0,060
348,319	-108,495	-0,201	-0,029
349,333	75,427	-0,088	-0,063
350,348	65,524	-0,137	-0,095
351,362	63,395	-0,277	-0,190
352,377	-78,596	-0,105	-0,024
353,392	107,386	-0,122	-0,099
354,406	486,193	-0,047	-0,073
355,421	208,480	1314,722	1410,538
356,435	160,414	1475,427	1411,000
