DTS Sentinel unit serial number:	SN410029Multiplexer serial number:	ORYXHardware model number:	OX2-SRSoftware version number:	ORYX F/W v4,00 Oryx Data Collector v3.7.2.0data status	okinstallation	B3 Nyhavnadifferential loss correction	single-endedforward channel	channel 1reverse channel	N/Adate	2023/12/04time	16:47:30forward acquisition time	300,00reverse acquisition time	0,00gamma	499,1914k internal	0,3200k external	0,3200temperature offset calibration	1,0000default loss term (dB/km)	0,3820temperature slope calibration	1,0000multiplexer offset coefficient	1,0000multiplexer slope coefficient	1,0000fibre end	0,00T internal ref (°C)	15,19T ext. ref 1 (°C)	0,16T ext. ref 2 (°C)	0,15length (m)	temperature (°C)	Stokes	anti-Stokes-744,400	-4,633	-0,228	-0,114
-743,385	-200,000	0,038	0,312
-742,371	76,303	-0,229	-0,176
-741,356	-200,000	0,021	0,254
-740,342	-187,438	-0,153	-0,001
-739,327	-200,000	-0,014	0,322
-738,312	560,593	-0,142	-0,251
-737,298	-200,000	0,052	0,240
-736,283	507,818	-0,122	-0,206
-735,269	-200,000	0,017	0,374
-734,254	725,201	-0,170	-0,332
-733,239	-25,159	-0,149	0,064
-732,225	-11,161	-0,069	-0,033
-731,210	-59,022	0,189	0,059
-730,196	-189,776	0,247	-0,002
-729,181	800,000	-0,078	-0,190
-728,167	-200,000	0,038	0,163
-727,152	-79,999	-0,085	-0,021
-726,137	-84,867	0,051	0,012
-725,123	58,567	-0,172	-0,122
-724,108	595,901	-0,010	0,018
-723,094	179,828	-0,117	-0,125
-722,079	647,728	0,073	-0,137
-721,064	800,000	-0,032	-0,085
-720,050	-200,000	0,004	0,127
-719,035	800,000	-0,013	0,032
-718,021	334,425	-0,074	0,105
-717,006	-200,000	-0,001	-0,118
-715,991	800,000	-0,042	-0,093
-714,977	-200,000	0,023	-0,107
-713,962	-121,070	0,012	-0,001
-712,948	-200,000	-0,013	-0,070
-711,933	-108,538	0,069	0,011
-710,918	32,862	-0,074	-0,046
-709,904	64,995	-0,046	0,034
-708,889	-104,348	-0,197	0,033
-707,875	152,135	-0,039	0,039
-706,860	800,000	-0,039	0,102
-705,845	568,845	0,043	-0,076
-704,831	319,227	0,059	-0,081
-703,816	414,563	-0,042	-0,065
-702,802	800,000	0,021	-0,063
-701,787	800,000	-0,055	-0,115
-700,772	-89,355	0,146	-0,031
-699,758	72,308	-0,028	-0,021
-698,743	-200,000	0,008	-0,124
-697,729	376,862	0,019	0,028
-696,714	3,756	0,074	0,039
-695,699	800,000	0,030	0,062
-694,685	-181,618	0,150	-0,002
-693,670	-89,923	-0,047	0,010
-692,656	-17,183	-0,050	-0,023
-691,641	283,647	-0,032	0,041
-690,627	800,000	0,018	0,044
-689,612	-200,000	-0,015	0,128
-688,597	64,668	0,038	0,028
-687,583	-200,000	-0,033	-0,117
-686,568	-69,909	0,046	0,013
-685,554	-200,000	-0,025	-0,154
-684,539	152,283	0,022	-0,022
-683,524	800,000	0,072	0,148
-682,510	1,288	0,080	-0,042
-681,495	63,076	-0,019	-0,014
-680,481	-93,991	-0,111	-0,022
-679,466	-95,566	-0,087	-0,017
-678,451	-99,669	-0,068	0,012
-677,437	800,000	0,012	0,036
-676,422	476,968	-0,071	0,117
-675,408	-200,000	-0,006	0,188
-674,393	-89,397	-0,063	0,013
-673,378	-102,978	-0,142	0,024
-672,364	-200,000	-0,001	0,038
-671,349	-5,417	-0,130	-0,065
-670,335	47,152	0,106	0,071
-669,320	23,634	0,100	0,060
-668,305	118,461	0,077	0,069
-667,291	-200,000	-0,001	-0,035
-666,276	124,500	-0,101	-0,093
-665,262	-25,316	-0,055	-0,023
-664,247	50,640	-0,122	-0,083
-663,232	-58,330	0,038	0,012
-662,218	266,715	-0,013	-0,017
-661,203	-22,991	0,056	0,024
-660,189	497,684	-0,037	0,062
-659,174	-17,849	-0,054	-0,024
-658,159	230,314	-0,063	0,074
-657,145	6,401	0,050	-0,027
-656,130	-128,613	0,121	0,012
-655,116	-200,000	0,017	0,068
-654,101	-144,055	-0,100	0,007
-653,086	-137,223	0,084	0,007
-652,072	-200,000	0,024	-0,225
-651,057	-200,000	-0,002	-0,088
-650,043	10,353	0,084	-0,046
-649,028	-122,602	0,054	0,006
-648,014	1,258	-0,063	-0,033
-646,999	-186,956	-0,106	0,001
-645,984	-95,822	0,126	-0,024
-644,970	31,008	-0,102	-0,063
-643,955	150,784	-0,100	0,098
-642,941	-200,000	0,012	-0,128
-641,926	-34,105	-0,023	0,009
-640,911	-157,027	0,108	0,005
-639,897	69,175	0,077	-0,057
-638,882	65,882	0,017	0,012
-637,868	-200,000	0,001	-0,139
-636,853	147,232	-0,018	-0,018
-635,838	-60,528	0,125	-0,038
-634,824	115,320	-0,060	0,053
-633,809	40,098	0,117	-0,076
-632,795	-200,000	0,018	-0,182
-631,780	82,630	-0,061	0,048
-630,765	-200,000	0,018	0,064
-629,751	-97,145	-0,159	-0,030
-628,736	-200,000	0,027	-0,103
-627,722	-200,000	-0,003	-0,030
-626,707	49,677	0,073	-0,049
-625,692	-200,000	-0,015	0,110
-624,678	121,620	0,072	0,065
-623,663	-26,644	-0,145	-0,061
-622,649	224,196	-0,080	-0,094
-621,634	-109,007	-0,045	-0,007
-620,619	83,314	-0,061	-0,048
-619,605	24,323	-0,069	-0,041
-618,590	491,446	-0,030	-0,051
-617,576	86,121	0,071	-0,056
-616,561	-137,798	-0,046	-0,004
-615,546	676,313	-0,027	-0,052
-614,532	-200,000	-0,035	0,117
-613,517	-200,000	0,000	-0,186
-612,503	690,939	0,118	0,224
-611,488	-75,375	0,070	0,018
-610,474	-200,000	-0,020	-0,114
-609,459	-129,104	-0,101	-0,010
-608,444	-200,000	0,010	-0,046
-607,430	6,675	-0,146	-0,078
-606,415	-39,044	-0,152	0,058
-605,401	-166,334	-0,091	-0,003
-604,386	800,000	0,047	0,117
-603,371	226,596	-0,054	0,063
-602,357	191,339	-0,029	0,031
-601,342	-43,292	-0,097	-0,035
-600,328	-19,822	0,074	-0,033
-599,313	64,827	-0,116	-0,085
-598,298	654,609	-0,028	0,053
-597,284	-83,732	0,071	-0,016
-596,269	-200,000	-0,017	-0,059
-595,255	109,364	-0,057	0,049
-594,240	-7,587	0,067	-0,033
-593,225	-2,886	-0,046	-0,023
-592,211	-68,742	-0,046	0,013
-591,196	-6,123	0,069	-0,034
-590,182	678,874	0,074	0,140
-589,167	792,989	-0,016	-0,031
-588,152	56,406	-0,047	-0,033
-587,138	-131,634	-0,129	-0,012
-586,123	-200,000	-0,003	-0,019
-585,109	800,000	0,032	-0,073
-584,094	-200,000	0,000	0,164
-583,079	-82,550	-0,019	0,005
-582,065	149,635	0,071	-0,070
-581,050	-98,706	-0,070	-0,013
-580,036	-200,000	0,015	0,153
-579,021	800,000	-0,023	0,053
-578,006	68,886	-0,035	-0,026
-576,992	-200,000	0,016	-0,087
-575,977	35,647	-0,094	0,060
-574,963	-22,162	0,123	-0,054
-573,948	334,545	0,067	-0,095
-572,934	320,271	-0,068	-0,094
-571,919	-200,000	-0,014	-0,107
-570,904	136,499	-0,130	-0,122
-569,890	-19,094	-0,068	-0,031
-568,875	-200,000	-0,013	0,075
-567,861	199,074	0,019	-0,021
-566,846	-137,387	-0,123	-0,010
-565,831	-200,000	0,001	-0,061
-564,817	-37,131	0,010	0,004
-563,802	337,912	-0,031	0,044
-562,788	800,000	-0,037	-0,096
-561,773	129,019	0,091	-0,084
-560,758	-200,000	-0,035	0,238
-559,744	-11,039	-0,039	0,019
-558,729	-200,000	0,002	0,010
-557,715	800,000	-0,081	-0,165
-556,700	21,859	0,127	-0,074
-555,685	58,716	-0,079	-0,056
-554,671	400,804	-0,017	0,026
-553,656	640,748	0,103	0,190
-552,642	223,590	0,075	0,087
-551,627	168,032	0,050	0,051
-550,612	54,968	-0,032	-0,022
-549,598	-2,582	-0,090	-0,045
-548,583	-200,000	0,021	-0,194
-547,569	800,000	-0,029	-0,076
-546,554	-99,607	-0,041	0,007
-545,539	512,211	0,078	-0,132
-544,525	-200,000	-0,014	0,065
-543,510	26,940	-0,040	0,024
-542,496	-200,000	-0,000	-0,015
-541,481	-124,063	-0,126	-0,014
-540,466	7,017	0,037	-0,020
-539,452	44,125	0,029	-0,019
-538,437	-200,000	0,021	-0,082
-537,423	-129,400	0,086	0,008
-536,408	95,410	-0,063	0,052
-535,393	-200,000	-0,004	-0,053
-534,379	-16,965	-0,095	0,043
-533,364	-156,426	0,077	0,003
-532,350	688,454	0,028	-0,052
-531,335	151,766	0,027	-0,027
-530,321	238,881	0,040	0,048
-529,306	-19,995	0,094	-0,042
-528,291	-200,000	-0,015	-0,074
-527,277	5,337	0,079	0,042
-526,262	-51,536	-0,099	-0,033
-525,248	124,842	0,047	-0,043
-524,233	32,346	-0,018	-0,011
-523,218	169,532	0,041	-0,043
-522,204	173,726	-0,074	-0,077
-521,189	800,000	-0,038	-0,120
-520,175	-9,304	-0,117	-0,056
-519,160	800,000	-0,026	-0,074
-518,145	157,770	-0,091	0,091
-517,131	271,200	0,077	0,098
-516,116	240,252	-0,015	0,018
-515,102	-137,632	-0,067	0,005
-514,087	6,279	-0,055	-0,029
-513,072	-47,275	-0,105	0,037
-512,058	-200,000	0,004	-0,129
-511,043	269,794	0,081	-0,103
-510,029	-200,000	0,015	0,082
-509,014	-200,000	-0,015	0,112
-507,999	265,511	-0,033	0,041
-506,985	-58,732	-0,193	0,060
-505,970	-72,873	-0,054	0,014
-504,956	-200,000	0,021	0,130
-503,941	-200,000	0,003	0,069
-502,926	-200,000	0,001	-0,067
-501,912	37,546	0,092	-0,058
-500,897	800,000	-0,066	0,146
-499,883	-200,000	0,002	0,156
-498,868	62,043	0,044	0,032
-497,853	-115,286	-0,097	-0,013
-496,839	215,423	-0,103	0,118
-495,824	-200,000	0,024	-0,158
-494,810	486,456	-0,054	0,089
-493,795	-200,000	-0,003	-0,096
-492,781	28,424	-0,024	-0,015
-491,766	-16,030	-0,092	-0,042
-490,751	10,138	-0,069	0,038
-489,737	-3,089	0,080	-0,040
-488,722	-75,850	-0,067	-0,017
-487,708	224,005	-0,051	-0,059
-486,693	800,000	-0,023	-0,067
-485,678	-64,218	0,130	0,038
-484,664	-200,000	0,001	0,100
-483,649	-86,360	0,089	-0,019
-482,635	129,383	0,037	-0,034
-481,620	175,782	0,045	0,047
-480,605	238,655	-0,059	0,071
-479,591	422,412	0,007	-0,011
-478,576	-191,386	-0,085	0,001
-477,562	-75,961	-0,080	0,020
-476,547	270,561	-0,069	-0,088
-475,532	56,672	0,105	0,074
-474,518	-52,145	0,184	-0,061
-473,503	225,270	0,066	0,078
-472,489	297,431	0,014	0,019
-471,474	800,000	-0,004	0,012
-470,459	-77,990	-0,137	0,034
-469,445	-112,051	-0,049	-0,007
-468,430	-191,465	-0,193	0,001
-467,416	-101,131	-0,015	-0,003
-466,401	-200,000	-0,007	0,135
-465,386	-200,000	0,015	0,103
-464,372	800,000	-0,039	0,080
-463,357	-200,000	-0,016	-0,128
-462,343	69,495	-0,074	-0,054
-461,328	95,638	0,028	-0,023
-460,313	800,000	-0,039	0,078
-459,299	53,571	0,046	0,032
-458,284	-45,457	0,058	0,020
-457,270	-200,000	0,018	0,122
-456,255	556,989	-0,054	0,095
-455,241	157,165	0,094	-0,094
-454,226	631,891	-0,019	-0,035
-453,211	23,047	-0,030	-0,018
-452,197	139,257	0,071	0,067
-451,182	-36,942	-0,046	0,018
-450,168	262,682	0,064	-0,080
-449,153	800,000	-0,004	-0,011
-448,138	252,849	-0,019	-0,024
-447,124	-200,000	0,009	-0,061
-446,109	-200,000	-0,002	-0,150
-445,095	47,376	0,008	-0,006
-444,080	-47,894	0,104	0,036
-443,065	-130,908	-0,026	0,002
-442,051	285,909	-0,032	-0,042
-441,036	-200,000	-0,003	-0,142
-440,022	-139,693	-0,134	0,010
-439,007	-71,222	-0,029	-0,008
-437,992	-107,481	0,167	0,026
-436,978	-52,758	0,202	0,067
-435,963	-58,186	0,135	-0,042
-434,949	642,666	-0,014	-0,026
-433,934	253,907	-0,028	-0,034
-432,919	-141,100	-0,176	-0,013
-431,905	-200,000	-0,006	0,048
-430,890	-21,091	0,084	-0,037
-429,876	800,000	0,021	-0,060
-428,861	88,612	0,171	0,137
-427,846	-75,429	-0,131	0,033
-426,832	-200,000	0,012	0,118
-425,817	-200,000	-0,003	-0,017
-424,803	-200,000	-0,007	0,095
-423,788	-23,168	0,122	0,052
-422,773	98,008	-0,013	-0,011
-421,759	-26,051	0,085	0,036
-420,744	202,935	0,027	0,030
-419,730	-37,168	0,004	-0,001
-418,715	-130,036	-0,124	0,012
-417,701	164,146	0,025	-0,025
-416,686	-184,721	0,136	-0,002
-415,671	-200,000	0,034	0,169
-414,657	-200,000	0,017	0,106
-413,642	195,331	-0,107	0,117
-412,628	-200,000	-0,021	-0,094
-411,613	-10,560	0,104	-0,049
-410,598	800,000	-0,030	0,078
-409,584	104,520	0,075	0,064
-408,569	800,000	-0,014	0,031
-407,555	-54,678	-0,053	0,017
-406,540	20,494	0,061	0,036
-405,525	-200,000	-0,006	0,045
-404,511	154,582	-0,008	-0,008
-403,496	-35,184	-0,065	0,025
-402,482	698,334	0,025	0,047
-401,467	42,535	0,008	0,005
-400,452	184,284	0,035	0,038
-399,438	800,000	-0,039	-0,092
-398,423	-200,000	0,012	-0,075
-397,409	20,925	-0,053	-0,031
-396,394	-112,663	-0,144	0,020
-395,379	-95,359	0,063	0,012
-394,365	-200,000	0,006	0,117
-393,350	-163,331	0,053	-0,002
-392,336	-69,945	0,078	0,021
-391,321	-80,954	-0,045	0,011
-390,306	800,000	-0,025	0,049
-389,292	102,894	-0,046	-0,039
-388,277	-67,557	-0,049	0,014
-387,263	-200,000	-0,009	0,086
-386,248	481,336	-0,039	0,064
-385,233	-200,000	0,007	0,039
-384,219	-200,000	0,000	-0,070
-383,204	466,450	-0,051	-0,082
-382,190	-15,330	0,044	0,020
-381,175	5,821	0,064	-0,034
-380,160	-200,000	-0,014	-0,135
-379,146	800,000	0,054	0,136
-378,131	-47,589	0,113	0,039
-377,117	89,703	0,073	-0,058
-376,102	-72,647	-0,058	-0,015
-375,088	10,598	-0,138	-0,075
-374,073	-3,679	0,129	0,064
-373,058	800,000	-0,034	0,099
-372,044	-51,794	0,138	0,046
-371,029	-200,000	-0,027	-0,092
-370,015	-200,000	-0,002	0,154
-369,000	-5,095	-0,043	-0,021
-367,985	-200,000	-0,041	-0,257
-366,971	462,484	0,062	0,100
-365,956	377,951	0,017	-0,025
-364,942	118,876	0,052	-0,046
-363,927	36,035	-0,067	0,042
-362,912	-5,015	0,002	0,001
-361,898	-200,000	-0,006	0,025
-360,883	800,000	0,068	-0,179
-359,869	-200,000	-0,024	-0,153
-358,854	-16,071	0,075	-0,034
-357,839	106,529	0,149	0,127
-356,825	-1,385	-0,074	0,037
-355,810	-200,000	0,009	0,079
-354,796	800,000	0,014	-0,038
-353,781	141,516	-0,079	0,075
-352,766	120,429	0,096	0,085
-351,752	526,611	-0,099	0,168
-350,737	117,375	-0,103	0,090
-349,723	792,597	-0,034	0,068
-348,708	-108,056	0,068	-0,011
-347,693	800,000	0,023	-0,073
-346,679	389,395	-0,046	0,068
-345,664	-200,000	0,001	0,008
-344,650	-200,000	0,007	-0,059
-343,635	441,590	0,016	0,025
-342,620	78,143	0,139	-0,106
-341,606	7,341	-0,046	0,025
-340,591	-61,271	-0,035	0,011
-339,577	165,584	-0,032	-0,032
-338,562	29,600	-0,111	-0,067
-337,548	51,156	-0,078	-0,053
-336,533	-200,000	-0,031	0,101
-335,518	-86,181	0,025	0,005
-334,504	-159,063	0,061	0,002
-333,489	-34,742	0,019	0,007
-332,475	800,000	-0,035	-0,104
-331,460	25,719	-0,101	0,060
-330,445	-13,151	-0,029	-0,013
-329,431	123,089	-0,101	-0,091
-328,416	55,425	0,107	0,074
-327,402	-126,031	0,098	-0,010
-326,387	-200,000	0,011	-0,061
-325,372	-100,343	-0,058	-0,010
-324,358	423,933	0,089	-0,137
-323,343	295,070	0,098	-0,128
-322,329	800,000	0,033	0,071
-321,314	-19,944	0,080	-0,035
-320,299	59,025	0,081	-0,057
-319,285	-113,102	0,181	0,025
-318,270	160,744	-0,061	-0,061
-317,256	174,175	-0,067	0,070
-316,241	49,681	0,067	0,045
-315,226	800,000	0,006	-0,014
-314,212	594,484	-0,117	0,208
-313,197	223,422	0,070	0,081
-312,183	-200,000	-0,019	0,188
-311,168	-200,000	0,001	0,021
-310,153	553,720	-0,076	-0,131
-309,139	-118,275	-0,087	0,011
-308,124	123,015	-0,058	0,052
-307,110	-85,593	0,012	0,003
-306,095	531,321	0,051	-0,086
-305,080	366,162	-0,035	-0,051
-304,066	-148,995	0,037	0,002
-303,051	114,478	-0,089	-0,077
-302,037	-200,000	0,001	0,026
-301,022	26,972	0,041	-0,024
-300,008	698,835	-0,022	-0,042
-298,993	-200,000	0,024	0,215
-297,978	13,812	0,035	-0,019
-296,964	6,109	-0,025	-0,013
-295,949	-81,213	0,029	-0,007
-294,935	1,088	0,028	0,014
-293,920	-200,000	0,017	-0,069
-292,905	-200,000	0,001	0,022
-291,891	-47,087	-0,038	0,013
-290,876	75,420	0,109	-0,082
-289,862	367,190	0,012	0,017
-288,847	-73,212	-0,116	-0,030
-287,832	4,373	-0,099	0,051
-286,818	60,660	0,102	0,072
-285,803	-109,907	0,024	-0,004
-284,789	183,323	0,036	-0,038
-283,774	367,493	0,127	0,183
-282,759	556,554	0,051	0,089
-281,745	31,541	-0,078	-0,048
-280,730	642,282	0,024	-0,043
-279,716	240,504	0,058	0,069
-278,701	3,057	-0,071	-0,037
-277,686	800,000	-0,010	-0,025
-276,672	211,400	0,052	0,059
-275,657	-200,000	-0,003	-0,026
-274,643	51,063	0,050	-0,034
-273,628	57,596	-0,078	-0,054
-272,613	83,351	0,048	0,037
-271,599	-200,000	-0,001	-0,014
-270,584	-200,000	0,017	-0,077
-269,570	-200,000	0,019	-0,073
-268,555	-200,000	0,009	-0,037
-267,540	-36,699	-0,101	-0,038
-266,526	-53,506	-0,182	-0,059
-265,511	417,466	-0,036	-0,055
-264,497	800,000	-0,062	-0,126
-263,482	-200,000	-0,005	-0,060
-262,467	-200,000	0,007	0,214
-261,453	800,000	0,016	-0,038
-260,438	369,491	0,070	-0,102
-259,424	-110,608	0,105	0,015
-258,409	-184,820	-0,118	-0,001
-257,395	277,142	0,075	-0,096
-256,380	-116,748	0,080	-0,010
-255,365	-52,605	0,146	0,048
-254,351	-50,374	-0,042	-0,014
-253,336	12,643	0,103	-0,057
-252,322	182,567	0,041	-0,043
-251,307	-142,263	0,091	-0,006
-250,292	-115,730	-0,075	0,010
-249,278	-28,009	0,075	0,031
-248,263	800,000	0,017	0,042
-247,249	-109,099	0,022	-0,003
-246,234	554,280	0,063	-0,109
-245,219	800,000	0,035	-0,080
-244,205	800,000	0,052	-0,115
-243,190	-200,000	-0,010	-0,050
-242,176	-5,466	0,104	0,051
-241,161	-200,000	0,013	0,092
-240,146	-200,000	0,001	0,042
-239,132	115,585	-0,065	-0,057
-238,117	68,664	0,059	-0,043
-237,103	-200,000	0,007	-0,098
-236,088	58,715	0,050	0,035
-235,073	-50,017	-0,048	-0,016
-234,059	100,450	0,086	-0,071
-233,044	53,914	0,160	0,110
-232,030	800,000	-0,047	0,121
-231,015	311,301	-0,059	-0,079
-230,000	-200,000	0,019	0,085
-228,986	-200,000	-0,009	-0,060
-227,971	-156,988	-0,025	0,001
-226,957	-110,231	0,188	-0,028
-225,942	163,335	0,105	0,106
-224,927	-44,141	0,047	0,017
-223,913	-200,000	-0,004	0,094
-222,898	-200,000	-0,029	-0,099
-221,884	800,000	-0,039	0,096
-220,869	456,098	0,070	0,111
-219,855	153,588	0,041	-0,040
-218,840	800,000	-0,052	0,103
-217,825	800,000	0,026	0,056
-216,811	573,401	-0,081	0,141
-215,796	293,572	-0,017	-0,023
-214,782	-200,000	0,003	-0,128
-213,767	-76,580	-0,070	0,017
-212,752	-200,000	0,065	0,227
-211,738	-200,000	-0,015	0,133
-210,723	-97,640	-0,095	-0,017
-209,709	72,986	0,082	0,061
-208,694	-200,000	-0,006	-0,176
-207,679	-200,000	-0,052	-0,202
-206,665	143,481	-0,072	0,068
-205,650	-200,000	0,008	-0,035
-204,636	800,000	0,037	-0,079
-203,621	-200,000	-0,008	0,040
-202,606	176,716	-0,117	-0,121
-201,592	-81,876	-0,093	-0,022
-200,577	-200,000	0,003	-0,036
-199,563	56,391	0,064	0,044
-198,548	122,991	-0,090	0,080
-197,533	240,221	0,107	0,128
-196,519	749,993	-0,094	0,181
-195,504	-200,000	0,002	0,107
-194,490	-200,000	-0,007	-0,025
-193,475	271,583	0,036	-0,045
-192,460	-124,049	0,129	0,014
-191,446	476,060	0,066	0,106
-190,431	800,000	0,072	0,158
-189,417	28,285	-0,064	0,038
-188,402	-51,619	-0,123	0,041
-187,387	800,000	-0,039	-0,120
-186,373	153,422	0,040	-0,039
-185,358	-3,381	0,131	-0,065
-184,344	-35,892	0,076	-0,029
-183,329	-200,000	0,013	-0,171
-182,315	-200,000	0,035	0,114
-181,300	800,000	0,078	-0,166
-180,285	800,000	-0,077	-0,177
-179,271	-73,908	-0,048	0,012
-178,256	-150,150	0,088	-0,005
-177,242	800,000	0,023	0,052
-176,227	-155,387	0,171	0,008
-175,212	171,824	-0,047	-0,048
-174,198	210,824	0,008	-0,009
-173,183	-71,430	-0,118	0,031
-172,169	-193,048	0,027	0,000
-171,154	-200,000	0,001	0,050
-170,139	106,106	-0,081	-0,068
-169,125	800,000	0,066	0,170
-168,110	469,928	-0,024	0,039
-167,096	253,365	0,033	0,041
-166,081	-117,424	-0,118	0,015
-165,066	-13,846	0,038	-0,018
-164,052	109,002	-0,144	-0,122
-163,037	213,829	-0,024	-0,027
-162,023	214,888	0,054	0,061
-161,008	-200,000	0,031	0,147
-159,993	-69,684	-0,151	-0,041
-158,979	-129,058	0,048	-0,005
-157,964	544,482	-0,042	0,071
-156,950	-200,000	0,000	0,081
-155,935	-40,680	0,086	0,031
-154,920	-83,242	0,119	0,027
-153,906	-80,051	0,065	0,015
-152,891	82,521	0,045	-0,035
-151,877	-181,781	0,068	-0,001
-150,862	-200,000	0,002	0,028
-149,847	751,387	-0,026	-0,051
-148,833	365,914	0,032	0,045
-147,818	-200,000	-0,037	0,160
-146,804	661,895	-0,095	0,174
-145,789	-200,000	0,010	0,062
-144,775	-128,732	0,072	0,007
-143,760	-200,000	0,020	-0,086
-142,745	800,000	0,021	0,053
-141,731	-61,651	0,050	0,015
-140,716	101,517	-0,053	0,044
-139,702	-200,000	0,002	-0,027
-138,687	800,000	0,037	-0,099
-137,672	3,034	-0,163	-0,084
-136,658	-200,000	0,016	-0,156
-135,643	379,542	-0,042	0,062
-134,629	43,783	0,011	-0,007
-133,614	800,000	-0,033	0,098
-132,599	-78,727	0,021	0,005
-131,585	-200,000	0,017	0,072
-130,570	800,000	0,074	0,149
-129,556	-63,849	-0,100	-0,029
-128,541	-139,944	-0,085	0,006
-127,526	142,369	-0,057	-0,054
-126,512	-200,000	0,009	0,048
-125,497	-200,000	0,028	-0,131
-124,483	-200,000	0,013	0,160
-123,468	-23,326	0,069	0,029
-122,453	800,000	-0,007	0,015
-121,439	129,009	-0,068	0,061
-120,424	-155,620	-0,130	0,006
-119,410	-158,412	-0,092	-0,004
-118,395	800,000	-0,041	-0,117
-117,380	-65,989	0,053	0,015
-116,366	800,000	0,034	0,071
-115,351	-200,000	-0,003	-0,043
-114,337	9,591	-0,177	-0,095
-113,322	-33,476	0,046	0,018
-112,307	800,000	-0,051	-0,105
-111,293	-25,201	-0,016	0,007
-110,278	-84,092	0,168	0,037
-109,264	800,000	0,030	0,090
-108,249	-55,990	0,020	-0,006
-107,234	800,000	0,041	-0,085
-106,220	10,813	-0,053	0,029
-105,205	-138,266	0,158	0,012
-104,191	-75,275	0,131	0,033
-103,176	-200,000	-0,004	0,019
-102,162	180,541	-0,020	-0,021
-101,147	-200,000	0,005	-0,021
-100,132	-34,168	-0,091	-0,035
-99,118	-125,718	-0,091	-0,010
-98,103	29,437	0,074	0,045
-97,089	126,684	-0,040	0,036
-96,074	-144,027	0,076	-0,005
-95,059	-81,997	-0,153	-0,035
-94,045	-69,591	0,036	-0,010
-93,030	153,001	-0,099	-0,096
-92,016	-103,742	-0,101	-0,017
-91,001	241,465	0,017	0,020
-89,986	-156,546	0,040	-0,002
-88,972	-200,000	0,062	0,201
-87,957	51,865	0,081	-0,055
-86,943	800,000	0,013	-0,031
-85,928	800,000	-0,042	0,088
-84,913	0,566	0,057	0,029
-83,899	800,000	0,012	-0,031
-82,884	-200,000	-0,008	0,038
-81,870	180,030	0,051	0,053
-80,855	318,861	0,044	0,060
-79,840	144,285	-0,094	0,089
-78,826	-89,670	0,041	0,008
-77,811	-19,828	-0,063	-0,028
-76,797	-148,801	-0,043	0,002
-75,782	-134,524	0,055	0,005
-74,767	184,572	0,111	0,117
-73,753	-200,000	0,016	0,064
-72,738	537,428	0,055	0,093
-71,724	-34,957	-0,126	-0,049
-70,709	168,967	-0,083	-0,084
-69,694	-146,338	-0,046	0,003
-68,680	-54,564	-0,092	-0,029
-67,665	-200,000	0,023	-0,102
-66,651	252,882	0,064	0,077
-65,636	-200,000	0,027	-0,093
-64,622	-186,651	-0,149	-0,001
-63,607	-200,000	-0,002	0,012
-62,592	37,882	0,064	-0,040
-61,578	94,919	-0,097	-0,078
-60,563	-200,000	-0,008	0,133
-59,549	18,150	-0,040	0,022
-58,534	-54,354	-1,433	-0,458
-57,519	362,019	-1,479	-2,108
-56,505	-200,000	-0,638	-4,629
-55,490	83,237	1,082	0,834
-54,476	800,000	4,836	11,443
-53,461	-200,000	18,260	285,884
-52,446	800,000	726,690	2222,476
-51,432	553,707	1642,081	2807,105
-50,417	79,445	1664,278	1263,012
-49,403	23,062	1538,287	891,589
-48,388	17,046	1461,514	817,976
-47,373	17,857	1451,541	816,263
-46,359	17,283	1442,137	808,199
-45,344	15,288	1437,437	796,013
-44,330	15,197	1435,533	794,494
-43,315	15,233	1433,681	793,609
-42,300	15,269	1431,927	792,780
-41,286	15,300	1430,859	792,302
-40,271	15,252	1429,690	791,398
-39,257	15,281	1428,484	790,837
-38,242	15,284	1427,111	790,059
-37,227	15,299	1426,105	789,542
-36,213	15,320	1424,487	788,714
-35,198	15,281	1423,607	788,008
-34,184	15,355	1422,651	787,799
-33,169	15,240	1421,289	786,472
-32,154	15,302	1420,355	786,216
-31,140	15,325	1418,876	785,472
-30,125	15,343	1417,927	785,002
-29,111	15,295	1416,632	784,028
-28,096	15,298	1415,611	783,445
-27,082	15,221	1414,594	782,491
-26,067	15,252	1413,292	781,885
-25,052	15,202	1412,159	780,992
-24,038	15,176	1411,317	780,372
-23,023	15,191	1410,296	779,849
-22,009	15,184	1409,205	779,180
-20,994	15,135	1408,489	778,528
-19,979	15,203	1407,357	778,186
-18,965	15,193	1406,249	777,497
-17,950	15,149	1405,607	776,906
-16,936	15,147	1404,576	776,297
-15,921	15,118	1403,352	775,453
-14,906	15,129	1402,387	774,941
-13,892	15,097	1401,830	774,453
-12,877	15,112	1400,858	773,956
-11,863	15,115	1399,752	773,326
-10,848	15,092	1398,922	772,731
-9,833	15,072	1398,135	772,175
-8,819	15,007	1397,278	771,369
-7,804	15,031	1396,108	770,802
-6,790	15,031	1395,094	770,211
-5,775	15,029	1393,900	769,512
-4,760	15,000	1393,449	769,099
-3,746	15,020	1392,508	768,641
-2,731	15,034	1391,667	768,213
-1,717	15,010	1390,681	767,524
-0,702	14,992	1388,884	766,421
0,313	18,850	1308,363	739,820
1,327	35,274	707,302	438,027
2,342	54,019	124,973	84,908
3,356	2,858	16,665	8,533
4,371	9,959	3,170	1,698
5,386	-96,174	0,470	0,087
6,400	397,850	0,116	0,172
7,415	221,840	-0,199	-0,227
8,429	30,349	-0,420	-0,253
9,444	12,004	-0,316	-0,171
10,459	46,233	-0,298	-0,195
11,473	-92,517	-0,336	-0,066
12,488	-27,396	-0,234	-0,096
13,502	-33,383	-0,255	-0,099
14,517	54,815	-0,346	-0,236
15,531	176,711	-0,276	-0,284
16,546	-15,479	-0,348	-0,157
17,561	130,408	-0,320	-0,290
18,575	-20,271	-0,206	-0,089
19,590	23,247	-0,247	-0,143
20,604	27,882	-0,211	-0,126
21,619	37,016	-0,385	-0,240
22,634	108,908	-0,419	-0,354
23,648	65,176	-0,456	-0,325
24,663	181,499	-0,301	-0,313
25,677	299,918	-0,265	-0,346
26,692	-32,462	-0,311	-0,122
27,707	18,239	-0,280	-0,157
28,721	-121,124	-0,320	-0,037
29,736	30,625	-0,421	-0,254
30,750	112,668	-0,398	-0,340
31,765	135,311	-0,457	-0,419
32,780	475,737	-0,255	-0,408
33,794	-10,848	-0,383	-0,178
34,809	35,063	-0,444	-0,274
35,823	-18,944	-0,324	-0,142
36,838	38,471	-0,375	-0,236
37,853	132,180	-0,289	-0,263
38,867	82,559	-0,401	-0,307
39,882	16,353	-0,365	-0,202
40,896	16,194	-0,367	-0,203
41,911	111,135	-0,314	-0,267
42,926	30,942	-0,427	-0,257
43,940	46,378	-0,304	-0,199
44,955	30,660	-0,346	-0,208
45,969	254,837	-0,321	-0,389
46,984	147,887	-0,286	-0,272
47,999	172,621	-0,348	-0,353
49,013	74,803	-0,265	-0,196
50,028	34,098	-0,325	-0,199
51,042	33,538	-0,373	-0,228
52,057	81,486	-0,360	-0,274
53,071	97,222	-0,342	-0,276
54,086	64,325	-0,397	-0,281
55,101	3,615	-0,225	-0,115
56,115	596,098	-0,202	-0,353
57,130	-40,559	-0,368	-0,134
58,144	44,472	-0,339	-0,219
59,159	214,070	-0,355	-0,396
60,174	26,781	-0,373	-0,219
61,188	26,214	-0,317	-0,186
62,203	-70,530	-0,317	-0,084
63,217	39,322	-0,289	-0,182
64,232	-41,824	-0,312	-0,112
65,247	-80,478	-0,399	-0,093
66,261	18,305	-0,357	-0,200
67,276	-36,011	-0,375	-0,142
68,290	96,928	-0,202	-0,163
69,305	145,534	-0,333	-0,314
70,320	16,843	-0,212	-0,118
71,334	800,000	-0,121	-0,247
72,349	569,724	-0,259	-0,445
73,363	-57,250	-0,331	-0,102
74,378	617,559	-0,232	-0,411
75,393	95,869	-0,351	-0,281
76,407	-152,197	-0,287	-0,014
77,422	-3,985	-0,315	-0,153
78,436	-113,195	-0,342	-0,047
79,451	62,077	-0,264	-0,185
80,466	57,428	-0,345	-0,236
81,480	84,401	-0,351	-0,269
82,495	40,404	-0,304	-0,192
83,509	41,073	-0,246	-0,156
84,524	97,863	-0,158	-0,128
85,539	-98,830	-0,320	-0,057
86,553	46,314	-0,189	-0,123
87,568	20,262	-0,223	-0,126
88,582	-5,504	-0,334	-0,160
89,597	-26,626	-0,313	-0,128
90,611	138,426	-0,350	-0,322
91,626	-10,062	-0,377	-0,175
92,641	-72,655	-0,336	-0,086
93,655	133,368	-0,272	-0,247
94,670	800,000	-0,156	-0,337
95,684	124,225	-0,337	-0,297
96,699	48,365	-0,345	-0,226
97,714	70,525	-0,341	-0,247
98,728	-16,335	-0,292	-0,130
99,743	-22,300	-0,194	-0,082
100,757	-7,314	-0,148	-0,070
101,772	209,766	-0,251	-0,277
102,787	-11,629	-0,318	-0,146
103,801	-42,294	-0,280	-0,100
104,816	748,329	-0,154	-0,293
105,830	100,422	-0,206	-0,167
106,845	99,113	-0,314	-0,255
107,860	-11,441	-0,295	-0,135
108,874	-94,131	-0,390	-0,074
109,889	800,000	-0,142	-0,278
110,903	52,757	-0,206	-0,138
111,918	18,494	-0,439	-0,245
112,933	-57,415	-0,327	-0,100
113,947	612,078	-0,144	-0,253
114,962	800,000	-0,131	-0,310
115,976	569,976	-0,183	-0,312
116,991	113,416	-0,224	-0,190
118,006	78,817	-0,344	-0,257
119,020	27,763	-0,235	-0,138
120,035	87,747	-0,242	-0,187
121,049	119,881	-0,216	-0,187
122,064	-55,431	-0,123	-0,038
123,079	28,582	-0,354	-0,209
124,093	95,894	-0,234	-0,187
125,108	82,788	-0,269	-0,204
126,122	294,358	-0,150	-0,193
127,137	194,853	-0,177	-0,188
128,151	86,511	-0,196	-0,151
129,166	705,500	-0,114	-0,212
130,181	309,669	-0,159	-0,208
131,195	81,437	-0,181	-0,137
132,210	105,562	-0,210	-0,174
133,224	153,645	-0,273	-0,262
134,239	-21,385	-0,300	-0,127
135,254	236,352	-0,203	-0,235
136,268	-139,668	-0,173	0,013
137,283	12,738	-0,182	-0,098
138,297	146,301	-0,252	-0,237
139,312	-96,344	-0,325	-0,060
140,327	15,576	-0,329	-0,180
141,341	48,272	-0,163	-0,106
142,356	16,313	-0,244	-0,134
143,370	-57,934	-0,283	-0,086
144,385	186,380	-0,163	-0,169
145,400	-25,103	-0,248	-0,102
146,414	48,181	-0,355	-0,232
147,429	-92,026	-0,372	-0,073
148,443	31,898	-0,152	-0,091
149,458	228,417	-0,107	-0,122
150,473	124,818	-0,200	-0,176
151,487	103,172	-0,250	-0,205
152,502	59,308	-0,069	-0,047
153,516	14,366	-0,282	-0,153
154,531	132,490	-0,164	-0,148
155,546	41,019	-0,255	-0,160
156,560	133,305	-0,243	-0,219
157,575	77,924	-0,203	-0,151
158,589	32,950	-0,138	-0,084
159,604	-7,863	-0,439	-0,206
160,619	-40,323	-0,233	-0,084
161,633	31,549	-0,356	-0,213
162,648	94,581	-0,209	-0,166
163,662	155,879	-0,255	-0,245
164,677	-22,675	-0,178	-0,075
165,692	111,894	-0,194	-0,164
166,706	55,514	-0,148	-0,100
167,721	22,667	-0,283	-0,161
168,735	21,250	-0,244	-0,138
169,750	101,421	-0,209	-0,169
170,764	359,025	-0,181	-0,254
171,779	-18,156	-0,149	-0,065
172,794	0,214	-0,174	-0,086
173,808	-95,102	-0,279	-0,052
174,823	66,684	-0,249	-0,177
175,837	-200,000	-0,092	-0,285
176,852	125,279	-0,257	-0,226
177,867	-91,368	-0,151	-0,030
178,881	296,179	-0,157	-0,201
179,896	141,737	-0,247	-0,229
180,910	12,227	-0,209	-0,112
181,925	198,551	-0,236	-0,252
182,940	151,836	-0,245	-0,233
183,954	800,000	-0,054	-0,116
184,969	110,668	-0,218	-0,183
185,983	49,149	-0,034	0,022
186,998	-165,878	-0,198	0,006
188,013	71,558	-0,260	-0,187
189,027	58,656	-0,285	-0,195
190,042	309,205	-0,209	-0,273
191,056	800,000	-0,163	-0,327
192,071	68,676	-0,218	-0,155
193,086	800,000	-0,110	-0,229
194,100	-94,706	-0,221	-0,041
195,115	706,356	-0,065	-0,119
196,129	-19,029	-0,208	-0,090
197,144	-132,730	-0,248	-0,022
198,159	257,042	-0,134	-0,160
199,173	177,684	-0,158	-0,160
200,188	-37,120	-0,279	-0,103
201,202	-86,460	-0,213	-0,045
202,217	267,895	-0,146	-0,178
203,232	227,237	-0,239	-0,271
204,246	85,787	-0,261	-0,200
205,261	-148,096	-0,189	-0,011
206,275	170,075	-0,111	-0,111
207,290	167,653	-0,160	-0,158
208,304	800,000	-0,076	-0,175
209,319	-56,335	-0,260	-0,080
210,334	470,693	-0,133	-0,208
211,348	-99,623	-0,220	0,038
212,363	384,691	-0,232	-0,333
213,377	99,693	-0,161	-0,129
214,392	-200,000	-0,056	-0,208
215,407	22,956	-0,176	-0,100
216,421	-160,868	-0,189	0,007
217,436	75,930	-0,199	-0,146
218,450	66,833	-0,248	-0,175
219,465	-200,000	-0,071	-0,235
220,480	128,913	-0,086	-0,076
221,494	8,263	-0,318	-0,165
222,509	-47,754	-0,084	-0,028
223,523	775,977	-0,095	-0,180
224,538	49,391	-0,285	-0,186
225,553	-53,522	-0,181	-0,057
226,567	7,522	-0,058	-0,030
227,582	-55,443	-0,192	-0,059
228,596	557,948	-0,166	-0,278
229,611	-47,163	-0,250	-0,084
230,626	272,008	-0,080	-0,099
231,640	-54,656	-0,112	0,035
232,655	253,152	-0,148	-0,176
233,669	60,077	-0,292	-0,200
234,684	-54,005	-0,267	-0,084
235,699	-145,789	-0,070	0,004
236,713	-103,483	-0,194	-0,031
237,728	42,683	-0,201	-0,127
238,742	-95,709	-0,321	-0,059
239,757	166,923	-0,222	-0,219
240,772	217,955	-0,221	-0,245
241,786	-10,525	-0,336	-0,154
242,801	115,182	-0,207	-0,175
243,815	90,353	-0,213	-0,165
244,830	118,279	-0,189	-0,161
245,844	173,010	-0,171	-0,171
246,859	222,984	-0,154	-0,172
247,874	49,110	-0,146	-0,095
248,888	-134,886	-0,225	0,019
249,903	49,132	-0,186	-0,121
250,917	21,472	-0,137	-0,077
251,932	443,632	-0,147	-0,224
252,947	67,048	-0,155	-0,109
253,961	63,300	-0,254	-0,176
254,976	-6,903	-0,289	-0,135
255,990	-200,000	-0,021	-0,102
257,005	-102,126	-0,339	-0,056
258,020	68,865	-0,187	-0,132
259,034	36,660	-0,178	-0,108
260,049	-91,543	-0,221	-0,043
261,063	437,014	-0,221	-0,334
262,078	563,821	-0,144	-0,242
263,093	114,207	-0,219	-0,185
264,107	-176,217	-0,168	0,003
265,122	-200,000	0,004	-0,091
266,136	-26,360	-0,081	-0,033
267,151	510,581	-0,096	-0,155
268,166	-146,990	-0,118	0,007
269,180	78,748	-0,163	-0,121
270,195	174,317	-0,138	-0,138
271,209	94,507	-0,242	-0,190
272,224	220,838	-0,139	-0,154
273,239	-200,000	-0,041	-0,178
274,253	88,052	-0,164	-0,126
275,268	41,782	-0,192	-0,120
276,282	-44,117	-0,234	-0,081
277,297	-54,942	-0,193	-0,060
278,312	-111,161	-0,182	-0,026
279,326	2,645	-0,228	-0,114
280,341	-200,000	0,029	-0,101
281,355	37,861	-0,118	0,073
282,370	121,125	-0,177	-0,152
283,384	132,655	-0,157	-0,140
284,399	-49,430	-0,278	-0,091
285,414	-200,000	-0,077	-0,301
286,428	113,904	-0,164	-0,138
287,443	242,704	-0,137	-0,159
288,457	-100,046	-0,054	-0,009
289,472	31,709	-0,126	-0,075
290,487	107,014	-0,094	-0,077
291,501	108,782	-0,127	-0,105
292,516	218,757	-0,118	-0,130
293,530	631,104	-0,061	-0,107
294,545	38,015	-0,119	-0,073
295,560	-108,102	-0,210	-0,031
296,574	166,852	-0,234	-0,230
297,589	29,370	-0,179	-0,105
298,603	-147,453	-0,215	-0,012
299,618	-9,837	-0,184	-0,084
300,633	12,301	-0,121	0,064
301,647	800,000	-0,109	-0,222
302,662	-91,130	-0,159	-0,031
303,676	127,619	-0,039	-0,034
304,691	75,397	-0,185	-0,134
305,706	-26,357	-0,215	-0,087
306,720	265,540	-0,092	-0,110
307,735	-163,196	-0,246	0,008
308,749	-172,973	-0,138	0,003
309,764	627,510	-0,105	-0,184
310,779	31,413	-0,088	-0,052
311,793	261,482	-0,121	-0,144
312,808	-200,000	-0,049	-0,275
313,822	682,960	-0,139	-0,250
314,837	374,599	-0,135	-0,190
315,852	483,780	-0,080	-0,125
316,866	74,163	-0,044	-0,032
317,881	45,801	-0,106	0,067
318,895	-189,675	-0,203	-0,002
319,910	92,084	-0,255	-0,198
320,925	-200,000	-0,048	-0,287
321,939	-200,000	0,020	-0,171
322,954	47,679	-0,152	-0,097
323,968	-35,204	-0,150	0,056
324,983	800,000	-0,018	0,039
325,997	-200,000	-0,014	-0,207
327,012	-53,922	-0,151	-0,047
328,027	800,000	-0,058	-0,150
329,041	13,865	-0,111	-0,059
330,056	-133,912	-0,095	-0,008
331,070	62,742	-0,187	-0,129
332,085	-154,430	-0,112	0,005
333,100	5,987	-0,211	-0,107
334,114	98,728	-0,067	-0,053
335,129	-73,660	-0,111	-0,027
336,143	166,886	-0,154	-0,150
337,158	800,000	-0,061	-0,125
338,173	-25,886	-0,156	-0,063
339,187	18,672	-0,070	0,038
340,202	1,417	-0,045	-0,022
341,216	52,993	-0,085	-0,056
342,231	24,108	-0,210	-0,118
343,246	9,607	-0,155	-0,080
344,260	-121,500	-0,182	-0,021
345,275	539,066	-0,034	-0,055
346,289	-107,195	-0,093	0,014
347,304	-77,033	-0,163	-0,039
348,319	153,820	-0,143	-0,135
349,333	187,040	-0,204	-0,209
350,348	490,225	-0,199	-0,314
351,362	97,891	-0,109	-0,086
352,377	-110,334	-0,151	-0,021
353,392	-127,824	-0,155	-0,015
354,406	93,407	-0,083	0,064
355,421	208,200	1320,408	1417,757
356,435	160,189	1481,836	1418,257
