DTS Sentinel unit serial number:	SN410029Multiplexer serial number:	ORYXHardware model number:	OX2-SRSoftware version number:	ORYX F/W v4,00 Oryx Data Collector v3.7.2.0data status	okinstallation	B3 Nyhavnadifferential loss correction	single-endedforward channel	channel 1reverse channel	N/Adate	2023/11/29time	09:57:30forward acquisition time	300,00reverse acquisition time	0,00gamma	499,1914k internal	0,3212k external	0,3212temperature offset calibration	1,0000default loss term (dB/km)	0,3820temperature slope calibration	1,0000multiplexer offset coefficient	1,0000multiplexer slope coefficient	1,0000fibre end	0,00T internal ref (°C)	9,28T ext. ref 1 (°C)	-5,34T ext. ref 2 (°C)	-5,47length (m)	temperature (°C)	Stokes	anti-Stokes-744,400	800,000	-0,045	-0,099
-743,385	-200,000	-0,030	0,315
-742,371	41,347	-0,119	-0,078
-741,356	-200,000	0,020	0,265
-740,342	30,557	-0,088	-0,054
-739,327	159,946	-0,150	0,152
-738,312	449,946	-0,217	-0,349
-737,298	-200,000	-0,023	0,109
-736,283	-200,000	-0,056	-0,274
-735,269	800,000	0,116	0,340
-734,254	-29,395	-0,220	-0,091
-733,239	-168,397	-0,064	-0,002
-732,225	800,000	0,085	-0,173
-731,210	559,896	0,082	0,145
-730,196	91,188	-0,104	0,084
-729,181	-7,016	0,099	0,048
-728,167	-200,000	-0,013	0,128
-727,152	133,057	-0,128	-0,120
-726,137	-200,000	0,016	-0,148
-725,123	-33,270	-0,225	-0,090
-724,108	662,134	0,097	-0,181
-723,094	162,013	-0,097	-0,098
-722,079	253,156	-0,036	0,044
-721,064	176,371	-0,080	0,085
-720,050	-200,000	0,022	0,159
-719,035	10,298	-0,117	-0,064
-718,021	137,656	-0,036	0,034
-717,006	80,204	-0,135	-0,105
-715,991	6,396	-0,038	-0,021
-714,977	800,000	0,009	0,028
-713,962	173,926	-0,041	-0,043
-712,948	-200,000	0,026	-0,131
-711,933	-200,000	-0,001	0,059
-710,918	-200,000	-0,047	-0,210
-709,904	-200,000	0,009	0,032
-708,889	-114,214	-0,085	-0,012
-707,875	88,496	-0,188	-0,151
-706,860	80,646	0,121	-0,094
-705,845	-59,369	0,117	0,036
-704,831	-10,906	0,061	-0,029
-703,816	129,009	0,101	-0,094
-702,802	-200,000	0,020	-0,067
-701,787	-180,633	-0,015	0,000
-700,772	12,399	-0,208	-0,116
-699,758	-65,439	0,138	-0,040
-698,743	-200,000	-0,019	0,221
-697,729	149,943	-0,114	0,112
-696,714	-200,000	0,005	0,029
-695,699	199,098	0,020	-0,022
-694,685	-61,112	0,073	-0,022
-693,670	-200,000	-0,008	-0,084
-692,656	-150,971	-0,118	0,006
-691,641	-200,000	-0,034	0,134
-690,627	370,074	0,075	-0,111
-689,612	-113,181	0,101	0,014
-688,597	-119,121	0,036	-0,004
-687,583	-200,000	0,020	-0,122
-686,568	-78,003	-0,077	0,019
-685,554	-200,000	-0,008	-0,082
-684,539	120,689	0,043	-0,039
-683,524	-146,235	-0,119	0,007
-682,510	141,449	0,018	0,017
-681,495	-178,389	-0,191	0,003
-680,481	421,605	0,012	-0,019
-679,466	-200,000	0,000	0,017
-678,451	367,571	0,083	-0,121
-677,437	234,798	0,023	-0,028
-676,422	7,305	-0,039	0,021
-675,408	36,474	0,047	0,030
-674,393	-200,000	-0,010	-0,049
-673,378	-200,000	-0,051	0,179
-672,364	-59,906	-0,087	-0,027
-671,349	-200,000	-0,012	-0,064
-670,335	-89,733	-0,064	-0,013
-669,320	800,000	-0,035	0,089
-668,305	233,592	0,051	0,061
-667,291	70,500	-0,067	0,050
-666,276	-28,935	-0,013	-0,005
-665,262	-180,466	-0,148	-0,002
-664,247	-45,057	-0,065	0,023
-663,232	56,744	-0,119	-0,083
-662,218	217,676	-0,048	0,055
-661,203	800,000	-0,017	0,040
-660,189	-200,000	-0,006	0,097
-659,174	83,044	-0,038	0,030
-658,159	106,368	-0,027	0,023
-657,145	461,479	-0,079	-0,127
-656,130	409,662	0,072	0,111
-655,116	494,975	0,041	0,068
-654,101	220,148	-0,064	-0,074
-653,086	-49,499	-0,024	0,008
-652,072	19,016	0,021	-0,012
-651,057	-78,131	-0,027	-0,007
-650,043	-200,000	-0,107	0,000
-649,028	285,637	0,085	-0,111
-648,014	800,000	0,038	0,078
-646,999	800,000	0,039	0,091
-645,984	-68,472	-0,035	0,010
-644,970	-200,000	-0,031	0,138
-643,955	294,559	-0,113	-0,149
-642,941	-200,000	0,021	-0,126
-641,926	119,576	-0,138	0,124
-640,911	-200,000	0,022	-0,115
-639,897	-200,000	0,003	-0,091
-638,882	-200,000	-0,009	0,108
-637,868	21,665	-0,118	-0,069
-636,853	20,316	0,100	0,058
-635,838	77,382	-0,110	-0,084
-634,824	-200,000	-0,004	0,030
-633,809	41,458	0,047	-0,031
-632,795	-38,809	0,028	-0,011
-631,780	800,000	0,011	0,022
-630,765	-28,427	-0,157	0,065
-629,751	66,875	-0,011	-0,008
-628,736	111,701	0,034	-0,030
-627,722	325,969	0,048	-0,067
-626,707	448,121	0,059	0,094
-625,692	-79,137	0,063	0,015
-624,678	-144,411	0,152	-0,010
-623,663	-200,000	0,026	0,118
-622,649	-97,372	-0,080	0,015
-621,634	124,786	-0,020	-0,018
-620,619	-62,505	-0,230	-0,069
-619,605	176,168	-0,008	0,009
-618,590	586,067	-0,064	0,114
-617,576	111,590	-0,066	-0,057
-616,561	122,575	-0,028	0,025
-615,546	-200,000	0,008	-0,029
-614,532	800,000	-0,085	-0,224
-613,517	258,110	-0,054	0,067
-612,503	290,198	0,083	0,109
-611,488	-200,000	-0,018	-0,086
-610,474	-200,000	-0,009	0,047
-609,459	800,000	0,012	0,029
-608,444	-82,467	0,041	-0,009
-607,430	-103,002	-0,158	-0,027
-606,415	-158,471	-0,061	0,002
-605,401	-75,788	0,069	-0,018
-604,386	800,000	-0,058	-0,139
-603,371	-35,856	0,098	0,038
-602,357	259,030	-0,020	0,025
-601,342	-200,000	0,010	0,086
-600,328	38,719	-0,114	0,073
-599,313	11,022	-0,105	-0,058
-598,298	800,000	-0,032	-0,066
-597,284	-78,815	0,084	0,021
-596,269	800,000	0,063	-0,140
-595,255	800,000	0,017	0,045
-594,240	-56,589	-0,018	0,006
-593,225	-8,586	-0,028	0,014
-592,211	-142,940	-0,159	0,011
-591,196	-95,298	0,058	0,011
-590,182	-3,451	-0,039	0,020
-589,167	42,131	0,043	-0,028
-588,152	395,032	-0,040	-0,061
-587,138	783,208	0,028	-0,056
-586,123	-200,000	0,033	-0,170
-585,109	230,733	0,066	-0,078
-584,094	800,000	0,062	0,173
-583,079	622,885	0,051	0,092
-582,065	-127,899	0,040	0,004
-581,050	242,305	-0,045	0,054
-580,036	-200,000	0,016	-0,059
-579,021	467,558	-0,024	0,039
-578,006	-200,000	0,004	-0,051
-576,992	800,000	-0,014	0,044
-575,977	800,000	0,048	-0,110
-574,963	103,551	0,054	0,045
-573,948	-136,149	-0,043	0,004
-572,934	170,751	-0,085	0,088
-571,919	385,311	0,120	-0,179
-570,904	100,329	-0,072	-0,060
-569,890	235,172	-0,072	0,086
-568,875	422,999	0,035	-0,055
-567,861	800,000	-0,021	-0,065
-566,846	415,718	0,066	-0,102
-565,831	317,504	-0,070	-0,096
-564,817	-200,000	-0,024	-0,142
-563,802	-200,000	0,022	-0,087
-562,788	-26,318	-0,174	0,073
-561,773	168,409	-0,057	-0,059
-560,758	-89,966	0,062	0,013
-559,744	-46,804	0,133	-0,047
-558,729	372,339	-0,016	0,023
-557,715	-200,000	-0,005	-0,023
-556,700	800,000	-0,011	0,024
-555,685	800,000	0,053	0,126
-554,671	780,619	0,042	-0,083
-553,656	202,768	0,066	0,074
-552,642	-72,052	-0,128	-0,034
-551,627	24,545	-0,035	-0,021
-550,612	-200,000	-0,029	-0,136
-549,598	-200,000	0,009	-0,108
-548,583	165,374	-0,117	-0,119
-547,569	800,000	-0,050	-0,102
-546,554	-17,627	0,106	0,048
-545,539	-189,649	-0,013	-0,000
-544,525	119,130	0,054	0,048
-543,510	-200,000	-0,199	-0,001
-542,496	287,212	-0,049	-0,064
-541,481	-75,429	-0,069	0,017
-540,466	209,603	-0,042	0,048
-539,452	-200,000	-0,001	0,095
-538,437	111,672	-0,025	-0,022
-537,423	98,671	0,080	0,066
-536,408	146,725	-0,053	-0,051
-535,393	-200,000	-0,018	0,080
-534,379	15,133	-0,056	0,031
-533,364	-200,000	0,009	0,086
-532,350	-134,509	0,060	-0,005
-531,335	96,331	0,064	0,053
-530,321	92,936	-0,042	0,034
-529,306	-200,000	0,008	-0,033
-528,291	-23,216	-0,111	-0,048
-527,277	-87,370	-0,185	0,040
-526,262	41,700	-0,062	0,040
-525,248	55,799	0,104	0,072
-524,233	-200,000	0,015	0,059
-523,218	531,467	0,104	0,178
-522,204	-200,000	0,020	-0,156
-521,189	-200,000	0,006	-0,036
-520,175	-110,216	-0,070	0,010
-519,160	208,094	0,043	-0,048
-518,145	-55,845	0,099	-0,032
-517,131	-128,720	0,136	-0,014
-516,116	353,614	0,039	0,056
-515,102	-200,000	0,041	0,137
-514,087	456,712	-0,029	-0,046
-513,072	-84,091	-0,162	-0,037
-512,058	109,394	0,093	-0,080
-511,043	9,902	0,083	0,045
-510,029	800,000	0,079	0,200
-509,014	-99,753	0,136	-0,024
-507,999	-200,000	-0,009	0,066
-506,985	-200,000	0,007	0,046
-505,970	-200,000	-0,014	-0,123
-504,956	-104,735	-0,062	-0,010
-503,941	-200,000	-0,002	0,050
-502,926	637,721	-0,047	0,087
-501,912	34,793	0,174	0,109
-500,897	-134,997	0,121	-0,010
-499,883	306,403	-0,042	-0,057
-498,868	35,895	0,074	-0,047
-497,853	0,608	-0,155	-0,079
-496,839	22,796	0,143	-0,084
-495,824	110,870	-0,058	-0,050
-494,810	327,020	0,073	0,101
-493,795	800,000	-0,014	0,032
-492,781	-35,969	-0,067	-0,026
-491,766	800,000	-0,063	0,128
-490,751	-50,523	-0,063	-0,021
-489,737	528,231	-0,057	-0,097
-488,722	-200,000	-0,004	0,075
-487,708	-200,000	-0,004	-0,016
-486,693	-200,000	0,027	0,117
-485,678	-65,293	-0,111	0,032
-484,664	-132,585	0,043	-0,004
-483,649	-200,000	-0,019	0,090
-482,635	423,991	0,070	-0,109
-481,620	-32,485	-0,066	-0,026
-480,605	316,341	0,023	-0,031
-479,591	-200,000	0,011	0,127
-478,576	-72,667	-0,102	0,027
-477,562	-138,020	0,204	-0,016
-476,547	167,347	-0,108	-0,110
-475,532	11,612	-0,093	-0,051
-474,518	-49,144	-0,013	0,005
-473,503	-200,000	0,014	0,079
-472,489	-200,000	0,021	0,087
-471,474	104,449	0,019	-0,016
-470,459	800,000	-0,088	-0,179
-469,445	455,583	-0,095	-0,151
-468,430	106,123	0,047	-0,040
-467,416	800,000	-0,023	-0,069
-466,401	-200,000	0,013	0,049
-465,386	50,739	0,107	0,072
-464,372	-200,000	0,024	0,109
-463,357	715,949	0,018	-0,034
-462,343	-102,376	-0,143	0,024
-461,328	-200,000	0,028	-0,124
-460,313	363,035	0,022	0,032
-459,299	170,966	-0,071	0,073
-458,284	86,374	0,082	0,065
-457,270	-172,675	0,045	-0,001
-456,255	-185,100	0,079	-0,001
-455,241	-200,000	0,003	-0,017
-454,226	-143,166	0,272	-0,018
-453,211	95,776	0,120	0,098
-452,197	331,655	0,055	0,076
-451,182	3,797	-0,092	-0,048
-450,168	800,000	-0,034	-0,078
-449,153	-142,712	0,097	0,007
-448,138	-111,349	-0,134	-0,019
-447,124	-182,349	-0,141	0,002
-446,109	-10,123	0,056	-0,027
-445,095	17,255	-0,190	-0,108
-444,080	800,000	0,036	-0,093
-443,065	127,859	0,153	0,139
-442,051	764,672	-0,045	-0,087
-441,036	-26,186	-0,081	-0,034
-440,022	-200,000	-0,026	-0,108
-439,007	-200,000	0,013	0,061
-437,992	800,000	0,036	0,106
-436,978	773,817	-0,031	0,060
-435,963	-200,000	0,000	-0,060
-434,949	-150,408	0,152	-0,008
-433,934	-200,000	-0,031	-0,118
-432,919	635,882	-0,011	0,021
-431,905	-168,325	-0,032	0,001
-430,890	-200,000	0,041	0,174
-429,876	358,957	0,023	0,033
-428,861	-200,000	-0,001	0,007
-427,846	-30,381	-0,026	-0,011
-426,832	-200,000	-0,004	-0,071
-425,817	-200,000	-0,004	-0,090
-424,803	-41,097	-0,034	0,013
-423,788	-200,000	-0,026	0,128
-422,773	54,001	0,109	0,075
-421,759	647,024	0,076	0,139
-420,744	763,501	0,092	0,180
-419,730	34,417	-0,125	0,078
-418,715	7,358	0,051	0,027
-417,701	800,000	0,025	0,056
-416,686	-200,000	-0,017	-0,116
-415,671	-200,000	0,020	-0,088
-414,657	533,367	0,074	0,127
-413,642	-91,657	-0,145	-0,029
-412,628	-73,842	0,185	-0,048
-411,613	-42,147	-0,226	-0,082
-410,598	-122,588	0,141	0,016
-409,584	-138,316	0,022	0,002
-408,569	149,204	0,065	0,063
-407,555	181,553	-0,100	-0,105
-406,540	-124,630	-0,055	0,006
-405,525	402,527	0,055	0,082
-404,511	-200,000	0,021	-0,162
-403,496	333,492	-0,032	0,045
-402,482	-200,000	-0,024	0,130
-401,467	-200,000	0,014	0,046
-400,452	-128,046	0,124	-0,013
-399,438	-200,000	0,016	-0,061
-398,423	-149,436	-0,153	0,009
-397,409	-200,000	0,001	-0,005
-396,394	-22,735	-0,028	0,012
-395,379	30,442	-0,014	0,009
-394,365	18,251	0,111	0,063
-393,350	-126,391	0,106	-0,011
-392,336	286,916	0,065	0,084
-391,321	-132,377	0,050	0,005
-390,306	419,654	-0,087	-0,134
-389,292	742,472	-0,071	-0,137
-388,277	-200,000	0,012	0,069
-387,263	-200,000	-0,001	0,129
-386,248	213,754	0,044	0,050
-385,233	-67,734	-0,103	-0,029
-384,219	-200,000	-0,032	0,124
-383,204	-200,000	-0,006	0,130
-382,190	368,971	-0,026	0,037
-381,175	800,000	-0,030	0,070
-380,160	207,398	0,086	-0,095
-379,146	800,000	0,076	0,187
-378,131	800,000	0,027	0,064
-377,117	110,179	-0,124	0,106
-376,102	800,000	0,047	0,127
-375,088	46,363	-0,072	-0,047
-374,073	3,932	0,121	0,063
-373,058	-200,000	0,008	0,100
-372,044	25,535	0,114	-0,068
-371,029	213,870	-0,138	-0,157
-370,015	301,946	0,038	-0,050
-369,000	-200,000	0,007	-0,102
-367,985	473,438	0,062	-0,101
-366,971	148,674	-0,108	-0,104
-365,956	-200,000	0,025	0,162
-364,942	-102,339	0,157	-0,027
-363,927	33,602	-0,064	-0,040
-362,912	800,000	-0,026	-0,072
-361,898	709,696	-0,024	0,045
-360,883	-85,668	-0,112	0,025
-359,869	-200,000	-0,002	0,070
-358,854	121,547	-0,046	0,041
-357,839	-133,612	0,034	-0,003
-356,825	800,000	0,018	0,056
-355,810	800,000	-0,049	0,106
-354,796	-200,000	0,023	-0,086
-353,781	1,611	-0,061	-0,031
-352,766	-200,000	-0,010	-0,076
-351,752	230,959	-0,074	-0,087
-350,737	-200,000	0,015	0,068
-349,723	15,835	0,109	-0,061
-348,708	-200,000	0,009	0,087
-347,693	-142,649	-0,115	-0,008
-346,679	-59,954	0,081	0,024
-345,664	116,120	-0,052	-0,045
-344,650	-77,301	0,100	0,025
-343,635	134,591	0,057	0,053
-342,620	-104,818	0,033	-0,005
-341,606	215,733	-0,054	0,062
-340,591	73,405	-0,095	-0,071
-339,577	800,000	-0,038	-0,112
-338,562	-110,926	0,016	0,002
-337,548	800,000	-0,063	0,150
-336,533	-89,627	0,085	0,018
-335,518	173,884	0,018	0,018
-334,504	106,265	-0,022	-0,019
-333,489	-124,309	-0,046	0,005
-332,475	-200,000	0,001	-0,021
-331,460	-200,000	-0,035	-0,138
-330,445	754,406	-0,004	-0,008
-329,431	97,950	-0,052	0,043
-328,416	-200,000	0,009	0,190
-327,402	182,047	-0,039	0,041
-326,387	-30,169	0,057	-0,023
-325,372	-92,669	-0,032	-0,006
-324,358	302,341	0,039	0,052
-323,343	-80,334	0,047	-0,011
-322,329	124,070	0,061	-0,055
-321,314	-66,986	-0,032	-0,009
-320,299	-47,567	0,188	0,065
-319,285	-200,000	0,009	-0,031
-318,270	-200,000	0,032	-0,162
-317,256	-200,000	-0,062	0,000
-316,241	-164,103	0,087	-0,003
-315,226	-200,000	0,001	-0,145
-314,212	-125,412	0,025	-0,003
-313,197	2,393	0,076	0,039
-312,183	-95,606	-0,057	-0,011
-311,168	-46,956	0,064	0,022
-310,153	-200,000	0,001	-0,094
-309,139	-200,000	0,006	-0,126
-308,124	-163,522	0,049	-0,002
-307,110	62,797	0,036	-0,025
-306,095	-2,990	0,150	0,074
-305,080	-200,000	0,006	0,119
-304,066	7,462	-0,059	0,031
-303,051	-28,682	-0,092	-0,037
-302,037	152,840	0,054	0,052
-301,022	349,033	0,054	0,076
-300,008	-200,000	-0,029	0,104
-298,993	383,420	0,111	0,163
-297,978	-200,000	0,026	0,146
-296,964	-124,781	-0,046	0,005
-295,949	-182,944	0,147	-0,002
-294,935	51,510	0,129	-0,087
-293,920	-128,626	0,096	-0,009
-292,905	-166,362	-0,137	-0,004
-291,891	-4,773	0,152	0,075
-290,876	611,809	-0,026	-0,046
-289,862	-200,000	0,007	0,039
-288,847	800,000	0,028	0,065
-287,832	237,974	-0,069	-0,082
-286,818	32,700	-0,094	-0,058
-285,803	-77,365	0,040	0,010
-284,789	666,195	0,058	-0,107
-283,774	-31,950	-0,011	-0,004
-282,759	262,644	-0,087	0,108
-281,745	-123,196	-0,096	0,011
-280,730	146,110	0,087	0,083
-279,716	-200,000	0,013	-0,111
-278,701	238,838	0,046	0,055
-277,686	58,031	-0,014	-0,010
-276,672	183,263	0,048	-0,050
-275,657	-200,000	0,018	0,179
-274,643	-200,000	-0,024	0,082
-273,628	270,499	-0,030	0,038
-272,613	352,964	-0,073	-0,104
-271,599	25,115	-0,103	-0,060
-270,584	-200,000	0,012	0,044
-269,570	141,495	0,090	-0,085
-268,555	79,601	0,060	-0,046
-267,540	-75,985	0,107	-0,027
-266,526	800,000	-0,028	-0,066
-265,511	558,014	-0,075	-0,130
-264,497	800,000	-0,014	0,033
-263,482	35,356	0,033	0,021
-262,467	239,295	0,101	0,120
-261,453	29,421	-0,080	-0,048
-260,438	68,121	-0,040	-0,029
-259,424	-114,264	-0,025	-0,003
-258,409	797,028	0,051	-0,101
-257,395	-200,000	0,025	0,103
-256,380	800,000	-0,032	0,079
-255,365	800,000	0,061	0,133
-254,351	800,000	-0,055	0,117
-253,336	100,921	0,059	-0,049
-252,322	153,260	-0,067	0,065
-251,307	15,332	-0,100	-0,056
-250,292	-141,474	0,094	0,007
-249,278	-3,722	-0,098	0,048
-248,263	349,540	0,056	-0,079
-247,249	-149,489	0,185	-0,010
-246,234	-38,209	-0,103	0,039
-245,219	-177,026	-0,075	0,001
-244,205	800,000	-0,031	0,085
-243,190	165,024	-0,018	-0,018
-242,176	3,335	-0,094	0,048
-241,161	241,598	-0,062	0,074
-240,146	179,356	0,100	-0,104
-239,132	-128,703	-0,110	0,011
-238,117	-200,000	-0,001	-0,067
-237,103	-89,200	0,046	-0,010
-236,088	-106,851	-0,246	-0,038
-235,073	367,457	0,020	0,028
-234,059	208,444	0,127	-0,141
-233,044	706,152	-0,028	0,054
-232,030	-108,817	0,071	-0,011
-231,015	800,000	0,023	-0,071
-230,000	624,900	0,017	-0,030
-228,986	-191,310	-0,108	0,001
-227,971	-106,865	-0,056	0,009
-226,957	-116,984	0,084	0,011
-225,942	-33,827	-0,029	-0,011
-224,927	-124,607	0,077	0,008
-223,913	-20,601	-0,115	-0,050
-222,898	-200,000	-0,008	-0,121
-221,884	-200,000	0,005	-0,131
-220,869	6,744	0,109	-0,057
-219,855	-104,596	-0,084	0,014
-218,840	90,368	-0,047	0,038
-217,825	143,648	-0,075	0,071
-216,811	-200,000	-0,019	-0,071
-215,796	-110,834	-0,060	-0,009
-214,782	105,657	-0,084	-0,070
-213,767	-3,158	0,123	0,061
-212,752	-200,000	0,011	0,125
-211,738	-47,419	0,133	0,046
-210,723	-40,166	-0,020	0,007
-209,709	781,279	-0,057	-0,112
-208,694	38,582	-0,093	-0,059
-207,679	-34,311	0,075	0,029
-206,665	-200,000	0,019	-0,067
-205,650	-200,000	-0,009	-0,075
-204,636	170,077	0,076	0,077
-203,621	48,078	-0,082	0,054
-202,606	253,148	-0,055	0,067
-201,592	601,611	0,054	-0,096
-200,577	800,000	-0,068	-0,197
-199,563	-200,000	-0,007	-0,092
-198,548	-200,000	-0,005	-0,121
-197,533	3,476	0,108	0,056
-196,519	604,065	-0,060	0,106
-195,504	-175,525	-0,058	-0,001
-194,490	-115,618	-0,107	-0,014
-193,475	294,014	-0,053	-0,069
-192,460	743,072	-0,095	-0,182
-191,446	166,657	0,051	0,051
-190,431	-78,577	-0,095	-0,023
-189,417	112,669	0,063	0,054
-188,402	78,038	-0,177	0,133
-187,387	15,876	0,073	0,041
-186,373	519,981	-0,084	0,140
-185,358	800,000	0,057	-0,125
-184,344	-112,854	0,134	-0,019
-183,329	74,554	-0,056	-0,042
-182,315	4,515	0,128	-0,066
-181,300	-24,682	-0,087	-0,037
-180,285	800,000	-0,013	-0,030
-179,271	-57,451	-0,113	-0,035
-178,256	-91,382	0,036	0,007
-177,242	266,558	0,070	-0,087
-176,227	-90,530	0,166	0,034
-175,212	73,359	0,063	0,047
-174,198	-200,000	-0,020	0,066
-173,183	-200,000	0,012	-0,054
-172,169	710,057	0,041	-0,078
-171,154	-200,000	-0,019	-0,069
-170,139	350,048	0,045	0,064
-169,125	-44,510	0,191	0,067
-168,110	306,833	0,028	0,037
-167,096	-90,463	0,132	0,027
-166,081	-34,311	-0,167	-0,065
-165,066	125,778	-0,167	-0,150
-164,052	-143,625	0,046	0,003
-163,037	-87,777	0,077	-0,016
-162,023	450,190	0,056	0,088
-161,008	389,421	0,064	0,095
-159,993	-59,971	-0,051	-0,015
-158,979	-200,000	0,002	0,088
-157,964	800,000	0,020	0,045
-156,950	-17,187	-0,064	0,029
-155,935	800,000	0,024	-0,056
-154,920	458,936	0,058	-0,092
-153,906	-102,353	-0,088	-0,015
-152,891	-200,000	-0,011	0,044
-151,877	-200,000	-0,013	-0,079
-150,862	191,568	-0,049	-0,052
-149,847	1,484	0,050	-0,025
-148,833	393,522	0,083	0,122
-147,818	800,000	0,018	-0,041
-146,804	1,603	-0,044	0,022
-145,789	800,000	-0,023	0,071
-144,775	84,509	0,113	0,087
-143,760	233,447	0,086	-0,101
-142,745	364,121	0,058	-0,083
-141,731	-93,688	0,125	-0,024
-140,716	269,462	-0,036	-0,045
-139,702	-116,153	-0,087	-0,011
-138,687	-48,787	-0,085	0,029
-137,672	121,293	-0,070	0,062
-136,658	192,606	-0,126	-0,135
-135,643	198,274	-0,052	-0,057
-134,629	-25,286	0,253	0,106
-133,614	5,726	-0,089	0,046
-132,599	-200,000	0,030	0,134
-131,585	296,094	-0,045	0,059
-130,570	57,274	-0,073	-0,050
-129,556	81,080	-0,110	0,084
-128,541	800,000	-0,034	-0,081
-127,526	-68,578	-0,086	-0,023
-126,512	-50,512	0,086	-0,029
-125,497	-200,000	0,046	0,147
-124,483	170,612	0,069	0,070
-123,468	160,894	-0,139	0,138
-122,453	800,000	-0,034	-0,089
-121,439	107,010	-0,060	-0,050
-120,424	-200,000	0,003	-0,069
-119,410	-73,050	0,155	0,040
-118,395	-40,781	0,100	0,036
-117,380	72,799	0,110	0,081
-116,366	91,448	-0,094	0,075
-115,351	-200,000	-0,034	-0,160
-114,337	800,000	-0,033	-0,077
-113,322	-173,014	-0,096	-0,002
-112,307	-200,000	0,040	-0,128
-111,293	-50,339	-0,209	-0,070
-110,278	-200,000	0,037	-0,129
-109,264	52,049	-0,040	0,027
-108,249	168,007	-0,045	-0,045
-107,234	118,534	-0,108	-0,094
-106,220	29,602	0,024	0,014
-105,205	47,328	-0,033	0,022
-104,191	79,268	0,087	-0,066
-103,176	-77,638	-0,107	0,026
-102,162	527,806	-0,033	-0,054
-101,147	655,365	0,025	0,045
-100,132	-200,000	0,043	-0,136
-99,118	-200,000	-0,015	-0,152
-98,103	-200,000	0,017	-0,095
-97,089	800,000	0,039	0,114
-96,074	75,995	0,111	0,083
-95,059	-200,000	0,024	0,107
-94,045	-200,000	0,010	-0,072
-93,030	75,792	-0,077	-0,058
-92,016	-200,000	0,004	0,034
-91,001	-89,145	0,127	-0,026
-89,986	-30,737	0,072	0,029
-88,972	-200,000	0,021	0,099
-87,957	2,386	0,047	-0,024
-86,943	-35,451	-0,107	-0,041
-85,928	596,346	-0,060	-0,106
-84,913	102,962	-0,026	0,022
-83,899	-104,640	0,090	0,015
-82,884	-129,483	0,141	0,014
-81,870	158,461	-0,093	0,091
-80,855	800,000	0,065	0,138
-79,840	-200,000	0,003	0,215
-78,826	-200,000	0,019	0,109
-77,811	-200,000	0,018	-0,090
-76,797	-164,927	0,031	-0,001
-75,782	86,341	-0,129	0,100
-74,767	-200,000	0,032	0,144
-73,753	-48,601	-0,026	-0,009
-72,738	-200,000	0,000	-0,003
-71,724	-104,543	-0,040	-0,006
-70,709	-200,000	0,026	-0,098
-69,694	-200,000	0,001	-0,065
-68,680	-200,000	0,013	-0,068
-67,665	17,340	0,078	0,044
-66,651	423,035	0,020	0,030
-65,636	597,028	0,021	-0,038
-64,622	90,212	-0,043	-0,034
-63,607	800,000	0,035	-0,094
-62,592	430,637	-0,048	-0,073
-61,578	-200,000	0,008	0,037
-60,563	-49,068	0,161	-0,054
-59,549	175,042	0,076	0,078
-58,534	43,493	-2,050	-1,321
-57,519	364,492	-1,382	-1,969
-56,505	-200,000	-0,221	-4,324
-55,490	711,490	0,798	1,498
-54,476	800,000	5,123	11,520
-53,461	-200,000	21,750	340,747
-52,446	800,000	762,257	2327,449
-51,432	542,417	1659,060	2802,080
-50,417	70,664	1655,090	1206,931
-49,403	17,022	1529,210	852,597
-48,388	11,083	1453,241	781,602
-47,373	19,139	1444,942	815,651
-46,359	14,490	1433,900	787,351
-45,344	9,412	1429,657	760,884
-44,330	9,369	1427,746	759,632
-43,315	9,330	1426,054	758,515
-42,300	9,311	1424,406	757,521
-41,286	9,326	1423,212	756,926
-40,271	9,316	1421,868	756,135
-39,257	9,309	1420,751	755,477
-38,242	9,359	1419,720	755,134
-37,227	9,333	1418,591	754,379
-36,213	9,407	1416,961	753,835
-35,198	9,355	1416,200	753,151
-34,184	9,415	1414,926	752,727
-33,169	9,315	1413,797	751,626
-32,154	9,335	1412,870	751,198
-31,140	9,378	1411,232	750,499
-30,125	9,405	1410,329	750,117
-29,111	9,393	1409,126	749,390
-28,096	9,342	1407,976	748,510
-27,082	9,261	1406,800	747,476
-26,067	9,292	1405,683	746,998
-25,052	9,276	1404,808	746,430
-24,038	9,287	1403,847	745,939
-23,023	9,321	1402,778	745,501
-22,009	9,313	1401,779	744,904
-20,994	9,294	1400,763	744,248
-19,979	9,305	1399,845	743,778
-18,965	9,288	1398,916	743,179
-17,950	9,257	1398,124	742,583
-16,936	9,259	1397,192	742,069
-15,921	9,198	1395,915	741,079
-14,906	9,241	1395,201	740,870
-13,892	9,264	1394,170	740,396
-12,877	9,232	1393,404	739,813
-11,863	9,224	1392,694	739,371
-10,848	9,181	1391,672	738,599
-9,833	9,156	1390,874	738,028
-8,819	9,170	1389,777	737,484
-7,804	9,149	1388,867	736,876
-6,790	9,156	1387,937	736,386
-5,775	9,128	1386,854	735,650
-4,760	9,116	1385,938	735,081
-3,746	9,152	1385,017	734,728
-2,731	9,112	1384,231	734,097
-1,717	9,105	1383,279	733,531
-0,702	9,146	1381,496	732,746
0,313	13,226	1293,972	704,898
1,327	29,420	685,277	409,776
2,342	45,624	118,191	76,851
3,356	-1,587	16,407	8,125
4,371	4,038	3,641	1,871
5,386	-10,185	1,175	0,548
6,400	800,000	0,296	0,767
7,415	-16,907	-0,121	-0,054
8,429	31,470	-0,350	-0,211
9,444	155,814	-0,223	-0,216
10,459	-66,017	-0,292	-0,082
11,473	-7,917	-0,171	-0,081
12,488	195,816	-0,198	-0,213
13,502	-48,444	-0,434	-0,146
14,517	95,873	-0,359	-0,289
15,531	-74,143	-0,388	-0,098
16,546	37,314	-0,288	-0,179
17,561	178,889	-0,310	-0,319
18,575	41,985	-0,132	0,084
19,590	-200,000	-0,059	-0,259
20,604	70,656	-0,221	-0,161
21,619	58,243	-0,493	-0,340
22,634	70,007	-0,381	-0,276
23,648	113,761	-0,250	-0,214
24,663	37,248	-0,454	-0,283
25,677	-35,302	-0,333	-0,127
26,692	103,391	-0,192	-0,159
27,707	79,699	-0,435	-0,328
28,721	242,974	-0,252	-0,297
29,736	165,539	-0,379	-0,378
30,750	-8,729	-0,411	-0,193
31,765	-36,126	-0,442	-0,167
32,780	20,126	-0,288	-0,163
33,794	98,955	-0,242	-0,196
34,809	158,984	-0,273	-0,267
35,823	104,225	-0,396	-0,327
36,838	105,404	-0,245	-0,204
37,853	49,807	-0,410	-0,271
38,867	25,301	-0,398	-0,232
39,882	12,933	-0,384	-0,208
40,896	-74,773	-0,368	-0,092
41,911	78,712	-0,304	-0,228
42,926	117,396	-0,370	-0,320
43,940	196,306	-0,342	-0,366
44,955	231,353	-0,254	-0,293
45,969	37,512	-0,242	-0,151
46,984	46,595	-0,292	-0,190
47,999	193,819	-0,263	-0,280
49,013	-36,532	-0,381	-0,143
50,028	98,364	-0,412	-0,333
51,042	37,483	-0,355	-0,220
52,057	382,794	-0,229	-0,332
53,071	138,863	-0,304	-0,280
54,086	127,371	-0,345	-0,308
55,101	64,680	-0,358	-0,253
56,115	101,845	-0,324	-0,265
57,130	37,262	-0,306	-0,190
58,144	-47,055	-0,440	-0,150
59,159	-47,907	-0,485	-0,164
60,174	155,060	-0,333	-0,322
61,188	126,526	-0,222	-0,197
62,203	18,804	-0,409	-0,229
63,217	49,315	-0,326	-0,214
64,232	23,929	-0,340	-0,196
65,247	89,663	-0,316	-0,247
66,261	72,660	-0,344	-0,251
67,276	2,641	-0,327	-0,166
68,290	11,332	-0,343	-0,183
69,305	-32,819	-0,373	-0,145
70,320	352,797	-0,199	-0,278
71,334	272,411	-0,226	-0,280
72,349	-167,856	-0,312	-0,008
73,363	56,109	-0,357	-0,243
74,378	199,032	-0,236	-0,253
75,393	144,487	-0,208	-0,194
76,407	16,647	-0,201	-0,111
77,422	-15,935	-0,270	-0,120
78,436	113,091	-0,319	-0,271
79,451	-83,760	-0,383	-0,085
80,466	800,000	-0,139	-0,280
81,480	32,608	-0,435	-0,263
82,495	135,659	-0,250	-0,228
83,509	13,148	-0,301	-0,163
84,524	800,000	-0,105	-0,209
85,539	154,043	-0,216	-0,208
86,553	2,665	-0,279	-0,141
87,568	212,583	-0,173	-0,191
88,582	100,550	-0,290	-0,236
89,597	94,325	-0,361	-0,287
90,611	112,453	-0,295	-0,250
91,626	-28,272	-0,283	-0,114
92,641	-114,051	-0,276	0,037
93,655	-11,004	-0,261	-0,120
94,670	156,303	-0,348	-0,336
95,684	-53,921	-0,263	-0,083
96,699	192,539	-0,276	-0,292
97,714	98,616	-0,217	-0,175
98,728	-20,917	-0,197	-0,084
99,743	-6,886	-0,330	-0,156
100,757	92,500	-0,257	-0,203
101,772	217,590	-0,266	-0,297
102,787	333,560	-0,145	-0,196
103,801	-32,731	-0,382	-0,148
104,816	-17,719	-0,257	-0,112
105,830	-57,019	-0,285	-0,087
106,845	-141,189	-0,203	0,014
107,860	13,937	-0,356	-0,193
108,874	70,016	-0,198	-0,143
109,889	115,733	-0,275	-0,235
110,903	183,285	-0,212	-0,219
111,918	-88,581	-0,207	-0,043
112,933	190,505	-0,115	-0,121
113,947	141,866	-0,157	-0,146
114,962	37,746	-0,248	-0,153
115,976	81,099	-0,265	-0,199
116,991	-1,529	-0,307	-0,150
118,006	140,501	-0,300	-0,276
119,020	800,000	-0,116	-0,225
120,035	48,280	-0,288	-0,188
121,049	267,224	-0,227	-0,278
122,064	-15,253	-0,277	-0,123
123,079	24,088	-0,266	-0,152
124,093	193,152	-0,246	-0,260
125,108	112,389	-0,236	-0,199
126,122	-24,430	-0,417	-0,173
127,137	-35,657	-0,193	-0,073
128,151	130,200	-0,181	-0,162
129,166	285,191	-0,195	-0,245
130,181	27,747	-0,314	-0,184
131,195	250,300	-0,220	-0,260
132,210	4,373	-0,261	-0,133
133,224	115,645	-0,337	-0,287
134,239	178,516	-0,103	-0,105
135,254	71,881	-0,173	-0,125
136,268	110,465	-0,238	-0,199
137,283	800,000	-0,098	-0,215
138,297	-40,329	-0,311	-0,112
139,312	306,469	-0,242	-0,315
140,327	-14,661	-0,288	-0,128
141,341	110,169	-0,192	-0,160
142,356	157,887	-0,218	-0,210
143,370	26,927	-0,189	-0,110
144,385	-70,116	-0,275	-0,072
145,400	137,321	-0,158	-0,144
146,414	54,616	-0,310	-0,208
147,429	147,634	-0,311	-0,292
148,443	145,418	-0,158	-0,148
149,458	79,248	-0,165	-0,123
150,473	-122,650	-0,234	-0,026
151,487	-40,344	-0,226	-0,081
152,502	-113,499	-0,232	-0,031
153,516	448,664	-0,175	-0,268
154,531	-56,034	-0,248	-0,077
155,546	-200,000	-0,037	-0,136
156,560	121,855	-0,212	-0,184
157,575	-5,787	-0,306	-0,145
158,589	-106,262	-0,241	0,037
159,604	-20,293	-0,230	-0,098
160,619	165,355	-0,221	-0,217
161,633	-13,974	-0,327	-0,146
162,648	-58,831	-0,282	-0,084
163,662	70,129	-0,266	-0,191
164,677	162,257	-0,165	-0,161
165,692	-81,870	-0,250	-0,056
166,706	220,041	-0,240	-0,268
167,721	17,113	-0,179	-0,098
168,735	208,363	-0,313	-0,340
169,750	-54,611	-0,326	-0,102
170,764	220,753	-0,180	-0,201
171,779	29,285	-0,206	-0,122
172,794	800,000	-0,120	-0,294
173,808	179,951	-0,263	-0,268
174,823	266,311	-0,274	-0,333
175,837	93,302	-0,199	-0,156
176,852	-3,406	-0,373	-0,180
177,867	-43,231	-0,123	-0,043
178,881	453,873	-0,187	-0,288
179,896	31,396	-0,243	-0,145
180,910	179,791	-0,127	-0,129
181,925	66,376	-0,233	-0,164
182,940	-46,113	-0,275	-0,094
183,954	273,104	-0,066	-0,080
184,969	424,813	-0,164	-0,245
185,983	295,720	-0,130	-0,165
186,998	80,026	-0,230	-0,171
188,013	-73,555	-0,245	-0,062
189,027	59,831	-0,245	-0,168
190,042	-3,388	-0,226	-0,109
191,056	47,260	-0,298	-0,192
192,071	-70,000	-0,259	-0,068
193,086	-50,578	-0,210	-0,068
194,100	34,771	-0,296	-0,179
195,115	62,625	-0,223	-0,154
196,129	68,221	-0,256	-0,182
197,144	18,175	-0,316	-0,175
198,159	800,000	-0,079	-0,174
199,173	607,709	-0,100	-0,174
200,188	164,835	-0,219	-0,215
201,202	142,387	-0,169	-0,155
202,217	33,210	-0,262	-0,157
203,232	226,566	-0,215	-0,242
204,246	113,664	-0,144	-0,121
205,261	361,939	-0,177	-0,247
206,275	530,113	-0,121	-0,199
207,290	-200,000	-0,077	-0,242
208,304	-0,797	-0,059	-0,029
209,319	-34,390	-0,235	-0,089
210,334	800,000	-0,108	-0,225
211,348	800,000	-0,139	-0,287
212,363	546,106	-0,088	-0,146
213,377	-3,648	-0,182	-0,087
214,392	-155,852	-0,129	0,006
215,407	-53,554	-0,193	-0,061
216,421	-20,889	-0,284	-0,120
217,436	43,741	-0,176	-0,111
218,450	274,424	-0,181	-0,222
219,465	70,127	-0,182	-0,130
220,480	-58,829	-0,315	-0,094
221,494	-46,394	-0,185	0,063
222,509	-183,027	-0,188	0,002
223,523	800,000	-0,082	-0,164
224,538	252,305	-0,221	-0,261
225,553	227,045	-0,076	-0,086
226,567	118,984	-0,167	-0,143
227,582	19,668	-0,211	-0,117
228,596	375,681	-0,110	-0,155
229,611	26,397	-0,188	-0,108
230,626	610,924	-0,083	-0,144
231,640	51,716	-0,211	-0,138
232,655	220,361	-0,151	-0,167
233,669	507,564	-0,113	-0,182
234,684	-123,110	-0,259	-0,028
235,699	93,799	-0,122	-0,095
236,713	95,424	-0,078	-0,061
237,728	-19,406	-0,228	-0,097
238,742	-11,112	-0,152	-0,069
239,757	85,925	-0,133	-0,101
240,772	188,676	-0,119	-0,123
241,786	63,849	-0,159	-0,110
242,801	21,244	-0,216	-0,121
243,815	-58,372	-0,038	-0,011
244,830	342,940	-0,065	-0,088
245,844	89,237	-0,060	-0,046
246,859	-200,000	-0,022	-0,210
247,874	-18,142	-0,216	-0,093
248,888	-31,097	-0,213	-0,082
249,903	7,907	-0,128	-0,066
250,917	419,072	-0,107	-0,159
251,932	-96,979	-0,149	-0,027
252,947	-170,153	-0,239	0,006
253,961	-69,102	-0,219	-0,058
254,976	-151,972	-0,223	-0,011
255,990	-200,000	0,007	-0,177
257,005	121,004	-0,248	-0,213
258,020	-200,000	0,000	-0,133
259,034	136,636	-0,167	-0,151
260,049	-17,068	-0,104	-0,045
261,063	121,279	-0,220	-0,188
262,078	152,388	-0,171	-0,161
263,093	20,491	-0,181	-0,101
264,107	-48,267	-0,258	-0,085
265,122	4,070	-0,262	-0,132
266,136	115,545	-0,136	-0,114
267,151	-25,823	-0,196	-0,079
268,166	160,346	-0,121	-0,116
269,180	128,800	-0,168	-0,148
270,195	160,155	-0,228	-0,219
271,209	-93,543	-0,115	-0,022
272,224	-103,470	-0,084	0,014
273,239	49,062	-0,141	-0,091
274,253	162,054	-0,150	-0,144
275,268	-43,790	-0,230	-0,079
276,282	39,466	-0,269	-0,166
277,297	-68,487	-0,251	-0,067
278,312	733,795	-0,120	-0,221
279,326	-200,000	0,003	-0,188
280,341	800,000	-0,055	-0,123
281,355	603,503	-0,065	-0,112
282,370	34,220	-0,145	-0,087
283,384	-35,113	-0,190	-0,071
284,399	651,095	-0,156	-0,277
285,414	72,085	-0,209	-0,149
286,428	-22,101	-0,173	-0,072
287,443	-0,917	-0,063	-0,031
288,457	53,126	-0,043	-0,028
289,472	11,310	-0,233	-0,122
290,487	-36,433	-0,276	-0,102
291,501	94,732	-0,119	-0,093
292,516	15,722	-0,143	-0,077
293,530	-27,774	-0,208	-0,083
294,545	-49,883	-0,127	-0,041
295,560	177,756	-0,071	-0,071
296,574	114,302	-0,143	-0,120
297,589	800,000	-0,081	-0,170
298,603	-3,585	-0,197	-0,094
299,618	276,379	-0,092	0,113
300,633	800,000	-0,053	-0,138
301,647	58,658	-0,142	-0,095
302,662	-6,699	-0,121	-0,056
303,676	182,370	-0,078	-0,079
304,691	-86,960	-0,287	0,060
305,706	237,231	-0,109	-0,125
306,720	800,000	-0,060	-0,130
307,735	31,869	-0,180	-0,106
308,749	-143,150	-0,279	0,018
309,764	-101,064	-0,088	0,015
310,779	24,300	-0,241	-0,136
311,793	232,507	-0,094	-0,106
312,808	800,000	-0,066	-0,127
313,822	62,216	-0,134	-0,091
314,837	209,844	-0,143	-0,154
315,852	-8,662	-0,156	-0,072
316,866	150,224	-0,189	-0,176
317,881	-200,000	-0,050	-0,183
318,895	156,657	-0,119	-0,112
319,910	537,509	-0,060	-0,098
320,925	-200,000	-0,071	-0,219
321,939	-88,454	-0,167	-0,034
322,954	88,588	-0,113	-0,086
323,968	-1,382	-0,141	-0,068
324,983	-131,796	-0,089	-0,008
325,997	156,263	-0,124	-0,118
327,012	555,921	-0,142	-0,235
328,027	-68,523	-0,138	-0,036
329,041	-35,507	-0,233	-0,086
330,056	800,000	-0,055	-0,115
331,070	800,000	-0,036	0,073
332,085	-129,564	-0,217	-0,020
333,100	-7,750	-0,213	-0,098
334,114	-28,906	-0,214	-0,084
335,129	172,224	-0,126	-0,124
336,143	553,770	-0,099	-0,164
337,158	191,157	-0,017	0,018
338,173	-200,000	-0,003	-0,023
339,187	-33,722	-0,156	-0,059
340,202	-200,000	-0,008	-0,094
341,216	-200,000	-0,028	-0,148
342,231	-63,841	-0,112	-0,031
343,246	442,931	-0,100	-0,150
344,260	459,558	-0,138	-0,211
345,275	-158,850	-0,155	0,006
346,289	144,736	-0,097	-0,089
347,304	-200,000	-0,006	-0,047
348,319	4,030	-0,194	-0,097
349,333	-36,983	-0,136	-0,050
350,348	113,064	-0,120	0,100
351,362	155,568	-0,155	-0,146
352,377	119,522	-0,071	-0,060
353,392	45,253	-0,092	-0,058
354,406	7,259	-0,107	-0,055
355,421	207,840	1307,041	1397,109
356,435	159,899	1466,795	1397,567
