DTS Sentinel unit serial number:	SN410029Multiplexer serial number:	ORYXHardware model number:	OX2-SRSoftware version number:	ORYX F/W v4,00 Oryx Data Collector v3.7.2.0data status	okinstallation	B3 Nyhavnadifferential loss correction	single-endedforward channel	channel 1reverse channel	N/Adate	2023/12/02time	15:07:30forward acquisition time	300,00reverse acquisition time	0,00gamma	499,1914k internal	0,3197k external	0,3197temperature offset calibration	1,0000default loss term (dB/km)	0,3820temperature slope calibration	1,0000multiplexer offset coefficient	1,0000multiplexer slope coefficient	1,0000fibre end	0,00T internal ref (°C)	14,80T ext. ref 1 (°C)	-0,65T ext. ref 2 (°C)	-0,67length (m)	temperature (°C)	Stokes	anti-Stokes-744,400	305,301	-0,194	-0,262
-743,385	-200,000	0,052	0,335
-742,371	374,425	-0,167	-0,248
-741,356	333,333	0,142	0,200
-740,342	121,734	-0,235	-0,213
-739,327	535,830	0,128	0,222
-738,312	292,378	-0,173	-0,230
-737,298	-200,000	0,033	0,168
-736,283	232,890	-0,146	-0,175
-735,269	-200,000	0,089	0,324
-734,254	366,941	-0,236	-0,348
-733,239	-12,556	-0,139	0,066
-732,225	156,223	-0,222	-0,223
-731,210	-31,756	0,185	0,075
-730,196	379,875	-0,116	0,173
-729,181	-99,528	-0,117	-0,021
-728,167	-200,000	-0,008	-0,107
-727,152	800,000	0,042	-0,129
-726,137	-200,000	-0,003	0,040
-725,123	660,113	-0,027	-0,052
-724,108	-200,000	-0,026	-0,148
-723,094	-35,613	-0,125	-0,049
-722,079	123,573	0,048	0,044
-721,064	184,627	0,052	-0,056
-720,050	-2,290	0,027	0,014
-719,035	451,336	-0,074	-0,119
-718,021	-200,000	-0,023	0,095
-717,006	-132,866	-0,136	0,012
-715,991	-200,000	0,042	-0,185
-714,977	34,084	-0,076	-0,048
-713,962	239,454	-0,033	-0,040
-712,948	-88,614	0,043	-0,009
-711,933	-31,440	0,066	0,027
-710,918	-200,000	-0,010	0,145
-709,904	-118,670	0,027	-0,003
-708,889	-3,501	-0,103	-0,052
-707,875	433,611	-0,048	-0,075
-706,860	-196,527	-0,045	0,000
-705,845	-145,543	0,131	-0,008
-704,831	800,000	-0,041	-0,104
-703,816	-109,082	-0,074	-0,011
-702,802	447,148	-0,033	-0,054
-701,787	109,206	-0,042	-0,036
-700,772	-200,000	-0,002	-0,056
-699,758	308,703	-0,063	-0,085
-698,743	-200,000	-0,013	0,067
-697,729	-30,426	0,072	0,030
-696,714	564,766	-0,026	0,045
-695,699	800,000	0,029	0,090
-694,685	117,526	0,025	0,023
-693,670	-200,000	0,005	-0,110
-692,656	147,004	0,015	0,014
-691,641	-61,246	0,121	0,037
-690,627	289,873	0,075	-0,099
-689,612	-159,548	0,016	-0,001
-688,597	-200,000	0,002	-0,130
-687,583	-46,109	-0,192	-0,068
-686,568	-4,373	0,004	-0,002
-685,554	-88,976	-0,062	0,013
-684,539	-200,000	0,031	-0,110
-683,524	-117,155	0,112	-0,015
-682,510	-22,456	-0,055	-0,024
-681,495	123,915	-0,062	0,056
-680,481	172,545	-0,054	-0,056
-679,466	800,000	-0,024	-0,073
-678,451	-200,000	-0,004	0,030
-677,437	-143,101	0,156	-0,011
-676,422	261,413	-0,029	-0,036
-675,408	201,340	-0,057	-0,063
-674,393	88,328	0,004	-0,004
-673,378	13,796	-0,120	0,068
-672,364	599,610	0,040	-0,072
-671,349	-200,000	0,016	-0,067
-670,335	-19,171	0,117	0,052
-669,320	800,000	0,029	0,064
-668,305	800,000	-0,046	-0,124
-667,291	143,325	-0,017	0,016
-666,276	54,085	-0,062	0,044
-665,262	-91,973	-0,116	-0,024
-664,247	-78,843	-0,079	0,019
-663,232	219,102	0,035	0,041
-662,218	-200,000	-0,017	-0,063
-661,203	-60,502	-0,081	0,025
-660,189	-115,869	0,139	-0,019
-659,174	800,000	-0,065	-0,177
-658,159	126,488	-0,104	-0,095
-657,145	-176,267	-0,035	-0,001
-656,130	568,893	-0,043	0,077
-655,116	-200,000	0,001	0,093
-654,101	15,088	0,149	0,085
-653,086	-84,876	-0,146	-0,033
-652,072	322,853	0,093	-0,128
-651,057	-124,821	-0,043	0,005
-650,043	19,672	0,062	-0,036
-649,028	33,648	-0,032	-0,020
-648,014	-200,000	0,007	-0,170
-646,999	436,808	0,031	0,050
-645,984	364,833	-0,018	-0,027
-644,970	-200,000	-0,013	-0,059
-643,955	-200,000	-0,009	-0,039
-642,941	-200,000	-0,006	-0,040
-641,926	-200,000	0,009	-0,203
-640,911	800,000	-0,012	-0,037
-639,897	-33,389	0,133	0,053
-638,882	409,579	0,037	-0,058
-637,868	30,416	-0,053	0,033
-636,853	79,936	-0,058	0,045
-635,838	-200,000	0,008	-0,087
-634,824	292,732	-0,047	-0,062
-633,809	-89,588	0,098	0,021
-632,795	168,529	0,078	0,080
-631,780	800,000	-0,012	-0,025
-630,765	-109,941	0,074	0,011
-629,751	361,272	0,033	-0,048
-628,736	98,358	-0,075	-0,062
-627,722	-9,449	0,060	0,029
-626,707	-36,573	0,090	-0,035
-625,692	800,000	0,055	-0,135
-624,678	-66,162	-0,065	0,019
-623,663	362,850	0,020	0,029
-622,649	-65,031	-0,168	-0,049
-621,634	-59,198	-0,209	-0,065
-620,619	116,699	-0,042	-0,037
-619,605	132,014	-0,066	-0,062
-618,590	-135,415	-0,025	0,002
-617,576	62,204	0,024	0,017
-616,561	-103,061	-0,093	0,016
-615,546	-200,000	0,002	0,180
-614,532	166,271	-0,075	0,077
-613,517	335,707	0,044	-0,063
-612,503	-200,000	0,038	-0,126
-611,488	210,537	0,104	0,118
-610,474	141,646	0,051	0,048
-609,459	-132,146	-0,073	0,007
-608,444	-200,000	-0,016	-0,117
-607,430	201,542	-0,051	-0,057
-606,415	632,220	-0,056	0,104
-605,401	-92,305	-0,047	-0,010
-604,386	800,000	-0,014	0,031
-603,371	64,776	0,088	0,064
-602,357	189,584	-0,035	0,038
-601,342	238,313	0,061	0,073
-600,328	-99,675	-0,214	-0,039
-599,313	800,000	-0,011	-0,036
-598,298	-200,000	-0,008	0,128
-597,284	502,809	0,014	-0,024
-596,269	41,356	-0,031	0,020
-595,255	115,629	-0,061	-0,054
-594,240	530,980	-0,043	-0,073
-593,225	-200,000	0,027	0,093
-592,211	35,298	-0,061	-0,039
-591,196	472,925	-0,030	0,050
-590,182	296,269	0,085	0,112
-589,167	120,868	-0,040	0,036
-588,152	-104,767	-0,134	0,022
-587,138	-200,000	-0,009	-0,063
-586,123	-153,429	-0,173	-0,009
-585,109	-92,515	-0,128	0,026
-584,094	-47,064	-0,070	-0,025
-583,079	-200,000	0,002	-0,024
-582,065	194,326	-0,055	0,060
-581,050	-41,052	0,063	-0,023
-580,036	214,195	0,072	0,083
-579,021	800,000	0,042	-0,091
-578,006	-72,176	-0,094	0,025
-576,992	449,316	-0,030	0,048
-575,977	800,000	0,024	-0,053
-574,963	-200,000	0,007	0,111
-573,948	-200,000	0,024	0,183
-572,934	-3,412	-0,030	-0,015
-571,919	-171,004	-0,189	0,005
-570,904	-200,000	-0,033	-0,132
-569,890	-200,000	0,002	-0,117
-568,875	232,687	0,015	-0,018
-567,861	12,586	0,046	0,026
-566,846	800,000	0,028	0,075
-565,831	58,140	0,024	-0,017
-564,817	-200,000	-0,003	-0,098
-563,802	-114,631	0,053	0,007
-562,788	-200,000	0,002	-0,062
-561,773	800,000	-0,017	-0,043
-560,758	20,819	0,075	-0,044
-559,744	-200,000	-0,032	0,124
-558,729	-97,274	-0,136	0,025
-557,715	66,617	-0,067	-0,049
-556,700	800,000	0,052	-0,159
-555,685	800,000	0,022	0,055
-554,671	10,954	-0,059	-0,032
-553,656	-9,458	0,114	-0,055
-552,642	3,953	0,055	-0,029
-551,627	69,202	-0,012	0,009
-550,612	92,052	0,036	0,029
-549,598	-44,416	-0,134	-0,048
-548,583	118,520	0,041	-0,036
-547,569	-200,000	0,002	0,149
-546,554	-135,873	0,177	-0,015
-545,539	40,058	0,019	-0,012
-544,525	159,546	-0,084	0,085
-543,510	134,305	0,046	-0,043
-542,496	75,615	-0,123	-0,094
-541,481	-200,000	-0,023	-0,136
-540,466	36,285	0,029	-0,018
-539,452	800,000	0,014	0,038
-538,437	297,135	0,049	0,065
-537,423	-65,029	0,019	0,005
-536,408	90,280	-0,023	-0,019
-535,393	74,260	0,042	-0,032
-534,379	-200,000	-0,009	-0,057
-533,364	64,630	-0,108	0,078
-532,350	-200,000	-0,002	0,085
-531,335	373,673	-0,049	-0,071
-530,321	800,000	-0,020	0,046
-529,306	288,934	0,023	0,031
-528,291	-93,223	0,078	0,015
-527,277	345,613	-0,009	-0,013
-526,262	66,382	-0,088	-0,064
-525,248	800,000	0,018	-0,044
-524,233	640,829	-0,035	-0,065
-523,218	800,000	0,049	0,111
-522,204	800,000	-0,087	0,177
-521,189	-182,040	-0,048	-0,001
-520,175	-75,243	0,107	-0,027
-519,160	-171,075	0,068	0,002
-518,145	364,898	0,098	-0,144
-517,131	122,808	-0,100	-0,090
-516,116	-37,112	0,089	0,034
-515,102	-34,659	0,133	-0,052
-514,087	156,714	0,042	-0,042
-513,072	-3,272	-0,082	-0,041
-512,058	-200,000	0,016	-0,062
-511,043	379,100	0,022	0,032
-510,029	578,082	0,036	0,063
-509,014	581,964	0,019	-0,034
-507,999	800,000	0,020	0,051
-506,985	-200,000	-0,002	0,132
-505,970	-200,000	-0,020	-0,110
-504,956	-200,000	-0,001	-0,115
-503,941	-200,000	0,000	0,009
-502,926	523,233	0,034	0,058
-501,912	121,402	0,085	0,077
-500,897	142,686	0,094	-0,090
-499,883	-30,613	-0,052	0,021
-498,868	3,050	-0,026	0,014
-497,853	800,000	-0,042	-0,103
-496,839	800,000	-0,015	0,037
-495,824	120,765	0,072	0,065
-494,810	24,295	-0,140	0,083
-493,795	-200,000	-0,006	0,048
-492,781	-200,000	-0,017	-0,118
-491,766	27,003	-0,044	-0,027
-490,751	10,977	-0,069	-0,038
-489,737	339,100	0,070	-0,098
-488,722	88,547	0,003	0,002
-487,708	180,747	0,076	0,081
-486,693	-189,338	0,079	0,001
-485,678	-100,610	-0,036	-0,006
-484,664	51,771	0,034	-0,023
-483,649	57,107	-0,032	0,022
-482,635	-44,894	-0,115	-0,041
-481,620	-200,000	0,007	0,066
-480,605	173,832	0,177	0,185
-479,591	-59,584	0,104	0,032
-478,576	419,754	-0,002	0,003
-477,562	416,613	-0,063	-0,097
-476,547	254,825	0,056	-0,070
-475,532	-200,000	-0,007	-0,082
-474,518	406,266	0,051	-0,078
-473,503	-19,439	-0,081	0,036
-472,489	323,516	-0,134	0,184
-471,474	33,716	-0,203	0,127
-470,459	800,000	-0,053	-0,125
-469,445	-70,115	-0,066	0,018
-468,430	187,746	-0,035	0,038
-467,416	5,371	0,109	0,058
-466,401	-200,000	-0,013	0,176
-465,386	-120,164	0,103	0,013
-464,372	-182,884	-0,112	0,001
-463,357	-19,804	0,030	0,013
-462,343	53,285	0,061	-0,042
-461,328	468,664	-0,045	-0,074
-460,313	21,176	0,081	0,047
-459,299	360,289	-0,014	0,020
-458,284	-63,889	0,098	-0,029
-457,270	462,982	0,005	-0,009
-456,255	65,606	-0,056	-0,041
-455,241	54,966	0,065	-0,045
-454,226	800,000	-0,066	-0,160
-453,211	800,000	-0,083	0,201
-452,197	-200,000	-0,020	0,069
-451,182	-200,000	0,005	-0,106
-450,168	177,263	-0,057	0,060
-449,153	-200,000	0,005	0,115
-448,138	-114,428	-0,079	0,011
-447,124	800,000	-0,038	-0,110
-446,109	-200,000	-0,007	-0,074
-445,095	158,506	-0,014	0,014
-444,080	102,807	0,072	0,060
-443,065	-45,761	0,087	-0,031
-442,051	800,000	0,049	-0,140
-441,036	-200,000	0,021	-0,105
-440,022	-167,316	0,167	0,005
-439,007	-200,000	0,017	-0,132
-437,992	-162,249	0,104	-0,004
-436,978	-83,891	-0,043	0,010
-435,963	-97,939	0,066	0,012
-434,949	-200,000	-0,002	-0,012
-433,934	47,950	0,043	-0,029
-432,919	13,570	0,103	-0,057
-431,905	-200,000	0,009	-0,077
-430,890	33,243	-0,152	-0,095
-429,876	463,071	0,054	0,087
-428,861	800,000	0,030	0,075
-427,846	800,000	0,019	0,057
-426,832	171,520	-0,081	0,084
-425,817	156,116	0,127	-0,126
-424,803	-69,811	-0,091	-0,025
-423,788	93,135	0,066	-0,054
-422,773	66,063	-0,078	-0,057
-421,759	-24,990	0,083	-0,035
-420,744	112,093	0,056	-0,049
-419,730	-36,268	-0,087	-0,033
-418,715	422,489	-0,070	-0,108
-417,701	71,176	-0,114	0,085
-416,686	-200,000	0,009	0,077
-415,671	-200,000	0,064	0,219
-414,657	133,396	0,034	-0,031
-413,642	-164,975	0,093	-0,003
-412,628	800,000	-0,034	0,082
-411,613	800,000	-0,030	-0,087
-410,598	-102,372	0,055	-0,009
-409,584	-200,000	0,017	0,193
-408,569	-200,000	0,045	0,167
-407,555	-82,588	-0,058	0,014
-406,540	46,555	-0,041	-0,027
-405,525	-200,000	-0,004	-0,029
-404,511	122,342	0,039	-0,035
-403,496	800,000	-0,043	-0,112
-402,482	128,380	0,063	-0,058
-401,467	181,139	0,029	-0,030
-400,452	182,872	-0,023	-0,024
-399,438	44,488	0,105	-0,069
-398,423	317,904	0,041	0,056
-397,409	15,919	0,043	0,024
-396,394	-30,303	-0,014	-0,006
-395,379	-51,231	0,097	-0,032
-394,365	60,351	0,048	0,034
-393,350	-200,000	0,040	0,164
-392,336	643,977	0,063	0,117
-391,321	-200,000	-0,002	0,019
-390,306	-6,757	0,041	0,020
-389,292	206,520	0,078	-0,088
-388,277	51,921	0,075	-0,051
-387,263	-6,308	-0,051	0,025
-386,248	656,970	0,071	0,132
-385,233	495,112	-0,018	0,030
-384,219	257,701	-0,011	-0,014
-383,204	800,000	0,074	-0,176
-382,190	800,000	-0,026	-0,070
-381,175	163,090	0,038	0,038
-380,160	-61,858	0,056	-0,017
-379,146	90,931	-0,080	0,064
-378,131	72,712	0,149	0,111
-377,117	17,457	-0,053	-0,030
-376,102	-16,756	-0,052	0,024
-375,088	36,618	-0,035	-0,022
-374,073	196,831	-0,107	-0,118
-373,058	111,454	0,056	-0,048
-372,044	800,000	0,030	-0,085
-371,029	316,768	0,090	0,122
-370,015	800,000	0,017	0,038
-369,000	-160,034	-0,110	-0,004
-367,985	10,160	0,108	-0,059
-366,971	311,163	-0,039	-0,053
-365,956	26,203	-0,088	0,053
-364,942	-90,014	0,168	-0,035
-363,927	-129,927	-0,154	-0,015
-362,912	-61,629	0,077	0,023
-361,898	85,965	-0,093	0,073
-360,883	-5,440	-0,082	0,040
-359,869	-30,273	-0,047	-0,019
-358,854	12,285	-0,033	-0,018
-357,839	63,258	0,111	0,079
-356,825	94,901	-0,022	-0,018
-355,810	663,205	-0,068	-0,127
-354,796	-44,501	0,020	-0,007
-353,781	-7,541	-0,068	-0,033
-352,766	95,313	-0,209	-0,171
-351,752	198,960	0,066	-0,073
-350,737	-163,585	0,166	0,006
-349,723	43,086	0,050	-0,033
-348,708	-4,351	-0,047	0,023
-347,693	800,000	-0,026	-0,058
-346,679	-70,801	-0,085	-0,023
-345,664	76,788	0,102	0,077
-344,650	724,584	0,038	0,073
-343,635	-200,000	-0,016	0,055
-342,620	800,000	0,039	0,089
-341,606	156,796	-0,085	-0,084
-340,591	800,000	0,009	-0,024
-339,577	44,937	0,027	0,018
-338,562	156,081	-0,022	-0,022
-337,548	-28,760	-0,052	0,021
-336,533	233,780	-0,030	0,035
-335,518	-121,445	-0,070	0,008
-334,504	-200,000	-0,001	-0,087
-333,489	-200,000	0,022	0,144
-332,475	-103,876	0,199	-0,033
-331,460	-200,000	0,002	-0,069
-330,445	-53,439	0,038	0,012
-329,431	97,224	-0,029	0,023
-328,416	31,204	0,066	-0,041
-327,402	-90,012	0,079	-0,016
-326,387	-106,247	-0,071	0,011
-325,372	800,000	-0,015	-0,048
-324,358	27,073	0,050	-0,030
-323,343	26,756	-0,033	0,020
-322,329	-126,020	0,252	0,027
-321,314	19,680	0,049	-0,028
-320,299	-200,000	-0,011	-0,123
-319,285	81,591	-0,020	-0,016
-318,270	-38,047	-0,087	0,033
-317,256	167,218	-0,079	0,081
-316,241	59,713	0,105	-0,074
-315,226	224,966	0,099	0,115
-314,212	19,649	0,072	-0,042
-313,197	-200,000	0,010	0,200
-312,183	-4,074	0,094	0,047
-311,168	-110,467	-0,053	-0,008
-310,153	300,986	0,049	-0,065
-309,139	-57,980	-0,043	-0,013
-308,124	50,552	-0,085	-0,058
-307,110	577,817	0,070	0,122
-306,095	358,441	0,046	0,066
-305,080	410,822	-0,072	0,110
-304,066	55,883	-0,108	-0,075
-303,051	463,049	-0,021	-0,033
-302,037	76,549	-0,208	-0,158
-301,022	26,307	0,075	-0,045
-300,008	800,000	0,039	0,093
-298,993	-200,000	0,002	0,029
-297,978	-53,468	0,078	0,025
-296,964	14,621	0,021	-0,012
-295,949	-75,116	-0,078	-0,020
-294,935	483,941	-0,036	0,059
-293,920	135,782	0,097	-0,090
-292,905	-200,000	0,003	0,088
-291,891	-200,000	0,019	0,142
-290,876	-149,854	0,133	0,007
-289,862	296,136	-0,084	-0,111
-288,847	6,769	-0,168	-0,089
-287,832	249,461	-0,049	0,060
-286,818	70,315	-0,064	-0,048
-285,803	-36,429	-0,122	0,047
-284,789	394,766	-0,037	-0,055
-283,774	142,408	0,098	0,094
-282,759	-23,787	0,090	0,038
-281,745	-3,976	-0,152	-0,075
-280,730	-65,276	-0,054	-0,015
-279,716	42,742	0,010	-0,007
-278,701	263,671	-0,038	-0,048
-277,686	536,866	-0,030	0,051
-276,672	-14,096	0,084	0,039
-275,657	-10,060	0,115	0,054
-274,643	-200,000	-0,011	-0,118
-273,628	-142,406	-0,182	0,013
-272,613	-200,000	-0,002	0,028
-271,599	108,989	0,154	-0,131
-270,584	-68,796	0,051	-0,014
-269,570	304,091	-0,072	0,095
-268,555	463,178	-0,084	0,134
-267,540	83,233	0,015	-0,012
-266,526	800,000	-0,012	0,033
-265,511	-200,000	0,014	0,059
-264,497	-200,000	-0,013	-0,043
-263,482	-200,000	0,013	0,072
-262,467	775,826	0,005	0,010
-261,453	95,052	-0,067	-0,055
-260,438	800,000	0,039	-0,086
-259,424	-200,000	0,022	-0,086
-258,409	-200,000	-0,011	-0,041
-257,395	-182,517	-0,059	-0,001
-256,380	800,000	-0,026	0,059
-255,365	-185,998	0,085	0,001
-254,351	399,510	-0,064	0,096
-253,336	435,049	-0,081	-0,126
-252,322	-200,000	-0,028	0,000
-251,307	-18,824	-0,074	0,033
-250,292	-8,553	-0,056	-0,027
-249,278	58,828	0,141	0,099
-248,263	-200,000	0,021	0,113
-247,249	7,399	-0,077	-0,041
-246,234	-200,000	0,010	-0,081
-245,219	663,502	0,038	-0,070
-244,205	-200,000	-0,009	-0,053
-243,190	312,472	0,050	0,067
-242,176	-16,756	0,098	-0,044
-241,161	222,779	0,106	-0,122
-240,146	95,783	-0,026	0,021
-239,132	230,185	-0,080	0,094
-238,117	10,728	-0,051	0,028
-237,103	-42,602	-0,115	0,041
-236,088	-161,964	-0,061	0,002
-235,073	-92,761	-0,031	0,006
-234,059	437,434	0,051	0,080
-233,044	-108,055	0,104	0,016
-232,030	27,337	-0,069	0,041
-231,015	800,000	0,038	-0,109
-230,000	221,406	0,060	0,069
-228,986	-200,000	-0,008	-0,097
-227,971	800,000	-0,012	0,036
-226,957	157,909	0,070	0,069
-225,942	-156,560	0,057	0,002
-224,927	414,093	0,008	-0,012
-223,913	-143,919	-0,122	0,008
-222,898	571,856	-0,055	-0,096
-221,884	118,510	0,049	0,043
-220,869	-200,000	-0,002	0,069
-219,855	-200,000	0,023	-0,074
-218,840	176,447	-0,057	0,059
-217,825	-90,161	-0,223	-0,046
-216,811	-200,000	-0,022	0,074
-215,796	-200,000	-0,019	0,093
-214,782	87,076	-0,047	-0,037
-213,767	800,000	-0,034	-0,082
-212,752	-40,567	-0,063	0,023
-211,738	-55,985	-0,011	0,003
-210,723	-78,702	-0,166	-0,040
-209,709	-130,891	0,041	0,004
-208,694	-89,721	0,024	-0,005
-207,679	-200,000	0,006	-0,047
-206,665	-200,000	0,020	0,249
-205,650	178,387	-0,041	-0,043
-204,636	800,000	0,014	0,044
-203,621	99,926	0,052	-0,043
-202,606	-200,000	0,010	-0,085
-201,592	90,605	-0,074	0,059
-200,577	-200,000	0,016	-0,076
-199,563	-43,855	0,060	-0,021
-198,548	800,000	0,002	0,006
-197,533	800,000	0,065	0,132
-196,519	48,136	0,023	-0,015
-195,504	-116,632	-0,032	0,004
-194,490	88,468	0,093	0,074
-193,475	-200,000	-0,027	-0,093
-192,460	33,917	0,065	0,040
-191,446	775,986	-0,029	0,057
-190,431	800,000	0,025	0,052
-189,417	-200,000	-0,006	-0,038
-188,402	209,309	0,030	0,033
-187,387	-90,835	-0,068	-0,014
-186,373	1,196	0,082	-0,042
-185,358	-90,908	0,125	0,025
-184,344	15,057	0,167	0,093
-183,329	-200,000	0,039	0,212
-182,315	-200,000	0,003	0,010
-181,300	-200,000	-0,047	-0,175
-180,285	-107,101	-0,137	-0,021
-179,271	182,109	0,146	0,153
-178,256	226,100	0,050	0,058
-177,242	-10,298	0,133	-0,062
-176,227	-200,000	0,156	-0,000
-175,212	61,891	0,120	0,085
-174,198	-200,000	0,017	0,134
-173,183	-64,028	-0,101	0,029
-172,169	-32,679	-0,018	-0,007
-171,154	603,634	-0,036	-0,064
-170,139	-44,873	0,073	-0,026
-169,125	513,389	-0,014	-0,023
-168,110	-171,004	-0,077	-0,002
-167,096	800,000	-0,038	0,084
-166,081	179,463	0,060	-0,063
-165,066	25,408	-0,050	0,030
-164,052	-200,000	-0,004	-0,108
-163,037	-200,000	0,007	0,091
-162,023	65,258	0,049	0,035
-161,008	-200,000	0,013	0,060
-159,993	158,889	-0,053	0,052
-158,979	-200,000	0,002	-0,066
-157,964	-67,063	0,049	0,014
-156,950	-200,000	-0,014	0,086
-155,935	108,491	-0,035	0,030
-154,920	-200,000	-0,029	-0,158
-153,906	-24,045	-0,097	0,041
-152,891	800,000	0,027	-0,058
-151,877	-139,118	0,066	0,005
-150,862	29,744	0,039	0,024
-149,847	-116,844	-0,127	-0,016
-148,833	-96,768	0,174	0,032
-147,818	-107,164	-0,072	-0,011
-146,804	115,759	0,038	0,033
-145,789	38,089	0,163	0,103
-144,775	104,245	-0,136	0,113
-143,760	414,615	-0,050	-0,076
-142,745	-200,000	0,014	-0,045
-141,731	247,450	-0,120	0,144
-140,716	800,000	-0,033	-0,071
-139,702	110,748	0,092	0,079
-138,687	-200,000	-0,001	0,045
-137,672	182,507	-0,065	-0,068
-136,658	-200,000	0,042	0,180
-135,643	-64,944	0,070	-0,020
-134,629	-128,886	-0,055	-0,005
-133,614	419,528	0,086	0,131
-132,599	44,787	0,131	0,086
-131,585	324,841	0,044	-0,061
-130,570	800,000	0,029	0,067
-129,556	800,000	0,045	0,109
-128,541	-37,916	0,059	0,022
-127,526	800,000	0,071	0,156
-126,512	42,898	-0,121	0,078
-125,497	-200,000	-0,023	0,129
-124,483	-200,000	-0,004	0,156
-123,468	4,277	0,199	-0,103
-122,453	800,000	-0,059	-0,147
-121,439	-200,000	-0,009	0,134
-120,424	537,215	-0,028	-0,048
-119,410	-18,730	0,076	-0,033
-118,395	-154,080	-0,018	-0,001
-117,380	-200,000	-0,003	-0,058
-116,366	319,201	-0,044	-0,059
-115,351	-134,600	-0,140	-0,012
-114,337	-123,985	-0,090	0,010
-113,322	336,873	0,052	-0,072
-112,307	-146,932	0,041	-0,002
-111,293	-200,000	-0,003	0,052
-110,278	-5,640	0,081	0,039
-109,264	54,719	0,068	-0,047
-108,249	68,248	-0,100	-0,072
-107,234	540,538	-0,069	0,118
-106,220	410,523	0,040	0,061
-105,205	800,000	-0,009	-0,025
-104,191	-51,992	0,055	-0,018
-103,176	-21,404	-0,035	0,015
-102,162	45,251	0,105	-0,069
-101,147	800,000	0,040	-0,106
-100,132	-189,648	-0,082	-0,001
-99,118	-200,000	-0,018	-0,080
-98,103	-200,000	-0,013	0,052
-97,089	-155,155	0,097	0,004
-96,074	45,641	0,103	0,067
-95,059	-32,142	0,057	0,023
-94,045	231,880	-0,020	0,023
-93,030	616,745	0,067	-0,119
-92,016	-200,000	0,032	-0,106
-91,001	217,594	0,035	0,040
-89,986	57,010	0,058	0,040
-88,972	800,000	0,051	0,129
-87,957	-189,657	0,109	-0,001
-86,943	25,038	0,175	-0,103
-85,928	800,000	0,071	-0,146
-84,913	314,495	-0,111	-0,149
-83,899	-200,000	-0,011	-0,058
-82,884	158,158	0,118	0,116
-81,870	-200,000	-0,009	0,090
-80,855	-13,482	0,104	-0,048
-79,840	-200,000	-0,016	-0,063
-78,826	-200,000	-0,031	0,104
-77,811	800,000	-0,039	0,101
-76,797	-121,266	-0,069	0,008
-75,782	99,541	0,109	-0,090
-74,767	-0,312	-0,083	0,042
-73,753	-200,000	0,015	0,088
-72,738	800,000	0,067	0,132
-71,724	-200,000	0,017	-0,053
-70,709	-165,835	-0,119	0,004
-69,694	800,000	-0,024	-0,062
-68,680	288,920	0,051	0,066
-67,665	272,410	-0,047	-0,059
-66,651	-105,926	0,117	-0,019
-65,636	9,212	0,028	0,015
-64,622	38,120	-0,030	0,019
-63,607	-200,000	-0,044	-0,191
-62,592	-200,000	0,003	-0,018
-61,578	16,534	0,077	-0,043
-60,563	-84,049	0,091	0,020
-59,549	377,423	-0,052	0,075
-58,534	-51,812	-1,515	-0,497
-57,519	400,826	-1,513	-2,257
-56,505	-200,000	-0,475	-4,392
-55,490	135,529	0,940	0,867
-54,476	800,000	4,946	11,289
-53,461	-200,000	18,313	291,269
-52,446	800,000	728,828	2241,625
-51,432	558,227	1644,897	2823,366
-50,417	79,104	1665,728	1263,366
-49,403	22,666	1539,148	890,770
-48,388	16,642	1462,387	817,138
-47,373	17,854	1452,418	817,383
-46,359	17,214	1442,670	808,800
-45,344	14,923	1437,979	795,190
-44,330	14,865	1435,956	793,764
-43,315	14,897	1434,356	793,002
-42,300	14,871	1432,864	792,020
-41,286	14,927	1431,437	791,466
-40,271	14,901	1430,363	790,720
-39,257	14,854	1429,211	789,826
-38,242	14,890	1427,957	789,273
-37,227	14,918	1426,640	788,644
-36,213	14,873	1425,344	787,685
-35,198	14,893	1424,074	787,046
-34,184	14,926	1423,318	786,752
-33,169	14,878	1422,033	785,785
-32,154	14,943	1420,915	785,442
-31,140	14,892	1419,562	784,424
-30,125	14,926	1418,459	783,945
-29,111	14,948	1417,265	783,358
-28,096	14,909	1416,028	782,460
-27,082	14,821	1415,117	781,508
-26,067	14,826	1414,075	780,924
-25,052	14,857	1412,904	780,393
-24,038	14,795	1412,131	779,645
-23,023	14,810	1410,896	779,003
-22,009	14,842	1409,788	778,509
-20,994	14,802	1409,075	777,897
-19,979	14,778	1408,119	777,225
-18,965	14,768	1407,132	776,606
-17,950	14,759	1406,226	776,033
-16,936	14,761	1405,321	775,513
-15,921	14,777	1404,178	774,923
-14,906	14,747	1403,214	774,222
-13,892	14,761	1402,283	773,742
-12,877	14,721	1401,365	773,020
-11,863	14,724	1400,761	772,671
-10,848	14,717	1399,742	772,042
-9,833	14,665	1398,880	771,295
-8,819	14,674	1397,982	770,811
-7,804	14,675	1397,032	770,261
-6,790	14,584	1396,089	769,290
-5,775	14,625	1394,886	768,788
-4,760	14,613	1394,028	768,225
-3,746	14,627	1393,378	767,901
-2,731	14,641	1392,477	767,443
-1,717	14,605	1391,472	766,688
-0,702	14,577	1389,736	765,576
0,313	18,301	1308,410	738,045
1,327	34,438	706,173	435,748
2,342	52,541	124,448	84,033
3,356	3,297	16,483	8,470
4,371	-1,189	3,250	1,621
5,386	3,332	0,450	0,231
6,400	-200,000	-0,020	0,115
7,415	42,474	-0,205	-0,132
8,429	199,175	-0,197	-0,214
9,444	61,095	-0,230	-0,161
10,459	56,976	-0,287	-0,197
11,473	1,358	-0,200	-0,101
12,488	-107,923	-0,273	-0,042
13,502	9,967	-0,285	-0,153
14,517	378,291	-0,244	-0,354
15,531	57,311	-0,360	-0,248
16,546	231,265	-0,242	-0,281
17,561	65,250	-0,339	-0,242
18,575	-24,538	-0,222	-0,093
19,590	97,717	-0,299	-0,243
20,604	-33,311	-0,176	-0,069
21,619	102,813	-0,394	-0,326
22,634	51,009	-0,529	-0,354
23,648	160,010	-0,362	-0,357
24,663	67,345	-0,403	-0,291
25,677	188,893	-0,288	-0,305
26,692	32,298	-0,409	-0,249
27,707	145,346	-0,264	-0,250
28,721	53,433	-0,406	-0,275
29,736	63,407	-0,350	-0,248
30,750	152,384	-0,406	-0,392
31,765	140,909	-0,290	-0,271
32,780	64,569	-0,477	-0,339
33,794	215,550	-0,276	-0,310
34,809	128,347	-0,245	-0,220
35,823	209,953	-0,282	-0,313
36,838	71,345	-0,415	-0,304
37,853	212,460	-0,415	-0,463
38,867	127,104	-0,437	-0,392
39,882	314,043	-0,247	-0,329
40,896	65,240	-0,335	-0,239
41,911	13,717	-0,293	-0,160
42,926	196,538	-0,354	-0,381
43,940	365,851	-0,255	-0,363
44,955	305,123	-0,366	-0,481
45,969	74,375	-0,399	-0,295
46,984	82,411	-0,306	-0,234
47,999	69,740	-0,318	-0,231
49,013	30,022	-0,294	-0,177
50,028	36,709	-0,391	-0,243
51,042	117,704	-0,347	-0,301
52,057	65,660	-0,388	-0,277
53,071	-8,841	-0,398	-0,188
54,086	113,757	-0,260	-0,222
55,101	107,554	-0,346	-0,290
56,115	21,412	-0,308	-0,176
57,130	38,179	-0,434	-0,272
58,144	17,272	-0,366	-0,204
59,159	125,961	-0,318	-0,284
60,174	56,919	-0,336	-0,230
61,188	80,216	-0,260	-0,197
62,203	-72,606	-0,349	-0,090
63,217	117,355	-0,239	-0,207
64,232	-27,168	-0,435	-0,178
65,247	-78,944	-0,339	-0,081
66,261	-66,589	-0,455	-0,126
67,276	112,449	-0,302	-0,257
68,290	-20,662	-0,250	-0,108
69,305	141,356	-0,247	-0,230
70,320	15,437	-0,256	-0,141
71,334	-107,625	-0,398	-0,061
72,349	42,386	-0,348	-0,222
73,363	219,158	-0,229	-0,258
74,378	-23,038	-0,370	-0,156
75,393	-7,927	-0,351	-0,166
76,407	129,571	-0,232	-0,209
77,422	53,535	-0,263	-0,178
78,436	92,642	-0,197	-0,156
79,451	106,942	-0,283	-0,236
80,466	67,583	-0,261	-0,187
81,480	17,262	-0,318	-0,177
82,495	62,135	-0,270	-0,189
83,509	225,089	-0,228	-0,260
84,524	312,505	-0,152	-0,201
85,539	-69,060	-0,385	-0,103
86,553	-19,052	-0,293	-0,127
87,568	-51,206	-0,366	-0,120
88,582	259,830	-0,210	-0,255
89,597	29,897	-0,377	-0,225
90,611	10,260	-0,204	-0,109
91,626	-9,037	-0,286	-0,134
92,641	12,019	-0,286	-0,154
93,655	99,087	-0,317	-0,257
94,670	-14,513	-0,272	-0,123
95,684	16,378	-0,282	-0,156
96,699	105,669	-0,305	-0,253
97,714	228,544	-0,164	-0,187
98,728	29,170	-0,224	-0,133
99,743	-159,185	-0,206	-0,008
100,757	-60,256	-0,296	-0,088
101,772	15,271	-0,348	-0,191
102,787	79,737	-0,310	-0,233
103,801	188,884	-0,226	-0,237
104,816	-83,840	-0,235	-0,052
105,830	-48,276	-0,290	-0,098
106,845	-1,997	-0,149	-0,073
107,860	-4,804	-0,273	-0,132
108,874	74,347	-0,237	-0,175
109,889	-59,144	-0,300	-0,090
110,903	-82,129	-0,330	-0,075
111,918	124,834	-0,243	-0,215
112,933	53,442	-0,276	-0,185
113,947	24,576	-0,297	-0,172
114,962	-56,975	-0,292	-0,090
115,976	-9,259	-0,283	-0,132
116,991	72,407	-0,245	-0,179
118,006	-29,608	-0,414	-0,165
119,020	3,843	-0,257	-0,131
120,035	104,184	-0,209	-0,172
121,049	107,697	-0,194	-0,162
122,064	-127,768	-0,373	-0,037
123,079	23,520	-0,171	-0,098
124,093	-28,388	-0,263	-0,106
125,108	103,111	-0,232	-0,191
126,122	90,818	-0,276	-0,217
127,137	-200,000	-0,068	-0,229
128,151	78,761	-0,145	-0,109
129,166	-44,809	-0,242	-0,084
130,181	81,820	-0,327	-0,248
131,195	93,114	-0,152	-0,120
132,210	19,673	-0,300	-0,169
133,224	25,099	-0,259	-0,150
134,239	-94,807	-0,164	-0,031
135,254	-73,155	-0,142	-0,036
136,268	194,663	-0,110	-0,117
137,283	-36,849	-0,205	-0,077
138,297	358,668	-0,157	-0,220
139,312	4,154	-0,350	-0,179
140,327	206,592	-0,328	-0,358
141,341	82,683	-0,210	-0,159
142,356	-200,000	-0,063	-0,339
143,370	377,613	-0,193	-0,277
144,385	580,990	-0,168	-0,289
145,400	-15,314	-0,211	-0,094
146,414	191,554	-0,298	-0,314
147,429	123,705	-0,245	-0,215
148,443	7,625	-0,286	-0,149
149,458	50,632	-0,203	-0,134
150,473	84,534	-0,233	-0,178
151,487	43,555	-0,263	-0,168
152,502	29,813	-0,248	-0,147
153,516	655,243	-0,188	-0,339
154,531	236,028	-0,231	-0,267
155,546	367,315	-0,183	-0,259
156,560	-10,055	-0,260	-0,120
157,575	111,813	-0,246	-0,207
158,589	466,262	-0,104	-0,164
159,604	195,594	-0,229	-0,244
160,619	284,377	-0,165	-0,208
161,633	634,409	-0,145	-0,258
162,648	336,233	-0,112	-0,153
163,662	-15,553	-0,296	-0,131
164,677	-34,860	-0,192	-0,073
165,692	13,798	-0,241	-0,130
166,706	72,128	-0,219	-0,159
167,721	11,827	-0,226	-0,121
168,735	62,134	-0,225	-0,156
169,750	450,074	-0,183	-0,282
170,764	251,953	-0,237	-0,283
171,779	80,121	-0,134	-0,101
172,794	-47,377	-0,272	-0,092
173,808	22,994	-0,321	-0,183
174,823	311,391	-0,201	-0,264
175,837	9,866	-0,258	-0,136
176,852	154,077	-0,207	-0,198
177,867	360,390	-0,159	-0,223
178,881	37,790	-0,200	-0,123
179,896	80,402	-0,093	-0,070
180,910	17,513	-0,197	-0,109
181,925	14,081	-0,256	-0,139
182,940	19,079	-0,270	-0,151
183,954	198,731	-0,123	-0,131
184,969	-200,000	0,005	-0,297
185,983	42,552	-0,061	-0,039
186,998	32,823	-0,226	-0,136
188,013	207,502	-0,231	-0,251
189,027	65,954	-0,267	-0,188
190,042	184,660	-0,227	-0,235
191,056	135,739	-0,289	-0,262
192,071	149,379	-0,207	-0,195
193,086	-28,862	-0,152	-0,061
194,100	800,000	-0,108	-0,239
195,115	338,748	-0,077	-0,105
196,129	160,420	-0,270	-0,263
197,144	41,767	-0,233	-0,147
198,159	-63,362	-0,156	-0,044
199,173	60,163	-0,107	-0,073
200,188	800,000	-0,076	-0,183
201,202	531,211	-0,137	-0,226
202,217	-147,026	-0,243	-0,014
203,232	77,245	-0,157	-0,116
204,246	55,593	-0,188	-0,126
205,261	143,192	-0,244	-0,226
206,275	180,103	-0,145	-0,148
207,290	800,000	-0,108	-0,266
208,304	-36,897	-0,208	-0,077
209,319	96,206	-0,130	-0,103
210,334	377,650	-0,129	-0,183
211,348	246,524	-0,180	-0,212
212,363	407,089	-0,210	-0,310
213,377	196,582	-0,146	-0,155
214,392	10,844	-0,200	-0,106
215,407	-108,782	-0,207	-0,030
216,421	73,270	-0,146	-0,106
217,436	32,850	-0,223	-0,134
218,450	154,592	-0,229	-0,219
219,465	14,118	-0,168	-0,090
220,480	800,000	-0,071	-0,186
221,494	59,526	-0,162	-0,111
222,509	-200,000	-0,004	-0,242
223,523	-77,461	-0,202	0,048
224,538	-106,521	-0,073	-0,011
225,553	308,957	-0,069	-0,090
226,567	82,688	-0,159	-0,120
227,582	664,394	-0,090	-0,162
228,596	350,859	-0,088	-0,122
229,611	119,034	-0,188	-0,162
230,626	20,405	-0,263	-0,147
231,640	800,000	-0,069	-0,176
232,655	205,642	-0,173	-0,187
233,669	-32,497	-0,292	-0,112
234,684	56,294	-0,263	-0,177
235,699	150,657	-0,205	-0,193
236,713	64,438	-0,110	-0,077
237,728	-65,491	-0,177	-0,049
238,742	-200,000	-0,035	-0,179
239,757	-200,000	-0,053	-0,347
240,772	70,191	-0,258	-0,185
241,786	575,000	-0,118	-0,201
242,801	228,922	-0,147	-0,166
243,815	84,196	-0,234	-0,177
244,830	160,858	-0,154	-0,149
245,844	-88,375	-0,155	-0,032
246,859	800,000	-0,165	-0,319
247,874	99,281	-0,181	-0,145
248,888	23,643	-0,314	-0,179
249,903	-7,044	-0,259	-0,122
250,917	800,000	-0,103	-0,256
251,932	-53,861	0,082	-0,026
252,947	-102,445	-0,181	-0,030
253,961	-52,271	-0,147	-0,047
254,976	117,678	-0,254	-0,216
255,990	355,456	-0,081	-0,113
257,005	20,007	-0,138	-0,077
258,020	-128,091	-0,169	-0,017
259,034	-10,551	-0,182	-0,083
260,049	800,000	-0,076	-0,189
261,063	350,206	-0,126	-0,172
262,078	800,000	-0,089	-0,247
263,093	226,599	-0,106	-0,119
264,107	-145,124	-0,169	-0,010
265,122	800,000	-0,074	-0,195
266,136	255,908	-0,104	-0,124
267,151	69,817	-0,222	-0,158
268,166	-200,000	-0,037	-0,215
269,180	800,000	-0,056	-0,125
270,195	228,764	-0,249	-0,282
271,209	302,570	-0,087	-0,111
272,224	150,048	-0,150	-0,141
273,239	75,276	-0,085	-0,062
274,253	800,000	-0,079	-0,174
275,268	8,306	-0,218	-0,113
276,282	303,870	-0,139	-0,179
277,297	800,000	-0,105	-0,275
278,312	61,019	-0,139	-0,096
279,326	40,185	-0,160	-0,100
280,341	96,844	-0,126	-0,100
281,355	-52,969	-0,124	-0,039
282,370	-47,574	-0,143	-0,048
283,384	-30,989	-0,248	-0,096
284,399	-136,366	-0,133	-0,011
285,414	40,451	-0,229	-0,142
286,428	750,918	-0,094	-0,176
287,443	-90,733	-0,158	0,031
288,457	-111,677	-0,140	-0,019
289,472	-94,340	-0,172	0,032
290,487	-132,785	-0,139	-0,012
291,501	112,967	-0,097	-0,081
292,516	-146,806	-0,215	-0,013
293,530	-106,290	-0,188	-0,029
294,545	129,682	-0,127	-0,112
295,560	161,995	-0,131	-0,126
296,574	138,145	-0,212	-0,192
297,589	39,239	-0,168	-0,103
298,603	800,000	-0,091	-0,223
299,618	382,041	-0,110	-0,157
300,633	800,000	-0,037	-0,092
301,647	153,915	-0,136	-0,129
302,662	-50,784	-0,061	-0,020
303,676	-125,219	-0,123	-0,013
304,691	10,753	-0,232	-0,122
305,706	11,421	-0,129	-0,068
306,720	702,026	-0,093	-0,169
307,735	-18,557	-0,064	-0,027
308,749	-200,000	-0,019	-0,093
309,764	800,000	-0,019	0,056
310,779	140,990	-0,180	-0,165
311,793	530,923	-0,136	-0,223
312,808	7,081	-0,082	-0,042
313,822	130,349	-0,221	-0,195
314,837	44,739	-0,208	-0,132
315,852	0,723	-0,176	-0,086
316,866	-168,760	-0,199	-0,005
317,881	27,566	-0,159	-0,092
318,895	96,423	-0,061	0,048
319,910	-2,380	-0,104	-0,050
320,925	800,000	-0,088	-0,260
321,939	394,066	-0,119	-0,171
322,954	-34,593	-0,158	-0,059
323,968	-200,000	-0,009	-0,043
324,983	689,529	-0,069	-0,124
325,997	0,905	-0,193	-0,095
327,012	-42,710	-0,134	-0,047
328,027	247,371	-0,159	-0,185
329,041	-149,211	-0,150	0,008
330,056	314,927	-0,058	-0,075
331,070	-28,838	0,055	-0,022
332,085	132,044	-0,081	-0,071
333,100	41,005	-0,120	-0,074
334,114	18,573	-0,101	-0,055
335,129	777,247	-0,109	-0,205
336,143	87,615	-0,119	-0,091
337,158	30,200	-0,144	-0,084
338,173	-159,502	-0,080	0,003
339,187	-91,970	-0,093	-0,018
340,202	128,364	-0,102	-0,089
341,216	-116,249	-0,197	0,025
342,231	89,205	-0,138	-0,105
343,246	-108,352	-0,062	-0,009
344,260	800,000	-0,098	-0,246
345,275	116,004	-0,159	-0,133
346,289	-127,754	-0,025	-0,002
347,304	237,880	-0,172	-0,196
348,319	63,020	-0,140	-0,096
349,333	164,331	-0,115	-0,111
350,348	205,188	-0,059	-0,063
351,362	-36,174	-0,140	-0,052
352,377	18,940	-0,169	-0,093
353,392	-107,543	-0,192	-0,028
354,406	-82,343	-0,160	0,035
355,421	207,593	1313,795	1409,910
356,435	159,692	1474,434	1410,408
