DTS Sentinel unit serial number:	SN410029Multiplexer serial number:	ORYXHardware model number:	OX2-SRSoftware version number:	ORYX F/W v4,00 Oryx Data Collector v3.7.2.0data status	okinstallation	B3 Nyhavnadifferential loss correction	single-endedforward channel	channel 1reverse channel	N/Adate	2023/12/04time	11:52:30forward acquisition time	300,00reverse acquisition time	0,00gamma	499,1914k internal	0,3202k external	0,3202temperature offset calibration	1,0000default loss term (dB/km)	0,3820temperature slope calibration	1,0000multiplexer offset coefficient	1,0000multiplexer slope coefficient	1,0000fibre end	0,00T internal ref (°C)	14,19T ext. ref 1 (°C)	-0,17T ext. ref 2 (°C)	-0,20length (m)	temperature (°C)	Stokes	anti-Stokes-744,400	103,390	-0,196	-0,167
-743,385	-200,000	0,046	0,334
-742,371	129,214	-0,204	-0,189
-741,356	-200,000	-0,066	0,435
-740,342	91,132	-0,162	-0,132
-739,327	-200,000	0,084	0,289
-738,312	274,380	-0,227	-0,292
-737,298	620,175	-0,119	0,218
-736,283	163,718	-0,163	-0,167
-735,269	-200,000	-0,049	0,441
-734,254	175,285	-0,275	-0,289
-733,239	390,336	-0,132	0,200
-732,225	-200,000	-0,034	-0,174
-731,210	26,634	0,281	0,171
-730,196	191,441	-0,149	-0,163
-729,181	-48,010	-0,058	-0,020
-728,167	-200,000	0,012	-0,203
-727,152	315,317	-0,006	-0,009
-726,137	193,559	-0,038	0,042
-725,123	-200,000	0,018	-0,102
-724,108	-200,000	-0,045	-0,223
-723,094	-110,539	-0,131	-0,019
-722,079	-3,193	0,060	-0,030
-721,064	37,897	-0,108	0,070
-720,050	-153,187	0,073	-0,004
-719,035	-200,000	-0,010	0,065
-718,021	167,191	-0,036	-0,037
-717,006	-8,012	-0,081	-0,040
-715,991	362,297	0,039	0,057
-714,977	800,000	0,053	-0,111
-713,962	460,094	-0,032	-0,052
-712,948	-12,664	-0,060	-0,028
-711,933	-159,226	0,068	0,003
-710,918	-200,000	-0,004	0,050
-709,904	101,842	0,056	0,048
-708,889	2,361	-0,162	-0,085
-707,875	242,667	-0,146	-0,177
-706,860	-200,000	-0,022	-0,087
-705,845	800,000	-0,016	-0,043
-704,831	800,000	-0,045	0,102
-703,816	-200,000	0,004	-0,095
-702,802	42,758	0,055	-0,036
-701,787	-200,000	0,015	-0,068
-700,772	236,920	-0,042	-0,051
-699,758	-69,804	0,097	-0,027
-698,743	-132,564	-0,108	-0,010
-697,729	-13,094	0,106	-0,050
-696,714	-200,000	-0,035	0,116
-695,699	179,461	-0,052	-0,056
-694,685	91,659	-0,113	-0,092
-693,670	-18,151	0,067	-0,030
-692,656	489,011	0,047	-0,078
-691,641	800,000	-0,020	-0,042
-690,627	52,326	-0,025	-0,017
-689,612	-65,542	-0,100	0,029
-688,597	800,000	-0,014	0,039
-687,583	-200,000	-0,046	-0,150
-686,568	-200,000	0,037	-0,121
-685,554	-122,584	-0,033	-0,004
-684,539	-134,601	-0,065	0,006
-683,524	-200,000	0,001	0,099
-682,510	-61,343	0,045	-0,014
-681,495	-200,000	-0,002	0,069
-680,481	77,352	-0,014	0,011
-679,466	-27,230	-0,139	-0,059
-678,451	-75,449	-0,048	0,012
-677,437	-200,000	0,013	-0,051
-676,422	-87,282	0,098	0,021
-675,408	-123,979	0,091	-0,010
-674,393	50,328	-0,097	0,066
-673,378	-138,033	-0,056	0,004
-672,364	21,104	-0,037	0,022
-671,349	81,407	0,049	-0,038
-670,335	-150,341	0,098	-0,005
-669,320	-200,000	0,008	0,044
-668,305	731,292	-0,020	0,039
-667,291	-97,664	-0,069	0,013
-666,276	-64,807	-0,107	-0,031
-665,262	-200,000	0,017	-0,095
-664,247	280,106	-0,089	-0,116
-663,232	800,000	-0,041	-0,089
-662,218	112,081	0,043	0,038
-661,203	29,344	-0,087	0,053
-660,189	-114,902	-0,102	0,014
-659,174	-200,000	-0,016	0,056
-658,159	-73,634	-0,019	0,005
-657,145	-200,000	0,001	-0,064
-656,130	-46,183	-0,111	-0,039
-655,116	800,000	-0,016	0,031
-654,101	-136,431	-0,066	-0,006
-653,086	800,000	0,045	0,099
-652,072	17,163	-0,107	-0,061
-651,057	379,307	-0,043	-0,064
-650,043	-200,000	0,043	-0,145
-649,028	103,465	0,070	0,059
-648,014	-200,000	-0,033	-0,105
-646,999	235,928	-0,106	0,127
-645,984	107,980	-0,077	-0,067
-644,970	-200,000	0,032	0,176
-643,955	322,633	0,077	-0,107
-642,941	-200,000	-0,013	-0,096
-641,926	-200,000	-0,011	-0,038
-640,911	92,598	0,042	0,034
-639,897	167,677	-0,060	-0,062
-638,882	-9,864	-0,023	-0,011
-637,868	-200,000	-0,007	0,097
-636,853	800,000	-0,013	-0,036
-635,838	77,937	0,036	0,028
-634,824	761,511	-0,041	-0,080
-633,809	-73,892	-0,047	-0,012
-632,795	-200,000	0,000	0,113
-631,780	-117,416	0,142	-0,018
-630,765	-119,381	0,037	0,005
-629,751	1,699	-0,071	-0,037
-628,736	800,000	-0,034	-0,077
-627,722	-164,558	-0,127	0,004
-626,707	102,025	0,074	0,062
-625,692	-55,072	-0,071	0,023
-624,678	-113,922	-0,067	0,009
-623,663	800,000	-0,016	0,035
-622,649	-200,000	-0,007	-0,052
-621,634	800,000	0,040	-0,100
-620,619	121,173	0,054	0,049
-619,605	505,716	0,036	0,060
-618,590	-76,131	0,139	0,035
-617,576	-88,843	-0,094	0,020
-616,561	-93,422	0,042	-0,008
-615,546	800,000	-0,045	0,107
-614,532	-200,000	0,017	-0,104
-613,517	195,721	0,158	-0,174
-612,503	29,869	0,055	0,034
-611,488	19,766	0,133	0,078
-610,474	-200,000	0,015	0,051
-609,459	-15,333	0,105	0,049
-608,444	3,983	-0,100	-0,053
-607,430	-121,766	0,090	0,011
-606,415	800,000	-0,033	-0,097
-605,401	-200,000	0,005	0,076
-604,386	235,183	-0,063	-0,075
-603,371	-200,000	-0,046	0,236
-602,357	-200,000	-0,001	0,037
-601,342	-200,000	0,002	-0,037
-600,328	365,097	-0,072	-0,106
-599,313	800,000	-0,016	0,049
-598,298	72,941	0,142	-0,107
-597,284	-23,357	-0,096	0,041
-596,269	397,876	0,040	0,060
-595,255	-200,000	-0,026	0,116
-594,240	743,163	-0,086	0,168
-593,225	366,811	0,026	-0,038
-592,211	800,000	-0,036	-0,112
-591,196	-200,000	0,025	-0,081
-590,182	-200,000	-0,009	0,061
-589,167	123,940	0,120	0,109
-588,152	-200,000	-0,021	0,112
-587,138	26,482	-0,111	-0,067
-586,123	-92,522	-0,155	-0,031
-585,109	-87,626	-0,198	-0,043
-584,094	100,373	0,063	0,053
-583,079	547,029	-0,031	0,054
-582,065	55,434	-0,125	-0,087
-581,050	308,879	-0,025	0,033
-580,036	800,000	0,045	0,118
-579,021	58,733	-0,103	-0,073
-578,006	222,050	-0,004	0,005
-576,992	58,607	0,059	-0,042
-575,977	800,000	0,057	0,136
-574,963	78,191	0,171	-0,132
-573,948	-130,912	0,056	-0,005
-572,934	19,915	0,109	0,063
-571,919	-50,869	-0,036	-0,012
-570,904	15,722	-0,130	-0,074
-569,890	161,111	0,024	0,024
-568,875	-200,000	0,003	-0,116
-567,861	-110,854	0,017	-0,003
-566,846	-29,910	0,073	-0,030
-565,831	-29,300	0,057	-0,023
-564,817	69,314	-0,093	0,069
-563,802	-200,000	0,032	-0,125
-562,788	80,343	-0,100	-0,078
-561,773	70,957	0,052	-0,039
-560,758	90,103	0,119	0,096
-559,744	800,000	0,029	0,057
-558,729	-10,868	-0,186	0,088
-557,715	-66,093	-0,072	0,021
-556,700	55,548	-0,063	-0,044
-555,685	800,000	0,043	-0,100
-554,671	-32,720	0,047	-0,019
-553,656	54,079	-0,052	-0,036
-552,642	76,525	0,010	0,008
-551,627	-200,000	-0,023	0,082
-550,612	-200,000	-0,030	-0,218
-549,598	-95,027	-0,161	-0,031
-548,583	-23,671	-0,088	0,038
-547,569	160,004	-0,100	-0,101
-546,554	-36,319	0,020	-0,008
-545,539	612,386	0,055	0,100
-544,525	-70,265	-0,149	-0,040
-543,510	468,472	0,034	-0,055
-542,496	-200,000	0,003	-0,027
-541,481	83,512	0,022	-0,018
-540,466	783,922	0,027	0,053
-539,452	92,976	0,061	0,050
-538,437	-49,713	0,097	-0,033
-537,423	800,000	0,036	0,092
-536,408	117,045	-0,051	-0,045
-535,393	205,513	-0,066	-0,074
-534,379	670,196	-0,029	0,055
-533,364	565,267	0,071	-0,124
-532,350	-200,000	-0,008	0,048
-531,335	-70,902	0,109	0,030
-530,321	251,578	-0,050	0,062
-529,306	315,717	-0,045	0,062
-528,291	400,538	-0,025	0,037
-527,277	46,852	-0,052	-0,035
-526,262	106,796	-0,041	-0,035
-525,248	-86,759	-0,051	0,011
-524,233	800,000	0,021	-0,053
-523,218	-200,000	0,012	-0,116
-522,204	-200,000	-0,052	-0,178
-521,189	22,315	-0,089	-0,052
-520,175	140,720	0,029	0,028
-519,160	-122,885	0,114	-0,013
-518,145	95,392	-0,092	-0,076
-517,131	-68,027	0,117	0,033
-516,116	194,003	0,130	0,143
-515,102	440,473	0,038	-0,060
-514,087	414,852	0,030	-0,046
-513,072	207,228	-0,036	0,041
-512,058	0,546	-0,066	0,034
-511,043	-78,082	0,135	-0,033
-510,029	10,332	0,066	0,036
-509,014	-111,262	-0,066	-0,010
-507,999	-200,000	-0,004	-0,107
-506,985	-200,000	-0,003	0,046
-505,970	-64,445	-0,038	0,011
-504,956	212,951	-0,111	-0,126
-503,941	-75,285	0,115	0,029
-502,926	60,301	-0,081	-0,058
-501,912	-200,000	0,002	0,030
-500,897	129,186	-0,042	-0,039
-499,883	-200,000	0,014	0,137
-498,868	-200,000	-0,038	-0,230
-497,853	-123,247	-0,074	-0,008
-496,839	178,891	0,064	-0,067
-495,824	397,799	0,119	0,180
-494,810	205,374	0,103	0,115
-493,795	-158,352	-0,076	0,003
-492,781	-200,000	0,005	-0,030
-491,766	-200,000	-0,048	-0,162
-490,751	800,000	-0,026	-0,060
-489,737	-200,000	0,001	-0,029
-488,722	165,827	-0,069	0,070
-487,708	-74,880	-0,048	0,012
-486,693	-200,000	0,009	0,070
-485,678	733,816	-0,051	-0,099
-484,664	-116,965	0,087	0,011
-483,649	-200,000	-0,005	0,045
-482,635	32,031	-0,061	-0,038
-481,620	-52,311	-0,038	-0,013
-480,605	4,339	0,093	0,049
-479,591	800,000	0,027	0,077
-478,576	70,352	-0,070	0,052
-477,562	32,337	0,066	-0,041
-476,547	-200,000	-0,012	-0,182
-475,532	17,143	-0,078	0,044
-474,518	-200,000	-0,008	0,075
-473,503	800,000	-0,031	0,069
-472,489	85,516	0,147	0,116
-471,474	166,037	-0,077	-0,079
-470,459	643,332	-0,085	0,156
-469,445	-161,227	-0,121	-0,004
-468,430	583,880	0,030	-0,053
-467,416	-200,000	0,021	-0,115
-466,401	505,602	-0,074	-0,124
-465,386	-200,000	0,011	0,210
-464,372	-13,818	-0,065	0,030
-463,357	-166,445	-0,063	-0,002
-462,343	19,023	-0,110	-0,063
-461,328	800,000	-0,023	0,064
-460,313	-77,902	0,124	-0,031
-459,299	-108,561	0,042	0,006
-458,284	85,081	0,093	-0,073
-457,270	-89,557	0,132	-0,028
-456,255	-200,000	0,042	-0,147
-455,241	800,000	-0,048	0,109
-454,226	-89,200	0,138	-0,029
-453,211	442,364	0,048	-0,076
-452,197	71,937	0,064	0,048
-451,182	-138,198	0,082	0,006
-450,168	-200,000	0,032	0,112
-449,153	-99,407	-0,023	0,004
-448,138	-200,000	0,016	-0,066
-447,124	-40,414	-0,049	0,018
-446,109	-112,378	0,054	-0,008
-445,095	-28,054	0,073	-0,030
-444,080	-159,605	0,103	0,004
-443,065	800,000	-0,023	0,060
-442,051	-86,946	0,093	-0,020
-441,036	800,000	-0,043	-0,117
-440,022	55,659	-0,152	-0,106
-439,007	-42,737	0,157	0,057
-437,992	190,065	-0,099	-0,106
-436,978	237,089	0,010	-0,012
-435,963	132,569	-0,030	-0,028
-434,949	147,392	-0,084	-0,082
-433,934	11,708	-0,055	-0,030
-432,919	-200,000	-0,021	-0,080
-431,905	166,958	-0,079	-0,081
-430,890	205,534	0,055	0,062
-429,876	382,130	0,073	0,108
-428,861	-200,000	0,003	-0,048
-427,846	12,443	0,055	0,031
-426,832	800,000	0,034	0,098
-425,817	-200,000	-0,007	-0,078
-424,803	430,133	0,032	-0,050
-423,788	-200,000	-0,003	0,079
-422,773	140,183	0,086	0,081
-421,759	91,912	-0,079	0,064
-420,744	800,000	-0,045	-0,091
-419,730	23,775	0,060	0,036
-418,715	-138,047	-0,113	-0,009
-417,701	38,901	-0,124	-0,080
-416,686	-200,000	0,039	0,140
-415,671	-92,046	-0,108	-0,022
-414,657	-20,811	-0,059	0,026
-413,642	800,000	-0,021	-0,054
-412,628	-200,000	0,000	0,023
-411,613	682,880	0,096	-0,180
-410,598	-200,000	0,003	-0,066
-409,584	-53,664	0,097	-0,032
-408,569	-191,496	0,140	-0,001
-407,555	-6,644	0,100	0,049
-406,540	384,670	-0,028	-0,042
-405,525	-122,341	-0,057	0,007
-404,511	371,765	-0,076	0,111
-403,496	-45,730	0,048	0,017
-402,482	122,704	-0,119	-0,107
-401,467	-200,000	0,004	-0,053
-400,452	421,376	0,063	-0,098
-399,438	-57,790	-0,106	-0,033
-398,423	-26,655	0,106	0,044
-397,409	-156,947	-0,058	0,003
-396,394	-200,000	-0,005	-0,017
-395,379	251,152	0,030	0,037
-394,365	208,616	-0,034	0,038
-393,350	-200,000	0,009	0,032
-392,336	184,599	0,159	0,169
-391,321	7,619	-0,101	0,054
-390,306	-200,000	-0,004	0,043
-389,292	-200,000	0,003	-0,096
-388,277	27,929	-0,072	-0,044
-387,263	-134,046	0,111	0,010
-386,248	-200,000	0,005	-0,136
-385,233	-94,129	-0,035	0,007
-384,219	-200,000	0,014	0,128
-383,204	-200,000	-0,022	0,103
-382,190	240,338	-0,066	-0,079
-381,175	-200,000	-0,035	-0,126
-380,160	619,163	0,045	0,081
-379,146	800,000	0,101	0,203
-378,131	716,272	-0,107	0,205
-377,117	423,677	0,040	0,062
-376,102	-45,848	-0,073	-0,026
-375,088	-137,992	-0,063	0,005
-374,073	641,131	0,075	-0,138
-373,058	-154,075	0,148	-0,007
-372,044	-65,335	-0,015	0,004
-371,029	-92,903	0,034	-0,007
-370,015	364,222	0,087	0,125
-369,000	-119,243	-0,091	-0,011
-367,985	147,673	-0,039	-0,037
-366,971	-200,000	-0,013	0,047
-365,956	172,560	-0,093	0,096
-364,942	117,535	0,090	0,079
-363,927	77,821	0,092	0,070
-362,912	543,495	-0,045	-0,078
-361,898	-88,480	-0,053	-0,011
-360,883	-169,119	-0,109	0,003
-359,869	56,361	0,086	0,060
-358,854	-200,000	-0,027	0,202
-357,839	437,934	-0,036	0,057
-356,825	-64,082	-0,044	0,013
-355,810	8,154	-0,067	-0,036
-354,796	25,596	0,031	0,019
-353,781	263,585	-0,043	-0,053
-352,766	207,314	0,024	0,027
-351,752	18,720	0,053	0,030
-350,737	150,271	-0,036	-0,035
-349,723	-200,000	-0,019	0,126
-348,708	324,924	-0,021	0,028
-347,693	-28,492	0,080	0,033
-346,679	800,000	-0,011	0,023
-345,664	-200,000	0,012	-0,076
-344,650	-70,654	0,056	-0,015
-343,635	-200,000	0,025	0,148
-342,620	10,092	0,126	0,068
-341,606	-200,000	0,015	0,059
-340,591	800,000	-0,029	-0,065
-339,577	-79,959	-0,107	0,026
-338,562	-200,000	-0,005	-0,114
-337,548	-5,118	-0,072	0,036
-336,533	95,374	-0,038	0,031
-335,518	133,590	0,036	0,033
-334,504	-200,000	-0,010	0,060
-333,489	-200,000	0,013	0,043
-332,475	-98,528	0,159	0,029
-331,460	-174,331	-0,058	0,001
-330,445	-9,306	0,144	0,069
-329,431	-136,306	0,092	0,008
-328,416	120,188	0,086	0,077
-327,402	7,286	0,155	-0,083
-326,387	-200,000	-0,015	-0,049
-325,372	671,519	-0,037	0,069
-324,358	-200,000	0,005	-0,031
-323,343	-13,641	-0,040	0,018
-322,329	800,000	0,009	0,025
-321,314	729,731	0,019	0,037
-320,299	-107,012	0,063	-0,010
-319,285	170,570	-0,024	0,025
-318,270	-7,624	-0,102	-0,049
-317,256	390,898	0,047	-0,070
-316,241	800,000	0,035	-0,083
-315,226	-200,000	-0,040	0,185
-314,212	-200,000	0,002	0,170
-313,197	-200,000	-0,015	-0,088
-312,183	-200,000	-0,011	-0,069
-311,168	185,378	-0,136	-0,144
-310,153	29,682	-0,130	-0,079
-309,139	-200,000	0,021	-0,108
-308,124	27,832	0,006	-0,004
-307,110	3,378	0,092	0,048
-306,095	-200,000	0,001	0,084
-305,080	-200,000	0,004	0,019
-304,066	68,993	0,128	0,094
-303,051	44,270	0,066	-0,044
-302,037	-149,383	-0,043	0,002
-301,022	-62,450	0,032	-0,009
-300,008	42,956	0,117	-0,076
-298,993	82,324	0,075	0,058
-297,978	-22,974	0,167	0,072
-296,964	-200,000	-0,062	0,000
-295,949	-123,734	-0,030	-0,003
-294,935	-200,000	0,010	-0,048
-293,920	479,834	-0,050	-0,082
-292,905	183,724	0,076	-0,080
-291,891	441,402	-0,091	0,143
-290,876	-200,000	0,035	0,127
-289,862	-200,000	-0,014	0,088
-288,847	-7,979	-0,133	-0,064
-287,832	-86,435	0,080	-0,017
-286,818	800,000	-0,067	-0,134
-285,803	67,103	0,051	-0,037
-284,789	354,051	0,025	0,035
-283,774	-130,413	0,091	0,009
-282,759	-147,645	-0,062	-0,004
-281,745	-177,477	-0,141	0,002
-280,730	115,433	-0,082	-0,072
-279,716	27,327	-0,081	-0,049
-278,701	800,000	0,005	-0,014
-277,686	-70,516	0,157	0,042
-276,672	-99,291	-0,043	-0,008
-275,657	282,479	-0,064	0,082
-274,643	82,647	0,098	0,076
-273,628	54,272	-0,119	-0,082
-272,613	-95,584	-0,059	0,011
-271,599	122,053	-0,059	-0,052
-270,584	156,463	0,183	0,180
-269,570	114,836	-0,044	0,038
-268,555	353,729	0,075	0,107
-267,540	-110,434	-0,145	-0,021
-266,526	-78,199	0,082	0,020
-265,511	-200,000	0,009	-0,060
-264,497	406,698	-0,018	0,027
-263,482	231,755	-0,040	0,047
-262,467	800,000	0,045	0,113
-261,453	-200,000	0,037	0,143
-260,438	12,296	-0,107	-0,058
-259,424	-200,000	0,018	-0,119
-258,409	-200,000	0,008	-0,083
-257,395	-200,000	-0,042	-0,159
-256,380	-79,871	0,075	-0,018
-255,365	-200,000	0,013	-0,089
-254,351	800,000	-0,075	0,180
-253,336	-200,000	-0,011	0,106
-252,322	31,918	0,052	-0,032
-251,307	395,966	-0,068	-0,101
-250,292	64,919	0,107	-0,077
-249,278	5,130	-0,036	0,019
-248,263	401,445	-0,054	-0,081
-247,249	78,663	-0,042	0,032
-246,234	150,570	0,041	-0,039
-245,219	800,000	-0,022	0,066
-244,205	-132,731	0,082	0,007
-243,190	-200,000	-0,002	-0,085
-242,176	36,804	0,106	-0,067
-241,161	-136,958	0,064	-0,005
-240,146	281,994	-0,075	-0,095
-239,132	-200,000	-0,034	-0,136
-238,117	-40,560	-0,085	-0,031
-237,103	-200,000	-0,009	0,042
-236,088	67,273	0,061	0,044
-235,073	-77,934	0,125	0,030
-234,059	-12,124	0,172	0,080
-233,044	-19,349	0,095	0,042
-232,030	-13,293	-0,102	-0,047
-231,015	73,165	0,058	0,043
-230,000	-90,030	-0,169	-0,035
-228,986	21,549	0,069	0,040
-227,971	217,095	-0,058	0,066
-226,957	-156,515	-0,060	0,003
-225,942	65,357	-0,062	0,045
-224,927	-5,393	-0,041	-0,020
-223,913	462,969	0,025	0,040
-222,898	800,000	0,027	0,076
-221,884	-200,000	-0,025	-0,160
-220,869	329,241	0,103	-0,142
-219,855	111,977	-0,023	-0,019
-218,840	-38,097	0,188	0,071
-217,825	233,890	-0,050	0,059
-216,811	-200,000	-0,021	0,114
-215,796	800,000	-0,010	0,020
-214,782	30,728	0,050	0,030
-213,767	-200,000	0,020	-0,127
-212,752	-89,560	0,072	0,015
-211,738	42,113	0,123	0,079
-210,723	-25,538	0,079	-0,033
-209,709	-96,381	0,091	-0,017
-208,694	-200,000	-0,006	-0,089
-207,679	800,000	0,008	0,018
-206,665	0,750	-0,025	0,013
-205,650	-200,000	-0,007	-0,041
-204,636	800,000	0,011	0,029
-203,621	-26,766	0,059	0,024
-202,606	-196,842	-0,017	0,000
-201,592	-102,357	-0,093	-0,016
-200,577	251,693	-0,057	-0,069
-199,563	-200,000	0,036	-0,146
-198,548	-9,992	-0,078	0,037
-197,533	-17,468	0,080	0,036
-196,519	-200,000	-0,022	0,093
-195,504	-200,000	-0,017	-0,090
-194,490	-35,572	0,041	0,016
-193,475	-200,000	0,000	-0,249
-192,460	35,404	-0,120	-0,074
-191,446	122,712	0,042	0,037
-190,431	800,000	0,022	-0,048
-189,417	38,591	0,052	-0,033
-188,402	157,496	0,040	-0,040
-187,387	800,000	0,026	-0,070
-186,373	-111,123	-0,135	-0,020
-185,358	153,779	-0,019	-0,018
-184,344	63,893	0,041	0,029
-183,329	-200,000	-0,011	0,096
-182,315	436,671	-0,097	0,151
-181,300	64,373	0,082	0,059
-180,285	-33,227	-0,099	-0,039
-179,271	-8,432	-0,118	0,056
-178,256	800,000	0,026	0,055
-177,242	374,972	-0,065	0,095
-176,227	-200,000	-0,007	-0,039
-175,212	-200,000	0,019	0,098
-174,198	-5,176	-0,087	0,042
-173,183	-200,000	0,034	-0,123
-172,169	-73,841	-0,166	-0,043
-171,154	800,000	-0,042	-0,103
-170,139	-121,352	-0,177	-0,021
-169,125	-29,499	0,062	0,025
-168,110	46,570	-0,116	-0,076
-167,096	-200,000	-0,001	0,031
-166,081	633,990	-0,056	0,100
-165,066	-104,135	0,097	-0,016
-164,052	-200,000	-0,008	0,065
-163,037	348,851	-0,112	-0,157
-162,023	800,000	0,070	0,148
-161,008	194,149	0,112	0,121
-159,993	84,695	-0,062	0,048
-158,979	-13,889	0,039	-0,018
-157,964	118,734	0,094	-0,082
-156,950	155,946	-0,105	-0,103
-155,935	-200,000	-0,025	0,118
-154,920	-200,000	0,018	-0,099
-153,906	-105,964	0,027	0,004
-152,891	211,154	0,085	-0,095
-151,877	213,511	-0,097	0,110
-150,862	-81,592	-0,095	-0,022
-149,847	-15,643	-0,031	-0,014
-148,833	198,177	-0,061	0,067
-147,818	800,000	0,028	0,074
-146,804	-7,911	0,045	0,022
-145,789	-200,000	0,020	0,071
-144,775	-0,055	-0,104	-0,052
-143,760	227,083	-0,103	-0,119
-142,745	-200,000	0,021	0,106
-141,731	42,764	0,138	0,089
-140,716	-200,000	0,020	0,075
-139,702	388,394	0,023	-0,033
-138,687	-22,155	0,106	0,045
-137,672	66,875	-0,079	0,057
-136,658	-200,000	0,030	0,144
-135,643	152,781	-0,106	0,103
-134,629	304,223	0,057	-0,075
-133,614	576,050	0,030	-0,053
-132,599	-101,579	0,033	0,006
-131,585	800,000	-0,049	-0,120
-130,570	107,348	-0,035	-0,030
-129,556	36,309	-0,032	0,020
-128,541	105,270	-0,139	-0,116
-127,526	-200,000	0,004	-0,014
-126,512	11,075	-0,083	0,045
-125,497	733,692	0,062	0,119
-124,483	-200,000	0,037	-0,125
-123,468	159,489	-0,085	-0,084
-122,453	-23,228	0,030	0,013
-121,439	-69,024	-0,102	-0,028
-120,424	155,961	-0,037	-0,036
-119,410	149,843	-0,050	-0,048
-118,395	800,000	-0,033	-0,093
-117,380	800,000	-0,009	-0,020
-116,366	800,000	-0,041	-0,086
-115,351	-200,000	0,034	0,127
-114,337	800,000	-0,024	-0,070
-113,322	188,324	-0,031	-0,033
-112,307	43,400	0,073	0,047
-111,293	-19,066	0,067	-0,029
-110,278	800,000	0,030	0,068
-109,264	-200,000	0,035	0,125
-108,249	-200,000	-0,008	0,060
-107,234	800,000	0,045	0,099
-106,220	-92,503	-0,120	0,024
-105,205	800,000	0,013	0,028
-104,191	533,285	0,118	0,200
-103,176	365,220	-0,041	0,058
-102,162	-42,283	-0,033	0,012
-101,147	-75,367	-0,027	-0,007
-100,132	288,457	-0,072	-0,093
-99,118	800,000	-0,029	-0,068
-98,103	-7,256	0,056	0,027
-97,089	800,000	0,088	0,183
-96,074	14,784	-0,016	-0,009
-95,059	749,172	-0,023	-0,045
-94,045	-70,877	0,048	0,013
-93,030	637,736	-0,041	-0,074
-92,016	800,000	0,053	-0,147
-91,001	800,000	-0,019	-0,048
-89,986	119,119	0,076	0,067
-88,972	-200,000	0,024	0,086
-87,957	28,573	-0,151	0,090
-86,943	-31,191	0,049	-0,020
-85,928	14,738	-0,021	0,012
-84,913	-200,000	-0,030	-0,098
-83,899	-20,358	0,097	-0,042
-82,884	176,228	0,069	0,071
-81,870	-37,463	0,046	0,017
-80,855	-200,000	-0,013	-0,056
-79,840	-200,000	0,032	0,153
-78,826	622,883	0,058	-0,105
-77,811	-152,154	-0,060	0,003
-76,797	-92,281	0,122	0,024
-75,782	-200,000	-0,005	0,101
-74,767	-107,250	0,067	0,010
-73,753	-115,334	-0,101	-0,013
-72,738	-200,000	-0,005	0,043
-71,724	6,864	0,064	-0,033
-70,709	-53,558	0,070	-0,022
-69,694	-41,342	0,094	-0,034
-68,680	75,978	-0,058	0,043
-67,665	-40,970	0,096	0,035
-66,651	800,000	0,062	0,149
-65,636	-21,061	-0,122	0,053
-64,622	-200,000	0,027	-0,106
-63,607	-113,937	-0,147	0,020
-62,592	774,924	-0,027	0,052
-61,578	120,580	0,059	0,052
-60,563	-113,861	-0,180	0,025
-59,549	800,000	0,040	0,092
-58,534	-25,450	-1,566	-0,652
-57,519	381,320	-1,433	-2,088
-56,505	-200,000	-0,565	-4,725
-55,490	193,836	1,067	1,145
-54,476	800,000	4,967	11,052
-53,461	-200,000	18,561	300,744
-52,446	800,000	733,775	2272,104
-51,432	561,641	1650,004	2834,988
-50,417	78,733	1668,762	1261,950
-49,403	22,123	1541,852	888,287
-48,388	16,035	1464,761	814,337
-47,373	17,718	1454,583	816,760
-46,359	16,871	1444,993	807,290
-45,344	14,319	1440,212	792,382
-44,330	14,229	1438,399	790,927
-43,315	14,235	1436,701	789,990
-42,300	14,258	1435,045	789,156
-41,286	14,300	1433,689	788,578
-40,271	14,238	1432,555	787,630
-39,257	14,203	1431,345	786,768
-38,242	14,303	1430,005	786,475
-37,227	14,329	1428,694	785,846
-36,213	14,330	1427,282	785,043
-35,198	14,316	1426,189	784,342
-34,184	14,311	1425,373	783,837
-33,169	14,246	1423,956	782,721
-32,154	14,311	1422,750	782,336
-31,140	14,284	1421,559	781,523
-30,125	14,310	1420,734	781,158
-29,111	14,327	1419,381	780,463
-28,096	14,315	1418,263	779,763
-27,082	14,197	1417,430	778,720
-26,067	14,208	1416,085	777,999
-25,052	14,213	1415,120	777,461
-24,038	14,193	1414,255	776,860
-23,023	14,232	1412,981	776,315
-22,009	14,204	1412,142	775,691
-20,994	14,164	1411,292	775,005
-19,979	14,147	1410,501	774,462
-18,965	14,141	1409,402	773,801
-17,950	14,168	1408,429	773,362
-16,936	14,176	1407,528	772,871
-15,921	14,122	1406,388	771,965
-14,906	14,106	1405,366	771,297
-13,892	14,094	1404,706	770,849
-12,877	14,132	1403,400	770,277
-11,863	14,118	1402,719	769,808
-10,848	14,091	1401,856	769,179
-9,833	14,079	1401,097	768,676
-8,819	14,050	1400,215	768,029
-7,804	14,030	1399,231	767,365
-6,790	14,028	1398,141	766,728
-5,775	14,032	1397,032	766,108
-4,760	14,041	1396,235	765,681
-3,746	13,984	1395,522	764,996
-2,731	13,999	1394,583	764,521
-1,717	13,992	1393,633	763,936
-0,702	13,996	1391,967	763,013
0,313	17,952	1310,256	736,502
1,327	34,402	705,883	434,858
2,342	52,933	124,205	83,902
3,356	3,984	16,686	8,600
4,371	6,141	3,224	1,685
5,386	-15,801	0,547	0,245
6,400	-200,000	-0,005	0,199
7,415	-67,754	-0,231	-0,063
8,429	62,130	-0,322	-0,227
9,444	120,704	-0,301	-0,265
10,459	128,840	-0,262	-0,236
11,473	-57,470	-0,326	-0,100
12,488	16,454	-0,266	-0,148
13,502	-5,596	-0,240	-0,116
14,517	12,491	-0,354	-0,192
15,531	-21,091	-0,419	-0,180
16,546	197,416	-0,249	-0,268
17,561	88,873	-0,326	-0,256
18,575	-0,668	-0,114	-0,057
19,590	248,237	-0,158	-0,190
20,604	-46,168	-0,308	-0,106
21,619	110,248	-0,447	-0,379
22,634	255,345	-0,292	-0,354
23,648	178,759	-0,413	-0,426
24,663	-8,411	-0,504	-0,238
25,677	179,929	-0,269	-0,279
26,692	147,810	-0,322	-0,306
27,707	1,653	-0,436	-0,221
28,721	14,168	-0,337	-0,185
29,736	-2,042	-0,458	-0,226
30,750	82,308	-0,414	-0,317
31,765	202,632	-0,354	-0,386
32,780	36,966	-0,338	-0,210
33,794	-52,869	-0,427	-0,138
34,809	-18,088	-0,270	-0,119
35,823	5,062	-0,437	-0,226
36,838	45,638	-0,380	-0,247
37,853	73,019	-0,332	-0,244
38,867	109,076	-0,443	-0,373
39,882	35,836	-0,268	-0,166
40,896	49,715	-0,329	-0,218
41,911	121,874	-0,313	-0,276
42,926	65,554	-0,315	-0,225
43,940	45,402	-0,419	-0,272
44,955	85,079	-0,301	-0,232
45,969	43,115	-0,416	-0,267
46,984	522,545	-0,199	-0,330
47,999	-35,220	-0,414	-0,158
49,013	175,864	-0,210	-0,215
50,028	-32,124	-0,297	-0,116
51,042	90,567	-0,402	-0,317
52,057	185,228	-0,205	-0,214
53,071	68,577	-0,241	-0,174
54,086	-86,403	-0,424	-0,091
55,101	-55,512	-0,462	-0,145
56,115	149,352	-0,307	-0,293
57,130	-7,011	-0,385	-0,183
58,144	-63,578	-0,325	-0,093
59,159	222,381	-0,306	-0,347
60,174	44,399	-0,286	-0,185
61,188	-75,485	-0,470	-0,117
62,203	-32,625	-0,287	-0,112
63,217	-57,411	-0,373	-0,114
64,232	46,303	-0,334	-0,218
65,247	296,601	-0,255	-0,330
66,261	190,670	-0,284	-0,300
67,276	97,393	-0,325	-0,262
68,290	2,070	-0,290	-0,147
69,305	83,482	-0,296	-0,227
70,320	-113,178	-0,316	-0,043
71,334	39,024	-0,308	-0,193
72,349	46,184	-0,414	-0,269
73,363	159,486	-0,327	-0,320
74,378	12,582	-0,304	-0,164
75,393	124,046	-0,269	-0,238
76,407	119,379	-0,300	-0,261
77,422	379,625	-0,180	-0,260
78,436	-28,129	-0,218	-0,088
79,451	-57,558	-0,461	-0,141
80,466	-96,618	-0,377	-0,069
81,480	-46,152	-0,497	-0,171
82,495	-56,020	-0,359	-0,112
83,509	1,790	-0,354	-0,178
84,524	-177,248	-0,222	0,004
85,539	-90,511	-0,232	-0,047
86,553	-97,008	-0,343	-0,063
87,568	84,990	-0,291	-0,224
88,582	0,133	-0,269	-0,134
89,597	-41,897	-0,258	-0,092
90,611	153,353	-0,268	-0,257
91,626	116,833	-0,213	-0,183
92,641	126,993	-0,107	-0,095
93,655	119,275	-0,243	-0,211
94,670	62,314	-0,335	-0,234
95,684	130,691	-0,322	-0,290
96,699	32,685	-0,289	-0,175
97,714	18,593	-0,309	-0,173
98,728	87,524	-0,328	-0,254
99,743	225,333	-0,158	-0,180
100,757	144,210	-0,190	-0,178
101,772	-26,792	-0,392	-0,160
102,787	132,679	-0,297	-0,269
103,801	9,576	-0,392	-0,207
104,816	86,472	-0,262	-0,202
105,830	582,385	-0,142	-0,245
106,845	520,727	-0,192	-0,317
107,860	54,657	-0,274	-0,185
108,874	2,421	-0,186	-0,094
109,889	119,337	-0,235	-0,204
110,903	-73,442	-0,313	-0,080
111,918	167,578	-0,268	-0,267
112,933	77,568	-0,178	-0,133
113,947	45,490	-0,201	-0,130
114,962	-48,332	-0,270	-0,091
115,976	3,491	-0,333	-0,169
116,991	67,759	-0,290	-0,207
118,006	187,304	-0,234	-0,244
119,020	107,008	-0,242	-0,201
120,035	95,517	-0,181	-0,145
121,049	456,096	-0,132	-0,205
122,064	-86,390	-0,254	-0,054
123,079	15,458	-0,288	-0,158
124,093	279,246	-0,334	-0,418
125,108	213,542	-0,258	-0,285
126,122	485,140	-0,217	-0,346
127,137	99,335	-0,234	-0,189
128,151	-43,889	-0,166	-0,058
129,166	92,672	-0,241	-0,190
130,181	26,984	-0,250	-0,147
131,195	-7,155	-0,293	-0,139
132,210	201,775	-0,218	-0,235
133,224	27,698	-0,210	-0,124
134,239	123,131	-0,217	-0,190
135,254	29,383	-0,215	-0,127
136,268	38,118	-0,273	-0,170
137,283	-34,587	-0,254	-0,097
138,297	91,598	-0,205	-0,161
139,312	47,477	-0,134	-0,087
140,327	7,655	-0,247	-0,129
141,341	76,824	-0,285	-0,211
142,356	90,754	-0,223	-0,174
143,370	89,513	-0,230	-0,179
144,385	306,942	-0,096	-0,125
145,400	-97,260	-0,407	-0,073
146,414	17,308	-0,322	-0,178
147,429	25,848	-0,283	-0,164
148,443	142,725	-0,211	-0,195
149,458	-88,612	-0,354	-0,073
150,473	88,257	-0,195	-0,151
151,487	78,744	-0,218	-0,162
152,502	115,452	-0,180	-0,154
153,516	-73,799	-0,360	-0,091
154,531	-31,799	-0,359	-0,140
155,546	222,013	-0,316	-0,355
156,560	-2,635	-0,298	-0,145
157,575	78,490	-0,176	-0,131
158,589	83,700	-0,192	-0,146
159,604	-87,559	-0,357	-0,075
160,619	260,204	-0,250	-0,302
161,633	123,258	-0,248	-0,216
162,648	191,692	-0,191	-0,201
163,662	223,872	-0,116	-0,131
164,677	259,793	-0,163	-0,197
165,692	186,966	-0,181	-0,188
166,706	-15,178	-0,185	-0,082
167,721	631,747	-0,192	-0,340
168,735	9,721	-0,217	-0,114
169,750	316,573	-0,181	-0,238
170,764	251,341	-0,176	-0,209
171,779	-84,701	-0,196	0,043
172,794	-71,849	-0,316	-0,081
173,808	97,074	-0,223	-0,178
174,823	253,676	-0,198	-0,236
175,837	525,259	-0,145	-0,239
176,852	14,729	-0,302	-0,164
177,867	386,092	-0,161	-0,233
178,881	162,472	-0,181	-0,177
179,896	22,200	-0,180	-0,102
180,910	123,273	-0,272	-0,237
181,925	86,721	-0,238	-0,182
182,940	-200,000	-0,109	-0,339
183,954	35,324	-0,261	-0,159
184,969	-200,000	-0,073	-0,316
185,983	-200,000	-0,049	-0,207
186,998	148,588	-0,205	-0,193
188,013	56,904	-0,221	-0,149
189,027	-200,000	-0,048	-0,208
190,042	61,957	-0,293	-0,203
191,056	202,401	-0,173	-0,186
192,071	118,025	-0,240	-0,205
193,086	-59,437	-0,150	-0,045
194,100	-104,750	-0,199	-0,032
195,115	165,436	-0,170	-0,167
196,129	149,635	-0,247	-0,233
197,144	254,763	-0,122	-0,146
198,159	134,197	-0,197	-0,178
199,173	-22,019	-0,173	-0,073
200,188	165,460	-0,112	-0,111
201,202	183,772	-0,156	-0,161
202,217	-7,784	-0,231	-0,108
203,232	431,857	-0,178	-0,269
204,246	67,745	-0,167	-0,118
205,261	195,287	-0,189	-0,200
206,275	120,282	-0,158	-0,136
207,290	9,762	-0,278	-0,146
208,304	6,488	-0,245	-0,126
209,319	800,000	-0,099	-0,202
210,334	-10,847	-0,187	-0,085
211,348	70,693	-0,232	-0,166
212,363	55,520	-0,160	-0,108
213,377	74,470	-0,252	-0,184
214,392	-200,000	0,014	-0,133
215,407	800,000	-0,071	-0,150
216,421	-51,928	-0,137	-0,044
217,436	-200,000	-0,020	-0,237
218,450	99,525	-0,203	-0,163
219,465	588,717	-0,147	-0,253
220,480	800,000	-0,059	-0,168
221,494	42,374	-0,228	-0,144
222,509	-65,770	-0,226	-0,062
223,523	244,049	-0,093	-0,108
224,538	137,616	-0,170	-0,154
225,553	-18,042	-0,215	-0,093
226,567	112,881	-0,214	-0,180
227,582	127,162	-0,211	-0,186
228,596	-12,989	-0,190	-0,085
229,611	-98,023	-0,257	0,046
230,626	-3,222	-0,297	-0,143
231,640	-109,945	-0,243	-0,035
232,655	8,739	-0,185	-0,096
233,669	-74,458	-0,246	-0,061
234,684	40,507	-0,231	-0,144
235,699	537,622	-0,043	-0,070
236,713	-27,416	-0,166	-0,067
237,728	345,942	-0,090	-0,124
238,742	267,521	-0,122	-0,149
239,757	-67,403	-0,163	-0,044
240,772	105,119	-0,238	-0,194
241,786	-69,233	-0,175	0,046
242,801	260,805	-0,130	-0,156
243,815	203,849	-0,127	-0,137
244,830	634,178	-0,113	-0,200
245,844	-96,066	-0,147	-0,027
246,859	357,442	-0,171	-0,236
247,874	3,324	-0,231	-0,116
248,888	162,331	-0,165	-0,160
249,903	201,742	-0,162	-0,173
250,917	-55,428	-0,233	-0,072
251,932	199,077	-0,123	-0,131
252,947	76,561	-0,212	-0,155
253,961	362,817	-0,156	-0,218
254,976	53,606	-0,312	-0,207
255,990	385,524	-0,103	-0,147
257,005	-26,500	-0,129	-0,052
258,020	-7,510	-0,155	-0,072
259,034	302,267	-0,139	-0,178
260,049	3,685	-0,239	-0,120
261,063	10,027	-0,073	-0,038
262,078	106,177	-0,241	-0,198
263,093	113,911	-0,190	-0,159
264,107	294,902	-0,063	-0,080
265,122	-170,470	-0,219	0,005
266,136	396,092	-0,084	-0,121
267,151	-119,199	-0,211	0,025
268,166	-59,032	-0,150	-0,044
269,180	152,260	-0,235	-0,222
270,195	32,325	-0,220	-0,131
271,209	28,680	-0,178	-0,104
272,224	708,471	-0,118	-0,217
273,239	-78,753	-0,050	0,012
274,253	77,688	-0,080	-0,059
275,268	-155,053	-0,262	0,012
276,282	340,540	-0,104	-0,140
277,297	-57,795	-0,326	-0,098
278,312	597,195	-0,134	-0,230
279,326	62,413	-0,185	-0,127
280,341	215,649	-0,104	-0,114
281,355	32,568	-0,171	-0,102
282,370	-110,855	-0,238	0,033
283,384	-121,966	-0,098	0,011
284,399	64,744	-0,140	-0,097
285,414	219,705	-0,282	-0,312
286,428	-31,366	-0,098	-0,038
287,443	397,194	-0,097	-0,140
288,457	-31,344	-0,119	-0,046
289,472	101,461	-0,111	-0,089
290,487	515,356	-0,136	-0,219
291,501	800,000	-0,117	-0,260
292,516	124,511	-0,135	-0,117
293,530	440,408	-0,103	-0,156
294,545	409,465	-0,154	-0,226
295,560	-34,965	-0,109	-0,041
296,574	-76,187	-0,149	0,036
297,589	413,827	-0,089	-0,131
298,603	744,110	-0,069	-0,129
299,618	-44,203	-0,269	-0,092
300,633	344,060	-0,022	-0,030
301,647	-53,530	-0,066	-0,021
302,662	46,264	-0,126	-0,080
303,676	-198,665	-0,234	-0,001
304,691	55,041	-0,204	-0,136
305,706	231,140	-0,188	-0,212
306,720	800,000	-0,110	-0,249
307,735	-68,862	-0,168	0,044
308,749	9,323	-0,127	-0,066
309,764	-47,315	-0,100	-0,033
310,779	-133,841	-0,073	0,006
311,793	-75,111	-0,100	0,025
312,808	-105,062	-0,230	-0,036
313,822	-58,287	-0,099	-0,029
314,837	800,000	-0,092	-0,178
315,852	1,863	-0,169	-0,084
316,866	-70,768	-0,097	0,025
317,881	45,470	-0,089	-0,057
318,895	-125,193	-0,172	-0,018
319,910	554,110	-0,109	-0,182
320,925	-200,000	0,004	-0,067
321,939	800,000	0,016	0,045
322,954	800,000	-0,059	-0,119
323,968	11,633	-0,150	-0,079
324,983	262,787	-0,082	-0,097
325,997	-145,542	-0,108	0,007
327,012	178,400	-0,106	-0,107
328,027	91,668	-0,160	-0,124
329,041	157,382	-0,164	-0,156
330,056	35,345	-0,175	-0,105
331,070	-10,419	-0,095	-0,043
332,085	-28,846	-0,201	-0,079
333,100	150,430	-0,121	-0,113
334,114	25,203	-0,140	-0,079
335,129	269,442	-0,161	-0,195
336,143	48,490	-0,061	0,039
337,158	167,602	-0,021	-0,021
338,173	-2,905	-0,067	-0,032
339,187	-200,000	0,006	0,034
340,202	-84,424	-0,110	-0,024
341,216	-200,000	-0,028	-0,251
342,231	76,949	-0,037	0,027
343,246	-84,126	-0,140	0,030
344,260	316,454	-0,094	-0,122
345,275	-200,000	0,005	-0,060
346,289	5,520	-0,099	-0,050
347,304	-104,973	-0,160	0,025
348,319	23,868	-0,261	-0,147
349,333	-200,000	-0,025	-0,153
350,348	-18,915	-0,198	-0,084
351,362	11,171	-0,080	-0,042
352,377	33,285	-0,101	-0,060
353,392	-107,382	-0,139	0,021
354,406	-64,218	-0,139	-0,039
355,421	208,104	1315,851	1411,631
356,435	160,111	1476,721	1412,125
