DTS Sentinel unit serial number:	SN410029Multiplexer serial number:	ORYXHardware model number:	OX2-SRSoftware version number:	ORYX F/W v4,00 Oryx Data Collector v3.7.2.0data status	okinstallation	B3 Nyhavnadifferential loss correction	single-endedforward channel	channel 1reverse channel	N/Adate	2023/11/29time	04:22:30forward acquisition time	300,00reverse acquisition time	0,00gamma	499,1914k internal	0,3211k external	0,3211temperature offset calibration	1,0000default loss term (dB/km)	0,3820temperature slope calibration	1,0000multiplexer offset coefficient	1,0000multiplexer slope coefficient	1,0000fibre end	0,00T internal ref (°C)	9,32T ext. ref 1 (°C)	-6,05T ext. ref 2 (°C)	-6,16length (m)	temperature (°C)	Stokes	anti-Stokes-744,400	43,681	-0,319	-0,211
-743,385	800,000	-0,071	0,225
-742,371	48,383	-0,194	-0,132
-741,356	-200,000	0,021	0,312
-740,342	800,000	-0,039	-0,101
-739,327	-200,000	-0,109	0,385
-738,312	-200,000	-0,033	-0,236
-737,298	-200,000	-0,029	0,261
-736,283	208,080	-0,179	-0,203
-735,269	536,450	-0,150	0,260
-734,254	226,246	-0,037	-0,044
-733,239	84,228	-0,208	0,164
-732,225	-200,000	0,021	-0,199
-731,210	-30,659	0,216	0,088
-730,196	-200,000	-0,028	-0,101
-729,181	-113,618	-0,087	-0,012
-728,167	-90,011	-0,110	-0,023
-727,152	-200,000	-0,010	-0,038
-726,137	-2,969	-0,108	-0,054
-725,123	800,000	-0,025	-0,069
-724,108	-20,531	-0,040	0,018
-723,094	6,818	-0,013	-0,007
-722,079	126,315	0,149	-0,137
-721,064	-200,000	-0,001	0,091
-720,050	-138,673	0,029	0,002
-719,035	-200,000	-0,006	0,052
-718,021	-69,316	-0,114	-0,031
-717,006	281,089	-0,066	-0,085
-715,991	-200,000	-0,021	-0,149
-714,977	112,420	-0,100	0,087
-713,962	-113,350	-0,035	-0,005
-712,948	-90,698	-0,053	-0,011
-711,933	800,000	-0,045	-0,119
-710,918	514,114	-0,075	0,127
-709,904	39,659	-0,060	0,039
-708,889	142,964	0,060	-0,058
-707,875	-131,126	-0,055	0,005
-706,860	-140,234	0,038	-0,003
-705,845	-200,000	0,004	-0,067
-704,831	657,375	0,046	0,086
-703,816	-24,737	-0,110	-0,047
-702,802	324,323	0,039	-0,054
-701,787	800,000	0,047	-0,103
-700,772	588,114	-0,038	-0,067
-699,758	-200,000	0,026	0,145
-698,743	-200,000	0,032	0,138
-697,729	-54,704	0,122	0,040
-696,714	800,000	-0,010	0,024
-695,699	800,000	-0,012	0,037
-694,685	338,488	-0,038	0,053
-693,670	298,648	0,027	0,036
-692,656	-0,736	-0,053	0,027
-691,641	800,000	0,039	0,090
-690,627	-36,629	0,138	-0,054
-689,612	65,991	0,034	-0,025
-688,597	-63,747	0,027	-0,008
-687,583	-200,000	0,018	-0,096
-686,568	115,903	0,027	0,024
-685,554	35,334	0,046	0,029
-684,539	-200,000	0,001	0,018
-683,524	240,573	-0,041	0,049
-682,510	-130,049	-0,019	0,002
-681,495	442,878	-0,055	0,087
-680,481	-156,265	-0,023	0,001
-679,466	-153,178	-0,089	0,004
-678,451	800,000	0,028	-0,076
-677,437	47,941	0,055	-0,037
-676,422	-69,951	-0,114	-0,031
-675,408	800,000	-0,020	-0,043
-674,393	426,317	-0,030	0,047
-673,378	86,668	0,089	-0,071
-672,364	-28,226	-0,103	0,043
-671,349	498,764	-0,042	-0,070
-670,335	-200,000	0,008	-0,066
-669,320	41,583	0,065	0,042
-668,305	47,458	-0,104	0,070
-667,291	800,000	0,074	-0,183
-666,276	-110,482	0,168	-0,025
-665,262	-121,158	-0,149	0,018
-664,247	50,584	-0,086	0,059
-663,232	-93,075	-0,070	0,014
-662,218	-200,000	-0,018	-0,113
-661,203	-200,000	0,003	-0,063
-660,189	87,185	-0,025	-0,020
-659,174	-200,000	0,003	0,032
-658,159	54,537	-0,071	-0,049
-657,145	15,358	0,078	-0,044
-656,130	436,982	-0,081	-0,128
-655,116	-40,851	0,120	0,045
-654,101	800,000	-0,033	0,074
-653,086	-48,547	-0,108	0,037
-652,072	89,489	0,079	-0,063
-651,057	349,689	-0,087	-0,125
-650,043	-200,000	-0,001	0,032
-649,028	-95,235	0,089	-0,017
-648,014	79,649	0,065	-0,050
-646,999	-200,000	-0,026	0,180
-645,984	-2,822	-0,089	-0,045
-644,970	-200,000	-0,001	-0,076
-643,955	-200,000	0,009	-0,073
-642,941	-200,000	-0,040	-0,203
-641,926	86,744	0,061	-0,049
-640,911	129,484	0,033	0,030
-639,897	42,400	0,067	0,044
-638,882	-87,874	-0,158	0,034
-637,868	-200,000	-0,014	0,072
-636,853	1,279	-0,112	-0,058
-635,838	11,197	-0,063	0,034
-634,824	62,422	0,147	-0,106
-633,809	-200,000	-0,037	0,167
-632,795	242,505	0,061	0,074
-631,780	49,571	-0,074	0,050
-630,765	-64,880	0,048	-0,014
-629,751	3,292	-0,091	-0,048
-628,736	800,000	0,007	-0,024
-627,722	-71,955	-0,059	0,016
-626,707	-129,625	0,102	0,010
-625,692	-177,532	-0,098	-0,002
-624,678	415,271	0,060	0,093
-623,663	800,000	0,020	-0,046
-622,649	52,096	-0,117	-0,080
-621,634	-95,751	0,122	-0,023
-620,619	361,014	0,038	-0,055
-619,605	-57,232	0,105	0,033
-618,590	-200,000	-0,001	-0,020
-617,576	800,000	-0,015	-0,037
-616,561	1,865	0,065	0,034
-615,546	105,981	-0,144	-0,123
-614,532	-200,000	-0,017	-0,065
-613,517	85,482	-0,072	0,057
-612,503	-200,000	-0,001	-0,273
-611,488	64,035	0,116	-0,084
-610,474	249,840	-0,079	0,097
-609,459	800,000	-0,062	-0,135
-608,444	4,409	-0,021	-0,011
-607,430	113,618	-0,073	-0,064
-606,415	3,427	0,057	-0,030
-605,401	-150,095	0,107	0,006
-604,386	800,000	-0,018	-0,054
-603,371	-108,178	0,117	0,018
-602,357	-200,000	0,008	0,093
-601,342	189,469	0,078	0,084
-600,328	-200,000	-0,034	-0,160
-599,313	-46,110	-0,105	-0,037
-598,298	800,000	0,042	-0,095
-597,284	110,597	0,081	0,070
-596,269	-200,000	-0,001	0,099
-595,255	67,765	-0,102	0,075
-594,240	800,000	0,038	0,103
-593,225	800,000	-0,035	-0,099
-592,211	186,534	-0,068	0,073
-591,196	-9,301	-0,045	-0,022
-590,182	167,206	0,052	0,053
-589,167	211,673	0,060	-0,069
-588,152	-16,808	-0,054	0,025
-587,138	-200,000	-0,021	-0,079
-586,123	8,359	-0,096	-0,052
-585,109	232,616	-0,089	-0,105
-584,094	86,532	0,034	0,027
-583,079	175,108	-0,050	0,052
-582,065	-200,000	-0,001	0,052
-581,050	-200,000	-0,001	-0,015
-580,036	205,577	0,081	-0,091
-579,021	-66,284	-0,066	-0,019
-578,006	-25,223	-0,230	-0,098
-576,992	-126,117	0,057	-0,006
-575,977	18,541	0,093	-0,053
-574,963	-20,973	0,095	0,042
-573,948	58,086	0,045	-0,031
-572,934	-92,311	0,148	0,030
-571,919	-61,675	-0,091	-0,027
-570,904	532,515	-0,105	-0,180
-569,890	-47,491	0,088	-0,031
-568,875	800,000	0,019	-0,045
-567,861	-200,000	-0,008	0,185
-566,846	-152,069	0,165	-0,008
-565,831	36,982	-0,095	0,061
-564,817	-200,000	-0,032	-0,150
-563,802	-2,252	-0,068	-0,034
-562,788	-200,000	0,001	-0,017
-561,773	800,000	-0,035	0,102
-560,758	-75,328	0,300	-0,076
-559,744	43,671	-0,020	0,013
-558,729	-118,901	0,110	0,014
-557,715	-181,672	-0,144	-0,002
-556,700	29,937	-0,031	0,019
-555,685	800,000	-0,012	0,028
-554,671	9,475	0,026	-0,014
-553,656	-53,059	-0,132	0,043
-552,642	-99,264	0,056	0,010
-551,627	187,544	-0,130	-0,139
-550,612	199,730	0,014	-0,015
-549,598	195,978	-0,027	0,030
-548,583	176,725	-0,072	-0,076
-547,569	-200,000	0,013	-0,052
-546,554	-56,889	0,191	0,060
-545,539	-78,725	0,055	-0,013
-544,525	-85,367	-0,076	-0,017
-543,510	-9,539	-0,068	-0,033
-542,496	-28,047	-0,071	-0,029
-541,481	800,000	-0,031	-0,080
-540,466	800,000	-0,017	0,054
-539,452	510,061	-0,039	-0,065
-538,437	-92,026	0,116	-0,023
-537,423	-200,000	-0,017	0,058
-536,408	-200,000	0,149	0,000
-535,393	-139,706	-0,108	-0,008
-534,379	-102,677	-0,133	-0,023
-533,364	800,000	0,024	-0,054
-532,350	260,268	-0,015	0,019
-531,335	428,437	0,071	-0,110
-530,321	238,815	-0,072	-0,086
-529,306	-200,000	-0,007	0,050
-528,291	80,563	0,045	-0,035
-527,277	763,004	0,012	0,024
-526,262	800,000	-0,023	0,064
-525,248	415,678	-0,026	0,040
-524,233	766,041	-0,066	0,129
-523,218	-182,411	0,059	-0,001
-522,204	800,000	0,023	0,072
-521,189	-200,000	-0,034	-0,117
-520,175	-21,720	-0,045	-0,020
-519,160	518,455	-0,105	-0,177
-518,145	-200,000	0,047	-0,162
-517,131	311,631	0,044	0,059
-516,116	800,000	0,015	-0,031
-515,102	0,890	-0,134	0,069
-514,087	441,805	-0,038	-0,060
-513,072	-75,641	-0,125	0,032
-512,058	283,183	-0,099	-0,128
-511,043	-5,075	-0,173	0,085
-510,029	800,000	0,057	0,156
-509,014	800,000	-0,008	0,020
-507,999	390,255	-0,076	-0,114
-506,985	-200,000	-0,002	-0,035
-505,970	30,304	-0,132	-0,081
-504,956	-31,218	-0,075	-0,030
-503,941	800,000	0,021	-0,051
-502,926	83,336	0,088	0,069
-501,912	-42,379	-0,026	0,009
-500,897	-200,000	0,006	0,045
-499,883	-85,149	-0,044	0,010
-498,868	298,556	-0,027	-0,036
-497,853	11,868	0,046	0,025
-496,839	-200,000	-0,010	-0,058
-495,824	-200,000	0,003	0,055
-494,810	-200,000	0,016	0,063
-493,795	27,477	0,043	0,026
-492,781	698,113	-0,057	-0,107
-491,766	-116,110	0,215	-0,028
-490,751	160,565	-0,091	-0,091
-489,737	29,379	-0,044	0,027
-488,722	-200,000	0,021	0,152
-487,708	-47,675	-0,082	-0,029
-486,693	342,190	-0,055	0,077
-485,678	800,000	0,026	-0,065
-484,664	39,524	-0,084	-0,054
-483,649	8,555	0,076	0,041
-482,635	71,368	0,032	-0,024
-481,620	-200,000	0,019	0,078
-480,605	800,000	-0,011	-0,023
-479,591	-68,238	0,086	-0,024
-478,576	-127,981	0,029	0,003
-477,562	7,475	-0,084	-0,045
-476,547	140,195	-0,018	-0,017
-475,532	183,411	-0,008	-0,009
-474,518	-83,428	0,030	-0,007
-473,503	-200,000	-0,014	-0,066
-472,489	-200,000	0,019	-0,083
-471,474	39,271	-0,049	0,032
-470,459	-200,000	0,007	0,118
-469,445	379,918	-0,059	-0,087
-468,430	-127,531	-0,048	-0,005
-467,416	-20,598	-0,062	-0,027
-466,401	-200,000	0,001	-0,020
-465,386	-200,000	-0,020	-0,087
-464,372	271,881	0,055	-0,069
-463,357	59,037	-0,078	0,055
-462,343	-56,335	0,015	-0,005
-461,328	22,932	-0,121	-0,071
-460,313	-79,955	0,080	-0,019
-459,299	-183,659	0,103	0,001
-458,284	10,632	0,093	-0,051
-457,270	5,721	-0,059	0,031
-456,255	61,068	0,009	-0,006
-455,241	800,000	0,036	-0,092
-454,226	43,260	-0,044	-0,029
-453,211	800,000	-0,096	0,251
-452,197	780,355	-0,013	-0,026
-451,182	-44,376	0,077	-0,027
-450,168	-200,000	-0,142	-0,000
-449,153	-200,000	-0,024	-0,093
-448,138	800,000	0,068	-0,177
-447,124	-87,983	-0,117	0,025
-446,109	441,481	0,055	-0,086
-445,095	-200,000	0,040	0,127
-444,080	800,000	0,029	0,081
-443,065	-106,330	-0,121	-0,019
-442,051	49,281	0,085	0,057
-441,036	69,695	-0,036	-0,027
-440,022	37,640	-0,088	-0,056
-439,007	38,144	0,044	0,028
-437,992	-109,577	0,060	0,009
-436,978	-28,932	-0,072	-0,029
-435,963	800,000	-0,043	-0,128
-434,949	-30,787	-0,113	-0,045
-433,934	44,005	0,086	-0,056
-432,919	666,564	-0,067	-0,124
-431,905	73,495	-0,107	-0,080
-430,890	-91,407	0,146	0,030
-429,876	23,813	-0,110	0,065
-428,861	18,106	0,065	0,037
-427,846	800,000	0,003	0,006
-426,832	-104,444	-0,113	-0,019
-425,817	128,804	0,085	0,078
-424,803	-152,734	-0,100	0,005
-423,788	-200,000	-0,014	0,050
-422,773	-22,221	-0,094	0,041
-421,759	166,795	0,129	0,131
-420,744	-9,856	-0,089	-0,042
-419,730	581,875	-0,022	-0,039
-418,715	225,844	-0,033	-0,038
-417,701	-17,150	0,116	0,052
-416,686	111,339	0,234	-0,201
-415,671	113,450	-0,086	-0,075
-414,657	578,417	0,009	0,016
-413,642	-172,801	0,113	0,002
-412,628	800,000	0,007	0,020
-411,613	98,913	-0,081	0,067
-410,598	800,000	-0,054	0,111
-409,584	-200,000	0,014	0,136
-408,569	-14,175	0,054	-0,025
-407,555	-68,736	-0,121	-0,033
-406,540	111,616	-0,067	-0,058
-405,525	-76,397	-0,068	-0,017
-404,511	275,457	-0,013	0,016
-403,496	-48,034	-0,141	-0,048
-402,482	-78,566	-0,137	0,033
-401,467	800,000	-0,041	0,130
-400,452	-123,592	0,031	-0,004
-399,438	473,597	-0,055	0,089
-398,423	-200,000	-0,034	-0,200
-397,409	706,211	-0,048	0,091
-396,394	-129,445	0,076	-0,007
-395,379	180,835	0,035	0,037
-394,365	59,260	0,069	0,048
-393,350	-200,000	-0,015	0,094
-392,336	232,101	0,100	0,117
-391,321	-159,586	0,066	0,003
-390,306	-106,460	-0,167	0,026
-389,292	-134,131	0,076	0,007
-388,277	-68,322	0,038	0,011
-387,263	304,760	0,034	-0,046
-386,248	208,445	0,116	0,130
-385,233	79,927	-0,049	-0,037
-384,219	94,381	-0,094	0,077
-383,204	358,872	-0,072	0,103
-382,190	-82,588	-0,005	-0,001
-381,175	215,030	0,037	-0,043
-380,160	647,635	0,058	0,106
-379,146	-200,000	-0,019	0,158
-378,131	-75,511	0,172	0,043
-377,117	-14,316	0,127	-0,058
-376,102	265,839	-0,040	-0,051
-375,088	691,102	0,011	-0,021
-374,073	-200,000	0,012	-0,054
-373,058	800,000	0,028	0,061
-372,044	19,176	0,099	0,057
-371,029	260,347	-0,032	0,040
-370,015	102,082	-0,101	0,084
-369,000	16,500	-0,065	-0,036
-367,985	29,478	-0,136	0,082
-366,971	-200,000	-0,013	-0,067
-365,956	98,218	-0,116	0,095
-364,942	-200,000	-0,058	0,204
-363,927	-135,899	0,018	-0,001
-362,912	-48,289	0,088	0,030
-361,898	-200,000	-0,001	0,028
-360,883	27,391	-0,072	0,043
-359,869	-200,000	-0,026	-0,086
-358,854	474,941	0,049	-0,080
-357,839	-6,527	0,051	0,025
-356,825	284,069	0,079	-0,101
-355,810	-200,000	-0,001	0,083
-354,796	-38,883	0,055	0,021
-353,781	51,747	-0,068	-0,046
-352,766	276,666	0,047	0,059
-351,752	410,040	0,020	-0,030
-350,737	-200,000	-0,008	0,125
-349,723	19,874	-0,056	0,032
-348,708	-200,000	0,034	0,125
-347,693	76,999	-0,136	-0,103
-346,679	-104,015	-0,047	-0,008
-345,664	800,000	-0,029	0,077
-344,650	179,090	0,081	-0,085
-343,635	800,000	0,050	0,119
-342,620	800,000	0,022	0,061
-341,606	-32,127	0,131	0,052
-340,591	-5,076	-0,016	0,008
-339,577	405,523	-0,013	-0,020
-338,562	56,107	-0,087	-0,060
-337,548	-130,239	-0,060	0,006
-336,533	-200,000	-0,010	0,050
-335,518	-118,916	-0,048	0,006
-334,504	-200,000	-0,002	0,038
-333,489	800,000	0,038	0,093
-332,475	387,928	-0,067	-0,099
-331,460	-200,000	-0,016	0,109
-330,445	333,605	-0,094	0,130
-329,431	-200,000	0,153	0,000
-328,416	-200,000	-0,011	0,078
-327,402	339,377	-0,119	0,166
-326,387	208,071	-0,025	0,028
-325,372	90,897	0,023	-0,019
-324,358	800,000	0,051	0,140
-323,343	800,000	0,019	-0,040
-322,329	-156,391	0,088	0,004
-321,314	130,064	0,146	0,133
-320,299	214,229	0,106	0,120
-319,285	53,719	0,114	0,078
-318,270	-55,469	-0,061	0,019
-317,256	-4,708	-0,099	-0,049
-316,241	20,585	0,097	-0,056
-315,226	200,245	0,079	-0,086
-314,212	-38,233	0,157	0,059
-313,197	-171,545	0,268	0,006
-312,183	-87,566	-0,017	0,004
-311,168	-200,000	-0,000	-0,047
-310,153	79,047	0,048	0,037
-309,139	43,561	0,038	0,025
-308,124	-109,518	0,123	-0,018
-307,110	55,256	0,170	0,117
-306,095	-124,868	0,053	-0,006
-305,080	800,000	0,020	-0,058
-304,066	-36,803	-0,143	-0,055
-303,051	-89,558	-0,125	0,026
-302,037	53,931	-0,087	-0,060
-301,022	-200,000	0,044	0,141
-300,008	-85,361	0,065	0,014
-298,993	80,644	-0,052	-0,040
-297,978	-145,071	0,100	-0,006
-296,964	253,238	0,062	-0,076
-295,949	24,561	-0,059	0,035
-294,935	170,025	-0,096	0,098
-293,920	-151,144	-0,041	-0,002
-292,905	-94,696	0,086	0,017
-291,891	-200,000	-0,007	-0,024
-290,876	123,618	0,015	0,013
-289,862	-157,542	0,034	-0,001
-288,847	-200,000	0,024	-0,087
-287,832	-200,000	-0,018	-0,146
-286,818	-200,000	-0,003	0,135
-285,803	-4,168	0,105	0,052
-284,789	800,000	-0,047	0,112
-283,774	-200,000	-0,037	0,182
-282,759	-136,987	-0,093	-0,008
-281,745	-200,000	-0,000	0,007
-280,730	-67,825	-0,091	0,025
-279,716	681,563	0,058	-0,108
-278,701	800,000	0,076	0,196
-277,686	-48,159	0,119	-0,041
-276,672	800,000	0,037	0,112
-275,657	800,000	-0,022	0,048
-274,643	435,158	-0,075	-0,117
-273,628	-167,929	-0,044	-0,001
-272,613	93,864	0,179	-0,144
-271,599	-166,049	-0,040	0,001
-270,584	-39,534	0,036	0,013
-269,570	496,698	-0,052	-0,085
-268,555	-200,000	0,011	0,049
-267,540	-200,000	-0,006	0,110
-266,526	-145,224	-0,122	0,008
-265,511	-178,139	0,159	-0,003
-264,497	530,877	-0,056	-0,094
-263,482	-200,000	0,026	-0,155
-262,467	-181,656	0,084	0,001
-261,453	-132,468	0,109	-0,010
-260,438	388,186	0,042	-0,063
-259,424	-167,234	0,081	-0,002
-258,409	386,479	-0,078	0,114
-257,395	214,105	0,029	0,032
-256,380	525,559	-0,028	-0,047
-255,365	-200,000	0,057	-0,000
-254,351	-4,799	0,092	-0,045
-253,336	680,631	-0,047	-0,087
-252,322	-200,000	-0,011	-0,043
-251,307	159,982	0,067	-0,066
-250,292	800,000	-0,061	-0,160
-249,278	800,000	0,045	-0,120
-248,263	593,641	0,083	0,147
-247,249	-200,000	0,024	0,164
-246,234	2,833	-0,083	-0,043
-245,219	-110,816	-0,116	-0,017
-244,205	-200,000	-0,006	-0,046
-243,190	-128,894	0,038	-0,004
-242,176	-52,438	-0,066	0,021
-241,161	11,345	0,069	-0,038
-240,146	800,000	-0,048	0,128
-239,132	-193,200	-0,126	-0,001
-238,117	9,462	0,069	-0,037
-237,103	202,187	0,066	-0,072
-236,088	333,127	0,042	-0,057
-235,073	-121,535	0,026	-0,003
-234,059	169,120	0,096	-0,098
-233,044	-70,353	0,178	-0,048
-232,030	201,724	0,033	-0,036
-231,015	800,000	-0,034	-0,091
-230,000	8,225	-0,019	-0,010
-228,986	800,000	0,032	0,074
-227,971	-17,628	0,097	0,043
-226,957	-1,265	-0,098	-0,049
-225,942	-15,371	-0,038	-0,017
-224,927	18,976	0,072	-0,041
-223,913	141,254	-0,071	-0,067
-222,898	800,000	0,038	-0,088
-221,884	-200,000	-0,008	0,082
-220,869	220,200	0,020	0,023
-219,855	-200,000	-0,018	0,063
-218,840	-200,000	0,006	0,156
-217,825	-67,923	0,028	-0,008
-216,811	800,000	-0,033	0,080
-215,796	-126,770	-0,215	-0,022
-214,782	152,864	0,046	-0,044
-213,767	111,892	0,148	0,127
-212,752	-200,000	-0,015	0,142
-211,738	-200,000	0,003	0,047
-210,723	184,973	0,009	0,010
-209,709	-88,251	-0,102	-0,022
-208,694	427,805	-0,034	-0,052
-207,679	-21,466	-0,058	0,025
-206,665	-200,000	0,010	0,088
-205,650	-81,896	0,130	0,030
-204,636	-200,000	0,043	0,153
-203,621	283,812	-0,061	-0,078
-202,606	39,260	0,092	0,058
-201,592	599,138	0,069	-0,123
-200,577	43,811	-0,152	-0,099
-199,563	-200,000	0,013	0,059
-198,548	-159,547	0,106	-0,004
-197,533	800,000	0,068	0,174
-196,519	-32,458	-0,061	0,024
-195,504	127,969	0,049	-0,045
-194,490	-200,000	0,033	-0,114
-193,475	-23,555	-0,142	-0,060
-192,460	800,000	0,019	0,045
-191,446	-114,260	0,184	-0,025
-190,431	178,361	0,052	-0,054
-189,417	800,000	0,018	0,037
-188,402	58,812	0,089	-0,062
-187,387	780,958	0,041	-0,080
-186,373	-200,000	-0,016	0,115
-185,358	-134,970	0,042	-0,004
-184,344	800,000	0,060	-0,119
-183,329	-200,000	0,001	0,065
-182,315	142,968	0,031	0,029
-181,300	800,000	-0,050	0,117
-180,285	800,000	-0,036	-0,084
-179,271	109,775	-0,082	-0,070
-178,256	345,707	-0,076	-0,106
-177,242	-133,204	-0,067	-0,006
-176,227	-56,768	0,086	-0,027
-175,212	800,000	0,030	0,086
-174,198	-200,000	-0,007	0,086
-173,183	-200,000	0,008	-0,095
-172,169	-37,765	-0,181	-0,068
-171,154	800,000	-0,024	-0,067
-170,139	14,388	0,087	-0,048
-169,125	370,724	-0,079	0,114
-168,110	-9,957	0,077	0,036
-167,096	800,000	-0,018	0,041
-166,081	-64,965	-0,086	0,025
-165,066	-47,394	-0,066	0,023
-164,052	-200,000	-0,008	-0,030
-163,037	141,929	0,072	0,067
-162,023	-200,000	0,007	0,119
-161,008	268,319	0,043	-0,053
-159,993	364,496	-0,017	0,024
-158,979	8,837	0,067	-0,036
-157,964	2,275	-0,117	-0,060
-156,950	175,088	-0,050	-0,051
-155,935	-153,719	0,070	-0,003
-154,920	-88,996	-0,086	-0,018
-153,906	-17,228	0,129	0,057
-152,891	-9,355	0,038	-0,018
-151,877	431,815	-0,035	0,054
-150,862	268,291	0,017	0,022
-149,847	-179,477	-0,099	0,001
-148,833	800,000	0,036	0,083
-147,818	14,579	-0,026	0,014
-146,804	131,506	-0,091	0,083
-145,789	725,698	-0,067	0,127
-144,775	190,296	0,065	-0,070
-143,760	-11,510	-0,062	0,029
-142,745	-71,500	-0,046	-0,012
-141,731	135,426	-0,034	0,032
-140,716	800,000	0,077	0,195
-139,702	199,897	0,102	0,111
-138,687	-200,000	-0,001	-0,007
-137,672	-67,037	0,060	0,017
-136,658	208,555	0,049	-0,054
-135,643	94,640	-0,119	0,096
-134,629	-200,000	0,006	-0,100
-133,614	264,050	0,066	0,081
-132,599	-68,737	0,096	-0,026
-131,585	190,792	-0,069	0,074
-130,570	-148,556	-0,170	0,010
-129,556	-200,000	0,033	0,184
-128,541	245,123	-0,084	0,101
-127,526	-200,000	0,004	0,044
-126,512	240,248	-0,101	0,120
-125,497	162,906	0,106	0,106
-124,483	800,000	0,052	0,137
-123,468	-200,000	0,010	0,075
-122,453	-200,000	-0,030	-0,116
-121,439	227,894	-0,072	-0,083
-120,424	207,354	0,067	-0,074
-119,410	800,000	-0,006	-0,014
-118,395	786,030	-0,046	-0,089
-117,380	293,386	0,086	0,111
-116,366	-200,000	-0,011	-0,054
-115,351	-200,000	-0,008	-0,069
-114,337	-70,420	0,094	0,025
-113,322	800,000	-0,025	0,077
-112,307	-153,688	0,191	0,009
-111,293	800,000	-0,016	-0,041
-110,278	459,742	-0,080	0,127
-109,264	-113,602	0,070	0,010
-108,249	800,000	0,019	-0,038
-107,234	-200,000	0,010	-0,119
-106,220	-200,000	-0,012	-0,132
-105,205	193,678	-0,048	0,052
-104,191	-57,447	0,013	0,004
-103,176	337,138	0,038	-0,052
-102,162	800,000	0,043	0,117
-101,147	613,605	-0,034	0,061
-100,132	-200,000	-0,002	-0,153
-99,118	800,000	-0,020	0,044
-98,103	737,557	0,076	0,144
-97,089	-67,930	0,113	0,031
-96,074	800,000	-0,007	-0,016
-95,059	-11,567	-0,050	0,023
-94,045	-200,000	-0,026	0,090
-93,030	800,000	-0,053	-0,162
-92,016	-41,548	0,031	0,011
-91,001	-200,000	-0,004	-0,016
-89,986	65,443	0,074	0,053
-88,972	-200,000	-0,013	0,099
-87,957	-120,669	-0,038	0,004
-86,943	-200,000	0,035	-0,162
-85,928	-55,813	-0,148	-0,046
-84,913	-200,000	0,014	0,054
-83,899	800,000	0,059	0,150
-82,884	-60,652	0,147	-0,044
-81,870	212,615	-0,019	0,021
-80,855	-200,000	-0,021	0,116
-79,840	423,450	0,052	-0,080
-78,826	800,000	-0,042	-0,117
-77,811	199,754	0,083	0,090
-76,797	800,000	0,031	0,073
-75,782	-2,431	-0,065	0,032
-74,767	332,418	0,086	-0,117
-73,753	207,010	0,122	0,135
-72,738	124,049	-0,020	-0,018
-71,724	-44,725	0,045	-0,016
-70,709	-200,000	0,002	-0,045
-69,694	162,318	-0,029	0,029
-68,680	358,697	0,051	0,072
-67,665	-176,135	0,021	0,000
-66,651	-110,841	0,057	0,008
-65,636	-200,000	-0,004	-0,067
-64,622	666,280	-0,025	-0,047
-63,607	256,822	-0,089	0,108
-62,592	-64,990	0,042	-0,012
-61,578	-200,000	-0,023	-0,131
-60,563	-200,000	-0,003	-0,097
-59,549	705,276	-0,074	0,139
-58,534	23,193	-2,168	-1,253
-57,519	726,509	-1,031	-1,951
-56,505	-200,000	-0,242	-4,449
-55,490	454,383	0,998	1,566
-54,476	800,000	5,078	11,075
-53,461	-200,000	21,680	340,406
-52,446	800,000	761,856	2325,334
-51,432	542,011	1658,180	2800,584
-50,417	70,675	1654,594	1206,990
-49,403	17,094	1528,369	852,747
-48,388	11,187	1452,415	781,894
-47,373	19,145	1444,237	815,528
-46,359	14,545	1433,214	787,471
-45,344	9,431	1429,219	760,967
-44,330	9,360	1427,416	759,642
-43,315	9,364	1425,442	758,581
-42,300	9,364	1423,840	757,695
-41,286	9,445	1422,460	757,317
-40,271	9,365	1421,382	756,335
-39,257	9,370	1420,127	755,658
-38,242	9,425	1418,899	755,234
-37,227	9,387	1417,951	754,524
-36,213	9,439	1416,405	753,916
-35,198	9,404	1415,268	753,117
-34,184	9,450	1414,427	752,853
-33,169	9,361	1413,122	751,713
-32,154	9,407	1412,204	751,408
-31,140	9,421	1410,847	750,725
-30,125	9,415	1409,980	750,203
-29,111	9,415	1408,487	749,378
-28,096	9,358	1407,543	748,581
-27,082	9,360	1406,094	747,789
-26,067	9,308	1405,293	747,089
-25,052	9,317	1404,193	746,518
-24,038	9,395	1403,073	746,260
-23,023	9,401	1401,990	745,681
-22,009	9,344	1401,080	744,903
-20,994	9,346	1399,947	744,278
-19,979	9,342	1399,291	743,880
-18,965	9,291	1398,441	743,164
-17,950	9,282	1397,604	742,646
-16,936	9,266	1396,647	742,032
-15,921	9,244	1395,404	741,240
-14,906	9,299	1394,519	740,998
-13,892	9,320	1393,626	740,590
-12,877	9,248	1393,165	739,982
-11,863	9,267	1392,249	739,554
-10,848	9,270	1390,989	738,872
-9,833	9,229	1390,149	738,207
-8,819	9,203	1389,290	737,599
-7,804	9,148	1388,750	737,029
-6,790	9,168	1387,552	736,458
-5,775	9,179	1386,315	735,821
-4,760	9,193	1385,267	735,302
-3,746	9,181	1384,342	734,725
-2,731	9,166	1383,678	734,276
-1,717	9,165	1382,803	733,777
-0,702	9,189	1381,109	732,962
0,313	13,358	1293,176	705,244
1,327	29,695	684,825	410,244
2,342	46,490	118,058	77,114
3,356	-0,522	16,539	8,252
4,371	6,228	3,698	1,928
5,386	-0,223	1,225	0,612
6,400	-200,000	0,187	0,581
7,415	202,615	-0,135	-0,147
8,429	800,000	-0,118	-0,268
9,444	33,652	-0,293	-0,179
10,459	517,538	-0,215	-0,356
11,473	-69,476	-0,416	-0,112
12,488	76,180	-0,169	-0,126
13,502	-42,605	-0,469	-0,167
14,517	-59,090	-0,166	-0,050
15,531	123,954	-0,334	-0,296
16,546	214,257	-0,256	-0,286
17,561	184,775	-0,212	-0,222
18,575	1,745	-0,203	-0,103
19,590	-12,287	-0,222	-0,102
20,604	5,650	-0,309	-0,160
21,619	172,205	-0,274	-0,278
22,634	16,907	-0,563	-0,313
23,648	168,698	-0,369	-0,371
24,663	512,065	-0,195	-0,320
25,677	0,305	-0,340	-0,170
26,692	45,317	-0,336	-0,218
27,707	3,096	-0,430	-0,219
28,721	-70,916	-0,374	-0,098
29,736	46,579	-0,314	-0,204
30,750	15,544	-0,426	-0,235
31,765	75,227	-0,370	-0,274
32,780	10,865	-0,377	-0,202
33,794	-15,639	-0,556	-0,248
34,809	215,116	-0,203	-0,226
35,823	11,005	-0,419	-0,225
36,838	-17,094	-0,394	-0,174
37,853	158,225	-0,325	-0,317
38,867	53,251	-0,276	-0,185
39,882	-7,922	-0,317	-0,150
40,896	89,465	-0,291	-0,228
41,911	50,846	-0,464	-0,308
42,926	-53,071	-0,493	-0,158
43,940	156,603	-0,328	-0,318
44,955	57,443	-0,340	-0,233
45,969	-32,095	-0,331	-0,129
46,984	0,002	-0,272	-0,136
47,999	234,158	-0,178	-0,207
49,013	112,473	-0,189	-0,161
50,028	-104,206	-0,344	-0,056
51,042	132,894	-0,329	-0,298
52,057	108,958	-0,309	-0,259
53,071	-0,787	-0,224	-0,111
54,086	-35,507	-0,318	-0,121
55,101	0,896	-0,353	-0,177
56,115	16,933	-0,218	-0,121
57,130	130,128	-0,349	-0,313
58,144	11,555	-0,363	-0,195
59,159	77,998	-0,327	-0,244
60,174	88,659	-0,341	-0,266
61,188	116,618	-0,359	-0,309
62,203	-47,040	-0,354	-0,120
63,217	-57,605	-0,380	-0,116
64,232	65,019	-0,223	-0,158
65,247	-94,763	-0,327	-0,062
66,261	5,599	-0,328	-0,170
67,276	136,560	-0,327	-0,300
68,290	-29,232	-0,381	-0,153
69,305	-23,242	-0,240	-0,101
70,320	33,611	-0,268	-0,163
71,334	-25,483	-0,410	-0,169
72,349	106,048	-0,281	-0,233
73,363	0,233	-0,303	-0,151
74,378	59,797	-0,409	-0,282
75,393	-16,016	-0,221	-0,098
76,407	1,259	-0,326	-0,163
77,422	5,046	-0,262	-0,135
78,436	-54,429	-0,283	-0,089
79,451	16,773	-0,348	-0,192
80,466	46,039	-0,245	-0,158
81,480	47,375	-0,310	-0,202
82,495	59,677	-0,304	-0,209
83,509	5,334	-0,195	-0,100
84,524	12,754	-0,170	-0,092
85,539	155,897	-0,240	-0,232
86,553	95,565	-0,139	-0,111
87,568	90,661	-0,214	-0,168
88,582	36,796	-0,314	-0,194
89,597	-0,210	-0,339	-0,168
90,611	251,521	-0,182	-0,217
91,626	129,308	-0,206	-0,184
92,641	-133,020	-0,221	-0,019
93,655	125,598	-0,315	-0,278
94,670	-27,660	-0,351	-0,142
95,684	-33,414	-0,480	-0,185
96,699	-21,712	-0,269	-0,114
97,714	120,686	-0,175	-0,152
98,728	116,601	-0,411	-0,353
99,743	80,828	-0,254	-0,192
100,757	-25,969	-0,244	-0,100
101,772	21,541	-0,296	-0,168
102,787	-30,756	-0,324	-0,127
103,801	56,938	-0,272	-0,185
104,816	197,428	-0,231	-0,247
105,830	-127,056	-0,223	-0,023
106,845	-18,486	-0,296	-0,129
107,860	157,889	-0,122	-0,118
108,874	-44,567	-0,366	-0,127
109,889	-15,157	-0,343	-0,153
110,903	-10,690	-0,192	-0,088
111,918	44,008	-0,231	-0,147
112,933	-50,499	-0,317	-0,104
113,947	35,754	-0,223	-0,137
114,962	-46,934	-0,270	-0,092
115,976	56,962	-0,285	-0,194
116,991	79,259	-0,326	-0,244
118,006	54,573	-0,340	-0,228
119,020	48,948	-0,234	-0,153
120,035	212,283	-0,157	-0,173
121,049	-65,039	-0,283	-0,079
122,064	14,289	-0,260	-0,141
123,079	-45,689	-0,232	-0,080
124,093	91,017	-0,295	-0,231
125,108	4,898	-0,212	-0,108
126,122	67,312	-0,185	-0,131
127,137	-73,583	-0,243	-0,061
128,151	92,780	-0,225	-0,177
129,166	-3,238	-0,212	-0,103
130,181	-64,862	-0,188	-0,053
131,195	-57,768	-0,231	-0,070
132,210	377,424	-0,196	-0,280
133,224	-24,339	-0,226	-0,093
134,239	48,588	-0,190	-0,124
135,254	9,472	-0,199	-0,105
136,268	23,444	-0,200	-0,114
137,283	26,704	-0,307	-0,179
138,297	451,289	-0,202	-0,312
139,312	123,222	-0,301	-0,263
140,327	-60,367	-0,104	-0,031
141,341	-200,000	-0,030	-0,188
142,356	164,717	-0,135	-0,133
143,370	47,117	-0,220	-0,142
144,385	97,708	-0,284	-0,227
145,400	93,235	-0,332	-0,262
146,414	250,730	-0,219	-0,259
147,429	29,198	-0,265	-0,156
148,443	102,833	-0,210	-0,171
149,458	-48,362	-0,329	-0,110
150,473	347,000	-0,153	-0,211
151,487	339,112	-0,159	-0,216
152,502	16,056	-0,345	-0,188
153,516	160,999	-0,229	-0,223
154,531	-100,235	-0,324	-0,055
155,546	81,309	-0,255	-0,191
156,560	71,927	-0,255	-0,184
157,575	0,241	-0,275	-0,136
158,589	-14,828	-0,281	-0,125
159,604	-38,267	-0,264	-0,097
160,619	4,279	-0,309	-0,157
161,633	-84,829	-0,338	-0,073
162,648	-64,244	-0,288	-0,081
163,662	-23,274	-0,212	-0,088
164,677	39,357	-0,285	-0,177
165,692	70,011	-0,180	-0,129
166,706	-46,541	-0,282	-0,096
167,721	123,927	-0,212	-0,185
168,735	418,814	-0,120	-0,179
169,750	-31,396	-0,318	-0,124
170,764	131,134	-0,161	-0,144
171,779	211,605	-0,139	-0,153
172,794	371,493	-0,138	-0,195
173,808	-21,153	-0,348	-0,147
174,823	-34,143	-0,216	-0,082
175,837	83,222	-0,232	-0,175
176,852	134,952	-0,246	-0,222
177,867	-23,144	-0,181	-0,075
178,881	257,448	-0,159	-0,190
179,896	114,608	-0,171	-0,145
180,910	273,911	-0,160	-0,197
181,925	17,788	-0,249	-0,137
182,940	155,276	-0,164	-0,157
183,954	135,455	-0,189	-0,171
184,969	85,209	-0,217	-0,165
185,983	-187,975	-0,290	0,003
186,998	99,652	-0,116	-0,093
188,013	214,646	-0,299	-0,330
189,027	-26,498	-0,189	-0,076
190,042	62,268	-0,224	-0,155
191,056	10,811	-0,214	-0,113
192,071	9,299	-0,207	-0,108
193,086	-3,273	-0,196	-0,094
194,100	-22,408	-0,227	-0,095
195,115	217,355	-0,148	-0,163
196,129	-21,522	-0,292	-0,123
197,144	800,000	-0,108	-0,277
198,159	-30,483	-0,288	-0,113
199,173	176,696	-0,222	-0,224
200,188	383,430	-0,082	-0,118
201,202	108,865	-0,116	0,096
202,217	-56,078	-0,198	0,061
203,232	301,012	-0,101	-0,130
204,246	713,207	-0,134	-0,246
205,261	-200,000	-0,021	-0,129
206,275	54,713	-0,115	-0,077
207,290	78,014	-0,190	-0,140
208,304	-17,340	-0,149	0,065
209,319	392,482	-0,167	-0,241
210,334	334,212	-0,040	-0,054
211,348	8,888	-0,208	-0,108
212,363	94,433	-0,199	-0,156
213,377	29,250	-0,170	-0,099
214,392	1,004	-0,168	-0,083
215,407	-84,371	-0,172	-0,037
216,421	-37,167	-0,178	-0,066
217,436	78,702	-0,196	-0,145
218,450	180,753	-0,174	-0,177
219,465	-200,000	-0,068	-0,265
220,480	12,769	-0,220	-0,117
221,494	349,656	-0,087	-0,120
222,509	77,697	-0,180	-0,133
223,523	148,295	-0,088	-0,082
224,538	-119,148	-0,279	-0,033
225,553	-171,173	-0,251	-0,006
226,567	-58,308	-0,180	-0,054
227,582	34,973	-0,216	-0,130
228,596	-50,103	-0,335	-0,109
229,611	298,584	-0,063	-0,081
230,626	-156,364	-0,159	-0,007
231,640	293,404	-0,200	-0,253
232,655	-70,636	-0,224	-0,058
233,669	8,078	-0,126	-0,065
234,684	-39,894	-0,201	-0,072
235,699	280,443	-0,109	-0,135
236,713	-78,856	-0,205	-0,048
237,728	165,187	-0,156	-0,153
238,742	-33,435	-0,285	-0,108
239,757	-31,255	-0,244	-0,094
240,772	-200,000	-0,111	-0,344
241,786	42,052	-0,179	-0,112
242,801	54,565	-0,196	-0,130
243,815	334,723	-0,047	-0,063
244,830	-156,301	-0,184	-0,008
245,844	145,760	-0,214	-0,198
246,859	188,843	-0,275	-0,285
247,874	95,769	-0,197	-0,155
248,888	63,550	-0,348	-0,241
249,903	149,418	-0,237	-0,221
250,917	89,418	-0,151	-0,116
251,932	-20,194	-0,147	-0,062
252,947	59,576	-0,143	-0,097
253,961	617,268	-0,154	-0,268
254,976	68,896	-0,166	-0,117
255,990	-78,701	-0,165	-0,038
257,005	-89,810	-0,162	0,032
258,020	44,089	-0,130	-0,082
259,034	-5,112	-0,234	-0,111
260,049	368,831	-0,146	-0,204
261,063	80,483	-0,133	-0,098
262,078	-39,745	-0,172	-0,062
263,093	89,474	-0,257	-0,197
264,107	-200,000	-0,037	-0,176
265,122	-99,372	-0,185	0,032
266,136	484,335	-0,050	-0,078
267,151	78,602	-0,031	0,023
268,166	268,382	-0,093	-0,112
269,180	376,326	-0,167	-0,236
270,195	57,265	-0,376	-0,252
271,209	-63,852	-0,154	-0,043
272,224	174,309	-0,060	-0,060
273,239	800,000	-0,070	-0,212
274,253	136,250	-0,197	-0,177
275,268	184,137	-0,160	-0,163
276,282	-122,234	-0,097	0,011
277,297	242,688	-0,156	-0,180
278,312	241,525	-0,236	-0,272
279,326	-52,205	-0,244	-0,077
280,341	-81,876	-0,262	-0,059
281,355	-58,699	-0,173	-0,051
282,370	48,276	-0,196	-0,126
283,384	40,703	-0,168	-0,104
284,399	-61,924	-0,245	-0,070
285,414	63,184	-0,147	-0,101
286,428	-26,692	-0,121	-0,049
287,443	72,076	-0,100	-0,071
288,457	800,000	-0,090	-0,180
289,472	-200,000	0,007	-0,128
290,487	284,530	-0,150	-0,186
291,501	38,373	-0,117	-0,072
292,516	-68,321	-0,161	-0,043
293,530	367,538	-0,083	-0,116
294,545	361,282	-0,045	0,062
295,560	-200,000	-0,002	-0,072
296,574	-4,670	-0,152	-0,072
297,589	-36,325	-0,186	-0,068
298,603	800,000	-0,088	-0,188
299,618	-19,412	-0,109	-0,046
300,633	-143,528	-0,191	-0,012
301,647	25,783	-0,145	0,083
302,662	-91,362	-0,064	0,013
303,676	54,004	-0,198	-0,130
304,691	-23,285	-0,126	-0,052
305,706	-150,964	-0,234	-0,012
306,720	36,683	-0,191	-0,115
307,735	-18,962	-0,160	0,068
308,749	339,506	-0,092	-0,123
309,764	288,934	-0,092	-0,114
310,779	-81,166	-0,166	0,037
311,793	-89,525	-0,115	-0,023
312,808	-72,304	-0,115	-0,029
313,822	186,833	-0,068	-0,069
314,837	736,776	-0,065	-0,121
315,852	800,000	-0,099	-0,191
316,866	-111,388	-0,035	-0,005
317,881	-39,305	-0,073	-0,026
318,895	-200,000	-0,035	-0,184
319,910	169,759	-0,157	-0,154
320,925	123,617	-0,175	-0,151
321,939	-101,578	-0,112	-0,018
322,954	60,453	-0,007	0,005
323,968	235,171	-0,081	-0,091
324,983	251,739	-0,132	-0,154
325,997	-148,487	-0,073	-0,004
327,012	488,584	-0,180	-0,283
328,027	236,717	-0,085	-0,096
329,041	7,374	-0,216	-0,110
330,056	-117,269	-0,184	-0,023
331,070	-83,800	-0,220	-0,048
332,085	-1,078	-0,191	-0,092
333,100	199,725	-0,104	-0,109
334,114	67,626	-0,179	-0,125
335,129	242,183	-0,093	-0,107
336,143	222,435	-0,167	-0,184
337,158	271,515	-0,121	-0,146
338,173	-200,000	0,012	-0,061
339,187	800,000	-0,051	-0,137
340,202	-46,838	-0,101	-0,034
341,216	-133,918	-0,112	0,009
342,231	789,736	-0,075	-0,142
343,246	654,577	-0,082	-0,145
344,260	-146,677	-0,154	0,009
345,275	-141,821	-0,131	-0,009
346,289	800,000	-0,087	-0,170
347,304	-46,567	-0,236	-0,079
348,319	-80,755	-0,219	-0,049
349,333	343,935	-0,077	-0,103
350,348	57,289	-0,179	-0,120
351,362	-30,875	-0,081	-0,031
352,377	-124,205	-0,144	-0,015
353,392	91,563	-0,059	0,045
354,406	-170,443	-0,095	-0,002
355,421	208,017	1305,487	1396,398
356,435	160,051	1465,036	1396,877
