DTS Sentinel unit serial number:	SN410029Multiplexer serial number:	ORYXHardware model number:	OX2-SRSoftware version number:	ORYX F/W v4,00 Oryx Data Collector v3.7.2.0data status	okinstallation	B3 Nyhavnadifferential loss correction	single-endedforward channel	channel 1reverse channel	N/Adate	2023/12/04time	04:12:30forward acquisition time	300,00reverse acquisition time	0,00gamma	499,1914k internal	0,3205k external	0,3205temperature offset calibration	1,0000default loss term (dB/km)	0,3820temperature slope calibration	1,0000multiplexer offset coefficient	1,0000multiplexer slope coefficient	1,0000fibre end	0,00T internal ref (°C)	12,00T ext. ref 1 (°C)	-3,10T ext. ref 2 (°C)	-3,12length (m)	temperature (°C)	Stokes	anti-Stokes-744,400	49,642	-0,271	-0,185
-743,385	800,000	-0,022	0,071
-742,371	48,969	-0,208	-0,142
-741,356	734,598	0,184	0,359
-740,342	800,000	-0,076	-0,173
-739,327	-200,000	0,003	0,180
-738,312	800,000	-0,129	-0,265
-737,298	800,000	0,113	0,233
-736,283	302,449	-0,095	-0,128
-735,269	-200,000	-0,026	0,287
-734,254	163,397	-0,206	-0,210
-733,239	-95,890	-0,145	-0,028
-732,225	-200,000	-0,036	-0,321
-731,210	101,347	0,124	0,105
-730,196	157,957	0,067	-0,067
-729,181	94,290	-0,138	-0,113
-728,167	102,572	-0,026	-0,022
-727,152	21,986	0,040	0,024
-726,137	-200,000	0,001	0,027
-725,123	-200,000	-0,030	0,101
-724,108	105,251	-0,110	-0,094
-723,094	83,280	-0,161	-0,127
-722,079	-200,000	0,022	-0,089
-721,064	-200,000	-0,048	-0,184
-720,050	-125,251	0,005	-0,001
-719,035	-200,000	-0,015	0,058
-718,021	331,362	-0,085	-0,119
-717,006	-22,822	-0,072	-0,031
-715,991	800,000	-0,042	-0,109
-714,977	-200,000	0,005	-0,083
-713,962	87,018	0,048	-0,039
-712,948	-135,640	0,100	-0,008
-711,933	0,535	-0,094	0,049
-710,918	-162,152	-0,050	0,002
-709,904	-200,000	-0,030	-0,100
-708,889	117,648	-0,076	-0,068
-707,875	289,253	0,058	-0,076
-706,860	538,108	-0,037	0,064
-705,845	-111,145	-0,078	-0,011
-704,831	-200,000	0,010	0,083
-703,816	-68,418	-0,065	0,018
-702,802	241,400	-0,056	-0,068
-701,787	-200,000	0,010	-0,176
-700,772	277,549	-0,052	-0,067
-699,758	-139,537	-0,023	-0,002
-698,743	544,732	0,103	-0,179
-697,729	323,367	0,046	0,064
-696,714	800,000	0,048	0,152
-695,699	190,153	-0,070	-0,076
-694,685	-200,000	-0,011	0,041
-693,670	800,000	-0,015	0,045
-692,656	-108,837	-0,097	0,015
-691,641	800,000	-0,040	0,117
-690,627	309,477	-0,038	0,052
-689,612	-200,000	0,001	-0,030
-688,597	-82,494	0,043	-0,010
-687,583	-41,210	-0,113	-0,042
-686,568	800,000	-0,060	-0,150
-685,554	189,420	0,072	-0,078
-684,539	-200,000	0,016	0,141
-683,524	-200,000	0,014	-0,076
-682,510	649,289	0,047	0,087
-681,495	-37,735	-0,118	0,045
-680,481	-200,000	-0,049	-0,254
-679,466	-92,955	-0,072	-0,014
-678,451	97,064	-0,015	0,013
-677,437	800,000	0,053	-0,125
-676,422	11,371	-0,087	0,048
-675,408	-42,477	-0,064	0,023
-674,393	-5,385	-0,125	-0,062
-673,378	709,453	-0,033	0,064
-672,364	-123,121	-0,207	0,024
-671,349	-61,335	-0,109	-0,033
-670,335	42,834	-0,069	0,045
-669,320	800,000	-0,015	0,031
-668,305	-200,000	-0,004	-0,049
-667,291	166,245	0,086	-0,089
-666,276	-48,604	-0,025	-0,008
-665,262	248,877	0,075	0,092
-664,247	-105,067	-0,125	-0,021
-663,232	-200,000	-0,032	-0,119
-662,218	-200,000	0,017	0,121
-661,203	800,000	0,043	-0,120
-660,189	-151,852	0,057	0,003
-659,174	59,448	-0,019	-0,014
-658,159	63,199	-0,171	-0,124
-657,145	99,309	0,095	-0,080
-656,130	-55,975	-0,116	0,037
-655,116	800,000	-0,032	0,075
-654,101	494,672	-0,040	0,067
-653,086	-200,000	0,026	0,116
-652,072	190,749	-0,037	-0,040
-651,057	-30,658	-0,153	-0,062
-650,043	153,918	0,109	-0,108
-649,028	11,954	-0,090	0,050
-648,014	-200,000	0,024	0,086
-646,999	221,131	-0,028	0,032
-645,984	-200,000	-0,028	-0,099
-644,970	-200,000	-0,004	0,027
-643,955	-200,000	-0,001	-0,092
-642,941	-52,853	-0,094	-0,031
-641,926	-51,255	0,021	-0,007
-640,911	20,064	0,062	-0,036
-639,897	-200,000	0,001	0,075
-638,882	-101,425	-0,093	0,016
-637,868	-200,000	0,002	0,127
-636,853	356,441	0,054	-0,078
-635,838	-200,000	0,003	-0,126
-634,824	175,212	0,082	-0,086
-633,809	88,713	-0,131	-0,105
-632,795	90,195	-0,141	0,114
-631,780	450,144	0,015	0,024
-630,765	-200,000	-0,015	-0,081
-629,751	-200,000	-0,007	-0,070
-628,736	-200,000	-0,015	-0,082
-627,722	-3,055	0,111	0,056
-626,707	-200,000	-0,037	-0,205
-625,692	-200,000	-0,018	0,071
-624,678	-139,282	-0,179	-0,014
-623,663	-151,867	-0,113	-0,006
-622,649	-2,278	0,065	-0,033
-621,634	-200,000	-0,000	0,018
-620,619	-200,000	-0,002	-0,014
-619,605	652,623	-0,011	-0,020
-618,590	800,000	-0,020	-0,051
-617,576	-146,384	-0,067	0,004
-616,561	800,000	-0,025	0,064
-615,546	800,000	-0,028	0,059
-614,532	195,421	-0,082	-0,090
-613,517	107,686	-0,048	-0,042
-612,503	-200,000	0,013	-0,136
-611,488	-200,000	-0,012	0,083
-610,474	-103,387	-0,033	0,005
-609,459	-97,398	-0,030	0,006
-608,444	-20,482	0,133	0,059
-607,430	21,059	-0,045	-0,027
-606,415	-117,008	0,160	-0,021
-605,401	121,341	-0,021	0,019
-604,386	391,114	0,080	0,121
-603,371	150,633	0,050	-0,049
-602,357	-200,000	-0,006	-0,068
-601,342	-200,000	-0,012	-0,172
-600,328	-37,749	-0,134	0,051
-599,313	250,969	0,033	-0,040
-598,298	800,000	-0,036	0,094
-597,284	-57,044	0,081	-0,026
-596,269	-163,405	-0,087	-0,003
-595,255	-200,000	-0,005	0,091
-594,240	-200,000	-0,005	0,165
-593,225	-109,743	-0,093	0,014
-592,211	87,451	-0,034	0,028
-591,196	-200,000	0,012	0,060
-590,182	363,185	0,060	0,088
-589,167	-200,000	0,022	0,108
-588,152	334,680	0,034	-0,048
-587,138	800,000	-0,031	0,087
-586,123	792,389	-0,038	-0,075
-585,109	-106,129	-0,056	-0,009
-584,094	590,820	0,020	-0,035
-583,079	28,792	-0,064	0,039
-582,065	-200,000	0,010	0,069
-581,050	20,241	0,100	-0,058
-580,036	121,722	0,060	0,054
-579,021	265,482	-0,077	-0,097
-578,006	483,159	0,029	-0,048
-576,992	-92,965	-0,108	0,022
-575,977	-98,338	-0,033	-0,006
-574,963	56,046	0,030	-0,021
-573,948	-91,512	-0,034	-0,007
-572,934	-200,000	0,021	-0,163
-571,919	119,765	0,085	-0,076
-570,904	26,176	-0,190	-0,114
-569,890	53,301	-0,056	-0,039
-568,875	-200,000	-0,011	-0,158
-567,861	226,656	0,041	-0,048
-566,846	300,835	0,009	-0,012
-565,831	-200,000	-0,020	0,094
-564,817	-78,977	-0,136	-0,033
-563,802	-91,990	-0,129	0,026
-562,788	191,152	0,055	-0,059
-561,773	142,959	0,038	0,036
-560,758	-200,000	-0,013	0,044
-559,744	168,130	0,047	0,048
-558,729	498,971	-0,038	-0,063
-557,715	614,717	-0,045	-0,082
-556,700	-200,000	-0,013	-0,078
-555,685	-200,000	-0,028	0,093
-554,671	505,753	-0,047	0,079
-553,656	125,949	0,045	-0,041
-552,642	293,259	0,016	-0,021
-551,627	800,000	0,033	0,089
-550,612	-200,000	-0,010	-0,055
-549,598	800,000	0,066	-0,185
-548,583	-200,000	-0,040	-0,173
-547,569	-125,672	-0,097	-0,011
-546,554	800,000	-0,022	0,058
-545,539	-200,000	0,053	0,198
-544,525	800,000	0,031	0,081
-543,510	-200,000	0,006	-0,043
-542,496	0,475	-0,167	-0,086
-541,481	242,579	0,056	-0,068
-540,466	32,708	-0,016	0,010
-539,452	-200,000	0,019	0,133
-538,437	-16,836	-0,063	0,029
-537,423	-120,785	0,192	0,023
-536,408	-137,360	-0,034	0,003
-535,393	216,646	0,097	-0,111
-534,379	-200,000	0,031	-0,117
-533,364	125,460	-0,025	0,023
-532,350	800,000	-0,014	0,035
-531,335	123,493	-0,099	-0,090
-530,321	-51,837	0,103	-0,034
-529,306	-200,000	0,007	-0,113
-528,291	124,526	-0,120	-0,109
-527,277	800,000	-0,050	-0,101
-526,262	-166,540	0,175	-0,005
-525,248	-57,592	-0,159	-0,050
-524,233	-75,161	0,092	-0,023
-523,218	-162,677	0,032	-0,001
-522,204	155,126	-0,094	0,093
-521,189	644,619	-0,038	-0,071
-520,175	-200,000	-0,007	-0,132
-519,160	-200,000	-0,029	-0,095
-518,145	538,960	0,116	0,199
-517,131	800,000	-0,031	0,084
-516,116	12,199	-0,008	-0,005
-515,102	-31,615	0,030	-0,012
-514,087	31,762	-0,101	-0,063
-513,072	-101,485	0,044	-0,008
-512,058	481,614	-0,045	-0,073
-511,043	800,000	0,053	0,118
-510,029	267,674	0,013	-0,016
-509,014	-108,224	0,028	0,004
-507,999	328,562	0,041	0,056
-506,985	22,367	0,066	0,039
-505,970	-200,000	-0,024	0,086
-504,956	18,947	0,085	-0,049
-503,941	-62,670	-0,080	-0,024
-502,926	800,000	0,044	0,117
-501,912	-172,358	0,079	0,002
-500,897	-200,000	0,011	-0,039
-499,883	-157,220	0,009	0,000
-498,868	-200,000	-0,006	-0,087
-497,853	-200,000	0,008	-0,041
-496,839	-200,000	-0,004	-0,100
-495,824	28,747	-0,015	0,009
-494,810	172,584	-0,036	-0,038
-493,795	-144,883	0,041	-0,003
-492,781	733,398	0,024	-0,047
-491,766	-200,000	0,030	-0,152
-490,751	6,111	-0,088	-0,047
-489,737	-113,166	0,112	-0,016
-488,722	24,909	0,082	-0,049
-487,708	197,521	0,046	0,051
-486,693	495,542	0,057	-0,095
-485,678	-200,000	-0,007	-0,062
-484,664	582,548	-0,028	-0,049
-483,649	-121,119	-0,098	-0,012
-482,635	4,014	-0,084	0,044
-481,620	192,948	0,050	0,054
-480,605	-90,302	0,023	-0,005
-479,591	-200,000	0,030	0,159
-478,576	-200,000	0,006	0,063
-477,562	-200,000	-0,004	0,021
-476,547	-108,232	-0,082	0,013
-475,532	-116,054	-0,141	0,019
-474,518	800,000	0,057	0,160
-473,503	-46,040	-0,091	0,032
-472,489	-200,000	0,023	0,116
-471,474	427,117	-0,014	-0,023
-470,459	67,411	-0,076	0,056
-469,445	-200,000	-0,008	-0,047
-468,430	-89,812	0,016	-0,003
-467,416	-19,003	-0,198	-0,088
-466,401	-200,000	-0,011	0,042
-465,386	800,000	-0,011	-0,031
-464,372	800,000	0,023	0,065
-463,357	18,375	0,014	-0,008
-462,343	-116,375	-0,259	-0,034
-461,328	-11,104	0,086	-0,041
-460,313	800,000	-0,074	0,162
-459,299	502,292	-0,093	-0,155
-458,284	117,567	0,041	0,036
-457,270	176,533	0,038	-0,039
-456,255	-103,164	0,076	0,013
-455,241	800,000	-0,076	0,159
-454,226	-92,306	-0,081	-0,016
-453,211	-200,000	-0,011	-0,053
-452,197	-200,000	0,001	0,153
-451,182	-200,000	-0,010	0,097
-450,168	-200,000	0,018	0,111
-449,153	-200,000	-0,012	-0,040
-448,138	-21,796	-0,034	0,015
-447,124	-200,000	0,014	-0,081
-446,109	800,000	-0,036	-0,098
-445,095	41,791	-0,066	0,043
-444,080	-200,000	0,003	-0,011
-443,065	177,377	0,105	0,110
-442,051	800,000	-0,026	-0,055
-441,036	-200,000	-0,021	-0,103
-440,022	364,226	0,024	-0,035
-439,007	800,000	0,035	-0,107
-437,992	-76,364	0,150	-0,037
-436,978	-200,000	0,014	0,088
-435,963	34,600	0,056	-0,035
-434,949	800,000	-0,021	0,050
-433,934	800,000	-0,044	-0,129
-432,919	568,333	0,069	0,122
-431,905	-200,000	0,008	-0,050
-430,890	-101,744	0,083	0,014
-429,876	95,459	-0,083	0,067
-428,861	438,729	0,087	0,136
-427,846	-24,395	-0,088	0,037
-426,832	-106,463	0,047	-0,007
-425,817	-80,973	-0,055	0,013
-424,803	-142,086	0,027	-0,002
-423,788	114,027	0,118	-0,103
-422,773	575,092	-0,052	0,092
-421,759	-15,472	0,093	-0,043
-420,744	-111,014	0,156	0,023
-419,730	94,803	-0,040	-0,032
-418,715	-84,911	-0,162	-0,036
-417,701	-103,449	0,062	-0,010
-416,686	800,000	-0,042	-0,122
-415,671	25,600	-0,053	0,032
-414,657	557,375	-0,076	-0,132
-413,642	-200,000	-0,026	-0,115
-412,628	-64,627	-0,159	-0,046
-411,613	87,026	-0,102	-0,081
-410,598	-27,046	0,066	-0,028
-409,584	114,718	0,063	0,055
-408,569	-200,000	0,003	-0,044
-407,555	-22,354	-0,044	0,019
-406,540	-200,000	-0,026	0,119
-405,525	-56,537	-0,161	-0,051
-404,511	-10,928	0,169	0,080
-403,496	181,368	0,067	-0,071
-402,482	336,305	-0,038	0,053
-401,467	-162,855	-0,023	-0,001
-400,452	-200,000	-0,009	0,113
-399,438	-145,244	0,080	-0,005
-398,423	13,069	-0,134	-0,074
-397,409	471,564	-0,012	-0,020
-396,394	44,169	-0,075	0,049
-395,379	800,000	-0,051	-0,124
-394,365	222,257	-0,107	-0,124
-393,350	-197,502	0,082	-0,000
-392,336	22,994	-0,065	0,038
-391,321	-47,626	-0,069	-0,024
-390,306	-200,000	0,024	-0,188
-389,292	-200,000	-0,004	0,051
-388,277	-175,182	-0,069	0,001
-387,263	-159,242	0,165	-0,007
-386,248	27,758	-0,020	-0,012
-385,233	596,892	0,052	0,093
-384,219	800,000	-0,025	0,056
-383,204	70,997	-0,165	0,122
-382,190	143,939	0,042	0,040
-381,175	22,701	0,056	-0,033
-380,160	132,492	-0,063	0,058
-379,146	-200,000	-0,026	-0,172
-378,131	800,000	0,043	0,105
-377,117	-156,058	-0,055	0,002
-376,102	-79,615	0,150	0,036
-375,088	-129,179	-0,021	0,002
-374,073	-30,625	0,019	0,008
-373,058	800,000	0,090	0,194
-372,044	800,000	0,014	-0,037
-371,029	474,666	0,018	-0,029
-370,015	-200,000	0,000	-0,126
-369,000	-200,000	0,008	0,047
-367,985	-180,236	-0,098	0,001
-366,971	-7,354	-0,094	-0,045
-365,956	460,353	0,052	0,084
-364,942	800,000	0,032	-0,085
-363,927	529,557	0,053	0,090
-362,912	800,000	0,044	0,097
-361,898	-170,957	0,101	0,002
-360,883	-200,000	0,038	-0,150
-359,869	-200,000	-0,011	0,058
-358,854	-101,563	0,141	0,024
-357,839	-200,000	-0,009	0,071
-356,825	763,530	-0,035	-0,068
-355,810	76,324	0,030	0,023
-354,796	36,124	0,111	-0,070
-353,781	117,119	-0,049	0,043
-352,766	-188,011	0,087	-0,001
-351,752	-137,667	-0,017	0,001
-350,737	374,273	0,013	0,019
-349,723	-112,823	0,234	0,033
-348,708	-200,000	0,007	0,033
-347,693	800,000	0,045	0,101
-346,679	-15,260	-0,060	0,028
-345,664	-200,000	0,013	-0,102
-344,650	-64,132	-0,054	0,016
-343,635	136,538	0,043	-0,040
-342,620	800,000	-0,009	-0,025
-341,606	71,402	-0,106	0,079
-340,591	-20,017	0,086	-0,038
-339,577	-200,000	0,019	-0,195
-338,562	16,065	-0,041	0,023
-337,548	-200,000	0,014	0,156
-336,533	-200,000	0,011	0,055
-335,518	800,000	-0,050	0,147
-334,504	-200,000	-0,006	0,034
-333,489	177,874	0,019	0,019
-332,475	-39,329	0,021	-0,008
-331,460	800,000	0,041	0,112
-330,445	-200,000	-0,008	0,042
-329,431	-39,502	0,075	0,028
-328,416	800,000	0,025	0,072
-327,402	274,550	0,052	0,066
-326,387	24,973	-0,091	-0,054
-325,372	389,380	-0,051	-0,076
-324,358	109,012	0,086	-0,073
-323,343	207,489	-0,115	-0,129
-322,329	800,000	-0,025	-0,075
-321,314	12,589	0,122	0,067
-320,299	533,138	-0,079	0,134
-319,285	-200,000	0,004	0,049
-318,270	360,609	-0,125	-0,179
-317,256	-200,000	0,047	-0,165
-316,241	-172,259	0,004	0,000
-315,226	800,000	0,071	-0,179
-314,212	-200,000	0,009	0,054
-313,197	364,326	0,032	-0,045
-312,183	71,270	-0,153	-0,113
-311,168	800,000	0,028	-0,085
-310,153	38,895	-0,023	-0,015
-309,139	70,405	-0,083	-0,061
-308,124	-200,000	-0,003	0,104
-307,110	311,144	-0,038	0,051
-306,095	81,013	0,171	0,132
-305,080	-200,000	0,009	-0,048
-304,066	313,265	0,036	0,048
-303,051	147,988	-0,087	-0,084
-302,037	28,885	0,167	-0,101
-301,022	-200,000	0,025	0,082
-300,008	800,000	0,015	-0,037
-298,993	-5,619	0,124	0,060
-297,978	34,154	0,023	0,015
-296,964	159,172	0,067	-0,067
-295,949	-200,000	0,021	-0,085
-294,935	-200,000	0,004	-0,070
-293,920	153,876	-0,014	-0,014
-292,905	429,923	0,051	-0,079
-291,891	-200,000	0,014	0,071
-290,876	41,370	-0,046	-0,029
-289,862	50,256	0,132	0,089
-288,847	-59,505	-0,111	0,034
-287,832	492,741	0,033	-0,055
-286,818	800,000	0,061	0,150
-285,803	157,629	0,012	0,012
-284,789	24,995	0,188	0,111
-283,774	-46,356	-0,095	0,033
-282,759	93,743	0,069	0,056
-281,745	76,537	-0,068	-0,052
-280,730	103,150	-0,111	-0,093
-279,716	10,545	0,074	0,040
-278,701	122,884	0,044	0,039
-277,686	538,658	0,072	0,123
-276,672	244,107	0,117	0,140
-275,657	132,720	0,048	-0,045
-274,643	800,000	-0,019	-0,053
-273,628	-200,000	-0,038	-0,205
-272,613	132,225	-0,045	-0,041
-271,599	-98,728	0,204	-0,037
-270,584	-5,160	0,068	0,033
-269,570	-200,000	-0,012	0,042
-268,555	-200,000	0,006	0,068
-267,540	57,698	-0,117	-0,081
-266,526	-2,382	-0,138	-0,069
-265,511	419,115	-0,072	0,110
-264,497	800,000	0,039	0,089
-263,482	-73,168	0,116	0,030
-262,467	116,040	0,141	0,123
-261,453	173,132	-0,070	-0,072
-260,438	-116,266	-0,089	0,012
-259,424	-200,000	-0,016	0,104
-258,409	-200,000	-0,014	0,106
-257,395	-38,160	0,076	0,029
-256,380	-92,414	0,048	-0,009
-255,365	93,381	-0,088	-0,071
-254,351	230,434	0,024	0,027
-253,336	-160,510	0,031	0,001
-252,322	-200,000	0,004	-0,031
-251,307	-200,000	0,046	0,164
-250,292	183,631	-0,095	0,101
-249,278	-200,000	-0,007	0,050
-248,263	208,389	0,151	0,168
-247,249	298,589	0,005	0,007
-246,234	172,956	-0,058	-0,059
-245,219	-161,581	0,067	-0,002
-244,205	575,275	0,025	0,044
-243,190	-62,825	0,091	-0,027
-242,176	443,487	0,075	0,118
-241,161	169,608	0,102	-0,103
-240,146	800,000	0,042	0,120
-239,132	137,789	0,077	-0,072
-238,117	16,996	0,151	-0,085
-237,103	32,483	-0,079	-0,049
-236,088	-136,035	0,078	-0,006
-235,073	124,526	0,070	-0,063
-234,059	192,261	0,095	0,102
-233,044	-76,479	0,083	0,021
-232,030	98,762	0,091	0,075
-231,015	14,375	-0,099	0,055
-230,000	-200,000	-0,026	-0,095
-228,986	218,953	-0,077	0,088
-227,971	290,652	-0,046	0,060
-226,957	-200,000	-0,014	0,062
-225,942	-200,000	-0,017	0,082
-224,927	-200,000	-0,005	0,114
-223,913	172,091	-0,038	-0,039
-222,898	723,964	-0,057	-0,109
-221,884	800,000	-0,043	0,086
-220,869	243,636	0,059	0,071
-219,855	-29,151	-0,097	0,040
-218,840	-40,400	-0,032	-0,012
-217,825	120,562	-0,141	-0,125
-216,811	-200,000	-0,029	-0,159
-215,796	405,406	-0,081	-0,121
-214,782	800,000	0,027	0,074
-213,767	199,060	-0,038	0,042
-212,752	800,000	0,070	0,192
-211,738	-84,925	0,158	0,035
-210,723	-73,644	-0,193	0,050
-209,709	138,635	0,063	0,059
-208,694	0,112	-0,105	-0,053
-207,679	-200,000	-0,001	-0,006
-206,665	95,759	0,150	0,121
-205,650	518,406	-0,051	0,085
-204,636	-2,491	-0,038	-0,019
-203,621	-200,000	0,030	-0,111
-202,606	-200,000	0,021	0,094
-201,592	-65,170	0,136	-0,039
-200,577	-200,000	0,007	0,106
-199,563	-2,215	-0,028	0,014
-198,548	-200,000	0,002	0,033
-197,533	800,000	-0,041	0,124
-196,519	237,010	-0,059	0,070
-195,504	-35,181	-0,046	-0,018
-194,490	-200,000	-0,005	-0,114
-193,475	400,031	0,043	0,065
-192,460	-3,574	-0,055	0,027
-191,446	-87,614	-0,085	0,018
-190,431	-95,050	0,123	0,023
-189,417	97,986	0,091	0,075
-188,402	67,319	-0,085	-0,061
-187,387	-61,939	-0,050	-0,015
-186,373	-31,074	0,145	0,058
-185,358	-200,000	-0,022	0,100
-184,344	21,096	0,059	0,034
-183,329	-88,334	0,037	0,008
-182,315	-144,189	0,101	-0,007
-181,300	243,382	-0,095	-0,113
-180,285	-200,000	-0,056	-0,221
-179,271	123,088	-0,146	-0,130
-178,256	-143,132	0,063	-0,004
-177,242	-61,113	0,105	0,031
-176,227	25,382	-0,238	0,140
-175,212	169,998	0,029	0,030
-174,198	800,000	-0,033	0,077
-173,183	-174,060	-0,055	0,001
-172,169	800,000	-0,065	0,169
-171,154	305,051	0,059	-0,078
-170,139	800,000	0,027	0,075
-169,125	-86,121	0,195	0,042
-168,110	-13,162	0,125	0,058
-167,096	145,432	0,049	-0,047
-166,081	-200,000	-0,024	-0,076
-165,066	19,560	-0,130	-0,074
-164,052	800,000	-0,029	-0,083
-163,037	-89,958	0,130	0,027
-162,023	-92,319	-0,173	-0,034
-161,008	330,911	0,074	-0,102
-159,993	174,461	0,007	0,007
-158,979	148,149	-0,058	-0,056
-157,964	-130,869	-0,083	-0,008
-156,950	90,966	0,121	-0,096
-155,935	584,539	-0,024	-0,042
-154,920	-200,000	-0,001	-0,021
-153,906	-200,000	0,009	0,092
-152,891	800,000	-0,033	-0,073
-151,877	193,565	-0,102	0,109
-150,862	-200,000	-0,012	0,081
-149,847	264,228	0,069	-0,086
-148,833	-55,916	-0,147	0,046
-147,818	-200,000	-0,008	0,105
-146,804	21,576	0,037	-0,021
-145,789	3,771	0,051	0,026
-144,775	-179,975	0,083	0,001
-143,760	800,000	0,018	-0,040
-142,745	37,762	0,050	-0,032
-141,731	800,000	0,021	-0,047
-140,716	-200,000	0,015	-0,134
-139,702	800,000	-0,012	-0,028
-138,687	800,000	0,043	-0,119
-137,672	285,123	0,021	0,027
-136,658	272,287	-0,053	-0,067
-135,643	-200,000	-0,051	-0,192
-134,629	324,668	-0,029	-0,039
-133,614	800,000	-0,034	0,081
-132,599	44,665	0,073	-0,048
-131,585	800,000	0,019	0,058
-130,570	411,656	-0,114	-0,172
-129,556	109,764	-0,114	-0,097
-128,541	-19,380	-0,062	0,027
-127,526	-119,954	0,104	-0,013
-126,512	-200,000	0,002	-0,165
-125,497	-200,000	-0,008	0,113
-124,483	25,866	0,022	0,013
-123,468	217,202	0,062	-0,070
-122,453	-9,550	-0,100	0,047
-121,439	96,025	-0,118	-0,095
-120,424	454,100	0,030	-0,047
-119,410	175,254	-0,090	-0,092
-118,395	-200,000	-0,002	-0,026
-117,380	81,498	0,126	0,097
-116,366	-57,172	0,147	0,046
-115,351	260,203	-0,032	-0,039
-114,337	128,781	-0,122	-0,110
-113,322	682,399	-0,083	-0,154
-112,307	58,564	0,102	-0,071
-111,293	-200,000	-0,026	0,123
-110,278	-27,126	-0,067	-0,027
-109,264	-121,238	-0,025	-0,003
-108,249	-200,000	0,022	-0,281
-107,234	-89,946	-0,058	0,012
-106,220	34,427	-0,094	-0,058
-105,205	-200,000	-0,022	-0,083
-104,191	-149,535	-0,113	-0,006
-103,176	800,000	-0,016	0,045
-102,162	800,000	0,048	-0,099
-101,147	-200,000	0,043	-0,188
-100,132	91,655	-0,139	-0,111
-99,118	-82,468	0,168	0,038
-98,103	41,648	-0,125	-0,080
-97,089	-200,000	-0,008	-0,115
-96,074	-155,528	0,177	-0,008
-95,059	76,428	-0,098	0,074
-94,045	350,114	0,105	-0,148
-93,030	-200,000	-0,007	-0,059
-92,016	-106,514	-0,121	-0,019
-91,001	-83,749	0,070	0,016
-89,986	400,139	0,078	-0,116
-88,972	101,027	0,155	0,128
-87,957	-67,612	-0,122	0,034
-86,943	800,000	0,073	-0,147
-85,928	800,000	-0,077	-0,239
-84,913	478,467	-0,048	-0,078
-83,899	400,879	-0,055	-0,083
-82,884	-200,000	-0,010	-0,085
-81,870	794,974	0,017	0,032
-80,855	120,328	0,025	0,022
-79,840	58,152	-0,118	0,082
-78,826	-109,946	-0,077	0,011
-77,811	-200,000	0,010	-0,087
-76,797	40,083	-0,057	-0,036
-75,782	-63,386	-0,124	-0,036
-74,767	279,099	0,043	0,054
-73,753	-24,401	0,081	-0,034
-72,738	-200,000	0,022	0,096
-71,724	-154,918	-0,211	-0,010
-70,709	-200,000	0,007	-0,058
-69,694	203,652	-0,053	-0,058
-68,680	-200,000	0,002	0,060
-67,665	-17,414	-0,048	-0,021
-66,651	800,000	0,039	0,079
-65,636	73,527	-0,064	-0,047
-64,622	-85,222	-0,132	-0,029
-63,607	25,918	0,049	-0,029
-62,592	-21,965	-0,056	-0,024
-61,578	-200,000	0,001	0,068
-60,563	-200,000	-0,030	-0,106
-59,549	-39,265	0,074	0,027
-58,534	-8,888	-1,858	-0,877
-57,519	369,187	-1,412	-2,027
-56,505	-200,000	-0,719	-4,710
-55,490	217,207	1,091	1,231
-54,476	800,000	4,938	10,984
-53,461	-200,000	20,321	323,951
-52,446	800,000	752,570	2311,320
-51,432	548,611	1663,074	2827,555
-50,417	74,753	1671,613	1242,469
-49,403	19,882	1544,581	877,521
-48,388	13,848	1467,230	804,215
-47,373	18,377	1457,527	820,745
-46,359	16,305	1446,752	804,723
-45,344	12,088	1442,655	782,210
-44,330	12,055	1440,400	780,798
-43,315	12,050	1438,713	779,828
-42,300	12,086	1436,964	779,021
-41,286	12,047	1435,926	778,242
-40,271	12,017	1434,540	777,321
-39,257	12,059	1433,234	776,779
-38,242	12,069	1432,122	776,195
-37,227	12,107	1430,834	775,648
-36,213	12,105	1429,540	774,902
-35,198	12,094	1428,393	774,201
-34,184	12,111	1427,492	773,761
-33,169	12,107	1425,910	772,852
-32,154	12,123	1424,868	772,334
-31,140	12,115	1423,575	771,564
-30,125	12,121	1422,530	770,995
-29,111	12,135	1421,578	770,515
-28,096	12,150	1420,128	769,770
-27,082	12,047	1419,114	768,705
-26,067	12,064	1418,163	768,240
-25,052	12,025	1417,227	767,519
-24,038	12,005	1416,278	766,877
-23,023	12,011	1415,062	766,220
-22,009	12,022	1414,050	765,690
-20,994	11,953	1413,178	764,863
-19,979	11,993	1412,390	764,594
-18,965	12,006	1411,379	764,080
-17,950	11,997	1410,410	763,479
-16,936	11,965	1409,560	762,844
-15,921	11,930	1408,815	762,243
-14,906	11,938	1407,681	761,637
-13,892	11,951	1406,820	761,203
-12,877	11,955	1405,732	760,601
-11,863	11,934	1404,844	759,993
-10,848	11,900	1404,031	759,367
-9,833	11,874	1402,959	758,635
-8,819	11,827	1402,498	758,137
-7,804	11,843	1401,420	757,599
-6,790	11,847	1400,334	756,998
-5,775	11,872	1399,249	756,498
-4,760	11,893	1398,254	756,028
-3,746	11,840	1397,592	755,393
-2,731	11,834	1396,837	754,930
-1,717	11,776	1396,012	754,182
-0,702	11,787	1394,148	753,199
0,313	15,752	1308,578	725,265
1,327	31,997	699,659	425,104
2,342	49,496	121,950	80,963
3,356	-0,767	16,631	8,299
4,371	-0,409	3,192	1,597
5,386	43,507	0,692	0,446
6,400	-200,000	0,015	0,281
7,415	-52,406	-0,199	-0,065
8,429	70,595	-0,348	-0,254
9,444	136,109	-0,266	-0,245
10,459	10,999	-0,313	-0,168
11,473	-1,494	-0,304	-0,151
12,488	-16,932	-0,303	-0,135
13,502	180,732	-0,261	-0,271
14,517	72,795	-0,371	-0,273
15,531	311,740	-0,188	-0,250
16,546	48,013	-0,487	-0,320
17,561	159,914	-0,337	-0,331
18,575	-16,078	-0,152	-0,068
19,590	213,968	-0,211	-0,236
20,604	-107,145	-0,252	-0,039
21,619	106,453	-0,475	-0,397
22,634	72,189	-0,400	-0,294
23,648	-23,778	-0,354	-0,149
24,663	30,549	-0,358	-0,216
25,677	59,806	-0,287	-0,200
26,692	23,005	-0,420	-0,242
27,707	54,455	-0,316	-0,214
28,721	91,283	-0,480	-0,379
29,736	263,671	-0,335	-0,411
30,750	135,972	-0,419	-0,385
31,765	106,404	-0,386	-0,323
32,780	50,152	-0,397	-0,264
33,794	29,742	-0,402	-0,240
34,809	23,003	-0,468	-0,270
35,823	-31,126	-0,308	-0,122
36,838	-28,432	-0,343	-0,139
37,853	209,237	-0,279	-0,308
38,867	74,775	-0,431	-0,319
39,882	83,128	-0,288	-0,221
40,896	-64,270	-0,337	-0,096
41,911	18,547	-0,412	-0,231
42,926	72,446	-0,302	-0,222
43,940	134,935	-0,478	-0,438
44,955	-27,460	-0,444	-0,181
45,969	82,848	-0,296	-0,226
46,984	42,966	-0,354	-0,226
47,999	-53,286	-0,376	-0,121
49,013	19,679	-0,281	-0,158
50,028	166,882	-0,229	-0,228
51,042	79,994	-0,222	-0,168
52,057	438,493	-0,186	-0,287
53,071	35,950	-0,469	-0,290
54,086	192,684	-0,301	-0,320
55,101	36,204	-0,295	-0,183
56,115	5,994	-0,397	-0,206
57,130	303,170	-0,240	-0,314
58,144	59,198	-0,349	-0,241
59,159	66,817	-0,412	-0,295
60,174	-58,674	-0,381	-0,115
61,188	159,705	-0,276	-0,270
62,203	0,878	-0,395	-0,198
63,217	-20,246	-0,368	-0,159
64,232	58,845	-0,383	-0,264
65,247	-76,865	-0,388	-0,095
66,261	230,600	-0,307	-0,354
67,276	35,606	-0,324	-0,199
68,290	137,943	-0,294	-0,271
69,305	118,402	-0,240	-0,208
70,320	29,913	-0,340	-0,203
71,334	15,867	-0,320	-0,176
72,349	-52,388	-0,302	-0,097
73,363	121,939	-0,236	-0,207
74,378	2,788	-0,373	-0,189
75,393	-3,661	-0,281	-0,137
76,407	-131,534	-0,208	-0,019
77,422	-45,869	-0,226	-0,078
78,436	-69,326	-0,358	-0,096
79,451	110,940	-0,339	-0,286
80,466	-2,083	-0,366	-0,180
81,480	-73,745	-0,394	-0,100
82,495	-85,330	-0,186	-0,040
83,509	313,411	-0,229	-0,302
84,524	192,380	-0,210	-0,223
85,539	150,994	-0,273	-0,260
86,553	-10,517	-0,386	-0,179
87,568	191,573	-0,306	-0,324
88,582	86,429	-0,439	-0,339
89,597	11,032	-0,205	-0,110
90,611	-38,175	-0,297	-0,110
91,626	97,132	-0,293	-0,236
92,641	370,191	-0,172	-0,244
93,655	44,143	-0,334	-0,214
94,670	37,262	-0,206	-0,128
95,684	92,853	-0,205	-0,162
96,699	71,373	-0,374	-0,272
97,714	55,688	-0,220	-0,149
98,728	107,391	-0,235	-0,196
99,743	-194,121	-0,382	0,002
100,757	293,889	-0,099	-0,127
101,772	-13,489	-0,427	-0,193
102,787	47,334	-0,334	-0,218
103,801	93,342	-0,329	-0,260
104,816	61,481	-0,258	-0,179
105,830	-28,144	-0,143	-0,058
106,845	67,330	-0,334	-0,238
107,860	-115,034	-0,302	-0,040
108,874	-18,880	-0,372	-0,162
109,889	37,087	-0,284	-0,175
110,903	468,403	-0,164	-0,258
111,918	17,393	-0,301	-0,167
112,933	-23,392	-0,215	-0,090
113,947	-31,012	-0,258	-0,102
114,962	190,965	-0,253	-0,266
115,976	60,276	-0,278	-0,192
116,991	336,150	-0,182	-0,247
118,006	72,053	-0,284	-0,207
119,020	171,739	-0,250	-0,252
120,035	800,000	-0,107	-0,219
121,049	27,103	-0,340	-0,199
122,064	63,920	-0,341	-0,239
123,079	727,756	-0,131	-0,246
124,093	-12,628	-0,174	-0,079
125,108	180,039	-0,209	-0,214
126,122	-42,369	-0,361	-0,128
127,137	-4,272	-0,261	-0,126
128,151	76,534	-0,227	-0,168
129,166	163,860	-0,115	-0,113
130,181	141,499	-0,176	-0,163
131,195	12,179	-0,251	-0,135
132,210	55,303	-0,358	-0,241
133,224	292,709	-0,194	-0,248
134,239	101,991	-0,191	-0,156
135,254	32,550	-0,235	-0,141
136,268	107,452	-0,184	-0,153
137,283	383,059	-0,180	-0,260
138,297	114,486	-0,260	-0,221
139,312	90,695	-0,299	-0,234
140,327	244,855	-0,252	-0,296
141,341	143,552	-0,218	-0,203
142,356	65,316	-0,171	-0,120
143,370	-2,426	-0,126	-0,061
144,385	82,326	-0,201	-0,152
145,400	12,048	-0,270	-0,145
146,414	170,755	-0,250	-0,250
147,429	92,478	-0,246	-0,194
148,443	467,971	-0,112	-0,176
149,458	220,370	-0,176	-0,197
150,473	321,973	-0,166	-0,221
151,487	-163,201	-0,225	0,007
152,502	24,358	-0,245	-0,141
153,516	236,544	-0,151	-0,174
154,531	86,991	-0,234	-0,180
155,546	148,782	-0,176	-0,166
156,560	-109,707	-0,276	-0,040
157,575	37,109	-0,200	-0,123
158,589	-18,473	-0,211	-0,091
159,604	115,606	-0,232	-0,197
160,619	-39,715	-0,207	-0,075
161,633	291,629	-0,238	-0,303
162,648	-42,338	-0,216	-0,076
163,662	310,435	-0,119	-0,156
164,677	-137,577	-0,157	-0,012
165,692	254,253	-0,101	-0,120
166,706	486,724	-0,106	-0,168
167,721	231,306	-0,155	-0,177
168,735	0,695	-0,337	-0,168
169,750	382,833	-0,212	-0,304
170,764	800,000	-0,130	-0,258
171,779	-178,803	-0,193	-0,003
172,794	-70,519	-0,415	-0,109
173,808	32,461	-0,210	-0,126
174,823	8,996	-0,325	-0,170
175,837	-60,775	-0,359	-0,105
176,852	387,746	-0,119	-0,171
177,867	108,697	-0,099	-0,082
178,881	800,000	-0,098	-0,203
179,896	-134,890	-0,193	-0,016
180,910	-27,707	-0,303	-0,122
181,925	-197,367	-0,195	-0,001
182,940	117,202	-0,236	-0,202
183,954	35,806	-0,296	-0,181
184,969	135,664	-0,244	-0,221
185,983	-109,157	-0,282	-0,041
186,998	-17,143	-0,202	-0,088
188,013	33,305	-0,229	-0,138
189,027	-54,241	-0,261	-0,082
190,042	537,268	-0,159	-0,264
191,056	72,739	-0,203	-0,147
192,071	429,375	-0,134	-0,202
193,086	-47,211	-0,314	-0,106
194,100	292,046	-0,201	-0,255
195,115	-69,856	-0,305	-0,080
196,129	-40,214	-0,237	-0,085
197,144	321,317	-0,200	-0,265
198,159	224,640	-0,259	-0,291
199,173	494,917	-0,160	-0,256
200,188	675,106	-0,104	-0,188
201,202	258,443	-0,123	-0,148
202,217	572,591	-0,134	-0,228
203,232	459,465	-0,154	-0,239
204,246	-31,859	-0,332	-0,128
205,261	205,621	-0,267	-0,288
206,275	129,027	-0,258	-0,228
207,290	800,000	-0,067	-0,156
208,304	171,378	-0,102	-0,102
209,319	25,654	-0,149	-0,086
210,334	146,082	-0,192	-0,178
211,348	273,494	-0,214	-0,263
212,363	600,271	-0,161	-0,279
213,377	133,069	-0,212	-0,190
214,392	22,459	-0,199	-0,113
215,407	9,106	-0,171	-0,089
216,421	-20,062	-0,194	-0,082
217,436	-75,145	-0,291	-0,072
218,450	492,099	-0,194	-0,310
219,465	156,940	-0,243	-0,233
220,480	321,309	0,045	-0,059
221,494	179,584	-0,110	-0,112
222,509	-200,000	-0,010	-0,072
223,523	-133,325	-0,205	-0,018
224,538	-103,811	-0,105	-0,017
225,553	-92,068	-0,162	-0,031
226,567	-29,965	-0,192	-0,075
227,582	-96,389	-0,278	-0,050
228,596	8,041	-0,167	-0,087
229,611	250,720	-0,144	-0,170
230,626	362,083	-0,158	-0,220
231,640	-29,161	-0,294	-0,116
232,655	86,226	-0,055	-0,042
233,669	133,381	-0,123	-0,110
234,684	28,992	-0,212	-0,124
235,699	14,328	-0,167	-0,090
236,713	-80,436	-0,198	-0,045
237,728	256,507	-0,133	-0,158
238,742	-92,365	-0,194	-0,037
239,757	77,007	-0,281	-0,207
240,772	88,636	-0,232	-0,178
241,786	-4,005	-0,144	-0,069
242,801	-50,478	-0,166	-0,054
243,815	-67,506	-0,151	0,041
244,830	41,586	-0,260	-0,162
245,844	384,917	-0,165	-0,236
246,859	78,376	-0,223	-0,164
247,874	800,000	-0,166	-0,373
248,888	15,968	-0,251	-0,136
249,903	167,454	-0,224	-0,220
250,917	-100,013	-0,143	-0,024
251,932	800,000	-0,087	-0,217
252,947	-151,026	-0,181	-0,009
253,961	211,204	-0,164	-0,178
254,976	191,528	-0,139	-0,145
255,990	144,931	-0,158	-0,146
257,005	-20,298	-0,240	-0,102
258,020	135,784	-0,220	-0,198
259,034	-40,996	-0,145	-0,051
260,049	55,281	-0,164	-0,109
261,063	-200,000	-0,012	-0,063
262,078	131,442	-0,160	-0,142
263,093	348,884	-0,086	-0,117
264,107	23,850	-0,133	-0,076
265,122	-200,000	0,003	-0,277
266,136	800,000	-0,101	-0,216
267,151	-76,217	-0,120	-0,029
268,166	24,612	-0,268	-0,153
269,180	163,114	-0,148	-0,144
270,195	157,171	-0,218	-0,208
271,209	145,167	-0,125	-0,115
272,224	-83,890	-0,106	0,023
273,239	800,000	-0,052	-0,100
274,253	-19,859	-0,262	-0,111
275,268	118,382	-0,165	-0,141
276,282	33,102	-0,238	-0,142
277,297	39,144	-0,098	-0,060
278,312	110,808	-0,097	-0,081
279,326	55,288	-0,137	-0,091
280,341	-119,606	-0,221	-0,026
281,355	-14,600	-0,142	0,063
282,370	-65,089	-0,288	-0,080
283,384	-200,000	-0,013	-0,217
284,399	29,766	-0,246	-0,144
285,414	30,797	-0,186	-0,109
286,428	201,164	-0,241	-0,256
287,443	-200,000	-0,023	-0,196
288,457	110,199	-0,212	-0,176
289,472	14,938	-0,173	-0,093
290,487	-200,000	-0,079	-0,298
291,501	16,977	-0,273	-0,149
292,516	726,858	-0,090	-0,166
293,530	260,212	-0,096	-0,114
294,545	535,398	-0,026	-0,042
295,560	119,258	-0,090	-0,077
296,574	63,708	-0,217	-0,150
297,589	82,277	-0,169	-0,126
298,603	134,540	-0,236	-0,211
299,618	-97,613	-0,130	0,023
300,633	19,551	-0,067	-0,037
301,647	-40,982	-0,072	-0,026
302,662	-52,983	-0,104	-0,033
303,676	-200,000	-0,021	-0,198
304,691	609,956	-0,075	-0,129
305,706	-19,413	-0,226	-0,096
306,720	541,049	-0,078	-0,129
307,735	-51,786	-0,114	0,036
308,749	15,196	-0,090	-0,048
309,764	587,997	-0,080	-0,136
310,779	22,764	-0,222	-0,125
311,793	129,426	-0,129	-0,113
312,808	222,679	-0,103	-0,114
313,822	529,045	-0,053	-0,086
314,837	196,667	-0,127	-0,133
315,852	800,000	-0,056	-0,132
316,866	7,824	-0,149	-0,076
317,881	800,000	-0,083	-0,163
318,895	-94,024	-0,116	-0,022
319,910	-126,873	-0,191	-0,019
320,925	81,214	-0,171	-0,127
321,939	-53,445	-0,240	-0,075
322,954	296,389	-0,063	-0,079
323,968	-71,224	-0,019	0,005
324,983	800,000	-0,078	-0,205
325,997	146,781	-0,185	-0,171
327,012	-200,000	0,011	-0,298
328,027	52,054	-0,298	-0,194
329,041	135,518	-0,169	-0,151
330,056	578,407	-0,069	-0,117
331,070	-200,000	-0,046	-0,162
332,085	504,374	-0,066	-0,105
333,100	-138,638	-0,167	-0,012
334,114	-74,097	-0,189	-0,047
335,129	49,414	-0,261	-0,168
336,143	81,268	-0,137	-0,101
337,158	-38,517	-0,194	-0,070
338,173	250,008	-0,059	-0,069
339,187	-200,000	-0,040	-0,172
340,202	-38,057	-0,241	-0,087
341,216	69,588	-0,108	-0,076
342,231	31,625	-0,236	-0,139
343,246	-151,108	-0,160	-0,008
344,260	6,646	-0,156	-0,079
345,275	-65,533	0,033	-0,009
346,289	-187,985	-0,121	-0,001
347,304	13,222	-0,127	-0,067
348,319	65,519	-0,108	-0,075
349,333	506,835	-0,139	-0,222
350,348	190,276	-0,076	-0,078
351,362	800,000	-0,106	-0,241
352,377	-20,182	-0,140	-0,059
353,392	54,952	-0,041	-0,027
354,406	-96,327	-0,176	0,032
355,421	207,755	1315,305	1408,525
356,435	159,827	1476,086	1408,995
