DTS Sentinel unit serial number:	SN410029Multiplexer serial number:	ORYXHardware model number:	OX2-SRSoftware version number:	ORYX F/W v4,00 Oryx Data Collector v3.7.2.0data status	okinstallation	B3 Nyhavnadifferential loss correction	single-endedforward channel	channel 1reverse channel	N/Adate	2023/12/01time	06:37:30forward acquisition time	300,00reverse acquisition time	0,00gamma	499,1914k internal	0,3213k external	0,3213temperature offset calibration	1,0000default loss term (dB/km)	0,3820temperature slope calibration	1,0000multiplexer offset coefficient	1,0000multiplexer slope coefficient	1,0000fibre end	0,00T internal ref (°C)	7,80T ext. ref 1 (°C)	-6,47T ext. ref 2 (°C)	-6,64length (m)	temperature (°C)	Stokes	anti-Stokes-744,400	800,000	-0,157	-0,320
-743,385	800,000	0,087	0,226
-742,371	555,066	-0,095	-0,166
-741,356	-200,000	-0,075	0,288
-740,342	442,813	-0,146	-0,233
-739,327	277,784	-0,136	0,176
-738,312	-200,000	-0,040	-0,159
-737,298	-70,662	-0,113	0,031
-736,283	334,904	-0,151	-0,213
-735,269	800,000	-0,114	0,273
-734,254	800,000	-0,111	-0,222
-733,239	-169,142	-0,307	-0,008
-732,225	800,000	-0,061	-0,158
-731,210	-200,000	0,013	0,188
-730,196	645,349	-0,017	-0,032
-729,181	-12,809	-0,098	-0,046
-728,167	800,000	-0,034	0,095
-727,152	143,903	-0,057	0,055
-726,137	800,000	-0,025	-0,070
-725,123	-11,015	-0,141	-0,067
-724,108	735,868	0,049	-0,096
-723,094	49,417	-0,102	-0,069
-722,079	81,793	-0,251	-0,197
-721,064	146,290	0,124	-0,121
-720,050	-190,101	-0,136	-0,001
-719,035	289,850	0,081	0,106
-718,021	-25,586	-0,066	-0,028
-717,006	-14,441	-0,098	-0,046
-715,991	-24,545	-0,117	-0,050
-714,977	-92,538	-0,121	-0,024
-713,962	19,811	-0,025	0,014
-712,948	-200,000	-0,010	-0,112
-711,933	146,215	-0,058	-0,056
-710,918	-142,080	-0,065	-0,005
-709,904	-69,939	-0,125	-0,034
-708,889	332,171	-0,072	-0,100
-707,875	-43,903	0,097	-0,035
-706,860	11,335	-0,100	0,055
-705,845	-121,359	0,083	0,010
-704,831	-43,074	-0,044	0,016
-703,816	800,000	-0,062	-0,173
-702,802	312,800	-0,032	-0,043
-701,787	576,354	-0,046	0,082
-700,772	279,694	-0,016	-0,021
-699,758	230,803	0,079	-0,094
-698,743	-22,740	-0,101	0,044
-697,729	283,575	-0,115	-0,150
-696,714	111,236	-0,151	0,132
-695,699	-96,832	-0,079	-0,015
-694,685	52,932	-0,024	-0,017
-693,670	-200,000	0,013	-0,080
-692,656	800,000	-0,032	-0,072
-691,641	408,668	0,064	-0,098
-690,627	42,833	0,109	-0,071
-689,612	426,052	0,021	0,032
-688,597	-200,000	0,004	0,227
-687,583	95,572	0,068	-0,056
-686,568	111,877	-0,112	0,098
-685,554	41,738	-0,107	0,070
-684,539	800,000	-0,035	0,081
-683,524	627,210	0,124	-0,227
-682,510	800,000	-0,035	-0,070
-681,495	-200,000	-0,014	-0,169
-680,481	-200,000	-0,022	-0,191
-679,466	-200,000	0,012	-0,102
-678,451	-125,490	-0,138	0,015
-677,437	103,846	0,096	-0,081
-676,422	-172,886	0,044	-0,001
-675,408	-200,000	0,019	0,083
-674,393	148,490	0,161	-0,157
-673,378	-61,394	-0,131	0,039
-672,364	13,213	0,041	0,023
-671,349	339,776	0,101	-0,142
-670,335	317,831	-0,042	-0,058
-669,320	-164,001	0,114	-0,004
-668,305	-200,000	-0,004	0,048
-667,291	-15,150	0,082	0,038
-666,276	-45,423	0,029	0,010
-665,262	-200,000	0,011	-0,124
-664,247	82,360	-0,127	-0,099
-663,232	324,486	0,092	-0,127
-662,218	-59,264	-0,064	0,020
-661,203	-76,085	-0,144	-0,037
-660,189	-132,142	-0,025	0,002
-659,174	612,164	-0,039	-0,071
-658,159	402,692	-0,109	-0,166
-657,145	-200,000	0,005	-0,076
-656,130	-90,389	-0,029	0,006
-655,116	250,517	0,075	-0,093
-654,101	800,000	0,050	-0,106
-653,086	399,945	0,115	0,174
-652,072	3,952	-0,080	0,042
-651,057	478,510	0,049	-0,081
-650,043	391,638	0,030	-0,045
-649,028	49,150	0,096	0,065
-648,014	600,883	0,059	-0,107
-646,999	25,897	0,043	0,026
-645,984	146,040	-0,021	0,020
-644,970	288,889	-0,101	0,133
-643,955	800,000	-0,059	-0,136
-642,941	-200,000	0,034	0,158
-641,926	800,000	-0,049	-0,154
-640,911	800,000	0,063	-0,156
-639,897	-67,569	-0,050	-0,014
-638,882	800,000	-0,024	-0,074
-637,868	80,135	-0,051	0,039
-636,853	-200,000	-0,001	-0,058
-635,838	192,449	-0,055	-0,059
-634,824	596,191	-0,032	-0,058
-633,809	-16,155	0,098	0,045
-632,795	126,886	0,109	0,099
-631,780	158,942	0,036	-0,036
-630,765	209,881	0,086	0,098
-629,751	563,392	-0,124	-0,217
-628,736	-125,340	-0,139	0,015
-627,722	-86,999	0,104	-0,023
-626,707	353,749	-0,020	0,029
-625,692	-0,082	-0,135	-0,069
-624,678	-160,411	0,116	-0,004
-623,663	-98,831	0,142	-0,026
-622,649	800,000	0,022	-0,059
-621,634	111,089	-0,094	-0,082
-620,619	224,340	-0,055	-0,065
-619,605	800,000	-0,025	-0,067
-618,590	199,121	0,044	-0,048
-617,576	-119,805	-0,134	-0,017
-616,561	800,000	-0,030	-0,086
-615,546	-8,835	-0,059	0,028
-614,532	800,000	0,006	0,016
-613,517	-200,000	-0,002	0,030
-612,503	800,000	-0,030	0,070
-611,488	38,036	0,025	-0,016
-610,474	168,852	-0,056	-0,057
-609,459	36,249	-0,155	-0,098
-608,444	-200,000	-0,020	-0,077
-607,430	634,307	-0,087	-0,159
-606,415	800,000	-0,096	-0,201
-605,401	800,000	-0,004	0,013
-604,386	32,354	-0,074	-0,046
-603,371	-127,614	-0,091	-0,009
-602,357	252,504	-0,048	-0,059
-601,342	-131,403	0,118	0,011
-600,328	800,000	-0,053	-0,111
-599,313	91,162	-0,094	0,076
-598,298	-91,117	0,075	-0,015
-597,284	152,341	0,032	0,031
-596,269	455,958	0,091	0,146
-595,255	-200,000	-0,018	-0,081
-594,240	-181,458	-0,158	0,002
-593,225	-4,346	0,110	-0,055
-592,211	412,352	-0,036	-0,055
-591,196	-176,683	-0,179	-0,003
-590,182	-200,000	-0,008	-0,104
-589,167	-164,969	0,127	0,004
-588,152	291,032	0,027	-0,035
-587,138	-1,137	-0,160	0,081
-586,123	-39,875	0,082	-0,031
-585,109	800,000	-0,037	-0,087
-584,094	185,423	-0,044	-0,047
-583,079	-64,978	-0,093	-0,027
-582,065	-153,160	0,092	0,005
-581,050	-58,774	-0,124	-0,039
-580,036	138,501	-0,079	0,075
-579,021	800,000	-0,045	0,135
-578,006	-173,751	-0,061	-0,001
-576,992	357,346	-0,035	0,050
-575,977	-70,263	0,122	0,033
-574,963	99,534	0,090	0,075
-573,948	-69,881	-0,034	0,009
-572,934	-200,000	-0,010	0,074
-571,919	11,899	-0,058	-0,032
-570,904	-200,000	-0,006	-0,031
-569,890	-188,737	-0,136	-0,001
-568,875	-116,065	0,189	0,025
-567,861	-91,245	0,115	0,023
-566,846	128,629	-0,024	-0,022
-565,831	-33,622	0,054	-0,021
-564,817	-66,762	0,024	-0,007
-563,802	159,001	-0,117	-0,118
-562,788	3,470	0,005	-0,002
-561,773	800,000	0,005	-0,014
-560,758	-200,000	0,001	-0,069
-559,744	-43,642	0,078	0,028
-558,729	61,723	-0,040	0,029
-557,715	237,551	0,036	0,042
-556,700	-200,000	-0,029	0,149
-555,685	294,886	-0,059	-0,077
-554,671	-95,565	-0,102	0,020
-553,656	28,828	0,021	0,013
-552,642	577,572	0,032	0,057
-551,627	-81,310	0,104	0,024
-550,612	-103,826	-0,093	-0,015
-549,598	-109,076	-0,117	-0,018
-548,583	-107,258	-0,066	0,010
-547,569	-200,000	-0,001	0,068
-546,554	-75,239	0,038	-0,010
-545,539	-156,341	0,174	0,008
-544,525	71,447	0,042	-0,032
-543,510	800,000	0,068	0,155
-542,496	-200,000	-0,020	-0,128
-541,481	395,612	-0,042	-0,063
-540,466	-134,006	0,049	0,004
-539,452	-122,391	0,092	0,011
-538,437	-200,000	-0,005	0,230
-537,423	800,000	-0,032	0,070
-536,408	578,822	0,065	-0,114
-535,393	-200,000	-0,017	0,078
-534,379	-200,000	0,004	0,014
-533,364	71,015	-0,151	-0,112
-532,350	214,102	-0,036	0,041
-531,335	152,571	-0,054	0,053
-530,321	21,464	0,099	0,058
-529,306	800,000	-0,049	-0,137
-528,291	-200,000	0,019	-0,174
-527,277	-200,000	0,012	-0,055
-526,262	-200,000	-0,006	-0,032
-525,248	10,537	0,109	-0,059
-524,233	800,000	0,049	0,101
-523,218	-200,000	-0,024	0,115
-522,204	-148,409	-0,061	-0,004
-521,189	187,534	0,082	-0,088
-520,175	553,953	-0,048	-0,084
-519,160	-115,077	-0,046	0,006
-518,145	-200,000	0,009	-0,036
-517,131	-200,000	0,015	0,054
-516,116	-200,000	0,005	0,049
-515,102	-154,869	-0,033	0,002
-514,087	-200,000	-0,005	-0,097
-513,072	-200,000	0,005	-0,113
-512,058	69,595	-0,042	0,031
-511,043	165,558	0,062	0,063
-510,029	-200,000	-0,034	0,130
-509,014	-99,316	-0,104	0,019
-507,999	800,000	0,042	0,114
-506,985	-200,000	0,007	0,063
-505,970	-200,000	-0,019	-0,080
-504,956	800,000	0,029	0,063
-503,941	278,009	0,010	-0,013
-502,926	-183,957	0,020	0,000
-501,912	219,978	-0,013	-0,015
-500,897	-200,000	0,037	0,177
-499,883	-200,000	-0,007	0,023
-498,868	800,000	-0,035	-0,089
-497,853	-200,000	0,024	0,079
-496,839	36,113	-0,102	0,064
-495,824	-200,000	0,086	0,000
-494,810	30,083	-0,071	-0,043
-493,795	-128,976	-0,066	0,007
-492,781	115,268	-0,039	-0,034
-491,766	-140,671	-0,103	-0,008
-490,751	-72,026	-0,099	-0,026
-489,737	126,546	-0,050	0,045
-488,722	-91,507	-0,074	0,015
-487,708	800,000	-0,035	-0,083
-486,693	645,875	-0,046	0,085
-485,678	-200,000	-0,050	-0,168
-484,664	15,370	-0,028	-0,016
-483,649	-149,571	0,095	-0,005
-482,635	-27,219	0,119	-0,050
-481,620	88,460	0,027	0,021
-480,605	-138,367	0,115	-0,009
-479,591	800,000	0,020	-0,056
-478,576	-162,104	-0,119	-0,004
-477,562	414,165	0,057	-0,088
-476,547	-18,439	0,102	-0,046
-475,532	430,997	-0,033	-0,051
-474,518	-200,000	0,027	-0,120
-473,503	-88,633	0,126	0,027
-472,489	800,000	0,041	0,123
-471,474	-191,731	0,140	-0,001
-470,459	112,454	-0,069	-0,060
-469,445	-19,198	-0,040	-0,018
-468,430	-84,666	-0,141	0,032
-467,416	119,590	-0,020	-0,017
-466,401	149,980	-0,110	0,107
-465,386	79,007	0,109	0,084
-464,372	-90,108	0,069	-0,014
-463,357	-200,000	0,026	-0,086
-462,343	-200,000	0,031	-0,102
-461,328	410,050	-0,046	-0,070
-460,313	-200,000	0,005	0,088
-459,299	-112,891	0,051	0,007
-458,284	-200,000	0,042	0,211
-457,270	-200,000	0,017	-0,115
-456,255	-200,000	-0,001	-0,090
-455,241	522,055	0,049	-0,082
-454,226	-200,000	-0,035	-0,142
-453,211	53,208	0,038	0,026
-452,197	-74,977	0,038	0,010
-451,182	386,369	-0,038	0,056
-450,168	-3,713	0,111	-0,055
-449,153	87,881	-0,111	0,088
-448,138	122,690	-0,051	0,045
-447,124	378,132	-0,108	0,159
-446,109	-65,583	-0,009	-0,003
-445,095	-49,162	0,023	0,008
-444,080	-36,885	-0,056	0,022
-443,065	-102,251	0,087	0,015
-442,051	413,755	0,065	-0,100
-441,036	-91,447	0,119	-0,024
-440,022	-53,139	-0,156	-0,051
-439,007	-84,133	0,123	0,028
-437,992	-200,000	-0,002	0,115
-436,978	330,619	0,069	0,096
-435,963	669,020	-0,037	0,069
-434,949	96,155	-0,006	-0,005
-433,934	-60,581	-0,076	0,023
-432,919	800,000	-0,052	0,111
-431,905	800,000	0,024	0,072
-430,890	-50,903	-0,049	-0,017
-429,876	-37,922	0,068	-0,026
-428,861	141,053	-0,055	0,052
-427,846	800,000	-0,014	-0,030
-426,832	-52,664	-0,065	0,021
-425,817	-200,000	-0,006	-0,080
-424,803	-37,314	-0,074	0,028
-423,788	-49,003	-0,144	-0,049
-422,773	-70,734	-0,067	0,018
-421,759	29,447	-0,062	0,037
-420,744	11,528	0,075	-0,041
-419,730	-125,514	-0,077	0,008
-418,715	-144,836	-0,080	0,005
-417,701	-200,000	-0,001	-0,003
-416,686	-20,556	0,075	-0,033
-415,671	-200,000	0,040	0,156
-414,657	800,000	-0,037	-0,103
-413,642	-200,000	0,010	-0,054
-412,628	29,318	-0,079	-0,048
-411,613	800,000	0,028	0,070
-410,598	-94,750	-0,116	-0,022
-409,584	-173,888	0,111	0,002
-408,569	-84,263	-0,095	0,021
-407,555	326,994	-0,080	0,110
-406,540	753,648	0,079	0,153
-405,525	-200,000	0,011	0,041
-404,511	800,000	-0,028	0,064
-403,496	-166,300	0,147	0,004
-402,482	717,957	0,060	0,115
-401,467	-39,021	-0,056	0,021
-400,452	800,000	0,013	-0,040
-399,438	-109,834	-0,071	0,011
-398,423	-200,000	-0,031	-0,110
-397,409	151,846	-0,027	-0,026
-396,394	-200,000	-0,001	0,053
-395,379	-97,603	0,051	0,009
-394,365	90,983	-0,103	0,082
-393,350	29,362	-0,019	-0,011
-392,336	-140,665	0,161	-0,012
-391,321	6,508	0,029	-0,015
-390,306	-50,388	0,056	0,019
-389,292	53,380	-0,082	-0,056
-388,277	800,000	0,039	-0,094
-387,263	-142,573	0,098	-0,007
-386,248	800,000	0,052	0,135
-385,233	497,198	0,027	-0,045
-384,219	-39,170	0,081	0,030
-383,204	238,278	-0,058	-0,069
-382,190	-200,000	-0,027	0,132
-381,175	315,375	0,097	0,131
-380,160	-200,000	-0,009	0,102
-379,146	-42,194	-0,146	0,053
-378,131	-49,106	0,048	0,016
-377,117	-200,000	-0,030	0,108
-376,102	-200,000	-0,003	-0,124
-375,088	269,403	-0,107	-0,135
-374,073	-200,000	-0,001	-0,176
-373,058	-200,000	-0,003	-0,171
-372,044	138,945	0,088	-0,083
-371,029	-200,000	-0,041	0,178
-370,015	-111,000	0,075	0,011
-369,000	800,000	0,024	-0,070
-367,985	127,289	0,098	0,088
-366,971	-200,000	-0,048	-0,228
-365,956	734,139	0,039	-0,075
-364,942	-200,000	0,008	0,037
-363,927	17,897	0,041	0,023
-362,912	-200,000	0,007	-0,027
-361,898	-200,000	-0,042	-0,159
-360,883	320,425	0,016	0,022
-359,869	-200,000	-0,001	-0,044
-358,854	-200,000	0,009	0,085
-357,839	-111,429	0,037	-0,005
-356,825	-21,221	0,058	0,025
-355,810	-200,000	0,017	-0,085
-354,796	366,899	0,087	-0,126
-353,781	-17,500	0,103	-0,046
-352,766	159,025	-0,075	-0,075
-351,752	324,966	-0,021	0,028
-350,737	-200,000	0,020	-0,070
-349,723	12,174	-0,031	0,017
-348,708	-200,000	0,010	0,046
-347,693	800,000	0,035	0,078
-346,679	-200,000	-0,023	0,096
-345,664	-10,468	0,067	-0,032
-344,650	-34,221	-0,081	-0,031
-343,635	70,490	0,107	0,079
-342,620	-59,534	-0,114	0,035
-341,606	-200,000	-0,002	0,095
-340,591	140,323	0,027	0,026
-339,577	50,691	0,076	0,051
-338,562	-200,000	-0,039	-0,145
-337,548	711,701	-0,026	0,050
-336,533	723,053	0,040	-0,076
-335,518	800,000	0,051	0,150
-334,504	-200,000	-0,022	0,119
-333,489	-105,552	-0,124	-0,020
-332,475	94,968	-0,114	-0,092
-331,460	-38,995	0,146	-0,055
-330,445	-154,734	0,137	0,006
-329,431	-104,359	0,058	0,010
-328,416	-35,819	0,071	0,027
-327,402	37,722	0,059	0,037
-326,387	-33,229	0,025	0,010
-325,372	-200,000	-0,043	-0,169
-324,358	474,448	-0,061	-0,099
-323,343	800,000	0,022	0,053
-322,329	228,636	0,042	-0,049
-321,314	143,335	0,072	-0,068
-320,299	411,500	0,092	0,140
-319,285	88,624	-0,025	-0,019
-318,270	565,622	-0,093	-0,161
-317,256	-200,000	-0,014	-0,145
-316,241	800,000	0,067	-0,148
-315,226	-5,722	0,070	0,034
-314,212	348,798	0,087	0,123
-313,197	72,215	0,124	0,092
-312,183	54,006	0,126	0,086
-311,168	34,949	-0,087	-0,054
-310,153	-200,000	0,009	-0,083
-309,139	800,000	0,039	-0,078
-308,124	238,915	0,044	-0,053
-307,110	-200,000	0,032	0,179
-306,095	-150,206	0,099	-0,005
-305,080	321,694	-0,122	0,166
-304,066	25,432	-0,079	0,046
-303,051	59,968	-0,058	-0,041
-302,037	12,885	-0,093	-0,051
-301,022	-200,000	0,002	-0,060
-300,008	33,042	0,124	-0,077
-298,993	-92,794	0,138	-0,027
-297,978	-200,000	0,012	0,148
-296,964	-200,000	-0,016	-0,064
-295,949	-29,783	0,124	-0,050
-294,935	312,342	-0,026	-0,034
-293,920	62,001	-0,042	0,030
-292,905	170,569	0,086	0,088
-291,891	32,800	0,013	0,008
-290,876	-90,501	0,013	-0,003
-289,862	-161,920	0,088	-0,003
-288,847	10,735	-0,102	-0,055
-287,832	45,013	0,069	-0,045
-286,818	-36,583	0,019	0,007
-285,803	671,847	-0,012	-0,022
-284,789	-33,672	-0,052	-0,020
-283,774	800,000	-0,034	0,104
-282,759	-94,742	-0,116	-0,022
-281,745	67,438	-0,036	0,026
-280,730	8,351	0,002	-0,001
-279,716	-200,000	0,006	0,049
-278,701	306,569	-0,077	0,102
-277,686	800,000	0,022	0,045
-276,672	800,000	0,044	0,130
-275,657	-200,000	-0,027	-0,118
-274,643	-200,000	0,021	-0,078
-273,628	-200,000	-0,010	-0,063
-272,613	-106,599	-0,051	-0,008
-271,599	-200,000	0,003	0,076
-270,584	-200,000	0,028	0,239
-269,570	117,093	0,068	0,060
-268,555	113,057	-0,076	-0,065
-267,540	417,955	0,008	-0,012
-266,526	-2,296	0,088	0,044
-265,511	800,000	-0,042	0,087
-264,497	78,273	-0,034	0,026
-263,482	-200,000	0,024	0,077
-262,467	278,115	0,104	0,131
-261,453	-0,099	0,076	0,038
-260,438	-114,771	-0,038	-0,005
-259,424	800,000	-0,022	-0,047
-258,409	-191,902	-0,094	-0,001
-257,395	-200,000	0,052	0,167
-256,380	800,000	0,022	0,067
-255,365	157,169	0,093	0,091
-254,351	38,041	0,027	0,017
-253,336	2,731	-0,102	0,053
-252,322	-100,566	-0,043	0,007
-251,307	9,469	-0,021	0,011
-250,292	800,000	-0,051	-0,119
-249,278	-40,759	0,033	0,012
-248,263	-200,000	0,025	0,105
-247,249	88,177	-0,048	0,038
-246,234	-200,000	0,002	-0,032
-245,219	-127,800	-0,096	-0,010
-244,205	-200,000	0,031	-0,112
-243,190	800,000	0,060	0,162
-242,176	-200,000	-0,000	-0,003
-241,161	800,000	0,044	-0,095
-240,146	69,555	-0,041	0,030
-239,132	-200,000	-0,021	-0,068
-238,117	800,000	0,064	-0,139
-237,103	-12,545	-0,116	0,053
-236,088	800,000	0,027	-0,068
-235,073	247,161	0,082	0,098
-234,059	-25,200	0,078	-0,033
-233,044	-79,247	0,111	0,026
-232,030	-125,667	-0,112	0,012
-231,015	-200,000	0,001	-0,095
-230,000	800,000	0,014	-0,041
-228,986	153,370	-0,021	-0,020
-227,971	-2,407	-0,165	0,082
-226,957	41,487	0,150	-0,096
-225,942	-147,881	0,119	0,007
-224,927	-200,000	0,005	-0,068
-223,913	800,000	-0,064	-0,144
-222,898	199,513	-0,060	-0,065
-221,884	55,875	0,027	0,019
-220,869	-200,000	0,005	0,091
-219,855	800,000	-0,057	0,120
-218,840	-52,587	0,061	0,020
-217,825	221,231	0,053	0,060
-216,811	-105,720	0,054	-0,009
-215,796	-187,537	0,046	-0,000
-214,782	-200,000	-0,003	-0,059
-213,767	-200,000	0,015	0,053
-212,752	-65,361	0,102	-0,029
-211,738	38,040	0,017	-0,010
-210,723	40,900	0,091	0,058
-209,709	-139,372	0,046	0,003
-208,694	445,941	-0,098	0,154
-207,679	-57,982	-0,161	0,050
-206,665	-122,928	-0,010	0,001
-205,650	151,988	0,080	0,078
-204,636	148,142	-0,093	-0,089
-203,621	376,745	-0,050	-0,073
-202,606	-200,000	0,002	-0,024
-201,592	800,000	0,052	-0,135
-200,577	588,241	-0,081	-0,141
-199,563	-200,000	-0,001	-0,052
-198,548	365,338	0,081	0,116
-197,533	-200,000	0,007	0,128
-196,519	77,694	0,083	0,062
-195,504	102,383	0,060	0,050
-194,490	-83,259	-0,159	0,036
-193,475	-200,000	0,016	0,077
-192,460	-11,402	-0,070	0,033
-191,446	-180,210	0,045	0,001
-190,431	-124,027	0,150	-0,017
-189,417	-7,858	-0,069	-0,033
-188,402	222,028	-0,059	0,068
-187,387	293,227	-0,076	0,099
-186,373	-39,377	-0,072	0,027
-185,358	484,126	-0,040	-0,065
-184,344	19,970	-0,105	-0,060
-183,329	15,663	0,061	0,034
-182,315	13,725	-0,123	-0,068
-181,300	34,448	0,111	-0,068
-180,285	306,828	0,059	-0,079
-179,271	-46,496	0,087	0,030
-178,256	-200,000	-0,003	0,023
-177,242	-200,000	0,043	0,143
-176,227	63,894	0,160	0,114
-175,212	-55,270	-0,087	0,028
-174,198	-200,000	0,004	-0,039
-173,183	12,655	-0,078	-0,042
-172,169	514,924	0,044	-0,072
-171,154	-200,000	-0,006	0,087
-170,139	-200,000	0,018	0,122
-169,125	800,000	-0,018	-0,049
-168,110	-200,000	0,015	0,050
-167,096	800,000	0,040	0,099
-166,081	-200,000	-0,023	-0,120
-165,066	67,776	0,066	-0,047
-164,052	800,000	-0,026	0,076
-163,037	269,546	0,042	-0,052
-162,023	45,148	-0,081	-0,053
-161,008	-112,643	0,084	-0,012
-159,993	198,852	-0,074	0,081
-158,979	298,498	-0,113	-0,147
-157,964	-36,287	0,069	-0,026
-156,950	-10,445	-0,107	0,050
-155,935	28,271	0,032	-0,019
-154,920	54,988	-0,042	0,029
-153,906	-101,088	0,109	-0,019
-152,891	111,077	-0,081	0,069
-151,877	-200,000	0,008	0,096
-150,862	-154,685	-0,203	0,009
-149,847	-200,000	-0,010	-0,110
-148,833	-200,000	-0,034	-0,109
-147,818	-101,255	-0,101	-0,017
-146,804	-41,988	0,094	0,034
-145,789	29,741	-0,108	0,065
-144,775	-85,293	-0,160	-0,035
-143,760	-200,000	-0,006	-0,094
-142,745	-92,808	-0,044	0,009
-141,731	436,403	0,040	-0,063
-140,716	305,908	-0,032	-0,042
-139,702	-55,289	0,055	-0,017
-138,687	102,724	0,009	-0,007
-137,672	800,000	-0,025	-0,059
-136,658	-43,784	-0,093	-0,033
-135,643	233,399	0,060	-0,070
-134,629	-152,147	0,126	-0,006
-133,614	63,085	0,091	-0,064
-132,599	414,258	-0,013	0,019
-131,585	-200,000	-0,021	-0,087
-130,570	136,112	0,025	0,023
-129,556	393,184	-0,146	-0,216
-128,541	-200,000	0,005	-0,246
-127,526	180,065	-0,043	0,045
-126,512	158,109	0,080	0,078
-125,497	-128,547	0,224	0,022
-124,483	-92,858	-0,136	-0,027
-123,468	-127,637	0,185	-0,019
-122,453	-165,313	-0,039	-0,001
-121,439	-200,000	-0,008	-0,110
-120,424	259,261	-0,064	-0,079
-119,410	800,000	0,018	0,038
-118,395	800,000	0,026	-0,080
-117,380	23,659	-0,063	-0,036
-116,366	-200,000	0,004	0,024
-115,351	-200,000	-0,005	0,036
-114,337	354,226	-0,020	-0,028
-113,322	88,133	0,074	-0,058
-112,307	-59,934	0,066	0,020
-111,293	259,259	-0,061	0,075
-110,278	112,462	0,032	0,027
-109,264	548,984	0,085	0,144
-108,249	69,304	0,110	-0,080
-107,234	800,000	-0,042	-0,118
-106,220	182,729	-0,147	-0,153
-105,205	-43,116	-0,049	0,018
-104,191	454,502	-0,045	0,071
-103,176	229,148	0,040	0,046
-102,162	652,793	-0,031	0,057
-101,147	140,522	-0,076	-0,071
-100,132	2,438	-0,080	-0,041
-99,118	-47,527	0,087	0,030
-98,103	-20,513	-0,149	-0,064
-97,089	119,291	0,101	0,088
-96,074	167,577	0,029	0,029
-95,059	31,982	0,066	0,040
-94,045	-20,972	-0,144	0,062
-93,030	-146,995	0,096	-0,006
-92,016	-62,687	0,075	-0,022
-91,001	67,109	0,035	-0,025
-89,986	163,766	-0,023	0,023
-88,972	800,000	-0,053	0,162
-87,957	-200,000	-0,018	0,085
-86,943	-200,000	0,000	0,026
-85,928	90,066	-0,121	-0,095
-84,913	-200,000	-0,005	-0,037
-83,899	-158,565	-0,092	0,004
-82,884	0,054	0,189	0,095
-81,870	-200,000	0,021	-0,094
-80,855	81,639	0,069	-0,053
-79,840	-200,000	0,013	0,126
-78,826	660,531	0,048	-0,088
-77,811	-200,000	-0,017	0,110
-76,797	736,296	-0,052	-0,100
-75,782	-18,153	0,074	0,033
-74,767	-153,714	0,091	0,004
-73,753	800,000	-0,052	0,105
-72,738	725,820	0,024	-0,045
-71,724	-200,000	-0,030	-0,098
-70,709	800,000	-0,021	-0,050
-69,694	-0,536	-0,032	-0,016
-68,680	82,404	-0,070	0,053
-67,665	800,000	-0,087	0,211
-66,651	800,000	0,064	0,142
-65,636	-62,360	0,127	-0,037
-64,622	-81,908	-0,152	0,035
-63,607	-56,480	0,144	-0,045
-62,592	-200,000	0,013	-0,062
-61,578	731,876	-0,022	-0,042
-60,563	-200,000	-0,044	0,215
-59,549	281,389	-0,044	0,056
-58,534	64,605	-2,203	-1,565
-57,519	566,680	-1,051	-1,806
-56,505	-200,000	-0,520	-4,415
-55,490	800,000	0,883	1,782
-54,476	800,000	5,229	11,522
-53,461	-200,000	22,592	347,906
-52,446	800,000	757,746	2286,283
-51,432	530,052	1642,058	2746,385
-50,417	67,374	1640,327	1179,092
-49,403	15,430	1518,178	838,156
-48,388	9,706	1444,552	770,045
-47,373	19,314	1437,397	811,935
-46,359	13,199	1425,843	776,548
-45,344	7,983	1421,969	749,763
-44,330	7,897	1420,066	748,323
-43,315	7,873	1418,094	747,137
-42,300	7,881	1416,390	746,250
-41,286	7,917	1415,004	745,660
-40,271	7,908	1414,001	745,058
-39,257	7,930	1412,681	744,439
-38,242	7,956	1411,359	743,833
-37,227	7,898	1410,584	743,122
-36,213	7,917	1409,024	742,362
-35,198	7,936	1407,926	741,842
-34,184	7,924	1406,929	741,230
-33,169	7,821	1405,788	740,118
-32,154	7,928	1404,784	740,061
-31,140	7,858	1403,584	739,073
-30,125	7,876	1402,431	738,519
-29,111	7,931	1401,027	738,008
-28,096	7,888	1400,059	737,268
-27,082	7,853	1398,775	736,400
-26,067	7,777	1398,035	735,626
-25,052	7,867	1396,678	735,304
-24,038	7,879	1395,672	734,800
-23,023	7,854	1394,864	734,231
-22,009	7,816	1393,745	733,435
-20,994	7,802	1393,007	732,954
-19,979	7,796	1391,918	732,324
-18,965	7,748	1391,044	731,609
-17,950	7,744	1390,032	731,031
-16,936	7,749	1389,070	730,521
-15,921	7,731	1388,284	729,995
-14,906	7,742	1387,418	729,560
-13,892	7,776	1386,125	729,007
-12,877	7,766	1385,473	728,590
-11,863	7,703	1384,892	727,967
-10,848	7,712	1383,809	727,410
-9,833	7,678	1382,940	726,767
-8,819	7,655	1382,009	726,144
-7,804	7,615	1381,109	725,457
-6,790	7,681	1380,011	725,153
-5,775	7,628	1379,159	724,434
-4,760	7,620	1378,106	723,819
-3,746	7,653	1377,187	723,454
-2,731	7,641	1376,375	722,945
-1,717	7,617	1375,515	722,355
-0,702	7,656	1373,794	721,602
0,313	11,652	1283,520	692,259
1,327	27,219	675,701	399,055
2,342	42,401	116,168	74,310
3,356	-2,880	16,536	8,114
4,371	-0,081	3,960	1,980
5,386	-23,642	1,328	0,559
6,400	800,000	0,267	0,547
7,415	-200,000	-0,026	-0,253
8,429	111,832	-0,263	-0,223
9,444	0,119	-0,211	-0,105
10,459	5,432	-0,344	-0,178
11,473	-3,723	-0,274	-0,133
12,488	29,872	-0,275	-0,165
13,502	-20,630	-0,401	-0,173
14,517	73,215	-0,289	-0,213
15,531	-24,983	-0,417	-0,173
16,546	-38,576	-0,455	-0,168
17,561	168,318	-0,295	-0,296
18,575	-2,665	-0,239	-0,117
19,590	66,372	-0,167	-0,119
20,604	9,120	-0,251	-0,133
21,619	39,018	-0,446	-0,280
22,634	26,952	-0,447	-0,263
23,648	152,359	-0,367	-0,352
24,663	126,859	-0,285	-0,254
25,677	-28,440	-0,480	-0,194
26,692	282,896	-0,221	-0,279
27,707	107,556	-0,336	-0,282
28,721	19,102	-0,453	-0,255
29,736	-21,701	-0,491	-0,209
30,750	25,594	-0,364	-0,212
31,765	9,845	-0,458	-0,244
32,780	58,303	-0,207	-0,143
33,794	84,527	-0,303	-0,233
34,809	150,186	-0,306	-0,292
35,823	26,308	-0,373	-0,218
36,838	42,566	-0,438	-0,280
37,853	175,028	-0,375	-0,382
38,867	132,971	-0,379	-0,344
39,882	-22,387	-0,495	-0,210
40,896	161,486	-0,241	-0,237
41,911	32,575	-0,247	-0,149
42,926	-145,323	-0,304	-0,019
43,940	-33,828	-0,271	-0,104
44,955	-34,080	-0,383	-0,147
45,969	110,063	-0,370	-0,312
46,984	343,119	-0,285	-0,392
47,999	165,394	-0,241	-0,239
49,013	84,789	-0,298	-0,229
50,028	17,946	-0,378	-0,211
51,042	48,440	-0,408	-0,267
52,057	173,898	-0,276	-0,280
53,071	267,375	-0,330	-0,407
54,086	380,999	-0,197	-0,284
55,101	338,884	-0,261	-0,358
56,115	-96,447	-0,364	-0,067
57,130	62,050	-0,282	-0,197
58,144	-6,188	-0,400	-0,191
59,159	87,931	-0,222	-0,172
60,174	25,280	-0,366	-0,213
61,188	64,696	-0,386	-0,273
62,203	48,144	-0,320	-0,210
63,217	-14,422	-0,461	-0,207
64,232	72,732	-0,237	-0,173
65,247	76,693	-0,292	-0,217
66,261	99,416	-0,292	-0,237
67,276	22,770	-0,313	-0,179
68,290	-77,702	-0,547	-0,132
69,305	262,850	-0,190	-0,232
70,320	-20,653	-0,361	-0,155
71,334	-132,241	-0,198	-0,018
72,349	42,820	-0,280	-0,179
73,363	3,839	-0,335	-0,171
74,378	55,381	-0,270	-0,183
75,393	161,113	-0,266	-0,261
76,407	104,145	-0,311	-0,256
77,422	123,234	-0,249	-0,218
78,436	-128,340	-0,221	0,022
79,451	119,006	-0,243	-0,210
80,466	474,406	-0,226	-0,357
81,480	30,276	-0,307	-0,183
82,495	114,238	-0,283	-0,241
83,509	-24,135	-0,372	-0,155
84,524	73,608	-0,199	-0,145
85,539	119,018	-0,246	-0,213
86,553	-81,230	-0,330	-0,076
87,568	-15,972	-0,330	-0,146
88,582	56,558	-0,367	-0,249
89,597	-53,621	-0,277	-0,088
90,611	111,818	-0,208	-0,175
91,626	317,834	-0,204	-0,271
92,641	78,805	-0,227	-0,170
93,655	0,537	-0,295	-0,147
94,670	419,563	-0,138	-0,208
95,684	217,012	-0,321	-0,358
96,699	113,259	-0,310	-0,263
97,714	-200,000	-0,065	-0,269
98,728	63,914	-0,183	-0,129
99,743	55,785	-0,312	-0,211
100,757	-25,566	-0,380	-0,156
101,772	26,019	-0,317	-0,184
102,787	218,573	-0,160	-0,179
103,801	125,955	-0,274	-0,242
104,816	-35,147	-0,406	-0,154
105,830	-130,111	-0,188	0,018
106,845	-28,680	-0,207	-0,083
107,860	24,552	-0,216	-0,125
108,874	14,133	-0,387	-0,210
109,889	149,906	-0,264	-0,250
110,903	36,111	-0,331	-0,203
111,918	191,762	-0,188	-0,198
112,933	76,676	-0,243	-0,180
113,947	47,176	-0,271	-0,176
114,962	-16,651	-0,161	-0,071
115,976	760,170	-0,081	-0,155
116,991	33,857	-0,228	-0,138
118,006	6,354	-0,224	-0,116
119,020	46,190	-0,333	-0,215
120,035	89,652	-0,273	-0,213
121,049	-103,370	-0,260	-0,042
122,064	189,459	-0,222	-0,232
123,079	255,229	-0,191	-0,229
124,093	-10,318	-0,330	-0,152
125,108	162,570	-0,219	-0,215
126,122	29,681	-0,240	-0,142
127,137	34,549	-0,253	-0,154
128,151	722,471	-0,070	-0,130
129,166	162,509	-0,222	-0,217
130,181	91,118	-0,208	-0,163
131,195	104,078	-0,186	-0,152
132,210	32,356	-0,184	-0,111
133,224	-58,857	-0,266	-0,080
134,239	103,645	-0,213	-0,174
135,254	57,329	-0,236	-0,160
136,268	-154,980	-0,125	0,006
137,283	19,251	-0,278	-0,155
138,297	-114,867	-0,349	-0,046
139,312	14,774	-0,336	-0,182
140,327	40,897	-0,215	-0,135
141,341	-7,807	-0,200	-0,094
142,356	3,856	-0,232	-0,117
143,370	-60,537	-0,274	-0,081
144,385	264,971	-0,244	-0,296
145,400	77,118	-0,277	-0,204
146,414	98,802	-0,249	-0,200
147,429	-115,796	-0,266	-0,034
148,443	495,825	-0,174	-0,279
149,458	-33,729	-0,262	-0,100
150,473	299,708	-0,193	-0,248
151,487	66,088	-0,288	-0,203
152,502	157,856	-0,202	-0,195
153,516	37,901	-0,315	-0,194
154,531	113,934	-0,239	-0,202
155,546	-157,007	-0,244	0,010
156,560	-62,104	-0,088	0,026
157,575	-60,815	-0,195	-0,057
158,589	369,954	-0,205	-0,289
159,604	129,226	-0,273	-0,242
160,619	97,273	-0,329	-0,263
161,633	19,571	-0,224	-0,125
162,648	800,000	-0,116	-0,249
163,662	-7,823	-0,173	-0,081
164,677	96,659	-0,212	-0,169
165,692	2,909	-0,247	-0,124
166,706	13,724	-0,213	-0,115
167,721	70,524	-0,358	-0,257
168,735	337,766	-0,197	-0,266
169,750	17,449	-0,196	-0,108
170,764	57,191	-0,178	-0,120
171,779	-118,509	-0,100	0,012
172,794	76,066	-0,250	-0,183
173,808	136,420	-0,080	-0,072
174,823	275,362	-0,157	-0,194
175,837	-43,554	-0,279	-0,097
176,852	57,353	-0,121	-0,082
177,867	310,581	-0,201	-0,262
178,881	-42,175	-0,209	-0,074
179,896	26,250	-0,152	-0,088
180,910	-103,374	-0,240	-0,039
181,925	643,705	-0,192	-0,341
182,940	143,091	-0,174	-0,161
183,954	-13,038	-0,238	-0,107
184,969	68,651	-0,226	-0,160
185,983	-73,737	-0,098	-0,025
186,998	-168,179	-0,217	-0,006
188,013	63,425	-0,175	-0,121
189,027	426,545	-0,124	-0,187
190,042	85,535	-0,235	-0,179
191,056	327,710	-0,187	-0,250
192,071	-56,393	-0,242	-0,074
193,086	82,858	-0,177	-0,134
194,100	133,589	-0,155	-0,139
195,115	65,049	-0,166	-0,116
196,129	0,357	-0,188	-0,093
197,144	216,473	-0,187	-0,206
198,159	543,299	-0,201	-0,334
199,173	-63,434	-0,374	-0,106
200,188	-20,665	-0,089	0,038
201,202	224,458	-0,143	-0,160
202,217	49,253	-0,205	-0,133
203,232	800,000	-0,095	-0,215
204,246	110,057	-0,259	-0,215
205,261	568,901	-0,151	-0,256
206,275	-70,757	-0,266	0,069
207,290	595,568	-0,092	-0,159
208,304	-85,266	-0,121	0,026
209,319	800,000	-0,084	-0,201
210,334	97,784	-0,137	-0,109
211,348	6,537	-0,332	-0,170
212,363	38,174	-0,284	-0,174
213,377	-46,109	-0,320	-0,108
214,392	-79,208	-0,228	-0,053
215,407	-200,000	-0,019	-0,189
216,421	-76,222	-0,173	-0,042
217,436	101,221	-0,271	-0,218
218,450	184,971	-0,094	-0,097
219,465	168,062	-0,212	-0,208
220,480	344,819	-0,122	-0,166
221,494	-29,638	-0,204	-0,080
222,509	-5,259	-0,130	0,061
223,523	800,000	-0,017	-0,050
224,538	82,812	-0,297	-0,223
225,553	274,803	-0,240	-0,295
226,567	5,681	-0,146	-0,074
227,582	161,770	-0,147	-0,143
228,596	-6,808	-0,115	-0,054
229,611	-93,344	-0,161	-0,031
230,626	147,280	-0,063	-0,059
231,640	31,111	-0,227	-0,134
232,655	336,296	-0,155	-0,209
233,669	58,680	-0,145	-0,098
234,684	10,282	-0,284	-0,149
235,699	516,252	-0,060	-0,098
236,713	157,907	-0,130	-0,125
237,728	257,634	-0,053	-0,063
238,742	-101,625	-0,283	-0,047
239,757	429,815	-0,126	-0,188
240,772	138,963	-0,147	-0,133
241,786	302,169	-0,154	-0,197
242,801	328,776	-0,120	-0,159
243,815	-200,000	-0,021	-0,123
244,830	249,432	-0,210	-0,246
245,844	524,834	-0,108	-0,176
246,859	-29,691	-0,269	-0,105
247,874	-45,346	-0,259	-0,088
248,888	140,035	-0,194	-0,176
249,903	153,173	-0,130	-0,123
250,917	40,190	-0,190	-0,118
251,932	-32,798	-0,100	-0,038
252,947	5,886	-0,085	-0,043
253,961	52,475	-0,200	-0,132
254,976	160,128	-0,139	-0,134
255,990	35,938	-0,165	-0,100
257,005	184,799	-0,139	-0,142
258,020	41,428	-0,055	0,034
259,034	224,757	-0,072	0,081
260,049	79,534	-0,161	-0,119
261,063	11,484	-0,169	-0,089
262,078	800,000	-0,081	-0,178
263,093	523,283	-0,117	-0,190
264,107	792,069	-0,131	-0,250
265,122	625,130	-0,086	-0,150
266,136	-200,000	0,024	-0,156
267,151	-61,383	-0,172	-0,049
268,166	90,804	-0,200	-0,154
269,180	133,215	-0,204	-0,182
270,195	313,355	-0,207	-0,268
271,209	147,525	-0,133	-0,123
272,224	74,138	-0,093	-0,067
273,239	22,662	-0,175	-0,098
274,253	-80,156	-0,150	-0,034
275,268	0,275	-0,238	-0,116
276,282	94,022	-0,197	-0,153
277,297	22,623	-0,097	-0,055
278,312	144,210	-0,094	-0,087
279,326	88,243	-0,077	0,059
280,341	65,206	-0,102	0,071
281,355	260,463	-0,157	-0,187
282,370	800,000	-0,067	-0,136
283,384	408,996	-0,128	-0,187
284,399	226,373	-0,148	-0,166
285,414	-59,086	-0,172	-0,051
286,428	73,373	-0,136	-0,098
287,443	-129,910	-0,089	-0,008
288,457	7,932	-0,188	-0,097
289,472	21,905	-0,309	-0,173
290,487	-42,180	-0,225	-0,078
291,501	239,675	-0,160	-0,183
292,516	-50,708	-0,212	-0,068
293,530	47,380	-0,235	-0,150
294,545	117,976	-0,171	-0,145
295,560	89,988	-0,103	-0,079
296,574	61,962	-0,111	-0,076
297,589	23,288	-0,159	-0,090
298,603	-22,683	-0,144	-0,059
299,618	800,000	-0,078	-0,195
300,633	-200,000	0,000	-0,060
301,647	800,000	-0,072	-0,187
302,662	309,253	0,025	-0,032
303,676	99,755	-0,102	-0,081
304,691	800,000	-0,122	-0,251
305,706	100,799	-0,238	-0,190
306,720	800,000	-0,077	-0,185
307,735	-0,832	-0,160	-0,078
308,749	-40,303	-0,078	-0,028
309,764	-63,500	-0,152	-0,043
310,779	318,119	-0,042	-0,055
311,793	-47,089	-0,243	-0,081
312,808	800,000	-0,098	-0,205
313,822	142,572	-0,244	-0,223
314,837	-66,464	-0,176	-0,048
315,852	-200,000	0,032	-0,113
316,866	-200,000	0,015	-0,108
317,881	-146,455	-0,174	-0,010
318,895	235,763	-0,104	-0,118
319,910	107,963	-0,209	-0,171
320,925	157,064	-0,117	-0,111
321,939	230,478	-0,101	-0,114
322,954	483,001	-0,069	-0,108
323,968	-200,000	0,022	-0,072
324,983	-14,872	-0,138	-0,061
325,997	19,385	-0,091	-0,050
327,012	-200,000	0,014	-0,190
328,027	625,105	-0,078	-0,136
329,041	800,000	-0,056	-0,114
330,056	565,422	-0,129	-0,216
331,070	30,663	-0,048	-0,028
332,085	-20,229	-0,078	0,033
333,100	405,829	-0,035	0,050
334,114	-9,159	-0,147	-0,067
335,129	426,768	-0,185	-0,274
336,143	800,000	-0,078	-0,186
337,158	319,360	-0,108	-0,141
338,173	-129,442	-0,162	-0,015
339,187	301,101	-0,057	0,072
340,202	-137,762	-0,158	-0,012
341,216	-38,519	-0,262	-0,094
342,231	-116,315	-0,062	-0,008
343,246	124,564	-0,156	-0,134
344,260	800,000	-0,022	-0,056
345,275	106,047	-0,103	-0,083
346,289	-41,218	-0,161	-0,056
347,304	9,601	-0,153	-0,079
348,319	-133,099	-0,183	0,016
349,333	800,000	-0,137	-0,295
350,348	49,721	-0,039	-0,025
351,362	-43,936	-0,132	0,045
352,377	-96,566	-0,165	-0,029
353,392	143,351	-0,041	0,038
354,406	-200,000	-0,057	-0,191
355,421	207,134	1309,866	1397,500
356,435	159,333	1469,920	1397,942
