DTS Sentinel unit serial number:	SN410029Multiplexer serial number:	ORYXHardware model number:	OX2-SRSoftware version number:	ORYX F/W v4,00 Oryx Data Collector v3.7.2.0data status	okinstallation	B3 Nyhavnadifferential loss correction	single-endedforward channel	channel 1reverse channel	N/Adate	2023/12/02time	09:47:30forward acquisition time	300,00reverse acquisition time	0,00gamma	499,1914k internal	0,3195k external	0,3195temperature offset calibration	1,0000default loss term (dB/km)	0,3820temperature slope calibration	1,0000multiplexer offset coefficient	1,0000multiplexer slope coefficient	1,0000fibre end	0,00T internal ref (°C)	14,92T ext. ref 1 (°C)	-0,79T ext. ref 2 (°C)	-0,80length (m)	temperature (°C)	Stokes	anti-Stokes-744,400	160,771	-0,214	-0,218
-743,385	-200,000	-0,036	0,280
-742,371	-88,862	-0,277	-0,059
-741,356	-200,000	0,094	0,385
-740,342	645,885	-0,179	-0,335
-739,327	-200,000	0,062	0,229
-738,312	62,019	-0,241	-0,175
-737,298	-200,000	-0,046	0,288
-736,283	800,000	-0,158	-0,369
-735,269	-200,000	0,062	0,357
-734,254	-63,323	-0,211	-0,063
-733,239	64,061	-0,161	0,118
-732,225	-200,000	-0,071	-0,233
-731,210	116,777	0,088	0,079
-730,196	80,762	0,073	0,057
-729,181	-122,677	-0,068	0,008
-728,167	-27,726	0,154	0,065
-727,152	800,000	0,015	0,039
-726,137	344,909	-0,088	-0,126
-725,123	544,510	0,076	-0,132
-724,108	543,089	-0,094	-0,163
-723,094	-200,000	0,025	-0,145
-722,079	-97,236	-0,157	0,030
-721,064	800,000	-0,037	0,096
-720,050	-62,048	0,179	-0,054
-719,035	-200,000	-0,027	0,103
-718,021	-74,148	0,086	-0,022
-717,006	-5,605	-0,114	-0,057
-715,991	-200,000	-0,041	-0,144
-714,977	-200,000	-0,008	-0,055
-713,962	24,499	0,040	-0,024
-712,948	157,347	-0,127	-0,128
-711,933	-200,000	0,005	0,030
-710,918	-200,000	0,001	0,028
-709,904	-174,767	-0,150	0,003
-708,889	7,727	-0,084	-0,046
-707,875	-81,395	-0,114	-0,027
-706,860	-200,000	-0,002	-0,144
-705,845	-100,197	0,076	-0,014
-704,831	329,303	-0,100	0,141
-703,816	183,563	-0,045	-0,049
-702,802	-15,789	-0,044	0,020
-701,787	302,329	-0,106	-0,142
-700,772	-76,775	-0,090	-0,023
-699,758	-200,000	-0,002	-0,046
-698,743	-1,375	-0,053	-0,027
-697,729	-3,251	0,242	0,122
-696,714	72,082	-0,101	-0,076
-695,699	15,494	-0,069	0,039
-694,685	32,826	0,016	-0,010
-693,670	-82,298	0,052	0,012
-692,656	-55,647	-0,070	-0,023
-691,641	-200,000	0,012	-0,051
-690,627	-200,000	0,024	0,158
-689,612	461,717	-0,091	0,148
-688,597	-153,767	-0,122	0,006
-687,583	394,128	-0,026	0,040
-686,568	-200,000	-0,007	0,140
-685,554	-55,518	-0,120	-0,039
-684,539	-113,366	0,111	0,016
-683,524	304,577	0,007	-0,010
-682,510	517,005	-0,041	0,069
-681,495	525,893	-0,022	0,037
-680,481	-200,000	-0,015	0,131
-679,466	2,171	-0,174	0,091
-678,451	-101,650	0,104	-0,018
-677,437	-69,232	0,054	-0,015
-676,422	-164,520	0,109	0,004
-675,408	-64,728	0,035	0,010
-674,393	-200,000	-0,000	0,076
-673,378	800,000	-0,034	0,088
-672,364	-200,000	-0,002	-0,074
-671,349	800,000	0,010	-0,020
-670,335	-200,000	0,017	-0,095
-669,320	578,397	0,075	0,134
-668,305	-200,000	-0,005	0,195
-667,291	-200,000	0,010	-0,069
-666,276	-200,000	0,013	0,057
-665,262	116,910	-0,056	-0,050
-664,247	800,000	-0,079	-0,172
-663,232	-200,000	-0,003	0,038
-662,218	800,000	0,024	0,058
-661,203	118,823	-0,074	0,066
-660,189	800,000	0,027	0,068
-659,174	-200,000	-0,008	-0,065
-658,159	248,479	-0,085	0,105
-657,145	139,627	-0,045	0,044
-656,130	-35,813	0,035	-0,014
-655,116	800,000	-0,037	0,088
-654,101	478,656	-0,014	0,024
-653,086	9,834	-0,131	0,072
-652,072	-50,557	0,101	-0,034
-651,057	-5,309	-0,026	0,013
-650,043	51,430	-0,113	-0,078
-649,028	210,864	-0,095	-0,108
-648,014	-117,964	0,180	0,023
-646,999	-119,723	-0,048	-0,006
-645,984	-200,000	-0,022	-0,183
-644,970	507,280	-0,089	-0,151
-643,955	-105,131	-0,132	-0,022
-642,941	-200,000	0,005	-0,074
-641,926	130,786	-0,074	-0,069
-640,911	33,713	0,075	-0,048
-639,897	800,000	-0,011	0,029
-638,882	-150,475	0,140	-0,008
-637,868	-23,964	0,058	-0,025
-636,853	-38,231	-0,150	0,057
-635,838	48,020	-0,137	-0,093
-634,824	668,297	-0,060	0,112
-633,809	14,054	0,093	0,052
-632,795	-65,338	0,092	-0,027
-631,780	75,561	0,121	0,093
-630,765	-16,428	-0,152	0,069
-629,751	-200,000	-0,034	-0,160
-628,736	-200,000	0,012	0,075
-627,722	-200,000	0,019	-0,118
-626,707	-200,000	-0,023	0,099
-625,692	800,000	-0,024	-0,056
-624,678	800,000	-0,030	0,060
-623,663	-200,000	-0,004	-0,040
-622,649	-200,000	-0,012	-0,073
-621,634	-200,000	0,031	-0,125
-620,619	487,408	-0,037	0,061
-619,605	-200,000	0,013	-0,075
-618,590	800,000	-0,066	0,141
-617,576	-200,000	-0,014	0,055
-616,561	800,000	-0,011	0,032
-615,546	78,913	-0,055	-0,042
-614,532	800,000	-0,016	-0,040
-613,517	306,062	-0,004	0,005
-612,503	-4,068	0,081	0,040
-611,488	-3,715	0,068	-0,034
-610,474	454,606	0,111	0,179
-609,459	-58,521	-0,117	-0,037
-608,444	-136,843	-0,164	0,013
-607,430	800,000	-0,039	-0,118
-606,415	-189,741	-0,069	-0,001
-605,401	800,000	0,027	-0,081
-604,386	-172,002	-0,080	-0,002
-603,371	-151,781	0,106	-0,006
-602,357	-1,850	-0,064	0,033
-601,342	-71,808	0,121	0,032
-600,328	38,377	-0,038	0,025
-599,313	147,067	-0,117	-0,114
-598,298	-200,000	-0,018	-0,057
-597,284	-115,389	0,067	0,009
-596,269	12,585	0,011	0,006
-595,255	153,100	0,078	-0,077
-594,240	-200,000	-0,056	-0,196
-593,225	268,816	0,060	-0,076
-592,211	-163,406	-0,089	0,003
-591,196	4,320	0,084	-0,045
-590,182	602,072	-0,023	-0,042
-589,167	698,595	0,088	-0,168
-588,152	512,879	0,061	0,103
-587,138	146,048	0,085	-0,082
-586,123	800,000	-0,027	-0,065
-585,109	-2,394	-0,099	0,050
-584,094	296,586	-0,062	0,083
-583,079	-200,000	0,028	0,108
-582,065	-75,179	0,209	0,054
-581,050	-200,000	0,033	0,118
-580,036	-200,000	0,003	-0,173
-579,021	-179,613	-0,166	0,003
-578,006	-62,749	-0,063	0,019
-576,992	-200,000	-0,015	-0,070
-575,977	-124,335	0,121	-0,014
-574,963	-200,000	0,010	0,046
-573,948	-200,000	-0,014	-0,046
-572,934	800,000	0,050	-0,146
-571,919	61,960	-0,026	0,019
-570,904	107,939	0,146	-0,126
-569,890	112,763	-0,057	-0,050
-568,875	-200,000	-0,011	0,106
-567,861	-167,999	-0,094	-0,003
-566,846	227,161	0,036	0,043
-565,831	-200,000	-0,037	-0,176
-564,817	800,000	0,048	-0,108
-563,802	278,694	0,049	-0,063
-562,788	800,000	0,025	-0,075
-561,773	56,453	-0,180	-0,127
-560,758	6,478	-0,074	-0,040
-559,744	75,122	0,060	0,046
-558,729	-25,352	0,046	-0,019
-557,715	-200,000	-0,003	-0,068
-556,700	514,190	-0,075	0,126
-555,685	91,016	-0,052	-0,042
-554,671	-200,000	-0,012	0,057
-553,656	800,000	0,044	-0,128
-552,642	191,485	0,022	0,023
-551,627	8,532	-0,098	0,053
-550,612	8,598	-0,088	0,048
-549,598	-200,000	-0,009	-0,106
-548,583	-145,463	-0,095	-0,006
-547,569	567,727	-0,065	-0,114
-546,554	-48,100	0,211	0,073
-545,539	23,593	0,088	0,052
-544,525	-127,829	0,092	0,009
-543,510	181,556	-0,040	-0,043
-542,496	58,420	0,045	0,032
-541,481	142,894	-0,078	-0,075
-540,466	800,000	0,032	-0,069
-539,452	-200,000	0,001	-0,046
-538,437	37,848	0,057	-0,037
-537,423	-193,039	0,036	-0,000
-536,408	129,555	-0,050	-0,046
-535,393	98,725	-0,101	-0,084
-534,379	-114,207	0,087	0,012
-533,364	9,758	-0,023	-0,013
-532,350	-199,562	-0,017	0,000
-531,335	-5,191	0,085	-0,042
-530,321	91,021	-0,026	0,021
-529,306	119,071	0,153	-0,136
-528,291	-200,000	-0,004	-0,082
-527,277	128,325	-0,035	-0,032
-526,262	-200,000	-0,013	-0,050
-525,248	-200,000	-0,015	-0,056
-524,233	-6,882	0,077	0,038
-523,218	232,188	0,062	-0,073
-522,204	306,525	-0,026	-0,035
-521,189	-200,000	0,005	-0,105
-520,175	145,058	-0,129	-0,125
-519,160	-83,577	-0,094	0,021
-518,145	-200,000	-0,005	-0,047
-517,131	-24,330	0,041	0,018
-516,116	477,542	-0,031	-0,050
-515,102	-200,000	-0,008	-0,039
-514,087	-48,981	0,190	-0,065
-513,072	-200,000	0,014	-0,073
-512,058	-132,423	-0,066	-0,006
-511,043	-74,411	-0,121	0,031
-510,029	188,661	-0,066	-0,072
-509,014	-163,350	0,067	0,002
-507,999	24,273	-0,041	0,024
-506,985	800,000	-0,073	-0,156
-505,970	-200,000	-0,009	-0,114
-504,956	21,450	-0,101	-0,059
-503,941	783,917	0,057	-0,112
-502,926	170,951	-0,049	-0,050
-501,912	274,506	0,055	0,070
-500,897	-200,000	-0,026	0,128
-499,883	-44,702	-0,038	0,014
-498,868	-200,000	0,012	-0,088
-497,853	532,945	-0,099	-0,169
-496,839	28,642	0,042	-0,025
-495,824	-2,058	-0,090	0,045
-494,810	294,076	0,104	0,137
-493,795	-123,685	-0,083	-0,009
-492,781	-35,326	0,046	0,018
-491,766	18,374	-0,057	0,033
-490,751	-62,415	-0,055	0,016
-489,737	219,594	-0,075	0,087
-488,722	-69,992	0,082	0,022
-487,708	-125,843	0,097	0,010
-486,693	118,445	0,042	0,038
-485,678	102,242	0,103	0,087
-484,664	-200,000	-0,034	-0,169
-483,649	538,453	-0,064	0,110
-482,635	-30,568	-0,165	0,067
-481,620	-110,864	-0,105	0,015
-480,605	-200,000	0,014	-0,063
-479,591	-9,953	-0,115	0,055
-478,576	229,623	0,118	0,139
-477,562	-200,000	-0,000	-0,032
-476,547	471,708	-0,093	0,151
-475,532	-200,000	-0,001	-0,135
-474,518	-200,000	-0,009	0,130
-473,503	-19,338	0,042	0,019
-472,489	800,000	-0,037	0,111
-471,474	-111,826	0,039	-0,006
-470,459	515,994	-0,025	-0,042
-469,445	-179,782	-0,104	0,002
-468,430	-6,019	0,156	-0,076
-467,416	484,865	-0,007	0,011
-466,401	-131,550	0,097	-0,009
-465,386	-20,769	0,134	0,059
-464,372	38,218	-0,018	-0,011
-463,357	7,263	-0,073	-0,039
-462,343	-200,000	-0,041	-0,136
-461,328	-38,520	-0,062	0,023
-460,313	124,573	-0,104	-0,095
-459,299	102,598	0,097	-0,082
-458,284	-78,987	0,125	0,030
-457,270	114,250	-0,082	0,072
-456,255	205,788	-0,030	0,034
-455,241	379,491	0,057	-0,084
-454,226	-200,000	-0,027	-0,194
-453,211	74,474	-0,033	0,025
-452,197	200,539	0,066	0,073
-451,182	-149,459	0,176	0,010
-450,168	-48,792	-0,141	0,048
-449,153	312,471	-0,023	-0,031
-448,138	-154,253	-0,009	-0,000
-447,124	-52,471	-0,101	-0,033
-446,109	-200,000	-0,009	-0,051
-445,095	428,228	0,042	-0,066
-444,080	-198,171	0,082	-0,000
-443,065	-200,000	-0,028	0,133
-442,051	-44,357	-0,077	0,028
-441,036	528,672	-0,013	0,023
-440,022	-44,363	0,063	-0,023
-439,007	-72,807	0,070	0,018
-437,992	-200,000	0,040	0,218
-436,978	-200,000	0,014	0,124
-435,963	-129,600	-0,035	-0,003
-434,949	800,000	-0,007	-0,014
-433,934	386,502	-0,010	0,015
-432,919	175,434	-0,105	-0,109
-431,905	166,331	0,007	-0,007
-430,890	800,000	0,052	0,105
-429,876	-200,000	0,019	0,102
-428,861	-200,000	0,051	0,214
-427,846	-19,601	-0,140	0,062
-426,832	396,359	-0,028	0,042
-425,817	800,000	0,049	-0,152
-424,803	800,000	-0,019	0,052
-423,788	255,491	0,084	0,104
-422,773	94,345	0,060	-0,049
-421,759	-200,000	0,019	0,171
-420,744	415,720	0,063	-0,096
-419,730	800,000	0,030	-0,073
-418,715	-44,026	-0,137	0,049
-417,701	133,475	-0,149	-0,139
-416,686	-200,000	0,004	-0,036
-415,671	800,000	-0,036	0,094
-414,657	328,557	0,061	-0,085
-413,642	-110,050	0,041	-0,006
-412,628	126,248	-0,096	0,087
-411,613	-200,000	-0,024	-0,085
-410,598	609,226	-0,046	-0,083
-409,584	-200,000	-0,037	0,140
-408,569	88,218	0,119	-0,095
-407,555	-141,294	-0,108	-0,008
-406,540	-94,627	-0,171	-0,033
-405,525	-160,001	0,157	-0,006
-404,511	551,730	0,017	0,029
-403,496	535,974	0,055	-0,094
-402,482	117,555	-0,063	0,055
-401,467	-200,000	-0,018	0,075
-400,452	476,989	0,103	0,169
-399,438	-36,719	-0,144	0,055
-398,423	101,013	-0,051	-0,043
-397,409	800,000	-0,064	-0,201
-396,394	99,786	-0,102	-0,085
-395,379	800,000	0,021	0,062
-394,365	800,000	0,012	-0,027
-393,350	72,949	-0,155	0,116
-392,336	-103,970	0,129	0,021
-391,321	-200,000	-0,008	-0,067
-390,306	272,897	-0,049	0,062
-389,292	597,668	-0,046	0,083
-388,277	344,869	-0,056	0,080
-387,263	239,536	-0,039	-0,046
-386,248	-200,000	-0,008	-0,035
-385,233	289,307	0,035	0,046
-384,219	612,451	-0,034	-0,061
-383,204	94,474	-0,048	0,039
-382,190	-166,549	-0,182	0,005
-381,175	663,487	-0,038	0,072
-380,160	295,470	0,006	0,008
-379,146	800,000	-0,047	0,116
-378,131	800,000	0,026	0,066
-377,117	800,000	-0,029	0,085
-376,102	-200,000	-0,015	0,115
-375,088	65,032	-0,066	-0,048
-374,073	14,429	0,059	-0,033
-373,058	800,000	-0,042	0,134
-372,044	-150,887	0,094	0,005
-371,029	7,950	0,100	0,053
-370,015	800,000	0,021	-0,056
-369,000	-46,288	0,014	0,005
-367,985	-200,000	0,004	0,017
-366,971	800,000	0,042	-0,099
-365,956	-200,000	0,002	-0,068
-364,942	-29,812	0,232	0,094
-363,927	-106,206	0,044	0,007
-362,912	108,874	0,080	0,068
-361,898	204,928	-0,038	0,042
-360,883	473,846	-0,047	-0,077
-359,869	800,000	0,041	0,125
-358,854	496,776	0,028	0,046
-357,839	97,276	0,020	-0,017
-356,825	-32,141	0,035	-0,014
-355,810	-200,000	-0,028	0,145
-354,796	-45,634	0,172	0,061
-353,781	-33,471	-0,065	0,026
-352,766	-69,606	-0,057	-0,016
-351,752	-113,443	-0,072	-0,010
-350,737	-82,767	-0,187	-0,043
-349,723	784,556	0,038	0,075
-348,708	-144,221	-0,134	-0,009
-347,693	-173,501	-0,054	0,001
-346,679	227,762	-0,120	-0,140
-345,664	-200,000	-0,010	-0,095
-344,650	483,031	0,064	0,105
-343,635	-90,544	0,061	0,013
-342,620	-17,174	0,019	-0,009
-341,606	-45,337	0,118	-0,042
-340,591	-200,000	0,004	0,056
-339,577	-91,185	-0,008	0,002
-338,562	800,000	-0,014	-0,044
-337,548	263,133	0,122	0,152
-336,533	-14,891	0,034	0,015
-335,518	-57,829	0,085	-0,027
-334,504	64,233	0,023	0,017
-333,489	-150,969	-0,092	-0,005
-332,475	-200,000	0,011	-0,107
-331,460	-200,000	0,019	0,144
-330,445	602,380	-0,038	0,067
-329,431	-200,000	0,017	-0,198
-328,416	-66,433	0,101	0,029
-327,402	-200,000	-0,003	0,015
-326,387	-105,603	0,090	-0,014
-325,372	-200,000	0,013	0,041
-324,358	166,297	0,075	-0,077
-323,343	-200,000	-0,014	-0,050
-322,329	-200,000	-0,016	0,063
-321,314	-49,798	0,081	-0,027
-320,299	44,246	0,113	0,074
-319,285	-200,000	0,013	0,105
-318,270	45,887	-0,029	-0,019
-317,256	-30,324	-0,111	-0,045
-316,241	-200,000	-0,043	-0,160
-315,226	44,366	-0,055	0,036
-314,212	800,000	-0,016	0,041
-313,197	288,032	-0,049	0,064
-312,183	-91,409	-0,056	-0,011
-311,168	392,055	0,044	0,066
-310,153	800,000	-0,034	-0,090
-309,139	800,000	-0,027	-0,061
-308,124	418,010	-0,015	-0,023
-307,110	800,000	0,041	0,105
-306,095	67,699	0,125	0,092
-305,080	193,652	-0,047	-0,051
-304,066	-200,000	-0,010	-0,053
-303,051	-200,000	-0,022	0,133
-302,037	-200,000	0,010	0,121
-301,022	-55,885	-0,124	0,039
-300,008	426,488	0,021	0,033
-298,993	800,000	0,061	0,191
-297,978	141,445	0,068	-0,065
-296,964	5,039	0,073	0,039
-295,949	225,803	0,060	0,070
-294,935	27,635	-0,013	-0,008
-293,920	-65,915	0,050	-0,014
-292,905	-56,105	0,076	0,024
-291,891	-14,379	0,058	-0,026
-290,876	-111,485	0,105	0,015
-289,862	268,558	-0,075	0,094
-288,847	229,797	0,054	-0,063
-287,832	800,000	-0,025	-0,053
-286,818	-14,932	-0,131	0,060
-285,803	2,521	0,097	0,050
-284,789	-21,905	0,114	0,049
-283,774	-33,674	0,107	-0,042
-282,759	326,423	-0,067	-0,092
-281,745	-200,000	-0,025	0,112
-280,730	142,745	-0,035	0,033
-279,716	330,243	-0,049	-0,067
-278,701	800,000	0,039	-0,119
-277,686	-200,000	0,022	-0,120
-276,672	-200,000	-0,002	-0,014
-275,657	-112,977	-0,069	0,010
-274,643	485,620	-0,067	0,110
-273,628	-137,117	0,137	0,011
-272,613	-200,000	0,002	-0,030
-271,599	-110,367	0,062	-0,009
-270,584	13,418	0,083	0,046
-269,570	-169,847	0,094	0,002
-268,555	19,397	-0,098	-0,056
-267,540	-111,915	0,176	0,025
-266,526	82,035	0,111	0,086
-265,511	-200,000	-0,020	-0,083
-264,497	-200,000	0,019	0,097
-263,482	800,000	-0,062	0,129
-262,467	220,994	-0,010	0,012
-261,453	-20,792	0,095	0,041
-260,438	-200,000	-0,014	-0,069
-259,424	800,000	0,019	-0,047
-258,409	-200,000	0,004	0,050
-257,395	183,596	-0,080	0,084
-256,380	-200,000	0,003	0,026
-255,365	100,187	0,161	0,133
-254,351	-69,891	0,152	0,041
-253,336	-64,119	0,117	-0,034
-252,322	-200,000	0,008	-0,043
-251,307	42,365	-0,065	-0,042
-250,292	618,868	0,022	0,039
-249,278	121,188	0,091	0,081
-248,263	-200,000	0,039	0,192
-247,249	-10,149	0,073	-0,034
-246,234	800,000	0,037	0,107
-245,219	800,000	-0,020	-0,044
-244,205	21,084	-0,066	-0,038
-243,190	800,000	-0,026	0,057
-242,176	37,104	0,046	0,029
-241,161	-103,973	-0,115	0,019
-240,146	17,744	0,036	-0,020
-239,132	-127,441	-0,105	-0,011
-238,117	-26,773	-0,150	0,062
-237,103	-200,000	-0,004	0,073
-236,088	-97,615	0,076	0,014
-235,073	56,427	0,038	0,026
-234,059	414,951	-0,055	0,083
-233,044	327,030	0,068	-0,093
-232,030	-200,000	0,023	-0,107
-231,015	-200,000	-0,009	-0,126
-230,000	338,841	0,015	-0,021
-228,986	-200,000	-0,009	0,047
-227,971	37,398	-0,081	0,051
-226,957	800,000	0,029	0,071
-225,942	618,502	0,075	0,134
-224,927	800,000	0,010	-0,021
-223,913	53,053	-0,024	-0,016
-222,898	800,000	0,055	-0,133
-221,884	-200,000	0,011	0,045
-220,869	800,000	0,024	-0,052
-219,855	-56,958	0,086	-0,027
-218,840	231,824	-0,144	0,169
-217,825	37,779	-0,051	0,032
-216,811	-117,952	0,073	0,009
-215,796	497,748	-0,052	0,086
-214,782	800,000	-0,053	-0,143
-213,767	166,890	-0,130	-0,131
-212,752	-200,000	-0,007	-0,072
-211,738	-200,000	0,016	0,095
-210,723	800,000	-0,042	0,103
-209,709	529,716	0,019	0,032
-208,694	800,000	-0,034	-0,099
-207,679	174,966	-0,095	-0,098
-206,665	-200,000	0,018	-0,061
-205,650	37,291	0,067	0,042
-204,636	-200,000	0,018	0,136
-203,621	-200,000	-0,008	0,258
-202,606	31,424	-0,019	-0,012
-201,592	-78,217	-0,183	-0,045
-200,577	800,000	0,082	0,204
-199,563	-42,238	0,039	-0,014
-198,548	355,837	0,039	-0,055
-197,533	2,585	-0,059	-0,030
-196,519	66,847	0,080	-0,058
-195,504	533,718	-0,058	-0,098
-194,490	-200,000	0,018	0,107
-193,475	16,508	-0,101	0,057
-192,460	625,095	0,018	-0,033
-191,446	-200,000	0,008	0,044
-190,431	-43,683	-0,086	0,031
-189,417	342,986	0,066	0,093
-188,402	518,520	0,017	-0,028
-187,387	72,071	-0,034	0,025
-186,373	191,959	-0,054	-0,058
-185,358	-200,000	-0,012	-0,051
-184,344	-77,556	0,120	0,029
-183,329	-114,787	-0,049	-0,007
-182,315	-200,000	0,030	0,167
-181,300	-200,000	-0,006	-0,062
-180,285	119,590	-0,090	-0,080
-179,271	722,908	0,109	-0,208
-178,256	121,893	0,041	0,036
-177,242	-162,654	0,086	-0,003
-176,227	18,343	0,071	-0,040
-175,212	-20,972	-0,066	-0,029
-174,198	-200,000	0,019	0,086
-173,183	-123,970	0,028	-0,003
-172,169	800,000	0,031	0,088
-171,154	-200,000	0,038	0,127
-170,139	78,220	0,086	0,065
-169,125	-31,172	-0,211	0,084
-168,110	55,803	0,034	-0,023
-167,096	-200,000	0,016	-0,077
-166,081	140,066	-0,095	0,090
-165,066	161,335	0,033	0,033
-164,052	37,063	0,033	0,021
-163,037	-121,021	0,059	0,007
-162,023	42,600	0,100	-0,064
-161,008	-200,000	0,016	-0,093
-159,993	-113,156	-0,082	-0,011
-158,979	480,698	-0,044	-0,071
-157,964	358,437	-0,012	-0,017
-156,950	96,588	-0,067	-0,055
-155,935	-200,000	0,016	-0,062
-154,920	73,697	0,112	0,084
-153,906	-5,663	0,119	0,058
-152,891	303,845	-0,052	-0,069
-151,877	490,741	-0,053	-0,087
-150,862	800,000	0,016	-0,039
-149,847	189,798	-0,040	0,043
-148,833	-200,000	-0,010	0,102
-147,818	-129,871	0,091	0,009
-146,804	58,684	-0,070	-0,049
-145,789	283,790	0,034	0,043
-144,775	-29,126	0,061	0,025
-143,760	-200,000	-0,028	-0,110
-142,745	800,000	-0,049	0,117
-141,731	101,958	0,088	0,073
-140,716	800,000	-0,041	-0,108
-139,702	-115,716	0,046	0,006
-138,687	-200,000	-0,041	0,134
-137,672	-200,000	-0,032	0,114
-136,658	292,991	-0,094	0,122
-135,643	-139,594	-0,049	-0,004
-134,629	800,000	-0,048	-0,100
-133,614	54,480	0,091	0,062
-132,599	800,000	0,025	0,051
-131,585	-200,000	0,014	0,233
-130,570	360,395	0,073	-0,104
-129,556	277,630	-0,034	-0,043
-128,541	241,622	-0,144	-0,171
-127,526	-200,000	0,003	-0,052
-126,512	583,872	0,004	0,007
-125,497	12,786	0,066	0,036
-124,483	444,245	0,029	0,046
-123,468	800,000	-0,024	-0,063
-122,453	55,192	-0,095	-0,065
-121,439	-200,000	-0,007	-0,027
-120,424	133,383	0,077	-0,070
-119,410	257,581	-0,030	-0,037
-118,395	-24,859	-0,082	0,034
-117,380	546,745	0,018	0,031
-116,366	45,795	-0,068	-0,044
-115,351	800,000	-0,044	-0,133
-114,337	-200,000	0,017	-0,143
-113,322	-108,499	-0,063	-0,010
-112,307	800,000	0,004	0,009
-111,293	193,689	0,092	0,100
-110,278	181,461	0,088	0,092
-109,264	130,663	-0,061	0,056
-108,249	800,000	-0,042	-0,121
-107,234	-7,498	-0,144	0,069
-106,220	209,386	0,037	-0,042
-105,205	-200,000	0,004	-0,037
-104,191	-200,000	0,036	0,000
-103,176	-34,698	0,098	-0,038
-102,162	686,906	-0,023	0,044
-101,147	55,588	0,053	0,036
-100,132	-27,883	-0,155	-0,063
-99,118	-103,487	-0,057	0,009
-98,103	-200,000	0,013	0,073
-97,089	-71,788	0,066	-0,017
-96,074	-157,449	0,058	-0,002
-95,059	-122,346	-0,049	-0,006
-94,045	501,101	-0,043	-0,071
-93,030	56,449	0,053	-0,036
-92,016	114,068	0,072	-0,062
-91,001	-200,000	0,004	0,028
-89,986	800,000	0,018	-0,041
-88,972	524,191	0,075	0,126
-87,957	800,000	-0,014	0,035
-86,943	528,111	0,068	-0,115
-85,928	-45,720	-0,193	-0,067
-84,913	800,000	0,050	0,100
-83,899	-13,406	-0,217	-0,099
-82,884	800,000	-0,045	0,116
-81,870	108,663	0,044	-0,037
-80,855	-200,000	0,008	0,056
-79,840	800,000	-0,056	-0,126
-78,826	-200,000	-0,025	-0,107
-77,811	20,909	-0,076	0,043
-76,797	166,450	-0,076	0,076
-75,782	800,000	0,009	-0,023
-74,767	800,000	-0,049	-0,099
-73,753	-200,000	0,006	0,041
-72,738	-119,738	-0,031	-0,004
-71,724	126,926	-0,094	0,084
-70,709	-154,073	-0,169	-0,008
-69,694	-185,386	0,128	0,001
-68,680	-200,000	0,007	-0,028
-67,665	313,296	0,085	0,114
-66,651	800,000	-0,052	0,119
-65,636	-200,000	-0,019	-0,233
-64,622	438,077	-0,082	-0,127
-63,607	-200,000	-0,008	0,037
-62,592	558,850	-0,072	-0,124
-61,578	50,655	-0,106	0,071
-60,563	254,486	0,118	0,144
-59,549	79,017	0,102	0,077
-58,534	-26,865	-1,484	-0,612
-57,519	341,726	-1,591	-2,213
-56,505	-200,000	-0,521	-4,496
-55,490	147,458	0,947	0,905
-54,476	800,000	4,885	11,399
-53,461	-200,000	18,321	290,416
-52,446	800,000	728,081	2238,740
-51,432	558,112	1644,192	2823,613
-50,417	79,157	1665,457	1264,188
-49,403	22,791	1538,920	891,812
-48,388	16,783	1462,054	818,131
-47,373	17,907	1452,046	817,918
-46,359	17,285	1442,476	809,517
-45,344	15,024	1437,739	796,020
-44,330	14,945	1435,714	794,489
-43,315	14,976	1434,030	793,674
-42,300	15,036	1432,219	792,925
-41,286	15,066	1431,309	792,534
-40,271	14,973	1430,066	791,368
-39,257	14,972	1428,782	790,623
-38,242	15,080	1427,286	790,279
-37,227	15,052	1426,282	789,555
-36,213	15,044	1424,947	788,747
-35,198	14,976	1423,936	787,835
-34,184	15,038	1422,726	787,430
-33,169	15,018	1421,490	786,619
-32,154	15,021	1420,791	786,213
-31,140	15,047	1419,236	785,447
-30,125	15,077	1418,151	784,956
-29,111	15,026	1417,104	784,103
-28,096	15,007	1415,786	783,254
-27,082	14,911	1415,128	782,406
-26,067	14,975	1413,644	781,856
-25,052	14,947	1412,660	781,150
-24,038	14,948	1411,763	780,629
-23,023	14,903	1410,634	779,760
-22,009	14,928	1409,509	779,226
-20,994	14,851	1408,824	778,454
-19,979	14,900	1407,943	778,165
-18,965	14,878	1406,913	777,464
-17,950	14,894	1405,928	776,963
-16,936	14,871	1405,126	776,384
-15,921	14,808	1404,041	775,458
-14,906	14,805	1403,107	774,898
-13,892	14,867	1401,997	774,541
-12,877	14,873	1401,177	774,089
-11,863	14,855	1400,397	773,541
-10,848	14,868	1399,404	773,024
-9,833	14,831	1398,662	772,411
-8,819	14,784	1397,583	771,566
-7,804	14,731	1396,701	770,800
-6,790	14,781	1395,394	770,283
-5,775	14,811	1394,494	769,891
-4,760	14,764	1393,755	769,239
-3,746	14,745	1392,921	768,658
-2,731	14,751	1392,008	768,152
-1,717	14,728	1391,235	767,586
-0,702	14,764	1389,325	766,671
0,313	18,460	1308,216	739,066
1,327	34,551	706,320	436,360
2,342	52,854	124,470	84,222
3,356	4,237	16,539	8,556
4,371	-4,301	3,193	1,560
5,386	19,813	0,638	0,363
6,400	800,000	0,031	0,076
7,415	33,245	-0,397	-0,243
8,429	76,976	-0,394	-0,296
9,444	83,140	-0,325	-0,250
10,459	163,749	-0,275	-0,274
11,473	17,350	-0,344	-0,193
12,488	14,687	-0,213	-0,118
13,502	36,408	-0,210	-0,131
14,517	-2,049	-0,283	-0,141
15,531	219,313	-0,321	-0,364
16,546	44,108	-0,376	-0,243
17,561	20,554	-0,353	-0,202
18,575	31,712	-0,299	-0,182
19,590	-58,837	-0,338	-0,103
20,604	88,062	-0,263	-0,206
21,619	255,087	-0,300	-0,364
22,634	64,111	-0,489	-0,348
23,648	36,673	-0,454	-0,283
24,663	33,751	-0,420	-0,258
25,677	-27,307	-0,435	-0,178
26,692	-3,051	-0,486	-0,239
27,707	8,286	-0,295	-0,156
28,721	47,871	-0,394	-0,260
29,736	144,454	-0,366	-0,346
30,750	198,491	-0,459	-0,497
31,765	118,564	-0,372	-0,325
32,780	249,239	-0,302	-0,362
33,794	67,768	-0,365	-0,264
34,809	-14,763	-0,402	-0,182
35,823	144,103	-0,380	-0,358
36,838	43,323	-0,397	-0,256
37,853	25,816	-0,433	-0,254
38,867	219,299	-0,323	-0,366
39,882	55,311	-0,344	-0,235
40,896	20,796	-0,376	-0,214
41,911	-8,518	-0,365	-0,173
42,926	39,485	-0,429	-0,271
43,940	-44,876	-0,378	-0,132
44,955	194,818	-0,230	-0,247
45,969	-65,697	-0,482	-0,135
46,984	1,686	-0,328	-0,166
47,999	-31,326	-0,311	-0,123
49,013	60,408	-0,405	-0,283
50,028	-11,415	-0,303	-0,140
51,042	6,744	-0,423	-0,221
52,057	43,263	-0,392	-0,252
53,071	-56,294	-0,402	-0,125
54,086	17,932	-0,269	-0,151
55,101	129,752	-0,261	-0,236
56,115	65,530	-0,291	-0,207
57,130	0,978	-0,338	-0,170
58,144	39,706	-0,384	-0,242
59,159	124,347	-0,524	-0,465
60,174	214,489	-0,319	-0,357
61,188	79,657	-0,285	-0,215
62,203	146,534	-0,313	-0,296
63,217	157,257	-0,248	-0,242
64,232	-15,861	-0,353	-0,158
65,247	106,220	-0,300	-0,251
66,261	85,325	-0,274	-0,212
67,276	43,376	-0,303	-0,194
68,290	100,560	-0,406	-0,332
69,305	-65,812	-0,360	-0,101
70,320	-90,638	-0,285	-0,058
71,334	110,109	-0,293	-0,248
72,349	-39,958	-0,361	-0,132
73,363	24,219	-0,289	-0,168
74,378	1,372	-0,373	-0,188
75,393	204,415	-0,242	-0,264
76,407	-67,806	-0,325	-0,089
77,422	-91,239	-0,279	-0,056
78,436	88,015	-0,228	-0,178
79,451	234,062	-0,235	-0,273
80,466	34,977	-0,383	-0,235
81,480	46,953	-0,318	-0,208
82,495	357,436	-0,210	-0,296
83,509	100,504	-0,320	-0,261
84,524	3,553	-0,360	-0,184
85,539	86,555	-0,244	-0,189
86,553	148,227	-0,192	-0,182
87,568	97,800	-0,325	-0,263
88,582	58,756	-0,323	-0,223
89,597	40,665	-0,451	-0,286
90,611	265,875	-0,134	-0,164
91,626	85,286	-0,302	-0,233
92,641	24,687	-0,244	-0,142
93,655	-67,399	-0,282	-0,077
94,670	25,567	-0,303	-0,177
95,684	163,787	-0,299	-0,296
96,699	63,189	-0,364	-0,256
97,714	147,396	-0,264	-0,250
98,728	-110,685	-0,239	-0,034
99,743	-21,556	-0,269	-0,115
100,757	-93,309	-0,293	-0,057
101,772	49,603	-0,329	-0,217
102,787	32,963	-0,368	-0,224
103,801	-22,076	-0,350	-0,149
104,816	76,726	-0,334	-0,249
105,830	24,629	-0,279	-0,162
106,845	3,252	-0,224	-0,114
107,860	-146,208	-0,295	-0,018
108,874	147,341	-0,316	-0,299
109,889	73,170	-0,310	-0,227
110,903	21,319	-0,304	-0,173
111,918	-80,095	-0,176	-0,041
112,933	-61,358	-0,287	-0,084
113,947	203,368	-0,180	-0,195
114,962	304,741	-0,107	-0,140
115,976	90,863	-0,257	-0,202
116,991	200,002	-0,166	-0,179
118,006	225,895	-0,137	-0,156
119,020	171,374	-0,224	-0,226
120,035	74,717	-0,244	-0,180
121,049	-16,969	-0,216	-0,095
122,064	71,728	-0,365	-0,266
123,079	160,560	-0,217	-0,213
124,093	120,343	-0,214	-0,187
125,108	26,821	-0,354	-0,208
126,122	27,606	-0,277	-0,163
127,137	-19,838	-0,341	-0,147
128,151	-190,790	-0,208	0,001
129,166	154,021	-0,132	-0,127
130,181	-9,617	-0,250	-0,116
131,195	92,659	-0,252	-0,199
132,210	330,099	-0,210	-0,284
133,224	-3,626	-0,139	-0,067
134,239	163,661	-0,170	-0,167
135,254	145,984	-0,339	-0,319
136,268	229,502	-0,206	-0,236
137,283	42,654	-0,231	-0,147
138,297	53,103	-0,240	-0,161
139,312	112,437	-0,302	-0,256
140,327	169,238	-0,262	-0,262
141,341	132,497	-0,145	-0,131
142,356	250,081	-0,123	-0,147
143,370	215,779	-0,166	-0,185
144,385	-11,850	-0,249	-0,114
145,400	-81,842	-0,366	-0,083
146,414	98,385	-0,281	-0,226
147,429	70,322	-0,238	-0,172
148,443	-23,001	-0,202	-0,085
149,458	280,399	-0,181	-0,226
150,473	-53,925	-0,371	-0,118
151,487	137,774	-0,290	-0,266
152,502	39,914	-0,154	-0,096
153,516	27,257	-0,324	-0,190
154,531	110,091	-0,246	-0,206
155,546	-21,829	-0,210	-0,089
156,560	800,000	-0,071	-0,155
157,575	-200,000	-0,200	-0,000
158,589	356,260	-0,220	-0,307
159,604	-47,266	-0,306	-0,104
160,619	52,642	-0,323	-0,216
161,633	-158,522	-0,336	-0,013
162,648	55,339	-0,250	-0,168
163,662	-41,894	-0,199	0,071
164,677	55,961	-0,200	-0,135
165,692	205,199	-0,263	-0,286
166,706	379,807	-0,219	-0,315
167,721	462,065	-0,222	-0,347
168,735	9,860	-0,309	-0,164
169,750	152,830	-0,231	-0,221
170,764	19,224	-0,126	-0,070
171,779	182,884	-0,194	-0,200
172,794	207,754	-0,206	-0,224
173,808	55,313	-0,215	-0,145
174,823	240,008	-0,273	-0,318
175,837	503,200	-0,132	-0,214
176,852	68,991	-0,165	-0,118
177,867	362,035	-0,059	-0,084
178,881	34,777	-0,116	-0,071
179,896	-65,799	-0,353	-0,098
180,910	125,656	-0,257	-0,227
181,925	2,778	-0,258	-0,130
182,940	-11,362	-0,278	-0,127
183,954	52,857	-0,419	-0,279
184,969	140,535	-0,218	-0,201
185,983	159,518	-0,191	-0,186
186,998	265,778	-0,162	-0,198
188,013	19,807	-0,135	-0,076
189,027	-165,975	-0,185	-0,005
190,042	40,259	-0,296	-0,185
191,056	30,898	-0,313	-0,187
192,071	326,531	-0,212	-0,284
193,086	354,572	-0,221	-0,307
194,100	18,170	-0,158	-0,088
195,115	67,497	-0,143	-0,102
196,129	-186,411	-0,093	-0,001
197,144	135,335	-0,388	-0,352
198,159	92,274	-0,148	-0,116
199,173	535,652	-0,120	-0,199
200,188	382,783	-0,088	-0,127
201,202	-149,097	-0,250	-0,014
202,217	192,064	-0,153	-0,161
203,232	71,326	-0,251	-0,181
204,246	215,603	-0,229	-0,254
205,261	283,467	-0,188	-0,236
206,275	221,370	-0,134	-0,150
207,290	-54,611	-0,264	-0,083
208,304	-200,000	-0,018	-0,196
209,319	403,082	-0,177	-0,260
210,334	46,018	-0,276	-0,177
211,348	44,473	-0,114	-0,073
212,363	260,294	-0,185	-0,223
213,377	293,980	-0,230	-0,293
214,392	68,458	-0,112	-0,080
215,407	253,337	-0,188	-0,224
216,421	157,875	-0,114	-0,110
217,436	21,330	-0,215	-0,121
218,450	184,694	-0,178	-0,184
219,465	52,044	-0,163	-0,108
220,480	776,686	-0,092	-0,176
221,494	64,160	-0,150	-0,105
222,509	-0,140	-0,178	-0,088
223,523	445,707	-0,144	-0,220
224,538	800,000	-0,034	-0,101
225,553	-12,689	-0,246	-0,111
226,567	-17,580	-0,265	-0,115
227,582	187,696	-0,220	-0,229
228,596	144,044	-0,206	-0,191
229,611	506,318	-0,079	-0,127
230,626	-200,000	0,005	-0,153
231,640	24,475	-0,240	-0,137
232,655	239,406	-0,209	-0,242
233,669	86,482	-0,209	-0,160
234,684	800,000	-0,088	-0,175
235,699	800,000	-0,075	-0,173
236,713	15,365	-0,128	-0,070
237,728	800,000	-0,145	-0,284
238,742	29,581	-0,298	-0,175
239,757	9,048	-0,223	-0,117
240,772	87,488	-0,159	-0,122
241,786	6,780	-0,187	-0,096
242,801	-10,764	-0,173	-0,079
243,815	800,000	-0,147	-0,310
244,830	104,180	-0,135	-0,110
245,844	800,000	-0,099	-0,231
246,859	188,546	-0,158	-0,164
247,874	127,817	-0,209	-0,184
248,888	800,000	-0,097	-0,251
249,903	272,273	-0,160	-0,196
250,917	800,000	-0,051	-0,107
251,932	-17,747	-0,179	-0,078
252,947	96,629	-0,220	-0,174
253,961	800,000	-0,085	-0,232
254,976	172,669	-0,251	-0,251
255,990	309,531	-0,132	-0,172
257,005	-25,992	-0,124	-0,050
258,020	800,000	-0,074	-0,152
259,034	-105,674	-0,170	0,026
260,049	-3,855	-0,186	-0,089
261,063	58,161	-0,207	-0,140
262,078	2,949	-0,342	-0,172
263,093	-200,000	-0,106	-0,364
264,107	129,874	-0,133	-0,118
265,122	135,579	-0,133	-0,120
266,136	95,461	-0,125	-0,099
267,151	78,988	-0,175	-0,129
268,166	800,000	-0,081	-0,171
269,180	508,415	-0,141	-0,227
270,195	337,258	-0,189	-0,255
271,209	159,433	-0,233	-0,224
272,224	132,780	-0,189	-0,169
273,239	652,806	0,040	-0,071
274,253	-103,521	-0,194	-0,031
275,268	14,693	-0,083	-0,045
276,282	800,000	-0,088	-0,210
277,297	363,285	-0,154	-0,214
278,312	162,086	-0,186	-0,180
279,326	-200,000	-0,011	-0,189
280,341	672,342	-0,042	-0,076
281,355	-181,579	-0,144	-0,002
282,370	66,731	-0,214	-0,150
283,384	-57,798	-0,199	-0,060
284,399	-19,701	-0,243	-0,103
285,414	333,255	-0,056	-0,075
286,428	37,061	-0,201	-0,123
287,443	425,057	-0,123	-0,183
288,457	-135,938	-0,100	-0,008
289,472	196,598	-0,162	-0,171
290,487	159,545	-0,155	-0,149
291,501	284,598	-0,122	-0,151
292,516	95,039	-0,158	-0,124
293,530	-123,546	-0,120	-0,013
294,545	333,197	-0,141	-0,189
295,560	2,641	-0,105	-0,052
296,574	306,635	-0,154	-0,198
297,589	70,788	-0,130	-0,093
298,603	-33,136	-0,300	-0,114
299,618	33,628	-0,119	-0,071
300,633	-200,000	0,025	-0,152
301,647	-67,234	-0,195	0,053
302,662	-74,685	-0,242	-0,060
303,676	-36,914	-0,189	-0,070
304,691	517,218	-0,063	-0,102
305,706	89,041	-0,185	-0,142
306,720	408,151	-0,072	-0,106
307,735	-200,000	-0,047	-0,173
308,749	44,097	-0,170	-0,107
309,764	537,733	-0,049	-0,080
310,779	394,669	-0,080	-0,115
311,793	-200,000	-0,010	0,051
312,808	461,133	-0,148	-0,228
313,822	268,197	-0,183	-0,222
314,837	241,307	-0,078	-0,090
315,852	-187,767	-0,165	-0,001
316,866	-43,434	-0,139	0,048
317,881	-46,654	0,080	-0,027
318,895	465,333	-0,076	-0,117
319,910	337,375	-0,061	-0,083
320,925	-200,000	-0,036	-0,116
321,939	-65,177	-0,086	-0,024
322,954	23,455	-0,091	-0,051
323,968	-200,000	-0,026	-0,198
324,983	-89,770	-0,120	0,024
325,997	800,000	-0,027	-0,054
327,012	800,000	-0,057	-0,110
328,027	82,446	-0,257	-0,192
329,041	-55,805	-0,223	-0,068
330,056	51,358	-0,110	-0,072
331,070	340,482	-0,090	-0,122
332,085	21,780	-0,123	0,069
333,100	-19,426	-0,098	0,042
334,114	-149,520	-0,176	0,009
335,129	-129,016	-0,132	-0,013
336,143	-200,000	-0,035	-0,220
337,158	784,227	-0,057	-0,109
338,173	0,845	-0,121	0,060
339,187	106,027	-0,089	0,072
340,202	91,209	-0,069	-0,053
341,216	-151,817	-0,250	0,012
342,231	95,576	-0,141	-0,110
343,246	219,319	-0,179	-0,197
344,260	110,175	-0,064	-0,053
345,275	299,037	0,086	-0,110
346,289	48,051	-0,075	-0,048
347,304	-36,863	-0,222	-0,081
348,319	-17,836	-0,236	-0,101
349,333	17,596	-0,251	-0,137
350,348	469,482	-0,103	-0,160
351,362	340,405	-0,189	-0,255
352,377	-200,000	0,023	-0,188
353,392	740,318	-0,147	-0,273
354,406	-148,361	-0,036	0,002
355,421	209,513	1311,777	1414,418
356,435	161,258	1472,150	1414,935
