DTS Sentinel unit serial number:	SN410029Multiplexer serial number:	ORYXHardware model number:	OX2-SRSoftware version number:	ORYX F/W v4,00 Oryx Data Collector v3.7.2.0data status	okinstallation	B3 Nyhavnadifferential loss correction	single-endedforward channel	channel 1reverse channel	N/Adate	2023/12/04time	14:52:30forward acquisition time	300,00reverse acquisition time	0,00gamma	499,1914k internal	0,3200k external	0,3200temperature offset calibration	1,0000default loss term (dB/km)	0,3820temperature slope calibration	1,0000multiplexer offset coefficient	1,0000multiplexer slope coefficient	1,0000fibre end	0,00T internal ref (°C)	15,04T ext. ref 1 (°C)	0,28T ext. ref 2 (°C)	0,26length (m)	temperature (°C)	Stokes	anti-Stokes-744,400	-200,000	-0,062	-0,275
-743,385	-200,000	-0,010	0,239
-742,371	101,075	-0,193	-0,164
-741,356	-200,000	0,093	0,323
-740,342	71,342	-0,188	-0,142
-739,327	-200,000	-0,004	0,311
-738,312	227,335	-0,274	-0,325
-737,298	-200,000	-0,036	0,204
-736,283	330,399	-0,224	-0,315
-735,269	-200,000	0,002	0,122
-734,254	-2,263	-0,254	-0,129
-733,239	35,114	-0,300	0,191
-732,225	80,560	-0,198	-0,155
-731,210	800,000	0,073	0,183
-730,196	13,903	-0,097	-0,055
-729,181	-200,000	-0,019	0,117
-728,167	-179,066	-0,078	-0,001
-727,152	800,000	0,016	0,038
-726,137	-182,943	-0,004	0,000
-725,123	-23,600	-0,084	-0,036
-724,108	-162,096	-0,128	0,005
-723,094	-118,867	-0,103	-0,013
-722,079	-200,000	-0,002	0,082
-721,064	-200,000	-0,010	0,095
-720,050	-200,000	0,046	0,194
-719,035	65,068	-0,066	-0,049
-718,021	45,322	-0,050	0,034
-717,006	800,000	-0,027	0,075
-715,991	174,607	-0,094	-0,099
-714,977	3,204	-0,068	-0,036
-713,962	-42,925	-0,053	0,019
-712,948	462,555	0,095	0,155
-711,933	36,942	0,016	-0,011
-710,918	238,177	0,089	-0,108
-709,904	800,000	0,031	-0,082
-708,889	800,000	-0,036	-0,094
-707,875	530,216	-0,080	-0,138
-706,860	71,239	-0,113	-0,085
-705,845	-200,000	0,007	-0,068
-704,831	-38,132	0,066	0,025
-703,816	77,038	-0,105	0,081
-702,802	-20,772	0,119	-0,053
-701,787	89,116	-0,058	-0,047
-700,772	-57,754	-0,097	-0,030
-699,758	1,479	-0,081	0,042
-698,743	-92,883	0,038	0,008
-697,729	-143,229	-0,152	0,010
-696,714	40,317	-0,094	-0,061
-695,699	13,222	-0,091	0,051
-694,685	39,309	-0,115	-0,074
-693,670	17,317	-0,030	0,017
-692,656	800,000	0,017	-0,048
-691,641	-200,000	-0,021	0,078
-690,627	800,000	-0,012	-0,030
-689,612	-117,666	-0,066	-0,008
-688,597	10,122	-0,029	-0,016
-687,583	-200,000	-0,006	0,044
-686,568	-200,000	-0,023	-0,097
-685,554	-200,000	0,019	-0,083
-684,539	616,680	0,050	0,091
-683,524	-49,179	0,076	0,026
-682,510	102,004	0,028	0,024
-681,495	-100,282	0,149	-0,027
-680,481	800,000	-0,031	-0,073
-679,466	116,828	-0,126	-0,112
-678,451	103,173	-0,104	0,089
-677,437	-170,182	0,174	0,004
-676,422	503,381	0,011	-0,019
-675,408	-200,000	0,009	-0,081
-674,393	25,378	0,070	0,042
-673,378	20,044	-0,147	-0,086
-672,364	-15,252	-0,063	-0,029
-671,349	348,831	-0,047	0,067
-670,335	-95,363	0,067	0,013
-669,320	154,881	-0,022	0,022
-668,305	-200,000	0,047	0,159
-667,291	-200,000	0,006	0,097
-666,276	-44,682	-0,128	0,046
-665,262	-200,000	-0,028	-0,127
-664,247	166,624	-0,031	0,032
-663,232	-149,315	0,035	0,002
-662,218	111,252	-0,031	-0,027
-661,203	800,000	-0,050	0,132
-660,189	-53,486	-0,185	0,061
-659,174	-31,172	-0,036	-0,015
-658,159	-51,854	-0,139	-0,047
-657,145	511,921	0,077	-0,131
-656,130	-200,000	0,026	0,086
-655,116	-179,390	0,170	0,003
-654,101	-76,236	-0,086	-0,022
-653,086	553,797	-0,021	0,036
-652,072	80,454	-0,074	-0,058
-651,057	277,311	0,058	-0,075
-650,043	800,000	0,036	-0,094
-649,028	-200,000	-0,008	-0,195
-648,014	-200,000	0,018	-0,084
-646,999	800,000	-0,038	0,109
-645,984	-200,000	-0,017	0,141
-644,970	308,029	-0,109	0,148
-643,955	-200,000	-0,017	-0,054
-642,941	-21,404	-0,110	-0,048
-641,926	-12,904	-0,050	0,024
-640,911	-94,615	-0,017	-0,003
-639,897	-200,000	0,007	0,028
-638,882	-25,018	0,054	-0,023
-637,868	152,592	-0,108	-0,107
-636,853	87,704	-0,081	-0,065
-635,838	603,658	-0,055	-0,100
-634,824	149,927	-0,072	0,071
-633,809	145,582	0,020	-0,019
-632,795	482,809	0,024	-0,039
-631,780	224,690	0,092	-0,108
-630,765	800,000	-0,046	-0,117
-629,751	181,627	-0,013	-0,014
-628,736	-36,811	-0,042	-0,016
-627,722	795,155	-0,087	-0,174
-626,707	-49,326	-0,106	0,037
-625,692	-200,000	-0,019	0,107
-624,678	-123,120	-0,153	-0,018
-623,663	54,859	-0,046	0,032
-622,649	-57,407	-0,095	0,030
-621,634	34,736	-0,056	0,036
-620,619	-23,459	-0,111	-0,048
-619,605	-200,000	0,017	-0,092
-618,590	-141,141	0,053	-0,004
-617,576	-9,426	0,049	-0,024
-616,561	757,646	0,040	0,079
-615,546	37,657	-0,149	0,095
-614,532	26,565	-0,095	0,057
-613,517	-200,000	0,004	0,065
-612,503	-44,120	0,104	0,037
-611,488	-200,000	0,000	-0,093
-610,474	-200,000	-0,003	0,040
-609,459	800,000	0,020	-0,061
-608,444	235,926	0,033	-0,040
-607,430	7,859	-0,091	0,049
-606,415	15,582	0,137	-0,078
-605,401	-62,661	-0,008	0,002
-604,386	-200,000	0,002	0,032
-603,371	-200,000	-0,025	0,162
-602,357	-167,456	-0,162	0,005
-601,342	800,000	-0,045	0,109
-600,328	33,202	-0,169	-0,106
-599,313	-200,000	-0,007	-0,075
-598,298	-79,719	-0,105	0,025
-597,284	800,000	0,040	0,097
-596,269	3,722	0,132	0,069
-595,255	800,000	-0,058	0,185
-594,240	-149,138	0,084	0,005
-593,225	800,000	-0,027	-0,073
-592,211	-62,277	0,109	-0,033
-591,196	-35,012	-0,180	-0,071
-590,182	-139,107	0,074	-0,006
-589,167	-200,000	-0,004	-0,063
-588,152	267,972	0,152	0,193
-587,138	46,890	0,024	-0,016
-586,123	-200,000	0,004	-0,020
-585,109	269,581	-0,193	-0,246
-584,094	92,303	0,050	-0,041
-583,079	-200,000	-0,019	0,064
-582,065	-57,710	0,143	0,045
-581,050	-200,000	-0,021	0,117
-580,036	-200,000	-0,036	0,165
-579,021	108,672	0,157	-0,136
-578,006	120,057	0,113	-0,102
-576,992	50,686	-0,059	-0,040
-575,977	800,000	0,083	0,176
-574,963	-200,000	-0,044	0,157
-573,948	800,000	0,021	0,051
-572,934	800,000	0,066	0,168
-571,919	388,411	-0,006	0,010
-570,904	-200,000	-0,005	0,038
-569,890	97,811	-0,084	0,070
-568,875	104,396	0,088	-0,075
-567,861	583,807	-0,018	0,032
-566,846	-51,462	-0,102	0,034
-565,831	800,000	0,014	0,036
-564,817	478,596	-0,041	0,068
-563,802	419,136	-0,022	-0,034
-562,788	800,000	-0,052	-0,122
-561,773	363,435	-0,023	-0,034
-560,758	34,900	-0,048	-0,030
-559,744	-200,000	-0,016	-0,158
-558,729	800,000	-0,029	-0,063
-557,715	142,208	-0,033	-0,031
-556,700	-43,175	-0,069	-0,025
-555,685	800,000	0,054	0,108
-554,671	800,000	-0,012	0,038
-553,656	-19,701	-0,006	-0,003
-552,642	800,000	-0,049	0,103
-551,627	800,000	0,062	0,133
-550,612	480,746	0,026	0,042
-549,598	280,898	-0,068	-0,088
-548,583	317,523	-0,043	0,059
-547,569	371,716	0,046	0,068
-546,554	50,420	0,036	-0,025
-545,539	112,073	0,067	-0,059
-544,525	238,081	-0,021	0,025
-543,510	-14,275	0,028	0,013
-542,496	10,125	-0,111	-0,061
-541,481	192,515	0,058	-0,063
-540,466	83,067	-0,074	0,058
-539,452	483,024	0,104	0,172
-538,437	-200,000	-0,002	0,013
-537,423	-70,031	-0,070	0,019
-536,408	402,822	0,019	0,029
-535,393	611,846	-0,037	-0,067
-534,379	221,800	0,050	0,058
-533,364	59,193	-0,098	0,069
-532,350	499,348	-0,035	0,058
-531,335	138,155	0,047	0,045
-530,321	171,677	-0,065	-0,067
-529,306	557,560	-0,016	-0,029
-528,291	800,000	-0,031	0,069
-527,277	-23,255	-0,072	-0,031
-526,262	197,735	-0,054	0,059
-525,248	253,658	-0,028	0,034
-524,233	109,467	0,144	0,125
-523,218	378,209	-0,080	0,118
-522,204	-94,271	0,147	0,029
-521,189	98,122	0,048	-0,040
-520,175	73,569	-0,025	-0,019
-519,160	-200,000	-0,006	0,046
-518,145	-200,000	0,001	0,027
-517,131	-72,503	-0,119	0,032
-516,116	-18,826	0,090	-0,040
-515,102	113,123	-0,023	-0,020
-514,087	-63,299	-0,061	0,018
-513,072	-146,099	-0,040	-0,003
-512,058	667,011	-0,050	-0,094
-511,043	800,000	0,097	0,215
-510,029	322,336	-0,103	0,142
-509,014	-200,000	-0,010	0,123
-507,999	733,925	-0,063	-0,122
-506,985	-200,000	0,008	0,028
-505,970	351,173	0,089	-0,128
-504,956	-200,000	-0,027	-0,089
-503,941	418,901	0,024	-0,037
-502,926	-200,000	0,017	-0,083
-501,912	517,173	0,082	0,138
-500,897	-107,410	-0,137	-0,021
-499,883	-53,713	0,060	-0,019
-498,868	404,549	-0,087	-0,132
-497,853	-200,000	0,007	0,072
-496,839	3,296	-0,040	0,021
-495,824	-116,719	0,087	0,011
-494,810	197,190	0,020	-0,022
-493,795	750,340	0,012	-0,023
-492,781	-200,000	0,017	-0,097
-491,766	-200,000	-0,001	0,020
-490,751	444,314	0,080	-0,128
-489,737	236,775	-0,044	0,053
-488,722	145,175	-0,104	0,100
-487,708	144,849	0,101	0,097
-486,693	216,430	0,017	-0,019
-485,678	-156,695	-0,001	0,000
-484,664	-200,000	-0,005	-0,052
-483,649	-74,277	-0,118	-0,031
-482,635	-30,548	-0,101	0,041
-481,620	350,599	0,038	-0,054
-480,605	-29,388	-0,054	-0,022
-479,591	800,000	-0,025	0,060
-478,576	10,957	0,069	-0,038
-477,562	-200,000	0,015	-0,061
-476,547	-200,000	0,002	-0,102
-475,532	-57,313	0,079	-0,025
-474,518	267,779	-0,066	-0,084
-473,503	800,000	0,044	0,118
-472,489	171,489	-0,093	-0,096
-471,474	293,677	0,010	-0,014
-470,459	800,000	-0,015	-0,040
-469,445	0,774	-0,082	-0,042
-468,430	-96,286	-0,049	0,009
-467,416	-200,000	-0,038	0,184
-466,401	-200,000	0,032	0,234
-465,386	-200,000	-0,012	0,053
-464,372	-200,000	-0,006	-0,060
-463,357	-145,978	-0,145	-0,009
-462,343	-23,561	0,068	0,029
-461,328	497,435	-0,021	-0,034
-460,313	323,831	0,112	0,155
-459,299	55,815	0,106	0,074
-458,284	154,809	-0,055	0,055
-457,270	-19,846	0,135	-0,060
-456,255	800,000	0,013	-0,029
-455,241	-200,000	-0,006	0,030
-454,226	-200,000	0,034	0,115
-453,211	-200,000	-0,032	-0,144
-452,197	-200,000	0,028	0,094
-451,182	-26,071	0,057	0,024
-450,168	-200,000	0,026	0,108
-449,153	-200,000	-0,015	-0,063
-448,138	15,288	0,088	0,050
-447,124	140,497	-0,032	0,030
-446,109	131,006	0,036	-0,033
-445,095	-128,429	0,063	-0,006
-444,080	410,209	0,082	-0,125
-443,065	-200,000	0,012	-0,042
-442,051	-174,965	-0,118	-0,002
-441,036	412,257	-0,056	-0,086
-440,022	-71,223	0,036	-0,010
-439,007	90,777	-0,053	-0,042
-437,992	5,023	0,130	0,069
-436,978	800,000	0,012	-0,027
-435,963	800,000	-0,015	-0,046
-434,949	-200,000	0,005	0,077
-433,934	-200,000	-0,040	-0,138
-432,919	218,058	0,007	0,008
-431,905	125,027	-0,044	0,040
-430,890	800,000	0,028	0,056
-429,876	644,737	0,021	-0,040
-428,861	800,000	0,040	-0,086
-427,846	341,373	-0,022	-0,031
-426,832	-148,567	-0,121	-0,007
-425,817	-200,000	0,004	0,055
-424,803	435,011	-0,020	-0,032
-423,788	417,507	0,083	-0,128
-422,773	-200,000	0,009	-0,083
-421,759	27,251	0,149	0,090
-420,744	-47,470	-0,107	0,037
-419,730	771,947	-0,047	0,093
-418,715	40,544	0,059	0,038
-417,701	-200,000	0,003	-0,074
-416,686	388,127	0,082	-0,122
-415,671	-143,490	0,018	-0,001
-414,657	-200,000	-0,019	-0,113
-413,642	15,560	-0,018	0,010
-412,628	788,341	-0,022	0,044
-411,613	-200,000	0,009	-0,051
-410,598	107,369	-0,023	-0,020
-409,584	-122,228	0,063	0,007
-408,569	-26,247	0,227	0,095
-407,555	112,107	0,074	0,064
-406,540	67,195	0,105	-0,077
-405,525	167,937	0,022	-0,022
-404,511	466,205	0,031	-0,050
-403,496	-16,641	-0,261	-0,118
-402,482	76,774	-0,026	0,019
-401,467	15,843	0,138	-0,078
-400,452	-200,000	0,025	0,094
-399,438	-33,455	0,089	0,035
-398,423	1,089	-0,134	0,069
-397,409	-173,696	-0,116	-0,002
-396,394	-64,470	-0,015	-0,004
-395,379	-200,000	-0,012	0,069
-394,365	-157,459	0,042	-0,002
-393,350	-43,508	0,078	0,028
-392,336	-200,000	0,002	0,109
-391,321	103,527	-0,021	0,018
-390,306	73,578	-0,130	0,098
-389,292	-200,000	-0,002	-0,015
-388,277	-17,835	0,062	-0,028
-387,263	158,102	-0,034	0,034
-386,248	-36,275	-0,112	-0,043
-385,233	-195,173	-0,011	0,000
-384,219	-200,000	-0,008	0,030
-383,204	-140,464	-0,067	-0,005
-382,190	-167,634	-0,114	-0,003
-381,175	-182,577	0,030	0,000
-380,160	-200,000	0,022	0,074
-379,146	-200,000	0,023	-0,128
-378,131	244,036	-0,077	0,092
-377,117	110,633	-0,117	0,101
-376,102	-200,000	0,025	0,102
-375,088	354,727	-0,066	-0,094
-374,073	1,976	-0,054	-0,028
-373,058	-38,491	0,060	-0,023
-372,044	183,963	-0,039	-0,041
-371,029	6,282	0,082	-0,043
-370,015	800,000	0,094	-0,189
-369,000	-19,790	0,091	0,040
-367,985	-42,360	0,037	-0,014
-366,971	-47,318	-0,075	0,026
-365,956	417,055	-0,059	0,090
-364,942	-200,000	-0,000	0,123
-363,927	408,260	-0,008	-0,013
-362,912	-200,000	-0,010	0,083
-361,898	-200,000	-0,038	-0,142
-360,883	491,975	-0,060	-0,099
-359,869	105,048	0,115	0,097
-358,854	110,703	0,032	0,028
-357,839	-41,427	0,160	-0,059
-356,825	-65,944	0,042	-0,012
-355,810	-28,367	0,143	-0,059
-354,796	-24,442	-0,074	-0,031
-353,781	45,877	-0,064	-0,042
-352,766	-117,490	0,054	0,007
-351,752	298,712	0,085	-0,113
-350,737	49,858	0,086	-0,058
-349,723	12,283	-0,078	-0,043
-348,708	800,000	0,038	0,098
-347,693	-85,785	0,082	-0,018
-346,679	-200,000	0,010	-0,275
-345,664	-138,905	-0,060	0,005
-344,650	167,277	0,123	-0,126
-343,635	-200,000	-0,020	0,090
-342,620	239,077	-0,049	-0,059
-341,606	39,299	0,067	0,043
-340,591	-200,000	0,015	0,085
-339,577	800,000	0,034	-0,087
-338,562	113,797	-0,045	-0,039
-337,548	244,747	0,044	-0,054
-336,533	-200,000	-0,006	0,033
-335,518	800,000	0,066	0,152
-334,504	-17,133	0,052	0,023
-333,489	55,648	0,046	0,032
-332,475	800,000	-0,076	-0,233
-331,460	-26,183	-0,103	0,043
-330,445	33,854	0,057	-0,036
-329,431	101,233	0,032	0,027
-328,416	70,036	0,109	0,080
-327,402	48,583	-0,063	0,042
-326,387	-99,128	-0,069	-0,012
-325,372	167,087	-0,041	0,042
-324,358	-77,601	0,087	0,021
-323,343	581,807	-0,010	-0,017
-322,329	800,000	0,010	0,028
-321,314	-19,929	0,113	0,050
-320,299	800,000	-0,029	0,067
-319,285	-175,637	-0,037	-0,001
-318,270	94,238	-0,077	0,062
-317,256	697,447	0,072	-0,136
-316,241	147,223	-0,102	-0,098
-315,226	372,773	0,007	0,010
-314,212	800,000	0,046	-0,109
-313,197	-134,166	0,014	-0,001
-312,183	369,349	-0,006	0,008
-311,168	-22,241	-0,106	-0,046
-310,153	67,578	0,035	-0,025
-309,139	-152,236	0,031	0,002
-308,124	95,675	-0,013	0,011
-307,110	800,000	0,056	0,153
-306,095	-59,874	-0,058	0,018
-305,080	-200,000	0,034	0,147
-304,066	800,000	-0,024	-0,060
-303,051	-200,000	0,029	-0,116
-302,037	800,000	-0,019	-0,050
-301,022	-41,279	-0,063	-0,023
-300,008	-40,695	0,067	0,025
-298,993	-161,167	0,184	-0,007
-297,978	-200,000	0,032	0,176
-296,964	112,683	-0,073	0,063
-295,949	-157,307	-0,057	0,002
-294,935	-200,000	0,000	0,076
-293,920	-200,000	-0,003	0,089
-292,905	216,340	0,134	0,153
-291,891	259,322	0,068	0,084
-290,876	800,000	-0,019	0,059
-289,862	-200,000	-0,010	0,070
-288,847	-200,000	-0,007	-0,075
-287,832	-200,000	0,016	-0,127
-286,818	-200,000	-0,013	-0,102
-285,803	8,531	0,061	-0,033
-284,789	31,016	-0,117	-0,071
-283,774	800,000	0,066	0,197
-282,759	57,524	0,122	-0,085
-281,745	-178,273	-0,082	-0,001
-280,730	634,340	0,066	-0,121
-279,716	-157,440	0,032	0,001
-278,701	-126,301	0,028	-0,003
-277,686	183,760	0,112	0,118
-276,672	-200,000	0,022	0,095
-275,657	-49,371	0,030	0,010
-274,643	32,195	-0,043	-0,027
-273,628	-52,937	-0,090	0,030
-272,613	28,660	0,078	0,047
-271,599	139,874	0,064	-0,060
-270,584	-44,446	-0,075	0,027
-269,570	411,849	-0,059	0,089
-268,555	95,127	-0,077	0,063
-267,540	258,503	-0,053	0,065
-266,526	-200,000	0,004	0,066
-265,511	800,000	0,016	0,035
-264,497	-6,890	0,097	-0,047
-263,482	18,320	0,050	0,028
-262,467	-110,100	0,090	-0,013
-261,453	267,867	-0,059	-0,074
-260,438	467,966	-0,067	-0,107
-259,424	-200,000	-0,002	-0,114
-258,409	800,000	-0,062	-0,187
-257,395	-200,000	-0,016	-0,072
-256,380	-88,949	0,071	0,015
-255,365	55,107	0,033	-0,023
-254,351	752,091	0,041	0,079
-253,336	-200,000	-0,005	-0,081
-252,322	-200,000	0,006	-0,080
-251,307	83,780	0,070	-0,055
-250,292	800,000	0,045	-0,093
-249,278	302,248	0,082	-0,109
-248,263	370,205	0,005	-0,007
-247,249	-200,000	0,023	0,176
-246,234	124,146	0,023	-0,021
-245,219	-200,000	-0,025	-0,121
-244,205	32,010	0,160	0,098
-243,190	-118,482	-0,101	0,013
-242,176	85,972	0,099	-0,078
-241,161	63,051	-0,044	0,031
-240,146	202,780	-0,081	-0,089
-239,132	615,729	0,049	-0,089
-238,117	127,844	0,092	-0,083
-237,103	101,745	0,036	0,030
-236,088	265,311	0,058	0,072
-235,073	-88,961	0,088	0,019
-234,059	83,608	0,082	0,064
-233,044	-200,000	-0,007	0,049
-232,030	587,331	-0,084	0,148
-231,015	-64,109	0,092	0,027
-230,000	191,297	-0,099	-0,106
-228,986	-108,848	0,074	-0,011
-227,971	-68,919	-0,069	0,019
-226,957	131,344	-0,055	0,050
-225,942	-55,060	-0,015	-0,005
-224,927	634,250	0,047	-0,084
-223,913	-200,000	-0,054	-0,179
-222,898	-200,000	-0,009	-0,076
-221,884	800,000	0,008	0,022
-220,869	-200,000	0,004	0,014
-219,855	-122,310	0,124	0,014
-218,840	-5,290	-0,109	-0,053
-217,825	118,643	0,062	0,055
-216,811	-200,000	0,054	-0,186
-215,796	800,000	-0,064	-0,167
-214,782	52,839	0,041	-0,028
-213,767	308,280	-0,053	0,071
-212,752	79,619	0,128	0,098
-211,738	659,240	-0,022	-0,041
-210,723	518,647	0,035	0,059
-209,709	199,532	-0,039	-0,043
-208,694	-96,241	-0,106	0,020
-207,679	-117,828	0,156	0,020
-206,665	173,768	0,091	0,093
-205,650	726,325	0,066	-0,126
-204,636	52,408	0,172	-0,117
-203,621	-36,788	0,060	-0,023
-202,606	77,815	-0,088	0,067
-201,592	109,336	0,062	-0,053
-200,577	-200,000	0,002	0,080
-199,563	-200,000	-0,003	0,014
-198,548	551,102	0,072	0,124
-197,533	54,457	0,057	0,039
-196,519	21,361	-0,101	0,058
-195,504	56,079	-0,031	0,021
-194,490	-200,000	0,009	-0,047
-193,475	-200,000	0,000	-0,044
-192,460	800,000	-0,056	-0,121
-191,446	-200,000	-0,005	0,292
-190,431	70,942	0,065	0,048
-189,417	216,722	-0,055	0,062
-188,402	-78,638	0,084	0,020
-187,387	-73,718	-0,184	0,047
-186,373	-200,000	0,002	0,085
-185,358	23,422	-0,057	0,033
-184,344	351,848	0,034	-0,048
-183,329	800,000	0,074	0,176
-182,315	202,436	-0,090	0,099
-181,300	-200,000	0,004	0,014
-180,285	800,000	-0,083	-0,168
-179,271	-64,505	-0,063	-0,018
-178,256	-35,761	-0,083	0,032
-177,242	800,000	-0,038	-0,099
-176,227	-46,377	0,089	-0,031
-175,212	10,880	0,103	0,056
-174,198	-56,734	-0,091	-0,028
-173,183	-200,000	-0,016	-0,180
-172,169	303,717	-0,094	-0,124
-171,154	45,847	-0,145	-0,095
-170,139	43,592	-0,133	-0,086
-169,125	39,217	-0,039	-0,025
-168,110	400,169	0,013	0,019
-167,096	786,077	0,041	0,080
-166,081	-106,871	-0,189	0,029
-165,066	-59,034	-0,050	0,015
-164,052	-200,000	0,006	-0,099
-163,037	800,000	-0,039	0,106
-162,023	-80,229	0,087	0,021
-161,008	172,212	0,077	0,079
-159,993	-110,072	-0,143	0,021
-158,979	337,703	0,124	-0,172
-157,964	-200,000	-0,025	-0,128
-156,950	-200,000	-0,033	-0,122
-155,935	31,752	-0,028	0,017
-154,920	504,588	0,035	0,057
-153,906	-110,939	0,187	-0,027
-152,891	-200,000	0,040	-0,130
-151,877	-200,000	0,019	0,132
-150,862	370,157	0,022	0,031
-149,847	-30,110	-0,169	0,068
-148,833	60,958	-0,035	0,024
-147,818	401,437	-0,039	-0,058
-146,804	-37,676	0,061	-0,023
-145,789	-17,162	0,008	-0,004
-144,775	-72,378	-0,046	0,012
-143,760	-2,486	0,082	0,041
-142,745	410,751	0,007	-0,011
-141,731	-200,000	-0,010	0,153
-140,716	800,000	0,077	0,163
-139,702	242,943	0,111	0,132
-138,687	-200,000	0,005	0,096
-137,672	-61,936	-0,012	-0,004
-136,658	-47,720	-0,055	-0,019
-135,643	-121,948	0,009	-0,001
-134,629	800,000	0,014	-0,041
-133,614	667,746	-0,053	-0,097
-132,599	-46,919	-0,125	-0,043
-131,585	-200,000	0,013	0,091
-130,570	105,855	-0,118	0,099
-129,556	800,000	0,044	0,111
-128,541	64,833	0,105	0,075
-127,526	-35,487	-0,159	0,061
-126,512	-134,847	0,074	0,006
-125,497	-168,483	0,156	-0,004
-124,483	152,090	-0,016	0,016
-123,468	542,678	-0,076	-0,129
-122,453	2,368	0,059	-0,030
-121,439	-105,949	0,002	0,000
-120,424	158,066	-0,069	0,068
-119,410	-31,322	-0,016	-0,007
-118,395	-200,000	0,010	-0,033
-117,380	124,189	0,147	0,131
-116,366	66,518	0,062	-0,045
-115,351	-69,975	-0,103	-0,028
-114,337	97,034	0,041	0,033
-113,322	-200,000	-0,019	0,075
-112,307	115,551	0,043	0,038
-111,293	148,091	-0,068	-0,065
-110,278	362,673	-0,064	0,092
-109,264	10,957	-0,100	0,054
-108,249	381,853	-0,045	-0,066
-107,234	-65,669	0,027	-0,008
-106,220	84,142	-0,042	0,033
-105,205	-161,578	0,120	0,004
-104,191	26,276	-0,083	-0,049
-103,176	-172,787	0,012	-0,000
-102,162	-200,000	0,020	0,074
-101,147	-33,736	-0,090	-0,035
-100,132	-33,220	0,058	-0,023
-99,118	-200,000	-0,006	0,075
-98,103	800,000	-0,030	-0,070
-97,089	394,239	0,082	0,121
-96,074	-196,473	-0,105	0,000
-95,059	-39,089	0,203	0,075
-94,045	-73,486	0,098	0,025
-93,030	-200,000	-0,018	-0,059
-92,016	-200,000	0,043	0,141
-91,001	-100,471	0,121	0,021
-89,986	-64,911	-0,063	0,018
-88,972	800,000	0,035	-0,087
-87,957	-141,390	-0,048	0,003
-86,943	800,000	-0,022	0,044
-85,928	111,128	-0,024	-0,021
-84,913	294,682	0,095	-0,123
-83,899	141,023	-0,083	-0,078
-82,884	15,501	0,105	0,058
-81,870	-139,570	-0,075	-0,006
-80,855	-61,418	-0,052	-0,015
-79,840	-200,000	-0,003	-0,019
-78,826	-200,000	0,005	-0,060
-77,811	800,000	-0,042	-0,110
-76,797	165,242	0,029	0,029
-75,782	-85,810	-0,036	-0,008
-74,767	60,172	0,079	0,055
-73,753	800,000	-0,017	0,045
-72,738	34,203	-0,062	0,038
-71,724	222,886	-0,009	-0,011
-70,709	800,000	-0,005	-0,012
-69,694	757,690	0,049	-0,095
-68,680	36,019	0,137	0,085
-67,665	-2,128	0,126	0,062
-66,651	-200,000	-0,011	0,228
-65,636	187,861	0,043	0,046
-64,622	-79,922	-0,072	0,017
-63,607	-84,004	-0,088	0,020
-62,592	185,002	0,059	-0,062
-61,578	294,262	-0,056	0,073
-60,563	-26,344	0,013	-0,005
-59,549	800,000	-0,049	-0,105
-58,534	-63,322	-1,549	-0,449
-57,519	341,017	-1,502	-2,083
-56,505	-200,000	-0,529	-4,492
-55,490	61,606	1,109	0,781
-54,476	800,000	4,877	11,392
-53,461	-200,000	18,184	286,744
-52,446	800,000	726,220	2225,612
-51,432	554,782	1642,560	2809,608
-50,417	79,418	1665,249	1263,378
-49,403	22,911	1539,106	891,134
-48,388	16,909	1462,111	817,495
-47,373	17,845	1451,988	816,308
-46,359	17,296	1442,455	808,292
-45,344	15,189	1437,939	795,674
-44,330	15,117	1435,941	794,194
-43,315	15,128	1434,041	793,163
-42,300	15,099	1432,615	792,203
-41,286	15,156	1431,414	791,778
-40,271	15,110	1430,306	790,916
-39,257	15,090	1429,154	790,153
-38,242	15,143	1427,637	789,536
-37,227	15,119	1426,599	788,817
-36,213	15,146	1425,228	788,156
-35,198	15,141	1423,892	787,362
-34,184	15,168	1423,080	787,006
-33,169	15,101	1421,840	785,974
-32,154	15,131	1420,872	785,549
-31,140	15,143	1419,629	784,890
-30,125	15,220	1418,237	784,452
-29,111	15,191	1417,101	783,655
-28,096	15,162	1416,069	782,914
-27,082	15,063	1414,966	781,812
-26,067	15,105	1413,817	781,342
-25,052	15,090	1412,786	780,668
-24,038	15,075	1412,002	780,137
-23,023	15,029	1410,860	779,257
-22,009	15,059	1409,810	778,788
-20,994	15,037	1408,928	778,167
-19,979	14,994	1408,022	777,436
-18,965	14,983	1407,026	776,803
-17,950	15,006	1406,058	776,345
-16,936	15,013	1405,191	775,870
-15,921	14,962	1404,115	775,004
-14,906	15,011	1403,014	774,597
-13,892	14,943	1402,347	773,881
-12,877	14,988	1401,273	773,467
-11,863	14,974	1400,418	772,896
-10,848	14,925	1399,474	772,118
-9,833	14,945	1398,520	771,654
-8,819	14,920	1397,731	771,072
-7,804	14,902	1396,779	770,434
-6,790	14,869	1395,634	769,620
-5,775	14,871	1394,774	769,124
-4,760	14,875	1393,875	768,617
-3,746	14,874	1393,081	768,140
-2,731	14,873	1392,076	767,553
-1,717	14,879	1391,220	767,079
-0,702	14,910	1389,292	766,128
0,313	18,612	1308,820	738,910
1,327	34,823	707,484	437,021
2,342	53,772	124,886	84,735
3,356	2,745	16,682	8,533
4,371	2,004	3,203	1,630
5,386	-38,648	0,621	0,231
6,400	800,000	0,058	0,141
7,415	174,955	-0,133	-0,136
8,429	-20,544	-0,504	-0,218
9,444	54,075	-0,225	-0,153
10,459	172,274	-0,246	-0,250
11,473	27,823	-0,224	-0,133
12,488	-27,485	-0,256	-0,105
13,502	128,285	-0,268	-0,242
14,517	17,127	-0,375	-0,210
15,531	-15,064	-0,427	-0,193
16,546	191,023	-0,230	-0,245
17,561	152,873	-0,394	-0,381
18,575	79,536	-0,237	-0,180
19,590	27,634	-0,299	-0,177
20,604	71,498	-0,162	-0,119
21,619	28,885	-0,470	-0,281
22,634	102,370	-0,423	-0,349
23,648	30,721	-0,404	-0,243
24,663	19,934	-0,410	-0,233
25,677	42,937	-0,449	-0,289
26,692	53,730	-0,326	-0,221
27,707	-13,983	-0,389	-0,177
28,721	25,606	-0,422	-0,247
29,736	109,378	-0,364	-0,307
30,750	151,757	-0,337	-0,324
31,765	123,879	-0,318	-0,282
32,780	131,226	-0,341	-0,309
33,794	183,266	-0,297	-0,310
34,809	14,576	-0,407	-0,224
35,823	86,007	-0,334	-0,259
36,838	-15,276	-0,478	-0,215
37,853	314,162	-0,277	-0,368
38,867	50,956	-0,195	-0,130
39,882	54,626	-0,360	-0,245
40,896	20,683	-0,350	-0,199
41,911	79,955	-0,281	-0,213
42,926	36,758	-0,328	-0,204
43,940	96,847	-0,427	-0,345
44,955	74,768	-0,298	-0,221
45,969	52,062	-0,313	-0,210
46,984	-39,352	-0,379	-0,139
47,999	160,293	-0,218	-0,214
49,013	7,248	-0,224	-0,118
50,028	-7,549	-0,426	-0,202
51,042	77,934	-0,340	-0,255
52,057	191,976	-0,341	-0,362
53,071	205,060	-0,376	-0,412
54,086	577,833	-0,233	-0,403
55,101	177,853	-0,221	-0,227
56,115	64,309	-0,275	-0,195
57,130	87,267	-0,319	-0,248
58,144	-21,122	-0,251	-0,108
59,159	46,408	-0,416	-0,271
60,174	33,296	-0,351	-0,214
61,188	214,097	-0,348	-0,388
62,203	64,052	-0,371	-0,262
63,217	-4,473	-0,330	-0,160
64,232	26,361	-0,411	-0,241
65,247	63,147	-0,333	-0,234
66,261	158,654	-0,264	-0,258
67,276	107,272	-0,393	-0,328
68,290	9,411	-0,360	-0,191
69,305	-7,809	-0,303	-0,144
70,320	69,741	-0,404	-0,292
71,334	134,273	-0,306	-0,279
72,349	58,935	-0,277	-0,191
73,363	3,594	-0,306	-0,156
74,378	107,424	-0,322	-0,269
75,393	188,773	-0,312	-0,329
76,407	-41,452	-0,339	-0,122
77,422	-56,638	-0,222	-0,069
78,436	-67,085	-0,294	-0,081
79,451	-16,849	-0,364	-0,161
80,466	-31,425	-0,339	-0,133
81,480	15,054	-0,301	-0,165
82,495	41,450	-0,334	-0,212
83,509	271,558	-0,179	-0,222
84,524	269,431	-0,104	-0,128
85,539	28,158	-0,291	-0,172
86,553	-37,448	-0,297	-0,111
87,568	84,660	-0,305	-0,234
88,582	-43,775	-0,325	-0,114
89,597	150,701	-0,232	-0,222
90,611	-96,606	-0,172	-0,032
91,626	32,582	-0,279	-0,169
92,641	215,114	-0,256	-0,285
93,655	46,268	-0,290	-0,189
94,670	175,367	-0,205	-0,209
95,684	177,911	-0,300	-0,308
96,699	176,377	-0,235	-0,240
97,714	104,326	-0,234	-0,193
98,728	177,440	-0,192	-0,196
99,743	106,679	-0,234	-0,195
100,757	118,272	-0,218	-0,188
101,772	280,838	-0,225	-0,283
102,787	158,581	-0,251	-0,245
103,801	225,462	-0,250	-0,284
104,816	-56,233	-0,273	-0,085
105,830	263,303	-0,171	-0,209
106,845	-26,452	-0,229	-0,094
107,860	-200,000	-0,063	-0,253
108,874	87,149	-0,349	-0,271
109,889	-7,833	-0,272	-0,128
110,903	140,092	-0,125	-0,115
111,918	-10,266	-0,221	-0,102
112,933	-21,277	-0,206	-0,088
113,947	-18,867	-0,207	-0,090
114,962	-10,380	-0,218	-0,101
115,976	-29,435	-0,198	-0,079
116,991	242,113	-0,217	-0,255
118,006	240,615	-0,263	-0,307
119,020	112,612	-0,280	-0,237
120,035	-41,539	-0,322	-0,115
121,049	-0,174	-0,296	-0,147
122,064	56,317	-0,387	-0,263
123,079	-17,303	-0,232	-0,102
124,093	800,000	-0,097	-0,275
125,108	-33,698	-0,273	-0,105
126,122	84,279	-0,230	-0,176
127,137	76,578	-0,231	-0,171
128,151	-26,410	-0,269	-0,110
129,166	800,000	-0,062	-0,135
130,181	218,540	-0,207	-0,232
131,195	14,860	-0,275	-0,150
132,210	32,222	-0,286	-0,172
133,224	14,317	-0,376	-0,205
134,239	73,935	-0,206	-0,151
135,254	35,008	-0,274	-0,168
136,268	224,848	-0,276	-0,313
137,283	112,996	-0,212	-0,180
138,297	295,776	-0,235	-0,302
139,312	96,132	-0,365	-0,292
140,327	255,618	-0,168	-0,202
141,341	-77,459	-0,203	-0,049
142,356	40,576	-0,208	-0,131
143,370	119,553	-0,156	-0,135
144,385	44,875	-0,281	-0,180
145,400	122,328	-0,331	-0,289
146,414	39,469	-0,234	-0,146
147,429	74,621	-0,274	-0,201
148,443	2,675	-0,313	-0,158
149,458	174,663	-0,228	-0,230
150,473	73,224	-0,158	-0,115
151,487	-137,617	-0,257	-0,020
152,502	393,366	-0,170	-0,247
153,516	80,942	-0,274	-0,207
154,531	114,789	-0,262	-0,223
155,546	80,214	-0,236	-0,177
156,560	492,964	-0,104	-0,167
157,575	800,000	-0,163	-0,340
158,589	163,027	-0,279	-0,274
159,604	47,586	-0,260	-0,169
160,619	325,925	-0,250	-0,335
161,633	82,385	-0,298	-0,226
162,648	193,663	-0,215	-0,228
163,662	-5,330	-0,138	-0,066
164,677	253,640	-0,206	-0,246
165,692	-6,630	-0,176	-0,083
166,706	-25,252	-0,188	-0,077
167,721	156,466	-0,218	-0,210
168,735	130,029	-0,260	-0,232
169,750	16,372	-0,368	-0,202
170,764	126,291	-0,248	-0,219
171,779	120,657	-0,212	-0,183
172,794	11,550	-0,204	-0,109
173,808	19,918	-0,294	-0,165
174,823	65,691	-0,218	-0,154
175,837	-35,624	-0,327	-0,123
176,852	207,175	-0,226	-0,245
177,867	47,335	-0,233	-0,151
178,881	-46,006	-0,158	-0,054
179,896	-94,512	-0,252	0,047
180,910	4,889	-0,216	-0,111
181,925	42,381	-0,277	-0,175
182,940	16,047	-0,302	-0,165
183,954	50,569	-0,242	-0,159
184,969	299,792	-0,154	-0,199
185,983	49,321	-0,190	-0,124
186,998	505,935	-0,154	-0,249
188,013	-80,639	-0,128	-0,029
189,027	132,837	-0,160	-0,144
190,042	-30,233	-0,249	-0,098
191,056	44,087	-0,204	-0,130
192,071	63,413	-0,231	-0,161
193,086	107,114	-0,231	-0,191
194,100	-125,983	-0,218	-0,023
195,115	-25,178	-0,338	-0,138
196,129	34,975	-0,223	-0,135
197,144	34,729	-0,210	-0,128
198,159	359,524	-0,153	-0,213
199,173	-126,504	-0,190	-0,019
200,188	49,496	-0,222	-0,145
201,202	-54,095	-0,296	-0,093
202,217	-191,195	-0,179	0,001
203,232	245,813	-0,153	-0,179
204,246	327,992	-0,160	-0,214
205,261	430,454	-0,105	-0,158
206,275	722,504	-0,147	-0,274
207,290	-31,234	-0,240	-0,094
208,304	-59,838	-0,299	-0,088
209,319	21,621	-0,147	-0,083
210,334	-75,317	-0,251	-0,062
211,348	79,788	-0,246	-0,183
212,363	-74,051	-0,152	-0,038
213,377	27,603	-0,222	-0,130
214,392	-78,111	-0,139	-0,033
215,407	140,878	-0,148	-0,136
216,421	-29,850	-0,191	-0,075
217,436	69,630	-0,273	-0,195
218,450	-135,308	-0,263	0,022
219,465	146,483	-0,267	-0,249
220,480	115,888	-0,211	-0,179
221,494	209,710	-0,116	-0,126
222,509	398,571	-0,090	-0,131
223,523	36,040	-0,350	-0,213
224,538	201,879	-0,205	-0,220
225,553	800,000	-0,110	-0,233
226,567	178,139	-0,180	-0,183
227,582	66,027	-0,175	-0,123
228,596	448,324	-0,112	-0,172
229,611	326,650	-0,081	-0,108
230,626	61,591	-0,254	-0,175
231,640	661,936	-0,073	-0,131
232,655	115,394	-0,260	-0,220
233,669	57,062	-0,183	-0,124
234,684	160,239	-0,266	-0,257
235,699	-127,400	-0,192	-0,019
236,713	-86,568	-0,274	-0,058
237,728	579,731	-0,117	-0,200
238,742	-200,000	-0,032	-0,202
239,757	290,433	-0,168	-0,212
240,772	158,076	-0,177	-0,170
241,786	150,432	-0,216	-0,203
242,801	800,000	-0,044	-0,130
243,815	60,804	-0,236	-0,162
244,830	695,821	-0,107	-0,196
245,844	800,000	-0,075	-0,211
246,859	43,908	-0,281	-0,178
247,874	383,254	-0,158	-0,225
248,888	308,639	-0,114	-0,148
249,903	57,620	-0,154	-0,104
250,917	-57,060	-0,136	0,041
251,932	-76,656	-0,180	0,043
252,947	-131,878	-0,200	-0,018
253,961	168,985	-0,073	-0,073
254,976	184,652	-0,218	-0,224
255,990	5,070	-0,242	-0,123
257,005	732,803	-0,098	-0,183
258,020	45,219	-0,147	-0,094
259,034	117,527	-0,169	-0,144
260,049	-57,025	-0,263	-0,080
261,063	-32,821	-0,254	-0,097
262,078	13,954	-0,282	-0,152
263,093	-170,332	-0,193	-0,005
264,107	365,164	-0,092	-0,128
265,122	-13,852	-0,224	-0,100
266,136	726,851	-0,144	-0,266
267,151	344,021	-0,184	-0,250
268,166	52,046	-0,303	-0,199
269,180	352,104	-0,114	-0,156
270,195	142,266	-0,149	-0,137
271,209	89,256	-0,143	-0,110
272,224	800,000	-0,105	-0,203
273,239	-70,969	-0,225	0,058
274,253	-4,242	-0,134	0,064
275,268	-71,482	-0,148	-0,038
276,282	242,469	-0,088	-0,101
277,297	324,568	-0,132	-0,175
278,312	-38,544	-0,258	-0,094
279,326	-200,000	-0,032	-0,158
280,341	-200,000	-0,012	-0,084
281,355	-33,538	-0,186	-0,071
282,370	-200,000	-0,044	-0,151
283,384	-157,833	-0,133	0,005
284,399	152,554	-0,134	-0,126
285,414	199,050	-0,181	-0,192
286,428	-19,841	-0,203	-0,086
287,443	-94,123	-0,257	-0,048
288,457	-153,696	-0,108	0,005
289,472	-87,488	-0,110	-0,023
290,487	-16,747	-0,245	-0,107
291,501	-112,205	-0,217	-0,030
292,516	717,014	-0,065	-0,119
293,530	800,000	-0,094	-0,180
294,545	-47,813	-0,174	-0,058
295,560	-200,000	0,019	-0,141
296,574	-40,468	-0,120	-0,043
297,589	5,736	-0,290	-0,147
298,603	185,081	-0,185	-0,190
299,618	178,086	-0,136	-0,136
300,633	-53,739	-0,181	-0,057
301,647	553,925	-0,104	-0,174
302,662	266,973	-0,171	-0,206
303,676	-200,000	0,042	-0,201
304,691	-102,120	-0,177	-0,029
305,706	377,901	-0,092	-0,130
306,720	430,017	-0,104	-0,155
307,735	-126,576	-0,005	-0,000
308,749	-33,843	-0,158	-0,060
309,764	65,424	-0,095	-0,066
310,779	-80,809	-0,218	-0,049
311,793	-46,379	-0,204	-0,069
312,808	152,191	-0,117	-0,110
313,822	-200,000	0,011	-0,074
314,837	260,122	-0,109	-0,129
315,852	800,000	0,021	-0,059
316,866	-92,695	-0,100	0,019
317,881	800,000	-0,113	-0,218
318,895	-115,101	-0,204	0,026
319,910	-95,274	-0,148	0,027
320,925	753,305	-0,072	-0,135
321,939	107,731	-0,189	-0,155
322,954	24,400	-0,115	-0,065
323,968	378,104	-0,059	0,083
324,983	22,228	-0,113	-0,064
325,997	249,907	-0,170	-0,199
327,012	-68,049	-0,170	0,045
328,027	-95,092	-0,155	-0,029
329,041	-200,000	-0,000	-0,223
330,056	-200,000	-0,024	-0,079
331,070	-93,350	-0,139	0,026
332,085	-2,010	-0,159	-0,076
333,100	194,557	-0,072	-0,075
334,114	167,751	-0,101	-0,099
335,129	800,000	-0,127	-0,252
336,143	34,238	-0,108	-0,065
337,158	800,000	-0,059	-0,167
338,173	-45,392	-0,177	-0,060
339,187	27,867	-0,132	-0,076
340,202	88,051	-0,113	-0,086
341,216	509,480	-0,125	-0,200
342,231	335,295	-0,089	-0,119
343,246	167,521	-0,052	-0,051
344,260	-133,021	-0,105	-0,009
345,275	123,220	-0,197	-0,170
346,289	800,000	-0,061	-0,161
347,304	259,663	-0,188	-0,224
348,319	800,000	-0,078	-0,192
349,333	305,941	-0,153	-0,195
350,348	-200,000	-0,062	-0,237
351,362	322,912	-0,093	-0,121
352,377	312,507	-0,062	-0,080
353,392	800,000	-0,048	-0,125
354,406	-116,314	-0,132	0,017
355,421	209,321	1314,988	1415,083
356,435	161,099	1475,753	1415,588
