DTS Sentinel unit serial number:	SN410029Multiplexer serial number:	ORYXHardware model number:	OX2-SRSoftware version number:	ORYX F/W v4,00 Oryx Data Collector v3.7.2.0data status	okinstallation	B3 Nyhavnadifferential loss correction	single-endedforward channel	channel 1reverse channel	N/Adate	2023/12/03time	01:07:30forward acquisition time	300,00reverse acquisition time	0,00gamma	499,1914k internal	0,3201k external	0,3201temperature offset calibration	1,0000default loss term (dB/km)	0,3820temperature slope calibration	1,0000multiplexer offset coefficient	1,0000multiplexer slope coefficient	1,0000fibre end	0,00T internal ref (°C)	13,33T ext. ref 1 (°C)	-1,67T ext. ref 2 (°C)	-1,70length (m)	temperature (°C)	Stokes	anti-Stokes-744,400	246,476	-0,215	-0,264
-743,385	-200,000	0,054	0,318
-742,371	160,588	-0,227	-0,231
-741,356	-200,000	0,035	0,259
-740,342	-31,163	-0,161	-0,066
-739,327	-200,000	-0,010	0,302
-738,312	95,802	-0,238	-0,198
-737,298	800,000	-0,069	0,146
-736,283	-200,000	-0,062	-0,200
-735,269	-200,000	0,051	0,212
-734,254	329,368	-0,113	-0,158
-733,239	-150,998	-0,131	0,007
-732,225	155,760	-0,156	-0,157
-731,210	-200,000	0,032	0,120
-730,196	-37,784	0,048	0,018
-729,181	468,578	-0,065	0,107
-728,167	-200,000	0,022	-0,107
-727,152	-200,000	-0,017	-0,126
-726,137	-200,000	-0,000	0,061
-725,123	-200,000	0,008	0,142
-724,108	-120,955	-0,108	-0,013
-723,094	-48,298	-0,081	-0,028
-722,079	-149,070	-0,131	-0,008
-721,064	-200,000	-0,003	-0,031
-720,050	-112,872	-0,106	0,015
-719,035	87,082	0,018	0,015
-718,021	-4,969	-0,078	0,039
-717,006	800,000	0,032	0,075
-715,991	67,928	-0,126	-0,094
-714,977	31,660	-0,138	-0,086
-713,962	109,888	-0,067	0,059
-712,948	-200,000	-0,043	0,164
-711,933	-200,000	0,014	-0,049
-710,918	-58,676	0,092	-0,029
-709,904	-200,000	0,001	0,053
-708,889	-77,589	-0,045	-0,011
-707,875	5,327	-0,107	-0,057
-706,860	310,939	-0,022	-0,029
-705,845	-83,556	0,111	-0,026
-704,831	-130,616	-0,057	-0,005
-703,816	-200,000	0,018	0,089
-702,802	-77,523	-0,092	0,023
-701,787	-54,922	-0,082	-0,027
-700,772	-200,000	0,030	-0,118
-699,758	-42,516	-0,083	-0,031
-698,743	129,037	0,032	0,030
-697,729	-12,751	0,089	0,042
-696,714	-26,357	0,041	0,017
-695,699	-200,000	0,023	-0,088
-694,685	-147,644	0,078	-0,005
-693,670	800,000	0,032	-0,093
-692,656	-200,000	-0,026	-0,140
-691,641	-115,250	-0,135	0,018
-690,627	-200,000	-0,015	0,064
-689,612	-62,937	0,096	0,029
-688,597	0,576	0,021	0,011
-687,583	-200,000	-0,018	-0,160
-686,568	-200,000	-0,017	-0,112
-685,554	-200,000	-0,026	-0,146
-684,539	800,000	0,024	-0,070
-683,524	14,892	-0,091	0,052
-682,510	-136,124	0,078	0,007
-681,495	-200,000	0,019	0,098
-680,481	248,764	-0,069	-0,085
-679,466	12,419	-0,092	-0,051
-678,451	138,427	-0,085	0,081
-677,437	-153,518	0,064	0,003
-676,422	-72,765	0,091	-0,024
-675,408	800,000	-0,019	-0,055
-674,393	-200,000	-0,011	0,121
-673,378	92,518	0,035	-0,029
-672,364	744,583	-0,064	-0,125
-671,349	-75,456	-0,066	0,017
-670,335	-51,223	-0,085	0,029
-669,320	259,500	0,049	0,061
-668,305	322,623	-0,113	0,156
-667,291	-200,000	0,001	-0,004
-666,276	486,989	-0,064	-0,106
-665,262	-200,000	0,001	-0,044
-664,247	115,759	-0,159	-0,141
-663,232	105,509	0,072	-0,061
-662,218	-200,000	0,047	0,200
-661,203	-13,398	0,086	0,040
-660,189	-200,000	0,001	0,044
-659,174	-135,684	-0,178	-0,015
-658,159	451,248	-0,055	0,088
-657,145	174,571	-0,012	-0,013
-656,130	18,400	0,109	-0,063
-655,116	-46,692	0,076	-0,027
-654,101	-200,000	0,008	0,098
-653,086	-54,415	-0,046	0,015
-652,072	688,665	-0,045	0,087
-651,057	-200,000	-0,016	0,154
-650,043	-40,233	-0,123	-0,046
-649,028	800,000	0,033	-0,105
-648,014	39,413	-0,082	-0,053
-646,999	50,049	-0,032	0,022
-645,984	319,009	0,018	-0,025
-644,970	94,323	0,024	0,020
-643,955	-200,000	-0,041	-0,200
-642,941	-200,000	0,010	0,070
-641,926	267,418	0,105	-0,134
-640,911	800,000	-0,018	-0,044
-639,897	800,000	-0,022	0,067
-638,882	-200,000	-0,031	0,107
-637,868	-200,000	0,034	-0,162
-636,853	-200,000	-0,001	-0,007
-635,838	170,757	-0,066	0,068
-634,824	114,831	0,041	0,036
-633,809	-106,345	0,068	0,011
-632,795	143,913	-0,024	-0,023
-631,780	-84,670	0,093	0,021
-630,765	-200,000	-0,003	-0,125
-629,751	152,513	0,058	-0,058
-628,736	94,522	-0,185	-0,152
-627,722	-74,758	0,060	0,016
-626,707	-81,869	0,065	0,015
-625,692	-4,841	-0,012	-0,006
-624,678	-200,000	-0,012	-0,067
-623,663	-200,000	0,001	-0,049
-622,649	89,776	-0,031	-0,025
-621,634	-86,022	-0,108	-0,024
-620,619	-140,383	0,122	-0,009
-619,605	-38,267	-0,116	0,044
-618,590	-75,036	-0,026	-0,007
-617,576	-67,621	-0,049	0,014
-616,561	172,192	-0,047	0,049
-615,546	800,000	0,020	0,049
-614,532	-200,000	-0,009	-0,176
-613,517	-19,341	-0,048	-0,021
-612,503	800,000	0,040	0,098
-611,488	-5,412	0,060	0,030
-610,474	-200,000	-0,008	0,059
-609,459	14,479	0,018	-0,010
-608,444	-78,228	0,087	-0,022
-607,430	415,460	-0,040	0,062
-606,415	76,962	0,074	0,057
-605,401	162,432	-0,006	-0,006
-604,386	-157,594	-0,016	0,001
-603,371	-200,000	0,011	0,113
-602,357	-200,000	-0,010	0,041
-601,342	800,000	-0,082	-0,250
-600,328	-40,255	-0,110	-0,041
-599,313	800,000	-0,075	-0,157
-598,298	96,623	-0,095	0,078
-597,284	239,223	-0,017	0,020
-596,269	-200,000	-0,023	0,117
-595,255	-200,000	0,015	0,068
-594,240	-171,143	-0,107	-0,003
-593,225	101,774	0,034	-0,029
-592,211	-58,862	0,103	-0,032
-591,196	55,369	-0,095	-0,066
-590,182	-44,518	-0,107	0,039
-589,167	800,000	0,024	0,068
-588,152	-92,920	0,047	-0,009
-587,138	-200,000	0,011	-0,049
-586,123	641,038	-0,043	-0,080
-585,109	382,487	-0,024	-0,036
-584,094	59,472	0,048	0,034
-583,079	385,323	-0,054	0,081
-582,065	192,583	0,056	0,062
-581,050	-200,000	0,026	0,135
-580,036	800,000	-0,041	-0,087
-579,021	81,699	0,070	-0,055
-578,006	-200,000	-0,033	-0,117
-576,992	175,671	-0,054	0,057
-575,977	800,000	0,030	-0,077
-574,963	-200,000	0,015	0,064
-573,948	800,000	0,019	-0,044
-572,934	330,840	-0,041	0,058
-571,919	607,217	-0,053	-0,095
-570,904	-200,000	-0,004	-0,119
-569,890	6,704	0,064	0,034
-568,875	-150,699	-0,202	0,011
-567,861	-18,770	-0,096	0,043
-566,846	-200,000	-0,012	0,051
-565,831	476,426	0,045	0,074
-564,817	127,255	-0,128	0,117
-563,802	61,919	0,039	-0,028
-562,788	23,546	0,102	0,060
-561,773	-200,000	0,004	-0,015
-560,758	-88,070	-0,076	-0,016
-559,744	-200,000	0,006	0,081
-558,729	69,230	0,108	-0,080
-557,715	800,000	-0,020	-0,055
-556,700	149,472	0,089	0,088
-555,685	153,208	-0,057	0,057
-554,671	21,689	0,131	-0,077
-553,656	-161,714	-0,025	0,001
-552,642	-6,909	0,082	-0,040
-551,627	272,860	-0,047	0,060
-550,612	-200,000	0,029	-0,124
-549,598	233,878	-0,048	-0,057
-548,583	336,173	0,048	-0,068
-547,569	800,000	0,019	-0,040
-546,554	-148,951	-0,057	0,003
-545,539	378,062	0,053	0,078
-544,525	144,093	0,019	-0,019
-543,510	-200,000	-0,036	-0,209
-542,496	-200,000	-0,001	-0,102
-541,481	800,000	0,029	-0,062
-540,466	-200,000	0,009	0,076
-539,452	125,950	-0,122	0,111
-538,437	-200,000	0,001	0,105
-537,423	96,815	0,066	-0,055
-536,408	800,000	-0,061	-0,140
-535,393	232,641	0,067	-0,080
-534,379	-200,000	-0,008	-0,041
-533,364	-150,429	0,085	-0,005
-532,350	-20,661	0,160	-0,071
-531,335	800,000	0,071	0,152
-530,321	159,611	-0,101	0,101
-529,306	146,378	-0,087	0,084
-528,291	73,333	0,082	0,061
-527,277	-200,000	-0,031	-0,145
-526,262	486,601	-0,064	-0,105
-525,248	-113,111	0,096	0,014
-524,233	-200,000	0,013	-0,137
-523,218	2,447	0,182	-0,095
-522,204	400,554	-0,059	0,090
-521,189	-200,000	-0,001	-0,127
-520,175	-137,000	-0,160	-0,013
-519,160	-200,000	-0,009	-0,043
-518,145	45,042	0,135	-0,090
-517,131	-200,000	0,006	-0,071
-516,116	176,770	-0,056	-0,059
-515,102	38,295	-0,038	-0,024
-514,087	-200,000	0,002	-0,063
-513,072	800,000	-0,089	-0,226
-512,058	800,000	-0,044	-0,120
-511,043	-200,000	0,007	-0,043
-510,029	419,301	0,059	0,092
-509,014	245,246	0,050	0,061
-507,999	-200,000	-0,001	0,058
-506,985	295,078	-0,030	-0,039
-505,970	-200,000	-0,013	-0,149
-504,956	312,437	-0,057	0,077
-503,941	429,135	-0,023	-0,036
-502,926	106,424	0,110	0,094
-501,912	6,939	-0,091	-0,049
-500,897	169,841	0,119	-0,123
-499,883	-34,243	-0,115	0,045
-498,868	-200,000	-0,015	-0,069
-497,853	-144,914	0,152	0,010
-496,839	-124,817	-0,139	-0,015
-495,824	-200,000	0,001	-0,006
-494,810	-107,512	-0,202	-0,032
-493,795	800,000	-0,040	0,090
-492,781	340,141	0,037	0,052
-491,766	-26,904	-0,097	-0,041
-490,751	31,408	0,037	-0,023
-489,737	-200,000	0,026	0,093
-488,722	-159,090	-0,109	0,004
-487,708	152,366	0,045	0,044
-486,693	-200,000	0,059	0,000
-485,678	-200,000	-0,032	0,121
-484,664	-1,404	-0,060	0,031
-483,649	-200,000	-0,012	-0,170
-482,635	216,345	-0,041	-0,047
-481,620	-68,664	0,097	0,027
-480,605	415,821	0,105	0,161
-479,591	-155,161	0,130	-0,006
-478,576	800,000	-0,042	0,084
-477,562	-200,000	0,001	0,037
-476,547	-200,000	0,036	-0,164
-475,532	-56,495	-0,157	-0,050
-474,518	49,502	0,102	-0,069
-473,503	494,183	0,091	0,151
-472,489	-64,678	-0,093	-0,027
-471,474	-200,000	0,007	0,094
-470,459	3,628	0,069	0,036
-469,445	588,204	0,056	-0,100
-468,430	800,000	0,047	-0,141
-467,416	-200,000	0,014	-0,071
-466,401	-200,000	-0,004	-0,116
-465,386	-37,314	-0,053	0,020
-464,372	-200,000	0,008	-0,035
-463,357	-200,000	0,017	-0,159
-462,343	800,000	0,014	-0,037
-461,328	-74,685	-0,047	0,012
-460,313	800,000	0,018	-0,054
-459,299	40,601	0,050	0,032
-458,284	800,000	-0,026	0,063
-457,270	-200,000	0,001	-0,094
-456,255	160,498	0,035	0,035
-455,241	-137,010	-0,073	-0,006
-454,226	800,000	-0,036	-0,077
-453,211	295,852	0,056	-0,074
-452,197	51,413	0,131	-0,089
-451,182	-200,000	-0,012	0,039
-450,168	-68,229	-0,121	-0,034
-449,153	-93,623	0,111	0,022
-448,138	-200,000	0,003	0,082
-447,124	-106,505	-0,080	-0,013
-446,109	319,442	0,091	0,124
-445,095	14,478	0,260	0,146
-444,080	-69,307	0,099	0,027
-443,065	-59,402	0,182	-0,056
-442,051	268,460	-0,004	-0,005
-441,036	255,145	-0,094	-0,116
-440,022	-4,854	0,062	-0,031
-439,007	271,388	0,084	-0,106
-437,992	88,706	0,018	0,014
-436,978	-106,363	0,104	-0,016
-435,963	118,849	0,016	-0,015
-434,949	394,783	0,062	0,094
-433,934	800,000	0,003	0,008
-432,919	800,000	0,018	-0,047
-431,905	-200,000	0,000	-0,101
-430,890	799,176	0,075	-0,150
-429,876	-200,000	0,039	0,141
-428,861	-93,936	-0,136	0,027
-427,846	800,000	-0,027	-0,081
-426,832	79,996	0,106	0,082
-425,817	141,681	0,068	-0,064
-424,803	-200,000	-0,015	0,050
-423,788	-200,000	0,005	-0,040
-422,773	-12,316	0,054	-0,025
-421,759	81,365	0,110	0,085
-420,744	-120,995	-0,091	-0,011
-419,730	-156,081	0,152	-0,007
-418,715	-200,000	-0,022	-0,078
-417,701	800,000	0,033	-0,069
-416,686	-136,643	0,160	0,013
-415,671	340,035	-0,048	-0,067
-414,657	-28,852	0,071	-0,029
-413,642	-92,782	0,071	-0,014
-412,628	-129,404	-0,025	-0,002
-411,613	-84,679	-0,155	-0,035
-410,598	330,093	-0,123	-0,171
-409,584	800,000	-0,031	0,088
-408,569	800,000	0,076	0,170
-407,555	-200,000	0,003	0,049
-406,540	176,207	-0,024	-0,025
-405,525	-187,200	0,116	0,001
-404,511	-200,000	-0,008	0,064
-403,496	-45,248	-0,128	0,045
-402,482	800,000	0,020	-0,057
-401,467	-102,614	0,092	0,016
-400,452	-200,000	0,013	0,075
-399,438	434,848	-0,034	-0,053
-398,423	211,759	-0,059	-0,067
-397,409	-27,170	-0,077	0,032
-396,394	260,210	0,079	-0,098
-395,379	-200,000	-0,007	-0,113
-394,365	-85,201	0,141	-0,031
-393,350	800,000	-0,045	-0,130
-392,336	326,323	-0,065	0,090
-391,321	-200,000	0,006	0,032
-390,306	58,530	0,049	0,034
-389,292	41,264	-0,041	0,026
-388,277	-200,000	0,100	-0,000
-387,263	-34,490	-0,110	0,043
-386,248	-200,000	0,036	0,188
-385,233	-45,274	0,196	0,070
-384,219	800,000	0,021	-0,061
-383,204	115,296	-0,158	0,138
-382,190	-55,076	-0,043	0,014
-381,175	151,540	-0,086	0,084
-380,160	5,627	-0,174	0,092
-379,146	800,000	-0,049	0,131
-378,131	-200,000	-0,010	-0,056
-377,117	-136,276	-0,085	0,007
-376,102	-200,000	0,019	-0,076
-375,088	5,256	-0,063	-0,033
-374,073	65,446	-0,064	-0,046
-373,058	66,284	0,099	-0,072
-372,044	274,443	0,084	-0,107
-371,029	-200,000	0,018	0,124
-370,015	302,709	-0,079	0,106
-369,000	800,000	-0,039	-0,096
-367,985	-38,614	-0,084	-0,032
-366,971	-152,228	0,134	0,007
-365,956	-200,000	-0,013	0,060
-364,942	-200,000	-0,013	-0,046
-363,927	-117,158	0,101	-0,013
-362,912	-200,000	0,007	-0,045
-361,898	-11,237	-0,031	0,015
-360,883	601,151	0,071	-0,127
-359,869	543,295	-0,065	-0,111
-358,854	760,143	-0,038	0,075
-357,839	-200,000	-0,008	0,135
-356,825	-47,469	0,011	0,004
-355,810	-200,000	-0,016	0,075
-354,796	-200,000	0,001	0,030
-353,781	225,052	-0,067	-0,078
-352,766	-200,000	0,005	-0,055
-351,752	-88,783	0,092	-0,020
-350,737	-89,230	0,041	0,009
-349,723	249,515	-0,005	0,006
-348,708	119,075	0,053	0,047
-347,693	599,187	-0,053	-0,094
-346,679	129,007	-0,087	-0,080
-345,664	29,562	-0,104	0,063
-344,650	-200,000	0,020	-0,107
-343,635	-56,306	0,119	0,038
-342,620	42,123	0,143	0,093
-341,606	800,000	0,011	0,023
-340,591	-200,000	0,015	0,116
-339,577	-118,720	-0,049	-0,006
-338,562	-11,127	-0,156	-0,073
-337,548	54,242	-0,095	-0,065
-336,533	800,000	-0,052	0,107
-335,518	135,587	0,009	0,009
-334,504	-200,000	0,041	0,179
-333,489	193,417	0,091	0,099
-332,475	800,000	0,017	-0,051
-331,460	-30,143	0,053	0,022
-330,445	538,638	0,002	0,004
-329,431	-200,000	-0,004	-0,059
-328,416	576,686	-0,029	-0,051
-327,402	403,823	0,076	0,115
-326,387	800,000	0,031	-0,064
-325,372	349,213	-0,089	0,125
-324,358	734,543	0,042	0,081
-323,343	84,753	0,148	-0,116
-322,329	424,826	0,050	0,078
-321,314	423,118	-0,073	0,113
-320,299	-200,000	0,014	-0,088
-319,285	40,474	-0,090	-0,058
-318,270	-43,715	-0,026	0,009
-317,256	-71,100	-0,105	0,028
-316,241	800,000	0,033	0,071
-315,226	-200,000	-0,020	0,165
-314,212	122,781	0,147	0,131
-313,197	61,446	-0,027	-0,019
-312,183	498,498	-0,071	-0,117
-311,168	22,019	0,092	-0,053
-310,153	-68,042	-0,105	-0,029
-309,139	116,900	-0,064	0,056
-308,124	-47,012	0,075	0,026
-307,110	-34,741	0,134	-0,052
-306,095	13,226	0,041	-0,023
-305,080	800,000	0,004	0,012
-304,066	-200,000	-0,020	-0,067
-303,051	-200,000	0,025	-0,083
-302,037	-129,733	-0,180	0,018
-301,022	333,603	0,031	0,043
-300,008	-96,317	0,022	-0,004
-298,993	800,000	-0,047	0,145
-297,978	800,000	0,009	0,026
-296,964	-173,616	-0,070	-0,001
-295,949	-200,000	-0,008	0,188
-294,935	800,000	-0,020	0,041
-293,920	19,281	-0,040	0,023
-292,905	-200,000	-0,005	0,102
-291,891	800,000	-0,027	0,067
-290,876	-200,000	0,040	0,143
-289,862	-200,000	-0,014	0,188
-288,847	747,343	0,037	-0,073
-287,832	800,000	-0,016	0,043
-286,818	130,949	0,071	-0,065
-285,803	-154,752	0,126	0,006
-284,789	800,000	0,010	-0,028
-283,774	-82,011	0,067	0,016
-282,759	800,000	-0,039	-0,096
-281,745	370,977	0,055	0,080
-280,730	-9,085	-0,009	0,004
-279,716	-7,197	0,004	-0,002
-278,701	-119,678	0,049	0,006
-277,686	-17,879	-0,084	-0,037
-276,672	800,000	0,038	0,088
-275,657	-200,000	0,003	0,079
-274,643	6,477	-0,059	-0,031
-273,628	115,532	-0,063	0,055
-272,613	25,895	-0,051	-0,031
-271,599	614,632	0,061	-0,110
-270,584	-117,242	0,053	0,007
-269,570	-27,888	-0,096	0,040
-268,555	-200,000	-0,005	0,019
-267,540	-200,000	0,013	-0,071
-266,526	95,938	-0,074	0,060
-265,511	403,048	-0,057	-0,086
-264,497	420,641	-0,019	0,029
-263,482	-59,030	0,113	-0,035
-262,467	-43,169	-0,054	0,019
-261,453	442,205	-0,005	-0,007
-260,438	-134,832	-0,124	-0,011
-259,424	-200,000	-0,010	0,105
-258,409	-106,906	-0,091	0,014
-257,395	43,385	-0,025	0,016
-256,380	420,532	0,071	0,109
-255,365	-115,200	0,109	-0,015
-254,351	-200,000	0,001	0,098
-253,336	-23,271	0,049	0,021
-252,322	2,892	-0,102	0,053
-251,307	800,000	-0,044	-0,097
-250,292	-92,666	0,015	0,003
-249,278	-200,000	-0,001	0,134
-248,263	459,609	-0,075	0,120
-247,249	-200,000	-0,002	-0,145
-246,234	-200,000	0,018	0,076
-245,219	89,245	-0,030	0,024
-244,205	82,381	-0,056	-0,044
-243,190	-200,000	-0,050	0,162
-242,176	-106,245	-0,120	0,019
-241,161	237,553	0,119	0,142
-240,146	-132,841	0,067	0,006
-239,132	494,675	0,054	-0,089
-238,117	-200,000	-0,028	-0,131
-237,103	194,721	-0,073	-0,079
-236,088	442,501	0,065	0,102
-235,073	800,000	-0,041	0,109
-234,059	252,311	0,137	0,166
-233,044	153,188	0,030	0,029
-232,030	488,519	0,015	-0,024
-231,015	-200,000	0,032	0,159
-230,000	-1,746	-0,085	-0,043
-228,986	-94,896	0,131	-0,025
-227,971	149,282	0,083	-0,080
-226,957	32,067	0,128	-0,079
-225,942	190,414	0,029	0,031
-224,927	285,762	-0,057	-0,074
-223,913	-200,000	0,002	-0,079
-222,898	-200,000	0,008	-0,130
-221,884	-200,000	-0,008	0,066
-220,869	-200,000	-0,029	-0,127
-219,855	-200,000	0,013	0,104
-218,840	54,329	-0,031	-0,021
-217,825	-200,000	-0,022	-0,077
-216,811	23,080	0,013	-0,008
-215,796	800,000	-0,036	0,083
-214,782	86,066	-0,086	0,068
-213,767	800,000	0,024	-0,072
-212,752	11,573	-0,058	-0,032
-211,738	-200,000	-0,052	0,184
-210,723	800,000	-0,048	0,112
-209,709	-200,000	0,004	0,038
-208,694	26,446	-0,048	0,028
-207,679	56,639	0,049	0,034
-206,665	393,747	0,061	0,091
-205,650	-200,000	0,004	0,146
-204,636	-200,000	0,018	0,092
-203,621	-36,789	0,124	-0,047
-202,606	-60,935	-0,089	-0,027
-201,592	-67,877	-0,105	-0,029
-200,577	-200,000	0,151	0,000
-199,563	138,861	-0,102	-0,095
-198,548	-120,515	-0,101	0,012
-197,533	-156,364	0,063	-0,003
-196,519	53,801	-0,105	0,072
-195,504	-6,884	-0,112	0,054
-194,490	-200,000	-0,003	-0,034
-193,475	-200,000	0,011	-0,069
-192,460	-136,605	-0,071	0,006
-191,446	28,786	0,045	0,027
-190,431	107,064	0,063	0,053
-189,417	36,008	-0,059	0,037
-188,402	56,383	-0,030	0,021
-187,387	-74,526	-0,039	-0,010
-186,373	-89,192	-0,100	-0,021
-185,358	313,305	0,020	0,026
-184,344	-124,086	0,027	-0,003
-183,329	-58,020	0,047	0,014
-182,315	-78,297	0,128	0,031
-181,300	128,332	0,126	0,114
-180,285	-200,000	-0,012	-0,111
-179,271	800,000	-0,030	-0,088
-178,256	800,000	-0,022	0,046
-177,242	-200,000	-0,018	-0,156
-176,227	136,804	0,058	0,053
-175,212	800,000	0,017	0,041
-174,198	67,401	0,097	0,071
-173,183	239,323	0,114	-0,135
-172,169	800,000	-0,071	-0,165
-171,154	-200,000	-0,009	0,067
-170,139	-200,000	0,029	0,100
-169,125	-41,251	-0,095	-0,035
-168,110	-28,840	-0,092	-0,037
-167,096	347,202	-0,128	0,180
-166,081	453,233	-0,030	0,047
-165,066	-101,667	-0,050	0,008
-164,052	-4,099	-0,137	0,067
-163,037	-200,000	0,040	-0,134
-162,023	-76,793	0,126	0,031
-161,008	-200,000	0,003	0,027
-159,993	-166,128	0,045	0,001
-158,979	148,191	0,099	-0,095
-157,964	-38,421	-0,252	0,094
-156,950	-200,000	-0,028	0,099
-155,935	800,000	-0,013	-0,027
-154,920	75,003	-0,028	0,021
-153,906	28,865	0,016	0,010
-152,891	-200,000	-0,018	-0,103
-151,877	-200,000	0,049	-0,163
-150,862	800,000	-0,005	0,015
-149,847	64,109	-0,086	-0,061
-148,833	-25,936	0,087	0,036
-147,818	-200,000	-0,029	0,166
-146,804	712,380	0,080	0,151
-145,789	-109,285	0,031	0,005
-144,775	-58,731	-0,049	0,015
-143,760	-200,000	0,045	0,151
-142,745	580,466	0,052	-0,090
-141,731	-31,344	-0,071	-0,028
-140,716	111,740	-0,021	-0,018
-139,702	50,345	0,079	0,053
-138,687	800,000	0,024	0,052
-137,672	24,455	0,066	-0,039
-136,658	800,000	0,030	-0,076
-135,643	-11,101	-0,131	-0,061
-134,629	-200,000	-0,018	0,096
-133,614	-102,716	0,066	0,011
-132,599	-122,927	0,077	-0,009
-131,585	-73,141	0,100	-0,026
-130,570	311,156	0,015	0,019
-129,556	-32,085	0,151	-0,060
-128,541	-200,000	-0,013	-0,053
-127,526	800,000	0,047	0,118
-126,512	-165,153	0,138	0,004
-125,497	-55,295	0,034	-0,011
-124,483	800,000	-0,038	-0,102
-123,468	456,999	0,010	0,016
-122,453	537,017	-0,052	-0,089
-121,439	800,000	-0,064	0,152
-120,424	158,051	0,119	0,118
-119,410	228,294	0,064	0,074
-118,395	168,731	0,055	-0,055
-117,380	-200,000	0,013	0,050
-116,366	-58,830	-0,049	0,015
-115,351	348,594	-0,062	-0,088
-114,337	-82,639	-0,183	-0,042
-113,322	800,000	0,047	0,094
-112,307	800,000	0,060	0,119
-111,293	31,522	0,079	0,048
-110,278	562,449	-0,011	-0,018
-109,264	485,772	-0,084	-0,137
-108,249	8,756	-0,080	0,042
-107,234	39,779	-0,121	-0,077
-106,220	532,019	0,072	-0,121
-105,205	-200,000	0,042	0,177
-104,191	-69,338	-0,060	-0,016
-103,176	-200,000	0,054	0,198
-102,162	-53,218	0,086	0,028
-101,147	-30,546	-0,100	-0,040
-100,132	-20,370	-0,174	0,075
-99,118	-200,000	-0,007	-0,035
-98,103	-1,951	0,097	0,048
-97,089	-84,472	0,179	0,040
-96,074	800,000	-0,046	-0,105
-95,059	569,118	0,025	0,043
-94,045	800,000	0,020	-0,056
-93,030	-200,000	-0,000	-0,108
-92,016	123,644	-0,028	-0,025
-91,001	239,954	0,114	-0,135
-89,986	-56,060	-0,136	-0,043
-88,972	-131,605	-0,088	0,008
-87,957	800,000	-0,063	0,144
-86,943	-17,349	0,052	-0,023
-85,928	-158,654	0,118	-0,005
-84,913	76,921	-0,069	0,052
-83,899	-34,591	0,005	-0,002
-82,884	800,000	0,022	0,066
-81,870	-27,282	0,148	0,061
-80,855	800,000	-0,033	0,087
-79,840	-200,000	0,000	-0,044
-78,826	233,138	-0,055	-0,064
-77,811	-200,000	0,015	-0,075
-76,797	-44,252	0,181	-0,064
-75,782	-141,353	0,174	0,012
-74,767	749,344	-0,033	0,063
-73,753	140,147	0,028	0,026
-72,738	800,000	0,017	0,037
-71,724	-200,000	-0,001	-0,111
-70,709	800,000	0,069	-0,153
-69,694	-200,000	0,011	-0,201
-68,680	-80,621	0,121	-0,028
-67,665	-200,000	0,037	0,190
-66,651	142,723	0,088	0,083
-65,636	-30,711	-0,164	0,065
-64,622	-200,000	-0,001	0,049
-63,607	800,000	-0,058	-0,151
-62,592	800,000	-0,036	-0,092
-61,578	-99,224	0,172	-0,031
-60,563	800,000	-0,048	0,138
-59,549	349,250	-0,025	-0,035
-58,534	-8,558	-1,594	-0,756
-57,519	472,011	-1,277	-2,043
-56,505	-200,000	-0,453	-4,551
-55,490	142,349	1,010	0,950
-54,476	800,000	4,919	11,451
-53,461	-200,000	19,303	320,017
-52,446	-200,000	740,793	2334,862
-51,432	572,909	1655,643	2868,648
-50,417	78,289	1671,091	1261,985
-49,403	21,324	1544,046	885,858
-48,388	15,188	1466,567	811,561
-47,373	17,912	1456,783	819,282
-46,359	16,663	1446,438	807,440
-45,344	13,450	1442,034	789,556
-44,330	13,357	1439,916	787,922
-43,315	13,391	1438,128	787,076
-42,300	13,367	1436,545	786,062
-41,286	13,367	1435,368	785,388
-40,271	13,386	1434,121	784,763
-39,257	13,358	1432,764	783,858
-38,242	13,423	1431,307	783,337
-37,227	13,456	1430,028	782,761
-36,213	13,450	1428,925	782,100
-35,198	13,438	1427,582	781,275
-34,184	13,468	1426,704	780,909
-33,169	13,372	1425,653	779,846
-32,154	13,443	1424,280	779,401
-31,140	13,438	1423,076	778,686
-30,125	13,452	1422,039	778,154
-29,111	13,431	1420,783	777,339
-28,096	13,472	1419,542	776,824
-27,082	13,358	1418,752	775,819
-26,067	13,323	1417,635	775,013
-25,052	13,356	1416,411	774,468
-24,038	13,341	1415,410	773,821
-23,023	13,320	1414,488	773,186
-22,009	13,337	1413,523	772,707
-20,994	13,273	1412,562	771,854
-19,979	13,308	1411,759	771,548
-18,965	13,297	1410,769	770,924
-17,950	13,260	1409,872	770,231
-16,936	13,293	1408,996	769,874
-15,921	13,241	1407,940	769,024
-14,906	13,228	1406,868	768,345
-13,892	13,275	1405,959	768,038
-12,877	13,269	1405,047	767,483
-11,863	13,265	1404,093	766,913
-10,848	13,268	1403,238	766,430
-9,833	13,250	1402,546	765,939
-8,819	13,236	1401,646	765,352
-7,804	13,204	1400,518	764,553
-6,790	13,218	1399,543	764,059
-5,775	13,175	1398,529	763,273
-4,760	13,174	1397,733	762,805
-3,746	13,178	1396,725	762,245
-2,731	13,113	1396,140	761,593
-1,717	13,125	1394,919	760,949
-0,702	13,111	1393,278	759,960
0,313	16,920	1309,985	732,184
1,327	33,264	703,655	431,064
2,342	50,754	123,404	82,543
3,356	-0,307	16,668	8,355
4,371	0,852	3,364	1,699
5,386	1,430	0,524	0,266
6,400	800,000	0,100	0,244
7,415	140,354	-0,169	-0,158
8,429	-3,056	-0,200	-0,098
9,444	-9,819	-0,360	-0,169
10,459	-27,506	-0,346	-0,142
11,473	30,149	-0,379	-0,228
12,488	-35,404	-0,176	-0,067
13,502	139,230	-0,326	-0,303
14,517	32,383	-0,270	-0,165
15,531	22,826	-0,355	-0,205
16,546	-81,018	-0,302	-0,070
17,561	38,353	-0,413	-0,260
18,575	-142,920	-0,107	-0,007
19,590	273,742	-0,228	-0,285
20,604	-73,205	-0,189	0,049
21,619	63,512	-0,383	-0,271
22,634	-29,424	-0,445	-0,179
23,648	103,250	-0,434	-0,359
24,663	77,365	-0,423	-0,318
25,677	169,594	-0,308	-0,311
26,692	91,454	-0,299	-0,237
27,707	-26,160	-0,246	-0,102
28,721	-5,796	-0,430	-0,207
29,736	122,731	-0,499	-0,441
30,750	62,746	-0,408	-0,288
31,765	317,539	-0,278	-0,372
32,780	92,364	-0,427	-0,339
33,794	92,669	-0,295	-0,234
34,809	8,065	-0,319	-0,168
35,823	381,071	-0,297	-0,431
36,838	35,427	-0,466	-0,288
37,853	222,600	-0,256	-0,291
38,867	-0,798	-0,476	-0,237
39,882	16,996	-0,440	-0,245
40,896	205,169	-0,260	-0,285
41,911	-57,523	-0,428	-0,132
42,926	-0,379	-0,333	-0,166
43,940	226,442	-0,257	-0,294
44,955	102,192	-0,401	-0,330
45,969	60,486	-0,351	-0,244
46,984	2,738	-0,351	-0,179
47,999	83,118	-0,257	-0,197
49,013	84,282	-0,341	-0,263
50,028	209,070	-0,220	-0,243
51,042	-6,413	-0,379	-0,182
52,057	31,405	-0,316	-0,191
53,071	28,387	-0,384	-0,228
54,086	68,347	-0,352	-0,254
55,101	88,982	-0,371	-0,291
56,115	104,757	-0,292	-0,242
57,130	264,114	-0,265	-0,325
58,144	74,132	-0,346	-0,255
59,159	89,830	-0,430	-0,338
60,174	97,776	-0,293	-0,237
61,188	49,230	-0,403	-0,266
62,203	72,929	-0,323	-0,237
63,217	73,093	-0,174	-0,128
64,232	29,550	-0,342	-0,204
65,247	309,476	-0,313	-0,413
66,261	91,530	-0,341	-0,269
67,276	-21,294	-0,312	-0,133
68,290	200,830	-0,279	-0,302
69,305	-66,002	-0,261	-0,073
70,320	191,516	-0,171	-0,181
71,334	-42,414	-0,419	-0,150
72,349	33,037	-0,301	-0,183
73,363	5,903	-0,246	-0,128
74,378	-81,974	-0,383	-0,087
75,393	174,233	-0,272	-0,276
76,407	-59,704	-0,287	-0,086
77,422	14,306	-0,341	-0,186
78,436	-2,752	-0,230	-0,113
79,451	48,960	-0,370	-0,243
80,466	-13,910	-0,332	-0,150
81,480	72,167	-0,277	-0,203
82,495	280,485	-0,202	-0,254
83,509	23,203	-0,231	-0,133
84,524	-150,207	-0,250	-0,013
85,539	-78,313	-0,337	-0,081
86,553	138,290	-0,334	-0,308
87,568	-42,762	-0,257	-0,091
88,582	82,298	-0,281	-0,214
89,597	-17,203	-0,341	-0,151
90,611	56,900	-0,301	-0,206
91,626	-97,941	-0,220	-0,040
92,641	31,165	-0,323	-0,194
93,655	97,582	-0,313	-0,253
94,670	29,583	-0,302	-0,180
95,684	20,038	-0,255	-0,144
96,699	-145,099	-0,293	-0,018
97,714	153,752	-0,354	-0,341
98,728	123,437	-0,252	-0,221
99,743	122,174	-0,287	-0,252
100,757	13,169	-0,224	-0,121
101,772	172,763	-0,112	-0,113
102,787	44,494	-0,334	-0,215
103,801	190,613	-0,203	-0,215
104,816	337,371	-0,167	-0,228
105,830	95,054	-0,187	-0,149
106,845	-200,000	-0,060	-0,207
107,860	167,504	-0,314	-0,313
108,874	18,325	-0,181	-0,101
109,889	-39,519	-0,367	-0,134
110,903	71,401	-0,306	-0,223
111,918	165,938	-0,223	-0,221
112,933	-6,197	-0,346	-0,165
113,947	-16,966	-0,300	-0,132
114,962	96,212	-0,172	-0,138
115,976	29,861	-0,302	-0,180
116,991	-92,117	-0,295	-0,058
118,006	234,308	-0,256	-0,297
119,020	24,670	-0,305	-0,176
120,035	113,813	-0,325	-0,277
121,049	6,092	-0,164	-0,085
122,064	250,266	-0,135	-0,161
123,079	-32,755	-0,335	-0,130
124,093	359,288	-0,124	-0,174
125,108	89,777	-0,281	-0,219
126,122	65,724	-0,242	-0,171
127,137	-3,378	-0,186	-0,090
128,151	-50,029	-0,262	-0,086
129,166	558,058	-0,147	-0,249
130,181	89,149	-0,270	-0,210
131,195	-118,936	-0,221	-0,027
132,210	87,989	-0,292	-0,226
133,224	124,180	-0,213	-0,187
134,239	81,518	-0,249	-0,188
135,254	37,539	-0,332	-0,205
136,268	27,847	-0,208	-0,122
137,283	82,630	-0,217	-0,165
138,297	37,487	-0,301	-0,186
139,312	466,355	-0,199	-0,312
140,327	376,315	-0,146	-0,209
141,341	-58,706	-0,164	-0,049
142,356	244,757	-0,160	-0,188
143,370	-116,847	-0,246	-0,031
144,385	-95,608	-0,128	-0,024
145,400	-2,579	-0,227	-0,111
146,414	126,993	-0,294	-0,260
147,429	1,877	-0,275	-0,138
148,443	418,165	-0,214	-0,321
149,458	71,211	-0,230	-0,166
150,473	-144,472	-0,280	0,018
151,487	-4,327	-0,253	-0,122
152,502	165,467	-0,269	-0,265
153,516	213,374	-0,154	-0,170
154,531	61,744	-0,252	-0,175
155,546	98,501	-0,223	-0,179
156,560	800,000	-0,077	-0,184
157,575	43,285	-0,280	-0,178
158,589	490,067	-0,111	-0,179
159,604	81,699	-0,172	-0,130
160,619	327,384	-0,129	-0,173
161,633	434,019	-0,188	-0,286
162,648	115,063	-0,209	-0,178
163,662	5,498	-0,265	-0,136
164,677	71,232	-0,202	-0,146
165,692	161,127	-0,107	-0,104
166,706	185,261	-0,211	-0,218
167,721	96,048	-0,301	-0,240
168,735	-7,871	-0,297	-0,139
169,750	74,031	-0,343	-0,251
170,764	-15,451	-0,175	-0,077
171,779	24,593	-0,232	-0,134
172,794	46,659	-0,180	-0,116
173,808	-200,000	-0,276	0,000
174,823	13,832	-0,292	-0,158
175,837	130,835	-0,255	-0,228
176,852	-0,548	-0,348	-0,172
177,867	108,017	-0,300	-0,249
178,881	33,174	-0,203	-0,122
179,896	181,598	-0,214	-0,220
180,910	-200,000	-0,030	-0,242
181,925	97,846	-0,281	-0,225
182,940	280,989	-0,208	-0,259
183,954	155,779	-0,168	-0,161
184,969	800,000	-0,095	-0,220
185,983	488,073	-0,125	-0,200
186,998	474,364	-0,057	-0,089
188,013	138,469	-0,184	-0,168
189,027	51,205	-0,249	-0,164
190,042	76,843	-0,360	-0,266
191,056	116,408	-0,222	-0,189
192,071	47,982	-0,322	-0,209
193,086	-108,281	-0,145	-0,022
194,100	-26,050	-0,184	-0,075
195,115	155,479	-0,156	-0,149
196,129	235,271	-0,271	-0,311
197,144	140,935	-0,243	-0,223
198,159	11,223	-0,313	-0,166
199,173	-38,469	-0,282	-0,103
200,188	-18,004	-0,249	-0,108
201,202	75,075	-0,195	-0,143
202,217	-82,421	-0,241	-0,054
203,232	-193,939	-0,138	0,001
204,246	487,582	-0,188	-0,299
205,261	67,085	-0,263	-0,186
206,275	6,816	-0,332	-0,171
207,290	-63,639	-0,136	-0,039
208,304	-7,741	-0,204	-0,095
209,319	-24,692	-0,238	-0,098
210,334	112,142	-0,146	-0,122
211,348	49,563	-0,178	-0,116
212,363	108,258	-0,162	-0,134
213,377	-55,053	-0,243	-0,076
214,392	49,944	-0,150	-0,098
215,407	-81,361	-0,209	-0,047
216,421	-26,414	-0,309	-0,125
217,436	800,000	-0,051	-0,148
218,450	236,404	-0,155	-0,178
219,465	-61,260	-0,249	-0,072
220,480	-79,363	-0,163	-0,038
221,494	-31,827	-0,134	-0,052
222,509	1,463	-0,291	-0,145
223,523	19,088	-0,208	-0,116
224,538	105,212	-0,174	-0,143
225,553	83,044	-0,246	-0,185
226,567	697,141	-0,134	-0,245
227,582	-106,446	-0,227	-0,035
228,596	720,850	-0,123	-0,227
229,611	-124,564	-0,216	-0,023
230,626	-121,669	-0,290	-0,033
231,640	-99,831	-0,166	-0,029
232,655	61,364	-0,166	-0,114
233,669	170,599	-0,121	-0,120
234,684	800,000	-0,116	-0,247
235,699	143,901	-0,119	-0,110
236,713	-76,370	-0,088	-0,021
237,728	546,912	-0,068	-0,113
238,742	315,905	-0,068	-0,089
239,757	133,101	-0,213	-0,190
240,772	100,195	-0,228	-0,183
241,786	215,580	-0,211	-0,233
242,801	-38,877	-0,213	-0,077
243,815	150,973	-0,166	-0,156
244,830	0,102	-0,127	-0,062
245,844	305,566	-0,209	-0,270
246,859	235,001	-0,124	-0,142
247,874	800,000	-0,067	-0,161
248,888	81,865	-0,185	-0,139
249,903	42,646	-0,129	0,081
250,917	-144,039	-0,082	-0,005
251,932	-68,417	-0,114	-0,030
252,947	-44,554	-0,075	-0,026
253,961	800,000	-0,044	-0,111
254,976	344,955	-0,203	-0,277
255,990	200,881	-0,222	-0,236
257,005	688,293	-0,144	-0,263
258,020	-40,194	-0,168	-0,060
259,034	23,222	-0,170	-0,097
260,049	-200,000	-0,042	-0,196
261,063	157,940	-0,179	-0,172
262,078	68,812	-0,253	-0,180
263,093	225,861	-0,272	-0,305
264,107	98,203	-0,149	-0,119
265,122	36,587	-0,266	-0,162
266,136	-200,000	-0,015	-0,072
267,151	-120,943	-0,208	0,024
268,166	99,715	-0,158	-0,126
269,180	288,834	-0,130	-0,163
270,195	-27,335	-0,211	-0,085
271,209	800,000	-0,097	-0,226
272,224	800,000	-0,091	-0,178
273,239	-12,165	-0,112	-0,051
274,253	-84,145	-0,157	-0,034
275,268	20,339	-0,153	-0,085
276,282	-200,000	0,009	-0,168
277,297	67,380	-0,183	-0,129
278,312	-123,825	-0,226	-0,024
279,326	144,666	-0,229	-0,212
280,341	8,154	-0,269	-0,139
281,355	29,865	-0,183	-0,107
282,370	70,305	-0,139	-0,099
283,384	800,000	-0,072	-0,142
284,399	15,640	-0,246	-0,133
285,414	491,719	-0,154	-0,244
286,428	-200,000	-0,047	-0,249
287,443	461,158	-0,151	-0,234
288,457	-103,957	-0,101	0,016
289,472	-15,866	-0,228	-0,100
290,487	-90,289	-0,128	-0,025
291,501	230,546	-0,153	-0,173
292,516	13,278	-0,164	-0,087
293,530	153,999	-0,059	-0,055
294,545	800,000	-0,068	-0,136
295,560	-1,170	-0,136	-0,066
296,574	648,886	-0,061	-0,109
297,589	354,187	-0,110	-0,150
298,603	13,255	-0,209	-0,112
299,618	236,485	-0,192	-0,220
300,633	-10,546	-0,085	-0,039
301,647	111,425	-0,086	-0,072
302,662	219,809	-0,141	-0,156
303,676	48,656	-0,101	0,065
304,691	-200,000	0,001	-0,110
305,706	45,425	-0,158	-0,101
306,720	459,692	-0,119	-0,183
307,735	-200,000	-0,017	-0,163
308,749	-5,876	-0,137	0,064
309,764	311,423	-0,075	-0,097
310,779	-113,777	-0,115	-0,015
311,793	-71,432	-0,263	-0,067
312,808	-44,010	-0,182	-0,063
313,822	-58,312	-0,223	-0,066
314,837	26,347	-0,099	-0,057
315,852	196,467	-0,103	-0,109
316,866	-200,000	0,002	-0,024
317,881	-108,668	-0,148	-0,022
318,895	9,186	-0,148	-0,077
319,910	520,563	-0,066	-0,106
320,925	261,315	-0,219	-0,262
321,939	76,863	-0,109	-0,079
322,954	61,701	-0,090	0,062
323,968	-42,205	-0,184	-0,064
324,983	-129,868	-0,194	-0,018
325,997	119,019	-0,172	-0,146
327,012	153,729	-0,108	-0,102
328,027	-101,822	-0,230	-0,038
329,041	-200,000	-0,059	-0,181
330,056	258,554	-0,133	-0,158
331,070	-200,000	-0,014	0,062
332,085	-15,861	-0,145	-0,063
333,100	-10,298	-0,275	-0,125
334,114	187,741	-0,077	-0,079
335,129	-3,483	-0,128	-0,061
336,143	-200,000	-0,074	-0,259
337,158	800,000	-0,057	-0,151
338,173	177,477	-0,106	-0,107
339,187	23,464	-0,157	-0,089
340,202	-151,290	-0,192	-0,010
341,216	141,471	-0,140	-0,128
342,231	430,024	-0,060	-0,090
343,246	-142,564	-0,096	0,006
344,260	84,484	-0,130	-0,098
345,275	-200,000	-0,005	0,100
346,289	233,394	-0,061	-0,069
347,304	447,744	-0,128	-0,194
348,319	-39,888	-0,170	-0,061
349,333	-41,792	-0,261	-0,091
350,348	63,913	-0,192	-0,132
351,362	-32,215	-0,110	-0,042
352,377	-18,558	-0,163	-0,070
353,392	-156,059	-0,157	-0,007
354,406	-84,914	-0,107	-0,023
355,421	208,415	1313,434	1410,585
356,435	160,366	1473,994	1411,076
