DTS Sentinel unit serial number:	SN410029Multiplexer serial number:	ORYXHardware model number:	OX2-SRSoftware version number:	ORYX F/W v4,00 Oryx Data Collector v3.7.2.0data status	okinstallation	B3 Nyhavnadifferential loss correction	single-endedforward channel	channel 1reverse channel	N/Adate	2023/12/01time	02:52:30forward acquisition time	300,00reverse acquisition time	0,00gamma	499,1914k internal	0,3212k external	0,3212temperature offset calibration	1,0000default loss term (dB/km)	0,3820temperature slope calibration	1,0000multiplexer offset coefficient	1,0000multiplexer slope coefficient	1,0000fibre end	0,00T internal ref (°C)	8,50T ext. ref 1 (°C)	-6,62T ext. ref 2 (°C)	-6,77length (m)	temperature (°C)	Stokes	anti-Stokes-744,400	441,444	-0,156	-0,248
-743,385	-200,000	-0,048	0,199
-742,371	54,677	-0,157	-0,110
-741,356	-200,000	-0,045	0,407
-740,342	291,391	-0,093	-0,122
-739,327	-200,000	-0,069	0,326
-738,312	338,850	-0,198	-0,280
-737,298	800,000	-0,069	0,202
-736,283	568,013	-0,117	-0,206
-735,269	-200,000	0,010	0,160
-734,254	800,000	-0,167	-0,349
-733,239	18,346	-0,196	0,113
-732,225	441,822	-0,074	-0,118
-731,210	117,275	0,221	0,197
-730,196	454,498	0,037	0,060
-729,181	-47,558	-0,076	-0,027
-728,167	-39,196	-0,084	0,032
-727,152	-46,086	0,040	0,014
-726,137	800,000	-0,022	-0,049
-725,123	106,000	0,081	0,069
-724,108	136,254	-0,187	-0,177
-723,094	194,044	-0,185	-0,203
-722,079	800,000	-0,078	-0,201
-721,064	454,741	0,067	-0,108
-720,050	-87,837	-0,024	0,005
-719,035	748,824	-0,143	0,280
-718,021	95,447	-0,129	0,107
-717,006	164,367	0,021	-0,022
-715,991	-200,000	-0,018	-0,123
-714,977	-200,000	0,027	-0,103
-713,962	-62,487	0,018	0,005
-712,948	-153,422	0,035	0,002
-711,933	-94,574	0,156	-0,031
-710,918	-200,000	-0,009	0,053
-709,904	258,038	-0,066	-0,082
-708,889	194,240	-0,198	-0,218
-707,875	120,925	0,126	-0,113
-706,860	117,348	-0,079	-0,070
-705,845	76,865	0,014	0,011
-704,831	800,000	0,037	0,104
-703,816	800,000	-0,047	0,116
-702,802	75,708	-0,109	0,083
-701,787	-200,000	-0,001	-0,019
-700,772	470,557	-0,089	-0,146
-699,758	-77,989	0,073	-0,018
-698,743	800,000	0,003	0,008
-697,729	106,881	0,040	-0,034
-696,714	-200,000	-0,001	0,082
-695,699	710,546	-0,085	-0,163
-694,685	181,140	-0,055	-0,059
-693,670	-200,000	0,015	-0,184
-692,656	794,478	-0,053	0,105
-691,641	-200,000	-0,035	-0,146
-690,627	-190,381	0,072	-0,001
-689,612	59,800	0,150	0,107
-688,597	-91,858	-0,090	0,018
-687,583	-31,849	-0,160	-0,065
-686,568	800,000	0,019	-0,048
-685,554	800,000	-0,022	-0,062
-684,539	-200,000	0,012	-0,077
-683,524	800,000	-0,013	0,038
-682,510	88,852	-0,095	0,076
-681,495	-17,413	-0,036	-0,016
-680,481	-200,000	0,037	-0,138
-679,466	272,637	0,070	-0,090
-678,451	-200,000	0,002	-0,206
-677,437	-12,897	-0,080	-0,038
-676,422	-38,875	0,180	0,068
-675,408	362,475	-0,082	0,120
-674,393	-37,340	-0,069	-0,026
-673,378	8,237	-0,063	-0,034
-672,364	50,495	-0,029	-0,020
-671,349	-53,027	-0,060	0,020
-670,335	-200,000	0,008	0,034
-669,320	784,809	-0,050	-0,099
-668,305	-200,000	-0,003	0,014
-667,291	-17,968	-0,039	-0,018
-666,276	-200,000	-0,009	-0,079
-665,262	-200,000	-0,004	-0,044
-664,247	-7,298	-0,058	-0,028
-663,232	579,225	-0,032	0,058
-662,218	-200,000	-0,004	-0,103
-661,203	90,210	-0,009	0,007
-660,189	-197,593	0,078	-0,000
-659,174	800,000	0,016	-0,037
-658,159	37,078	-0,109	-0,069
-657,145	-39,816	0,060	0,022
-656,130	-198,901	-0,031	-0,000
-655,116	-200,000	-0,011	-0,045
-654,101	114,925	0,009	-0,008
-653,086	14,392	0,073	-0,041
-652,072	-200,000	0,010	-0,033
-651,057	101,647	-0,096	-0,081
-650,043	-200,000	-0,047	-0,248
-649,028	477,235	0,043	0,071
-648,014	164,626	-0,088	-0,090
-646,999	40,926	-0,090	0,058
-645,984	-36,909	-0,094	-0,036
-644,970	55,078	-0,037	0,026
-643,955	71,243	-0,073	0,055
-642,941	18,010	0,072	-0,041
-641,926	107,444	0,034	0,029
-640,911	386,327	-0,013	-0,019
-639,897	-130,199	0,163	-0,016
-638,882	60,567	-0,025	0,018
-637,868	-6,703	-0,072	-0,035
-636,853	800,000	-0,053	-0,164
-635,838	-154,285	0,059	-0,003
-634,824	-21,693	0,041	-0,018
-633,809	-62,369	0,017	-0,005
-632,795	162,347	-0,044	0,044
-631,780	-54,420	0,153	-0,050
-630,765	800,000	0,035	-0,080
-629,751	212,017	-0,055	-0,063
-628,736	-200,000	0,006	-0,246
-627,722	-128,852	0,014	0,001
-626,707	392,851	0,088	-0,133
-625,692	-183,077	-0,053	-0,001
-624,678	-184,751	-0,197	0,002
-623,663	9,565	-0,129	0,070
-622,649	25,633	-0,096	-0,057
-621,634	-200,000	-0,030	0,150
-620,619	428,525	-0,009	-0,014
-619,605	467,930	0,035	-0,057
-618,590	311,894	-0,061	0,083
-617,576	109,179	0,132	0,114
-616,561	800,000	-0,025	-0,069
-615,546	800,000	0,051	-0,108
-614,532	-200,000	-0,119	0,000
-613,517	-124,778	0,072	-0,008
-612,503	24,302	-0,096	-0,057
-611,488	800,000	0,027	0,075
-610,474	610,125	0,039	0,071
-609,459	-200,000	0,030	-0,104
-608,444	-200,000	0,008	-0,051
-607,430	-117,854	0,149	-0,019
-606,415	101,840	-0,091	-0,076
-605,401	-62,385	-0,079	-0,024
-604,386	-200,000	-0,003	-0,094
-603,371	49,373	-0,117	-0,079
-602,357	-200,000	0,003	0,019
-601,342	-200,000	-0,014	-0,046
-600,328	75,747	-0,107	-0,082
-599,313	590,838	-0,027	0,049
-598,298	195,469	0,053	-0,059
-597,284	155,360	0,101	0,101
-596,269	83,010	-0,117	0,092
-595,255	-200,000	0,018	0,214
-594,240	10,060	-0,028	0,015
-593,225	-9,808	0,046	-0,022
-592,211	-200,000	0,002	0,042
-591,196	391,042	0,047	0,071
-590,182	-200,000	0,011	0,066
-589,167	800,000	0,061	0,127
-588,152	474,724	0,047	0,077
-587,138	0,059	-0,032	-0,017
-586,123	-58,214	-0,135	-0,042
-585,109	800,000	-0,041	0,091
-584,094	-178,038	-0,055	0,001
-583,079	-111,577	0,079	-0,011
-582,065	-114,603	0,104	0,014
-581,050	431,988	-0,067	0,106
-580,036	-52,555	0,119	-0,039
-579,021	181,290	0,043	0,046
-578,006	688,937	-0,049	-0,094
-576,992	370,009	0,065	-0,095
-575,977	-154,779	-0,038	0,002
-574,963	800,000	-0,031	0,078
-573,948	800,000	-0,030	0,089
-572,934	377,313	-0,017	0,025
-571,919	142,040	0,085	-0,081
-570,904	-47,057	-0,014	-0,005
-569,890	-200,000	-0,012	-0,118
-568,875	-200,000	0,013	-0,120
-567,861	-31,707	0,085	-0,034
-566,846	-15,145	-0,148	0,068
-565,831	132,845	-0,099	0,092
-564,817	87,164	-0,118	-0,094
-563,802	800,000	0,020	0,041
-562,788	523,154	0,063	-0,106
-561,773	114,964	0,078	0,069
-560,758	792,033	-0,062	0,122
-559,744	-200,000	0,001	0,130
-558,729	-200,000	-0,007	0,061
-557,715	-12,671	-0,128	0,060
-556,700	-200,000	-0,004	-0,110
-555,685	230,783	-0,058	0,069
-554,671	10,790	-0,027	-0,015
-553,656	-200,000	0,006	0,069
-552,642	95,841	0,101	0,083
-551,627	235,817	0,045	-0,054
-550,612	60,518	0,053	-0,037
-549,598	203,171	0,089	-0,099
-548,583	-85,149	0,039	-0,009
-547,569	800,000	0,062	-0,171
-546,554	-159,518	-0,038	0,002
-545,539	14,544	0,093	-0,052
-544,525	-30,348	0,091	0,037
-543,510	330,038	-0,056	-0,078
-542,496	131,954	-0,082	-0,076
-541,481	-200,000	0,004	-0,166
-540,466	186,848	0,090	-0,096
-539,452	398,271	-0,062	0,093
-538,437	565,397	0,090	0,158
-537,423	175,475	-0,125	0,130
-536,408	-134,021	0,097	0,009
-535,393	545,499	-0,027	-0,046
-534,379	-18,817	-0,191	-0,085
-533,364	-200,000	0,025	0,134
-532,350	76,963	0,047	0,036
-531,335	-200,000	-0,003	-0,101
-530,321	68,702	-0,105	0,077
-529,306	-200,000	0,000	-0,072
-528,291	-114,601	-0,076	0,010
-527,277	-200,000	0,001	-0,014
-526,262	800,000	0,039	0,098
-525,248	800,000	-0,036	-0,091
-524,233	-200,000	0,007	-0,104
-523,218	-200,000	0,010	0,084
-522,204	439,558	-0,070	-0,110
-521,189	-200,000	0,032	0,186
-520,175	-99,217	0,019	0,003
-519,160	-151,068	-0,139	-0,007
-518,145	-200,000	0,013	-0,071
-517,131	487,840	0,027	0,045
-516,116	387,480	-0,007	-0,011
-515,102	-103,652	-0,061	-0,010
-514,087	-200,000	-0,008	-0,043
-513,072	-200,000	-0,032	-0,166
-512,058	-98,966	0,020	-0,004
-511,043	-200,000	-0,014	0,097
-510,029	337,960	-0,043	-0,060
-509,014	-111,029	-0,046	-0,007
-507,999	252,492	0,076	-0,094
-506,985	-24,268	-0,079	-0,034
-505,970	127,880	-0,072	-0,066
-504,956	371,650	-0,007	-0,011
-503,941	-200,000	0,024	0,083
-502,926	-200,000	0,037	0,163
-501,912	-200,000	0,003	0,074
-500,897	800,000	-0,038	0,119
-499,883	-200,000	0,027	-0,257
-498,868	-141,366	-0,234	-0,017
-497,853	112,773	0,099	0,086
-496,839	39,937	0,025	-0,016
-495,824	257,831	-0,052	0,064
-494,810	217,135	0,026	0,030
-493,795	-78,717	0,044	0,011
-492,781	84,114	0,107	0,084
-491,766	20,039	-0,067	-0,039
-490,751	-89,795	-0,087	-0,018
-489,737	221,513	0,010	0,011
-488,722	55,729	0,144	0,100
-487,708	800,000	0,057	-0,129
-486,693	125,491	-0,079	0,071
-485,678	53,263	-0,098	-0,067
-484,664	369,402	-0,071	-0,104
-483,649	-66,650	-0,083	-0,024
-482,635	117,722	-0,051	-0,045
-481,620	-86,561	0,091	0,020
-480,605	-200,000	0,001	0,051
-479,591	-200,000	-0,018	0,098
-478,576	-200,000	-0,030	-0,097
-477,562	-200,000	-0,008	-0,045
-476,547	-200,000	-0,021	-0,132
-475,532	-83,369	0,043	-0,010
-474,518	-107,909	0,092	-0,014
-473,503	800,000	0,060	0,147
-472,489	3,048	0,164	0,085
-471,474	-193,764	0,057	-0,000
-470,459	-0,739	-0,118	-0,060
-469,445	28,946	-0,046	-0,028
-468,430	-200,000	-0,021	-0,109
-467,416	-200,000	-0,000	0,076
-466,401	-138,509	0,099	0,008
-465,386	-66,651	0,112	0,032
-464,372	117,779	-0,066	0,058
-463,357	-152,802	0,046	-0,002
-462,343	-200,000	0,024	0,091
-461,328	59,458	0,065	-0,046
-460,313	-200,000	0,004	-0,129
-459,299	157,533	0,108	0,107
-458,284	800,000	-0,015	-0,033
-457,270	-200,000	-0,015	0,065
-456,255	-58,857	0,138	0,043
-455,241	165,218	-0,088	-0,090
-454,226	-84,287	0,101	0,023
-453,211	-200,000	0,009	-0,053
-452,197	-126,050	0,176	0,019
-451,182	9,681	0,069	-0,037
-450,168	-99,647	0,065	0,012
-449,153	6,101	-0,092	-0,048
-448,138	800,000	-0,104	-0,251
-447,124	-200,000	0,011	-0,078
-446,109	53,772	0,217	0,149
-445,095	287,215	-0,038	0,049
-444,080	-54,819	0,085	-0,027
-443,065	-52,770	0,069	-0,023
-442,051	-171,191	-0,075	0,002
-441,036	171,564	-0,110	-0,113
-440,022	147,325	-0,049	-0,047
-439,007	230,739	0,020	0,024
-437,992	-60,190	0,099	-0,030
-436,978	144,570	0,072	-0,069
-435,963	800,000	-0,056	-0,117
-434,949	800,000	0,013	-0,038
-433,934	60,954	-0,031	0,022
-432,919	517,211	-0,053	-0,089
-431,905	37,960	-0,113	0,072
-430,890	-200,000	-0,010	-0,130
-429,876	800,000	0,023	-0,060
-428,861	-54,158	-0,020	0,006
-427,846	422,872	0,052	0,080
-426,832	-111,540	-0,170	-0,024
-425,817	-200,000	0,016	-0,134
-424,803	-76,323	0,066	-0,017
-423,788	-200,000	0,007	-0,093
-422,773	-111,827	-0,023	-0,003
-421,759	-200,000	-0,032	0,124
-420,744	418,854	-0,008	-0,013
-419,730	-33,874	-0,018	-0,007
-418,715	-200,000	0,002	-0,134
-417,701	95,147	-0,010	0,008
-416,686	207,007	-0,087	0,097
-415,671	-47,946	0,062	0,021
-414,657	-200,000	0,020	0,085
-413,642	103,112	-0,112	-0,094
-412,628	-165,117	-0,027	0,001
-411,613	-82,553	0,119	0,027
-410,598	375,136	-0,018	0,027
-409,584	-120,986	-0,203	-0,024
-408,569	6,748	-0,040	-0,021
-407,555	800,000	0,069	0,196
-406,540	2,460	0,048	-0,025
-405,525	-200,000	-0,005	0,059
-404,511	-156,784	-0,075	-0,003
-403,496	261,559	-0,031	0,039
-402,482	108,711	0,026	0,022
-401,467	2,050	0,049	-0,025
-400,452	-42,275	0,086	0,031
-399,438	114,703	0,076	0,066
-398,423	279,978	0,036	0,046
-397,409	-200,000	-0,009	-0,157
-396,394	-200,000	0,014	-0,082
-395,379	21,794	-0,066	0,038
-394,365	74,145	0,037	-0,028
-393,350	-63,327	0,077	0,022
-392,336	-171,453	-0,092	0,002
-391,321	800,000	-0,046	0,108
-390,306	-200,000	-0,007	-0,099
-389,292	-84,104	0,047	0,011
-388,277	-200,000	-0,010	0,106
-387,263	95,258	0,067	0,055
-386,248	231,190	0,025	0,029
-385,233	-200,000	-0,008	0,041
-384,219	-57,366	-0,071	-0,022
-383,204	16,441	-0,087	-0,049
-382,190	135,951	-0,070	0,065
-381,175	198,568	-0,047	-0,051
-380,160	196,818	-0,012	0,013
-379,146	150,378	0,041	-0,040
-378,131	299,790	0,034	0,045
-377,117	288,252	-0,081	0,105
-376,102	-148,699	-0,089	-0,005
-375,088	159,641	-0,092	-0,091
-374,073	49,154	-0,029	-0,019
-373,058	-104,266	0,096	0,016
-372,044	-200,000	-0,037	-0,123
-371,029	-124,379	0,103	0,011
-370,015	-200,000	-0,020	0,098
-369,000	800,000	-0,022	-0,056
-367,985	370,349	-0,093	-0,136
-366,971	-45,340	0,128	0,045
-365,956	-17,509	0,142	-0,064
-364,942	405,946	0,100	0,152
-363,927	-200,000	0,010	0,091
-362,912	120,130	0,085	-0,075
-361,898	219,464	0,035	0,040
-360,883	778,067	-0,028	-0,056
-359,869	-35,950	0,153	0,059
-358,854	-171,446	-0,049	-0,001
-357,839	800,000	-0,031	0,084
-356,825	800,000	-0,019	0,038
-355,810	-87,674	0,165	-0,035
-354,796	800,000	0,035	-0,073
-353,781	335,469	0,036	-0,050
-352,766	-61,402	-0,039	0,012
-351,752	58,768	0,079	0,055
-350,737	800,000	0,053	-0,130
-349,723	-200,000	0,013	-0,042
-348,708	289,533	0,059	0,076
-347,693	-4,198	0,180	0,089
-346,679	98,522	0,049	-0,040
-345,664	-72,267	-0,063	0,017
-344,650	295,346	0,044	0,057
-343,635	181,682	-0,033	0,035
-342,620	800,000	-0,030	0,087
-341,606	-200,000	-0,029	0,185
-340,591	65,585	0,043	0,031
-339,577	465,877	0,054	-0,086
-338,562	800,000	-0,016	-0,050
-337,548	328,222	0,053	-0,073
-336,533	363,115	0,064	-0,092
-335,518	-194,024	-0,111	0,001
-334,504	247,269	0,055	-0,067
-333,489	38,581	-0,110	0,070
-332,475	-64,713	0,034	-0,010
-331,460	-19,749	-0,153	-0,067
-330,445	-135,199	-0,052	-0,004
-329,431	22,816	0,094	-0,055
-328,416	515,506	0,029	0,049
-327,402	464,707	-0,032	-0,051
-326,387	-104,830	-0,087	-0,014
-325,372	-114,697	-0,100	0,013
-324,358	800,000	-0,062	-0,128
-323,343	215,761	-0,014	-0,015
-322,329	273,360	-0,055	0,070
-321,314	154,255	0,086	-0,084
-320,299	752,711	0,076	0,147
-319,285	-44,624	-0,036	-0,013
-318,270	83,258	-0,140	-0,108
-317,256	-45,802	-0,042	0,015
-316,241	-200,000	-0,006	-0,071
-315,226	-150,634	-0,037	-0,002
-314,212	24,558	0,085	0,050
-313,197	800,000	-0,045	0,133
-312,183	800,000	0,035	-0,081
-311,168	800,000	-0,031	-0,069
-310,153	-200,000	-0,025	-0,088
-309,139	-200,000	-0,011	-0,159
-308,124	-108,740	0,045	-0,007
-307,110	142,422	0,050	-0,047
-306,095	648,388	0,028	0,052
-305,080	-200,000	-0,018	0,079
-304,066	-200,000	-0,028	-0,135
-303,051	-200,000	0,011	-0,131
-302,037	-200,000	-0,038	-0,142
-301,022	-200,000	0,003	-0,035
-300,008	166,610	-0,021	0,022
-298,993	-143,288	0,258	0,017
-297,978	35,672	-0,026	0,016
-296,964	507,690	-0,066	0,109
-295,949	42,057	-0,184	0,119
-294,935	-200,000	0,001	-0,084
-293,920	598,753	-0,031	0,055
-292,905	-31,897	0,091	-0,036
-291,891	181,080	0,106	0,111
-290,876	-65,203	0,079	0,023
-289,862	80,267	-0,086	-0,066
-288,847	89,255	0,089	-0,070
-287,832	232,452	-0,072	0,084
-286,818	259,267	0,070	0,086
-285,803	38,671	-0,100	0,063
-284,789	126,662	-0,071	0,064
-283,774	37,186	0,125	0,078
-282,759	43,958	-0,113	0,074
-281,745	428,698	-0,027	-0,042
-280,730	800,000	-0,012	-0,027
-279,716	-65,424	0,203	0,058
-278,701	329,602	-0,058	-0,079
-277,686	-200,000	0,010	0,100
-276,672	84,490	0,072	0,056
-275,657	800,000	0,040	0,086
-274,643	-4,569	-0,156	0,076
-273,628	499,023	-0,092	-0,151
-272,613	-6,014	-0,200	-0,097
-271,599	-57,538	0,092	0,029
-270,584	800,000	0,050	0,130
-269,570	678,508	-0,035	0,066
-268,555	-81,719	0,111	0,026
-267,540	-89,150	-0,124	0,026
-266,526	129,915	0,044	-0,040
-265,511	-200,000	-0,033	-0,150
-264,497	-26,569	-0,057	-0,024
-263,482	-200,000	-0,025	0,097
-262,467	16,945	-0,038	0,021
-261,453	-130,730	0,120	0,011
-260,438	-84,594	-0,098	0,022
-259,424	-200,000	0,074	0,000
-258,409	-127,788	0,086	0,009
-257,395	88,312	-0,147	-0,116
-256,380	-200,000	0,056	0,264
-255,365	-200,000	-0,011	-0,147
-254,351	33,685	0,147	-0,091
-253,336	-6,389	0,137	0,066
-252,322	86,829	-0,108	-0,085
-251,307	-118,409	-0,053	0,007
-250,292	800,000	0,031	0,083
-249,278	170,349	0,104	0,106
-248,263	800,000	0,032	0,073
-247,249	-200,000	-0,011	0,112
-246,234	-50,949	0,055	0,018
-245,219	187,148	-0,066	0,070
-244,205	-29,491	-0,153	-0,062
-243,190	-189,328	0,140	0,001
-242,176	-131,882	0,044	-0,004
-241,161	617,765	0,054	0,096
-240,146	257,693	0,036	0,044
-239,132	609,140	-0,025	0,044
-238,117	-40,015	0,048	0,018
-237,103	40,870	0,089	0,057
-236,088	-20,340	0,090	0,039
-235,073	-160,491	-0,059	0,002
-234,059	800,000	0,019	-0,040
-233,044	131,884	0,076	0,070
-232,030	443,760	0,040	-0,062
-231,015	-91,084	0,107	-0,022
-230,000	-200,000	-0,003	0,046
-228,986	-111,168	0,103	0,015
-227,971	54,853	-0,061	0,042
-226,957	-107,384	0,048	-0,007
-225,942	60,304	-0,063	0,044
-224,927	800,000	-0,063	0,127
-223,913	-200,000	-0,020	-0,114
-222,898	95,347	0,021	-0,017
-221,884	6,155	-0,097	-0,051
-220,869	800,000	-0,024	-0,065
-219,855	-200,000	0,035	0,146
-218,840	563,207	-0,022	-0,038
-217,825	-14,362	-0,090	-0,041
-216,811	-200,000	0,002	0,071
-215,796	50,829	0,045	0,030
-214,782	417,561	-0,040	0,060
-213,767	169,189	-0,029	0,029
-212,752	-72,799	0,086	-0,022
-211,738	113,120	-0,127	0,110
-210,723	-200,000	-0,037	0,117
-209,709	-69,279	-0,024	0,006
-208,694	433,759	-0,025	0,039
-207,679	-200,000	0,017	0,131
-206,665	800,000	-0,015	0,033
-205,650	194,907	-0,045	0,048
-204,636	119,823	-0,073	0,064
-203,621	74,085	0,050	0,037
-202,606	800,000	-0,031	-0,085
-201,592	-200,000	0,007	-0,256
-200,577	745,836	0,025	-0,048
-199,563	103,710	-0,023	-0,019
-198,548	800,000	0,047	0,095
-197,533	800,000	0,019	0,053
-196,519	-93,181	-0,024	-0,005
-195,504	-113,709	-0,079	0,011
-194,490	-116,738	0,073	-0,009
-193,475	-151,930	-0,110	0,006
-192,460	-200,000	-0,013	0,068
-191,446	-144,192	0,109	0,007
-190,431	-195,982	0,077	-0,000
-189,417	61,732	0,029	0,020
-188,402	31,789	-0,073	-0,044
-187,387	90,126	-0,092	-0,073
-186,373	218,379	-0,045	-0,051
-185,358	133,775	-0,069	0,063
-184,344	273,081	0,014	0,018
-183,329	-200,000	-0,020	0,068
-182,315	800,000	0,009	-0,026
-181,300	239,943	0,008	0,010
-180,285	321,704	0,045	-0,060
-179,271	-46,119	0,085	0,029
-178,256	148,195	-0,088	-0,084
-177,242	-200,000	0,054	0,169
-176,227	-105,644	-0,057	0,009
-175,212	-80,325	0,087	0,021
-174,198	800,000	0,039	0,097
-173,183	167,985	-0,103	-0,104
-172,169	173,736	-0,036	0,037
-171,154	-137,811	0,046	-0,004
-170,139	-200,000	-0,039	-0,181
-169,125	54,018	0,033	-0,022
-168,110	-161,915	0,044	-0,002
-167,096	-85,121	0,134	-0,029
-166,081	138,520	-0,017	0,016
-165,066	-130,071	-0,150	-0,014
-164,052	380,125	-0,057	0,083
-163,037	118,733	0,093	0,081
-162,023	190,660	-0,003	0,004
-161,008	-200,000	-0,004	-0,036
-159,993	-161,447	0,086	-0,003
-158,979	-123,586	-0,105	0,012
-157,964	162,537	0,023	-0,023
-156,950	-200,000	-0,017	-0,065
-155,935	-10,300	0,157	0,074
-154,920	800,000	-0,026	-0,056
-153,906	124,322	0,054	-0,049
-152,891	250,876	-0,070	-0,085
-151,877	220,180	0,060	0,068
-150,862	178,187	0,054	-0,056
-149,847	119,784	-0,037	0,032
-148,833	134,515	-0,032	-0,029
-147,818	210,140	0,090	-0,100
-146,804	88,169	0,045	0,036
-145,789	-134,995	-0,107	-0,009
-144,775	504,152	0,027	0,044
-143,760	-200,000	-0,003	-0,038
-142,745	258,106	0,056	-0,068
-141,731	-86,033	0,099	0,022
-140,716	-200,000	-0,000	0,036
-139,702	260,713	0,014	0,017
-138,687	58,864	0,061	0,043
-137,672	16,293	0,074	-0,041
-136,658	11,397	0,046	-0,025
-135,643	-200,000	0,012	-0,141
-134,629	16,170	-0,050	0,028
-133,614	529,310	0,034	0,058
-132,599	-200,000	-0,036	0,161
-131,585	-65,246	0,215	0,061
-130,570	-200,000	0,013	-0,098
-129,556	800,000	-0,015	0,042
-128,541	-83,114	-0,125	-0,028
-127,526	-200,000	0,002	0,067
-126,512	800,000	0,010	0,031
-125,497	-54,057	0,154	0,049
-124,483	315,539	0,075	0,101
-123,468	31,429	-0,103	-0,063
-122,453	79,396	-0,087	-0,066
-121,439	-200,000	-0,008	-0,053
-120,424	522,102	-0,088	-0,147
-119,410	64,480	-0,030	-0,021
-118,395	800,000	-0,068	0,143
-117,380	-200,000	0,005	0,090
-116,366	800,000	0,031	-0,072
-115,351	-200,000	-0,009	-0,164
-114,337	61,101	-0,090	0,063
-113,322	210,049	0,078	-0,087
-112,307	321,821	-0,078	-0,106
-111,293	161,002	0,050	-0,049
-110,278	-200,000	0,026	0,165
-109,264	239,385	0,066	0,078
-108,249	250,833	-0,087	-0,104
-107,234	223,204	-0,100	-0,114
-106,220	-200,000	0,018	-0,174
-105,205	506,690	-0,028	-0,046
-104,191	49,567	0,051	0,034
-103,176	-200,000	0,013	0,092
-102,162	36,954	0,107	0,067
-101,147	24,934	-0,060	0,035
-100,132	341,259	0,046	-0,064
-99,118	-93,824	0,109	0,021
-98,103	-200,000	0,002	-0,091
-97,089	-200,000	0,024	-0,107
-96,074	83,941	-0,052	-0,040
-95,059	-200,000	-0,013	0,130
-94,045	65,961	0,082	-0,058
-93,030	800,000	-0,062	-0,124
-92,016	-59,661	0,119	0,036
-91,001	-200,000	-0,001	0,093
-89,986	294,441	0,047	-0,061
-88,972	88,222	0,115	-0,090
-87,957	141,928	-0,090	0,084
-86,943	-72,864	0,055	0,014
-85,928	800,000	-0,026	-0,079
-84,913	800,000	0,027	-0,067
-83,899	82,978	0,076	0,059
-82,884	363,061	0,053	-0,075
-81,870	-12,742	0,177	-0,081
-80,855	-200,000	0,034	0,172
-79,840	800,000	-0,025	-0,070
-78,826	97,283	-0,117	-0,095
-77,811	800,000	-0,053	0,126
-76,797	-69,244	0,092	-0,025
-75,782	-200,000	0,030	-0,095
-74,767	33,175	0,149	0,091
-73,753	154,174	-0,008	0,008
-72,738	-200,000	-0,004	0,042
-71,724	403,990	0,067	0,101
-70,709	-18,759	-0,096	-0,042
-69,694	290,955	0,073	0,094
-68,680	75,624	-0,027	0,020
-67,665	741,091	-0,028	0,053
-66,651	577,229	0,059	-0,102
-65,636	167,972	-0,125	-0,126
-64,622	-1,196	0,087	0,043
-63,607	-86,025	-0,125	-0,027
-62,592	800,000	-0,051	-0,103
-61,578	-197,808	0,055	-0,000
-60,563	800,000	0,020	-0,050
-59,549	-200,000	0,021	0,127
-58,534	77,647	-2,055	-1,543
-57,519	539,867	-1,130	-1,906
-56,505	-200,000	-0,442	-4,594
-55,490	278,038	0,990	1,247
-54,476	800,000	5,268	11,998
-53,461	-200,000	22,209	344,656
-52,446	800,000	758,199	2304,066
-51,432	536,388	1649,161	2772,664
-50,417	68,874	1647,796	1192,502
-49,403	16,206	1523,768	845,441
-48,388	10,359	1448,891	775,769
-47,373	19,262	1441,150	814,086
-46,359	13,826	1429,905	781,999
-45,344	8,662	1426,005	755,371
-44,330	8,590	1424,035	753,956
-43,315	8,584	1422,277	752,966
-42,300	8,629	1420,125	752,010
-41,286	8,653	1419,071	751,539
-40,271	8,552	1418,171	750,555
-39,257	8,589	1416,927	750,038
-38,242	8,616	1415,949	749,619
-37,227	8,603	1414,746	748,891
-36,213	8,620	1413,313	748,183
-35,198	8,645	1411,851	747,496
-34,184	8,611	1411,344	747,038
-33,169	8,511	1409,700	745,672
-32,154	8,608	1408,669	745,552
-31,140	8,588	1407,577	744,847
-30,125	8,578	1406,486	744,195
-29,111	8,600	1405,099	743,536
-28,096	8,599	1403,930	742,883
-27,082	8,490	1402,973	741,837
-26,067	8,493	1401,863	741,232
-25,052	8,530	1400,794	740,814
-24,038	8,527	1399,847	740,269
-23,023	8,521	1398,870	739,693
-22,009	8,524	1397,889	739,161
-20,994	8,497	1396,878	738,471
-19,979	8,546	1395,717	738,056
-18,965	8,456	1395,126	737,298
-17,950	8,473	1393,749	736,617
-16,936	8,452	1393,112	736,156
-15,921	8,430	1392,188	735,533
-14,906	8,428	1391,134	734,938
-13,892	8,507	1390,194	734,781
-12,877	8,425	1389,604	734,058
-11,863	8,453	1388,698	733,679
-10,848	8,436	1387,672	733,031
-9,833	8,383	1386,871	732,335
-8,819	8,335	1386,022	731,637
-7,804	8,391	1384,800	731,219
-6,790	8,337	1383,842	730,435
-5,775	8,344	1382,886	729,936
-4,760	8,370	1381,888	729,500
-3,746	8,398	1381,082	729,173
-2,731	8,378	1380,019	728,493
-1,717	8,374	1379,235	728,032
-0,702	8,315	1377,642	726,891
0,313	12,297	1288,414	697,891
1,327	28,028	680,053	403,560
2,342	43,510	117,026	75,301
3,356	-4,167	16,605	8,079
4,371	-6,714	3,869	1,849
5,386	4,579	1,289	0,665
6,400	800,000	0,228	0,653
7,415	314,547	-0,056	0,074
8,429	-29,515	-0,327	-0,131
9,444	61,807	-0,370	-0,260
10,459	34,984	-0,347	-0,214
11,473	215,202	-0,173	-0,194
12,488	-197,972	-0,119	-0,000
13,502	132,219	-0,193	-0,175
14,517	10,150	-0,240	-0,128
15,531	-30,177	-0,433	-0,173
16,546	107,040	-0,224	-0,187
17,561	31,905	-0,435	-0,263
18,575	121,173	-0,054	-0,047
19,590	65,707	-0,253	-0,180
20,604	-27,041	-0,247	-0,101
21,619	131,907	-0,397	-0,360
22,634	305,170	-0,315	-0,413
23,648	261,923	-0,346	-0,423
24,663	81,559	-0,491	-0,374
25,677	172,334	-0,307	-0,311
26,692	-77,230	-0,260	-0,063
27,707	77,095	-0,394	-0,294
28,721	258,601	-0,269	-0,326
29,736	-25,042	-0,443	-0,184
30,750	160,731	-0,310	-0,304
31,765	-24,455	-0,368	-0,154
32,780	59,561	-0,279	-0,193
33,794	41,367	-0,446	-0,283
34,809	-28,587	-0,367	-0,148
35,823	4,689	-0,454	-0,234
36,838	217,581	-0,262	-0,294
37,853	108,292	-0,503	-0,422
38,867	101,753	-0,359	-0,294
39,882	77,610	-0,276	-0,206
40,896	171,188	-0,344	-0,347
41,911	145,449	-0,283	-0,267
42,926	126,174	-0,195	-0,173
43,940	12,980	-0,379	-0,205
44,955	253,009	-0,264	-0,317
45,969	101,510	-0,323	-0,265
46,984	161,907	-0,334	-0,329
47,999	256,545	-0,187	-0,226
49,013	177,733	-0,199	-0,204
50,028	48,407	-0,316	-0,207
51,042	192,268	-0,297	-0,315
52,057	66,612	-0,327	-0,233
53,071	36,658	-0,320	-0,198
54,086	44,610	-0,377	-0,243
55,101	375,792	-0,191	-0,275
56,115	23,448	-0,366	-0,211
57,130	46,699	-0,372	-0,242
58,144	110,155	-0,386	-0,325
59,159	515,760	-0,230	-0,379
60,174	74,285	-0,360	-0,265
61,188	103,655	-0,352	-0,290
62,203	-46,234	-0,336	-0,115
63,217	56,157	-0,228	-0,155
64,232	78,483	-0,225	-0,168
65,247	-13,189	-0,378	-0,171
66,261	7,004	-0,371	-0,193
67,276	-9,596	-0,398	-0,185
68,290	56,866	-0,366	-0,250
69,305	-49,456	-0,420	-0,139
70,320	94,472	-0,325	-0,259
71,334	247,560	-0,126	-0,149
72,349	-52,916	-0,385	-0,123
73,363	30,015	-0,334	-0,199
74,378	134,634	-0,236	-0,215
75,393	-95,289	-0,355	-0,066
76,407	-25,400	-0,257	-0,106
77,422	-74,191	-0,410	-0,103
78,436	-27,720	-0,317	-0,128
79,451	-3,496	-0,265	-0,129
80,466	437,701	-0,143	-0,219
81,480	350,851	-0,206	-0,286
82,495	208,333	-0,272	-0,298
83,509	305,066	-0,197	-0,256
84,524	11,056	-0,332	-0,177
85,539	-95,881	-0,215	-0,040
86,553	73,349	-0,279	-0,204
87,568	174,275	-0,249	-0,253
88,582	-36,839	-0,349	-0,130
89,597	-17,450	-0,184	-0,080
90,611	31,374	-0,126	-0,075
91,626	131,461	-0,237	-0,213
92,641	424,180	-0,094	-0,142
93,655	92,102	-0,375	-0,295
94,670	58,934	-0,268	-0,184
95,684	105,340	-0,280	-0,231
96,699	219,044	-0,246	-0,275
97,714	363,188	-0,148	-0,208
98,728	55,220	-0,322	-0,218
99,743	114,509	-0,164	-0,139
100,757	171,742	-0,245	-0,247
101,772	-26,199	-0,245	-0,100
102,787	67,727	-0,233	-0,166
103,801	134,491	-0,195	-0,177
104,816	-78,284	-0,323	-0,077
105,830	-12,076	-0,342	-0,156
106,845	279,707	-0,143	-0,179
107,860	-27,019	-0,421	-0,171
108,874	196,355	-0,163	-0,174
109,889	-23,941	-0,318	-0,132
110,903	124,713	-0,195	-0,172
111,918	-45,958	-0,180	-0,061
112,933	26,296	-0,282	-0,164
113,947	-18,250	-0,253	-0,110
114,962	207,348	-0,135	-0,147
115,976	225,408	-0,165	-0,187
116,991	179,732	-0,309	-0,316
118,006	-23,550	-0,221	-0,092
119,020	62,168	-0,199	-0,138
120,035	35,151	-0,299	-0,182
121,049	41,908	-0,208	-0,131
122,064	242,189	-0,139	-0,163
123,079	303,871	-0,233	-0,301
124,093	168,494	-0,320	-0,318
125,108	27,974	-0,332	-0,195
126,122	155,158	-0,232	-0,223
127,137	220,110	-0,199	-0,223
128,151	234,047	-0,260	-0,299
129,166	17,748	-0,184	-0,102
130,181	-68,331	-0,201	-0,054
131,195	-61,545	-0,369	-0,107
132,210	1,759	-0,278	-0,139
133,224	86,444	-0,224	-0,172
134,239	42,966	-0,214	-0,136
135,254	129,736	-0,191	-0,171
136,268	0,708	-0,060	-0,030
137,283	-45,903	-0,217	-0,074
138,297	112,848	-0,229	-0,193
139,312	31,881	-0,260	-0,156
140,327	-60,231	-0,221	-0,065
141,341	142,788	-0,210	-0,195
142,356	-77,165	-0,178	-0,043
143,370	-62,378	-0,182	-0,052
144,385	41,358	-0,307	-0,193
145,400	198,737	-0,217	-0,232
146,414	40,633	-0,311	-0,195
147,429	-126,024	-0,183	-0,019
148,443	-58,706	-0,201	-0,060
149,458	-2,777	-0,214	-0,104
150,473	52,304	-0,148	-0,098
151,487	18,408	-0,227	-0,126
152,502	-5,279	-0,291	-0,139
153,516	-84,315	-0,148	-0,032
154,531	90,960	-0,336	-0,262
155,546	-56,059	-0,231	-0,071
156,560	43,915	-0,341	-0,217
157,575	6,241	-0,237	-0,122
158,589	89,721	-0,226	-0,175
159,604	-84,549	-0,258	-0,056
160,619	198,949	-0,356	-0,380
161,633	29,881	-0,264	-0,156
162,648	217,645	-0,213	-0,237
163,662	99,312	-0,188	-0,151
164,677	-137,288	-0,169	-0,013
165,692	178,864	-0,154	-0,156
166,706	199,933	-0,237	-0,253
167,721	800,000	-0,133	-0,289
168,735	-15,788	-0,325	-0,143
169,750	87,315	-0,258	-0,198
170,764	617,950	-0,084	-0,147
171,779	-51,607	-0,246	-0,079
172,794	-11,472	-0,249	-0,113
173,808	114,659	-0,355	-0,300
174,823	133,573	-0,232	-0,208
175,837	100,508	-0,204	-0,165
176,852	-99,453	-0,250	-0,043
177,867	70,121	-0,187	-0,134
178,881	178,446	-0,136	-0,138
179,896	800,000	-0,056	-0,167
180,910	75,179	-0,148	-0,108
181,925	-91,038	-0,185	-0,037
182,940	-21,651	-0,225	-0,095
183,954	356,482	-0,117	-0,162
184,969	34,202	-0,176	-0,106
185,983	1,911	-0,150	-0,075
186,998	108,206	-0,203	-0,168
188,013	409,311	-0,112	-0,165
189,027	473,614	-0,228	-0,357
190,042	131,868	-0,314	-0,280
191,056	-0,793	-0,157	-0,077
192,071	48,491	-0,211	-0,137
193,086	-71,112	-0,197	-0,051
194,100	451,226	-0,133	-0,204
195,115	-200,000	-0,067	-0,251
196,129	610,274	-0,117	-0,204
197,144	106,229	-0,240	-0,197
198,159	-68,636	-0,211	-0,056
199,173	345,378	-0,139	-0,189
200,188	184,686	-0,119	-0,122
201,202	-67,258	-0,188	-0,051
202,217	8,482	-0,179	-0,093
203,232	-125,940	-0,212	-0,022
204,246	25,780	-0,269	-0,155
205,261	44,233	-0,227	-0,144
206,275	229,203	-0,161	-0,182
207,290	-29,539	-0,155	-0,061
208,304	157,643	-0,077	-0,074
209,319	-158,025	-0,215	-0,009
210,334	136,028	-0,210	-0,189
211,348	-200,000	-0,061	-0,211
212,363	2,299	-0,338	-0,169
213,377	-100,800	-0,227	-0,038
214,392	53,595	-0,240	-0,159
215,407	355,378	-0,117	-0,161
216,421	-200,000	-0,005	-0,084
217,436	-31,369	-0,206	-0,080
218,450	86,563	-0,200	-0,153
219,465	235,034	-0,158	-0,180
220,480	-86,687	-0,294	-0,062
221,494	-69,333	-0,309	-0,081
222,509	-100,990	-0,156	-0,026
223,523	531,491	-0,089	-0,145
224,538	20,275	-0,193	-0,107
225,553	12,497	-0,288	-0,153
226,567	57,960	-0,151	-0,102
227,582	113,453	-0,144	-0,121
228,596	625,302	-0,088	-0,153
229,611	-70,548	-0,116	0,030
230,626	108,280	-0,093	-0,077
231,640	59,142	-0,196	-0,133
232,655	68,745	-0,230	-0,163
233,669	66,907	-0,188	-0,132
234,684	-121,165	-0,303	-0,035
235,699	460,480	-0,072	-0,112
236,713	-16,848	-0,199	-0,086
237,728	-167,015	-0,111	0,003
238,742	590,725	-0,147	-0,251
239,757	586,939	-0,088	-0,151
240,772	63,460	-0,178	-0,123
241,786	54,855	-0,273	-0,182
242,801	48,972	-0,182	-0,118
243,815	-45,070	-0,122	0,042
244,830	-106,369	-0,147	-0,022
245,844	141,927	-0,175	-0,160
246,859	-6,377	-0,212	-0,099
247,874	58,234	-0,249	-0,168
248,888	316,051	-0,097	-0,126
249,903	25,303	-0,255	-0,146
250,917	-24,862	-0,120	-0,049
251,932	25,717	-0,241	-0,138
252,947	29,869	-0,224	-0,131
253,961	317,936	-0,088	-0,115
254,976	-41,075	-0,173	-0,061
255,990	1,404	-0,193	-0,095
257,005	-77,590	-0,178	-0,042
258,020	763,953	-0,070	-0,131
259,034	-39,850	-0,204	-0,073
260,049	-42,831	-0,216	0,075
261,063	431,537	-0,138	-0,206
262,078	409,548	-0,094	-0,138
263,093	-66,721	-0,101	-0,027
264,107	391,649	-0,171	-0,245
265,122	1,969	-0,202	-0,100
266,136	204,633	-0,148	-0,159
267,151	800,000	-0,120	-0,231
268,166	20,880	-0,181	-0,101
269,180	74,221	-0,173	-0,125
270,195	201,054	-0,131	-0,138
271,209	-200,000	-0,050	-0,234
272,224	54,840	-0,185	-0,122
273,239	-64,040	-0,185	-0,052
274,253	-5,745	-0,190	-0,089
275,268	800,000	-0,053	0,157
276,282	292,755	-0,160	-0,201
277,297	796,784	-0,097	-0,184
278,312	102,332	-0,208	-0,167
279,326	-7,900	-0,198	-0,092
280,341	-146,633	-0,155	-0,009
281,355	15,833	-0,216	-0,116
282,370	82,290	-0,216	-0,161
283,384	30,332	-0,143	-0,084
284,399	800,000	-0,122	-0,366
285,414	-200,000	-0,055	-0,180
286,428	443,679	-0,110	-0,166
287,443	440,405	-0,131	-0,197
288,457	89,235	-0,142	-0,108
289,472	800,000	-0,136	-0,261
290,487	800,000	-0,091	-0,198
291,501	30,684	-0,185	-0,109
292,516	385,081	-0,096	-0,136
293,530	145,723	-0,195	-0,180
294,545	-200,000	0,000	-0,108
295,560	-87,352	-0,119	-0,025
296,574	-200,000	-0,032	-0,134
297,589	800,000	-0,087	-0,169
298,603	65,313	-0,154	-0,107
299,618	53,446	-0,147	-0,097
300,633	-115,046	-0,201	-0,026
301,647	800,000	0,023	-0,057
302,662	-200,000	-0,027	-0,120
303,676	800,000	-0,056	-0,132
304,691	159,473	-0,104	-0,099
305,706	201,672	-0,056	-0,059
306,720	-25,463	-0,230	-0,093
307,735	106,847	-0,154	-0,125
308,749	-200,000	0,000	-0,013
309,764	-53,168	-0,139	0,044
310,779	221,236	-0,130	-0,143
311,793	-110,351	-0,212	-0,030
312,808	106,825	-0,185	-0,150
313,822	53,686	-0,237	-0,156
314,837	-57,244	-0,089	-0,027
315,852	141,517	-0,111	-0,101
316,866	21,790	-0,113	-0,063
317,881	18,486	-0,053	-0,029
318,895	178,919	-0,120	-0,121
319,910	397,329	-0,094	-0,136
320,925	-100,774	-0,211	-0,035
321,939	800,000	-0,093	-0,228
322,954	-32,083	-0,145	-0,055
323,968	-200,000	-0,045	-0,224
324,983	323,318	-0,092	-0,120
325,997	-179,799	-0,172	0,002
327,012	199,175	-0,077	-0,081
328,027	-200,000	-0,017	-0,157
329,041	800,000	-0,055	-0,107
330,056	133,130	-0,106	-0,094
331,070	130,455	-0,083	-0,073
332,085	800,000	-0,063	-0,158
333,100	65,584	-0,185	-0,128
334,114	25,508	-0,188	-0,107
335,129	-101,427	-0,193	-0,032
336,143	-43,441	-0,205	-0,071
337,158	314,705	-0,081	-0,105
338,173	-200,000	-0,003	-0,049
339,187	-200,000	-0,013	-0,073
340,202	38,993	-0,134	-0,082
341,216	-111,416	-0,129	0,018
342,231	99,586	-0,135	-0,107
343,246	242,545	-0,087	-0,100
344,260	-163,852	-0,117	-0,004
345,275	300,224	-0,126	-0,160
346,289	60,114	-0,044	0,030
347,304	-49,790	-0,120	0,039
348,319	676,390	0,057	0,102
349,333	-85,719	-0,105	-0,022
350,348	-200,000	-0,032	-0,107
351,362	-85,914	-0,118	0,025
352,377	336,077	-0,037	0,049
353,392	-58,164	-0,202	-0,060
354,406	24,257	-0,226	-0,127
355,421	207,791	1310,933	1401,103
356,435	159,858	1471,146	1401,548
