DTS Sentinel unit serial number:	SN410029Multiplexer serial number:	ORYXHardware model number:	OX2-SRSoftware version number:	ORYX F/W v4,00 Oryx Data Collector v3.7.2.0data status	okinstallation	B3 Nyhavnadifferential loss correction	single-endedforward channel	channel 1reverse channel	N/Adate	2023/11/30time	16:22:30forward acquisition time	300,00reverse acquisition time	0,00gamma	499,1914k internal	0,3205k external	0,3205temperature offset calibration	1,0000default loss term (dB/km)	0,3820temperature slope calibration	1,0000multiplexer offset coefficient	1,0000multiplexer slope coefficient	1,0000fibre end	0,00T internal ref (°C)	12,82T ext. ref 1 (°C)	-1,61T ext. ref 2 (°C)	-1,64length (m)	temperature (°C)	Stokes	anti-Stokes-744,400	-10,032	-0,102	0,049
-743,385	-200,000	0,023	0,374
-742,371	800,000	-0,057	-0,167
-741,356	-200,000	-0,001	0,230
-740,342	621,880	-0,128	-0,235
-739,327	800,000	-0,051	0,150
-738,312	800,000	-0,103	-0,237
-737,298	-200,000	-0,008	0,268
-736,283	425,863	-0,094	-0,148
-735,269	800,000	0,139	0,338
-734,254	44,825	-0,325	-0,217
-733,239	-136,649	-0,185	0,015
-732,225	800,000	-0,094	-0,221
-731,210	-200,000	0,009	0,049
-730,196	42,068	-0,060	0,039
-729,181	-200,000	-0,006	-0,068
-728,167	72,938	-0,108	0,082
-727,152	302,981	-0,035	-0,047
-726,137	-39,346	-0,091	-0,034
-725,123	291,960	-0,044	-0,058
-724,108	55,801	-0,014	0,010
-723,094	66,902	-0,137	-0,101
-722,079	-200,000	0,169	0,000
-721,064	-200,000	0,019	-0,184
-720,050	690,823	-0,020	0,039
-719,035	344,615	-0,041	-0,058
-718,021	-200,000	0,012	-0,215
-717,006	-200,000	0,002	0,039
-715,991	-155,626	-0,126	0,006
-714,977	-200,000	-0,017	-0,080
-713,962	-4,595	-0,048	-0,024
-712,948	-190,768	0,103	-0,001
-711,933	-200,000	0,011	0,080
-710,918	-142,611	-0,054	0,004
-709,904	84,372	-0,090	-0,071
-708,889	-95,736	-0,061	-0,012
-707,875	-109,739	0,014	-0,002
-706,860	-200,000	0,017	0,091
-705,845	-41,052	0,077	0,029
-704,831	-91,411	-0,083	-0,017
-703,816	55,167	0,039	-0,028
-702,802	333,607	-0,064	0,090
-701,787	2,291	-0,065	-0,034
-700,772	29,256	0,072	0,044
-699,758	254,355	-0,025	-0,031
-698,743	800,000	-0,026	0,078
-697,729	800,000	-0,013	-0,035
-696,714	-99,718	-0,021	0,004
-695,699	383,625	-0,053	-0,079
-694,685	800,000	0,039	-0,102
-693,670	-200,000	-0,007	-0,075
-692,656	42,209	-0,091	-0,060
-691,641	57,188	0,036	0,026
-690,627	-0,687	0,083	-0,043
-689,612	277,538	-0,038	0,049
-688,597	-200,000	-0,005	-0,081
-687,583	-200,000	-0,009	-0,169
-686,568	-200,000	0,005	-0,084
-685,554	800,000	0,005	0,011
-684,539	-200,000	0,015	0,102
-683,524	166,664	-0,025	-0,026
-682,510	705,221	-0,061	-0,117
-681,495	-200,000	-0,024	-0,191
-680,481	-200,000	0,020	-0,182
-679,466	7,682	-0,052	-0,028
-678,451	-65,532	0,021	-0,006
-677,437	-6,263	-0,073	0,036
-676,422	-35,414	0,195	-0,076
-675,408	94,222	0,168	0,138
-674,393	63,711	-0,096	-0,069
-673,378	390,272	-0,083	-0,126
-672,364	180,064	-0,050	0,053
-671,349	800,000	-0,031	-0,071
-670,335	17,774	-0,018	-0,010
-669,320	-58,974	0,057	-0,018
-668,305	800,000	-0,051	0,147
-667,291	330,814	-0,048	0,067
-666,276	-200,000	0,021	0,087
-665,262	187,042	-0,051	0,055
-664,247	800,000	-0,017	-0,048
-663,232	800,000	-0,011	0,032
-662,218	-200,000	0,010	-0,067
-661,203	-51,688	0,054	-0,018
-660,189	58,878	0,118	-0,084
-659,174	172,882	-0,070	-0,074
-658,159	454,897	-0,024	-0,039
-657,145	14,885	-0,090	0,051
-656,130	773,906	0,036	-0,071
-655,116	-5,895	-0,082	-0,041
-654,101	800,000	0,045	0,141
-653,086	-1,422	-0,044	-0,022
-652,072	111,647	-0,032	0,028
-651,057	800,000	-0,031	-0,079
-650,043	56,362	0,126	-0,088
-649,028	57,358	0,080	0,057
-648,014	-92,140	-0,045	0,009
-646,999	800,000	0,049	-0,130
-645,984	215,358	0,093	0,107
-644,970	0,069	-0,159	0,082
-643,955	-200,000	0,003	-0,055
-642,941	-200,000	-0,014	-0,171
-641,926	332,723	-0,035	-0,049
-640,911	-200,000	-0,041	-0,155
-639,897	800,000	-0,036	-0,105
-638,882	-200,000	0,008	0,038
-637,868	31,381	0,092	0,057
-636,853	86,641	-0,123	-0,098
-635,838	514,409	0,049	-0,082
-634,824	7,845	0,089	-0,048
-633,809	77,351	0,077	0,059
-632,795	-29,236	-0,092	-0,038
-631,780	-200,000	0,006	-0,143
-630,765	-200,000	-0,002	-0,102
-629,751	-200,000	-0,027	-0,150
-628,736	-14,035	-0,043	-0,020
-627,722	-200,000	0,018	-0,073
-626,707	-67,845	-0,033	-0,009
-625,692	-67,358	0,041	0,011
-624,678	-200,000	-0,017	-0,073
-623,663	-200,000	-0,010	0,071
-622,649	-200,000	0,027	-0,158
-621,634	-200,000	-0,008	-0,089
-620,619	-200,000	-0,004	0,081
-619,605	276,909	-0,044	0,057
-618,590	93,480	0,026	-0,021
-617,576	-34,576	-0,165	-0,065
-616,561	600,796	0,100	-0,181
-615,546	36,036	0,150	0,095
-614,532	-3,048	-0,088	-0,044
-613,517	614,424	-0,034	0,061
-612,503	800,000	-0,035	-0,076
-611,488	-200,000	-0,009	-0,069
-610,474	-200,000	0,013	-0,128
-609,459	-85,836	0,095	0,021
-608,444	71,549	-0,033	-0,025
-607,430	93,298	0,054	0,044
-606,415	316,359	-0,016	0,022
-605,401	800,000	-0,033	0,088
-604,386	-200,000	0,031	0,127
-603,371	93,518	-0,009	-0,007
-602,357	145,614	-0,017	0,016
-601,342	474,165	-0,005	0,009
-600,328	-42,121	0,012	-0,004
-599,313	5,736	-0,065	-0,035
-598,298	800,000	-0,013	0,035
-597,284	87,670	-0,087	-0,069
-596,269	-200,000	0,003	0,162
-595,255	65,615	-0,071	0,052
-594,240	1,707	-0,100	0,052
-593,225	-200,000	-0,016	-0,098
-592,211	-200,000	0,027	-0,135
-591,196	274,581	-0,064	-0,082
-590,182	32,833	0,017	0,011
-589,167	99,477	0,068	0,057
-588,152	-61,412	0,104	0,031
-587,138	800,000	0,023	0,064
-586,123	-62,112	-0,199	-0,060
-585,109	33,701	-0,084	-0,053
-584,094	69,343	0,091	0,068
-583,079	-7,172	-0,018	0,009
-582,065	111,797	-0,124	0,108
-581,050	-200,000	-0,002	-0,076
-580,036	800,000	-0,046	-0,123
-579,021	-50,875	0,092	-0,031
-578,006	-200,000	-0,001	0,125
-576,992	35,085	-0,117	-0,074
-575,977	-90,587	0,115	-0,024
-574,963	-200,000	0,009	0,108
-573,948	68,656	-0,063	0,047
-572,934	800,000	-0,056	-0,154
-571,919	38,280	-0,038	-0,025
-570,904	-200,000	-0,005	-0,147
-569,890	-152,908	-0,040	-0,002
-568,875	-200,000	0,013	-0,100
-567,861	736,353	0,035	0,068
-566,846	200,089	-0,063	-0,070
-565,831	-200,000	-0,000	0,084
-564,817	-200,000	0,003	0,101
-563,802	340,787	-0,100	-0,142
-562,788	-200,000	0,010	0,088
-561,773	800,000	0,023	0,059
-560,758	585,663	0,058	0,104
-559,744	800,000	0,054	-0,132
-558,729	800,000	0,019	0,048
-557,715	0,368	-0,115	-0,059
-556,700	-200,000	0,010	-0,057
-555,685	-200,000	-0,004	0,036
-554,671	359,698	-0,026	-0,037
-553,656	-200,000	0,009	0,088
-552,642	-200,000	-0,029	0,107
-551,627	-117,163	-0,133	0,017
-550,612	482,665	0,069	-0,114
-549,598	120,637	0,036	-0,033
-548,583	800,000	-0,013	-0,030
-547,569	-8,163	-0,015	0,007
-546,554	-200,000	0,005	-0,045
-545,539	-115,607	-0,149	-0,020
-544,525	-149,816	0,126	-0,007
-543,510	68,508	-0,063	-0,046
-542,496	-109,950	0,076	0,011
-541,481	-200,000	-0,018	-0,116
-540,466	-200,000	-0,014	-0,118
-539,452	-114,036	0,193	-0,027
-538,437	800,000	0,013	-0,031
-537,423	399,151	-0,065	0,099
-536,408	-200,000	0,010	0,114
-535,393	-200,000	-0,040	-0,164
-534,379	365,530	0,046	-0,067
-533,364	-93,241	0,069	-0,014
-532,350	-48,192	0,025	0,009
-531,335	-73,703	0,099	-0,026
-530,321	-200,000	0,034	0,184
-529,306	-200,000	-0,017	0,069
-528,291	36,420	-0,070	-0,045
-527,277	-80,718	0,004	0,001
-526,262	-200,000	-0,005	-0,015
-525,248	-74,492	0,228	-0,059
-524,233	265,756	0,037	-0,046
-523,218	-90,867	-0,020	0,004
-522,204	-63,973	-0,078	0,023
-521,189	-2,251	0,009	0,004
-520,175	100,287	-0,048	0,040
-519,160	397,335	-0,081	-0,123
-518,145	-200,000	0,010	-0,065
-517,131	135,137	-0,120	0,112
-516,116	175,879	0,089	-0,093
-515,102	-200,000	-0,027	-0,103
-514,087	199,401	0,111	-0,122
-513,072	-200,000	-0,019	-0,071
-512,058	800,000	0,060	-0,158
-511,043	-200,000	0,059	0,000
-510,029	-156,735	-0,099	-0,004
-509,014	273,197	0,101	-0,128
-507,999	113,850	0,030	-0,026
-506,985	-154,764	0,067	0,003
-505,970	-66,553	0,064	-0,018
-504,956	-137,039	-0,063	0,005
-503,941	253,072	0,080	-0,098
-502,926	800,000	-0,024	0,065
-501,912	474,588	-0,045	-0,073
-500,897	-121,689	-0,173	-0,020
-499,883	-35,358	-0,108	-0,042
-498,868	-87,720	-0,118	0,025
-497,853	-200,000	-0,014	0,050
-496,839	255,181	0,028	-0,034
-495,824	800,000	-0,059	0,149
-494,810	-34,283	0,064	-0,025
-493,795	4,604	-0,018	0,010
-492,781	127,572	0,090	0,082
-491,766	185,873	-0,077	-0,082
-490,751	800,000	0,007	-0,016
-489,737	-120,734	0,118	0,014
-488,722	-200,000	-0,006	0,145
-487,708	104,805	-0,086	0,073
-486,693	258,110	0,028	0,035
-485,678	13,137	0,035	-0,020
-484,664	-87,587	0,057	-0,012
-483,649	285,371	-0,081	-0,105
-482,635	800,000	-0,083	-0,167
-481,620	-200,000	0,010	0,043
-480,605	768,324	0,084	0,165
-479,591	80,891	0,022	0,017
-478,576	261,028	0,038	-0,047
-477,562	403,295	0,064	-0,097
-476,547	-42,434	-0,111	0,040
-475,532	18,968	-0,072	-0,041
-474,518	-29,976	0,093	-0,038
-473,503	-144,633	0,013	-0,001
-472,489	478,190	-0,031	0,050
-471,474	13,966	-0,069	-0,038
-470,459	143,058	-0,070	-0,067
-469,445	800,000	0,056	-0,137
-468,430	800,000	-0,053	-0,154
-467,416	-200,000	-0,002	0,030
-466,401	-127,097	0,042	0,004
-465,386	-200,000	0,006	0,040
-464,372	-126,590	0,094	-0,010
-463,357	-200,000	-0,007	-0,031
-462,343	-200,000	-0,060	-0,250
-461,328	379,652	0,004	0,006
-460,313	371,578	-0,007	-0,010
-459,299	-159,910	-0,064	0,002
-458,284	284,501	-0,062	0,080
-457,270	799,460	-0,008	-0,015
-456,255	586,762	0,071	-0,127
-455,241	800,000	-0,049	-0,152
-454,226	-10,340	-0,059	-0,028
-453,211	800,000	-0,043	0,092
-452,197	669,467	0,031	0,057
-451,182	266,672	0,101	0,127
-450,168	11,579	0,042	0,023
-449,153	383,736	0,059	0,087
-448,138	-156,452	-0,149	-0,007
-447,124	248,524	-0,070	0,085
-446,109	133,337	-0,075	0,070
-445,095	-200,000	0,065	0,224
-444,080	800,000	0,055	0,110
-443,065	77,130	0,171	0,131
-442,051	-200,000	0,015	-0,091
-441,036	-85,288	-0,041	0,009
-440,022	800,000	0,075	-0,167
-439,007	145,205	0,140	0,134
-437,992	-200,000	-0,012	-0,040
-436,978	93,162	0,038	0,031
-435,963	800,000	0,047	-0,123
-434,949	-126,664	-0,134	0,014
-433,934	398,031	-0,071	-0,107
-432,919	-200,000	-0,043	-0,147
-431,905	49,851	-0,079	0,053
-430,890	-56,173	0,120	-0,038
-429,876	-8,969	-0,203	0,097
-428,861	139,200	-0,075	0,071
-427,846	-3,345	-0,045	0,022
-426,832	182,598	0,051	-0,054
-425,817	101,283	0,031	-0,026
-424,803	-118,175	-0,151	-0,019
-423,788	0,332	0,070	0,036
-422,773	430,564	-0,036	0,057
-421,759	127,152	0,138	0,125
-420,744	53,449	0,053	-0,037
-419,730	49,733	-0,053	-0,036
-418,715	-99,879	-0,100	0,018
-417,701	-7,920	-0,105	0,051
-416,686	800,000	-0,028	-0,058
-415,671	-200,000	-0,004	-0,019
-414,657	-12,254	-0,074	-0,034
-413,642	29,621	0,059	-0,036
-412,628	-111,663	-0,013	-0,002
-411,613	800,000	-0,022	-0,054
-410,598	236,950	-0,010	-0,012
-409,584	-200,000	-0,000	0,066
-408,569	800,000	0,066	0,188
-407,555	-110,438	0,023	-0,003
-406,540	800,000	-0,070	-0,199
-405,525	800,000	0,025	0,068
-404,511	32,197	-0,107	0,066
-403,496	-19,093	-0,065	0,029
-402,482	-152,920	-0,024	0,001
-401,467	13,081	0,118	-0,065
-400,452	-200,000	0,001	-0,027
-399,438	-87,502	-0,142	0,031
-398,423	10,498	-0,050	-0,027
-397,409	-200,000	-0,022	-0,163
-396,394	-200,000	0,010	0,061
-395,379	147,649	0,048	-0,047
-394,365	111,374	-0,042	0,036
-393,350	247,710	-0,037	0,044
-392,336	177,847	0,066	-0,069
-391,321	-200,000	-0,018	-0,118
-390,306	-200,000	-0,003	-0,094
-389,292	-200,000	0,000	-0,077
-388,277	427,879	-0,013	0,020
-387,263	-100,519	0,225	0,040
-386,248	273,621	-0,038	0,048
-385,233	-20,061	0,045	-0,020
-384,219	303,603	0,074	0,098
-383,204	127,793	0,042	-0,039
-382,190	-4,442	-0,038	-0,019
-381,175	-86,493	-0,036	-0,008
-380,160	193,372	0,006	0,007
-379,146	536,227	-0,059	0,100
-378,131	-3,020	0,028	-0,014
-377,117	285,132	0,015	-0,020
-376,102	800,000	0,043	-0,092
-375,088	-29,413	0,029	0,012
-374,073	758,850	0,030	-0,059
-373,058	-52,237	-0,133	0,044
-372,044	-68,231	0,112	0,031
-371,029	532,056	0,110	-0,188
-370,015	-11,793	-0,152	-0,071
-369,000	85,897	-0,121	-0,095
-367,985	181,629	-0,020	-0,021
-366,971	-113,673	-0,062	-0,009
-365,956	200,875	-0,058	-0,064
-364,942	5,528	0,111	0,059
-363,927	800,000	-0,035	0,084
-362,912	555,194	0,076	0,132
-361,898	800,000	-0,016	-0,044
-360,883	290,428	-0,014	-0,019
-359,869	68,022	0,035	-0,026
-358,854	18,145	-0,131	0,075
-357,839	-86,872	0,182	-0,039
-356,825	-146,636	-0,025	0,002
-355,810	-122,259	0,070	0,008
-354,796	-30,458	0,045	-0,018
-353,781	286,962	0,017	0,022
-352,766	229,666	-0,117	0,137
-351,752	729,856	-0,046	0,088
-350,737	-47,086	0,171	-0,059
-349,723	47,254	0,035	0,023
-348,708	36,445	0,036	-0,022
-347,693	137,538	0,130	-0,121
-346,679	99,976	-0,039	-0,032
-345,664	-40,534	0,056	-0,021
-344,650	-157,310	-0,130	0,006
-343,635	554,739	0,079	-0,136
-342,620	42,461	0,066	0,043
-341,606	-200,000	-0,000	-0,098
-340,591	-200,000	-0,027	-0,098
-339,577	800,000	-0,069	-0,166
-338,562	-200,000	-0,005	-0,127
-337,548	351,173	0,034	0,049
-336,533	800,000	0,075	0,192
-335,518	-200,000	0,017	0,067
-334,504	-117,668	0,164	0,021
-333,489	82,676	-0,142	0,110
-332,475	-200,000	0,031	-0,109
-331,460	193,346	0,039	-0,042
-330,445	99,520	0,063	0,052
-329,431	146,436	0,049	-0,047
-328,416	-158,743	0,138	0,006
-327,402	-200,000	-0,006	0,126
-326,387	-200,000	-0,018	0,082
-325,372	171,055	0,046	-0,047
-324,358	-184,586	-0,219	-0,002
-323,343	514,319	0,055	0,092
-322,329	-200,000	0,006	0,037
-321,314	144,456	-0,111	-0,106
-320,299	-164,938	0,125	0,004
-319,285	-13,895	-0,039	0,018
-318,270	-20,470	-0,121	-0,053
-317,256	-169,546	-0,033	0,001
-316,241	279,078	0,045	0,057
-315,226	56,789	-0,035	0,024
-314,212	12,168	0,070	0,038
-313,197	-200,000	-0,013	0,056
-312,183	-77,801	0,036	-0,009
-311,168	800,000	-0,059	-0,139
-310,153	-200,000	-0,004	-0,116
-309,139	-200,000	0,006	-0,150
-308,124	-39,540	-0,068	-0,025
-307,110	-200,000	0,019	0,071
-306,095	-170,587	0,119	-0,003
-305,080	-4,109	-0,129	-0,064
-304,066	-85,497	-0,083	0,018
-303,051	-90,565	-0,120	-0,025
-302,037	-200,000	-0,011	-0,115
-301,022	102,628	0,051	-0,043
-300,008	-1,051	0,155	0,078
-298,993	-166,263	0,113	0,003
-297,978	-141,035	0,056	0,004
-296,964	-200,000	-0,010	-0,038
-295,949	-177,123	-0,020	0,000
-294,935	114,604	0,045	-0,039
-293,920	-164,485	0,121	-0,004
-292,905	800,000	0,057	0,113
-291,891	800,000	0,022	-0,045
-290,876	-200,000	-0,023	0,147
-289,862	-200,000	-0,018	-0,066
-288,847	-200,000	-0,010	-0,041
-287,832	-9,522	-0,050	-0,024
-286,818	800,000	-0,041	-0,109
-285,803	-200,000	-0,026	0,147
-284,789	-51,555	-0,025	-0,008
-283,774	-200,000	0,019	-0,079
-282,759	339,370	0,056	0,078
-281,745	-91,475	-0,154	0,031
-280,730	-78,554	-0,040	-0,010
-279,716	661,452	-0,022	0,041
-278,701	-151,248	0,171	-0,009
-277,686	-200,000	-0,027	0,104
-276,672	436,697	-0,019	0,029
-275,657	684,000	-0,009	-0,016
-274,643	-62,081	-0,079	-0,023
-273,628	438,059	-0,075	0,117
-272,613	14,040	-0,124	0,068
-271,599	800,000	0,027	-0,057
-270,584	416,857	0,056	0,086
-269,570	-200,000	0,035	0,160
-268,555	17,062	0,102	-0,057
-267,540	80,183	0,096	0,073
-266,526	96,383	-0,027	-0,022
-265,511	-103,148	-0,073	-0,012
-264,497	-200,000	0,005	-0,071
-263,482	-200,000	0,026	0,102
-262,467	133,376	0,101	0,093
-261,453	-200,000	-0,024	0,081
-260,438	-45,772	0,031	0,011
-259,424	182,764	-0,041	0,043
-258,409	-120,474	-0,038	-0,005
-257,395	-34,521	0,039	-0,015
-256,380	131,117	0,127	0,116
-255,365	4,584	0,047	0,024
-254,351	-200,000	-0,009	0,080
-253,336	-98,339	-0,046	-0,008
-252,322	-200,000	0,009	-0,064
-251,307	-200,000	0,016	-0,057
-250,292	-200,000	-0,003	0,141
-249,278	-200,000	0,010	0,071
-248,263	514,559	0,050	-0,083
-247,249	417,621	0,137	0,209
-246,234	97,594	-0,011	0,009
-245,219	43,033	-0,062	-0,040
-244,205	513,953	0,071	0,119
-243,190	-200,000	-0,003	-0,029
-242,176	666,321	0,062	0,114
-241,161	-200,000	0,017	0,073
-240,146	19,439	-0,042	0,024
-239,132	800,000	0,012	0,037
-238,117	195,499	-0,046	0,050
-237,103	346,966	0,048	0,067
-236,088	800,000	-0,029	0,058
-235,073	-200,000	0,019	-0,067
-234,059	56,886	-0,149	0,103
-233,044	13,224	-0,032	0,017
-232,030	-73,043	0,055	-0,014
-231,015	16,979	-0,130	-0,073
-230,000	800,000	0,044	0,109
-228,986	259,652	0,051	0,063
-227,971	-169,056	0,079	-0,002
-226,957	-149,572	0,119	-0,007
-225,942	337,841	-0,050	-0,069
-224,927	-200,000	0,006	0,069
-223,913	800,000	-0,041	-0,093
-222,898	56,416	-0,104	-0,072
-221,884	-137,370	-0,031	0,002
-220,869	800,000	0,034	0,093
-219,855	-106,008	-0,021	-0,003
-218,840	94,417	-0,110	0,089
-217,825	63,102	0,050	0,036
-216,811	-200,000	0,016	0,083
-215,796	51,393	0,057	-0,039
-214,782	128,100	-0,036	0,033
-213,767	800,000	0,045	0,105
-212,752	-200,000	0,037	0,212
-211,738	-200,000	-0,017	0,155
-210,723	34,945	-0,060	0,037
-209,709	-94,278	-0,100	-0,019
-208,694	-200,000	0,011	-0,049
-207,679	-200,000	-0,028	0,000
-206,665	-6,646	-0,067	0,032
-205,650	-26,041	0,180	0,075
-204,636	-200,000	-0,008	-0,051
-203,621	-32,003	0,039	-0,015
-202,606	697,087	0,047	-0,088
-201,592	-162,707	-0,180	0,006
-200,577	636,903	0,031	-0,057
-199,563	-72,685	0,093	-0,024
-198,548	-200,000	-0,010	0,126
-197,533	-200,000	0,024	0,176
-196,519	108,849	-0,085	-0,072
-195,504	-200,000	-0,003	-0,114
-194,490	731,881	0,015	0,029
-193,475	-34,375	0,075	0,029
-192,460	33,021	0,136	-0,084
-191,446	-125,498	-0,050	-0,005
-190,431	-120,448	0,012	0,001
-189,417	23,921	0,136	-0,079
-188,402	-111,919	0,077	-0,011
-187,387	255,144	-0,038	0,047
-186,373	-90,853	-0,121	-0,025
-185,358	316,060	-0,112	0,150
-184,344	84,336	-0,027	0,021
-183,329	-200,000	0,005	0,091
-182,315	800,000	-0,096	0,219
-181,300	8,833	-0,080	0,043
-180,285	421,505	0,073	-0,112
-179,271	-40,537	-0,053	-0,019
-178,256	-98,964	0,191	0,034
-177,242	160,811	-0,061	0,061
-176,227	100,870	0,108	0,089
-175,212	-200,000	-0,012	-0,086
-174,198	-8,716	0,094	0,044
-173,183	800,000	0,030	-0,076
-172,169	144,144	-0,113	-0,108
-171,154	800,000	-0,032	0,068
-170,139	440,627	0,062	0,096
-169,125	800,000	-0,058	0,122
-168,110	800,000	-0,031	0,069
-167,096	-28,121	0,091	-0,037
-166,081	357,527	0,045	0,064
-165,066	22,176	-0,194	0,112
-164,052	523,176	0,025	-0,041
-163,037	-9,934	0,063	0,030
-162,023	-27,828	0,122	0,050
-161,008	-93,160	-0,201	-0,039
-159,993	-200,000	0,038	0,139
-158,979	32,729	-0,071	-0,044
-157,964	116,785	0,058	0,050
-156,950	149,430	0,123	0,118
-155,935	800,000	0,033	0,066
-154,920	6,860	0,060	-0,032
-153,906	-200,000	0,017	0,108
-152,891	626,554	0,037	0,067
-151,877	-200,000	-0,017	0,107
-150,862	-115,112	-0,151	-0,020
-149,847	-70,776	-0,039	0,010
-148,833	33,106	0,039	0,024
-147,818	-200,000	0,003	-0,075
-146,804	29,621	-0,076	0,046
-145,789	-200,000	-0,016	0,083
-144,775	-200,000	0,009	0,030
-143,760	-117,745	0,165	-0,021
-142,745	116,339	-0,103	-0,090
-141,731	-200,000	-0,015	0,118
-140,716	800,000	-0,048	-0,112
-139,702	-200,000	-0,015	0,091
-138,687	-141,285	-0,146	-0,010
-137,672	-76,570	-0,184	0,045
-136,658	800,000	-0,069	-0,160
-135,643	-200,000	-0,013	-0,048
-134,629	246,488	0,005	0,006
-133,614	29,224	-0,115	0,069
-132,599	-200,000	0,000	-0,083
-131,585	251,088	-0,099	0,120
-130,570	92,857	0,069	0,055
-129,556	-200,000	-0,001	-0,022
-128,541	381,558	0,053	0,078
-127,526	-70,485	-0,073	-0,019
-126,512	106,413	0,035	-0,030
-125,497	-200,000	0,026	0,102
-124,483	-200,000	0,013	-0,060
-123,468	-126,392	0,129	-0,013
-122,453	800,000	0,048	0,102
-121,439	-22,656	0,101	-0,043
-120,424	-200,000	0,003	-0,118
-119,410	201,298	0,008	-0,009
-118,395	187,426	0,062	-0,066
-117,380	-175,972	0,093	-0,002
-116,366	-200,000	0,018	0,167
-115,351	442,423	0,062	0,097
-114,337	64,635	0,043	-0,030
-113,322	-62,912	-0,074	0,022
-112,307	56,189	-0,037	0,025
-111,293	47,528	0,163	-0,108
-110,278	155,922	-0,066	-0,065
-109,264	30,128	0,040	-0,024
-108,249	-200,000	0,034	-0,143
-107,234	116,911	0,055	-0,048
-106,220	9,720	0,047	-0,025
-105,205	22,128	-0,071	0,041
-104,191	-175,171	0,096	-0,002
-103,176	522,110	0,095	0,159
-102,162	361,354	0,068	0,097
-101,147	-42,547	-0,057	0,020
-100,132	-200,000	-0,033	-0,113
-99,118	-135,752	0,038	-0,003
-98,103	268,717	-0,086	0,108
-97,089	800,000	0,049	0,119
-96,074	800,000	0,062	0,126
-95,059	-80,422	0,082	0,019
-94,045	800,000	0,036	-0,074
-93,030	-74,716	-0,060	-0,015
-92,016	-119,226	-0,083	-0,010
-91,001	800,000	-0,092	0,191
-89,986	-17,157	0,111	-0,050
-88,972	797,362	-0,039	0,076
-87,957	-15,091	0,140	-0,063
-86,943	-200,000	0,010	0,155
-85,928	-200,000	-0,029	-0,143
-84,913	-63,411	-0,109	-0,031
-83,899	-81,784	0,128	-0,029
-82,884	600,609	0,047	-0,084
-81,870	-123,157	-0,213	0,024
-80,855	-200,000	-0,027	0,114
-79,840	-200,000	0,006	-0,151
-78,826	60,235	-0,081	0,057
-77,811	-200,000	0,006	-0,084
-76,797	-200,000	-0,013	-0,063
-75,782	-200,000	0,008	0,079
-74,767	800,000	-0,034	0,081
-73,753	27,829	0,051	0,030
-72,738	9,005	0,054	0,029
-71,724	250,079	-0,041	-0,049
-70,709	800,000	-0,039	0,078
-69,694	-52,409	0,027	-0,009
-68,680	-200,000	0,006	0,054
-67,665	-118,329	0,191	-0,024
-66,651	800,000	0,014	-0,040
-65,636	-86,272	-0,035	-0,007
-64,622	-73,564	-0,142	-0,036
-63,607	216,747	-0,048	0,055
-62,592	-200,000	0,001	0,053
-61,578	164,435	0,067	0,067
-60,563	363,492	0,044	0,062
-59,549	19,626	0,082	0,047
-58,534	-15,973	-1,702	-0,763
-57,519	465,838	-1,297	-2,061
-56,505	-200,000	-0,447	-4,384
-55,490	318,873	0,919	1,235
-54,476	800,000	4,976	11,363
-53,461	-200,000	19,265	325,126
-52,446	-200,000	741,180	2333,930
-51,432	571,333	1651,543	2854,729
-50,417	77,372	1665,610	1251,576
-49,403	20,810	1539,157	879,311
-48,388	14,692	1461,503	805,315
-47,373	18,353	1451,803	817,551
-46,359	16,696	1441,867	804,017
-45,344	12,916	1437,161	783,328
-44,330	12,864	1435,222	781,993
-43,315	12,898	1433,514	781,191
-42,300	12,873	1431,941	780,185
-41,286	12,921	1430,668	779,692
-40,271	12,874	1429,260	778,669
-39,257	12,873	1428,018	777,955
-38,242	12,916	1426,600	777,358
-37,227	12,858	1425,536	776,472
-36,213	12,870	1424,354	775,854
-35,198	12,927	1422,906	775,305
-34,184	12,910	1422,210	774,814
-33,169	12,862	1420,855	773,819
-32,154	12,942	1419,722	773,548
-31,140	12,941	1418,621	772,909
-30,125	12,979	1417,360	772,374
-29,111	12,934	1416,446	771,632
-28,096	12,908	1415,253	770,831
-27,082	12,843	1414,126	769,878
-26,067	12,846	1413,183	769,351
-25,052	12,841	1412,218	768,771
-24,038	12,868	1411,147	768,282
-23,023	12,799	1410,150	767,387
-22,009	12,853	1409,004	766,986
-20,994	12,804	1407,998	766,177
-19,979	12,803	1407,310	765,770
-18,965	12,830	1406,216	765,270
-17,950	12,808	1405,320	764,651
-16,936	12,839	1404,545	764,343
-15,921	12,753	1403,279	763,222
-14,906	12,779	1402,472	762,872
-13,892	12,766	1401,452	762,226
-12,877	12,714	1400,694	761,542
-11,863	12,768	1399,603	761,169
-10,848	12,776	1399,000	760,851
-9,833	12,739	1398,003	760,105
-8,819	12,735	1397,185	759,612
-7,804	12,659	1396,448	758,827
-6,790	12,676	1395,492	758,360
-5,775	12,660	1394,169	757,536
-4,760	12,656	1393,138	756,926
-3,746	12,645	1392,346	756,415
-2,731	12,643	1391,395	755,857
-1,717	12,587	1390,843	755,270
-0,702	12,651	1388,961	754,514
0,313	16,589	1305,405	727,259
1,327	33,041	699,761	427,621
2,342	50,862	122,360	81,781
3,356	2,768	16,591	8,477
4,371	-9,374	3,430	1,612
5,386	-33,525	0,519	0,202
6,400	-200,000	-0,027	0,273
7,415	270,411	-0,190	-0,237
8,429	223,916	-0,272	-0,310
9,444	53,874	-0,224	-0,151
10,459	29,878	-0,263	-0,158
11,473	30,432	-0,264	-0,159
12,488	207,009	-0,263	-0,290
13,502	-65,508	-0,329	-0,093
14,517	-117,070	-0,277	-0,035
15,531	187,571	-0,270	-0,284
16,546	-55,886	-0,391	-0,123
17,561	14,333	-0,355	-0,195
18,575	795,440	-0,059	-0,115
19,590	204,509	-0,204	-0,224
20,604	31,490	-0,203	-0,123
21,619	30,593	-0,507	-0,305
22,634	130,014	-0,365	-0,329
23,648	34,966	-0,382	-0,236
24,663	103,721	-0,381	-0,315
25,677	366,159	-0,259	-0,369
26,692	66,204	-0,416	-0,297
27,707	-3,469	-0,340	-0,166
28,721	88,395	-0,314	-0,246
29,736	10,381	-0,489	-0,261
30,750	72,388	-0,442	-0,324
31,765	71,874	-0,516	-0,378
32,780	28,695	-0,558	-0,332
33,794	195,191	-0,336	-0,360
34,809	159,198	-0,399	-0,391
35,823	132,188	-0,297	-0,270
36,838	37,233	-0,351	-0,218
37,853	116,768	-0,407	-0,352
38,867	106,279	-0,464	-0,387
39,882	437,637	-0,209	-0,322
40,896	102,347	-0,276	-0,227
41,911	102,052	-0,316	-0,260
42,926	19,538	-0,357	-0,202
43,940	-132,216	-0,318	-0,029
44,955	69,064	-0,359	-0,259
45,969	94,832	-0,412	-0,330
46,984	-43,836	-0,408	-0,144
47,999	265,275	-0,253	-0,311
49,013	-3,853	-0,309	-0,151
50,028	47,999	-0,244	-0,160
51,042	85,224	-0,261	-0,202
52,057	106,307	-0,259	-0,215
53,071	-60,288	-0,442	-0,131
54,086	-113,508	-0,344	-0,047
55,101	113,731	-0,257	-0,219
56,115	96,421	-0,356	-0,286
57,130	-1,287	-0,314	-0,155
58,144	21,776	-0,376	-0,215
59,159	105,861	-0,439	-0,365
60,174	476,197	-0,257	-0,410
61,188	-40,572	-0,316	-0,115
62,203	-12,710	-0,292	-0,133
63,217	76,615	-0,273	-0,203
64,232	67,208	-0,337	-0,241
65,247	52,234	-0,414	-0,277
66,261	-5,027	-0,261	-0,126
67,276	-22,485	-0,310	-0,131
68,290	271,754	-0,197	-0,244
69,305	-38,907	-0,340	-0,125
70,320	178,838	-0,243	-0,250
71,334	36,264	-0,219	-0,135
72,349	-10,437	-0,302	-0,140
73,363	71,537	-0,344	-0,251
74,378	172,467	-0,335	-0,339
75,393	120,651	-0,267	-0,233
76,407	203,423	-0,167	-0,182
77,422	38,297	-0,324	-0,202
78,436	46,680	-0,302	-0,196
79,451	98,803	-0,262	-0,212
80,466	330,832	-0,216	-0,293
81,480	245,637	-0,222	-0,263
82,495	322,197	-0,173	-0,232
83,509	-42,819	-0,298	-0,106
84,524	-131,327	-0,225	-0,021
85,539	-53,807	-0,280	-0,089
86,553	-23,172	-0,229	-0,096
87,568	12,250	-0,309	-0,167
88,582	21,761	-0,292	-0,166
89,597	11,193	-0,347	-0,186
90,611	160,246	-0,208	-0,204
91,626	-21,291	-0,203	-0,086
92,641	91,781	-0,264	-0,208
93,655	-18,429	-0,213	-0,093
94,670	9,174	-0,435	-0,230
95,684	-13,818	-0,315	-0,142
96,699	77,507	-0,348	-0,259
97,714	125,788	-0,176	-0,155
98,728	75,336	-0,242	-0,179
99,743	-2,461	-0,192	-0,094
100,757	24,012	-0,251	-0,145
101,772	195,695	-0,267	-0,284
102,787	98,418	-0,317	-0,255
103,801	271,001	-0,253	-0,312
104,816	-66,793	-0,346	-0,095
105,830	150,179	-0,197	-0,187
106,845	-80,884	-0,109	-0,025
107,860	368,351	-0,185	-0,263
108,874	127,499	-0,236	-0,210
109,889	424,910	-0,171	-0,258
110,903	213,557	-0,333	-0,369
111,918	32,120	-0,277	-0,167
112,933	64,869	-0,121	-0,086
113,947	87,452	-0,110	-0,085
114,962	41,199	-0,204	-0,129
115,976	239,439	-0,281	-0,328
116,991	800,000	-0,115	-0,330
118,006	5,239	-0,294	-0,151
119,020	1,285	-0,252	-0,126
120,035	266,405	-0,160	-0,196
121,049	191,468	-0,171	-0,180
122,064	621,945	-0,107	-0,189
123,079	-200,000	-0,044	-0,154
124,093	156,238	-0,264	-0,255
125,108	193,686	-0,242	-0,257
126,122	170,563	-0,246	-0,247
127,137	-60,866	-0,297	-0,087
128,151	180,929	-0,192	-0,197
129,166	370,454	-0,167	-0,237
130,181	341,761	-0,136	-0,187
131,195	76,549	-0,361	-0,267
132,210	226,966	-0,225	-0,256
133,224	20,303	-0,283	-0,159
134,239	-63,745	-0,293	-0,083
135,254	89,913	-0,121	-0,095
136,268	252,824	-0,156	-0,186
137,283	262,193	-0,193	-0,234
138,297	47,526	-0,375	-0,244
139,312	274,557	-0,197	-0,245
140,327	116,321	-0,234	-0,201
141,341	-42,174	-0,300	-0,106
142,356	24,482	-0,182	-0,105
143,370	271,427	-0,254	-0,313
144,385	-80,072	-0,288	-0,067
145,400	158,907	-0,240	-0,233
146,414	336,007	-0,229	-0,311
147,429	119,311	-0,229	-0,198
148,443	-39,670	-0,364	-0,132
149,458	348,029	-0,132	-0,181
150,473	202,980	-0,246	-0,266
151,487	-200,000	-0,067	-0,244
152,502	137,627	-0,283	-0,258
153,516	74,107	-0,369	-0,270
154,531	57,739	-0,302	-0,205
155,546	31,802	-0,171	-0,103
156,560	133,637	-0,316	-0,285
157,575	-200,000	-0,012	-0,110
158,589	-21,655	-0,251	-0,106
159,604	72,838	-0,225	-0,163
160,619	-35,182	-0,346	-0,131
161,633	123,594	-0,202	-0,176
162,648	92,058	-0,174	-0,136
163,662	-37,414	-0,243	-0,090
164,677	-128,498	-0,248	-0,024
165,692	41,076	-0,174	-0,109
166,706	408,617	-0,110	-0,162
167,721	183,624	-0,267	-0,275
168,735	124,376	-0,308	-0,270
169,750	80,563	-0,275	-0,206
170,764	79,715	-0,186	-0,139
171,779	145,072	-0,168	-0,156
172,794	117,373	-0,269	-0,230
173,808	-13,923	-0,231	-0,103
174,823	146,991	-0,249	-0,233
175,837	16,692	-0,238	-0,131
176,852	127,100	-0,199	-0,176
177,867	-78,098	-0,284	-0,067
178,881	174,717	-0,090	-0,091
179,896	75,516	-0,219	-0,161
180,910	374,906	-0,180	-0,256
181,925	-24,099	-0,297	-0,123
182,940	34,331	-0,291	-0,176
183,954	8,753	-0,300	-0,157
184,969	355,621	-0,150	-0,209
185,983	93,090	-0,181	-0,142
186,998	-55,874	-0,269	-0,083
188,013	97,188	-0,173	-0,138
189,027	-22,947	-0,286	-0,119
190,042	28,608	-0,270	-0,158
191,056	800,000	-0,111	-0,276
192,071	182,674	-0,149	-0,153
193,086	397,895	-0,126	-0,184
194,100	-38,978	-0,154	-0,056
195,115	159,258	-0,244	-0,236
196,129	44,700	-0,263	-0,167
197,144	117,961	-0,144	-0,123
198,159	97,230	-0,210	-0,167
199,173	-15,320	-0,141	-0,063
200,188	745,648	-0,097	-0,182
201,202	45,084	-0,273	-0,175
202,217	95,745	-0,187	-0,148
203,232	800,000	-0,066	-0,168
204,246	18,121	-0,159	-0,088
205,261	-66,741	-0,153	-0,042
206,275	30,196	-0,213	-0,126
207,290	-61,833	-0,171	-0,049
208,304	-15,897	-0,187	-0,082
209,319	260,993	-0,238	-0,287
210,334	94,016	-0,222	-0,175
211,348	800,000	-0,136	-0,331
212,363	89,834	-0,271	-0,210
213,377	37,618	-0,323	-0,199
214,392	800,000	-0,084	-0,225
215,407	23,326	-0,129	-0,073
216,421	156,630	-0,216	-0,207
217,436	101,494	-0,241	-0,194
218,450	144,132	-0,321	-0,297
219,465	294,692	-0,134	-0,170
220,480	195,509	-0,133	-0,140
221,494	201,569	-0,114	-0,122
222,509	263,973	-0,109	-0,131
223,523	-5,007	-0,222	-0,106
224,538	-7,548	-0,138	-0,064
225,553	202,508	-0,189	-0,202
226,567	292,351	-0,211	-0,267
227,582	-65,786	-0,237	-0,065
228,596	44,403	-0,194	-0,123
229,611	-83,035	-0,113	-0,025
230,626	203,367	-0,108	-0,116
231,640	-140,688	-0,191	-0,013
232,655	273,250	-0,166	-0,204
233,669	213,416	-0,208	-0,228
234,684	523,537	-0,112	-0,183
235,699	47,301	-0,213	-0,137
236,713	-10,893	-0,064	0,029
237,728	91,566	-0,168	-0,130
238,742	486,282	-0,124	-0,197
239,757	28,451	-0,226	-0,132
240,772	4,879	-0,234	-0,119
241,786	-126,607	-0,216	0,022
242,801	800,000	-0,069	-0,184
243,815	-83,675	-0,171	0,037
244,830	-116,753	-0,182	0,023
245,844	-134,738	-0,223	-0,018
246,859	176,648	-0,193	-0,194
247,874	497,352	-0,171	-0,273
248,888	-16,944	-0,236	-0,103
249,903	255,991	-0,117	-0,139
250,917	197,997	-0,169	-0,179
251,932	-133,065	-0,147	-0,013
252,947	-200,000	-0,034	-0,123
253,961	52,004	-0,173	-0,114
254,976	235,807	-0,148	-0,169
255,990	-55,738	-0,161	-0,050
257,005	-9,425	-0,098	-0,045
258,020	-174,320	-0,117	0,002
259,034	125,359	-0,156	-0,136
260,049	-63,470	-0,207	-0,058
261,063	110,587	-0,179	-0,149
262,078	70,852	-0,256	-0,183
263,093	-99,614	-0,106	-0,018
264,107	789,018	-0,105	-0,200
265,122	-7,079	-0,133	-0,062
266,136	-200,000	-0,004	-0,095
267,151	-46,476	-0,168	-0,056
268,166	14,309	-0,199	-0,107
269,180	170,359	-0,218	-0,216
270,195	79,211	-0,253	-0,187
271,209	800,000	-0,094	-0,234
272,224	800,000	-0,045	-0,087
273,239	-35,096	-0,234	-0,087
274,253	-106,739	-0,120	-0,018
275,268	84,172	-0,131	-0,099
276,282	800,000	-0,084	-0,240
277,297	121,649	-0,239	-0,205
278,312	-69,383	-0,156	0,041
279,326	-55,149	-0,138	0,043
280,341	253,859	-0,117	-0,138
281,355	163,795	-0,126	-0,122
282,370	-200,000	-0,011	-0,157
283,384	12,742	-0,226	-0,120
284,399	94,940	-0,257	-0,201
285,414	-1,858	-0,089	-0,043
286,428	309,040	-0,109	-0,141
287,443	78,364	-0,153	-0,112
288,457	-25,613	-0,170	-0,069
289,472	65,860	-0,154	-0,108
290,487	315,754	0,031	-0,040
291,501	800,000	-0,032	-0,062
292,516	75,318	-0,218	-0,159
293,530	30,429	-0,189	-0,111
294,545	42,211	-0,135	-0,084
295,560	-200,000	-0,010	-0,185
296,574	-46,558	-0,147	-0,049
297,589	-117,282	-0,101	-0,013
298,603	53,996	-0,224	-0,148
299,618	-103,962	-0,093	0,015
300,633	-29,986	-0,282	-0,110
301,647	160,499	-0,160	-0,153
302,662	397,774	-0,135	-0,194
303,676	-139,655	-0,184	0,013
304,691	13,293	-0,137	-0,073
305,706	-24,435	-0,193	-0,079
306,720	800,000	-0,078	-0,168
307,735	29,699	-0,175	-0,102
308,749	100,482	-0,166	-0,132
309,764	214,881	-0,149	-0,163
310,779	-200,000	-0,036	-0,145
311,793	463,640	-0,101	-0,156
312,808	266,275	-0,137	-0,164
313,822	201,914	-0,160	-0,170
314,837	29,163	-0,148	-0,086
315,852	215,868	-0,126	-0,138
316,866	-35,778	-0,090	-0,033
317,881	800,000	-0,020	0,047
318,895	91,580	-0,117	-0,091
319,910	199,533	-0,140	-0,148
320,925	800,000	-0,068	-0,155
321,939	-45,505	-0,213	-0,072
322,954	187,728	-0,101	-0,104
323,968	-84,587	-0,188	-0,040
324,983	-200,000	-0,105	-0,336
325,997	52,437	-0,154	-0,101
327,012	-1,709	-0,197	-0,095
328,027	231,910	-0,139	-0,157
329,041	33,808	-0,136	-0,081
330,056	-200,000	0,011	-0,096
331,070	334,806	-0,059	0,079
332,085	-200,000	0,002	-0,011
333,100	-86,467	-0,090	-0,019
334,114	132,703	-0,116	-0,102
335,129	-83,767	-0,346	-0,075
336,143	13,241	-0,103	-0,055
337,158	800,000	-0,092	-0,195
338,173	18,108	0,069	-0,038
339,187	339,276	0,059	-0,080
340,202	-164,017	-0,094	-0,003
341,216	595,781	-0,093	-0,159
342,231	128,430	-0,153	-0,133
343,246	14,208	-0,063	-0,033
344,260	22,684	-0,148	-0,083
345,275	43,768	-0,098	-0,061
346,289	563,115	0,036	0,060
347,304	92,558	-0,159	-0,123
348,319	368,317	-0,061	-0,085
349,333	-200,000	-0,012	-0,131
350,348	134,521	-0,206	-0,183
351,362	-26,308	-0,084	0,034
352,377	-200,000	-0,014	-0,106
353,392	-88,364	-0,157	-0,032
354,406	800,000	-0,056	-0,115
355,421	206,089	1312,723	1400,947
356,435	158,485	1473,195	1401,451
