DTS Sentinel unit serial number:	SN410029Multiplexer serial number:	ORYXHardware model number:	OX2-SRSoftware version number:	ORYX F/W v4,00 Oryx Data Collector v3.7.2.0data status	okinstallation	B3 Nyhavnadifferential loss correction	single-endedforward channel	channel 1reverse channel	N/Adate	2023/11/30time	22:17:30forward acquisition time	300,00reverse acquisition time	0,00gamma	499,1914k internal	0,3210k external	0,3210temperature offset calibration	1,0000default loss term (dB/km)	0,3820temperature slope calibration	1,0000multiplexer offset coefficient	1,0000multiplexer slope coefficient	1,0000fibre end	0,00T internal ref (°C)	10,15T ext. ref 1 (°C)	-5,07T ext. ref 2 (°C)	-5,22length (m)	temperature (°C)	Stokes	anti-Stokes-744,400	57,861	-0,300	-0,212
-743,385	-200,000	-0,020	0,108
-742,371	-200,000	-0,038	-0,125
-741,356	800,000	-0,116	0,340
-740,342	192,267	-0,131	-0,144
-739,327	-200,000	0,009	0,364
-738,312	166,257	-0,262	-0,270
-737,298	-200,000	-0,074	0,269
-736,283	229,076	-0,082	-0,097
-735,269	588,309	0,163	0,292
-734,254	152,286	-0,165	-0,163
-733,239	274,039	-0,124	0,160
-732,225	656,831	-0,111	-0,208
-731,210	-65,732	0,173	0,050
-730,196	-87,031	-0,018	0,004
-729,181	455,235	-0,068	-0,110
-728,167	348,245	-0,042	-0,060
-727,152	206,786	0,089	-0,101
-726,137	-132,989	0,089	-0,008
-725,123	55,502	-0,085	0,060
-724,108	-200,000	-0,026	-0,158
-723,094	-200,000	0,020	-0,090
-722,079	800,000	-0,034	-0,107
-721,064	-103,213	-0,062	0,010
-720,050	-43,692	0,127	0,046
-719,035	-102,479	0,057	-0,010
-718,021	800,000	-0,002	0,005
-717,006	130,684	-0,034	0,032
-715,991	-48,818	-0,092	-0,032
-714,977	-53,563	-0,144	-0,047
-713,962	-200,000	-0,007	-0,209
-712,948	-200,000	-0,008	-0,033
-711,933	800,000	-0,070	0,171
-710,918	295,660	0,007	0,009
-709,904	800,000	-0,022	-0,047
-708,889	800,000	0,022	0,066
-707,875	27,453	0,122	0,074
-706,860	800,000	-0,030	-0,079
-705,845	800,000	0,020	-0,047
-704,831	-149,170	0,085	-0,005
-703,816	-62,450	-0,040	0,012
-702,802	-77,207	0,021	-0,005
-701,787	175,824	-0,098	-0,103
-700,772	227,549	0,038	-0,044
-699,758	-200,000	-0,007	0,078
-698,743	369,110	0,027	0,040
-697,729	74,785	0,064	-0,048
-696,714	-200,000	-0,014	0,124
-695,699	237,527	0,094	-0,113
-694,685	57,913	-0,104	-0,074
-693,670	253,784	0,081	-0,100
-692,656	-200,000	0,035	-0,126
-691,641	800,000	-0,053	0,168
-690,627	800,000	-0,031	0,070
-689,612	555,510	-0,038	-0,066
-688,597	-200,000	-0,008	-0,078
-687,583	71,627	-0,051	0,039
-686,568	697,301	-0,074	-0,141
-685,554	-200,000	0,023	-0,111
-684,539	-2,574	0,029	0,015
-683,524	269,754	-0,009	-0,011
-682,510	648,044	0,033	0,061
-681,495	800,000	0,072	-0,157
-680,481	103,033	-0,042	0,036
-679,466	26,529	-0,193	-0,116
-678,451	270,719	-0,015	0,020
-677,437	800,000	0,038	0,111
-676,422	-200,000	0,014	0,056
-675,408	674,003	-0,012	-0,022
-674,393	-200,000	0,003	0,161
-673,378	297,257	-0,119	-0,158
-672,364	-109,351	-0,078	0,012
-671,349	800,000	0,015	-0,039
-670,335	10,763	-0,123	-0,067
-669,320	583,783	-0,090	0,160
-668,305	-200,000	0,022	-0,074
-667,291	-47,173	0,046	-0,016
-666,276	-70,642	-0,121	-0,033
-665,262	-68,920	-0,027	-0,008
-664,247	-129,746	0,047	0,005
-663,232	170,856	-0,026	-0,027
-662,218	-88,185	0,100	-0,021
-661,203	-200,000	-0,003	0,023
-660,189	-90,610	0,240	-0,050
-659,174	367,288	-0,070	-0,102
-658,159	87,925	0,079	0,063
-657,145	-65,758	-0,091	0,026
-656,130	-200,000	0,050	-0,177
-655,116	-54,543	0,168	0,055
-654,101	-200,000	-0,047	0,156
-653,086	-200,000	0,006	-0,108
-652,072	-73,214	0,045	-0,012
-651,057	-200,000	-0,006	0,109
-650,043	148,470	0,094	0,092
-649,028	-40,133	0,121	-0,045
-648,014	90,900	0,101	-0,082
-646,999	-173,607	-0,042	0,001
-645,984	28,512	0,073	-0,045
-644,970	800,000	0,025	0,074
-643,955	-0,750	-0,138	0,071
-642,941	800,000	-0,050	-0,101
-641,926	-66,139	-0,189	-0,054
-640,911	-140,377	0,151	-0,011
-639,897	-200,000	0,005	0,016
-638,882	-43,852	-0,022	0,008
-637,868	-200,000	-0,043	-0,182
-636,853	-200,000	-0,021	-0,096
-635,838	28,797	-0,083	-0,051
-634,824	-52,240	-0,034	-0,011
-633,809	800,000	-0,023	0,058
-632,795	166,531	-0,095	0,098
-631,780	-200,000	-0,003	-0,111
-630,765	-200,000	-0,013	-0,059
-629,751	309,622	-0,135	-0,183
-628,736	800,000	-0,025	-0,073
-627,722	-200,000	0,016	-0,063
-626,707	236,494	-0,047	0,056
-625,692	388,081	0,106	0,158
-624,678	41,834	-0,093	-0,060
-623,663	-70,852	0,148	-0,040
-622,649	240,498	-0,118	-0,142
-621,634	-200,000	-0,013	-0,079
-620,619	113,545	-0,034	0,029
-619,605	278,316	0,048	0,062
-618,590	800,000	-0,006	-0,013
-617,576	-12,074	-0,148	-0,070
-616,561	788,831	-0,051	0,101
-615,546	-200,000	0,013	-0,079
-614,532	522,731	-0,028	-0,047
-613,517	-83,411	-0,029	-0,007
-612,503	41,856	0,133	0,087
-611,488	97,563	0,102	0,084
-610,474	-27,302	-0,150	-0,063
-609,459	86,068	0,098	-0,078
-608,444	-166,473	-0,255	-0,008
-607,430	-200,000	0,017	-0,145
-606,415	-200,000	0,023	-0,089
-605,401	-94,528	-0,081	-0,016
-604,386	-200,000	-0,014	0,164
-603,371	-200,000	0,017	-0,167
-602,357	-57,011	0,118	-0,037
-601,342	746,277	-0,056	0,109
-600,328	238,766	-0,033	0,040
-599,313	147,157	-0,110	-0,107
-598,298	800,000	-0,039	-0,114
-597,284	-115,707	-0,082	-0,011
-596,269	-15,147	0,055	-0,025
-595,255	-107,994	0,103	0,016
-594,240	-200,000	-0,011	-0,056
-593,225	-11,175	0,042	-0,020
-592,211	32,090	-0,170	-0,106
-591,196	16,487	-0,120	0,068
-590,182	800,000	0,062	-0,165
-589,167	76,113	0,116	0,088
-588,152	-55,691	-0,089	-0,028
-587,138	800,000	-0,027	0,081
-586,123	264,231	-0,174	-0,219
-585,109	-64,004	0,024	-0,007
-584,094	190,685	0,081	0,088
-583,079	18,714	0,030	0,017
-582,065	311,759	0,054	0,074
-581,050	14,738	-0,082	0,046
-580,036	14,794	-0,126	-0,071
-579,021	-200,000	0,038	-0,184
-578,006	-200,000	0,003	0,039
-576,992	800,000	0,035	-0,105
-575,977	249,611	-0,019	0,023
-574,963	-17,285	-0,052	-0,023
-573,948	494,276	0,019	-0,032
-572,934	800,000	0,014	-0,034
-571,919	-200,000	0,025	-0,110
-570,904	31,872	-0,119	0,074
-569,890	-186,241	0,071	-0,001
-568,875	187,125	-0,015	0,016
-567,861	-57,142	0,069	0,022
-566,846	111,205	0,146	0,126
-565,831	57,915	0,051	0,036
-564,817	-200,000	0,012	-0,078
-563,802	669,787	0,079	-0,148
-562,788	-188,086	-0,083	-0,001
-561,773	415,569	-0,099	0,152
-560,758	117,417	0,046	0,041
-559,744	29,053	0,007	0,005
-558,729	564,212	0,033	0,058
-557,715	800,000	-0,002	-0,006
-556,700	604,221	-0,076	-0,136
-555,685	25,400	0,044	0,026
-554,671	-107,536	-0,031	0,005
-553,656	-41,579	0,107	-0,039
-552,642	-200,000	0,009	0,037
-551,627	677,112	0,023	0,043
-550,612	-91,095	0,036	-0,007
-549,598	576,715	0,072	0,127
-548,583	-19,416	0,102	-0,045
-547,569	-43,791	-0,181	-0,065
-546,554	47,026	0,048	0,032
-545,539	-11,064	0,082	0,039
-544,525	-51,475	-0,124	-0,042
-543,510	-92,568	0,118	-0,024
-542,496	-200,000	-0,019	-0,093
-541,481	416,192	-0,066	0,101
-540,466	-109,316	0,117	-0,018
-539,452	-200,000	0,002	0,057
-538,437	-200,000	-0,029	0,152
-537,423	647,184	-0,030	0,056
-536,408	-38,202	-0,038	-0,015
-535,393	-145,408	0,083	0,005
-534,379	-59,351	-0,114	-0,035
-533,364	-21,517	0,065	0,028
-532,350	-200,000	-0,022	0,089
-531,335	-117,693	0,155	0,020
-530,321	18,034	-0,078	-0,045
-529,306	230,100	-0,049	-0,057
-528,291	-200,000	-0,005	0,065
-527,277	800,000	0,002	0,005
-526,262	64,250	0,040	-0,029
-525,248	-200,000	-0,008	-0,065
-524,233	800,000	-0,043	0,087
-523,218	134,215	0,034	-0,032
-522,204	198,745	-0,064	-0,070
-521,189	161,737	0,108	-0,109
-520,175	228,393	-0,032	0,038
-519,160	800,000	-0,103	-0,237
-518,145	309,138	0,158	0,212
-517,131	-57,721	-0,091	0,028
-516,116	-200,000	0,001	0,013
-515,102	178,541	0,102	-0,108
-514,087	-37,943	-0,048	0,018
-513,072	-200,000	-0,007	-0,033
-512,058	117,088	0,084	-0,074
-511,043	-200,000	0,014	-0,128
-510,029	-200,000	0,078	0,255
-509,014	-144,809	-0,101	-0,007
-507,999	800,000	0,011	0,029
-506,985	180,476	-0,034	0,036
-505,970	-200,000	0,015	-0,055
-504,956	-154,122	-0,147	0,007
-503,941	-115,357	0,164	-0,022
-502,926	-139,687	0,192	0,015
-501,912	392,151	0,043	-0,065
-500,897	330,449	-0,046	-0,063
-499,883	232,907	0,025	0,029
-498,868	-7,789	-0,040	-0,019
-497,853	80,325	0,023	0,017
-496,839	-200,000	0,005	0,056
-495,824	-200,000	0,013	0,058
-494,810	800,000	-0,025	0,077
-493,795	409,363	0,017	-0,026
-492,781	319,629	-0,041	-0,056
-491,766	-200,000	-0,009	0,133
-490,751	-78,174	0,100	0,024
-489,737	164,460	-0,060	-0,061
-488,722	-24,004	0,093	0,040
-487,708	749,498	-0,022	0,043
-486,693	800,000	-0,020	0,048
-485,678	118,968	0,070	-0,062
-484,664	556,173	-0,019	-0,033
-483,649	49,395	-0,148	-0,100
-482,635	199,918	0,061	0,068
-481,620	183,693	0,099	0,105
-480,605	-200,000	0,002	0,014
-479,591	279,426	0,040	0,052
-478,576	-120,696	0,057	-0,007
-477,562	-127,547	-0,149	-0,015
-476,547	-200,000	-0,017	-0,123
-475,532	145,774	-0,051	-0,049
-474,518	-50,826	0,056	0,019
-473,503	72,788	0,092	0,069
-472,489	-39,478	0,048	0,018
-471,474	-30,769	-0,029	0,012
-470,459	629,866	-0,080	-0,146
-469,445	-85,716	-0,177	-0,039
-468,430	800,000	0,048	-0,095
-467,416	-117,476	0,067	0,009
-466,401	282,609	-0,007	0,009
-465,386	79,076	0,068	0,052
-464,372	-200,000	-0,046	0,149
-463,357	-200,000	-0,002	-0,047
-462,343	-200,000	-0,024	0,106
-461,328	197,967	0,068	-0,075
-460,313	-200,000	-0,027	0,171
-459,299	9,562	0,201	0,109
-458,284	122,781	-0,049	0,044
-457,270	560,913	0,123	0,214
-456,255	-200,000	0,001	-0,098
-455,241	-200,000	0,016	-0,156
-454,226	34,731	-0,072	0,045
-453,211	12,504	-0,111	0,061
-452,197	-167,973	0,123	0,003
-451,182	200,444	0,017	0,019
-450,168	419,706	-0,051	0,078
-449,153	80,598	0,027	-0,021
-448,138	800,000	-0,032	-0,074
-447,124	125,283	-0,039	-0,035
-446,109	12,726	0,132	0,073
-445,095	-48,088	-0,087	0,030
-444,080	225,947	0,065	-0,076
-443,065	449,413	-0,001	-0,001
-442,051	-200,000	0,003	0,038
-441,036	800,000	-0,079	-0,161
-440,022	341,485	-0,022	0,031
-439,007	-96,650	0,095	0,018
-437,992	89,108	0,103	0,082
-436,978	434,161	-0,074	0,116
-435,963	20,841	0,053	0,030
-434,949	800,000	-0,057	-0,119
-433,934	112,194	0,041	-0,035
-432,919	800,000	-0,044	0,101
-431,905	-176,451	0,109	0,002
-430,890	-42,759	0,077	-0,028
-429,876	16,416	0,157	0,089
-428,861	370,175	0,031	-0,046
-427,846	63,680	-0,114	0,082
-426,832	246,538	-0,016	-0,019
-425,817	476,527	0,015	-0,025
-424,803	800,000	0,010	-0,028
-423,788	134,703	0,078	-0,073
-422,773	-152,001	0,036	-0,002
-421,759	43,336	0,041	-0,027
-420,744	-200,000	0,002	-0,024
-419,730	180,369	-0,104	-0,110
-418,715	-200,000	-0,028	-0,111
-417,701	272,054	0,080	-0,101
-416,686	-158,626	0,024	-0,001
-415,671	23,099	0,110	0,064
-414,657	183,518	0,077	0,082
-413,642	163,169	-0,057	0,057
-412,628	-45,552	-0,134	0,047
-411,613	800,000	-0,031	-0,062
-410,598	-200,000	-0,027	0,094
-409,584	-136,531	-0,086	0,007
-408,569	127,278	-0,044	0,040
-407,555	800,000	0,031	-0,080
-406,540	-200,000	0,021	-0,095
-405,525	-200,000	-0,005	0,041
-404,511	-68,904	-0,162	0,044
-403,496	-142,733	-0,059	-0,004
-402,482	34,530	-0,094	-0,059
-401,467	-200,000	0,034	0,214
-400,452	-90,146	-0,069	0,014
-399,438	111,501	0,121	0,104
-398,423	800,000	-0,007	-0,017
-397,409	-200,000	-0,009	0,133
-396,394	800,000	0,047	0,101
-395,379	162,592	-0,038	0,038
-394,365	-200,000	-0,001	0,095
-393,350	430,211	0,139	0,216
-392,336	800,000	0,017	0,041
-391,321	386,293	0,043	-0,064
-390,306	-119,995	-0,231	0,028
-389,292	217,702	0,077	-0,088
-388,277	-75,172	0,064	0,016
-387,263	-182,873	-0,067	-0,001
-386,248	17,712	0,070	0,040
-385,233	-75,102	0,093	-0,024
-384,219	-200,000	0,002	-0,021
-383,204	-40,184	0,040	-0,015
-382,190	26,856	-0,075	-0,045
-381,175	-200,000	0,025	0,100
-380,160	-133,973	0,080	0,007
-379,146	-134,658	-0,126	0,011
-378,131	800,000	-0,013	-0,033
-377,117	-200,000	-0,009	-0,106
-376,102	177,206	0,117	-0,122
-375,088	-35,191	0,098	0,038
-374,073	800,000	-0,031	-0,081
-373,058	117,033	0,036	-0,032
-372,044	-200,000	0,006	-0,064
-371,029	317,737	0,017	-0,023
-370,015	221,730	-0,005	0,005
-369,000	25,685	0,069	0,041
-367,985	-70,308	-0,097	0,026
-366,971	371,276	-0,051	-0,075
-365,956	151,853	0,071	-0,069
-364,942	167,475	-0,007	-0,007
-363,927	-200,000	-0,016	0,119
-362,912	22,244	-0,022	-0,013
-361,898	-155,430	0,062	-0,003
-360,883	-45,965	-0,042	0,015
-359,869	-108,880	-0,171	0,026
-358,854	-58,451	0,202	0,062
-357,839	114,477	-0,062	0,054
-356,825	-138,099	0,100	0,008
-355,810	800,000	-0,032	0,065
-354,796	-200,000	0,010	-0,035
-353,781	-200,000	0,003	0,065
-352,766	432,491	-0,029	0,046
-351,752	351,495	0,033	-0,047
-350,737	800,000	0,076	0,164
-349,723	-181,378	0,086	-0,001
-348,708	31,222	0,023	0,014
-347,693	-200,000	0,022	-0,076
-346,679	541,003	-0,033	0,056
-345,664	256,775	0,080	0,099
-344,650	-200,000	-0,037	0,125
-343,635	91,264	-0,044	-0,036
-342,620	-200,000	-0,026	0,123
-341,606	676,622	0,052	0,097
-340,591	-91,689	-0,158	0,032
-339,577	-98,910	0,049	-0,009
-338,562	800,000	-0,066	0,164
-337,548	-18,827	0,088	-0,039
-336,533	800,000	-0,041	0,094
-335,518	-16,399	0,018	0,008
-334,504	269,471	-0,117	0,147
-333,489	61,153	0,039	0,027
-332,475	520,182	-0,055	-0,093
-331,460	551,725	-0,100	-0,173
-330,445	43,617	0,117	-0,076
-329,431	442,911	0,040	0,062
-328,416	-76,415	-0,049	0,012
-327,402	-1,291	0,087	0,044
-326,387	173,620	-0,027	0,028
-325,372	800,000	0,035	-0,099
-324,358	46,904	-0,129	-0,086
-323,343	38,648	0,072	-0,045
-322,329	92,013	0,101	-0,081
-321,314	87,900	0,008	0,006
-320,299	21,559	0,087	0,050
-319,285	-115,628	0,069	0,009
-318,270	125,373	0,059	-0,053
-317,256	-99,724	-0,064	-0,011
-316,241	0,357	-0,098	-0,050
-315,226	-200,000	0,002	0,031
-314,212	800,000	0,025	-0,068
-313,197	403,418	-0,031	-0,047
-312,183	-57,696	-0,092	0,029
-311,168	117,474	-0,082	-0,072
-310,153	800,000	-0,037	-0,077
-309,139	-193,565	-0,056	0,000
-308,124	-80,864	-0,108	-0,025
-307,110	-87,378	0,169	0,036
-306,095	143,200	0,046	-0,044
-305,080	131,744	-0,027	0,025
-304,066	-133,073	0,082	-0,007
-303,051	-105,490	-0,088	0,014
-302,037	14,560	-0,089	-0,049
-301,022	-44,972	0,089	0,031
-300,008	-88,851	0,085	0,018
-298,993	17,431	0,100	0,056
-297,978	-200,000	-0,003	-0,023
-296,964	36,790	-0,023	0,014
-295,949	95,078	-0,054	-0,044
-294,935	-56,554	0,058	0,018
-293,920	800,000	-0,082	0,162
-292,905	450,833	0,011	0,017
-291,891	-52,856	0,075	0,024
-290,876	-53,539	-0,032	0,010
-289,862	-200,000	-0,050	-0,159
-288,847	146,181	-0,073	0,070
-287,832	-38,928	0,134	-0,050
-286,818	-200,000	0,038	-0,130
-285,803	11,233	-0,094	0,051
-284,789	-127,135	0,201	0,021
-283,774	800,000	0,042	-0,083
-282,759	-200,000	-0,013	0,094
-281,745	132,522	0,044	0,040
-280,730	-200,000	0,005	0,029
-279,716	-136,458	0,041	0,003
-278,701	-64,696	0,137	-0,039
-277,686	554,062	0,033	0,056
-276,672	53,576	-0,134	0,091
-275,657	341,247	-0,077	-0,108
-274,643	-200,000	-0,014	-0,107
-273,628	586,356	-0,062	-0,108
-272,613	-101,031	-0,112	0,019
-271,599	354,273	-0,023	0,032
-270,584	592,903	0,024	0,043
-269,570	-200,000	0,007	0,216
-268,555	-12,222	-0,064	0,029
-267,540	-91,333	0,094	0,019
-266,526	-200,000	-0,035	-0,146
-265,511	36,614	-0,115	-0,072
-264,497	-152,086	0,172	0,009
-263,482	454,585	-0,028	0,045
-262,467	253,659	0,085	0,104
-261,453	289,645	-0,075	-0,097
-260,438	15,644	0,058	0,032
-259,424	-200,000	-0,007	-0,138
-258,409	676,970	-0,051	0,095
-257,395	-115,186	-0,054	-0,007
-256,380	246,651	0,054	0,065
-255,365	-24,012	0,022	-0,009
-254,351	-200,000	-0,011	-0,103
-253,336	74,417	-0,047	-0,035
-252,322	568,239	-0,045	-0,078
-251,307	800,000	-0,030	-0,089
-250,292	106,136	-0,074	0,062
-249,278	800,000	-0,052	0,159
-248,263	-136,980	-0,038	0,003
-247,249	-142,894	-0,029	0,002
-246,234	230,641	0,024	0,028
-245,219	2,246	-0,072	-0,037
-244,205	-106,885	0,050	-0,008
-243,190	578,585	-0,038	0,066
-242,176	81,915	0,168	0,129
-241,161	-113,921	0,087	-0,012
-240,146	107,258	-0,104	0,088
-239,132	-47,945	-0,059	-0,020
-238,117	-200,000	0,008	0,081
-237,103	-200,000	-0,026	-0,122
-236,088	-111,148	0,077	0,011
-235,073	-200,000	0,000	-0,016
-234,059	27,666	0,115	-0,068
-233,044	155,579	-0,045	0,044
-232,030	800,000	-0,046	-0,143
-231,015	241,843	-0,137	-0,163
-230,000	800,000	-0,044	-0,113
-228,986	325,059	0,077	0,105
-227,971	198,882	-0,046	0,050
-226,957	-88,265	0,050	-0,011
-225,942	289,793	-0,030	-0,038
-224,927	-26,421	-0,070	-0,029
-223,913	-37,355	-0,147	0,056
-222,898	-93,021	-0,071	-0,014
-221,884	-5,245	-0,031	-0,015
-220,869	-151,290	0,146	-0,008
-219,855	-27,502	0,107	0,044
-218,840	152,533	0,073	-0,071
-217,825	-200,000	-0,003	-0,058
-216,811	-45,532	-0,065	0,023
-215,796	485,614	0,048	-0,078
-214,782	257,697	-0,048	-0,058
-213,767	-200,000	-0,022	-0,120
-212,752	10,711	-0,095	0,051
-211,738	28,690	0,061	-0,036
-210,723	800,000	0,042	-0,103
-209,709	800,000	-0,073	-0,202
-208,694	-115,864	-0,120	0,016
-207,679	139,664	-0,085	-0,080
-206,665	-131,481	0,135	-0,012
-205,650	-200,000	-0,015	-0,088
-204,636	-74,552	-0,031	0,008
-203,621	-85,084	-0,009	0,002
-202,606	-200,000	-0,014	0,121
-201,592	-200,000	0,047	-0,179
-200,577	800,000	0,040	-0,094
-199,563	80,162	0,020	0,015
-198,548	107,951	0,055	0,047
-197,533	39,345	-0,051	0,033
-196,519	38,978	0,081	-0,052
-195,504	-147,123	-0,096	-0,006
-194,490	263,428	-0,079	-0,098
-193,475	-48,329	-0,058	-0,020
-192,460	-200,000	0,013	0,151
-191,446	218,360	0,038	0,043
-190,431	13,358	-0,042	0,023
-189,417	800,000	0,036	0,089
-188,402	-200,000	0,015	-0,049
-187,387	753,741	-0,011	-0,020
-186,373	-200,000	-0,027	-0,096
-185,358	-12,552	0,103	0,047
-184,344	145,895	0,058	-0,055
-183,329	-123,117	-0,060	-0,007
-182,315	-41,602	-0,064	0,023
-181,300	-200,000	-0,018	0,131
-180,285	-8,228	-0,099	0,047
-179,271	44,808	-0,133	-0,087
-178,256	210,197	0,041	0,046
-177,242	135,963	-0,044	-0,040
-176,227	267,299	0,096	0,120
-175,212	-77,419	0,127	0,031
-174,198	-200,000	-0,016	0,193
-173,183	-200,000	-0,004	0,016
-172,169	-54,457	-0,082	-0,026
-171,154	-140,274	0,078	-0,006
-170,139	406,334	-0,042	-0,062
-169,125	-200,000	-0,006	0,209
-168,110	-72,318	0,087	-0,023
-167,096	288,720	0,031	-0,040
-166,081	-107,241	-0,117	0,018
-165,066	800,000	-0,030	-0,084
-164,052	216,181	0,022	0,025
-163,037	-93,144	-0,067	-0,013
-162,023	23,881	0,205	0,119
-161,008	-200,000	-0,023	0,071
-159,993	-85,806	-0,055	-0,012
-158,979	4,668	-0,149	-0,077
-157,964	-116,867	-0,079	0,010
-156,950	800,000	0,046	0,144
-155,935	257,481	0,065	0,080
-154,920	622,519	0,115	0,207
-153,906	126,194	0,136	0,122
-152,891	-200,000	-0,025	0,111
-151,877	-200,000	0,010	0,076
-150,862	-0,264	-0,039	0,020
-149,847	-101,149	0,039	-0,007
-148,833	-26,229	-0,057	-0,023
-147,818	-173,596	-0,022	0,000
-146,804	34,034	-0,054	0,033
-145,789	247,012	0,105	0,126
-144,775	-189,497	-0,055	0,000
-143,760	-73,892	-0,137	0,035
-142,745	-12,012	0,038	0,018
-141,731	-200,000	-0,004	-0,060
-140,716	23,144	-0,061	-0,035
-139,702	-105,238	0,166	0,027
-138,687	-200,000	0,035	0,123
-137,672	800,000	0,052	-0,112
-136,658	551,714	0,066	-0,112
-135,643	-200,000	-0,011	-0,046
-134,629	-130,011	-0,139	-0,013
-133,614	800,000	-0,010	-0,029
-132,599	171,737	0,111	0,113
-131,585	-26,878	0,069	0,028
-130,570	-200,000	0,010	-0,041
-129,556	209,918	-0,068	-0,076
-128,541	-84,657	0,040	0,009
-127,526	3,312	-0,054	0,028
-126,512	800,000	0,047	0,098
-125,497	-0,172	-0,021	-0,011
-124,483	84,471	0,053	0,041
-123,468	-200,000	0,045	0,182
-122,453	800,000	0,026	0,072
-121,439	-35,005	-0,130	0,050
-120,424	57,628	0,053	-0,037
-119,410	-185,213	-0,118	-0,001
-118,395	-127,913	0,160	0,016
-117,380	288,640	-0,045	0,057
-116,366	-200,000	0,007	0,071
-115,351	800,000	-0,010	-0,028
-114,337	332,055	0,026	0,036
-113,322	-37,750	0,058	0,022
-112,307	93,738	-0,071	-0,057
-111,293	195,199	0,053	-0,057
-110,278	-200,000	0,011	0,149
-109,264	210,185	0,119	-0,132
-108,249	631,747	-0,006	0,012
-107,234	-116,300	0,066	-0,009
-106,220	-76,009	0,065	0,016
-105,205	-200,000	-0,004	0,073
-104,191	10,598	0,117	0,063
-103,176	800,000	-0,026	0,051
-102,162	800,000	-0,026	0,051
-101,147	250,038	0,033	0,040
-100,132	-200,000	0,009	0,045
-99,118	-200,000	0,003	-0,082
-98,103	311,435	0,029	-0,039
-97,089	-42,100	0,101	0,036
-96,074	373,414	-0,040	0,058
-95,059	-200,000	-0,004	0,109
-94,045	-132,714	0,099	0,009
-93,030	-200,000	-0,016	-0,070
-92,016	-200,000	-0,021	-0,145
-91,001	-200,000	-0,006	-0,038
-89,986	480,407	-0,058	0,093
-88,972	290,651	-0,087	-0,112
-87,957	482,432	0,008	0,013
-86,943	-200,000	-0,028	0,189
-85,928	-200,000	0,005	0,124
-84,913	-53,777	-0,155	-0,050
-83,899	51,479	-0,118	-0,079
-82,884	-200,000	-0,005	0,072
-81,870	-200,000	0,038	-0,139
-80,855	-95,309	0,127	-0,024
-79,840	-73,505	-0,093	0,024
-78,826	208,444	0,027	0,030
-77,811	-84,057	0,184	0,041
-76,797	266,268	-0,067	-0,083
-75,782	135,286	-0,070	0,064
-74,767	800,000	0,085	0,179
-73,753	800,000	-0,011	0,032
-72,738	800,000	-0,021	0,054
-71,724	240,372	-0,069	0,081
-70,709	-200,000	-0,007	-0,096
-69,694	-103,483	-0,110	0,018
-68,680	122,401	0,117	0,103
-67,665	11,581	0,223	-0,121
-66,651	231,044	-0,018	-0,021
-65,636	295,948	-0,099	0,129
-64,622	164,424	-0,073	0,073
-63,607	-200,000	-0,013	-0,067
-62,592	171,771	-0,078	-0,079
-61,578	-200,000	0,025	-0,219
-60,563	22,266	0,160	-0,092
-59,549	716,406	0,020	0,038
-58,534	38,127	-2,052	-1,287
-57,519	437,743	-1,288	-1,989
-56,505	-200,000	-0,390	-4,618
-55,490	410,631	0,784	1,178
-54,476	800,000	5,316	11,671
-53,461	-200,000	21,492	346,467
-52,446	800,000	761,950	2371,019
-51,432	559,735	1666,003	2851,604
-50,417	73,660	1664,783	1230,083
-49,403	18,023	1538,207	863,231
-48,388	11,957	1461,697	790,882
-47,373	19,822	1452,860	823,900
-46,359	15,588	1442,178	797,630
-45,344	10,289	1437,960	769,971
-44,330	10,166	1435,979	768,292
-43,315	10,199	1434,131	767,432
-42,300	10,209	1432,495	766,571
-41,286	10,215	1431,153	765,854
-40,271	10,151	1429,998	764,900
-39,257	10,180	1428,872	764,405
-38,242	10,224	1427,841	764,033
-37,227	10,208	1426,753	763,343
-36,213	10,203	1425,295	762,510
-35,198	10,294	1423,918	762,172
-34,184	10,259	1423,212	761,601
-33,169	10,193	1421,822	760,516
-32,154	10,238	1420,899	760,201
-31,140	10,217	1419,565	759,361
-30,125	10,240	1418,464	758,848
-29,111	10,274	1417,198	758,304
-28,096	10,205	1416,080	757,350
-27,082	10,180	1414,895	756,568
-26,067	10,199	1413,672	755,972
-25,052	10,180	1412,737	755,355
-24,038	10,211	1411,962	755,054
-23,023	10,188	1411,068	754,436
-22,009	10,151	1409,938	753,630
-20,994	10,152	1408,859	753,027
-19,979	10,162	1407,967	752,570
-18,965	10,095	1407,152	751,789
-17,950	10,123	1405,901	751,222
-16,936	10,077	1405,328	750,670
-15,921	10,071	1404,283	750,055
-14,906	10,104	1403,423	749,723
-13,892	10,193	1402,113	749,408
-12,877	10,140	1401,386	748,739
-11,863	10,098	1400,757	748,180
-10,848	10,043	1399,957	747,468
-9,833	10,010	1398,995	746,772
-8,819	10,006	1398,128	746,258
-7,804	10,024	1397,175	745,806
-6,790	10,011	1396,224	745,206
-5,775	9,982	1395,131	744,459
-4,760	10,003	1394,091	743,973
-3,746	10,028	1393,089	743,521
-2,731	9,954	1392,499	742,837
-1,717	9,973	1391,441	742,330
-0,702	9,917	1389,825	741,181
0,313	13,907	1302,330	712,831
1,327	29,981	691,830	415,216
2,342	46,708	119,844	78,389
3,356	-0,313	16,551	8,272
4,371	-0,574	3,630	1,811
5,386	-11,257	1,094	0,507
6,400	800,000	0,241	0,590
7,415	6,590	-0,254	-0,133
8,429	6,378	-0,307	-0,160
9,444	29,941	-0,329	-0,198
10,459	77,601	-0,167	-0,125
11,473	-73,611	-0,423	-0,108
12,488	254,246	-0,262	-0,317
13,502	-3,497	-0,289	-0,141
14,517	186,494	-0,240	-0,252
15,531	84,079	-0,356	-0,274
16,546	-7,176	-0,375	-0,178
17,561	157,211	-0,307	-0,300
18,575	-89,337	-0,208	-0,043
19,590	97,986	-0,350	-0,284
20,604	-7,633	-0,175	-0,083
21,619	62,568	-0,414	-0,291
22,634	115,974	-0,423	-0,365
23,648	63,817	-0,335	-0,237
24,663	73,677	-0,308	-0,227
25,677	259,274	-0,263	-0,320
26,692	-4,323	-0,266	-0,129
27,707	-43,636	-0,284	-0,100
28,721	-13,428	-0,364	-0,166
29,736	-15,143	-0,354	-0,159
30,750	65,302	-0,356	-0,253
31,765	41,471	-0,430	-0,274
32,780	61,456	-0,355	-0,248
33,794	-42,196	-0,382	-0,137
34,809	297,957	-0,265	-0,344
35,823	168,098	-0,370	-0,371
36,838	50,598	-0,508	-0,337
37,853	37,814	-0,423	-0,264
38,867	252,178	-0,382	-0,458
39,882	72,146	-0,419	-0,307
40,896	68,194	-0,258	-0,185
41,911	1,746	-0,308	-0,156
42,926	0,866	-0,410	-0,206
43,940	11,385	-0,447	-0,240
44,955	89,203	-0,397	-0,310
45,969	-35,153	-0,388	-0,148
46,984	121,301	-0,274	-0,240
47,999	228,465	-0,320	-0,367
49,013	193,696	-0,299	-0,318
50,028	-53,472	-0,326	-0,104
51,042	72,728	-0,423	-0,310
52,057	9,585	-0,377	-0,200
53,071	65,868	-0,334	-0,238
54,086	50,180	-0,387	-0,256
55,101	229,324	-0,206	-0,236
56,115	-68,080	-0,304	-0,082
57,130	75,115	-0,409	-0,303
58,144	47,301	-0,308	-0,201
59,159	127,614	-0,299	-0,267
60,174	89,936	-0,383	-0,300
61,188	37,582	-0,399	-0,248
62,203	107,724	-0,362	-0,302
63,217	-115,671	-0,356	-0,046
64,232	99,853	-0,208	-0,169
65,247	187,252	-0,346	-0,362
66,261	111,545	-0,296	-0,250
67,276	-20,830	-0,378	-0,162
68,290	38,274	-0,349	-0,218
69,305	-68,327	-0,416	-0,113
70,320	-19,964	-0,325	-0,140
71,334	99,171	-0,249	-0,202
72,349	-20,063	-0,404	-0,174
73,363	99,833	-0,393	-0,319
74,378	141,578	-0,332	-0,309
75,393	358,153	-0,219	-0,308
76,407	203,281	-0,160	-0,173
77,422	-23,026	-0,250	-0,105
78,436	-41,656	-0,222	-0,079
79,451	60,222	-0,258	-0,178
80,466	40,869	-0,223	-0,141
81,480	-76,721	-0,347	-0,084
82,495	-7,806	-0,291	-0,137
83,509	45,714	-0,341	-0,220
84,524	-154,583	-0,390	-0,018
85,539	11,795	-0,251	-0,135
86,553	243,925	-0,185	-0,218
87,568	92,809	-0,328	-0,259
88,582	68,587	-0,322	-0,231
89,597	62,569	-0,335	-0,234
90,611	216,925	-0,147	-0,164
91,626	12,596	-0,217	-0,117
92,641	138,445	-0,239	-0,220
93,655	113,028	-0,316	-0,268
94,670	145,020	-0,194	-0,181
95,684	177,777	-0,252	-0,257
96,699	70,936	-0,184	-0,134
97,714	37,221	-0,175	-0,108
98,728	60,720	-0,381	-0,264
99,743	281,537	-0,234	-0,294
100,757	190,709	-0,244	-0,256
101,772	115,479	-0,355	-0,303
102,787	426,327	-0,191	-0,289
103,801	0,246	-0,271	-0,135
104,816	54,303	-0,257	-0,173
105,830	101,080	-0,228	-0,186
106,845	351,925	-0,167	-0,232
107,860	-0,932	-0,361	-0,178
108,874	-68,606	-0,325	-0,087
109,889	272,270	-0,241	-0,298
110,903	290,534	-0,240	-0,305
111,918	279,229	-0,193	-0,241
112,933	130,184	-0,196	-0,176
113,947	45,442	-0,205	-0,132
114,962	-30,986	-0,372	-0,146
115,976	-16,495	-0,352	-0,155
116,991	244,298	-0,152	-0,178
118,006	169,472	-0,209	-0,209
119,020	163,332	-0,275	-0,270
120,035	552,715	-0,146	-0,246
121,049	-176,397	-0,231	-0,004
122,064	-86,011	-0,289	-0,062
123,079	56,869	-0,217	-0,147
124,093	-9,297	-0,311	-0,144
125,108	71,683	-0,298	-0,216
126,122	203,128	-0,263	-0,284
127,137	-24,622	-0,198	-0,082
128,151	244,187	-0,198	-0,232
129,166	-139,659	-0,137	-0,010
130,181	-5,624	-0,242	-0,115
131,195	96,907	-0,267	-0,214
132,210	54,768	-0,305	-0,205
133,224	9,159	-0,375	-0,197
134,239	558,602	-0,046	-0,078
135,254	-19,703	-0,156	-0,067
136,268	-191,668	-0,261	0,002
137,283	-11,455	-0,230	-0,105
138,297	277,205	-0,206	-0,256
139,312	223,057	-0,269	-0,303
140,327	184,579	-0,250	-0,258
141,341	562,471	-0,115	-0,195
142,356	-63,250	-0,272	-0,078
143,370	-140,714	-0,260	-0,018
144,385	-200,000	-0,085	-0,310
145,400	800,000	-0,097	-0,259
146,414	174,331	-0,224	-0,226
147,429	-101,115	-0,327	-0,055
148,443	107,134	-0,180	-0,149
149,458	-46,140	-0,189	-0,064
150,473	107,349	-0,196	-0,162
151,487	-200,000	-0,005	-0,206
152,502	304,540	-0,164	-0,213
153,516	159,584	-0,289	-0,280
154,531	-15,839	-0,351	-0,155
155,546	118,200	-0,206	-0,177
156,560	389,227	-0,145	-0,209
157,575	132,214	-0,245	-0,220
158,589	191,006	-0,250	-0,262
159,604	-80,569	-0,212	-0,049
160,619	45,568	-0,421	-0,270
161,633	-18,885	-0,385	-0,166
162,648	-26,287	-0,242	-0,099
163,662	483,837	-0,123	-0,195
164,677	103,928	-0,285	-0,232
165,692	137,141	-0,124	-0,113
166,706	-34,706	-0,265	-0,100
167,721	24,510	-0,229	-0,132
168,735	36,424	-0,336	-0,206
169,750	272,897	-0,140	-0,172
170,764	138,805	-0,148	-0,135
171,779	187,994	-0,226	-0,235
172,794	11,122	-0,277	-0,147
173,808	-35,569	-0,313	-0,117
174,823	130,798	-0,249	-0,222
175,837	119,147	-0,279	-0,240
176,852	65,734	-0,248	-0,175
177,867	298,462	-0,182	-0,233
178,881	94,713	-0,160	-0,126
179,896	-200,000	-0,046	-0,143
180,910	16,233	-0,308	-0,168
181,925	402,179	-0,130	-0,191
182,940	342,525	-0,159	-0,217
183,954	-65,411	-0,273	-0,076
184,969	185,711	-0,168	-0,174
185,983	187,264	-0,077	-0,080
186,998	42,405	-0,270	-0,170
188,013	93,675	-0,173	-0,136
189,027	36,351	-0,210	-0,128
190,042	112,844	-0,254	-0,214
191,056	209,162	-0,217	-0,236
192,071	176,252	-0,236	-0,239
193,086	-24,778	-0,145	-0,059
194,100	-184,073	-0,258	-0,003
195,115	169,633	-0,247	-0,245
196,129	-65,028	-0,199	-0,055
197,144	800,000	-0,106	-0,229
198,159	385,730	-0,149	-0,214
199,173	32,666	-0,155	-0,093
200,188	800,000	-0,079	-0,157
201,202	80,566	-0,176	-0,132
202,217	32,618	-0,070	-0,042
203,232	448,071	-0,173	-0,264
204,246	35,078	-0,269	-0,163
205,261	131,731	-0,211	-0,188
206,275	-51,945	-0,155	-0,050
207,290	-51,150	-0,059	0,019
208,304	-191,477	-0,224	0,002
209,319	-90,008	-0,272	-0,055
210,334	800,000	-0,046	-0,102
211,348	283,134	-0,208	-0,260
212,363	122,496	-0,277	-0,240
213,377	608,494	-0,115	-0,200
214,392	351,485	-0,186	-0,255
215,407	66,799	-0,269	-0,190
216,421	224,421	-0,110	-0,123
217,436	701,937	-0,152	-0,279
218,450	137,585	-0,139	-0,126
219,465	91,660	-0,246	-0,192
220,480	-111,762	-0,273	-0,038
221,494	11,681	-0,226	-0,120
222,509	-53,977	-0,245	-0,077
223,523	208,782	-0,167	-0,181
224,538	67,142	-0,198	-0,140
225,553	62,395	-0,200	-0,138
226,567	6,693	-0,270	-0,138
227,582	389,621	-0,212	-0,305
228,596	-26,975	-0,105	-0,042
229,611	800,000	-0,122	-0,237
230,626	-53,259	-0,219	-0,069
231,640	-43,703	-0,197	-0,068
232,655	61,493	-0,177	-0,122
233,669	287,713	-0,148	-0,186
234,684	-13,487	-0,124	-0,055
235,699	189,205	-0,085	-0,088
236,713	800,000	-0,064	-0,155
237,728	191,119	-0,130	-0,135
238,742	-119,399	-0,167	-0,020
239,757	213,174	-0,233	-0,255
240,772	41,128	-0,135	-0,084
241,786	89,489	-0,215	-0,165
242,801	193,386	-0,210	-0,220
243,815	150,604	-0,185	-0,174
244,830	6,481	-0,088	-0,045
245,844	-200,000	-0,024	-0,225
246,859	49,018	-0,138	-0,089
247,874	145,854	-0,238	-0,220
248,888	-21,375	-0,202	-0,085
249,903	-64,438	-0,220	0,061
250,917	151,437	-0,128	-0,120
251,932	15,218	-0,248	-0,134
252,947	149,449	-0,184	-0,172
253,961	54,850	-0,245	-0,163
254,976	-113,852	-0,178	-0,024
255,990	-200,000	-0,026	-0,112
257,005	430,876	-0,035	-0,053
258,020	-2,713	-0,156	-0,075
259,034	660,504	-0,052	-0,093
260,049	16,238	-0,188	-0,102
261,063	74,902	-0,133	-0,096
262,078	32,655	-0,244	-0,145
263,093	115,099	-0,222	-0,187
264,107	141,960	-0,117	-0,107
265,122	115,710	-0,163	-0,138
266,136	109,731	-0,044	-0,036
267,151	-118,808	-0,141	0,017
268,166	292,793	-0,169	-0,213
269,180	181,703	-0,157	-0,159
270,195	191,967	-0,262	-0,273
271,209	253,841	-0,118	-0,139
272,224	-2,754	-0,226	-0,109
273,239	-151,894	-0,188	0,009
274,253	97,859	-0,179	-0,142
275,268	-200,000	-0,035	-0,143
276,282	299,589	-0,144	-0,183
277,297	99,597	-0,210	-0,167
278,312	39,989	-0,265	-0,163
279,326	26,983	-0,149	-0,086
280,341	129,630	-0,133	-0,117
281,355	677,191	-0,136	-0,245
282,370	147,422	-0,209	-0,194
283,384	-30,257	-0,232	-0,090
284,399	-99,390	-0,211	0,036
285,414	219,507	-0,171	-0,188
286,428	474,650	-0,104	-0,162
287,443	-43,436	-0,045	-0,016
288,457	20,673	-0,167	-0,093
289,472	-63,585	-0,166	0,046
290,487	2,040	-0,266	-0,132
291,501	218,660	-0,130	-0,143
292,516	-6,691	-0,301	-0,140
293,530	-24,002	-0,146	-0,060
294,545	39,862	-0,212	-0,130
295,560	139,092	-0,132	-0,119
296,574	104,335	-0,125	-0,101
297,589	-108,486	-0,140	-0,021
298,603	603,186	-0,100	-0,172
299,618	79,254	-0,175	-0,129
300,633	-104,887	-0,118	0,018
301,647	-200,000	-0,024	0,079
302,662	54,800	-0,140	-0,093
303,676	7,285	-0,060	-0,031
304,691	-73,044	-0,130	0,032
305,706	-179,393	-0,153	-0,002
306,720	193,462	-0,174	-0,181
307,735	-93,750	0,066	0,012
308,749	-73,497	-0,049	0,012
309,764	-133,420	-0,155	-0,013
310,779	396,747	-0,111	-0,159
311,793	132,827	-0,102	0,090
312,808	180,024	-0,179	-0,181
313,822	248,457	-0,102	-0,118
314,837	221,903	-0,160	-0,177
315,852	-76,316	-0,162	-0,039
316,866	-45,094	-0,168	-0,057
317,881	-200,000	-0,006	-0,121
318,895	-94,089	-0,216	-0,040
319,910	140,394	-0,190	-0,172
320,925	639,641	-0,095	-0,166
321,939	-123,064	-0,203	-0,022
322,954	-37,544	-0,141	-0,051
323,968	101,624	-0,080	-0,064
324,983	69,115	-0,165	-0,116
325,997	283,936	-0,086	-0,107
327,012	468,184	-0,092	-0,142
328,027	468,694	-0,129	-0,199
329,041	800,000	-0,109	-0,224
330,056	417,423	-0,083	-0,122
331,070	270,229	-0,008	0,010
332,085	-200,000	-0,002	-0,025
333,100	62,868	-0,105	-0,072
334,114	-76,019	-0,143	-0,034
335,129	179,809	-0,250	-0,251
336,143	800,000	-0,074	-0,203
337,158	128,253	-0,094	-0,082
338,173	-37,415	-0,146	-0,053
339,187	323,395	-0,137	-0,179
340,202	176,803	-0,124	-0,124
341,216	-9,851	-0,190	0,086
342,231	1,770	-0,191	-0,094
343,246	-200,000	-0,140	-0,000
344,260	-142,657	-0,118	0,008
345,275	-126,379	-0,249	-0,025
346,289	800,000	-0,039	-0,088
347,304	-43,790	-0,192	-0,066
348,319	236,931	-0,164	-0,186
349,333	6,089	-0,223	-0,113
350,348	-118,973	-0,197	-0,023
351,362	-200,000	-0,014	-0,056
352,377	-9,206	-0,127	-0,058
353,392	-200,000	-0,049	-0,268
354,406	-136,625	-0,082	0,006
355,421	207,454	1311,072	1401,112
356,435	159,591	1471,319	1401,593
