DTS Sentinel unit serial number:	SN410029Multiplexer serial number:	ORYXHardware model number:	OX2-SRSoftware version number:	ORYX F/W v4,00 Oryx Data Collector v3.7.2.0data status	okinstallation	B3 Nyhavnadifferential loss correction	single-endedforward channel	channel 1reverse channel	N/Adate	2023/11/30time	19:37:30forward acquisition time	300,00reverse acquisition time	0,00gamma	499,1914k internal	0,3206k external	0,3206temperature offset calibration	1,0000default loss term (dB/km)	0,3820temperature slope calibration	1,0000multiplexer offset coefficient	1,0000multiplexer slope coefficient	1,0000fibre end	0,00T internal ref (°C)	11,87T ext. ref 1 (°C)	-3,44T ext. ref 2 (°C)	-3,56length (m)	temperature (°C)	Stokes	anti-Stokes-744,400	176,400	-0,148	-0,156
-743,385	-200,000	0,054	0,204
-742,371	301,187	-0,145	-0,195
-741,356	-200,000	0,008	0,299
-740,342	372,445	-0,139	-0,206
-739,327	-200,000	-0,086	0,421
-738,312	310,583	-0,223	-0,303
-737,298	-200,000	0,024	0,245
-736,283	14,988	-0,247	-0,140
-735,269	-200,000	0,026	0,246
-734,254	300,563	-0,224	-0,300
-733,239	-110,883	-0,288	0,043
-732,225	97,345	-0,102	-0,085
-731,210	-200,000	0,017	0,134
-730,196	797,940	0,033	-0,066
-729,181	-50,897	-0,132	0,045
-728,167	2,735	0,156	-0,082
-727,152	-76,762	-0,090	0,023
-726,137	-70,623	-0,096	0,026
-725,123	-60,565	-0,096	-0,029
-724,108	-200,000	-0,000	-0,028
-723,094	-115,546	-0,191	0,026
-722,079	91,573	-0,040	0,032
-721,064	-200,000	-0,004	-0,091
-720,050	800,000	-0,030	0,067
-719,035	236,825	0,069	-0,083
-718,021	-200,000	-0,022	-0,097
-717,006	-200,000	0,004	-0,019
-715,991	-55,855	-0,139	-0,045
-714,977	800,000	0,046	-0,121
-713,962	-200,000	0,014	-0,099
-712,948	501,713	0,059	0,099
-711,933	403,810	-0,042	-0,065
-710,918	10,361	-0,110	0,060
-709,904	519,603	-0,047	-0,080
-708,889	-200,000	0,007	0,088
-707,875	800,000	-0,033	-0,088
-706,860	-129,653	0,007	-0,001
-705,845	-53,760	0,032	0,011
-704,831	-200,000	0,012	0,069
-703,816	-113,891	0,026	-0,004
-702,802	367,016	-0,017	0,025
-701,787	-200,000	0,001	0,127
-700,772	-127,705	-0,203	-0,021
-699,758	-200,000	0,043	0,183
-698,743	-200,000	-0,021	0,176
-697,729	-148,872	-0,081	-0,005
-696,714	-63,794	-0,080	-0,024
-695,699	61,881	-0,069	-0,049
-694,685	-41,305	-0,080	-0,030
-693,670	800,000	-0,023	-0,052
-692,656	-27,782	0,085	0,035
-691,641	-200,000	0,018	-0,082
-690,627	-89,001	0,135	-0,029
-689,612	-200,000	-0,010	-0,037
-688,597	-86,293	0,066	0,015
-687,583	460,781	-0,090	-0,145
-686,568	178,547	0,080	-0,085
-685,554	-200,000	-0,008	-0,109
-684,539	-146,086	0,081	0,005
-683,524	800,000	-0,050	0,131
-682,510	662,452	-0,064	-0,121
-681,495	-200,000	-0,001	-0,019
-680,481	232,557	-0,076	-0,090
-679,466	-200,000	0,030	-0,179
-678,451	401,319	-0,096	-0,146
-677,437	534,214	0,079	0,137
-676,422	70,952	-0,087	-0,065
-675,408	207,574	0,052	0,059
-674,393	-29,724	-0,046	-0,019
-673,378	-104,170	-0,043	-0,007
-672,364	115,886	-0,099	-0,088
-671,349	405,143	0,052	-0,080
-670,335	-200,000	0,020	-0,087
-669,320	-200,000	0,008	-0,037
-668,305	190,876	-0,088	-0,096
-667,291	22,869	-0,105	-0,062
-666,276	83,295	-0,080	-0,063
-665,262	22,080	-0,149	-0,088
-664,247	299,851	0,028	-0,037
-663,232	-148,905	0,081	-0,005
-662,218	800,000	-0,015	-0,042
-661,203	90,035	0,029	0,024
-660,189	-69,054	-0,041	-0,011
-659,174	37,065	-0,201	-0,128
-658,159	-30,048	0,058	-0,024
-657,145	800,000	-0,070	-0,171
-656,130	127,249	-0,024	0,022
-655,116	800,000	-0,043	0,114
-654,101	484,181	-0,012	-0,021
-653,086	-110,861	-0,105	-0,015
-652,072	181,900	0,045	-0,048
-651,057	340,525	-0,023	-0,033
-650,043	547,303	-0,046	-0,080
-649,028	800,000	-0,079	-0,204
-648,014	800,000	-0,036	-0,085
-646,999	800,000	-0,018	0,045
-645,984	-12,267	-0,059	-0,028
-644,970	800,000	-0,086	-0,181
-643,955	800,000	-0,013	-0,035
-642,941	800,000	-0,017	-0,052
-641,926	-124,713	-0,070	-0,008
-640,911	26,186	-0,085	0,051
-639,897	72,450	0,106	-0,080
-638,882	-84,619	-0,140	-0,032
-637,868	127,640	-0,111	-0,102
-636,853	800,000	0,017	-0,036
-635,838	299,274	-0,066	-0,088
-634,824	89,365	-0,168	0,135
-633,809	-30,559	0,066	0,027
-632,795	-200,000	-0,035	0,159
-631,780	-200,000	0,011	-0,130
-630,765	147,729	-0,048	-0,046
-629,751	288,668	-0,046	-0,060
-628,736	22,166	-0,178	-0,105
-627,722	-200,000	-0,012	-0,071
-626,707	-85,466	-0,147	-0,033
-625,692	543,027	0,040	-0,070
-624,678	116,011	-0,072	0,064
-623,663	84,126	-0,089	-0,071
-622,649	-49,123	0,046	-0,016
-621,634	-127,512	-0,144	0,015
-620,619	-31,381	-0,118	-0,048
-619,605	90,588	0,087	-0,070
-618,590	187,776	-0,059	0,064
-617,576	61,654	0,080	0,058
-616,561	800,000	-0,006	-0,019
-615,546	-200,000	-0,029	0,122
-614,532	-200,000	0,004	-0,091
-613,517	-141,987	-0,127	-0,009
-612,503	576,453	0,087	-0,154
-611,488	-200,000	-0,006	-0,052
-610,474	-55,175	-0,097	-0,031
-609,459	239,329	0,059	-0,071
-608,444	-114,676	-0,147	0,020
-607,430	797,428	0,018	0,035
-606,415	-155,228	-0,091	0,004
-605,401	-37,379	0,039	0,015
-604,386	321,966	0,035	-0,048
-603,371	-200,000	-0,007	0,239
-602,357	-32,754	-0,078	-0,031
-601,342	-64,618	0,045	0,013
-600,328	108,565	0,061	-0,053
-599,313	6,059	-0,035	-0,019
-598,298	-137,382	0,087	-0,007
-597,284	-200,000	-0,000	0,128
-596,269	34,025	-0,034	0,021
-595,255	-200,000	-0,020	0,179
-594,240	85,037	-0,022	-0,018
-593,225	211,291	-0,027	0,031
-592,211	35,229	-0,099	-0,063
-591,196	-200,000	0,006	-0,042
-590,182	-76,913	0,157	-0,039
-589,167	67,144	0,024	-0,018
-588,152	169,772	-0,043	-0,044
-587,138	800,000	0,023	0,049
-586,123	-82,446	-0,090	-0,021
-585,109	-146,153	-0,059	0,004
-584,094	-19,540	-0,034	-0,015
-583,079	-77,728	-0,042	0,010
-582,065	506,901	0,094	0,158
-581,050	59,192	-0,083	0,059
-580,036	800,000	-0,024	-0,071
-579,021	118,470	-0,055	-0,049
-578,006	298,887	-0,064	-0,085
-576,992	22,938	-0,102	-0,060
-575,977	368,545	0,055	0,081
-574,963	484,464	0,010	0,016
-573,948	-92,809	-0,027	-0,005
-572,934	-86,901	0,090	0,020
-571,919	-37,379	0,046	-0,018
-570,904	-200,000	0,003	-0,063
-569,890	-17,292	-0,056	-0,025
-568,875	-132,453	0,090	-0,008
-567,861	725,303	-0,049	0,095
-566,846	495,834	0,035	0,058
-565,831	-69,308	-0,093	0,025
-564,817	222,644	-0,070	-0,082
-563,802	0,953	-0,046	0,024
-562,788	-127,805	0,046	-0,005
-561,773	-200,000	0,002	-0,038
-560,758	-95,440	-0,032	0,006
-559,744	-200,000	-0,017	-0,106
-558,729	304,206	-0,037	-0,049
-557,715	-38,709	-0,053	-0,020
-556,700	-200,000	0,005	-0,067
-555,685	77,278	0,050	-0,038
-554,671	-200,000	-0,015	-0,050
-553,656	49,778	0,132	-0,089
-552,642	-131,092	-0,052	0,005
-551,627	-97,837	-0,155	0,029
-550,612	-81,956	0,110	0,026
-549,598	-125,732	-0,181	-0,019
-548,583	-200,000	0,011	-0,067
-547,569	-14,243	-0,078	-0,036
-546,554	417,911	0,029	0,044
-545,539	-161,094	0,123	0,005
-544,525	-78,521	0,078	-0,019
-543,510	800,000	-0,020	-0,059
-542,496	-16,010	-0,050	-0,023
-541,481	-110,319	0,037	0,006
-540,466	800,000	0,019	-0,055
-539,452	-70,746	-0,040	-0,011
-538,437	178,238	0,012	0,012
-537,423	-68,683	-0,087	-0,024
-536,408	-176,258	0,108	0,002
-535,393	-102,109	-0,141	-0,024
-534,379	-200,000	-0,006	-0,197
-533,364	-36,689	-0,028	0,011
-532,350	800,000	0,049	-0,106
-531,335	-200,000	0,009	0,118
-530,321	-32,843	-0,019	0,008
-529,306	212,064	0,052	-0,060
-528,291	196,134	0,073	-0,080
-527,277	302,874	-0,032	-0,043
-526,262	800,000	-0,025	-0,052
-525,248	-13,462	0,077	0,036
-524,233	63,019	0,062	-0,044
-523,218	-94,331	0,029	0,006
-522,204	-45,051	-0,066	0,023
-521,189	-200,000	0,012	0,059
-520,175	-200,000	0,001	-0,058
-519,160	800,000	0,056	-0,167
-518,145	-200,000	-0,006	-0,047
-517,131	6,353	0,109	0,058
-516,116	-84,099	-0,029	-0,007
-515,102	-53,403	-0,141	0,046
-514,087	-200,000	0,004	0,062
-513,072	75,676	-0,014	-0,010
-512,058	-40,878	-0,031	0,011
-511,043	71,466	0,150	-0,112
-510,029	800,000	0,035	-0,103
-509,014	-80,993	-0,064	0,015
-507,999	-200,000	0,007	0,118
-506,985	101,820	-0,062	-0,052
-505,970	115,017	-0,087	0,077
-504,956	800,000	-0,014	-0,036
-503,941	-200,000	0,010	-0,032
-502,926	181,856	-0,095	0,101
-501,912	-101,664	0,078	0,014
-500,897	-134,977	-0,008	-0,001
-499,883	-27,091	-0,104	0,043
-498,868	-200,000	0,018	-0,103
-497,853	127,347	-0,120	-0,110
-496,839	87,973	0,095	-0,076
-495,824	123,166	0,058	0,052
-494,810	800,000	0,021	-0,051
-493,795	189,983	-0,102	0,110
-492,781	124,189	-0,066	0,060
-491,766	687,079	-0,080	-0,151
-490,751	-99,125	0,061	-0,011
-489,737	7,752	-0,157	-0,084
-488,722	-200,000	0,021	0,154
-487,708	-22,327	0,107	-0,047
-486,693	331,859	-0,088	0,122
-485,678	21,491	0,073	0,042
-484,664	-200,000	-0,043	0,168
-483,649	800,000	-0,018	-0,047
-482,635	249,503	-0,096	0,118
-481,620	-200,000	0,016	0,081
-480,605	-200,000	0,031	0,131
-479,591	564,734	-0,095	0,166
-478,576	139,592	0,065	0,061
-477,562	-200,000	-0,046	-0,157
-476,547	213,316	-0,046	0,053
-475,532	-84,079	-0,145	-0,033
-474,518	50,371	0,061	0,041
-473,503	-126,975	0,107	0,011
-472,489	398,486	0,103	-0,156
-471,474	-200,000	-0,009	-0,189
-470,459	1,088	-0,121	0,062
-469,445	83,600	-0,105	-0,082
-468,430	289,214	0,090	-0,117
-467,416	800,000	0,019	0,040
-466,401	-93,343	0,076	-0,015
-465,386	-200,000	0,001	0,103
-464,372	-200,000	-0,003	-0,086
-463,357	246,999	-0,105	0,127
-462,343	251,925	-0,038	0,046
-461,328	213,325	0,058	0,065
-460,313	-97,255	0,060	0,011
-459,299	-68,715	0,058	-0,016
-458,284	81,492	0,065	0,050
-457,270	72,008	-0,047	0,035
-456,255	-200,000	0,011	-0,047
-455,241	-160,822	0,002	0,000
-454,226	90,793	-0,118	-0,095
-453,211	-21,129	0,078	-0,034
-452,197	800,000	-0,018	-0,040
-451,182	-200,000	0,044	0,147
-450,168	800,000	-0,014	0,035
-449,153	23,843	-0,066	0,039
-448,138	-43,087	-0,132	0,048
-447,124	-200,000	0,039	0,166
-446,109	294,082	-0,046	0,060
-445,095	-180,190	0,114	-0,002
-444,080	-90,206	0,056	0,012
-443,065	341,701	0,055	0,078
-442,051	-200,000	0,018	-0,060
-441,036	81,486	0,090	-0,070
-440,022	-200,000	0,009	-0,074
-439,007	-100,008	-0,136	0,024
-437,992	-108,927	-0,103	-0,016
-436,978	-69,832	0,030	0,008
-435,963	-146,319	0,220	0,014
-434,949	147,001	-0,056	0,054
-433,934	-107,810	-0,087	-0,014
-432,919	313,741	-0,071	-0,096
-431,905	328,228	-0,069	-0,096
-430,890	-200,000	0,028	0,108
-429,876	-144,714	0,190	0,012
-428,861	-141,072	0,045	0,003
-427,846	721,229	0,006	0,012
-426,832	800,000	0,041	-0,086
-425,817	-39,915	-0,053	-0,020
-424,803	40,373	0,091	-0,058
-423,788	-38,322	0,068	0,026
-422,773	-83,484	0,133	0,030
-421,759	800,000	-0,028	-0,068
-420,744	-71,674	-0,072	-0,019
-419,730	-200,000	-0,007	0,132
-418,715	13,926	-0,049	-0,027
-417,701	-200,000	0,012	0,068
-416,686	-200,000	-0,005	0,120
-415,671	-91,875	0,098	-0,020
-414,657	-23,749	0,101	0,043
-413,642	85,916	-0,053	-0,042
-412,628	-200,000	0,005	0,021
-411,613	800,000	0,017	0,034
-410,598	-66,845	-0,136	-0,038
-409,584	-200,000	-0,020	0,131
-408,569	800,000	0,043	0,095
-407,555	800,000	0,029	0,072
-406,540	-100,759	-0,027	0,005
-405,525	170,270	0,087	-0,089
-404,511	-35,553	-0,121	0,047
-403,496	56,068	0,069	0,048
-402,482	503,694	-0,011	-0,018
-401,467	-77,529	0,077	-0,019
-400,452	-200,000	-0,011	0,174
-399,438	-147,904	0,108	0,006
-398,423	97,381	-0,094	-0,077
-397,409	800,000	-0,061	-0,126
-396,394	800,000	-0,028	-0,071
-395,379	709,974	-0,034	0,064
-394,365	-103,496	0,138	-0,023
-393,350	800,000	0,012	-0,034
-392,336	-65,793	0,099	-0,028
-391,321	74,918	0,063	-0,048
-390,306	128,036	-0,006	-0,005
-389,292	800,000	-0,009	0,018
-388,277	800,000	0,059	-0,127
-387,263	99,465	0,050	-0,041
-386,248	-113,220	0,141	-0,020
-385,233	-200,000	0,001	0,119
-384,219	332,967	0,052	-0,072
-383,204	176,415	0,071	-0,074
-382,190	-53,458	-0,079	-0,026
-381,175	-200,000	-0,004	-0,056
-380,160	-200,000	0,001	0,034
-379,146	-200,000	0,048	0,154
-378,131	-200,000	0,055	0,217
-377,117	-152,963	0,061	0,003
-376,102	-200,000	0,020	-0,106
-375,088	-108,820	-0,110	0,017
-374,073	800,000	0,026	0,067
-373,058	800,000	0,046	0,096
-372,044	-200,000	-0,003	0,064
-371,029	-44,586	0,121	-0,043
-370,015	-200,000	0,002	-0,059
-369,000	800,000	-0,101	-0,262
-367,985	-86,193	-0,038	0,008
-366,971	-116,038	-0,068	0,009
-365,956	-64,947	0,109	-0,031
-364,942	27,702	0,069	-0,041
-363,927	-152,361	-0,044	-0,002
-362,912	9,146	0,072	-0,039
-361,898	-200,000	0,009	-0,030
-360,883	-52,008	-0,126	0,041
-359,869	29,800	0,061	0,037
-358,854	-200,000	0,021	-0,193
-357,839	253,203	0,108	-0,132
-356,825	-200,000	0,002	-0,012
-355,810	61,460	-0,033	-0,023
-354,796	69,971	-0,078	-0,057
-353,781	287,623	0,032	-0,042
-352,766	-200,000	-0,004	-0,021
-351,752	-200,000	0,010	-0,035
-350,737	800,000	0,034	-0,070
-349,723	466,534	-0,085	0,136
-348,708	26,379	-0,019	0,011
-347,693	-129,919	0,108	0,010
-346,679	82,390	-0,040	-0,031
-345,664	497,574	0,097	-0,160
-344,650	70,340	-0,132	-0,098
-343,635	320,028	0,029	0,039
-342,620	73,739	0,064	-0,048
-341,606	-200,000	-0,003	0,022
-340,591	-200,000	-0,029	0,110
-339,577	-47,907	-0,138	0,047
-338,562	-200,000	-0,007	0,123
-337,548	800,000	0,039	0,094
-336,533	-200,000	0,007	-0,104
-335,518	398,476	0,019	-0,029
-334,504	-7,079	-0,071	0,034
-333,489	131,336	-0,051	0,047
-332,475	-200,000	0,012	0,180
-331,460	161,589	-0,048	-0,048
-330,445	13,966	-0,099	-0,055
-329,431	-122,650	0,108	-0,012
-328,416	-200,000	0,013	-0,068
-327,402	-130,644	0,123	0,012
-326,387	3,559	0,045	0,023
-325,372	-105,299	-0,218	0,035
-324,358	800,000	-0,038	-0,094
-323,343	800,000	0,040	-0,082
-322,329	800,000	0,033	-0,087
-321,314	-38,459	-0,138	-0,052
-320,299	68,179	-0,103	0,075
-319,285	226,977	-0,125	-0,146
-318,270	28,325	0,101	-0,061
-317,256	543,798	-0,045	-0,078
-316,241	259,676	-0,016	-0,019
-315,226	345,318	-0,052	-0,074
-314,212	113,421	0,099	-0,086
-313,197	232,453	0,071	-0,084
-312,183	49,284	-0,068	0,046
-311,168	169,560	0,057	-0,058
-310,153	-60,341	-0,108	-0,033
-309,139	-2,551	-0,034	-0,017
-308,124	415,858	-0,055	0,084
-307,110	176,987	0,106	-0,110
-306,095	-200,000	-0,001	0,005
-305,080	15,736	-0,088	0,049
-304,066	-200,000	-0,020	-0,094
-303,051	-11,209	0,039	0,018
-302,037	316,118	0,057	0,077
-301,022	-200,000	-0,002	0,095
-300,008	76,652	0,054	-0,041
-298,993	-200,000	0,013	0,055
-297,978	-12,610	0,055	0,025
-296,964	-70,419	0,148	-0,040
-295,949	-36,894	-0,062	0,024
-294,935	244,117	-0,067	0,080
-293,920	-55,354	-0,015	-0,005
-292,905	269,327	0,029	0,036
-291,891	9,897	-0,093	0,050
-290,876	-200,000	-0,011	-0,059
-289,862	-30,199	-0,085	-0,034
-288,847	800,000	0,067	0,134
-287,832	490,814	0,047	0,076
-286,818	800,000	0,087	0,222
-285,803	181,806	-0,040	0,042
-284,789	251,268	0,069	0,083
-283,774	43,068	0,083	-0,054
-282,759	800,000	-0,037	-0,110
-281,745	189,306	0,045	-0,048
-280,730	-19,362	0,112	0,049
-279,716	350,483	0,051	0,072
-278,701	-62,729	0,064	0,019
-277,686	-51,254	0,073	0,024
-276,672	-78,660	0,091	0,022
-275,657	-113,404	0,142	-0,020
-274,643	109,975	0,058	-0,049
-273,628	-200,000	-0,001	0,115
-272,613	-200,000	-0,015	-0,090
-271,599	-141,198	0,095	-0,007
-270,584	-200,000	-0,039	0,207
-269,570	800,000	0,039	0,107
-268,555	90,383	0,145	0,116
-267,540	-66,711	-0,133	0,037
-266,526	-21,482	0,053	0,023
-265,511	136,727	0,031	-0,029
-264,497	-200,000	-0,049	0,162
-263,482	300,795	0,055	0,072
-262,467	-200,000	-0,039	0,262
-261,453	145,698	0,019	-0,018
-260,438	800,000	-0,036	0,100
-259,424	800,000	0,023	-0,051
-258,409	800,000	-0,043	-0,115
-257,395	-200,000	-0,026	-0,095
-256,380	-74,265	0,070	-0,018
-255,365	-104,511	-0,097	-0,016
-254,351	138,252	-0,082	-0,077
-253,336	-28,244	-0,067	-0,027
-252,322	513,148	-0,048	-0,079
-251,307	800,000	0,086	-0,205
-250,292	20,620	-0,150	0,086
-249,278	-200,000	-0,013	0,083
-248,263	-200,000	-0,046	0,173
-247,249	20,727	0,096	0,055
-246,234	-141,192	0,078	0,006
-245,219	-158,440	0,061	-0,002
-244,205	-97,073	-0,096	0,018
-243,190	-27,384	0,108	-0,045
-242,176	159,682	-0,105	-0,105
-241,161	800,000	0,025	0,063
-240,146	246,976	0,085	0,102
-239,132	800,000	0,011	0,023
-238,117	570,193	0,057	-0,099
-237,103	-95,542	0,137	-0,026
-236,088	471,483	-0,027	0,043
-235,073	800,000	0,048	0,142
-234,059	-200,000	0,005	0,084
-233,044	-88,172	0,087	-0,018
-232,030	334,249	0,066	-0,091
-231,015	234,356	0,102	0,120
-230,000	105,137	-0,096	-0,081
-228,986	155,806	0,086	-0,084
-227,971	-200,000	-0,029	-0,103
-226,957	-200,000	0,021	-0,081
-225,942	572,507	-0,056	-0,098
-224,927	-200,000	-0,013	-0,043
-223,913	-9,164	0,028	-0,013
-222,898	78,208	0,057	-0,043
-221,884	-200,000	0,005	-0,057
-220,869	7,673	0,115	-0,061
-219,855	131,892	0,076	-0,069
-218,840	-115,178	0,061	-0,008
-217,825	-89,449	-0,087	0,018
-216,811	800,000	0,036	0,091
-215,796	-57,447	0,083	-0,026
-214,782	800,000	-0,034	-0,091
-213,767	341,236	0,048	0,066
-212,752	354,329	0,030	-0,042
-211,738	3,669	0,082	0,042
-210,723	42,800	-0,128	0,083
-209,709	-103,961	-0,140	0,023
-208,694	24,296	0,115	0,067
-207,679	253,921	0,120	-0,146
-206,665	-72,143	-0,137	0,036
-205,650	91,037	-0,039	0,031
-204,636	800,000	0,070	0,211
-203,621	-16,533	-0,034	-0,015
-202,606	-174,161	-0,117	-0,002
-201,592	113,054	-0,104	-0,090
-200,577	800,000	0,035	0,107
-199,563	-96,683	-0,138	-0,026
-198,548	-22,700	0,092	0,040
-197,533	116,719	0,157	0,137
-196,519	-200,000	-0,006	-0,108
-195,504	800,000	-0,033	0,081
-194,490	204,618	-0,038	-0,042
-193,475	-78,672	0,099	-0,024
-192,460	-61,608	-0,109	0,032
-191,446	-132,349	0,108	0,010
-190,431	-34,423	-0,079	0,031
-189,417	-72,496	0,033	0,009
-188,402	13,736	0,103	0,056
-187,387	800,000	-0,032	-0,091
-186,373	-51,920	-0,075	0,025
-185,358	-46,442	0,029	-0,010
-184,344	203,703	0,052	0,058
-183,329	800,000	0,057	0,155
-182,315	-18,640	0,083	0,036
-181,300	79,377	-0,109	0,083
-180,285	116,546	-0,029	-0,026
-179,271	-200,000	0,016	-0,078
-178,256	340,502	-0,038	0,053
-177,242	-29,274	0,055	-0,022
-176,227	-126,162	0,075	0,008
-175,212	205,974	-0,029	-0,032
-174,198	-200,000	0,010	0,057
-173,183	800,000	0,046	-0,112
-172,169	13,072	0,079	0,043
-171,154	800,000	0,072	-0,156
-170,139	-18,048	0,053	-0,023
-169,125	800,000	-0,026	-0,063
-168,110	521,458	0,085	0,143
-167,096	-200,000	0,068	0,232
-166,081	-200,000	-0,013	0,107
-165,066	-76,303	0,030	0,007
-164,052	-128,028	-0,040	0,004
-163,037	800,000	0,012	-0,025
-162,023	457,066	-0,107	0,169
-161,008	514,038	-0,103	0,172
-159,993	-86,422	0,203	0,044
-158,979	351,324	-0,059	0,083
-157,964	3,077	0,168	-0,086
-156,950	45,400	-0,117	-0,076
-155,935	800,000	0,057	0,119
-154,920	41,245	-0,159	0,102
-153,906	32,766	0,103	0,063
-152,891	-200,000	0,010	0,111
-151,877	-17,480	-0,071	-0,032
-150,862	-200,000	0,004	-0,088
-149,847	-95,440	0,071	0,013
-148,833	800,000	-0,039	0,109
-147,818	-56,733	0,065	-0,020
-146,804	-106,034	0,110	-0,017
-145,789	166,575	0,070	-0,070
-144,775	800,000	-0,056	-0,113
-143,760	-140,816	-0,153	0,011
-142,745	4,611	0,092	-0,048
-141,731	42,363	-0,069	-0,044
-140,716	31,652	0,171	0,104
-139,702	800,000	0,029	0,073
-138,687	-64,827	0,209	0,059
-137,672	800,000	-0,029	0,076
-136,658	-139,940	-0,045	-0,003
-135,643	-200,000	-0,017	-0,062
-134,629	704,552	-0,038	0,072
-133,614	800,000	0,037	0,101
-132,599	-200,000	0,002	-0,054
-131,585	800,000	-0,047	-0,095
-130,570	780,585	0,073	-0,143
-129,556	155,700	-0,095	-0,093
-128,541	130,836	-0,026	0,024
-127,526	800,000	0,018	-0,052
-126,512	800,000	0,052	-0,114
-125,497	800,000	0,035	-0,107
-124,483	800,000	0,036	-0,090
-123,468	-132,734	-0,047	0,004
-122,453	640,699	-0,088	-0,160
-121,439	800,000	0,067	-0,189
-120,424	800,000	-0,045	-0,113
-119,410	-181,812	0,122	0,002
-118,395	74,674	0,076	-0,056
-117,380	-53,476	0,115	-0,037
-116,366	-138,115	0,072	0,006
-115,351	-200,000	-0,024	-0,114
-114,337	65,711	-0,066	0,048
-113,322	800,000	0,028	-0,071
-112,307	-158,676	-0,118	-0,005
-111,293	351,260	0,088	0,124
-110,278	-106,973	0,081	0,013
-109,264	-200,000	-0,006	0,068
-108,249	105,350	-0,157	-0,131
-107,234	800,000	0,048	-0,122
-106,220	-200,000	0,031	-0,132
-105,205	360,594	0,064	-0,092
-104,191	10,041	0,145	0,078
-103,176	266,868	0,041	0,051
-102,162	-38,876	-0,210	0,078
-101,147	-44,908	0,113	0,040
-100,132	-48,283	-0,205	-0,070
-99,118	800,000	0,026	-0,078
-98,103	338,472	-0,058	-0,080
-97,089	-200,000	0,005	0,075
-96,074	177,241	0,033	0,034
-95,059	-200,000	-0,015	0,107
-94,045	7,400	-0,050	0,027
-93,030	15,427	0,242	-0,134
-92,016	-200,000	0,005	0,042
-91,001	-84,746	-0,118	0,026
-89,986	-8,642	-0,169	0,080
-88,972	212,326	0,060	0,067
-87,957	-200,000	-0,001	0,058
-86,943	-40,857	0,019	0,007
-85,928	47,938	-0,122	0,080
-84,913	79,167	0,044	-0,033
-83,899	189,739	-0,050	-0,054
-82,884	-140,362	0,165	0,012
-81,870	661,982	0,055	0,100
-80,855	-24,883	0,082	0,034
-79,840	334,894	-0,087	-0,120
-78,826	-81,710	0,138	-0,032
-77,811	800,000	-0,046	-0,116
-76,797	-200,000	-0,019	0,069
-75,782	103,774	0,019	-0,016
-74,767	800,000	0,022	0,046
-73,753	-200,000	-0,015	-0,080
-72,738	376,071	-0,031	0,045
-71,724	-98,745	-0,052	0,009
-70,709	800,000	0,030	0,087
-69,694	-200,000	0,003	0,047
-68,680	3,708	-0,067	0,034
-67,665	-31,266	-0,052	0,021
-66,651	144,499	0,156	-0,148
-65,636	-27,414	0,182	-0,075
-64,622	-114,638	-0,144	-0,019
-63,607	-174,120	-0,050	0,001
-62,592	-200,000	0,009	-0,099
-61,578	800,000	-0,031	-0,095
-60,563	-75,573	0,049	0,012
-59,549	-200,000	0,010	0,037
-58,534	6,951	-1,890	-0,992
-57,519	477,498	-1,328	-2,131
-56,505	-200,000	-0,347	-4,361
-55,490	367,585	0,828	1,185
-54,476	800,000	5,100	11,413
-53,461	-200,000	20,336	328,397
-52,446	800,000	752,484	2314,275
-51,432	548,455	1660,358	2821,676
-50,417	74,535	1667,197	1237,662
-49,403	19,683	1540,274	873,771
-48,388	13,662	1462,905	800,677
-47,373	18,915	1453,146	820,594
-46,359	16,492	1442,678	803,084
-45,344	12,009	1438,373	779,253
-44,330	11,886	1436,545	777,642
-43,315	11,916	1434,623	776,716
-42,300	11,906	1433,008	775,762
-41,286	11,965	1431,599	775,251
-40,271	11,865	1430,455	774,125
-39,257	11,926	1429,042	773,620
-38,242	11,996	1427,852	773,275
-37,227	11,931	1426,806	772,372
-36,213	11,949	1425,447	771,689
-35,198	11,947	1424,176	770,960
-34,184	11,969	1423,395	770,611
-33,169	11,932	1421,853	769,570
-32,154	12,008	1420,681	769,267
-31,140	11,999	1419,739	768,681
-30,125	11,987	1418,755	768,061
-29,111	11,999	1417,286	767,292
-28,096	11,970	1416,346	766,620
-27,082	11,905	1415,362	765,749
-26,067	11,900	1414,258	765,097
-25,052	11,890	1413,096	764,391
-24,038	11,861	1412,116	763,697
-23,023	11,874	1410,976	763,112
-22,009	11,909	1410,046	762,742
-20,994	11,889	1409,016	762,057
-19,979	11,874	1408,449	761,652
-18,965	11,857	1407,436	760,993
-17,950	11,860	1406,640	760,550
-16,936	11,824	1405,755	759,872
-15,921	11,805	1404,688	759,176
-14,906	11,821	1403,590	758,627
-13,892	11,830	1402,678	758,147
-12,877	11,874	1401,671	757,779
-11,863	11,835	1400,956	757,179
-10,848	11,813	1399,996	756,528
-9,833	11,728	1399,201	755,673
-8,819	11,698	1398,329	755,033
-7,804	11,693	1397,437	754,499
-6,790	11,718	1396,277	753,957
-5,775	11,720	1395,457	753,494
-4,760	11,708	1394,506	752,893
-3,746	11,724	1393,532	752,414
-2,731	11,722	1392,844	752,003
-1,717	11,688	1391,787	751,247
-0,702	11,678	1390,085	750,249
0,313	15,648	1304,620	722,386
1,327	31,834	696,765	422,836
2,342	49,048	121,398	80,396
3,356	3,032	16,492	8,436
4,371	2,754	3,328	1,699
5,386	17,577	0,700	0,392
6,400	-200,000	0,095	0,342
7,415	551,782	-0,110	-0,186
8,429	23,610	-0,280	-0,162
9,444	14,725	-0,371	-0,204
10,459	88,145	-0,160	-0,125
11,473	-3,931	-0,371	-0,181
12,488	30,671	-0,357	-0,215
13,502	-116,261	-0,230	-0,030
14,517	-113,674	-0,281	0,038
15,531	155,961	-0,245	-0,239
16,546	80,824	-0,326	-0,248
17,561	34,988	-0,336	-0,207
18,575	-96,631	-0,311	-0,057
19,590	155,587	-0,350	-0,340
20,604	-96,949	-0,216	-0,040
21,619	-16,377	-0,493	-0,219
22,634	200,016	-0,313	-0,339
23,648	135,802	-0,396	-0,364
24,663	245,296	-0,254	-0,302
25,677	30,120	-0,298	-0,179
26,692	224,368	-0,329	-0,375
27,707	-73,172	-0,347	-0,089
28,721	-6,605	-0,505	-0,241
29,736	366,394	-0,292	-0,416
30,750	95,517	-0,393	-0,316
31,765	50,202	-0,322	-0,214
32,780	-34,299	-0,300	-0,115
33,794	41,553	-0,434	-0,276
34,809	10,205	-0,436	-0,233
35,823	52,715	-0,472	-0,317
36,838	166,360	-0,340	-0,339
37,853	76,501	-0,492	-0,367
38,867	115,628	-0,399	-0,343
39,882	105,849	-0,338	-0,281
40,896	197,721	-0,213	-0,229
41,911	85,792	-0,323	-0,249
42,926	44,621	-0,314	-0,203
43,940	80,993	-0,416	-0,316
44,955	278,705	-0,223	-0,281
45,969	84,976	-0,317	-0,244
46,984	27,092	-0,271	-0,160
47,999	-19,933	-0,320	-0,138
49,013	221,917	-0,322	-0,365
50,028	-65,793	-0,373	-0,104
51,042	-17,703	-0,322	-0,141
52,057	-1,089	-0,335	-0,166
53,071	-97,717	-0,410	-0,074
54,086	31,043	-0,384	-0,231
55,101	259,800	-0,339	-0,412
56,115	102,648	-0,239	-0,196
57,130	135,406	-0,232	-0,212
58,144	27,006	-0,412	-0,242
59,159	29,376	-0,353	-0,210
60,174	80,929	-0,399	-0,303
61,188	2,084	-0,395	-0,200
62,203	203,392	-0,267	-0,290
63,217	-73,345	-0,242	-0,062
64,232	36,397	-0,299	-0,185
65,247	-15,077	-0,354	-0,159
66,261	75,884	-0,343	-0,254
67,276	209,144	-0,358	-0,394
68,290	78,727	-0,351	-0,263
69,305	68,093	-0,275	-0,197
70,320	-12,789	-0,317	-0,144
71,334	108,793	-0,327	-0,274
72,349	-29,752	-0,266	-0,106
73,363	86,883	-0,293	-0,227
74,378	24,471	-0,442	-0,256
75,393	54,119	-0,243	-0,164
76,407	184,435	-0,227	-0,237
77,422	13,637	-0,335	-0,182
78,436	39,625	-0,383	-0,240
79,451	191,803	-0,300	-0,317
80,466	-29,982	-0,270	-0,107
81,480	37,265	-0,264	-0,164
82,495	-81,830	-0,397	-0,090
83,509	246,919	-0,262	-0,311
84,524	345,052	-0,188	-0,260
85,539	-51,521	-0,283	-0,092
86,553	36,085	-0,322	-0,198
87,568	-58,768	-0,333	-0,100
88,582	205,159	-0,270	-0,294
89,597	-123,238	-0,276	-0,031
90,611	-135,869	-0,223	-0,018
91,626	8,915	-0,335	-0,177
92,641	55,018	-0,208	-0,140
93,655	-79,894	-0,265	-0,062
94,670	158,673	-0,220	-0,214
95,684	67,141	-0,318	-0,227
96,699	143,809	-0,297	-0,277
97,714	125,970	-0,240	-0,212
98,728	293,518	-0,228	-0,293
99,743	1,149	-0,244	-0,122
100,757	-18,990	-0,307	-0,133
101,772	53,236	-0,269	-0,180
102,787	150,952	-0,268	-0,256
103,801	219,955	-0,227	-0,255
104,816	-2,057	-0,313	-0,153
105,830	26,205	-0,298	-0,174
106,845	222,335	-0,189	-0,213
107,860	114,793	-0,222	-0,189
108,874	71,691	-0,303	-0,220
109,889	38,764	-0,380	-0,237
110,903	321,261	-0,205	-0,274
111,918	-68,481	-0,241	-0,065
112,933	124,384	-0,199	-0,175
113,947	291,712	-0,178	-0,227
114,962	69,965	-0,217	-0,156
115,976	-5,153	-0,224	-0,107
116,991	72,857	-0,250	-0,183
118,006	166,148	-0,296	-0,294
119,020	77,186	-0,185	-0,137
120,035	57,904	-0,214	-0,146
121,049	-160,668	-0,232	0,008
122,064	0,699	-0,324	-0,161
123,079	-4,308	-0,328	-0,158
124,093	170,944	-0,186	-0,187
125,108	-44,236	-0,249	-0,087
126,122	-10,352	-0,287	-0,132
127,137	36,215	-0,221	-0,136
128,151	800,000	-0,113	-0,235
129,166	41,950	-0,301	-0,190
130,181	38,524	-0,278	-0,173
131,195	-3,203	-0,336	-0,163
132,210	126,068	-0,243	-0,215
133,224	-0,312	-0,222	-0,110
134,239	310,573	-0,176	-0,231
135,254	206,612	-0,127	-0,138
136,268	263,223	-0,244	-0,296
137,283	0,060	-0,263	-0,130
138,297	-116,607	-0,370	-0,047
139,312	-87,513	-0,368	-0,077
140,327	-200,000	-0,064	-0,202
141,341	101,889	-0,247	-0,201
142,356	346,645	-0,094	-0,129
143,370	64,477	-0,233	-0,164
144,385	312,260	-0,147	-0,193
145,400	47,459	-0,267	-0,173
146,414	48,774	-0,271	-0,177
147,429	162,138	-0,230	-0,225
148,443	-17,485	-0,267	-0,116
149,458	-45,199	-0,255	-0,088
150,473	-47,808	-0,182	-0,061
151,487	-48,824	-0,155	-0,052
152,502	67,234	-0,249	-0,176
153,516	107,828	-0,318	-0,264
154,531	-3,275	-0,350	-0,170
155,546	2,391	-0,336	-0,169
156,560	-91,025	-0,230	-0,046
157,575	404,287	-0,120	-0,177
158,589	-111,631	-0,192	-0,027
159,604	149,122	-0,267	-0,252
160,619	26,682	-0,243	-0,141
161,633	104,459	-0,232	-0,190
162,648	370,846	-0,174	-0,246
163,662	-46,715	-0,239	-0,081
164,677	9,602	-0,287	-0,151
165,692	-22,915	-0,326	-0,136
166,706	248,656	-0,251	-0,296
167,721	227,334	-0,268	-0,304
168,735	-59,592	-0,284	-0,084
169,750	142,824	-0,275	-0,254
170,764	165,053	-0,224	-0,220
171,779	138,472	-0,158	-0,144
172,794	23,947	-0,239	-0,137
173,808	48,175	-0,238	-0,155
174,823	101,085	-0,301	-0,244
175,837	169,137	-0,213	-0,212
176,852	-47,936	-0,242	-0,081
177,867	-24,159	-0,251	-0,104
178,881	21,161	-0,196	-0,110
179,896	-19,521	-0,227	-0,097
180,910	343,665	-0,238	-0,326
181,925	-22,810	-0,272	-0,113
182,940	229,953	-0,169	-0,193
183,954	65,785	-0,201	-0,141
184,969	800,000	-0,088	-0,198
185,983	200,342	-0,155	-0,166
186,998	25,842	-0,133	-0,077
188,013	67,239	-0,184	-0,130
189,027	186,551	-0,235	-0,243
190,042	261,826	-0,197	-0,238
191,056	65,261	-0,347	-0,243
192,071	17,144	-0,130	-0,071
193,086	54,979	-0,235	-0,158
194,100	126,135	-0,190	-0,167
195,115	225,705	-0,289	-0,326
196,129	366,811	-0,104	-0,146
197,144	79,990	-0,197	-0,147
198,159	-20,891	-0,256	-0,108
199,173	-117,982	-0,259	-0,032
200,188	113,851	-0,132	-0,111
201,202	-140,918	-0,143	-0,010
202,217	102,855	-0,175	-0,142
203,232	4,038	-0,205	-0,103
204,246	-200,000	-0,088	-0,275
205,261	117,315	-0,266	-0,227
206,275	111,449	-0,104	-0,087
207,290	-200,000	-0,157	0,000
208,304	800,000	-0,099	-0,196
209,319	800,000	-0,115	-0,276
210,334	159,638	-0,224	-0,216
211,348	-172,550	-0,151	-0,003
212,363	800,000	-0,115	-0,220
213,377	-17,375	-0,150	-0,065
214,392	-200,000	-0,043	-0,181
215,407	-153,036	-0,205	0,010
216,421	274,464	-0,107	-0,132
217,436	800,000	-0,085	-0,176
218,450	-80,368	-0,177	-0,041
219,465	412,222	-0,185	-0,272
220,480	77,143	-0,272	-0,200
221,494	280,582	-0,129	-0,161
222,509	82,613	-0,242	-0,182
223,523	103,383	-0,204	-0,165
224,538	77,539	-0,237	-0,175
225,553	97,988	-0,170	-0,135
226,567	143,313	-0,228	-0,210
227,582	130,944	-0,151	-0,134
228,596	43,939	-0,225	-0,143
229,611	-108,479	-0,221	-0,033
230,626	121,909	-0,137	-0,119
231,640	240,988	-0,174	-0,202
232,655	329,120	-0,180	-0,240
233,669	94,915	-0,126	-0,099
234,684	42,147	-0,254	-0,159
235,699	-83,554	-0,304	-0,067
236,713	-13,318	-0,140	0,063
237,728	-100,630	-0,352	-0,060
238,742	-48,385	-0,287	-0,095
239,757	60,941	-0,229	-0,157
240,772	158,873	-0,145	-0,139
241,786	43,844	-0,193	-0,122
242,801	800,000	-0,081	-0,231
243,815	585,302	-0,092	-0,156
244,830	-131,750	-0,154	-0,014
245,844	-200,000	-0,044	-0,291
246,859	13,310	-0,294	-0,157
247,874	105,143	-0,291	-0,237
248,888	132,650	-0,208	-0,186
249,903	431,261	-0,129	-0,194
250,917	94,990	-0,162	-0,127
251,932	-61,437	-0,093	-0,027
252,947	90,911	-0,270	-0,209
253,961	11,860	-0,256	-0,135
254,976	276,505	-0,252	-0,309
255,990	713,789	-0,073	-0,135
257,005	-200,000	-0,058	-0,187
258,020	-147,562	-0,049	0,003
259,034	87,471	-0,118	-0,090
260,049	10,573	-0,133	0,070
261,063	-4,745	-0,110	-0,052
262,078	18,464	-0,235	-0,129
263,093	-27,779	-0,291	-0,116
264,107	-200,000	-0,063	-0,194
265,122	-90,034	-0,220	-0,044
266,136	800,000	-0,120	-0,240
267,151	4,793	-0,143	-0,072
268,166	-75,736	-0,185	-0,045
269,180	155,782	-0,143	-0,136
270,195	-57,183	-0,180	-0,054
271,209	241,017	-0,160	-0,184
272,224	-77,488	-0,151	-0,036
273,239	112,439	-0,206	-0,172
274,253	444,172	-0,127	-0,193
275,268	552,622	-0,087	-0,144
276,282	103,829	-0,209	-0,170
277,297	-1,396	-0,169	-0,082
278,312	-106,347	-0,166	-0,025
279,326	287,605	-0,099	-0,124
280,341	-60,239	-0,103	0,030
281,355	-29,507	-0,158	-0,062
282,370	-115,464	-0,227	-0,029
283,384	-59,331	-0,330	-0,097
284,399	-0,558	-0,200	-0,098
285,414	-79,121	-0,158	-0,037
286,428	-90,665	-0,330	-0,065
287,443	344,849	-0,105	-0,142
288,457	672,517	-0,038	0,068
289,472	-103,627	-0,242	-0,039
290,487	133,963	-0,103	-0,092
291,501	242,393	-0,129	-0,149
292,516	85,145	-0,175	-0,132
293,530	85,987	-0,207	-0,157
294,545	-54,357	-0,141	-0,044
295,560	-40,066	-0,091	0,032
296,574	508,273	-0,081	-0,130
297,589	12,305	-0,153	-0,081
298,603	98,576	-0,162	-0,128
299,618	24,722	-0,183	-0,104
300,633	180,962	-0,074	-0,075
301,647	331,756	-0,166	-0,220
302,662	245,592	-0,146	-0,169
303,676	-75,154	-0,155	0,038
304,691	36,081	-0,108	-0,065
305,706	36,442	-0,161	-0,097
306,720	94,068	-0,219	-0,171
307,735	32,306	-0,052	0,031
308,749	15,142	-0,019	0,010
309,764	14,086	-0,026	0,014
310,779	4,484	-0,185	-0,093
311,793	-112,920	-0,145	-0,020
312,808	-59,960	-0,212	-0,062
313,822	-114,326	-0,073	0,010
314,837	-96,671	-0,175	-0,031
315,852	19,426	-0,134	-0,074
316,866	735,678	-0,092	-0,170
317,881	26,353	-0,197	-0,113
318,895	-64,144	-0,187	-0,052
319,910	118,341	-0,122	-0,103
320,925	16,999	-0,222	-0,121
321,939	-176,285	-0,090	-0,002
322,954	-41,235	-0,086	-0,030
323,968	445,602	-0,090	-0,136
324,983	-103,843	-0,035	-0,006
325,997	14,139	-0,178	-0,095
327,012	207,269	-0,185	-0,198
328,027	555,661	-0,132	-0,220
329,041	488,022	-0,195	-0,307
330,056	-7,214	-0,132	-0,061
331,070	480,557	-0,008	-0,012
332,085	248,670	-0,116	-0,135
333,100	-103,954	-0,082	-0,013
334,114	249,392	-0,173	-0,202
335,129	37,078	-0,120	-0,073
336,143	800,000	-0,068	-0,138
337,158	12,222	-0,168	-0,088
338,173	-117,207	-0,158	0,019
339,187	-200,000	-0,024	-0,148
340,202	-200,000	-0,016	-0,150
341,216	177,167	-0,121	-0,121
342,231	290,900	-0,167	-0,209
343,246	134,318	-0,142	-0,126
344,260	453,928	-0,062	-0,094
345,275	71,577	-0,110	0,078
346,289	214,541	-0,017	-0,019
347,304	148,599	-0,104	-0,097
348,319	-77,904	-0,119	-0,028
349,333	433,662	-0,162	-0,242
350,348	201,598	-0,140	-0,148
351,362	800,000	-0,086	-0,179
352,377	-200,000	-0,001	-0,164
353,392	61,587	-0,103	-0,070
354,406	37,255	-0,227	-0,137
355,421	206,573	1313,792	1402,846
356,435	158,871	1474,395	1403,328
