DTS Sentinel unit serial number:	SN410029Multiplexer serial number:	ORYXHardware model number:	OX2-SRSoftware version number:	ORYX F/W v4,00 Oryx Data Collector v3.7.2.0data status	okinstallation	B3 Nyhavnadifferential loss correction	single-endedforward channel	channel 1reverse channel	N/Adate	2023/12/01time	21:27:30forward acquisition time	300,00reverse acquisition time	0,00gamma	499,1914k internal	0,3196k external	0,3196temperature offset calibration	1,0000default loss term (dB/km)	0,3820temperature slope calibration	1,0000multiplexer offset coefficient	1,0000multiplexer slope coefficient	1,0000fibre end	0,00T internal ref (°C)	16,03T ext. ref 1 (°C)	1,19T ext. ref 2 (°C)	1,21length (m)	temperature (°C)	Stokes	anti-Stokes-744,400	398,878	-0,191	-0,292
-743,385	-200,000	-0,002	0,358
-742,371	-39,707	-0,251	-0,095
-741,356	-200,000	0,085	0,287
-740,342	109,818	-0,211	-0,185
-739,327	587,654	0,147	0,265
-738,312	85,027	-0,198	-0,158
-737,298	-200,000	0,039	0,275
-736,283	187,742	-0,233	-0,254
-735,269	-200,000	0,043	0,305
-734,254	423,444	-0,127	-0,199
-733,239	33,621	-0,245	0,155
-732,225	800,000	-0,159	-0,422
-731,210	800,000	0,058	0,173
-730,196	437,877	0,069	-0,110
-729,181	-116,167	-0,095	0,013
-728,167	-200,000	0,018	-0,070
-727,152	-90,001	0,074	-0,016
-726,137	-86,803	-0,162	0,036
-725,123	800,000	0,033	-0,066
-724,108	800,000	0,036	-0,079
-723,094	800,000	-0,014	-0,031
-722,079	-200,000	0,006	-0,179
-721,064	-52,159	-0,064	0,021
-720,050	356,450	-0,032	-0,046
-719,035	-149,322	0,146	-0,008
-718,021	121,785	-0,109	-0,099
-717,006	-139,523	-0,136	-0,010
-715,991	-200,000	0,038	-0,208
-714,977	507,389	-0,035	-0,060
-713,962	-200,000	-0,018	-0,063
-712,948	-56,648	0,118	-0,038
-711,933	-190,831	0,018	-0,000
-710,918	146,773	-0,052	0,051
-709,904	-90,252	-0,147	0,031
-708,889	83,191	-0,099	-0,078
-707,875	-200,000	-0,026	-0,157
-706,860	800,000	0,022	0,067
-705,845	539,911	0,006	0,010
-704,831	53,262	-0,107	-0,074
-703,816	692,243	-0,034	0,066
-702,802	349,093	-0,052	-0,075
-701,787	-93,656	-0,152	-0,030
-700,772	113,759	-0,124	0,109
-699,758	140,069	0,088	-0,084
-698,743	-69,349	-0,149	-0,041
-697,729	-200,000	0,017	0,056
-696,714	800,000	-0,035	-0,096
-695,699	-80,017	-0,039	-0,010
-694,685	-119,986	-0,055	0,007
-693,670	103,335	-0,074	-0,063
-692,656	-200,000	0,007	-0,041
-691,641	49,542	0,083	0,057
-690,627	45,357	0,038	0,026
-689,612	-200,000	-0,015	-0,076
-688,597	80,617	-0,092	-0,072
-687,583	136,055	-0,040	0,038
-686,568	599,482	0,031	-0,056
-685,554	39,236	-0,056	-0,036
-684,539	29,236	0,121	-0,075
-683,524	-200,000	-0,011	0,111
-682,510	-118,025	-0,052	-0,007
-681,495	74,279	0,029	-0,022
-680,481	379,425	0,036	-0,053
-679,466	-114,051	-0,122	0,017
-678,451	-150,190	0,143	-0,008
-677,437	249,027	0,049	0,060
-676,422	-170,418	-0,051	0,001
-675,408	-54,302	-0,076	-0,025
-674,393	156,562	0,073	-0,073
-673,378	-110,116	-0,141	-0,021
-672,364	-1,658	-0,011	-0,006
-671,349	-200,000	0,020	-0,127
-670,335	-103,176	-0,026	-0,004
-669,320	-113,477	0,092	-0,013
-668,305	95,532	0,059	0,049
-667,291	800,000	-0,019	0,055
-666,276	-200,000	-0,004	0,020
-665,262	-200,000	-0,013	0,000
-664,247	358,987	0,054	-0,079
-663,232	-22,036	-0,189	-0,083
-662,218	-200,000	0,021	-0,136
-661,203	24,709	-0,036	-0,021
-660,189	-128,439	0,104	0,011
-659,174	42,467	0,073	-0,048
-658,159	-29,979	-0,237	0,097
-657,145	103,577	-0,097	0,082
-656,130	70,369	-0,028	0,021
-655,116	800,000	0,012	-0,033
-654,101	332,321	-0,093	0,131
-653,086	-200,000	0,010	0,063
-652,072	62,987	-0,127	-0,092
-651,057	-129,317	-0,053	0,005
-650,043	377,249	-0,057	-0,084
-649,028	-3,724	0,089	-0,045
-648,014	169,729	0,083	0,086
-646,999	-200,000	-0,004	0,016
-645,984	148,166	-0,045	0,044
-644,970	-200,000	-0,008	-0,063
-643,955	800,000	-0,075	-0,175
-642,941	143,007	-0,081	-0,079
-641,926	-163,073	-0,094	0,003
-640,911	209,577	0,067	-0,076
-639,897	-82,350	-0,144	0,034
-638,882	144,433	0,097	0,094
-637,868	238,533	-0,072	-0,087
-636,853	138,069	0,052	-0,049
-635,838	-16,166	-0,179	-0,082
-634,824	15,247	0,144	0,082
-633,809	-188,280	-0,082	0,001
-632,795	213,939	-0,060	-0,069
-631,780	-27,365	0,052	-0,022
-630,765	31,211	0,053	-0,033
-629,751	616,602	0,016	-0,029
-628,736	800,000	-0,049	-0,141
-627,722	64,593	0,075	0,055
-626,707	384,106	0,052	-0,079
-625,692	-156,126	0,117	0,005
-624,678	250,161	0,092	0,113
-623,663	342,024	-0,066	0,094
-622,649	800,000	0,060	-0,190
-621,634	52,991	-0,053	0,036
-620,619	392,756	-0,079	-0,120
-619,605	800,000	-0,040	-0,102
-618,590	-200,000	-0,007	0,027
-617,576	245,192	-0,066	0,080
-616,561	-200,000	-0,076	-0,000
-615,546	643,147	0,053	-0,099
-614,532	81,347	-0,029	-0,023
-613,517	-104,511	-0,062	-0,010
-612,503	260,053	-0,095	0,119
-611,488	-200,000	0,015	0,117
-610,474	-21,623	-0,035	0,015
-609,459	261,458	-0,007	0,008
-608,444	800,000	-0,032	0,099
-607,430	800,000	-0,006	-0,014
-606,415	-36,346	-0,145	-0,056
-605,401	34,555	0,203	0,128
-604,386	27,161	-0,104	0,063
-603,371	724,378	-0,028	0,054
-602,357	-87,385	0,064	0,014
-601,342	442,372	-0,037	-0,060
-600,328	-200,000	0,001	0,020
-599,313	800,000	-0,057	-0,167
-598,298	-71,343	-0,060	0,016
-597,284	211,404	0,062	-0,070
-596,269	-200,000	-0,003	-0,070
-595,255	-200,000	0,028	-0,105
-594,240	-127,532	-0,155	-0,016
-593,225	104,426	0,012	0,010
-592,211	-133,245	-0,094	0,009
-591,196	-88,375	-0,052	0,011
-590,182	-66,470	-0,039	-0,011
-589,167	37,584	-0,061	0,039
-588,152	212,281	0,039	-0,045
-587,138	-62,610	-0,119	-0,036
-586,123	7,719	-0,096	-0,052
-585,109	329,659	-0,057	0,079
-584,094	-200,000	-0,003	-0,026
-583,079	142,832	-0,049	-0,047
-582,065	-200,000	-0,055	0,214
-581,050	-25,412	0,106	0,045
-580,036	-34,394	0,166	0,066
-579,021	-60,040	-0,098	0,030
-578,006	318,625	-0,079	-0,108
-576,992	-155,553	-0,047	0,002
-575,977	-173,069	0,140	-0,003
-574,963	26,922	-0,038	0,023
-573,948	800,000	0,036	0,108
-572,934	24,246	0,075	0,045
-571,919	469,210	-0,076	0,124
-570,904	54,170	-0,030	-0,021
-569,890	646,699	-0,045	-0,083
-568,875	-97,478	0,036	0,007
-567,861	-44,245	-0,171	-0,062
-566,846	186,919	-0,041	-0,044
-565,831	-117,190	0,174	-0,023
-564,817	800,000	-0,019	-0,040
-563,802	-31,015	-0,096	-0,039
-562,788	-25,592	0,087	-0,037
-561,773	-200,000	-0,012	-0,114
-560,758	172,824	0,072	-0,076
-559,744	364,934	0,073	0,107
-558,729	-200,000	-0,013	0,066
-557,715	-86,991	-0,010	0,002
-556,700	800,000	-0,112	-0,234
-555,685	171,322	-0,078	-0,081
-554,671	-200,000	-0,006	0,034
-553,656	800,000	-0,045	0,097
-552,642	651,569	0,043	-0,081
-551,627	180,747	0,068	-0,073
-550,612	435,506	0,018	0,029
-549,598	-6,474	-0,054	-0,026
-548,583	5,390	-0,127	0,067
-547,569	117,927	0,084	-0,075
-546,554	262,269	0,032	-0,040
-545,539	800,000	0,013	0,033
-544,525	-200,000	0,041	0,168
-543,510	-200,000	0,006	-0,050
-542,496	545,993	-0,076	-0,132
-541,481	-200,000	-0,002	0,038
-540,466	38,718	-0,116	0,075
-539,452	211,439	-0,072	-0,082
-538,437	421,170	0,029	0,045
-537,423	-98,064	-0,057	0,011
-536,408	-118,257	0,075	0,010
-535,393	499,141	-0,122	-0,203
-534,379	75,637	0,132	-0,101
-533,364	380,003	-0,077	-0,114
-532,350	4,568	0,079	-0,042
-531,335	203,633	-0,108	0,121
-530,321	-140,340	-0,116	0,009
-529,306	-34,592	-0,017	0,007
-528,291	800,000	-0,017	0,047
-527,277	-122,192	-0,144	-0,017
-526,262	338,969	0,061	0,086
-525,248	629,183	0,044	0,080
-524,233	22,561	0,151	-0,089
-523,218	-200,000	-0,034	-0,122
-522,204	-31,532	0,187	0,075
-521,189	334,610	-0,089	-0,125
-520,175	-93,559	-0,113	-0,022
-519,160	-86,371	0,082	-0,018
-518,145	-186,497	-0,052	0,001
-517,131	-200,000	0,017	0,084
-516,116	800,000	-0,010	0,023
-515,102	213,360	-0,067	0,077
-514,087	-46,172	0,073	-0,026
-513,072	74,004	-0,112	-0,085
-512,058	-52,112	0,044	0,015
-511,043	800,000	-0,009	-0,025
-510,029	15,016	-0,197	-0,111
-509,014	149,689	0,012	-0,011
-507,999	-200,000	-0,015	-0,185
-506,985	-15,597	-0,121	0,056
-505,970	-200,000	0,005	0,018
-504,956	-143,308	-0,054	0,004
-503,941	-152,848	-0,103	0,005
-502,926	179,440	0,055	0,058
-501,912	114,495	-0,012	0,011
-500,897	800,000	0,089	0,183
-499,883	76,584	0,102	0,078
-498,868	25,279	-0,077	-0,046
-497,853	48,502	-0,040	0,027
-496,839	-200,000	0,015	0,156
-495,824	800,000	-0,016	-0,049
-494,810	598,223	0,026	0,046
-493,795	-58,784	0,100	-0,031
-492,781	-200,000	0,008	-0,039
-491,766	-72,442	0,079	-0,021
-490,751	-112,473	0,117	-0,017
-489,737	-200,000	-0,001	-0,004
-488,722	768,359	0,041	-0,081
-487,708	-200,000	0,013	0,070
-486,693	-6,414	-0,069	0,034
-485,678	534,524	-0,031	0,054
-484,664	-200,000	-0,013	0,090
-483,649	-97,390	0,110	0,020
-482,635	-200,000	-0,004	0,031
-481,620	17,865	-0,045	0,026
-480,605	-200,000	-0,025	0,100
-479,591	-200,000	-0,016	-0,089
-478,576	216,452	0,130	-0,150
-477,562	-200,000	-0,017	-0,075
-476,547	800,000	0,031	-0,079
-475,532	800,000	0,014	0,043
-474,518	-27,345	-0,049	0,020
-473,503	-200,000	0,015	0,137
-472,489	371,774	0,031	0,046
-471,474	788,820	0,071	0,142
-470,459	-200,000	-0,011	-0,164
-469,445	152,147	0,103	-0,101
-468,430	68,587	-0,088	0,065
-467,416	800,000	0,019	0,040
-466,401	-200,000	-0,004	-0,041
-465,386	-140,869	-0,173	-0,013
-464,372	44,848	0,066	0,044
-463,357	40,061	-0,012	-0,008
-462,343	-200,000	-0,002	-0,049
-461,328	-200,000	0,011	-0,103
-460,313	800,000	0,012	-0,025
-459,299	-97,331	0,104	-0,019
-458,284	-200,000	0,035	0,195
-457,270	800,000	-0,005	-0,016
-456,255	-200,000	-0,006	0,105
-455,241	159,630	-0,094	-0,095
-454,226	370,517	-0,027	-0,039
-453,211	-200,000	0,006	0,114
-452,197	115,748	0,085	0,075
-451,182	573,386	0,065	0,115
-450,168	148,530	-0,065	-0,064
-449,153	103,309	-0,063	-0,053
-448,138	134,635	-0,068	-0,064
-447,124	314,826	-0,113	-0,153
-446,109	-200,000	0,018	0,153
-445,095	-37,283	-0,111	0,042
-444,080	14,540	0,029	0,016
-443,065	800,000	0,061	0,164
-442,051	178,639	0,063	-0,066
-441,036	800,000	-0,065	-0,166
-440,022	144,001	-0,099	-0,095
-439,007	49,675	0,036	-0,024
-437,992	226,924	0,098	-0,114
-436,978	-200,000	-0,005	0,096
-435,963	5,737	0,025	0,013
-434,949	118,200	0,075	-0,067
-433,934	-200,000	0,021	-0,094
-432,919	-57,503	-0,132	-0,041
-431,905	23,581	-0,075	-0,044
-430,890	143,896	0,032	0,031
-429,876	80,739	-0,050	0,039
-428,861	-21,799	0,091	0,040
-427,846	-200,000	0,012	0,039
-426,832	-200,000	-0,026	-0,099
-425,817	-13,317	-0,026	-0,012
-424,803	-200,000	0,001	0,042
-423,788	-121,593	0,233	0,028
-422,773	54,876	-0,126	-0,087
-421,759	-200,000	0,029	0,098
-420,744	800,000	0,027	-0,069
-419,730	-200,000	0,012	-0,094
-418,715	-109,545	-0,145	-0,022
-417,701	497,696	-0,025	-0,042
-416,686	493,525	0,049	0,082
-415,671	-84,212	0,040	0,009
-414,657	-200,000	-0,019	0,091
-413,642	-70,513	0,092	-0,025
-412,628	15,632	-0,066	0,037
-411,613	619,376	0,011	-0,020
-410,598	-82,694	0,046	-0,011
-409,584	181,285	-0,067	0,071
-408,569	-200,000	0,001	0,020
-407,555	-200,000	-0,015	-0,102
-406,540	363,896	-0,054	-0,078
-405,525	-161,930	0,095	-0,003
-404,511	708,434	0,017	0,033
-403,496	800,000	-0,052	-0,105
-402,482	56,315	0,049	-0,034
-401,467	139,693	0,059	0,055
-400,452	-23,001	0,065	0,028
-399,438	-60,161	-0,051	0,016
-398,423	-53,973	-0,012	-0,004
-397,409	65,991	-0,178	-0,129
-396,394	71,937	-0,009	-0,006
-395,379	56,754	-0,069	-0,048
-394,365	-200,000	-0,000	-0,068
-393,350	-200,000	0,016	0,054
-392,336	72,080	0,085	-0,064
-391,321	86,842	-0,105	-0,083
-390,306	800,000	0,040	-0,101
-389,292	-200,000	0,032	0,155
-388,277	120,326	-0,031	-0,028
-387,263	423,213	0,089	0,138
-386,248	13,809	0,053	0,030
-385,233	-200,000	0,022	0,105
-384,219	-132,136	-0,062	-0,006
-383,204	-200,000	-0,008	-0,078
-382,190	-200,000	-0,008	-0,053
-381,175	800,000	-0,018	-0,046
-380,160	-200,000	-0,051	0,243
-379,146	346,858	-0,041	0,058
-378,131	665,961	-0,057	0,107
-377,117	57,872	-0,033	-0,023
-376,102	7,684	-0,101	-0,054
-375,088	105,639	0,104	0,088
-374,073	-200,000	-0,055	-0,000
-373,058	308,899	0,020	0,027
-372,044	477,944	0,030	-0,049
-371,029	335,973	-0,064	0,089
-370,015	-200,000	0,003	0,068
-369,000	447,387	0,019	-0,030
-367,985	-70,558	0,172	-0,046
-366,971	-200,000	-0,005	-0,032
-365,956	800,000	0,029	0,065
-364,942	800,000	-0,035	0,102
-363,927	284,635	-0,048	-0,062
-362,912	-200,000	0,032	-0,141
-361,898	2,933	-0,029	0,015
-360,883	800,000	0,049	-0,118
-359,869	82,212	0,034	0,027
-358,854	800,000	0,034	0,083
-357,839	800,000	0,026	0,058
-356,825	-200,000	0,041	0,169
-355,810	-75,215	0,113	-0,029
-354,796	-200,000	0,022	0,162
-353,781	329,682	-0,111	0,154
-352,766	-200,000	-0,022	-0,075
-351,752	73,031	0,045	0,033
-350,737	-200,000	-0,044	0,190
-349,723	170,833	-0,107	0,110
-348,708	488,008	-0,042	0,069
-347,693	-16,790	0,076	0,034
-346,679	-1,924	0,081	-0,041
-345,664	289,709	0,037	-0,049
-344,650	169,743	0,081	0,083
-343,635	250,855	0,139	0,169
-342,620	-46,405	0,040	0,014
-341,606	-123,925	-0,271	0,030
-340,591	-41,895	-0,059	-0,022
-339,577	323,130	0,028	0,038
-338,562	-138,052	0,084	-0,007
-337,548	-52,507	0,059	0,019
-336,533	-200,000	0,003	0,021
-335,518	800,000	0,055	0,119
-334,504	71,988	0,052	0,039
-333,489	-168,260	0,192	-0,005
-332,475	-157,373	-0,105	-0,004
-331,460	800,000	-0,020	0,041
-330,445	80,286	0,136	-0,105
-329,431	276,255	0,043	0,055
-328,416	31,116	0,107	0,066
-327,402	637,025	0,056	0,103
-326,387	-200,000	-0,161	-0,000
-325,372	-2,204	0,030	-0,015
-324,358	285,508	-0,082	-0,106
-323,343	-200,000	-0,068	-0,222
-322,329	14,314	0,140	-0,078
-321,314	800,000	-0,018	0,056
-320,299	-23,158	-0,018	0,008
-319,285	-14,150	-0,073	-0,034
-318,270	-200,000	0,006	-0,020
-317,256	-90,343	0,079	-0,016
-316,241	122,676	0,072	-0,064
-315,226	-200,000	-0,010	-0,104
-314,212	-84,818	0,044	0,010
-313,197	-173,322	-0,040	0,001
-312,183	228,737	0,055	-0,065
-311,168	43,117	-0,118	-0,077
-310,153	503,046	-0,066	-0,109
-309,139	-123,320	0,091	-0,010
-308,124	800,000	-0,063	0,134
-307,110	124,350	0,058	0,053
-306,095	-200,000	-0,036	0,149
-305,080	-200,000	0,024	0,109
-304,066	-200,000	0,030	-0,122
-303,051	251,325	-0,017	0,021
-302,037	-46,124	-0,055	-0,019
-301,022	277,697	0,062	-0,079
-300,008	800,000	0,024	0,070
-298,993	383,727	0,085	-0,126
-297,978	-160,617	0,119	-0,004
-296,964	-9,486	0,105	0,050
-295,949	-200,000	-0,011	-0,038
-294,935	-133,758	-0,179	0,016
-293,920	18,574	0,018	0,010
-292,905	-119,587	0,116	-0,014
-291,891	-89,969	-0,081	0,017
-290,876	-200,000	0,002	0,055
-289,862	374,437	0,042	-0,062
-288,847	-136,259	-0,082	0,007
-287,832	-1,318	0,107	-0,054
-286,818	-200,000	0,009	-0,046
-285,803	329,396	0,033	-0,046
-284,789	-32,025	0,034	-0,014
-283,774	-200,000	0,025	-0,125
-282,759	183,516	-0,016	-0,017
-281,745	-54,192	-0,094	-0,030
-280,730	267,639	-0,054	-0,068
-279,716	249,677	0,080	-0,097
-278,701	448,425	0,028	-0,045
-277,686	-127,539	0,052	-0,005
-276,672	31,318	0,106	0,065
-275,657	-43,164	-0,048	-0,017
-274,643	447,297	-0,019	-0,030
-273,628	19,918	-0,062	-0,036
-272,613	800,000	0,032	-0,093
-271,599	370,163	0,070	0,102
-270,584	-30,822	0,051	-0,021
-269,570	-200,000	-0,038	0,123
-268,555	14,604	-0,030	-0,016
-267,540	554,296	-0,048	-0,082
-266,526	233,201	0,069	-0,081
-265,511	163,048	0,027	0,027
-264,497	-41,346	-0,068	0,025
-263,482	-200,000	-0,000	0,096
-262,467	-200,000	0,010	-0,052
-261,453	561,055	0,047	-0,082
-260,438	800,000	0,072	-0,180
-259,424	-26,699	0,033	0,014
-258,409	175,316	-0,044	-0,046
-257,395	800,000	-0,012	-0,031
-256,380	-97,799	0,057	0,010
-255,365	-50,908	0,135	0,045
-254,351	-62,707	0,108	0,032
-253,336	-132,229	0,072	0,007
-252,322	271,711	-0,075	-0,095
-251,307	187,241	0,077	-0,082
-250,292	35,003	-0,128	0,080
-249,278	-77,863	-0,095	0,023
-248,263	-200,000	-0,031	-0,113
-247,249	256,746	0,061	0,075
-246,234	-135,128	-0,079	0,007
-245,219	23,061	-0,110	-0,064
-244,205	450,861	0,036	0,056
-243,190	46,429	0,036	-0,024
-242,176	-10,531	0,074	-0,035
-241,161	47,458	0,116	0,077
-240,146	163,206	0,101	0,101
-239,132	151,961	0,054	0,052
-238,117	63,468	0,010	-0,007
-237,103	-60,909	-0,053	0,016
-236,088	115,793	-0,039	-0,034
-235,073	800,000	-0,053	0,120
-234,059	-45,591	-0,054	-0,019
-233,044	800,000	0,055	-0,111
-232,030	-200,000	0,001	0,095
-231,015	46,699	-0,042	0,028
-230,000	167,205	-0,026	0,027
-228,986	446,532	-0,056	0,089
-227,971	-166,146	-0,030	-0,001
-226,957	103,407	0,051	-0,043
-225,942	-41,366	0,099	0,036
-224,927	800,000	0,027	-0,071
-223,913	-200,000	-0,034	-0,157
-222,898	138,089	-0,069	0,064
-221,884	-46,089	0,092	0,032
-220,869	59,140	-0,069	-0,049
-219,855	-200,000	-0,024	0,115
-218,840	-171,890	0,023	0,001
-217,825	-200,000	0,013	0,131
-216,811	51,565	0,040	-0,027
-215,796	-1,315	-0,111	0,056
-214,782	800,000	-0,078	0,166
-213,767	-200,000	-0,007	0,061
-212,752	123,068	0,155	0,138
-211,738	-106,104	-0,048	0,008
-210,723	442,069	0,052	0,082
-209,709	-74,086	-0,033	0,008
-208,694	-16,576	-0,069	0,031
-207,679	-83,047	-0,146	-0,033
-206,665	-200,000	-0,018	0,108
-205,650	550,433	0,047	0,081
-204,636	174,481	0,064	0,066
-203,621	800,000	0,031	-0,069
-202,606	189,697	-0,044	-0,047
-201,592	182,607	-0,045	-0,047
-200,577	136,604	-0,041	-0,038
-199,563	-200,000	0,018	-0,099
-198,548	243,684	0,067	0,080
-197,533	159,085	0,065	0,064
-196,519	585,475	0,077	0,136
-195,504	458,136	0,108	-0,171
-194,490	800,000	0,026	-0,062
-193,475	800,000	-0,020	0,064
-192,460	-33,476	0,036	0,014
-191,446	86,376	0,094	-0,074
-190,431	236,707	-0,129	0,153
-189,417	-92,865	-0,069	0,014
-188,402	217,594	-0,028	-0,032
-187,387	35,159	-0,022	-0,013
-186,373	284,791	0,088	-0,113
-185,358	-0,380	0,022	0,011
-184,344	-200,000	0,017	0,062
-183,329	800,000	0,104	0,226
-182,315	-200,000	-0,009	-0,097
-181,300	800,000	-0,029	-0,065
-180,285	-2,780	-0,075	0,037
-179,271	-200,000	0,036	-0,123
-178,256	-200,000	0,003	-0,150
-177,242	246,694	0,025	0,031
-176,227	800,000	-0,014	0,038
-175,212	224,647	0,035	0,041
-174,198	-200,000	0,002	-0,040
-173,183	479,158	-0,046	0,074
-172,169	-200,000	-0,002	0,062
-171,154	800,000	0,079	0,188
-170,139	93,470	0,041	-0,033
-169,125	-200,000	-0,020	-0,084
-168,110	44,226	0,104	0,068
-167,096	55,410	-0,042	0,029
-166,081	-34,198	-0,066	0,026
-165,066	-67,206	-0,123	0,034
-164,052	20,213	-0,116	0,066
-163,037	800,000	-0,043	-0,114
-162,023	134,132	0,070	-0,065
-161,008	247,923	-0,034	0,041
-159,993	185,114	-0,031	-0,033
-158,979	219,452	0,048	0,055
-157,964	-200,000	0,007	-0,068
-156,950	-200,000	-0,020	0,069
-155,935	162,615	0,069	-0,069
-154,920	-57,366	0,114	-0,035
-153,906	-200,000	-0,015	-0,051
-152,891	32,451	0,145	0,089
-151,877	636,994	-0,015	0,027
-150,862	-34,181	-0,056	0,022
-149,847	-44,842	0,009	0,003
-148,833	21,623	-0,079	-0,046
-147,818	471,690	-0,042	0,067
-146,804	-61,180	0,064	0,019
-145,789	267,712	0,039	0,049
-144,775	-200,000	0,012	-0,226
-143,760	237,317	-0,034	-0,041
-142,745	-2,170	-0,167	-0,083
-141,731	800,000	0,026	0,066
-140,716	-200,000	0,006	-0,057
-139,702	250,646	0,045	0,054
-138,687	-200,000	0,000	0,124
-137,672	-200,000	-0,005	0,095
-136,658	800,000	-0,039	-0,092
-135,643	-15,428	-0,046	0,021
-134,629	418,008	-0,027	-0,041
-133,614	-200,000	-0,012	0,086
-132,599	-200,000	0,058	0,198
-131,585	-143,656	0,154	0,010
-130,570	800,000	-0,042	-0,122
-129,556	-121,471	0,102	-0,012
-128,541	-200,000	-0,001	-0,072
-127,526	-9,889	-0,073	0,035
-126,512	-57,085	-0,122	0,038
-125,497	-200,000	-0,010	-0,068
-124,483	800,000	-0,018	0,046
-123,468	-64,522	0,103	0,030
-122,453	115,557	-0,017	0,015
-121,439	-200,000	-0,003	-0,065
-120,424	25,603	-0,066	0,039
-119,410	-81,377	-0,081	-0,019
-118,395	-36,531	-0,082	-0,031
-117,380	167,661	0,108	0,110
-116,366	299,327	-0,048	-0,063
-115,351	-35,623	-0,118	-0,045
-114,337	800,000	0,054	-0,145
-113,322	800,000	0,024	-0,066
-112,307	800,000	0,016	-0,035
-111,293	-50,449	0,040	-0,013
-110,278	-200,000	-0,005	-0,023
-109,264	800,000	-0,036	-0,089
-108,249	-30,001	-0,070	0,028
-107,234	6,995	-0,023	-0,012
-106,220	800,000	-0,026	-0,080
-105,205	-200,000	0,016	-0,055
-104,191	-44,171	-0,097	0,034
-103,176	800,000	-0,016	0,038
-102,162	-200,000	-0,003	0,080
-101,147	-200,000	0,003	0,029
-100,132	-200,000	-0,010	-0,144
-99,118	-200,000	0,006	-0,025
-98,103	-81,368	0,013	0,003
-97,089	152,431	0,085	-0,082
-96,074	800,000	-0,009	-0,028
-95,059	-200,000	0,023	0,117
-94,045	800,000	-0,038	0,088
-93,030	-58,472	-0,126	0,039
-92,016	-115,113	-0,113	0,015
-91,001	-200,000	-0,012	-0,045
-89,986	22,460	0,025	-0,014
-88,972	-200,000	-0,009	0,055
-87,957	210,936	0,073	-0,082
-86,943	-200,000	0,015	-0,054
-85,928	-200,000	0,006	-0,034
-84,913	188,047	-0,064	-0,068
-83,899	800,000	-0,055	-0,118
-82,884	-200,000	0,008	-0,085
-81,870	-13,637	0,037	0,017
-80,855	70,428	0,051	0,038
-79,840	587,809	-0,028	-0,049
-78,826	800,000	0,016	-0,033
-77,811	126,411	-0,113	-0,101
-76,797	-190,832	0,107	-0,001
-75,782	-49,684	0,062	-0,021
-74,767	695,156	0,022	0,041
-73,753	471,435	0,050	0,080
-72,738	-200,000	-0,005	0,100
-71,724	58,221	-0,039	0,027
-70,709	-41,387	-0,066	-0,024
-69,694	234,548	-0,040	-0,047
-68,680	113,691	-0,186	0,160
-67,665	800,000	0,052	0,112
-66,651	-200,000	-0,015	0,053
-65,636	73,869	0,126	-0,094
-64,622	4,854	-0,136	-0,071
-63,607	-50,665	0,093	-0,031
-62,592	-79,184	-0,059	0,014
-61,578	237,338	0,067	0,079
-60,563	10,955	-0,087	0,047
-59,549	-71,145	0,123	-0,033
-58,534	-49,141	-1,496	-0,505
-57,519	486,906	-1,411	-2,291
-56,505	-200,000	-0,518	-4,456
-55,490	74,100	1,060	0,788
-54,476	800,000	4,847	11,281
-53,461	-200,000	17,639	279,015
-52,446	800,000	719,929	2213,103
-51,432	558,853	1633,772	2806,348
-50,417	80,955	1657,607	1266,920
-49,403	23,846	1531,939	892,820
-48,388	17,857	1455,307	819,289
-47,373	18,293	1444,715	815,387
-46,359	17,886	1435,455	808,189
-45,344	16,203	1430,564	797,408
-44,330	16,107	1428,794	795,934
-43,315	16,123	1426,967	794,959
-42,300	16,112	1425,355	793,978
-41,286	16,130	1424,309	793,451
-40,271	16,143	1422,851	792,668
-39,257	16,096	1421,600	791,717
-38,242	16,151	1420,414	791,287
-37,227	16,136	1418,992	790,388
-36,213	16,130	1417,619	789,565
-35,198	16,116	1416,703	788,961
-34,184	16,169	1415,760	788,654
-33,169	16,144	1414,261	787,667
-32,154	16,098	1413,670	787,093
-31,140	16,169	1412,032	786,480
-30,125	16,180	1410,944	785,897
-29,111	16,143	1409,915	785,119
-28,096	16,096	1408,729	784,207
-27,082	16,087	1407,676	783,545
-26,067	16,054	1406,469	782,689
-25,052	16,038	1405,454	782,018
-24,038	16,078	1404,323	781,545
-23,023	16,027	1403,428	780,777
-22,009	16,020	1402,405	780,148
-20,994	16,003	1401,500	779,531
-19,979	16,031	1400,407	779,025
-18,965	15,996	1399,760	778,469
-17,950	15,970	1398,801	777,786
-16,936	16,041	1397,374	777,289
-15,921	15,983	1396,466	776,488
-14,906	15,942	1395,534	775,748
-13,892	16,002	1394,604	775,477
-12,877	15,987	1393,701	774,876
-11,863	15,979	1392,759	774,285
-10,848	15,970	1391,806	773,682
-9,833	15,944	1390,967	773,063
-8,819	15,903	1389,921	772,260
-7,804	15,894	1388,920	771,633
-6,790	15,861	1388,058	770,972
-5,775	15,875	1386,724	770,267
-4,760	15,881	1385,967	769,843
-3,746	15,823	1385,349	769,204
-2,731	15,849	1384,418	768,771
-1,717	15,862	1383,514	768,300
-0,702	15,849	1381,846	767,285
0,313	19,644	1302,642	740,800
1,327	35,911	706,769	439,629
2,342	55,523	125,204	85,752
3,356	4,249	16,707	8,641
4,371	-1,883	3,052	1,515
5,386	-57,065	0,566	0,176
6,400	-200,000	-0,025	0,200
7,415	233,734	-0,095	-0,111
8,429	299,498	-0,214	-0,280
9,444	-80,132	-0,517	-0,122
10,459	217,413	-0,215	-0,243
11,473	-117,504	-0,338	-0,043
12,488	-164,582	-0,392	-0,012
13,502	-32,968	-0,374	-0,146
14,517	129,107	-0,272	-0,245
15,531	219,578	-0,277	-0,314
16,546	285,912	-0,282	-0,361
17,561	119,749	-0,310	-0,272
18,575	-41,507	-0,330	-0,119
19,590	84,028	-0,186	-0,144
20,604	-37,896	-0,407	-0,152
21,619	74,644	-0,378	-0,281
22,634	126,973	-0,508	-0,455
23,648	69,648	-0,356	-0,259
24,663	108,515	-0,469	-0,396
25,677	160,223	-0,379	-0,374
26,692	11,080	-0,431	-0,232
27,707	44,031	-0,319	-0,207
28,721	41,281	-0,361	-0,230
29,736	139,931	-0,381	-0,355
30,750	133,950	-0,512	-0,468
31,765	52,684	-0,349	-0,235
32,780	122,839	-0,288	-0,255
33,794	-22,816	-0,353	-0,150
34,809	73,473	-0,403	-0,297
35,823	30,257	-0,381	-0,229
36,838	6,917	-0,453	-0,237
37,853	3,381	-0,441	-0,226
38,867	71,728	-0,345	-0,253
39,882	73,666	-0,288	-0,213
40,896	214,148	-0,308	-0,345
41,911	11,340	-0,306	-0,165
42,926	47,864	-0,425	-0,280
43,940	-32,036	-0,396	-0,156
44,955	28,157	-0,431	-0,256
45,969	132,915	-0,359	-0,327
46,984	58,137	-0,268	-0,185
47,999	66,847	-0,308	-0,221
49,013	138,539	-0,290	-0,269
50,028	92,563	-0,242	-0,192
51,042	45,674	-0,425	-0,276
52,057	-86,500	-0,445	-0,095
53,071	-32,031	-0,485	-0,190
54,086	46,202	-0,272	-0,177
55,101	160,799	-0,291	-0,287
56,115	221,651	-0,274	-0,311
57,130	-28,899	-0,420	-0,169
58,144	19,891	-0,454	-0,257
59,159	-17,315	-0,386	-0,171
60,174	105,360	-0,336	-0,280
61,188	591,233	-0,152	-0,265
62,203	82,635	-0,370	-0,283
63,217	232,609	-0,260	-0,302
64,232	279,416	-0,266	-0,335
65,247	211,881	-0,290	-0,322
66,261	51,262	-0,280	-0,187
67,276	-0,102	-0,453	-0,226
68,290	156,158	-0,368	-0,358
69,305	143,098	-0,286	-0,268
70,320	118,874	-0,248	-0,216
71,334	464,016	-0,193	-0,305
72,349	-40,205	-0,336	-0,123
73,363	-64,701	-0,469	-0,133
74,378	164,822	-0,267	-0,265
75,393	252,494	-0,258	-0,310
76,407	85,874	-0,260	-0,201
77,422	-30,632	-0,299	-0,119
78,436	-57,269	-0,244	-0,075
79,451	378,727	-0,140	-0,202
80,466	85,560	-0,410	-0,317
81,480	-8,703	-0,252	-0,119
82,495	47,456	-0,247	-0,162
83,509	148,443	-0,298	-0,283
84,524	114,824	-0,307	-0,263
85,539	-25,552	-0,182	-0,075
86,553	20,994	-0,293	-0,167
87,568	73,642	-0,378	-0,278
88,582	-17,590	-0,410	-0,180
89,597	39,166	-0,313	-0,196
90,611	21,595	-0,292	-0,167
91,626	419,952	-0,149	-0,225
92,641	131,463	-0,143	-0,129
93,655	-17,560	-0,330	-0,145
94,670	124,660	-0,382	-0,338
95,684	-42,111	-0,292	-0,104
96,699	90,963	-0,213	-0,168
97,714	46,786	-0,225	-0,147
98,728	232,648	-0,210	-0,243
99,743	59,999	-0,170	-0,118
100,757	33,361	-0,194	-0,118
101,772	330,547	-0,267	-0,362
102,787	7,906	-0,316	-0,166
103,801	125,041	-0,310	-0,274
104,816	100,792	-0,314	-0,256
105,830	6,091	-0,248	-0,129
106,845	52,287	-0,222	-0,148
107,860	129,539	-0,142	-0,128
108,874	5,723	-0,290	-0,150
109,889	150,468	-0,347	-0,331
110,903	35,110	-0,384	-0,235
111,918	151,142	-0,163	-0,156
112,933	-30,585	-0,373	-0,148
113,947	6,007	-0,291	-0,151
114,962	-125,438	-0,324	-0,034
115,976	412,173	-0,169	-0,252
116,991	23,787	-0,207	-0,119
118,006	196,251	-0,210	-0,225
119,020	23,575	-0,275	-0,158
120,035	-26,218	-0,123	-0,050
121,049	551,373	-0,124	-0,209
122,064	120,476	-0,302	-0,263
123,079	800,000	-0,128	-0,346
124,093	197,128	-0,228	-0,244
125,108	216,425	-0,178	-0,199
126,122	61,794	-0,203	-0,141
127,137	112,781	-0,285	-0,242
128,151	448,075	-0,145	-0,225
129,166	-2,491	-0,258	-0,126
130,181	38,354	-0,264	-0,164
131,195	141,597	-0,247	-0,229
132,210	174,514	-0,166	-0,168
133,224	136,206	-0,295	-0,269
134,239	98,137	-0,175	-0,141
135,254	120,727	-0,221	-0,192
136,268	112,559	-0,298	-0,252
137,283	-73,589	-0,369	-0,093
138,297	2,872	-0,309	-0,156
139,312	122,960	-0,310	-0,272
140,327	-29,673	-0,322	-0,128
141,341	50,836	-0,187	-0,124
142,356	-88,508	-0,312	-0,064
143,370	262,580	-0,202	-0,246
144,385	57,217	-0,246	-0,168
145,400	-12,082	-0,325	-0,148
146,414	759,718	-0,143	-0,272
147,429	146,648	-0,165	-0,155
148,443	-16,902	-0,264	-0,116
149,458	702,522	-0,155	-0,287
150,473	172,890	-0,147	-0,148
151,487	21,015	-0,243	-0,137
152,502	82,787	-0,265	-0,201
153,516	1,095	-0,189	-0,095
154,531	426,567	-0,178	-0,269
155,546	787,710	-0,112	-0,217
156,560	121,686	-0,189	-0,164
157,575	75,578	-0,235	-0,173
158,589	4,900	-0,254	-0,130
159,604	-8,467	-0,382	-0,179
160,619	71,171	-0,198	-0,143
161,633	134,735	-0,220	-0,200
162,648	94,001	-0,317	-0,251
163,662	89,031	-0,243	-0,189
164,677	-7,525	-0,279	-0,131
165,692	239,511	-0,120	-0,139
166,706	312,316	-0,142	-0,187
167,721	54,238	-0,249	-0,167
168,735	108,972	-0,305	-0,255
169,750	-42,208	-0,220	-0,078
170,764	374,176	-0,137	-0,195
171,779	296,694	-0,132	-0,170
172,794	600,645	-0,139	-0,243
173,808	105,208	-0,168	-0,139
174,823	234,330	-0,106	-0,122
175,837	388,468	-0,144	-0,209
176,852	86,712	-0,240	-0,185
177,867	456,885	-0,114	-0,177
178,881	39,081	-0,255	-0,159
179,896	7,365	-0,225	-0,117
180,910	121,861	-0,269	-0,234
181,925	12,143	-0,184	-0,099
182,940	127,535	-0,320	-0,283
183,954	13,419	-0,279	-0,151
184,969	120,032	-0,269	-0,233
185,983	169,550	-0,118	-0,118
186,998	227,693	-0,218	-0,248
188,013	135,324	-0,195	-0,177
189,027	226,524	-0,180	-0,204
190,042	124,940	-0,182	-0,160
191,056	442,396	-0,178	-0,272
192,071	39,291	-0,196	-0,122
193,086	-73,566	-0,138	-0,035
194,100	-125,779	-0,194	0,020
195,115	30,613	-0,325	-0,193
196,129	107,902	-0,138	-0,115
197,144	364,857	-0,270	-0,380
198,159	307,182	-0,209	-0,272
199,173	-39,179	-0,345	-0,126
200,188	-125,654	-0,168	-0,018
201,202	116,979	-0,092	-0,079
202,217	-81,526	-0,139	0,032
203,232	800,000	-0,120	-0,234
204,246	555,037	-0,131	-0,221
205,261	94,434	-0,182	-0,144
206,275	-28,315	-0,192	-0,077
207,290	-23,410	-0,202	-0,084
208,304	279,175	-0,065	-0,081
209,319	-127,615	-0,198	0,020
210,334	-69,087	-0,309	-0,082
211,348	487,446	-0,170	-0,271
212,363	-46,585	-0,288	-0,098
213,377	47,722	-0,203	-0,131
214,392	580,521	-0,127	-0,218
215,407	-50,816	-0,174	0,057
216,421	96,883	-0,063	-0,050
217,436	-33,566	-0,243	-0,093
218,450	164,701	-0,106	-0,104
219,465	65,123	-0,222	-0,156
220,480	252,498	-0,243	-0,288
221,494	181,914	-0,147	-0,151
222,509	233,117	-0,161	-0,185
223,523	453,463	-0,147	-0,227
224,538	-15,562	-0,146	-0,065
225,553	124,392	-0,214	-0,187
226,567	102,300	-0,242	-0,197
227,582	121,724	-0,277	-0,240
228,596	-200,000	-0,056	-0,212
229,611	800,000	-0,128	-0,300
230,626	800,000	-0,114	-0,227
231,640	-65,460	-0,142	0,039
232,655	-62,733	-0,266	-0,076
233,669	257,305	-0,174	-0,208
234,684	112,916	-0,210	-0,177
235,699	87,461	-0,309	-0,237
236,713	81,888	-0,267	-0,201
237,728	-67,082	-0,109	-0,030
238,742	79,198	-0,180	-0,134
239,757	800,000	-0,084	-0,164
240,772	185,986	-0,193	-0,199
241,786	61,526	-0,320	-0,220
242,801	161,279	-0,132	-0,128
243,815	-186,984	-0,072	-0,001
244,830	157,024	-0,083	-0,080
245,844	9,165	-0,302	-0,158
246,859	-49,221	-0,273	-0,090
247,874	417,003	-0,100	-0,149
248,888	499,252	-0,152	-0,243
249,903	671,355	-0,156	-0,282
250,917	254,845	-0,114	-0,135
251,932	-112,876	-0,187	-0,025
252,947	22,798	-0,081	-0,046
253,961	83,288	-0,214	-0,161
254,976	-17,877	-0,156	-0,068
255,990	92,370	-0,202	-0,158
257,005	238,855	-0,154	-0,177
258,020	114,778	-0,216	-0,182
259,034	-52,528	-0,121	-0,038
260,049	362,369	-0,178	-0,249
261,063	124,289	-0,130	-0,113
262,078	62,393	-0,194	-0,134
263,093	106,581	-0,186	-0,153
264,107	195,040	-0,147	-0,155
265,122	-54,328	-0,148	-0,046
266,136	613,862	-0,115	-0,200
267,151	-92,848	-0,290	-0,056
268,166	-14,915	-0,132	-0,058
269,180	173,582	-0,066	-0,066
270,195	-26,903	-0,132	-0,053
271,209	270,676	-0,096	-0,117
272,224	316,579	-0,158	-0,207
273,239	-67,853	-0,173	-0,047
274,253	247,071	-0,127	-0,149
275,268	800,000	-0,117	-0,239
276,282	112,977	-0,245	-0,205
277,297	174,078	-0,155	-0,155
278,312	335,246	-0,098	-0,132
279,326	3,531	-0,163	-0,082
280,341	102,624	-0,149	-0,120
281,355	800,000	-0,125	-0,288
282,370	800,000	-0,101	-0,264
283,384	382,206	-0,108	-0,153
284,399	288,736	-0,115	-0,145
285,414	-56,397	-0,248	-0,076
286,428	-81,637	-0,217	-0,049
287,443	-22,165	-0,104	0,043
288,457	204,329	-0,118	-0,127
289,472	10,382	-0,103	-0,054
290,487	493,567	-0,174	-0,277
291,501	124,735	-0,065	-0,057
292,516	320,394	-0,125	-0,164
293,530	495,366	-0,081	-0,129
294,545	-63,340	-0,099	-0,028
295,560	2,460	-0,147	-0,073
296,574	0,140	-0,081	-0,040
297,589	120,287	-0,215	-0,184
298,603	20,465	-0,279	-0,156
299,618	21,308	-0,275	-0,154
300,633	76,775	-0,157	-0,115
301,647	101,506	-0,069	-0,056
302,662	315,914	-0,114	-0,148
303,676	-123,668	-0,104	-0,011
304,691	232,866	-0,097	0,110
305,706	-55,118	-0,242	-0,075
306,720	397,655	-0,097	-0,140
307,735	36,391	-0,154	-0,093
308,749	35,677	-0,045	0,028
309,764	-92,003	-0,144	-0,028
310,779	271,862	-0,103	-0,126
311,793	562,192	-0,092	-0,153
312,808	-8,799	-0,221	-0,102
313,822	35,798	-0,183	-0,111
314,837	-30,316	-0,139	0,054
315,852	-2,189	-0,138	-0,066
316,866	800,000	-0,065	-0,147
317,881	-31,006	-0,109	0,042
318,895	800,000	-0,053	-0,117
319,910	-200,000	-0,026	-0,118
320,925	117,158	-0,179	-0,151
321,939	-200,000	-0,011	-0,058
322,954	-200,000	-0,031	-0,113
323,968	-116,757	-0,055	-0,007
324,983	517,302	-0,059	-0,096
325,997	-150,545	-0,089	0,005
327,012	26,653	-0,149	-0,085
328,027	82,136	-0,238	-0,178
329,041	75,734	-0,121	-0,088
330,056	-200,000	0,020	-0,187
331,070	800,000	-0,063	-0,156
332,085	-44,036	-0,117	-0,040
333,100	-200,000	-0,006	-0,022
334,114	800,000	-0,083	-0,237
335,129	626,502	-0,184	-0,321
336,143	-99,002	-0,244	0,042
337,158	141,870	-0,168	-0,153
338,173	-200,000	0,003	-0,155
339,187	86,852	-0,116	-0,088
340,202	66,642	-0,222	-0,155
341,216	-41,967	-0,084	0,029
342,231	708,713	-0,055	-0,100
343,246	586,999	-0,081	-0,137
344,260	374,873	-0,052	-0,073
345,275	40,681	-0,207	-0,128
346,289	602,424	-0,093	-0,160
347,304	33,345	-0,189	-0,112
348,319	11,934	-0,198	-0,104
349,333	326,659	-0,086	-0,114
350,348	69,625	-0,276	-0,195
351,362	-9,797	-0,155	-0,071
352,377	-200,000	-0,011	0,077
353,392	272,653	-0,040	-0,049
354,406	-102,011	-0,196	-0,032
355,421	209,170	1314,507	1415,881
356,435	160,974	1475,261	1416,421
