DTS Sentinel unit serial number:	SN410029Multiplexer serial number:	ORYXHardware model number:	OX2-SRSoftware version number:	ORYX F/W v4,00 Oryx Data Collector v3.7.2.0data status	okinstallation	B3 Nyhavnadifferential loss correction	single-endedforward channel	channel 1reverse channel	N/Adate	2023/12/02time	01:57:30forward acquisition time	300,00reverse acquisition time	0,00gamma	499,1914k internal	0,3195k external	0,3195temperature offset calibration	1,0000default loss term (dB/km)	0,3820temperature slope calibration	1,0000multiplexer offset coefficient	1,0000multiplexer slope coefficient	1,0000fibre end	0,00T internal ref (°C)	16,59T ext. ref 1 (°C)	1,90T ext. ref 2 (°C)	1,89length (m)	temperature (°C)	Stokes	anti-Stokes-744,400	32,502	-0,294	-0,185
-743,385	800,000	0,107	0,297
-742,371	-10,012	-0,256	-0,124
-741,356	-200,000	-0,018	0,385
-740,342	800,000	-0,161	-0,381
-739,327	-200,000	-0,009	0,259
-738,312	41,651	-0,316	-0,208
-737,298	-200,000	0,068	0,293
-736,283	663,445	-0,097	-0,184
-735,269	-200,000	0,033	0,372
-734,254	-200,000	-0,073	-0,274
-733,239	-92,816	-0,184	0,037
-732,225	800,000	-0,157	-0,370
-731,210	125,229	0,140	0,128
-730,196	756,953	0,042	-0,084
-729,181	-126,373	0,066	-0,007
-728,167	130,815	0,064	0,060
-727,152	-31,902	-0,083	0,034
-726,137	-91,604	-0,123	-0,025
-725,123	-200,000	-0,014	-0,102
-724,108	-200,000	-0,002	0,090
-723,094	-0,486	-0,079	0,041
-722,079	800,000	0,008	-0,020
-721,064	159,070	-0,089	-0,090
-720,050	142,796	-0,098	0,095
-719,035	43,866	0,035	-0,023
-718,021	-97,661	-0,033	0,006
-717,006	-48,674	-0,128	-0,045
-715,991	-103,436	-0,116	-0,020
-714,977	779,594	0,083	-0,166
-713,962	51,391	-0,143	0,099
-712,948	489,087	0,028	0,047
-711,933	-17,694	-0,008	-0,004
-710,918	-200,000	0,046	-0,162
-709,904	800,000	-0,061	-0,182
-708,889	290,134	-0,067	0,089
-707,875	-81,713	-0,197	0,047
-706,860	102,663	-0,070	-0,060
-705,845	-125,820	0,093	-0,010
-704,831	800,000	-0,024	0,070
-703,816	-200,000	0,035	0,119
-702,802	-91,814	0,099	-0,020
-701,787	637,211	-0,026	0,048
-700,772	634,299	-0,011	0,021
-699,758	362,894	-0,066	0,096
-698,743	-54,265	0,038	0,013
-697,729	-135,739	0,079	-0,007
-696,714	-136,855	-0,138	-0,011
-695,699	-200,000	-0,003	-0,028
-694,685	83,386	0,056	-0,045
-693,670	52,281	-0,052	-0,036
-692,656	-142,391	-0,118	-0,008
-691,641	800,000	-0,056	0,114
-690,627	-157,918	-0,086	-0,004
-689,612	241,678	0,052	-0,063
-688,597	-200,000	0,019	-0,061
-687,583	800,000	0,008	-0,023
-686,568	-200,000	0,019	-0,090
-685,554	622,489	-0,030	-0,055
-684,539	0,174	0,121	-0,063
-683,524	800,000	-0,035	0,084
-682,510	10,019	-0,039	0,021
-681,495	800,000	-0,020	0,046
-680,481	43,342	0,085	-0,057
-679,466	-12,790	0,047	-0,022
-678,451	-2,410	-0,058	0,030
-677,437	-177,896	0,130	-0,002
-676,422	100,243	0,072	0,061
-675,408	99,346	-0,068	-0,057
-674,393	792,088	-0,025	0,050
-673,378	-144,901	0,057	-0,004
-672,364	1,903	0,023	-0,012
-671,349	222,171	0,056	0,066
-670,335	800,000	-0,062	-0,152
-669,320	-200,000	-0,008	-0,027
-668,305	398,829	-0,101	0,153
-667,291	-200,000	0,033	0,114
-666,276	800,000	-0,032	-0,082
-665,262	-63,988	-0,118	-0,035
-664,247	-122,471	-0,159	-0,019
-663,232	112,872	0,114	0,101
-662,218	800,000	0,046	0,143
-661,203	-26,147	-0,180	0,076
-660,189	-94,712	0,034	-0,007
-659,174	510,056	-0,059	0,101
-658,159	800,000	0,079	-0,217
-657,145	-58,659	-0,132	-0,041
-656,130	-200,000	-0,000	-0,145
-655,116	58,434	0,046	-0,033
-654,101	100,023	-0,058	-0,049
-653,086	-59,406	0,131	-0,041
-652,072	-200,000	0,023	0,201
-651,057	-200,000	-0,010	-0,172
-650,043	-200,000	-0,004	-0,157
-649,028	103,151	0,017	0,015
-648,014	-86,964	0,071	0,016
-646,999	-200,000	0,009	-0,067
-645,984	800,000	-0,028	-0,063
-644,970	397,502	0,042	-0,064
-643,955	-108,370	-0,159	-0,025
-642,941	-31,137	-0,077	-0,031
-641,926	800,000	0,037	-0,081
-640,911	186,114	0,075	-0,081
-639,897	-200,000	-0,010	-0,110
-638,882	-151,877	0,164	0,009
-637,868	317,881	-0,083	0,114
-636,853	800,000	0,032	-0,075
-635,838	13,020	0,053	-0,030
-634,824	18,136	-0,096	-0,055
-633,809	435,317	0,087	0,137
-632,795	800,000	-0,030	0,077
-631,780	-200,000	0,038	-0,178
-630,765	32,902	0,036	-0,023
-629,751	-200,000	-0,019	0,061
-628,736	-200,000	0,021	-0,162
-627,722	-27,574	-0,181	-0,076
-626,707	167,475	0,044	-0,046
-625,692	33,841	-0,127	0,080
-624,678	-200,000	-0,007	0,057
-623,663	-200,000	0,028	0,094
-622,649	237,269	-0,017	-0,021
-621,634	86,506	-0,061	-0,049
-620,619	433,589	-0,058	-0,091
-619,605	-200,000	-0,010	0,104
-618,590	800,000	-0,044	0,126
-617,576	74,017	0,048	0,036
-616,561	-98,041	0,061	-0,011
-615,546	-111,518	-0,057	0,008
-614,532	-178,630	-0,056	-0,001
-613,517	800,000	-0,043	-0,088
-612,503	7,482	0,082	-0,044
-611,488	174,250	-0,070	0,074
-610,474	75,497	0,077	-0,059
-609,459	800,000	0,015	0,047
-608,444	2,944	-0,034	-0,018
-607,430	270,950	-0,105	0,134
-606,415	-200,000	-0,003	-0,038
-605,401	800,000	-0,028	0,068
-604,386	-7,209	-0,045	-0,022
-603,371	70,303	0,133	0,100
-602,357	800,000	-0,067	0,152
-601,342	163,297	0,058	0,059
-600,328	-22,591	-0,109	-0,048
-599,313	592,098	-0,057	-0,102
-598,298	-200,000	-0,021	0,078
-597,284	-131,260	0,078	-0,007
-596,269	672,271	0,015	0,028
-595,255	-200,000	0,007	0,090
-594,240	800,000	0,043	0,124
-593,225	-146,425	-0,093	0,006
-592,211	-84,162	-0,028	-0,006
-591,196	-104,519	0,086	-0,014
-590,182	-100,041	0,043	-0,008
-589,167	-101,836	-0,025	-0,004
-588,152	-200,000	0,020	-0,081
-587,138	113,272	-0,044	0,039
-586,123	103,332	-0,075	0,064
-585,109	-200,000	0,018	-0,064
-584,094	800,000	-0,015	0,048
-583,079	48,983	0,076	0,051
-582,065	-98,212	-0,128	-0,024
-581,050	-105,415	-0,115	0,019
-580,036	-103,174	-0,093	0,016
-579,021	186,925	-0,020	0,021
-578,006	-103,920	-0,060	-0,010
-576,992	76,982	-0,023	0,018
-575,977	-200,000	0,005	-0,018
-574,963	800,000	0,005	-0,012
-573,948	-200,000	0,031	0,118
-572,934	-200,000	0,014	0,091
-571,919	-27,779	-0,114	-0,048
-570,904	158,550	-0,031	-0,031
-569,890	-167,423	-0,085	-0,002
-568,875	229,036	-0,087	-0,103
-567,861	297,315	-0,107	0,143
-566,846	-17,847	0,113	0,051
-565,831	162,446	0,096	0,098
-564,817	112,337	-0,035	-0,031
-563,802	-97,786	-0,065	-0,012
-562,788	-200,000	0,015	0,080
-561,773	-28,357	0,038	-0,016
-560,758	-71,179	0,076	-0,020
-559,744	70,298	-0,070	-0,052
-558,729	-162,943	0,033	-0,001
-557,715	-195,452	0,095	0,000
-556,700	-121,788	0,193	0,023
-555,685	-200,000	0,001	-0,045
-554,671	-200,000	-0,006	-0,071
-553,656	800,000	-0,024	-0,053
-552,642	27,325	0,117	0,071
-551,627	404,550	-0,080	-0,122
-550,612	-27,541	0,082	-0,034
-549,598	-44,242	-0,046	-0,017
-548,583	800,000	0,039	-0,109
-547,569	471,627	-0,127	-0,208
-546,554	-200,000	-0,025	0,143
-545,539	-23,005	0,094	-0,041
-544,525	-200,000	0,011	0,050
-543,510	-61,601	-0,066	-0,020
-542,496	800,000	0,026	-0,075
-541,481	432,995	-0,102	-0,161
-540,466	-200,000	0,006	-0,126
-539,452	-200,000	-0,014	0,048
-538,437	8,038	-0,064	0,035
-537,423	51,297	0,083	0,057
-536,408	-70,435	0,037	0,010
-535,393	-83,757	0,046	-0,011
-534,379	385,530	-0,106	-0,158
-533,364	-9,379	0,140	-0,067
-532,350	-21,806	-0,027	-0,012
-531,335	-106,716	0,027	-0,004
-530,321	530,916	-0,021	0,035
-529,306	121,245	0,003	-0,003
-528,291	-200,000	-0,005	-0,091
-527,277	-137,061	-0,165	-0,013
-526,262	-108,501	-0,097	0,015
-525,248	28,431	-0,037	0,023
-524,233	534,165	0,043	0,074
-523,218	771,528	-0,056	0,111
-522,204	-130,239	-0,061	0,006
-521,189	-74,001	-0,114	0,030
-520,175	82,741	-0,122	0,096
-519,160	81,717	-0,119	-0,093
-518,145	27,940	0,027	0,016
-517,131	-141,317	-0,087	-0,006
-516,116	-150,297	0,072	-0,004
-515,102	-41,568	-0,141	-0,052
-514,087	656,068	0,063	-0,118
-513,072	-152,429	-0,113	0,006
-512,058	17,630	0,110	0,063
-511,043	800,000	0,019	-0,046
-510,029	-132,196	0,132	0,012
-509,014	-200,000	0,018	0,073
-507,999	-200,000	-0,025	-0,090
-506,985	87,452	0,124	-0,099
-505,970	-200,000	-0,026	-0,197
-504,956	487,928	0,024	-0,039
-503,941	-44,782	0,027	0,010
-502,926	148,663	-0,121	-0,119
-501,912	800,000	0,052	0,119
-500,897	317,010	-0,080	0,110
-499,883	-59,271	-0,110	-0,034
-498,868	390,600	-0,042	0,062
-497,853	800,000	-0,028	-0,057
-496,839	-200,000	0,005	-0,078
-495,824	-200,000	0,025	-0,101
-494,810	11,891	-0,029	-0,016
-493,795	79,419	0,130	0,100
-492,781	-90,125	0,099	0,021
-491,766	800,000	-0,056	-0,133
-490,751	90,008	-0,005	-0,004
-489,737	-200,000	-0,021	-0,076
-488,722	104,728	0,067	-0,057
-487,708	-200,000	-0,014	0,151
-486,693	800,000	-0,052	0,143
-485,678	-2,300	0,046	-0,023
-484,664	800,000	-0,040	-0,091
-483,649	570,945	0,032	0,057
-482,635	143,328	0,044	0,042
-481,620	-166,523	0,072	0,002
-480,605	0,056	0,139	0,071
-479,591	43,206	0,046	-0,030
-478,576	800,000	-0,019	0,050
-477,562	14,887	-0,141	0,079
-476,547	156,061	-0,066	-0,066
-475,532	800,000	-0,017	-0,040
-474,518	18,011	0,036	-0,020
-473,503	800,000	-0,044	-0,105
-472,489	80,428	-0,045	0,035
-471,474	279,787	-0,055	0,071
-470,459	800,000	-0,019	-0,049
-469,445	800,000	-0,013	0,035
-468,430	88,258	-0,053	-0,042
-467,416	69,055	-0,142	0,105
-466,401	-13,039	0,075	-0,035
-465,386	-10,736	0,138	-0,066
-464,372	-138,887	-0,061	0,005
-463,357	55,333	-0,031	-0,022
-462,343	-200,000	-0,019	0,062
-461,328	323,976	-0,019	-0,026
-460,313	-200,000	0,005	0,026
-459,299	81,544	-0,073	0,057
-458,284	428,703	0,039	-0,062
-457,270	-200,000	0,011	0,068
-456,255	93,411	-0,051	-0,041
-455,241	-123,785	-0,125	0,014
-454,226	620,924	-0,054	-0,098
-453,211	48,763	-0,056	-0,038
-452,197	499,992	-0,041	0,068
-451,182	93,043	-0,007	-0,006
-450,168	-200,000	-0,015	0,069
-449,153	-200,000	0,012	-0,053
-448,138	-200,000	0,011	-0,091
-447,124	477,343	0,051	0,084
-446,109	-200,000	0,002	0,060
-445,095	15,624	0,082	-0,046
-444,080	-200,000	0,008	-0,093
-443,065	-200,000	-0,013	-0,069
-442,051	609,084	0,049	-0,088
-441,036	-200,000	0,010	-0,215
-440,022	387,167	-0,063	0,094
-439,007	800,000	0,011	0,029
-437,992	-66,677	0,118	0,033
-436,978	27,577	0,134	-0,081
-435,963	114,665	0,087	-0,077
-434,949	149,480	-0,045	0,044
-433,934	246,565	-0,034	0,041
-432,919	-200,000	-0,018	-0,081
-431,905	220,977	-0,079	0,091
-430,890	109,667	0,034	0,030
-429,876	129,286	0,086	-0,079
-428,861	-200,000	0,008	0,051
-427,846	790,283	0,064	-0,128
-426,832	800,000	-0,031	0,088
-425,817	-1,078	-0,101	0,051
-424,803	-78,047	0,052	0,013
-423,788	14,822	0,105	-0,059
-422,773	-192,467	0,092	0,001
-421,759	61,429	0,033	-0,024
-420,744	590,910	0,020	-0,036
-419,730	-111,862	-0,027	-0,004
-418,715	142,320	-0,037	0,035
-417,701	-67,665	0,079	0,022
-416,686	-200,000	0,006	0,063
-415,671	36,831	-0,150	-0,095
-414,657	2,098	0,106	0,055
-413,642	-200,000	0,026	0,111
-412,628	207,787	-0,111	-0,125
-411,613	800,000	-0,083	-0,169
-410,598	2,228	0,065	0,034
-409,584	206,424	0,038	0,043
-408,569	73,292	-0,029	0,022
-407,555	-48,960	0,035	-0,012
-406,540	-56,252	0,104	-0,033
-405,525	-200,000	-0,042	0,144
-404,511	213,091	-0,052	0,059
-403,496	307,644	-0,083	0,111
-402,482	-96,990	0,204	-0,038
-401,467	229,611	0,079	0,093
-400,452	800,000	-0,047	0,122
-399,438	-101,333	-0,108	-0,019
-398,423	-34,681	-0,153	-0,060
-397,409	-200,000	-0,043	-0,181
-396,394	124,364	-0,075	0,067
-395,379	-30,747	0,026	0,010
-394,365	-14,744	-0,071	-0,033
-393,350	235,275	0,065	0,077
-392,336	-200,000	-0,022	0,132
-391,321	-0,723	-0,065	-0,033
-390,306	97,571	0,080	0,066
-389,292	241,944	0,040	-0,048
-388,277	-45,414	-0,118	0,042
-387,263	-200,000	-0,004	0,026
-386,248	226,116	0,016	0,019
-385,233	-159,851	-0,108	0,004
-384,219	-84,947	0,065	-0,015
-383,204	16,614	-0,139	-0,079
-382,190	-89,615	-0,065	-0,014
-381,175	-25,354	0,099	-0,042
-380,160	800,000	0,088	-0,181
-379,146	-119,634	0,078	-0,010
-378,131	-67,085	0,085	0,024
-377,117	147,037	-0,065	0,063
-376,102	588,444	0,033	0,058
-375,088	654,427	-0,070	-0,130
-374,073	-104,454	-0,052	0,008
-373,058	-72,088	-0,158	0,042
-372,044	800,000	0,015	0,035
-371,029	114,666	0,039	0,034
-370,015	-200,000	0,022	0,111
-369,000	-200,000	-0,051	-0,186
-367,985	800,000	-0,058	-0,119
-366,971	-18,158	-0,027	-0,012
-365,956	93,479	-0,031	-0,025
-364,942	-138,269	0,105	-0,008
-363,927	-200,000	0,017	-0,067
-362,912	206,723	0,099	0,111
-361,898	-158,538	-0,113	0,005
-360,883	739,822	-0,036	-0,071
-359,869	-193,725	-0,121	0,001
-358,854	184,172	0,039	0,041
-357,839	800,000	-0,031	0,070
-356,825	164,677	0,065	0,066
-355,810	268,415	-0,029	-0,036
-354,796	800,000	-0,045	-0,140
-353,781	800,000	-0,060	-0,180
-352,766	405,997	0,052	-0,078
-351,752	-178,310	0,182	0,003
-350,737	193,342	0,098	-0,107
-349,723	190,290	0,040	0,043
-348,708	-121,322	-0,090	-0,011
-347,693	-200,000	-0,032	-0,102
-346,679	-200,000	-0,017	-0,068
-345,664	102,308	-0,106	0,089
-344,650	732,628	0,054	-0,103
-343,635	-4,712	0,027	-0,013
-342,620	-114,430	0,092	0,013
-341,606	95,964	0,048	0,039
-340,591	31,021	-0,023	0,014
-339,577	-85,834	0,053	0,012
-338,562	800,000	-0,019	0,060
-337,548	-200,000	0,034	-0,137
-336,533	-200,000	-0,005	-0,087
-335,518	-105,676	0,068	0,011
-334,504	124,242	0,076	0,068
-333,489	-74,677	0,188	-0,048
-332,475	270,527	-0,063	-0,079
-331,460	-80,336	-0,085	0,020
-330,445	60,595	-0,076	-0,054
-329,431	-32,461	0,043	0,017
-328,416	36,849	0,120	0,076
-327,402	-200,000	-0,030	0,094
-326,387	53,572	-0,057	0,039
-325,372	285,962	0,033	0,042
-324,358	-9,760	-0,065	-0,031
-323,343	413,717	-0,044	-0,067
-322,329	145,884	-0,042	-0,041
-321,314	464,139	0,041	-0,065
-320,299	530,378	-0,086	0,147
-319,285	323,915	-0,035	-0,048
-318,270	84,549	-0,065	0,051
-317,256	28,333	-0,059	0,036
-316,241	800,000	0,034	0,097
-315,226	163,803	0,051	0,052
-314,212	800,000	-0,041	-0,116
-313,197	760,797	-0,028	-0,054
-312,183	337,362	0,012	0,016
-311,168	398,936	-0,006	0,010
-310,153	246,416	0,078	0,094
-309,139	399,835	-0,022	0,033
-308,124	-176,576	-0,081	0,001
-307,110	-73,026	0,135	0,035
-306,095	-200,000	-0,007	0,063
-305,080	-172,246	-0,064	-0,001
-304,066	800,000	0,030	-0,070
-303,051	395,600	-0,044	-0,066
-302,037	154,707	0,106	-0,104
-301,022	235,208	0,033	-0,039
-300,008	422,708	0,053	0,082
-298,993	-200,000	-0,005	0,021
-297,978	94,166	0,198	0,161
-296,964	-62,191	-0,060	0,018
-295,949	481,149	-0,092	0,150
-294,935	191,558	0,020	0,021
-293,920	-149,858	-0,068	0,004
-292,905	800,000	0,051	0,154
-291,891	81,618	0,125	0,097
-290,876	-93,112	-0,147	-0,029
-289,862	800,000	0,034	-0,070
-288,847	-2,996	-0,084	-0,042
-287,832	800,000	0,041	-0,091
-286,818	-31,162	0,090	-0,036
-285,803	87,214	-0,012	0,010
-284,789	205,357	0,116	-0,129
-283,774	800,000	0,048	0,123
-282,759	-200,000	0,025	-0,083
-281,745	-13,569	-0,032	-0,015
-280,730	-27,518	-0,076	-0,031
-279,716	800,000	0,028	0,087
-278,701	-200,000	0,011	-0,039
-277,686	800,000	0,064	0,197
-276,672	-113,401	0,169	-0,023
-275,657	800,000	0,054	0,116
-274,643	640,824	-0,046	0,084
-273,628	140,653	0,044	-0,041
-272,613	28,934	-0,083	-0,050
-271,599	221,029	0,040	-0,046
-270,584	-112,785	-0,006	-0,001
-269,570	-200,000	-0,036	0,143
-268,555	-165,506	0,076	0,002
-267,540	-94,378	0,106	0,020
-266,526	210,717	-0,088	0,100
-265,511	144,224	-0,079	0,075
-264,497	-13,786	0,122	-0,056
-263,482	177,811	0,042	0,044
-262,467	-155,312	-0,051	-0,002
-261,453	32,809	-0,060	0,037
-260,438	134,285	0,071	0,065
-259,424	-200,000	0,006	0,021
-258,409	16,751	-0,116	-0,065
-257,395	6,643	0,130	0,069
-256,380	635,306	0,070	0,128
-255,365	800,000	0,048	0,115
-254,351	1,229	-0,120	-0,061
-253,336	-106,092	-0,045	0,007
-252,322	399,107	0,039	-0,059
-251,307	-87,749	0,118	-0,025
-250,292	-200,000	-0,014	-0,065
-249,278	46,073	0,050	0,033
-248,263	-200,000	-0,026	0,159
-247,249	461,106	0,025	0,040
-246,234	-6,254	-0,069	0,033
-245,219	-20,604	0,121	-0,053
-244,205	205,649	-0,074	-0,082
-243,190	-200,000	-0,021	-0,077
-242,176	442,892	-0,026	-0,041
-241,161	427,400	-0,031	0,047
-240,146	-84,448	0,158	0,035
-239,132	170,371	0,041	0,042
-238,117	651,599	-0,021	-0,038
-237,103	727,081	0,031	-0,060
-236,088	-88,948	0,179	0,038
-235,073	-200,000	0,007	0,130
-234,059	800,000	0,048	0,123
-233,044	800,000	0,025	-0,075
-232,030	95,673	0,089	-0,073
-231,015	-139,246	-0,116	-0,009
-230,000	-121,764	-0,167	0,020
-228,986	59,804	-0,091	-0,064
-227,971	-200,000	0,029	0,093
-226,957	28,683	0,151	0,091
-225,942	673,616	0,010	0,018
-224,927	-104,055	0,034	-0,006
-223,913	55,926	-0,106	0,073
-222,898	572,789	-0,032	0,056
-221,884	595,127	-0,059	-0,105
-220,869	800,000	-0,004	0,011
-219,855	77,418	0,144	-0,109
-218,840	3,538	0,053	-0,027
-217,825	141,008	-0,071	-0,067
-216,811	319,267	-0,089	0,121
-215,796	800,000	-0,049	-0,110
-214,782	-200,000	-0,010	-0,033
-213,767	-153,748	0,152	0,007
-212,752	-68,859	0,138	-0,038
-211,738	-200,000	0,033	0,115
-210,723	-200,000	0,009	0,056
-209,709	-8,802	-0,081	-0,039
-208,694	-157,118	-0,080	0,003
-207,679	-44,620	0,012	-0,004
-206,665	-124,929	-0,083	0,009
-205,650	-200,000	0,010	0,055
-204,636	7,665	0,109	0,058
-203,621	-200,000	-0,001	0,044
-202,606	85,250	0,132	0,104
-201,592	800,000	-0,015	-0,044
-200,577	800,000	-0,021	0,065
-199,563	-150,235	0,142	-0,008
-198,548	240,280	-0,054	0,065
-197,533	-78,017	-0,138	-0,034
-196,519	800,000	-0,042	0,094
-195,504	-24,502	-0,116	0,049
-194,490	-14,162	0,095	0,043
-193,475	-200,000	-0,012	-0,095
-192,460	291,950	0,005	0,007
-191,446	13,566	-0,089	0,049
-190,431	88,912	0,079	0,062
-189,417	128,513	0,096	-0,088
-188,402	61,310	0,149	-0,105
-187,387	-109,857	0,020	-0,003
-186,373	97,712	-0,129	-0,106
-185,358	479,887	0,039	0,063
-184,344	-200,000	0,043	0,144
-183,329	-200,000	0,005	0,026
-182,315	80,975	0,093	-0,071
-181,300	79,284	0,106	0,081
-180,285	-200,000	0,007	-0,083
-179,271	731,475	0,050	0,096
-178,256	800,000	-0,022	-0,054
-177,242	-200,000	-0,001	-0,062
-176,227	447,715	0,080	0,126
-175,212	574,225	-0,080	0,140
-174,198	-9,102	-0,153	-0,073
-173,183	189,850	0,051	0,055
-172,169	-93,643	0,074	-0,015
-171,154	800,000	0,057	-0,115
-170,139	-94,344	-0,040	-0,008
-169,125	800,000	-0,074	-0,163
-168,110	415,143	0,029	0,045
-167,096	373,414	0,057	0,083
-166,081	-200,000	0,014	-0,092
-165,066	800,000	-0,049	-0,117
-164,052	-143,108	0,152	0,010
-163,037	41,207	-0,052	0,034
-162,023	-31,880	0,068	-0,027
-161,008	-200,000	-0,009	0,074
-159,993	378,463	0,059	-0,086
-158,979	-160,516	-0,172	-0,006
-157,964	-200,000	-0,012	-0,113
-156,950	149,182	0,014	0,013
-155,935	15,141	-0,033	-0,018
-154,920	119,101	0,022	-0,020
-153,906	-200,000	0,001	0,122
-152,891	800,000	0,039	0,082
-151,877	-200,000	-0,016	-0,106
-150,862	-200,000	0,009	-0,081
-149,847	-76,422	-0,061	0,015
-148,833	-200,000	-0,010	-0,038
-147,818	-2,782	0,196	0,097
-146,804	67,196	0,064	0,046
-145,789	-45,133	0,133	0,047
-144,775	11,543	0,044	-0,024
-143,760	119,996	-0,082	-0,072
-142,745	-200,000	-0,006	0,178
-141,731	-200,000	-0,006	0,049
-140,716	-63,823	0,165	0,048
-139,702	114,660	0,033	-0,029
-138,687	-26,940	0,053	0,022
-137,672	800,000	0,035	-0,089
-136,658	133,452	-0,042	0,039
-135,643	70,887	-0,144	-0,106
-134,629	321,805	-0,070	-0,095
-133,614	186,148	-0,047	-0,050
-132,599	-172,982	0,173	-0,004
-131,585	-67,523	-0,138	0,038
-130,570	-200,000	-0,002	-0,067
-129,556	792,952	-0,021	-0,041
-128,541	24,446	0,132	-0,078
-127,526	-200,000	0,052	-0,199
-126,512	-37,966	-0,083	0,031
-125,497	-14,504	0,105	-0,048
-124,483	-200,000	-0,001	-0,056
-123,468	-200,000	0,028	0,192
-122,453	648,161	-0,050	-0,091
-121,439	-36,466	-0,061	-0,023
-120,424	-200,000	0,050	-0,187
-119,410	-200,000	0,018	-0,065
-118,395	-200,000	0,005	0,109
-117,380	-200,000	0,002	0,050
-116,366	-16,290	0,052	-0,023
-115,351	-200,000	-0,055	0,172
-114,337	-200,000	0,003	0,041
-113,322	-25,333	-0,052	-0,022
-112,307	57,642	0,097	-0,068
-111,293	250,366	0,071	-0,085
-110,278	800,000	0,049	-0,103
-109,264	-200,000	-0,017	0,106
-108,249	519,164	0,043	-0,071
-107,234	291,460	0,093	-0,120
-106,220	-146,633	-0,076	0,005
-105,205	134,466	0,051	0,047
-104,191	53,474	0,091	-0,062
-103,176	227,242	0,040	0,046
-102,162	163,927	0,022	-0,022
-101,147	115,202	0,050	0,043
-100,132	-200,000	-0,004	-0,117
-99,118	660,163	-0,112	-0,206
-98,103	-200,000	-0,002	-0,132
-97,089	-72,022	0,156	-0,041
-96,074	-66,221	0,163	0,046
-95,059	172,774	-0,036	-0,037
-94,045	-11,972	0,107	0,050
-93,030	-176,176	-0,175	0,003
-92,016	-200,000	-0,018	-0,086
-91,001	426,776	0,077	0,118
-89,986	186,618	0,078	0,082
-88,972	202,716	-0,034	0,037
-87,957	-200,000	-0,007	0,090
-86,943	800,000	-0,054	-0,108
-85,928	-200,000	-0,005	-0,167
-84,913	-200,000	-0,014	0,059
-83,899	34,080	-0,101	-0,062
-82,884	-90,861	0,214	0,043
-81,870	9,301	0,122	-0,065
-80,855	-22,314	0,056	-0,024
-79,840	336,980	-0,022	0,030
-78,826	20,697	0,063	0,036
-77,811	170,348	-0,029	-0,029
-76,797	-200,000	0,032	0,146
-75,782	517,870	-0,021	0,034
-74,767	-200,000	0,016	0,109
-73,753	-200,000	-0,020	0,200
-72,738	800,000	-0,010	-0,028
-71,724	-200,000	0,000	-0,066
-70,709	85,114	0,134	0,104
-69,694	-3,893	-0,152	-0,075
-68,680	20,498	0,079	-0,045
-67,665	-71,881	0,092	0,024
-66,651	79,617	0,085	0,064
-65,636	175,421	0,078	-0,080
-64,622	-108,878	0,041	0,006
-63,607	298,416	0,045	-0,058
-62,592	-39,361	0,058	0,022
-61,578	7,497	0,085	-0,045
-60,563	-200,000	0,016	0,121
-59,549	41,706	-0,029	0,018
-58,534	-108,640	-1,402	-0,211
-57,519	399,650	-1,449	-2,162
-56,505	-200,000	-0,473	-4,336
-55,490	70,601	1,049	0,769
-54,476	800,000	4,734	11,265
-53,461	-200,000	17,215	268,221
-52,446	800,000	714,698	2178,315
-51,432	551,440	1629,242	2784,792
-50,417	81,367	1655,135	1267,687
-49,403	24,400	1529,564	894,642
-48,388	18,431	1452,869	821,061
-47,373	18,520	1442,478	815,582
-46,359	18,289	1433,330	809,279
-45,344	16,753	1428,490	799,229
-44,330	16,691	1426,584	797,838
-43,315	16,718	1425,074	797,089
-42,300	16,684	1423,337	795,927
-41,286	16,758	1422,149	795,580
-40,271	16,768	1420,588	794,723
-39,257	16,655	1419,657	793,635
-38,242	16,723	1418,143	793,078
-37,227	16,737	1416,979	792,464
-36,213	16,736	1415,876	791,808
-35,198	16,740	1414,662	791,120
-34,184	16,766	1413,525	790,572
-33,169	16,654	1412,521	789,453
-32,154	16,667	1411,605	788,971
-31,140	16,692	1410,143	788,242
-30,125	16,705	1409,226	787,759
-29,111	16,716	1407,875	787,022
-28,096	16,652	1406,858	786,124
-27,082	16,620	1405,819	785,364
-26,067	16,648	1404,526	784,739
-25,052	16,658	1403,416	784,135
-24,038	16,638	1402,393	783,441
-23,023	16,609	1401,325	782,677
-22,009	16,515	1400,736	781,881
-20,994	16,525	1399,722	781,330
-19,979	16,581	1398,554	780,905
-18,965	16,544	1397,774	780,266
-17,950	16,533	1396,599	779,532
-16,936	16,572	1395,708	779,183
-15,921	16,524	1394,554	778,286
-14,906	16,552	1393,586	777,842
-13,892	16,594	1392,689	777,504
-12,877	16,553	1391,822	776,803
-11,863	16,521	1390,968	776,144
-10,848	16,513	1390,023	775,552
-9,833	16,502	1389,204	775,012
-8,819	16,468	1388,100	774,210
-7,804	16,418	1387,351	773,528
-6,790	16,437	1386,052	772,862
-5,775	16,364	1385,377	772,121
-4,760	16,387	1384,607	771,765
-3,746	16,425	1383,642	771,373
-2,731	16,420	1382,798	770,850
-1,717	16,434	1381,745	770,296
-0,702	16,414	1380,039	769,222
0,313	20,196	1301,842	743,063
1,327	36,750	707,634	442,300
2,342	56,171	125,813	86,467
3,356	4,032	16,611	8,583
4,371	9,374	3,110	1,663
5,386	-52,356	0,528	0,172
6,400	99,368	0,054	0,044
7,415	-21,494	-0,249	-0,107
8,429	53,567	-0,361	-0,245
9,444	58,786	-0,440	-0,306
10,459	99,281	-0,179	-0,146
11,473	-7,270	-0,363	-0,173
12,488	-51,974	-0,363	-0,119
13,502	20,654	-0,418	-0,239
14,517	-93,589	-0,403	-0,078
15,531	239,292	-0,306	-0,361
16,546	75,750	-0,394	-0,295
17,561	241,350	-0,276	-0,326
18,575	-22,720	-0,258	-0,110
19,590	-19,324	-0,301	-0,132
20,604	50,409	-0,247	-0,165
21,619	-46,064	-0,502	-0,174
22,634	50,767	-0,416	-0,278
23,648	34,228	-0,433	-0,266
24,663	76,720	-0,357	-0,268
25,677	61,112	-0,432	-0,303
26,692	269,525	-0,298	-0,370
27,707	50,800	-0,339	-0,226
28,721	-11,676	-0,208	-0,096
29,736	104,475	-0,352	-0,293
30,750	55,766	-0,276	-0,189
31,765	148,228	-0,336	-0,321
32,780	126,530	-0,343	-0,307
33,794	56,160	-0,292	-0,200
34,809	303,427	-0,345	-0,452
35,823	36,999	-0,455	-0,284
36,838	-23,048	-0,426	-0,181
37,853	-29,041	-0,494	-0,200
38,867	105,892	-0,381	-0,319
39,882	269,670	-0,308	-0,384
40,896	194,892	-0,351	-0,376
41,911	77,162	-0,373	-0,279
42,926	-14,040	-0,325	-0,148
43,940	436,018	-0,262	-0,405
44,955	183,110	-0,299	-0,312
45,969	-0,499	-0,326	-0,163
46,984	284,474	-0,267	-0,341
47,999	122,312	-0,253	-0,223
49,013	36,617	-0,383	-0,238
50,028	78,121	-0,374	-0,281
51,042	20,691	-0,387	-0,221
52,057	66,653	-0,412	-0,296
53,071	208,403	-0,309	-0,342
54,086	205,243	-0,276	-0,303
55,101	-0,600	-0,359	-0,179
56,115	53,533	-0,356	-0,241
57,130	-22,978	-0,319	-0,135
58,144	133,592	-0,343	-0,313
59,159	112,495	-0,334	-0,285
60,174	117,757	-0,443	-0,385
61,188	33,421	-0,417	-0,255
62,203	135,813	-0,297	-0,273
63,217	122,420	-0,349	-0,307
64,232	-35,742	-0,354	-0,134
65,247	294,837	-0,261	-0,337
66,261	181,680	-0,334	-0,347
67,276	17,354	-0,452	-0,252
68,290	391,013	-0,251	-0,369
69,305	38,495	-0,272	-0,171
70,320	81,113	-0,346	-0,263
71,334	65,314	-0,444	-0,316
72,349	35,521	-0,311	-0,192
73,363	118,678	-0,320	-0,278
74,378	129,720	-0,160	-0,144
75,393	141,671	-0,314	-0,293
76,407	47,229	-0,340	-0,223
77,422	172,503	-0,315	-0,319
78,436	600,641	-0,120	-0,210
79,451	-7,031	-0,382	-0,182
80,466	137,220	-0,245	-0,225
81,480	72,093	-0,361	-0,264
82,495	-21,962	-0,339	-0,144
83,509	-14,014	-0,321	-0,145
84,524	25,684	-0,214	-0,125
85,539	5,689	-0,342	-0,177
86,553	6,866	-0,176	-0,092
87,568	-41,846	-0,294	-0,106
88,582	97,396	-0,422	-0,340
89,597	-170,275	-0,398	-0,010
90,611	-75,254	-0,215	-0,054
91,626	51,583	-0,277	-0,185
92,641	3,439	-0,369	-0,188
93,655	23,044	-0,238	-0,137
94,670	74,009	-0,265	-0,195
95,684	113,404	-0,278	-0,237
96,699	204,111	-0,260	-0,283
97,714	-11,974	-0,309	-0,142
98,728	154,083	-0,303	-0,292
99,743	150,600	-0,193	-0,184
100,757	-29,659	-0,278	-0,111
101,772	-20,883	-0,355	-0,152
102,787	800,000	-0,128	-0,289
103,801	34,599	-0,245	-0,150
104,816	-108,184	-0,367	-0,055
105,830	-120,212	-0,262	-0,031
106,845	55,871	-0,246	-0,167
107,860	119,296	-0,231	-0,200
108,874	-19,023	-0,351	-0,153
109,889	7,443	-0,189	-0,099
110,903	134,534	-0,186	-0,170
111,918	134,588	-0,308	-0,280
112,933	28,345	-0,263	-0,156
113,947	106,800	-0,212	-0,176
114,962	62,106	-0,165	-0,115
115,976	-28,920	-0,298	-0,120
116,991	138,697	-0,247	-0,228
118,006	-5,971	-0,312	-0,149
119,020	95,007	-0,304	-0,243
120,035	-95,011	-0,271	-0,051
121,049	183,493	-0,228	-0,237
122,064	-12,570	-0,269	-0,123
123,079	-80,099	-0,305	-0,071
124,093	48,311	-0,200	-0,131
125,108	37,629	-0,326	-0,202
126,122	-77,910	-0,346	-0,083
127,137	107,595	-0,328	-0,274
128,151	11,931	-0,308	-0,166
129,166	41,897	-0,228	-0,145
130,181	480,688	-0,161	-0,257
131,195	43,445	-0,338	-0,216
132,210	35,201	-0,303	-0,186
133,224	523,674	-0,173	-0,285
134,239	-25,200	-0,268	-0,111
135,254	-48,720	-0,213	-0,071
136,268	-119,074	-0,244	-0,030
137,283	-53,537	-0,175	-0,056
138,297	9,110	-0,359	-0,189
139,312	44,686	-0,351	-0,225
140,327	-69,854	-0,304	-0,081
141,341	190,004	-0,289	-0,304
142,356	800,000	-0,088	-0,207
143,370	185,513	-0,234	-0,244
144,385	218,019	-0,168	-0,188
145,400	183,759	-0,290	-0,301
146,414	155,274	-0,311	-0,300
147,429	-23,258	-0,273	-0,115
148,443	17,206	-0,340	-0,188
149,458	-41,129	-0,269	-0,096
150,473	166,758	-0,153	-0,152
151,487	-116,637	-0,309	-0,039
152,502	135,006	-0,250	-0,227
153,516	-25,486	-0,178	-0,073
154,531	123,737	-0,319	-0,280
155,546	107,698	-0,269	-0,224
156,560	-7,058	-0,286	-0,135
157,575	-56,490	-0,201	-0,062
158,589	313,099	-0,149	-0,196
159,604	43,037	-0,104	-0,066
160,619	-88,102	-0,239	-0,050
161,633	104,698	-0,241	-0,199
162,648	-10,068	-0,362	-0,167
163,662	-168,646	-0,243	-0,006
164,677	429,922	-0,095	-0,144
165,692	-10,232	-0,228	-0,105
166,706	78,840	-0,277	-0,207
167,721	59,084	-0,283	-0,194
168,735	-60,684	-0,309	-0,091
169,750	213,874	-0,127	-0,141
170,764	64,074	-0,206	-0,145
171,779	85,026	-0,209	-0,160
172,794	-42,163	-0,184	-0,065
173,808	-69,740	-0,275	-0,073
174,823	-138,560	-0,097	0,007
175,837	68,945	-0,253	-0,181
176,852	800,000	-0,093	-0,224
177,867	-62,110	-0,268	-0,077
178,881	800,000	-0,088	-0,190
179,896	77,047	-0,209	-0,155
180,910	800,000	-0,100	-0,273
181,925	8,546	-0,316	-0,165
182,940	75,971	-0,223	-0,165
183,954	265,467	-0,169	-0,206
184,969	36,103	-0,283	-0,173
185,983	151,955	-0,169	-0,161
186,998	1,100	-0,149	-0,074
188,013	800,000	-0,054	0,148
189,027	-16,768	-0,314	-0,138
190,042	193,996	-0,218	-0,231
191,056	489,319	-0,162	-0,259
192,071	-113,331	-0,207	-0,028
193,086	16,756	-0,152	-0,084
194,100	-200,000	-0,008	-0,206
195,115	-5,443	-0,194	-0,092
196,129	-6,588	-0,275	-0,130
197,144	0,478	-0,331	-0,164
198,159	20,807	-0,207	-0,117
199,173	800,000	-0,203	-0,431
200,188	69,256	-0,275	-0,196
201,202	-16,459	-0,071	-0,031
202,217	-141,804	-0,216	0,015
203,232	800,000	-0,124	-0,242
204,246	483,166	-0,226	-0,360
205,261	78,683	-0,270	-0,201
206,275	541,828	-0,144	-0,241
207,290	-75,207	-0,085	-0,021
208,304	-154,787	-0,149	-0,007
209,319	-30,612	-0,176	-0,069
210,334	-82,607	-0,208	-0,047
211,348	-89,102	-0,162	-0,033
212,363	350,732	-0,168	-0,231
213,377	-200,000	-0,089	-0,362
214,392	-200,000	-0,071	-0,228
215,407	-76,742	-0,316	-0,076
216,421	115,400	-0,113	-0,096
217,436	800,000	-0,105	-0,242
218,450	210,788	-0,205	-0,224
219,465	142,605	-0,184	-0,170
220,480	134,561	-0,174	-0,157
221,494	306,678	-0,099	-0,129
222,509	226,375	-0,179	-0,202
223,523	32,697	-0,193	-0,116
224,538	115,742	-0,214	-0,182
225,553	-21,907	-0,189	-0,079
226,567	29,482	-0,275	-0,162
227,582	410,847	-0,141	-0,208
228,596	46,174	-0,190	-0,122
229,611	141,295	-0,187	-0,172
230,626	688,382	-0,077	-0,140
231,640	249,286	-0,180	-0,212
232,655	81,700	-0,234	-0,176
233,669	414,730	-0,130	-0,193
234,684	-13,701	-0,190	-0,085
235,699	-5,769	-0,151	-0,072
236,713	6,685	-0,234	-0,120
237,728	800,000	-0,038	-0,094
238,742	186,182	-0,192	-0,198
239,757	25,671	-0,191	-0,110
240,772	155,407	-0,206	-0,197
241,786	224,743	-0,207	-0,233
242,801	270,560	-0,159	-0,195
243,815	112,143	-0,257	-0,215
244,830	-186,444	-0,138	-0,001
245,844	156,639	-0,106	-0,101
246,859	70,883	-0,182	-0,131
247,874	102,030	-0,173	-0,140
248,888	20,853	-0,231	-0,130
249,903	79,582	-0,090	-0,067
250,917	-19,963	-0,181	-0,077
251,932	91,330	-0,129	-0,101
252,947	13,550	-0,140	-0,075
253,961	47,635	-0,283	-0,182
254,976	783,195	-0,157	-0,300
255,990	33,684	-0,238	-0,143
257,005	41,551	-0,247	-0,155
258,020	401,867	-0,158	-0,231
259,034	-171,256	-0,101	-0,002
260,049	-23,068	-0,154	-0,064
261,063	-6,080	-0,166	-0,079
262,078	308,032	-0,140	-0,181
263,093	211,922	-0,206	-0,225
264,107	-73,591	-0,183	-0,046
265,122	179,582	-0,253	-0,257
266,136	-200,000	-0,143	0,000
267,151	-94,660	-0,191	0,036
268,166	98,688	-0,170	-0,135
269,180	202,818	-0,206	-0,220
270,195	800,000	-0,124	-0,239
271,209	-5,448	-0,253	-0,120
272,224	-160,621	-0,121	-0,004
273,239	-185,806	-0,157	0,002
274,253	151,532	-0,112	-0,106
275,268	139,195	-0,136	-0,124
276,282	-28,873	-0,182	-0,072
277,297	-187,473	-0,199	0,002
278,312	-45,114	-0,372	-0,127
279,326	240,763	-0,099	-0,114
280,341	-54,970	-0,042	0,013
281,355	-52,568	-0,035	0,011
282,370	223,242	-0,146	-0,163
283,384	-200,000	-0,086	-0,340
284,399	-0,107	-0,268	-0,131
285,414	89,027	-0,269	-0,207
286,428	-66,012	-0,281	-0,077
287,443	-151,335	-0,161	0,008
288,457	-140,354	-0,115	0,008
289,472	-151,653	-0,203	-0,010
290,487	-30,351	-0,202	-0,079
291,501	44,136	-0,156	-0,099
292,516	262,512	-0,222	-0,267
293,530	468,373	-0,105	-0,164
294,545	119,588	-0,116	-0,099
295,560	65,125	-0,147	-0,102
296,574	-57,655	-0,263	-0,079
297,589	-15,390	-0,174	-0,076
298,603	226,451	-0,195	-0,219
299,618	213,769	-0,151	-0,165
300,633	2,917	-0,148	-0,074
301,647	-200,000	-0,020	-0,091
302,662	-113,769	-0,173	-0,023
303,676	800,000	-0,114	-0,280
304,691	-98,729	-0,155	-0,027
305,706	61,992	-0,200	-0,137
306,720	222,037	-0,114	-0,127
307,735	-147,396	-0,147	-0,008
308,749	-68,154	-0,151	0,040
309,764	-155,330	-0,148	-0,007
310,779	-1,599	-0,170	0,082
311,793	151,665	-0,198	-0,186
312,808	766,224	-0,081	-0,153
313,822	596,384	-0,190	-0,326
314,837	314,758	-0,092	-0,119
315,852	-20,986	-0,201	-0,084
316,866	413,883	-0,083	-0,123
317,881	799,974	-0,070	-0,133
318,895	86,863	-0,162	-0,123
319,910	-200,000	-0,044	-0,197
320,925	129,835	-0,091	0,080
321,939	176,541	-0,143	-0,143
322,954	-200,000	-0,044	-0,245
323,968	191,025	-0,055	-0,057
324,983	-19,742	-0,121	-0,051
325,997	-113,673	-0,244	-0,032
327,012	254,729	-0,168	-0,199
328,027	24,435	-0,169	-0,096
329,041	558,019	-0,103	-0,172
330,056	-34,849	-0,168	-0,063
331,070	-35,560	-0,159	-0,059
332,085	-72,469	-0,103	-0,026
333,100	267,400	-0,090	-0,108
334,114	-22,552	-0,192	-0,079
335,129	-116,089	-0,209	-0,027
336,143	80,763	-0,120	-0,089
337,158	-149,284	-0,121	-0,007
338,173	129,722	-0,111	-0,097
339,187	-55,975	-0,222	-0,068
340,202	-1,879	-0,169	-0,082
341,216	106,952	-0,118	-0,097
342,231	36,638	-0,251	-0,152
343,246	338,386	-0,084	-0,112
344,260	409,390	-0,059	-0,087
345,275	-125,932	-0,079	-0,008
346,289	35,602	-0,130	-0,078
347,304	349,024	-0,064	-0,087
348,319	-147,923	-0,167	-0,009
349,333	13,920	-0,115	-0,061
350,348	-200,000	-0,044	-0,172
351,362	265,961	-0,025	-0,030
352,377	-145,113	-0,218	-0,013
353,392	258,918	-0,098	-0,116
354,406	800,000	0,019	-0,057
355,421	208,967	1315,763	1417,267
356,435	160,811	1476,650	1417,793
