DTS Sentinel unit serial number:	SN410029Multiplexer serial number:	ORYXHardware model number:	OX2-SRSoftware version number:	ORYX F/W v4,00 Oryx Data Collector v3.7.2.0data status	okinstallation	B3 Nyhavnadifferential loss correction	single-endedforward channel	channel 1reverse channel	N/Adate	2023/12/04time	15:27:30forward acquisition time	300,00reverse acquisition time	0,00gamma	499,1914k internal	0,3200k external	0,3200temperature offset calibration	1,0000default loss term (dB/km)	0,3820temperature slope calibration	1,0000multiplexer offset coefficient	1,0000multiplexer slope coefficient	1,0000fibre end	0,00T internal ref (°C)	15,12T ext. ref 1 (°C)	0,38T ext. ref 2 (°C)	0,36length (m)	temperature (°C)	Stokes	anti-Stokes-744,400	-200,000	-0,022	-0,289
-743,385	-200,000	0,065	0,346
-742,371	395,035	-0,163	-0,247
-741,356	-200,000	0,046	0,437
-740,342	97,230	-0,189	-0,158
-739,327	595,845	0,202	0,365
-738,312	49,089	-0,101	-0,069
-737,298	-200,000	0,041	0,214
-736,283	71,665	-0,233	-0,176
-735,269	800,000	0,116	0,348
-734,254	28,129	-0,209	-0,128
-733,239	70,166	-0,217	0,162
-732,225	-200,000	-0,038	-0,155
-731,210	20,530	0,076	-0,045
-730,196	-6,644	-0,091	0,045
-729,181	612,026	-0,054	-0,099
-728,167	-20,495	-0,108	0,048
-727,152	-200,000	0,012	0,088
-726,137	-200,000	-0,021	-0,112
-725,123	282,763	0,088	-0,115
-724,108	-200,000	0,017	-0,150
-723,094	800,000	0,018	-0,056
-722,079	-200,000	-0,009	-0,073
-721,064	279,030	0,144	-0,187
-720,050	421,327	-0,054	0,085
-719,035	-67,268	-0,126	0,036
-718,021	-200,000	-0,029	-0,164
-717,006	-200,000	-0,028	-0,202
-715,991	-180,366	-0,028	-0,000
-714,977	-200,000	0,004	0,031
-713,962	64,146	-0,031	0,022
-712,948	-69,803	0,068	-0,019
-711,933	800,000	-0,023	-0,055
-710,918	-200,000	-0,003	-0,095
-709,904	241,769	-0,064	0,077
-708,889	800,000	-0,019	-0,055
-707,875	-177,279	-0,142	0,002
-706,860	-200,000	-0,019	-0,061
-705,845	-41,405	0,066	0,025
-704,831	-200,000	-0,006	0,160
-703,816	-81,669	-0,044	0,010
-702,802	-200,000	-0,002	0,046
-701,787	258,033	0,069	0,087
-700,772	282,388	-0,057	-0,074
-699,758	553,614	-0,011	0,020
-698,743	-200,000	-0,006	0,082
-697,729	-122,803	-0,076	-0,009
-696,714	341,805	-0,066	0,094
-695,699	-24,505	-0,093	0,040
-694,685	-156,047	0,030	-0,001
-693,670	456,247	0,064	0,104
-692,656	-158,159	-0,095	-0,004
-691,641	800,000	-0,035	0,107
-690,627	-160,048	-0,116	-0,005
-689,612	-21,167	-0,057	0,025
-688,597	-200,000	0,000	-0,031
-687,583	-175,015	-0,093	0,002
-686,568	-200,000	0,017	-0,109
-685,554	800,000	0,020	-0,041
-684,539	40,597	0,034	0,022
-683,524	-200,000	-0,002	-0,044
-682,510	-78,062	-0,103	-0,026
-681,495	800,000	-0,057	0,134
-680,481	-200,000	-0,206	-0,000
-679,466	377,898	-0,060	-0,089
-678,451	-177,895	0,030	-0,001
-677,437	-47,450	-0,047	0,016
-676,422	-41,162	0,157	0,059
-675,408	-21,801	-0,110	0,048
-674,393	-200,000	-0,004	-0,023
-673,378	-200,000	0,018	0,209
-672,364	-116,306	-0,110	0,015
-671,349	222,718	0,026	-0,031
-670,335	449,489	0,059	0,095
-669,320	26,487	-0,105	0,064
-668,305	2,376	0,161	0,084
-667,291	-83,525	-0,099	0,023
-666,276	-200,000	-0,053	0,214
-665,262	68,120	-0,101	-0,075
-664,247	-56,908	0,095	0,030
-663,232	550,956	-0,073	0,128
-662,218	-72,927	-0,067	-0,018
-661,203	-200,000	-0,003	0,084
-660,189	231,195	0,012	0,015
-659,174	-107,365	-0,097	0,015
-658,159	153,123	-0,040	-0,039
-657,145	800,000	0,029	-0,069
-656,130	-41,089	-0,051	-0,019
-655,116	721,864	-0,049	-0,096
-654,101	800,000	0,045	-0,116
-653,086	253,754	0,083	-0,103
-652,072	711,347	-0,041	-0,078
-651,057	-81,733	-0,042	-0,010
-650,043	800,000	0,044	-0,134
-649,028	-200,000	-0,010	-0,079
-648,014	71,290	0,059	0,044
-646,999	93,520	0,126	0,103
-645,984	97,706	-0,050	0,041
-644,970	-200,000	-0,020	-0,127
-643,955	0,627	0,055	-0,028
-642,941	-91,761	-0,147	0,030
-641,926	17,696	0,086	-0,050
-640,911	-116,541	-0,052	0,007
-639,897	288,438	0,111	0,146
-638,882	485,090	0,073	0,121
-637,868	28,102	-0,106	0,065
-636,853	294,999	-0,028	-0,037
-635,838	-81,944	-0,067	0,016
-634,824	800,000	-0,008	0,018
-633,809	270,006	-0,016	0,020
-632,795	800,000	-0,067	0,147
-631,780	22,428	0,115	0,068
-630,765	-94,730	0,079	0,015
-629,751	-0,690	-0,041	-0,021
-628,736	555,943	-0,077	-0,134
-627,722	-64,584	-0,042	-0,012
-626,707	-136,107	-0,046	-0,004
-625,692	-2,650	-0,034	0,017
-624,678	78,689	0,070	0,054
-623,663	58,800	0,108	-0,077
-622,649	160,595	0,043	-0,043
-621,634	800,000	0,035	-0,093
-620,619	66,704	-0,158	-0,117
-619,605	311,699	0,023	-0,031
-618,590	249,119	-0,010	-0,012
-617,576	-200,000	0,028	0,092
-616,561	141,220	-0,058	0,056
-615,546	800,000	-0,043	-0,113
-614,532	-200,000	-0,026	-0,087
-613,517	-200,000	-0,023	-0,181
-612,503	22,213	-0,052	0,031
-611,488	-200,000	0,017	0,105
-610,474	-200,000	0,015	0,074
-609,459	800,000	-0,012	0,034
-608,444	182,385	0,082	-0,087
-607,430	330,035	-0,091	0,127
-606,415	371,143	-0,074	-0,109
-605,401	-200,000	0,005	-0,030
-604,386	-200,000	-0,023	0,080
-603,371	-200,000	-0,007	0,069
-602,357	-107,066	0,131	-0,021
-601,342	800,000	0,030	-0,071
-600,328	-51,390	-0,070	0,024
-599,313	-126,676	-0,055	0,006
-598,298	-46,969	0,026	-0,009
-597,284	800,000	0,072	0,147
-596,269	552,845	0,024	0,041
-595,255	-44,760	0,122	-0,044
-594,240	347,846	-0,026	-0,037
-593,225	-200,000	-0,005	-0,086
-592,211	95,197	-0,093	0,077
-591,196	-23,121	0,035	0,015
-590,182	243,932	-0,137	0,167
-589,167	120,247	0,057	0,051
-588,152	-95,788	-0,145	-0,028
-587,138	84,833	-0,044	-0,035
-586,123	237,488	0,092	0,111
-585,109	194,339	-0,100	-0,110
-584,094	-71,841	-0,186	0,050
-583,079	22,340	0,085	-0,050
-582,065	62,480	0,075	0,054
-581,050	383,347	0,075	0,112
-580,036	800,000	0,035	0,082
-579,021	-101,902	-0,086	0,015
-578,006	146,069	0,060	-0,058
-576,992	112,206	-0,070	0,061
-575,977	58,119	0,043	-0,030
-574,963	54,372	0,049	0,034
-573,948	-200,000	-0,018	0,078
-572,934	-200,000	-0,006	0,102
-571,919	-133,534	-0,118	-0,011
-570,904	-200,000	0,013	-0,134
-569,890	800,000	0,083	-0,198
-568,875	788,830	-0,055	-0,109
-567,861	91,996	-0,079	0,064
-566,846	-200,000	0,001	0,065
-565,831	644,407	0,024	-0,044
-564,817	800,000	-0,017	0,039
-563,802	-125,510	-0,130	0,014
-562,788	800,000	-0,024	-0,061
-561,773	800,000	0,035	0,073
-560,758	-28,166	0,046	0,019
-559,744	-200,000	0,005	0,079
-558,729	-128,010	0,082	-0,008
-557,715	-124,606	-0,135	-0,015
-556,700	-200,000	0,003	-0,090
-555,685	9,121	-0,025	-0,013
-554,671	-80,212	0,102	0,024
-553,656	-139,353	-0,085	-0,006
-552,642	-200,000	-0,049	0,156
-551,627	-200,000	0,006	0,023
-550,612	-116,565	0,116	-0,015
-549,598	-43,409	0,123	-0,045
-548,583	-200,000	0,036	-0,172
-547,569	-200,000	-0,021	0,099
-546,554	101,780	0,103	0,086
-545,539	800,000	0,025	0,079
-544,525	-200,000	0,019	0,091
-543,510	122,322	-0,098	-0,088
-542,496	-200,000	-0,027	-0,140
-541,481	48,603	-0,146	0,098
-540,466	-75,090	0,067	0,017
-539,452	-200,000	-0,009	-0,088
-538,437	-41,200	0,129	0,048
-537,423	-91,315	0,079	-0,016
-536,408	-45,067	-0,207	-0,074
-535,393	-200,000	-0,007	0,098
-534,379	-106,579	-0,080	0,013
-533,364	11,072	0,063	0,035
-532,350	-96,281	0,143	-0,027
-531,335	-200,000	-0,006	0,043
-530,321	-200,000	0,036	0,120
-529,306	800,000	0,025	0,071
-528,291	13,022	-0,027	0,015
-527,277	-200,000	0,010	-0,103
-526,262	269,191	-0,024	0,031
-525,248	176,721	0,109	-0,115
-524,233	-200,000	0,032	0,189
-523,218	-200,000	0,012	0,073
-522,204	-49,417	-0,169	-0,058
-521,189	-200,000	0,011	0,040
-520,175	800,000	0,023	-0,056
-519,160	800,000	0,065	-0,179
-518,145	188,823	-0,063	-0,068
-517,131	335,157	0,030	0,041
-516,116	-200,000	0,004	-0,075
-515,102	-200,000	0,010	0,056
-514,087	-56,016	-0,165	0,053
-513,072	-200,000	0,016	-0,129
-512,058	379,725	0,039	-0,058
-511,043	20,296	-0,045	0,026
-510,029	-200,000	0,003	0,133
-509,014	47,809	-0,035	0,024
-507,999	95,156	0,058	0,048
-506,985	-200,000	-0,033	-0,112
-505,970	746,948	-0,073	-0,142
-504,956	-4,556	-0,074	0,037
-503,941	293,276	0,095	0,126
-502,926	-200,000	0,000	0,014
-501,912	108,909	0,100	0,086
-500,897	-66,679	-0,129	-0,036
-499,883	-200,000	-0,006	-0,120
-498,868	-55,083	-0,100	0,032
-497,853	139,465	0,126	-0,120
-496,839	-106,266	0,106	0,017
-495,824	78,951	0,041	-0,031
-494,810	106,562	0,087	-0,074
-493,795	-31,739	0,061	0,025
-492,781	241,181	0,043	-0,052
-491,766	-51,991	-0,165	-0,055
-490,751	55,758	-0,093	-0,065
-489,737	184,896	0,097	-0,103
-488,722	800,000	-0,070	-0,141
-487,708	-149,695	-0,022	0,001
-486,693	-200,000	0,019	0,106
-485,678	800,000	0,062	-0,127
-484,664	-132,480	-0,103	0,009
-483,649	353,548	-0,072	-0,104
-482,635	720,729	-0,087	-0,168
-481,620	348,399	-0,016	-0,022
-480,605	800,000	-0,043	-0,089
-479,591	800,000	0,054	0,115
-478,576	-43,655	-0,091	-0,033
-477,562	236,081	-0,004	-0,004
-476,547	-106,927	-0,103	0,016
-475,532	-145,450	0,069	-0,004
-474,518	345,932	0,081	-0,115
-473,503	168,505	0,087	-0,089
-472,489	776,362	-0,027	-0,054
-471,474	-61,053	0,094	0,028
-470,459	-132,528	-0,131	-0,012
-469,445	-52,605	-0,170	0,056
-468,430	112,751	0,090	-0,078
-467,416	282,669	-0,081	-0,105
-466,401	744,884	0,034	-0,066
-465,386	-200,000	-0,015	0,115
-464,372	69,168	0,027	0,020
-463,357	138,967	-0,058	0,055
-462,343	-200,000	0,017	0,063
-461,328	-200,000	0,003	0,109
-460,313	-200,000	-0,002	-0,039
-459,299	-6,413	0,043	0,021
-458,284	-200,000	0,007	0,055
-457,270	-200,000	0,039	0,123
-456,255	314,823	-0,020	0,027
-455,241	800,000	0,024	-0,068
-454,226	-200,000	-0,005	-0,084
-453,211	-200,000	0,001	0,107
-452,197	-126,944	-0,100	0,010
-451,182	-200,000	0,004	0,059
-450,168	-155,472	-0,097	0,004
-449,153	800,000	-0,031	-0,085
-448,138	326,106	-0,022	-0,030
-447,124	224,159	-0,034	-0,040
-446,109	800,000	-0,036	-0,079
-445,095	-200,000	0,005	0,158
-444,080	-200,000	-0,028	0,204
-443,065	-200,000	-0,049	0,167
-442,051	-99,353	0,053	-0,009
-441,036	-121,018	-0,148	-0,018
-440,022	-162,425	-0,077	-0,003
-439,007	-109,751	0,059	0,009
-437,992	-101,277	0,081	0,014
-436,978	25,358	-0,071	0,042
-435,963	-44,190	0,111	0,040
-434,949	-10,839	-0,076	0,036
-433,934	800,000	0,025	-0,067
-432,919	-104,435	-0,095	0,016
-431,905	34,285	0,066	0,041
-430,890	-50,707	0,125	-0,042
-429,876	-65,944	0,150	0,043
-428,861	-200,000	-0,007	0,035
-427,846	-200,000	-0,013	-0,101
-426,832	-127,325	0,021	-0,002
-425,817	-91,854	-0,122	-0,025
-424,803	137,073	0,046	-0,043
-423,788	256,588	0,032	-0,040
-422,773	643,044	0,038	0,069
-421,759	338,222	0,021	0,029
-420,744	163,500	-0,022	-0,022
-419,730	413,148	0,101	-0,155
-418,715	800,000	-0,031	-0,089
-417,701	33,137	-0,072	-0,045
-416,686	90,903	0,046	-0,037
-415,671	-157,512	0,153	-0,006
-414,657	139,050	0,081	-0,077
-413,642	-100,786	0,068	-0,012
-412,628	-24,903	-0,092	-0,039
-411,613	182,663	-0,070	-0,074
-410,598	769,329	-0,019	-0,037
-409,584	539,334	-0,044	-0,076
-408,569	207,417	0,085	0,095
-407,555	-200,000	-0,025	0,174
-406,540	167,513	-0,102	0,104
-405,525	5,880	0,027	0,014
-404,511	-88,205	0,047	-0,010
-403,496	10,632	-0,161	0,088
-402,482	-111,419	0,104	0,015
-401,467	-74,984	0,145	0,037
-400,452	-200,000	-0,061	0,211
-399,438	233,010	0,030	-0,035
-398,423	-116,844	-0,186	0,024
-397,409	-200,000	-0,022	-0,073
-396,394	-200,000	0,005	0,041
-395,379	319,864	-0,101	0,138
-394,365	51,238	0,051	0,034
-393,350	-200,000	-0,006	-0,108
-392,336	-200,000	-0,006	0,108
-391,321	-5,240	0,094	-0,046
-390,306	-163,458	-0,122	-0,004
-389,292	-200,000	-0,009	-0,030
-388,277	51,617	0,088	-0,060
-387,263	-85,370	-0,089	-0,020
-386,248	-108,166	-0,008	0,001
-385,233	581,927	0,047	0,082
-384,219	-200,000	0,016	-0,081
-383,204	-125,013	-0,114	-0,012
-382,190	-200,000	-0,060	-0,204
-381,175	-200,000	0,003	-0,079
-380,160	-200,000	0,016	0,099
-379,146	-200,000	-0,005	0,033
-378,131	90,874	0,033	-0,026
-377,117	-72,861	0,087	-0,023
-376,102	-100,168	-0,070	0,012
-375,088	-200,000	0,025	-0,107
-374,073	228,858	0,046	-0,053
-373,058	-120,584	0,040	0,005
-372,044	-122,659	0,104	-0,012
-371,029	-112,700	0,156	0,022
-370,015	233,689	0,021	-0,025
-369,000	-200,000	-0,014	-0,223
-367,985	344,245	-0,078	-0,110
-366,971	-138,647	-0,092	-0,007
-365,956	-77,088	0,052	-0,013
-364,942	-20,116	0,074	-0,032
-363,927	17,935	0,083	0,047
-362,912	800,000	0,011	-0,026
-361,898	-96,524	-0,077	0,015
-360,883	82,133	0,050	-0,038
-359,869	44,069	-0,084	0,055
-358,854	800,000	0,033	0,082
-357,839	490,235	-0,061	-0,100
-356,825	-7,456	-0,161	-0,078
-355,810	-40,718	0,041	-0,015
-354,796	-99,475	-0,105	-0,019
-353,781	-110,591	-0,190	-0,028
-352,766	211,874	0,050	0,057
-351,752	-16,531	0,060	0,027
-350,737	127,623	0,098	0,089
-349,723	800,000	0,044	0,112
-348,708	202,919	0,168	0,186
-347,693	170,269	-0,088	-0,091
-346,679	-69,641	-0,033	-0,009
-345,664	189,606	0,112	-0,121
-344,650	-19,394	-0,116	-0,051
-343,635	2,380	-0,075	-0,039
-342,620	-46,833	0,142	-0,049
-341,606	-62,441	-0,025	0,007
-340,591	-200,000	-0,000	0,068
-339,577	-25,790	-0,061	0,026
-338,562	288,498	0,027	-0,035
-337,548	74,495	0,072	0,054
-336,533	800,000	0,001	0,003
-335,518	800,000	0,034	-0,077
-334,504	-147,908	-0,100	0,006
-333,489	800,000	0,020	-0,049
-332,475	193,379	-0,030	0,033
-331,460	465,516	0,090	-0,145
-330,445	484,405	0,063	-0,104
-329,431	584,243	0,082	0,145
-328,416	-173,288	-0,101	-0,002
-327,402	-200,000	-0,002	-0,137
-326,387	800,000	-0,063	0,125
-325,372	-49,226	0,062	-0,021
-324,358	-72,269	-0,108	0,028
-323,343	-85,498	-0,089	0,020
-322,329	94,514	0,103	0,084
-321,314	800,000	0,047	0,132
-320,299	547,997	-0,012	0,021
-319,285	-84,030	0,023	-0,005
-318,270	-161,729	0,142	0,005
-317,256	-200,000	0,004	-0,054
-316,241	3,585	-0,127	-0,066
-315,226	800,000	-0,038	-0,099
-314,212	-117,043	0,109	0,014
-313,197	18,043	0,118	-0,067
-312,183	-32,381	-0,045	-0,018
-311,168	290,655	0,015	0,019
-310,153	-200,000	-0,008	-0,094
-309,139	427,563	-0,062	-0,096
-308,124	-47,400	0,103	-0,036
-307,110	157,860	0,029	0,029
-306,095	472,208	-0,035	0,056
-305,080	-80,401	-0,100	0,024
-304,066	426,459	0,129	-0,199
-303,051	0,118	-0,060	-0,030
-302,037	33,796	0,097	-0,060
-301,022	-27,359	0,019	-0,008
-300,008	-35,947	0,057	-0,022
-298,993	472,402	-0,032	0,052
-297,978	-200,000	-0,017	0,057
-296,964	-200,000	-0,022	0,079
-295,949	-87,992	0,079	0,017
-294,935	-200,000	-0,029	-0,161
-293,920	-30,704	0,047	0,019
-292,905	-200,000	0,015	0,154
-291,891	-200,000	-0,001	0,059
-290,876	800,000	-0,049	0,148
-289,862	-200,000	0,023	0,085
-288,847	109,031	-0,103	-0,088
-287,832	105,529	0,105	-0,089
-286,818	-23,701	-0,047	0,020
-285,803	14,225	0,072	-0,040
-284,789	-23,180	-0,016	0,007
-283,774	748,550	-0,059	0,113
-282,759	-109,967	0,052	0,008
-281,745	166,056	0,022	-0,022
-280,730	-62,483	-0,201	0,059
-279,716	800,000	-0,051	-0,154
-278,701	98,435	0,034	-0,028
-277,686	-52,276	0,060	0,020
-276,672	-75,469	0,070	-0,018
-275,657	-13,205	0,106	0,049
-274,643	-36,849	0,084	0,032
-273,628	-153,224	-0,083	-0,004
-272,613	90,069	-0,141	0,112
-271,599	-200,000	-0,024	0,103
-270,584	-24,818	0,174	0,073
-269,570	263,262	0,050	0,062
-268,555	-72,272	0,052	-0,014
-267,540	72,620	-0,053	0,039
-266,526	78,879	0,026	-0,020
-265,511	-88,724	-0,041	-0,009
-264,497	-200,000	0,011	-0,044
-263,482	800,000	-0,075	0,156
-262,467	-200,000	-0,005	-0,022
-261,453	3,645	-0,069	0,036
-260,438	-200,000	-0,010	-0,105
-259,424	-142,371	0,040	-0,003
-258,409	-200,000	-0,007	0,058
-257,395	-200,000	-0,040	0,151
-256,380	-133,911	-0,069	-0,006
-255,365	-52,590	0,084	0,028
-254,351	-58,826	-0,055	-0,017
-253,336	35,150	-0,015	0,009
-252,322	95,340	0,074	-0,060
-251,307	-200,000	-0,014	0,051
-250,292	555,049	0,027	0,046
-249,278	800,000	-0,007	0,020
-248,263	-51,442	-0,051	0,017
-247,249	394,821	0,050	-0,075
-246,234	-158,578	-0,154	-0,006
-245,219	-84,882	-0,155	0,034
-244,205	8,099	-0,131	-0,070
-243,190	-28,387	0,072	-0,030
-242,176	800,000	0,078	0,177
-241,161	-101,975	0,133	0,023
-240,146	-100,088	-0,071	-0,012
-239,132	-200,000	-0,025	0,136
-238,117	-200,000	0,005	-0,036
-237,103	-42,353	-0,119	-0,043
-236,088	113,816	-0,033	0,028
-235,073	-16,019	0,099	-0,045
-234,059	-9,016	0,160	-0,076
-233,044	-200,000	-0,018	0,118
-232,030	-61,571	-0,108	0,032
-231,015	-200,000	0,016	-0,110
-230,000	-200,000	0,002	-0,073
-228,986	800,000	-0,019	0,048
-227,971	800,000	0,046	-0,092
-226,957	108,842	0,047	0,040
-225,942	-200,000	-0,004	-0,014
-224,927	-10,138	0,050	0,024
-223,913	-157,823	0,069	-0,003
-222,898	-133,293	-0,052	-0,005
-221,884	91,853	-0,050	0,040
-220,869	64,067	0,018	-0,013
-219,855	80,589	0,043	0,033
-218,840	304,416	0,120	-0,159
-217,825	282,544	-0,055	-0,070
-216,811	770,155	0,027	0,053
-215,796	72,895	-0,077	-0,058
-214,782	296,931	-0,035	-0,045
-213,767	-200,000	-0,030	-0,162
-212,752	-200,000	-0,035	0,145
-211,738	-26,536	0,051	-0,021
-210,723	-200,000	0,016	-0,106
-209,709	-134,149	0,117	0,010
-208,694	12,964	0,105	0,057
-207,679	-14,584	0,145	-0,066
-206,665	-200,000	0,010	0,058
-205,650	800,000	-0,057	0,138
-204,636	15,429	0,115	-0,064
-203,621	140,052	-0,114	-0,107
-202,606	-200,000	-0,012	0,041
-201,592	800,000	-0,017	0,049
-200,577	800,000	0,028	0,060
-199,563	800,000	-0,094	-0,206
-198,548	-200,000	0,016	-0,063
-197,533	-200,000	0,016	0,089
-196,519	-200,000	0,009	0,065
-195,504	-7,643	0,069	-0,033
-194,490	800,000	0,028	0,057
-193,475	136,327	-0,094	0,088
-192,460	365,245	-0,045	-0,065
-191,446	-67,160	0,065	0,018
-190,431	-200,000	-0,006	-0,043
-189,417	392,313	-0,024	0,035
-188,402	-200,000	-0,014	0,151
-187,387	48,497	-0,068	-0,046
-186,373	466,012	-0,065	-0,104
-185,358	127,892	0,072	0,065
-184,344	-87,201	0,018	0,004
-183,329	800,000	0,005	-0,011
-182,315	94,457	0,034	0,028
-181,300	442,096	-0,039	-0,061
-180,285	800,000	-0,015	0,035
-179,271	-184,302	-0,120	-0,001
-178,256	481,055	-0,044	0,071
-177,242	80,907	0,149	-0,114
-176,227	-145,663	0,099	0,006
-175,212	792,707	0,045	0,088
-174,198	134,183	-0,048	-0,044
-173,183	800,000	0,023	0,060
-172,169	261,048	-0,031	-0,038
-171,154	800,000	-0,023	0,048
-170,139	117,307	-0,063	-0,055
-169,125	-61,712	0,016	-0,005
-168,110	104,148	0,112	0,093
-167,096	-77,312	-0,043	0,011
-166,081	-200,000	-0,013	-0,101
-165,066	251,019	0,119	-0,144
-164,052	-200,000	-0,021	-0,072
-163,037	-175,199	0,071	-0,001
-162,023	-149,152	0,108	0,006
-161,008	215,761	-0,110	0,124
-159,993	-156,489	0,062	0,003
-158,979	-173,646	-0,092	-0,002
-157,964	-200,000	0,020	0,102
-156,950	142,610	0,110	0,104
-155,935	-200,000	-0,001	0,065
-154,920	27,032	-0,086	-0,051
-153,906	12,497	0,045	0,025
-152,891	399,527	0,038	0,057
-151,877	-47,800	0,157	0,054
-150,862	-115,326	-0,106	0,014
-149,847	-200,000	-0,030	-0,096
-148,833	37,714	-0,054	-0,034
-147,818	38,507	0,161	0,102
-146,804	-140,099	0,088	0,007
-145,789	19,864	-0,077	0,044
-144,775	223,547	0,004	-0,005
-143,760	-200,000	0,001	-0,025
-142,745	-200,000	-0,033	-0,216
-141,731	208,741	-0,095	0,106
-140,716	136,120	0,165	0,153
-139,702	-200,000	0,003	0,080
-138,687	-75,643	-0,090	0,023
-137,672	-157,970	-0,021	-0,001
-136,658	-200,000	0,001	0,064
-135,643	-92,238	-0,019	-0,004
-134,629	67,405	-0,068	-0,050
-133,614	800,000	-0,046	0,141
-132,599	79,342	0,130	0,099
-131,585	134,040	0,034	0,032
-130,570	-60,282	0,090	-0,027
-129,556	10,825	-0,124	-0,067
-128,541	72,076	-0,067	-0,049
-127,526	83,538	-0,060	-0,047
-126,512	-200,000	0,052	0,225
-125,497	657,419	-0,063	-0,116
-124,483	312,308	0,101	0,135
-123,468	82,566	-0,050	-0,038
-122,453	23,995	-0,031	0,018
-121,439	800,000	-0,031	0,093
-120,424	-200,000	-0,014	-0,072
-119,410	-200,000	0,016	-0,051
-118,395	800,000	0,050	-0,101
-117,380	765,656	0,027	0,053
-116,366	640,732	0,050	-0,090
-115,351	-153,863	0,113	-0,005
-114,337	800,000	-0,049	-0,122
-113,322	674,322	0,008	0,014
-112,307	-200,000	-0,013	0,064
-111,293	12,774	-0,073	0,040
-110,278	94,117	0,068	0,055
-109,264	-58,298	-0,128	0,039
-108,249	-108,792	-0,016	-0,002
-107,234	124,246	0,044	0,040
-106,220	-200,000	-0,020	0,065
-105,205	106,906	-0,017	0,015
-104,191	80,194	-0,104	0,079
-103,176	185,465	0,074	0,078
-102,162	157,819	0,100	0,099
-101,147	-68,676	0,056	-0,015
-100,132	-135,428	-0,166	0,014
-99,118	-200,000	0,085	-0,000
-98,103	96,849	0,057	0,046
-97,089	800,000	-0,032	0,089
-96,074	-57,255	0,128	-0,040
-95,059	-200,000	0,002	0,120
-94,045	-45,943	-0,176	-0,061
-93,030	701,342	0,013	-0,024
-92,016	-200,000	0,012	-0,049
-91,001	-28,997	0,090	0,036
-89,986	-200,000	0,006	-0,108
-88,972	-120,881	-0,051	0,006
-87,957	322,823	-0,079	0,107
-86,943	95,840	-0,045	0,036
-85,928	-200,000	0,021	-0,066
-84,913	293,038	-0,024	0,031
-83,899	-200,000	-0,001	-0,027
-82,884	94,720	0,176	0,142
-81,870	11,271	0,048	-0,026
-80,855	-200,000	-0,028	0,151
-79,840	-34,513	-0,089	-0,035
-78,826	170,696	-0,050	0,051
-77,811	800,000	0,027	-0,083
-76,797	276,885	-0,029	-0,036
-75,782	203,858	-0,072	-0,080
-74,767	-200,000	0,031	-0,127
-73,753	-47,447	-0,063	0,022
-72,738	800,000	0,050	-0,119
-71,724	800,000	-0,031	0,062
-70,709	286,144	-0,006	0,007
-69,694	73,352	-0,097	-0,072
-68,680	45,535	-0,042	0,028
-67,665	183,742	-0,026	0,027
-66,651	258,151	-0,034	0,041
-65,636	237,956	0,015	-0,018
-64,622	-200,000	0,004	0,016
-63,607	587,200	0,037	-0,066
-62,592	-143,308	-0,094	0,006
-61,578	365,192	0,019	0,027
-60,563	603,766	0,031	0,055
-59,549	-200,000	-0,000	0,037
-58,534	-69,214	-1,413	-0,382
-57,519	331,206	-1,562	-2,138
-56,505	-200,000	-0,567	-4,524
-55,490	132,427	0,931	0,851
-54,476	800,000	4,833	11,315
-53,461	-200,000	18,125	286,589
-52,446	800,000	726,866	2223,898
-51,432	553,553	1642,667	2807,445
-50,417	79,334	1664,866	1262,736
-49,403	22,972	1538,460	891,122
-48,388	16,987	1461,822	817,762
-47,373	17,874	1451,784	816,383
-46,359	17,334	1442,170	808,362
-45,344	15,260	1437,646	795,898
-44,330	15,149	1435,774	794,300
-43,315	15,167	1434,120	793,439
-42,300	15,229	1432,380	792,742
-41,286	15,215	1431,388	792,093
-40,271	15,194	1429,928	791,153
-39,257	15,159	1428,762	790,312
-38,242	15,177	1427,468	789,650
-37,227	15,251	1426,148	789,241
-36,213	15,247	1424,810	788,449
-35,198	15,186	1423,963	787,659
-34,184	15,227	1422,956	787,265
-33,169	15,145	1421,694	786,152
-32,154	15,241	1420,569	785,949
-31,140	15,215	1419,303	785,095
-30,125	15,283	1418,100	784,720
-29,111	15,263	1416,983	783,974
-28,096	15,223	1415,761	783,082
-27,082	15,157	1414,780	782,194
-26,067	15,123	1413,629	781,367
-25,052	15,144	1412,661	780,903
-24,038	15,120	1411,618	780,183
-23,023	15,164	1410,520	779,752
-22,009	15,119	1409,555	778,977
-20,994	15,049	1408,871	778,241
-19,979	15,122	1407,793	777,953
-18,965	15,105	1406,687	777,232
-17,950	15,071	1405,805	776,556
-16,936	15,087	1404,856	776,077
-15,921	15,061	1403,626	775,242
-14,906	15,061	1402,961	774,845
-13,892	15,067	1401,940	774,278
-12,877	15,014	1401,007	773,488
-11,863	15,087	1400,029	773,252
-10,848	15,071	1399,203	772,695
-9,833	15,054	1398,291	772,081
-8,819	15,009	1397,427	771,362
-7,804	14,959	1396,599	770,644
-6,790	14,955	1395,419	769,945
-5,775	14,972	1394,358	769,405
-4,760	14,975	1393,436	768,882
-3,746	14,945	1392,749	768,335
-2,731	14,939	1392,057	767,894
-1,717	14,927	1391,097	767,280
-0,702	14,924	1389,330	766,257
0,313	18,772	1308,607	739,531
1,327	34,919	707,462	437,257
2,342	53,570	125,101	84,806
3,356	4,862	16,677	8,649
4,371	13,517	3,085	1,689
5,386	18,897	0,528	0,299
6,400	-126,977	-0,062	0,006
7,415	76,850	-0,300	-0,225
8,429	66,467	-0,184	-0,132
9,444	-42,003	-0,332	-0,120
10,459	43,723	-0,370	-0,239
11,473	78,975	-0,266	-0,201
12,488	19,652	-0,238	-0,135
13,502	-76,268	-0,381	-0,094
14,517	188,144	-0,180	-0,191
15,531	173,347	-0,387	-0,395
16,546	12,314	-0,416	-0,226
17,561	7,290	-0,464	-0,244
18,575	8,442	-0,277	-0,147
19,590	131,097	-0,263	-0,239
20,604	-48,692	-0,301	-0,102
21,619	48,287	-0,467	-0,308
22,634	180,876	-0,388	-0,403
23,648	250,837	-0,289	-0,348
24,663	269,813	-0,328	-0,407
25,677	350,975	-0,253	-0,355
26,692	204,024	-0,323	-0,354
27,707	-38,717	-0,382	-0,142
28,721	131,110	-0,352	-0,319
29,736	44,004	-0,403	-0,260
30,750	6,401	-0,469	-0,245
31,765	31,940	-0,366	-0,222
32,780	48,669	-0,331	-0,219
33,794	207,120	-0,320	-0,353
34,809	25,388	-0,386	-0,226
35,823	-27,652	-0,340	-0,139
36,838	82,491	-0,416	-0,318
37,853	54,916	-0,264	-0,179
38,867	106,239	-0,414	-0,346
39,882	36,304	-0,420	-0,260
40,896	79,186	-0,273	-0,206
41,911	310,147	-0,155	-0,205
42,926	213,275	-0,347	-0,387
43,940	-1,697	-0,363	-0,179
44,955	284,353	-0,262	-0,333
45,969	55,231	-0,381	-0,259
46,984	-10,336	-0,479	-0,223
47,999	148,602	-0,266	-0,253
49,013	-114,707	-0,341	-0,045
50,028	-1,011	-0,344	-0,171
51,042	73,140	-0,349	-0,257
52,057	76,160	-0,367	-0,273
53,071	292,819	-0,238	-0,306
54,086	177,109	-0,362	-0,372
55,101	-11,400	-0,353	-0,163
56,115	26,780	-0,292	-0,172
57,130	117,743	-0,336	-0,291
58,144	100,529	-0,352	-0,288
59,159	113,470	-0,416	-0,355
60,174	94,852	-0,347	-0,277
61,188	37,261	-0,343	-0,213
62,203	66,746	-0,437	-0,312
63,217	36,843	-0,330	-0,205
64,232	34,225	-0,323	-0,198
65,247	36,949	-0,371	-0,230
66,261	50,004	-0,313	-0,208
67,276	-23,066	-0,437	-0,185
68,290	104,159	-0,315	-0,261
69,305	150,549	-0,268	-0,256
70,320	17,973	-0,262	-0,147
71,334	-39,499	-0,317	-0,116
72,349	159,310	-0,285	-0,279
73,363	244,725	-0,283	-0,336
74,378	131,505	-0,339	-0,306
75,393	39,521	-0,347	-0,218
76,407	-102,711	-0,250	-0,041
77,422	-18,361	-0,241	-0,106
78,436	9,442	-0,372	-0,197
79,451	40,667	-0,343	-0,217
80,466	178,318	-0,319	-0,328
81,480	174,996	-0,301	-0,307
82,495	203,203	-0,189	-0,205
83,509	109,669	-0,274	-0,231
84,524	109,539	-0,201	-0,169
85,539	-102,561	-0,286	-0,048
86,553	477,988	-0,193	-0,309
87,568	67,119	-0,370	-0,264
88,582	221,502	-0,306	-0,346
89,597	50,069	-0,305	-0,202
90,611	-123,978	-0,166	-0,018
91,626	44,465	-0,291	-0,187
92,641	-12,451	-0,163	-0,074
93,655	196,398	-0,290	-0,311
94,670	-70,687	-0,358	-0,094
95,684	363,969	-0,237	-0,335
96,699	-52,250	-0,376	-0,121
97,714	66,987	-0,276	-0,197
98,728	29,245	-0,375	-0,223
99,743	-27,886	-0,202	-0,082
100,757	115,308	-0,221	-0,189
101,772	800,000	-0,136	-0,316
102,787	-55,715	-0,249	-0,078
103,801	-47,212	-0,217	-0,074
104,816	185,928	-0,200	-0,208
105,830	226,943	-0,171	-0,195
106,845	37,893	-0,310	-0,193
107,860	-46,805	-0,323	-0,110
108,874	48,491	-0,216	-0,142
109,889	-6,750	-0,355	-0,169
110,903	69,690	-0,302	-0,218
111,918	151,832	-0,236	-0,226
112,933	164,549	-0,195	-0,193
113,947	-138,021	-0,369	-0,028
114,962	-87,411	-0,284	-0,060
115,976	95,409	-0,419	-0,335
116,991	91,682	-0,266	-0,210
118,006	63,033	-0,396	-0,277
119,020	503,557	-0,260	-0,423
120,035	114,119	-0,324	-0,276
121,049	-76,774	-0,091	0,022
122,064	438,111	-0,095	-0,146
123,079	-51,537	-0,278	-0,090
124,093	71,157	-0,270	-0,196
125,108	-87,627	-0,258	-0,054
126,122	32,761	-0,244	-0,147
127,137	154,249	-0,241	-0,231
128,151	204,530	-0,140	-0,152
129,166	73,890	-0,199	-0,146
130,181	39,519	-0,258	-0,162
131,195	-60,503	-0,341	-0,101
132,210	82,743	-0,300	-0,228
133,224	87,785	-0,273	-0,212
134,239	162,166	-0,226	-0,222
135,254	-134,518	-0,276	-0,023
136,268	-89,155	-0,217	-0,044
137,283	-24,884	-0,360	-0,149
138,297	-18,608	-0,366	-0,159
139,312	67,819	-0,214	-0,153
140,327	339,422	-0,272	-0,371
141,341	87,443	-0,214	-0,165
142,356	-9,961	-0,333	-0,154
143,370	223,613	-0,213	-0,241
144,385	181,057	-0,167	-0,172
145,400	633,622	-0,134	-0,239
146,414	94,026	-0,303	-0,240
147,429	375,085	-0,133	-0,190
148,443	241,645	-0,166	-0,195
149,458	126,842	-0,190	-0,168
150,473	-98,614	-0,313	-0,055
151,487	80,712	-0,162	-0,122
152,502	0,630	-0,177	-0,088
153,516	-7,920	-0,295	-0,139
154,531	-55,126	-0,293	-0,091
155,546	44,110	-0,317	-0,203
156,560	163,672	-0,206	-0,202
157,575	-92,184	-0,263	-0,051
158,589	69,862	-0,246	-0,177
159,604	183,813	-0,218	-0,226
160,619	726,166	-0,121	-0,226
161,633	1,096	-0,243	-0,121
162,648	53,182	-0,246	-0,164
163,662	800,000	-0,100	-0,221
164,677	-47,867	-0,194	-0,065
165,692	59,795	-0,151	-0,104
166,706	53,478	-0,207	-0,138
167,721	187,943	-0,274	-0,286
168,735	135,360	-0,244	-0,222
169,750	114,279	-0,214	-0,181
170,764	800,000	-0,131	-0,302
171,779	418,174	-0,125	-0,187
172,794	-141,520	-0,129	0,009
173,808	211,649	-0,283	-0,312
174,823	283,976	-0,262	-0,329
175,837	-55,602	-0,211	-0,065
176,852	-5,284	-0,168	-0,080
177,867	111,355	-0,234	-0,196
178,881	164,088	-0,130	-0,128
179,896	37,047	-0,203	-0,125
180,910	108,333	-0,195	-0,162
181,925	97,385	-0,230	-0,184
182,940	-9,944	-0,202	-0,093
183,954	225,187	-0,145	-0,163
184,969	-32,644	-0,195	-0,075
185,983	76,933	-0,160	-0,118
186,998	126,353	-0,231	-0,204
188,013	93,068	-0,174	-0,137
189,027	241,866	-0,194	-0,226
190,042	0,140	-0,357	-0,177
191,056	55,089	-0,226	-0,151
192,071	38,710	-0,208	-0,129
193,086	-65,875	-0,339	-0,094
194,100	78,752	-0,142	-0,105
195,115	452,204	-0,072	-0,111
196,129	124,761	-0,332	-0,291
197,144	57,112	-0,304	-0,206
198,159	-115,570	-0,224	-0,029
199,173	148,461	-0,156	-0,146
200,188	265,054	-0,201	-0,245
201,202	117,878	-0,205	-0,176
202,217	614,264	-0,109	-0,190
203,232	800,000	-0,118	-0,237
204,246	23,148	-0,216	-0,123
205,261	103,036	-0,256	-0,208
206,275	-25,582	-0,199	-0,081
207,290	-200,000	-0,075	-0,247
208,304	-84,479	-0,184	-0,040
209,319	90,673	-0,104	-0,081
210,334	263,997	-0,099	-0,120
211,348	256,960	-0,173	-0,207
212,363	708,499	-0,138	-0,255
213,377	516,671	-0,118	-0,192
214,392	59,363	-0,249	-0,170
215,407	371,145	-0,112	-0,159
216,421	-93,117	-0,066	-0,013
217,436	11,910	-0,294	-0,156
218,450	682,492	-0,176	-0,320
219,465	-150,689	-0,177	0,009
220,480	800,000	-0,101	-0,221
221,494	-104,151	-0,264	0,042
222,509	-112,703	-0,129	0,018
223,523	-63,906	-0,229	-0,065
224,538	576,798	-0,162	-0,275
225,553	800,000	-0,134	-0,272
226,567	-47,451	-0,256	-0,086
227,582	8,991	-0,252	-0,132
228,596	195,908	-0,103	-0,109
229,611	254,342	-0,110	-0,130
230,626	-93,512	-0,183	-0,035
231,640	105,520	-0,221	-0,181
232,655	-95,954	-0,194	-0,035
233,669	800,000	-0,089	-0,173
234,684	-200,000	-0,031	-0,246
235,699	-200,000	-0,067	-0,247
236,713	257,735	-0,214	-0,256
237,728	-27,548	-0,177	-0,071
238,742	-90,366	-0,254	-0,051
239,757	121,685	-0,187	-0,162
240,772	-39,235	-0,204	-0,074
241,786	30,433	-0,153	-0,090
242,801	18,444	-0,168	-0,093
243,815	7,422	-0,244	-0,126
244,830	-111,653	-0,122	-0,017
245,844	-18,061	-0,212	-0,092
246,859	10,066	-0,259	-0,136
247,874	83,192	-0,113	-0,085
248,888	231,718	-0,141	-0,160
249,903	4,901	-0,302	-0,154
250,917	354,457	-0,129	-0,177
251,932	-41,808	-0,094	0,033
252,947	232,824	-0,137	-0,156
253,961	45,407	-0,239	-0,152
254,976	264,444	-0,072	-0,087
255,990	620,829	-0,103	-0,181
257,005	103,452	-0,193	-0,157
258,020	148,058	-0,202	-0,188
259,034	131,766	-0,128	-0,114
260,049	-96,067	-0,165	-0,030
261,063	-200,000	-0,033	-0,201
262,078	68,642	-0,254	-0,180
263,093	84,294	-0,160	-0,121
264,107	800,000	-0,135	-0,262
265,122	27,273	-0,127	-0,074
266,136	-1,646	-0,185	-0,090
267,151	518,918	-0,037	-0,060
268,166	403,604	-0,134	-0,195
269,180	-200,000	-0,047	-0,215
270,195	108,863	-0,145	-0,120
271,209	120,455	-0,130	-0,112
272,224	-200,000	-0,070	-0,241
273,239	800,000	0,096	-0,189
274,253	45,096	-0,135	-0,086
275,268	100,022	-0,280	-0,224
276,282	800,000	-0,145	-0,280
277,297	120,580	-0,142	-0,121
278,312	-37,892	-0,214	-0,078
279,326	-6,059	-0,219	-0,103
280,341	-57,406	-0,191	0,058
281,355	336,808	-0,036	-0,048
282,370	267,898	-0,149	-0,181
283,384	129,297	-0,183	-0,161
284,399	331,749	-0,080	-0,107
285,414	360,476	-0,068	-0,095
286,428	181,494	-0,181	-0,184
287,443	100,310	-0,112	-0,090
288,457	210,848	-0,132	-0,144
289,472	119,743	-0,228	-0,195
290,487	-160,303	-0,162	-0,006
291,501	685,243	-0,062	-0,113
292,516	-200,000	0,031	-0,207
293,530	79,769	-0,122	-0,090
294,545	-89,165	-0,237	-0,048
295,560	5,550	-0,150	-0,076
296,574	445,658	-0,121	-0,185
297,589	800,000	-0,090	-0,182
298,603	106,068	-0,210	-0,171
299,618	356,018	-0,160	-0,221
300,633	800,000	-0,058	-0,170
301,647	407,820	-0,099	-0,145
302,662	-200,000	-0,047	-0,221
303,676	151,808	-0,095	-0,090
304,691	3,129	-0,236	-0,118
305,706	-21,440	-0,225	-0,094
306,720	-127,108	-0,117	-0,012
307,735	122,553	-0,040	-0,034
308,749	10,240	-0,211	-0,110
309,764	30,082	-0,127	0,075
310,779	130,762	-0,206	-0,182
311,793	117,875	-0,208	-0,177
312,808	329,739	-0,137	-0,182
313,822	-200,000	0,004	-0,133
314,837	100,906	-0,071	0,057
315,852	81,087	-0,182	-0,135
316,866	124,694	-0,133	-0,116
317,881	-30,407	-0,228	-0,089
318,895	58,201	-0,083	-0,056
319,910	12,780	-0,281	-0,149
320,925	69,409	-0,158	-0,112
321,939	-200,000	-0,071	-0,269
322,954	-200,000	-0,039	-0,127
323,968	16,795	-0,072	0,039
324,983	519,777	-0,097	-0,157
325,997	36,592	-0,135	-0,082
327,012	-57,812	-0,276	-0,082
328,027	305,284	-0,037	-0,047
329,041	-200,000	-0,020	-0,082
330,056	-200,000	-0,028	-0,141
331,070	-163,272	-0,180	-0,006
332,085	57,793	-0,179	0,120
333,100	187,858	-0,139	-0,143
334,114	228,837	-0,158	-0,177
335,129	4,960	-0,124	-0,063
336,143	3,127	-0,123	0,061
337,158	800,000	-0,073	-0,143
338,173	54,220	-0,063	-0,042
339,187	-122,300	-0,121	-0,013
340,202	-17,543	-0,070	0,030
341,216	800,000	-0,069	-0,154
342,231	800,000	-0,113	-0,216
343,246	27,681	-0,167	-0,096
344,260	-87,951	-0,212	-0,043
345,275	418,524	-0,115	-0,170
346,289	-131,761	-0,182	-0,016
347,304	336,548	-0,129	-0,173
348,319	30,636	-0,114	-0,067
349,333	-20,993	-0,239	-0,100
350,348	146,126	-0,216	-0,199
351,362	-200,000	-0,058	-0,184
352,377	237,072	-0,182	-0,208
353,392	54,305	-0,075	-0,050
354,406	70,021	-0,129	-0,091
355,421	208,666	1317,485	1415,864
356,435	160,564	1478,577	1416,374
