DTS Sentinel unit serial number:	SN410029Multiplexer serial number:	ORYXHardware model number:	OX2-SRSoftware version number:	ORYX F/W v4,00 Oryx Data Collector v3.7.2.0data status	okinstallation	B3 Nyhavnadifferential loss correction	single-endedforward channel	channel 1reverse channel	N/Adate	2023/12/02time	09:57:30forward acquisition time	300,00reverse acquisition time	0,00gamma	499,1914k internal	0,3196k external	0,3196temperature offset calibration	1,0000default loss term (dB/km)	0,3820temperature slope calibration	1,0000multiplexer offset coefficient	1,0000multiplexer slope coefficient	1,0000fibre end	0,00T internal ref (°C)	14,82T ext. ref 1 (°C)	-0,93T ext. ref 2 (°C)	-0,95length (m)	temperature (°C)	Stokes	anti-Stokes-744,400	193,417	-0,216	-0,238
-743,385	-200,000	0,003	0,359
-742,371	343,178	-0,101	-0,145
-741,356	-200,000	-0,092	0,455
-740,342	-10,842	-0,248	-0,119
-739,327	-200,000	-0,077	0,340
-738,312	800,000	-0,094	-0,242
-737,298	-200,000	0,037	0,211
-736,283	114,604	-0,184	-0,164
-735,269	-200,000	0,070	0,371
-734,254	59,688	-0,122	-0,087
-733,239	307,081	-0,123	0,167
-732,225	397,414	-0,160	-0,244
-731,210	800,000	0,061	0,131
-730,196	22,642	0,042	0,025
-729,181	0,050	-0,091	0,047
-728,167	-200,000	0,021	-0,076
-727,152	303,553	0,049	0,067
-726,137	-54,481	-0,174	-0,057
-725,123	103,307	-0,096	-0,082
-724,108	331,277	-0,055	0,077
-723,094	-200,000	0,036	-0,166
-722,079	140,801	-0,172	-0,166
-721,064	326,660	-0,069	-0,096
-720,050	128,047	-0,093	0,086
-719,035	58,672	-0,079	0,057
-718,021	28,263	-0,068	0,042
-717,006	800,000	0,024	-0,059
-715,991	-71,502	-0,057	-0,015
-714,977	-92,610	-0,111	-0,022
-713,962	800,000	-0,060	-0,145
-712,948	108,301	0,040	0,035
-711,933	800,000	-0,017	-0,044
-710,918	800,000	-0,026	0,074
-709,904	-160,514	-0,077	-0,003
-708,889	-23,249	-0,027	-0,012
-707,875	800,000	-0,018	0,038
-706,860	-200,000	-0,001	0,018
-705,845	-83,169	-0,076	0,018
-704,831	451,037	-0,048	0,078
-703,816	0,931	0,065	-0,034
-702,802	-61,781	-0,052	0,016
-701,787	-200,000	0,037	-0,215
-700,772	-200,000	-0,009	0,033
-699,758	715,275	-0,121	0,235
-698,743	-138,840	0,171	0,013
-697,729	-200,000	0,031	0,099
-696,714	-4,943	0,038	0,019
-695,699	800,000	-0,045	-0,134
-694,685	800,000	-0,057	-0,132
-693,670	273,413	-0,076	-0,098
-692,656	-200,000	0,023	0,076
-691,641	457,112	0,087	-0,141
-690,627	-40,951	-0,172	-0,064
-689,612	-200,000	0,002	-0,064
-688,597	-200,000	-0,007	0,144
-687,583	800,000	-0,054	-0,165
-686,568	117,447	-0,104	-0,093
-685,554	800,000	-0,024	-0,051
-684,539	144,286	0,103	-0,100
-683,524	-200,000	-0,017	-0,081
-682,510	3,942	-0,069	0,037
-681,495	-200,000	0,041	0,132
-680,481	-2,795	-0,136	0,069
-679,466	46,424	0,051	0,035
-678,451	-200,000	0,000	0,069
-677,437	800,000	0,014	0,029
-676,422	-99,644	-0,109	0,020
-675,408	800,000	0,063	0,153
-674,393	-200,000	-0,004	-0,101
-673,378	635,887	0,056	-0,103
-672,364	-200,000	-0,023	0,130
-671,349	-172,806	-0,062	0,001
-670,335	-200,000	-0,009	0,094
-669,320	167,809	0,094	-0,097
-668,305	800,000	0,054	0,115
-667,291	-4,806	-0,111	0,055
-666,276	-200,000	-0,013	-0,064
-665,262	-114,920	-0,033	0,005
-664,247	-65,993	-0,108	-0,031
-663,232	-151,160	0,010	0,001
-662,218	538,485	-0,028	0,048
-661,203	-200,000	-0,020	-0,089
-660,189	-200,000	0,018	-0,088
-659,174	-200,000	0,009	-0,053
-658,159	-82,784	-0,161	-0,037
-657,145	-200,000	-0,000	0,031
-656,130	310,942	0,023	-0,032
-655,116	-28,666	0,125	-0,052
-654,101	-149,781	-0,110	-0,006
-653,086	800,000	-0,022	-0,070
-652,072	-27,468	-0,162	-0,068
-651,057	-200,000	-0,026	-0,122
-650,043	-14,499	-0,074	-0,034
-649,028	-79,982	-0,044	-0,011
-648,014	800,000	-0,027	-0,080
-646,999	-200,000	0,001	0,027
-645,984	-200,000	0,015	-0,076
-644,970	242,555	0,042	0,051
-643,955	105,297	-0,030	0,026
-642,941	359,421	0,019	-0,027
-641,926	5,174	-0,065	-0,034
-640,911	800,000	0,035	0,108
-639,897	14,259	0,054	-0,030
-638,882	-102,269	0,045	-0,008
-637,868	-29,226	-0,032	-0,013
-636,853	791,314	-0,069	-0,139
-635,838	729,685	-0,058	-0,113
-634,824	-58,244	-0,110	-0,035
-633,809	-108,908	0,083	-0,013
-632,795	-200,000	-0,003	-0,039
-631,780	572,414	-0,011	0,019
-630,765	-32,583	-0,080	-0,032
-629,751	354,965	0,027	0,039
-628,736	800,000	-0,036	0,106
-627,722	9,238	-0,091	-0,050
-626,707	86,345	0,041	-0,033
-625,692	264,132	0,047	0,060
-624,678	-200,000	-0,033	-0,108
-623,663	229,070	-0,084	-0,100
-622,649	-200,000	-0,019	-0,064
-621,634	-200,000	-0,011	-0,072
-620,619	-200,000	0,006	0,028
-619,605	406,748	-0,038	0,058
-618,590	-110,473	-0,108	-0,016
-617,576	-178,856	-0,147	0,002
-616,561	-200,000	-0,002	0,032
-615,546	-200,000	0,027	-0,134
-614,532	547,391	-0,096	-0,167
-613,517	-98,666	-0,101	-0,018
-612,503	-200,000	-0,007	-0,046
-611,488	124,500	0,121	0,110
-610,474	19,621	0,031	0,018
-609,459	338,663	0,015	0,022
-608,444	214,528	0,015	0,017
-607,430	-200,000	-0,009	-0,047
-606,415	-200,000	0,018	-0,102
-605,401	-28,202	0,134	-0,056
-604,386	335,934	0,055	-0,077
-603,371	-200,000	-0,009	0,036
-602,357	-200,000	-0,020	-0,066
-601,342	-86,908	-0,134	-0,029
-600,328	-200,000	-0,013	-0,058
-599,313	9,525	-0,057	-0,031
-598,298	-132,847	-0,101	-0,009
-597,284	800,000	-0,007	0,019
-596,269	800,000	-0,028	-0,064
-595,255	-152,082	-0,092	-0,005
-594,240	32,921	-0,091	0,057
-593,225	800,000	-0,023	0,046
-592,211	576,483	-0,050	-0,089
-591,196	106,712	-0,041	-0,035
-590,182	224,854	0,057	0,067
-589,167	360,918	0,024	-0,036
-588,152	-14,265	0,045	-0,021
-587,138	-19,145	0,108	-0,048
-586,123	178,470	-0,051	0,054
-585,109	421,101	-0,046	-0,072
-584,094	83,988	-0,047	0,037
-583,079	-200,000	-0,000	0,113
-582,065	-108,876	0,094	0,014
-581,050	263,524	0,026	-0,033
-580,036	-200,000	-0,009	-0,039
-579,021	225,161	0,027	-0,031
-578,006	-200,000	-0,003	-0,040
-576,992	267,305	0,007	0,009
-575,977	800,000	0,030	-0,062
-574,963	800,000	-0,026	-0,079
-573,948	-200,000	0,018	0,102
-572,934	800,000	-0,075	-0,191
-571,919	153,901	0,081	-0,080
-570,904	96,293	0,033	-0,027
-569,890	-107,622	0,098	0,015
-568,875	-63,754	-0,161	-0,047
-567,861	86,905	0,045	0,036
-566,846	26,391	0,066	0,040
-565,831	584,008	-0,048	0,086
-564,817	26,687	-0,068	0,041
-563,802	146,029	-0,041	-0,040
-562,788	164,440	-0,075	-0,077
-561,773	-200,000	0,010	0,046
-560,758	569,091	-0,032	-0,056
-559,744	461,901	0,053	0,085
-558,729	482,425	0,049	-0,081
-557,715	626,771	0,036	0,066
-556,700	40,549	-0,029	0,019
-555,685	-200,000	0,037	-0,124
-554,671	234,136	0,027	0,032
-553,656	-30,414	0,025	-0,010
-552,642	293,525	-0,009	0,012
-551,627	800,000	0,026	-0,081
-550,612	99,908	0,116	0,097
-549,598	-72,496	-0,086	0,023
-548,583	800,000	0,057	0,170
-547,569	-200,000	0,002	0,017
-546,554	125,506	0,109	0,100
-545,539	653,545	0,073	0,136
-544,525	161,823	0,038	0,039
-543,510	-6,679	-0,154	-0,076
-542,496	137,263	-0,135	0,128
-541,481	180,521	0,082	0,087
-540,466	57,705	-0,098	0,069
-539,452	73,208	0,015	0,012
-538,437	-13,927	-0,118	-0,055
-537,423	-133,436	-0,063	-0,006
-536,408	-115,503	-0,125	0,017
-535,393	800,000	0,031	-0,086
-534,379	-140,990	-0,031	-0,002
-533,364	285,780	-0,062	0,081
-532,350	243,765	0,044	-0,053
-531,335	728,706	0,041	0,080
-530,321	-200,000	-0,039	0,185
-529,306	800,000	-0,031	0,066
-528,291	-200,000	-0,020	-0,110
-527,277	321,357	0,052	-0,072
-526,262	-200,000	-0,012	-0,110
-525,248	-49,952	0,054	-0,018
-524,233	139,580	0,057	0,054
-523,218	602,184	0,014	-0,026
-522,204	57,174	0,117	-0,082
-521,189	-73,591	-0,166	0,043
-520,175	714,279	0,046	0,088
-519,160	-200,000	0,029	-0,106
-518,145	549,302	0,037	-0,065
-517,131	189,267	-0,082	0,089
-516,116	-200,000	0,009	0,213
-515,102	800,000	-0,020	-0,041
-514,087	800,000	-0,079	-0,193
-513,072	489,977	0,049	-0,081
-512,058	17,003	-0,091	0,052
-511,043	-82,407	0,039	-0,009
-510,029	76,156	-0,043	-0,033
-509,014	-200,000	-0,028	0,137
-507,999	-95,516	-0,089	0,017
-506,985	-134,503	-0,062	-0,005
-505,970	11,143	-0,037	-0,020
-504,956	-120,210	0,084	-0,010
-503,941	-101,978	-0,075	-0,013
-502,926	-136,301	-0,091	0,008
-501,912	346,011	-0,042	-0,060
-500,897	26,495	0,117	-0,071
-499,883	-24,605	-0,098	0,042
-498,868	49,089	0,079	-0,054
-497,853	50,630	-0,021	-0,014
-496,839	-200,000	-0,012	0,091
-495,824	-47,231	0,078	0,027
-494,810	-84,504	0,087	-0,020
-493,795	-200,000	-0,001	0,005
-492,781	379,481	-0,026	-0,038
-491,766	-200,000	-0,005	-0,212
-490,751	-151,937	-0,085	0,004
-489,737	382,761	0,086	-0,128
-488,722	-27,582	0,073	-0,030
-487,708	800,000	-0,005	0,016
-486,693	-200,000	0,031	-0,107
-485,678	-93,739	0,096	0,019
-484,664	-80,132	-0,138	0,033
-483,649	-200,000	0,002	-0,060
-482,635	183,220	0,124	-0,133
-481,620	226,975	-0,078	0,092
-480,605	185,052	0,035	0,038
-479,591	73,292	0,037	-0,028
-478,576	152,044	0,017	-0,016
-477,562	242,944	-0,060	-0,073
-476,547	19,200	0,102	-0,059
-475,532	-200,000	-0,019	-0,071
-474,518	252,103	-0,034	0,042
-473,503	-166,720	-0,073	0,002
-472,489	85,650	0,064	-0,051
-471,474	-200,000	0,007	0,097
-470,459	800,000	0,031	0,065
-469,445	570,354	-0,059	0,105
-468,430	800,000	0,032	-0,097
-467,416	442,470	-0,094	-0,149
-466,401	-109,576	0,214	-0,032
-465,386	553,894	-0,030	0,052
-464,372	-152,995	0,051	0,003
-463,357	-200,000	0,037	0,125
-462,343	800,000	-0,025	-0,077
-461,328	-98,722	0,097	-0,018
-460,313	154,466	0,058	-0,058
-459,299	-200,000	-0,003	0,064
-458,284	235,279	-0,088	0,105
-457,270	-200,000	-0,001	-0,015
-456,255	-200,000	-0,042	-0,135
-455,241	-200,000	-0,007	0,090
-454,226	-200,000	0,029	-0,096
-453,211	72,077	0,083	-0,062
-452,197	243,220	0,065	0,079
-451,182	800,000	-0,018	0,053
-450,168	-103,962	-0,160	0,027
-449,153	468,488	0,045	-0,073
-448,138	613,585	-0,033	-0,059
-447,124	-200,000	-0,013	-0,092
-446,109	231,338	-0,047	-0,056
-445,095	-200,000	-0,003	-0,014
-444,080	131,078	-0,027	0,025
-443,065	11,840	0,041	-0,023
-442,051	695,297	-0,083	0,157
-441,036	-36,777	-0,170	0,065
-440,022	309,476	0,026	0,035
-439,007	453,709	-0,015	-0,024
-437,992	-0,351	0,102	-0,052
-436,978	206,972	0,065	0,073
-435,963	-200,000	-0,030	0,195
-434,949	485,364	-0,038	0,063
-433,934	-17,566	-0,093	0,042
-432,919	16,769	-0,018	-0,010
-431,905	116,511	-0,091	-0,080
-430,890	-179,060	0,090	-0,001
-429,876	-123,703	-0,086	0,010
-428,861	116,746	0,128	-0,113
-427,846	-111,159	-0,055	-0,008
-426,832	800,000	-0,038	-0,083
-425,817	-200,000	-0,028	-0,225
-424,803	-103,716	0,056	-0,009
-423,788	122,895	0,052	0,047
-422,773	-153,406	0,066	0,003
-421,759	534,712	0,047	0,081
-420,744	84,881	-0,039	0,030
-419,730	141,744	-0,030	-0,029
-418,715	-200,000	-0,005	-0,059
-417,701	-91,182	-0,125	0,026
-416,686	-152,978	-0,039	0,002
-415,671	-200,000	0,024	0,102
-414,657	156,325	-0,094	0,093
-413,642	-200,000	-0,025	0,140
-412,628	-11,326	0,120	-0,057
-411,613	767,717	-0,042	-0,082
-410,598	-200,000	0,011	0,036
-409,584	219,328	0,067	0,078
-408,569	-200,000	0,002	0,032
-407,555	-55,221	-0,045	0,014
-406,540	800,000	0,027	-0,075
-405,525	-111,297	-0,162	-0,024
-404,511	706,695	-0,066	0,126
-403,496	0,934	-0,100	-0,051
-402,482	153,149	0,123	-0,121
-401,467	523,152	-0,034	-0,057
-400,452	-200,000	0,023	0,076
-399,438	-200,000	0,010	-0,070
-398,423	456,798	-0,085	0,136
-397,409	31,473	-0,088	0,054
-396,394	-200,000	-0,013	-0,144
-395,379	398,100	0,028	-0,043
-394,365	736,551	-0,033	0,064
-393,350	558,412	0,067	0,116
-392,336	45,959	-0,052	-0,034
-391,321	800,000	-0,009	0,027
-390,306	-200,000	0,018	-0,073
-389,292	-109,749	-0,094	-0,014
-388,277	197,659	0,067	-0,073
-387,263	405,589	0,036	-0,054
-386,248	622,370	-0,013	0,024
-385,233	192,743	-0,039	-0,042
-384,219	-200,000	0,057	0,231
-383,204	229,895	-0,050	-0,059
-382,190	-34,301	0,047	-0,018
-381,175	-94,894	-0,072	-0,014
-380,160	-200,000	0,029	0,094
-379,146	-200,000	0,014	0,109
-378,131	-47,814	0,055	-0,019
-377,117	79,155	-0,091	-0,070
-376,102	40,819	-0,027	-0,018
-375,088	373,779	-0,062	-0,091
-374,073	22,558	0,046	-0,027
-373,058	539,533	0,051	-0,088
-372,044	-129,055	0,063	-0,006
-371,029	135,018	0,062	-0,058
-370,015	54,064	0,038	0,026
-369,000	44,270	-0,100	-0,066
-367,985	-200,000	0,010	-0,146
-366,971	-200,000	0,004	0,037
-365,956	-94,550	-0,081	0,016
-364,942	-200,000	-0,005	-0,057
-363,927	800,000	0,044	-0,092
-362,912	-200,000	0,007	0,064
-361,898	-85,547	-0,049	-0,011
-360,883	-175,325	0,080	-0,002
-359,869	649,544	0,036	-0,066
-358,854	277,338	0,061	-0,078
-357,839	-30,769	0,066	-0,027
-356,825	800,000	0,055	0,127
-355,810	800,000	0,046	0,126
-354,796	-73,913	-0,080	0,021
-353,781	-132,111	-0,055	-0,005
-352,766	-200,000	-0,019	0,083
-351,752	-200,000	0,025	-0,110
-350,737	391,247	-0,107	0,160
-349,723	462,545	0,025	-0,039
-348,708	-10,214	0,171	-0,081
-347,693	800,000	-0,090	0,191
-346,679	-134,477	-0,069	-0,006
-345,664	-200,000	-0,018	-0,120
-344,650	-200,000	-0,021	0,120
-343,635	-200,000	0,001	-0,111
-342,620	5,407	-0,147	0,078
-341,606	128,880	0,064	0,058
-340,591	-83,450	0,168	0,038
-339,577	319,064	-0,116	-0,158
-338,562	800,000	-0,055	-0,165
-337,548	-200,000	0,007	0,079
-336,533	-200,000	-0,008	0,029
-335,518	157,798	0,079	0,079
-334,504	178,470	-0,032	0,034
-333,489	-200,000	-0,009	-0,029
-332,475	595,031	-0,007	0,012
-331,460	-5,630	-0,096	0,047
-330,445	-26,522	0,058	0,024
-329,431	227,853	0,063	0,073
-328,416	-200,000	-0,024	0,140
-327,402	-200,000	0,009	0,062
-326,387	-118,903	-0,051	0,006
-325,372	-130,343	0,193	-0,018
-324,358	-200,000	0,019	-0,118
-323,343	-200,000	0,026	0,173
-322,329	-200,000	0,020	-0,108
-321,314	109,228	0,068	-0,058
-320,299	-121,953	0,020	0,002
-319,285	-200,000	0,006	0,061
-318,270	85,191	-0,038	0,030
-317,256	-200,000	-0,000	0,020
-316,241	105,855	-0,069	-0,058
-315,226	-55,273	0,075	-0,024
-314,212	580,128	0,025	0,044
-313,197	800,000	0,021	0,054
-312,183	-195,121	-0,108	-0,001
-311,168	5,578	0,055	-0,029
-310,153	636,834	0,045	0,082
-309,139	346,960	0,067	-0,095
-308,124	-37,901	0,123	0,047
-307,110	-130,918	0,154	-0,015
-306,095	574,891	-0,046	0,081
-305,080	-200,000	-0,007	-0,050
-304,066	304,552	-0,061	-0,082
-303,051	-147,705	-0,098	0,006
-302,037	-29,374	-0,101	0,041
-301,022	66,731	0,035	-0,026
-300,008	-99,154	0,142	-0,026
-298,993	-200,000	-0,001	0,151
-297,978	165,995	-0,075	-0,076
-296,964	230,385	-0,062	-0,073
-295,949	-34,480	0,044	0,017
-294,935	800,000	-0,010	-0,031
-293,920	-132,051	0,100	-0,009
-292,905	-110,938	-0,012	0,002
-291,891	253,388	0,008	-0,010
-290,876	-182,471	0,102	-0,001
-289,862	-61,917	0,040	-0,012
-288,847	-200,000	-0,010	-0,044
-287,832	-200,000	-0,021	-0,075
-286,818	9,430	-0,044	0,024
-285,803	212,072	0,021	0,024
-284,789	180,536	0,132	0,138
-283,774	-200,000	0,029	0,162
-282,759	259,937	0,060	-0,074
-281,745	-200,000	-0,047	-0,172
-280,730	800,000	-0,010	-0,027
-279,716	-114,146	0,189	0,026
-278,701	-157,040	-0,041	-0,002
-277,686	-161,360	0,218	-0,008
-276,672	23,435	0,128	0,075
-275,657	417,714	0,049	0,075
-274,643	18,861	0,054	-0,031
-273,628	0,516	-0,052	-0,026
-272,613	37,686	0,081	0,051
-271,599	85,099	0,029	0,023
-270,584	76,671	0,084	0,064
-269,570	84,818	0,108	-0,085
-268,555	13,137	-0,026	0,014
-267,540	380,451	-0,040	-0,059
-266,526	478,026	0,035	-0,058
-265,511	207,337	-0,086	0,096
-264,497	-8,033	0,101	-0,049
-263,482	-200,000	0,016	-0,083
-262,467	800,000	0,053	0,105
-261,453	-200,000	0,003	0,098
-260,438	-145,824	-0,057	-0,004
-259,424	193,834	0,043	0,046
-258,409	-200,000	0,000	0,033
-257,395	437,808	-0,022	-0,034
-256,380	-63,977	-0,101	0,029
-255,365	-47,698	-0,101	0,035
-254,351	800,000	0,065	-0,152
-253,336	-111,663	0,128	0,018
-252,322	139,095	-0,044	-0,042
-251,307	-110,820	-0,099	-0,014
-250,292	-190,066	0,058	-0,000
-249,278	131,072	0,049	-0,045
-248,263	800,000	-0,020	0,049
-247,249	251,774	0,070	-0,085
-246,234	29,622	-0,114	0,069
-245,219	800,000	-0,058	-0,140
-244,205	304,982	-0,065	-0,086
-243,190	27,897	-0,125	0,075
-242,176	57,417	-0,032	-0,022
-241,161	494,705	0,034	0,056
-240,146	-200,000	-0,006	-0,019
-239,132	800,000	0,025	-0,053
-238,117	143,033	-0,049	-0,047
-237,103	525,992	-0,038	-0,065
-236,088	-200,000	-0,021	-0,119
-235,073	-51,222	0,092	-0,031
-234,059	61,357	0,065	0,046
-233,044	-200,000	-0,003	0,044
-232,030	-178,411	0,152	0,002
-231,015	45,204	0,061	0,040
-230,000	196,954	-0,056	0,061
-228,986	-44,377	0,077	0,027
-227,971	-200,000	0,035	0,182
-226,957	-90,130	0,128	0,026
-225,942	754,987	-0,098	0,190
-224,927	7,613	0,074	0,039
-223,913	390,155	0,058	0,086
-222,898	105,272	0,056	-0,047
-221,884	83,018	-0,040	-0,031
-220,869	549,647	0,063	-0,109
-219,855	50,263	0,039	0,026
-218,840	-200,000	0,022	0,135
-217,825	-200,000	-0,030	0,214
-216,811	2,239	-0,088	-0,045
-215,796	800,000	0,053	-0,123
-214,782	-200,000	-0,001	0,076
-213,767	800,000	0,043	-0,099
-212,752	-121,485	0,195	0,023
-211,738	245,032	-0,040	-0,048
-210,723	-15,071	0,010	0,005
-209,709	-200,000	0,010	0,067
-208,694	24,912	-0,099	0,058
-207,679	-200,000	0,010	0,037
-206,665	555,172	0,082	0,141
-205,650	496,713	-0,013	0,022
-204,636	166,641	0,075	-0,076
-203,621	215,583	-0,081	-0,092
-202,606	-200,000	0,044	0,191
-201,592	602,768	-0,062	-0,110
-200,577	147,304	-0,014	-0,013
-199,563	-115,565	-0,093	0,012
-198,548	213,412	0,087	-0,098
-197,533	-128,511	0,039	-0,004
-196,519	-30,229	0,113	0,046
-195,504	76,864	0,059	0,044
-194,490	637,017	0,042	0,077
-193,475	333,339	-0,106	0,147
-192,460	198,066	-0,061	0,066
-191,446	-157,464	0,029	-0,001
-190,431	-91,302	-0,102	0,021
-189,417	116,940	-0,071	0,062
-188,402	539,584	-0,059	-0,100
-187,387	-155,908	-0,061	-0,003
-186,373	123,395	-0,156	0,140
-185,358	413,047	0,023	-0,035
-184,344	-156,773	0,173	-0,007
-183,329	-54,374	0,122	-0,039
-182,315	288,449	-0,057	0,074
-181,300	176,394	0,065	-0,067
-180,285	-200,000	0,007	0,086
-179,271	280,658	-0,056	-0,071
-178,256	-89,811	0,042	0,009
-177,242	355,723	-0,012	0,017
-176,227	126,973	0,093	0,084
-175,212	-200,000	0,026	0,135
-174,198	-62,075	0,055	0,016
-173,183	-22,576	0,046	-0,020
-172,169	-200,000	-0,047	-0,192
-171,154	-200,000	-0,000	-0,064
-170,139	-78,933	-0,036	-0,009
-169,125	-52,737	0,133	0,043
-168,110	-200,000	-0,025	0,173
-167,096	-200,000	-0,018	0,181
-166,081	-119,938	-0,098	-0,012
-165,066	-74,575	-0,064	-0,016
-164,052	164,311	-0,058	0,058
-163,037	74,807	0,082	-0,061
-162,023	143,277	0,092	0,087
-161,008	-5,718	-0,067	0,033
-159,993	-33,097	-0,055	0,022
-158,979	-84,262	-0,031	-0,007
-157,964	800,000	-0,052	-0,114
-156,950	387,945	-0,071	0,105
-155,935	-144,885	-0,032	0,002
-154,920	496,445	-0,083	0,137
-153,906	-42,929	-0,056	-0,020
-152,891	-200,000	-0,019	-0,089
-151,877	796,817	-0,039	-0,076
-150,862	-116,217	-0,099	0,013
-149,847	-200,000	-0,031	-0,105
-148,833	140,457	0,065	-0,061
-147,818	80,999	0,074	-0,057
-146,804	27,682	-0,133	0,079
-145,789	-80,715	0,019	-0,004
-144,775	-136,867	0,018	-0,001
-143,760	173,408	-0,067	-0,069
-142,745	71,665	0,086	-0,064
-141,731	263,003	0,059	-0,073
-140,716	-73,566	-0,067	-0,017
-139,702	-80,185	0,144	0,034
-138,687	800,000	0,020	0,043
-137,672	-139,927	0,066	-0,005
-136,658	800,000	-0,021	0,064
-135,643	-200,000	-0,005	0,089
-134,629	55,795	0,095	0,066
-133,614	226,760	-0,027	-0,032
-132,599	-29,872	0,088	-0,035
-131,585	-200,000	-0,008	-0,044
-130,570	-200,000	-0,008	-0,105
-129,556	-161,804	-0,086	-0,003
-128,541	5,522	0,088	0,046
-127,526	-107,531	-0,060	0,009
-126,512	-23,101	-0,092	0,039
-125,497	25,888	0,031	0,018
-124,483	-48,347	0,074	0,025
-123,468	224,114	0,076	0,088
-122,453	237,998	0,019	-0,022
-121,439	-200,000	-0,015	0,052
-120,424	392,959	-0,012	0,018
-119,410	-200,000	-0,009	0,032
-118,395	212,142	0,018	-0,020
-117,380	-40,007	0,137	-0,050
-116,366	6,403	0,089	0,047
-115,351	-118,557	-0,208	0,026
-114,337	-130,571	-0,073	-0,007
-113,322	-24,127	0,016	0,007
-112,307	-200,000	-0,007	0,255
-111,293	800,000	-0,007	-0,014
-110,278	51,255	0,253	0,170
-109,264	-200,000	0,019	0,066
-108,249	-97,907	-0,048	0,009
-107,234	-200,000	0,003	0,129
-106,220	78,474	0,099	0,075
-105,205	362,230	0,045	0,065
-104,191	395,574	0,008	0,012
-103,176	39,173	0,150	0,095
-102,162	-200,000	0,007	0,052
-101,147	-200,000	0,030	-0,095
-100,132	159,377	-0,059	0,058
-99,118	2,025	0,076	-0,039
-98,103	-81,943	-0,038	0,009
-97,089	-59,887	0,082	-0,025
-96,074	-200,000	0,009	0,114
-95,059	-62,326	0,154	0,045
-94,045	-200,000	0,006	0,046
-93,030	-200,000	-0,031	0,112
-92,016	-44,833	-0,051	-0,018
-91,001	-63,529	0,134	-0,039
-89,986	-200,000	-0,008	0,063
-88,972	800,000	0,014	-0,038
-87,957	-200,000	0,001	-0,007
-86,943	-200,000	-0,018	-0,120
-85,928	800,000	-0,057	-0,143
-84,913	-200,000	0,017	-0,071
-83,899	59,440	0,091	0,063
-82,884	800,000	0,030	-0,089
-81,870	126,823	0,120	0,108
-80,855	-101,153	-0,154	0,027
-79,840	-121,227	-0,068	0,008
-78,826	586,010	0,038	-0,066
-77,811	145,379	-0,030	-0,028
-76,797	-200,000	0,000	0,017
-75,782	-112,649	-0,102	-0,014
-74,767	-62,463	-0,074	0,022
-73,753	430,144	-0,047	0,072
-72,738	-33,475	-0,128	-0,050
-71,724	-38,934	0,057	-0,021
-70,709	-123,591	-0,069	-0,008
-69,694	51,598	-0,036	-0,024
-68,680	-141,884	0,036	-0,003
-67,665	157,765	-0,072	0,071
-66,651	48,914	0,023	0,015
-65,636	110,419	-0,019	0,016
-64,622	451,521	0,048	0,076
-63,607	-200,000	-0,009	-0,033
-62,592	244,121	-0,029	0,034
-61,578	-35,479	0,103	0,040
-60,563	527,322	0,064	-0,107
-59,549	20,765	-0,037	0,021
-58,534	-31,552	-1,496	-0,593
-57,519	367,429	-1,553	-2,230
-56,505	-200,000	-0,444	-4,456
-55,490	140,053	0,806	0,754
-54,476	800,000	4,905	11,222
-53,461	-200,000	18,175	291,370
-52,446	800,000	728,790	2242,771
-51,432	558,614	1645,037	2825,970
-50,417	79,123	1665,601	1264,069
-49,403	22,663	1539,411	891,406
-48,388	16,694	1462,438	817,880
-47,373	17,914	1452,296	818,059
-46,359	17,229	1442,664	809,320
-45,344	14,976	1437,843	795,811
-44,330	14,885	1436,196	794,435
-43,315	14,846	1434,502	793,282
-42,300	14,892	1432,941	792,607
-41,286	14,923	1431,630	791,995
-40,271	14,897	1430,499	791,216
-39,257	14,883	1429,070	790,325
-38,242	14,971	1427,681	789,944
-37,227	14,942	1426,664	789,211
-36,213	14,937	1425,297	788,403
-35,198	14,907	1424,238	787,642
-34,184	14,918	1423,369	787,183
-33,169	14,909	1421,783	786,231
-32,154	14,967	1420,923	786,001
-31,140	14,910	1419,730	785,040
-30,125	14,972	1418,486	784,612
-29,111	14,973	1417,253	783,904
-28,096	14,933	1416,229	783,116
-27,082	14,885	1415,159	782,269
-26,067	14,836	1414,150	781,449
-25,052	14,869	1412,898	780,881
-24,038	14,850	1411,815	780,166
-23,023	14,836	1411,001	779,617
-22,009	14,829	1409,811	778,895
-20,994	14,811	1409,232	778,460
-19,979	14,810	1407,973	777,731
-18,965	14,816	1407,139	777,264
-17,950	14,768	1406,312	776,553
-16,936	14,749	1405,209	775,826
-15,921	14,752	1404,124	775,211
-14,906	14,723	1403,344	774,613
-13,892	14,759	1402,328	774,190
-12,877	14,764	1401,420	773,679
-11,863	14,715	1400,671	773,011
-10,848	14,739	1399,651	772,525
-9,833	14,701	1398,847	771,873
-8,819	14,688	1398,069	771,356
-7,804	14,652	1397,045	770,593
-6,790	14,657	1396,077	770,050
-5,775	14,653	1395,009	769,411
-4,760	14,687	1393,967	768,965
-3,746	14,653	1393,156	768,332
-2,731	14,679	1392,318	767,955
-1,717	14,642	1391,384	767,242
-0,702	14,673	1389,628	766,384
0,313	18,320	1308,403	738,534
1,327	34,636	705,906	436,283
2,342	53,253	124,388	84,321
3,356	4,782	16,636	8,636
4,371	6,248	3,278	1,718
5,386	7,138	0,439	0,231
6,400	-200,000	-0,007	0,114
7,415	20,624	-0,325	-0,186
8,429	-115,402	-0,251	-0,033
9,444	-7,614	-0,370	-0,177
10,459	41,569	-0,396	-0,253
11,473	-22,898	-0,273	-0,116
12,488	-116,172	-0,390	0,051
13,502	105,596	-0,279	-0,233
14,517	-93,456	-0,350	-0,068
15,531	184,977	-0,220	-0,231
16,546	331,391	-0,268	-0,367
17,561	76,997	-0,369	-0,277
18,575	-66,468	-0,235	-0,066
19,590	162,846	-0,249	-0,248
20,604	75,225	-0,252	-0,188
21,619	-7,064	-0,544	-0,260
22,634	33,529	-0,465	-0,285
23,648	53,577	-0,403	-0,273
24,663	-35,652	-0,366	-0,140
25,677	117,614	-0,299	-0,260
26,692	510,499	-0,170	-0,281
27,707	3,117	-0,306	-0,157
28,721	40,900	-0,345	-0,220
29,736	-2,115	-0,406	-0,201
30,750	391,989	-0,377	-0,555
31,765	156,749	-0,369	-0,360
32,780	64,409	-0,396	-0,282
33,794	143,132	-0,468	-0,440
34,809	354,412	-0,259	-0,365
35,823	56,121	-0,367	-0,252
36,838	198,852	-0,375	-0,406
37,853	164,290	-0,291	-0,290
38,867	238,101	-0,258	-0,303
39,882	402,389	-0,230	-0,342
40,896	31,373	-0,301	-0,182
41,911	-16,208	-0,334	-0,149
42,926	-19,827	-0,372	-0,162
43,940	60,920	-0,319	-0,223
44,955	124,510	-0,430	-0,382
45,969	101,888	-0,346	-0,285
46,984	122,044	-0,274	-0,242
47,999	82,606	-0,392	-0,300
49,013	38,793	-0,442	-0,278
50,028	6,807	-0,296	-0,155
51,042	29,811	-0,359	-0,215
52,057	19,394	-0,464	-0,262
53,071	165,718	-0,282	-0,282
54,086	76,406	-0,364	-0,272
55,101	151,972	-0,281	-0,270
56,115	-8,933	-0,354	-0,166
57,130	58,471	-0,356	-0,246
58,144	-5,611	-0,423	-0,204
59,159	114,542	-0,319	-0,274
60,174	111,299	-0,256	-0,218
61,188	-12,047	-0,405	-0,186
62,203	156,433	-0,330	-0,322
63,217	20,767	-0,277	-0,158
64,232	-179,816	-0,388	-0,006
65,247	-6,953	-0,422	-0,201
66,261	23,281	-0,399	-0,231
67,276	-30,716	-0,316	-0,125
68,290	422,679	-0,232	-0,353
69,305	34,322	-0,231	-0,142
70,320	70,175	-0,295	-0,214
71,334	192,212	-0,197	-0,210
72,349	63,279	-0,279	-0,197
73,363	75,333	-0,369	-0,274
74,378	10,968	-0,327	-0,176
75,393	139,160	-0,335	-0,311
76,407	-19,692	-0,378	-0,164
77,422	119,034	-0,157	-0,137
78,436	55,813	-0,289	-0,197
79,451	30,823	-0,356	-0,214
80,466	34,966	-0,287	-0,176
81,480	800,000	-0,139	-0,289
82,495	354,991	-0,293	-0,411
83,509	800,000	-0,138	-0,292
84,524	158,547	-0,155	-0,151
85,539	146,943	-0,191	-0,181
86,553	68,753	-0,303	-0,218
87,568	29,813	-0,328	-0,196
88,582	305,241	-0,195	-0,256
89,597	34,360	-0,325	-0,199
90,611	543,113	-0,201	-0,338
91,626	86,969	-0,226	-0,176
92,641	41,895	-0,188	-0,120
93,655	-45,779	-0,350	-0,121
94,670	140,474	-0,272	-0,253
95,684	46,034	-0,374	-0,243
96,699	-29,350	-0,289	-0,116
97,714	41,768	-0,259	-0,165
98,728	552,255	-0,146	-0,248
99,743	338,154	-0,116	-0,158
100,757	152,105	-0,260	-0,250
101,772	800,000	-0,129	-0,279
102,787	-0,648	-0,311	-0,155
103,801	131,631	-0,183	-0,165
104,816	-0,404	-0,186	-0,093
105,830	182,442	-0,287	-0,297
106,845	-17,361	-0,278	-0,122
107,860	2,760	-0,215	-0,109
108,874	-44,454	-0,309	-0,108
109,889	148,167	-0,247	-0,234
110,903	8,371	-0,312	-0,164
111,918	99,261	-0,216	-0,175
112,933	4,600	-0,254	-0,131
113,947	115,280	-0,169	-0,145
114,962	-99,271	-0,190	-0,033
115,976	39,529	-0,323	-0,203
116,991	-61,195	-0,293	-0,086
118,006	182,623	-0,251	-0,260
119,020	183,326	-0,186	-0,193
120,035	210,160	-0,148	-0,163
121,049	-52,543	-0,195	-0,063
122,064	-59,183	-0,328	-0,099
123,079	76,981	-0,232	-0,173
124,093	39,023	-0,267	-0,167
125,108	66,681	-0,237	-0,169
126,122	-99,024	-0,302	0,053
127,137	70,095	-0,256	-0,185
128,151	800,000	-0,098	-0,280
129,166	253,955	-0,159	-0,191
130,181	1,428	-0,340	-0,171
131,195	74,643	-0,147	-0,108
132,210	-61,078	-0,213	-0,062
133,224	40,321	-0,234	-0,147
134,239	70,951	-0,155	-0,113
135,254	3,435	-0,150	-0,076
136,268	-75,341	-0,155	-0,038
137,283	209,740	-0,161	-0,177
138,297	-200,000	-0,090	-0,341
139,312	27,696	-0,230	-0,135
140,327	23,367	-0,192	-0,110
141,341	16,867	-0,138	0,076
142,356	770,812	-0,149	-0,285
143,370	274,605	-0,108	-0,134
144,385	50,512	-0,234	-0,154
145,400	35,720	-0,248	-0,152
146,414	4,763	-0,240	-0,123
147,429	42,305	-0,272	-0,173
148,443	-32,363	-0,356	-0,138
149,458	-6,692	-0,137	-0,065
150,473	289,327	-0,169	-0,215
151,487	-18,389	-0,296	-0,129
152,502	56,788	-0,205	-0,140
153,516	297,777	-0,243	-0,313
154,531	204,119	-0,272	-0,295
155,546	314,740	-0,132	-0,174
156,560	80,855	-0,232	-0,175
157,575	340,078	-0,135	-0,184
158,589	-58,131	-0,167	-0,051
159,604	-93,080	-0,178	-0,034
160,619	12,263	-0,235	-0,126
161,633	91,610	-0,172	-0,135
162,648	174,836	-0,220	-0,222
163,662	320,006	-0,200	-0,266
164,677	194,364	-0,199	-0,211
165,692	182,549	-0,140	-0,144
166,706	123,681	-0,267	-0,234
167,721	141,091	-0,261	-0,241
168,735	57,656	-0,231	-0,157
169,750	84,935	-0,161	-0,123
170,764	-5,031	-0,152	-0,073
171,779	8,001	-0,248	-0,130
172,794	-18,847	-0,235	-0,102
173,808	178,313	-0,173	-0,176
174,823	-91,513	-0,251	-0,049
175,837	-3,350	-0,249	-0,120
176,852	266,704	-0,176	-0,215
177,867	724,161	-0,154	-0,287
178,881	78,142	-0,239	-0,178
179,896	139,121	-0,118	-0,109
180,910	13,737	-0,326	-0,176
181,925	159,424	-0,261	-0,254
182,940	124,365	-0,172	-0,151
183,954	40,091	-0,220	-0,137
184,969	-87,608	-0,149	-0,031
185,983	196,098	-0,116	-0,124
186,998	67,892	-0,145	-0,103
188,013	63,289	-0,221	-0,154
189,027	800,000	-0,104	-0,237
190,042	99,054	-0,216	-0,174
191,056	92,870	-0,334	-0,263
192,071	3,952	-0,262	-0,133
193,086	-179,021	-0,284	-0,004
194,100	-37,784	-0,141	-0,052
195,115	15,053	-0,250	-0,136
196,129	-82,687	-0,239	-0,053
197,144	800,000	-0,136	-0,322
198,159	133,349	-0,166	-0,149
199,173	273,370	-0,067	-0,082
200,188	93,554	-0,154	-0,122
201,202	-130,096	-0,277	-0,026
202,217	-3,665	-0,262	-0,126
203,232	-69,470	-0,235	-0,062
204,246	86,234	-0,117	-0,090
205,261	54,826	-0,224	-0,150
206,275	-4,247	-0,138	-0,066
207,290	-137,650	-0,221	0,017
208,304	143,043	-0,078	-0,073
209,319	21,581	-0,187	-0,106
210,334	109,773	-0,271	-0,226
211,348	58,556	-0,223	-0,152
212,363	90,964	-0,169	-0,132
213,377	213,472	-0,129	-0,142
214,392	114,459	-0,155	-0,132
215,407	-60,034	-0,251	-0,074
216,421	146,337	-0,144	-0,134
217,436	-200,000	-0,059	-0,215
218,450	335,035	-0,205	-0,277
219,465	-68,308	-0,305	-0,082
220,480	0,266	-0,298	-0,147
221,494	486,666	-0,161	-0,257
222,509	-171,920	-0,087	0,002
223,523	175,473	-0,239	-0,241
224,538	-53,032	-0,242	-0,077
225,553	24,624	-0,147	-0,085
226,567	-0,234	-0,306	-0,151
227,582	-47,219	-0,062	-0,021
228,596	-23,517	-0,185	-0,077
229,611	640,998	-0,077	-0,137
230,626	-200,000	-0,021	-0,280
231,640	48,876	-0,217	-0,141
232,655	158,309	-0,286	-0,276
233,669	288,804	-0,224	-0,283
234,684	-11,426	-0,230	-0,105
235,699	-15,425	-0,123	-0,054
236,713	-15,445	-0,152	-0,067
237,728	188,840	-0,177	-0,184
238,742	-101,430	-0,209	-0,035
239,757	475,684	-0,122	-0,192
240,772	39,498	-0,297	-0,184
241,786	-123,853	-0,292	-0,032
242,801	-63,328	-0,184	-0,052
243,815	53,363	-0,228	-0,151
244,830	86,066	-0,183	-0,140
245,844	572,811	-0,139	-0,236
246,859	-88,660	-0,187	-0,038
247,874	349,093	-0,175	-0,240
248,888	-68,876	-0,128	-0,034
249,903	-37,172	-0,143	-0,053
250,917	-10,871	-0,151	-0,069
251,932	669,242	-0,124	-0,224
252,947	-165,825	-0,193	-0,006
253,961	800,000	-0,032	-0,092
254,976	103,211	-0,241	-0,196
255,990	112,239	-0,151	-0,126
257,005	800,000	-0,109	-0,215
258,020	-40,123	-0,162	-0,058
259,034	-94,405	-0,224	-0,042
260,049	239,663	-0,138	-0,160
261,063	209,155	-0,145	-0,158
262,078	465,870	-0,168	-0,262
263,093	228,074	-0,165	-0,187
264,107	-19,665	-0,076	-0,032
265,122	313,764	-0,089	-0,117
266,136	282,294	-0,108	-0,134
267,151	-200,000	0,017	-0,096
268,166	104,130	-0,128	-0,104
269,180	741,546	-0,080	-0,149
270,195	-4,991	-0,234	-0,111
271,209	35,606	-0,155	-0,094
272,224	800,000	-0,047	-0,101
273,239	15,227	-0,110	0,059
274,253	168,725	-0,157	-0,155
275,268	-52,162	-0,239	-0,076
276,282	-32,555	-0,258	-0,099
277,297	35,487	-0,303	-0,183
278,312	275,632	-0,218	-0,268
279,326	231,264	-0,135	-0,153
280,341	800,000	-0,117	-0,265
281,355	781,851	-0,069	-0,130
282,370	-28,119	-0,143	-0,057
283,384	-200,000	-0,061	-0,191
284,399	241,203	-0,210	-0,243
285,414	157,040	-0,259	-0,248
286,428	788,387	-0,066	-0,127
287,443	-25,525	-0,176	-0,071
288,457	-54,785	-0,236	-0,073
289,472	167,795	-0,171	-0,168
290,487	85,975	-0,176	-0,134
291,501	187,367	-0,137	-0,141
292,516	64,424	-0,151	-0,105
293,530	-103,793	-0,089	-0,014
294,545	99,564	-0,160	-0,128
295,560	-130,890	-0,143	-0,013
296,574	357,615	-0,118	-0,163
297,589	159,506	-0,201	-0,193
298,603	354,732	-0,180	-0,248
299,618	-138,803	-0,125	0,009
300,633	580,779	-0,099	-0,169
301,647	93,948	-0,131	-0,102
302,662	554,416	-0,031	-0,052
303,676	-30,361	-0,193	-0,075
304,691	-29,473	-0,201	-0,079
305,706	449,321	-0,092	-0,141
306,720	71,361	-0,218	-0,156
307,735	53,982	-0,200	-0,132
308,749	-200,000	-0,020	-0,180
309,764	307,273	-0,078	-0,100
310,779	5,519	-0,190	-0,097
311,793	-50,481	-0,198	-0,064
312,808	520,864	-0,183	-0,297
313,822	451,996	-0,135	-0,206
314,837	199,485	-0,119	-0,126
315,852	76,218	-0,206	-0,150
316,866	297,387	-0,040	-0,050
317,881	-46,396	-0,185	-0,062
318,895	800,000	-0,067	-0,183
319,910	310,261	-0,182	-0,235
320,925	150,492	-0,174	-0,163
321,939	-87,913	-0,250	-0,051
322,954	14,075	-0,053	-0,028
323,968	-200,000	-0,007	-0,204
324,983	26,152	-0,105	-0,060
325,997	-151,035	-0,190	0,010
327,012	-61,732	-0,219	-0,063
328,027	-132,915	-0,182	0,016
329,041	-67,746	-0,150	-0,040
330,056	800,000	-0,100	-0,204
331,070	18,123	-0,122	-0,067
332,085	-33,570	-0,220	-0,083
333,100	-96,643	-0,131	-0,023
334,114	394,537	-0,072	-0,104
335,129	202,621	-0,150	-0,160
336,143	52,081	-0,132	-0,086
337,158	90,108	-0,073	-0,056
338,173	800,000	-0,003	-0,008
339,187	-74,847	-0,080	0,020
340,202	-87,716	-0,100	0,021
341,216	87,777	-0,092	-0,070
342,231	201,739	-0,060	-0,064
343,246	342,040	-0,186	-0,250
344,260	800,000	-0,071	-0,156
345,275	-200,000	-0,031	-0,191
346,289	800,000	-0,045	-0,088
347,304	798,632	-0,084	-0,160
348,319	-90,733	-0,143	-0,028
349,333	69,512	-0,122	-0,086
350,348	212,444	-0,070	-0,076
351,362	502,028	-0,047	-0,075
352,377	-40,276	-0,125	-0,044
353,392	-200,000	-0,022	-0,198
354,406	-70,174	-0,069	0,018
355,421	209,000	1312,453	1413,534
356,435	160,842	1472,908	1414,047
