DTS Sentinel unit serial number:	SN410029Multiplexer serial number:	ORYXHardware model number:	OX2-SRSoftware version number:	ORYX F/W v4,00 Oryx Data Collector v3.7.2.0data status	okinstallation	B3 Nyhavnadifferential loss correction	single-endedforward channel	channel 1reverse channel	N/Adate	2023/12/05time	03:17:30forward acquisition time	300,00reverse acquisition time	0,00gamma	499,1914k internal	0,3201k external	0,3201temperature offset calibration	1,0000default loss term (dB/km)	0,3820temperature slope calibration	1,0000multiplexer offset coefficient	1,0000multiplexer slope coefficient	1,0000fibre end	0,00T internal ref (°C)	14,07T ext. ref 1 (°C)	-0,66T ext. ref 2 (°C)	-0,69length (m)	temperature (°C)	Stokes	anti-Stokes-744,400	62,286	-0,238	-0,172
-743,385	-200,000	0,007	0,225
-742,371	-121,097	-0,117	-0,014
-741,356	-200,000	0,036	0,295
-740,342	72,438	-0,258	-0,196
-739,327	-200,000	-0,022	0,355
-738,312	327,379	-0,169	-0,236
-737,298	-200,000	0,066	0,268
-736,283	663,512	-0,165	-0,311
-735,269	-200,000	-0,001	0,297
-734,254	201,559	-0,208	-0,234
-733,239	800,000	-0,073	0,221
-732,225	-200,000	0,059	-0,245
-731,210	288,442	0,069	0,091
-730,196	106,247	0,032	-0,028
-729,181	90,154	-0,029	0,024
-728,167	725,230	-0,059	-0,114
-727,152	380,198	0,079	-0,118
-726,137	-68,536	-0,117	-0,033
-725,123	731,625	0,053	-0,103
-724,108	516,244	0,048	-0,081
-723,094	-58,494	-0,224	-0,070
-722,079	49,045	-0,092	-0,063
-721,064	116,817	0,086	0,077
-720,050	2,054	-0,121	-0,063
-719,035	-200,000	0,013	-0,060
-718,021	-200,000	0,007	-0,039
-717,006	-200,000	-0,020	-0,202
-715,991	-200,000	-0,018	-0,072
-714,977	-193,940	0,087	0,001
-713,962	207,996	-0,030	-0,034
-712,948	-200,000	-0,002	-0,070
-711,933	332,059	0,024	0,034
-710,918	735,760	-0,047	-0,092
-709,904	770,630	-0,027	-0,054
-708,889	-21,344	-0,075	-0,033
-707,875	-139,536	-0,161	0,012
-706,860	225,148	-0,033	-0,039
-705,845	63,242	0,045	0,033
-704,831	2,452	0,123	-0,064
-703,816	662,033	-0,011	0,020
-702,802	53,901	0,035	0,024
-701,787	87,703	0,051	-0,041
-700,772	75,679	-0,063	0,048
-699,758	-200,000	-0,002	0,049
-698,743	51,371	0,061	0,042
-697,729	-182,898	0,051	0,001
-696,714	268,417	-0,059	0,076
-695,699	499,877	-0,035	-0,059
-694,685	16,114	-0,140	0,080
-693,670	761,320	-0,104	-0,206
-692,656	370,188	-0,077	-0,114
-691,641	-30,980	-0,046	0,019
-690,627	-6,818	0,034	0,017
-689,612	21,623	0,071	-0,042
-688,597	64,354	0,083	-0,061
-687,583	-5,679	-0,181	-0,090
-686,568	-200,000	0,005	0,165
-685,554	117,759	-0,056	0,050
-684,539	-200,000	0,002	0,040
-683,524	386,678	0,039	0,059
-682,510	94,648	0,029	-0,024
-681,495	-200,000	-0,006	-0,024
-680,481	419,413	-0,018	-0,028
-679,466	-200,000	-0,007	-0,102
-678,451	800,000	-0,059	0,121
-677,437	-200,000	-0,015	-0,089
-676,422	217,094	-0,052	-0,060
-675,408	-200,000	-0,004	0,113
-674,393	89,479	-0,036	-0,029
-673,378	51,270	0,128	-0,088
-672,364	174,884	-0,048	0,050
-671,349	800,000	0,028	-0,064
-670,335	-81,730	-0,203	-0,048
-669,320	800,000	0,043	-0,089
-668,305	790,838	0,053	0,105
-667,291	-200,000	-0,011	-0,057
-666,276	-200,000	0,026	-0,154
-665,262	185,880	0,013	-0,014
-664,247	667,644	-0,014	0,026
-663,232	-200,000	0,007	-0,093
-662,218	36,233	0,045	-0,029
-661,203	-119,117	0,073	0,009
-660,189	-200,000	0,005	-0,069
-659,174	422,776	0,026	0,040
-658,159	-52,894	-0,063	-0,021
-657,145	-200,000	0,035	0,112
-656,130	86,634	0,039	-0,031
-655,116	-116,936	0,046	-0,006
-654,101	346,169	0,010	0,015
-653,086	-17,456	0,078	0,036
-652,072	-17,838	-0,061	0,027
-651,057	-29,797	0,069	-0,028
-650,043	800,000	-0,062	-0,152
-649,028	217,780	-0,040	0,046
-648,014	-118,842	0,047	-0,006
-646,999	-200,000	-0,017	0,132
-645,984	-200,000	0,005	0,058
-644,970	6,115	-0,100	-0,053
-643,955	-200,000	-0,023	0,082
-642,941	253,075	-0,112	-0,139
-641,926	-76,830	0,039	-0,010
-640,911	405,569	-0,066	-0,102
-639,897	-200,000	0,006	-0,026
-638,882	441,275	-0,075	-0,119
-637,868	800,000	-0,016	-0,039
-636,853	-200,000	0,019	-0,212
-635,838	-200,000	-0,040	-0,137
-634,824	800,000	0,052	-0,125
-633,809	800,000	0,012	-0,026
-632,795	-133,155	-0,047	-0,004
-631,780	25,706	-0,049	0,030
-630,765	-200,000	-0,002	-0,072
-629,751	468,066	0,008	0,013
-628,736	-200,000	-0,016	0,066
-627,722	-96,395	-0,030	-0,006
-626,707	800,000	-0,078	0,165
-625,692	-200,000	-0,024	0,161
-624,678	-125,610	0,097	-0,010
-623,663	800,000	-0,059	0,128
-622,649	-60,221	0,115	0,035
-621,634	53,259	-0,053	-0,037
-620,619	-200,000	0,006	-0,027
-619,605	-63,962	0,010	-0,003
-618,590	800,000	-0,038	0,076
-617,576	28,252	-0,099	-0,060
-616,561	73,468	-0,060	-0,046
-615,546	19,320	-0,182	-0,106
-614,532	184,742	0,066	0,071
-613,517	-200,000	-0,004	-0,023
-612,503	79,138	-0,054	-0,042
-611,488	-99,916	0,103	0,018
-610,474	-200,000	-0,020	0,192
-609,459	800,000	-0,031	0,065
-608,444	-200,000	-0,026	-0,106
-607,430	-200,000	0,012	-0,082
-606,415	522,852	-0,072	-0,122
-605,401	-200,000	-0,026	0,145
-604,386	-200,000	0,022	0,115
-603,371	235,732	0,060	-0,072
-602,357	-60,107	-0,091	0,028
-601,342	-71,103	-0,100	-0,027
-600,328	-55,488	0,129	0,041
-599,313	31,724	-0,064	-0,040
-598,298	205,980	0,060	-0,068
-597,284	357,270	-0,054	-0,078
-596,269	194,732	0,039	-0,043
-595,255	800,000	-0,024	0,069
-594,240	287,806	-0,021	0,028
-593,225	-200,000	-0,041	0,140
-592,211	81,389	-0,084	0,066
-591,196	-187,580	-0,055	0,001
-590,182	800,000	-0,050	-0,115
-589,167	288,809	-0,054	-0,071
-588,152	-170,438	0,092	0,002
-587,138	120,577	-0,058	-0,053
-586,123	-200,000	-0,014	-0,157
-585,109	-33,612	0,107	-0,042
-584,094	134,428	-0,036	0,033
-583,079	-200,000	-0,015	0,066
-582,065	100,366	-0,057	0,047
-581,050	527,356	-0,038	0,064
-580,036	369,049	-0,049	-0,072
-579,021	36,053	0,066	0,042
-578,006	127,784	-0,043	-0,040
-576,992	-200,000	0,014	0,045
-575,977	-200,000	-0,001	-0,040
-574,963	340,410	0,073	-0,103
-573,948	125,605	0,081	0,074
-572,934	-200,000	-0,054	-0,186
-571,919	152,422	0,037	-0,037
-570,904	31,146	-0,094	-0,058
-569,890	800,000	0,011	-0,023
-568,875	150,257	0,102	0,100
-567,861	-135,284	0,025	-0,002
-566,846	-200,000	-0,025	0,127
-565,831	-182,887	-0,128	0,002
-564,817	-117,307	-0,084	-0,011
-563,802	-7,862	0,165	0,080
-562,788	164,862	-0,080	-0,082
-561,773	17,226	0,066	-0,038
-560,758	800,000	-0,035	-0,103
-559,744	98,940	0,064	-0,053
-558,729	-200,000	0,004	0,059
-557,715	6,648	-0,045	-0,024
-556,700	575,016	-0,033	-0,058
-555,685	266,313	0,027	0,034
-554,671	-200,000	0,023	0,115
-553,656	-10,599	-0,085	-0,040
-552,642	-200,000	-0,002	0,054
-551,627	-200,000	-0,005	0,042
-550,612	800,000	0,004	-0,008
-549,598	637,109	0,029	0,054
-548,583	3,222	-0,097	-0,051
-547,569	81,902	0,077	-0,060
-546,554	384,111	0,076	-0,113
-545,539	323,656	-0,017	0,024
-544,525	-35,701	-0,076	-0,029
-543,510	-200,000	0,014	-0,160
-542,496	-200,000	-0,015	0,063
-541,481	-10,867	0,100	-0,048
-540,466	52,464	0,064	-0,044
-539,452	565,441	-0,005	0,009
-538,437	254,369	0,027	0,033
-537,423	183,136	0,155	0,165
-536,408	45,668	0,035	0,023
-535,393	-30,428	-0,150	-0,061
-534,379	258,085	-0,078	-0,097
-533,364	-95,774	0,151	-0,029
-532,350	223,722	0,048	0,056
-531,335	-58,279	-0,062	0,019
-530,321	649,975	0,020	0,038
-529,306	-21,533	0,139	0,061
-528,291	-69,583	0,110	0,030
-527,277	-200,000	-0,002	-0,030
-526,262	-200,000	0,031	-0,143
-525,248	800,000	-0,043	0,096
-524,233	-200,000	0,035	0,145
-523,218	396,513	0,053	0,080
-522,204	-77,050	-0,114	-0,028
-521,189	165,524	0,104	-0,106
-520,175	-200,000	-0,016	-0,053
-519,160	-33,192	0,071	0,028
-518,145	-200,000	0,008	-0,049
-517,131	800,000	-0,038	0,107
-516,116	-65,356	0,068	-0,019
-515,102	-104,249	0,118	0,020
-514,087	321,006	-0,081	-0,111
-513,072	-200,000	0,006	-0,117
-512,058	-74,467	-0,040	0,010
-511,043	62,416	-0,145	0,104
-510,029	138,908	-0,030	0,028
-509,014	-44,002	0,017	-0,006
-507,999	-45,953	-0,103	0,036
-506,985	-200,000	-0,003	-0,018
-505,970	50,189	-0,096	-0,065
-504,956	800,000	-0,027	-0,057
-503,941	-200,000	0,002	0,071
-502,926	44,447	0,060	0,040
-501,912	800,000	0,051	-0,105
-500,897	-86,231	-0,140	0,031
-499,883	202,144	-0,055	0,061
-498,868	-94,191	0,093	0,018
-497,853	-58,519	-0,056	0,017
-496,839	426,635	-0,041	-0,064
-495,824	-126,163	-0,066	-0,007
-494,810	-197,262	0,147	-0,001
-493,795	5,389	0,049	-0,026
-492,781	527,605	-0,048	-0,081
-491,766	223,345	-0,055	-0,064
-490,751	450,203	0,032	0,051
-489,737	-35,649	-0,094	-0,037
-488,722	189,434	0,048	-0,051
-487,708	-11,340	0,135	-0,064
-486,693	-91,286	0,084	-0,017
-485,678	38,208	-0,105	0,067
-484,664	-52,219	-0,087	-0,029
-483,649	-200,000	-0,036	-0,148
-482,635	-125,319	-0,040	-0,004
-481,620	-33,889	0,036	-0,014
-480,605	-200,000	0,022	0,155
-479,591	-200,000	0,031	0,150
-478,576	-40,989	-0,060	0,022
-477,562	-200,000	0,019	-0,087
-476,547	128,856	0,096	0,088
-475,532	-200,000	-0,004	-0,035
-474,518	800,000	-0,025	-0,056
-473,503	549,570	0,051	0,088
-472,489	-200,000	0,016	-0,120
-471,474	-200,000	0,007	0,060
-470,459	-1,786	-0,084	0,042
-469,445	800,000	-0,017	0,047
-468,430	-66,957	0,052	-0,015
-467,416	46,006	0,052	-0,035
-466,401	-200,000	-0,018	0,113
-465,386	-200,000	-0,037	-0,142
-464,372	97,074	-0,143	-0,118
-463,357	-171,964	0,081	-0,002
-462,343	65,733	0,066	-0,048
-461,328	199,901	0,052	0,058
-460,313	-79,903	-0,095	0,023
-459,299	-5,085	0,017	0,009
-458,284	-114,019	0,076	0,010
-457,270	800,000	0,028	0,060
-456,255	458,966	-0,022	-0,036
-455,241	550,566	0,057	-0,099
-454,226	254,649	-0,108	-0,133
-453,211	26,549	0,124	0,074
-452,197	243,975	0,040	0,048
-451,182	-42,227	-0,132	0,048
-450,168	800,000	0,040	0,101
-449,153	4,128	-0,044	-0,023
-448,138	-200,000	-0,002	0,011
-447,124	570,246	0,053	0,092
-446,109	-45,202	0,068	0,024
-445,095	312,620	-0,034	-0,047
-444,080	263,023	0,069	0,086
-443,065	-200,000	-0,040	-0,137
-442,051	-179,496	0,274	0,004
-441,036	-65,264	-0,116	0,033
-440,022	-200,000	0,001	0,063
-439,007	-159,980	-0,025	0,001
-437,992	111,795	-0,035	-0,031
-436,978	-116,064	0,079	0,010
-435,963	-60,799	0,089	0,027
-434,949	-117,476	0,020	-0,003
-433,934	83,110	-0,159	-0,125
-432,919	7,430	-0,070	0,038
-431,905	-200,000	0,012	0,153
-430,890	76,473	0,057	0,044
-429,876	-151,196	0,053	-0,003
-428,861	-200,000	-0,024	0,172
-427,846	800,000	0,047	0,146
-426,832	-74,344	-0,096	0,025
-425,817	107,043	-0,063	-0,054
-424,803	-52,325	-0,070	0,023
-423,788	-88,729	0,114	-0,024
-422,773	-200,000	0,017	0,118
-421,759	-200,000	0,002	0,012
-420,744	275,620	0,059	0,075
-419,730	-105,900	-0,089	-0,014
-418,715	-27,869	0,013	-0,006
-417,701	-200,000	0,002	-0,031
-416,686	-14,308	0,162	0,074
-415,671	-93,249	0,183	-0,036
-414,657	101,613	0,042	-0,035
-413,642	372,697	-0,033	0,049
-412,628	-32,312	-0,108	-0,043
-411,613	187,642	-0,060	-0,064
-410,598	800,000	-0,005	-0,010
-409,584	-200,000	0,031	-0,112
-408,569	80,645	0,053	-0,041
-407,555	-77,440	-0,105	-0,026
-406,540	-200,000	-0,005	0,082
-405,525	77,939	0,075	-0,057
-404,511	228,537	-0,088	-0,103
-403,496	800,000	-0,056	0,121
-402,482	-133,285	0,142	0,013
-401,467	-172,749	-0,064	0,001
-400,452	231,816	-0,108	0,128
-399,438	-200,000	-0,004	-0,134
-398,423	-48,289	-0,047	0,016
-397,409	-200,000	0,011	0,127
-396,394	800,000	-0,022	-0,045
-395,379	160,882	0,093	-0,093
-394,365	668,777	-0,029	0,055
-393,350	-22,888	0,113	-0,049
-392,336	63,172	0,026	-0,019
-391,321	-200,000	0,017	-0,059
-390,306	-127,553	-0,107	-0,011
-389,292	-96,562	0,109	-0,021
-388,277	-200,000	-0,030	-0,122
-387,263	-200,000	-0,004	-0,107
-386,248	-69,285	0,157	-0,043
-385,233	255,115	-0,063	0,077
-384,219	-200,000	-0,009	-0,054
-383,204	92,817	-0,069	-0,056
-382,190	800,000	-0,028	-0,084
-381,175	30,225	-0,101	0,061
-380,160	-84,391	0,070	0,016
-379,146	800,000	0,041	-0,100
-378,131	-16,665	0,112	0,051
-377,117	-91,057	-0,150	-0,031
-376,102	41,661	0,170	-0,110
-375,088	-167,233	-0,099	0,003
-374,073	43,298	-0,069	-0,045
-373,058	-34,808	-0,074	-0,029
-372,044	52,529	0,135	0,092
-371,029	-200,000	-0,008	0,106
-370,015	-200,000	-0,032	-0,120
-369,000	-187,572	-0,128	0,001
-367,985	-85,973	-0,052	-0,011
-366,971	-24,688	-0,060	-0,026
-365,956	131,286	0,109	0,101
-364,942	-34,055	0,130	-0,051
-363,927	-183,837	-0,107	0,001
-362,912	298,677	-0,064	-0,085
-361,898	-80,929	0,037	-0,009
-360,883	31,735	-0,140	-0,086
-359,869	-172,181	0,188	-0,004
-358,854	-200,000	0,022	-0,077
-357,839	163,520	0,109	-0,110
-356,825	800,000	-0,065	0,136
-355,810	224,579	-0,046	0,054
-354,796	-39,942	0,077	0,029
-353,781	618,611	-0,094	-0,170
-352,766	51,501	0,028	0,019
-351,752	46,604	0,026	0,017
-350,737	90,026	-0,060	0,048
-349,723	-21,989	0,085	0,037
-348,708	59,156	0,042	-0,030
-347,693	-200,000	-0,009	-0,043
-346,679	96,667	-0,055	0,045
-345,664	800,000	-0,031	-0,061
-344,650	-28,556	-0,060	0,025
-343,635	-66,452	-0,098	0,028
-342,620	66,787	-0,122	0,089
-341,606	-100,903	0,130	-0,023
-340,591	-200,000	0,018	0,059
-339,577	259,910	-0,019	0,023
-338,562	-200,000	-0,033	-0,000
-337,548	-200,000	0,012	0,111
-336,533	800,000	-0,014	0,040
-335,518	221,407	0,149	0,172
-334,504	552,193	0,051	0,088
-333,489	-142,355	-0,081	-0,006
-332,475	-200,000	-0,023	-0,143
-331,460	-61,493	0,095	0,028
-330,445	27,707	0,062	-0,037
-329,431	-45,953	0,114	-0,040
-328,416	-200,000	-0,011	-0,055
-327,402	-200,000	-0,003	0,106
-326,387	143,560	0,141	-0,134
-325,372	800,000	-0,037	-0,095
-324,358	-60,877	0,117	0,035
-323,343	-61,568	-0,088	-0,026
-322,329	-78,030	0,102	0,025
-321,314	-200,000	-0,006	-0,072
-320,299	44,339	-0,081	-0,053
-319,285	32,549	0,043	0,026
-318,270	-32,378	-0,046	-0,018
-317,256	28,927	-0,090	0,055
-316,241	800,000	0,044	-0,122
-315,226	40,752	-0,061	-0,039
-314,212	800,000	0,041	0,122
-313,197	128,994	-0,032	0,029
-312,183	-200,000	-0,003	0,245
-311,168	-200,000	0,031	-0,105
-310,153	-142,116	-0,093	0,006
-309,139	10,167	0,073	0,039
-308,124	-86,974	0,181	0,039
-307,110	26,896	0,047	0,028
-306,095	-55,603	-0,027	0,009
-305,080	308,572	0,033	0,044
-304,066	800,000	0,093	0,187
-303,051	-200,000	0,009	0,049
-302,037	800,000	0,036	-0,108
-301,022	-10,271	-0,072	-0,034
-300,008	-141,898	0,134	-0,009
-298,993	-105,543	-0,082	-0,013
-297,978	317,265	-0,066	0,090
-296,964	-45,989	-0,057	-0,020
-295,949	162,145	-0,022	-0,022
-294,935	339,181	-0,066	-0,092
-293,920	401,550	0,024	0,037
-292,905	800,000	0,021	-0,051
-291,891	4,361	0,091	0,048
-290,876	-51,263	0,070	0,023
-289,862	-19,054	-0,126	-0,056
-288,847	-200,000	-0,012	-0,212
-287,832	38,579	-0,130	-0,083
-286,818	125,029	-0,064	-0,058
-285,803	-196,766	-0,118	0,001
-284,789	-50,840	0,092	0,031
-283,774	-200,000	-0,010	0,120
-282,759	-107,604	-0,067	0,010
-281,745	-200,000	-0,002	-0,102
-280,730	128,809	0,048	-0,044
-279,716	-5,612	-0,034	-0,017
-278,701	-3,802	0,085	0,042
-277,686	-200,000	-0,013	-0,057
-276,672	32,090	0,097	0,059
-275,657	203,703	-0,119	-0,131
-274,643	800,000	-0,042	0,084
-273,628	-200,000	-0,013	-0,105
-272,613	-131,882	0,109	0,010
-271,599	148,217	0,185	0,179
-270,584	-97,516	-0,139	0,026
-269,570	-55,325	0,043	0,014
-268,555	-51,270	-0,105	0,035
-267,540	-115,094	0,084	-0,011
-266,526	4,149	-0,194	0,101
-265,511	-115,487	-0,145	-0,019
-264,497	-186,602	0,167	-0,002
-263,482	-140,851	-0,060	-0,004
-262,467	141,552	0,129	0,122
-261,453	800,000	0,027	0,067
-260,438	-65,000	-0,203	0,058
-259,424	109,682	0,103	-0,088
-258,409	236,593	0,021	0,025
-257,395	213,037	0,125	0,141
-256,380	800,000	-0,022	0,043
-255,365	800,000	-0,030	0,076
-254,351	800,000	0,045	0,139
-253,336	-200,000	0,016	-0,050
-252,322	-200,000	-0,014	-0,113
-251,307	-200,000	0,020	-0,115
-250,292	360,308	0,014	0,020
-249,278	-200,000	-0,003	0,025
-248,263	70,198	-0,031	-0,023
-247,249	-200,000	0,019	0,117
-246,234	-200,000	0,019	0,079
-245,219	124,581	-0,098	0,088
-244,205	800,000	-0,050	-0,127
-243,190	40,667	-0,010	-0,006
-242,176	-10,138	0,145	-0,068
-241,161	-70,348	0,082	-0,022
-240,146	540,754	-0,028	0,047
-239,132	-67,465	-0,052	0,015
-238,117	-200,000	0,011	-0,088
-237,103	215,163	-0,073	-0,083
-236,088	-200,000	-0,002	0,006
-235,073	-12,891	0,121	0,056
-234,059	36,355	0,109	0,069
-233,044	13,508	0,049	0,027
-232,030	423,652	-0,022	-0,034
-231,015	-200,000	-0,023	-0,096
-230,000	561,456	0,064	-0,110
-228,986	-200,000	0,003	-0,163
-227,971	365,619	0,027	-0,039
-226,957	212,077	0,054	0,061
-225,942	-113,182	-0,081	0,011
-224,927	-200,000	-0,033	-0,205
-223,913	-200,000	0,018	-0,122
-222,898	-67,558	-0,217	-0,060
-221,884	800,000	0,015	-0,041
-220,869	-79,613	-0,072	-0,017
-219,855	42,421	0,180	0,116
-218,840	-200,000	0,007	-0,047
-217,825	-200,000	-0,007	-0,051
-216,811	560,754	-0,031	0,054
-215,796	82,633	-0,122	-0,094
-214,782	321,481	-0,017	-0,023
-213,767	-60,561	0,027	-0,008
-212,752	800,000	0,047	-0,102
-211,738	800,000	0,052	0,137
-210,723	-200,000	-0,019	0,105
-209,709	-200,000	0,002	-0,069
-208,694	36,798	-0,076	0,048
-207,679	-200,000	0,035	-0,122
-206,665	86,004	0,021	0,016
-205,650	13,738	0,150	0,083
-204,636	800,000	0,035	0,101
-203,621	220,682	-0,037	-0,042
-202,606	-200,000	-0,011	-0,062
-201,592	32,442	0,104	0,064
-200,577	-200,000	-0,030	-0,109
-199,563	-76,009	0,166	-0,042
-198,548	800,000	0,050	0,100
-197,533	800,000	-0,049	0,096
-196,519	13,761	0,132	0,073
-195,504	92,527	0,045	-0,036
-194,490	116,186	-0,065	-0,057
-193,475	-122,553	0,058	0,007
-192,460	110,605	-0,082	-0,070
-191,446	-200,000	0,018	0,102
-190,431	800,000	-0,083	0,182
-189,417	310,522	-0,040	0,053
-188,402	26,627	0,067	-0,040
-187,387	-200,000	-0,006	-0,078
-186,373	-200,000	0,042	-0,139
-185,358	-128,737	0,013	0,001
-184,344	-156,357	0,057	0,002
-183,329	-200,000	0,034	0,121
-182,315	-200,000	-0,057	0,201
-181,300	-200,000	0,045	0,155
-180,285	204,166	0,030	0,033
-179,271	-200,000	-0,011	-0,046
-178,256	-200,000	0,017	-0,084
-177,242	800,000	0,018	0,052
-176,227	-70,367	-0,135	0,036
-175,212	163,795	-0,024	0,024
-174,198	222,185	-0,065	0,074
-173,183	11,968	0,151	0,082
-172,169	181,509	-0,056	0,058
-171,154	22,383	-0,133	-0,077
-170,139	167,906	-0,004	0,004
-169,125	-200,000	-0,009	0,088
-168,110	-200,000	0,034	0,127
-167,096	126,293	0,081	0,073
-166,081	800,000	0,035	0,090
-165,066	-65,103	-0,082	-0,023
-164,052	-23,655	-0,147	0,062
-163,037	-5,046	0,036	-0,018
-162,023	363,655	0,110	0,157
-161,008	-133,386	-0,114	0,010
-159,993	-200,000	-0,016	0,064
-158,979	-102,633	-0,109	-0,018
-157,964	430,785	-0,088	-0,136
-156,950	-200,000	0,009	-0,047
-155,935	-116,354	0,117	-0,015
-154,920	-80,036	0,030	0,007
-153,906	800,000	0,064	0,131
-152,891	56,457	-0,119	-0,082
-151,877	-200,000	-0,006	0,033
-150,862	-75,425	-0,077	-0,019
-149,847	-23,455	-0,023	-0,010
-148,833	-200,000	-0,001	-0,033
-147,818	28,346	0,104	-0,062
-146,804	800,000	-0,028	-0,078
-145,789	386,432	0,026	0,038
-144,775	-90,611	-0,039	0,008
-143,760	260,080	0,029	-0,036
-142,745	255,949	0,034	-0,041
-141,731	172,464	0,072	0,074
-140,716	-200,000	-0,011	0,043
-139,702	-199,576	0,182	0,001
-138,687	-103,149	-0,057	-0,010
-137,672	202,064	-0,108	-0,118
-136,658	67,605	-0,106	-0,076
-135,643	-136,596	-0,171	-0,014
-134,629	-15,287	-0,053	0,024
-133,614	-125,215	0,088	-0,009
-132,599	-73,614	0,064	0,016
-131,585	411,967	0,069	-0,104
-130,570	98,971	-0,094	-0,077
-129,556	52,624	-0,112	-0,076
-128,541	800,000	0,048	0,139
-127,526	-200,000	-0,007	0,053
-126,512	46,524	0,095	-0,062
-125,497	800,000	0,023	-0,056
-124,483	-147,962	0,088	-0,005
-123,468	-15,674	0,056	-0,025
-122,453	-200,000	-0,002	-0,082
-121,439	206,082	-0,063	-0,069
-120,424	15,628	-0,063	0,035
-119,410	800,000	0,014	0,029
-118,395	38,851	0,082	0,052
-117,380	800,000	-0,017	-0,041
-116,366	800,000	0,032	0,085
-115,351	800,000	-0,016	-0,048
-114,337	442,138	-0,044	0,069
-113,322	800,000	0,029	-0,067
-112,307	-99,420	-0,080	-0,014
-111,293	24,457	0,210	-0,123
-110,278	121,711	-0,059	0,052
-109,264	77,247	-0,032	0,024
-108,249	155,178	0,032	0,031
-107,234	130,992	-0,022	-0,020
-106,220	210,769	-0,092	-0,102
-105,205	-61,418	0,056	0,017
-104,191	138,353	0,070	-0,065
-103,176	-81,886	0,149	-0,034
-102,162	23,359	0,103	-0,060
-101,147	463,660	0,047	0,075
-100,132	-200,000	0,008	-0,076
-99,118	501,578	0,088	0,145
-98,103	257,087	0,033	-0,041
-97,089	191,828	0,055	-0,059
-96,074	-33,328	-0,065	-0,025
-95,059	314,325	0,028	0,037
-94,045	107,099	-0,052	0,044
-93,030	1,558	-0,121	-0,062
-92,016	2,667	-0,049	0,025
-91,001	466,314	0,020	-0,032
-89,986	-49,489	-0,033	-0,011
-88,972	111,316	-0,092	0,078
-87,957	7,045	0,130	0,068
-86,943	-43,354	-0,018	-0,006
-85,928	73,701	0,055	-0,041
-84,913	-200,000	-0,019	-0,075
-83,899	-200,000	0,014	-0,071
-82,884	-200,000	0,016	0,103
-81,870	-200,000	0,021	0,086
-80,855	-33,214	0,088	-0,034
-79,840	-200,000	0,008	-0,063
-78,826	107,495	-0,168	-0,142
-77,811	800,000	-0,038	-0,112
-76,797	-200,000	0,042	0,152
-75,782	-200,000	-0,014	-0,068
-74,767	442,368	0,039	0,061
-73,753	108,063	0,049	0,041
-72,738	800,000	-0,005	0,014
-71,724	-149,712	-0,063	0,003
-70,709	-77,678	-0,083	0,020
-69,694	21,363	-0,055	0,031
-68,680	-200,000	-0,012	0,096
-67,665	244,818	0,071	-0,084
-66,651	658,193	0,058	0,106
-65,636	-64,905	-0,051	-0,014
-64,622	-200,000	-0,031	-0,108
-63,607	694,886	-0,029	-0,054
-62,592	-32,740	-0,087	-0,034
-61,578	-13,848	0,177	-0,081
-60,563	800,000	0,024	0,057
-59,549	-200,000	-0,002	0,046
-58,534	-30,716	-1,555	-0,620
-57,519	637,339	-1,186	-2,144
-56,505	-200,000	-0,540	-4,603
-55,490	106,776	1,124	0,944
-54,476	800,000	5,049	11,570
-53,461	-200,000	18,888	305,529
-52,446	800,000	736,757	2295,745
-51,432	568,234	1653,124	2854,692
-50,417	78,994	1670,165	1264,780
-49,403	22,057	1543,100	888,981
-48,388	15,967	1465,700	814,811
-47,373	17,693	1456,086	817,773
-46,359	16,820	1446,307	808,061
-45,344	14,208	1441,484	792,833
-44,330	14,127	1439,490	791,312
-43,315	14,072	1437,905	790,149
-42,300	14,118	1436,431	789,527
-41,286	14,189	1435,115	789,111
-40,271	14,167	1433,674	788,184
-39,257	14,158	1432,394	787,403
-38,242	14,161	1431,114	786,685
-37,227	14,192	1429,909	786,140
-36,213	14,136	1428,643	785,147
-35,198	14,184	1427,575	784,753
-34,184	14,217	1426,558	784,321
-33,169	14,130	1425,244	783,154
-32,154	14,177	1424,080	782,706
-31,140	14,170	1422,972	782,033
-30,125	14,183	1421,846	781,445
-29,111	14,200	1420,655	780,838
-28,096	14,143	1419,509	779,910
-27,082	14,077	1418,506	779,016
-26,067	14,058	1417,329	778,252
-25,052	14,138	1416,261	778,007
-24,038	14,069	1415,510	777,243
-23,023	14,099	1414,349	776,715
-22,009	14,082	1413,340	776,048
-20,994	14,012	1412,668	775,320
-19,979	14,038	1411,791	774,932
-18,965	14,015	1410,838	774,271
-17,950	14,026	1409,771	773,707
-16,936	14,066	1408,704	773,275
-15,921	13,976	1407,774	772,316
-14,906	13,981	1406,947	771,850
-13,892	14,011	1405,924	771,399
-12,877	14,025	1404,912	770,882
-11,863	14,002	1404,148	770,322
-10,848	13,988	1403,099	769,652
-9,833	13,959	1402,205	768,995
-8,819	13,921	1401,428	768,361
-7,804	13,956	1400,446	767,955
-6,790	13,899	1399,543	767,166
-5,775	13,918	1398,484	766,643
-4,760	13,893	1397,507	765,959
-3,746	13,864	1396,804	765,412
-2,731	13,916	1395,696	765,014
-1,717	13,849	1395,162	764,380
-0,702	13,852	1393,261	763,324
0,313	17,648	1311,283	736,018
1,327	34,078	705,742	434,178
2,342	52,164	124,033	83,513
3,356	3,332	16,618	8,532
4,371	1,462	3,279	1,663
5,386	-51,579	0,518	0,170
6,400	800,000	0,084	0,181
7,415	18,516	-0,335	-0,189
8,429	193,586	-0,280	-0,300
9,444	16,920	-0,273	-0,152
10,459	61,151	-0,211	-0,148
11,473	154,549	-0,282	-0,274
12,488	10,261	-0,242	-0,129
13,502	-26,171	-0,319	-0,132
14,517	2,235	-0,217	-0,111
15,531	49,182	-0,386	-0,256
16,546	79,432	-0,342	-0,259
17,561	152,544	-0,352	-0,340
18,575	-67,246	-0,171	-0,047
19,590	170,154	-0,282	-0,286
20,604	147,138	-0,211	-0,201
21,619	143,712	-0,425	-0,400
22,634	56,022	-0,553	-0,378
23,648	127,717	-0,375	-0,337
24,663	224,556	-0,271	-0,310
25,677	117,602	-0,383	-0,333
26,692	276,307	-0,234	-0,294
27,707	-12,194	-0,301	-0,139
28,721	60,179	-0,460	-0,320
29,736	2,674	-0,456	-0,233
30,750	166,519	-0,426	-0,426
31,765	134,550	-0,395	-0,362
32,780	348,745	-0,260	-0,363
33,794	-23,205	-0,438	-0,185
34,809	203,236	-0,286	-0,312
35,823	-65,691	-0,427	-0,120
36,838	68,381	-0,355	-0,256
37,853	33,202	-0,488	-0,298
38,867	241,579	-0,336	-0,397
39,882	-23,520	-0,364	-0,154
40,896	48,229	-0,315	-0,207
41,911	96,342	-0,271	-0,218
42,926	169,857	-0,331	-0,334
43,940	89,056	-0,387	-0,303
44,955	169,738	-0,275	-0,277
45,969	143,417	-0,338	-0,317
46,984	110,409	-0,391	-0,331
47,999	39,544	-0,277	-0,174
49,013	121,890	-0,330	-0,290
50,028	-136,258	-0,321	-0,026
51,042	-74,528	-0,385	-0,097
52,057	30,753	-0,390	-0,234
53,071	-3,695	-0,359	-0,175
54,086	6,032	-0,356	-0,185
55,101	110,437	-0,281	-0,238
56,115	30,512	-0,330	-0,198
57,130	-60,639	-0,320	-0,095
58,144	140,211	-0,393	-0,365
59,159	-34,585	-0,453	-0,174
60,174	66,255	-0,276	-0,197
61,188	266,852	-0,290	-0,357
62,203	36,078	-0,453	-0,280
63,217	132,200	-0,233	-0,211
64,232	-9,014	-0,426	-0,200
65,247	-9,151	-0,321	-0,150
66,261	-74,753	-0,390	-0,098
67,276	60,671	-0,294	-0,205
68,290	-98,873	-0,331	-0,059
69,305	-67,678	-0,359	-0,098
70,320	105,828	-0,303	-0,252
71,334	339,726	-0,161	-0,221
72,349	-12,744	-0,383	-0,175
73,363	50,159	-0,414	-0,275
74,378	27,126	-0,367	-0,216
75,393	171,787	-0,183	-0,185
76,407	179,105	-0,188	-0,193
77,422	88,994	-0,285	-0,223
78,436	-48,042	-0,271	-0,091
79,451	74,695	-0,327	-0,241
80,466	-51,188	-0,233	-0,076
81,480	119,323	-0,352	-0,306
82,495	32,361	-0,329	-0,199
83,509	-76,512	-0,228	-0,056
84,524	-139,672	-0,277	-0,020
85,539	-41,081	-0,368	-0,133
86,553	28,034	-0,337	-0,199
87,568	-45,873	-0,284	-0,098
88,582	-1,776	-0,312	-0,154
89,597	73,679	-0,322	-0,237
90,611	214,781	-0,156	-0,173
91,626	-61,500	-0,272	-0,080
92,641	73,294	-0,161	-0,118
93,655	-77,896	-0,423	-0,102
94,670	101,706	-0,235	-0,192
95,684	-53,532	-0,284	-0,091
96,699	41,019	-0,381	-0,241
97,714	412,717	-0,179	-0,268
98,728	66,636	-0,274	-0,195
99,743	-25,722	-0,217	-0,089
100,757	6,797	-0,232	-0,121
101,772	34,549	-0,350	-0,214
102,787	155,793	-0,323	-0,312
103,801	165,782	-0,257	-0,256
104,816	241,655	-0,212	-0,248
105,830	-72,450	-0,271	-0,070
106,845	4,572	-0,303	-0,155
107,860	-110,649	-0,219	-0,031
108,874	-96,843	-0,383	-0,070
109,889	166,936	-0,322	-0,321
110,903	35,762	-0,325	-0,199
111,918	160,093	-0,179	-0,175
112,933	51,356	-0,207	-0,138
113,947	-97,569	-0,372	-0,067
114,962	284,583	-0,185	-0,234
115,976	-11,458	-0,389	-0,178
116,991	128,874	-0,181	-0,161
118,006	78,022	-0,394	-0,294
119,020	-52,257	-0,331	-0,107
120,035	83,007	-0,181	-0,138
121,049	-152,003	-0,193	0,010
122,064	48,161	-0,275	-0,180
123,079	64,776	-0,215	-0,151
124,093	164,996	-0,311	-0,308
125,108	53,552	-0,162	-0,109
126,122	121,545	-0,218	-0,190
127,137	-28,260	-0,218	-0,088
128,151	-143,675	-0,360	-0,024
129,166	120,017	-0,235	-0,204
130,181	-75,788	-0,164	-0,040
131,195	-131,070	-0,298	0,027
132,210	-28,727	-0,223	-0,089
133,224	108,840	-0,251	-0,210
134,239	54,681	-0,337	-0,227
135,254	-24,161	-0,334	-0,139
136,268	445,596	-0,121	-0,186
137,283	-122,628	-0,436	-0,049
138,297	107,744	-0,205	-0,170
139,312	-19,189	-0,280	-0,121
140,327	186,422	-0,214	-0,222
141,341	62,166	-0,276	-0,192
142,356	-72,089	-0,211	-0,054
143,370	228,056	-0,206	-0,235
144,385	-39,096	-0,285	-0,104
145,400	135,492	-0,107	-0,097
146,414	116,461	-0,319	-0,273
147,429	207,112	-0,212	-0,231
148,443	-47,242	-0,276	-0,093
149,458	47,747	-0,212	-0,138
150,473	73,425	-0,217	-0,158
151,487	174,333	-0,228	-0,230
152,502	450,237	-0,226	-0,350
153,516	67,437	-0,231	-0,164
154,531	284,437	-0,106	-0,134
155,546	78,447	-0,266	-0,198
156,560	-13,012	-0,154	-0,070
157,575	-121,018	-0,161	-0,019
158,589	-91,507	-0,234	-0,046
159,604	-11,578	-0,279	-0,127
160,619	95,928	-0,326	-0,260
161,633	39,635	-0,189	-0,118
162,648	348,438	-0,115	-0,159
163,662	-20,451	-0,128	-0,055
164,677	-61,048	-0,141	-0,041
165,692	227,756	-0,158	-0,179
166,706	152,249	-0,220	-0,209
167,721	483,808	-0,161	-0,256
168,735	139,339	-0,307	-0,281
169,750	-92,952	-0,292	-0,056
170,764	-32,101	-0,140	-0,054
171,779	417,683	-0,172	-0,257
172,794	-14,794	-0,362	-0,161
173,808	105,512	-0,222	-0,183
174,823	116,273	-0,280	-0,239
175,837	36,361	-0,289	-0,177
176,852	175,192	-0,193	-0,195
177,867	139,285	-0,157	-0,144
178,881	-2,319	-0,252	-0,123
179,896	88,840	-0,203	-0,157
180,910	143,096	-0,208	-0,192
181,925	800,000	-0,153	-0,309
182,940	41,570	-0,261	-0,164
183,954	106,934	-0,211	-0,175
184,969	4,328	-0,176	-0,090
185,983	-113,571	-0,207	0,028
186,998	133,291	-0,090	-0,081
188,013	142,396	-0,128	-0,118
189,027	190,358	-0,214	-0,224
190,042	296,511	-0,156	-0,200
191,056	-39,473	-0,336	-0,122
192,071	26,179	-0,307	-0,178
193,086	800,000	-0,060	-0,179
194,100	43,841	-0,122	-0,078
195,115	428,230	-0,119	-0,179
196,129	49,452	-0,325	-0,212
197,144	139,191	-0,284	-0,260
198,159	-35,224	-0,202	-0,076
199,173	139,575	-0,199	-0,182
200,188	89,087	-0,102	-0,079
201,202	-200,000	0,005	-0,063
202,217	-36,417	-0,240	-0,089
203,232	-200,000	-0,038	-0,292
204,246	-118,689	-0,269	-0,033
205,261	23,085	-0,333	-0,190
206,275	-42,472	-0,158	-0,056
207,290	267,065	-0,182	-0,222
208,304	-200,000	-0,139	0,000
209,319	-75,731	-0,192	-0,047
210,334	107,975	-0,180	-0,149
211,348	67,383	-0,262	-0,186
212,363	35,781	-0,230	-0,140
213,377	129,912	-0,228	-0,203
214,392	220,870	-0,177	-0,198
215,407	137,979	-0,141	-0,128
216,421	-82,990	-0,085	0,019
217,436	-57,934	-0,169	-0,051
218,450	-177,869	-0,134	-0,002
219,465	267,561	-0,132	-0,160
220,480	-41,929	-0,264	-0,093
221,494	177,618	-0,196	-0,198
222,509	-61,015	-0,203	-0,059
223,523	-78,220	-0,196	-0,046
224,538	155,599	-0,160	-0,153
225,553	138,980	-0,194	-0,177
226,567	108,315	-0,123	-0,102
227,582	112,574	-0,175	-0,147
228,596	465,482	-0,103	-0,161
229,611	62,353	-0,143	-0,099
230,626	24,730	-0,168	-0,096
231,640	800,000	-0,160	-0,309
232,655	555,530	-0,096	-0,161
233,669	64,965	-0,348	-0,243
234,684	-200,000	-0,053	-0,206
235,699	77,888	-0,125	-0,092
236,713	-118,155	-0,112	-0,014
237,728	33,616	-0,269	-0,162
238,742	120,127	-0,269	-0,231
239,757	22,403	-0,280	-0,158
240,772	-122,264	-0,224	-0,025
241,786	243,718	-0,128	-0,149
242,801	67,981	-0,138	-0,098
243,815	111,801	-0,099	-0,083
244,830	-6,237	-0,241	-0,113
245,844	38,405	-0,279	-0,172
246,859	-145,390	-0,146	-0,009
247,874	260,874	-0,176	-0,212
248,888	160,375	-0,233	-0,225
249,903	-65,333	-0,266	-0,074
250,917	342,364	-0,046	-0,062
251,932	-11,169	-0,120	-0,055
252,947	-21,083	-0,213	-0,090
253,961	327,520	-0,163	-0,218
254,976	800,000	-0,120	-0,267
255,990	442,800	-0,096	-0,146
257,005	-152,387	-0,184	-0,009
258,020	-31,537	-0,181	-0,070
259,034	-113,704	-0,234	-0,031
260,049	-10,254	-0,167	0,076
261,063	-169,855	-0,288	0,007
262,078	-162,094	-0,241	-0,008
263,093	12,042	-0,121	-0,064
264,107	149,607	-0,102	-0,095
265,122	292,007	-0,060	-0,076
266,136	-72,029	-0,108	-0,028
267,151	49,838	-0,214	-0,139
268,166	58,381	-0,113	-0,076
269,180	27,890	-0,290	-0,169
270,195	59,731	-0,300	-0,204
271,209	21,634	-0,123	-0,069
272,224	18,623	-0,187	-0,103
273,239	245,155	-0,107	-0,124
274,253	-150,936	-0,019	-0,001
275,268	7,232	-0,067	-0,034
276,282	292,932	-0,137	-0,173
277,297	180,572	-0,209	-0,212
278,312	-200,000	-0,038	-0,230
279,326	-52,188	-0,152	-0,048
280,341	39,706	-0,124	-0,077
281,355	-180,469	-0,180	-0,003
282,370	295,673	-0,071	-0,090
283,384	-83,452	-0,194	-0,042
284,399	-76,839	-0,311	-0,075
285,414	-142,812	-0,168	0,011
286,428	13,322	-0,076	-0,040
287,443	-136,911	-0,168	-0,013
288,457	200,073	-0,137	-0,146
289,472	94,498	-0,119	-0,093
290,487	35,058	-0,208	-0,126
291,501	-174,694	-0,159	-0,003
292,516	86,229	-0,228	-0,173
293,530	-200,000	-0,154	0,000
294,545	197,379	-0,193	-0,203
295,560	73,753	-0,128	-0,092
296,574	800,000	-0,081	-0,207
297,589	729,002	-0,031	-0,058
298,603	125,841	-0,151	-0,131
299,618	-56,917	-0,181	-0,055
300,633	-101,004	-0,046	0,008
301,647	58,965	-0,154	-0,104
302,662	-47,258	-0,073	-0,025
303,676	-120,506	-0,199	0,023
304,691	-83,834	-0,202	-0,044
305,706	-93,857	-0,341	-0,064
306,720	-52,856	-0,248	-0,078
307,735	241,053	-0,138	-0,159
308,749	143,208	-0,103	-0,095
309,764	176,559	-0,122	0,122
310,779	-200,000	-0,049	-0,255
311,793	-165,950	-0,177	-0,005
312,808	170,480	-0,140	-0,138
313,822	-38,669	-0,113	-0,041
314,837	185,390	-0,099	-0,101
315,852	330,467	-0,090	-0,120
316,866	800,000	-0,055	-0,146
317,881	100,828	-0,096	-0,077
318,895	178,266	-0,169	-0,170
319,910	270,753	-0,117	-0,142
320,925	517,084	-0,087	-0,141
321,939	-56,392	-0,165	0,050
322,954	0,589	-0,164	-0,080
323,968	-16,292	-0,119	0,052
324,983	332,496	-0,105	-0,139
325,997	242,388	-0,174	-0,201
327,012	-7,577	-0,280	-0,130
328,027	184,217	-0,193	-0,196
329,041	378,117	-0,185	-0,262
330,056	33,965	-0,173	-0,103
331,070	181,647	-0,051	-0,052
332,085	79,045	-0,141	-0,104
333,100	-15,199	-0,101	-0,044
334,114	44,242	-0,169	-0,106
335,129	136,657	-0,136	-0,122
336,143	-136,125	-0,238	-0,019
337,158	14,658	-0,116	-0,062
338,173	184,380	-0,198	-0,202
339,187	-200,000	0,006	-0,144
340,202	223,790	-0,198	-0,220
341,216	424,617	-0,133	-0,197
342,231	2,507	-0,194	-0,096
343,246	-131,067	-0,196	0,018
344,260	301,216	-0,129	-0,164
345,275	134,449	-0,150	-0,134
346,289	800,000	-0,047	-0,110
347,304	90,332	-0,119	-0,092
348,319	-137,679	-0,193	0,015
349,333	51,809	-0,173	-0,113
350,348	-198,205	-0,244	0,001
351,362	14,631	-0,061	-0,033
352,377	432,196	-0,067	-0,100
353,392	149,829	-0,116	-0,108
354,406	282,028	-0,152	-0,187
355,421	208,647	1315,095	1412,967
356,435	160,551	1475,872	1413,460
