DTS Sentinel unit serial number:	SN410029Multiplexer serial number:	ORYXHardware model number:	OX2-SRSoftware version number:	ORYX F/W v4,00 Oryx Data Collector v3.7.2.0data status	okinstallation	B3 Nyhavnadifferential loss correction	single-endedforward channel	channel 1reverse channel	N/Adate	2023/11/29time	09:32:30forward acquisition time	300,00reverse acquisition time	0,00gamma	499,1914k internal	0,3212k external	0,3212temperature offset calibration	1,0000default loss term (dB/km)	0,3820temperature slope calibration	1,0000multiplexer offset coefficient	1,0000multiplexer slope coefficient	1,0000fibre end	0,00T internal ref (°C)	9,16T ext. ref 1 (°C)	-5,37T ext. ref 2 (°C)	-5,50length (m)	temperature (°C)	Stokes	anti-Stokes-744,400	301,221	-0,221	-0,297
-743,385	-200,000	-0,024	0,342
-742,371	258,172	-0,055	-0,069
-741,356	800,000	-0,111	0,298
-740,342	230,418	-0,180	-0,213
-739,327	-200,000	-0,016	0,323
-738,312	171,583	-0,232	-0,241
-737,298	-200,000	-0,082	0,268
-736,283	229,096	-0,171	-0,203
-735,269	800,000	0,119	0,362
-734,254	145,238	-0,099	-0,096
-733,239	-140,314	-0,227	-0,017
-732,225	142,463	-0,167	-0,161
-731,210	-67,381	0,171	0,048
-730,196	-38,917	-0,062	0,024
-729,181	-200,000	-0,005	-0,041
-728,167	21,541	0,101	-0,059
-727,152	-70,182	-0,073	-0,020
-726,137	82,084	-0,130	-0,102
-725,123	-132,282	0,051	0,005
-724,108	-200,000	0,004	-0,130
-723,094	-200,000	-0,003	-0,028
-722,079	78,844	-0,101	-0,078
-721,064	175,842	-0,072	-0,076
-720,050	800,000	0,036	0,099
-719,035	-91,063	-0,085	-0,018
-718,021	-128,929	-0,065	0,006
-717,006	357,812	-0,091	-0,133
-715,991	382,877	-0,068	-0,101
-714,977	-200,000	-0,031	-0,104
-713,962	-200,000	0,007	0,114
-712,948	330,517	-0,106	-0,148
-711,933	-92,146	0,065	-0,013
-710,918	239,726	-0,024	-0,029
-709,904	800,000	-0,030	-0,089
-708,889	-200,000	0,011	-0,193
-707,875	717,483	-0,042	-0,080
-706,860	421,595	0,060	0,094
-705,845	-94,312	0,067	0,013
-704,831	154,208	0,053	-0,053
-703,816	-113,765	0,060	0,008
-702,802	-102,795	-0,022	0,004
-701,787	605,308	0,020	-0,035
-700,772	375,463	-0,066	0,098
-699,758	-200,000	-0,001	0,045
-698,743	16,625	-0,055	0,031
-697,729	-200,000	-0,003	-0,076
-696,714	-0,061	0,044	0,022
-695,699	-200,000	0,007	-0,048
-694,685	-200,000	-0,001	-0,010
-693,670	234,112	0,108	-0,129
-692,656	800,000	0,026	-0,073
-691,641	-118,508	-0,131	-0,017
-690,627	106,685	0,080	0,069
-689,612	32,516	0,141	-0,088
-688,597	-36,574	-0,102	0,039
-687,583	587,963	-0,050	-0,090
-686,568	-200,000	0,010	-0,174
-685,554	7,520	-0,070	0,038
-684,539	104,720	0,132	0,113
-683,524	800,000	-0,025	-0,058
-682,510	-200,000	0,005	0,050
-681,495	455,406	0,044	0,070
-680,481	69,601	0,066	-0,049
-679,466	-116,736	-0,082	0,011
-678,451	-105,975	-0,134	0,022
-677,437	32,399	0,020	0,012
-676,422	-53,326	-0,048	0,016
-675,408	508,186	-0,094	-0,159
-674,393	800,000	-0,025	-0,075
-673,378	-85,440	-0,113	0,025
-672,364	-200,000	0,039	-0,173
-671,349	195,762	-0,058	0,064
-670,335	-200,000	0,013	-0,134
-669,320	112,841	0,023	0,020
-668,305	583,308	0,010	0,018
-667,291	800,000	-0,033	-0,068
-666,276	-200,000	0,023	-0,101
-665,262	-200,000	-0,018	-0,144
-664,247	-7,206	0,071	-0,035
-663,232	-98,581	-0,061	-0,011
-662,218	-33,829	0,096	0,038
-661,203	271,568	0,084	-0,107
-660,189	800,000	0,036	0,103
-659,174	-128,717	-0,174	0,017
-658,159	800,000	0,080	-0,179
-657,145	-200,000	0,002	-0,153
-656,130	-200,000	-0,034	0,161
-655,116	507,937	-0,021	0,035
-654,101	800,000	-0,018	-0,039
-653,086	-200,000	-0,015	0,075
-652,072	-120,513	0,134	-0,016
-651,057	26,129	-0,108	0,065
-650,043	-200,000	-0,001	-0,048
-649,028	-200,000	0,022	-0,107
-648,014	-200,000	-0,053	-0,187
-646,999	-59,836	0,102	0,031
-645,984	272,200	-0,046	-0,059
-644,970	144,045	-0,016	-0,015
-643,955	686,893	-0,015	-0,029
-642,941	654,834	-0,019	-0,036
-641,926	-32,695	-0,099	-0,040
-640,911	51,190	0,064	0,044
-639,897	800,000	-0,042	-0,104
-638,882	751,047	-0,080	0,157
-637,868	-200,000	0,010	0,048
-636,853	81,407	-0,014	-0,011
-635,838	-3,583	-0,063	-0,031
-634,824	800,000	0,050	-0,151
-633,809	800,000	0,015	0,044
-632,795	-57,431	0,109	-0,034
-631,780	-200,000	-0,007	-0,057
-630,765	243,529	0,071	-0,086
-629,751	-65,996	-0,231	-0,066
-628,736	-200,000	-0,009	-0,136
-627,722	-22,926	-0,174	-0,075
-626,707	-200,000	-0,011	-0,108
-625,692	231,691	0,140	0,166
-624,678	-53,528	-0,139	0,046
-623,663	44,336	-0,028	-0,019
-622,649	-26,410	-0,124	-0,052
-621,634	-200,000	-0,063	-0,262
-620,619	800,000	-0,007	-0,021
-619,605	-200,000	0,023	-0,162
-618,590	1,023	0,078	0,040
-617,576	300,146	0,036	-0,048
-616,561	-13,343	-0,044	-0,020
-615,546	471,790	0,068	-0,111
-614,532	608,597	-0,032	0,057
-613,517	-5,540	0,104	-0,051
-612,503	-38,248	-0,072	-0,027
-611,488	-113,162	0,148	-0,021
-610,474	-116,862	0,051	-0,007
-609,459	-200,000	0,005	0,050
-608,444	-200,000	0,006	0,069
-607,430	-200,000	-0,013	-0,168
-606,415	274,410	-0,041	0,053
-605,401	-147,869	-0,036	-0,002
-604,386	-200,000	0,027	-0,143
-603,371	-44,079	0,111	0,040
-602,357	115,964	-0,035	0,031
-601,342	-0,369	0,059	-0,030
-600,328	-200,000	-0,007	-0,060
-599,313	-200,000	-0,014	-0,121
-598,298	-111,164	0,151	0,022
-597,284	257,551	-0,045	-0,056
-596,269	-7,208	0,061	-0,030
-595,255	383,251	0,129	0,192
-594,240	625,821	-0,024	-0,044
-593,225	-15,326	0,070	-0,032
-592,211	-43,203	-0,129	-0,047
-591,196	670,968	-0,003	0,007
-590,182	10,222	-0,016	-0,009
-589,167	-200,000	-0,003	0,084
-588,152	680,667	0,113	0,214
-587,138	422,584	-0,022	0,034
-586,123	148,702	-0,114	-0,111
-585,109	-89,804	-0,165	-0,034
-584,094	-99,046	-0,119	0,022
-583,079	800,000	-0,044	0,096
-582,065	800,000	-0,012	-0,026
-581,050	65,846	-0,054	-0,040
-580,036	-200,000	0,025	0,105
-579,021	278,131	-0,103	-0,132
-578,006	130,652	0,049	-0,045
-576,992	97,794	0,023	-0,019
-575,977	29,288	-0,053	0,033
-574,963	-179,842	0,026	-0,000
-573,948	-200,000	-0,018	0,065
-572,934	35,659	-0,046	-0,029
-571,919	103,028	-0,160	0,135
-570,904	296,991	0,045	-0,059
-569,890	-200,000	0,022	-0,135
-568,875	-200,000	-0,002	0,092
-567,861	442,017	-0,032	0,050
-566,846	21,359	-0,046	-0,027
-565,831	-151,954	0,182	-0,009
-564,817	624,549	-0,062	-0,113
-563,802	352,922	-0,017	-0,024
-562,788	171,464	-0,055	0,057
-561,773	506,087	-0,039	0,066
-560,758	-129,549	0,149	-0,015
-559,744	-200,000	-0,038	0,128
-558,729	143,592	-0,110	0,106
-557,715	800,000	0,028	-0,059
-556,700	-53,267	-0,111	0,037
-555,685	800,000	0,043	-0,132
-554,671	-74,393	0,020	-0,005
-553,656	-200,000	0,004	-0,022
-552,642	518,165	0,009	-0,015
-551,627	70,388	-0,030	-0,023
-550,612	114,483	-0,093	-0,081
-549,598	9,350	-0,137	-0,074
-548,583	-85,104	0,134	0,030
-547,569	-109,287	0,071	-0,011
-546,554	-169,241	-0,106	-0,003
-545,539	47,586	-0,135	-0,090
-544,525	15,391	-0,143	-0,080
-543,510	105,589	0,041	0,035
-542,496	-200,000	-0,007	-0,134
-541,481	-200,000	-0,035	-0,122
-540,466	-156,670	-0,075	0,003
-539,452	-82,644	0,049	0,011
-538,437	-77,841	-0,102	-0,025
-537,423	-45,486	0,174	-0,062
-536,408	145,884	-0,056	-0,054
-535,393	-200,000	0,036	-0,131
-534,379	-200,000	0,031	-0,122
-533,364	47,249	-0,119	-0,079
-532,350	-82,880	0,043	-0,010
-531,335	800,000	-0,027	0,070
-530,321	-73,292	0,053	-0,014
-529,306	-178,098	-0,032	-0,001
-528,291	-111,106	0,127	-0,019
-527,277	202,034	-0,116	-0,128
-526,262	6,045	0,033	0,018
-525,248	-153,716	-0,129	0,006
-524,233	800,000	-0,039	0,094
-523,218	-25,048	0,058	-0,024
-522,204	21,266	0,051	0,029
-521,189	-117,264	-0,119	-0,015
-520,175	133,314	-0,042	-0,039
-519,160	-49,140	-0,094	-0,032
-518,145	-200,000	0,007	-0,064
-517,131	110,598	-0,029	0,025
-516,116	41,733	0,055	0,036
-515,102	-200,000	0,017	0,208
-514,087	-200,000	0,035	-0,115
-513,072	357,193	-0,068	0,098
-512,058	-200,000	0,000	0,040
-511,043	771,774	0,027	0,053
-510,029	-200,000	-0,002	0,042
-509,014	0,417	-0,027	-0,014
-507,999	800,000	0,053	0,125
-506,985	-65,907	-0,089	0,025
-505,970	-14,128	0,026	-0,012
-504,956	521,054	0,017	-0,029
-503,941	-200,000	-0,020	0,120
-502,926	-200,000	0,010	0,115
-501,912	37,944	0,038	-0,024
-500,897	-60,302	0,071	-0,022
-499,883	-102,143	-0,129	-0,022
-498,868	-200,000	-0,014	-0,126
-497,853	-3,789	-0,031	-0,015
-496,839	-200,000	-0,001	0,075
-495,824	-200,000	0,028	0,090
-494,810	-51,174	0,076	-0,025
-493,795	79,735	-0,024	0,018
-492,781	-100,473	-0,045	-0,008
-491,766	-40,899	-0,065	-0,024
-490,751	20,213	-0,106	-0,061
-489,737	180,690	-0,040	0,042
-488,722	-108,446	0,192	0,029
-487,708	-200,000	0,012	0,152
-486,693	-68,476	-0,070	0,019
-485,678	800,000	0,060	0,177
-484,664	-75,569	-0,032	0,008
-483,649	-200,000	-0,018	-0,136
-482,635	-200,000	0,014	0,111
-481,620	1,402	-0,120	0,062
-480,605	417,864	0,041	0,064
-479,591	-133,837	-0,148	-0,013
-478,576	-43,129	0,210	-0,076
-477,562	-152,514	-0,210	0,011
-476,547	-23,065	-0,043	-0,018
-475,532	-200,000	0,026	-0,134
-474,518	800,000	0,020	-0,042
-473,503	441,143	-0,036	0,056
-472,489	166,865	0,067	-0,068
-471,474	-140,785	0,063	0,005
-470,459	140,512	-0,154	-0,146
-469,445	363,970	0,024	0,034
-468,430	279,678	-0,056	0,071
-467,416	-104,704	0,134	-0,022
-466,401	5,327	0,018	-0,010
-465,386	375,448	-0,052	0,077
-464,372	115,610	-0,020	-0,018
-463,357	402,522	0,040	-0,061
-462,343	-73,009	-0,074	0,019
-461,328	33,843	0,040	0,025
-460,313	749,517	0,034	-0,067
-459,299	-200,000	0,051	0,173
-458,284	800,000	0,058	0,139
-457,270	-154,241	0,056	-0,003
-456,255	-200,000	-0,014	0,063
-455,241	-200,000	0,009	-0,089
-454,226	107,484	0,047	-0,040
-453,211	124,173	-0,016	-0,014
-452,197	119,332	0,049	-0,044
-451,182	209,710	0,039	0,044
-450,168	481,272	0,061	0,099
-449,153	224,215	-0,016	0,018
-448,138	-12,314	0,032	-0,015
-447,124	92,773	-0,072	0,058
-446,109	44,933	0,098	-0,065
-445,095	800,000	0,043	0,102
-444,080	23,440	0,143	0,084
-443,065	-52,600	-0,123	0,041
-442,051	222,618	-0,093	0,107
-441,036	24,551	0,054	0,032
-440,022	-126,329	-0,107	0,011
-439,007	800,000	0,031	-0,085
-437,992	-40,529	0,113	-0,042
-436,978	34,740	0,093	-0,058
-435,963	17,354	-0,095	-0,054
-434,949	-8,259	-0,037	0,018
-433,934	800,000	-0,010	0,026
-432,919	-5,894	0,076	-0,037
-431,905	283,202	-0,063	-0,082
-430,890	-200,000	-0,010	-0,064
-429,876	55,543	0,035	0,024
-428,861	-200,000	0,006	0,062
-427,846	-9,539	0,051	-0,024
-426,832	800,000	-0,026	-0,065
-425,817	380,438	-0,026	-0,038
-424,803	668,829	0,039	-0,073
-423,788	800,000	0,016	-0,033
-422,773	363,785	-0,032	0,046
-421,759	-64,194	0,095	-0,028
-420,744	-200,000	-0,018	0,081
-419,730	-2,698	0,029	0,014
-418,715	-61,434	0,177	-0,053
-417,701	-129,951	-0,123	0,012
-416,686	-45,049	0,042	0,015
-415,671	800,000	0,005	-0,014
-414,657	413,469	-0,038	0,059
-413,642	182,521	0,033	-0,035
-412,628	94,127	0,120	0,097
-411,613	416,185	-0,080	-0,122
-410,598	80,984	-0,082	-0,063
-409,584	402,056	0,088	-0,132
-408,569	-69,739	-0,044	0,012
-407,555	469,140	-0,056	0,091
-406,540	-200,000	-0,005	0,086
-405,525	800,000	-0,046	0,137
-404,511	112,341	-0,052	-0,045
-403,496	448,553	-0,029	0,046
-402,482	800,000	-0,029	0,088
-401,467	159,219	-0,030	0,029
-400,452	-200,000	0,031	0,138
-399,438	265,362	-0,044	-0,054
-398,423	-102,337	-0,117	-0,020
-397,409	637,694	0,059	-0,107
-396,394	20,661	-0,092	-0,053
-395,379	-172,524	0,088	0,002
-394,365	-92,316	0,171	-0,034
-393,350	178,389	0,044	0,046
-392,336	124,232	-0,025	-0,023
-391,321	-118,252	-0,106	0,013
-390,306	-139,037	-0,117	-0,009
-389,292	479,198	-0,068	-0,110
-388,277	326,194	0,043	0,060
-387,263	269,942	0,067	-0,085
-386,248	4,409	0,062	-0,032
-385,233	-200,000	0,019	0,137
-384,219	-168,544	0,102	0,003
-383,204	-117,087	-0,108	-0,014
-382,190	800,000	-0,031	-0,096
-381,175	-200,000	-0,009	0,095
-380,160	-127,125	-0,088	-0,009
-379,146	-200,000	0,009	0,030
-378,131	-150,795	0,116	0,006
-377,117	800,000	0,031	0,090
-376,102	-200,000	-0,012	-0,039
-375,088	800,000	-0,079	-0,171
-374,073	760,383	0,011	0,021
-373,058	-5,105	0,084	-0,041
-372,044	300,876	-0,040	0,052
-371,029	-200,000	-0,007	0,078
-370,015	800,000	-0,022	0,052
-369,000	120,296	0,026	0,023
-367,985	-33,902	-0,148	-0,058
-366,971	-109,971	-0,051	0,008
-365,956	-8,705	-0,067	-0,032
-364,942	-92,991	0,095	0,019
-363,927	-200,000	0,012	0,071
-362,912	529,567	0,073	0,123
-361,898	81,731	-0,068	-0,053
-360,883	125,770	-0,107	-0,097
-359,869	800,000	-0,022	0,065
-358,854	-200,000	0,007	0,071
-357,839	-200,000	0,011	0,060
-356,825	800,000	0,058	0,119
-355,810	4,320	-0,119	-0,062
-354,796	-65,765	0,068	0,019
-353,781	99,570	-0,064	-0,053
-352,766	-53,484	-0,094	-0,031
-351,752	-53,326	-0,126	-0,041
-350,737	-11,506	0,031	0,014
-349,723	212,475	0,018	-0,020
-348,708	159,873	-0,070	0,070
-347,693	-76,825	-0,143	-0,035
-346,679	-200,000	-0,004	-0,078
-345,664	28,671	-0,073	0,044
-344,650	-200,000	-0,008	-0,046
-343,635	102,994	0,088	0,073
-342,620	167,723	0,151	0,153
-341,606	159,565	0,043	0,043
-340,591	-200,000	0,021	-0,078
-339,577	517,549	-0,050	0,084
-338,562	370,626	-0,094	-0,136
-337,548	-93,122	0,136	0,027
-336,533	410,817	0,093	-0,141
-335,518	515,609	-0,069	-0,115
-334,504	667,619	-0,069	-0,127
-333,489	-200,000	0,008	-0,052
-332,475	-76,817	0,076	0,019
-331,460	-27,426	0,120	0,050
-330,445	126,646	0,038	-0,034
-329,431	-200,000	0,005	-0,130
-328,416	-200,000	-0,011	-0,047
-327,402	-200,000	0,006	0,084
-326,387	703,394	0,068	0,128
-325,372	-68,019	0,112	0,031
-324,358	370,375	0,015	0,021
-323,343	-50,105	0,032	-0,011
-322,329	-55,991	0,039	-0,012
-321,314	-200,000	-0,003	-0,020
-320,299	-200,000	0,039	0,172
-319,285	250,828	-0,058	-0,070
-318,270	-200,000	0,005	-0,176
-317,256	-200,000	-0,020	0,068
-316,241	800,000	0,031	0,093
-315,226	-200,000	-0,016	-0,055
-314,212	-200,000	0,016	0,169
-313,197	-56,478	0,083	0,026
-312,183	174,047	-0,062	-0,064
-311,168	105,106	0,039	-0,033
-310,153	428,537	-0,016	-0,024
-309,139	-200,000	0,006	-0,166
-308,124	-142,056	0,145	-0,010
-307,110	-109,329	0,146	-0,022
-306,095	800,000	0,010	0,032
-305,080	111,077	-0,069	-0,059
-304,066	71,718	0,041	0,031
-303,051	-127,959	-0,168	0,017
-302,037	-31,242	0,020	-0,008
-301,022	85,862	-0,029	0,023
-300,008	-200,000	0,009	0,098
-298,993	-200,000	-0,008	0,203
-297,978	24,224	-0,143	0,084
-296,964	353,785	0,046	0,065
-295,949	537,479	-0,073	-0,125
-294,935	273,607	0,074	-0,094
-293,920	81,295	0,070	0,054
-292,905	516,588	0,149	0,250
-291,891	800,000	0,036	0,088
-290,876	321,758	0,031	0,042
-289,862	-200,000	0,006	-0,063
-288,847	-200,000	-0,021	-0,091
-287,832	362,041	-0,050	0,072
-286,818	-200,000	0,011	0,053
-285,803	215,659	0,129	-0,146
-284,789	-119,181	0,125	0,015
-283,774	-73,626	0,094	-0,024
-282,759	-4,217	-0,102	-0,050
-281,745	-200,000	0,022	-0,129
-280,730	-160,632	-0,019	-0,001
-279,716	67,400	-0,058	0,042
-278,701	800,000	-0,029	0,062
-277,686	-200,000	0,019	0,106
-276,672	241,696	0,101	0,120
-275,657	-132,334	-0,091	0,008
-274,643	-200,000	-0,037	-0,148
-273,628	-200,000	-0,007	-0,126
-272,613	-200,000	0,004	0,060
-271,599	800,000	0,010	0,029
-270,584	-200,000	0,033	0,164
-269,570	-200,000	0,012	0,048
-268,555	169,465	0,055	0,055
-267,540	-200,000	0,006	-0,057
-266,526	-200,000	0,008	-0,107
-265,511	-123,099	-0,067	-0,008
-264,497	145,670	0,086	-0,082
-263,482	182,398	0,033	-0,035
-262,467	36,816	0,110	0,069
-261,453	800,000	-0,024	-0,052
-260,438	215,898	-0,035	-0,039
-259,424	11,973	-0,100	-0,054
-258,409	-100,507	-0,099	0,017
-257,395	800,000	0,021	-0,044
-256,380	-49,553	0,097	0,033
-255,365	-116,946	0,200	-0,026
-254,351	15,499	-0,127	-0,071
-253,336	-104,210	-0,083	-0,014
-252,322	-84,957	-0,052	-0,012
-251,307	422,443	0,064	0,098
-250,292	281,874	-0,077	-0,098
-249,278	186,112	0,109	-0,116
-248,263	142,681	0,044	0,042
-247,249	-110,166	0,135	-0,020
-246,234	-185,999	-0,088	0,001
-245,219	76,210	-0,090	0,067
-244,205	-200,000	-0,026	-0,144
-243,190	800,000	-0,058	-0,136
-242,176	26,405	0,101	0,060
-241,161	-200,000	0,008	0,109
-240,146	-200,000	-0,001	-0,018
-239,132	-55,138	-0,068	-0,022
-238,117	-200,000	-0,020	-0,083
-237,103	-200,000	-0,008	0,129
-236,088	45,320	0,031	-0,020
-235,073	-200,000	0,014	0,064
-234,059	-68,044	0,070	-0,019
-233,044	-9,907	0,118	0,056
-232,030	608,745	0,031	0,056
-231,015	800,000	-0,040	0,124
-230,000	11,490	-0,155	0,084
-228,986	208,256	0,048	-0,053
-227,971	-78,751	0,101	0,024
-226,957	-144,161	0,173	-0,011
-225,942	16,289	-0,040	0,022
-224,927	558,270	0,085	0,146
-223,913	208,047	-0,031	-0,034
-222,898	-200,000	-0,023	-0,093
-221,884	-51,145	-0,078	0,026
-220,869	382,233	0,056	0,083
-219,855	19,320	0,125	0,071
-218,840	87,455	-0,061	-0,048
-217,825	329,136	0,020	-0,028
-216,811	27,080	-0,121	-0,072
-215,796	-200,000	-0,016	-0,059
-214,782	-109,849	-0,118	0,017
-213,767	7,084	-0,057	0,030
-212,752	-61,091	0,045	0,013
-211,738	38,312	0,129	0,081
-210,723	-19,606	-0,118	-0,052
-209,709	109,256	-0,116	0,099
-208,694	740,012	0,007	0,013
-207,679	-200,000	-0,005	-0,017
-206,665	35,525	-0,060	-0,037
-205,650	-81,734	0,125	0,029
-204,636	72,811	0,057	0,042
-203,621	800,000	-0,032	0,073
-202,606	-200,000	-0,006	0,057
-201,592	-65,972	-0,063	0,018
-200,577	-110,983	-0,117	-0,017
-199,563	-167,786	0,113	-0,003
-198,548	80,177	0,120	0,092
-197,533	-44,638	0,170	0,060
-196,519	191,868	0,033	-0,035
-195,504	-139,964	0,024	-0,002
-194,490	-139,459	0,029	-0,002
-193,475	-200,000	0,012	-0,079
-192,460	-200,000	-0,031	0,189
-191,446	800,000	0,037	0,086
-190,431	23,436	0,077	0,045
-189,417	171,480	-0,029	0,030
-188,402	-49,434	-0,093	-0,031
-187,387	-200,000	-0,002	-0,113
-186,373	-49,315	0,013	-0,005
-185,358	-52,683	0,116	0,038
-184,344	70,060	-0,082	-0,060
-183,329	-200,000	0,009	0,050
-182,315	11,496	0,052	0,028
-181,300	-200,000	0,015	0,048
-180,285	380,616	-0,062	-0,090
-179,271	29,903	0,071	0,043
-178,256	800,000	0,020	-0,064
-177,242	-149,743	0,062	0,003
-176,227	131,948	-0,062	0,057
-175,212	669,213	-0,025	-0,046
-174,198	760,066	-0,065	0,125
-173,183	-55,962	0,079	0,025
-172,169	-200,000	-0,017	0,177
-171,154	800,000	0,016	0,036
-170,139	591,137	-0,015	-0,026
-169,125	610,373	0,066	0,118
-168,110	193,702	0,030	0,032
-167,096	-200,000	-0,118	-0,000
-166,081	800,000	-0,020	-0,052
-165,066	75,461	0,036	-0,027
-164,052	-49,156	0,054	-0,018
-163,037	800,000	0,033	-0,074
-162,023	-107,714	0,236	0,036
-161,008	395,448	-0,058	0,086
-159,993	-11,725	-0,173	0,080
-158,979	511,392	0,089	-0,147
-157,964	133,948	-0,132	-0,121
-156,950	-126,657	0,122	0,013
-155,935	-76,445	-0,043	-0,011
-154,920	-62,452	-0,070	0,020
-153,906	750,305	0,104	0,200
-152,891	560,979	0,089	0,153
-151,877	800,000	-0,010	0,019
-150,862	-200,000	0,001	0,068
-149,847	184,596	-0,053	-0,055
-148,833	145,630	-0,066	0,062
-147,818	-63,661	-0,039	-0,011
-146,804	150,098	-0,024	-0,023
-145,789	134,668	-0,071	-0,066
-144,775	385,243	-0,073	-0,107
-143,760	-32,355	-0,111	-0,044
-142,745	-200,000	0,029	-0,135
-141,731	-52,432	0,072	0,024
-140,716	-200,000	-0,038	0,127
-139,702	231,869	0,066	0,077
-138,687	-200,000	-0,005	-0,019
-137,672	-200,000	0,008	-0,072
-136,658	113,164	0,037	-0,031
-135,643	30,584	0,101	-0,061
-134,629	-200,000	0,001	-0,078
-133,614	63,234	-0,058	-0,041
-132,599	-165,879	0,121	0,004
-131,585	-200,000	-0,041	0,166
-130,570	363,372	-0,015	0,022
-129,556	80,341	-0,076	0,058
-128,541	638,093	0,021	-0,037
-127,526	184,954	0,041	-0,043
-126,512	-200,000	-0,008	0,054
-125,497	-200,000	-0,027	0,190
-124,483	800,000	-0,013	-0,033
-123,468	-174,929	0,062	0,001
-122,453	-200,000	-0,023	-0,111
-121,439	-118,561	0,030	-0,004
-120,424	800,000	-0,020	0,060
-119,410	800,000	-0,024	0,068
-118,395	91,180	-0,031	-0,024
-117,380	-80,246	0,231	0,054
-116,366	114,499	-0,092	-0,079
-115,351	-111,874	-0,071	0,010
-114,337	236,024	-0,007	-0,008
-113,322	-200,000	-0,023	-0,087
-112,307	94,193	0,055	0,044
-111,293	-31,418	0,142	0,056
-110,278	-200,000	0,034	0,117
-109,264	104,950	-0,058	-0,048
-108,249	-13,580	0,031	-0,014
-107,234	-172,494	-0,054	-0,001
-106,220	747,490	0,040	0,077
-105,205	97,050	0,078	0,064
-104,191	258,714	-0,053	-0,065
-103,176	188,845	0,043	0,045
-102,162	-89,984	-0,049	-0,010
-101,147	-200,000	-0,024	-0,124
-100,132	613,919	0,051	-0,091
-99,118	800,000	-0,034	-0,095
-98,103	-11,312	-0,111	0,051
-97,089	800,000	0,032	0,067
-96,074	572,291	-0,078	0,136
-95,059	165,334	-0,048	0,048
-94,045	366,792	0,035	0,049
-93,030	-200,000	-0,014	-0,071
-92,016	-139,429	-0,057	0,004
-91,001	-155,683	-0,017	-0,001
-89,986	-200,000	0,006	0,068
-88,972	-200,000	0,042	0,136
-87,957	65,971	0,047	0,034
-86,943	-200,000	-0,032	-0,113
-85,928	-200,000	0,020	-0,097
-84,913	426,399	0,021	-0,033
-83,899	-200,000	-0,046	-0,214
-82,884	-10,008	-0,066	0,031
-81,870	-200,000	0,027	0,145
-80,855	-200,000	0,025	0,135
-79,840	118,121	0,019	-0,017
-78,826	-200,000	-0,009	-0,053
-77,811	800,000	-0,019	0,046
-76,797	188,204	-0,051	-0,054
-75,782	800,000	0,049	-0,108
-74,767	-21,207	0,084	-0,036
-73,753	-200,000	-0,033	-0,108
-72,738	-18,952	0,133	0,058
-71,724	290,338	-0,044	0,057
-70,709	-200,000	0,044	-0,181
-69,694	-200,000	-0,022	-0,082
-68,680	-39,657	0,100	-0,037
-67,665	-68,140	0,102	-0,028
-66,651	48,971	-0,068	0,045
-65,636	344,879	0,017	-0,024
-64,622	30,610	-0,034	-0,020
-63,607	-200,000	0,016	-0,080
-62,592	-176,131	0,030	0,001
-61,578	180,968	0,047	0,049
-60,563	370,698	0,102	0,146
-59,549	-138,311	-0,071	-0,005
-58,534	54,241	-2,077	-1,408
-57,519	412,100	-1,236	-1,858
-56,505	-200,000	-0,367	-4,434
-55,490	628,774	0,829	1,485
-54,476	800,000	5,289	11,432
-53,461	-200,000	21,928	340,199
-52,446	800,000	761,896	2315,151
-51,432	538,424	1657,069	2789,934
-50,417	70,020	1653,687	1202,472
-49,403	16,858	1527,767	850,852
-48,388	10,975	1452,045	780,337
-47,373	19,165	1443,708	814,968
-46,359	14,385	1432,835	786,161
-45,344	9,285	1428,722	759,683
-44,330	9,190	1426,825	758,192
-43,315	9,212	1424,892	757,241
-42,300	9,234	1423,291	756,463
-41,286	9,280	1421,749	755,828
-40,271	9,221	1420,795	755,014
-39,257	9,191	1419,699	754,259
-38,242	9,259	1418,386	753,854
-37,227	9,228	1417,606	753,265
-36,213	9,221	1415,954	752,323
-35,198	9,228	1414,952	751,793
-34,184	9,299	1413,944	751,560
-33,169	9,206	1412,491	750,321
-32,154	9,247	1411,673	750,052
-31,140	9,261	1410,436	749,429
-30,125	9,250	1409,280	748,735
-29,111	9,272	1408,010	748,132
-28,096	9,211	1406,928	747,243
-27,082	9,218	1405,542	746,507
-26,067	9,167	1404,666	745,774
-25,052	9,222	1403,392	745,326
-24,038	9,177	1402,763	744,754
-23,023	9,174	1401,867	744,233
-22,009	9,167	1400,878	743,646
-20,994	9,198	1399,542	743,051
-19,979	9,186	1398,753	742,547
-18,965	9,168	1397,652	741,850
-17,950	9,191	1396,595	741,369
-16,936	9,164	1395,994	740,894
-15,921	9,108	1395,016	740,084
-14,906	9,118	1393,902	739,513
-13,892	9,162	1393,110	739,263
-12,877	9,102	1392,413	738,589
-11,863	9,107	1391,631	738,166
-10,848	9,067	1390,494	737,349
-9,833	9,048	1389,544	736,727
-8,819	9,043	1388,737	736,251
-7,804	8,994	1388,037	735,621
-6,790	8,992	1386,817	734,939
-5,775	9,017	1385,667	734,413
-4,760	9,064	1384,568	734,018
-3,746	8,989	1383,988	733,339
-2,731	9,075	1382,814	733,084
-1,717	9,063	1382,138	732,640
-0,702	9,018	1380,369	731,464
0,313	13,009	1292,200	702,912
1,327	28,917	684,011	407,844
2,342	44,753	117,892	76,318
3,356	-1,314	16,434	8,152
4,371	-0,671	3,738	1,862
5,386	-39,004	1,251	0,462
6,400	800,000	0,248	0,677
7,415	215,635	-0,083	-0,093
8,429	287,422	-0,098	-0,125
9,444	80,385	-0,314	-0,238
10,459	-78,514	-0,310	-0,074
11,473	206,688	-0,164	-0,180
12,488	87,523	-0,282	-0,220
13,502	313,770	-0,215	-0,285
14,517	227,009	-0,202	-0,231
15,531	109,032	-0,308	-0,259
16,546	-6,424	-0,439	-0,210
17,561	132,592	-0,306	-0,278
18,575	-122,124	-0,140	-0,016
19,590	-186,100	-0,190	-0,002
20,604	58,950	-0,162	-0,112
21,619	10,825	-0,409	-0,219
22,634	54,845	-0,434	-0,294
23,648	23,178	-0,502	-0,289
24,663	134,411	-0,353	-0,322
25,677	50,422	-0,335	-0,222
26,692	-98,108	-0,347	-0,062
27,707	-7,213	-0,315	-0,150
28,721	91,167	-0,436	-0,344
29,736	97,011	-0,376	-0,303
30,750	187,776	-0,292	-0,307
31,765	135,704	-0,348	-0,319
32,780	9,327	-0,381	-0,202
33,794	182,704	-0,287	-0,298
34,809	12,340	-0,425	-0,229
35,823	28,806	-0,310	-0,184
36,838	36,535	-0,491	-0,304
37,853	101,784	-0,438	-0,359
38,867	146,104	-0,358	-0,338
39,882	178,052	-0,283	-0,291
40,896	3,872	-0,409	-0,209
41,911	69,965	-0,292	-0,211
42,926	24,575	-0,435	-0,252
43,940	39,536	-0,393	-0,247
44,955	98,255	-0,460	-0,372
45,969	139,552	-0,415	-0,384
46,984	279,827	-0,319	-0,401
47,999	23,478	-0,276	-0,159
49,013	110,527	-0,301	-0,254
50,028	-14,609	-0,401	-0,180
51,042	66,529	-0,294	-0,210
52,057	34,079	-0,339	-0,207
53,071	87,983	-0,270	-0,210
54,086	-71,660	-0,386	-0,100
55,101	63,192	-0,310	-0,218
56,115	96,817	-0,221	-0,177
57,130	163,388	-0,265	-0,261
58,144	306,853	-0,212	-0,277
59,159	53,669	-0,334	-0,224
60,174	-25,595	-0,354	-0,146
61,188	-17,594	-0,413	-0,181
62,203	2,742	-0,395	-0,200
63,217	55,860	-0,339	-0,230
64,232	37,659	-0,256	-0,159
65,247	97,736	-0,341	-0,275
66,261	-41,762	-0,456	-0,163
67,276	-41,723	-0,396	-0,142
68,290	173,179	-0,255	-0,258
69,305	34,157	-0,269	-0,164
70,320	158,056	-0,285	-0,277
71,334	195,016	-0,214	-0,228
72,349	56,231	-0,244	-0,166
73,363	77,995	-0,344	-0,257
74,378	69,784	-0,332	-0,239
75,393	118,738	-0,304	-0,263
76,407	-7,290	-0,301	-0,142
77,422	-34,758	-0,166	-0,063
78,436	45,567	-0,361	-0,233
79,451	-1,714	-0,378	-0,186
80,466	131,831	-0,265	-0,239
81,480	17,206	-0,232	-0,129
82,495	68,666	-0,334	-0,239
83,509	-50,556	-0,268	-0,088
84,524	141,120	-0,171	-0,158
85,539	-39,986	-0,323	-0,117
86,553	54,421	-0,259	-0,175
87,568	4,984	-0,467	-0,240
88,582	105,924	-0,330	-0,273
89,597	77,386	-0,236	-0,175
90,611	56,198	-0,201	-0,136
91,626	-25,503	-0,286	-0,117
92,641	-169,732	-0,233	0,006
93,655	7,820	-0,253	-0,132
94,670	-53,366	-0,351	-0,112
95,684	-39,274	-0,317	-0,116
96,699	11,663	-0,296	-0,158
97,714	66,851	-0,274	-0,195
98,728	25,208	-0,207	-0,120
99,743	-4,164	-0,370	-0,178
100,757	108,267	-0,176	-0,147
101,772	23,987	-0,160	-0,092
102,787	228,731	-0,229	-0,261
103,801	95,102	-0,313	-0,249
104,816	51,048	-0,305	-0,202
105,830	70,615	-0,243	-0,175
106,845	34,499	-0,169	-0,103
107,860	-22,128	-0,243	-0,103
108,874	8,143	-0,278	-0,145
109,889	226,019	-0,133	-0,151
110,903	172,179	-0,311	-0,312
111,918	135,601	-0,098	-0,089
112,933	800,000	-0,078	-0,205
113,947	-100,247	-0,199	-0,034
114,962	28,453	-0,309	-0,182
115,976	208,161	-0,159	-0,174
116,991	22,040	-0,214	-0,122
118,006	17,565	-0,302	-0,167
119,020	191,234	-0,109	-0,114
120,035	58,551	-0,148	-0,102
121,049	190,631	-0,229	-0,241
122,064	1,215	-0,290	-0,145
123,079	-35,293	-0,304	-0,115
124,093	5,154	-0,324	-0,166
125,108	-22,016	-0,298	-0,126
126,122	130,744	-0,294	-0,263
127,137	116,481	-0,188	-0,160
128,151	72,645	-0,153	-0,111
129,166	271,403	-0,204	-0,251
130,181	-79,032	-0,298	-0,070
131,195	-114,249	-0,282	-0,038
132,210	-34,810	-0,317	-0,120
133,224	92,347	-0,275	-0,216
134,239	42,368	-0,247	-0,156
135,254	-100,114	-0,235	-0,040
136,268	800,000	-0,094	-0,225
137,283	64,243	-0,286	-0,200
138,297	121,147	-0,268	-0,232
139,312	109,800	-0,335	-0,280
140,327	357,398	-0,195	-0,272
141,341	10,341	-0,326	-0,172
142,356	-4,107	-0,220	-0,106
143,370	202,488	-0,232	-0,250
144,385	-136,616	-0,314	-0,025
145,400	1,825	-0,204	-0,102
146,414	-40,729	-0,330	-0,118
147,429	317,876	-0,221	-0,291
148,443	165,536	-0,319	-0,315
149,458	109,090	-0,126	-0,104
150,473	212,375	-0,200	-0,220
151,487	-12,088	-0,093	-0,042
152,502	160,227	-0,323	-0,314
153,516	103,465	-0,272	-0,222
154,531	169,397	-0,217	-0,216
155,546	256,151	-0,142	-0,170
156,560	106,486	-0,169	-0,139
157,575	751,677	-0,082	-0,155
158,589	289,911	-0,213	-0,270
159,604	92,625	-0,207	-0,162
160,619	51,303	-0,281	-0,185
161,633	109,901	-0,243	-0,202
162,648	178,123	-0,184	-0,187
163,662	-63,540	-0,237	-0,067
164,677	-6,411	-0,170	-0,080
165,692	-72,329	-0,187	-0,048
166,706	135,281	-0,322	-0,291
167,721	-158,622	-0,335	-0,013
168,735	74,916	-0,194	-0,142
169,750	174,049	-0,183	-0,184
170,764	-27,239	-0,315	-0,127
171,779	61,516	-0,148	-0,102
172,794	-85,780	-0,210	-0,045
173,808	51,348	-0,191	-0,126
174,823	-46,554	-0,266	-0,090
175,837	200,651	-0,240	-0,256
176,852	22,276	-0,245	-0,138
177,867	-61,172	-0,255	-0,074
178,881	166,533	-0,183	-0,181
179,896	-44,865	-0,225	-0,077
180,910	-28,595	-0,352	-0,140
181,925	-200,000	-0,050	-0,346
182,940	634,818	-0,138	-0,243
183,954	239,725	-0,159	-0,184
184,969	-7,910	-0,242	-0,113
185,983	84,508	-0,243	-0,184
186,998	58,796	-0,173	-0,118
188,013	363,370	-0,143	-0,200
189,027	-60,490	-0,209	-0,061
190,042	-200,000	-0,058	-0,234
191,056	44,604	-0,260	-0,166
192,071	-63,858	-0,221	-0,062
193,086	-74,281	-0,168	-0,042
194,100	-13,023	-0,142	-0,064
195,115	63,963	-0,224	-0,156
196,129	-22,330	-0,343	0,143
197,144	-93,210	-0,093	-0,018
198,159	140,702	-0,242	-0,222
199,173	290,969	-0,165	-0,208
200,188	-85,187	-0,221	-0,048
201,202	238,810	-0,209	-0,241
202,217	-70,113	-0,208	-0,054
203,232	346,361	-0,131	-0,179
204,246	383,111	-0,193	-0,275
205,261	-200,000	-0,023	-0,090
206,275	298,303	-0,094	-0,120
207,290	800,000	-0,087	-0,187
208,304	-200,000	-0,024	-0,083
209,319	-200,000	-0,040	-0,175
210,334	67,966	-0,164	-0,116
211,348	-40,107	-0,155	-0,056
212,363	237,724	-0,148	-0,170
213,377	408,514	-0,108	-0,159
214,392	427,922	-0,120	-0,179
215,407	101,039	-0,133	-0,107
216,421	-41,298	-0,224	-0,079
217,436	106,916	-0,147	-0,121
218,450	155,213	-0,228	-0,217
219,465	264,751	-0,203	-0,245
220,480	-66,280	-0,154	-0,042
221,494	91,843	-0,146	-0,113
222,509	-200,000	-0,028	-0,146
223,523	800,000	-0,073	-0,182
224,538	-67,760	-0,266	-0,071
225,553	270,421	-0,197	-0,239
226,567	104,938	-0,263	-0,214
227,582	193,232	-0,142	-0,148
228,596	-166,020	-0,253	-0,007
229,611	612,426	-0,060	-0,105
230,626	-181,814	-0,170	0,002
231,640	-41,117	-0,299	-0,106
232,655	76,767	-0,195	-0,143
233,669	773,426	-0,130	-0,247
234,684	352,584	-0,147	-0,202
235,699	195,040	-0,159	-0,167
236,713	-200,000	-0,006	-0,191
237,728	-39,934	-0,256	-0,092
238,742	86,217	-0,049	-0,037
239,757	130,944	-0,259	-0,229
240,772	71,349	-0,310	-0,222
241,786	123,395	-0,260	-0,225
242,801	1,939	-0,174	-0,087
243,815	62,729	-0,234	-0,162
244,830	53,940	-0,129	-0,085
245,844	61,622	-0,146	-0,100
246,859	75,529	-0,206	-0,150
247,874	-32,837	-0,193	-0,074
248,888	75,844	-0,151	-0,110
249,903	49,308	-0,145	-0,094
250,917	-106,939	-0,071	-0,011
251,932	112,259	-0,185	-0,154
252,947	321,321	-0,124	-0,163
253,961	147,431	-0,278	-0,259
254,976	231,514	-0,185	-0,210
255,990	366,959	-0,121	-0,169
257,005	82,860	-0,135	-0,101
258,020	327,240	-0,144	-0,190
259,034	102,192	-0,162	-0,130
260,049	52,939	-0,178	-0,117
261,063	58,592	-0,202	-0,137
262,078	115,375	-0,279	-0,235
263,093	-29,387	-0,270	-0,106
264,107	-200,000	-0,049	-0,336
265,122	800,000	-0,049	-0,102
266,136	-101,380	-0,159	-0,026
267,151	-200,000	-0,152	0,000
268,166	119,546	-0,193	-0,164
269,180	5,190	-0,188	-0,095
270,195	732,617	-0,148	-0,274
271,209	28,981	-0,181	-0,105
272,224	-37,949	-0,187	-0,068
273,239	800,000	-0,121	-0,238
274,253	280,151	-0,121	-0,149
275,268	156,978	-0,191	-0,182
276,282	120,585	-0,179	-0,153
277,297	800,000	-0,078	-0,186
278,312	-62,553	-0,239	-0,068
279,326	6,607	-0,154	-0,078
280,341	-179,523	-0,177	0,003
281,355	-108,805	-0,161	-0,023
282,370	111,634	-0,204	-0,169
283,384	-137,625	-0,227	-0,017
284,399	339,724	-0,155	-0,209
285,414	800,000	-0,018	-0,051
286,428	203,679	-0,180	-0,192
287,443	31,729	-0,108	-0,064
288,457	111,710	-0,165	-0,137
289,472	75,532	-0,085	-0,061
290,487	392,723	-0,156	-0,223
291,501	37,000	-0,246	-0,149
292,516	228,763	-0,136	-0,152
293,530	28,549	-0,141	0,082
294,545	326,203	-0,092	-0,121
295,560	-38,087	-0,186	-0,068
296,574	37,264	-0,113	-0,068
297,589	47,923	-0,081	0,052
298,603	171,446	-0,266	-0,262
299,618	-138,886	-0,265	-0,020
300,633	199,126	-0,164	-0,173
301,647	185,267	-0,154	-0,157
302,662	322,366	-0,074	-0,097
303,676	95,013	-0,067	-0,053
304,691	-94,498	-0,078	0,014
305,706	167,576	-0,073	-0,071
306,720	-103,493	-0,215	-0,034
307,735	-200,000	-0,003	-0,194
308,749	90,357	-0,099	-0,076
309,764	-5,392	0,054	-0,025
310,779	-119,180	-0,042	-0,005
311,793	-113,258	-0,181	-0,024
312,808	326,050	-0,121	-0,159
313,822	351,344	-0,055	-0,075
314,837	732,464	-0,110	-0,203
315,852	-200,000	-0,004	-0,097
316,866	153,831	-0,093	-0,088
317,881	344,751	-0,076	-0,103
318,895	33,416	-0,211	-0,126
319,910	114,541	-0,152	-0,127
320,925	38,442	-0,146	-0,089
321,939	-38,512	-0,122	0,044
322,954	328,446	-0,110	-0,145
323,968	474,178	-0,067	-0,104
324,983	-146,379	-0,211	-0,012
325,997	35,512	-0,082	0,049
327,012	120,955	-0,250	-0,213
328,027	615,292	-0,109	-0,189
329,041	767,647	-0,075	-0,140
330,056	-90,649	-0,053	-0,010
331,070	159,437	-0,104	-0,099
332,085	140,987	-0,050	-0,045
333,100	732,122	-0,092	-0,169
334,114	145,204	-0,200	-0,183
335,129	-200,000	-0,042	-0,151
336,143	78,158	-0,091	-0,066
337,158	352,032	-0,049	-0,066
338,173	-24,904	-0,159	-0,064
339,187	800,000	-0,067	-0,132
340,202	307,355	-0,108	-0,138
341,216	73,655	-0,081	0,058
342,231	16,635	-0,135	-0,073
343,246	3,553	-0,247	-0,123
344,260	-103,585	-0,059	-0,009
345,275	-63,264	-0,089	-0,025
346,289	432,808	0,046	-0,068
347,304	734,939	-0,148	-0,271
348,319	726,809	-0,090	-0,165
349,333	74,157	-0,190	-0,136
350,348	800,000	-0,117	-0,234
351,362	800,000	-0,057	-0,168
352,377	72,579	-0,285	-0,203
353,392	62,301	-0,091	-0,062
354,406	-118,009	-0,078	0,009
355,421	209,516	1305,588	1400,408
356,435	161,263	1465,157	1400,886
