DTS Sentinel unit serial number:	SN410029Multiplexer serial number:	ORYXHardware model number:	OX2-SRSoftware version number:	ORYX F/W v4,00 Oryx Data Collector v3.7.2.0data status	okinstallation	B3 Nyhavnadifferential loss correction	single-endedforward channel	channel 1reverse channel	N/Adate	2023/11/30time	10:27:30forward acquisition time	300,00reverse acquisition time	0,00gamma	499,1914k internal	0,3211k external	0,3211temperature offset calibration	1,0000default loss term (dB/km)	0,3820temperature slope calibration	1,0000multiplexer offset coefficient	1,0000multiplexer slope coefficient	1,0000fibre end	0,00T internal ref (°C)	9,57T ext. ref 1 (°C)	-5,43T ext. ref 2 (°C)	-5,52length (m)	temperature (°C)	Stokes	anti-Stokes-744,400	112,775	-0,164	-0,144
-743,385	-200,000	-0,023	0,257
-742,371	-200,000	0,070	-0,357
-741,356	-200,000	0,029	0,377
-740,342	231,253	-0,197	-0,235
-739,327	-200,000	-0,047	0,340
-738,312	800,000	-0,085	-0,179
-737,298	-200,000	-0,073	0,310
-736,283	300,035	-0,209	-0,280
-735,269	800,000	0,059	0,168
-734,254	190,888	-0,213	-0,232
-733,239	10,637	-0,136	-0,075
-732,225	-200,000	-0,026	-0,214
-731,210	61,215	0,211	0,152
-730,196	-135,736	0,038	0,003
-729,181	522,999	0,025	-0,042
-728,167	-50,460	0,096	0,033
-727,152	-24,827	0,026	0,011
-726,137	8,013	-0,085	-0,046
-725,123	-17,120	-0,106	-0,048
-724,108	-200,000	-0,006	-0,079
-723,094	167,240	-0,040	-0,041
-722,079	190,399	-0,116	0,126
-721,064	-14,529	-0,017	-0,008
-720,050	390,646	0,041	0,062
-719,035	-200,000	0,008	-0,066
-718,021	-104,480	-0,088	0,015
-717,006	242,922	-0,034	-0,041
-715,991	800,000	-0,052	-0,164
-714,977	800,000	-0,043	-0,110
-713,962	18,773	-0,072	-0,042
-712,948	-41,950	-0,053	0,020
-711,933	-39,969	-0,163	0,061
-710,918	311,070	0,082	0,112
-709,904	-200,000	0,008	-0,050
-708,889	800,000	0,092	-0,195
-707,875	-144,192	-0,177	-0,012
-706,860	484,529	-0,061	0,100
-705,845	48,565	0,023	0,016
-704,831	-200,000	-0,017	0,066
-703,816	151,966	-0,089	0,088
-702,802	591,395	-0,044	0,078
-701,787	-200,000	-0,006	0,049
-700,772	800,000	-0,041	-0,129
-699,758	-200,000	0,023	0,130
-698,743	219,851	0,048	0,055
-697,729	131,002	0,003	0,003
-696,714	239,027	-0,032	0,039
-695,699	-200,000	-0,022	-0,103
-694,685	576,953	-0,039	-0,069
-693,670	-200,000	-0,006	0,038
-692,656	-130,074	-0,094	0,009
-691,641	546,914	0,068	0,119
-690,627	359,170	-0,033	-0,047
-689,612	800,000	0,022	0,046
-688,597	-97,013	-0,154	0,029
-687,583	-37,126	0,050	0,019
-686,568	-47,982	-0,154	-0,054
-685,554	115,799	-0,020	0,017
-684,539	38,286	0,015	0,010
-683,524	800,000	-0,032	0,092
-682,510	-107,182	0,096	-0,015
-681,495	106,307	-0,103	-0,089
-680,481	-200,000	-0,006	0,064
-679,466	34,986	-0,171	-0,108
-678,451	137,549	-0,081	0,076
-677,437	593,047	0,028	0,050
-676,422	14,829	0,077	-0,043
-675,408	328,298	-0,038	-0,053
-674,393	107,110	-0,081	0,069
-673,378	-131,359	-0,077	-0,007
-672,364	800,000	0,056	0,134
-671,349	-55,653	0,059	0,019
-670,335	-200,000	-0,003	-0,080
-669,320	-200,000	0,025	-0,128
-668,305	-98,012	0,036	-0,007
-667,291	800,000	0,034	-0,090
-666,276	181,618	-0,023	-0,025
-665,262	425,629	0,030	-0,046
-664,247	-106,107	-0,076	-0,012
-663,232	1,201	-0,047	0,024
-662,218	13,932	0,064	-0,036
-661,203	800,000	0,068	-0,171
-660,189	113,298	-0,085	0,075
-659,174	-200,000	0,001	-0,075
-658,159	-200,000	-0,015	0,088
-657,145	-200,000	0,021	0,084
-656,130	-76,741	-0,048	0,012
-655,116	800,000	0,066	0,176
-654,101	-71,018	-0,164	0,044
-653,086	-1,561	0,178	-0,090
-652,072	-200,000	-0,021	-0,095
-651,057	251,941	-0,087	-0,108
-650,043	-200,000	0,013	-0,077
-649,028	-78,388	-0,117	0,029
-648,014	800,000	0,035	0,076
-646,999	-200,000	-0,014	0,117
-645,984	-200,000	0,010	0,090
-644,970	-200,000	0,018	0,130
-643,955	269,693	-0,037	0,047
-642,941	-58,581	-0,126	0,039
-641,926	-32,323	0,084	0,034
-640,911	111,455	0,084	-0,073
-639,897	-1,708	0,066	-0,033
-638,882	441,115	0,052	0,082
-637,868	-9,061	-0,112	-0,054
-636,853	-158,647	-0,122	-0,005
-635,838	-153,032	0,078	0,004
-634,824	-75,061	0,093	-0,024
-633,809	127,069	-0,092	0,084
-632,795	772,283	0,043	0,085
-631,780	-2,834	0,101	0,051
-630,765	186,699	-0,037	0,040
-629,751	-19,091	-0,110	0,049
-628,736	478,862	0,042	0,069
-627,722	-51,936	-0,056	-0,019
-626,707	-200,000	-0,003	0,161
-625,692	171,472	-0,075	0,077
-624,678	562,085	0,088	-0,155
-623,663	304,248	0,030	-0,040
-622,649	259,275	-0,076	-0,095
-621,634	171,805	-0,023	-0,024
-620,619	-130,484	-0,092	0,009
-619,605	800,000	0,049	0,151
-618,590	-59,126	-0,096	0,030
-617,576	-20,024	-0,095	0,042
-616,561	-200,000	0,009	0,039
-615,546	-200,000	-0,032	-0,190
-614,532	32,624	-0,179	-0,111
-613,517	30,895	0,052	0,032
-612,503	212,414	-0,045	-0,051
-611,488	800,000	0,033	0,084
-610,474	800,000	-0,003	0,009
-609,459	-180,350	0,031	0,000
-608,444	740,058	-0,032	-0,062
-607,430	631,473	0,045	-0,082
-606,415	110,970	0,023	-0,020
-605,401	73,052	-0,071	-0,054
-604,386	-180,237	0,102	0,002
-603,371	-37,911	0,102	0,039
-602,357	-28,399	-0,052	0,021
-601,342	92,516	-0,095	-0,077
-600,328	-200,000	0,005	-0,051
-599,313	85,724	-0,076	0,060
-598,298	315,075	0,012	0,017
-597,284	800,000	0,032	-0,101
-596,269	-200,000	-0,006	0,081
-595,255	90,268	0,179	0,144
-594,240	-167,386	-0,259	-0,007
-593,225	-76,809	0,124	0,031
-592,211	67,156	0,030	-0,022
-591,196	-68,308	0,168	0,047
-590,182	-64,865	0,073	0,021
-589,167	-200,000	-0,034	-0,109
-588,152	-23,980	-0,152	0,065
-587,138	651,604	0,021	-0,038
-586,123	371,184	-0,057	-0,084
-585,109	800,000	-0,065	0,143
-584,094	717,390	0,035	0,067
-583,079	-129,496	-0,066	-0,006
-582,065	300,440	-0,076	0,101
-581,050	800,000	0,042	-0,114
-580,036	-200,000	0,009	0,041
-579,021	-200,000	0,004	-0,101
-578,006	344,761	-0,054	0,077
-576,992	800,000	0,009	0,025
-575,977	-44,671	-0,083	-0,030
-574,963	-59,562	-0,087	0,027
-573,948	180,622	0,066	0,070
-572,934	64,851	-0,092	-0,067
-571,919	-119,468	-0,069	-0,009
-570,904	-120,179	-0,067	-0,008
-569,890	127,087	-0,046	-0,042
-568,875	77,061	-0,059	0,045
-567,861	324,565	0,047	0,065
-566,846	800,000	0,041	-0,096
-565,831	-25,054	-0,129	0,055
-564,817	-200,000	0,011	-0,152
-563,802	147,027	-0,115	0,111
-562,788	-200,000	-0,006	-0,021
-561,773	259,170	0,057	-0,071
-560,758	-200,000	0,021	0,067
-559,744	-200,000	-0,027	-0,092
-558,729	31,900	0,016	0,010
-557,715	-200,000	0,004	-0,082
-556,700	49,105	0,186	-0,126
-555,685	800,000	-0,054	0,122
-554,671	800,000	0,041	-0,107
-553,656	-200,000	-0,005	0,017
-552,642	187,574	0,061	-0,066
-551,627	-43,377	0,096	-0,035
-550,612	-59,925	-0,130	-0,040
-549,598	43,881	0,063	0,041
-548,583	-200,000	0,015	0,108
-547,569	-135,097	0,040	0,003
-546,554	-200,000	-0,013	0,063
-545,539	800,000	-0,063	0,130
-544,525	800,000	-0,065	-0,155
-543,510	800,000	-0,050	-0,101
-542,496	12,684	-0,071	0,039
-541,481	398,635	-0,077	-0,116
-540,466	-89,348	0,115	-0,024
-539,452	-151,732	0,106	-0,006
-538,437	181,161	0,083	0,088
-537,423	192,471	-0,009	0,009
-536,408	772,051	0,058	0,113
-535,393	-200,000	-0,000	-0,040
-534,379	-116,865	-0,186	-0,024
-533,364	136,619	0,094	0,088
-532,350	126,679	-0,056	-0,051
-531,335	10,982	0,110	0,060
-530,321	-26,885	0,088	0,037
-529,306	-19,500	-0,130	0,058
-528,291	64,142	-0,027	-0,019
-527,277	-112,570	-0,037	-0,005
-526,262	143,044	0,056	-0,053
-525,248	16,199	-0,058	-0,033
-524,233	419,817	0,021	-0,032
-523,218	800,000	0,044	0,114
-522,204	-113,232	0,115	-0,016
-521,189	-200,000	-0,007	-0,117
-520,175	132,466	-0,071	-0,066
-519,160	319,131	0,050	0,069
-518,145	-200,000	0,011	0,071
-517,131	-70,931	0,093	0,025
-516,116	-140,086	-0,044	0,003
-515,102	-200,000	-0,039	0,166
-514,087	-200,000	-0,010	-0,042
-513,072	-140,887	-0,068	0,005
-512,058	-21,898	-0,036	-0,016
-511,043	-200,000	0,036	0,143
-510,029	800,000	0,042	-0,084
-509,014	-200,000	-0,031	0,106
-507,999	521,905	-0,027	-0,045
-506,985	800,000	0,035	0,107
-505,970	9,175	-0,059	-0,032
-504,956	-126,256	0,074	-0,008
-503,941	-48,511	-0,099	-0,034
-502,926	41,933	0,042	-0,027
-501,912	157,710	0,107	-0,106
-500,897	-66,695	0,099	0,028
-499,883	708,324	-0,045	-0,086
-498,868	-200,000	-0,001	-0,072
-497,853	30,008	0,107	-0,065
-496,839	19,612	-0,044	0,025
-495,824	143,231	-0,072	0,069
-494,810	800,000	-0,002	0,005
-493,795	210,513	0,062	-0,070
-492,781	-67,268	0,062	-0,017
-491,766	306,225	0,021	-0,028
-490,751	209,277	0,080	-0,090
-489,737	9,352	-0,037	0,020
-488,722	-200,000	0,004	-0,080
-487,708	-106,184	0,093	-0,015
-486,693	504,373	0,029	0,048
-485,678	88,263	-0,042	-0,034
-484,664	31,077	-0,169	-0,104
-483,649	800,000	-0,087	-0,197
-482,635	754,302	-0,030	-0,058
-481,620	-42,332	0,081	-0,030
-480,605	-27,043	0,094	-0,039
-479,591	-200,000	0,030	0,123
-478,576	341,727	-0,123	0,174
-477,562	139,614	-0,026	-0,024
-476,547	-123,185	-0,077	0,009
-475,532	800,000	-0,012	0,034
-474,518	-200,000	0,029	-0,096
-473,503	185,878	0,086	0,092
-472,489	186,382	0,086	-0,092
-471,474	800,000	-0,033	0,067
-470,459	-200,000	-0,013	-0,048
-469,445	-95,028	-0,037	0,007
-468,430	-200,000	-0,004	0,047
-467,416	-200,000	0,014	0,045
-466,401	-200,000	-0,013	0,061
-465,386	133,139	0,103	0,096
-464,372	-200,000	0,022	0,108
-463,357	-200,000	-0,006	0,133
-462,343	-200,000	-0,002	0,042
-461,328	0,943	-0,056	-0,029
-460,313	-120,468	-0,081	-0,010
-459,299	-159,902	-0,054	0,002
-458,284	509,343	-0,077	0,129
-457,270	315,527	-0,071	-0,096
-456,255	-200,000	-0,004	-0,031
-455,241	447,345	-0,042	0,067
-454,226	218,010	0,062	0,071
-453,211	550,317	-0,080	0,138
-452,197	-200,000	-0,016	-0,051
-451,182	-200,000	-0,001	0,081
-450,168	523,769	-0,050	0,085
-449,153	800,000	-0,047	0,110
-448,138	-200,000	0,005	-0,109
-447,124	57,279	-0,056	-0,039
-446,109	36,602	0,112	0,071
-445,095	-17,116	-0,012	0,006
-444,080	-200,000	-0,013	-0,139
-443,065	-200,000	0,022	-0,170
-442,051	647,186	0,016	-0,030
-441,036	-73,578	-0,258	-0,067
-440,022	63,305	-0,104	-0,074
-439,007	-200,000	-0,007	0,072
-437,992	0,857	0,069	0,036
-436,978	51,277	0,067	-0,045
-435,963	-70,072	0,096	0,026
-434,949	361,618	-0,090	0,129
-433,934	70,951	0,062	-0,046
-432,919	109,551	-0,075	-0,064
-431,905	-44,580	-0,155	0,055
-430,890	-200,000	0,020	0,132
-429,876	193,132	0,059	-0,064
-428,861	161,253	-0,052	-0,052
-427,846	-18,219	0,051	0,023
-426,832	94,751	0,028	-0,022
-425,817	-200,000	-0,001	-0,127
-424,803	-200,000	0,018	0,124
-423,788	-13,645	0,072	0,033
-422,773	115,886	-0,039	0,034
-421,759	-200,000	-0,006	0,022
-420,744	-200,000	-0,027	0,117
-419,730	-90,553	0,071	0,015
-418,715	-200,000	0,005	-0,069
-417,701	36,845	-0,038	-0,024
-416,686	58,662	-0,036	0,025
-415,671	283,230	0,048	0,061
-414,657	69,164	-0,077	0,057
-413,642	109,554	0,029	0,025
-412,628	800,000	0,057	-0,161
-411,613	800,000	0,007	-0,019
-410,598	48,671	0,032	-0,021
-409,584	195,170	-0,042	-0,045
-408,569	594,087	0,116	0,206
-407,555	-150,438	0,056	0,003
-406,540	-150,989	0,081	-0,004
-405,525	-155,050	0,103	0,005
-404,511	-200,000	0,002	-0,037
-403,496	-10,634	0,082	-0,039
-402,482	-111,296	0,101	-0,015
-401,467	342,170	0,021	-0,029
-400,452	304,297	0,055	0,073
-399,438	-200,000	0,007	0,053
-398,423	800,000	0,034	-0,071
-397,409	185,559	0,044	-0,047
-396,394	-200,000	-0,015	-0,054
-395,379	-162,575	0,056	-0,002
-394,365	571,743	-0,036	-0,063
-393,350	33,989	-0,077	0,048
-392,336	628,036	0,041	-0,075
-391,321	-200,000	0,048	-0,157
-390,306	-37,185	-0,061	0,023
-389,292	-37,671	0,124	0,047
-388,277	102,506	-0,082	-0,068
-387,263	-62,756	0,054	-0,016
-386,248	209,407	0,035	-0,039
-385,233	68,766	-0,208	0,152
-384,219	-99,910	0,116	0,021
-383,204	-17,074	-0,075	-0,033
-382,190	156,383	-0,128	-0,126
-381,175	-86,626	-0,027	0,006
-380,160	1,901	-0,076	0,039
-379,146	-133,865	0,118	0,010
-378,131	591,103	0,012	-0,021
-377,117	-200,000	0,006	0,055
-376,102	-49,862	0,063	-0,021
-375,088	-200,000	0,024	-0,134
-374,073	-200,000	-0,002	-0,010
-373,058	800,000	0,010	0,025
-372,044	-200,000	-0,006	0,121
-371,029	800,000	0,035	0,073
-370,015	-94,292	0,179	-0,035
-369,000	11,384	-0,138	-0,075
-367,985	147,050	0,083	-0,080
-366,971	-200,000	-0,003	-0,090
-365,956	408,186	0,077	0,116
-364,942	67,657	0,053	-0,038
-363,927	-142,066	0,085	0,006
-362,912	-200,000	0,015	0,074
-361,898	72,988	-0,063	-0,047
-360,883	800,000	0,074	-0,166
-359,869	-200,000	-0,041	-0,137
-358,854	800,000	-0,013	-0,029
-357,839	-200,000	0,007	0,091
-356,825	-40,203	0,123	-0,046
-355,810	-26,205	-0,063	0,026
-354,796	800,000	0,046	-0,108
-353,781	800,000	-0,102	-0,204
-352,766	-200,000	0,008	-0,146
-351,752	-200,000	0,005	-0,023
-350,737	-200,000	0,010	-0,056
-349,723	800,000	0,082	0,195
-348,708	-200,000	0,020	-0,088
-347,693	-90,938	0,082	-0,017
-346,679	-151,427	-0,089	-0,005
-345,664	720,679	0,066	-0,126
-344,650	-200,000	0,017	0,131
-343,635	-153,461	0,088	-0,004
-342,620	-43,076	0,073	0,026
-341,606	52,542	-0,135	-0,092
-340,591	-200,000	-0,000	0,002
-339,577	-101,842	0,077	-0,013
-338,562	165,122	-0,112	-0,113
-337,548	-200,000	-0,016	-0,138
-336,533	800,000	0,009	-0,020
-335,518	-10,494	-0,099	0,047
-334,504	-53,079	-0,024	-0,008
-333,489	-59,644	-0,032	0,010
-332,475	-83,039	-0,107	-0,024
-331,460	261,062	0,073	-0,090
-330,445	800,000	-0,068	-0,196
-329,431	370,933	0,082	-0,119
-328,416	-135,042	0,046	-0,004
-327,402	760,178	0,051	0,100
-326,387	492,486	-0,025	0,041
-325,372	800,000	0,020	-0,046
-324,358	316,804	-0,033	-0,044
-323,343	-200,000	-0,001	0,083
-322,329	140,511	0,065	-0,061
-321,314	491,944	0,018	-0,030
-320,299	200,915	0,041	-0,045
-319,285	-163,203	0,010	0,000
-318,270	-76,655	0,107	0,027
-317,256	21,254	0,054	0,031
-316,241	-61,437	0,054	-0,016
-315,226	71,820	-0,185	0,137
-314,212	79,604	-0,050	0,038
-313,197	71,947	0,056	0,041
-312,183	-200,000	-0,002	0,012
-311,168	-119,462	-0,168	0,021
-310,153	-200,000	0,017	0,140
-309,139	-108,624	-0,050	0,008
-308,124	-200,000	-0,005	-0,090
-307,110	77,838	0,115	0,087
-306,095	-200,000	-0,018	0,062
-305,080	-200,000	0,017	0,060
-304,066	234,678	-0,032	-0,038
-303,051	800,000	-0,053	-0,158
-302,037	392,152	0,030	-0,045
-301,022	-17,710	0,085	0,038
-300,008	-200,000	0,021	0,121
-298,993	800,000	0,055	0,127
-297,978	487,539	-0,047	0,077
-296,964	415,171	0,046	0,070
-295,949	261,698	-0,102	0,126
-294,935	-79,370	0,033	0,008
-293,920	45,363	-0,113	-0,074
-292,905	-71,159	0,120	0,032
-291,891	-200,000	-0,005	0,036
-290,876	-0,438	-0,047	0,024
-289,862	53,101	0,005	-0,004
-288,847	632,348	-0,040	0,072
-287,832	800,000	-0,017	0,038
-286,818	-200,000	-0,004	0,016
-285,803	-70,593	0,122	0,033
-284,789	-7,366	0,100	0,048
-283,774	-200,000	0,060	0,199
-282,759	318,574	-0,022	0,030
-281,745	313,044	-0,070	-0,094
-280,730	238,093	-0,088	0,104
-279,716	-81,659	0,099	0,023
-278,701	-125,492	0,105	-0,011
-277,686	-147,778	-0,131	0,008
-276,672	68,982	-0,068	0,049
-275,657	-200,000	-0,021	-0,071
-274,643	715,639	0,073	-0,139
-273,628	-200,000	0,006	-0,034
-272,613	-153,125	-0,108	0,005
-271,599	232,865	-0,064	-0,075
-270,584	-90,275	0,168	0,034
-269,570	-76,061	-0,013	0,003
-268,555	209,427	0,018	0,021
-267,540	134,000	-0,091	-0,084
-266,526	44,914	-0,109	-0,071
-265,511	144,469	0,057	-0,054
-264,497	-38,515	0,053	0,020
-263,482	-136,097	0,134	0,011
-262,467	-200,000	0,002	0,015
-261,453	-129,770	0,104	-0,010
-260,438	-200,000	0,014	0,077
-259,424	364,374	-0,025	-0,036
-258,409	-47,756	-0,058	-0,020
-257,395	800,000	0,101	0,214
-256,380	231,851	-0,067	0,079
-255,365	-20,974	0,142	-0,062
-254,351	-25,118	-0,078	-0,033
-253,336	800,000	0,052	-0,105
-252,322	-200,000	-0,029	-0,124
-251,307	-131,760	0,116	-0,011
-250,292	183,072	0,060	-0,063
-249,278	305,822	-0,086	0,114
-248,263	211,971	0,069	0,077
-247,249	-4,784	0,067	0,033
-246,234	-43,423	-0,042	0,015
-245,219	-131,706	-0,284	-0,026
-244,205	-200,000	0,008	0,078
-243,190	51,807	-0,040	0,027
-242,176	-200,000	-0,043	0,154
-241,161	800,000	-0,025	-0,068
-240,146	587,194	0,036	0,063
-239,132	-148,226	0,122	-0,007
-238,117	-13,688	-0,028	-0,013
-237,103	-13,283	0,037	-0,017
-236,088	-86,825	0,015	-0,003
-235,073	-55,467	0,150	-0,047
-234,059	-134,095	0,038	-0,003
-233,044	138,409	0,108	-0,101
-232,030	137,493	-0,013	0,012
-231,015	-33,432	-0,033	-0,013
-230,000	721,573	-0,009	0,017
-228,986	-57,093	0,126	0,039
-227,971	-200,000	0,009	0,042
-226,957	-200,000	-0,005	0,090
-225,942	125,367	0,114	0,102
-224,927	11,707	-0,109	-0,059
-223,913	23,497	-0,084	-0,049
-222,898	-200,000	-0,008	-0,046
-221,884	-99,445	-0,097	0,017
-220,869	42,049	0,037	-0,024
-219,855	43,444	0,083	0,054
-218,840	713,350	-0,048	-0,091
-217,825	552,561	0,035	-0,060
-216,811	-200,000	0,016	-0,085
-215,796	-71,596	-0,069	-0,018
-214,782	126,886	-0,091	-0,082
-213,767	219,221	0,051	-0,058
-212,752	-163,369	0,052	-0,002
-211,738	-68,790	0,159	0,043
-210,723	-84,116	0,032	0,007
-209,709	199,681	-0,064	-0,070
-208,694	417,385	-0,053	-0,081
-207,679	-200,000	-0,009	-0,144
-206,665	183,052	-0,020	-0,021
-205,650	74,287	0,124	0,092
-204,636	33,444	-0,019	-0,012
-203,621	655,541	-0,056	0,102
-202,606	-78,016	-0,029	-0,007
-201,592	214,430	0,018	-0,021
-200,577	800,000	0,033	0,088
-199,563	33,839	-0,096	0,059
-198,548	308,597	0,007	-0,009
-197,533	800,000	-0,057	0,115
-196,519	-62,708	0,034	0,010
-195,504	14,709	-0,020	-0,011
-194,490	473,040	-0,014	-0,023
-193,475	170,973	-0,059	-0,060
-192,460	406,310	-0,038	0,057
-191,446	25,655	0,127	0,075
-190,431	-30,463	-0,077	0,031
-189,417	800,000	-0,016	0,033
-188,402	114,256	-0,040	0,035
-187,387	-200,000	0,031	-0,153
-186,373	229,939	-0,070	0,082
-185,358	495,689	-0,035	0,056
-184,344	179,572	0,073	-0,076
-183,329	-50,187	0,088	-0,029
-182,315	150,950	-0,013	0,012
-181,300	-134,402	-0,128	-0,011
-180,285	-127,150	-0,066	0,007
-179,271	324,123	-0,031	0,042
-178,256	330,887	0,103	0,141
-177,242	289,129	-0,013	-0,016
-176,227	529,120	-0,049	0,082
-175,212	-200,000	-0,006	-0,043
-174,198	177,341	0,112	0,116
-173,183	-26,629	-0,067	-0,028
-172,169	-200,000	-0,000	-0,059
-171,154	-162,697	0,083	0,003
-170,139	366,671	-0,019	-0,027
-169,125	-200,000	0,003	-0,101
-168,110	-121,697	-0,094	0,011
-167,096	63,521	-0,067	0,047
-166,081	-200,000	-0,009	-0,077
-165,066	17,926	-0,088	-0,049
-164,052	-129,169	-0,025	0,002
-163,037	-17,023	-0,049	0,022
-162,023	-146,721	0,158	-0,010
-161,008	58,198	-0,088	-0,061
-159,993	472,410	0,032	0,052
-158,979	96,800	-0,140	-0,114
-157,964	-34,846	-0,090	-0,035
-156,950	332,320	-0,077	-0,106
-155,935	-200,000	0,035	-0,187
-154,920	800,000	0,039	-0,077
-153,906	-136,109	0,029	0,002
-152,891	207,832	0,124	0,137
-151,877	-13,233	-0,030	0,014
-150,862	16,543	-0,079	0,044
-149,847	625,720	-0,037	-0,066
-148,833	-97,256	0,100	-0,018
-147,818	73,791	0,097	0,072
-146,804	-88,623	0,044	-0,009
-145,789	800,000	-0,055	-0,155
-144,775	-200,000	-0,037	0,158
-143,760	-5,879	0,060	-0,029
-142,745	800,000	0,050	0,104
-141,731	-200,000	-0,003	-0,112
-140,716	-88,839	0,072	0,015
-139,702	26,613	0,059	-0,035
-138,687	-200,000	-0,011	0,037
-137,672	-200,000	-0,003	0,015
-136,658	221,573	0,069	0,078
-135,643	-200,000	0,007	-0,077
-134,629	36,967	0,023	-0,015
-133,614	-60,329	0,175	-0,052
-132,599	-7,186	0,154	0,074
-131,585	-3,941	-0,055	-0,027
-130,570	-21,062	0,058	-0,025
-129,556	-154,723	-0,084	-0,004
-128,541	-200,000	0,014	0,061
-127,526	538,691	0,084	0,142
-126,512	26,456	0,156	0,092
-125,497	229,865	0,055	-0,064
-124,483	800,000	-0,035	0,089
-123,468	-200,000	-0,007	0,115
-122,453	-100,257	0,136	-0,024
-121,439	800,000	0,017	0,049
-120,424	-200,000	-0,003	-0,162
-119,410	-84,943	0,027	-0,006
-118,395	800,000	0,025	0,074
-117,380	27,078	0,059	-0,035
-116,366	72,583	-0,085	0,063
-115,351	800,000	-0,039	-0,081
-114,337	641,615	-0,029	0,053
-113,322	97,497	-0,047	0,038
-112,307	-6,636	-0,055	0,026
-111,293	432,688	0,079	0,121
-110,278	-200,000	-0,003	-0,028
-109,264	48,767	-0,159	0,105
-108,249	-200,000	-0,006	0,047
-107,234	-171,895	-0,058	-0,001
-106,220	27,166	0,050	-0,030
-105,205	649,763	-0,043	-0,078
-104,191	-200,000	0,008	-0,061
-103,176	-200,000	-0,000	0,077
-102,162	800,000	0,047	0,099
-101,147	-32,109	0,076	-0,030
-100,132	-49,958	-0,157	-0,052
-99,118	-165,381	-0,170	0,005
-98,103	-200,000	-0,008	-0,089
-97,089	800,000	0,047	-0,133
-96,074	305,660	-0,093	-0,122
-95,059	-200,000	-0,004	-0,031
-94,045	50,080	0,077	-0,051
-93,030	25,215	-0,153	-0,090
-92,016	-109,967	-0,067	-0,010
-91,001	-200,000	0,016	0,067
-89,986	484,863	0,021	0,033
-88,972	77,585	0,090	0,067
-87,957	711,690	0,053	-0,101
-86,943	226,077	-0,050	-0,058
-85,928	-36,213	0,122	0,046
-84,913	-113,809	-0,121	-0,016
-83,899	-200,000	0,009	-0,088
-82,884	-23,935	0,069	0,029
-81,870	-9,704	0,078	0,037
-80,855	148,897	0,108	0,103
-79,840	-200,000	-0,003	-0,095
-78,826	686,196	-0,047	-0,087
-77,811	-61,566	-0,068	-0,020
-76,797	-66,525	-0,098	0,027
-75,782	-200,000	-0,025	0,126
-74,767	-78,518	-0,042	-0,010
-73,753	417,118	0,045	0,068
-72,738	800,000	-0,040	-0,087
-71,724	-200,000	0,024	-0,113
-70,709	800,000	-0,035	-0,085
-69,694	-41,221	0,040	0,015
-68,680	22,755	-0,100	-0,058
-67,665	-200,000	-0,017	0,078
-66,651	120,607	0,139	-0,122
-65,636	237,638	-0,014	-0,017
-64,622	-3,488	-0,015	-0,007
-63,607	800,000	-0,034	-0,090
-62,592	-200,000	-0,025	0,091
-61,578	-200,000	-0,002	-0,077
-60,563	-200,000	0,017	0,105
-59,549	-200,000	-0,038	0,139
-58,534	57,792	-1,978	-1,364
-57,519	593,783	-1,164	-2,039
-56,505	-200,000	-0,495	-4,336
-55,490	421,962	1,021	1,551
-54,476	800,000	5,177	11,307
-53,461	-200,000	21,721	345,006
-52,446	800,000	763,501	2350,512
-51,432	549,916	1663,278	2825,631
-50,417	71,954	1659,946	1217,374
-49,403	17,360	1533,237	856,775
-48,388	11,388	1457,001	785,303
-47,373	19,451	1448,245	819,216
-46,359	14,939	1437,391	791,607
-45,344	9,672	1433,454	764,340
-44,330	9,605	1431,537	762,965
-43,315	9,604	1429,764	761,986
-42,300	9,651	1427,606	761,028
-41,286	9,682	1426,444	760,526
-40,271	9,585	1425,613	759,595
-39,257	9,642	1424,144	759,051
-38,242	9,630	1423,421	758,578
-37,227	9,676	1421,938	757,975
-36,213	9,635	1420,884	757,190
-35,198	9,667	1419,545	756,598
-34,184	9,702	1418,523	756,187
-33,169	9,610	1417,262	755,051
-32,154	9,669	1416,230	754,749
-31,140	9,644	1415,060	753,980
-30,125	9,655	1413,768	753,313
-29,111	9,657	1412,631	752,685
-28,096	9,630	1411,474	751,915
-27,082	9,577	1410,366	751,046
-26,067	9,578	1409,306	750,457
-25,052	9,642	1408,195	750,133
-24,038	9,618	1407,394	749,563
-23,023	9,623	1406,400	749,027
-22,009	9,573	1405,314	748,185
-20,994	9,580	1404,539	747,776
-19,979	9,616	1403,469	747,346
-18,965	9,562	1402,543	746,572
-17,950	9,561	1401,672	746,074
-16,936	9,555	1400,781	745,541
-15,921	9,504	1399,888	744,800
-14,906	9,546	1398,845	744,412
-13,892	9,542	1397,935	743,876
-12,877	9,536	1397,100	743,376
-11,863	9,554	1396,042	742,869
-10,848	9,504	1395,425	742,280
-9,833	9,458	1394,368	741,474
-8,819	9,403	1393,542	740,751
-7,804	9,391	1392,507	740,112
-6,790	9,405	1391,554	739,644
-5,775	9,432	1390,351	739,101
-4,760	9,382	1389,671	738,476
-3,746	9,441	1388,693	738,201
-2,731	9,356	1387,853	737,332
-1,717	9,438	1386,810	737,125
-0,702	9,415	1385,277	736,178
0,313	13,416	1297,306	707,711
1,327	29,239	688,303	411,285
2,342	45,615	119,040	77,419
3,356	-0,503	16,697	8,331
4,371	5,620	3,544	1,841
5,386	2,531	1,082	0,551
6,400	777,907	0,306	0,592
7,415	20,436	-0,278	-0,158
8,429	15,439	-0,286	-0,158
9,444	-45,920	-0,358	-0,124
10,459	-61,904	-0,357	-0,105
11,473	166,011	-0,212	-0,211
12,488	53,644	-0,299	-0,202
13,502	-30,993	-0,489	-0,194
14,517	5,265	-0,282	-0,146
15,531	26,950	-0,293	-0,173
16,546	111,033	-0,220	-0,187
17,561	-55,297	-0,342	-0,108
18,575	-33,213	-0,215	-0,083
19,590	-66,659	-0,281	-0,078
20,604	-147,087	-0,186	-0,011
21,619	25,619	-0,432	-0,253
22,634	118,914	-0,451	-0,392
23,648	152,599	-0,307	-0,295
24,663	-7,402	-0,410	-0,195
25,677	48,502	-0,267	-0,175
26,692	222,100	-0,280	-0,318
27,707	9,339	-0,336	-0,178
28,721	31,611	-0,376	-0,227
29,736	113,086	-0,282	-0,240
30,750	73,894	-0,419	-0,309
31,765	31,000	-0,372	-0,224
32,780	83,345	-0,375	-0,287
33,794	8,172	-0,289	-0,152
34,809	180,691	-0,308	-0,319
35,823	333,014	-0,238	-0,325
36,838	149,579	-0,326	-0,311
37,853	31,392	-0,369	-0,222
38,867	-17,816	-0,375	-0,165
39,882	69,096	-0,491	-0,354
40,896	154,435	-0,282	-0,272
41,911	-35,834	-0,220	-0,083
42,926	161,658	-0,291	-0,287
43,940	177,902	-0,267	-0,274
44,955	101,826	-0,377	-0,309
45,969	98,004	-0,329	-0,265
46,984	23,018	-0,253	-0,145
47,999	112,085	-0,209	-0,177
49,013	130,859	-0,191	-0,172
50,028	95,607	-0,282	-0,226
51,042	-1,320	-0,301	-0,149
52,057	800,000	-0,159	-0,325
53,071	20,826	-0,364	-0,207
54,086	186,504	-0,265	-0,277
55,101	225,051	-0,233	-0,265
56,115	57,185	-0,252	-0,172
57,130	165,047	-0,289	-0,286
58,144	30,804	-0,325	-0,195
59,159	129,316	-0,384	-0,344
60,174	30,272	-0,352	-0,211
61,188	-3,379	-0,387	-0,189
62,203	-15,138	-0,253	-0,113
63,217	238,660	-0,357	-0,416
64,232	95,530	-0,338	-0,270
65,247	6,086	-0,325	-0,168
66,261	145,244	-0,318	-0,299
67,276	174,779	-0,320	-0,325
68,290	-63,871	-0,351	-0,100
69,305	74,333	-0,345	-0,254
70,320	58,215	-0,277	-0,190
71,334	79,738	-0,300	-0,226
72,349	235,461	-0,282	-0,327
73,363	51,093	-0,342	-0,227
74,378	187,423	-0,263	-0,276
75,393	235,959	-0,214	-0,248
76,407	122,995	-0,364	-0,319
77,422	242,748	-0,103	-0,121
78,436	64,651	-0,204	-0,144
79,451	-119,789	-0,359	-0,043
80,466	63,125	-0,188	-0,132
81,480	87,915	-0,316	-0,245
82,495	800,000	-0,100	-0,213
83,509	37,136	-0,298	-0,184
84,524	6,905	-0,227	-0,118
85,539	7,595	-0,201	-0,105
86,553	143,229	-0,233	-0,217
87,568	105,601	-0,303	-0,250
88,582	91,469	-0,335	-0,263
89,597	125,307	-0,295	-0,260
90,611	136,661	-0,233	-0,213
91,626	-50,467	-0,283	-0,093
92,641	-66,880	-0,314	-0,086
93,655	-1,919	-0,412	-0,202
94,670	64,628	-0,140	-0,098
95,684	-1,785	-0,381	-0,187
96,699	53,392	-0,384	-0,257
97,714	70,434	-0,253	-0,183
98,728	223,176	-0,262	-0,296
99,743	61,063	-0,210	-0,145
100,757	700,829	-0,126	-0,233
101,772	6,938	-0,343	-0,178
102,787	315,644	-0,167	-0,221
103,801	177,363	-0,252	-0,256
104,816	-29,811	-0,226	-0,090
105,830	15,651	-0,187	-0,103
106,845	62,702	-0,251	-0,175
107,860	-8,058	-0,229	-0,107
108,874	800,000	-0,102	-0,201
109,889	116,793	-0,244	-0,209
110,903	39,159	-0,298	-0,186
111,918	171,857	-0,202	-0,203
112,933	-17,490	-0,261	-0,114
113,947	354,766	-0,100	-0,140
114,962	90,851	-0,204	-0,159
115,976	-184,522	-0,185	0,002
116,991	60,354	-0,156	-0,108
118,006	2,561	-0,259	-0,130
119,020	229,121	-0,215	-0,246
120,035	286,328	-0,225	-0,284
121,049	-55,836	-0,245	-0,076
122,064	-73,301	-0,160	-0,040
123,079	-94,969	-0,359	-0,067
124,093	-32,472	-0,266	-0,103
125,108	87,954	-0,360	-0,278
126,122	-1,757	-0,393	-0,193
127,137	-128,768	-0,174	-0,017
128,151	-81,232	-0,268	-0,061
129,166	63,998	-0,266	-0,187
130,181	-33,981	-0,397	-0,151
131,195	145,613	-0,253	-0,236
132,210	611,656	-0,220	-0,384
133,224	-0,311	-0,307	-0,152
134,239	114,214	-0,323	-0,274
135,254	555,758	-0,116	-0,195
136,268	10,887	-0,289	-0,153
137,283	-116,726	-0,239	-0,030
138,297	32,345	-0,142	-0,085
139,312	-49,849	-0,125	-0,041
140,327	149,401	-0,263	-0,248
141,341	246,346	-0,158	-0,186
142,356	-22,382	-0,178	-0,075
143,370	336,026	-0,171	-0,232
144,385	-14,752	-0,384	-0,171
145,400	-47,163	-0,394	-0,133
146,414	176,939	-0,264	-0,267
147,429	149,773	-0,245	-0,232
148,443	332,907	-0,165	-0,223
149,458	17,149	-0,229	-0,126
150,473	88,632	-0,266	-0,206
151,487	109,088	-0,304	-0,253
152,502	276,981	-0,243	-0,301
153,516	555,740	-0,047	-0,080
154,531	170,744	-0,247	-0,246
155,546	182,197	-0,150	-0,154
156,560	-1,087	-0,176	-0,086
157,575	-120,560	-0,194	-0,023
158,589	99,106	-0,280	-0,225
159,604	12,305	-0,117	-0,063
160,619	-29,348	-0,195	-0,077
161,633	175,332	-0,272	-0,274
162,648	69,163	-0,170	-0,122
163,662	-8,029	-0,258	-0,121
164,677	33,373	-0,174	-0,105
165,692	225,043	-0,127	-0,143
166,706	41,684	-0,236	-0,148
167,721	85,706	-0,223	-0,171
168,735	590,604	-0,147	-0,252
169,750	21,968	-0,193	-0,109
170,764	124,893	-0,175	-0,153
171,779	-109,262	-0,189	-0,028
172,794	-39,048	-0,278	-0,101
173,808	175,765	-0,223	-0,225
174,823	78,283	-0,155	-0,115
175,837	52,667	-0,248	-0,164
176,852	-94,877	-0,321	-0,060
177,867	-31,454	-0,124	-0,048
178,881	-139,908	-0,179	-0,013
179,896	77,931	-0,101	-0,075
180,910	611,259	-0,201	-0,351
181,925	57,946	-0,184	-0,125
182,940	-3,540	-0,184	-0,088
183,954	800,000	-0,077	-0,160
184,969	-119,775	-0,223	-0,026
185,983	-200,000	-0,046	-0,144
186,998	67,721	-0,247	-0,175
188,013	164,603	-0,185	-0,181
189,027	144,579	-0,237	-0,220
190,042	369,621	-0,109	-0,154
191,056	2,928	-0,268	-0,135
192,071	501,429	-0,080	-0,129
193,086	60,498	-0,154	-0,106
194,100	123,496	-0,160	-0,139
195,115	-15,785	-0,140	-0,062
196,129	18,657	-0,217	-0,120
197,144	285,369	-0,168	-0,210
198,159	75,770	-0,275	-0,201
199,173	635,398	-0,182	-0,321
200,188	114,474	-0,152	-0,128
201,202	121,417	-0,111	-0,096
202,217	800,000	-0,138	-0,278
203,232	233,752	-0,175	-0,201
204,246	513,670	-0,165	-0,268
205,261	179,421	-0,195	-0,198
206,275	14,116	-0,186	-0,100
207,290	436,667	-0,121	-0,183
208,304	-200,000	-0,037	-0,205
209,319	161,620	-0,100	-0,097
210,334	330,438	-0,144	-0,193
211,348	800,000	-0,109	-0,255
212,363	392,074	-0,148	-0,214
213,377	-40,032	-0,118	-0,042
214,392	-35,638	-0,214	-0,080
215,407	90,561	-0,167	-0,129
216,421	204,017	-0,106	0,114
217,436	98,238	-0,157	-0,125
218,450	259,173	-0,243	-0,290
219,465	-25,799	-0,253	-0,103
220,480	800,000	-0,114	-0,249
221,494	-20,256	-0,159	-0,068
222,509	169,891	-0,082	-0,081
223,523	-97,048	-0,179	-0,032
224,538	92,583	-0,166	-0,129
225,553	-2,215	-0,275	-0,133
226,567	612,830	-0,051	-0,089
227,582	71,387	-0,106	-0,076
228,596	141,345	-0,226	-0,207
229,611	286,005	-0,176	-0,220
230,626	195,368	-0,181	-0,190
231,640	194,728	-0,135	-0,141
232,655	-80,229	-0,271	-0,062
233,669	287,749	-0,100	-0,126
234,684	800,000	-0,070	-0,154
235,699	55,894	-0,288	-0,192
236,713	206,449	-0,046	-0,050
237,728	305,758	-0,165	-0,212
238,742	98,696	-0,145	-0,116
239,757	-200,000	-0,052	-0,171
240,772	120,474	-0,299	-0,257
241,786	253,160	-0,114	-0,135
242,801	-13,357	-0,171	-0,077
243,815	800,000	-0,060	-0,147
244,830	-134,343	-0,240	-0,020
245,844	22,727	-0,192	-0,109
246,859	348,583	-0,143	-0,195
247,874	800,000	-0,127	-0,318
248,888	176,359	-0,156	-0,156
249,903	800,000	0,032	-0,089
250,917	51,465	-0,063	-0,041
251,932	-71,525	-0,224	-0,057
252,947	182,974	-0,130	-0,132
253,961	276,178	-0,191	-0,234
254,976	190,542	-0,128	-0,133
255,990	509,333	-0,148	-0,239
257,005	93,589	-0,179	-0,140
258,020	654,282	-0,070	-0,125
259,034	-68,154	-0,176	-0,047
260,049	-106,180	-0,207	-0,032
261,063	504,049	-0,120	-0,192
262,078	91,836	-0,219	-0,170
263,093	238,503	-0,222	-0,254
264,107	72,940	-0,159	-0,114
265,122	22,613	-0,168	-0,094
266,136	161,603	-0,123	-0,118
267,151	-114,008	-0,228	0,030
268,166	-113,785	-0,185	-0,025
269,180	-86,319	-0,233	-0,049
270,195	495,152	-0,154	-0,245
271,209	163,161	-0,231	-0,224
272,224	751,119	-0,128	-0,240
273,239	24,447	-0,053	0,030
274,253	-42,873	-0,075	-0,026
275,268	-172,451	-0,272	-0,006
276,282	-48,410	-0,151	-0,050
277,297	319,300	-0,190	-0,249
278,312	-81,563	-0,224	-0,050
279,326	89,505	-0,096	-0,074
280,341	-114,326	-0,287	-0,038
281,355	-93,178	-0,172	0,033
282,370	298,251	-0,185	-0,234
283,384	-33,902	-0,172	-0,065
284,399	-64,962	-0,175	-0,048
285,414	26,849	-0,208	-0,119
286,428	30,237	-0,169	-0,099
287,443	-200,000	-0,011	0,042
288,457	-2,979	-0,192	-0,092
289,472	218,488	-0,113	-0,124
290,487	-32,871	-0,219	-0,083
291,501	-3,660	-0,060	-0,028
292,516	216,535	-0,098	-0,107
293,530	-191,537	-0,206	-0,001
294,545	-31,446	-0,188	-0,072
295,560	-136,897	-0,108	-0,008
296,574	-21,349	-0,284	-0,119
297,589	-1,696	-0,191	-0,092
298,603	800,000	-0,085	-0,238
299,618	2,488	-0,262	-0,130
300,633	163,918	-0,229	0,221
301,647	-200,000	-0,023	-0,115
302,662	98,460	-0,075	-0,059
303,676	-183,015	-0,274	0,003
304,691	213,876	-0,145	-0,158
305,706	361,729	-0,228	-0,315
306,720	-50,995	-0,273	-0,088
307,735	33,459	-0,206	-0,123
308,749	-92,341	-0,212	0,041
309,764	-50,523	-0,114	0,037
310,779	800,000	-0,105	-0,210
311,793	-46,141	-0,249	-0,084
312,808	95,283	-0,175	-0,137
313,822	-140,892	-0,262	-0,018
314,837	-7,220	-0,142	0,066
315,852	43,102	-0,113	0,071
316,866	-36,169	-0,074	-0,027
317,881	22,531	-0,148	0,083
318,895	41,830	-0,181	-0,113
319,910	800,000	-0,092	-0,197
320,925	312,863	-0,187	-0,241
321,939	800,000	-0,066	-0,151
322,954	11,944	-0,200	0,105
323,968	-52,925	-0,157	-0,049
324,983	27,299	-0,149	0,086
325,997	46,654	-0,115	-0,073
327,012	-136,169	-0,237	0,019
328,027	800,000	-0,070	-0,135
329,041	163,157	-0,164	-0,158
330,056	-149,588	-0,142	-0,008
331,070	139,632	-0,074	-0,066
332,085	-111,332	-0,156	0,022
333,100	15,808	-0,195	-0,105
334,114	-70,798	-0,156	-0,040
335,129	-128,763	-0,127	-0,012
336,143	110,559	-0,176	-0,145
337,158	39,503	-0,149	-0,091
338,173	82,056	-0,058	-0,043
339,187	800,000	-0,077	-0,161
340,202	39,255	-0,157	-0,096
341,216	369,096	-0,141	-0,196
342,231	800,000	-0,032	-0,094
343,246	77,021	-0,124	-0,090
344,260	229,684	-0,132	-0,148
345,275	287,585	-0,151	-0,187
346,289	-200,000	-0,011	-0,069
347,304	663,630	-0,153	-0,271
348,319	31,795	-0,214	-0,126
349,333	240,273	-0,198	-0,226
350,348	-200,000	-0,075	-0,253
351,362	263,744	-0,090	-0,107
352,377	138,442	-0,136	-0,122
353,392	57,763	-0,081	-0,054
354,406	404,884	-0,051	-0,073
355,421	207,323	1311,248	1400,396
356,435	159,484	1471,516	1400,872
