DTS Sentinel unit serial number:	SN410029Multiplexer serial number:	ORYXHardware model number:	OX2-SRSoftware version number:	ORYX F/W v4,00 Oryx Data Collector v3.7.2.0data status	okinstallation	B3 Nyhavnadifferential loss correction	single-endedforward channel	channel 1reverse channel	N/Adate	2023/12/04time	18:17:30forward acquisition time	300,00reverse acquisition time	0,00gamma	499,1914k internal	0,3200k external	0,3200temperature offset calibration	1,0000default loss term (dB/km)	0,3820temperature slope calibration	1,0000multiplexer offset coefficient	1,0000multiplexer slope coefficient	1,0000fibre end	0,00T internal ref (°C)	14,99T ext. ref 1 (°C)	-0,16T ext. ref 2 (°C)	-0,18length (m)	temperature (°C)	Stokes	anti-Stokes-744,400	521,552	-0,184	-0,315
-743,385	-200,000	0,047	0,224
-742,371	24,159	-0,254	-0,152
-741,356	-200,000	0,095	0,442
-740,342	48,622	-0,183	-0,124
-739,327	-200,000	-0,061	0,206
-738,312	205,800	-0,301	-0,341
-737,298	800,000	-0,083	0,248
-736,283	280,092	-0,221	-0,288
-735,269	-200,000	0,039	0,429
-734,254	89,365	-0,141	-0,114
-733,239	468,659	-0,184	0,301
-732,225	800,000	-0,059	-0,128
-731,210	-200,000	-0,022	0,125
-730,196	-200,000	0,027	0,150
-729,181	9,189	-0,061	0,033
-728,167	19,770	0,067	-0,039
-727,152	662,197	0,070	-0,132
-726,137	156,143	-0,132	-0,132
-725,123	14,286	-0,184	-0,104
-724,108	800,000	0,020	-0,047
-723,094	592,719	-0,136	-0,245
-722,079	-200,000	-0,046	-0,164
-721,064	2,319	-0,116	-0,061
-720,050	337,604	0,026	0,036
-719,035	154,785	-0,152	0,152
-718,021	-22,794	0,020	-0,009
-717,006	677,783	-0,043	-0,081
-715,991	-42,656	-0,112	-0,041
-714,977	800,000	-0,055	-0,147
-713,962	-200,000	-0,005	-0,071
-712,948	140,229	-0,093	-0,090
-711,933	503,115	0,052	0,088
-710,918	-31,869	-0,019	0,008
-709,904	267,548	-0,106	-0,135
-708,889	800,000	0,022	-0,053
-707,875	275,172	0,066	-0,086
-706,860	26,176	0,018	0,011
-705,845	54,130	0,015	-0,011
-704,831	800,000	-0,053	-0,141
-703,816	-68,076	-0,098	0,027
-702,802	9,114	-0,074	-0,041
-701,787	178,432	-0,109	-0,116
-700,772	-131,724	-0,084	0,008
-699,758	-59,843	0,004	0,001
-698,743	-136,878	-0,073	0,006
-697,729	-36,433	0,056	0,022
-696,714	-200,000	-0,006	0,086
-695,699	-13,950	0,028	0,013
-694,685	152,591	-0,022	-0,022
-693,670	73,551	-0,057	-0,043
-692,656	-71,144	0,087	0,024
-691,641	37,480	0,008	0,005
-690,627	609,509	-0,062	0,114
-689,612	-200,000	0,007	0,073
-688,597	122,188	-0,101	0,091
-687,583	-200,000	0,021	0,131
-686,568	800,000	0,023	-0,049
-685,554	69,059	0,079	0,059
-684,539	-100,915	0,054	-0,010
-683,524	106,087	-0,029	0,025
-682,510	178,471	0,072	0,076
-681,495	22,870	-0,078	-0,046
-680,481	-30,186	-0,205	-0,084
-679,466	800,000	-0,024	-0,063
-678,451	6,124	-0,099	-0,053
-677,437	306,639	-0,071	0,095
-676,422	-200,000	0,049	0,164
-675,408	-85,591	-0,090	0,020
-674,393	64,250	0,029	-0,021
-673,378	414,547	0,037	-0,057
-672,364	-42,464	-0,175	-0,064
-671,349	800,000	-0,094	-0,232
-670,335	-122,994	-0,065	0,008
-669,320	71,937	-0,028	0,021
-668,305	30,616	0,083	0,051
-667,291	-111,186	0,020	-0,003
-666,276	-33,197	-0,100	-0,040
-665,262	212,755	-0,073	-0,084
-664,247	239,156	-0,081	-0,098
-663,232	23,650	-0,166	-0,099
-662,218	-22,318	0,148	-0,065
-661,203	149,270	-0,030	-0,029
-660,189	-47,135	-0,110	-0,039
-659,174	529,971	0,016	-0,027
-658,159	517,067	-0,093	-0,158
-657,145	3,394	-0,087	0,046
-656,130	-200,000	-0,014	-0,069
-655,116	301,603	0,047	0,063
-654,101	-19,702	-0,084	0,037
-653,086	314,155	0,032	-0,044
-652,072	172,027	0,024	0,025
-651,057	800,000	-0,030	0,070
-650,043	800,000	-0,033	0,086
-649,028	-34,429	-0,075	0,030
-648,014	363,995	-0,012	0,017
-646,999	-79,066	0,124	0,030
-645,984	-76,436	-0,074	-0,019
-644,970	791,645	-0,024	0,048
-643,955	-18,179	-0,093	0,042
-642,941	-200,000	-0,005	-0,134
-641,926	-200,000	-0,007	-0,120
-640,911	694,833	-0,049	-0,093
-639,897	36,843	-0,132	-0,084
-638,882	58,112	0,134	-0,095
-637,868	203,611	-0,033	0,037
-636,853	-200,000	0,007	-0,029
-635,838	-200,000	0,018	-0,086
-634,824	-139,084	0,162	0,013
-633,809	42,212	0,048	0,032
-632,795	70,035	-0,023	-0,017
-631,780	-124,772	-0,148	0,016
-630,765	-200,000	0,013	-0,055
-629,751	-200,000	0,022	-0,107
-628,736	50,234	-0,117	-0,080
-627,722	-144,364	0,114	0,008
-626,707	-13,364	-0,069	0,032
-625,692	-54,688	0,143	-0,047
-624,678	295,639	-0,017	0,023
-623,663	-76,647	0,119	0,030
-622,649	-147,530	-0,094	0,006
-621,634	74,838	-0,072	-0,055
-620,619	-200,000	-0,001	0,014
-619,605	48,973	0,042	-0,029
-618,590	-62,201	-0,109	0,033
-617,576	-200,000	-0,006	0,166
-616,561	-200,000	-0,007	0,096
-615,546	-200,000	-0,004	-0,215
-614,532	226,355	-0,111	-0,130
-613,517	-86,559	-0,096	-0,021
-612,503	-120,119	-0,050	-0,006
-611,488	800,000	0,014	0,028
-610,474	38,790	0,104	0,067
-609,459	21,953	0,053	-0,031
-608,444	-135,392	0,061	0,005
-607,430	439,731	-0,029	-0,046
-606,415	-175,720	-0,097	0,002
-605,401	-81,912	0,056	-0,013
-604,386	29,457	0,068	-0,042
-603,371	-88,737	-0,025	-0,005
-602,357	-200,000	0,003	0,044
-601,342	800,000	0,059	0,121
-600,328	-103,123	0,064	-0,011
-599,313	216,502	-0,077	0,089
-598,298	467,800	-0,080	-0,130
-597,284	-200,000	0,003	0,050
-596,269	-92,532	0,166	-0,033
-595,255	-46,169	-0,083	-0,029
-594,240	516,287	0,029	0,050
-593,225	326,426	0,027	0,037
-592,211	31,155	-0,053	0,033
-591,196	12,004	0,080	0,044
-590,182	36,521	-0,044	0,028
-589,167	-200,000	0,018	0,078
-588,152	384,655	-0,067	-0,100
-587,138	-200,000	0,003	-0,014
-586,123	800,000	0,017	0,046
-585,109	76,922	0,096	0,074
-584,094	233,708	0,023	-0,028
-583,079	-46,360	0,107	-0,038
-582,065	27,878	-0,077	0,047
-581,050	-200,000	-0,019	-0,097
-580,036	-200,000	-0,005	0,069
-579,021	254,682	-0,079	-0,098
-578,006	65,714	-0,115	-0,084
-576,992	194,706	-0,018	0,020
-575,977	60,307	0,017	0,012
-574,963	-200,000	0,015	0,050
-573,948	145,198	-0,109	-0,106
-572,934	-140,122	-0,128	0,010
-571,919	-200,000	-0,056	-0,229
-570,904	800,000	-0,034	-0,089
-569,890	134,458	-0,120	0,113
-568,875	138,250	0,028	0,027
-567,861	62,322	0,030	0,022
-566,846	800,000	0,032	0,091
-565,831	-200,000	-0,015	0,213
-564,817	153,552	-0,096	0,095
-563,802	-200,000	-0,026	-0,144
-562,788	93,496	0,164	-0,134
-561,773	232,886	-0,057	0,067
-560,758	-200,000	0,033	0,144
-559,744	-67,815	0,044	-0,012
-558,729	-200,000	-0,055	-0,190
-557,715	-156,021	-0,009	-0,000
-556,700	154,691	-0,083	-0,082
-555,685	98,187	-0,049	-0,041
-554,671	64,693	0,068	0,049
-553,656	800,000	0,030	-0,069
-552,642	50,526	0,040	-0,027
-551,627	800,000	0,031	0,089
-550,612	-141,656	-0,092	0,007
-549,598	800,000	0,049	-0,108
-548,583	96,810	0,099	-0,082
-547,569	6,240	0,065	-0,035
-546,554	510,363	0,061	0,103
-545,539	-200,000	-0,016	0,171
-544,525	220,274	0,071	-0,082
-543,510	18,409	-0,042	-0,024
-542,496	-200,000	-0,041	-0,248
-541,481	800,000	0,065	-0,152
-540,466	800,000	0,043	0,103
-539,452	95,655	0,027	0,022
-538,437	-95,518	0,103	0,020
-537,423	174,786	-0,077	0,080
-536,408	-39,682	-0,088	0,033
-535,393	-101,116	0,061	-0,011
-534,379	-111,502	-0,030	-0,004
-533,364	575,147	-0,049	-0,087
-532,350	800,000	0,024	0,058
-531,335	-200,000	-0,055	0,182
-530,321	7,021	0,179	-0,096
-529,306	800,000	-0,040	-0,117
-528,291	-45,387	-0,053	-0,019
-527,277	-47,906	0,031	0,011
-526,262	-69,388	-0,124	0,034
-525,248	126,990	0,053	-0,049
-524,233	800,000	-0,024	0,048
-523,218	-200,000	0,008	-0,051
-522,204	800,000	-0,032	-0,066
-521,189	-200,000	-0,031	-0,161
-520,175	-200,000	-0,016	-0,077
-519,160	-86,694	0,120	0,026
-518,145	-200,000	0,013	0,088
-517,131	-73,279	-0,114	0,030
-516,116	-200,000	-0,004	0,039
-515,102	800,000	-0,059	0,129
-514,087	-32,637	0,105	-0,042
-513,072	-95,027	-0,051	-0,010
-512,058	-73,876	-0,082	-0,021
-511,043	-17,856	0,073	-0,033
-510,029	-200,000	0,037	0,144
-509,014	778,754	0,034	0,067
-507,999	-71,541	0,057	0,015
-506,985	243,819	-0,027	-0,033
-505,970	545,449	-0,037	-0,064
-504,956	-115,347	-0,023	-0,003
-503,941	-18,873	0,033	-0,015
-502,926	537,573	0,044	-0,076
-501,912	-200,000	0,031	-0,132
-500,897	-131,248	0,085	0,008
-499,883	36,894	0,061	-0,039
-498,868	-200,000	-0,013	-0,075
-497,853	-8,636	-0,173	0,084
-496,839	-135,457	0,026	0,002
-495,824	40,229	0,128	-0,083
-494,810	-200,000	-0,015	0,075
-493,795	800,000	0,024	-0,073
-492,781	347,555	-0,092	-0,130
-491,766	286,461	-0,066	-0,087
-490,751	220,452	-0,150	-0,173
-489,737	207,944	-0,049	-0,055
-488,722	78,570	0,103	0,079
-487,708	-200,000	-0,021	-0,072
-486,693	-96,806	-0,058	-0,011
-485,678	-200,000	0,005	-0,111
-484,664	-82,489	-0,106	-0,025
-483,649	-200,000	0,003	0,049
-482,635	91,280	0,083	-0,067
-481,620	357,333	-0,051	0,074
-480,605	800,000	0,067	0,167
-479,591	740,518	-0,059	0,116
-478,576	26,994	0,061	0,037
-477,562	-200,000	0,027	-0,166
-476,547	-112,977	-0,019	-0,003
-475,532	-200,000	0,011	0,102
-474,518	50,164	0,052	-0,035
-473,503	-200,000	-0,012	0,048
-472,489	-95,733	0,045	0,009
-471,474	-200,000	0,011	0,050
-470,459	651,506	-0,074	-0,136
-469,445	60,767	-0,208	0,148
-468,430	800,000	0,039	0,085
-467,416	257,168	-0,003	0,004
-466,401	-200,000	0,013	0,084
-465,386	19,254	-0,080	0,046
-464,372	24,923	0,118	-0,070
-463,357	223,873	-0,122	-0,142
-462,343	344,422	-0,090	-0,127
-461,328	22,886	-0,071	-0,042
-460,313	800,000	-0,028	-0,068
-459,299	-85,957	0,127	0,028
-458,284	6,473	-0,058	-0,031
-457,270	-200,000	0,006	0,083
-456,255	-200,000	-0,002	0,038
-455,241	-200,000	0,009	-0,128
-454,226	168,890	-0,147	-0,151
-453,211	-74,504	0,090	-0,023
-452,197	-200,000	-0,025	0,213
-451,182	238,969	-0,044	0,053
-450,168	54,393	-0,095	-0,066
-449,153	365,515	0,066	-0,096
-448,138	-148,574	-0,155	-0,009
-447,124	800,000	-0,019	-0,045
-446,109	466,472	-0,089	0,144
-445,095	166,365	0,047	0,048
-444,080	21,787	0,048	0,028
-443,065	574,933	0,045	0,080
-442,051	57,013	-0,047	-0,033
-441,036	59,438	-0,056	-0,039
-440,022	-77,534	0,077	-0,019
-439,007	220,383	0,100	-0,115
-437,992	-80,280	0,062	-0,015
-436,978	89,842	0,104	-0,084
-435,963	800,000	-0,032	0,072
-434,949	800,000	-0,036	0,113
-433,934	331,962	0,032	0,044
-432,919	800,000	-0,019	-0,052
-431,905	-200,000	0,021	-0,106
-430,890	105,599	0,114	0,096
-429,876	281,332	0,097	0,126
-428,861	-55,647	0,023	0,007
-427,846	-200,000	0,035	-0,149
-426,832	800,000	-0,040	-0,122
-425,817	221,989	0,023	-0,027
-424,803	-120,260	0,073	0,009
-423,788	800,000	-0,011	0,033
-422,773	250,347	0,016	0,019
-421,759	69,774	0,032	0,024
-420,744	-59,533	-0,118	-0,036
-419,730	-200,000	-0,022	-0,087
-418,715	139,401	-0,057	-0,054
-417,701	-200,000	-0,021	0,069
-416,686	-200,000	-0,030	-0,110
-415,671	-188,359	-0,050	0,000
-414,657	783,422	-0,059	0,116
-413,642	261,736	0,098	-0,123
-412,628	-200,000	-0,039	-0,128
-411,613	-48,551	0,118	0,041
-410,598	-113,170	0,082	0,012
-409,584	-200,000	0,007	0,173
-408,569	241,883	0,043	-0,051
-407,555	800,000	-0,036	0,096
-406,540	-111,071	-0,172	-0,025
-405,525	-55,763	0,082	0,026
-404,511	800,000	-0,040	-0,120
-403,496	54,870	-0,180	-0,124
-402,482	-15,711	-0,191	-0,087
-401,467	-200,000	-0,024	0,078
-400,452	301,748	-0,098	0,130
-399,438	-100,385	-0,069	0,012
-398,423	-143,696	-0,103	-0,007
-397,409	-21,663	-0,087	0,038
-396,394	63,526	-0,077	0,056
-395,379	-56,643	0,081	-0,026
-394,365	-25,682	0,168	0,071
-393,350	704,154	0,030	-0,057
-392,336	-6,693	0,087	0,042
-391,321	800,000	0,036	-0,102
-390,306	221,174	-0,094	-0,109
-389,292	121,279	-0,082	0,073
-388,277	-200,000	0,015	0,072
-387,263	-200,000	-0,010	0,033
-386,248	-109,107	0,080	0,012
-385,233	457,621	-0,050	0,080
-384,219	629,095	-0,068	0,124
-383,204	-168,592	-0,117	-0,003
-382,190	137,675	-0,096	-0,090
-381,175	800,000	-0,047	-0,118
-380,160	-200,000	-0,005	0,070
-379,146	-72,870	0,076	0,020
-378,131	-39,747	0,076	-0,029
-377,117	-200,000	0,024	-0,141
-376,102	-200,000	0,000	-0,063
-375,088	-200,000	0,002	-0,072
-374,073	-101,583	0,162	-0,028
-373,058	787,298	0,025	0,049
-372,044	-200,000	0,032	0,188
-371,029	800,000	-0,028	-0,069
-370,015	-26,284	-0,144	0,060
-369,000	130,439	0,077	0,071
-367,985	-101,614	-0,133	0,023
-366,971	81,731	-0,137	-0,106
-365,956	6,650	-0,039	-0,021
-364,942	800,000	-0,027	0,081
-363,927	64,174	-0,057	-0,041
-362,912	749,323	-0,012	0,024
-361,898	800,000	-0,057	0,173
-360,883	337,440	-0,023	0,032
-359,869	325,360	0,040	-0,055
-358,854	-14,505	-0,054	-0,025
-357,839	-200,000	0,024	0,083
-356,825	423,581	0,068	0,104
-355,810	-200,000	-0,063	0,219
-354,796	800,000	-0,025	0,066
-353,781	-145,726	-0,055	0,003
-352,766	-99,851	0,116	0,021
-351,752	800,000	-0,073	-0,151
-350,737	800,000	-0,037	-0,118
-349,723	154,458	0,078	0,077
-348,708	-56,655	0,034	0,011
-347,693	-59,030	0,273	-0,084
-346,679	174,959	0,050	-0,052
-345,664	-74,617	-0,185	-0,047
-344,650	800,000	-0,013	-0,027
-343,635	800,000	-0,006	-0,017
-342,620	-24,890	-0,076	0,032
-341,606	274,497	0,021	0,026
-340,591	328,576	0,055	0,075
-339,577	88,214	-0,093	-0,074
-338,562	-45,430	-0,043	0,015
-337,548	182,091	0,101	0,107
-336,533	800,000	0,039	0,084
-335,518	-84,496	-0,044	-0,010
-334,504	313,815	0,063	0,084
-333,489	-200,000	-0,016	0,115
-332,475	-120,803	0,077	0,009
-331,460	800,000	-0,066	-0,135
-330,445	-115,231	0,037	0,005
-329,431	-27,191	-0,029	0,012
-328,416	800,000	0,071	0,200
-327,402	253,179	-0,127	0,155
-326,387	100,561	0,091	0,075
-325,372	-200,000	-0,001	0,031
-324,358	359,594	-0,125	-0,180
-323,343	149,673	0,027	0,026
-322,329	228,454	0,096	0,113
-321,314	-200,000	0,053	0,188
-320,299	59,972	0,029	-0,020
-319,285	-200,000	0,023	-0,129
-318,270	365,368	0,034	-0,050
-317,256	109,897	-0,051	-0,043
-316,241	10,833	-0,044	0,024
-315,226	648,910	0,064	0,117
-314,212	-15,102	0,049	0,023
-313,197	-200,000	0,003	0,031
-312,183	-200,000	0,013	0,044
-311,168	-200,000	0,020	-0,156
-310,153	800,000	-0,025	-0,059
-309,139	328,872	0,108	-0,149
-308,124	-36,242	0,140	0,054
-307,110	-200,000	-0,007	-0,102
-306,095	-59,291	0,178	0,055
-305,080	800,000	-0,016	0,040
-304,066	52,623	-0,061	-0,042
-303,051	36,233	-0,074	-0,047
-302,037	800,000	-0,038	-0,102
-301,022	800,000	0,018	-0,052
-300,008	22,860	0,145	-0,085
-298,993	48,529	0,050	0,033
-297,978	800,000	0,022	-0,063
-296,964	-200,000	0,013	-0,057
-295,949	77,815	-0,144	-0,110
-294,935	252,825	-0,050	0,061
-293,920	-116,624	0,133	0,017
-292,905	231,259	0,057	0,066
-291,891	-200,000	0,012	0,044
-290,876	800,000	0,025	-0,050
-289,862	-200,000	0,013	-0,119
-288,847	-3,574	-0,060	-0,030
-287,832	607,429	0,017	-0,031
-286,818	-74,098	0,099	-0,025
-285,803	-60,724	0,127	0,038
-284,789	28,258	-0,041	0,024
-283,774	-89,699	0,092	0,019
-282,759	-200,000	0,009	0,162
-281,745	267,656	-0,080	-0,100
-280,730	207,070	-0,080	-0,089
-279,716	480,183	-0,071	-0,115
-278,701	-0,631	0,054	-0,027
-277,686	800,000	-0,025	0,078
-276,672	52,444	-0,123	0,084
-275,657	-200,000	0,009	0,041
-274,643	115,625	-0,042	-0,037
-273,628	-142,504	-0,083	-0,006
-272,613	-14,096	-0,005	0,002
-271,599	-41,337	-0,073	0,027
-270,584	70,541	0,136	0,100
-269,570	-200,000	0,018	0,083
-268,555	-83,730	0,100	0,023
-267,540	19,783	0,099	-0,057
-266,526	349,175	0,042	-0,059
-265,511	239,430	-0,102	0,121
-264,497	20,138	-0,031	-0,018
-263,482	-64,790	0,053	-0,015
-262,467	-110,911	-0,050	0,007
-261,453	192,042	-0,048	0,051
-260,438	800,000	-0,019	-0,041
-259,424	-200,000	-0,012	0,058
-258,409	33,236	-0,032	-0,020
-257,395	102,182	-0,050	-0,042
-256,380	-2,904	0,207	-0,103
-255,365	-60,723	0,091	0,027
-254,351	232,500	0,024	0,028
-253,336	101,681	0,028	0,023
-252,322	-113,315	-0,057	-0,008
-251,307	-200,000	-0,004	-0,163
-250,292	248,883	-0,048	0,058
-249,278	800,000	0,054	0,167
-248,263	622,305	0,079	0,142
-247,249	25,761	0,169	0,100
-246,234	800,000	-0,043	-0,103
-245,219	-157,128	-0,119	0,005
-244,205	77,094	0,083	0,063
-243,190	75,439	-0,049	0,037
-242,176	800,000	-0,036	0,114
-241,161	-200,000	0,051	0,173
-240,146	762,435	0,073	-0,142
-239,132	-200,000	0,013	-0,066
-238,117	-200,000	0,008	-0,093
-237,103	200,395	-0,040	0,044
-236,088	341,267	0,096	-0,134
-235,073	22,665	-0,156	-0,091
-234,059	-33,267	0,082	-0,032
-233,044	83,288	-0,065	0,051
-232,030	31,112	0,076	0,046
-231,015	-133,526	-0,140	-0,012
-230,000	31,634	0,058	-0,035
-228,986	109,186	0,071	-0,060
-227,971	-172,727	-0,143	0,003
-226,957	-131,429	0,081	0,008
-225,942	157,569	0,013	0,013
-224,927	-91,761	0,064	-0,013
-223,913	648,575	-0,023	0,042
-222,898	466,997	-0,040	-0,064
-221,884	-200,000	0,006	-0,159
-220,869	800,000	-0,036	0,099
-219,855	238,182	-0,027	-0,032
-218,840	-71,399	0,175	0,046
-217,825	800,000	-0,021	-0,061
-216,811	499,443	-0,029	-0,048
-215,796	166,057	0,021	-0,021
-214,782	-152,255	-0,077	0,004
-213,767	311,433	0,014	0,018
-212,752	303,689	0,023	-0,031
-211,738	-95,669	0,176	-0,033
-210,723	-200,000	0,017	0,124
-209,709	24,555	0,052	0,031
-208,694	-4,718	-0,154	-0,075
-207,679	-183,012	0,124	-0,002
-206,665	800,000	0,070	0,162
-205,650	417,687	-0,089	-0,136
-204,636	18,909	-0,032	0,018
-203,621	280,409	0,055	0,071
-202,606	454,461	0,066	0,105
-201,592	182,331	0,101	0,106
-200,577	188,593	-0,076	-0,081
-199,563	800,000	-0,032	0,094
-198,548	-200,000	0,012	0,072
-197,533	79,514	-0,091	0,070
-196,519	-200,000	-0,020	0,185
-195,504	5,667	-0,043	-0,023
-194,490	-200,000	0,032	-0,127
-193,475	-16,690	0,045	-0,020
-192,460	-58,466	0,124	-0,038
-191,446	-200,000	0,072	0,000
-190,431	-36,272	0,096	0,037
-189,417	-200,000	0,008	0,067
-188,402	-33,832	-0,128	-0,050
-187,387	-101,303	-0,021	0,004
-186,373	119,119	-0,075	0,066
-185,358	548,671	0,021	-0,036
-184,344	-20,326	0,173	0,075
-183,329	170,026	0,090	0,091
-182,315	-27,831	0,055	0,023
-181,300	-200,000	0,015	0,155
-180,285	218,696	-0,097	-0,110
-179,271	56,871	-0,068	0,047
-178,256	-200,000	0,011	0,103
-177,242	800,000	0,058	0,154
-176,227	190,651	-0,040	-0,043
-175,212	-200,000	-0,022	0,146
-174,198	80,180	0,031	-0,024
-173,183	-200,000	0,021	0,085
-172,169	-200,000	-0,006	-0,069
-171,154	-61,036	-0,108	0,032
-170,139	800,000	0,026	0,058
-169,125	12,530	0,047	0,026
-168,110	-200,000	0,000	0,040
-167,096	273,095	0,061	0,077
-166,081	11,777	-0,067	-0,036
-165,066	321,918	0,020	0,027
-164,052	162,233	0,094	0,094
-163,037	-200,000	-0,008	0,082
-162,023	130,403	0,060	0,054
-161,008	48,445	-0,078	0,052
-159,993	-12,649	0,122	0,056
-158,979	-200,000	0,012	-0,078
-157,964	-0,083	-0,048	-0,024
-156,950	-192,487	-0,020	-0,000
-155,935	109,534	-0,027	-0,023
-154,920	-200,000	0,000	-0,043
-153,906	425,269	0,067	-0,103
-152,891	-159,413	-0,105	0,004
-151,877	800,000	0,024	-0,051
-150,862	-200,000	-0,002	-0,095
-149,847	162,837	0,022	-0,022
-148,833	-199,069	-0,082	0,000
-147,818	89,121	-0,064	0,051
-146,804	-56,881	0,034	0,010
-145,789	64,627	0,142	-0,102
-144,775	800,000	-0,045	-0,093
-143,760	393,152	0,049	0,073
-142,745	-141,937	0,054	0,004
-141,731	-82,636	0,115	-0,026
-140,716	-198,588	-0,061	-0,000
-139,702	47,635	0,063	-0,041
-138,687	-200,000	0,016	0,123
-137,672	800,000	0,018	-0,047
-136,658	94,286	-0,032	-0,026
-135,643	800,000	-0,061	-0,182
-134,629	319,058	-0,036	-0,049
-133,614	645,858	-0,052	0,094
-132,599	-13,065	0,040	0,018
-131,585	800,000	0,028	-0,057
-130,570	-113,794	-0,091	0,012
-129,556	-200,000	0,010	-0,053
-128,541	15,952	-0,034	-0,019
-127,526	46,967	-0,101	-0,067
-126,512	9,354	0,134	-0,072
-125,497	-200,000	-0,018	-0,067
-124,483	146,927	0,024	-0,023
-123,468	800,000	-0,033	-0,079
-122,453	604,460	-0,061	0,109
-121,439	-200,000	0,007	-0,067
-120,424	675,848	-0,070	-0,129
-119,410	-33,623	-0,061	0,024
-118,395	112,141	0,079	0,067
-117,380	-200,000	0,006	0,082
-116,366	287,288	0,028	-0,036
-115,351	800,000	0,033	-0,071
-114,337	-118,256	-0,111	0,014
-113,322	55,410	-0,166	-0,114
-112,307	-71,977	0,137	0,036
-111,293	-200,000	0,000	-0,004
-110,278	-200,000	-0,018	0,070
-109,264	800,000	0,085	0,180
-108,249	191,935	-0,043	0,046
-107,234	-200,000	0,010	-0,163
-106,220	-62,187	-0,088	-0,026
-105,205	-57,950	0,049	0,015
-104,191	480,286	0,047	-0,076
-103,176	-200,000	0,000	0,215
-102,162	-113,730	-0,061	0,008
-101,147	-50,438	-0,051	0,017
-100,132	-151,823	-0,082	0,004
-99,118	-200,000	0,006	0,033
-98,103	90,916	0,056	-0,044
-97,089	94,504	-0,059	0,048
-96,074	-148,118	0,101	0,006
-95,059	303,715	0,151	0,199
-94,045	31,322	-0,168	-0,102
-93,030	288,344	-0,070	-0,090
-92,016	201,381	-0,059	-0,065
-91,001	305,456	-0,055	-0,073
-89,986	118,488	0,036	-0,031
-88,972	800,000	-0,070	0,156
-87,957	20,342	-0,034	0,019
-86,943	-78,714	0,090	0,022
-85,928	-17,865	0,052	-0,023
-84,913	27,584	-0,103	0,062
-83,899	353,747	-0,030	-0,042
-82,884	677,259	-0,050	0,093
-81,870	800,000	-0,033	0,082
-80,855	191,506	0,022	0,023
-79,840	136,597	0,106	-0,098
-78,826	49,555	-0,083	-0,055
-77,811	-34,586	0,192	-0,074
-76,797	188,034	-0,054	-0,057
-75,782	-69,671	0,073	0,020
-74,767	-200,000	0,023	0,115
-73,753	761,172	0,012	-0,022
-72,738	-104,832	0,032	-0,005
-71,724	-200,000	-0,002	-0,125
-70,709	776,608	0,053	-0,104
-69,694	-200,000	-0,021	0,152
-68,680	132,168	0,037	0,034
-67,665	-109,974	0,155	0,023
-66,651	-130,882	0,071	-0,007
-65,636	800,000	0,058	0,124
-64,622	113,649	-0,067	-0,058
-63,607	439,872	0,070	-0,109
-62,592	-137,992	-0,068	0,005
-61,578	144,601	0,023	0,022
-60,563	-130,096	0,071	-0,007
-59,549	-6,766	0,088	0,042
-58,534	-19,505	-1,350	-0,590
-57,519	366,399	-1,497	-2,144
-56,505	-200,000	-0,488	-4,563
-55,490	144,165	0,905	0,855
-54,476	800,000	4,875	11,398
-53,461	-200,000	18,339	288,563
-52,446	800,000	727,349	2230,973
-51,432	555,679	1643,769	2813,572
-50,417	79,285	1665,849	1263,184
-49,403	22,884	1539,410	891,191
-48,388	16,855	1462,840	817,661
-47,373	17,838	1452,707	816,698
-46,359	17,299	1442,991	808,626
-45,344	15,110	1438,494	795,621
-44,330	15,040	1436,662	794,244
-43,315	15,076	1434,688	793,290
-42,300	15,084	1433,137	792,438
-41,286	15,086	1432,192	791,897
-40,271	15,073	1430,860	791,064
-39,257	15,059	1429,652	790,297
-38,242	15,072	1428,494	789,690
-37,227	15,128	1427,038	789,121
-36,213	15,124	1425,800	788,386
-35,198	15,069	1424,602	787,430
-34,184	15,120	1423,793	787,191
-33,169	15,055	1422,351	786,056
-32,154	15,098	1421,380	785,690
-31,140	15,137	1420,078	785,125
-30,125	15,162	1419,000	784,618
-29,111	15,129	1417,862	783,799
-28,096	15,088	1416,563	782,860
-27,082	15,016	1415,709	782,018
-26,067	15,047	1414,383	781,401
-25,052	15,040	1413,257	780,711
-24,038	15,020	1412,388	780,106
-23,023	14,995	1411,334	779,377
-22,009	14,986	1410,421	778,799
-20,994	14,928	1409,782	778,145
-19,979	14,963	1408,628	777,640
-18,965	14,955	1407,622	777,019
-17,950	14,945	1406,793	776,485
-16,936	14,942	1405,765	775,868
-15,921	14,930	1404,571	775,125
-14,906	14,894	1403,964	774,593
-13,892	14,900	1403,100	774,111
-12,877	14,903	1402,117	773,553
-11,863	14,861	1401,159	772,798
-10,848	14,964	1400,157	772,691
-9,833	14,935	1399,265	772,037
-8,819	14,867	1398,384	771,202
-7,804	14,850	1397,467	770,590
-6,790	14,811	1396,510	769,851
-5,775	14,839	1395,418	769,346
-4,760	14,853	1394,430	768,836
-3,746	14,819	1393,777	768,290
-2,731	14,830	1392,923	767,837
-1,717	14,795	1392,100	767,190
-0,702	14,830	1390,100	766,221
0,313	18,570	1309,224	738,974
1,327	34,664	707,262	436,529
2,342	53,598	124,663	84,517
3,356	2,689	16,578	8,477
4,371	-4,344	3,183	1,552
5,386	-55,540	0,610	0,192
6,400	216,724	0,050	0,056
7,415	678,316	-0,159	-0,294
8,429	204,873	-0,230	-0,253
9,444	76,619	-0,363	-0,272
10,459	-149,458	-0,262	-0,014
11,473	65,609	-0,356	-0,254
12,488	74,368	-0,323	-0,240
13,502	-58,845	-0,317	-0,096
14,517	-37,374	-0,329	-0,124
15,531	258,551	-0,270	-0,330
16,546	-19,147	-0,295	-0,129
17,561	210,010	-0,389	-0,432
18,575	-194,071	-0,227	-0,001
19,590	-2,213	-0,245	-0,121
20,604	22,472	-0,304	-0,175
21,619	-20,941	-0,493	-0,213
22,634	88,714	-0,403	-0,316
23,648	179,371	-0,322	-0,333
24,663	80,495	-0,380	-0,288
25,677	81,542	-0,402	-0,307
26,692	173,039	-0,312	-0,317
27,707	0,806	-0,386	-0,195
28,721	54,399	-0,346	-0,235
29,736	268,905	-0,351	-0,436
30,750	4,699	-0,563	-0,291
31,765	103,513	-0,453	-0,375
32,780	32,070	-0,424	-0,258
33,794	307,123	-0,228	-0,300
34,809	219,003	-0,237	-0,267
35,823	1,760	-0,442	-0,224
36,838	7,567	-0,380	-0,200
37,853	185,400	-0,322	-0,338
38,867	116,795	-0,359	-0,310
39,882	23,117	-0,427	-0,247
40,896	17,238	-0,328	-0,183
41,911	-50,208	-0,390	-0,129
42,926	85,562	-0,373	-0,289
43,940	79,546	-0,382	-0,289
44,955	96,602	-0,370	-0,299
45,969	109,145	-0,296	-0,250
46,984	35,952	-0,308	-0,190
47,999	253,892	-0,262	-0,316
49,013	6,039	-0,427	-0,222
50,028	30,125	-0,268	-0,161
51,042	108,940	-0,307	-0,259
52,057	91,204	-0,345	-0,273
53,071	90,429	-0,378	-0,298
54,086	72,821	-0,289	-0,213
55,101	-24,247	-0,386	-0,161
56,115	-23,806	-0,340	-0,143
57,130	-11,720	-0,351	-0,161
58,144	120,754	-0,236	-0,206
59,159	67,817	-0,405	-0,291
60,174	105,488	-0,396	-0,329
61,188	19,259	-0,338	-0,190
62,203	-0,561	-0,348	-0,173
63,217	13,751	-0,301	-0,164
64,232	114,559	-0,275	-0,236
65,247	128,539	-0,261	-0,234
66,261	-0,772	-0,382	-0,190
67,276	24,692	-0,294	-0,171
68,290	73,853	-0,393	-0,289
69,305	168,456	-0,260	-0,260
70,320	314,899	-0,210	-0,279
71,334	-28,695	-0,265	-0,107
72,349	96,767	-0,309	-0,249
73,363	24,916	-0,337	-0,196
74,378	-2,222	-0,361	-0,177
75,393	42,929	-0,360	-0,230
76,407	-61,427	-0,229	-0,067
77,422	126,372	-0,271	-0,241
78,436	32,144	-0,259	-0,157
79,451	171,747	-0,315	-0,318
80,466	108,896	-0,306	-0,257
81,480	200,022	-0,286	-0,309
82,495	31,583	-0,427	-0,257
83,509	175,935	-0,262	-0,268
84,524	-32,535	-0,235	-0,092
85,539	91,762	-0,256	-0,202
86,553	114,758	-0,257	-0,220
87,568	88,537	-0,317	-0,247
88,582	163,148	-0,222	-0,219
89,597	31,266	-0,392	-0,236
90,611	-52,770	-0,421	-0,136
91,626	-47,301	-0,301	-0,102
92,641	93,192	-0,179	-0,142
93,655	-25,561	-0,344	-0,142
94,670	47,022	-0,363	-0,237
95,684	-60,519	-0,326	-0,097
96,699	-5,665	-0,313	-0,150
97,714	8,497	-0,277	-0,146
98,728	135,270	-0,226	-0,206
99,743	28,000	-0,284	-0,167
100,757	-3,020	-0,339	-0,165
101,772	42,436	-0,180	-0,115
102,787	221,717	-0,250	-0,282
103,801	84,352	-0,237	-0,182
104,816	-41,658	-0,323	-0,116
105,830	41,846	-0,261	-0,166
106,845	118,984	-0,283	-0,245
107,860	-105,837	-0,385	-0,060
108,874	244,259	-0,207	-0,244
109,889	10,422	-0,326	-0,174
110,903	29,297	-0,280	-0,167
111,918	-65,162	-0,192	-0,054
112,933	78,690	-0,282	-0,211
113,947	-79,969	-0,230	-0,054
114,962	21,254	-0,210	-0,119
115,976	-65,086	-0,287	-0,081
116,991	4,098	-0,275	-0,141
118,006	20,533	-0,444	-0,251
119,020	236,682	-0,229	-0,266
120,035	87,893	-0,175	-0,136
121,049	234,400	-0,242	-0,279
122,064	-136,201	-0,160	-0,013
123,079	74,158	-0,299	-0,220
124,093	159,091	-0,207	-0,202
125,108	2,022	-0,312	-0,157
126,122	559,982	-0,159	-0,270
127,137	-93,442	-0,301	-0,058
128,151	49,901	-0,212	-0,140
129,166	127,505	-0,211	-0,187
130,181	47,166	-0,192	-0,125
131,195	52,632	-0,321	-0,214
132,210	30,476	-0,261	-0,156
133,224	90,583	-0,293	-0,230
134,239	-80,118	-0,298	-0,069
135,254	44,181	-0,133	-0,085
136,268	26,940	-0,315	-0,184
137,283	-146,508	-0,142	0,009
138,297	34,669	-0,225	-0,137
139,312	-30,387	-0,348	-0,137
140,327	29,533	-0,233	-0,138
141,341	4,575	-0,275	-0,141
142,356	231,748	-0,212	-0,244
143,370	604,345	-0,084	-0,146
144,385	2,246	-0,247	-0,124
145,400	386,696	-0,120	-0,174
146,414	80,377	-0,291	-0,219
147,429	2,802	-0,282	-0,142
148,443	94,825	-0,181	-0,144
149,458	142,066	-0,254	-0,235
150,473	126,043	-0,200	-0,177
151,487	73,622	-0,200	-0,146
152,502	82,648	-0,274	-0,208
153,516	-5,665	-0,222	-0,106
154,531	-107,402	-0,208	-0,032
155,546	-74,096	-0,244	-0,061
156,560	80,589	-0,222	-0,167
157,575	259,432	-0,136	-0,164
158,589	-19,611	-0,313	-0,135
159,604	405,443	-0,133	-0,196
160,619	-1,970	-0,223	-0,109
161,633	12,352	-0,314	-0,168
162,648	-19,367	-0,153	-0,066
163,662	53,572	-0,206	-0,138
164,677	103,977	-0,204	-0,167
165,692	50,718	-0,274	-0,181
166,706	128,412	-0,234	-0,208
167,721	198,674	-0,339	-0,362
168,735	403,913	-0,253	-0,373
169,750	119,535	-0,291	-0,251
170,764	-2,831	-0,173	-0,084
171,779	47,589	-0,218	-0,142
172,794	13,689	-0,280	-0,151
173,808	196,882	-0,188	-0,200
174,823	28,452	-0,107	-0,063
175,837	62,722	-0,280	-0,195
176,852	-75,637	-0,261	-0,064
177,867	647,409	-0,086	-0,154
178,881	133,428	-0,198	-0,179
179,896	331,644	-0,158	-0,213
180,910	264,993	-0,156	-0,190
181,925	-102,935	-0,263	-0,043
182,940	292,520	-0,179	-0,227
183,954	9,969	-0,302	-0,159
184,969	37,001	-0,224	-0,137
185,983	-81,881	-0,309	-0,070
186,998	465,577	-0,141	-0,220
188,013	34,730	-0,214	-0,130
189,027	800,000	-0,147	-0,294
190,042	-101,344	-0,350	-0,059
191,056	240,698	-0,177	-0,206
192,071	147,440	-0,059	-0,056
193,086	-7,836	-0,197	-0,092
194,100	463,650	-0,120	-0,188
195,115	-106,197	-0,318	-0,049
196,129	178,050	-0,165	-0,167
197,144	117,920	-0,307	-0,263
198,159	43,805	-0,281	-0,178
199,173	36,422	-0,186	-0,114
200,188	339,620	-0,186	-0,252
201,202	-60,023	-0,169	-0,050
202,217	-53,379	-0,326	-0,103
203,232	-13,424	-0,287	-0,129
204,246	40,958	-0,285	-0,179
205,261	333,290	-0,226	-0,305
206,275	120,518	-0,205	-0,177
207,290	52,501	-0,182	-0,121
208,304	40,004	-0,167	-0,104
209,319	305,918	-0,138	-0,179
210,334	85,113	-0,197	-0,150
211,348	800,000	-0,115	-0,230
212,363	113,379	-0,188	-0,158
213,377	202,098	-0,150	-0,160
214,392	9,319	-0,222	-0,116
215,407	23,089	-0,199	-0,113
216,421	22,437	-0,232	-0,131
217,436	135,674	-0,202	-0,182
218,450	95,979	-0,190	-0,151
219,465	-127,887	-0,144	-0,014
220,480	39,562	-0,222	-0,138
221,494	25,447	-0,208	-0,120
222,509	104,245	-0,214	-0,175
223,523	-200,000	-0,037	-0,253
224,538	52,163	-0,240	-0,158
225,553	69,848	-0,314	-0,225
226,567	-63,447	-0,113	-0,032
227,582	119,487	-0,277	-0,238
228,596	62,633	-0,178	-0,123
229,611	422,648	-0,110	-0,165
230,626	228,748	-0,129	-0,146
231,640	61,465	-0,229	-0,158
232,655	581,664	-0,215	-0,367
233,669	800,000	-0,104	-0,300
234,684	177,987	-0,281	-0,284
235,699	69,155	-0,198	-0,141
236,713	114,666	-0,213	-0,180
237,728	138,834	-0,183	-0,167
238,742	43,013	-0,236	-0,149
239,757	136,791	-0,261	-0,236
240,772	19,096	-0,277	-0,154
241,786	6,950	-0,213	-0,110
242,801	82,666	-0,233	-0,175
243,815	11,349	-0,247	-0,131
244,830	-12,542	-0,239	-0,108
245,844	-35,611	-0,099	-0,037
246,859	104,499	-0,135	-0,110
247,874	172,861	-0,293	-0,292
248,888	-21,533	-0,275	-0,115
249,903	-37,916	-0,183	-0,067
250,917	800,000	-0,111	-0,223
251,932	-200,000	-0,314	-0,001
252,947	-200,000	-0,036	-0,252
253,961	756,420	-0,131	-0,247
254,976	691,415	-0,068	-0,124
255,990	40,295	-0,210	-0,131
257,005	43,118	-0,132	-0,083
258,020	-200,000	-0,059	-0,229
259,034	94,821	-0,188	-0,148
260,049	-93,019	-0,105	-0,020
261,063	-84,326	-0,137	-0,030
262,078	116,080	-0,221	-0,187
263,093	-68,860	-0,339	-0,090
264,107	-122,754	-0,180	0,020
265,122	-200,000	-0,262	0,000
266,136	-40,891	-0,112	-0,040
267,151	353,686	-0,107	-0,147
268,166	92,223	-0,105	-0,082
269,180	20,139	-0,246	-0,137
270,195	668,048	-0,133	-0,239
271,209	16,677	-0,182	-0,099
272,224	800,000	-0,046	-0,095
273,239	7,687	-0,208	-0,107
274,253	800,000	-0,063	-0,161
275,268	-64,987	-0,153	-0,042
276,282	-56,925	-0,273	-0,083
277,297	294,759	-0,135	-0,170
278,312	380,518	-0,130	-0,184
279,326	207,614	-0,171	-0,185
280,341	211,734	-0,089	-0,097
281,355	612,487	0,039	-0,068
282,370	33,588	-0,183	-0,110
283,384	503,304	-0,122	-0,195
284,399	-3,942	-0,208	-0,099
285,414	-6,157	-0,243	-0,114
286,428	50,097	-0,194	-0,126
287,443	-96,330	-0,164	-0,030
288,457	-20,410	-0,107	-0,045
289,472	168,113	-0,189	-0,186
290,487	-130,361	-0,191	-0,018
291,501	114,933	-0,092	-0,077
292,516	-64,580	-0,228	-0,063
293,530	7,755	-0,089	-0,046
294,545	158,731	-0,106	-0,102
295,560	-5,281	0,107	-0,051
296,574	353,366	-0,122	-0,168
297,589	-84,933	-0,186	0,040
298,603	-200,000	-0,001	-0,203
299,618	800,000	-0,092	-0,269
300,633	104,185	-0,110	-0,089
301,647	800,000	-0,021	-0,040
302,662	-82,439	-0,068	-0,015
303,676	347,668	-0,159	-0,217
304,691	342,224	-0,110	-0,148
305,706	353,855	-0,137	-0,188
306,720	202,128	-0,116	-0,123
307,735	800,000	-0,090	-0,189
308,749	379,742	-0,096	-0,136
309,764	67,585	-0,058	-0,041
310,779	93,119	-0,135	-0,105
311,793	800,000	-0,105	-0,201
312,808	254,713	-0,156	-0,185
313,822	800,000	-0,133	-0,283
314,837	107,788	-0,164	-0,134
315,852	-97,193	-0,109	-0,019
316,866	-97,090	-0,110	0,020
317,881	-50,041	-0,203	-0,066
318,895	-93,627	-0,146	-0,028
319,910	96,896	-0,152	-0,120
320,925	-43,818	-0,333	-0,115
321,939	-90,351	-0,199	-0,039
322,954	-200,000	-0,026	-0,117
323,968	-21,087	-0,128	-0,054
324,983	174,232	-0,043	-0,043
325,997	28,840	-0,207	-0,120
327,012	127,354	-0,231	-0,202
328,027	-50,121	-0,226	-0,073
329,041	-200,000	-0,023	-0,117
330,056	-25,652	-0,150	-0,061
331,070	800,000	-0,073	-0,142
332,085	800,000	0,055	-0,109
333,100	22,799	-0,186	-0,105
334,114	102,190	-0,188	-0,151
335,129	343,598	-0,068	-0,092
336,143	-23,757	-0,231	-0,095
337,158	75,971	-0,154	-0,112
338,173	501,873	-0,074	-0,118
339,187	46,400	-0,122	-0,078
340,202	-75,575	-0,154	0,037
341,216	32,808	-0,261	-0,155
342,231	116,196	-0,169	-0,142
343,246	47,145	-0,225	-0,144
344,260	800,000	-0,054	-0,121
345,275	12,607	-0,103	0,054
346,289	-11,376	-0,102	-0,046
347,304	-200,000	-0,005	-0,183
348,319	55,081	-0,160	-0,106
349,333	125,171	-0,199	-0,172
350,348	64,436	-0,102	-0,070
351,362	-24,872	-0,145	-0,059
352,377	94,283	-0,149	0,116
353,392	125,694	-0,149	-0,129
354,406	141,825	-0,063	-0,057
355,421	208,811	1316,585	1415,283
356,435	160,687	1477,537	1415,785
