DTS Sentinel unit serial number:	SN410029Multiplexer serial number:	ORYXHardware model number:	OX2-SRSoftware version number:	ORYX F/W v4,00 Oryx Data Collector v3.7.2.0data status	okinstallation	B3 Nyhavnadifferential loss correction	single-endedforward channel	channel 1reverse channel	N/Adate	2023/11/28time	20:12:30forward acquisition time	300,00reverse acquisition time	0,00gamma	499,1914k internal	0,3212k external	0,3212temperature offset calibration	1,0000default loss term (dB/km)	0,3820temperature slope calibration	1,0000multiplexer offset coefficient	1,0000multiplexer slope coefficient	1,0000fibre end	0,00T internal ref (°C)	7,87T ext. ref 1 (°C)	-6,62T ext. ref 2 (°C)	-6,77length (m)	temperature (°C)	Stokes	anti-Stokes-744,400	207,825	-0,142	-0,161
-743,385	773,496	-0,103	0,205
-742,371	800,000	-0,090	-0,267
-741,356	-200,000	0,017	0,172
-740,342	716,739	-0,118	-0,228
-739,327	-200,000	-0,079	0,334
-738,312	265,288	-0,166	-0,210
-737,298	800,000	0,077	0,209
-736,283	81,181	-0,268	-0,210
-735,269	-200,000	0,025	0,339
-734,254	626,485	-0,118	-0,217
-733,239	-94,371	-0,327	0,064
-732,225	522,106	-0,104	-0,177
-731,210	-200,000	0,084	0,299
-730,196	-151,617	-0,106	0,006
-729,181	800,000	-0,049	-0,109
-728,167	-112,246	-0,120	-0,017
-727,152	-200,000	-0,001	0,016
-726,137	-63,306	-0,168	0,050
-725,123	-200,000	0,009	-0,125
-724,108	182,933	-0,062	-0,067
-723,094	28,739	-0,120	-0,074
-722,079	800,000	-0,047	-0,106
-721,064	175,326	0,077	-0,080
-720,050	11,332	0,062	0,034
-719,035	268,683	-0,058	-0,074
-718,021	-200,000	0,005	-0,021
-717,006	30,563	-0,126	-0,078
-715,991	-200,000	0,018	-0,095
-714,977	-200,000	0,004	-0,046
-713,962	-200,000	-0,003	0,083
-712,948	-28,430	0,145	0,060
-711,933	-200,000	0,009	0,042
-710,918	-149,932	-0,117	-0,007
-709,904	-200,000	-0,021	-0,093
-708,889	161,671	-0,085	-0,086
-707,875	800,000	0,016	-0,035
-706,860	-200,000	0,004	0,044
-705,845	-200,000	-0,031	-0,128
-704,831	95,898	-0,041	-0,034
-703,816	167,540	0,063	-0,065
-702,802	-200,000	-0,024	0,117
-701,787	114,722	-0,037	0,032
-700,772	-200,000	-0,010	-0,096
-699,758	10,266	0,081	-0,045
-698,743	800,000	-0,018	0,038
-697,729	-31,634	-0,072	-0,029
-696,714	-200,000	-0,006	-0,104
-695,699	-136,260	-0,115	-0,010
-694,685	152,456	-0,048	-0,047
-693,670	-200,000	0,005	-0,052
-692,656	-108,137	-0,097	-0,015
-691,641	148,357	0,099	-0,096
-690,627	-150,381	0,119	-0,007
-689,612	-200,000	-0,010	0,100
-688,597	-126,175	-0,136	0,015
-687,583	105,561	-0,070	0,060
-686,568	-81,251	0,050	-0,012
-685,554	1,848	0,027	0,014
-684,539	-64,808	0,043	-0,012
-683,524	-148,171	0,133	0,008
-682,510	-62,763	0,088	-0,026
-681,495	-131,131	-0,071	0,007
-680,481	-10,029	-0,109	-0,052
-679,466	-200,000	-0,030	-0,100
-678,451	446,223	0,056	-0,089
-677,437	217,568	0,083	0,096
-676,422	-144,949	0,096	0,006
-675,408	376,021	-0,058	-0,086
-674,393	-200,000	-0,013	-0,094
-673,378	800,000	-0,024	-0,071
-672,364	-200,000	-0,011	-0,052
-671,349	-200,000	0,026	-0,142
-670,335	-200,000	0,001	-0,087
-669,320	20,533	0,064	0,038
-668,305	-135,221	-0,065	0,006
-667,291	161,725	-0,023	-0,023
-666,276	800,000	-0,011	-0,022
-665,262	33,728	-0,118	0,074
-664,247	-30,843	-0,085	-0,034
-663,232	-92,863	-0,008	-0,002
-662,218	-126,387	0,107	-0,011
-661,203	153,550	-0,055	0,055
-660,189	-186,411	-0,132	-0,001
-659,174	800,000	0,067	-0,146
-658,159	473,647	-0,059	-0,096
-657,145	800,000	-0,017	-0,047
-656,130	86,771	-0,062	-0,049
-655,116	298,119	0,092	0,122
-654,101	-71,662	-0,047	-0,013
-653,086	-72,368	0,074	0,020
-652,072	39,216	-0,033	-0,021
-651,057	800,000	-0,016	-0,051
-650,043	-93,397	-0,066	0,013
-649,028	-200,000	0,082	-0,267
-648,014	-22,351	-0,008	0,003
-646,999	-200,000	0,012	0,085
-645,984	-200,000	0,020	0,101
-644,970	-200,000	-0,006	-0,052
-643,955	601,722	-0,005	-0,009
-642,941	-55,622	0,087	-0,028
-641,926	197,131	0,038	-0,042
-640,911	-130,966	0,137	0,013
-639,897	-200,000	0,010	-0,188
-638,882	-27,418	-0,107	0,045
-637,868	690,803	0,091	0,173
-636,853	-6,196	-0,226	-0,111
-635,838	75,238	0,024	0,018
-634,824	-1,955	-0,066	-0,034
-633,809	-36,720	-0,034	0,013
-632,795	-82,541	-0,129	-0,030
-631,780	-126,170	0,046	-0,005
-630,765	-96,805	-0,134	0,025
-629,751	-59,086	-0,091	-0,028
-628,736	117,406	-0,130	-0,115
-627,722	156,540	0,111	-0,111
-626,707	-200,000	-0,018	-0,088
-625,692	310,062	-0,113	-0,153
-624,678	67,672	-0,093	0,069
-623,663	-87,865	0,008	0,002
-622,649	-200,000	0,012	-0,077
-621,634	-200,000	-0,041	-0,131
-620,619	-200,000	-0,005	0,027
-619,605	-93,124	-0,124	-0,025
-618,590	800,000	-0,021	0,052
-617,576	800,000	-0,027	-0,084
-616,561	526,764	-0,035	0,060
-615,546	-37,132	-0,143	-0,055
-614,532	251,836	-0,112	-0,138
-613,517	202,614	0,045	-0,050
-612,503	393,237	-0,075	0,112
-611,488	-88,980	0,118	-0,025
-610,474	-83,141	0,116	0,027
-609,459	800,000	0,055	0,115
-608,444	446,988	0,028	0,045
-607,430	129,364	-0,084	-0,077
-606,415	244,361	-0,040	-0,049
-605,401	394,277	-0,060	-0,090
-604,386	-200,000	0,008	0,027
-603,371	468,643	0,036	0,058
-602,357	155,492	0,061	-0,061
-601,342	95,838	0,057	-0,047
-600,328	27,027	0,066	-0,040
-599,313	677,083	-0,080	-0,150
-598,298	430,420	0,014	0,021
-597,284	-200,000	0,017	0,148
-596,269	-200,000	0,011	0,038
-595,255	162,926	0,109	-0,110
-594,240	-200,000	-0,020	0,144
-593,225	-72,608	-0,088	-0,023
-592,211	239,602	-0,073	-0,088
-591,196	-200,000	-0,016	-0,089
-590,182	-200,000	-0,021	-0,129
-589,167	43,938	-0,059	0,039
-588,152	104,149	-0,090	0,076
-587,138	-54,365	0,045	-0,015
-586,123	160,422	-0,070	-0,070
-585,109	674,753	0,018	-0,035
-584,094	800,000	-0,024	-0,064
-583,079	316,977	-0,024	0,033
-582,065	-69,146	0,197	0,054
-581,050	-200,000	0,007	0,070
-580,036	59,062	-0,028	0,020
-579,021	149,986	0,086	-0,084
-578,006	460,437	0,025	-0,040
-576,992	-200,000	-0,009	-0,083
-575,977	-80,474	0,082	0,020
-574,963	800,000	0,017	0,043
-573,948	-200,000	0,017	0,147
-572,934	446,613	0,086	0,136
-571,919	800,000	-0,017	0,054
-570,904	-200,000	-0,015	-0,155
-569,890	-200,000	0,003	-0,141
-568,875	5,225	0,034	-0,018
-567,861	-111,336	-0,123	-0,018
-566,846	800,000	-0,082	0,182
-565,831	800,000	-0,024	-0,077
-564,817	-200,000	0,026	-0,111
-563,802	-5,976	-0,074	-0,036
-562,788	-79,824	-0,150	-0,036
-561,773	-200,000	0,010	0,081
-560,758	-13,261	-0,086	0,040
-559,744	-200,000	-0,020	-0,077
-558,729	336,074	-0,099	-0,138
-557,715	537,218	-0,071	-0,123
-556,700	226,290	-0,011	-0,013
-555,685	800,000	0,042	0,091
-554,671	-165,214	0,088	-0,003
-553,656	-64,937	-0,049	-0,014
-552,642	649,751	0,070	-0,130
-551,627	-75,142	-0,051	0,013
-550,612	-4,609	-0,150	0,074
-549,598	108,231	-0,051	0,044
-548,583	342,697	-0,035	0,049
-547,569	-108,252	0,056	-0,009
-546,554	-19,302	0,079	-0,035
-545,539	50,059	0,110	-0,074
-544,525	-152,535	0,185	0,009
-543,510	-200,000	0,017	-0,102
-542,496	-200,000	-0,017	-0,082
-541,481	93,393	-0,096	-0,078
-540,466	182,484	-0,048	0,051
-539,452	800,000	0,031	0,089
-538,437	2,969	0,204	0,106
-537,423	-111,142	0,115	0,017
-536,408	-158,711	0,098	0,004
-535,393	-135,848	0,101	-0,008
-534,379	-168,754	0,160	-0,004
-533,364	-35,989	0,066	0,025
-532,350	-200,000	-0,018	-0,133
-531,335	206,189	0,032	-0,036
-530,321	-200,000	-0,013	-0,073
-529,306	176,954	0,082	0,085
-528,291	41,578	-0,057	0,037
-527,277	800,000	-0,061	-0,139
-526,262	636,881	-0,057	-0,104
-525,248	26,579	0,072	-0,043
-524,233	701,674	0,043	0,082
-523,218	-200,000	-0,014	0,087
-522,204	800,000	-0,042	-0,087
-521,189	800,000	-0,054	-0,114
-520,175	800,000	0,029	-0,060
-519,160	-200,000	0,027	-0,102
-518,145	132,224	0,106	0,098
-517,131	67,119	0,075	-0,055
-516,116	284,228	-0,065	0,084
-515,102	4,031	-0,036	-0,019
-514,087	86,394	-0,065	0,051
-513,072	230,458	0,062	-0,073
-512,058	27,860	-0,006	-0,004
-511,043	-142,442	-0,058	-0,004
-510,029	-111,250	0,127	-0,018
-509,014	51,796	0,024	-0,016
-507,999	-200,000	0,012	0,106
-506,985	-200,000	-0,003	0,051
-505,970	-200,000	0,014	-0,064
-504,956	-149,868	-0,130	0,007
-503,941	49,800	-0,112	0,076
-502,926	-200,000	0,010	0,116
-501,912	-137,942	0,042	0,003
-500,897	-200,000	-0,045	0,147
-499,883	800,000	-0,006	0,016
-498,868	800,000	-0,012	-0,034
-497,853	-200,000	0,009	0,044
-496,839	192,746	-0,037	-0,041
-495,824	68,368	0,028	0,021
-494,810	7,629	0,138	0,074
-493,795	5,223	0,130	0,069
-492,781	23,501	-0,061	-0,036
-491,766	155,195	-0,055	-0,055
-490,751	800,000	0,066	-0,172
-489,737	171,750	-0,037	-0,038
-488,722	55,655	0,129	-0,089
-487,708	-66,205	0,025	-0,007
-486,693	46,240	-0,031	0,020
-485,678	290,197	-0,033	0,043
-484,664	502,376	-0,036	-0,061
-483,649	-200,000	-0,022	-0,154
-482,635	-200,000	-0,018	-0,078
-481,620	-129,660	-0,081	-0,008
-480,605	-27,635	0,047	0,019
-479,591	-200,000	-0,004	0,090
-478,576	-200,000	-0,022	0,121
-477,562	184,883	-0,040	-0,042
-476,547	800,000	-0,053	-0,132
-475,532	21,531	-0,043	-0,025
-474,518	-200,000	0,010	0,047
-473,503	800,000	0,054	0,108
-472,489	-200,000	0,055	0,199
-471,474	-200,000	-0,004	0,100
-470,459	-183,559	-0,102	-0,001
-469,445	-30,252	0,014	-0,006
-468,430	-129,597	-0,045	0,004
-467,416	800,000	-0,056	0,118
-466,401	800,000	0,059	0,117
-465,386	276,248	0,031	0,040
-464,372	-21,769	0,077	-0,034
-463,357	41,177	-0,106	-0,069
-462,343	-159,221	-0,056	0,002
-461,328	41,722	0,050	-0,032
-460,313	-27,348	0,069	0,029
-459,299	-200,000	-0,040	0,181
-458,284	-20,473	0,063	0,028
-457,270	-107,406	-0,176	0,027
-456,255	65,356	0,053	0,039
-455,241	-19,888	-0,135	-0,059
-454,226	152,129	-0,037	-0,036
-453,211	-164,121	-0,134	-0,004
-452,197	8,446	-0,028	0,015
-451,182	-155,196	0,027	0,001
-450,168	-44,779	0,035	-0,013
-449,153	10,604	-0,078	-0,042
-448,138	-81,735	-0,141	-0,033
-447,124	-76,913	0,150	-0,037
-446,109	-200,000	-0,009	-0,048
-445,095	-32,676	0,084	0,033
-444,080	-200,000	0,018	0,149
-443,065	-95,775	-0,106	-0,020
-442,051	-200,000	0,050	-0,169
-441,036	52,468	0,106	0,072
-440,022	-48,100	-0,095	-0,033
-439,007	-200,000	0,091	0,000
-437,992	-200,000	-0,007	0,047
-436,978	186,046	0,057	0,061
-435,963	73,960	-0,025	0,019
-434,949	796,098	-0,040	-0,080
-433,934	-65,002	-0,098	0,028
-432,919	264,175	-0,056	-0,070
-431,905	-40,254	0,050	-0,019
-430,890	-71,317	0,161	0,043
-429,876	-115,305	-0,122	0,016
-428,861	-179,352	0,079	-0,001
-427,846	-200,000	-0,023	0,087
-426,832	-83,652	-0,113	0,026
-425,817	-200,000	-0,014	0,097
-424,803	-12,950	-0,138	-0,064
-423,788	-137,682	-0,096	0,008
-422,773	-200,000	-0,004	-0,016
-421,759	402,503	-0,064	0,097
-420,744	183,602	-0,132	0,139
-419,730	22,179	-0,041	0,024
-418,715	54,075	0,073	-0,050
-417,701	800,000	-0,050	-0,137
-416,686	-200,000	0,014	0,098
-415,671	-200,000	0,009	-0,084
-414,657	-200,000	0,015	0,123
-413,642	6,462	-0,073	0,039
-412,628	192,536	-0,022	0,023
-411,613	-22,165	0,024	-0,010
-410,598	34,777	-0,103	-0,064
-409,584	427,744	-0,010	0,016
-408,569	-200,000	0,011	-0,042
-407,555	800,000	0,013	-0,028
-406,540	-167,062	-0,142	0,004
-405,525	-200,000	0,005	-0,060
-404,511	72,545	0,036	-0,027
-403,496	30,060	0,096	0,058
-402,482	-200,000	0,033	0,182
-401,467	-200,000	0,001	0,148
-400,452	69,153	0,061	0,044
-399,438	138,747	0,048	0,045
-398,423	212,228	-0,044	0,049
-397,409	800,000	0,025	0,069
-396,394	577,390	0,061	0,107
-395,379	176,665	-0,013	0,014
-394,365	97,765	0,043	-0,035
-393,350	-62,783	0,051	0,015
-392,336	-51,735	0,173	0,057
-391,321	-143,966	-0,087	-0,006
-390,306	-200,000	0,027	-0,112
-389,292	155,243	0,054	-0,053
-388,277	-35,947	-0,146	0,056
-387,263	-37,557	-0,025	-0,009
-386,248	-200,000	0,008	0,035
-385,233	95,465	-0,033	0,027
-384,219	585,150	0,042	-0,074
-383,204	-90,788	0,071	0,014
-382,190	-70,070	0,071	-0,019
-381,175	43,105	0,111	0,072
-380,160	-200,000	0,015	0,075
-379,146	167,277	0,065	0,066
-378,131	43,128	0,134	0,087
-377,117	-200,000	0,018	0,131
-376,102	510,907	-0,045	-0,075
-375,088	62,285	0,115	-0,082
-374,073	-200,000	-0,008	-0,035
-373,058	794,126	-0,026	0,051
-372,044	800,000	-0,041	0,120
-371,029	-33,820	-0,063	0,025
-370,015	367,801	-0,073	0,105
-369,000	-200,000	0,044	-0,153
-367,985	59,405	-0,060	0,042
-366,971	-17,819	-0,076	0,034
-365,956	800,000	0,046	0,132
-364,942	-200,000	-0,016	0,208
-363,927	52,557	0,084	0,057
-362,912	50,302	-0,060	0,040
-361,898	61,119	-0,173	0,123
-360,883	-194,465	0,052	0,000
-359,869	170,986	0,071	0,073
-358,854	290,671	-0,052	0,068
-357,839	-42,902	0,069	0,025
-356,825	-152,162	0,052	0,003
-355,810	-200,000	0,060	0,000
-354,796	-55,312	-0,075	0,024
-353,781	19,406	0,113	-0,065
-352,766	212,903	0,101	0,114
-351,752	800,000	-0,051	-0,109
-350,737	-1,938	0,141	-0,070
-349,723	-200,000	-0,005	-0,046
-348,708	-103,392	0,037	0,006
-347,693	800,000	-0,039	-0,106
-346,679	587,992	-0,023	0,041
-345,664	264,363	-0,011	-0,013
-344,650	-122,871	-0,118	-0,013
-343,635	127,877	0,119	0,108
-342,620	702,925	0,058	-0,109
-341,606	800,000	0,043	0,089
-340,591	76,256	0,027	0,020
-339,577	800,000	-0,039	0,121
-338,562	-21,405	-0,084	0,036
-337,548	-200,000	-0,010	-0,101
-336,533	166,753	0,089	0,091
-335,518	129,307	-0,071	0,065
-334,504	-200,000	0,002	-0,101
-333,489	-63,955	0,087	-0,025
-332,475	29,008	-0,081	0,049
-331,460	-88,534	-0,096	0,020
-330,445	-200,000	-0,026	-0,128
-329,431	-12,058	0,098	-0,046
-328,416	138,997	0,126	0,118
-327,402	261,738	-0,118	-0,146
-326,387	-114,760	0,054	0,007
-325,372	-24,658	-0,052	-0,022
-324,358	37,062	0,024	-0,015
-323,343	388,088	0,016	0,024
-322,329	740,226	0,014	-0,028
-321,314	-90,206	-0,086	-0,018
-320,299	-200,000	-0,029	0,152
-319,285	68,481	-0,156	0,114
-318,270	-10,747	-0,062	-0,029
-317,256	628,687	0,064	-0,117
-316,241	-99,257	-0,069	-0,012
-315,226	-200,000	-0,012	-0,073
-314,212	-92,122	0,003	0,001
-313,197	800,000	0,069	-0,150
-312,183	-200,000	-0,039	-0,140
-311,168	-133,660	-0,136	0,012
-310,153	-200,000	-0,008	-0,175
-309,139	-200,000	-0,002	-0,074
-308,124	-200,000	-0,007	-0,053
-307,110	-59,895	0,146	-0,044
-306,095	56,023	0,035	0,024
-305,080	-200,000	0,035	0,123
-304,066	-64,662	-0,099	-0,028
-303,051	41,180	0,036	0,023
-302,037	304,921	-0,100	-0,132
-301,022	-83,474	0,079	-0,018
-300,008	-10,630	-0,093	0,044
-298,993	-2,193	0,124	-0,062
-297,978	-38,498	-0,100	-0,038
-296,964	563,764	-0,031	-0,054
-295,949	17,967	-0,266	0,151
-294,935	182,454	0,059	-0,062
-293,920	-139,382	-0,088	-0,007
-292,905	-37,159	0,100	-0,038
-291,891	-71,156	-0,021	0,005
-290,876	128,894	0,060	-0,055
-289,862	-200,000	0,011	0,078
-288,847	695,543	-0,013	-0,024
-287,832	800,000	0,048	-0,095
-286,818	-200,000	-0,023	0,097
-285,803	270,151	0,126	0,158
-284,789	480,703	0,028	0,045
-283,774	-74,842	0,054	-0,014
-282,759	800,000	-0,064	0,141
-281,745	800,000	-0,044	0,091
-280,730	20,514	-0,073	0,042
-279,716	-100,276	-0,091	-0,016
-278,701	800,000	0,021	-0,048
-277,686	351,728	-0,085	0,121
-276,672	-200,000	-0,035	0,139
-275,657	-31,470	0,127	0,051
-274,643	800,000	-0,016	-0,041
-273,628	-46,837	0,039	-0,013
-272,613	800,000	-0,039	0,084
-271,599	800,000	0,098	0,210
-270,584	254,530	-0,006	-0,008
-269,570	745,710	0,039	-0,075
-268,555	-200,000	-0,001	-0,134
-267,540	62,734	-0,071	-0,050
-266,526	528,978	-0,052	-0,088
-265,511	-200,000	-0,004	-0,042
-264,497	-200,000	0,018	-0,085
-263,482	506,267	-0,049	0,081
-262,467	8,807	0,089	-0,048
-261,453	223,340	-0,033	0,037
-260,438	-86,917	0,048	-0,010
-259,424	-34,006	-0,115	-0,045
-258,409	-148,018	-0,084	-0,005
-257,395	235,967	0,140	-0,165
-256,380	75,041	0,120	-0,090
-255,365	800,000	0,026	-0,058
-254,351	-36,341	0,153	0,058
-253,336	-200,000	-0,021	-0,071
-252,322	-90,774	-0,080	-0,016
-251,307	-89,122	-0,036	-0,008
-250,292	800,000	0,061	-0,190
-249,278	-101,960	0,096	0,016
-248,263	800,000	-0,022	-0,048
-247,249	-200,000	0,022	-0,078
-246,234	153,804	0,052	-0,051
-245,219	800,000	-0,065	-0,180
-244,205	-152,928	-0,089	0,004
-243,190	-81,155	-0,059	0,014
-242,176	-143,152	-0,046	0,003
-241,161	112,698	0,115	0,099
-240,146	-200,000	0,046	0,152
-239,132	-79,826	-0,136	0,032
-238,117	800,000	0,025	-0,076
-237,103	800,000	0,027	-0,065
-236,088	193,197	-0,052	0,056
-235,073	440,800	0,017	0,026
-234,059	481,293	-0,022	0,035
-233,044	206,366	0,054	0,059
-232,030	86,942	0,096	-0,075
-231,015	-134,737	-0,042	-0,004
-230,000	-50,058	-0,043	0,014
-228,986	-200,000	-0,008	0,146
-227,971	800,000	0,035	0,075
-226,957	244,513	0,058	-0,069
-225,942	-107,671	0,166	0,026
-224,927	-12,485	0,090	-0,042
-223,913	-200,000	0,035	-0,133
-222,898	800,000	-0,035	0,097
-221,884	-20,762	-0,051	0,022
-220,869	-50,911	-0,150	0,050
-219,855	-20,319	0,090	0,039
-218,840	145,152	-0,059	0,056
-217,825	24,003	-0,163	-0,095
-216,811	54,217	0,156	0,106
-215,796	236,609	-0,090	0,106
-214,782	114,674	0,057	0,049
-213,767	24,511	0,003	-0,002
-212,752	279,364	0,074	0,094
-211,738	124,811	0,077	0,069
-210,723	102,914	-0,073	-0,061
-209,709	62,529	-0,050	0,036
-208,694	800,000	0,069	-0,161
-207,679	-200,000	-0,004	0,064
-206,665	-37,866	0,120	0,045
-205,650	-140,873	-0,063	0,005
-204,636	-28,183	0,033	0,013
-203,621	-200,000	0,012	0,065
-202,606	-200,000	0,014	0,058
-201,592	800,000	-0,030	0,080
-200,577	361,667	-0,025	-0,036
-199,563	365,517	-0,047	-0,067
-198,548	109,945	0,100	0,085
-197,533	-200,000	-0,024	0,078
-196,519	28,636	-0,113	0,067
-195,504	157,310	0,026	-0,025
-194,490	-200,000	-0,029	-0,119
-193,475	-82,927	-0,054	-0,012
-192,460	-200,000	-0,024	-0,098
-191,446	800,000	0,004	-0,009
-190,431	800,000	-0,028	0,061
-189,417	-200,000	-0,033	-0,160
-188,402	-200,000	0,013	-0,134
-187,387	-167,574	-0,143	0,004
-186,373	89,351	0,094	-0,074
-185,358	-42,504	0,039	0,014
-184,344	303,538	0,124	-0,164
-183,329	81,293	-0,062	-0,048
-182,315	29,314	0,077	0,046
-181,300	800,000	0,020	0,044
-180,285	-77,810	0,128	-0,031
-179,271	800,000	-0,039	-0,104
-178,256	-200,000	0,013	0,061
-177,242	-200,000	0,006	0,020
-176,227	-6,948	0,018	-0,008
-175,212	-200,000	0,000	0,011
-174,198	302,204	0,109	-0,144
-173,183	-128,637	0,106	0,010
-172,169	-102,849	0,050	0,008
-171,154	-113,834	0,075	0,010
-170,139	-158,365	0,167	-0,007
-169,125	101,982	0,027	0,022
-168,110	-200,000	0,015	-0,066
-167,096	-200,000	-0,023	0,083
-166,081	-200,000	-0,003	0,114
-165,066	459,415	-0,018	0,028
-164,052	552,776	-0,074	-0,126
-163,037	86,020	-0,213	0,166
-162,023	218,290	0,104	0,118
-161,008	309,964	0,010	-0,013
-159,993	-126,901	0,098	-0,010
-158,979	-152,790	-0,128	0,006
-157,964	-157,297	-0,065	-0,003
-156,950	565,149	0,086	-0,148
-155,935	367,716	0,109	0,156
-154,920	800,000	0,067	0,142
-153,906	-200,000	-0,016	0,063
-152,891	-50,068	0,044	-0,015
-151,877	800,000	0,019	-0,056
-150,862	70,393	0,051	0,038
-149,847	23,819	0,081	-0,047
-148,833	-200,000	0,007	0,122
-147,818	8,134	-0,006	0,003
-146,804	-200,000	-0,008	0,109
-145,789	-20,185	0,075	0,033
-144,775	-200,000	-0,011	-0,057
-143,760	-200,000	-0,033	-0,127
-142,745	675,352	-0,098	-0,180
-141,731	-51,196	0,093	0,031
-140,716	29,692	-0,091	0,055
-139,702	57,285	-0,038	0,026
-138,687	800,000	0,128	0,273
-137,672	401,565	-0,076	-0,114
-136,658	-200,000	0,012	-0,107
-135,643	-200,000	-0,001	-0,078
-134,629	-42,033	0,078	-0,028
-133,614	-200,000	0,012	0,088
-132,599	165,926	0,054	0,054
-131,585	-200,000	0,001	0,055
-130,570	174,120	0,082	-0,084
-129,556	523,800	-0,051	-0,085
-128,541	32,080	0,069	0,042
-127,526	-200,000	0,020	0,123
-126,512	140,604	0,083	-0,078
-125,497	332,680	-0,104	0,142
-124,483	2,195	0,118	-0,060
-123,468	800,000	-0,025	-0,060
-122,453	-67,955	0,059	-0,016
-121,439	-200,000	0,004	-0,124
-120,424	-72,341	0,149	0,039
-119,410	-200,000	-0,004	-0,112
-118,395	245,048	-0,073	-0,087
-117,380	800,000	-0,029	0,084
-116,366	-200,000	-0,003	-0,033
-115,351	773,945	0,023	-0,045
-114,337	800,000	0,023	-0,069
-113,322	-200,000	-0,035	-0,132
-112,307	167,011	-0,031	0,031
-111,293	127,002	-0,058	0,052
-110,278	351,097	-0,030	-0,042
-109,264	-200,000	-0,011	-0,109
-108,249	142,470	-0,042	0,040
-107,234	800,000	-0,050	-0,122
-106,220	800,000	-0,014	-0,029
-105,205	-200,000	0,010	-0,040
-104,191	15,339	0,034	-0,019
-103,176	-200,000	0,031	-0,149
-102,162	211,516	0,127	0,141
-101,147	111,034	0,028	-0,024
-100,132	244,811	-0,085	-0,101
-99,118	-77,311	-0,090	-0,022
-98,103	134,733	0,036	-0,033
-97,089	800,000	0,040	0,094
-96,074	-111,368	-0,093	0,013
-95,059	239,849	0,068	0,081
-94,045	3,289	0,106	0,054
-93,030	119,286	0,041	-0,036
-92,016	136,356	0,105	0,097
-91,001	181,001	-0,038	0,040
-89,986	330,244	0,040	0,055
-88,972	-200,000	0,014	0,131
-87,957	120,332	-0,132	-0,116
-86,943	-75,024	0,034	0,008
-85,928	-200,000	0,012	-0,088
-84,913	60,028	-0,137	0,095
-83,899	-146,220	0,041	-0,003
-82,884	800,000	0,073	-0,179
-81,870	-78,302	0,068	0,016
-80,855	42,788	-0,113	0,072
-79,840	-174,731	-0,142	0,003
-78,826	23,491	-0,101	-0,059
-77,811	163,507	-0,056	-0,055
-76,797	-126,517	-0,228	0,024
-75,782	49,786	0,035	-0,023
-74,767	-54,448	-0,211	0,067
-73,753	523,615	-0,062	0,104
-72,738	8,859	0,072	0,038
-71,724	554,533	-0,033	-0,057
-70,709	-43,329	-0,052	0,018
-69,694	-200,000	-0,004	-0,019
-68,680	800,000	0,018	0,047
-67,665	91,670	-0,071	0,057
-66,651	-2,748	0,067	0,033
-65,636	-200,000	0,005	-0,031
-64,622	205,837	0,007	0,008
-63,607	-200,000	-0,026	-0,137
-62,592	-200,000	0,021	-0,080
-61,578	103,737	0,115	0,095
-60,563	-200,000	-0,008	0,047
-59,549	63,110	-0,084	0,060
-58,534	62,151	-2,291	-1,610
-57,519	600,079	-1,154	-2,031
-56,505	-200,000	-0,166	-4,174
-55,490	800,000	0,824	1,859
-54,476	800,000	5,134	11,290
-53,461	-200,000	22,290	346,454
-52,446	800,000	756,023	2289,480
-51,432	532,034	1639,902	2747,566
-50,417	67,530	1638,508	1178,826
-49,403	15,510	1515,809	837,430
-48,388	9,746	1442,014	769,048
-47,373	19,305	1434,737	810,565
-46,359	13,251	1423,311	775,580
-45,344	8,015	1419,370	748,703
-44,330	8,023	1417,294	747,617
-43,315	7,960	1415,690	746,441
-42,300	7,909	1413,740	745,143
-41,286	7,993	1412,462	744,837
-40,271	7,942	1411,262	743,932
-39,257	7,908	1410,355	743,267
-38,242	8,002	1408,996	742,963
-37,227	7,928	1408,076	742,103
-36,213	7,942	1406,795	741,462
-35,198	7,996	1405,425	740,964
-34,184	7,999	1404,444	740,433
-33,169	7,919	1403,395	739,475
-32,154	7,943	1402,411	739,037
-31,140	7,947	1401,055	738,312
-30,125	7,971	1399,934	737,807
-29,111	7,936	1398,940	737,090
-28,096	7,969	1397,477	736,445
-27,082	7,953	1396,312	735,726
-26,067	7,879	1395,402	734,872
-25,052	7,898	1394,314	734,361
-24,038	7,947	1393,103	733,920
-23,023	7,884	1392,450	733,255
-22,009	7,873	1391,415	732,627
-20,994	7,899	1390,304	732,136
-19,979	7,883	1389,401	731,555
-18,965	7,828	1388,552	730,829
-17,950	7,817	1387,711	730,304
-16,936	7,836	1386,859	729,913
-15,921	7,787	1385,644	729,018
-14,906	7,802	1384,978	728,709
-13,892	7,847	1383,834	728,284
-12,877	7,809	1383,048	727,669
-11,863	7,818	1382,213	727,240
-10,848	7,781	1381,380	726,606
-9,833	7,753	1380,491	725,981
-8,819	7,765	1379,483	725,474
-7,804	7,723	1378,608	724,795
-6,790	7,779	1377,438	724,406
-5,775	7,767	1376,479	723,821
-4,760	7,689	1375,714	723,031
-3,746	7,746	1374,603	722,681
-2,731	7,706	1374,076	722,189
-1,717	7,718	1372,963	721,629
-0,702	7,699	1371,249	720,614
0,313	11,693	1281,861	691,684
1,327	27,379	674,711	398,908
2,342	42,518	115,815	74,144
3,356	-1,741	16,523	8,173
4,371	9,118	3,954	2,099
5,386	-35,259	1,454	0,555
6,400	-200,000	0,243	0,765
7,415	-137,364	-0,202	-0,016
8,429	564,994	-0,168	-0,287
9,444	497,746	-0,144	-0,235
10,459	-8,612	-0,301	-0,142
11,473	91,851	-0,314	-0,249
12,488	-48,797	-0,284	-0,095
13,502	-32,591	-0,302	-0,118
14,517	527,991	-0,275	-0,458
15,531	5,640	-0,359	-0,186
16,546	-108,703	-0,368	-0,055
17,561	421,449	-0,193	-0,292
18,575	-134,312	-0,164	-0,014
19,590	48,185	-0,203	-0,133
20,604	33,268	-0,327	-0,199
21,619	89,402	-0,425	-0,333
22,634	-37,401	-0,547	-0,205
23,648	107,817	-0,395	-0,331
24,663	57,937	-0,407	-0,280
25,677	13,902	-0,306	-0,167
26,692	-18,590	-0,416	-0,182
27,707	8,729	-0,340	-0,180
28,721	25,515	-0,391	-0,228
29,736	136,458	-0,344	-0,316
30,750	100,059	-0,398	-0,325
31,765	87,278	-0,506	-0,393
32,780	44,593	-0,402	-0,260
33,794	122,619	-0,267	-0,234
34,809	60,164	-0,365	-0,254
35,823	-25,198	-0,285	-0,118
36,838	-17,861	-0,351	-0,154
37,853	282,864	-0,313	-0,396
38,867	184,094	-0,314	-0,327
39,882	-12,380	-0,349	-0,160
40,896	196,551	-0,238	-0,255
41,911	28,417	-0,279	-0,165
42,926	62,626	-0,400	-0,281
43,940	127,801	-0,327	-0,292
44,955	205,400	-0,332	-0,362
45,969	142,529	-0,352	-0,328
46,984	-15,109	-0,392	-0,176
47,999	-18,828	-0,445	-0,194
49,013	105,538	-0,335	-0,278
50,028	34,993	-0,433	-0,265
51,042	88,205	-0,252	-0,196
52,057	105,583	-0,281	-0,233
53,071	133,580	-0,237	-0,215
54,086	52,963	-0,298	-0,200
55,101	235,132	-0,263	-0,305
56,115	36,793	-0,299	-0,185
57,130	54,026	-0,406	-0,273
58,144	68,043	-0,347	-0,249
59,159	124,505	-0,398	-0,351
60,174	-58,488	-0,374	-0,113
61,188	10,384	-0,383	-0,204
62,203	159,210	-0,225	-0,220
63,217	14,810	-0,272	-0,149
64,232	134,681	-0,304	-0,277
65,247	-40,380	-0,340	-0,123
66,261	-19,564	-0,301	-0,130
67,276	136,427	-0,263	-0,240
68,290	55,820	-0,241	-0,164
69,305	40,479	-0,329	-0,207
70,320	38,731	-0,352	-0,220
71,334	106,854	-0,351	-0,292
72,349	168,946	-0,355	-0,355
73,363	25,447	-0,303	-0,176
74,378	161,161	-0,276	-0,270
75,393	118,225	-0,315	-0,272
76,407	90,041	-0,263	-0,206
77,422	84,523	-0,213	-0,163
78,436	105,640	-0,253	-0,210
79,451	3,472	-0,395	-0,201
80,466	59,660	-0,287	-0,198
81,480	64,183	-0,260	-0,183
82,495	232,041	-0,198	-0,227
83,509	19,608	-0,242	-0,136
84,524	29,834	-0,305	-0,181
85,539	4,481	-0,269	-0,138
86,553	52,853	-0,343	-0,229
87,568	119,524	-0,327	-0,283
88,582	175,637	-0,318	-0,323
89,597	71,952	-0,374	-0,272
90,611	-18,906	-0,242	-0,105
91,626	82,276	-0,228	-0,173
92,641	3,666	-0,278	-0,141
93,655	-121,796	-0,372	-0,042
94,670	-15,616	-0,310	-0,138
95,684	207,006	-0,252	-0,276
96,699	-5,140	-0,380	-0,182
97,714	76,088	-0,265	-0,196
98,728	-61,657	-0,365	-0,106
99,743	-75,259	-0,230	-0,057
100,757	21,949	-0,330	-0,188
101,772	148,141	-0,282	-0,266
102,787	35,069	-0,257	-0,157
103,801	62,845	-0,362	-0,253
104,816	276,991	-0,146	-0,181
105,830	-32,858	-0,234	-0,090
106,845	24,894	-0,261	-0,151
107,860	-13,512	-0,172	-0,077
108,874	-98,969	-0,295	-0,052
109,889	132,560	-0,236	-0,212
110,903	-26,761	-0,337	-0,137
111,918	39,858	-0,273	-0,171
112,933	-27,899	-0,296	-0,119
113,947	-9,737	-0,227	-0,105
114,962	74,445	-0,248	-0,182
115,976	39,484	-0,318	-0,198
116,991	-48,991	-0,412	-0,137
118,006	56,277	-0,366	-0,248
119,020	440,383	-0,247	-0,377
120,035	51,379	-0,287	-0,190
121,049	-103,443	-0,134	-0,022
122,064	-68,500	-0,221	-0,059
123,079	104,317	-0,123	-0,101
124,093	-36,143	-0,377	-0,141
125,108	-49,086	-0,324	-0,107
126,122	164,493	-0,144	-0,142
127,137	-46,527	-0,237	-0,081
128,151	-72,873	-0,206	-0,053
129,166	-17,979	-0,210	-0,091
130,181	127,656	-0,279	-0,247
131,195	321,077	-0,205	-0,273
132,210	32,228	-0,364	-0,219
133,224	-32,597	-0,196	-0,076
134,239	1,530	-0,253	-0,126
135,254	124,117	-0,195	-0,171
136,268	-4,750	-0,300	-0,144
137,283	33,984	-0,244	-0,147
138,297	0,721	-0,250	-0,124
139,312	59,253	-0,314	-0,215
140,327	100,779	-0,293	-0,237
141,341	356,299	-0,142	-0,198
142,356	64,939	-0,139	-0,097
143,370	-3,939	-0,219	-0,105
144,385	147,683	-0,231	-0,217
145,400	46,673	-0,168	-0,108
146,414	193,815	-0,219	-0,231
147,429	4,112	-0,256	-0,130
148,443	55,675	-0,176	-0,119
149,458	115,934	-0,162	-0,138
150,473	71,263	-0,264	-0,190
151,487	22,898	-0,268	-0,152
152,502	90,580	-0,210	-0,164
153,516	679,412	-0,071	-0,129
154,531	-19,975	-0,224	-0,096
155,546	116,069	-0,147	-0,125
156,560	-4,928	-0,315	-0,150
157,575	56,062	-0,218	-0,147
158,589	111,831	-0,218	-0,183
159,604	-32,802	-0,256	-0,099
160,619	38,429	-0,249	-0,154
161,633	800,000	-0,055	-0,137
162,648	62,311	-0,334	-0,232
163,662	73,662	-0,121	-0,088
164,677	50,204	-0,270	-0,177
165,692	43,902	-0,280	-0,178
166,706	62,202	-0,155	-0,107
167,721	47,487	-0,197	-0,127
168,735	190,806	-0,158	-0,165
169,750	136,665	-0,186	-0,168
170,764	-85,350	-0,203	-0,044
171,779	275,908	-0,169	-0,209
172,794	-96,313	-0,138	-0,025
173,808	-4,897	-0,288	-0,137
174,823	175,595	-0,269	-0,271
175,837	450,510	-0,145	-0,223
176,852	353,560	-0,180	-0,249
177,867	174,059	-0,257	-0,258
178,881	10,486	-0,082	-0,043
179,896	377,244	-0,124	-0,177
180,910	156,685	-0,262	-0,251
181,925	89,404	-0,241	-0,186
182,940	386,514	-0,250	-0,359
183,954	17,715	-0,313	-0,172
184,969	80,399	-0,186	-0,139
185,983	-58,454	-0,318	-0,095
186,998	14,791	-0,303	-0,164
188,013	-22,975	-0,183	-0,076
189,027	46,253	-0,173	-0,111
190,042	49,680	-0,234	-0,153
191,056	102,572	-0,219	-0,177
192,071	90,006	-0,030	0,024
193,086	50,497	-0,240	-0,157
194,100	384,301	-0,086	-0,123
195,115	-47,746	-0,155	-0,052
196,129	-182,581	-0,212	-0,003
197,144	-45,042	-0,271	-0,093
198,159	8,214	-0,182	-0,094
199,173	800,000	-0,047	-0,117
200,188	800,000	-0,131	-0,253
201,202	335,937	-0,186	-0,251
202,217	750,025	-0,142	-0,268
203,232	800,000	-0,055	-0,134
204,246	41,826	-0,231	-0,145
205,261	-97,148	-0,224	-0,040
206,275	-111,993	-0,162	0,022
207,290	548,966	-0,096	-0,160
208,304	-200,000	-0,050	-0,175
209,319	-103,965	-0,120	-0,019
210,334	-48,562	-0,153	-0,051
211,348	39,487	-0,233	-0,144
212,363	75,798	-0,255	-0,186
213,377	98,444	-0,122	-0,097
214,392	22,620	-0,125	-0,071
215,407	108,768	-0,227	-0,188
216,421	745,253	-0,129	-0,241
217,436	-57,966	-0,243	-0,073
218,450	523,097	-0,077	-0,126
219,465	-95,332	-0,270	-0,050
220,480	5,985	-0,171	-0,087
221,494	-36,263	-0,062	0,023
222,509	122,322	-0,124	-0,107
223,523	170,224	-0,142	-0,140
224,538	-144,488	-0,129	-0,008
225,553	-7,686	-0,274	-0,127
226,567	-124,068	-0,172	-0,018
227,582	59,582	-0,183	-0,124
228,596	-99,446	-0,202	-0,035
229,611	647,153	-0,049	-0,086
230,626	800,000	-0,069	-0,177
231,640	37,249	-0,195	-0,119
232,655	581,412	-0,122	-0,207
233,669	135,910	-0,295	-0,266
234,684	-103,492	-0,210	-0,034
235,699	593,277	-0,128	-0,219
236,713	-119,794	-0,155	-0,018
237,728	-93,326	-0,279	-0,053
238,742	180,417	-0,182	-0,184
239,757	66,382	-0,298	-0,208
240,772	188,705	-0,201	-0,208
241,786	-33,794	-0,275	-0,104
242,801	-140,020	-0,114	0,008
243,815	-55,413	-0,113	-0,035
244,830	-96,201	-0,155	0,028
245,844	-14,259	-0,178	-0,079
246,859	-9,761	-0,293	-0,134
247,874	800,000	-0,138	-0,272
248,888	510,483	-0,241	-0,388
249,903	162,554	-0,154	-0,149
250,917	-135,656	-0,178	0,014
251,932	-167,414	-0,154	0,004
252,947	-112,487	-0,199	-0,027
253,961	64,515	-0,305	-0,211
254,976	-200,000	-0,049	-0,176
255,990	105,512	-0,204	-0,166
257,005	84,655	-0,097	-0,073
258,020	58,892	-0,162	-0,110
259,034	127,390	-0,103	-0,090
260,049	22,305	-0,177	-0,100
261,063	-59,199	-0,120	-0,035
262,078	800,000	-0,087	-0,211
263,093	800,000	-0,109	-0,231
264,107	64,873	-0,199	-0,138
265,122	-12,577	-0,257	-0,115
266,136	-123,151	-0,096	-0,011
267,151	86,497	-0,268	-0,203
268,166	76,650	-0,195	-0,142
269,180	-118,112	-0,139	-0,017
270,195	146,014	-0,236	-0,218
271,209	234,331	-0,136	-0,155
272,224	115,887	-0,151	-0,127
273,239	-129,408	-0,163	0,015
274,253	-66,194	-0,139	-0,038
275,268	111,589	-0,193	-0,161
276,282	133,148	-0,130	-0,115
277,297	57,942	-0,205	-0,138
278,312	-8,867	-0,224	-0,103
279,326	175,187	-0,045	-0,045
280,341	325,882	-0,104	-0,138
281,355	-174,029	-0,138	-0,003
282,370	21,388	-0,137	-0,077
283,384	-146,664	-0,066	0,004
284,399	-52,687	-0,197	-0,062
285,414	60,651	-0,121	-0,082
286,428	143,753	-0,182	-0,166
287,443	35,244	-0,181	-0,109
288,457	-36,829	-0,198	-0,073
289,472	-0,661	-0,137	-0,066
290,487	-100,329	-0,115	-0,019
291,501	77,932	-0,163	-0,119
292,516	6,995	-0,130	-0,067
293,530	800,000	0,038	-0,088
294,545	15,347	-0,225	-0,121
295,560	33,777	-0,206	-0,123
296,574	94,412	-0,077	-0,060
297,589	10,075	-0,118	-0,061
298,603	360,825	-0,155	-0,214
299,618	-101,407	-0,135	-0,022
300,633	113,735	-0,141	-0,117
301,647	176,281	-0,068	-0,068
302,662	-148,771	-0,216	-0,012
303,676	555,808	-0,094	-0,157
304,691	60,220	-0,144	-0,098
305,706	-1,486	-0,079	-0,038
306,720	-93,780	-0,147	0,028
307,735	674,466	-0,115	-0,205
308,749	-20,655	-0,108	0,045
309,764	800,000	0,004	-0,007
310,779	-1,610	-0,169	-0,081
311,793	-85,824	-0,206	-0,043
312,808	-64,305	-0,109	-0,030
313,822	36,503	-0,209	-0,126
314,837	110,102	-0,165	-0,136
315,852	-86,682	-0,192	0,040
316,866	-200,000	-0,017	-0,065
317,881	-6,830	-0,175	-0,081
318,895	-94,370	-0,193	-0,036
319,910	54,003	-0,145	-0,096
320,925	94,760	-0,200	-0,156
321,939	103,556	-0,138	-0,111
322,954	129,295	-0,075	0,066
323,968	800,000	-0,085	-0,175
324,983	78,096	-0,102	-0,074
325,997	68,812	-0,133	-0,094
327,012	101,196	-0,235	-0,187
328,027	19,443	-0,119	-0,065
329,041	130,343	-0,090	0,079
330,056	4,868	-0,122	-0,061
331,070	103,534	-0,159	-0,128
332,085	324,212	-0,087	-0,114
333,100	170,915	-0,139	-0,136
334,114	152,728	-0,246	-0,230
335,129	359,351	-0,131	-0,180
336,143	-200,000	0,003	-0,185
337,158	-74,721	-0,162	-0,040
338,173	32,226	-0,039	-0,023
339,187	272,355	-0,122	-0,148
340,202	-41,687	-0,176	-0,061
341,216	-200,000	-0,049	-0,151
342,231	-142,244	-0,072	-0,005
343,246	60,326	-0,176	-0,119
344,260	-195,234	-0,167	0,001
345,275	152,610	-0,080	-0,075
346,289	220,957	-0,073	-0,080
347,304	286,074	-0,127	-0,157
348,319	-66,429	-0,097	-0,026
349,333	-67,536	-0,209	-0,056
350,348	252,972	-0,128	-0,150
351,362	117,066	-0,101	-0,084
352,377	711,567	-0,079	-0,144
353,392	119,222	-0,128	-0,108
354,406	-21,285	-0,148	-0,062
355,421	207,220	1305,324	1393,211
356,435	159,400	1464,859	1393,674
