DTS Sentinel unit serial number:	SN410029Multiplexer serial number:	ORYXHardware model number:	OX2-SRSoftware version number:	ORYX F/W v4,00 Oryx Data Collector v3.7.2.0data status	okinstallation	B3 Nyhavnadifferential loss correction	single-endedforward channel	channel 1reverse channel	N/Adate	2023/12/03time	22:22:30forward acquisition time	300,00reverse acquisition time	0,00gamma	499,1914k internal	0,3200k external	0,3200temperature offset calibration	1,0000default loss term (dB/km)	0,3820temperature slope calibration	1,0000multiplexer offset coefficient	1,0000multiplexer slope coefficient	1,0000fibre end	0,00T internal ref (°C)	13,25T ext. ref 1 (°C)	-2,10T ext. ref 2 (°C)	-2,13length (m)	temperature (°C)	Stokes	anti-Stokes-744,400	305,553	-0,132	-0,179
-743,385	-200,000	-0,095	0,350
-742,371	37,044	-0,146	-0,094
-741,356	-200,000	0,013	0,259
-740,342	166,031	-0,229	-0,236
-739,327	508,697	0,156	0,264
-738,312	363,740	-0,237	-0,348
-737,298	-200,000	-0,063	0,331
-736,283	67,930	-0,285	-0,212
-735,269	-200,000	0,022	0,359
-734,254	-46,090	-0,366	-0,130
-733,239	25,616	-0,221	0,133
-732,225	13,199	-0,190	-0,107
-731,210	241,827	0,126	0,153
-730,196	58,858	-0,122	-0,087
-729,181	-105,122	0,101	0,017
-728,167	436,581	-0,037	0,058
-727,152	-106,493	0,111	-0,018
-726,137	800,000	0,006	-0,016
-725,123	79,910	-0,114	-0,089
-724,108	-200,000	-0,004	-0,026
-723,094	-200,000	0,004	-0,067
-722,079	-200,000	0,035	-0,126
-721,064	432,695	-0,005	-0,009
-720,050	-200,000	0,055	-0,195
-719,035	11,666	0,146	0,081
-718,021	-183,331	-0,083	0,001
-717,006	88,085	0,024	0,019
-715,991	-50,285	-0,166	0,057
-714,977	25,699	-0,078	-0,047
-713,962	-74,245	-0,053	-0,014
-712,948	305,882	0,048	-0,065
-711,933	28,998	-0,077	0,048
-710,918	-200,000	-0,013	-0,076
-709,904	-200,000	0,013	-0,080
-708,889	-0,870	-0,193	-0,099
-707,875	395,924	-0,092	-0,141
-706,860	-53,527	-0,079	-0,026
-705,845	-40,480	0,113	-0,042
-704,831	-21,429	-0,120	-0,053
-703,816	-200,000	-0,026	0,171
-702,802	82,253	-0,123	0,097
-701,787	-200,000	-0,004	0,061
-700,772	-16,540	0,048	-0,022
-699,758	-200,000	0,003	-0,110
-698,743	433,924	-0,046	0,073
-697,729	92,487	-0,039	0,032
-696,714	-150,602	0,087	-0,005
-695,699	272,609	0,055	0,071
-694,685	800,000	0,005	0,014
-693,670	-143,397	0,034	-0,002
-692,656	261,093	0,064	-0,081
-691,641	315,831	-0,080	-0,110
-690,627	800,000	0,050	-0,130
-689,612	134,945	-0,110	0,104
-688,597	-88,218	-0,095	-0,020
-687,583	79,690	-0,120	-0,094
-686,568	-200,000	0,016	-0,092
-685,554	202,486	0,044	-0,050
-684,539	-53,405	-0,040	0,013
-683,524	152,033	0,056	-0,056
-682,510	-73,547	-0,070	0,018
-681,495	-200,000	0,011	0,043
-680,481	-200,000	-0,040	-0,201
-679,466	419,481	-0,098	-0,153
-678,451	388,089	0,109	-0,163
-677,437	197,205	0,091	-0,100
-676,422	-200,000	-0,013	0,110
-675,408	-200,000	0,028	-0,092
-674,393	625,773	-0,083	-0,152
-673,378	-18,599	-0,190	-0,086
-672,364	318,444	-0,054	0,075
-671,349	-132,310	0,042	0,004
-670,335	39,648	-0,098	-0,064
-669,320	234,473	0,032	-0,039
-668,305	800,000	0,045	0,124
-667,291	800,000	-0,039	0,121
-666,276	460,044	-0,060	-0,098
-665,262	-100,041	-0,023	-0,004
-664,247	173,224	-0,116	-0,121
-663,232	800,000	0,022	0,047
-662,218	800,000	-0,063	-0,154
-661,203	190,515	-0,101	-0,110
-660,189	474,430	-0,053	-0,088
-659,174	97,388	0,021	-0,018
-658,159	-200,000	-0,010	-0,218
-657,145	-200,000	-0,076	-0,256
-656,130	-25,759	-0,046	-0,020
-655,116	52,611	-0,009	-0,006
-654,101	-200,000	0,017	-0,085
-653,086	215,772	-0,101	-0,116
-652,072	210,106	-0,118	-0,134
-651,057	-200,000	0,022	-0,188
-650,043	-19,998	-0,117	-0,052
-649,028	-200,000	0,013	0,114
-648,014	-200,000	0,023	0,095
-646,999	-200,000	0,003	0,073
-645,984	-2,513	-0,089	0,045
-644,970	-200,000	-0,023	-0,182
-643,955	-101,264	-0,041	0,007
-642,941	16,079	-0,052	0,030
-641,926	-200,000	-0,027	0,090
-640,911	72,173	0,019	-0,014
-639,897	-85,832	-0,120	-0,027
-638,882	2,841	-0,090	-0,047
-637,868	49,021	-0,073	-0,050
-636,853	453,340	0,072	0,116
-635,838	27,783	-0,045	-0,027
-634,824	618,490	0,086	-0,158
-633,809	-200,000	0,024	0,140
-632,795	-112,914	-0,184	0,026
-631,780	292,144	0,050	0,066
-630,765	652,976	0,023	-0,042
-629,751	-56,143	-0,239	-0,077
-628,736	162,630	-0,088	-0,089
-627,722	347,079	-0,020	-0,028
-626,707	-129,899	0,092	0,009
-625,692	194,261	-0,057	-0,062
-624,678	67,076	0,069	0,051
-623,663	-200,000	-0,064	-0,238
-622,649	800,000	-0,023	-0,057
-621,634	232,482	-0,065	-0,077
-620,619	800,000	-0,058	-0,146
-619,605	-47,036	0,074	0,026
-618,590	-143,192	-0,114	-0,008
-617,576	323,157	-0,042	0,058
-616,561	-87,269	0,117	-0,025
-615,546	134,652	0,081	-0,076
-614,532	-200,000	-0,027	-0,193
-613,517	118,198	-0,059	-0,053
-612,503	-200,000	0,002	0,012
-611,488	800,000	0,011	-0,024
-610,474	-0,260	-0,110	-0,056
-609,459	800,000	-0,022	-0,051
-608,444	280,298	0,038	-0,050
-607,430	-200,000	0,006	0,039
-606,415	-25,681	-0,043	0,018
-605,401	-200,000	-0,011	-0,138
-604,386	-8,371	0,076	0,037
-603,371	800,000	-0,031	0,067
-602,357	-7,896	-0,066	0,032
-601,342	-200,000	-0,072	-0,240
-600,328	-200,000	0,011	-0,055
-599,313	441,869	-0,024	-0,039
-598,298	-33,230	0,067	0,027
-597,284	-73,357	0,095	-0,025
-596,269	-200,000	0,033	0,162
-595,255	800,000	0,009	0,020
-594,240	-200,000	-0,012	0,084
-593,225	506,678	-0,052	-0,088
-592,211	239,662	-0,012	-0,014
-591,196	269,554	0,061	-0,077
-590,182	-107,809	0,086	0,013
-589,167	-200,000	-0,030	0,129
-588,152	-200,000	-0,010	0,167
-587,138	89,429	-0,060	0,049
-586,123	-200,000	-0,028	-0,100
-585,109	-200,000	-0,041	-0,193
-584,094	108,886	-0,104	-0,090
-583,079	251,618	-0,041	0,051
-582,065	67,944	0,121	0,089
-581,050	394,716	0,042	-0,063
-580,036	-200,000	0,040	-0,128
-579,021	800,000	0,034	-0,084
-578,006	25,864	-0,108	-0,065
-576,992	574,279	-0,043	0,075
-575,977	123,453	-0,073	-0,066
-574,963	275,160	0,037	-0,048
-573,948	-151,050	0,015	0,001
-572,934	77,950	0,067	0,052
-571,919	-111,667	-0,192	-0,028
-570,904	112,753	0,056	0,049
-569,890	-86,183	-0,067	0,015
-568,875	800,000	0,018	0,041
-567,861	-137,889	-0,058	0,005
-566,846	100,791	0,043	-0,036
-565,831	236,449	-0,054	0,065
-564,817	131,007	-0,037	0,034
-563,802	-200,000	-0,023	0,093
-562,788	242,938	-0,105	-0,128
-561,773	-38,806	-0,064	0,024
-560,758	59,006	-0,124	0,088
-559,744	5,590	0,108	0,057
-558,729	11,650	-0,068	0,038
-557,715	-200,000	0,010	0,128
-556,700	59,787	0,109	-0,078
-555,685	-108,441	-0,098	0,015
-554,671	-200,000	-0,003	0,036
-553,656	57,907	0,078	0,055
-552,642	-16,559	0,148	-0,067
-551,627	335,726	-0,088	0,124
-550,612	-89,658	-0,123	0,026
-549,598	-200,000	0,008	-0,065
-548,583	60,364	0,097	-0,070
-547,569	171,873	0,096	-0,100
-546,554	-128,638	0,007	-0,001
-545,539	-114,939	0,153	-0,021
-544,525	800,000	-0,044	0,107
-543,510	-13,139	-0,132	-0,061
-542,496	199,360	-0,019	-0,021
-541,481	-200,000	0,001	-0,060
-540,466	-86,829	-0,133	-0,029
-539,452	33,276	-0,076	-0,047
-538,437	-200,000	0,040	0,151
-537,423	75,910	0,029	0,022
-536,408	97,568	-0,029	-0,024
-535,393	30,854	-0,156	0,096
-534,379	-104,694	-0,071	0,012
-533,364	500,537	0,064	0,107
-532,350	-47,719	0,096	-0,034
-531,335	1,501	-0,026	0,014
-530,321	-196,628	0,075	0,000
-529,306	800,000	-0,038	-0,094
-528,291	-200,000	0,003	-0,179
-527,277	-200,000	0,022	-0,185
-526,262	-200,000	-0,006	0,020
-525,248	124,117	0,103	0,093
-524,233	57,425	0,075	0,053
-523,218	-200,000	0,011	0,070
-522,204	180,542	-0,007	-0,008
-521,189	479,178	-0,032	-0,053
-520,175	-93,317	0,171	0,034
-519,160	97,302	-0,066	0,055
-518,145	650,949	0,031	-0,058
-517,131	3,628	0,037	-0,019
-516,116	10,505	-0,054	0,030
-515,102	-200,000	-0,015	0,067
-514,087	800,000	-0,038	0,115
-513,072	619,880	-0,038	-0,070
-512,058	800,000	-0,024	-0,076
-511,043	800,000	0,023	0,059
-510,029	800,000	0,040	-0,124
-509,014	800,000	-0,028	0,074
-507,999	135,291	0,070	-0,066
-506,985	121,769	0,023	-0,021
-505,970	-30,798	-0,104	-0,042
-504,956	17,049	0,094	-0,054
-503,941	-7,457	0,096	0,047
-502,926	12,725	0,112	0,062
-501,912	-37,324	0,119	-0,045
-500,897	800,000	0,053	0,114
-499,883	365,548	0,045	0,065
-498,868	-200,000	-0,019	-0,098
-497,853	-20,609	-0,004	-0,002
-496,839	418,716	0,054	-0,083
-495,824	-31,221	-0,120	0,049
-494,810	143,133	0,084	-0,080
-493,795	68,008	-0,077	-0,057
-492,781	99,796	0,140	-0,117
-491,766	74,641	-0,113	-0,086
-490,751	-200,000	-0,017	-0,089
-489,737	-62,748	0,144	0,043
-488,722	51,723	-0,132	-0,091
-487,708	-68,754	0,121	0,033
-486,693	22,271	-0,083	-0,049
-485,678	-60,351	0,036	-0,011
-484,664	800,000	-0,032	0,082
-483,649	81,203	-0,053	0,041
-482,635	-111,586	-0,112	-0,016
-481,620	-92,878	0,110	0,022
-480,605	800,000	0,053	0,127
-479,591	800,000	-0,058	0,116
-478,576	-18,108	0,125	-0,056
-477,562	173,961	0,004	-0,004
-476,547	-60,593	-0,083	-0,025
-475,532	396,686	-0,033	-0,049
-474,518	-110,418	0,158	-0,023
-473,503	59,075	-0,143	-0,101
-472,489	800,000	-0,037	-0,075
-471,474	187,313	-0,105	-0,113
-470,459	800,000	-0,028	-0,085
-469,445	-197,189	-0,140	-0,001
-468,430	-38,017	-0,117	-0,045
-467,416	-167,700	0,200	-0,006
-466,401	800,000	0,020	0,042
-465,386	-26,079	0,047	-0,020
-464,372	177,629	-0,017	0,018
-463,357	67,954	-0,037	-0,027
-462,343	195,748	-0,045	-0,049
-461,328	-200,000	-0,004	-0,180
-460,313	30,531	0,063	0,039
-459,299	590,362	-0,083	0,149
-458,284	-81,551	0,058	0,014
-457,270	-163,078	0,088	-0,003
-456,255	-41,281	0,081	-0,030
-455,241	-200,000	0,008	0,113
-454,226	602,600	-0,042	0,075
-453,211	-200,000	0,031	-0,121
-452,197	285,506	-0,032	-0,042
-451,182	58,875	0,044	0,031
-450,168	-149,067	-0,029	-0,002
-449,153	-194,057	-0,089	-0,001
-448,138	310,080	0,035	0,047
-447,124	113,250	-0,062	-0,054
-446,109	118,961	0,023	-0,021
-445,095	430,423	-0,054	-0,084
-444,080	-69,478	0,182	-0,050
-443,065	75,093	-0,076	-0,057
-442,051	257,827	0,057	0,071
-441,036	-200,000	0,009	-0,095
-440,022	-78,988	0,168	-0,041
-439,007	-200,000	-0,024	0,075
-437,992	-147,542	-0,037	-0,002
-436,978	-200,000	0,019	0,087
-435,963	333,680	-0,053	0,074
-434,949	266,982	-0,055	0,069
-433,934	-200,000	-0,032	-0,103
-432,919	29,454	-0,039	-0,024
-431,905	-200,000	-0,004	-0,076
-430,890	-200,000	0,004	0,060
-429,876	405,429	-0,037	-0,056
-428,861	-155,782	0,232	-0,010
-427,846	-24,205	-0,232	0,099
-426,832	202,515	0,136	-0,151
-425,817	800,000	-0,049	-0,118
-424,803	218,046	-0,048	0,055
-423,788	-64,781	0,081	-0,023
-422,773	-129,283	0,033	0,003
-421,759	98,351	0,044	0,037
-420,744	173,820	-0,040	-0,041
-419,730	800,000	0,057	-0,142
-418,715	-54,413	0,069	0,022
-417,701	-42,173	-0,070	0,026
-416,686	-200,000	-0,001	-0,029
-415,671	347,024	-0,036	-0,051
-414,657	31,407	-0,051	0,031
-413,642	188,255	-0,023	-0,025
-412,628	-155,912	0,052	-0,002
-411,613	-46,772	-0,045	0,016
-410,598	-200,000	0,032	0,138
-409,584	164,740	-0,069	0,070
-408,569	-49,244	0,142	0,048
-407,555	-7,767	0,130	0,063
-406,540	-103,041	0,073	-0,012
-405,525	-7,948	-0,119	0,058
-404,511	46,340	0,092	0,061
-403,496	800,000	0,023	0,054
-402,482	224,958	0,045	0,052
-401,467	-17,643	0,109	-0,049
-400,452	453,808	0,023	0,037
-399,438	35,433	-0,009	0,006
-398,423	316,282	-0,095	0,129
-397,409	9,618	0,020	-0,011
-396,394	268,896	-0,063	0,079
-395,379	87,704	-0,067	-0,054
-394,365	714,838	-0,035	0,066
-393,350	291,717	0,128	0,168
-392,336	-200,000	0,012	0,062
-391,321	-88,907	0,041	-0,009
-390,306	342,195	-0,036	-0,050
-389,292	283,762	0,080	-0,103
-388,277	260,038	-0,064	-0,079
-387,263	800,000	0,026	-0,068
-386,248	-22,425	0,061	-0,027
-385,233	-93,474	0,079	0,016
-384,219	38,508	0,070	-0,045
-383,204	-200,000	0,014	0,088
-382,190	800,000	0,019	0,051
-381,175	80,966	-0,083	-0,064
-380,160	179,705	0,033	0,035
-379,146	522,271	-0,030	0,050
-378,131	-200,000	0,003	0,096
-377,117	-200,000	-0,025	0,080
-376,102	800,000	-0,024	-0,073
-375,088	-200,000	0,016	-0,166
-374,073	-36,168	-0,118	-0,045
-373,058	-32,142	0,082	0,033
-372,044	-75,058	0,044	0,011
-371,029	116,564	-0,016	0,014
-370,015	-34,052	-0,058	0,023
-369,000	-200,000	-0,026	0,087
-367,985	434,919	-0,162	-0,254
-366,971	-200,000	0,033	-0,145
-365,956	-200,000	-0,019	0,124
-364,942	31,967	0,047	0,029
-363,927	186,893	-0,062	0,066
-362,912	-200,000	-0,030	0,125
-361,898	-26,710	-0,123	-0,051
-360,883	147,458	-0,007	-0,007
-359,869	-166,444	0,069	-0,002
-358,854	-13,339	-0,069	-0,032
-357,839	-161,223	0,144	-0,005
-356,825	136,618	0,062	-0,058
-355,810	800,000	0,014	0,034
-354,796	-142,872	-0,136	0,009
-353,781	-137,331	0,136	-0,011
-352,766	380,219	-0,059	-0,087
-351,752	800,000	0,062	0,125
-350,737	231,079	0,096	0,112
-349,723	560,027	-0,067	0,117
-348,708	-200,000	-0,002	-0,051
-347,693	-200,000	0,007	-0,068
-346,679	161,106	0,003	-0,003
-345,664	255,370	-0,045	-0,055
-344,650	-46,469	-0,094	-0,033
-343,635	-200,000	-0,005	0,080
-342,620	-139,466	0,041	-0,003
-341,606	-200,000	-0,038	0,161
-340,591	88,312	0,079	0,063
-339,577	800,000	0,068	0,166
-338,562	-200,000	-0,043	0,159
-337,548	460,675	-0,010	-0,016
-336,533	-200,000	0,012	0,039
-335,518	-49,310	0,127	-0,043
-334,504	-200,000	-0,023	-0,092
-333,489	351,851	0,054	-0,077
-332,475	800,000	-0,039	-0,119
-331,460	-12,493	-0,110	-0,051
-330,445	336,113	-0,068	0,095
-329,431	800,000	-0,022	0,044
-328,416	-41,151	0,104	0,038
-327,402	131,066	-0,093	0,085
-326,387	-69,761	-0,085	0,023
-325,372	800,000	-0,012	0,038
-324,358	-94,193	-0,098	-0,019
-323,343	-200,000	-0,003	-0,197
-322,329	636,596	-0,032	0,058
-321,314	-200,000	-0,019	0,084
-320,299	-158,438	0,084	0,003
-319,285	214,774	-0,085	0,096
-318,270	800,000	-0,043	-0,105
-317,256	-50,875	-0,069	0,023
-316,241	305,214	0,035	0,047
-315,226	-200,000	0,003	0,041
-314,212	-58,248	0,061	-0,019
-313,197	800,000	0,014	0,040
-312,183	-200,000	0,011	0,117
-311,168	-103,788	0,016	0,003
-310,153	-172,589	-0,120	0,003
-309,139	-7,495	-0,053	-0,025
-308,124	-25,931	-0,085	-0,036
-307,110	-200,000	-0,026	0,149
-306,095	800,000	-0,054	0,118
-305,080	-79,566	0,039	-0,009
-304,066	-200,000	0,017	-0,145
-303,051	-200,000	-0,007	-0,082
-302,037	800,000	0,068	-0,181
-301,022	800,000	0,023	0,054
-300,008	800,000	-0,018	0,055
-298,993	-124,506	0,104	0,011
-297,978	306,156	-0,098	0,130
-296,964	-200,000	0,005	-0,158
-295,949	349,322	0,037	-0,053
-294,935	-200,000	0,018	-0,086
-293,920	-200,000	0,001	0,076
-292,905	-42,148	-0,135	-0,049
-291,891	-200,000	-0,010	0,087
-290,876	800,000	0,076	0,175
-289,862	322,882	-0,084	0,115
-288,847	13,346	-0,058	0,032
-287,832	-200,000	-0,006	0,034
-286,818	87,195	-0,045	0,036
-285,803	46,316	-0,020	-0,013
-284,789	-200,000	0,002	-0,129
-283,774	249,428	0,069	0,084
-282,759	-200,000	0,014	0,093
-281,745	-200,000	-0,003	0,091
-280,730	800,000	0,022	0,051
-279,716	388,771	-0,030	-0,044
-278,701	-83,204	0,155	0,035
-277,686	-43,498	0,122	0,044
-276,672	-200,000	-0,006	-0,030
-275,657	298,776	0,063	0,083
-274,643	31,205	0,145	-0,089
-273,628	-200,000	-0,019	-0,061
-272,613	-143,164	-0,151	-0,010
-271,599	148,860	-0,083	-0,081
-270,584	-110,587	0,156	0,023
-269,570	719,473	-0,025	0,048
-268,555	-200,000	0,000	-0,043
-267,540	542,358	0,043	0,073
-266,526	-85,432	0,042	0,009
-265,511	-15,574	0,032	-0,015
-264,497	-200,000	-0,003	0,060
-263,482	-200,000	-0,003	0,074
-262,467	59,450	0,037	-0,026
-261,453	-155,195	0,187	-0,009
-260,438	22,555	0,096	-0,056
-259,424	-132,950	0,115	-0,010
-258,409	-174,224	-0,044	0,001
-257,395	527,151	0,022	0,038
-256,380	800,000	-0,035	0,108
-255,365	-200,000	-0,026	0,090
-254,351	298,089	0,030	0,039
-253,336	318,907	-0,135	-0,183
-252,322	800,000	0,025	-0,072
-251,307	405,572	-0,032	-0,049
-250,292	-87,138	-0,061	-0,013
-249,278	105,173	0,026	0,022
-248,263	800,000	0,056	0,126
-247,249	148,470	0,063	0,060
-246,234	-200,000	-0,002	0,135
-245,219	192,506	-0,080	-0,086
-244,205	800,000	-0,024	0,065
-243,190	-66,228	0,056	-0,016
-242,176	-34,746	0,104	-0,040
-241,161	-200,000	-0,022	-0,116
-240,146	174,511	-0,051	0,053
-239,132	-103,550	-0,073	-0,012
-238,117	498,270	-0,112	-0,184
-237,103	-150,554	0,100	0,005
-236,088	-40,277	0,033	-0,012
-235,073	3,635	0,051	-0,026
-234,059	-76,279	0,051	-0,013
-233,044	-35,356	-0,036	0,014
-232,030	-200,000	0,001	-0,011
-231,015	-200,000	0,001	-0,094
-230,000	-200,000	-0,024	-0,124
-228,986	-200,000	0,045	-0,158
-227,971	800,000	-0,006	-0,012
-226,957	451,613	0,061	0,096
-225,942	712,617	-0,065	0,124
-224,927	167,434	-0,070	-0,071
-223,913	-200,000	0,018	-0,087
-222,898	-200,000	0,023	-0,078
-221,884	-200,000	0,002	-0,191
-220,869	-35,820	0,054	0,021
-219,855	478,094	-0,021	-0,034
-218,840	-65,633	-0,070	0,020
-217,825	-200,000	-0,000	-0,043
-216,811	800,000	-0,010	-0,027
-215,796	-47,255	-0,044	-0,015
-214,782	800,000	0,039	0,091
-213,767	-142,331	0,100	0,007
-212,752	-200,000	0,002	-0,050
-211,738	479,980	-0,038	0,062
-210,723	800,000	0,030	-0,090
-209,709	800,000	-0,026	-0,079
-208,694	-200,000	0,007	-0,081
-207,679	190,547	0,039	0,042
-206,665	791,434	-0,083	0,163
-205,650	-200,000	0,001	0,042
-204,636	-98,702	-0,193	0,035
-203,621	-200,000	0,006	-0,018
-202,606	126,332	-0,071	-0,064
-201,592	88,411	0,052	0,041
-200,577	-80,510	-0,199	0,047
-199,563	-70,580	-0,047	0,012
-198,548	58,423	0,156	-0,109
-197,533	-39,340	0,087	0,032
-196,519	800,000	0,054	0,140
-195,504	-200,000	0,004	-0,055
-194,490	136,936	-0,078	0,073
-193,475	-58,126	-0,130	0,040
-192,460	800,000	-0,006	-0,019
-191,446	317,525	0,055	-0,074
-190,431	-38,765	0,142	0,053
-189,417	-154,512	0,033	0,002
-188,402	-28,953	-0,067	0,027
-187,387	363,376	-0,053	-0,076
-186,373	-28,730	-0,073	-0,030
-185,358	133,031	-0,103	0,094
-184,344	-62,342	0,074	0,022
-183,329	322,868	0,068	0,092
-182,315	3,015	0,062	0,032
-181,300	800,000	-0,019	-0,051
-180,285	-77,639	0,131	-0,032
-179,271	800,000	-0,037	-0,074
-178,256	607,897	-0,015	0,026
-177,242	1,692	0,090	0,046
-176,227	-200,000	0,002	-0,032
-175,212	13,289	0,137	0,075
-174,198	800,000	0,033	0,080
-173,183	307,460	-0,060	0,080
-172,169	-184,687	-0,083	0,001
-171,154	300,740	-0,062	-0,082
-170,139	-41,397	-0,009	0,003
-169,125	-200,000	0,014	0,066
-168,110	800,000	0,033	0,069
-167,096	-200,000	-0,005	0,020
-166,081	-96,526	0,095	0,018
-165,066	-200,000	0,006	-0,056
-164,052	-151,227	-0,094	0,005
-163,037	-23,592	0,074	0,031
-162,023	98,396	-0,074	0,060
-161,008	296,890	0,081	0,106
-159,993	-94,903	0,084	0,016
-158,979	690,220	-0,017	-0,032
-157,964	-26,329	0,178	0,074
-156,950	-200,000	-0,034	0,118
-155,935	-200,000	0,013	0,087
-154,920	-200,000	-0,004	0,055
-153,906	-64,160	0,156	0,045
-152,891	-160,591	0,107	-0,004
-151,877	-8,860	0,106	-0,050
-150,862	40,830	-0,050	-0,032
-149,847	161,794	-0,085	-0,084
-148,833	800,000	-0,027	-0,052
-147,818	-170,783	0,097	0,002
-146,804	-6,908	0,045	-0,022
-145,789	800,000	0,037	0,104
-144,775	183,142	-0,056	0,059
-143,760	701,464	-0,050	-0,094
-142,745	323,100	-0,073	-0,099
-141,731	-11,220	0,097	0,045
-140,716	-121,662	-0,012	0,001
-139,702	208,951	0,081	0,090
-138,687	-94,626	0,026	0,005
-137,672	-200,000	-0,004	-0,151
-136,658	132,763	0,084	-0,077
-135,643	306,907	-0,093	0,123
-134,629	-200,000	0,022	-0,092
-133,614	100,588	0,068	0,056
-132,599	-200,000	0,009	-0,059
-131,585	441,274	-0,053	-0,082
-130,570	-200,000	0,025	-0,123
-129,556	-65,634	-0,133	0,038
-128,541	-142,988	-0,114	0,008
-127,526	436,995	-0,061	-0,094
-126,512	-37,565	0,129	-0,048
-125,497	62,079	0,052	0,037
-124,483	-200,000	-0,006	0,107
-123,468	83,552	-0,012	0,009
-122,453	-163,383	-0,053	0,002
-121,439	-6,371	-0,114	-0,055
-120,424	465,784	-0,023	0,036
-119,410	70,357	0,124	0,091
-118,395	-78,444	0,088	-0,021
-117,380	178,223	-0,046	0,048
-116,366	-200,000	0,002	0,173
-115,351	-124,203	-0,023	0,003
-114,337	20,281	-0,143	0,082
-113,322	-60,424	0,061	-0,018
-112,307	-1,295	0,089	0,044
-111,293	660,043	-0,014	0,026
-110,278	800,000	0,014	0,032
-109,264	-72,400	-0,036	-0,009
-108,249	-15,259	0,073	0,033
-107,234	-200,000	0,003	-0,102
-106,220	800,000	0,009	0,018
-105,205	147,841	-0,035	0,034
-104,191	695,189	-0,045	0,083
-103,176	660,568	0,076	0,140
-102,162	143,423	-0,070	0,066
-101,147	-14,896	0,087	-0,040
-100,132	-200,000	0,008	0,098
-99,118	594,595	-0,045	0,080
-98,103	414,164	0,105	0,159
-97,089	167,726	0,093	-0,094
-96,074	-200,000	0,010	0,032
-95,059	-15,771	0,057	-0,026
-94,045	23,397	-0,044	-0,026
-93,030	215,503	-0,144	-0,162
-92,016	694,111	-0,028	0,053
-91,001	264,407	-0,064	0,079
-89,986	-200,000	0,014	0,125
-88,972	153,431	0,034	-0,033
-87,957	52,557	0,091	-0,062
-86,943	-22,281	0,058	0,025
-85,928	-46,144	-0,163	0,057
-84,913	56,051	0,020	-0,014
-83,899	558,667	0,027	-0,046
-82,884	800,000	-0,030	-0,094
-81,870	-133,500	-0,146	0,013
-80,855	-200,000	-0,002	0,081
-79,840	219,114	-0,012	0,013
-78,826	58,613	-0,098	-0,068
-77,811	-200,000	0,001	-0,109
-76,797	800,000	0,050	0,107
-75,782	-114,097	-0,131	0,018
-74,767	-200,000	-0,028	0,141
-73,753	157,420	0,090	-0,088
-72,738	91,781	-0,074	-0,059
-71,724	273,102	0,060	-0,075
-70,709	-40,264	0,026	-0,009
-69,694	-93,069	0,046	-0,009
-68,680	344,412	0,028	0,039
-67,665	19,014	0,093	0,053
-66,651	-145,314	0,169	0,011
-65,636	36,605	0,129	0,080
-64,622	-200,000	0,007	0,066
-63,607	-82,101	-0,048	0,011
-62,592	800,000	0,021	-0,044
-61,578	-200,000	0,021	0,083
-60,563	-200,000	0,010	0,071
-59,549	16,382	0,069	0,038
-58,534	-23,169	-1,768	-0,751
-57,519	562,215	-1,281	-2,204
-56,505	-200,000	-0,764	-4,556
-55,490	346,539	0,935	1,307
-54,476	800,000	4,863	11,326
-53,461	-200,000	19,345	321,855
-52,446	-200,000	742,372	2336,029
-51,432	571,574	1656,866	2868,447
-50,417	78,093	1672,263	1262,025
-49,403	21,217	1545,187	886,078
-48,388	15,110	1467,616	811,863
-47,373	18,021	1457,922	820,552
-46,359	16,735	1447,383	808,413
-45,344	13,369	1442,906	789,745
-44,330	13,278	1441,138	788,310
-43,315	13,283	1439,421	787,364
-42,300	13,355	1437,386	786,559
-41,286	13,364	1436,296	785,975
-40,271	13,321	1434,921	784,987
-39,257	13,284	1433,744	784,138
-38,242	13,354	1432,545	783,783
-37,227	13,294	1431,437	782,860
-36,213	13,364	1429,725	782,223
-35,198	13,337	1428,638	781,470
-34,184	13,403	1427,898	781,350
-33,169	13,326	1426,607	780,247
-32,154	13,351	1425,335	779,637
-31,140	13,395	1424,128	779,154
-30,125	13,401	1423,017	778,545
-29,111	13,345	1421,899	777,635
-28,096	13,358	1420,722	777,025
-27,082	13,233	1419,975	775,997
-26,067	13,262	1418,558	775,327
-25,052	13,271	1417,527	774,775
-24,038	13,262	1416,526	774,155
-23,023	13,303	1415,415	773,711
-22,009	13,236	1414,700	772,971
-20,994	13,247	1413,556	772,368
-19,979	13,238	1412,807	771,889
-18,965	13,236	1411,703	771,241
-17,950	13,192	1410,966	770,602
-16,936	13,207	1409,971	770,102
-15,921	13,203	1408,742	769,380
-14,906	13,183	1407,771	768,727
-13,892	13,178	1407,117	768,312
-12,877	13,198	1406,209	767,882
-11,863	13,184	1405,297	767,286
-10,848	13,228	1404,272	766,905
-9,833	13,177	1403,396	766,154
-8,819	13,161	1402,565	765,599
-7,804	13,113	1401,793	764,922
-6,790	13,113	1400,630	764,257
-5,775	13,120	1399,528	763,658
-4,760	13,094	1398,652	763,029
-3,746	13,081	1397,616	762,372
-2,731	13,071	1397,033	761,980
-1,717	13,073	1396,063	761,428
-0,702	13,009	1394,313	760,146
0,313	17,055	1310,665	733,244
1,327	33,741	703,460	432,090
2,342	51,792	123,202	82,824
3,356	3,352	16,620	8,536
4,371	19,170	3,193	1,808
5,386	-28,702	0,652	0,264
6,400	800,000	-0,126	0,310
7,415	9,079	-0,155	-0,082
8,429	118,033	-0,335	-0,292
9,444	22,480	-0,327	-0,189
10,459	124,219	-0,259	-0,230
11,473	-64,860	-0,336	-0,095
12,488	36,258	-0,196	-0,122
13,502	10,579	-0,337	-0,181
14,517	-2,593	-0,314	-0,155
15,531	68,875	-0,358	-0,260
16,546	1,254	-0,350	-0,177
17,561	154,446	-0,360	-0,349
18,575	-70,077	-0,325	-0,087
19,590	559,411	-0,178	-0,305
20,604	-49,260	-0,247	-0,083
21,619	21,105	-0,481	-0,275
22,634	38,701	-0,485	-0,305
23,648	-8,270	-0,543	-0,257
24,663	34,345	-0,349	-0,215
25,677	47,294	-0,377	-0,247
26,692	110,286	-0,394	-0,334
27,707	-33,291	-0,386	-0,150
28,721	13,430	-0,246	-0,134
29,736	4,719	-0,416	-0,215
30,750	24,120	-0,342	-0,199
31,765	350,804	-0,249	-0,349
32,780	47,381	-0,448	-0,294
33,794	41,860	-0,302	-0,193
34,809	-25,648	-0,366	-0,152
35,823	125,622	-0,412	-0,367
36,838	63,709	-0,366	-0,259
37,853	169,963	-0,366	-0,370
38,867	4,892	-0,378	-0,195
39,882	47,001	-0,457	-0,299
40,896	194,131	-0,259	-0,277
41,911	7,804	-0,325	-0,171
42,926	27,948	-0,422	-0,250
43,940	104,246	-0,307	-0,254
44,955	195,068	-0,316	-0,339
45,969	12,978	-0,432	-0,235
46,984	-37,548	-0,425	-0,159
47,999	79,843	-0,305	-0,230
49,013	358,267	-0,186	-0,262
50,028	-2,239	-0,291	-0,143
51,042	71,240	-0,335	-0,244
52,057	104,158	-0,321	-0,266
53,071	227,807	-0,195	-0,224
54,086	-67,366	-0,330	-0,091
55,101	-34,188	-0,357	-0,137
56,115	96,981	-0,185	-0,149
57,130	115,505	-0,427	-0,368
58,144	147,048	-0,354	-0,336
59,159	130,021	-0,324	-0,292
60,174	-25,662	-0,449	-0,186
61,188	-44,432	-0,499	-0,175
62,203	41,855	-0,343	-0,219
63,217	134,375	-0,293	-0,268
64,232	12,205	-0,330	-0,178
65,247	142,778	-0,266	-0,249
66,261	179,418	-0,309	-0,318
67,276	9,275	-0,351	-0,186
68,290	-27,763	-0,405	-0,165
69,305	-23,805	-0,425	-0,178
70,320	105,536	-0,287	-0,238
71,334	112,823	-0,236	-0,201
72,349	46,390	-0,209	-0,136
73,363	70,311	-0,336	-0,244
74,378	82,152	-0,324	-0,247
75,393	60,049	-0,341	-0,236
76,407	126,075	-0,184	-0,163
77,422	-53,290	-0,337	-0,108
78,436	56,096	-0,373	-0,254
79,451	66,006	-0,250	-0,178
80,466	-7,715	-0,406	-0,192
81,480	333,015	-0,135	-0,184
82,495	9,537	-0,330	-0,175
83,509	25,736	-0,338	-0,197
84,524	-14,415	-0,330	-0,149
85,539	-72,652	-0,282	-0,073
86,553	-32,862	-0,384	-0,149
87,568	20,197	-0,398	-0,225
88,582	120,356	-0,305	-0,266
89,597	344,303	-0,196	-0,271
90,611	-39,483	-0,197	-0,072
91,626	7,110	-0,386	-0,202
92,641	-13,052	-0,293	-0,133
93,655	-86,220	-0,347	-0,074
94,670	59,521	-0,299	-0,207
95,684	-63,683	-0,305	-0,087
96,699	78,573	-0,218	-0,164
97,714	-90,137	-0,332	-0,067
98,728	790,992	-0,042	-0,082
99,743	244,512	-0,180	-0,213
100,757	112,752	-0,231	-0,197
101,772	84,053	-0,275	-0,211
102,787	213,801	-0,177	-0,197
103,801	-21,314	-0,291	-0,124
104,816	-107,029	-0,407	-0,062
105,830	144,965	-0,172	-0,162
106,845	-27,529	-0,241	-0,098
107,860	-190,319	-0,382	-0,003
108,874	41,129	-0,326	-0,206
109,889	-71,472	-0,342	-0,089
110,903	28,839	-0,326	-0,193
111,918	394,931	-0,243	-0,357
112,933	314,668	-0,169	-0,224
113,947	-109,842	-0,338	-0,049
114,962	21,934	-0,230	-0,131
115,976	64,889	-0,289	-0,204
116,991	29,419	-0,304	-0,180
118,006	4,166	-0,349	-0,178
119,020	38,674	-0,365	-0,228
120,035	-141,982	-0,147	0,010
121,049	-99,884	-0,164	0,028
122,064	-23,906	-0,300	-0,125
123,079	192,343	-0,255	-0,270
124,093	164,645	-0,291	-0,288
125,108	47,849	-0,268	-0,175
126,122	56,427	-0,275	-0,187
127,137	22,149	-0,212	-0,121
128,151	-54,562	-0,269	-0,085
129,166	161,321	-0,172	-0,169
130,181	232,548	-0,207	-0,238
131,195	137,593	-0,279	-0,256
132,210	93,679	-0,109	-0,086
133,224	40,973	-0,273	-0,172
134,239	437,620	-0,184	-0,282
135,254	-161,342	-0,227	-0,008
136,268	45,928	-0,192	-0,124
137,283	189,818	-0,126	-0,132
138,297	547,025	-0,209	-0,351
139,312	-58,975	-0,366	-0,110
140,327	184,636	-0,122	-0,127
141,341	115,488	-0,258	-0,220
142,356	-70,281	-0,423	-0,111
143,370	630,599	-0,174	-0,308
144,385	61,444	-0,204	-0,142
145,400	45,802	-0,321	-0,207
146,414	72,207	-0,285	-0,207
147,429	142,795	-0,236	-0,219
148,443	625,387	-0,122	-0,216
149,458	-6,230	-0,281	-0,134
150,473	100,544	-0,150	-0,122
151,487	162,097	-0,109	-0,107
152,502	145,710	-0,293	-0,274
153,516	412,969	-0,268	-0,400
154,531	156,846	-0,335	-0,323
155,546	151,787	-0,204	-0,194
156,560	800,000	-0,108	-0,264
157,575	0,109	-0,257	-0,128
158,589	-114,495	-0,129	-0,017
159,604	126,870	-0,262	-0,232
160,619	148,281	-0,237	-0,223
161,633	-200,000	-0,008	-0,126
162,648	61,322	-0,316	-0,219
163,662	666,159	-0,118	-0,213
164,677	136,843	-0,190	-0,173
165,692	162,307	-0,209	-0,204
166,706	-35,841	-0,442	-0,166
167,721	-8,860	-0,264	-0,123
168,735	123,772	-0,211	-0,184
169,750	35,841	-0,360	-0,220
170,764	-110,120	-0,224	-0,032
171,779	29,657	-0,235	-0,139
172,794	133,757	-0,199	-0,179
173,808	72,677	-0,291	-0,212
174,823	140,363	-0,197	-0,181
175,837	126,844	-0,312	-0,276
176,852	724,808	-0,183	-0,341
177,867	12,363	-0,288	-0,154
178,881	283,264	-0,133	-0,167
179,896	-141,037	-0,159	-0,011
180,910	47,542	-0,155	-0,100
181,925	125,791	-0,234	-0,206
182,940	186,447	-0,325	-0,337
183,954	2,752	-0,264	-0,133
184,969	11,923	-0,121	-0,065
185,983	207,269	-0,212	-0,231
186,998	-18,059	-0,249	-0,108
188,013	67,309	-0,154	-0,109
189,027	419,467	-0,100	-0,150
190,042	-4,213	-0,335	-0,161
191,056	139,583	-0,176	-0,161
192,071	800,000	-0,117	-0,282
193,086	94,393	-0,189	-0,149
194,100	-16,591	-0,095	-0,042
195,115	87,742	-0,226	-0,174
196,129	67,778	-0,310	-0,220
197,144	151,205	-0,278	-0,263
198,159	-37,630	-0,290	-0,107
199,173	216,034	-0,204	-0,226
200,188	134,862	-0,096	0,086
201,202	-4,780	-0,281	-0,134
202,217	-45,851	-0,268	-0,091
203,232	-49,105	-0,295	-0,097
204,246	-21,621	-0,229	-0,097
205,261	153,961	-0,209	-0,199
206,275	331,384	-0,220	-0,296
207,290	187,435	-0,203	-0,211
208,304	-35,631	-0,156	-0,059
209,319	-24,273	-0,244	-0,101
210,334	664,596	-0,124	-0,223
211,348	-99,094	-0,222	-0,039
212,363	-78,415	-0,232	-0,055
213,377	21,767	-0,226	-0,127
214,392	800,000	-0,021	-0,061
215,407	77,016	-0,120	-0,089
216,421	800,000	-0,098	-0,252
217,436	507,837	-0,160	-0,259
218,450	800,000	-0,085	-0,227
219,465	321,345	-0,157	-0,208
220,480	10,842	-0,209	-0,110
221,494	800,000	-0,071	-0,179
222,509	46,762	-0,158	-0,102
223,523	50,418	-0,111	-0,073
224,538	-44,188	-0,176	-0,061
225,553	19,689	-0,291	-0,162
226,567	-93,964	-0,215	-0,041
227,582	-145,729	-0,212	-0,013
228,596	43,680	-0,201	-0,127
229,611	-7,910	-0,165	-0,077
230,626	196,704	-0,222	-0,235
231,640	152,204	-0,193	-0,183
232,655	800,000	-0,079	-0,162
233,669	-28,798	-0,271	-0,107
234,684	-132,829	-0,236	-0,021
235,699	-15,983	-0,181	-0,079
236,713	-66,481	-0,203	-0,055
237,728	189,128	-0,195	-0,203
238,742	26,552	-0,077	-0,045
239,757	376,279	-0,125	-0,178
240,772	166,934	-0,158	-0,155
241,786	63,052	-0,269	-0,187
242,801	290,364	-0,152	-0,192
243,815	118,524	-0,207	-0,177
244,830	-200,000	-0,066	-0,224
245,844	7,036	-0,287	-0,148
246,859	696,336	-0,109	-0,199
247,874	455,459	-0,102	-0,157
248,888	174,982	-0,159	-0,159
249,903	153,433	-0,066	-0,063
250,917	327,314	-0,161	-0,214
251,932	-74,619	-0,041	0,010
252,947	507,133	-0,064	-0,104
253,961	261,889	-0,187	-0,224
254,976	52,204	-0,206	-0,136
255,990	35,499	-0,222	-0,135
257,005	82,092	-0,175	-0,131
258,020	433,589	-0,098	-0,148
259,034	25,455	-0,242	-0,139
260,049	-26,061	-0,246	-0,100
261,063	334,171	-0,157	-0,211
262,078	-68,707	-0,238	-0,063
263,093	44,645	-0,244	-0,155
264,107	513,025	-0,117	-0,189
265,122	-47,267	-0,048	0,016
266,136	-169,929	-0,171	-0,004
267,151	-104,424	-0,178	-0,028
268,166	39,347	-0,077	-0,048
269,180	-23,031	-0,279	-0,116
270,195	106,584	-0,252	-0,207
271,209	800,000	-0,088	-0,264
272,224	224,622	-0,105	-0,117
273,239	295,340	-0,155	-0,196
274,253	-27,235	-0,157	-0,063
275,268	375,359	-0,153	-0,216
276,282	205,084	-0,126	-0,135
277,297	200,416	-0,129	-0,137
278,312	-53,538	-0,215	-0,068
279,326	9,821	-0,205	-0,107
280,341	800,000	-0,070	-0,134
281,355	178,233	-0,160	-0,162
282,370	-35,289	-0,236	-0,088
283,384	-120,314	-0,121	0,014
284,399	-1,819	-0,253	-0,122
285,414	-150,761	-0,016	-0,001
286,428	-45,383	-0,118	-0,040
287,443	-200,000	-0,002	-0,154
288,457	684,560	-0,092	-0,167
289,472	-26,584	-0,293	-0,118
290,487	114,343	-0,276	-0,232
291,501	145,600	-0,130	-0,121
292,516	-58,428	-0,197	-0,059
293,530	624,372	-0,058	-0,101
294,545	-21,049	-0,251	-0,106
295,560	-135,465	-0,135	0,011
296,574	312,270	-0,161	-0,208
297,589	-152,453	-0,164	-0,008
298,603	84,937	-0,222	-0,167
299,618	285,447	-0,166	-0,207
300,633	-200,000	-0,020	-0,204
301,647	800,000	-0,126	-0,242
302,662	-41,821	-0,159	-0,056
303,676	238,703	-0,091	-0,105
304,691	0,020	-0,264	-0,129
305,706	238,229	-0,103	-0,118
306,720	194,456	-0,213	-0,223
307,735	800,000	-0,062	-0,152
308,749	-19,565	-0,060	-0,026
309,764	154,300	-0,097	-0,092
310,779	-138,353	-0,166	-0,012
311,793	-110,624	-0,194	-0,027
312,808	-1,768	-0,150	-0,073
313,822	800,000	-0,104	-0,215
314,837	82,800	-0,191	-0,143
315,852	12,740	-0,138	-0,073
316,866	79,486	-0,133	0,098
317,881	6,463	-0,089	0,045
318,895	-38,068	-0,171	0,062
319,910	205,765	-0,142	-0,152
320,925	-92,737	-0,152	-0,029
321,939	226,982	-0,105	-0,118
322,954	87,257	-0,142	-0,108
323,968	756,847	-0,079	0,147
324,983	-174,187	-0,129	-0,003
325,997	59,512	-0,222	-0,150
327,012	737,342	-0,081	-0,150
328,027	106,438	-0,097	-0,079
329,041	146,050	-0,165	-0,152
330,056	-93,341	-0,155	0,029
331,070	-128,925	-0,098	0,009
332,085	-86,515	-0,144	-0,030
333,100	258,251	-0,108	-0,129
334,114	-170,919	-0,074	-0,002
335,129	205,397	-0,102	-0,109
336,143	135,364	-0,127	-0,113
337,158	274,508	-0,091	-0,111
338,173	469,205	-0,067	-0,103
339,187	-200,000	-0,028	-0,124
340,202	6,403	-0,072	-0,036
341,216	-176,290	-0,009	-0,000
342,231	170,865	-0,126	-0,124
343,246	247,295	-0,091	-0,105
344,260	270,776	-0,121	-0,147
345,275	-55,185	-0,044	-0,014
346,289	-200,000	-0,036	-0,140
347,304	800,000	-0,054	-0,120
348,319	468,963	0,008	-0,012
349,333	389,383	-0,131	-0,186
350,348	154,481	-0,059	-0,056
351,362	-146,645	-0,075	-0,004
352,377	60,938	-0,076	0,052
353,392	-15,387	-0,145	-0,063
354,406	-169,486	-0,184	-0,005
355,421	207,945	1315,059	1411,073
356,435	159,976	1475,841	1411,556
