DTS Sentinel unit serial number:	SN410029Multiplexer serial number:	ORYXHardware model number:	OX2-SRSoftware version number:	ORYX F/W v4,00 Oryx Data Collector v3.7.2.0data status	okinstallation	B3 Nyhavnadifferential loss correction	single-endedforward channel	channel 1reverse channel	N/Adate	2023/11/29time	01:07:30forward acquisition time	300,00reverse acquisition time	0,00gamma	499,1914k internal	0,3212k external	0,3212temperature offset calibration	1,0000default loss term (dB/km)	0,3820temperature slope calibration	1,0000multiplexer offset coefficient	1,0000multiplexer slope coefficient	1,0000fibre end	0,00T internal ref (°C)	9,37T ext. ref 1 (°C)	-4,92T ext. ref 2 (°C)	-5,05length (m)	temperature (°C)	Stokes	anti-Stokes-744,400	524,008	-0,121	-0,206
-743,385	-200,000	-0,000	0,171
-742,371	800,000	-0,071	-0,193
-741,356	304,117	-0,151	0,204
-740,342	-57,109	-0,340	-0,108
-739,327	249,044	-0,087	0,107
-738,312	645,582	-0,157	-0,293
-737,298	321,022	-0,110	0,152
-736,283	167,090	-0,123	-0,126
-735,269	-200,000	-0,027	0,179
-734,254	-200,000	-0,078	-0,341
-733,239	-66,457	-0,177	0,051
-732,225	-200,000	0,029	-0,137
-731,210	128,318	0,191	0,177
-730,196	189,758	-0,074	0,081
-729,181	7,898	-0,079	0,043
-728,167	578,801	-0,075	0,133
-727,152	89,886	0,124	0,101
-726,137	218,224	-0,033	0,038
-725,123	-200,000	0,012	0,083
-724,108	-14,373	-0,093	0,043
-723,094	-119,485	-0,063	-0,008
-722,079	-142,535	0,152	0,011
-721,064	-38,615	-0,117	-0,044
-720,050	800,000	0,038	0,111
-719,035	258,203	0,071	0,088
-718,021	-200,000	-0,011	0,054
-717,006	-11,229	-0,233	-0,111
-715,991	68,673	-0,050	0,037
-714,977	-40,459	-0,152	0,057
-713,962	800,000	0,025	0,069
-712,948	-200,000	0,017	0,062
-711,933	-200,000	-0,019	0,144
-710,918	623,491	-0,043	0,079
-709,904	98,463	-0,090	-0,075
-708,889	-200,000	-0,007	-0,087
-707,875	800,000	0,028	-0,066
-706,860	-200,000	0,000	-0,067
-705,845	-157,492	-0,067	0,003
-704,831	298,818	0,085	-0,114
-703,816	338,376	-0,021	-0,029
-702,802	359,780	0,092	-0,133
-701,787	-200,000	-0,040	-0,138
-700,772	-200,000	0,018	-0,098
-699,758	-143,354	0,042	-0,003
-698,743	381,267	-0,023	0,035
-697,729	800,000	0,042	0,116
-696,714	800,000	0,015	-0,044
-695,699	327,028	0,062	0,087
-694,685	600,708	-0,028	-0,051
-693,670	-200,000	0,036	-0,155
-692,656	-200,000	-0,015	-0,108
-691,641	-59,370	0,032	-0,010
-690,627	-67,574	0,122	-0,034
-689,612	-117,583	-0,113	0,015
-688,597	-200,000	-0,004	-0,140
-687,583	800,000	-0,035	-0,094
-686,568	-200,000	-0,021	-0,069
-685,554	797,033	0,033	-0,066
-684,539	338,291	0,025	0,035
-683,524	-200,000	0,000	0,039
-682,510	800,000	0,036	0,105
-681,495	129,181	0,090	0,084
-680,481	-51,817	-0,072	0,024
-679,466	-12,612	-0,197	-0,093
-678,451	-125,451	-0,094	-0,010
-677,437	141,398	0,041	-0,040
-676,422	-200,000	0,024	0,152
-675,408	48,338	-0,049	0,033
-674,393	304,258	-0,085	0,114
-673,378	194,217	0,053	0,058
-672,364	733,979	0,081	-0,158
-671,349	83,948	0,079	-0,062
-670,335	5,879	-0,035	0,019
-669,320	-66,375	0,121	0,034
-668,305	800,000	-0,017	-0,037
-667,291	-200,000	-0,008	0,118
-666,276	-200,000	0,034	-0,191
-665,262	771,162	-0,112	-0,221
-664,247	-94,982	0,055	0,011
-663,232	-200,000	0,012	-0,062
-662,218	-78,318	0,039	-0,010
-661,203	571,402	-0,068	0,120
-660,189	-92,464	-0,028	0,006
-659,174	77,217	-0,014	-0,011
-658,159	311,730	0,013	0,018
-657,145	475,774	-0,060	0,098
-656,130	53,382	0,067	-0,046
-655,116	-126,288	0,128	-0,014
-654,101	52,556	-0,064	0,044
-653,086	184,987	0,080	-0,086
-652,072	16,755	-0,064	-0,036
-651,057	-34,501	-0,034	0,013
-650,043	41,679	-0,175	-0,114
-649,028	69,825	0,130	0,096
-648,014	133,005	0,076	0,071
-646,999	285,101	-0,108	0,141
-645,984	-200,000	0,006	0,126
-644,970	-18,158	-0,135	-0,061
-643,955	327,309	0,063	-0,087
-642,941	-200,000	0,022	-0,072
-641,926	549,326	-0,058	-0,101
-640,911	-146,216	-0,094	0,006
-639,897	-200,000	-0,020	0,063
-638,882	63,703	0,043	-0,031
-637,868	-200,000	-0,043	0,151
-636,853	381,222	0,095	-0,142
-635,838	-2,272	0,005	-0,002
-634,824	195,982	0,065	0,071
-633,809	-73,362	-0,075	-0,020
-632,795	-200,000	0,002	0,202
-631,780	178,578	-0,097	0,102
-630,765	146,370	-0,037	-0,036
-629,751	800,000	-0,044	-0,111
-628,736	-154,151	-0,120	-0,006
-627,722	-153,700	-0,064	0,003
-626,707	-113,068	0,087	-0,012
-625,692	-200,000	-0,001	0,032
-624,678	19,283	0,055	0,032
-623,663	153,533	-0,062	-0,061
-622,649	276,152	-0,032	-0,041
-621,634	-69,431	-0,132	-0,036
-620,619	-200,000	0,035	-0,137
-619,605	493,314	0,066	-0,110
-618,590	-182,027	0,158	0,002
-617,576	256,938	0,024	0,030
-616,561	-16,016	-0,119	0,055
-615,546	-200,000	-0,007	0,022
-614,532	-200,000	-0,002	0,010
-613,517	-200,000	0,032	0,148
-612,503	-200,000	-0,021	0,077
-611,488	-50,655	0,151	-0,051
-610,474	-200,000	-0,004	0,081
-609,459	-32,914	-0,091	-0,036
-608,444	187,951	0,012	-0,013
-607,430	800,000	-0,022	-0,067
-606,415	52,672	-0,031	-0,022
-605,401	-200,000	0,003	0,060
-604,386	-81,834	-0,081	0,019
-603,371	-200,000	-0,010	0,144
-602,357	5,577	-0,052	0,028
-601,342	-68,104	0,030	-0,008
-600,328	-200,000	0,007	-0,051
-599,313	-22,424	-0,184	-0,080
-598,298	5,062	0,166	0,088
-597,284	-90,387	-0,071	0,015
-596,269	149,752	0,126	0,123
-595,255	-124,667	0,045	0,005
-594,240	725,832	-0,048	-0,092
-593,225	-36,954	-0,029	0,011
-592,211	510,639	-0,068	-0,114
-591,196	-200,000	-0,018	0,124
-590,182	-44,931	-0,049	0,018
-589,167	268,261	0,138	0,174
-588,152	-102,969	0,058	-0,010
-587,138	-106,939	0,032	-0,005
-586,123	800,000	0,059	-0,131
-585,109	608,561	-0,044	-0,080
-584,094	-200,000	-0,006	-0,042
-583,079	-101,672	0,059	0,010
-582,065	85,016	0,011	-0,009
-581,050	800,000	0,027	-0,057
-580,036	85,776	-0,077	-0,061
-579,021	-48,108	-0,065	0,022
-578,006	-18,428	0,084	0,038
-576,992	-200,000	0,009	0,067
-575,977	-200,000	-0,015	-0,073
-574,963	-81,790	0,043	0,010
-573,948	202,882	0,018	-0,020
-572,934	-140,672	0,123	-0,009
-571,919	800,000	-0,030	0,070
-570,904	-125,863	-0,052	-0,006
-569,890	127,053	0,080	-0,073
-568,875	-32,604	0,078	0,031
-567,861	-106,194	-0,150	-0,024
-566,846	197,631	0,081	0,089
-565,831	-200,000	0,011	-0,055
-564,817	-200,000	-0,009	-0,073
-563,802	190,601	-0,082	0,089
-562,788	-126,867	0,137	-0,014
-561,773	106,401	0,038	-0,032
-560,758	-200,000	-0,019	0,200
-559,744	-200,000	0,045	-0,150
-558,729	93,459	0,050	-0,041
-557,715	-120,532	-0,089	-0,011
-556,700	800,000	-0,011	0,035
-555,685	104,823	-0,084	-0,071
-554,671	800,000	0,050	0,106
-553,656	15,959	-0,050	-0,028
-552,642	-200,000	-0,024	-0,077
-551,627	766,639	0,016	0,032
-550,612	-200,000	-0,025	-0,150
-549,598	-200,000	-0,008	-0,063
-548,583	-200,000	-0,020	-0,066
-547,569	-103,875	0,039	-0,006
-546,554	-200,000	-0,008	-0,055
-545,539	221,345	0,048	0,055
-544,525	761,289	0,011	-0,021
-543,510	-200,000	0,001	-0,051
-542,496	699,429	-0,059	-0,111
-541,481	255,502	0,026	0,032
-540,466	12,005	-0,117	-0,065
-539,452	-200,000	0,032	-0,105
-538,437	-92,979	-0,121	-0,024
-537,423	46,041	0,055	0,036
-536,408	-200,000	-0,022	0,075
-535,393	-200,000	0,005	0,095
-534,379	-103,648	-0,076	-0,013
-533,364	800,000	-0,030	-0,088
-532,350	-91,147	0,058	0,012
-531,335	-3,742	-0,067	-0,033
-530,321	800,000	0,018	0,046
-529,306	-200,000	0,056	0,194
-528,291	7,513	0,103	-0,055
-527,277	5,818	-0,151	-0,080
-526,262	253,037	-0,042	0,052
-525,248	-51,225	0,097	0,033
-524,233	-49,320	0,152	0,052
-523,218	-36,971	0,082	0,031
-522,204	65,824	-0,062	-0,045
-521,189	800,000	-0,079	-0,220
-520,175	195,320	-0,070	-0,077
-519,160	-60,337	-0,076	-0,023
-518,145	358,576	0,035	0,050
-517,131	606,141	-0,039	0,070
-516,116	333,978	0,048	-0,067
-515,102	-149,850	-0,118	-0,007
-514,087	-200,000	-0,003	-0,018
-513,072	800,000	-0,037	-0,103
-512,058	-27,709	-0,107	-0,044
-511,043	18,374	0,006	-0,004
-510,029	-200,000	0,009	-0,032
-509,014	422,342	0,028	-0,044
-507,999	800,000	-0,028	-0,070
-506,985	800,000	0,012	0,038
-505,970	159,745	-0,080	0,080
-504,956	413,462	0,103	-0,157
-503,941	-200,000	0,011	-0,039
-502,926	490,361	0,075	-0,124
-501,912	-200,000	0,005	0,024
-500,897	-87,852	-0,060	-0,013
-499,883	800,000	0,025	0,054
-498,868	-96,489	0,109	0,021
-497,853	25,594	0,045	0,027
-496,839	-177,298	-0,096	0,002
-495,824	45,552	-0,053	-0,035
-494,810	165,858	-0,114	0,115
-493,795	9,710	0,091	0,049
-492,781	-25,056	0,044	-0,019
-491,766	800,000	-0,018	-0,051
-490,751	-74,264	-0,129	-0,033
-489,737	-134,741	0,084	-0,007
-488,722	313,524	-0,037	-0,050
-487,708	-200,000	-0,007	0,080
-486,693	-31,138	-0,076	-0,030
-485,678	167,140	0,063	-0,065
-484,664	192,662	-0,036	-0,039
-483,649	268,126	0,019	0,024
-482,635	-200,000	0,006	-0,041
-481,620	16,220	0,100	-0,057
-480,605	179,281	0,033	0,035
-479,591	263,721	-0,061	0,076
-478,576	-88,838	-0,040	-0,008
-477,562	-200,000	-0,031	-0,190
-476,547	-200,000	-0,029	-0,133
-475,532	800,000	0,073	-0,199
-474,518	3,311	-0,071	-0,037
-473,503	-200,000	-0,008	0,125
-472,489	-136,780	0,111	0,009
-471,474	-200,000	-0,009	-0,061
-470,459	800,000	0,021	0,064
-469,445	-200,000	0,007	-0,096
-468,430	300,591	-0,065	-0,087
-467,416	30,656	0,071	0,043
-466,401	394,357	-0,091	0,136
-465,386	288,571	0,013	0,018
-464,372	173,253	-0,054	0,056
-463,357	-200,000	0,015	0,204
-462,343	-200,000	0,002	-0,030
-461,328	-84,428	0,095	-0,021
-460,313	-1,586	0,064	-0,032
-459,299	-54,415	0,131	-0,042
-458,284	793,809	-0,022	-0,044
-457,270	800,000	-0,053	-0,114
-456,255	800,000	0,021	-0,060
-455,241	800,000	-0,024	-0,072
-454,226	-200,000	-0,018	0,102
-453,211	260,702	0,033	-0,041
-452,197	800,000	0,016	0,037
-451,182	-200,000	-0,016	0,144
-450,168	-40,484	0,100	0,037
-449,153	28,605	0,106	-0,064
-448,138	206,470	-0,140	-0,156
-447,124	72,007	-0,022	0,017
-446,109	-33,617	0,094	-0,037
-445,095	67,232	-0,066	0,048
-444,080	-19,804	-0,120	0,053
-443,065	-93,453	0,126	-0,025
-442,051	80,510	0,122	-0,094
-441,036	30,516	0,089	0,055
-440,022	-200,000	-0,010	0,053
-439,007	-67,376	-0,094	0,026
-437,992	-200,000	0,059	0,194
-436,978	428,146	0,111	0,173
-435,963	461,976	-0,005	-0,007
-434,949	32,194	-0,051	0,031
-433,934	-141,797	-0,143	-0,010
-432,919	32,117	-0,081	0,050
-431,905	66,055	0,073	0,053
-430,890	-200,000	0,003	-0,040
-429,876	-200,000	-0,018	0,106
-428,861	800,000	0,026	0,072
-427,846	561,989	-0,033	-0,057
-426,832	525,471	-0,061	-0,103
-425,817	588,094	-0,058	-0,102
-424,803	-36,708	-0,056	-0,022
-423,788	-22,554	0,136	0,059
-422,773	-92,249	0,047	-0,009
-421,759	-44,454	-0,002	0,001
-420,744	-200,000	-0,017	0,107
-419,730	-200,000	-0,005	0,109
-418,715	-200,000	-0,007	0,048
-417,701	-200,000	-0,046	-0,174
-416,686	559,315	-0,016	0,028
-415,671	101,995	-0,039	-0,033
-414,657	-67,615	0,118	-0,033
-413,642	-136,396	0,053	0,004
-412,628	499,300	-0,072	-0,119
-411,613	1,907	0,046	-0,023
-410,598	430,499	-0,032	0,049
-409,584	111,652	0,087	0,075
-408,569	-173,521	-0,061	-0,001
-407,555	-200,000	-0,032	0,130
-406,540	59,907	-0,072	0,051
-405,525	51,229	-0,036	0,024
-404,511	86,704	0,098	-0,078
-403,496	79,695	-0,074	0,057
-402,482	97,408	0,085	-0,070
-401,467	326,417	0,102	0,140
-400,452	-200,000	-0,021	0,069
-399,438	800,000	-0,053	-0,138
-398,423	99,630	0,079	-0,065
-397,409	725,991	-0,052	-0,100
-396,394	-200,000	-0,011	-0,045
-395,379	-63,874	0,060	-0,017
-394,365	-126,248	0,142	-0,015
-393,350	339,029	-0,093	0,129
-392,336	-200,000	-0,007	0,039
-391,321	-200,000	-0,012	0,199
-390,306	47,932	-0,076	0,050
-389,292	145,170	-0,019	0,018
-388,277	-189,493	0,106	-0,001
-387,263	59,618	-0,036	-0,025
-386,248	800,000	-0,010	-0,023
-385,233	194,162	0,020	-0,022
-384,219	-56,421	-0,023	-0,007
-383,204	235,102	-0,092	-0,108
-382,190	-200,000	0,060	-0,221
-381,175	79,836	-0,036	0,027
-380,160	-160,822	-0,026	-0,001
-379,146	661,746	0,133	0,246
-378,131	65,890	0,079	0,057
-377,117	800,000	-0,030	0,059
-376,102	-107,286	0,042	0,007
-375,088	215,822	0,038	0,043
-374,073	800,000	0,028	-0,066
-373,058	261,917	0,098	0,122
-372,044	-200,000	0,024	0,110
-371,029	-159,154	0,163	-0,006
-370,015	43,813	0,162	-0,106
-369,000	-21,412	-0,040	-0,017
-367,985	146,876	0,037	-0,036
-366,971	-63,635	-0,045	-0,013
-365,956	-106,637	0,190	-0,030
-364,942	-97,369	-0,064	-0,012
-363,927	-66,653	0,059	0,017
-362,912	17,251	0,106	0,060
-361,898	-94,541	-0,120	-0,023
-360,883	100,508	-0,029	-0,024
-359,869	4,638	-0,104	-0,054
-358,854	800,000	0,036	0,102
-357,839	188,478	0,026	-0,028
-356,825	-2,096	-0,048	0,024
-355,810	-14,907	0,176	0,080
-354,796	289,514	-0,032	-0,042
-353,781	-48,678	0,143	-0,049
-352,766	800,000	-0,048	-0,151
-351,752	-90,363	-0,096	0,020
-350,737	-81,367	0,049	0,011
-349,723	63,844	0,028	0,020
-348,708	45,254	0,046	0,030
-347,693	-200,000	-0,000	0,004
-346,679	317,950	-0,161	-0,219
-345,664	-32,226	-0,096	-0,038
-344,650	800,000	-0,030	0,064
-343,635	113,221	0,068	-0,059
-342,620	800,000	0,043	0,113
-341,606	800,000	0,011	-0,028
-340,591	-200,000	-0,031	0,159
-339,577	-200,000	0,036	-0,126
-338,562	-50,339	0,088	0,029
-337,548	666,665	-0,054	-0,100
-336,533	27,545	0,199	0,119
-335,518	-94,370	0,049	-0,009
-334,504	75,525	-0,039	0,029
-333,489	582,705	-0,045	-0,078
-332,475	49,123	-0,051	-0,034
-331,460	-200,000	-0,022	-0,078
-330,445	-46,370	0,026	-0,009
-329,431	-50,125	-0,113	0,038
-328,416	169,356	-0,064	0,066
-327,402	-163,119	0,058	-0,002
-326,387	117,162	-0,041	0,036
-325,372	-200,000	0,011	0,035
-324,358	133,995	0,091	0,084
-323,343	800,000	-0,085	-0,264
-322,329	-85,062	0,044	0,010
-321,314	-200,000	-0,017	0,136
-320,299	800,000	-0,043	0,099
-319,285	-139,556	-0,082	0,006
-318,270	-125,154	-0,065	-0,007
-317,256	800,000	-0,025	-0,065
-316,241	700,947	-0,033	-0,062
-315,226	-95,111	0,236	0,045
-314,212	-200,000	0,005	0,082
-313,197	800,000	-0,034	0,075
-312,183	-41,480	0,082	0,030
-311,168	67,262	-0,044	-0,032
-310,153	380,995	0,092	-0,135
-309,139	-80,104	-0,153	-0,036
-308,124	-82,216	-0,062	0,014
-307,110	-125,835	0,159	0,017
-306,095	-120,450	0,027	-0,003
-305,080	267,953	0,046	0,058
-304,066	-144,323	-0,085	0,006
-303,051	78,250	-0,120	0,091
-302,037	-200,000	0,042	-0,134
-301,022	108,299	0,053	-0,045
-300,008	800,000	0,053	0,118
-298,993	-200,000	0,012	0,089
-297,978	-200,000	-0,004	0,115
-296,964	-200,000	0,014	0,158
-295,949	-36,060	-0,084	0,032
-294,935	-200,000	0,027	-0,102
-293,920	80,419	-0,070	-0,053
-292,905	-58,789	0,165	-0,050
-291,891	800,000	-0,016	0,045
-290,876	800,000	-0,041	0,106
-289,862	200,927	0,138	-0,151
-288,847	-200,000	0,033	-0,134
-287,832	-57,883	-0,046	-0,014
-286,818	-200,000	0,004	0,102
-285,803	236,778	0,072	-0,085
-284,789	800,000	-0,067	0,178
-283,774	152,618	0,037	-0,036
-282,759	99,929	-0,029	0,024
-281,745	47,965	-0,107	0,071
-280,730	458,494	-0,147	-0,233
-279,716	115,614	0,066	0,058
-278,701	-38,586	0,078	0,029
-277,686	-200,000	0,014	0,060
-276,672	-66,982	0,112	-0,031
-275,657	-200,000	-0,018	-0,124
-274,643	-200,000	-0,004	-0,017
-273,628	-200,000	0,004	0,100
-272,613	-200,000	0,019	-0,086
-271,599	-96,516	-0,068	0,013
-270,584	800,000	-0,040	-0,087
-269,570	800,000	-0,041	-0,087
-268,555	-200,000	-0,012	-0,079
-267,540	323,892	-0,117	-0,160
-266,526	800,000	-0,022	-0,057
-265,511	-200,000	0,007	-0,176
-264,497	-58,060	-0,044	0,014
-263,482	189,921	-0,065	0,069
-262,467	-23,195	0,137	-0,059
-261,453	-100,019	0,121	0,021
-260,438	-90,131	-0,176	-0,036
-259,424	115,239	-0,071	-0,062
-258,409	-200,000	0,005	0,155
-257,395	-26,570	-0,081	0,034
-256,380	-140,303	-0,162	-0,012
-255,365	-102,749	0,058	-0,010
-254,351	-200,000	0,014	0,048
-253,336	-18,321	0,050	0,022
-252,322	170,537	-0,043	0,044
-251,307	800,000	0,039	0,118
-250,292	46,720	-0,038	0,025
-249,278	800,000	0,069	-0,142
-248,263	-200,000	-0,053	0,212
-247,249	800,000	0,039	0,086
-246,234	-200,000	-0,020	-0,157
-245,219	154,561	-0,096	-0,094
-244,205	-200,000	-0,023	-0,177
-243,190	800,000	0,013	-0,028
-242,176	-141,933	-0,150	0,010
-241,161	151,242	0,065	0,063
-240,146	55,405	0,052	-0,036
-239,132	-200,000	0,024	0,108
-238,117	-53,799	-0,073	0,023
-237,103	12,854	-0,067	-0,037
-236,088	218,744	-0,104	0,118
-235,073	151,574	0,108	0,104
-234,059	584,653	-0,039	-0,069
-233,044	214,989	0,021	0,023
-232,030	285,831	0,089	-0,114
-231,015	349,626	0,023	-0,032
-230,000	158,128	-0,027	-0,026
-228,986	-58,067	-0,051	0,016
-227,971	-99,224	-0,118	-0,021
-226,957	-111,442	0,111	-0,016
-225,942	530,581	0,089	0,150
-224,927	-200,000	0,001	-0,071
-223,913	-200,000	0,019	-0,078
-222,898	542,627	0,065	-0,111
-221,884	-173,318	-0,062	0,001
-220,869	-36,476	-0,140	0,053
-219,855	-200,000	0,000	0,118
-218,840	-200,000	0,000	0,083
-217,825	-180,479	0,023	0,000
-216,811	297,990	0,028	-0,037
-215,796	-200,000	0,013	-0,052
-214,782	21,822	-0,045	-0,026
-213,767	157,086	-0,028	-0,027
-212,752	256,194	0,064	0,078
-211,738	-200,000	0,057	0,197
-210,723	800,000	0,057	0,119
-209,709	-200,000	-0,010	-0,093
-208,694	379,418	-0,083	-0,121
-207,679	59,980	0,119	0,083
-206,665	-120,067	0,115	0,014
-205,650	204,580	-0,015	0,017
-204,636	-200,000	0,028	0,125
-203,621	800,000	-0,029	0,068
-202,606	36,228	-0,089	-0,056
-201,592	428,601	0,051	-0,079
-200,577	-80,218	-0,098	0,023
-199,563	105,205	-0,093	0,078
-198,548	-5,634	0,158	-0,077
-197,533	-115,912	0,134	0,018
-196,519	39,613	0,041	-0,026
-195,504	678,281	-0,068	0,126
-194,490	800,000	0,039	-0,091
-193,475	-200,000	-0,008	0,118
-192,460	243,801	0,050	-0,059
-191,446	-200,000	0,015	0,054
-190,431	-128,512	0,067	-0,007
-189,417	546,799	0,050	0,084
-188,402	-75,445	-0,104	0,026
-187,387	135,118	-0,185	-0,170
-186,373	-200,000	0,001	-0,108
-185,358	-14,957	-0,042	0,019
-184,344	-112,116	0,137	-0,019
-183,329	-20,342	-0,125	0,054
-182,315	93,754	0,044	-0,035
-181,300	358,450	-0,086	0,122
-180,285	800,000	0,031	-0,079
-179,271	-200,000	-0,030	-0,143
-178,256	800,000	-0,090	0,189
-177,242	146,584	-0,042	-0,040
-176,227	-200,000	-0,009	0,036
-175,212	-14,347	0,082	0,037
-174,198	-126,459	-0,035	-0,004
-173,183	-87,444	0,042	0,009
-172,169	800,000	0,028	-0,067
-171,154	800,000	0,044	-0,110
-170,139	-78,518	-0,116	-0,028
-169,125	15,888	0,138	0,077
-168,110	125,681	-0,040	0,036
-167,096	272,283	0,045	0,056
-166,081	643,537	0,037	0,067
-165,066	590,564	-0,056	0,098
-164,052	211,637	-0,041	-0,046
-163,037	-4,901	-0,058	0,028
-162,023	194,251	0,114	0,123
-161,008	-65,287	-0,114	0,032
-159,993	-60,464	0,107	-0,032
-158,979	585,621	-0,069	-0,121
-157,964	5,129	-0,123	-0,064
-156,950	-67,820	-0,125	0,034
-155,935	800,000	-0,017	-0,051
-154,920	-146,172	-0,069	0,004
-153,906	34,647	0,139	0,086
-152,891	-200,000	-0,031	0,097
-151,877	99,787	0,146	0,120
-150,862	0,353	-0,143	0,072
-149,847	191,695	-0,053	0,056
-148,833	-200,000	0,037	-0,183
-147,818	125,376	0,072	0,065
-146,804	400,288	0,096	0,143
-145,789	-200,000	-0,007	0,145
-144,775	563,776	0,056	-0,096
-143,760	-200,000	-0,002	-0,126
-142,745	508,592	-0,075	-0,124
-141,731	611,071	-0,044	0,077
-140,716	-76,588	0,045	-0,011
-139,702	23,389	0,066	0,038
-138,687	800,000	0,046	0,123
-137,672	-22,190	0,052	0,022
-136,658	800,000	-0,038	0,078
-135,643	471,118	-0,094	-0,150
-134,629	-51,588	-0,067	0,022
-133,614	-180,552	0,064	0,001
-132,599	800,000	0,042	0,115
-131,585	-200,000	0,018	0,113
-130,570	226,785	-0,038	0,044
-129,556	-77,802	-0,080	-0,019
-128,541	436,991	-0,097	-0,151
-127,526	597,820	0,049	-0,086
-126,512	46,458	0,065	0,043
-125,497	-33,749	0,089	0,034
-124,483	159,646	-0,026	0,026
-123,468	800,000	0,039	0,078
-122,453	-200,000	0,004	0,018
-121,439	-169,858	0,076	0,002
-120,424	-21,156	-0,069	0,030
-119,410	-2,929	0,049	0,024
-118,395	-124,657	0,081	0,009
-117,380	105,807	0,083	0,070
-116,366	-143,686	-0,109	-0,007
-115,351	180,609	-0,059	-0,061
-114,337	-5,022	-0,034	0,017
-113,322	800,000	-0,026	0,052
-112,307	-200,000	-0,002	0,055
-111,293	-110,644	0,174	0,025
-110,278	-200,000	0,008	0,062
-109,264	-87,109	0,116	0,025
-108,249	-51,403	0,132	0,044
-107,234	-200,000	-0,015	-0,085
-106,220	-200,000	0,018	-0,075
-105,205	-64,458	0,049	-0,014
-104,191	125,327	0,057	-0,051
-103,176	-200,000	-0,022	0,124
-102,162	-111,928	-0,054	0,008
-101,147	-135,332	-0,050	-0,004
-100,132	-200,000	0,008	-0,031
-99,118	-142,032	-0,049	-0,003
-98,103	405,776	0,095	0,142
-97,089	60,077	0,095	0,066
-96,074	-200,000	-0,001	0,061
-95,059	800,000	-0,039	0,094
-94,045	-53,975	-0,127	0,041
-93,030	-66,623	0,171	-0,047
-92,016	-200,000	-0,036	-0,132
-91,001	-24,163	0,074	0,031
-89,986	273,706	0,050	0,062
-88,972	-3,973	0,114	-0,056
-87,957	800,000	-0,063	-0,140
-86,943	-166,905	0,207	0,006
-85,928	218,761	-0,123	0,139
-84,913	-78,286	-0,142	-0,034
-83,899	-28,959	0,113	-0,046
-82,884	-79,218	0,141	0,033
-81,870	222,311	0,067	0,076
-80,855	395,364	0,094	0,139
-79,840	-61,894	0,068	-0,020
-78,826	-200,000	0,023	-0,096
-77,811	265,514	-0,021	0,026
-76,797	137,825	-0,075	-0,069
-75,782	-200,000	-0,032	0,117
-74,767	-200,000	-0,020	0,149
-73,753	105,333	0,169	0,141
-72,738	494,237	-0,046	0,075
-71,724	0,332	-0,105	0,053
-70,709	2,056	-0,086	-0,044
-69,694	721,054	0,039	-0,074
-68,680	-91,585	0,108	-0,021
-67,665	-200,000	-0,021	0,109
-66,651	86,204	-0,038	0,029
-65,636	-122,724	0,084	-0,009
-64,622	-32,814	-0,097	0,038
-63,607	-151,519	0,021	-0,001
-62,592	44,687	0,146	-0,094
-61,578	-0,217	0,068	-0,034
-60,563	93,790	-0,091	-0,073
-59,549	800,000	-0,024	0,056
-58,534	73,117	-1,956	-1,441
-57,519	484,119	-1,223	-1,971
-56,505	-200,000	-0,381	-4,419
-55,490	669,469	0,900	1,651
-54,476	800,000	5,204	11,208
-53,461	-200,000	21,599	342,715
-52,446	800,000	762,527	2335,392
-51,432	544,992	1659,500	2807,944
-50,417	71,073	1655,981	1209,546
-49,403	17,153	1529,491	853,328
-48,388	11,163	1453,569	782,085
-47,373	19,265	1445,081	816,246
-46,359	14,674	1434,147	788,279
-45,344	9,466	1430,067	761,282
-44,330	9,431	1428,012	759,992
-43,315	9,416	1426,374	759,017
-42,300	9,413	1424,760	758,115
-41,286	9,439	1423,240	757,397
-40,271	9,409	1422,155	756,648
-39,257	9,437	1420,871	756,068
-38,242	9,455	1419,862	755,587
-37,227	9,426	1418,729	754,814
-36,213	9,481	1417,461	754,374
-35,198	9,505	1416,003	753,680
-34,184	9,509	1415,084	753,179
-33,169	9,411	1413,909	752,064
-32,154	9,448	1412,912	751,675
-31,140	9,432	1411,808	750,981
-30,125	9,478	1410,319	750,379
-29,111	9,458	1409,261	749,693
-28,096	9,392	1408,342	748,863
-27,082	9,378	1407,070	748,090
-26,067	9,357	1405,863	747,322
-25,052	9,407	1404,933	747,030
-24,038	9,445	1403,854	746,608
-23,023	9,422	1402,910	745,968
-22,009	9,404	1401,952	745,345
-20,994	9,387	1400,808	744,628
-19,979	9,406	1399,870	744,187
-18,965	9,387	1398,993	743,604
-17,950	9,363	1398,317	743,103
-16,936	9,312	1397,615	742,461
-15,921	9,327	1396,309	741,811
-14,906	9,297	1395,564	741,246
-13,892	9,384	1394,191	740,892
-12,877	9,339	1393,662	740,370
-11,863	9,303	1392,897	739,769
-10,848	9,305	1391,877	739,205
-9,833	9,236	1390,935	738,360
-8,819	9,222	1390,194	737,873
-7,804	9,190	1389,263	737,197
-6,790	9,185	1388,362	736,670
-5,775	9,193	1387,197	736,058
-4,760	9,261	1386,099	735,762
-3,746	9,273	1385,247	735,333
-2,731	9,221	1384,359	734,592
-1,717	9,254	1383,577	734,301
-0,702	9,236	1381,631	733,157
0,313	13,413	1294,061	705,676
1,327	29,828	685,525	410,795
2,342	46,440	118,401	77,288
3,356	1,120	16,494	8,317
4,371	10,509	3,578	1,916
5,386	-3,673	1,148	0,560
6,400	800,000	0,207	0,587
7,415	71,258	-0,114	-0,083
8,429	19,934	-0,155	-0,088
9,444	47,727	-0,320	-0,210
10,459	-92,222	-0,381	-0,075
11,473	9,272	-0,386	-0,205
12,488	182,846	-0,232	-0,241
13,502	0,956	-0,468	-0,235
14,517	117,805	-0,195	-0,169
15,531	88,274	-0,329	-0,257
16,546	-19,992	-0,382	-0,165
17,561	-3,223	-0,346	-0,169
18,575	-93,732	-0,230	-0,044
19,590	28,215	-0,281	-0,167
20,604	71,228	-0,071	-0,052
21,619	24,624	-0,443	-0,257
22,634	85,391	-0,367	-0,284
23,648	69,270	-0,470	-0,340
24,663	65,522	-0,374	-0,266
25,677	45,141	-0,247	-0,160
26,692	46,772	-0,366	-0,239
27,707	90,755	-0,387	-0,305
28,721	69,900	-0,347	-0,251
29,736	45,386	-0,343	-0,222
30,750	23,193	-0,330	-0,190
31,765	-7,930	-0,399	-0,189
32,780	50,733	-0,290	-0,193
33,794	144,247	-0,317	-0,298
34,809	-2,073	-0,364	-0,179
35,823	115,702	-0,248	-0,213
36,838	55,681	-0,398	-0,270
37,853	70,780	-0,347	-0,252
38,867	35,994	-0,351	-0,216
39,882	66,913	-0,322	-0,230
40,896	134,577	-0,212	-0,194
41,911	76,073	-0,238	-0,177
42,926	-27,824	-0,396	-0,161
43,940	121,368	-0,262	-0,229
44,955	-0,253	-0,365	-0,181
45,969	73,495	-0,292	-0,215
46,984	330,314	-0,295	-0,400
47,999	225,424	-0,251	-0,286
49,013	21,194	-0,397	-0,226
50,028	-58,025	-0,399	-0,121
51,042	32,925	-0,407	-0,247
52,057	87,266	-0,336	-0,261
53,071	74,135	-0,255	-0,188
54,086	438,018	-0,257	-0,394
55,101	42,722	-0,427	-0,272
56,115	-15,995	-0,252	-0,112
57,130	2,665	-0,306	-0,155
58,144	96,619	-0,339	-0,272
59,159	26,349	-0,397	-0,232
60,174	-45,168	-0,259	-0,090
61,188	-15,894	-0,371	-0,165
62,203	32,612	-0,233	-0,141
63,217	-23,881	-0,367	-0,153
64,232	569,690	-0,140	-0,239
65,247	52,102	-0,202	-0,135
66,261	121,630	-0,255	-0,223
67,276	-9,407	-0,448	-0,209
68,290	7,460	-0,380	-0,198
69,305	-10,061	-0,307	-0,143
70,320	158,436	-0,248	-0,241
71,334	284,143	-0,151	-0,190
72,349	23,364	-0,389	-0,223
73,363	38,455	-0,298	-0,186
74,378	-52,328	-0,344	-0,111
75,393	-78,036	-0,287	-0,069
76,407	-67,923	-0,367	-0,100
77,422	-56,311	-0,340	-0,105
78,436	-16,083	-0,288	-0,128
79,451	-158,082	-0,221	0,009
80,466	-5,590	-0,320	-0,153
81,480	208,266	-0,177	-0,193
82,495	-41,911	-0,384	-0,137
83,509	120,672	-0,309	-0,269
84,524	-0,834	-0,357	-0,176
85,539	100,584	-0,253	-0,206
86,553	-24,471	-0,356	-0,148
87,568	-15,724	-0,365	-0,162
88,582	75,559	-0,258	-0,190
89,597	153,546	-0,203	-0,195
90,611	45,101	-0,263	-0,169
91,626	20,853	-0,330	-0,186
92,641	77,843	-0,264	-0,197
93,655	-62,144	-0,309	-0,089
94,670	-94,609	-0,272	-0,051
95,684	178,595	-0,193	-0,197
96,699	149,956	-0,246	-0,233
97,714	166,447	-0,171	-0,170
98,728	107,913	-0,162	-0,135
99,743	-39,229	-0,155	-0,057
100,757	-41,973	-0,245	-0,087
101,772	-69,962	-0,307	-0,081
102,787	224,574	-0,295	-0,334
103,801	19,791	-0,260	-0,146
104,816	58,138	-0,325	-0,222
105,830	60,759	-0,200	-0,139
106,845	251,959	-0,164	-0,196
107,860	-72,939	-0,402	-0,102
108,874	-49,332	-0,265	-0,088
109,889	7,748	-0,247	-0,129
110,903	34,854	-0,268	-0,163
111,918	-50,390	-0,237	-0,078
112,933	-89,977	-0,137	0,028
113,947	-0,413	-0,252	-0,125
114,962	127,424	-0,149	-0,133
115,976	28,279	-0,218	-0,128
116,991	-155,582	-0,438	0,019
118,006	49,602	-0,186	-0,122
119,020	-16,706	-0,132	-0,058
120,035	220,187	-0,296	-0,332
121,049	89,065	-0,168	-0,131
122,064	231,117	-0,244	-0,279
123,079	182,040	-0,202	-0,208
124,093	7,818	-0,312	-0,163
125,108	196,790	-0,280	-0,298
126,122	137,010	-0,262	-0,239
127,137	46,889	-0,268	-0,174
128,151	-200,000	-0,063	-0,307
129,166	2,637	-0,254	-0,128
130,181	-25,300	-0,347	-0,143
131,195	134,818	-0,369	-0,334
132,210	50,620	-0,163	-0,107
133,224	-2,472	-0,194	-0,094
134,239	72,882	-0,154	-0,112
135,254	39,669	-0,178	-0,111
136,268	-44,071	-0,295	-0,103
137,283	-78,594	-0,384	-0,091
138,297	117,284	-0,278	-0,238
139,312	222,675	-0,231	-0,260
140,327	112,290	-0,327	-0,276
141,341	66,456	-0,172	-0,121
142,356	-42,205	-0,176	-0,062
143,370	25,878	-0,154	-0,089
144,385	-9,224	-0,186	-0,086
145,400	60,158	-0,303	-0,208
146,414	97,831	-0,263	-0,211
147,429	416,725	-0,271	-0,403
148,443	-18,074	-0,183	-0,079
149,458	-15,091	-0,193	-0,086
150,473	-23,898	-0,216	-0,089
151,487	116,742	-0,141	-0,120
152,502	156,170	-0,201	-0,193
153,516	9,511	-0,250	-0,132
154,531	11,767	-0,321	-0,171
155,546	223,516	-0,163	-0,184
156,560	71,788	-0,146	-0,106
157,575	158,108	-0,174	-0,168
158,589	147,718	-0,226	-0,212
159,604	7,027	-0,215	-0,111
160,619	-16,496	-0,193	-0,085
161,633	-6,328	-0,255	-0,121
162,648	-4,433	-0,231	-0,111
163,662	-110,359	-0,204	0,029
164,677	110,677	-0,206	-0,172
165,692	-23,786	-0,172	-0,071
166,706	131,732	-0,291	-0,260
167,721	-22,970	-0,250	-0,104
168,735	117,181	-0,227	-0,194
169,750	-81,884	-0,282	-0,064
170,764	-132,611	-0,303	-0,027
171,779	16,166	-0,254	-0,139
172,794	24,177	-0,101	0,058
173,808	-29,170	-0,181	-0,072
174,823	-32,467	-0,251	-0,097
175,837	-10,008	-0,239	-0,110
176,852	77,960	-0,195	-0,144
177,867	-43,910	-0,367	-0,128
178,881	-174,084	-0,139	-0,003
179,896	-14,163	-0,160	-0,071
180,910	-140,909	-0,251	0,018
181,925	173,927	-0,260	-0,261
182,940	112,247	-0,324	-0,272
183,954	-25,526	-0,305	-0,125
184,969	-55,648	-0,131	-0,041
185,983	-7,280	-0,241	-0,113
186,998	-33,762	-0,183	-0,069
188,013	757,132	-0,177	-0,335
189,027	-75,286	-0,258	-0,063
190,042	0,835	-0,304	-0,150
191,056	-108,994	-0,211	-0,031
192,071	-52,562	-0,356	-0,113
193,086	164,434	-0,127	-0,124
194,100	-84,364	-0,170	-0,037
195,115	61,026	-0,335	-0,230
196,129	181,558	-0,133	-0,136
197,144	188,183	-0,190	-0,197
198,159	-9,333	-0,235	-0,108
199,173	-200,000	-0,051	-0,210
200,188	-48,188	-0,218	-0,073
201,202	-13,209	-0,148	-0,066
202,217	800,000	-0,065	-0,165
203,232	26,454	-0,229	-0,132
204,246	784,990	-0,174	-0,332
205,261	-200,000	-0,033	-0,207
206,275	374,495	-0,154	-0,217
207,290	248,980	-0,123	-0,145
208,304	67,745	-0,195	-0,137
209,319	-62,782	-0,300	-0,085
210,334	-81,166	-0,063	-0,014
211,348	555,155	-0,133	-0,223
212,363	255,256	-0,188	-0,224
213,377	-19,019	-0,232	-0,100
214,392	-117,661	-0,200	-0,025
215,407	9,678	-0,137	-0,072
216,421	294,723	-0,153	-0,194
217,436	-65,819	-0,274	-0,075
218,450	74,819	-0,199	-0,145
219,465	222,962	-0,226	-0,252
220,480	-97,860	-0,342	-0,060
221,494	-200,000	-0,019	-0,082
222,509	29,636	-0,206	-0,121
223,523	147,289	-0,073	-0,068
224,538	-83,174	-0,148	0,033
225,553	-153,333	-0,127	-0,006
226,567	-18,945	-0,334	-0,143
227,582	800,000	-0,115	-0,277
228,596	-200,000	-0,048	-0,178
229,611	319,490	-0,131	-0,172
230,626	357,989	-0,051	-0,070
231,640	-77,055	-0,323	-0,077
232,655	105,139	-0,240	-0,196
233,669	800,000	-0,081	-0,159
234,684	64,206	-0,251	-0,175
235,699	-46,724	-0,053	-0,018
236,713	-93,581	-0,154	-0,029
237,728	-128,191	-0,187	-0,018
238,742	-48,281	-0,272	-0,090
239,757	98,631	-0,237	-0,188
240,772	95,054	-0,224	-0,176
241,786	165,750	-0,232	-0,227
242,801	-53,324	-0,265	-0,083
243,815	-81,169	-0,177	-0,040
244,830	-173,758	-0,172	-0,003
245,844	-70,009	-0,159	-0,042
246,859	75,907	-0,179	-0,131
247,874	28,241	-0,214	-0,125
248,888	-104,068	-0,242	0,038
249,903	-62,914	-0,220	-0,062
250,917	-200,000	-0,121	0,000
251,932	-92,850	-0,028	0,005
252,947	81,875	-0,178	-0,133
253,961	84,794	-0,289	-0,218
254,976	-57,711	-0,163	-0,049
255,990	20,634	-0,174	-0,097
257,005	10,281	-0,265	-0,138
258,020	108,770	-0,169	-0,139
259,034	90,399	-0,076	0,059
260,049	-127,379	-0,139	-0,014
261,063	17,041	-0,243	0,132
262,078	-89,100	-0,190	-0,038
263,093	93,656	-0,178	-0,139
264,107	31,828	-0,216	-0,128
265,122	-131,474	-0,259	-0,023
266,136	142,848	-0,160	0,147
267,151	-111,741	-0,142	-0,020
268,166	109,933	-0,159	-0,131
269,180	241,274	-0,159	-0,183
270,195	246,037	-0,182	-0,211
271,209	27,887	-0,184	-0,107
272,224	21,613	-0,179	-0,100
273,239	33,442	-0,246	-0,147
274,253	-117,465	-0,171	-0,021
275,268	50,571	-0,144	-0,094
276,282	800,000	-0,071	-0,173
277,297	-91,014	-0,157	0,031
278,312	-5,930	-0,179	-0,084
279,326	800,000	-0,040	-0,098
280,341	94,971	-0,168	-0,132
281,355	-119,241	-0,209	-0,025
282,370	-2,002	-0,170	-0,082
283,384	47,733	-0,235	-0,151
284,399	-140,259	-0,048	-0,003
285,414	168,437	-0,140	-0,137
286,428	800,000	-0,071	-0,144
287,443	21,212	-0,097	-0,054
288,457	14,223	-0,076	-0,041
289,472	608,585	-0,129	-0,223
290,487	16,522	-0,129	-0,070
291,501	223,600	-0,115	-0,128
292,516	-44,453	-0,121	-0,041
293,530	-113,419	-0,198	-0,026
294,545	462,087	-0,092	-0,141
295,560	114,078	-0,185	-0,155
296,574	800,000	-0,061	-0,135
297,589	-31,264	-0,219	-0,084
298,603	73,408	-0,226	-0,162
299,618	29,960	-0,208	-0,122
300,633	-120,428	-0,274	-0,032
301,647	-147,355	-0,160	-0,009
302,662	-122,273	-0,095	-0,011
303,676	608,961	-0,035	-0,060
304,691	-29,385	-0,187	-0,073
305,706	-18,873	-0,124	-0,053
306,720	800,000	0,053	-0,120
307,735	-34,663	-0,074	0,028
308,749	344,439	-0,070	0,094
309,764	-91,271	-0,053	0,010
310,779	-119,043	-0,136	0,016
311,793	-200,000	-0,084	-0,305
312,808	800,000	-0,113	-0,274
313,822	-114,046	-0,118	-0,016
314,837	108,568	-0,033	-0,027
315,852	3,706	-0,098	-0,049
316,866	-164,326	-0,173	0,005
317,881	-144,544	-0,109	0,007
318,895	-26,855	-0,065	-0,026
319,910	-135,966	-0,191	-0,015
320,925	112,293	-0,258	-0,214
321,939	27,295	-0,072	-0,041
322,954	9,813	-0,118	0,061
323,968	-26,837	-0,206	-0,082
324,983	5,116	-0,011	-0,006
325,997	297,176	-0,174	-0,220
327,012	-172,696	-0,172	-0,004
328,027	-82,340	-0,200	-0,044
329,041	-81,574	-0,106	0,024
330,056	-122,560	-0,146	0,016
331,070	-96,084	-0,176	-0,032
332,085	-89,018	-0,217	0,044
333,100	-85,297	-0,293	-0,062
334,114	-61,077	-0,138	-0,040
335,129	-131,973	-0,128	0,011
336,143	170,107	-0,089	-0,087
337,158	-56,079	-0,122	-0,037
338,173	-60,719	-0,091	-0,026
339,187	-79,018	-0,171	-0,039
340,202	-92,733	-0,163	0,031
341,216	122,528	-0,071	-0,061
342,231	632,232	-0,109	-0,190
343,246	-13,655	-0,098	-0,043
344,260	800,000	-0,064	0,129
345,275	416,554	-0,053	-0,078
346,289	241,099	-0,111	-0,126
347,304	13,815	-0,110	-0,058
348,319	-36,169	-0,123	-0,045
349,333	-69,033	-0,183	-0,048
350,348	-121,409	-0,211	-0,024
351,362	-200,000	0,032	-0,208
352,377	24,399	-0,134	-0,076
353,392	77,524	-0,109	0,079
354,406	-126,870	-0,137	0,014
355,421	206,713	1306,953	1393,472
356,435	158,991	1466,689	1393,946
