DTS Sentinel unit serial number:	SN410029Multiplexer serial number:	ORYXHardware model number:	OX2-SRSoftware version number:	ORYX F/W v4,00 Oryx Data Collector v3.7.2.0data status	okinstallation	B3 Nyhavnadifferential loss correction	single-endedforward channel	channel 1reverse channel	N/Adate	2023/11/30time	08:27:30forward acquisition time	300,00reverse acquisition time	0,00gamma	499,1914k internal	0,3217k external	0,3217temperature offset calibration	1,0000default loss term (dB/km)	0,3820temperature slope calibration	1,0000multiplexer offset coefficient	1,0000multiplexer slope coefficient	1,0000fibre end	0,00T internal ref (°C)	9,30T ext. ref 1 (°C)	-5,29T ext. ref 2 (°C)	-5,38length (m)	temperature (°C)	Stokes	anti-Stokes-744,400	800,000	-0,097	-0,267
-743,385	-200,000	0,007	0,175
-742,371	-200,000	-0,035	-0,191
-741,356	-200,000	0,034	0,208
-740,342	-113,085	-0,243	-0,034
-739,327	-200,000	-0,038	0,254
-738,312	529,961	-0,126	-0,216
-737,298	800,000	-0,028	0,061
-736,283	800,000	-0,096	-0,213
-735,269	-200,000	0,001	0,271
-734,254	117,127	-0,260	-0,231
-733,239	-192,854	-0,245	0,002
-732,225	800,000	-0,042	-0,131
-731,210	-200,000	0,038	0,284
-730,196	280,434	0,043	-0,055
-729,181	-116,212	0,051	-0,007
-728,167	715,651	-0,004	0,008
-727,152	131,150	-0,137	-0,127
-726,137	-8,132	0,099	0,048
-725,123	397,495	0,047	-0,072
-724,108	182,295	-0,109	-0,116
-723,094	-200,000	-0,014	-0,119
-722,079	-200,000	-0,003	-0,078
-721,064	-200,000	0,001	-0,048
-720,050	-97,331	0,067	-0,012
-719,035	-108,167	-0,027	0,004
-718,021	327,090	-0,052	0,072
-717,006	104,817	-0,095	-0,081
-715,991	81,514	-0,183	-0,143
-714,977	-5,923	-0,088	-0,043
-713,962	-39,072	-0,056	-0,021
-712,948	-169,944	0,062	0,002
-711,933	254,602	-0,028	0,035
-710,918	11,706	0,110	0,061
-709,904	342,055	-0,015	-0,022
-708,889	381,700	0,066	0,098
-707,875	37,335	-0,077	0,049
-706,860	506,820	0,012	0,020
-705,845	-135,400	-0,126	0,011
-704,831	623,636	0,034	0,063
-703,816	-200,000	0,018	0,057
-702,802	-200,000	-0,009	-0,047
-701,787	19,227	-0,134	-0,078
-700,772	378,648	0,074	-0,110
-699,758	235,648	-0,066	-0,079
-698,743	20,003	0,144	0,084
-697,729	-58,604	-0,077	0,024
-696,714	143,888	0,128	0,123
-695,699	-65,115	-0,175	0,051
-694,685	31,959	-0,082	-0,051
-693,670	-103,915	0,033	0,005
-692,656	27,228	0,031	-0,019
-691,641	-105,091	-0,141	0,023
-690,627	147,975	-0,073	-0,071
-689,612	-200,000	-0,042	0,156
-688,597	284,745	-0,086	-0,112
-687,583	-8,821	-0,118	-0,057
-686,568	-200,000	0,024	-0,142
-685,554	-136,584	-0,111	-0,009
-684,539	-200,000	0,007	-0,064
-683,524	800,000	0,019	-0,059
-682,510	10,819	0,032	-0,018
-681,495	25,894	-0,093	0,056
-680,481	-67,841	0,022	0,006
-679,466	40,039	-0,092	-0,059
-678,451	26,800	-0,021	0,013
-677,437	-200,000	-0,029	-0,112
-676,422	-124,559	0,015	0,002
-675,408	305,854	-0,053	-0,071
-674,393	-200,000	-0,004	-0,031
-673,378	-151,757	-0,150	0,008
-672,364	800,000	0,080	-0,166
-671,349	591,346	-0,104	-0,187
-670,335	518,518	0,040	-0,068
-669,320	-25,138	0,045	0,019
-668,305	591,927	-0,043	-0,078
-667,291	800,000	0,013	0,031
-666,276	-200,000	0,008	-0,121
-665,262	-37,528	-0,229	-0,088
-664,247	41,625	-0,079	-0,052
-663,232	161,455	-0,072	-0,073
-662,218	-200,000	0,009	-0,042
-661,203	23,744	-0,092	-0,054
-660,189	453,304	0,076	-0,121
-659,174	123,256	-0,067	0,061
-658,159	-200,000	-0,022	-0,085
-657,145	233,928	-0,126	-0,150
-656,130	-200,000	0,004	0,101
-655,116	-200,000	0,015	-0,052
-654,101	313,619	-0,097	0,132
-653,086	-29,616	-0,075	-0,031
-652,072	800,000	0,053	-0,141
-651,057	-135,205	-0,114	-0,010
-650,043	-45,646	-0,066	0,024
-649,028	-145,598	-0,133	0,008
-648,014	-68,913	0,067	0,019
-646,999	-70,202	0,043	-0,012
-645,984	800,000	0,012	0,035
-644,970	-55,369	-0,027	-0,009
-643,955	800,000	-0,058	0,130
-642,941	673,947	0,010	0,020
-641,926	-200,000	0,017	0,170
-640,911	800,000	0,008	0,022
-639,897	800,000	0,067	0,171
-638,882	106,334	-0,074	-0,063
-637,868	-200,000	-0,012	0,050
-636,853	84,539	-0,112	-0,089
-635,838	-200,000	-0,002	-0,084
-634,824	-200,000	-0,040	0,136
-633,809	-200,000	0,036	0,158
-632,795	-194,536	0,005	0,000
-631,780	375,679	-0,008	0,012
-630,765	154,404	0,029	0,029
-629,751	658,873	0,076	-0,142
-628,736	224,951	-0,055	-0,064
-627,722	-19,434	-0,105	0,047
-626,707	204,498	0,061	0,068
-625,692	-53,766	-0,088	-0,029
-624,678	531,006	-0,054	-0,093
-623,663	628,091	0,040	-0,074
-622,649	146,691	-0,149	-0,144
-621,634	800,000	0,002	0,006
-620,619	800,000	-0,008	-0,024
-619,605	-1,899	-0,105	-0,053
-618,590	280,337	0,061	0,079
-617,576	-69,169	-0,198	0,054
-616,561	311,608	-0,106	-0,144
-615,546	-31,359	0,069	-0,028
-614,532	106,275	0,056	-0,048
-613,517	614,308	-0,047	-0,086
-612,503	25,096	-0,033	0,020
-611,488	-200,000	0,018	0,061
-610,474	726,031	-0,032	0,061
-609,459	9,791	-0,105	-0,057
-608,444	-109,211	0,097	0,015
-607,430	-200,000	0,043	-0,222
-606,415	800,000	-0,061	-0,151
-605,401	123,273	0,066	0,060
-604,386	301,369	0,023	0,031
-603,371	74,854	-0,081	-0,061
-602,357	-200,000	-0,001	0,045
-601,342	153,376	-0,070	-0,069
-600,328	799,296	-0,050	-0,100
-599,313	-200,000	0,000	-0,010
-598,298	-200,000	-0,003	-0,023
-597,284	800,000	-0,020	-0,042
-596,269	-28,175	0,046	-0,019
-595,255	-14,090	-0,057	0,027
-594,240	-200,000	0,015	-0,086
-593,225	225,070	-0,066	-0,076
-592,211	205,830	-0,108	0,121
-591,196	141,608	0,071	-0,068
-590,182	-122,615	-0,077	-0,009
-589,167	-32,681	-0,048	-0,019
-588,152	322,961	-0,008	-0,011
-587,138	-200,000	-0,003	0,063
-586,123	32,892	0,036	-0,022
-585,109	-150,746	-0,128	-0,007
-584,094	-165,301	0,020	-0,001
-583,079	85,021	0,088	-0,069
-582,065	-97,634	0,180	-0,033
-581,050	-76,937	-0,106	-0,026
-580,036	-200,000	0,001	-0,030
-579,021	79,132	-0,059	0,045
-578,006	-200,000	-0,036	-0,145
-576,992	-115,229	0,062	-0,008
-575,977	-200,000	-0,006	0,092
-574,963	32,059	0,101	0,063
-573,948	40,918	-0,053	-0,034
-572,934	-97,024	0,099	-0,018
-571,919	800,000	-0,061	-0,125
-570,904	-30,403	-0,067	-0,027
-569,890	-200,000	-0,015	-0,111
-568,875	-38,931	0,131	-0,049
-567,861	287,166	0,069	0,090
-566,846	800,000	0,055	0,114
-565,831	-200,000	-0,009	0,072
-564,817	-200,000	0,009	-0,068
-563,802	733,526	0,028	-0,053
-562,788	143,139	0,114	0,109
-561,773	28,058	-0,124	0,075
-560,758	205,474	0,051	0,057
-559,744	51,900	0,085	0,058
-558,729	-200,000	0,017	-0,059
-557,715	-63,979	-0,141	0,041
-556,700	-191,130	-0,203	-0,001
-555,685	-21,063	0,127	0,056
-554,671	114,277	0,119	0,104
-553,656	-60,991	0,109	-0,033
-552,642	490,450	0,040	0,065
-551,627	300,982	-0,064	-0,085
-550,612	-87,012	-0,138	0,030
-549,598	-200,000	0,008	0,060
-548,583	-200,000	-0,040	-0,178
-547,569	453,071	0,009	-0,015
-546,554	-57,679	0,043	-0,013
-545,539	-102,068	-0,013	-0,002
-544,525	529,924	0,053	-0,091
-543,510	-37,327	-0,087	0,033
-542,496	800,000	0,027	-0,078
-541,481	47,644	-0,120	-0,081
-540,466	-200,000	-0,002	-0,036
-539,452	-200,000	-0,034	-0,114
-538,437	800,000	-0,020	-0,042
-537,423	-200,000	-0,005	0,170
-536,408	21,251	-0,113	-0,066
-535,393	-49,795	-0,141	0,048
-534,379	-97,607	0,093	-0,017
-533,364	199,170	-0,097	-0,106
-532,350	294,411	0,079	-0,104
-531,335	615,353	-0,047	0,086
-530,321	22,346	0,079	-0,046
-529,306	-33,163	0,106	-0,042
-528,291	800,000	-0,030	-0,076
-527,277	-114,896	-0,131	0,018
-526,262	-80,520	-0,040	0,010
-525,248	-77,628	-0,088	0,022
-524,233	-200,000	0,008	0,029
-523,218	-200,000	-0,001	0,094
-522,204	105,325	-0,102	-0,086
-521,189	-48,983	0,072	0,025
-520,175	-200,000	0,006	-0,025
-519,160	82,767	-0,107	0,084
-518,145	-106,822	-0,032	-0,005
-517,131	111,969	-0,006	0,005
-516,116	69,529	-0,065	0,048
-515,102	-195,313	0,068	0,000
-514,087	-200,000	0,017	-0,151
-513,072	204,993	0,079	-0,088
-512,058	0,482	0,037	0,019
-511,043	79,200	0,137	0,105
-510,029	103,752	-0,005	-0,004
-509,014	-20,476	-0,195	0,085
-507,999	800,000	0,021	-0,044
-506,985	-73,669	-0,140	0,036
-505,970	121,009	0,166	-0,148
-504,956	800,000	0,068	-0,167
-503,941	-3,359	-0,085	0,042
-502,926	-55,233	0,020	0,006
-501,912	68,915	0,028	-0,021
-500,897	-45,502	0,146	0,052
-499,883	-127,470	-0,082	0,008
-498,868	-200,000	-0,019	-0,196
-497,853	12,748	0,093	0,051
-496,839	505,143	-0,057	0,094
-495,824	93,778	0,082	-0,067
-494,810	5,386	-0,094	0,050
-493,795	-7,361	0,082	0,039
-492,781	-58,916	-0,086	-0,026
-491,766	240,979	0,049	-0,058
-490,751	181,142	-0,055	-0,058
-489,737	-129,494	0,112	0,011
-488,722	-200,000	-0,017	-0,064
-487,708	33,431	0,048	0,030
-486,693	132,858	0,010	0,009
-485,678	-103,167	-0,065	0,011
-484,664	-3,203	0,036	0,018
-483,649	67,742	-0,076	-0,056
-482,635	532,504	0,050	-0,085
-481,620	181,397	-0,018	-0,019
-480,605	800,000	0,084	0,203
-479,591	-35,379	-0,071	0,027
-478,576	174,556	0,005	-0,005
-477,562	-200,000	0,021	-0,115
-476,547	69,519	-0,012	0,009
-475,532	-200,000	0,019	-0,108
-474,518	72,320	0,090	-0,067
-473,503	-200,000	-0,023	0,214
-472,489	400,498	0,027	0,041
-471,474	474,012	-0,028	-0,045
-470,459	-86,579	-0,084	-0,018
-469,445	93,124	-0,011	0,009
-468,430	800,000	0,029	0,079
-467,416	800,000	0,030	-0,089
-466,401	88,013	-0,012	0,010
-465,386	359,828	-0,027	0,039
-464,372	-200,000	-0,009	0,032
-463,357	800,000	0,061	-0,121
-462,343	-26,801	-0,029	-0,012
-461,328	-191,777	-0,102	0,001
-460,313	-200,000	0,005	-0,034
-459,299	423,457	-0,106	-0,163
-458,284	-54,977	0,125	0,040
-457,270	89,323	-0,142	0,113
-456,255	531,375	-0,075	-0,127
-455,241	-123,738	-0,135	0,015
-454,226	330,091	-0,096	-0,132
-453,211	-200,000	-0,015	0,127
-452,197	312,328	-0,010	0,014
-451,182	-200,000	-0,027	0,155
-450,168	210,831	-0,034	0,038
-449,153	-200,000	0,019	0,063
-448,138	145,112	-0,012	0,012
-447,124	-120,104	-0,058	0,007
-446,109	-112,175	0,025	0,004
-445,095	-65,027	0,091	0,026
-444,080	-108,878	0,095	0,014
-443,065	-37,088	-0,090	-0,034
-442,051	45,261	0,061	-0,040
-441,036	39,279	0,120	-0,077
-440,022	-200,000	-0,011	-0,090
-439,007	222,797	0,056	0,065
-437,992	-200,000	-0,006	0,047
-436,978	-81,645	0,194	-0,045
-435,963	352,007	0,021	-0,031
-434,949	-110,648	-0,070	0,010
-433,934	472,950	-0,048	-0,077
-432,919	-200,000	0,037	-0,136
-431,905	-133,399	0,089	-0,008
-430,890	742,167	0,041	0,079
-429,876	800,000	-0,009	0,023
-428,861	24,282	0,175	0,103
-427,846	-41,851	-0,027	0,010
-426,832	322,826	-0,115	-0,158
-425,817	115,813	-0,034	-0,030
-424,803	-200,000	-0,000	0,075
-423,788	12,641	-0,053	0,029
-422,773	800,000	0,037	0,083
-421,759	-58,044	-0,080	0,025
-420,744	317,351	-0,065	0,088
-419,730	-200,000	0,001	0,021
-418,715	285,158	-0,071	0,092
-417,701	488,406	-0,061	0,100
-416,686	281,649	0,060	0,077
-415,671	185,056	0,063	-0,067
-414,657	-72,926	0,044	0,011
-413,642	150,476	0,031	-0,030
-412,628	-74,660	-0,051	-0,013
-411,613	800,000	-0,014	-0,045
-410,598	-0,513	0,103	0,052
-409,584	723,631	-0,016	-0,031
-408,569	800,000	0,024	-0,067
-407,555	-200,000	0,001	-0,057
-406,540	-8,798	-0,053	-0,025
-405,525	48,944	0,080	-0,054
-404,511	-39,187	0,065	-0,024
-403,496	800,000	-0,058	-0,177
-402,482	-200,000	0,026	-0,083
-401,467	721,472	0,044	0,083
-400,452	29,929	-0,048	0,029
-399,438	116,924	-0,139	0,122
-398,423	-102,039	-0,099	0,017
-397,409	-63,987	-0,157	-0,046
-396,394	67,107	0,040	0,029
-395,379	-120,527	0,053	0,006
-394,365	-30,321	0,158	0,064
-393,350	-144,745	0,038	-0,002
-392,336	-5,422	-0,105	-0,051
-391,321	-200,000	-0,009	-0,079
-390,306	-56,486	-0,130	0,041
-389,292	-200,000	-0,002	-0,094
-388,277	-200,000	-0,011	0,077
-387,263	134,520	0,060	0,055
-386,248	-35,855	0,043	-0,017
-385,233	800,000	0,029	0,065
-384,219	585,261	-0,049	-0,087
-383,204	61,953	0,016	0,012
-382,190	-16,871	-0,199	-0,090
-381,175	-200,000	-0,007	-0,034
-380,160	-37,703	-0,051	0,019
-379,146	800,000	-0,107	0,264
-378,131	133,880	-0,160	0,147
-377,117	-200,000	0,004	-0,132
-376,102	-122,954	-0,098	0,011
-375,088	567,280	0,077	-0,134
-374,073	800,000	0,039	0,085
-373,058	156,172	-0,069	0,068
-372,044	356,867	-0,037	-0,053
-371,029	77,443	0,081	-0,061
-370,015	6,310	0,147	0,077
-369,000	74,665	-0,092	-0,069
-367,985	359,653	0,090	-0,128
-366,971	-200,000	-0,010	0,034
-365,956	6,090	0,052	-0,027
-364,942	-94,432	0,113	0,022
-363,927	800,000	-0,027	-0,064
-362,912	36,874	-0,019	0,012
-361,898	700,653	0,057	-0,107
-360,883	50,435	0,147	-0,099
-359,869	800,000	-0,076	-0,156
-358,854	627,351	0,014	0,025
-357,839	-200,000	-0,024	-0,095
-356,825	104,859	0,019	-0,016
-355,810	800,000	0,027	0,054
-354,796	-73,576	0,067	0,017
-353,781	537,664	-0,006	0,010
-352,766	74,176	-0,070	0,052
-351,752	11,419	0,025	-0,014
-350,737	-200,000	0,005	-0,067
-349,723	-200,000	0,025	0,114
-348,708	2,016	-0,053	0,027
-347,693	615,764	-0,065	-0,117
-346,679	19,520	0,023	-0,013
-345,664	-200,000	-0,029	-0,200
-344,650	220,040	0,034	-0,039
-343,635	-200,000	0,012	0,049
-342,620	144,772	-0,044	-0,042
-341,606	590,897	0,027	-0,048
-340,591	800,000	-0,019	-0,042
-339,577	800,000	-0,024	0,049
-338,562	-200,000	0,022	-0,095
-337,548	-67,154	0,079	0,022
-336,533	-78,351	-0,015	-0,004
-335,518	-35,948	0,179	0,069
-334,504	800,000	0,056	0,148
-333,489	16,505	-0,013	-0,007
-332,475	-48,440	-0,137	-0,047
-331,460	-156,935	-0,090	-0,004
-330,445	-69,245	-0,057	0,015
-329,431	792,454	-0,047	0,092
-328,416	97,455	0,128	0,105
-327,402	800,000	-0,016	-0,036
-326,387	-122,013	0,067	0,008
-325,372	314,323	-0,070	0,094
-324,358	557,163	-0,096	-0,165
-323,343	-49,911	-0,125	-0,042
-322,329	3,561	0,091	0,047
-321,314	-54,265	0,062	-0,020
-320,299	642,697	0,053	0,097
-319,285	800,000	0,049	-0,103
-318,270	57,514	0,100	-0,069
-317,256	-200,000	0,018	-0,088
-316,241	-82,198	0,084	0,019
-315,226	-186,885	0,139	0,001
-314,212	177,502	0,026	0,027
-313,197	-200,000	-0,012	0,050
-312,183	52,164	-0,007	-0,005
-311,168	61,514	-0,118	0,083
-310,153	116,769	0,040	0,035
-309,139	-148,711	0,052	0,003
-308,124	608,666	0,079	-0,142
-307,110	172,689	0,017	0,018
-306,095	-200,000	0,031	0,131
-305,080	-200,000	0,000	0,165
-304,066	-200,000	0,137	0,000
-303,051	25,231	0,072	0,042
-302,037	-50,428	-0,047	0,016
-301,022	395,776	0,040	-0,060
-300,008	-200,000	-0,000	0,041
-298,993	800,000	-0,035	0,086
-297,978	34,683	0,154	0,096
-296,964	-93,590	0,026	0,005
-295,949	800,000	-0,009	0,019
-294,935	-200,000	0,002	0,044
-293,920	-91,651	0,056	-0,011
-292,905	-110,645	-0,072	-0,011
-291,891	-200,000	-0,029	0,108
-290,876	-110,139	0,049	0,007
-289,862	-146,327	-0,156	0,010
-288,847	-200,000	0,014	-0,181
-287,832	16,992	0,082	-0,046
-286,818	86,653	0,032	-0,025
-285,803	359,189	0,057	-0,081
-284,789	-200,000	-0,014	0,089
-283,774	770,130	0,102	0,198
-282,759	-140,386	-0,024	-0,002
-281,745	-29,732	-0,120	-0,049
-280,730	-200,000	0,026	0,117
-279,716	-149,794	0,028	0,002
-278,701	29,563	0,020	0,012
-277,686	97,655	0,042	0,034
-276,672	-200,000	-0,003	0,118
-275,657	-200,000	-0,002	-0,059
-274,643	622,207	0,088	-0,158
-273,628	310,430	0,020	-0,027
-272,613	-69,030	-0,142	-0,039
-271,599	-72,244	0,146	0,038
-270,584	-200,000	-0,017	0,126
-269,570	150,475	0,021	0,020
-268,555	623,840	0,026	0,046
-267,540	-200,000	-0,008	0,073
-266,526	-52,513	-0,043	0,014
-265,511	134,038	0,033	-0,030
-264,497	-200,000	0,011	-0,126
-263,482	-200,000	0,005	-0,080
-262,467	438,423	-0,063	-0,098
-261,453	-62,190	-0,076	0,022
-260,438	6,160	0,105	-0,055
-259,424	-200,000	-0,018	-0,092
-258,409	-18,343	0,129	-0,057
-257,395	-200,000	-0,007	0,032
-256,380	-200,000	-0,001	0,087
-255,365	17,648	0,129	0,073
-254,351	-200,000	-0,008	0,139
-253,336	79,672	0,030	0,023
-252,322	-200,000	-0,008	-0,071
-251,307	179,752	-0,062	-0,065
-250,292	295,103	0,006	0,008
-249,278	731,760	-0,023	0,044
-248,263	-200,000	0,000	-0,135
-247,249	800,000	0,010	0,020
-246,234	-107,110	-0,102	0,016
-245,219	-200,000	-0,014	-0,103
-244,205	800,000	-0,075	-0,162
-243,190	-38,247	-0,051	0,019
-242,176	243,416	0,034	0,040
-241,161	73,727	0,050	0,037
-240,146	-125,511	-0,075	0,008
-239,132	20,447	0,062	-0,035
-238,117	-200,000	-0,015	0,074
-237,103	-114,952	0,043	-0,006
-236,088	-131,917	0,158	-0,014
-235,073	-200,000	-0,006	0,023
-234,059	200,218	0,066	0,072
-233,044	-200,000	0,019	0,100
-232,030	-200,000	-0,003	0,020
-231,015	154,566	-0,029	0,028
-230,000	188,213	-0,042	0,044
-228,986	800,000	-0,044	-0,116
-227,971	-77,532	0,074	-0,018
-226,957	-52,342	-0,020	-0,007
-225,942	523,851	-0,066	0,110
-224,927	-200,000	0,018	0,071
-223,913	-52,903	-0,096	0,031
-222,898	496,337	0,029	0,048
-221,884	-1,881	0,048	0,024
-220,869	320,610	-0,066	0,089
-219,855	-13,525	0,182	-0,083
-218,840	213,733	-0,074	-0,083
-217,825	334,009	0,070	0,096
-216,811	45,877	-0,102	-0,067
-215,796	150,743	0,033	-0,031
-214,782	800,000	0,029	-0,086
-213,767	-84,126	0,053	0,012
-212,752	-200,000	-0,012	0,040
-211,738	-200,000	0,010	0,205
-210,723	-2,815	-0,039	0,019
-209,709	-170,120	-0,120	0,003
-208,694	-200,000	-0,040	-0,146
-207,679	576,065	-0,059	0,103
-206,665	800,000	-0,045	0,090
-205,650	-200,000	-0,010	0,048
-204,636	285,369	0,104	0,133
-203,621	328,066	0,107	0,146
-202,606	38,792	0,064	-0,041
-201,592	800,000	-0,014	-0,030
-200,577	390,118	-0,080	-0,117
-199,563	800,000	0,085	-0,213
-198,548	-155,635	0,144	-0,006
-197,533	-200,000	0,012	-0,044
-196,519	-200,000	0,033	0,149
-195,504	-40,383	0,063	0,023
-194,490	800,000	0,013	-0,034
-193,475	688,519	-0,012	-0,023
-192,460	800,000	0,048	-0,111
-191,446	800,000	-0,028	-0,086
-190,431	-70,246	0,164	-0,044
-189,417	103,894	-0,009	-0,008
-188,402	32,417	0,055	0,033
-187,387	-6,920	-0,062	-0,030
-186,373	-126,966	-0,109	-0,011
-185,358	368,197	-0,013	0,019
-184,344	174,288	0,036	0,037
-183,329	800,000	-0,042	0,123
-182,315	800,000	0,053	0,165
-181,300	486,356	-0,079	0,127
-180,285	-200,000	-0,097	0,000
-179,271	342,913	-0,028	0,040
-178,256	614,899	0,033	-0,059
-177,242	-5,583	0,022	0,011
-176,227	-50,758	-0,097	-0,032
-175,212	800,000	0,023	-0,052
-174,198	26,495	0,063	-0,037
-173,183	-72,579	-0,135	0,035
-172,169	449,074	-0,056	0,087
-171,154	-57,626	-0,042	-0,013
-170,139	800,000	-0,029	0,066
-169,125	137,946	0,088	-0,082
-168,110	-200,000	-0,034	0,203
-167,096	-67,913	0,167	-0,046
-166,081	-200,000	0,035	-0,119
-165,066	-69,032	-0,025	0,007
-164,052	-200,000	0,000	0,054
-163,037	800,000	0,047	0,122
-162,023	-200,000	0,035	0,137
-161,008	-115,338	-0,015	0,002
-159,993	-35,396	-0,099	0,038
-158,979	-200,000	-0,012	0,069
-157,964	-107,625	0,090	0,014
-156,950	-116,359	0,040	0,005
-155,935	-122,755	0,093	-0,011
-154,920	-200,000	-0,017	0,068
-153,906	-200,000	0,059	0,204
-152,891	-200,000	-0,012	0,093
-151,877	-51,508	-0,060	0,020
-150,862	491,583	0,061	-0,099
-149,847	800,000	-0,037	-0,083
-148,833	-36,157	-0,071	0,027
-147,818	161,309	0,090	0,089
-146,804	800,000	-0,036	0,074
-145,789	-200,000	0,039	0,139
-144,775	730,848	-0,062	-0,119
-143,760	-120,560	-0,027	0,003
-142,745	76,558	-0,062	-0,046
-141,731	160,667	0,055	-0,054
-140,716	-200,000	0,098	0,000
-139,702	429,824	-0,078	0,120
-138,687	-166,263	0,138	0,004
-137,672	800,000	0,018	0,055
-136,658	-128,531	-0,058	-0,006
-135,643	-46,261	-0,104	0,036
-134,629	14,259	0,023	0,013
-133,614	-147,122	0,038	-0,002
-132,599	-33,649	0,124	-0,048
-131,585	-123,955	0,114	-0,012
-130,570	-200,000	0,035	0,191
-129,556	-200,000	-0,006	-0,291
-128,541	800,000	-0,011	0,023
-127,526	80,554	-0,061	-0,046
-126,512	731,549	-0,063	0,120
-125,497	-200,000	-0,003	0,082
-124,483	-200,000	0,025	0,175
-123,468	109,526	0,069	-0,058
-122,453	-77,074	0,013	0,003
-121,439	-91,385	0,148	-0,030
-120,424	557,209	0,068	-0,116
-119,410	65,955	0,077	-0,055
-118,395	-119,479	0,238	0,029
-117,380	-164,189	-0,151	-0,005
-116,366	252,967	0,144	0,174
-115,351	-46,606	0,003	0,001
-114,337	800,000	0,027	0,072
-113,322	-200,000	-0,004	0,065
-112,307	-136,552	0,111	-0,009
-111,293	179,095	0,055	0,057
-110,278	172,172	-0,032	0,033
-109,264	-200,000	0,002	-0,085
-108,249	67,144	0,080	-0,057
-107,234	800,000	-0,011	-0,028
-106,220	249,510	0,112	-0,134
-105,205	800,000	-0,052	0,144
-104,191	-109,600	0,177	0,026
-103,176	550,440	0,078	0,132
-102,162	-200,000	-0,044	0,182
-101,147	-200,000	-0,033	0,160
-100,132	-200,000	-0,031	-0,110
-99,118	-200,000	-0,043	-0,228
-98,103	800,000	0,037	0,102
-97,089	-0,004	0,025	-0,013
-96,074	314,288	-0,029	0,038
-95,059	161,702	0,026	0,025
-94,045	107,679	-0,097	-0,081
-93,030	800,000	-0,004	0,010
-92,016	36,377	-0,045	-0,028
-91,001	18,393	-0,092	0,052
-89,986	81,332	-0,025	0,019
-88,972	111,386	0,090	0,077
-87,957	800,000	-0,059	0,119
-86,943	-163,855	0,084	0,003
-85,928	59,551	0,067	-0,046
-84,913	-200,000	-0,011	0,084
-83,899	-136,468	-0,220	-0,018
-82,884	-200,000	0,006	0,028
-81,870	-200,000	0,009	-0,091
-80,855	-49,197	0,094	0,032
-79,840	800,000	0,027	0,074
-78,826	43,102	-0,051	-0,033
-77,811	-200,000	0,001	0,021
-76,797	800,000	-0,046	0,127
-75,782	177,080	-0,035	-0,036
-74,767	88,572	0,079	0,062
-73,753	31,538	-0,073	0,044
-72,738	800,000	-0,071	0,215
-71,724	800,000	-0,056	-0,133
-70,709	148,203	-0,017	0,017
-69,694	800,000	-0,040	-0,113
-68,680	30,872	-0,062	0,037
-67,665	-74,491	-0,069	-0,017
-66,651	-200,000	-0,015	0,099
-65,636	-16,955	-0,099	0,044
-64,622	-112,382	-0,059	-0,008
-63,607	-54,665	0,076	0,024
-62,592	-128,722	-0,061	0,006
-61,578	318,251	-0,116	-0,155
-60,563	-69,986	-0,089	-0,024
-59,549	72,694	-0,067	0,049
-58,534	56,756	-2,022	-1,385
-57,519	472,044	-1,128	-1,796
-56,505	-200,000	-0,446	-4,336
-55,490	602,679	0,896	1,576
-54,476	800,000	5,271	11,428
-53,461	-200,000	22,062	346,911
-52,446	800,000	765,967	2333,815
-51,432	540,943	1663,514	2802,293
-50,417	70,649	1658,551	1207,573
-49,403	17,016	1532,081	852,890
-48,388	11,106	1456,067	782,063
-47,373	19,232	1447,753	816,456
-46,359	14,577	1436,736	788,142
-45,344	9,398	1432,651	761,271
-44,330	9,391	1430,854	760,250
-43,315	9,368	1429,011	759,131
-42,300	9,352	1427,187	758,058
-41,286	9,400	1425,724	757,477
-40,271	9,340	1424,766	756,657
-39,257	9,367	1423,529	756,094
-38,242	9,385	1422,585	755,649
-37,227	9,317	1421,495	754,721
-36,213	9,373	1420,039	754,181
-35,198	9,379	1418,808	753,525
-34,184	9,405	1417,931	753,154
-33,169	9,321	1416,399	751,915
-32,154	9,388	1415,576	751,761
-31,140	9,344	1414,337	750,869
-30,125	9,406	1413,076	750,458
-29,111	9,395	1411,998	749,802
-28,096	9,375	1410,773	749,033
-27,082	9,363	1409,514	748,278
-26,067	9,340	1408,520	747,609
-25,052	9,324	1407,528	746,982
-24,038	9,369	1406,687	746,714
-23,023	9,328	1405,622	745,930
-22,009	9,290	1404,772	745,272
-20,994	9,354	1403,631	744,934
-19,979	9,333	1402,707	744,315
-18,965	9,280	1401,629	743,467
-17,950	9,260	1400,850	742,932
-16,936	9,269	1399,946	742,463
-15,921	9,250	1398,864	741,774
-14,906	9,241	1397,995	741,243
-13,892	9,299	1397,038	740,975
-12,877	9,243	1396,341	740,315
-11,863	9,255	1395,490	739,890
-10,848	9,204	1394,604	739,155
-9,833	9,154	1393,642	738,384
-8,819	9,158	1392,732	737,889
-7,804	9,130	1391,991	737,342
-6,790	9,141	1390,752	736,706
-5,775	9,187	1389,613	736,283
-4,760	9,197	1388,711	735,822
-3,746	9,153	1387,984	735,207
-2,731	9,166	1386,926	734,676
-1,717	9,201	1386,092	734,368
-0,702	9,161	1384,416	733,268
0,313	13,222	1296,046	704,956
1,327	29,210	685,960	409,103
2,342	45,191	118,379	76,695
3,356	1,498	16,546	8,352
4,371	13,746	3,478	1,897
5,386	19,208	1,125	0,634
6,400	800,000	0,275	0,690
7,415	-25,563	-0,241	-0,100
8,429	154,231	-0,279	-0,270
9,444	138,549	-0,258	-0,238
10,459	-112,879	-0,220	0,030
11,473	59,094	-0,296	-0,204
12,488	385,516	-0,186	-0,271
13,502	-12,976	-0,282	-0,128
14,517	9,603	-0,316	-0,168
15,531	232,164	-0,226	-0,261
16,546	46,479	-0,426	-0,278
17,561	53,245	-0,381	-0,256
18,575	-61,594	-0,247	0,072
19,590	572,254	-0,137	-0,235
20,604	179,710	-0,232	-0,239
21,619	110,483	-0,270	-0,228
22,634	315,491	-0,315	-0,418
23,648	44,203	-0,497	-0,320
24,663	94,806	-0,328	-0,262
25,677	169,743	-0,284	-0,285
26,692	62,313	-0,398	-0,278
27,707	229,970	-0,237	-0,273
28,721	97,086	-0,425	-0,342
29,736	224,107	-0,320	-0,363
30,750	800,000	-0,269	-0,548
31,765	264,712	-0,248	-0,305
32,780	88,562	-0,259	-0,202
33,794	40,880	-0,331	-0,210
34,809	283,318	-0,224	-0,283
35,823	42,912	-0,389	-0,249
36,838	85,818	-0,455	-0,351
37,853	126,757	-0,374	-0,332
38,867	140,489	-0,381	-0,353
39,882	131,026	-0,316	-0,285
40,896	85,781	-0,340	-0,263
41,911	59,742	-0,221	-0,153
42,926	-75,021	-0,399	-0,100
43,940	6,665	-0,378	-0,197
44,955	116,806	-0,336	-0,290
45,969	53,470	-0,404	-0,272
46,984	179,582	-0,212	-0,218
47,999	27,271	-0,313	-0,184
49,013	23,141	-0,341	-0,196
50,028	800,000	-0,120	-0,256
51,042	70,957	-0,319	-0,232
52,057	62,259	-0,381	-0,266
53,071	148,862	-0,216	-0,205
54,086	167,343	-0,259	-0,258
55,101	57,173	-0,379	-0,259
56,115	662,396	-0,142	-0,257
57,130	65,681	-0,372	-0,264
58,144	146,249	-0,347	-0,326
59,159	212,348	-0,259	-0,286
60,174	-10,532	-0,330	-0,152
61,188	-97,509	-0,416	-0,075
62,203	-119,347	-0,330	-0,040
63,217	67,191	-0,360	-0,257
64,232	138,408	-0,218	-0,201
65,247	40,792	-0,327	-0,206
66,261	47,572	-0,378	-0,246
67,276	209,214	-0,241	-0,264
68,290	114,225	-0,444	-0,378
69,305	272,579	-0,228	-0,282
70,320	446,942	-0,215	-0,331
71,334	123,510	-0,298	-0,262
72,349	-57,698	-0,308	-0,094
73,363	-11,418	-0,331	-0,152
74,378	-21,721	-0,422	-0,179
75,393	7,949	-0,352	-0,184
76,407	-7,542	-0,267	-0,126
77,422	-43,963	-0,299	-0,105
78,436	126,235	-0,273	-0,242
79,451	-26,669	-0,336	-0,137
80,466	124,605	-0,243	-0,214
81,480	800,000	-0,078	-0,192
82,495	67,523	-0,220	-0,157
83,509	-70,051	-0,355	-0,094
84,524	-38,724	-0,327	-0,120
85,539	-32,411	-0,181	-0,070
86,553	62,402	-0,322	-0,224
87,568	-61,496	-0,429	-0,125
88,582	639,078	-0,191	-0,341
89,597	4,300	-0,222	-0,113
90,611	111,617	-0,261	-0,220
91,626	-10,249	-0,313	-0,145
92,641	48,934	-0,106	-0,069
93,655	250,922	-0,199	-0,236
94,670	197,070	-0,140	-0,150
95,684	79,954	-0,290	-0,218
96,699	164,276	-0,196	-0,193
97,714	24,862	-0,247	-0,143
98,728	283,132	-0,190	-0,239
99,743	76,940	-0,211	-0,157
100,757	-9,661	-0,244	-0,113
101,772	297,566	-0,343	-0,440
102,787	403,386	-0,265	-0,391
103,801	328,902	-0,182	-0,245
104,816	0,677	-0,269	-0,134
105,830	710,081	-0,147	-0,273
106,845	128,228	-0,187	-0,166
107,860	-105,143	-0,356	-0,056
108,874	57,448	-0,213	-0,145
109,889	-66,462	-0,336	-0,092
110,903	-7,174	-0,305	-0,144
111,918	-59,056	-0,291	-0,087
112,933	-61,960	-0,216	-0,063
113,947	56,361	-0,196	-0,133
114,962	41,442	-0,226	-0,142
115,976	74,702	-0,277	-0,203
116,991	114,630	-0,208	-0,177
118,006	-55,116	-0,257	-0,080
119,020	76,802	-0,213	-0,158
120,035	239,699	-0,193	-0,224
121,049	107,077	-0,177	-0,147
122,064	48,630	-0,269	-0,175
123,079	-71,213	-0,340	-0,088
124,093	-47,166	-0,270	-0,091
125,108	216,053	-0,252	-0,279
126,122	245,042	-0,270	-0,317
127,137	58,810	-0,231	-0,158
128,151	268,117	-0,138	-0,169
129,166	-85,642	-0,346	-0,074
130,181	70,385	-0,173	-0,124
131,195	219,798	-0,256	-0,286
132,210	-15,231	-0,242	-0,107
133,224	92,175	-0,178	-0,139
134,239	116,800	-0,170	-0,145
135,254	35,970	-0,162	-0,099
136,268	39,206	-0,268	-0,166
137,283	-69,477	-0,234	-0,062
138,297	-41,837	-0,305	-0,108
139,312	206,239	-0,310	-0,336
140,327	26,692	-0,233	-0,135
141,341	-21,414	-0,292	-0,123
142,356	800,000	-0,141	-0,344
143,370	-14,042	-0,231	-0,103
144,385	7,950	-0,081	-0,042
145,400	133,817	-0,266	-0,239
146,414	142,264	-0,347	-0,320
147,429	800,000	-0,120	-0,323
148,443	153,066	-0,206	-0,196
149,458	106,968	-0,200	-0,165
150,473	628,760	-0,140	-0,247
151,487	-68,703	-0,306	-0,082
152,502	613,036	-0,066	-0,116
153,516	17,951	-0,253	-0,139
154,531	-5,661	-0,209	-0,099
155,546	46,563	-0,279	-0,180
156,560	800,000	-0,098	-0,294
157,575	35,260	-0,244	-0,148
158,589	232,912	-0,167	-0,191
159,604	332,854	-0,176	-0,237
160,619	-7,045	-0,294	-0,138
161,633	80,992	-0,204	-0,153
162,648	775,195	-0,130	-0,247
163,662	42,938	-0,155	-0,098
164,677	248,489	-0,128	-0,151
165,692	66,510	-0,226	-0,159
166,706	128,320	-0,278	-0,246
167,721	60,763	-0,176	-0,121
168,735	82,445	-0,206	-0,155
169,750	314,327	-0,186	-0,244
170,764	-25,269	-0,043	-0,018
171,779	-30,867	-0,284	-0,111
172,794	-110,435	-0,133	-0,019
173,808	-66,476	-0,209	-0,057
174,823	260,362	-0,193	-0,232
175,837	77,148	-0,285	-0,210
176,852	422,749	-0,189	-0,282
177,867	463,847	-0,153	-0,238
178,881	-59,516	-0,205	-0,061
179,896	22,519	-0,141	-0,080
180,910	49,824	-0,172	-0,112
181,925	14,442	-0,189	-0,102
182,940	-65,586	-0,268	-0,074
183,954	-53,094	-0,192	-0,061
184,969	25,984	-0,110	-0,063
185,983	186,759	-0,142	-0,146
186,998	289,308	-0,159	-0,200
188,013	-61,170	-0,226	-0,066
189,027	11,286	-0,305	-0,161
190,042	292,022	-0,181	-0,229
191,056	-134,536	-0,260	-0,022
192,071	-57,489	-0,295	-0,089
193,086	402,257	-0,120	-0,175
194,100	182,609	-0,246	-0,252
195,115	800,000	-0,035	-0,106
196,129	43,199	-0,167	-0,105
197,144	28,376	-0,169	-0,099
198,159	-40,591	-0,292	-0,104
199,173	75,594	-0,097	-0,070
200,188	800,000	-0,142	-0,290
201,202	102,539	-0,182	-0,147
202,217	-64,232	-0,264	-0,074
203,232	81,659	-0,147	-0,110
204,246	94,027	-0,244	-0,191
205,261	-200,000	-0,084	-0,273
206,275	-200,000	-0,055	-0,264
207,290	-59,145	-0,115	-0,034
208,304	-80,902	-0,195	-0,044
209,319	591,697	-0,135	-0,232
210,334	275,360	-0,190	-0,233
211,348	30,291	-0,291	-0,171
212,363	192,914	-0,188	-0,196
213,377	366,650	-0,177	-0,248
214,392	76,754	-0,186	-0,136
215,407	-200,000	0,020	-0,195
216,421	268,945	-0,182	-0,221
217,436	178,571	-0,176	-0,178
218,450	244,851	-0,209	-0,243
219,465	269,609	-0,159	-0,194
220,480	312,459	-0,139	-0,181
221,494	800,000	-0,064	-0,148
222,509	-64,746	-0,212	-0,059
223,523	-40,663	-0,104	-0,037
224,538	-23,422	-0,255	-0,105
225,553	13,647	-0,264	-0,141
226,567	81,577	-0,251	-0,187
227,582	800,000	-0,097	-0,197
228,596	-71,448	-0,076	-0,020
229,611	142,428	-0,232	-0,212
230,626	-77,462	-0,191	-0,045
231,640	147,535	-0,161	-0,150
232,655	-16,400	-0,134	-0,058
233,669	436,921	-0,154	-0,233
234,684	65,659	-0,177	-0,123
235,699	198,933	-0,206	-0,218
236,713	800,000	-0,063	-0,179
237,728	-20,561	-0,153	0,065
238,742	-91,950	-0,186	-0,036
239,757	-166,581	-0,174	0,005
240,772	114,249	-0,234	-0,196
241,786	441,787	-0,109	-0,165
242,801	-126,990	-0,200	-0,020
243,815	-71,195	-0,158	-0,041
244,830	183,525	-0,067	-0,068
245,844	297,688	-0,129	-0,164
246,859	77,854	-0,191	-0,140
247,874	17,159	-0,200	-0,109
248,888	-200,000	-0,054	-0,169
249,903	-68,663	-0,244	-0,065
250,917	-41,529	-0,141	-0,050
251,932	374,758	-0,115	-0,161
252,947	115,753	-0,155	-0,131
253,961	123,892	-0,233	-0,202
254,976	101,573	-0,231	-0,186
255,990	-51,337	-0,146	-0,047
257,005	-53,667	-0,105	-0,033
258,020	234,015	-0,148	-0,168
259,034	-101,551	-0,240	-0,040
260,049	103,716	-0,120	-0,097
261,063	218,854	-0,207	-0,228
262,078	800,000	-0,084	-0,170
263,093	277,176	-0,215	-0,264
264,107	800,000	-0,064	-0,123
265,122	416,280	-0,062	-0,092
266,136	-105,585	-0,160	0,025
267,151	-78,835	-0,173	0,040
268,166	-111,873	-0,145	0,020
269,180	21,457	-0,105	-0,058
270,195	361,599	-0,112	-0,154
271,209	17,519	-0,192	-0,104
272,224	287,224	-0,103	-0,129
273,239	-137,233	-0,205	-0,016
274,253	-12,003	-0,206	-0,092
275,268	82,767	-0,153	-0,114
276,282	329,583	-0,080	-0,106
277,297	-75,613	-0,272	-0,066
278,312	-7,796	-0,278	-0,128
279,326	-153,285	-0,100	0,005
280,341	-200,000	-0,026	-0,123
281,355	-96,018	-0,204	-0,037
282,370	-125,551	-0,227	-0,023
283,384	32,156	-0,155	-0,091
284,399	172,625	-0,253	-0,250
285,414	40,312	-0,107	-0,066
286,428	183,774	-0,022	0,022
287,443	206,643	-0,056	-0,059
288,457	-21,557	-0,138	-0,058
289,472	171,310	-0,095	-0,093
290,487	-28,000	-0,200	-0,079
291,501	382,679	-0,153	-0,217
292,516	139,211	-0,180	-0,163
293,530	-32,512	-0,077	-0,029
294,545	-80,087	-0,072	0,016
295,560	299,668	-0,072	-0,091
296,574	223,692	-0,180	-0,200
297,589	-88,482	-0,213	-0,043
298,603	-100,043	-0,143	-0,024
299,618	-92,239	-0,125	0,024
300,633	321,921	-0,053	-0,069
301,647	215,431	-0,139	-0,152
302,662	800,000	-0,090	-0,248
303,676	278,377	-0,151	-0,185
304,691	41,148	-0,162	-0,100
305,706	-31,610	-0,111	-0,043
306,720	191,556	-0,170	-0,175
307,735	-200,000	-0,015	-0,048
308,749	440,899	-0,054	-0,082
309,764	-27,257	-0,138	0,055
310,779	-49,446	-0,265	-0,086
311,793	351,459	-0,107	-0,145
312,808	800,000	-0,042	-0,107
313,822	800,000	-0,060	-0,160
314,837	107,603	-0,143	-0,116
315,852	182,749	-0,150	-0,152
316,866	800,000	-0,055	-0,132
317,881	679,232	-0,053	-0,095
318,895	114,536	-0,221	-0,185
319,910	-21,215	-0,077	0,032
320,925	-114,733	-0,185	0,024
321,939	-80,236	-0,201	-0,046
322,954	-9,843	-0,142	-0,064
323,968	-56,618	-0,140	-0,042
324,983	-200,000	-0,042	-0,244
325,997	-121,049	-0,172	-0,019
327,012	403,054	-0,102	-0,147
328,027	-33,848	-0,180	-0,067
329,041	-34,233	-0,258	-0,096
330,056	138,216	-0,105	0,094
331,070	38,150	-0,178	-0,108
332,085	-110,821	-0,107	-0,015
333,100	247,943	-0,110	-0,128
334,114	583,680	-0,114	-0,193
335,129	-200,000	-0,057	-0,175
336,143	523,124	-0,171	-0,276
337,158	625,607	-0,095	-0,165
338,173	205,802	-0,123	-0,131
339,187	-200,000	-0,021	-0,178
340,202	140,253	-0,184	-0,166
341,216	51,967	-0,230	-0,150
342,231	437,998	-0,140	-0,210
343,246	488,200	0,059	-0,092
344,260	-65,048	-0,066	-0,018
345,275	-183,873	-0,218	-0,002
346,289	-150,141	-0,128	-0,007
347,304	-28,636	-0,167	-0,066
348,319	-103,133	-0,250	-0,040
349,333	63,135	-0,044	0,030
350,348	105,498	-0,193	-0,155
351,362	247,473	-0,174	-0,201
352,377	-80,670	-0,038	-0,008
353,392	-80,370	-0,054	0,012
354,406	-108,202	-0,125	-0,018
355,421	207,520	1308,782	1395,910
356,435	159,640	1468,740	1396,366
