DTS Sentinel unit serial number:	SN410029Multiplexer serial number:	ORYXHardware model number:	OX2-SRSoftware version number:	ORYX F/W v4,00 Oryx Data Collector v3.7.2.0data status	okinstallation	B3 Nyhavnadifferential loss correction	single-endedforward channel	channel 1reverse channel	N/Adate	2023/11/29time	22:17:30forward acquisition time	300,00reverse acquisition time	0,00gamma	499,1914k internal	0,3210k external	0,3210temperature offset calibration	1,0000default loss term (dB/km)	0,3820temperature slope calibration	1,0000multiplexer offset coefficient	1,0000multiplexer slope coefficient	1,0000fibre end	0,00T internal ref (°C)	10,81T ext. ref 1 (°C)	-4,20T ext. ref 2 (°C)	-4,31length (m)	temperature (°C)	Stokes	anti-Stokes-744,400	251,134	-0,128	-0,158
-743,385	-200,000	-0,059	0,314
-742,371	331,460	-0,164	-0,230
-741,356	-200,000	0,026	0,257
-740,342	-25,877	-0,263	-0,112
-739,327	-200,000	0,070	0,408
-738,312	157,397	-0,278	-0,279
-737,298	-200,000	0,051	0,225
-736,283	234,067	-0,187	-0,223
-735,269	-200,000	0,035	0,273
-734,254	31,441	-0,181	-0,113
-733,239	-31,131	-0,227	0,092
-732,225	800,000	-0,065	-0,180
-731,210	-200,000	0,039	0,184
-730,196	-24,649	-0,071	-0,030
-729,181	-200,000	-0,023	-0,133
-728,167	800,000	0,096	-0,195
-727,152	73,314	-0,039	0,030
-726,137	42,882	-0,039	-0,026
-725,123	-200,000	0,007	-0,054
-724,108	-85,095	-0,065	-0,015
-723,094	112,931	-0,102	-0,090
-722,079	800,000	-0,071	-0,198
-721,064	-200,000	0,005	-0,082
-720,050	208,499	-0,030	-0,034
-719,035	282,234	0,056	0,073
-718,021	-59,399	0,036	-0,011
-717,006	81,008	-0,119	0,093
-715,991	-200,000	0,021	-0,178
-714,977	-200,000	-0,005	-0,101
-713,962	197,666	-0,059	-0,065
-712,948	127,843	0,107	0,099
-711,933	-200,000	0,007	-0,071
-710,918	-200,000	0,002	0,068
-709,904	-29,761	-0,042	0,017
-708,889	67,158	-0,047	-0,035
-707,875	8,531	-0,132	-0,072
-706,860	505,838	0,020	0,033
-705,845	-46,261	-0,067	-0,024
-704,831	223,006	-0,022	-0,026
-703,816	800,000	-0,032	0,101
-702,802	-69,458	-0,056	0,015
-701,787	-200,000	-0,004	-0,119
-700,772	-137,091	-0,091	-0,007
-699,758	323,078	0,064	0,089
-698,743	-200,000	0,013	0,053
-697,729	18,830	0,065	-0,038
-696,714	-147,161	-0,067	0,004
-695,699	262,215	-0,029	0,037
-694,685	-64,878	-0,140	0,041
-693,670	-200,000	-0,014	-0,122
-692,656	-200,000	0,012	0,050
-691,641	-85,916	0,055	0,012
-690,627	459,398	0,009	0,014
-689,612	800,000	0,030	0,083
-688,597	109,322	-0,138	0,119
-687,583	-150,925	-0,125	0,007
-686,568	-56,804	-0,067	0,021
-685,554	395,049	0,040	-0,060
-684,539	-92,798	0,095	-0,019
-683,524	-200,000	-0,022	-0,192
-682,510	800,000	0,023	0,070
-681,495	-27,126	-0,065	-0,027
-680,481	-72,715	-0,149	0,040
-679,466	144,921	-0,074	-0,072
-678,451	407,877	-0,156	-0,240
-677,437	-200,000	0,001	0,079
-676,422	30,076	-0,045	-0,027
-675,408	-200,000	-0,018	-0,116
-674,393	46,147	-0,099	-0,066
-673,378	-200,000	-0,009	-0,149
-672,364	347,344	-0,075	-0,107
-671,349	-200,000	-0,010	-0,114
-670,335	-93,261	0,060	0,012
-669,320	98,960	0,077	0,064
-668,305	-60,141	0,070	-0,021
-667,291	800,000	-0,046	-0,121
-666,276	-20,772	0,104	0,046
-665,262	-24,138	0,131	0,057
-664,247	-80,201	-0,026	-0,006
-663,232	-200,000	0,013	0,046
-662,218	-200,000	0,013	0,079
-661,203	800,000	0,060	0,159
-660,189	-3,558	0,132	0,066
-659,174	-200,000	-0,000	-0,014
-658,159	2,617	-0,093	-0,049
-657,145	58,522	-0,165	-0,117
-656,130	189,403	-0,077	0,084
-655,116	91,889	-0,053	0,043
-654,101	213,426	0,070	0,080
-653,086	-200,000	0,019	0,090
-652,072	-44,690	-0,165	-0,059
-651,057	0,644	-0,100	-0,052
-650,043	491,217	0,058	-0,096
-649,028	149,781	-0,066	-0,064
-648,014	-97,805	0,089	0,017
-646,999	237,575	0,080	-0,096
-645,984	288,845	0,068	-0,089
-644,970	800,000	-0,024	0,060
-643,955	4,921	-0,097	-0,051
-642,941	-119,417	-0,205	0,025
-641,926	33,590	-0,063	-0,039
-640,911	800,000	-0,057	0,157
-639,897	128,703	0,095	0,087
-638,882	224,014	0,047	-0,055
-637,868	-69,997	-0,131	-0,036
-636,853	784,675	0,072	0,144
-635,838	-183,391	-0,097	-0,001
-634,824	760,647	0,024	-0,047
-633,809	-200,000	-0,017	0,160
-632,795	84,518	0,081	-0,064
-631,780	-34,592	0,152	-0,060
-630,765	-200,000	-0,053	-0,239
-629,751	48,719	-0,107	-0,072
-628,736	-104,191	0,139	0,023
-627,722	191,149	-0,092	-0,100
-626,707	-100,540	0,065	0,011
-625,692	195,743	-0,126	0,138
-624,678	800,000	0,024	0,051
-623,663	-200,000	0,017	-0,075
-622,649	-13,509	-0,138	0,064
-621,634	170,185	0,069	0,072
-620,619	206,905	0,043	-0,048
-619,605	139,381	-0,131	-0,125
-618,590	-200,000	-0,011	0,056
-617,576	196,699	0,024	-0,027
-616,561	-200,000	-0,013	0,110
-615,546	209,940	0,029	-0,033
-614,532	497,400	-0,037	-0,062
-613,517	-125,404	-0,112	-0,012
-612,503	-60,407	0,035	-0,011
-611,488	59,390	-0,057	-0,041
-610,474	204,617	-0,057	0,064
-609,459	307,699	0,071	0,095
-608,444	110,489	0,089	0,077
-607,430	-200,000	-0,031	-0,123
-606,415	139,390	-0,140	0,133
-605,401	38,582	0,036	-0,023
-604,386	-200,000	0,017	-0,064
-603,371	690,894	0,041	-0,078
-602,357	-42,393	0,033	-0,012
-601,342	-200,000	-0,003	-0,014
-600,328	315,189	0,029	-0,040
-599,313	18,854	-0,099	0,057
-598,298	-200,000	-0,008	0,102
-597,284	800,000	0,026	-0,060
-596,269	662,292	-0,067	0,126
-595,255	635,916	0,033	0,061
-594,240	-117,764	0,093	-0,012
-593,225	171,062	-0,070	-0,072
-592,211	61,549	-0,067	0,048
-591,196	327,869	-0,063	0,088
-590,182	-156,750	0,182	0,008
-589,167	-96,173	-0,064	0,012
-588,152	-40,547	-0,057	-0,021
-587,138	-140,941	0,154	0,011
-586,123	-136,018	-0,111	-0,009
-585,109	-200,000	-0,002	-0,031
-584,094	-66,446	0,154	-0,044
-583,079	518,699	-0,033	-0,056
-582,065	-147,139	0,127	0,008
-581,050	-200,000	0,018	0,063
-580,036	641,525	0,050	-0,092
-579,021	474,746	0,035	-0,058
-578,006	143,665	0,060	-0,057
-576,992	-147,711	-0,078	0,005
-575,977	800,000	0,047	-0,123
-574,963	-64,300	0,124	0,036
-573,948	16,846	0,053	0,030
-572,934	75,546	-0,087	-0,066
-571,919	81,325	-0,077	-0,060
-570,904	-200,000	-0,004	0,149
-569,890	800,000	0,035	-0,083
-568,875	268,487	0,028	0,035
-567,861	-200,000	0,025	-0,084
-566,846	464,331	-0,041	-0,066
-565,831	-200,000	-0,001	-0,114
-564,817	103,160	-0,050	-0,042
-563,802	128,758	0,046	-0,042
-562,788	-200,000	0,003	-0,023
-561,773	88,402	-0,136	-0,108
-560,758	-200,000	0,051	-0,175
-559,744	-23,909	-0,081	0,035
-558,729	-195,805	0,086	0,000
-557,715	579,573	-0,034	-0,060
-556,700	713,886	0,026	-0,049
-555,685	52,143	-0,065	0,044
-554,671	231,780	0,012	-0,014
-553,656	42,677	0,030	-0,019
-552,642	800,000	-0,028	0,068
-551,627	119,641	0,049	0,043
-550,612	10,212	-0,122	0,066
-549,598	-200,000	0,004	-0,092
-548,583	-66,621	-0,027	-0,008
-547,569	229,205	-0,091	0,107
-546,554	54,628	-0,012	-0,008
-545,539	-200,000	-0,052	0,186
-544,525	800,000	0,049	0,111
-543,510	-200,000	-0,031	-0,133
-542,496	-200,000	0,067	-0,219
-541,481	-109,863	0,116	0,017
-540,466	800,000	0,018	-0,046
-539,452	-100,203	0,047	0,008
-538,437	76,284	0,164	0,125
-537,423	800,000	0,023	0,050
-536,408	800,000	0,043	0,126
-535,393	269,442	-0,089	-0,112
-534,379	-200,000	-0,008	-0,093
-533,364	77,259	-0,128	-0,098
-532,350	261,443	-0,015	-0,018
-531,335	-200,000	-0,067	0,265
-530,321	800,000	-0,027	-0,057
-529,306	800,000	0,025	-0,059
-528,291	-53,286	-0,076	-0,025
-527,277	-83,188	-0,215	0,049
-526,262	-53,128	0,024	-0,008
-525,248	-200,000	-0,003	-0,217
-524,233	11,652	-0,026	-0,014
-523,218	800,000	-0,042	0,100
-522,204	-200,000	0,031	0,127
-521,189	-200,000	-0,001	0,066
-520,175	800,000	0,022	-0,056
-519,160	800,000	-0,027	-0,056
-518,145	-200,000	-0,002	-0,014
-517,131	-194,630	-0,088	0,000
-516,116	500,186	0,095	0,158
-515,102	105,902	0,017	-0,015
-514,087	-43,891	-0,148	0,053
-513,072	-150,215	0,038	0,002
-512,058	-200,000	-0,007	-0,109
-511,043	424,801	-0,032	-0,050
-510,029	123,744	0,014	-0,012
-509,014	-155,980	0,115	0,005
-507,999	-3,147	-0,056	-0,028
-506,985	125,186	-0,020	-0,018
-505,970	-64,357	-0,226	0,066
-504,956	123,769	0,092	-0,083
-503,941	-146,934	0,137	-0,008
-502,926	800,000	-0,020	0,052
-501,912	-34,471	-0,061	0,024
-500,897	-200,000	-0,004	0,114
-499,883	51,818	0,071	-0,048
-498,868	460,997	-0,023	-0,037
-497,853	-200,000	-0,009	-0,070
-496,839	-200,000	0,024	-0,136
-495,824	800,000	-0,035	0,086
-494,810	74,301	0,085	0,064
-493,795	92,765	0,125	-0,101
-492,781	296,034	0,056	-0,073
-491,766	378,921	-0,021	-0,031
-490,751	-97,985	-0,020	-0,004
-489,737	303,701	0,046	-0,062
-488,722	11,457	0,064	-0,035
-487,708	-67,377	-0,074	0,021
-486,693	171,270	-0,073	0,075
-485,678	70,846	-0,077	-0,057
-484,664	-200,000	-0,011	0,041
-483,649	-200,000	-0,029	0,129
-482,635	-88,656	0,059	-0,012
-481,620	-200,000	-0,020	0,098
-480,605	-116,988	0,200	-0,026
-479,591	800,000	0,050	0,140
-478,576	95,143	-0,107	-0,087
-477,562	800,000	-0,027	0,070
-476,547	89,923	-0,097	-0,078
-475,532	116,566	0,010	0,009
-474,518	-41,298	0,086	-0,032
-473,503	-81,777	0,148	-0,035
-472,489	48,708	-0,092	0,061
-471,474	-200,000	-0,002	-0,063
-470,459	291,093	0,129	-0,168
-469,445	-58,258	0,098	0,030
-468,430	225,761	-0,044	0,051
-467,416	54,481	0,158	0,109
-466,401	800,000	0,047	0,122
-465,386	-25,015	-0,041	0,017
-464,372	16,833	0,124	-0,070
-463,357	-79,698	-0,170	0,041
-462,343	-200,000	-0,005	-0,032
-461,328	766,947	-0,019	-0,038
-460,313	-200,000	-0,003	0,058
-459,299	-104,312	0,068	0,011
-458,284	113,836	0,047	-0,041
-457,270	185,503	0,073	-0,077
-456,255	-200,000	-0,080	-0,290
-455,241	54,629	-0,086	-0,059
-454,226	642,560	0,002	-0,004
-453,211	-200,000	0,001	0,010
-452,197	-82,572	0,091	-0,021
-451,182	-25,996	-0,076	0,032
-450,168	-149,432	-0,034	-0,002
-449,153	-200,000	0,043	0,152
-448,138	-56,277	-0,133	-0,042
-447,124	67,075	0,014	0,010
-446,109	-200,000	-0,009	-0,097
-445,095	800,000	-0,038	0,085
-444,080	-24,800	-0,067	0,028
-443,065	180,590	0,074	0,078
-442,051	-49,893	-0,057	-0,019
-441,036	800,000	-0,032	-0,101
-440,022	-6,003	-0,115	-0,056
-439,007	-200,000	-0,007	0,024
-437,992	-200,000	-0,007	0,112
-436,978	800,000	0,049	-0,121
-435,963	-98,717	-0,081	0,015
-434,949	-145,640	0,048	0,003
-433,934	97,257	0,082	-0,068
-432,919	-61,313	-0,046	0,014
-431,905	378,494	0,068	-0,100
-430,890	83,741	0,168	0,132
-429,876	-153,884	0,122	0,006
-428,861	800,000	0,035	0,081
-427,846	800,000	-0,020	-0,045
-426,832	-200,000	-0,024	-0,124
-425,817	-200,000	-0,007	-0,220
-424,803	-47,905	-0,102	-0,035
-423,788	46,687	0,030	-0,020
-422,773	61,593	0,079	-0,056
-421,759	-200,000	-0,004	0,041
-420,744	-4,336	0,115	0,057
-419,730	800,000	-0,022	0,064
-418,715	122,503	-0,107	-0,096
-417,701	-200,000	0,055	-0,204
-416,686	33,708	-0,075	-0,047
-415,671	-5,420	0,072	0,035
-414,657	-200,000	0,009	0,053
-413,642	140,069	-0,121	0,114
-412,628	682,354	0,009	0,017
-411,613	-200,000	-0,007	0,069
-410,598	-111,860	0,110	-0,016
-409,584	343,268	-0,065	-0,092
-408,569	25,331	-0,073	0,043
-407,555	92,530	0,080	-0,065
-406,540	-136,208	-0,160	-0,013
-405,525	-200,000	0,002	0,087
-404,511	-76,666	-0,159	-0,040
-403,496	800,000	-0,035	-0,076
-402,482	-122,249	0,134	0,016
-401,467	800,000	0,009	-0,022
-400,452	47,159	0,060	0,040
-399,438	116,113	0,026	0,023
-398,423	703,453	-0,079	-0,150
-397,409	543,682	0,022	-0,038
-396,394	198,068	0,043	-0,047
-395,379	11,377	-0,024	0,013
-394,365	259,191	-0,045	0,056
-393,350	800,000	0,053	0,156
-392,336	179,612	-0,096	0,101
-391,321	-70,683	-0,102	0,027
-390,306	-200,000	0,013	-0,090
-389,292	164,991	-0,019	0,019
-388,277	83,377	-0,106	0,082
-387,263	-80,880	0,117	-0,028
-386,248	194,212	0,065	0,071
-385,233	-75,355	0,041	-0,010
-384,219	-200,000	-0,003	-0,059
-383,204	-200,000	-0,004	-0,017
-382,190	-6,321	0,053	0,026
-381,175	413,846	-0,049	0,074
-380,160	192,727	0,037	0,040
-379,146	800,000	0,010	0,023
-378,131	-7,217	0,139	0,067
-377,117	5,494	0,003	0,002
-376,102	284,926	-0,070	0,090
-375,088	-152,684	-0,120	-0,006
-374,073	-112,649	0,084	0,012
-373,058	-200,000	0,006	0,058
-372,044	-62,140	-0,092	-0,027
-371,029	478,100	-0,006	-0,009
-370,015	-65,086	0,105	-0,030
-369,000	-46,459	0,003	0,001
-367,985	20,515	0,103	0,060
-366,971	-42,534	-0,106	0,038
-365,956	-149,658	0,074	-0,004
-364,942	14,584	0,087	0,049
-363,927	52,529	-0,105	0,072
-362,912	800,000	0,047	-0,096
-361,898	-113,999	-0,043	-0,006
-360,883	800,000	-0,042	-0,110
-359,869	-45,239	-0,094	0,033
-358,854	-144,379	0,027	0,002
-357,839	-77,107	0,024	0,006
-356,825	-200,000	0,008	0,124
-355,810	-200,000	0,033	0,114
-354,796	-1,840	-0,136	0,068
-353,781	94,393	-0,031	0,025
-352,766	-184,075	-0,098	-0,001
-351,752	-165,415	0,032	-0,001
-350,737	2,286	0,122	0,063
-349,723	47,805	-0,043	-0,028
-348,708	800,000	-0,052	-0,161
-347,693	131,277	0,074	-0,068
-346,679	-111,125	-0,160	0,023
-345,664	-200,000	0,048	-0,185
-344,650	-200,000	0,012	0,109
-343,635	-43,893	-0,076	-0,027
-342,620	800,000	-0,016	0,042
-341,606	-200,000	-0,021	0,117
-340,591	177,729	0,068	-0,070
-339,577	309,362	-0,085	-0,113
-338,562	-65,093	0,103	0,029
-337,548	-14,149	0,106	0,049
-336,533	-4,505	0,123	0,061
-335,518	493,155	0,051	-0,084
-334,504	-200,000	-0,003	0,053
-333,489	7,281	0,039	0,021
-332,475	-200,000	-0,025	-0,203
-331,460	-200,000	-0,035	0,126
-330,445	167,086	0,071	-0,072
-329,431	-102,227	-0,077	-0,013
-328,416	-115,640	0,146	0,019
-327,402	-72,877	0,084	-0,022
-326,387	-110,243	0,066	-0,010
-325,372	-16,320	-0,078	-0,035
-324,358	-200,000	0,050	-0,163
-323,343	-200,000	-0,004	-0,053
-322,329	87,973	0,133	0,105
-321,314	-200,000	-0,007	0,071
-320,299	-200,000	-0,053	0,167
-319,285	-200,000	-0,008	-0,055
-318,270	237,305	-0,071	-0,084
-317,256	-74,129	-0,125	-0,032
-316,241	112,003	-0,030	-0,026
-315,226	-92,284	0,102	-0,020
-314,212	800,000	0,036	0,097
-313,197	-200,000	0,008	0,091
-312,183	-8,043	-0,156	0,075
-311,168	-200,000	0,017	-0,107
-310,153	381,353	0,029	-0,043
-309,139	-200,000	0,017	0,136
-308,124	800,000	0,033	0,077
-307,110	26,543	-0,076	0,045
-306,095	42,584	0,097	-0,063
-305,080	-77,007	-0,059	-0,014
-304,066	-200,000	-0,005	-0,069
-303,051	688,934	0,040	-0,075
-302,037	22,481	0,069	-0,040
-301,022	800,000	-0,054	-0,107
-300,008	-86,847	0,072	-0,016
-298,993	90,985	-0,031	0,025
-297,978	213,631	0,088	0,099
-296,964	563,392	-0,010	0,017
-295,949	-123,566	-0,199	0,022
-294,935	-200,000	0,006	0,039
-293,920	-200,000	0,006	-0,026
-292,905	430,358	0,079	-0,123
-291,891	26,009	0,051	0,031
-290,876	59,893	0,029	-0,021
-289,862	-200,000	0,016	0,115
-288,847	-14,592	-0,137	-0,062
-287,832	-130,292	-0,200	-0,019
-286,818	-14,555	0,025	0,012
-285,803	-9,808	-0,086	0,041
-284,789	-12,664	0,153	-0,071
-283,774	-80,094	0,141	0,034
-282,759	-200,000	-0,001	0,083
-281,745	800,000	-0,033	0,075
-280,730	271,936	-0,057	-0,072
-279,716	94,899	0,026	-0,021
-278,701	-29,683	-0,032	-0,013
-277,686	-200,000	-0,015	0,067
-276,672	182,779	0,057	0,060
-275,657	-200,000	-0,006	-0,042
-274,643	-200,000	0,039	-0,243
-273,628	-45,862	-0,159	-0,055
-272,613	423,857	-0,054	-0,083
-271,599	202,472	-0,035	-0,039
-270,584	23,751	0,061	0,036
-269,570	169,352	-0,080	0,081
-268,555	-200,000	0,004	-0,038
-267,540	294,186	0,038	0,049
-266,526	99,163	-0,106	-0,087
-265,511	800,000	0,024	-0,050
-264,497	-98,897	0,060	-0,011
-263,482	28,616	0,053	0,032
-262,467	648,636	-0,084	0,153
-261,453	5,368	0,089	0,047
-260,438	6,682	-0,129	0,068
-259,424	-20,779	-0,067	0,029
-258,409	130,681	-0,053	0,048
-257,395	-200,000	0,015	0,061
-256,380	39,967	-0,028	0,018
-255,365	800,000	-0,027	-0,070
-254,351	546,083	0,050	0,085
-253,336	437,771	-0,062	0,097
-252,322	-40,642	-0,043	-0,016
-251,307	-200,000	-0,039	-0,132
-250,292	800,000	-0,030	-0,071
-249,278	-200,000	0,003	0,114
-248,263	-200,000	0,002	0,038
-247,249	76,254	-0,148	0,111
-246,234	-110,623	-0,202	-0,029
-245,219	-73,704	-0,063	-0,016
-244,205	-200,000	0,010	0,098
-243,190	-51,876	0,123	-0,040
-242,176	800,000	0,027	0,063
-241,161	122,903	0,128	0,114
-240,146	225,426	-0,125	0,144
-239,132	109,729	0,083	-0,071
-238,117	-200,000	-0,039	-0,159
-237,103	-200,000	-0,010	0,053
-236,088	-106,754	0,063	-0,010
-235,073	-48,072	0,122	0,042
-234,059	8,266	0,099	-0,053
-233,044	-164,120	-0,059	0,002
-232,030	61,686	-0,101	0,071
-231,015	387,002	-0,069	-0,102
-230,000	191,290	-0,035	0,038
-228,986	-144,207	-0,074	0,005
-227,971	-103,156	-0,045	-0,007
-226,957	291,517	0,058	0,076
-225,942	-17,263	0,099	-0,044
-224,927	271,124	0,022	0,027
-223,913	-200,000	-0,020	0,089
-222,898	800,000	0,024	0,050
-221,884	610,178	0,024	0,042
-220,869	-200,000	0,029	0,112
-219,855	-2,750	0,050	0,025
-218,840	-200,000	-0,002	0,100
-217,825	-113,234	0,031	-0,004
-216,811	-200,000	0,008	-0,105
-215,796	-115,405	0,104	-0,014
-214,782	1,219	0,220	-0,112
-213,767	-67,716	0,072	-0,020
-212,752	281,657	-0,076	0,097
-211,738	-200,000	0,030	0,136
-210,723	1,368	-0,044	-0,023
-209,709	541,739	0,110	-0,186
-208,694	216,180	-0,041	-0,047
-207,679	294,196	-0,058	-0,075
-206,665	124,590	-0,049	0,044
-205,650	109,201	0,076	0,065
-204,636	79,702	-0,020	0,016
-203,621	-200,000	-0,004	0,024
-202,606	-200,000	-0,015	-0,049
-201,592	154,762	-0,057	-0,056
-200,577	199,600	0,069	0,076
-199,563	154,429	0,046	-0,044
-198,548	228,439	-0,042	0,049
-197,533	-100,071	0,064	0,011
-196,519	72,485	0,080	0,059
-195,504	800,000	0,030	0,077
-194,490	800,000	0,030	0,062
-193,475	577,521	-0,027	0,048
-192,460	800,000	0,102	0,206
-191,446	800,000	-0,006	-0,016
-190,431	140,633	0,126	0,119
-189,417	210,565	0,081	-0,091
-188,402	2,769	0,121	-0,062
-187,387	3,074	-0,070	0,036
-186,373	349,439	-0,131	-0,183
-185,358	-174,187	-0,123	0,002
-184,344	-200,000	-0,003	-0,035
-183,329	-200,000	0,028	0,114
-182,315	-200,000	-0,014	0,122
-181,300	-121,760	0,114	-0,013
-180,285	-200,000	0,001	0,014
-179,271	-200,000	0,006	0,122
-178,256	-34,972	0,170	0,066
-177,242	19,708	-0,055	0,031
-176,227	-107,114	0,077	-0,012
-175,212	-79,918	0,157	0,037
-174,198	2,327	-0,068	0,035
-173,183	-33,106	0,054	-0,021
-172,169	557,986	0,026	-0,045
-171,154	41,945	0,028	-0,018
-170,139	-106,008	-0,159	-0,025
-169,125	-9,275	0,057	-0,027
-168,110	139,919	-0,065	-0,061
-167,096	-39,066	0,052	-0,019
-166,081	570,789	-0,023	0,040
-165,066	7,617	-0,094	-0,050
-164,052	-172,941	-0,078	-0,002
-163,037	-62,587	0,102	-0,030
-162,023	241,135	-0,059	0,069
-161,008	-200,000	0,001	0,078
-159,993	45,828	-0,150	0,098
-158,979	138,668	0,038	0,036
-157,964	-200,000	-0,014	-0,175
-156,950	254,362	0,084	-0,102
-155,935	-71,334	-0,093	0,024
-154,920	86,121	-0,009	0,007
-153,906	-200,000	0,006	-0,069
-152,891	-20,165	-0,064	-0,028
-151,877	-100,204	-0,044	0,008
-150,862	371,890	0,051	-0,074
-149,847	-200,000	0,030	0,104
-148,833	27,184	0,075	0,045
-147,818	800,000	0,046	0,097
-146,804	-61,342	0,082	-0,024
-145,789	138,476	-0,098	-0,091
-144,775	163,160	-0,075	-0,075
-143,760	358,071	0,073	0,103
-142,745	-200,000	-0,018	-0,112
-141,731	-200,000	0,031	-0,134
-140,716	-171,007	-0,018	-0,000
-139,702	800,000	-0,059	0,156
-138,687	-200,000	-0,015	0,141
-137,672	215,452	0,053	-0,059
-136,658	800,000	-0,048	-0,109
-135,643	-18,275	0,099	-0,044
-134,629	-200,000	-0,014	0,070
-133,614	-200,000	-0,016	-0,079
-132,599	233,776	0,119	0,139
-131,585	-200,000	0,013	-0,065
-130,570	19,447	-0,101	0,057
-129,556	800,000	0,053	0,150
-128,541	104,124	0,079	-0,066
-127,526	-200,000	-0,015	-0,049
-126,512	345,446	-0,038	0,054
-125,497	800,000	-0,013	0,028
-124,483	-200,000	0,010	0,040
-123,468	225,082	-0,047	-0,054
-122,453	-200,000	0,005	-0,069
-121,439	-102,210	-0,111	0,019
-120,424	-13,806	0,089	0,040
-119,410	-20,106	-0,076	-0,033
-118,395	16,885	0,278	0,155
-117,380	-170,920	-0,052	0,001
-116,366	-200,000	-0,021	-0,070
-115,351	-200,000	0,001	0,029
-114,337	126,903	-0,049	-0,044
-113,322	27,045	0,114	-0,067
-112,307	-156,677	0,259	-0,011
-111,293	-200,000	0,031	-0,121
-110,278	-12,005	0,084	0,039
-109,264	710,106	-0,019	0,035
-108,249	-106,302	0,050	-0,008
-107,234	-58,048	-0,130	-0,040
-106,220	-89,069	-0,123	-0,026
-105,205	-63,815	0,138	-0,040
-104,191	122,674	-0,060	0,053
-103,176	4,124	0,123	0,064
-102,162	699,914	-0,061	0,113
-101,147	-200,000	-0,018	-0,116
-100,132	116,737	0,007	-0,006
-99,118	93,171	-0,090	0,072
-98,103	289,920	0,088	0,113
-97,089	76,743	0,077	-0,058
-96,074	-200,000	0,018	0,097
-95,059	-65,374	0,102	0,029
-94,045	19,236	-0,028	0,016
-93,030	0,245	-0,064	-0,032
-92,016	48,882	-0,035	-0,023
-91,001	102,136	-0,058	0,048
-89,986	102,924	0,058	0,048
-88,972	4,491	-0,046	-0,024
-87,957	-200,000	-0,008	0,055
-86,943	-109,707	-0,192	0,028
-85,928	377,311	-0,045	0,065
-84,913	460,165	-0,024	-0,038
-83,899	-74,639	0,184	0,046
-82,884	-200,000	-0,006	-0,063
-81,870	126,158	0,100	0,090
-80,855	76,583	0,103	0,077
-79,840	-115,007	-0,107	0,014
-78,826	-64,898	0,118	-0,034
-77,811	-24,221	-0,149	0,063
-76,797	-200,000	-0,014	-0,164
-75,782	32,243	0,123	-0,075
-74,767	182,128	0,072	-0,075
-73,753	-105,438	0,079	0,013
-72,738	-69,571	-0,140	0,038
-71,724	-200,000	-0,010	0,060
-70,709	-173,962	-0,141	0,003
-69,694	183,247	0,042	0,044
-68,680	-128,730	0,055	0,005
-67,665	-125,567	0,075	0,008
-66,651	-200,000	-0,022	0,142
-65,636	-200,000	0,026	0,130
-64,622	23,418	-0,019	0,011
-63,607	120,882	0,063	0,056
-62,592	800,000	0,011	0,022
-61,578	25,783	-0,058	0,034
-60,563	231,311	0,189	0,219
-59,549	756,397	-0,124	0,238
-58,534	30,947	-1,864	-1,125
-57,519	551,359	-1,228	-2,090
-56,505	-200,000	-0,336	-4,411
-55,490	561,886	0,900	1,542
-54,476	800,000	5,048	11,137
-53,461	-200,000	20,921	329,914
-52,446	800,000	757,696	2324,363
-51,432	549,817	1662,467	2824,931
-50,417	73,379	1664,012	1228,019
-49,403	18,645	1537,122	865,737
-48,388	12,651	1460,040	793,312
-47,373	19,053	1450,664	818,931
-46,359	15,799	1440,077	797,433
-45,344	10,931	1435,758	771,818
-44,330	10,866	1434,080	770,578
-43,315	10,851	1432,097	769,412
-42,300	10,842	1430,383	768,414
-41,286	10,870	1429,010	767,778
-40,271	10,803	1427,791	766,779
-39,257	10,853	1426,431	766,254
-38,242	10,870	1425,532	765,822
-37,227	10,887	1424,464	765,298
-36,213	10,903	1423,099	764,610
-35,198	10,845	1422,174	763,805
-34,184	10,909	1421,154	763,531
-33,169	10,870	1419,808	762,592
-32,154	10,961	1418,653	762,374
-31,140	10,912	1417,379	761,425
-30,125	10,983	1416,461	761,240
-29,111	10,988	1415,161	760,532
-28,096	10,903	1414,158	759,566
-27,082	10,834	1413,053	758,616
-26,067	10,842	1411,970	758,043
-25,052	10,853	1410,850	757,465
-24,038	10,837	1409,848	756,818
-23,023	10,815	1408,969	756,215
-22,009	10,889	1407,803	755,905
-20,994	10,847	1406,794	755,136
-19,979	10,791	1405,905	754,369
-18,965	10,809	1404,935	753,900
-17,950	10,779	1404,166	753,318
-16,936	10,758	1403,188	752,667
-15,921	10,718	1402,271	751,959
-14,906	10,742	1401,298	751,518
-13,892	10,753	1400,457	751,089
-12,877	10,786	1399,477	750,685
-11,863	10,763	1398,746	750,156
-10,848	10,722	1397,876	749,471
-9,833	10,659	1397,240	748,809
-8,819	10,684	1395,958	748,207
-7,804	10,649	1395,139	747,578
-6,790	10,649	1394,240	747,064
-5,775	10,695	1393,251	746,718
-4,760	10,733	1392,058	746,223
-3,746	10,646	1391,296	745,386
-2,731	10,606	1390,507	744,746
-1,717	10,644	1389,572	744,393
-0,702	10,600	1387,875	743,250
0,313	14,641	1301,413	715,458
1,327	30,873	692,623	417,683
2,342	47,763	120,173	79,004
3,356	-0,410	16,478	8,230
4,371	4,060	3,310	1,703
5,386	-9,858	0,912	0,427
6,400	800,000	0,197	0,532
7,415	-18,215	-0,292	-0,128
8,429	-21,710	-0,326	-0,139
9,444	-28,875	-0,294	-0,119
10,459	12,521	-0,283	-0,154
11,473	289,047	-0,224	-0,287
12,488	-142,103	-0,245	-0,017
13,502	-169,950	-0,245	-0,006
14,517	-8,167	-0,300	-0,142
15,531	161,821	-0,379	-0,374
16,546	-28,049	-0,398	-0,162
17,561	63,013	-0,321	-0,226
18,575	21,533	-0,117	-0,067
19,590	48,242	-0,270	-0,177
20,604	-98,577	-0,299	-0,053
21,619	54,225	-0,453	-0,307
22,634	240,347	-0,421	-0,496
23,648	151,486	-0,360	-0,346
24,663	209,396	-0,293	-0,323
25,677	227,402	-0,220	-0,252
26,692	234,606	-0,267	-0,311
27,707	289,383	-0,282	-0,360
28,721	23,383	-0,373	-0,215
29,736	-38,564	-0,550	-0,203
30,750	82,513	-0,494	-0,377
31,765	227,996	-0,218	-0,250
32,780	-90,129	-0,342	-0,069
33,794	65,627	-0,286	-0,203
34,809	74,420	-0,332	-0,246
35,823	52,624	-0,358	-0,240
36,838	91,746	-0,371	-0,294
37,853	104,673	-0,376	-0,312
38,867	562,210	-0,206	-0,352
39,882	-4,271	-0,329	-0,159
40,896	-73,483	-0,370	-0,094
41,911	49,118	-0,322	-0,212
42,926	63,860	-0,443	-0,313
43,940	28,553	-0,376	-0,223
44,955	97,037	-0,292	-0,236
45,969	2,154	-0,382	-0,193
46,984	78,940	-0,338	-0,254
47,999	54,467	-0,334	-0,226
49,013	-123,796	-0,360	-0,039
50,028	143,502	-0,259	-0,243
51,042	98,420	-0,249	-0,201
52,057	308,066	-0,294	-0,386
53,071	88,271	-0,464	-0,361
54,086	2,856	-0,294	-0,150
55,101	285,214	-0,229	-0,291
56,115	47,524	-0,446	-0,292
57,130	12,164	-0,243	-0,131
58,144	-60,338	-0,362	-0,107
59,159	148,005	-0,361	-0,342
60,174	21,057	-0,335	-0,190
61,188	-63,399	-0,227	-0,065
62,203	-48,349	-0,352	-0,118
63,217	-36,815	-0,258	-0,097
64,232	186,593	-0,279	-0,292
65,247	102,642	-0,339	-0,278
66,261	205,941	-0,331	-0,361
67,276	160,596	-0,333	-0,326
68,290	113,066	-0,266	-0,226
69,305	100,555	-0,297	-0,242
70,320	-2,194	-0,352	-0,173
71,334	76,931	-0,262	-0,195
72,349	-73,249	-0,476	-0,121
73,363	-30,222	-0,473	-0,188
74,378	-4,106	-0,309	-0,150
75,393	-106,717	-0,393	-0,061
76,407	-12,155	-0,405	-0,185
77,422	1,700	-0,229	-0,115
78,436	66,059	-0,350	-0,249
79,451	35,235	-0,299	-0,184
80,466	-33,969	-0,350	-0,134
81,480	80,354	-0,263	-0,199
82,495	-37,929	-0,444	-0,164
83,509	-2,719	-0,224	-0,109
84,524	-88,490	-0,331	-0,069
85,539	-14,344	-0,203	-0,091
86,553	-144,020	-0,172	-0,011
87,568	-20,905	-0,264	-0,113
88,582	-44,107	-0,327	-0,114
89,597	75,661	-0,228	-0,168
90,611	67,102	-0,325	-0,232
91,626	17,015	-0,295	-0,163
92,641	156,140	-0,252	-0,243
93,655	5,862	-0,278	-0,144
94,670	173,626	-0,216	-0,219
95,684	23,651	-0,277	-0,159
96,699	-57,235	-0,290	-0,089
97,714	81,073	-0,284	-0,214
98,728	42,943	-0,364	-0,232
99,743	47,092	-0,206	-0,134
100,757	23,862	-0,307	-0,177
101,772	21,670	-0,323	-0,183
102,787	44,647	-0,341	-0,219
103,801	28,143	-0,359	-0,211
104,816	293,523	-0,212	-0,271
105,830	164,200	-0,272	-0,268
106,845	72,327	-0,234	-0,171
107,860	-13,808	-0,351	-0,158
108,874	45,215	-0,258	-0,166
109,889	14,187	-0,308	-0,167
110,903	22,269	-0,259	-0,148
111,918	158,035	-0,240	-0,232
112,933	192,239	-0,253	-0,267
113,947	-38,495	-0,265	-0,097
114,962	18,854	-0,267	-0,149
115,976	-50,828	-0,340	-0,111
116,991	-45,879	-0,283	-0,097
118,006	395,755	-0,135	-0,197
119,020	74,086	-0,221	-0,162
120,035	141,195	-0,154	-0,142
121,049	85,974	-0,179	-0,138
122,064	-50,793	-0,253	-0,083
123,079	98,124	-0,323	-0,260
124,093	48,897	-0,284	-0,186
125,108	35,004	-0,231	-0,141
126,122	-29,000	-0,332	-0,133
127,137	288,785	-0,180	-0,228
128,151	-44,571	-0,244	-0,084
129,166	127,298	-0,262	-0,232
130,181	83,701	-0,313	-0,238
131,195	23,268	-0,303	-0,173
132,210	682,296	-0,160	-0,292
133,224	244,973	-0,197	-0,231
134,239	190,039	-0,212	-0,222
135,254	-87,870	-0,230	-0,048
136,268	110,264	-0,194	-0,162
137,283	-13,337	-0,232	-0,105
138,297	45,737	-0,268	-0,172
139,312	162,996	-0,274	-0,268
140,327	36,465	-0,455	-0,279
141,341	6,257	-0,229	-0,118
142,356	-84,307	-0,274	-0,060
143,370	45,806	-0,271	-0,175
144,385	-143,008	-0,300	0,020
145,400	90,925	-0,211	-0,164
146,414	91,351	-0,259	-0,203
147,429	77,959	-0,306	-0,227
148,443	398,434	-0,185	-0,270
149,458	-79,128	-0,230	-0,054
150,473	19,422	-0,276	-0,154
151,487	-23,264	-0,260	-0,109
152,502	132,929	-0,192	-0,173
153,516	14,070	-0,405	-0,219
154,531	214,806	-0,228	-0,252
155,546	-35,267	-0,327	-0,123
156,560	46,651	-0,168	-0,109
157,575	260,024	-0,196	-0,237
158,589	800,000	-0,088	-0,252
159,604	218,056	-0,190	-0,211
160,619	326,963	-0,192	-0,257
161,633	-64,594	-0,263	-0,074
162,648	204,922	-0,254	-0,274
163,662	32,446	-0,249	-0,149
164,677	185,077	-0,136	-0,140
165,692	-135,735	-0,221	-0,018
166,706	332,220	-0,200	-0,270
167,721	466,467	-0,140	-0,219
168,735	229,528	-0,184	-0,209
169,750	-70,260	-0,322	-0,084
170,764	-31,645	-0,176	-0,068
171,779	-67,887	-0,165	-0,044
172,794	118,841	-0,124	-0,107
173,808	47,974	-0,220	-0,142
174,823	332,076	-0,171	-0,231
175,837	-30,904	-0,284	-0,111
176,852	94,863	-0,311	-0,246
177,867	420,135	-0,129	-0,192
178,881	35,676	-0,233	-0,142
179,896	1,237	-0,248	-0,123
180,910	194,169	-0,159	-0,167
181,925	-44,586	-0,183	-0,063
182,940	31,649	-0,173	-0,103
183,954	375,911	-0,092	-0,131
184,969	97,860	-0,290	-0,231
185,983	404,842	-0,101	-0,148
186,998	58,545	-0,112	-0,076
188,013	208,701	-0,225	-0,245
189,027	173,078	-0,211	-0,211
190,042	197,213	-0,280	-0,297
191,056	71,862	-0,280	-0,202
192,071	-200,000	-0,055	-0,232
193,086	18,804	-0,172	-0,096
194,100	-172,173	-0,144	-0,003
195,115	8,018	-0,237	-0,123
196,129	41,896	-0,209	-0,131
197,144	-9,212	-0,334	-0,154
198,159	40,945	-0,213	-0,133
199,173	800,000	-0,104	-0,200
200,188	-53,972	-0,212	-0,067
201,202	180,955	-0,137	-0,140
202,217	66,613	-0,112	-0,079
203,232	76,808	-0,387	-0,284
204,246	-47,129	-0,339	-0,114
205,261	284,873	-0,152	-0,190
206,275	480,412	-0,084	-0,132
207,290	11,219	-0,232	-0,122
208,304	94,208	-0,251	-0,197
209,319	138,992	0,016	-0,014
210,334	516,442	-0,114	-0,185
211,348	73,870	-0,104	0,076
212,363	-42,456	-0,237	-0,083
213,377	103,342	-0,170	-0,138
214,392	-121,133	-0,188	-0,022
215,407	49,492	-0,168	-0,110
216,421	185,899	-0,117	-0,120
217,436	-30,737	-0,279	-0,109
218,450	114,622	-0,162	-0,137
219,465	625,903	-0,131	-0,231
220,480	179,454	-0,191	-0,194
221,494	200,869	-0,084	-0,090
222,509	-2,349	-0,204	-0,099
223,523	321,693	-0,181	-0,239
224,538	41,674	-0,139	-0,087
225,553	72,485	-0,285	-0,206
226,567	14,373	-0,149	-0,080
227,582	31,173	-0,269	-0,160
228,596	139,905	-0,161	-0,147
229,611	-188,270	-0,196	-0,002
230,626	-18,544	-0,189	-0,081
231,640	412,408	-0,133	-0,196
232,655	-3,928	-0,199	-0,095
233,669	-9,888	-0,279	-0,128
234,684	39,523	-0,313	-0,194
235,699	42,533	-0,163	-0,102
236,713	65,018	-0,269	-0,188
237,728	-113,488	-0,240	-0,032
238,742	33,024	-0,211	-0,126
239,757	-81,190	-0,231	-0,052
240,772	18,364	-0,225	-0,124
241,786	183,557	-0,149	-0,152
242,801	-88,004	-0,240	0,049
243,815	-26,967	-0,179	-0,072
244,830	291,496	-0,120	-0,152
245,844	620,479	-0,085	-0,149
246,859	-35,714	-0,291	-0,109
247,874	-200,000	-0,039	-0,129
248,888	-105,658	-0,177	0,027
249,903	45,647	-0,147	-0,094
250,917	-74,944	-0,206	0,051
251,932	66,722	-0,222	-0,155
252,947	15,084	-0,179	-0,096
253,961	262,247	-0,115	-0,137
254,976	556,935	-0,095	-0,159
255,990	81,440	-0,103	-0,076
257,005	-0,825	-0,153	-0,075
258,020	504,987	-0,132	-0,211
259,034	358,874	-0,104	-0,144
260,049	587,899	-0,059	-0,100
261,063	-4,014	-0,257	-0,123
262,078	141,115	-0,149	-0,136
263,093	-81,952	-0,112	-0,025
264,107	93,161	-0,136	-0,106
265,122	-98,275	-0,307	-0,054
266,136	800,000	-0,067	-0,193
267,151	-8,555	-0,202	-0,093
268,166	286,810	-0,151	-0,188
269,180	-61,567	-0,174	-0,050
270,195	-60,753	-0,207	-0,060
271,209	800,000	-0,077	-0,161
272,224	-115,982	-0,187	-0,024
273,239	40,356	-0,071	-0,044
274,253	95,014	-0,111	-0,087
275,268	-200,000	-0,030	-0,185
276,282	90,999	-0,199	-0,153
277,297	54,316	-0,181	-0,120
278,312	-2,092	-0,101	0,049
279,326	-85,813	-0,200	-0,042
280,341	93,818	-0,161	-0,126
281,355	-20,407	-0,165	-0,069
282,370	688,062	-0,101	-0,182
283,384	241,377	-0,177	-0,204
284,399	146,328	-0,250	-0,231
285,414	223,955	-0,182	-0,202
286,428	-200,000	-0,011	-0,108
287,443	87,438	-0,136	-0,103
288,457	523,589	-0,080	-0,131
289,472	174,235	-0,158	-0,157
290,487	84,604	-0,226	-0,170
291,501	32,552	-0,177	-0,105
292,516	591,209	-0,117	-0,199
293,530	713,115	-0,089	-0,162
294,545	-200,000	-0,031	-0,146
295,560	50,525	-0,146	-0,095
296,574	621,678	-0,085	-0,148
297,589	257,142	-0,226	-0,268
298,603	53,784	-0,206	-0,136
299,618	17,153	-0,168	-0,092
300,633	-126,944	-0,178	-0,018
301,647	338,392	-0,100	-0,135
302,662	-14,100	-0,040	-0,018
303,676	324,974	-0,162	-0,213
304,691	183,589	-0,147	-0,150
305,706	98,410	-0,102	0,080
306,720	-6,179	-0,229	-0,107
307,735	126,137	-0,117	0,102
308,749	-12,351	-0,117	0,053
309,764	-37,484	-0,100	-0,036
310,779	-27,836	-0,222	-0,088
311,793	177,659	-0,240	-0,240
312,808	800,000	0,013	0,025
313,822	223,642	-0,134	-0,149
314,837	-44,027	-0,153	-0,052
315,852	-100,628	-0,133	0,022
316,866	406,250	-0,062	-0,090
317,881	163,555	-0,089	-0,086
318,895	129,744	-0,172	-0,151
319,910	-142,526	-0,192	0,013
320,925	-7,256	-0,213	-0,099
321,939	-48,934	-0,062	0,020
322,954	-31,882	-0,176	-0,067
323,968	73,922	-0,193	-0,139
324,983	305,520	-0,072	-0,092
325,997	248,830	-0,097	-0,113
327,012	125,506	-0,160	-0,138
328,027	800,000	-0,082	-0,203
329,041	443,230	-0,093	-0,140
330,056	14,671	-0,096	-0,052
331,070	-92,653	-0,069	-0,013
332,085	-200,000	0,007	-0,044
333,100	-200,000	-0,026	-0,089
334,114	-91,121	-0,140	-0,027
335,129	777,637	-0,112	-0,210
336,143	88,789	-0,212	-0,162
337,158	112,416	-0,081	-0,067
338,173	-102,406	-0,132	-0,021
339,187	70,642	-0,095	-0,067
340,202	-58,154	-0,121	-0,036
341,216	-100,389	-0,211	-0,035
342,231	276,297	-0,204	-0,248
343,246	-200,000	-0,026	-0,190
344,260	51,202	-0,161	-0,104
345,275	142,516	-0,018	0,016
346,289	303,151	-0,085	-0,109
347,304	-143,405	-0,147	-0,009
348,319	244,021	-0,150	-0,173
349,333	385,424	-0,145	-0,205
350,348	162,534	-0,126	-0,121
351,362	399,203	-0,048	-0,069
352,377	113,012	-0,145	-0,120
353,392	33,310	-0,175	-0,104
354,406	131,998	-0,106	-0,094
355,421	206,457	1309,315	1396,146
356,435	158,786	1469,351	1396,644
