DTS Sentinel unit serial number:	SN410029Multiplexer serial number:	ORYXHardware model number:	OX2-SRSoftware version number:	ORYX F/W v4,00 Oryx Data Collector v3.7.2.0data status	okinstallation	B3 Nyhavnadifferential loss correction	single-endedforward channel	channel 1reverse channel	N/Adate	2023/11/29time	20:27:30forward acquisition time	300,00reverse acquisition time	0,00gamma	499,1914k internal	0,3210k external	0,3210temperature offset calibration	1,0000default loss term (dB/km)	0,3820temperature slope calibration	1,0000multiplexer offset coefficient	1,0000multiplexer slope coefficient	1,0000fibre end	0,00T internal ref (°C)	10,86T ext. ref 1 (°C)	-4,31T ext. ref 2 (°C)	-4,39length (m)	temperature (°C)	Stokes	anti-Stokes-744,400	800,000	-0,116	-0,285
-743,385	237,236	-0,092	0,110
-742,371	73,365	-0,233	-0,177
-741,356	-200,000	0,091	0,356
-740,342	800,000	-0,083	-0,182
-739,327	-200,000	-0,007	0,270
-738,312	738,951	-0,214	-0,418
-737,298	800,000	0,078	0,239
-736,283	800,000	-0,133	-0,289
-735,269	-200,000	0,101	0,389
-734,254	-69,823	-0,405	-0,111
-733,239	60,578	-0,192	0,138
-732,225	254,089	-0,112	-0,139
-731,210	800,000	0,050	0,129
-730,196	66,770	-0,086	0,063
-729,181	-30,768	-0,042	0,017
-728,167	-200,000	-0,011	-0,073
-727,152	485,476	0,083	-0,138
-726,137	84,026	-0,079	-0,062
-725,123	-57,532	-0,070	-0,022
-724,108	800,000	-0,123	-0,255
-723,094	-200,000	0,001	0,042
-722,079	800,000	0,024	-0,074
-721,064	8,465	-0,109	-0,059
-720,050	158,135	-0,047	-0,047
-719,035	800,000	0,071	0,182
-718,021	84,863	0,046	0,037
-717,006	-200,000	-0,091	-0,309
-715,991	125,458	-0,155	-0,141
-714,977	302,921	-0,175	-0,235
-713,962	339,908	0,125	-0,177
-712,948	-113,248	0,049	-0,007
-711,933	328,762	-0,071	-0,098
-710,918	-151,361	-0,123	-0,007
-709,904	-200,000	-0,000	-0,164
-708,889	93,748	-0,052	-0,043
-707,875	243,248	-0,040	0,049
-706,860	-150,722	-0,146	-0,008
-705,845	-54,336	-0,039	0,013
-704,831	-200,000	-0,006	0,024
-703,816	-200,000	0,012	-0,058
-702,802	74,749	0,117	-0,089
-701,787	496,316	-0,095	-0,158
-700,772	-66,487	0,032	0,009
-699,758	-200,000	-0,021	0,131
-698,743	13,165	0,050	0,028
-697,729	199,682	0,018	-0,020
-696,714	-27,436	-0,039	0,016
-695,699	-200,000	0,014	-0,080
-694,685	15,478	-0,091	-0,052
-693,670	227,269	-0,093	-0,110
-692,656	-200,000	0,004	0,175
-691,641	-200,000	-0,008	-0,058
-690,627	800,000	-0,031	-0,077
-689,612	-200,000	-0,017	-0,119
-688,597	98,160	0,082	0,068
-687,583	35,223	-0,083	-0,053
-686,568	165,140	-0,036	-0,037
-685,554	3,318	-0,016	0,008
-684,539	-200,000	0,022	0,130
-683,524	-95,438	0,100	-0,019
-682,510	-200,000	-0,002	-0,055
-681,495	-200,000	-0,010	0,118
-680,481	-74,375	-0,196	-0,051
-679,466	283,900	-0,073	-0,095
-678,451	321,918	-0,105	-0,145
-677,437	-95,847	0,089	0,017
-676,422	800,000	0,012	0,037
-675,408	-166,756	-0,164	0,005
-674,393	-200,000	-0,015	0,117
-673,378	-200,000	0,009	-0,121
-672,364	-200,000	0,001	-0,147
-671,349	146,515	-0,073	0,071
-670,335	71,229	0,048	0,036
-669,320	52,255	0,034	0,023
-668,305	120,405	-0,151	-0,135
-667,291	-8,595	0,024	0,011
-666,276	-141,829	-0,107	0,008
-665,262	317,923	-0,105	-0,144
-664,247	-86,302	-0,190	0,042
-663,232	800,000	0,019	0,053
-662,218	800,000	0,035	-0,077
-661,203	75,491	0,100	-0,077
-660,189	125,131	-0,028	-0,026
-659,174	-200,000	0,007	-0,184
-658,159	-200,000	-0,018	-0,122
-657,145	34,261	0,165	-0,104
-656,130	112,277	-0,097	0,084
-655,116	134,263	0,052	0,049
-654,101	800,000	-0,020	0,041
-653,086	-103,118	0,134	-0,023
-652,072	-44,117	0,051	-0,018
-651,057	-14,395	-0,030	-0,014
-650,043	118,287	0,103	0,092
-649,028	226,621	0,047	-0,055
-648,014	-95,784	0,045	-0,009
-646,999	7,823	0,009	-0,005
-645,984	481,815	-0,069	0,114
-644,970	-200,000	0,048	-0,163
-643,955	78,245	-0,038	-0,029
-642,941	-98,447	-0,182	-0,033
-641,926	236,880	0,085	-0,102
-640,911	-99,751	0,050	-0,009
-639,897	-200,000	0,122	0,000
-638,882	-200,000	-0,008	0,045
-637,868	509,187	-0,033	0,056
-636,853	-24,330	0,069	-0,029
-635,838	39,888	-0,014	0,009
-634,824	800,000	-0,048	-0,126
-633,809	-200,000	0,024	0,095
-632,795	114,313	0,061	0,054
-631,780	-72,071	-0,148	0,039
-630,765	321,260	0,014	0,020
-629,751	-200,000	0,015	0,076
-628,736	49,105	-0,029	-0,019
-627,722	-200,000	0,005	-0,059
-626,707	561,663	0,011	0,020
-625,692	-200,000	-0,026	0,108
-624,678	-200,000	0,004	0,059
-623,663	-200,000	0,022	-0,098
-622,649	86,019	-0,096	-0,076
-621,634	-200,000	-0,008	0,032
-620,619	-121,855	-0,057	-0,007
-619,605	-200,000	-0,001	-0,076
-618,590	-49,112	0,073	0,025
-617,576	-133,412	-0,100	-0,009
-616,561	217,781	-0,108	0,124
-615,546	171,687	0,054	-0,056
-614,532	292,539	-0,060	-0,079
-613,517	-23,247	-0,020	-0,009
-612,503	-200,000	-0,027	-0,093
-611,488	89,714	0,062	0,050
-610,474	-200,000	-0,016	0,075
-609,459	-200,000	-0,001	-0,068
-608,444	-81,345	0,074	0,017
-607,430	673,706	-0,051	-0,096
-606,415	800,000	0,045	-0,122
-605,401	800,000	0,035	0,099
-604,386	-32,730	0,025	0,010
-603,371	361,959	0,051	0,073
-602,357	535,383	-0,011	-0,019
-601,342	119,551	0,045	-0,040
-600,328	-200,000	0,005	-0,025
-599,313	719,134	-0,056	-0,108
-598,298	115,565	-0,076	0,067
-597,284	192,800	-0,077	0,083
-596,269	-150,457	0,046	0,003
-595,255	-66,737	-0,048	-0,014
-594,240	800,000	0,028	0,067
-593,225	-79,507	-0,034	0,008
-592,211	490,017	-0,110	-0,181
-591,196	-200,000	-0,007	-0,054
-590,182	688,753	-0,019	0,035
-589,167	-98,025	-0,150	0,028
-588,152	-200,000	-0,009	0,045
-587,138	654,173	-0,049	-0,090
-586,123	-102,437	-0,054	0,009
-585,109	-200,000	0,003	-0,131
-584,094	-200,000	0,012	0,052
-583,079	266,131	0,115	0,145
-582,065	-200,000	0,003	0,117
-581,050	-6,476	0,087	-0,043
-580,036	-75,998	-0,067	-0,017
-579,021	-122,461	0,051	-0,006
-578,006	-171,792	-0,134	-0,003
-576,992	95,516	-0,098	-0,080
-575,977	800,000	-0,032	-0,066
-574,963	66,672	-0,126	-0,092
-573,948	-200,000	-0,000	-0,039
-572,934	434,178	0,026	-0,041
-571,919	-113,646	-0,184	-0,026
-570,904	-22,295	0,055	-0,024
-569,890	139,643	0,070	-0,067
-568,875	-200,000	0,005	-0,105
-567,861	-166,852	0,187	0,005
-566,846	-131,373	0,048	0,005
-565,831	161,623	0,048	-0,049
-564,817	-21,844	0,026	-0,011
-563,802	-98,022	-0,102	0,019
-562,788	667,706	0,031	0,058
-561,773	-26,568	0,087	-0,036
-560,758	6,393	-0,137	-0,073
-559,744	-174,270	0,198	0,004
-558,729	-35,132	0,054	0,021
-557,715	-200,000	-0,007	-0,049
-556,700	-200,000	0,015	-0,075
-555,685	800,000	0,053	0,133
-554,671	-73,126	-0,039	0,010
-553,656	-66,839	-0,037	0,011
-552,642	-200,000	0,000	-0,158
-551,627	14,638	-0,033	0,019
-550,612	-7,817	-0,045	0,022
-549,598	268,186	-0,126	-0,159
-548,583	-135,643	0,041	0,003
-547,569	-9,526	-0,055	-0,026
-546,554	-71,313	0,129	-0,034
-545,539	270,482	-0,057	-0,073
-544,525	-200,000	0,002	0,040
-543,510	134,558	0,069	-0,064
-542,496	800,000	-0,071	-0,217
-541,481	6,991	-0,117	-0,062
-540,466	800,000	-0,030	0,093
-539,452	-200,000	0,003	0,058
-538,437	-122,904	0,069	0,008
-537,423	-200,000	0,007	0,044
-536,408	36,373	-0,155	-0,098
-535,393	-200,000	0,009	-0,191
-534,379	800,000	0,044	-0,090
-533,364	-57,053	-0,116	-0,037
-532,350	74,493	0,144	-0,109
-531,335	295,782	-0,077	0,101
-530,321	495,519	-0,084	0,139
-529,306	-200,000	-0,009	-0,057
-528,291	-73,367	-0,121	-0,032
-527,277	-109,832	0,065	0,010
-526,262	542,570	0,037	0,064
-525,248	65,497	0,027	-0,019
-524,233	-29,842	0,113	-0,046
-523,218	-200,000	-0,026	0,112
-522,204	800,000	-0,011	0,023
-521,189	89,903	-0,099	-0,080
-520,175	-37,895	-0,056	-0,021
-519,160	-11,653	0,067	-0,031
-518,145	509,828	0,021	-0,035
-517,131	-178,518	0,137	-0,002
-516,116	80,918	0,070	-0,054
-515,102	682,329	-0,025	-0,046
-514,087	24,962	0,014	0,008
-513,072	445,738	0,113	-0,179
-512,058	206,315	-0,112	0,126
-511,043	538,673	0,051	-0,087
-510,029	276,340	0,079	0,102
-509,014	-98,684	0,125	-0,023
-507,999	-200,000	0,040	0,170
-506,985	-200,000	-0,013	-0,079
-505,970	191,238	-0,051	0,055
-504,956	800,000	-0,050	-0,118
-503,941	146,957	0,057	0,055
-502,926	-112,612	-0,093	0,013
-501,912	646,126	0,037	0,069
-500,897	800,000	0,006	-0,014
-499,883	800,000	-0,050	0,106
-498,868	228,618	-0,100	-0,117
-497,853	800,000	-0,015	-0,033
-496,839	800,000	0,073	0,207
-495,824	800,000	-0,005	0,011
-494,810	-200,000	-0,004	0,055
-493,795	-200,000	0,001	-0,024
-492,781	-200,000	0,034	0,130
-491,766	29,145	0,034	0,020
-490,751	102,266	0,018	0,015
-489,737	-22,651	-0,119	0,051
-488,722	339,614	-0,027	0,038
-487,708	-46,799	0,054	-0,019
-486,693	-200,000	0,036	0,179
-485,678	91,236	0,086	0,069
-484,664	21,537	-0,061	-0,036
-483,649	448,718	-0,021	-0,034
-482,635	-12,331	-0,094	0,044
-481,620	-200,000	-0,007	0,128
-480,605	232,419	0,130	0,153
-479,591	800,000	-0,023	0,054
-478,576	-61,844	-0,111	-0,033
-477,562	-200,000	0,005	-0,016
-476,547	-200,000	-0,011	0,040
-475,532	800,000	-0,018	-0,055
-474,518	271,960	0,074	0,094
-473,503	-200,000	0,011	-0,039
-472,489	-200,000	0,002	0,059
-471,474	-200,000	-0,005	0,035
-470,459	172,933	0,037	-0,038
-469,445	53,996	0,035	0,024
-468,430	-200,000	0,002	-0,058
-467,416	693,019	0,010	0,019
-466,401	376,174	0,052	0,077
-465,386	-200,000	0,025	0,113
-464,372	800,000	0,024	0,070
-463,357	167,554	-0,131	-0,133
-462,343	-200,000	-0,024	-0,167
-461,328	-200,000	0,005	-0,118
-460,313	24,592	0,099	0,059
-459,299	193,798	0,061	0,066
-458,284	454,230	0,046	0,073
-457,270	154,485	-0,032	-0,032
-456,255	-4,426	0,083	0,041
-455,241	-11,417	-0,029	-0,014
-454,226	800,000	-0,060	-0,143
-453,211	-103,797	0,021	0,004
-452,197	-184,819	-0,071	0,001
-451,182	273,674	-0,019	0,024
-450,168	107,290	0,045	0,038
-449,153	-200,000	0,001	-0,056
-448,138	178,416	-0,111	-0,117
-447,124	-117,782	0,080	0,010
-446,109	-94,242	0,069	0,013
-445,095	377,743	0,057	0,084
-444,080	-139,917	0,079	0,006
-443,065	-7,079	-0,120	0,058
-442,051	-185,059	-0,125	-0,001
-441,036	-200,000	-0,022	-0,100
-440,022	-189,488	-0,142	-0,001
-439,007	35,946	0,029	-0,018
-437,992	-53,796	-0,175	-0,057
-436,978	-140,215	-0,055	0,004
-435,963	-77,471	-0,066	0,016
-434,949	93,438	-0,067	0,054
-433,934	37,507	-0,079	0,050
-432,919	800,000	-0,086	-0,178
-431,905	-200,000	-0,019	-0,205
-430,890	258,343	-0,018	-0,022
-429,876	123,799	-0,057	0,051
-428,861	-140,597	-0,068	0,005
-427,846	473,702	0,079	0,128
-426,832	336,831	0,028	-0,039
-425,817	-200,000	-0,006	-0,112
-424,803	-123,217	-0,109	0,012
-423,788	-29,920	0,096	0,039
-422,773	6,731	-0,134	0,071
-421,759	-52,606	0,118	0,039
-420,744	800,000	0,090	0,201
-419,730	-45,193	-0,085	0,030
-418,715	35,133	-0,133	0,083
-417,701	202,798	-0,066	-0,073
-416,686	800,000	0,047	0,146
-415,671	-76,613	0,221	0,055
-414,657	86,206	-0,067	-0,053
-413,642	-71,213	0,117	-0,031
-412,628	-34,306	-0,060	-0,023
-411,613	-200,000	-0,015	0,070
-410,598	343,604	0,040	-0,056
-409,584	-200,000	0,024	0,076
-408,569	187,211	-0,037	0,039
-407,555	-68,398	0,130	0,036
-406,540	800,000	-0,016	-0,035
-405,525	-44,801	0,083	-0,030
-404,511	73,421	-0,083	-0,062
-403,496	800,000	0,027	-0,058
-402,482	-13,778	0,065	0,030
-401,467	800,000	-0,022	0,062
-400,452	378,047	-0,027	0,040
-399,438	-175,601	0,110	0,002
-398,423	-200,000	0,014	0,132
-397,409	-131,281	-0,081	0,008
-396,394	-200,000	0,000	0,005
-395,379	-143,143	-0,080	0,005
-394,365	-200,000	-0,011	0,078
-393,350	288,145	0,043	0,055
-392,336	58,472	0,093	-0,065
-391,321	-125,796	-0,180	0,019
-390,306	358,479	-0,057	-0,081
-389,292	-200,000	-0,036	-0,179
-388,277	528,230	0,109	-0,184
-387,263	-83,629	0,151	0,034
-386,248	800,000	-0,053	0,139
-385,233	-200,000	-0,015	-0,099
-384,219	-200,000	-0,032	-0,185
-383,204	-48,357	-0,172	-0,059
-382,190	338,147	0,037	-0,052
-381,175	390,368	-0,033	-0,050
-380,160	45,839	0,130	0,086
-379,146	800,000	-0,045	0,102
-378,131	36,473	0,083	0,052
-377,117	-200,000	0,003	-0,043
-376,102	-16,891	0,051	0,023
-375,088	-200,000	0,002	-0,156
-374,073	68,008	0,088	0,064
-373,058	691,139	-0,051	0,096
-372,044	53,691	0,125	0,086
-371,029	298,078	-0,031	0,041
-370,015	-79,076	-0,127	0,031
-369,000	-18,789	-0,067	0,030
-367,985	101,206	-0,114	-0,095
-366,971	47,797	0,030	0,020
-365,956	145,581	-0,080	-0,077
-364,942	-4,035	0,069	0,034
-363,927	109,946	-0,043	0,037
-362,912	800,000	0,037	0,114
-361,898	-114,803	0,058	-0,008
-360,883	800,000	-0,005	0,011
-359,869	-200,000	-0,015	-0,174
-358,854	-17,712	0,055	0,025
-357,839	-200,000	0,019	0,111
-356,825	800,000	0,045	0,122
-355,810	510,053	-0,073	0,121
-354,796	114,073	-0,089	0,077
-353,781	-13,178	0,030	0,014
-352,766	159,018	0,084	-0,084
-351,752	463,721	0,056	0,089
-350,737	18,039	0,133	0,075
-349,723	-25,154	0,040	0,017
-348,708	-191,374	0,036	0,000
-347,693	-200,000	0,032	-0,106
-346,679	-134,594	-0,132	-0,011
-345,664	269,627	-0,012	-0,015
-344,650	-200,000	-0,014	0,061
-343,635	-161,364	0,096	-0,003
-342,620	-113,266	-0,174	-0,024
-341,606	-118,025	0,170	-0,022
-340,591	-167,096	-0,070	0,002
-339,577	42,107	-0,067	0,043
-338,562	-175,679	0,019	0,000
-337,548	-34,087	0,059	-0,023
-336,533	-200,000	0,012	-0,060
-335,518	5,119	0,139	-0,073
-334,504	337,544	-0,041	0,058
-333,489	800,000	0,030	0,079
-332,475	-83,950	0,051	0,011
-331,460	-200,000	-0,007	-0,148
-330,445	10,819	0,042	0,023
-329,431	654,540	0,067	-0,123
-328,416	434,218	-0,035	0,054
-327,402	109,867	-0,065	0,056
-326,387	-200,000	-0,006	-0,175
-325,372	800,000	0,022	-0,054
-324,358	-200,000	-0,001	-0,157
-323,343	65,148	-0,098	-0,070
-322,329	17,358	-0,047	-0,026
-321,314	300,328	0,028	-0,037
-320,299	262,396	-0,073	0,091
-319,285	800,000	-0,020	0,049
-318,270	27,034	-0,085	-0,050
-317,256	388,846	0,035	-0,052
-316,241	277,136	0,023	0,029
-315,226	-58,568	0,020	0,006
-314,212	-200,000	0,045	0,145
-313,197	-46,622	-0,129	-0,045
-312,183	331,746	-0,104	0,144
-311,168	800,000	0,031	-0,069
-310,153	384,441	0,041	-0,060
-309,139	-180,800	-0,024	-0,000
-308,124	91,072	-0,104	0,083
-307,110	-141,529	0,164	0,012
-306,095	-73,778	-0,088	0,023
-305,080	-200,000	-0,030	0,113
-304,066	-200,000	0,024	-0,086
-303,051	-200,000	0,006	-0,043
-302,037	3,878	0,154	0,080
-301,022	-92,465	-0,040	-0,008
-300,008	-61,430	0,013	-0,004
-298,993	-200,000	-0,008	0,093
-297,978	800,000	-0,010	-0,020
-296,964	-200,000	0,005	0,053
-295,949	91,573	0,129	0,103
-294,935	-200,000	-0,014	-0,182
-293,920	561,264	-0,051	-0,088
-292,905	9,503	0,045	-0,024
-291,891	-200,000	0,035	-0,117
-290,876	501,677	-0,088	0,146
-289,862	-200,000	-0,011	-0,106
-288,847	304,248	-0,108	-0,143
-287,832	172,709	-0,069	0,071
-286,818	-70,542	-0,130	-0,035
-285,803	-146,179	-0,115	-0,007
-284,789	-200,000	-0,017	0,055
-283,774	232,625	0,065	0,076
-282,759	-200,000	0,026	-0,174
-281,745	455,043	0,031	-0,050
-280,730	800,000	-0,044	-0,092
-279,716	800,000	-0,053	-0,136
-278,701	-13,981	0,026	0,012
-277,686	592,349	0,012	0,021
-276,672	-32,681	0,108	-0,043
-275,657	156,720	-0,073	-0,072
-274,643	800,000	-0,010	0,025
-273,628	800,000	-0,014	-0,037
-272,613	146,450	0,075	-0,072
-271,599	800,000	0,024	0,051
-270,584	-200,000	0,021	0,095
-269,570	194,255	0,056	-0,061
-268,555	-200,000	-0,009	0,135
-267,540	-52,101	0,066	0,022
-266,526	800,000	0,045	-0,102
-265,511	-200,000	0,004	0,092
-264,497	-43,077	0,093	-0,033
-263,482	119,631	0,095	0,084
-262,467	43,739	0,083	0,054
-261,453	-33,201	-0,058	-0,023
-260,438	-86,812	-0,064	0,014
-259,424	71,495	-0,069	-0,051
-258,409	-200,000	-0,021	-0,162
-257,395	-200,000	0,001	0,034
-256,380	73,379	-0,051	0,038
-255,365	-200,000	0,016	-0,072
-254,351	490,984	0,036	0,059
-253,336	764,874	-0,037	-0,072
-252,322	112,491	-0,083	-0,072
-251,307	280,464	0,096	0,122
-250,292	-200,000	0,021	0,151
-249,278	-134,404	0,126	0,011
-248,263	-200,000	0,004	0,111
-247,249	765,739	0,071	0,139
-246,234	653,035	0,083	0,152
-245,219	36,274	0,053	-0,033
-244,205	-35,608	-0,006	0,002
-243,190	35,499	0,031	-0,019
-242,176	296,173	0,031	0,041
-241,161	-200,000	0,015	-0,090
-240,146	276,162	0,054	0,069
-239,132	-200,000	0,009	0,028
-238,117	289,129	-0,059	-0,076
-237,103	-150,562	0,038	-0,002
-236,088	113,366	0,111	0,096
-235,073	-200,000	0,015	0,129
-234,059	-200,000	-0,016	0,174
-233,044	-100,457	0,055	0,010
-232,030	44,328	-0,073	0,047
-231,015	800,000	-0,036	0,084
-230,000	226,403	0,045	0,052
-228,986	-93,547	-0,052	0,010
-227,971	-76,942	0,193	0,048
-226,957	800,000	0,038	0,082
-225,942	-200,000	0,005	0,058
-224,927	211,222	0,134	0,150
-223,913	756,036	-0,058	-0,113
-222,898	800,000	0,046	-0,109
-221,884	-200,000	-0,034	0,147
-220,869	-107,005	0,101	0,016
-219,855	-92,147	0,094	0,019
-218,840	-41,589	0,100	0,036
-217,825	800,000	0,012	0,036
-216,811	69,520	0,009	-0,007
-215,796	800,000	-0,045	-0,123
-214,782	-137,155	-0,094	-0,008
-213,767	76,800	0,057	0,043
-212,752	-84,872	-0,019	0,004
-211,738	-200,000	-0,004	-0,056
-210,723	-32,800	0,062	-0,024
-209,709	61,476	-0,088	0,062
-208,694	-23,331	-0,046	-0,020
-207,679	800,000	0,011	-0,028
-206,665	152,244	0,086	-0,084
-205,650	-100,649	0,148	-0,026
-204,636	-84,039	0,078	-0,018
-203,621	800,000	-0,044	-0,100
-202,606	252,430	0,068	0,083
-201,592	382,520	-0,038	-0,056
-200,577	-45,134	-0,103	0,036
-199,563	-81,235	0,047	-0,011
-198,548	-106,643	-0,125	0,019
-197,533	800,000	-0,024	0,069
-196,519	127,026	0,028	0,025
-195,504	-87,140	0,051	0,011
-194,490	185,328	-0,014	-0,015
-193,475	800,000	-0,066	0,152
-192,460	761,751	-0,057	0,109
-191,446	-40,689	0,084	0,031
-190,431	81,220	-0,122	0,093
-189,417	-200,000	-0,023	0,094
-188,402	164,540	0,041	0,041
-187,387	697,435	-0,074	-0,139
-186,373	-200,000	0,008	-0,092
-185,358	416,110	0,026	-0,040
-184,344	-69,945	0,196	-0,053
-183,329	-200,000	0,003	-0,087
-182,315	-200,000	0,019	0,119
-181,300	-200,000	-0,026	0,131
-180,285	79,985	0,072	0,055
-179,271	164,258	-0,135	-0,135
-178,256	168,907	0,103	-0,104
-177,242	-16,871	-0,088	-0,039
-176,227	100,596	-0,051	0,042
-175,212	-164,678	0,082	0,003
-174,198	308,121	-0,061	-0,081
-173,183	33,520	0,089	-0,055
-172,169	348,222	-0,051	-0,071
-171,154	-200,000	-0,032	-0,123
-170,139	-69,770	0,056	0,015
-169,125	203,121	-0,072	0,079
-168,110	25,454	-0,025	-0,015
-167,096	188,640	-0,053	0,056
-166,081	-200,000	0,020	-0,080
-165,066	147,932	-0,103	-0,099
-164,052	-200,000	0,005	0,025
-163,037	168,525	0,082	0,083
-162,023	800,000	-0,023	0,067
-161,008	353,072	-0,052	0,073
-159,993	-200,000	0,014	0,077
-158,979	26,253	0,010	0,006
-157,964	310,302	-0,071	-0,094
-156,950	-200,000	-0,010	0,061
-155,935	5,663	0,080	0,042
-154,920	-112,140	0,103	0,014
-153,906	-39,878	-0,104	-0,038
-152,891	-200,000	0,001	-0,140
-151,877	-200,000	-0,021	-0,082
-150,862	490,675	-0,073	0,119
-149,847	62,273	0,014	0,010
-148,833	2,605	0,032	-0,016
-147,818	-48,482	0,064	-0,022
-146,804	-200,000	-0,041	0,143
-145,789	-200,000	0,030	-0,104
-144,775	-91,656	0,077	-0,015
-143,760	-200,000	-0,022	-0,117
-142,745	-200,000	0,027	-0,091
-141,731	800,000	0,021	-0,046
-140,716	800,000	0,033	-0,070
-139,702	-2,176	0,066	-0,033
-138,687	29,935	-0,039	0,024
-137,672	800,000	0,042	-0,097
-136,658	181,678	-0,065	0,068
-135,643	-96,192	0,014	0,003
-134,629	-200,000	-0,018	0,065
-133,614	265,947	0,051	0,063
-132,599	33,475	0,059	0,036
-131,585	800,000	-0,016	0,042
-130,570	800,000	-0,007	0,015
-129,556	800,000	-0,034	-0,081
-128,541	2,813	0,050	0,025
-127,526	-151,232	-0,103	-0,005
-126,512	-81,053	0,141	0,033
-125,497	-200,000	0,017	0,129
-124,483	33,319	0,069	-0,042
-123,468	-7,184	0,100	0,048
-122,453	-87,110	-0,042	-0,009
-121,439	-200,000	-0,015	-0,155
-120,424	-200,000	-0,017	-0,072
-119,410	58,205	-0,097	-0,067
-118,395	800,000	-0,028	0,062
-117,380	454,257	-0,068	-0,107
-116,366	-42,359	-0,083	-0,030
-115,351	2,963	-0,072	0,037
-114,337	10,271	-0,067	-0,036
-113,322	279,886	0,142	-0,180
-112,307	-200,000	0,001	0,117
-111,293	785,328	0,036	-0,070
-110,278	-200,000	-0,006	0,041
-109,264	404,932	-0,021	-0,031
-108,249	-134,027	0,065	-0,006
-107,234	-141,572	-0,124	-0,009
-106,220	-200,000	-0,024	-0,120
-105,205	-200,000	-0,053	-0,218
-104,191	-16,119	-0,062	-0,028
-103,176	68,692	0,080	0,058
-102,162	800,000	-0,043	0,106
-101,147	316,880	-0,053	-0,072
-100,132	236,979	0,064	0,075
-99,118	64,458	0,032	0,023
-98,103	3,089	0,126	0,065
-97,089	-200,000	0,023	-0,075
-96,074	-200,000	-0,021	-0,150
-95,059	-200,000	0,030	-0,097
-94,045	-165,684	-0,084	-0,003
-93,030	-200,000	-0,003	-0,115
-92,016	-67,713	0,065	-0,018
-91,001	585,647	0,028	0,050
-89,986	-97,047	0,121	0,022
-88,972	-75,908	0,036	-0,009
-87,957	137,595	-0,058	0,054
-86,943	243,677	0,022	-0,026
-85,928	-200,000	-0,008	0,054
-84,913	-28,603	-0,097	-0,039
-83,899	-200,000	-0,006	-0,074
-82,884	-86,288	0,051	-0,011
-81,870	-200,000	0,008	-0,134
-80,855	-200,000	0,002	0,012
-79,840	-200,000	-0,017	-0,175
-78,826	265,129	-0,087	-0,107
-77,811	414,980	-0,036	0,054
-76,797	8,191	-0,046	-0,025
-75,782	194,706	0,142	0,152
-74,767	-200,000	0,046	0,144
-73,753	99,143	0,037	-0,030
-72,738	173,264	0,022	-0,022
-71,724	12,399	-0,046	0,025
-70,709	-88,931	0,053	-0,011
-69,694	27,243	-0,123	-0,073
-68,680	-200,000	0,030	0,126
-67,665	-142,738	0,040	-0,003
-66,651	-200,000	0,021	0,106
-65,636	800,000	-0,022	-0,066
-64,622	-38,812	-0,139	-0,052
-63,607	-62,813	0,107	-0,031
-62,592	123,514	0,054	-0,048
-61,578	103,179	-0,085	-0,071
-60,563	-200,000	0,021	0,131
-59,549	-43,004	0,103	0,037
-58,534	23,442	-2,011	-1,165
-57,519	378,394	-1,362	-1,974
-56,505	-200,000	-0,340	-4,498
-55,490	338,415	1,091	1,504
-54,476	800,000	4,977	11,206
-53,461	-200,000	21,039	329,250
-52,446	800,000	757,767	2323,316
-51,432	549,953	1662,369	2825,064
-50,417	73,402	1663,958	1228,104
-49,403	18,719	1536,939	866,018
-48,388	12,665	1460,153	793,446
-47,373	19,065	1450,862	819,106
-46,359	15,846	1440,231	797,749
-45,344	11,012	1435,984	772,334
-44,330	10,892	1434,130	770,734
-43,315	10,899	1432,158	769,677
-42,300	10,929	1430,482	768,889
-41,286	10,962	1429,189	768,317
-40,271	10,870	1428,069	767,248
-39,257	10,922	1426,629	766,692
-38,242	10,923	1425,570	766,098
-37,227	10,927	1424,566	765,547
-36,213	10,901	1423,294	764,707
-35,198	10,925	1422,269	764,243
-34,184	10,973	1421,163	763,841
-33,169	10,946	1419,958	763,038
-32,154	10,947	1418,859	762,422
-31,140	10,939	1417,641	761,698
-30,125	10,952	1416,665	761,208
-29,111	10,988	1415,622	760,787
-28,096	10,939	1414,332	759,830
-27,082	10,877	1413,150	758,874
-26,067	10,883	1412,195	758,362
-25,052	10,934	1410,982	757,916
-24,038	10,895	1409,972	757,162
-23,023	10,908	1409,096	756,724
-22,009	10,869	1408,102	755,978
-20,994	10,881	1406,969	755,395
-19,979	10,859	1406,113	754,803
-18,965	10,897	1404,979	754,341
-17,950	10,851	1404,286	753,724
-16,936	10,866	1403,525	753,355
-15,921	10,800	1402,422	752,424
-14,906	10,805	1401,498	751,922
-13,892	10,808	1400,598	751,426
-12,877	10,818	1399,646	750,930
-11,863	10,799	1398,954	750,441
-10,848	10,795	1398,038	749,902
-9,833	10,745	1397,053	749,110
-8,819	10,737	1396,246	748,613
-7,804	10,694	1395,289	747,871
-6,790	10,709	1394,386	747,428
-5,775	10,758	1393,234	747,008
-4,760	10,731	1392,289	746,346
-3,746	10,748	1391,352	745,890
-2,731	10,698	1390,677	745,267
-1,717	10,678	1389,915	744,737
-0,702	10,685	1387,886	743,654
0,313	14,705	1301,698	715,896
1,327	31,038	692,639	418,069
2,342	48,189	120,053	79,089
3,356	-1,846	16,492	8,157
4,371	-4,708	3,491	1,693
5,386	54,852	0,730	0,496
6,400	800,000	0,196	0,598
7,415	44,801	-0,194	-0,126
8,429	38,098	-0,340	-0,213
9,444	54,826	-0,285	-0,194
10,459	-38,402	-0,375	-0,139
11,473	114,588	-0,227	-0,195
12,488	-63,293	-0,236	-0,068
13,502	21,100	-0,337	-0,192
14,517	-8,891	-0,383	-0,180
15,531	156,228	-0,293	-0,285
16,546	52,617	-0,330	-0,222
17,561	21,857	-0,429	-0,246
18,575	-86,836	-0,162	0,034
19,590	-6,073	-0,292	-0,140
20,604	107,890	-0,274	-0,230
21,619	38,790	-0,508	-0,319
22,634	98,664	-0,369	-0,299
23,648	35,496	-0,341	-0,210
24,663	81,403	-0,430	-0,327
25,677	294,303	-0,265	-0,341
26,692	75,344	-0,306	-0,227
27,707	-2,507	-0,497	-0,244
28,721	289,430	-0,226	-0,289
29,736	-53,757	-0,402	-0,129
30,750	172,537	-0,407	-0,412
31,765	11,991	-0,473	-0,255
32,780	293,124	-0,226	-0,291
33,794	38,432	-0,340	-0,213
34,809	385,721	-0,198	-0,289
35,823	223,589	-0,394	-0,448
36,838	133,981	-0,353	-0,322
37,853	40,295	-0,452	-0,285
38,867	17,282	-0,377	-0,210
39,882	-4,509	-0,309	-0,149
40,896	-10,910	-0,405	-0,188
41,911	161,044	-0,424	-0,417
42,926	27,720	-0,454	-0,268
43,940	68,031	-0,324	-0,233
44,955	-25,819	-0,360	-0,148
45,969	84,029	-0,365	-0,280
46,984	92,622	-0,427	-0,338
47,999	34,778	-0,342	-0,210
49,013	-16,473	-0,352	-0,156
50,028	171,192	-0,249	-0,251
51,042	34,447	-0,390	-0,239
52,057	89,642	-0,426	-0,334
53,071	325,920	-0,303	-0,408
54,086	-27,101	-0,419	-0,171
55,101	237,951	-0,285	-0,333
56,115	50,329	-0,346	-0,229
57,130	332,796	-0,286	-0,388
58,144	132,959	-0,210	-0,191
59,159	94,638	-0,408	-0,325
60,174	281,810	-0,222	-0,280
61,188	30,312	-0,366	-0,219
62,203	314,614	-0,189	-0,251
63,217	58,718	-0,462	-0,318
64,232	92,266	-0,260	-0,206
65,247	24,669	-0,320	-0,185
66,261	-55,931	-0,431	-0,134
67,276	78,161	-0,342	-0,256
68,290	200,645	-0,301	-0,324
69,305	40,222	-0,299	-0,188
70,320	-103,843	-0,376	-0,061
71,334	-49,786	-0,375	-0,124
72,349	34,064	-0,344	-0,210
73,363	106,238	-0,390	-0,324
74,378	-37,856	-0,351	-0,130
75,393	291,140	-0,264	-0,338
76,407	-30,081	-0,313	-0,124
77,422	89,100	-0,242	-0,189
78,436	-0,289	-0,262	-0,130
79,451	119,569	-0,371	-0,322
80,466	10,333	-0,309	-0,164
81,480	-111,617	-0,366	-0,051
82,495	-27,874	-0,317	-0,128
83,509	67,379	-0,244	-0,174
84,524	-60,647	-0,239	-0,070
85,539	19,877	-0,330	-0,186
86,553	44,535	-0,202	-0,130
87,568	-60,208	-0,410	-0,122
88,582	18,981	-0,172	-0,096
89,597	224,994	-0,226	-0,256
90,611	22,037	-0,340	-0,194
91,626	661,005	-0,106	-0,192
92,641	89,957	-0,176	-0,138
93,655	30,471	-0,231	-0,138
94,670	109,477	-0,377	-0,316
95,684	87,408	-0,298	-0,230
96,699	238,389	-0,238	-0,277
97,714	262,442	-0,219	-0,267
98,728	-137,550	-0,247	0,019
99,743	89,021	-0,309	-0,241
100,757	194,775	-0,144	-0,153
101,772	55,331	-0,315	-0,213
102,787	101,873	-0,341	-0,278
103,801	362,513	-0,207	-0,292
104,816	-143,422	-0,321	0,021
105,830	-4,692	-0,397	-0,191
106,845	800,000	-0,126	-0,309
107,860	-77,876	-0,380	-0,091
108,874	4,079	-0,396	-0,202
109,889	-25,696	-0,263	-0,108
110,903	-18,922	-0,329	-0,142
111,918	47,681	-0,357	-0,232
112,933	104,836	-0,189	-0,155
113,947	116,689	-0,167	-0,143
114,962	-72,228	-0,251	-0,064
115,976	-21,471	-0,236	-0,100
116,991	160,641	-0,280	-0,273
118,006	327,379	-0,238	-0,320
119,020	228,678	-0,183	-0,208
120,035	36,487	-0,156	-0,096
121,049	322,676	-0,168	-0,224
122,064	457,933	-0,162	-0,252
123,079	153,886	-0,195	-0,187
124,093	102,817	-0,303	-0,247
125,108	469,638	-0,162	-0,255
126,122	-72,973	-0,243	-0,062
127,137	223,370	-0,230	-0,260
128,151	-20,619	-0,257	-0,109
129,166	164,780	-0,141	-0,139
130,181	-12,452	-0,172	-0,078
131,195	73,427	-0,239	-0,174
132,210	64,227	-0,267	-0,187
133,224	735,857	-0,119	-0,224
134,239	70,024	-0,241	-0,173
135,254	32,579	-0,228	-0,137
136,268	-200,000	-0,029	-0,200
137,283	490,273	-0,160	-0,256
138,297	35,679	-0,290	-0,177
139,312	208,011	-0,215	-0,234
140,327	248,766	-0,245	-0,290
141,341	270,907	-0,162	-0,199
142,356	-39,135	-0,162	-0,059
143,370	431,382	-0,194	-0,294
144,385	137,229	-0,358	-0,326
145,400	157,029	-0,167	-0,161
146,414	201,558	-0,200	-0,215
147,429	39,127	-0,327	-0,203
148,443	482,809	-0,212	-0,337
149,458	-200,000	-0,058	-0,184
150,473	167,888	-0,167	-0,166
151,487	142,899	-0,221	-0,205
152,502	5,946	-0,247	-0,127
153,516	92,972	-0,276	-0,217
154,531	-200,000	-0,084	-0,341
155,546	249,772	-0,255	-0,301
156,560	-139,652	-0,240	-0,018
157,575	29,797	-0,234	-0,138
158,589	141,866	-0,153	-0,141
159,604	800,000	-0,104	-0,201
160,619	92,583	-0,301	-0,236
161,633	-10,579	-0,221	-0,102
162,648	119,106	-0,242	-0,208
163,662	93,461	-0,198	-0,156
164,677	23,337	-0,264	-0,151
165,692	58,748	-0,189	-0,129
166,706	125,570	-0,305	-0,267
167,721	167,283	-0,275	-0,271
168,735	96,645	-0,312	-0,248
169,750	155,581	-0,291	-0,279
170,764	-52,007	-0,226	-0,072
171,779	104,259	-0,155	-0,127
172,794	28,304	-0,290	-0,170
173,808	298,910	-0,194	-0,249
174,823	146,420	-0,217	-0,203
175,837	10,995	-0,446	-0,236
176,852	335,078	-0,196	-0,265
177,867	-127,310	-0,203	0,020
178,881	-38,142	-0,284	-0,104
179,896	-71,783	-0,267	-0,069
180,910	-184,184	-0,311	0,003
181,925	38,003	-0,366	-0,225
182,940	170,073	-0,200	-0,199
183,954	800,000	-0,111	-0,281
184,969	540,844	-0,179	-0,297
185,983	150,167	-0,148	-0,140
186,998	433,746	-0,126	-0,191
188,013	49,531	-0,247	-0,161
189,027	-141,754	-0,332	-0,023
190,042	156,732	-0,235	-0,225
191,056	92,108	-0,185	-0,145
192,071	-40,028	-0,143	-0,052
193,086	71,489	-0,188	-0,135
194,100	65,800	-0,143	-0,101
195,115	141,029	-0,305	-0,280
196,129	149,657	-0,190	-0,179
197,144	17,462	-0,276	-0,151
198,159	425,396	-0,099	-0,148
199,173	234,618	-0,131	-0,150
200,188	179,303	-0,183	-0,186
201,202	128,974	-0,239	-0,212
202,217	92,644	-0,160	-0,125
203,232	51,429	-0,227	-0,149
204,246	-11,723	-0,168	-0,076
205,261	177,791	-0,245	-0,247
206,275	93,731	-0,159	-0,125
207,290	249,552	-0,109	-0,128
208,304	326,336	-0,177	-0,236
209,319	453,152	-0,111	-0,170
210,334	-34,232	-0,242	-0,092
211,348	-39,141	-0,087	-0,031
212,363	296,740	-0,146	-0,186
213,377	58,745	-0,194	-0,132
214,392	-200,000	-0,048	-0,283
215,407	145,540	-0,142	-0,132
216,421	8,768	-0,129	-0,067
217,436	-46,141	-0,195	-0,066
218,450	36,503	-0,095	-0,058
219,465	102,436	-0,215	-0,174
220,480	116,170	-0,181	-0,153
221,494	287,601	-0,261	-0,328
222,509	800,000	-0,103	-0,204
223,523	87,328	-0,196	-0,150
224,538	87,439	-0,145	-0,111
225,553	-11,708	-0,246	-0,111
226,567	800,000	-0,093	-0,232
227,582	3,570	-0,128	-0,064
228,596	669,881	-0,081	-0,146
229,611	214,682	-0,103	-0,114
230,626	503,889	-0,106	-0,171
231,640	107,981	-0,170	-0,140
232,655	-49,469	-0,253	-0,083
233,669	82,431	-0,304	-0,228
234,684	28,700	-0,087	-0,051
235,699	455,377	-0,127	-0,195
236,713	198,931	-0,146	-0,154
237,728	-76,762	-0,165	-0,040
238,742	-168,374	-0,229	-0,006
239,757	398,091	-0,146	-0,211
240,772	129,109	-0,214	-0,189
241,786	-108,803	-0,181	0,026
242,801	-200,000	0,025	-0,194
243,815	242,277	-0,107	-0,124
244,830	800,000	-0,057	-0,160
245,844	-200,000	-0,058	-0,184
246,859	188,018	-0,226	-0,234
247,874	202,507	-0,249	-0,266
248,888	293,652	-0,220	-0,277
249,903	800,000	-0,018	-0,047
250,917	131,323	-0,226	-0,200
251,932	455,039	-0,102	-0,157
252,947	348,745	-0,084	-0,115
253,961	-83,696	-0,224	0,049
254,976	135,187	-0,220	-0,198
255,990	-112,308	-0,221	-0,030
257,005	-10,840	-0,190	-0,086
258,020	479,047	-0,103	-0,161
259,034	-31,609	-0,140	-0,054
260,049	10,984	-0,130	-0,068
261,063	-11,443	-0,221	-0,100
262,078	157,083	-0,258	-0,246
263,093	399,087	-0,067	-0,097
264,107	248,342	-0,162	-0,189
265,122	-200,000	-0,008	0,044
266,136	-77,779	-0,072	0,017
267,151	292,738	-0,085	-0,107
268,166	32,167	-0,087	0,051
269,180	800,000	-0,110	-0,291
270,195	-52,566	-0,361	-0,114
271,209	58,369	-0,207	-0,139
272,224	349,375	-0,140	-0,191
273,239	22,606	-0,213	-0,120
274,253	-136,690	-0,138	0,011
275,268	57,165	-0,310	-0,208
276,282	42,128	-0,253	-0,158
277,297	272,034	-0,106	-0,129
278,312	348,741	-0,103	-0,140
279,326	434,610	-0,134	-0,201
280,341	239,524	-0,106	-0,122
281,355	-32,160	-0,159	0,061
282,370	-42,720	-0,212	-0,074
283,384	800,000	-0,127	-0,246
284,399	209,443	-0,168	-0,181
285,414	375,109	-0,179	-0,252
286,428	212,265	-0,158	-0,171
287,443	-64,542	-0,177	-0,049
288,457	25,510	-0,125	-0,071
289,472	-111,800	-0,141	-0,019
290,487	136,468	-0,157	-0,141
291,501	236,430	-0,125	-0,142
292,516	55,323	-0,194	-0,129
293,530	16,076	-0,180	-0,097
294,545	-168,318	-0,186	-0,005
295,560	14,959	-0,130	0,070
296,574	-59,498	-0,147	-0,043
297,589	-18,047	-0,184	-0,079
298,603	-89,231	-0,331	-0,067
299,618	132,887	-0,087	-0,077
300,633	198,495	-0,054	-0,057
301,647	81,734	-0,155	-0,116
302,662	-200,000	-0,011	-0,102
303,676	52,221	-0,115	-0,075
304,691	-184,672	-0,244	0,003
305,706	122,863	-0,131	-0,112
306,720	203,229	-0,205	-0,218
307,735	-68,147	-0,227	-0,060
308,749	-164,709	-0,148	-0,004
309,764	-71,282	-0,151	-0,039
310,779	289,756	-0,095	-0,119
311,793	471,128	-0,152	-0,235
312,808	379,780	-0,154	-0,218
313,822	-71,515	-0,187	0,048
314,837	217,302	-0,199	-0,218
315,852	-200,000	-0,019	-0,219
316,866	532,360	-0,145	-0,236
317,881	-26,953	-0,051	0,020
318,895	150,393	-0,094	-0,087
319,910	574,234	-0,081	-0,136
320,925	401,212	-0,178	-0,257
321,939	426,453	-0,063	0,093
322,954	66,938	-0,152	-0,106
323,968	26,953	-0,187	-0,107
324,983	800,000	-0,084	-0,175
325,997	800,000	-0,036	-0,095
327,012	217,701	-0,157	-0,171
328,027	401,207	-0,130	-0,188
329,041	-48,161	-0,210	-0,069
330,056	-7,441	-0,172	-0,079
331,070	800,000	-0,055	-0,128
332,085	800,000	0,031	0,088
333,100	-89,035	-0,195	-0,039
334,114	198,085	-0,141	-0,148
335,129	-40,550	-0,215	-0,076
336,143	35,617	-0,160	-0,096
337,158	800,000	0,018	-0,050
338,173	250,296	-0,113	-0,132
339,187	800,000	-0,032	-0,090
340,202	-6,149	-0,123	-0,057
341,216	-155,148	-0,210	-0,009
342,231	152,579	-0,185	-0,173
343,246	-129,762	-0,131	-0,012
344,260	-16,780	-0,088	-0,038
345,275	164,328	-0,154	-0,149
346,289	658,909	-0,056	-0,099
347,304	405,570	-0,025	0,037
348,319	-200,000	-0,028	-0,093
349,333	5,059	-0,198	-0,100
350,348	800,000	-0,058	-0,158
351,362	133,066	-0,166	-0,147
352,377	244,202	-0,056	-0,065
353,392	-1,645	-0,301	-0,145
354,406	-102,224	-0,191	-0,031
355,421	206,333	1311,194	1397,782
356,435	158,679	1471,478	1398,271
