DTS Sentinel unit serial number:	SN410029Multiplexer serial number:	ORYXHardware model number:	OX2-SRSoftware version number:	ORYX F/W v4,00 Oryx Data Collector v3.7.2.0data status	okinstallation	B3 Nyhavnadifferential loss correction	single-endedforward channel	channel 1reverse channel	N/Adate	2023/11/30time	01:17:30forward acquisition time	300,00reverse acquisition time	0,00gamma	499,1914k internal	0,3210k external	0,3210temperature offset calibration	1,0000default loss term (dB/km)	0,3820temperature slope calibration	1,0000multiplexer offset coefficient	1,0000multiplexer slope coefficient	1,0000fibre end	0,00T internal ref (°C)	10,69T ext. ref 1 (°C)	-4,87T ext. ref 2 (°C)	-5,00length (m)	temperature (°C)	Stokes	anti-Stokes-744,400	791,696	-0,154	-0,308
-743,385	-200,000	-0,045	0,359
-742,371	54,203	-0,226	-0,157
-741,356	-200,000	0,021	0,278
-740,342	149,897	-0,203	-0,199
-739,327	-200,000	-0,006	0,291
-738,312	-200,000	-0,004	-0,122
-737,298	-200,000	-0,022	0,086
-736,283	453,680	-0,128	-0,207
-735,269	414,388	0,164	0,254
-734,254	43,308	-0,221	-0,146
-733,239	38,458	-0,208	0,134
-732,225	800,000	-0,124	-0,252
-731,210	110,020	0,185	0,161
-730,196	309,966	-0,066	-0,090
-729,181	-200,000	-0,020	-0,151
-728,167	800,000	-0,008	0,020
-727,152	-103,189	-0,167	-0,028
-726,137	800,000	0,007	-0,018
-725,123	800,000	-0,062	-0,192
-724,108	-200,000	-0,009	-0,057
-723,094	108,597	-0,055	-0,048
-722,079	800,000	-0,027	-0,080
-721,064	-128,106	0,177	0,018
-720,050	-108,901	-0,094	-0,014
-719,035	-200,000	0,018	-0,121
-718,021	-77,668	-0,122	-0,030
-717,006	-45,861	-0,139	-0,050
-715,991	-200,000	0,009	-0,105
-714,977	51,617	-0,121	-0,083
-713,962	-88,200	-0,088	-0,019
-712,948	200,199	-0,053	-0,059
-711,933	-105,743	-0,059	-0,010
-710,918	-165,928	0,110	0,003
-709,904	800,000	-0,029	-0,077
-708,889	-73,424	-0,085	-0,022
-707,875	277,856	-0,076	-0,098
-706,860	-30,125	0,112	-0,046
-705,845	-200,000	0,013	0,056
-704,831	800,000	0,032	-0,068
-703,816	266,843	0,016	0,020
-702,802	179,071	0,077	-0,082
-701,787	800,000	-0,031	0,073
-700,772	-28,036	-0,054	-0,023
-699,758	-79,960	-0,025	0,006
-698,743	27,095	-0,099	0,060
-697,729	98,210	0,112	-0,094
-696,714	40,733	-0,079	0,052
-695,699	800,000	0,013	0,034
-694,685	-200,000	0,026	-0,127
-693,670	237,214	-0,017	0,020
-692,656	-200,000	0,011	-0,077
-691,641	-200,000	-0,003	0,077
-690,627	-200,000	0,031	0,105
-689,612	71,719	0,104	0,078
-688,597	800,000	0,046	-0,117
-687,583	-31,723	-0,096	0,039
-686,568	800,000	0,016	0,049
-685,554	300,606	-0,019	-0,026
-684,539	349,063	0,068	0,097
-683,524	-200,000	-0,005	-0,063
-682,510	-200,000	-0,012	-0,074
-681,495	800,000	-0,058	-0,126
-680,481	-40,096	-0,077	0,029
-679,466	-186,441	-0,097	-0,001
-678,451	800,000	0,059	-0,137
-677,437	27,841	-0,117	-0,071
-676,422	-91,976	0,145	0,029
-675,408	-71,622	-0,037	-0,010
-674,393	167,994	-0,082	0,085
-673,378	192,507	-0,081	0,088
-672,364	-200,000	0,011	-0,122
-671,349	-95,411	-0,046	-0,009
-670,335	70,455	-0,064	0,048
-669,320	121,617	-0,080	-0,072
-668,305	-77,643	0,073	0,018
-667,291	-39,757	-0,014	-0,005
-666,276	-44,644	-0,072	-0,026
-665,262	-200,000	-0,022	-0,072
-664,247	-129,575	0,025	0,002
-663,232	-113,273	-0,086	0,012
-662,218	-78,408	-0,101	0,025
-661,203	800,000	0,043	0,102
-660,189	-200,000	-0,022	0,092
-659,174	-200,000	-0,031	-0,197
-658,159	-200,000	-0,008	0,066
-657,145	-200,000	0,055	-0,180
-656,130	-167,313	-0,068	0,002
-655,116	55,771	-0,092	0,065
-654,101	-109,491	0,045	-0,007
-653,086	767,101	-0,027	0,052
-652,072	27,521	0,069	-0,042
-651,057	90,507	-0,107	-0,086
-650,043	68,271	0,020	-0,015
-649,028	800,000	0,039	-0,114
-648,014	-41,142	0,072	-0,027
-646,999	447,655	0,014	-0,022
-645,984	-9,962	-0,084	-0,040
-644,970	104,066	-0,051	0,043
-643,955	-200,000	0,004	0,000
-642,941	-200,000	-0,002	0,015
-641,926	-200,000	-0,005	0,098
-640,911	75,129	-0,047	0,035
-639,897	352,106	-0,061	0,088
-638,882	-200,000	-0,007	0,177
-637,868	-183,165	-0,174	-0,002
-636,853	-46,630	-0,027	-0,010
-635,838	-28,288	-0,122	0,051
-634,824	-200,000	-0,010	-0,032
-633,809	-200,000	-0,041	-0,138
-632,795	741,267	0,055	0,108
-631,780	-86,907	-0,065	-0,014
-630,765	-97,515	-0,090	-0,017
-629,751	45,717	-0,008	0,005
-628,736	45,595	0,036	-0,024
-627,722	800,000	0,031	0,083
-626,707	-200,000	0,015	0,051
-625,692	17,651	0,090	0,052
-624,678	-106,422	0,059	0,009
-623,663	65,761	-0,069	0,050
-622,649	251,058	-0,055	-0,068
-621,634	-200,000	0,007	-0,111
-620,619	-85,054	0,043	-0,010
-619,605	135,780	0,094	-0,088
-618,590	9,361	0,032	0,017
-617,576	800,000	-0,020	-0,050
-616,561	-200,000	0,009	-0,110
-615,546	800,000	-0,016	0,050
-614,532	-155,147	0,021	-0,001
-613,517	94,123	0,096	0,078
-612,503	-78,226	0,056	0,014
-611,488	-153,366	0,112	0,006
-610,474	-200,000	0,008	0,195
-609,459	240,923	-0,076	0,092
-608,444	-69,201	-0,057	0,016
-607,430	456,990	-0,054	-0,087
-606,415	25,286	-0,089	-0,053
-605,401	-74,557	0,058	0,015
-604,386	-200,000	0,021	0,072
-603,371	-47,496	0,054	-0,019
-602,357	175,662	-0,087	-0,091
-601,342	-168,298	-0,083	0,002
-600,328	192,607	0,037	0,040
-599,313	-41,777	-0,117	-0,043
-598,298	800,000	-0,022	0,046
-597,284	-164,465	0,087	-0,003
-596,269	3,881	0,158	0,083
-595,255	800,000	0,057	0,138
-594,240	-156,482	-0,149	-0,007
-593,225	-34,165	0,045	-0,018
-592,211	415,357	0,107	-0,165
-591,196	-143,177	-0,156	-0,011
-590,182	-65,695	0,082	0,024
-589,167	46,604	0,026	-0,017
-588,152	153,768	0,037	-0,037
-587,138	-14,035	-0,110	0,051
-586,123	-110,967	-0,108	-0,016
-585,109	-200,000	-0,026	-0,093
-584,094	321,994	-0,013	-0,017
-583,079	-200,000	-0,006	0,032
-582,065	-85,576	0,054	-0,012
-581,050	-49,465	0,208	0,071
-580,036	-179,675	-0,071	0,001
-579,021	-200,000	0,021	-0,135
-578,006	-90,881	-0,118	-0,024
-576,992	-59,958	0,141	0,043
-575,977	758,134	0,019	-0,037
-574,963	-96,285	0,088	0,017
-573,948	-200,000	-0,004	0,063
-572,934	-136,380	-0,055	-0,005
-571,919	-200,000	-0,005	-0,028
-570,904	-14,508	0,111	-0,051
-569,890	-64,864	-0,081	-0,024
-568,875	-200,000	-0,005	-0,040
-567,861	-112,898	0,119	0,017
-566,846	800,000	-0,028	0,087
-565,831	266,463	0,049	0,062
-564,817	-117,110	-0,156	-0,020
-563,802	-200,000	0,006	-0,061
-562,788	-141,258	-0,066	0,005
-561,773	-81,983	0,044	-0,010
-560,758	-200,000	-0,007	0,026
-559,744	66,334	0,033	-0,024
-558,729	390,573	0,042	0,063
-557,715	-200,000	-0,012	-0,075
-556,700	155,792	-0,046	-0,046
-555,685	552,849	0,033	0,058
-554,671	45,552	0,114	0,076
-553,656	-138,076	0,048	0,004
-552,642	-79,885	0,115	-0,028
-551,627	248,547	0,136	0,166
-550,612	-41,363	-0,126	0,047
-549,598	-23,957	-0,164	-0,070
-548,583	800,000	0,052	-0,108
-547,569	-200,000	0,009	-0,056
-546,554	-27,409	0,055	0,023
-545,539	165,993	-0,137	0,139
-544,525	-200,000	-0,015	0,144
-543,510	800,000	0,021	-0,057
-542,496	-200,000	0,002	0,041
-541,481	439,887	-0,019	-0,029
-540,466	224,057	0,064	-0,075
-539,452	67,889	-0,121	-0,089
-538,437	-200,000	-0,002	-0,128
-537,423	800,000	0,027	-0,058
-536,408	-64,922	0,085	0,025
-535,393	800,000	-0,065	-0,151
-534,379	-112,527	-0,125	0,018
-533,364	-9,096	0,087	-0,042
-532,350	439,196	0,024	-0,038
-531,335	22,494	0,104	0,061
-530,321	800,000	0,021	0,056
-529,306	463,285	-0,008	0,012
-528,291	81,348	-0,120	-0,093
-527,277	-200,000	0,008	-0,044
-526,262	800,000	0,002	0,007
-525,248	321,920	-0,041	0,056
-524,233	83,395	0,109	0,085
-523,218	21,378	-0,025	0,014
-522,204	89,670	0,157	-0,126
-521,189	79,305	-0,097	-0,075
-520,175	131,207	-0,091	0,084
-519,160	-200,000	-0,005	0,025
-518,145	720,769	0,101	0,195
-517,131	-200,000	0,016	0,147
-516,116	30,620	-0,031	0,019
-515,102	51,287	0,052	-0,035
-514,087	-100,625	-0,059	0,010
-513,072	-105,202	-0,059	-0,010
-512,058	553,411	0,052	-0,090
-511,043	-200,000	-0,014	0,207
-510,029	184,822	-0,122	0,131
-509,014	-119,518	0,197	0,024
-507,999	-200,000	-0,005	0,034
-506,985	29,625	-0,013	-0,008
-505,970	-144,929	-0,037	0,002
-504,956	73,464	-0,067	-0,050
-503,941	-124,828	0,096	0,010
-502,926	484,982	0,032	-0,052
-501,912	-14,930	0,119	0,054
-500,897	-104,542	-0,044	-0,007
-499,883	-200,000	-0,002	0,075
-498,868	800,000	0,077	-0,169
-497,853	-116,292	-0,125	0,016
-496,839	-170,163	-0,126	-0,003
-495,824	55,961	0,143	-0,099
-494,810	56,680	0,062	-0,043
-493,795	-200,000	0,009	0,040
-492,781	-133,127	-0,089	-0,008
-491,766	-59,551	-0,103	0,032
-490,751	-12,398	-0,070	-0,033
-489,737	179,376	-0,039	0,041
-488,722	46,726	0,038	-0,025
-487,708	105,224	-0,123	0,105
-486,693	332,979	-0,067	0,094
-485,678	800,000	-0,029	-0,078
-484,664	-200,000	0,003	-0,022
-483,649	232,265	-0,048	0,057
-482,635	-61,997	0,037	-0,011
-481,620	-12,882	-0,032	0,015
-480,605	-11,776	-0,016	-0,007
-479,591	-78,213	0,136	0,033
-478,576	159,527	-0,019	-0,019
-477,562	338,338	-0,122	-0,171
-476,547	-194,218	0,132	0,001
-475,532	-19,630	0,112	0,049
-474,518	800,000	0,026	0,059
-473,503	70,847	0,094	0,069
-472,489	-119,490	0,036	0,004
-471,474	44,748	0,061	0,040
-470,459	-156,752	-0,072	0,003
-469,445	-87,412	-0,111	0,024
-468,430	-200,000	0,025	-0,178
-467,416	-149,542	0,060	0,003
-466,401	-34,866	0,070	-0,027
-465,386	38,978	0,065	-0,041
-464,372	-200,000	-0,000	0,031
-463,357	-200,000	0,000	-0,101
-462,343	800,000	0,016	0,037
-461,328	-200,000	-0,019	-0,076
-460,313	-200,000	0,014	0,054
-459,299	218,467	-0,075	0,086
-458,284	12,453	0,024	0,013
-457,270	-7,172	-0,100	0,048
-456,255	-57,003	-0,058	0,018
-455,241	-200,000	0,009	-0,073
-454,226	9,217	-0,113	-0,061
-453,211	33,999	-0,134	0,083
-452,197	246,579	0,054	-0,066
-451,182	-10,980	0,150	0,071
-450,168	-85,532	0,069	0,015
-449,153	-9,090	-0,049	-0,024
-448,138	-200,000	0,041	-0,164
-447,124	660,646	0,045	-0,083
-446,109	-109,558	0,065	0,010
-445,095	800,000	-0,057	0,148
-444,080	-200,000	-0,031	0,097
-443,065	379,863	-0,049	0,073
-442,051	-78,484	-0,221	0,054
-441,036	-20,808	-0,043	0,019
-440,022	95,025	-0,055	-0,045
-439,007	800,000	-0,023	-0,048
-437,992	-14,011	0,114	0,052
-436,978	339,840	-0,051	0,071
-435,963	-46,911	0,129	0,045
-434,949	-200,000	0,007	-0,023
-433,934	800,000	-0,059	-0,177
-432,919	-167,422	-0,073	-0,002
-431,905	-73,798	-0,127	0,033
-430,890	144,963	0,026	0,025
-429,876	117,981	0,088	0,077
-428,861	114,752	-0,038	0,034
-427,846	74,396	-0,084	-0,063
-426,832	532,120	-0,035	-0,059
-425,817	264,111	0,046	-0,057
-424,803	-128,553	-0,052	0,005
-423,788	69,129	-0,085	0,063
-422,773	-117,391	0,152	-0,020
-421,759	685,972	0,075	-0,141
-420,744	-200,000	-0,010	-0,045
-419,730	386,738	0,006	0,010
-418,715	199,250	-0,093	-0,102
-417,701	-57,944	-0,157	0,049
-416,686	-154,261	0,114	0,005
-415,671	-200,000	-0,030	0,219
-414,657	-200,000	0,008	0,139
-413,642	-200,000	0,024	0,084
-412,628	-200,000	0,005	-0,068
-411,613	800,000	0,039	0,110
-410,598	800,000	-0,011	0,030
-409,584	-100,750	0,113	-0,020
-408,569	-19,586	0,177	0,078
-407,555	-200,000	-0,039	0,135
-406,540	561,541	0,029	-0,050
-405,525	-136,240	-0,110	-0,009
-404,511	-26,670	0,101	-0,042
-403,496	150,379	-0,082	-0,080
-402,482	-200,000	0,002	-0,058
-401,467	-33,509	-0,072	0,028
-400,452	-51,822	0,085	-0,028
-399,438	-200,000	-0,021	0,141
-398,423	-134,083	-0,037	-0,003
-397,409	-17,576	-0,129	-0,058
-396,394	-13,445	0,087	0,040
-395,379	554,710	-0,031	0,054
-394,365	97,226	-0,096	0,079
-393,350	-134,600	0,084	-0,007
-392,336	-200,000	-0,017	0,075
-391,321	-200,000	-0,023	0,129
-390,306	800,000	-0,022	-0,063
-389,292	33,815	-0,137	0,085
-388,277	293,355	-0,025	0,033
-387,263	-200,000	0,006	0,023
-386,248	-200,000	0,025	0,113
-385,233	629,829	-0,050	0,091
-384,219	152,124	0,068	-0,067
-383,204	800,000	0,035	-0,078
-382,190	-200,000	-0,006	-0,062
-381,175	-42,983	0,085	0,031
-380,160	-14,178	0,116	-0,053
-379,146	800,000	-0,012	-0,028
-378,131	258,871	-0,087	0,108
-377,117	-200,000	-0,058	0,196
-376,102	67,845	-0,121	-0,088
-375,088	-67,695	-0,090	-0,025
-374,073	-65,474	0,230	0,066
-373,058	800,000	0,048	-0,114
-372,044	243,767	0,026	0,032
-371,029	-74,618	-0,041	-0,010
-370,015	-150,061	0,109	-0,006
-369,000	-112,038	0,125	-0,018
-367,985	-16,342	-0,181	-0,082
-366,971	60,589	-0,115	-0,081
-365,956	-200,000	-0,024	0,105
-364,942	-39,472	0,076	0,028
-363,927	78,843	-0,057	0,044
-362,912	260,905	-0,088	0,109
-361,898	292,898	-0,037	0,049
-360,883	616,934	0,053	-0,095
-359,869	-200,000	-0,030	0,130
-358,854	352,688	0,029	-0,040
-357,839	19,712	-0,067	0,038
-356,825	-200,000	0,002	0,136
-355,810	-152,164	0,091	0,005
-354,796	-107,332	-0,178	0,028
-353,781	-68,258	-0,030	0,008
-352,766	128,257	0,108	-0,099
-351,752	781,274	0,030	-0,059
-350,737	0,507	-0,043	-0,022
-349,723	-142,560	0,147	-0,010
-348,708	-200,000	-0,013	0,074
-347,693	84,520	0,094	-0,074
-346,679	455,179	-0,102	-0,162
-345,664	-53,787	-0,057	-0,019
-344,650	-200,000	-0,003	-0,019
-343,635	100,938	-0,087	0,072
-342,620	800,000	0,066	-0,139
-341,606	395,624	-0,090	-0,134
-340,591	-104,753	-0,102	-0,017
-339,577	-200,000	-0,014	0,070
-338,562	-200,000	0,040	-0,128
-337,548	-200,000	-0,014	-0,150
-336,533	91,812	0,024	0,019
-335,518	283,125	-0,075	0,096
-334,504	24,428	0,061	-0,036
-333,489	-200,000	0,021	0,093
-332,475	-200,000	-0,036	0,242
-331,460	-96,413	-0,085	0,016
-330,445	443,069	-0,076	0,119
-329,431	-3,082	-0,087	-0,043
-328,416	37,304	0,121	0,076
-327,402	800,000	-0,028	0,077
-326,387	-24,897	0,131	0,055
-325,372	-89,423	0,005	0,001
-324,358	-200,000	-0,006	0,022
-323,343	228,185	-0,067	-0,077
-322,329	-200,000	-0,037	0,151
-321,314	-51,108	0,154	0,051
-320,299	-22,891	-0,154	-0,066
-319,285	29,006	0,165	0,099
-318,270	-103,354	-0,107	-0,018
-317,256	397,503	-0,044	-0,065
-316,241	184,824	0,024	0,025
-315,226	-39,349	0,112	-0,042
-314,212	-200,000	0,039	-0,162
-313,197	709,168	0,027	-0,050
-312,183	386,600	0,033	-0,049
-311,168	800,000	-0,040	-0,120
-310,153	-200,000	0,006	-0,069
-309,139	-200,000	-0,005	0,035
-308,124	800,000	0,033	-0,082
-307,110	-200,000	-0,001	-0,130
-306,095	800,000	0,012	0,036
-305,080	-200,000	0,002	0,042
-304,066	307,595	0,038	-0,051
-303,051	-200,000	-0,040	-0,152
-302,037	342,611	-0,075	-0,104
-301,022	800,000	0,054	-0,118
-300,008	37,138	0,070	-0,044
-298,993	524,944	-0,025	-0,042
-297,978	180,935	0,060	0,063
-296,964	27,645	-0,048	-0,029
-295,949	298,813	0,122	-0,160
-294,935	-150,721	-0,097	-0,005
-293,920	800,000	0,027	0,082
-292,905	187,178	0,069	0,074
-291,891	-55,979	-0,046	0,014
-290,876	101,113	-0,042	-0,035
-289,862	800,000	-0,044	-0,097
-288,847	800,000	-0,083	-0,168
-287,832	-200,000	-0,050	-0,198
-286,818	-200,000	-0,015	-0,071
-285,803	139,368	0,148	0,139
-284,789	799,410	0,039	0,077
-283,774	800,000	-0,016	-0,047
-282,759	-200,000	0,002	-0,162
-281,745	800,000	-0,048	-0,106
-280,730	800,000	0,014	-0,031
-279,716	5,061	-0,082	0,043
-278,701	343,885	-0,041	0,057
-277,686	-20,516	0,150	0,065
-276,672	-120,242	0,048	0,006
-275,657	-91,163	-0,069	0,014
-274,643	-64,462	-0,136	-0,039
-273,628	-200,000	-0,021	-0,252
-272,613	-47,093	-0,130	-0,045
-271,599	-200,000	0,013	0,082
-270,584	-134,921	0,168	0,014
-269,570	190,941	0,012	0,013
-268,555	800,000	0,044	-0,114
-267,540	262,466	0,044	0,055
-266,526	395,895	0,011	-0,016
-265,511	22,550	-0,135	-0,078
-264,497	-88,692	-0,078	0,016
-263,482	488,132	-0,021	0,034
-262,467	61,352	0,217	0,153
-261,453	-200,000	-0,024	0,119
-260,438	-200,000	-0,014	-0,132
-259,424	-200,000	-0,001	-0,094
-258,409	800,000	-0,051	0,142
-257,395	-176,126	0,224	-0,004
-256,380	-147,034	0,117	0,007
-255,365	-200,000	0,050	0,173
-254,351	-200,000	-0,005	0,144
-253,336	-200,000	-0,006	0,061
-252,322	-81,236	-0,054	-0,013
-251,307	-51,432	-0,053	-0,017
-250,292	-86,488	-0,105	0,023
-249,278	-31,347	0,093	0,037
-248,263	-76,168	-0,101	0,025
-247,249	-46,452	-0,054	-0,019
-246,234	800,000	-0,073	-0,154
-245,219	-90,096	-0,119	-0,025
-244,205	93,121	0,070	-0,056
-243,190	85,342	-0,047	-0,037
-242,176	511,336	-0,016	-0,027
-241,161	-15,680	0,073	-0,033
-240,146	-66,254	-0,083	-0,023
-239,132	-200,000	0,005	0,048
-238,117	-200,000	0,020	-0,144
-237,103	3,442	0,089	-0,046
-236,088	256,319	-0,029	-0,036
-235,073	-19,918	0,124	0,054
-234,059	800,000	-0,071	0,152
-233,044	524,951	0,054	0,090
-232,030	579,551	-0,030	-0,052
-231,015	128,298	-0,072	-0,065
-230,000	-200,000	0,013	-0,136
-228,986	205,341	0,123	-0,136
-227,971	227,279	0,057	0,066
-226,957	26,481	-0,007	0,004
-225,942	20,292	-0,037	-0,021
-224,927	-200,000	0,025	0,210
-223,913	-102,697	0,097	-0,016
-222,898	763,737	-0,062	-0,120
-221,884	-75,549	-0,061	-0,015
-220,869	-200,000	0,011	0,036
-219,855	5,727	0,043	-0,023
-218,840	-200,000	0,028	-0,101
-217,825	8,773	0,070	0,037
-216,811	800,000	-0,037	0,108
-215,796	-124,867	-0,064	0,007
-214,782	78,838	0,071	-0,054
-213,767	186,160	-0,102	0,108
-212,752	-200,000	-0,002	-0,059
-211,738	-116,354	-0,027	-0,004
-210,723	-200,000	0,017	0,088
-209,709	143,143	0,083	-0,079
-208,694	-200,000	-0,017	-0,098
-207,679	-29,033	-0,045	-0,018
-206,665	-102,285	0,121	0,020
-205,650	-94,079	0,046	-0,009
-204,636	119,113	-0,064	-0,056
-203,621	180,073	-0,013	-0,013
-202,606	-126,241	0,059	-0,006
-201,592	-19,985	-0,223	-0,097
-200,577	-129,190	-0,081	0,008
-199,563	800,000	-0,059	0,181
-198,548	-90,665	0,057	0,012
-197,533	-99,624	0,100	-0,018
-196,519	33,658	-0,040	0,025
-195,504	-70,007	0,109	-0,029
-194,490	340,556	0,045	-0,062
-193,475	800,000	-0,022	-0,061
-192,460	-10,274	0,190	-0,089
-191,446	708,317	0,045	0,085
-190,431	750,314	0,058	0,112
-189,417	-200,000	-0,026	0,083
-188,402	-48,525	0,076	-0,026
-187,387	6,432	0,080	-0,042
-186,373	242,314	-0,061	-0,073
-185,358	-31,872	0,113	-0,045
-184,344	800,000	-0,062	0,129
-183,329	-46,914	-0,018	0,006
-182,315	80,182	0,042	0,032
-181,300	-49,451	-0,143	-0,048
-180,285	-72,817	0,108	-0,028
-179,271	-188,527	-0,075	0,001
-178,256	-140,979	0,068	0,005
-177,242	113,807	0,085	-0,074
-176,227	-200,000	-0,011	0,057
-175,212	101,845	0,039	0,033
-174,198	121,232	-0,088	0,078
-173,183	-40,109	-0,052	0,019
-172,169	181,001	-0,060	-0,062
-171,154	-76,985	0,103	-0,025
-170,139	-92,517	-0,077	-0,015
-169,125	-200,000	0,008	-0,108
-168,110	-200,000	0,047	0,162
-167,096	-71,246	0,053	0,014
-166,081	-200,000	-0,047	-0,188
-165,066	197,725	0,096	-0,104
-164,052	-200,000	0,009	-0,033
-163,037	176,054	0,007	0,007
-162,023	-200,000	-0,001	0,165
-161,008	-198,124	0,107	0,000
-159,993	800,000	-0,039	-0,094
-158,979	458,230	-0,025	-0,040
-157,964	-57,572	-0,152	-0,047
-156,950	230,413	-0,067	0,078
-155,935	179,628	0,030	0,032
-154,920	140,743	0,082	0,077
-153,906	-28,151	0,138	0,056
-152,891	800,000	-0,029	0,071
-151,877	-127,066	0,051	0,005
-150,862	-89,506	-0,063	-0,013
-149,847	91,731	-0,061	0,048
-148,833	-122,994	-0,033	-0,004
-147,818	-200,000	0,004	0,042
-146,804	-200,000	-0,017	0,079
-145,789	800,000	-0,007	0,017
-144,775	-200,000	0,027	0,135
-143,760	-120,042	-0,178	0,021
-142,745	-200,000	0,029	-0,151
-141,731	127,677	0,036	0,032
-140,716	-142,661	0,046	0,003
-139,702	155,889	0,061	0,060
-138,687	800,000	-0,025	-0,073
-137,672	800,000	-0,015	-0,035
-136,658	800,000	-0,026	-0,069
-135,643	172,754	-0,113	0,116
-134,629	800,000	-0,037	-0,101
-133,614	-154,153	0,112	0,005
-132,599	800,000	0,023	0,070
-131,585	209,636	0,045	-0,051
-130,570	800,000	0,021	-0,061
-129,556	193,605	0,139	-0,149
-128,541	76,673	-0,058	-0,044
-127,526	-112,417	-0,045	0,006
-126,512	-126,094	0,137	-0,014
-125,497	800,000	0,058	0,135
-124,483	121,261	-0,082	0,072
-123,468	358,059	-0,007	0,009
-122,453	-28,551	-0,039	-0,016
-121,439	-66,555	-0,208	-0,058
-120,424	-59,080	-0,169	-0,051
-119,410	-144,203	0,066	-0,004
-118,395	126,965	-0,080	0,072
-117,380	-200,000	0,000	0,193
-116,366	-186,387	-0,022	-0,000
-115,351	-24,180	-0,037	-0,016
-114,337	-65,534	-0,036	0,010
-113,322	47,564	-0,065	-0,043
-112,307	-77,733	0,152	0,037
-111,293	327,316	0,037	-0,051
-110,278	800,000	0,053	0,121
-109,264	-34,227	-0,061	-0,024
-108,249	800,000	-0,024	-0,071
-107,234	-200,000	-0,032	-0,209
-106,220	-21,064	-0,152	0,066
-105,205	800,000	0,041	0,106
-104,191	-173,491	0,057	-0,001
-103,176	-200,000	0,007	0,022
-102,162	-200,000	-0,032	0,109
-101,147	-5,053	-0,147	0,071
-100,132	84,946	-0,056	-0,043
-99,118	-200,000	-0,014	-0,081
-98,103	-168,954	0,108	-0,003
-97,089	-200,000	-0,000	0,150
-96,074	-8,990	0,042	-0,020
-95,059	-200,000	0,028	0,107
-94,045	50,748	-0,094	0,063
-93,030	578,660	-0,042	0,074
-92,016	800,000	0,035	0,070
-91,001	566,570	0,040	0,070
-89,986	380,550	-0,079	-0,114
-88,972	-70,606	0,074	-0,020
-87,957	-139,240	0,026	-0,002
-86,943	622,444	0,012	0,021
-85,928	-63,301	0,071	-0,021
-84,913	-200,000	-0,005	0,047
-83,899	482,254	-0,024	-0,038
-82,884	220,646	0,073	-0,083
-81,870	280,138	0,048	-0,060
-80,855	530,337	0,026	0,044
-79,840	800,000	0,009	-0,018
-78,826	256,659	0,045	0,055
-77,811	-200,000	-0,010	-0,123
-76,797	259,823	-0,077	-0,094
-75,782	-20,283	0,026	0,011
-74,767	55,193	-0,067	0,046
-73,753	30,265	-0,043	-0,026
-72,738	-200,000	-0,017	0,109
-71,724	-200,000	-0,034	-0,110
-70,709	-71,984	-0,032	0,008
-69,694	76,333	-0,036	0,027
-68,680	-156,398	0,087	-0,004
-67,665	800,000	-0,009	-0,024
-66,651	-200,000	-0,048	0,199
-65,636	42,194	0,080	-0,051
-64,622	-200,000	0,006	-0,092
-63,607	800,000	0,049	0,101
-62,592	800,000	-0,045	-0,101
-61,578	66,619	0,034	-0,024
-60,563	-112,269	0,079	0,011
-59,549	685,614	-0,051	0,095
-58,534	25,443	-2,020	-1,184
-57,519	510,747	-1,239	-2,043
-56,505	-200,000	-0,430	-4,491
-55,490	381,124	0,993	1,443
-54,476	800,000	5,060	11,070
-53,461	-200,000	21,083	332,519
-52,446	800,000	758,337	2331,109
-51,432	551,014	1662,267	2827,468
-50,417	73,388	1663,556	1227,897
-49,403	18,521	1536,826	865,064
-48,388	12,520	1459,872	792,693
-47,373	19,100	1450,704	819,292
-46,359	15,753	1439,911	797,234
-45,344	10,801	1435,810	771,332
-44,330	10,709	1434,139	769,965
-43,315	10,716	1432,199	768,926
-42,300	10,734	1430,137	767,874
-41,286	10,764	1429,008	767,382
-40,271	10,736	1427,759	766,547
-39,257	10,719	1426,856	765,952
-38,242	10,779	1425,571	765,517
-37,227	10,765	1424,262	764,717
-36,213	10,767	1422,841	763,931
-35,198	10,788	1422,052	763,577
-34,184	10,784	1421,288	763,118
-33,169	10,723	1419,734	761,963
-32,154	10,854	1418,555	761,922
-31,140	10,836	1417,401	761,184
-30,125	10,838	1416,412	760,635
-29,111	10,809	1415,355	759,900
-28,096	10,811	1414,070	759,187
-27,082	10,736	1413,219	758,350
-26,067	10,727	1411,971	757,606
-25,052	10,741	1410,938	757,090
-24,038	10,690	1409,950	756,287
-23,023	10,703	1409,065	755,847
-22,009	10,707	1407,816	755,166
-20,994	10,678	1406,907	754,512
-19,979	10,707	1405,851	754,048
-18,965	10,663	1405,057	753,391
-17,950	10,629	1404,046	752,657
-16,936	10,651	1403,476	752,428
-15,921	10,558	1402,349	751,358
-14,906	10,619	1401,375	751,091
-13,892	10,658	1400,377	750,706
-12,877	10,657	1399,461	750,182
-11,863	10,606	1398,615	749,464
-10,848	10,565	1398,149	748,990
-9,833	10,575	1396,856	748,315
-8,819	10,540	1395,972	747,651
-7,804	10,523	1395,109	747,079
-6,790	10,591	1394,134	746,841
-5,775	10,509	1393,301	745,986
-4,760	10,580	1391,957	745,566
-3,746	10,602	1391,300	745,289
-2,731	10,519	1390,759	744,585
-1,717	10,485	1389,815	743,894
-0,702	10,549	1387,792	743,076
0,313	14,498	1300,920	714,669
1,327	30,647	692,158	416,952
2,342	47,806	120,099	78,983
3,356	0,068	16,660	8,349
4,371	6,079	3,534	1,842
5,386	29,033	0,936	0,559
6,400	-200,000	0,057	0,510
7,415	45,847	-0,203	-0,132
8,429	46,211	-0,228	-0,149
9,444	-7,515	-0,392	-0,186
10,459	23,620	-0,333	-0,193
11,473	33,065	-0,254	-0,155
12,488	-67,275	-0,345	-0,095
13,502	-6,331	-0,391	-0,187
14,517	85,631	-0,344	-0,266
15,531	56,885	-0,373	-0,256
16,546	166,668	-0,293	-0,293
17,561	48,747	-0,510	-0,337
18,575	19,679	-0,219	-0,124
19,590	98,884	-0,223	-0,181
20,604	-13,037	-0,190	-0,087
21,619	-11,841	-0,509	-0,235
22,634	229,689	-0,362	-0,417
23,648	86,696	-0,459	-0,357
24,663	33,463	-0,425	-0,259
25,677	65,941	-0,323	-0,231
26,692	-70,797	-0,366	-0,096
27,707	206,247	-0,243	-0,267
28,721	5,316	-0,416	-0,215
29,736	76,880	-0,382	-0,285
30,750	45,596	-0,462	-0,300
31,765	163,148	-0,312	-0,309
32,780	-6,028	-0,292	-0,140
33,794	65,047	-0,310	-0,220
34,809	114,577	-0,289	-0,248
35,823	-21,600	-0,421	-0,180
36,838	107,294	-0,415	-0,347
37,853	212,299	-0,305	-0,338
38,867	146,520	-0,301	-0,285
39,882	139,410	-0,276	-0,256
40,896	147,790	-0,291	-0,276
41,911	33,626	-0,387	-0,236
42,926	38,622	-0,410	-0,257
43,940	264,399	-0,275	-0,338
44,955	38,270	-0,344	-0,215
45,969	-27,198	-0,389	-0,158
46,984	207,689	-0,229	-0,252
47,999	-90,948	-0,228	-0,046
49,013	51,855	-0,303	-0,202
50,028	-7,622	-0,341	-0,162
51,042	8,228	-0,438	-0,230
52,057	-32,605	-0,347	-0,135
53,071	20,572	-0,325	-0,184
54,086	75,063	-0,356	-0,263
55,101	116,415	-0,290	-0,249
56,115	42,206	-0,324	-0,206
57,130	-17,342	-0,369	-0,162
58,144	213,812	-0,232	-0,259
59,159	78,693	-0,425	-0,319
60,174	22,707	-0,342	-0,196
61,188	261,397	-0,237	-0,289
62,203	96,142	-0,282	-0,226
63,217	105,013	-0,418	-0,346
64,232	-34,512	-0,519	-0,198
65,247	86,441	-0,305	-0,236
66,261	6,441	-0,386	-0,201
67,276	146,894	-0,305	-0,288
68,290	64,737	-0,268	-0,189
69,305	-2,700	-0,258	-0,126
70,320	1,031	-0,284	-0,142
71,334	-25,401	-0,417	-0,172
72,349	34,908	-0,281	-0,172
73,363	167,310	-0,337	-0,335
74,378	97,284	-0,323	-0,260
75,393	-17,061	-0,371	-0,164
76,407	-97,315	-0,253	-0,046
77,422	-71,410	-0,341	-0,089
78,436	-16,451	-0,288	-0,127
79,451	-17,172	-0,327	-0,144
80,466	371,935	-0,218	-0,311
81,480	-18,003	-0,265	-0,116
82,495	38,080	-0,277	-0,172
83,509	103,251	-0,341	-0,280
84,524	51,817	-0,236	-0,157
85,539	42,069	-0,259	-0,165
86,553	-120,350	-0,141	-0,017
87,568	-28,795	-0,365	-0,146
88,582	50,160	-0,410	-0,271
89,597	161,074	-0,255	-0,250
90,611	-10,383	-0,354	-0,164
91,626	-1,778	-0,328	-0,161
92,641	509,119	-0,153	-0,249
93,655	63,183	-0,365	-0,255
94,670	375,180	-0,279	-0,399
95,684	102,841	-0,268	-0,220
96,699	136,069	-0,383	-0,350
97,714	-73,283	-0,245	-0,062
98,728	-0,784	-0,253	-0,125
99,743	115,077	-0,257	-0,220
100,757	-35,422	-0,188	-0,071
101,772	3,650	-0,370	-0,188
102,787	120,811	-0,378	-0,328
103,801	113,868	-0,316	-0,269
104,816	800,000	-0,093	-0,271
105,830	154,100	-0,223	-0,214
106,845	53,076	-0,188	-0,126
107,860	-195,527	-0,325	0,002
108,874	-59,813	-0,324	-0,096
109,889	800,000	-0,163	-0,364
110,903	133,540	-0,210	-0,190
111,918	193,014	-0,149	-0,157
112,933	-19,457	-0,260	-0,112
113,947	70,164	-0,280	-0,202
114,962	-69,862	-0,322	-0,085
115,976	92,746	-0,213	-0,168
116,991	66,664	-0,325	-0,231
118,006	37,141	-0,250	-0,154
119,020	36,598	-0,334	-0,205
120,035	384,691	-0,174	-0,252
121,049	234,739	-0,177	-0,204
122,064	52,858	-0,251	-0,167
123,079	201,138	-0,162	-0,174
124,093	245,426	-0,253	-0,298
125,108	-30,301	-0,277	-0,109
126,122	-4,295	-0,335	-0,161
127,137	0,355	-0,238	-0,118
128,151	-23,386	-0,149	-0,062
129,166	-70,551	-0,339	-0,089
130,181	142,361	-0,316	-0,293
131,195	45,606	-0,254	-0,163
132,210	-33,606	-0,334	-0,128
133,224	153,338	-0,162	-0,155
134,239	12,526	-0,215	-0,115
135,254	64,971	-0,264	-0,186
136,268	390,447	-0,166	-0,241
137,283	-66,689	-0,326	-0,089
138,297	208,218	-0,207	-0,226
139,312	396,683	-0,188	-0,275
140,327	-21,552	-0,302	-0,128
141,341	-0,554	-0,275	-0,136
142,356	-65,288	-0,336	-0,094
143,370	800,000	-0,110	-0,240
144,385	674,989	-0,176	-0,319
145,400	-200,000	-0,099	-0,310
146,414	232,799	-0,264	-0,303
147,429	73,383	-0,235	-0,171
148,443	172,468	-0,166	-0,166
149,458	22,042	-0,257	-0,146
150,473	143,680	-0,194	-0,180
151,487	-117,034	-0,303	0,038
152,502	800,000	-0,101	-0,279
153,516	38,105	-0,346	-0,214
154,531	-21,160	-0,255	-0,108
155,546	-82,381	-0,325	-0,073
156,560	-130,243	-0,137	0,013
157,575	-17,676	-0,209	-0,091
158,589	84,613	-0,335	-0,255
159,604	-2,482	-0,376	-0,182
160,619	137,666	-0,230	-0,209
161,633	108,606	-0,264	-0,220
162,648	59,740	-0,350	-0,240
163,662	-102,684	-0,225	-0,037
164,677	-84,706	-0,191	-0,042
165,692	-15,514	-0,311	-0,138
166,706	-16,878	-0,247	-0,108
167,721	-33,327	-0,408	-0,156
168,735	98,135	-0,184	-0,147
169,750	183,774	-0,166	-0,170
170,764	21,772	-0,325	-0,184
171,779	-36,371	-0,169	-0,063
172,794	-1,778	-0,208	-0,101
173,808	-60,141	-0,111	-0,033
174,823	70,166	-0,286	-0,205
175,837	-17,068	-0,191	-0,083
176,852	647,019	-0,149	-0,265
177,867	410,504	-0,101	-0,149
178,881	20,795	-0,224	-0,125
179,896	-200,000	-0,031	-0,201
180,910	-20,558	-0,274	-0,117
181,925	-0,610	-0,246	-0,121
182,940	161,737	-0,237	-0,231
183,954	242,033	-0,181	-0,211
184,969	335,706	-0,170	-0,229
185,983	107,491	-0,256	-0,212
186,998	127,202	-0,172	-0,152
188,013	578,924	-0,113	-0,192
189,027	115,589	-0,209	-0,177
190,042	-34,700	-0,362	-0,137
191,056	202,930	-0,225	-0,241
192,071	38,915	-0,204	-0,126
193,086	324,756	-0,154	-0,205
194,100	-129,805	-0,162	0,015
195,115	157,790	-0,180	-0,173
196,129	163,317	-0,241	-0,236
197,144	60,363	-0,306	-0,210
198,159	99,813	-0,221	-0,178
199,173	9,977	-0,114	-0,060
200,188	172,034	-0,141	-0,141
201,202	-18,625	-0,194	-0,083
202,217	-11,316	-0,154	-0,070
203,232	248,813	-0,230	-0,271
204,246	800,000	-0,119	-0,252
205,261	54,037	-0,174	-0,116
206,275	-20,779	-0,329	-0,139
207,290	75,889	-0,146	-0,107
208,304	-44,690	-0,216	-0,074
209,319	800,000	-0,108	-0,231
210,334	800,000	-0,085	-0,164
211,348	800,000	-0,077	-0,180
212,363	179,106	-0,177	-0,180
213,377	800,000	-0,123	-0,275
214,392	-158,803	-0,186	-0,007
215,407	122,686	-0,135	-0,117
216,421	-40,947	-0,275	-0,098
217,436	168,021	-0,113	-0,111
218,450	-15,811	-0,240	-0,106
219,465	9,846	-0,291	-0,153
220,480	155,285	-0,207	-0,197
221,494	-56,307	-0,180	-0,055
222,509	-23,212	-0,294	-0,122
223,523	152,585	-0,256	-0,242
224,538	193,503	-0,260	-0,273
225,553	316,015	-0,118	-0,154
226,567	79,278	-0,309	-0,229
227,582	92,401	-0,177	-0,138
228,596	355,755	-0,183	-0,252
229,611	219,467	-0,169	-0,187
230,626	490,816	-0,075	-0,119
231,640	7,610	-0,232	-0,120
232,655	-59,107	-0,106	-0,032
233,669	800,000	-0,101	-0,251
234,684	579,807	-0,076	-0,129
235,699	183,881	-0,176	-0,180
236,713	45,417	-0,280	-0,178
237,728	92,441	-0,198	-0,154
238,742	227,909	-0,174	-0,196
239,757	-13,682	-0,156	-0,069
240,772	64,590	-0,223	-0,155
241,786	800,000	-0,082	-0,245
242,801	-9,090	-0,188	-0,086
243,815	-200,000	-0,015	-0,114
244,830	33,959	-0,183	-0,110
245,844	17,285	-0,200	-0,109
246,859	16,096	-0,244	-0,132
247,874	47,252	-0,162	-0,104
248,888	-5,303	-0,153	-0,072
249,903	-23,388	-0,172	-0,071
250,917	-66,384	-0,129	-0,035
251,932	-120,591	-0,296	-0,034
252,947	-103,573	-0,188	-0,030
253,961	196,316	-0,105	-0,110
254,976	295,401	-0,140	-0,177
255,990	-33,026	-0,281	-0,107
257,005	-30,229	-0,268	-0,105
258,020	800,000	-0,077	-0,181
259,034	-29,505	-0,182	-0,071
260,049	-57,756	-0,259	-0,078
261,063	-200,000	-0,009	-0,078
262,078	34,590	-0,203	-0,122
263,093	-18,657	-0,235	-0,101
264,107	-15,514	-0,283	-0,124
265,122	-200,000	-0,026	0,096
266,136	222,884	-0,087	-0,096
267,151	-4,401	-0,089	-0,042
268,166	174,883	-0,125	-0,125
269,180	153,050	-0,185	-0,175
270,195	327,641	-0,139	-0,184
271,209	54,794	-0,102	-0,068
272,224	-200,000	0,000	-0,073
273,239	77,679	-0,088	-0,065
274,253	111,366	-0,121	0,101
275,268	435,908	-0,108	-0,163
276,282	204,701	-0,182	-0,194
277,297	15,667	-0,232	-0,125
278,312	-150,153	-0,200	-0,010
279,326	28,515	-0,239	-0,139
280,341	800,000	-0,104	-0,266
281,355	219,376	-0,186	-0,205
282,370	-0,344	-0,178	-0,087
283,384	-26,217	-0,083	-0,033
284,399	72,686	-0,200	-0,143
285,414	299,679	-0,066	-0,084
286,428	-169,850	-0,098	0,002
287,443	238,532	-0,062	-0,071
288,457	101,979	-0,110	0,088
289,472	15,074	-0,088	0,047
290,487	-11,323	-0,351	-0,158
291,501	471,083	-0,198	-0,308
292,516	93,689	-0,198	-0,154
293,530	21,786	-0,182	-0,102
294,545	185,179	-0,142	-0,145
295,560	-139,462	-0,051	-0,004
296,574	670,903	-0,098	-0,175
297,589	385,045	-0,013	-0,018
298,603	59,661	-0,244	-0,165
299,618	-38,443	-0,119	-0,043
300,633	-79,266	-0,166	-0,038
301,647	15,233	-0,208	-0,112
302,662	-45,787	-0,083	-0,028
303,676	-200,000	-0,060	-0,211
304,691	-133,858	-0,117	-0,010
305,706	261,200	-0,138	-0,164
306,720	240,883	-0,102	-0,117
307,735	215,562	-0,124	-0,136
308,749	8,567	-0,157	-0,081
309,764	58,601	-0,061	-0,041
310,779	191,618	-0,144	-0,150
311,793	517,889	-0,130	-0,210
312,808	46,589	-0,249	-0,158
313,822	149,595	-0,179	-0,167
314,837	427,369	-0,161	-0,240
315,852	501,217	-0,123	-0,196
316,866	107,382	-0,149	0,122
317,881	79,682	-0,061	0,045
318,895	204,858	-0,092	-0,098
319,910	-116,135	-0,176	-0,022
320,925	380,395	-0,226	-0,320
321,939	395,173	-0,084	-0,121
322,954	35,321	-0,113	-0,068
323,968	-119,901	-0,172	-0,020
324,983	-114,910	-0,196	0,025
325,997	-108,917	-0,149	-0,022
327,012	-17,937	-0,189	-0,081
328,027	208,640	-0,110	-0,118
329,041	344,655	-0,106	-0,142
330,056	-139,184	-0,231	-0,017
331,070	-7,648	-0,145	-0,067
332,085	429,642	-0,054	-0,080
333,100	250,357	-0,088	-0,102
334,114	113,377	-0,095	-0,079
335,129	295,516	-0,109	-0,137
336,143	564,495	-0,128	-0,213
337,158	91,805	-0,116	-0,089
338,173	-1,137	-0,155	-0,075
339,187	698,835	-0,083	-0,150
340,202	-65,283	-0,121	-0,033
341,216	-31,791	-0,218	-0,083
342,231	222,704	-0,127	-0,140
343,246	800,000	-0,051	-0,147
344,260	-61,229	0,054	-0,015
345,275	38,271	-0,118	-0,072
346,289	40,172	-0,134	-0,082
347,304	-86,704	-0,189	0,039
348,319	-23,229	-0,205	-0,084
349,333	800,000	-0,100	-0,200
350,348	54,888	-0,123	-0,081
351,362	-64,327	-0,162	-0,045
352,377	-200,000	0,015	-0,083
353,392	204,586	-0,066	-0,070
354,406	244,138	-0,164	-0,189
355,421	206,986	1312,211	1401,033
356,435	159,207	1472,618	1401,517
