DTS Sentinel unit serial number:	SN410029Multiplexer serial number:	ORYXHardware model number:	OX2-SRSoftware version number:	ORYX F/W v4,00 Oryx Data Collector v3.7.2.0data status	okinstallation	B3 Nyhavnadifferential loss correction	single-endedforward channel	channel 1reverse channel	N/Adate	2023/12/03time	10:02:30forward acquisition time	300,00reverse acquisition time	0,00gamma	499,1914k internal	0,3201k external	0,3201temperature offset calibration	1,0000default loss term (dB/km)	0,3820temperature slope calibration	1,0000multiplexer offset coefficient	1,0000multiplexer slope coefficient	1,0000fibre end	0,00T internal ref (°C)	13,37T ext. ref 1 (°C)	-1,59T ext. ref 2 (°C)	-1,61length (m)	temperature (°C)	Stokes	anti-Stokes-744,400	210,053	-0,154	-0,176
-743,385	800,000	-0,075	0,214
-742,371	-104,077	-0,200	-0,034
-741,356	-200,000	0,075	0,298
-740,342	390,472	-0,137	-0,207
-739,327	800,000	-0,087	0,279
-738,312	-200,000	-0,085	-0,281
-737,298	-200,000	0,066	0,214
-736,283	474,368	-0,155	-0,256
-735,269	-200,000	0,086	0,403
-734,254	-200,000	-0,100	-0,353
-733,239	242,436	-0,050	0,061
-732,225	-2,615	-0,202	-0,102
-731,210	76,133	0,171	0,131
-730,196	387,946	-0,069	-0,104
-729,181	39,128	-0,102	-0,066
-728,167	-200,000	0,006	0,216
-727,152	-28,792	0,160	-0,066
-726,137	178,733	-0,065	-0,069
-725,123	424,510	-0,083	0,130
-724,108	800,000	-0,016	0,039
-723,094	-37,827	-0,151	-0,058
-722,079	-7,127	-0,039	-0,019
-721,064	-72,674	0,031	0,008
-720,050	406,730	0,030	0,047
-719,035	-200,000	0,004	-0,030
-718,021	541,000	-0,051	-0,089
-717,006	-142,402	-0,125	0,009
-715,991	13,989	-0,119	-0,067
-714,977	9,467	-0,108	-0,059
-713,962	800,000	-0,024	0,052
-712,948	-200,000	0,037	0,183
-711,933	475,378	-0,075	-0,123
-710,918	44,862	0,035	-0,023
-709,904	74,402	-0,047	0,036
-708,889	-73,096	-0,102	0,027
-707,875	800,000	-0,049	-0,111
-706,860	-18,879	-0,031	0,014
-705,845	800,000	-0,005	0,016
-704,831	420,441	0,061	0,095
-703,816	-72,847	0,074	0,020
-702,802	295,527	0,055	0,073
-701,787	76,748	-0,104	-0,080
-700,772	98,578	-0,110	-0,092
-699,758	-200,000	-0,007	0,066
-698,743	246,721	0,020	-0,024
-697,729	-32,091	0,103	-0,042
-696,714	-87,558	-0,100	0,022
-695,699	800,000	-0,025	-0,067
-694,685	-200,000	-0,039	-0,129
-693,670	207,913	-0,013	0,015
-692,656	141,235	-0,073	-0,070
-691,641	-200,000	0,006	0,073
-690,627	-55,635	0,032	-0,010
-689,612	-32,131	-0,140	-0,056
-688,597	-154,563	0,087	0,004
-687,583	24,390	-0,118	0,071
-686,568	-200,000	-0,008	0,070
-685,554	-200,000	0,028	0,149
-684,539	800,000	-0,044	0,115
-683,524	-19,742	0,158	0,071
-682,510	109,382	-0,109	-0,095
-681,495	629,669	-0,049	0,090
-680,481	520,171	0,007	-0,012
-679,466	-114,176	0,054	0,007
-678,451	218,469	-0,024	-0,028
-677,437	800,000	0,056	0,144
-676,422	800,000	-0,054	0,137
-675,408	-179,952	-0,023	0,000
-674,393	31,177	0,088	0,055
-673,378	-42,008	-0,028	0,010
-672,364	92,348	0,026	-0,021
-671,349	-200,000	0,015	-0,100
-670,335	-126,885	0,069	0,007
-669,320	150,485	-0,110	0,109
-668,305	346,436	-0,016	0,022
-667,291	-200,000	-0,005	0,152
-666,276	-178,839	-0,070	0,001
-665,262	208,994	0,043	-0,049
-664,247	649,869	-0,018	0,033
-663,232	-200,000	0,015	0,133
-662,218	-113,286	-0,026	0,004
-661,203	-200,000	0,031	0,123
-660,189	-158,718	-0,041	-0,002
-659,174	800,000	-0,060	-0,149
-658,159	704,306	0,033	0,064
-657,145	-200,000	-0,005	-0,016
-656,130	25,991	0,108	0,065
-655,116	-81,251	-0,076	-0,018
-654,101	800,000	0,043	-0,126
-653,086	126,394	0,079	-0,072
-652,072	350,886	-0,102	-0,146
-651,057	800,000	-0,047	0,107
-650,043	196,960	-0,029	0,032
-649,028	-94,085	0,043	0,009
-648,014	366,284	-0,058	0,085
-646,999	57,214	-0,076	-0,054
-645,984	-50,610	-0,048	0,016
-644,970	-21,503	-0,118	0,052
-643,955	-45,860	-0,135	0,048
-642,941	-200,000	-0,018	-0,061
-641,926	50,664	0,051	0,035
-640,911	676,662	0,053	-0,100
-639,897	-75,592	-0,040	-0,010
-638,882	-105,771	-0,046	0,007
-637,868	259,453	-0,055	-0,068
-636,853	-90,510	-0,096	0,020
-635,838	-34,635	0,143	-0,056
-634,824	-200,000	0,017	0,163
-633,809	800,000	0,055	0,172
-632,795	800,000	-0,055	0,137
-631,780	504,317	0,036	-0,060
-630,765	-137,997	0,254	-0,020
-629,751	-52,098	-0,115	-0,039
-628,736	198,467	-0,080	-0,089
-627,722	-200,000	0,013	-0,210
-626,707	253,019	0,037	0,046
-625,692	38,470	0,146	-0,094
-624,678	-200,000	0,011	-0,081
-623,663	119,139	-0,018	0,016
-622,649	41,993	0,038	-0,025
-621,634	520,077	-0,049	0,084
-620,619	531,906	0,043	0,075
-619,605	-80,972	0,129	-0,031
-618,590	800,000	0,021	0,066
-617,576	173,192	0,035	0,037
-616,561	96,237	-0,122	0,101
-615,546	-67,545	-0,202	0,057
-614,532	-200,000	-0,014	0,156
-613,517	48,580	-0,055	-0,037
-612,503	251,198	-0,037	-0,046
-611,488	-122,400	-0,088	0,010
-610,474	195,507	-0,083	0,091
-609,459	151,605	-0,027	-0,026
-608,444	674,125	0,019	-0,036
-607,430	7,311	-0,176	-0,095
-606,415	-200,000	0,015	-0,171
-605,401	140,298	-0,078	0,075
-604,386	-200,000	0,046	0,178
-603,371	-200,000	0,018	0,079
-602,357	800,000	0,035	-0,094
-601,342	-200,000	-0,023	0,104
-600,328	26,469	-0,075	-0,046
-599,313	40,838	-0,060	0,039
-598,298	-100,679	0,046	-0,008
-597,284	-200,000	0,030	0,147
-596,269	-200,000	0,027	0,096
-595,255	800,000	0,058	0,122
-594,240	157,808	-0,037	-0,038
-593,225	-200,000	-0,020	-0,127
-592,211	695,687	-0,041	-0,078
-591,196	45,047	-0,107	-0,071
-590,182	6,416	0,021	-0,011
-589,167	57,381	0,131	0,092
-588,152	-200,000	-0,012	0,064
-587,138	-137,282	0,038	-0,003
-586,123	800,000	-0,005	0,014
-585,109	-9,652	-0,070	-0,033
-584,094	800,000	0,039	0,118
-583,079	2,177	0,081	0,042
-582,065	-200,000	-0,015	0,148
-581,050	582,531	-0,021	0,037
-580,036	-42,697	-0,100	0,036
-579,021	-134,948	0,135	-0,012
-578,006	-91,364	-0,077	-0,016
-576,992	800,000	0,050	-0,136
-575,977	716,244	-0,026	0,050
-574,963	77,367	-0,048	0,037
-573,948	-94,477	0,099	0,019
-572,934	800,000	-0,042	-0,115
-571,919	124,088	0,013	-0,012
-570,904	68,819	-0,041	-0,030
-569,890	559,115	-0,054	-0,095
-568,875	-74,403	0,088	0,023
-567,861	-43,061	0,112	-0,041
-566,846	4,408	-0,074	-0,039
-565,831	-200,000	-0,018	0,119
-564,817	564,907	-0,023	0,041
-563,802	18,976	-0,082	-0,047
-562,788	31,055	-0,077	-0,048
-561,773	111,062	0,105	-0,092
-560,758	646,406	-0,105	0,195
-559,744	800,000	-0,026	-0,062
-558,729	90,512	-0,044	0,035
-557,715	800,000	-0,032	0,069
-556,700	-36,897	-0,041	-0,016
-555,685	-22,688	-0,074	-0,032
-554,671	-200,000	0,009	-0,066
-553,656	800,000	-0,040	0,121
-552,642	-200,000	-0,003	-0,112
-551,627	243,571	0,064	-0,078
-550,612	129,264	0,024	-0,022
-549,598	-13,785	-0,209	-0,097
-548,583	800,000	0,061	0,135
-547,569	143,201	-0,063	0,060
-546,554	445,116	0,081	-0,129
-545,539	206,889	-0,020	-0,022
-544,525	289,423	0,106	0,139
-543,510	-132,103	-0,043	0,004
-542,496	503,846	-0,019	-0,031
-541,481	-82,675	0,028	-0,006
-540,466	800,000	-0,023	-0,064
-539,452	455,212	0,014	0,022
-538,437	199,093	0,128	0,141
-537,423	99,442	-0,101	0,084
-536,408	91,794	0,100	-0,081
-535,393	-200,000	0,003	-0,108
-534,379	80,908	-0,097	-0,075
-533,364	-175,399	0,063	0,001
-532,350	-200,000	0,010	0,098
-531,335	800,000	0,079	0,212
-530,321	-37,171	-0,046	-0,018
-529,306	321,293	-0,020	-0,027
-528,291	-46,955	-0,083	0,029
-527,277	800,000	0,063	-0,134
-526,262	-200,000	0,003	0,022
-525,248	-200,000	0,009	-0,037
-524,233	248,252	0,049	-0,060
-523,218	204,012	-0,067	-0,075
-522,204	356,136	-0,030	-0,043
-521,189	-200,000	0,068	-0,242
-520,175	170,100	0,052	-0,054
-519,160	-200,000	-0,005	-0,029
-518,145	408,296	0,054	-0,083
-517,131	-200,000	0,029	-0,133
-516,116	73,021	0,066	-0,050
-515,102	-200,000	-0,023	-0,089
-514,087	153,654	0,086	-0,085
-513,072	800,000	-0,064	-0,161
-512,058	-200,000	-0,009	-0,073
-511,043	-195,968	0,179	0,001
-510,029	-200,000	0,003	0,021
-509,014	-200,000	0,015	-0,056
-507,999	-62,815	0,068	-0,020
-506,985	-53,859	-0,029	0,009
-505,970	-200,000	0,005	-0,037
-504,956	311,185	-0,146	-0,197
-503,941	-79,518	0,020	0,005
-502,926	85,266	0,111	0,087
-501,912	-74,405	0,031	-0,008
-500,897	-137,652	-0,099	0,008
-499,883	800,000	0,009	-0,020
-498,868	-25,732	0,060	0,025
-497,853	59,495	-0,079	-0,056
-496,839	628,335	0,072	-0,131
-495,824	84,533	-0,058	0,046
-494,810	-200,000	-0,019	0,158
-493,795	494,513	0,012	-0,020
-492,781	-3,741	-0,021	0,010
-491,766	800,000	-0,015	0,031
-490,751	-200,000	0,018	-0,119
-489,737	-30,794	-0,125	-0,051
-488,722	-47,610	0,203	0,070
-487,708	-200,000	0,029	0,239
-486,693	-200,000	0,000	-0,028
-485,678	-157,983	0,069	-0,003
-484,664	121,827	-0,028	0,026
-483,649	64,419	-0,115	-0,083
-482,635	-200,000	-0,009	-0,028
-481,620	-59,183	0,148	0,046
-480,605	63,580	0,095	0,069
-479,591	14,262	-0,109	0,061
-478,576	800,000	-0,034	0,099
-477,562	800,000	0,021	0,057
-476,547	800,000	-0,017	-0,054
-475,532	-200,000	0,005	-0,082
-474,518	-115,000	0,083	0,011
-473,503	-200,000	-0,057	0,208
-472,489	124,291	0,034	-0,031
-471,474	132,738	-0,089	0,083
-470,459	12,864	-0,056	0,031
-469,445	-149,583	0,090	0,005
-468,430	162,008	-0,089	0,090
-467,416	-79,360	0,057	-0,014
-466,401	-200,000	-0,004	-0,086
-465,386	-81,412	-0,169	0,040
-464,372	-25,686	-0,050	0,021
-463,357	61,690	0,128	-0,092
-462,343	-0,522	-0,112	-0,057
-461,328	35,150	0,065	-0,041
-460,313	-67,604	0,050	-0,014
-459,299	800,000	0,021	0,067
-458,284	554,122	-0,042	-0,073
-457,270	-200,000	0,003	0,058
-456,255	48,784	-0,102	-0,069
-455,241	-97,254	-0,107	-0,020
-454,226	295,198	-0,060	-0,078
-453,211	274,092	0,044	0,057
-452,197	132,152	0,112	-0,104
-451,182	-23,954	0,105	-0,045
-450,168	687,305	-0,032	-0,060
-449,153	63,354	-0,045	0,032
-448,138	7,560	0,134	-0,072
-447,124	-33,758	0,086	0,034
-446,109	11,364	0,088	0,049
-445,095	698,127	0,066	-0,126
-444,080	116,667	0,076	0,067
-443,065	-155,266	0,076	0,004
-442,051	3,812	0,052	-0,027
-441,036	30,040	-0,054	-0,033
-440,022	-200,000	-0,009	-0,031
-439,007	-200,000	-0,027	0,263
-437,992	-150,165	0,209	0,011
-436,978	112,449	-0,049	-0,043
-435,963	-62,269	0,103	0,031
-434,949	245,344	0,071	-0,086
-433,934	214,199	-0,070	-0,079
-432,919	-200,000	-0,031	-0,143
-431,905	-200,000	0,002	-0,074
-430,890	-51,723	-0,018	-0,006
-429,876	800,000	0,041	0,102
-428,861	285,285	0,027	-0,036
-427,846	-3,480	-0,076	0,038
-426,832	278,102	-0,092	-0,118
-425,817	-63,283	-0,106	-0,031
-424,803	-200,000	0,032	0,113
-423,788	-200,000	-0,009	0,115
-422,773	44,373	0,062	-0,041
-421,759	-14,868	-0,027	0,012
-420,744	41,158	0,067	-0,044
-419,730	161,348	0,037	-0,037
-418,715	-65,869	0,067	-0,019
-417,701	-200,000	-0,023	-0,191
-416,686	-105,458	0,149	-0,024
-415,671	-109,056	0,111	0,017
-414,657	150,276	0,085	-0,082
-413,642	-200,000	-0,026	0,084
-412,628	800,000	0,009	0,025
-411,613	15,658	-0,091	0,051
-410,598	694,246	0,010	0,018
-409,584	-93,738	0,062	-0,012
-408,569	-23,975	-0,070	-0,030
-407,555	-200,000	-0,025	0,116
-406,540	-200,000	-0,012	0,046
-405,525	-112,289	0,077	0,011
-404,511	522,302	-0,065	-0,111
-403,496	-40,271	-0,009	-0,003
-402,482	-200,000	0,002	-0,073
-401,467	-29,376	-0,061	0,025
-400,452	-200,000	-0,005	0,084
-399,438	-10,494	-0,103	-0,049
-398,423	800,000	0,052	-0,149
-397,409	589,360	-0,053	-0,093
-396,394	702,994	-0,025	0,048
-395,379	8,477	0,104	-0,056
-394,365	10,456	0,118	0,064
-393,350	-200,000	0,006	0,046
-392,336	235,619	0,057	-0,067
-391,321	534,185	0,048	0,082
-390,306	800,000	-0,043	-0,105
-389,292	195,181	-0,022	0,024
-388,277	800,000	0,012	0,032
-387,263	-120,267	0,158	0,019
-386,248	418,104	0,044	0,067
-385,233	-200,000	0,001	0,037
-384,219	76,283	-0,084	0,064
-383,204	103,458	-0,048	-0,041
-382,190	217,447	0,097	0,112
-381,175	-7,733	-0,126	-0,061
-380,160	800,000	-0,033	-0,096
-379,146	304,636	-0,024	-0,032
-378,131	-200,000	0,001	-0,066
-377,117	-84,538	0,073	-0,016
-376,102	88,077	-0,046	-0,037
-375,088	800,000	-0,021	-0,050
-374,073	-109,762	0,042	0,006
-373,058	-25,886	0,112	0,047
-372,044	800,000	0,017	0,045
-371,029	390,854	0,025	-0,037
-370,015	120,597	0,050	0,045
-369,000	760,063	-0,023	-0,044
-367,985	800,000	-0,024	-0,055
-366,971	-52,949	0,109	0,036
-365,956	-200,000	0,004	0,012
-364,942	-200,000	0,029	0,109
-363,927	31,306	-0,039	0,024
-362,912	-67,414	0,170	0,047
-361,898	-83,102	-0,022	-0,005
-360,883	426,290	0,037	-0,058
-359,869	42,310	0,023	0,015
-358,854	-200,000	-0,003	-0,034
-357,839	-200,000	-0,015	0,061
-356,825	800,000	0,062	0,162
-355,810	297,840	-0,098	0,130
-354,796	142,354	-0,027	-0,026
-353,781	800,000	-0,063	-0,172
-352,766	37,682	-0,075	-0,048
-351,752	-95,924	0,109	-0,021
-350,737	-200,000	-0,012	0,071
-349,723	-115,642	0,101	0,013
-348,708	-106,955	0,026	-0,004
-347,693	-200,000	0,013	0,060
-346,679	-200,000	0,032	0,141
-345,664	-138,016	0,061	-0,005
-344,650	-129,825	-0,127	-0,012
-343,635	41,146	-0,040	-0,026
-342,620	-200,000	0,008	0,181
-341,606	186,262	-0,064	0,068
-340,591	-200,000	0,010	-0,074
-339,577	-200,000	-0,043	0,158
-338,562	195,790	0,024	-0,026
-337,548	-41,538	0,111	-0,041
-336,533	116,132	-0,102	0,090
-335,518	182,016	0,063	0,067
-334,504	205,731	0,063	0,071
-333,489	181,510	-0,151	0,159
-332,475	24,950	0,064	0,038
-331,460	-200,000	-0,023	-0,132
-330,445	-25,142	-0,035	0,015
-329,431	107,843	0,104	0,088
-328,416	115,402	-0,021	0,019
-327,402	800,000	0,043	-0,094
-326,387	-65,022	0,060	0,017
-325,372	-163,687	-0,155	0,005
-324,358	64,006	-0,038	-0,028
-323,343	216,513	-0,053	-0,060
-322,329	-141,374	0,031	-0,002
-321,314	-200,000	0,014	0,110
-320,299	426,063	-0,110	0,171
-319,285	800,000	0,025	0,072
-318,270	800,000	-0,014	-0,033
-317,256	228,213	-0,052	-0,060
-316,241	759,606	-0,043	0,083
-315,226	-200,000	0,000	0,060
-314,212	128,559	0,070	-0,064
-313,197	104,059	-0,063	-0,053
-312,183	-95,769	0,198	0,037
-311,168	-200,000	0,025	0,124
-310,153	-200,000	-0,006	-0,093
-309,139	-200,000	0,005	-0,025
-308,124	-200,000	-0,000	-0,066
-307,110	31,897	-0,056	0,035
-306,095	-200,000	-0,003	0,084
-305,080	-200,000	-0,010	0,089
-304,066	112,475	0,042	-0,036
-303,051	800,000	-0,023	-0,067
-302,037	800,000	0,013	-0,038
-301,022	68,704	0,045	-0,033
-300,008	-55,437	0,073	-0,023
-298,993	-57,307	0,032	0,010
-297,978	800,000	0,025	0,062
-296,964	800,000	0,031	0,079
-295,949	34,000	-0,026	-0,016
-294,935	370,796	-0,020	0,029
-293,920	-200,000	-0,003	0,016
-292,905	-152,110	0,082	-0,004
-291,891	-63,198	0,149	-0,044
-290,876	77,259	-0,088	0,067
-289,862	364,555	0,011	0,016
-288,847	-13,075	-0,072	-0,033
-287,832	800,000	0,003	0,009
-286,818	800,000	0,030	0,086
-285,803	-145,712	0,024	-0,001
-284,789	-200,000	-0,006	-0,102
-283,774	-66,596	-0,122	-0,034
-282,759	-88,389	-0,039	-0,008
-281,745	223,225	0,021	0,024
-280,730	-158,961	0,086	-0,003
-279,716	-200,000	-0,014	-0,119
-278,701	165,319	0,049	-0,050
-277,686	520,653	-0,061	-0,102
-276,672	167,775	0,082	0,083
-275,657	-47,872	-0,170	0,058
-274,643	-28,916	0,131	-0,054
-273,628	-75,411	-0,099	-0,025
-272,613	800,000	-0,045	0,091
-271,599	-200,000	-0,003	-0,028
-270,584	538,356	-0,038	0,064
-269,570	448,062	-0,049	0,077
-268,555	80,579	-0,060	-0,046
-267,540	94,032	-0,037	-0,030
-266,526	592,068	0,049	-0,086
-265,511	-200,000	-0,005	-0,024
-264,497	-200,000	-0,004	0,067
-263,482	800,000	0,008	0,016
-262,467	-200,000	0,002	0,021
-261,453	182,510	0,073	0,077
-260,438	-32,987	-0,146	0,058
-259,424	361,949	-0,030	-0,044
-258,409	-200,000	0,036	-0,128
-257,395	800,000	0,052	-0,155
-256,380	617,671	-0,021	-0,038
-255,365	-200,000	-0,014	-0,069
-254,351	-143,655	-0,031	0,002
-253,336	-116,646	-0,104	-0,013
-252,322	743,663	0,040	0,077
-251,307	272,364	-0,077	0,098
-250,292	-200,000	0,010	-0,058
-249,278	-200,000	0,029	0,117
-248,263	-200,000	-0,026	0,125
-247,249	-134,063	0,056	-0,005
-246,234	-131,728	-0,094	-0,009
-245,219	-200,000	-0,007	0,044
-244,205	28,658	0,090	-0,054
-243,190	-200,000	0,034	0,127
-242,176	-14,886	0,183	0,084
-241,161	-30,394	0,060	0,024
-240,146	119,531	-0,057	0,050
-239,132	-41,879	-0,065	-0,024
-238,117	800,000	0,023	0,048
-237,103	-27,430	-0,062	0,026
-236,088	-28,482	0,066	0,027
-235,073	-137,773	0,138	-0,011
-234,059	-169,725	0,161	-0,004
-233,044	-119,774	-0,109	-0,013
-232,030	263,555	-0,110	0,136
-231,015	-141,280	-0,216	-0,015
-230,000	240,527	-0,026	-0,031
-228,986	-200,000	0,003	0,034
-227,971	26,794	-0,062	0,037
-226,957	-6,063	0,189	0,092
-225,942	-26,060	-0,054	0,022
-224,927	-200,000	-0,016	-0,098
-223,913	101,107	-0,006	-0,005
-222,898	163,645	-0,101	0,102
-221,884	800,000	0,041	0,124
-220,869	151,777	0,053	0,052
-219,855	800,000	-0,049	0,146
-218,840	55,621	-0,078	-0,053
-217,825	430,850	0,042	-0,065
-216,811	-79,623	-0,205	0,049
-215,796	-25,629	-0,091	-0,038
-214,782	162,008	0,116	-0,116
-213,767	-200,000	0,019	-0,105
-212,752	-200,000	-0,015	0,093
-211,738	-111,698	-0,098	0,014
-210,723	-80,683	0,043	-0,010
-209,709	40,425	-0,070	0,045
-208,694	101,283	-0,045	0,037
-207,679	800,000	0,025	-0,063
-206,665	-79,076	-0,048	-0,012
-205,650	-123,923	0,061	0,007
-204,636	489,392	0,056	-0,091
-203,621	-42,294	-0,180	-0,065
-202,606	-71,614	-0,090	0,024
-201,592	278,653	-0,031	-0,039
-200,577	70,483	0,039	-0,029
-199,563	122,423	0,024	-0,021
-198,548	159,721	0,053	0,053
-197,533	121,811	0,142	0,126
-196,519	93,735	-0,042	-0,034
-195,504	225,484	0,046	-0,053
-194,490	-27,219	-0,133	-0,055
-193,475	-136,801	0,042	-0,003
-192,460	230,623	-0,077	-0,090
-191,446	-39,347	-0,034	0,013
-190,431	-119,503	0,137	0,017
-189,417	182,687	-0,096	0,101
-188,402	800,000	-0,012	-0,024
-187,387	800,000	0,070	-0,157
-186,373	-83,477	0,061	0,014
-185,358	140,419	-0,051	-0,048
-184,344	129,423	0,045	0,041
-183,329	550,572	0,036	-0,062
-182,315	-88,817	0,211	0,044
-181,300	-200,000	-0,009	-0,076
-180,285	610,480	0,045	-0,081
-179,271	800,000	0,034	-0,074
-178,256	597,617	-0,082	-0,146
-177,242	234,769	0,068	-0,080
-176,227	-200,000	0,019	0,102
-175,212	-88,618	0,030	-0,006
-174,198	-154,948	-0,131	-0,006
-173,183	-200,000	0,015	-0,114
-172,169	-106,020	-0,050	-0,008
-171,154	112,292	0,049	-0,042
-170,139	800,000	0,063	0,157
-169,125	-200,000	-0,001	0,031
-168,110	312,359	-0,039	-0,052
-167,096	68,202	0,027	-0,020
-166,081	98,004	-0,084	-0,069
-165,066	747,662	0,021	-0,040
-164,052	-22,812	0,072	-0,031
-163,037	-21,854	-0,194	0,084
-162,023	-72,527	0,133	0,035
-161,008	-200,000	-0,014	-0,182
-159,993	39,915	0,031	0,020
-158,979	125,950	-0,096	-0,086
-157,964	57,191	-0,106	-0,074
-156,950	800,000	-0,038	-0,107
-155,935	468,124	0,023	0,037
-154,920	47,085	0,068	-0,045
-153,906	-200,000	-0,040	0,134
-152,891	-32,005	-0,164	0,065
-151,877	-107,581	-0,114	-0,018
-150,862	32,619	0,024	-0,015
-149,847	209,206	0,067	-0,074
-148,833	371,101	-0,063	-0,092
-147,818	-165,779	0,080	0,002
-146,804	318,098	0,079	0,106
-145,789	43,044	-0,149	0,096
-144,775	-63,160	-0,068	0,020
-143,760	692,634	-0,056	0,104
-142,745	-200,000	0,020	-0,078
-141,731	473,936	0,059	-0,094
-140,716	-27,516	0,100	0,041
-139,702	-110,742	0,149	0,022
-138,687	-65,645	0,039	0,011
-137,672	800,000	0,040	-0,096
-136,658	-118,574	-0,128	-0,016
-135,643	-136,649	0,063	0,005
-134,629	395,654	0,048	-0,071
-133,614	-130,571	0,109	-0,010
-132,599	-61,336	0,123	0,036
-131,585	-150,505	0,084	-0,005
-130,570	-153,943	-0,089	0,004
-129,556	-200,000	-0,020	-0,110
-128,541	-200,000	-0,017	0,079
-127,526	333,224	0,065	-0,089
-126,512	-200,000	-0,013	-0,055
-125,497	-200,000	-0,012	0,055
-124,483	25,235	0,089	0,052
-123,468	137,479	-0,080	-0,074
-122,453	-102,317	-0,058	0,010
-121,439	-65,570	-0,158	-0,045
-120,424	-118,072	0,167	0,021
-119,410	-195,454	0,187	-0,001
-118,395	-65,086	-0,052	0,015
-117,380	-1,349	-0,111	-0,055
-116,366	196,499	0,023	0,025
-115,351	-200,000	0,015	-0,086
-114,337	800,000	0,026	-0,064
-113,322	-89,363	-0,024	-0,005
-112,307	659,750	0,097	-0,178
-111,293	-79,557	-0,124	0,029
-110,278	-18,669	0,047	0,021
-109,264	-132,854	-0,011	0,001
-108,249	-200,000	0,008	-0,092
-107,234	-200,000	-0,045	0,147
-106,220	16,868	0,086	-0,048
-105,205	-56,685	-0,133	0,041
-104,191	58,852	0,057	-0,039
-103,176	161,154	0,031	-0,031
-102,162	-58,926	0,105	0,032
-101,147	-27,059	0,016	-0,007
-100,132	-142,221	-0,018	0,001
-99,118	-200,000	-0,005	-0,016
-98,103	-200,000	-0,015	0,220
-97,089	264,315	0,083	0,103
-96,074	-137,616	0,137	-0,011
-95,059	-87,451	-0,130	0,028
-94,045	800,000	0,028	-0,069
-93,030	-62,215	-0,117	0,034
-92,016	-200,000	-0,003	0,059
-91,001	193,362	0,060	-0,064
-89,986	-200,000	-0,019	0,111
-88,972	-200,000	0,002	0,108
-87,957	558,527	-0,045	0,077
-86,943	782,770	0,044	0,085
-85,928	-6,800	-0,035	-0,017
-84,913	-124,358	0,035	0,004
-83,899	313,249	0,024	-0,032
-82,884	-135,539	0,048	0,004
-81,870	800,000	0,002	-0,006
-80,855	-200,000	-0,014	0,222
-79,840	-72,397	-0,096	0,025
-78,826	-3,633	-0,039	0,019
-77,811	245,190	-0,053	-0,063
-76,797	7,398	0,062	0,033
-75,782	-200,000	-0,006	-0,062
-74,767	409,477	0,061	-0,093
-73,753	-96,624	0,042	0,008
-72,738	-200,000	0,022	0,181
-71,724	-200,000	0,042	-0,150
-70,709	-14,664	-0,106	-0,048
-69,694	28,557	0,105	0,063
-68,680	-200,000	-0,002	-0,037
-67,665	-122,940	0,089	0,010
-66,651	-63,505	0,028	0,008
-65,636	-200,000	-0,005	-0,079
-64,622	-12,791	0,063	0,029
-63,607	-200,000	-0,003	-0,089
-62,592	-148,777	-0,182	0,010
-61,578	213,442	0,161	-0,181
-60,563	63,150	0,095	-0,067
-59,549	-200,000	-0,005	-0,021
-58,534	-30,595	-1,600	-0,639
-57,519	362,333	-1,327	-1,891
-56,505	-200,000	-0,629	-4,612
-55,490	302,755	1,018	1,337
-54,476	800,000	4,756	11,132
-53,461	-200,000	19,246	319,855
-52,446	-200,000	740,524	2335,184
-51,432	574,020	1655,519	2870,442
-50,417	78,342	1671,266	1262,293
-49,403	21,377	1544,018	886,045
-48,388	15,268	1466,335	811,764
-47,373	17,972	1456,721	819,476
-46,359	16,663	1446,803	807,587
-45,344	13,498	1441,817	789,611
-44,330	13,378	1440,290	788,168
-43,315	13,420	1438,324	787,262
-42,300	13,409	1436,657	786,266
-41,286	13,466	1435,316	785,771
-40,271	13,459	1433,943	784,958
-39,257	13,386	1432,881	783,998
-38,242	13,461	1431,420	783,522
-37,227	13,485	1430,385	783,041
-36,213	13,473	1428,973	782,180
-35,198	13,428	1427,778	781,280
-34,184	13,488	1427,004	781,108
-33,169	13,422	1425,660	780,029
-32,154	13,477	1424,516	779,633
-31,140	13,493	1423,193	778,955
-30,125	13,516	1422,235	778,510
-29,111	13,487	1420,917	777,619
-28,096	13,477	1419,732	776,890
-27,082	13,407	1418,838	776,040
-26,067	13,401	1417,710	775,366
-25,052	13,390	1416,680	774,719
-24,038	13,404	1415,642	774,185
-23,023	13,374	1414,686	773,494
-22,009	13,337	1413,544	772,664
-20,994	13,348	1412,706	772,226
-19,979	13,352	1411,714	771,670
-18,965	13,341	1410,893	771,139
-17,950	13,324	1410,038	770,562
-16,936	13,385	1408,945	770,223
-15,921	13,319	1407,767	769,236
-14,906	13,282	1407,075	768,658
-13,892	13,319	1406,172	768,305
-12,877	13,272	1405,416	767,640
-11,863	13,298	1404,332	767,141
-10,848	13,308	1403,530	766,720
-9,833	13,284	1402,573	766,052
-8,819	13,242	1401,782	765,395
-7,804	13,196	1400,903	764,671
-6,790	13,211	1399,806	764,111
-5,775	13,193	1398,671	763,378
-4,760	13,203	1397,703	762,865
-3,746	13,208	1396,746	762,336
-2,731	13,226	1396,078	762,025
-1,717	13,186	1395,107	761,279
-0,702	13,171	1393,368	760,233
0,313	17,031	1310,078	732,665
1,327	33,203	703,753	430,952
2,342	51,359	123,345	82,734
3,356	1,996	16,559	8,427
4,371	5,498	3,269	1,702
5,386	122,121	0,462	0,408
6,400	61,698	0,124	0,087
7,415	546,949	-0,167	-0,284
8,429	144,064	-0,230	-0,217
9,444	-63,846	-0,458	-0,132
10,459	150,819	-0,302	-0,290
11,473	96,415	-0,264	-0,214
12,488	-11,319	-0,178	-0,082
13,502	-11,616	-0,291	-0,134
14,517	22,741	-0,354	-0,204
15,531	9,205	-0,396	-0,211
16,546	83,067	-0,363	-0,279
17,561	93,235	-0,362	-0,289
18,575	50,581	-0,203	-0,135
19,590	110,217	-0,292	-0,248
20,604	50,749	-0,286	-0,191
21,619	111,112	-0,415	-0,353
22,634	-29,297	-0,541	-0,218
23,648	259,181	-0,310	-0,378
24,663	140,339	-0,285	-0,266
25,677	254,410	-0,232	-0,281
26,692	15,533	-0,259	-0,143
27,707	198,036	-0,340	-0,367
28,721	68,662	-0,389	-0,281
29,736	47,557	-0,394	-0,259
30,750	160,938	-0,326	-0,322
31,765	47,045	-0,373	-0,244
32,780	226,138	-0,257	-0,294
33,794	451,685	-0,188	-0,294
34,809	3,992	-0,438	-0,225
35,823	112,739	-0,331	-0,283
36,838	19,544	-0,436	-0,247
37,853	37,973	-0,461	-0,288
38,867	36,892	-0,439	-0,273
39,882	170,941	-0,229	-0,232
40,896	-7,854	-0,380	-0,180
41,911	205,040	-0,216	-0,236
42,926	63,114	-0,338	-0,239
43,940	46,047	-0,461	-0,300
44,955	156,331	-0,234	-0,228
45,969	-21,646	-0,394	-0,168
46,984	69,931	-0,315	-0,229
47,999	-86,363	-0,371	-0,080
49,013	218,255	-0,258	-0,290
50,028	74,667	-0,301	-0,223
51,042	103,907	-0,393	-0,325
52,057	98,231	-0,282	-0,229
53,071	13,527	-0,353	-0,192
54,086	204,986	-0,337	-0,368
55,101	296,696	-0,257	-0,332
56,115	2,009	-0,248	-0,126
57,130	-7,317	-0,392	-0,186
58,144	-5,296	-0,413	-0,199
59,159	350,574	-0,266	-0,371
60,174	45,341	-0,305	-0,198
61,188	33,060	-0,445	-0,271
62,203	35,170	-0,367	-0,226
63,217	78,218	-0,328	-0,246
64,232	-25,446	-0,339	-0,140
65,247	116,828	-0,261	-0,225
66,261	38,553	-0,342	-0,214
67,276	105,568	-0,244	-0,203
68,290	18,887	-0,373	-0,209
69,305	134,221	-0,269	-0,245
70,320	68,304	-0,358	-0,258
71,334	-5,367	-0,201	-0,097
72,349	-43,569	-0,291	-0,103
73,363	426,485	-0,167	-0,253
74,378	21,445	-0,397	-0,226
75,393	-103,474	-0,264	-0,043
76,407	-48,552	-0,310	-0,104
77,422	19,516	-0,174	-0,098
78,436	53,169	-0,198	-0,133
79,451	-22,065	-0,247	-0,105
80,466	-26,825	-0,369	-0,151
81,480	36,086	-0,400	-0,247
82,495	171,667	-0,187	-0,189
83,509	234,113	-0,274	-0,318
84,524	-81,531	-0,204	-0,047
85,539	-28,013	-0,256	-0,104
86,553	36,798	-0,366	-0,227
87,568	56,982	-0,187	-0,128
88,582	196,127	-0,331	-0,354
89,597	102,891	-0,207	-0,170
90,611	123,924	-0,210	-0,185
91,626	77,845	-0,305	-0,228
92,641	45,697	-0,252	-0,163
93,655	99,601	-0,263	-0,214
94,670	160,528	-0,298	-0,292
95,684	18,400	-0,416	-0,233
96,699	-140,435	-0,337	-0,024
97,714	30,929	-0,239	-0,144
98,728	-85,478	-0,276	-0,060
99,743	163,272	-0,310	-0,306
100,757	70,986	-0,286	-0,207
101,772	175,171	-0,320	-0,325
102,787	63,570	-0,333	-0,234
103,801	14,947	-0,290	-0,159
104,816	243,778	-0,164	-0,193
105,830	5,272	-0,239	-0,123
106,845	285,485	-0,195	-0,246
107,860	17,367	-0,201	-0,112
108,874	-106,989	-0,270	-0,041
109,889	107,099	-0,260	-0,216
110,903	118,826	-0,342	-0,296
111,918	-19,041	-0,334	-0,145
112,933	230,661	-0,210	-0,242
113,947	129,825	-0,233	-0,209
114,962	43,370	-0,186	-0,119
115,976	277,880	-0,244	-0,305
116,991	99,504	-0,188	-0,152
118,006	-94,354	-0,223	-0,042
119,020	228,900	-0,220	-0,252
120,035	315,924	-0,137	-0,181
121,049	-43,726	-0,298	-0,105
122,064	480,191	-0,119	-0,189
123,079	60,484	-0,272	-0,189
124,093	83,261	-0,286	-0,218
125,108	470,875	-0,087	-0,137
126,122	22,291	-0,235	-0,134
127,137	25,307	-0,268	-0,156
128,151	31,146	-0,192	-0,115
129,166	-74,843	-0,233	-0,058
130,181	-141,376	-0,301	-0,021
131,195	116,667	-0,347	-0,298
132,210	96,891	-0,248	-0,199
133,224	48,070	-0,257	-0,168
134,239	-1,820	-0,399	-0,196
135,254	302,613	-0,130	-0,169
136,268	99,302	-0,226	-0,182
137,283	-2,620	-0,231	-0,113
138,297	79,940	-0,292	-0,219
139,312	225,170	-0,203	-0,230
140,327	800,000	-0,133	-0,371
141,341	110,926	-0,161	-0,135
142,356	121,664	-0,249	-0,217
143,370	181,893	-0,136	-0,140
144,385	800,000	-0,126	-0,324
145,400	145,724	-0,310	-0,290
146,414	-44,150	-0,297	-0,104
147,429	79,128	-0,232	-0,174
148,443	157,576	-0,242	-0,234
149,458	-31,434	-0,114	-0,044
150,473	-0,764	-0,271	-0,134
151,487	106,061	-0,184	-0,152
152,502	30,751	-0,277	-0,165
153,516	-12,637	-0,301	-0,136
154,531	164,179	-0,284	-0,280
155,546	7,666	-0,216	-0,113
156,560	53,738	-0,242	-0,162
157,575	160,829	-0,197	-0,192
158,589	232,804	-0,236	-0,271
159,604	45,475	-0,222	-0,143
160,619	110,564	-0,333	-0,279
161,633	800,000	-0,132	-0,358
162,648	-49,571	-0,288	-0,095
163,662	-97,482	-0,148	0,027
164,677	100,414	-0,333	-0,269
165,692	118,724	-0,209	-0,180
166,706	44,212	-0,279	-0,178
167,721	243,561	-0,281	-0,329
168,735	130,222	-0,251	-0,224
169,750	169,831	-0,279	-0,279
170,764	64,595	-0,267	-0,187
171,779	85,506	-0,196	-0,150
172,794	-137,759	-0,198	0,015
173,808	31,848	-0,173	-0,103
174,823	110,161	-0,182	-0,152
175,837	55,155	-0,219	-0,147
176,852	356,207	-0,130	-0,180
177,867	-24,230	-0,207	-0,086
178,881	-88,835	-0,311	-0,064
179,896	-56,355	-0,325	-0,100
180,910	-165,656	-0,259	-0,008
181,925	75,024	-0,135	-0,099
182,940	69,163	-0,237	-0,169
183,954	2,975	-0,209	-0,105
184,969	118,841	-0,189	-0,163
185,983	800,000	-0,098	-0,218
186,998	-94,993	-0,166	-0,031
188,013	-0,352	-0,262	-0,129
189,027	30,046	-0,298	-0,176
190,042	37,007	-0,262	-0,161
191,056	63,672	-0,248	-0,173
192,071	104,509	-0,174	-0,143
193,086	-55,152	-0,271	-0,084
194,100	35,235	-0,222	-0,135
195,115	235,192	-0,196	-0,225
196,129	-45,663	-0,202	-0,069
197,144	-200,000	-0,061	-0,240
198,159	753,878	-0,093	-0,175
199,173	173,509	-0,240	-0,241
200,188	-116,110	-0,203	-0,026
201,202	100,381	-0,232	-0,187
202,217	222,846	-0,133	-0,149
203,232	14,135	-0,191	-0,103
204,246	150,702	-0,266	-0,251
205,261	153,070	-0,238	-0,226
206,275	4,389	-0,309	-0,157
207,290	800,000	-0,040	-0,111
208,304	-54,762	-0,284	-0,089
209,319	-11,391	-0,149	-0,068
210,334	800,000	-0,106	-0,218
211,348	607,281	-0,102	-0,177
212,363	-78,891	-0,175	-0,041
213,377	-1,592	-0,246	-0,120
214,392	359,593	-0,089	-0,124
215,407	134,489	-0,207	-0,187
216,421	0,051	-0,276	-0,136
217,436	54,538	-0,223	-0,149
218,450	149,990	-0,148	-0,139
219,465	31,638	-0,221	-0,132
220,480	35,197	-0,298	-0,181
221,494	15,909	-0,191	-0,104
222,509	-160,468	-0,247	-0,009
223,523	800,000	-0,085	-0,206
224,538	110,599	-0,243	-0,203
225,553	55,487	-0,247	-0,165
226,567	-37,669	-0,234	-0,086
227,582	458,308	-0,171	-0,265
228,596	800,000	-0,106	-0,316
229,611	800,000	-0,083	-0,164
230,626	125,431	-0,182	-0,159
231,640	530,776	-0,103	-0,169
232,655	69,613	-0,246	-0,175
233,669	43,866	-0,179	-0,113
234,684	141,535	-0,184	-0,169
235,699	95,483	-0,267	-0,211
236,713	-200,000	-0,007	-0,023
237,728	-65,397	-0,198	-0,055
238,742	195,763	-0,115	-0,121
239,757	293,403	-0,145	-0,183
240,772	139,745	-0,077	-0,070
241,786	187,926	-0,206	-0,214
242,801	84,617	-0,213	-0,161
243,815	-9,199	-0,156	-0,072
244,830	-94,577	-0,191	-0,036
245,844	-59,686	-0,195	-0,058
246,859	800,000	-0,049	-0,097
247,874	340,249	-0,143	-0,194
248,888	14,876	-0,213	-0,115
249,903	17,845	-0,254	-0,140
250,917	113,928	-0,152	-0,128
251,932	227,170	-0,165	-0,186
252,947	-200,000	-0,032	-0,132
253,961	-191,327	-0,161	0,001
254,976	800,000	-0,093	-0,268
255,990	306,171	-0,179	-0,231
257,005	-200,000	0,016	-0,145
258,020	386,554	-0,114	-0,163
259,034	-200,000	-0,029	-0,202
260,049	800,000	-0,073	-0,150
261,063	44,152	-0,279	-0,177
262,078	116,988	-0,288	-0,245
263,093	800,000	-0,106	-0,213
264,107	60,635	-0,189	-0,129
265,122	-46,161	-0,202	0,069
266,136	42,486	-0,144	-0,090
267,151	47,645	-0,066	-0,043
268,166	22,593	-0,199	-0,113
269,180	440,975	-0,116	-0,177
270,195	-170,880	-0,104	0,002
271,209	-200,000	0,010	-0,097
272,224	800,000	-0,066	-0,155
273,239	250,871	-0,107	-0,126
274,253	17,314	-0,147	-0,080
275,268	480,023	-0,098	-0,154
276,282	531,720	-0,107	-0,175
277,297	-63,000	-0,222	-0,063
278,312	36,155	-0,140	-0,085
279,326	359,905	-0,166	-0,230
280,341	78,188	-0,241	-0,177
281,355	-32,431	-0,192	0,074
282,370	-44,742	-0,243	-0,083
283,384	5,627	-0,191	-0,097
284,399	-38,735	-0,132	-0,048
285,414	120,341	-0,248	-0,213
286,428	20,588	-0,220	-0,123
287,443	135,307	-0,172	-0,154
288,457	-35,681	-0,158	-0,059
289,472	211,494	-0,113	-0,123
290,487	383,889	-0,064	-0,091
291,501	52,078	-0,151	-0,099
292,516	771,585	-0,124	-0,234
293,530	83,975	-0,186	-0,140
294,545	800,000	-0,106	-0,219
295,560	-34,108	-0,187	0,071
296,574	158,026	-0,113	-0,109
297,589	7,200	-0,214	-0,110
298,603	128,320	-0,223	-0,196
299,618	-154,880	-0,260	0,012
300,633	800,000	-0,134	-0,279
301,647	66,914	-0,126	-0,088
302,662	309,907	-0,045	-0,058
303,676	-117,599	-0,084	0,010
304,691	73,096	-0,144	-0,103
305,706	94,664	-0,152	-0,119
306,720	432,241	-0,142	-0,212
307,735	774,805	-0,090	-0,169
308,749	64,492	0,023	-0,016
309,764	214,634	-0,069	-0,076
310,779	60,081	-0,127	-0,086
311,793	120,786	-0,120	-0,103
312,808	387,698	-0,213	-0,304
313,822	-128,730	-0,110	-0,011
314,837	178,109	-0,127	-0,128
315,852	800,000	-0,038	-0,089
316,866	253,779	-0,156	-0,184
317,881	-81,375	-0,144	-0,032
318,895	21,904	-0,164	-0,092
319,910	-200,000	0,010	-0,093
320,925	-200,000	-0,075	-0,238
321,939	-59,416	-0,228	-0,067
322,954	238,190	-0,063	-0,072
323,968	63,201	-0,039	-0,027
324,983	201,961	-0,125	-0,133
325,997	800,000	-0,057	-0,144
327,012	-200,000	-0,055	-0,188
328,027	207,644	-0,222	-0,239
329,041	-68,595	-0,234	-0,062
330,056	-99,115	-0,038	0,007
331,070	-184,772	-0,083	0,001
332,085	-60,822	-0,196	0,057
333,100	10,830	-0,160	-0,083
334,114	-200,000	-0,025	-0,091
335,129	96,722	-0,158	-0,125
336,143	114,773	-0,082	-0,069
337,158	297,376	-0,047	-0,060
338,173	52,893	-0,186	-0,122
339,187	-48,845	-0,064	0,021
340,202	-111,946	-0,163	-0,022
341,216	124,437	-0,139	-0,120
342,231	6,674	-0,263	-0,134
343,246	636,990	-0,082	-0,144
344,260	-200,000	-0,081	-0,310
345,275	-135,209	-0,224	-0,018
346,289	-124,793	-0,064	0,007
347,304	-95,593	-0,192	-0,035
348,319	-200,000	-0,045	-0,138
349,333	-200,000	-0,058	-0,194
350,348	517,307	-0,180	-0,289
351,362	800,000	-0,061	-0,165
352,377	21,734	-0,110	-0,061
353,392	-91,696	-0,244	-0,047
354,406	136,224	-0,098	-0,087
355,421	208,885	1314,495	1413,046
356,435	160,745	1475,188	1413,536
