DTS Sentinel unit serial number:	SN410029Multiplexer serial number:	ORYXHardware model number:	OX2-SRSoftware version number:	ORYX F/W v4,00 Oryx Data Collector v3.7.2.0data status	okinstallation	B3 Nyhavnadifferential loss correction	single-endedforward channel	channel 1reverse channel	N/Adate	2023/12/03time	06:07:30forward acquisition time	300,00reverse acquisition time	0,00gamma	499,1914k internal	0,3201k external	0,3201temperature offset calibration	1,0000default loss term (dB/km)	0,3820temperature slope calibration	1,0000multiplexer offset coefficient	1,0000multiplexer slope coefficient	1,0000fibre end	0,00T internal ref (°C)	13,30T ext. ref 1 (°C)	-1,71T ext. ref 2 (°C)	-1,72length (m)	temperature (°C)	Stokes	anti-Stokes-744,400	236,739	-0,246	-0,297
-743,385	-200,000	0,077	0,276
-742,371	74,286	-0,190	-0,145
-741,356	-200,000	0,080	0,318
-740,342	140,460	-0,224	-0,215
-739,327	270,991	0,122	0,157
-738,312	158,224	-0,163	-0,165
-737,298	800,000	0,114	0,286
-736,283	89,088	-0,200	-0,162
-735,269	-200,000	0,044	0,417
-734,254	111,057	-0,205	-0,179
-733,239	50,906	-0,287	0,197
-732,225	800,000	-0,079	-0,184
-731,210	733,783	0,092	0,180
-730,196	800,000	0,036	0,086
-729,181	-11,023	0,097	-0,046
-728,167	49,416	-0,105	-0,072
-727,152	289,729	-0,075	0,099
-726,137	-58,795	0,101	-0,032
-725,123	73,369	-0,124	-0,094
-724,108	439,161	-0,060	0,096
-723,094	26,310	-0,152	0,092
-722,079	596,013	-0,026	-0,046
-721,064	-105,049	-0,065	-0,011
-720,050	-200,000	0,004	-0,130
-719,035	20,538	-0,094	0,055
-718,021	301,746	-0,065	-0,087
-717,006	-200,000	-0,018	0,126
-715,991	6,995	-0,097	-0,053
-714,977	-200,000	0,011	-0,090
-713,962	-200,000	0,001	-0,021
-712,948	-18,433	0,049	-0,022
-711,933	-102,875	-0,194	0,033
-710,918	-52,061	0,054	-0,018
-709,904	-43,517	-0,244	-0,089
-708,889	-200,000	-0,033	-0,148
-707,875	323,472	-0,075	-0,105
-706,860	-134,021	-0,026	-0,002
-705,845	167,902	0,085	-0,088
-704,831	91,468	-0,116	0,094
-703,816	71,817	0,099	0,075
-702,802	-132,847	-0,037	0,003
-701,787	-200,000	-0,002	-0,207
-700,772	-200,000	0,003	-0,034
-699,758	-200,000	0,002	-0,102
-698,743	-104,708	0,047	-0,008
-697,729	-70,929	0,016	-0,004
-696,714	-101,851	-0,114	0,020
-695,699	-37,522	-0,077	0,030
-694,685	28,449	-0,043	-0,027
-693,670	33,299	-0,037	0,024
-692,656	-147,207	0,059	0,004
-691,641	-106,726	0,068	-0,011
-690,627	73,509	0,108	-0,082
-689,612	-59,646	-0,106	0,033
-688,597	-200,000	-0,027	-0,148
-687,583	-97,734	-0,081	-0,015
-686,568	-200,000	-0,015	-0,075
-685,554	-24,946	-0,054	0,023
-684,539	-131,814	0,105	0,010
-683,524	-86,270	0,053	-0,012
-682,510	754,598	0,031	0,062
-681,495	-94,888	-0,097	0,019
-680,481	-200,000	-0,006	-0,065
-679,466	-200,000	0,028	-0,130
-678,451	58,658	-0,079	-0,056
-677,437	358,805	0,033	0,048
-676,422	-136,950	-0,184	-0,015
-675,408	112,437	-0,039	0,034
-674,393	360,035	0,052	0,076
-673,378	-200,000	-0,017	0,113
-672,364	-97,850	-0,130	-0,024
-671,349	-200,000	-0,020	0,070
-670,335	690,253	-0,040	-0,077
-669,320	-20,354	0,060	-0,027
-668,305	177,775	-0,134	0,142
-667,291	-143,330	0,129	-0,009
-666,276	76,593	-0,116	-0,089
-665,262	-200,000	-0,046	-0,183
-664,247	-55,143	0,019	0,006
-663,232	103,120	0,123	-0,104
-662,218	112,862	-0,025	-0,022
-661,203	35,280	-0,099	0,063
-660,189	-72,087	-0,121	0,032
-659,174	61,664	-0,133	0,096
-658,159	71,173	-0,064	-0,048
-657,145	-15,390	-0,091	-0,042
-656,130	-200,000	0,001	-0,106
-655,116	742,165	-0,062	0,122
-654,101	-200,000	-0,010	0,054
-653,086	-7,712	-0,057	0,028
-652,072	-200,000	-0,007	0,032
-651,057	-33,911	-0,060	-0,024
-650,043	-7,097	-0,070	-0,034
-649,028	800,000	-0,034	-0,086
-648,014	800,000	0,012	0,030
-646,999	-40,134	-0,146	0,055
-645,984	-13,095	0,134	0,063
-644,970	649,325	-0,051	-0,096
-643,955	-77,883	0,080	0,020
-642,941	137,549	-0,105	-0,100
-641,926	-200,000	0,045	-0,193
-640,911	-200,000	-0,033	0,185
-639,897	800,000	-0,014	-0,031
-638,882	393,775	-0,014	-0,021
-637,868	-124,656	-0,016	-0,002
-636,853	-200,000	-0,006	0,123
-635,838	-200,000	0,014	0,050
-634,824	-200,000	0,000	0,018
-633,809	-200,000	0,001	-0,116
-632,795	-27,727	0,073	0,031
-631,780	2,920	-0,162	0,085
-630,765	-68,985	0,147	-0,041
-629,751	-200,000	-0,164	0,000
-628,736	-200,000	0,000	-0,025
-627,722	800,000	-0,031	0,063
-626,707	-90,082	-0,126	0,026
-625,692	800,000	-0,020	0,044
-624,678	151,167	-0,082	-0,081
-623,663	-200,000	-0,001	-0,086
-622,649	800,000	0,046	-0,125
-621,634	163,364	-0,009	-0,009
-620,619	67,538	-0,092	-0,068
-619,605	-200,000	0,003	0,069
-618,590	-139,521	-0,088	0,007
-617,576	33,865	0,029	-0,018
-616,561	-6,277	0,042	0,021
-615,546	-1,828	-0,044	-0,022
-614,532	800,000	-0,051	-0,145
-613,517	-200,000	0,021	-0,122
-612,503	135,467	0,054	-0,051
-611,488	70,282	0,085	0,063
-610,474	-200,000	0,033	0,109
-609,459	30,947	0,014	0,009
-608,444	800,000	-0,037	-0,082
-607,430	4,641	-0,028	0,015
-606,415	-200,000	-0,021	-0,082
-605,401	800,000	-0,039	-0,115
-604,386	253,636	0,069	0,086
-603,371	800,000	-0,072	0,230
-602,357	-200,000	-0,008	-0,134
-601,342	550,315	-0,025	0,043
-600,328	-200,000	-0,027	-0,118
-599,313	-132,644	-0,106	-0,010
-598,298	-200,000	0,003	-0,134
-597,284	184,713	0,076	0,081
-596,269	-200,000	0,004	0,088
-595,255	256,666	-0,069	0,086
-594,240	38,788	0,063	0,041
-593,225	-200,000	-0,006	-0,091
-592,211	136,050	-0,060	0,056
-591,196	-200,000	0,002	-0,072
-590,182	501,641	-0,014	-0,023
-589,167	-25,024	0,167	0,071
-588,152	354,612	0,040	-0,057
-587,138	-102,071	0,121	0,021
-586,123	27,549	-0,142	0,086
-585,109	-49,173	-0,059	-0,020
-584,094	-144,426	0,056	-0,004
-583,079	-108,912	-0,043	0,007
-582,065	-200,000	0,020	-0,097
-581,050	44,357	0,132	0,087
-580,036	-200,000	0,021	-0,101
-579,021	133,468	-0,054	-0,050
-578,006	-200,000	-0,010	-0,042
-576,992	-16,320	-0,214	0,098
-575,977	-139,278	-0,092	0,007
-574,963	-200,000	-0,038	0,150
-573,948	64,017	-0,076	-0,055
-572,934	-54,323	-0,093	-0,030
-571,919	96,154	-0,117	0,097
-570,904	14,076	-0,120	-0,067
-569,890	214,226	0,164	-0,188
-568,875	-26,178	-0,110	-0,047
-567,861	-200,000	0,017	0,131
-566,846	-200,000	-0,005	0,044
-565,831	-200,000	0,022	0,208
-564,817	-200,000	0,002	0,069
-563,802	-10,553	-0,041	-0,020
-562,788	-159,335	-0,200	-0,008
-561,773	53,562	-0,140	-0,097
-560,758	-200,000	0,034	0,123
-559,744	-38,955	0,070	-0,027
-558,729	112,337	-0,068	-0,059
-557,715	221,010	0,070	-0,081
-556,700	432,086	0,065	-0,102
-555,685	800,000	-0,028	-0,069
-554,671	57,053	0,068	-0,048
-553,656	-30,449	-0,127	0,052
-552,642	83,589	0,052	-0,041
-551,627	117,897	0,086	-0,076
-550,612	513,543	0,009	-0,015
-549,598	289,096	-0,110	-0,145
-548,583	483,194	0,050	0,083
-547,569	343,360	0,052	-0,074
-546,554	520,467	0,031	0,053
-545,539	-200,000	-0,043	0,150
-544,525	800,000	-0,008	-0,018
-543,510	46,899	0,089	-0,060
-542,496	800,000	-0,022	-0,049
-541,481	16,423	0,109	0,062
-540,466	-200,000	-0,032	-0,107
-539,452	15,136	-0,143	-0,081
-538,437	197,377	0,065	0,071
-537,423	800,000	0,018	0,038
-536,408	800,000	0,015	0,040
-535,393	726,059	-0,061	-0,117
-534,379	12,197	0,148	-0,082
-533,364	752,880	0,026	0,051
-532,350	-200,000	-0,006	0,110
-531,335	39,312	0,187	0,121
-530,321	-81,664	-0,073	0,017
-529,306	-89,217	-0,126	0,027
-528,291	527,199	-0,101	-0,173
-527,277	800,000	-0,036	-0,111
-526,262	272,623	0,039	-0,050
-525,248	46,264	0,113	-0,075
-524,233	85,327	-0,069	0,055
-523,218	-153,819	0,071	-0,003
-522,204	-164,342	-0,026	-0,001
-521,189	-74,139	-0,047	-0,012
-520,175	800,000	-0,077	-0,176
-519,160	-200,000	-0,008	-0,168
-518,145	-200,000	-0,025	-0,159
-517,131	-49,619	0,060	0,020
-516,116	800,000	0,014	-0,035
-515,102	3,955	-0,062	0,033
-514,087	168,078	-0,107	-0,110
-513,072	243,576	0,027	-0,033
-512,058	-89,271	0,051	-0,011
-511,043	397,644	-0,083	-0,125
-510,029	225,273	0,157	-0,184
-509,014	-200,000	0,017	0,181
-507,999	-200,000	0,045	0,152
-506,985	394,004	-0,034	0,051
-505,970	276,942	-0,091	-0,116
-504,956	800,000	-0,043	0,086
-503,941	23,064	0,050	-0,029
-502,926	800,000	-0,021	-0,047
-501,912	361,762	-0,037	0,053
-500,897	58,732	-0,051	-0,036
-499,883	-200,000	0,008	-0,179
-498,868	-142,152	0,074	-0,005
-497,853	-101,155	-0,218	0,038
-496,839	-106,660	-0,067	-0,011
-495,824	166,398	0,094	-0,096
-494,810	70,711	0,138	0,103
-493,795	-200,000	0,016	-0,087
-492,781	236,901	0,054	0,065
-491,766	-31,873	-0,084	0,034
-490,751	-16,100	-0,028	0,013
-489,737	-119,587	0,083	0,010
-488,722	800,000	0,038	0,086
-487,708	-70,865	-0,103	0,028
-486,693	-200,000	-0,000	0,112
-485,678	800,000	-0,035	0,105
-484,664	-102,302	-0,058	0,010
-483,649	-119,634	0,039	-0,005
-482,635	-200,000	-0,002	0,032
-481,620	-50,597	0,073	0,025
-480,605	-12,958	0,109	0,051
-479,591	-200,000	0,013	0,069
-478,576	-200,000	0,026	-0,112
-477,562	17,044	-0,044	0,025
-476,547	-55,298	0,136	-0,044
-475,532	705,559	0,015	0,028
-474,518	-200,000	-0,010	0,070
-473,503	308,731	-0,037	0,050
-472,489	484,721	-0,061	-0,100
-471,474	28,865	0,115	0,070
-470,459	-60,351	-0,131	-0,040
-469,445	144,071	-0,031	-0,030
-468,430	-89,996	0,096	0,020
-467,416	108,683	-0,073	-0,062
-466,401	156,063	0,061	0,061
-465,386	800,000	0,032	-0,078
-464,372	-200,000	0,018	0,156
-463,357	800,000	-0,034	0,083
-462,343	-200,000	0,010	-0,061
-461,328	47,616	-0,042	0,028
-460,313	-200,000	0,006	0,037
-459,299	-200,000	0,002	0,007
-458,284	-7,731	-0,037	0,018
-457,270	-110,409	-0,079	-0,012
-456,255	-3,043	-0,247	-0,123
-455,241	-200,000	-0,006	0,028
-454,226	72,168	-0,118	0,088
-453,211	38,982	-0,062	-0,040
-452,197	31,373	0,056	-0,035
-451,182	-139,441	-0,037	0,003
-450,168	-31,800	0,154	0,062
-449,153	-200,000	0,003	-0,012
-448,138	147,394	-0,058	-0,056
-447,124	-131,421	0,108	-0,010
-446,109	-64,847	-0,075	-0,022
-445,095	145,522	0,110	-0,106
-444,080	800,000	0,053	0,118
-443,065	12,391	0,053	-0,029
-442,051	51,425	-0,070	-0,047
-441,036	-5,818	-0,042	0,021
-440,022	-200,000	0,011	-0,078
-439,007	-200,000	0,006	-0,100
-437,992	197,393	0,033	-0,036
-436,978	32,385	0,145	-0,090
-435,963	-107,307	-0,029	0,005
-434,949	492,876	-0,040	-0,067
-433,934	-197,785	-0,050	-0,000
-432,919	30,179	0,185	-0,113
-431,905	354,356	-0,041	0,058
-430,890	-113,684	-0,126	0,018
-429,876	-200,000	-0,033	0,153
-428,861	800,000	0,049	0,120
-427,846	34,210	-0,140	-0,088
-426,832	-33,900	-0,055	-0,022
-425,817	156,220	-0,051	-0,050
-424,803	-200,000	-0,008	-0,042
-423,788	514,793	0,071	-0,119
-422,773	-200,000	-0,000	0,093
-421,759	167,413	0,091	0,093
-420,744	378,313	0,094	0,139
-419,730	-25,639	-0,107	-0,045
-418,715	208,317	-0,064	0,072
-417,701	-200,000	-0,001	-0,171
-416,686	-200,000	0,023	-0,108
-415,671	-1,452	0,086	-0,044
-414,657	-67,094	0,045	-0,013
-413,642	800,000	0,047	-0,110
-412,628	-200,000	0,008	-0,167
-411,613	-90,591	-0,079	0,016
-410,598	800,000	-0,022	-0,070
-409,584	-110,730	0,066	0,010
-408,569	55,068	-0,108	0,075
-407,555	-65,641	-0,050	0,014
-406,540	-137,675	-0,020	-0,002
-405,525	20,017	0,091	0,052
-404,511	-200,000	-0,008	-0,051
-403,496	6,712	-0,162	-0,086
-402,482	25,187	0,015	0,009
-401,467	-38,087	0,041	0,016
-400,452	-74,771	-0,071	-0,018
-399,438	-200,000	0,006	0,184
-398,423	591,341	-0,038	0,068
-397,409	-24,208	-0,047	0,020
-396,394	-112,255	-0,171	0,024
-395,379	-200,000	0,022	0,083
-394,365	16,215	0,117	0,066
-393,350	226,916	0,119	0,139
-392,336	99,691	-0,134	0,111
-391,321	-0,670	0,105	-0,053
-390,306	334,989	-0,025	0,034
-389,292	283,829	0,012	0,015
-388,277	555,343	-0,050	-0,087
-387,263	800,000	-0,042	0,102
-386,248	8,843	0,097	0,053
-385,233	128,838	-0,073	0,067
-384,219	800,000	-0,030	0,067
-383,204	-118,607	-0,086	0,011
-382,190	800,000	0,058	-0,147
-381,175	-139,310	-0,040	-0,003
-380,160	-200,000	0,010	-0,084
-379,146	-9,033	0,122	0,058
-378,131	-153,088	0,100	-0,005
-377,117	-200,000	0,019	0,063
-376,102	800,000	-0,030	-0,073
-375,088	219,884	-0,064	-0,074
-374,073	33,621	0,156	-0,097
-373,058	242,028	-0,072	-0,086
-372,044	470,790	0,028	0,045
-371,029	87,317	0,042	-0,033
-370,015	-67,189	-0,152	0,043
-369,000	800,000	-0,033	-0,090
-367,985	171,899	0,061	0,063
-366,971	-142,626	-0,024	0,002
-365,956	-57,245	-0,051	0,016
-364,942	-200,000	0,005	0,171
-363,927	119,460	0,078	0,069
-362,912	56,458	-0,147	-0,102
-361,898	800,000	0,026	-0,073
-360,883	-200,000	0,043	0,151
-359,869	-200,000	0,008	-0,068
-358,854	800,000	-0,064	-0,145
-357,839	68,889	0,042	0,031
-356,825	-71,607	0,120	0,032
-355,810	211,043	-0,025	0,028
-354,796	519,425	0,100	0,169
-353,781	175,130	-0,059	0,062
-352,766	-200,000	0,014	-0,070
-351,752	-200,000	0,002	0,084
-350,737	-66,576	0,078	0,022
-349,723	32,195	-0,088	0,054
-348,708	61,237	0,021	-0,015
-347,693	-11,104	-0,039	0,019
-346,679	800,000	0,015	-0,034
-345,664	-27,818	-0,059	0,025
-344,650	21,963	-0,049	-0,029
-343,635	128,926	-0,060	0,054
-342,620	101,202	0,044	0,037
-341,606	234,774	0,073	0,087
-340,591	-200,000	0,031	0,147
-339,577	18,638	-0,090	0,051
-338,562	-50,226	0,061	-0,020
-337,548	7,848	-0,096	-0,051
-336,533	800,000	0,073	0,152
-335,518	481,713	0,031	0,050
-334,504	800,000	-0,051	-0,117
-333,489	800,000	0,041	-0,101
-332,475	-58,084	-0,033	-0,010
-331,460	188,788	0,088	-0,094
-330,445	800,000	0,038	-0,109
-329,431	274,920	0,088	0,112
-328,416	-48,709	-0,087	0,030
-327,402	800,000	-0,048	0,102
-326,387	-200,000	0,003	0,101
-325,372	140,581	-0,052	-0,049
-324,358	-47,927	-0,047	0,016
-323,343	-200,000	-0,024	-0,120
-322,329	-103,401	0,015	0,002
-321,314	704,035	-0,049	-0,093
-320,299	-200,000	0,003	-0,055
-319,285	-61,002	-0,110	-0,033
-318,270	800,000	0,037	0,094
-317,256	244,873	-0,065	-0,078
-316,241	800,000	0,048	-0,145
-315,226	800,000	0,072	0,181
-314,212	1,154	0,060	0,031
-313,197	19,080	0,175	0,100
-312,183	48,418	0,110	0,073
-311,168	53,680	0,090	0,062
-310,153	250,421	0,031	0,038
-309,139	800,000	-0,023	-0,049
-308,124	800,000	-0,032	-0,081
-307,110	380,616	0,062	-0,092
-306,095	-200,000	0,025	0,106
-305,080	592,544	-0,017	-0,030
-304,066	-16,350	0,055	-0,025
-303,051	122,036	0,061	0,054
-302,037	44,884	-0,048	-0,031
-301,022	-71,059	-0,061	-0,016
-300,008	30,180	0,047	0,028
-298,993	91,915	0,009	-0,008
-297,978	-146,550	0,046	-0,003
-296,964	-89,291	0,174	0,036
-295,949	-25,064	0,048	-0,020
-294,935	800,000	-0,014	0,032
-293,920	265,265	0,122	-0,152
-292,905	-1,694	-0,072	-0,036
-291,891	33,746	0,135	0,084
-290,876	523,514	0,044	0,074
-289,862	6,620	0,111	0,059
-288,847	-200,000	0,002	-0,036
-287,832	-200,000	-0,036	-0,176
-286,818	212,566	0,023	-0,026
-285,803	-200,000	0,007	0,095
-284,789	-44,898	0,113	-0,040
-283,774	6,894	-0,115	-0,061
-282,759	-200,000	0,014	0,098
-281,745	-200,000	-0,042	-0,235
-280,730	70,838	-0,133	-0,098
-279,716	611,829	0,036	0,064
-278,701	-72,915	0,096	-0,025
-277,686	-59,384	0,133	0,041
-276,672	319,572	0,051	0,070
-275,657	-87,556	0,044	-0,009
-274,643	-200,000	0,017	0,116
-273,628	495,417	-0,021	-0,034
-272,613	209,420	0,094	0,105
-271,599	-75,069	0,195	0,049
-270,584	-15,266	0,164	-0,074
-269,570	800,000	0,040	0,106
-268,555	-200,000	-0,003	0,085
-267,540	-143,919	-0,204	-0,013
-266,526	334,812	0,088	0,122
-265,511	-124,218	0,093	0,010
-264,497	-44,775	0,176	0,062
-263,482	800,000	0,024	0,060
-262,467	-28,175	0,067	0,027
-261,453	-170,216	0,236	-0,006
-260,438	-200,000	-0,006	0,072
-259,424	-109,776	0,140	-0,021
-258,409	-40,547	-0,060	-0,022
-257,395	38,997	-0,051	-0,033
-256,380	-200,000	-0,005	-0,083
-255,365	10,087	-0,068	-0,037
-254,351	-198,170	-0,063	0,000
-253,336	-200,000	0,004	0,049
-252,322	450,329	-0,009	0,014
-251,307	-200,000	0,012	-0,102
-250,292	800,000	0,017	-0,051
-249,278	82,418	0,092	0,071
-248,263	506,704	0,055	0,092
-247,249	800,000	0,031	-0,073
-246,234	110,672	0,031	-0,026
-245,219	546,191	0,032	-0,056
-244,205	-137,514	-0,068	0,005
-243,190	-5,971	0,083	-0,040
-242,176	-200,000	0,043	0,192
-241,161	162,211	-0,049	0,049
-240,146	-45,737	0,117	0,041
-239,132	47,285	-0,088	-0,058
-238,117	346,714	0,055	-0,077
-237,103	588,427	-0,054	-0,096
-236,088	-38,403	-0,077	0,029
-235,073	20,670	-0,130	0,075
-234,059	550,144	0,039	0,066
-233,044	800,000	0,039	-0,103
-232,030	-200,000	-0,002	0,010
-231,015	522,747	0,056	-0,094
-230,000	271,939	0,037	-0,047
-228,986	-200,000	0,002	0,031
-227,971	-66,010	0,220	0,062
-226,957	136,589	0,039	-0,036
-225,942	31,679	-0,030	0,018
-224,927	445,404	-0,057	-0,090
-223,913	-200,000	-0,080	-0,258
-222,898	-200,000	-0,006	-0,037
-221,884	212,752	-0,075	-0,084
-220,869	144,290	0,114	0,108
-219,855	91,695	-0,043	-0,034
-218,840	-29,041	0,054	-0,022
-217,825	5,447	-0,098	-0,051
-216,811	88,433	-0,150	-0,118
-215,796	-44,890	-0,109	0,038
-214,782	733,599	-0,066	0,127
-213,767	66,352	0,095	-0,069
-212,752	800,000	0,078	0,161
-211,738	31,341	0,083	0,051
-210,723	-73,878	-0,059	-0,015
-209,709	-125,847	0,026	0,003
-208,694	478,217	0,097	-0,156
-207,679	198,293	-0,076	-0,082
-206,665	-200,000	0,010	0,111
-205,650	35,519	-0,038	0,024
-204,636	-183,156	0,017	-0,000
-203,621	53,872	-0,150	0,102
-202,606	3,632	-0,070	-0,036
-201,592	800,000	0,064	-0,139
-200,577	101,784	0,061	0,051
-199,563	111,010	0,045	0,039
-198,548	-131,231	-0,023	-0,002
-197,533	166,277	0,086	0,087
-196,519	92,071	-0,073	-0,058
-195,504	393,160	-0,058	-0,086
-194,490	-37,824	-0,059	0,022
-193,475	76,303	-0,051	-0,039
-192,460	-200,000	0,045	0,188
-191,446	800,000	0,033	0,070
-190,431	-46,751	-0,109	-0,038
-189,417	473,686	0,027	-0,044
-188,402	67,489	-0,128	0,093
-187,387	-200,000	-0,016	-0,148
-186,373	-3,076	-0,052	-0,026
-185,358	-200,000	-0,045	-0,153
-184,344	-106,567	0,140	0,022
-183,329	768,343	-0,071	0,138
-182,315	800,000	0,035	0,088
-181,300	57,003	-0,069	-0,048
-180,285	-82,545	-0,067	0,015
-179,271	-67,091	-0,056	0,016
-178,256	143,242	-0,041	-0,039
-177,242	800,000	0,060	0,156
-176,227	-200,000	0,003	0,120
-175,212	-200,000	0,009	-0,096
-174,198	628,251	-0,038	-0,069
-173,183	-200,000	-0,011	0,044
-172,169	154,879	-0,114	-0,112
-171,154	-43,023	0,081	0,029
-170,139	-200,000	0,005	0,136
-169,125	800,000	0,056	0,112
-168,110	-200,000	-0,003	0,074
-167,096	-104,771	-0,035	-0,006
-166,081	127,353	-0,026	0,024
-165,066	284,999	-0,042	0,053
-164,052	430,098	-0,078	-0,121
-163,037	-200,000	-0,012	0,040
-162,023	-17,568	0,049	-0,022
-161,008	62,172	-0,060	0,043
-159,993	468,933	-0,122	0,195
-158,979	253,806	0,039	0,047
-157,964	-200,000	-0,002	-0,051
-156,950	673,551	0,047	-0,087
-155,935	-200,000	0,001	0,250
-154,920	-30,181	0,095	-0,038
-153,906	326,152	0,112	0,153
-152,891	-200,000	-0,000	0,064
-151,877	800,000	-0,034	-0,106
-150,862	81,477	0,072	0,056
-149,847	139,595	0,102	-0,095
-148,833	-42,369	-0,048	-0,017
-147,818	-200,000	-0,023	0,071
-146,804	-200,000	-0,001	-0,057
-145,789	466,306	-0,118	0,188
-144,775	149,599	-0,057	-0,055
-143,760	-200,000	0,012	-0,056
-142,745	-31,677	-0,114	0,045
-141,731	-200,000	-0,019	0,072
-140,716	-200,000	0,008	-0,098
-139,702	-132,157	0,109	0,010
-138,687	-168,996	0,082	-0,002
-137,672	612,008	-0,023	-0,042
-136,658	-200,000	0,034	-0,116
-135,643	-93,314	-0,091	0,018
-134,629	-200,000	0,003	0,039
-133,614	-179,144	-0,076	-0,001
-132,599	-23,396	-0,087	0,037
-131,585	12,467	0,079	0,043
-130,570	-75,214	-0,050	0,013
-129,556	-22,675	-0,118	-0,050
-128,541	-50,230	-0,053	0,018
-127,526	51,894	-0,063	0,043
-126,512	-200,000	0,003	0,015
-125,497	-141,041	0,155	-0,011
-124,483	129,896	-0,016	-0,014
-123,468	800,000	0,033	0,090
-122,453	-200,000	0,022	-0,103
-121,439	-200,000	-0,049	0,155
-120,424	212,679	-0,037	0,042
-119,410	-48,128	-0,052	-0,018
-118,395	-87,466	-0,072	0,015
-117,380	800,000	0,041	0,090
-116,366	-200,000	-0,022	0,161
-115,351	-69,511	0,152	-0,041
-114,337	662,652	0,073	-0,134
-113,322	-73,108	-0,055	-0,014
-112,307	306,648	0,059	-0,078
-111,293	217,777	-0,096	0,109
-110,278	1,372	0,119	-0,060
-109,264	73,437	0,068	0,050
-108,249	73,748	-0,083	0,062
-107,234	-200,000	-0,015	-0,078
-106,220	178,781	-0,039	-0,040
-105,205	800,000	0,021	0,059
-104,191	-182,577	-0,114	0,001
-103,176	719,435	0,013	-0,024
-102,162	-89,440	-0,065	0,013
-101,147	-200,000	-0,001	0,023
-100,132	80,152	-0,086	0,065
-99,118	800,000	-0,036	0,097
-98,103	97,173	0,065	0,053
-97,089	284,415	-0,049	0,063
-96,074	-76,220	0,049	-0,012
-95,059	-83,078	-0,109	0,025
-94,045	-3,055	-0,019	0,009
-93,030	153,314	-0,055	0,054
-92,016	358,930	-0,039	0,055
-91,001	-200,000	0,007	0,132
-89,986	-200,000	0,002	-0,067
-88,972	-48,207	0,021	0,007
-87,957	588,253	0,084	0,148
-86,943	800,000	-0,049	0,107
-85,928	84,398	-0,076	-0,058
-84,913	115,133	0,154	-0,133
-83,899	55,054	-0,083	-0,057
-82,884	17,216	-0,016	0,009
-81,870	-200,000	0,012	0,089
-80,855	230,428	0,043	-0,050
-79,840	-200,000	-0,027	0,125
-78,826	-200,000	-0,003	0,045
-77,811	145,038	-0,110	-0,104
-76,797	800,000	0,063	-0,126
-75,782	-14,826	0,022	0,010
-74,767	-200,000	-0,002	-0,025
-73,753	123,880	-0,089	0,079
-72,738	622,292	-0,039	0,069
-71,724	437,104	-0,025	0,038
-70,709	109,713	-0,083	0,070
-69,694	800,000	0,017	-0,054
-68,680	264,035	-0,065	-0,081
-67,665	428,860	-0,066	-0,101
-66,651	544,586	-0,002	0,003
-65,636	-57,439	-0,076	0,023
-64,622	-200,000	0,009	-0,066
-63,607	118,124	-0,036	0,031
-62,592	-103,498	-0,103	-0,017
-61,578	-92,842	0,152	-0,030
-60,563	-200,000	0,007	0,054
-59,549	800,000	-0,045	0,112
-58,534	-22,362	-1,752	-0,748
-57,519	494,706	-1,302	-2,125
-56,505	-200,000	-0,473	-4,462
-55,490	285,406	0,854	1,092
-54,476	800,000	5,052	11,506
-53,461	-200,000	19,198	320,465
-52,446	-200,000	741,028	2334,681
-51,432	573,311	1655,505	2868,964
-50,417	78,230	1670,932	1261,457
-49,403	21,286	1544,086	885,609
-48,388	15,158	1466,417	811,261
-47,373	17,939	1456,579	819,227
-46,359	16,629	1446,366	807,170
-45,344	13,443	1441,739	789,293
-44,330	13,295	1439,988	787,593
-43,315	13,310	1438,302	786,714
-42,300	13,366	1436,485	785,954
-41,286	13,366	1435,244	785,243
-40,271	13,341	1434,143	784,491
-39,257	13,361	1432,624	783,726
-38,242	13,356	1431,506	783,059
-37,227	13,405	1430,124	782,503
-36,213	13,382	1428,814	781,650
-35,198	13,376	1427,720	780,990
-34,184	13,424	1426,787	780,677
-33,169	13,393	1425,367	779,722
-32,154	13,418	1424,272	779,209
-31,140	13,379	1423,039	778,319
-30,125	13,460	1421,937	778,071
-29,111	13,418	1420,878	777,260
-28,096	13,377	1419,791	776,442
-27,082	13,396	1418,579	775,836
-26,067	13,301	1417,663	774,857
-25,052	13,340	1416,464	774,355
-24,038	13,301	1415,460	773,594
-23,023	13,292	1414,314	772,891
-22,009	13,285	1413,476	772,370
-20,994	13,305	1412,477	771,888
-19,979	13,264	1411,777	771,285
-18,965	13,256	1410,778	770,669
-17,950	13,295	1409,730	770,249
-16,936	13,297	1408,513	769,563
-15,921	13,230	1407,690	768,770
-14,906	13,239	1406,761	768,275
-13,892	13,231	1405,793	767,679
-12,877	13,237	1405,003	767,245
-11,863	13,248	1403,997	766,716
-10,848	13,268	1403,140	766,308
-9,833	13,188	1402,562	765,589
-8,819	13,177	1401,551	764,959
-7,804	13,133	1400,610	764,207
-6,790	13,164	1399,582	763,762
-5,775	13,142	1398,336	762,947
-4,760	13,141	1397,577	762,502
-3,746	13,119	1396,789	761,938
-2,731	13,122	1395,779	761,368
-1,717	13,153	1394,903	761,008
-0,702	13,130	1393,162	759,921
0,313	16,979	1309,961	732,363
1,327	33,265	703,445	430,898
2,342	50,909	123,264	82,502
3,356	4,536	16,580	8,579
4,371	4,442	3,411	1,764
5,386	30,057	0,682	0,410
6,400	-200,000	-0,007	0,168
7,415	-26,858	-0,249	-0,102
8,429	-73,416	-0,262	-0,067
9,444	202,302	-0,248	-0,271
10,459	-0,494	-0,419	-0,209
11,473	135,804	-0,244	-0,225
12,488	-57,905	-0,296	-0,091
13,502	-61,981	-0,380	-0,111
14,517	109,554	-0,321	-0,272
15,531	112,424	-0,367	-0,314
16,546	121,550	-0,327	-0,288
17,561	76,306	-0,403	-0,302
18,575	-136,907	-0,212	-0,017
19,590	135,683	-0,265	-0,244
20,604	271,333	-0,146	-0,182
21,619	95,140	-0,503	-0,405
22,634	130,453	-0,446	-0,404
23,648	118,331	-0,332	-0,290
24,663	-2,251	-0,384	-0,190
25,677	42,954	-0,446	-0,287
26,692	160,444	-0,364	-0,359
27,707	146,740	-0,367	-0,348
28,721	-46,284	-0,444	-0,153
29,736	-32,563	-0,464	-0,182
30,750	175,921	-0,332	-0,341
31,765	248,132	-0,287	-0,343
32,780	157,213	-0,438	-0,428
33,794	-42,615	-0,283	-0,101
34,809	19,001	-0,386	-0,218
35,823	-51,299	-0,399	-0,131
36,838	175,709	-0,324	-0,332
37,853	150,121	-0,408	-0,390
38,867	170,647	-0,329	-0,332
39,882	458,213	-0,264	-0,416
40,896	57,451	-0,295	-0,203
41,911	89,931	-0,195	-0,153
42,926	74,652	-0,358	-0,265
43,940	150,778	-0,476	-0,457
44,955	132,935	-0,347	-0,316
45,969	224,436	-0,329	-0,375
46,984	100,675	-0,449	-0,367
47,999	60,776	-0,282	-0,197
49,013	58,761	-0,231	-0,160
50,028	136,031	-0,296	-0,272
51,042	103,860	-0,278	-0,230
52,057	181,825	-0,239	-0,249
53,071	-8,516	-0,421	-0,198
54,086	27,262	-0,306	-0,181
55,101	-18,078	-0,439	-0,193
56,115	-6,261	-0,323	-0,155
57,130	111,173	-0,369	-0,313
58,144	44,183	-0,296	-0,191
59,159	134,525	-0,387	-0,354
60,174	800,000	-0,168	-0,340
61,188	97,987	-0,346	-0,280
62,203	-66,547	-0,295	-0,082
63,217	17,003	-0,310	-0,172
64,232	230,463	-0,193	-0,223
65,247	753,607	-0,217	-0,414
66,261	-102,398	-0,417	-0,070
67,276	32,677	-0,317	-0,192
68,290	240,365	-0,319	-0,375
69,305	41,623	-0,400	-0,254
70,320	32,111	-0,249	-0,150
71,334	-120,199	-0,328	-0,039
72,349	100,905	-0,183	-0,149
73,363	14,935	-0,318	-0,175
74,378	54,847	-0,354	-0,239
75,393	333,867	-0,217	-0,296
76,407	-55,717	-0,393	-0,123
77,422	-7,855	-0,354	-0,167
78,436	-136,625	-0,226	0,018
79,451	-62,284	-0,231	-0,067
80,466	100,739	-0,304	-0,248
81,480	-21,185	-0,306	-0,131
82,495	9,718	-0,315	-0,167
83,509	168,715	-0,205	-0,206
84,524	111,345	-0,172	-0,146
85,539	26,367	-0,310	-0,181
86,553	128,281	-0,278	-0,248
87,568	24,394	-0,226	-0,131
88,582	304,895	-0,234	-0,306
89,597	28,761	-0,340	-0,202
90,611	52,364	-0,222	-0,149
91,626	-104,015	-0,281	-0,046
92,641	-34,331	-0,183	-0,070
93,655	-0,014	-0,169	-0,084
94,670	130,234	-0,335	-0,301
95,684	25,508	-0,349	-0,203
96,699	-31,331	-0,331	-0,130
97,714	-4,007	-0,265	-0,129
98,728	52,599	-0,252	-0,168
99,743	154,811	-0,127	-0,122
100,757	40,444	-0,287	-0,181
101,772	312,328	-0,160	-0,211
102,787	2,698	-0,287	-0,146
103,801	41,054	-0,326	-0,206
104,816	-2,220	-0,309	-0,152
105,830	110,677	-0,287	-0,242
106,845	223,756	-0,233	-0,264
107,860	76,251	-0,226	-0,168
108,874	33,335	-0,395	-0,240
109,889	62,783	-0,366	-0,256
110,903	-1,679	-0,263	-0,130
111,918	91,084	-0,182	-0,143
112,933	-23,753	-0,325	-0,136
113,947	-50,392	-0,174	-0,057
114,962	60,455	-0,235	-0,163
115,976	39,652	-0,282	-0,177
116,991	109,196	-0,256	-0,214
118,006	489,050	-0,075	-0,121
119,020	101,440	-0,290	-0,236
120,035	-20,289	-0,355	-0,152
121,049	800,000	-0,147	-0,306
122,064	-113,344	-0,260	0,035
123,079	-107,667	-0,312	-0,047
124,093	76,124	-0,311	-0,230
125,108	87,082	-0,230	-0,178
126,122	-31,710	-0,312	-0,122
127,137	114,909	-0,243	-0,207
128,151	75,295	-0,293	-0,216
129,166	77,058	-0,234	-0,173
130,181	-1,552	-0,296	-0,146
131,195	-15,600	-0,274	-0,122
132,210	194,942	-0,196	-0,209
133,224	156,072	-0,211	-0,204
134,239	-90,738	-0,294	-0,059
135,254	45,126	-0,294	-0,189
136,268	69,252	-0,188	-0,135
137,283	69,942	-0,281	-0,203
138,297	65,212	-0,213	-0,150
139,312	109,710	-0,353	-0,296
140,327	-41,999	-0,281	-0,100
141,341	272,712	-0,113	-0,139
142,356	123,524	-0,125	-0,110
143,370	34,039	-0,182	-0,111
144,385	31,760	-0,331	-0,199
145,400	-26,328	-0,269	-0,110
146,414	53,762	-0,275	-0,184
147,429	48,534	-0,378	-0,247
148,443	169,076	-0,239	-0,238
149,458	80,573	-0,205	-0,154
150,473	484,900	-0,109	-0,174
151,487	-59,267	-0,190	-0,057
152,502	83,952	-0,318	-0,242
153,516	22,182	-0,249	-0,142
154,531	186,858	-0,240	-0,250
155,546	176,478	-0,189	-0,192
156,560	269,654	-0,199	-0,245
157,575	38,176	-0,162	-0,101
158,589	274,118	-0,275	-0,340
159,604	-4,988	-0,257	-0,123
160,619	48,563	-0,256	-0,167
161,633	-46,882	-0,172	-0,058
162,648	-40,878	-0,272	-0,098
163,662	246,922	-0,117	-0,138
164,677	-122,943	-0,186	-0,021
165,692	-145,812	-0,341	-0,021
166,706	96,480	-0,208	-0,166
167,721	60,745	-0,251	-0,173
168,735	173,451	-0,203	-0,204
169,750	111,058	-0,152	-0,127
170,764	71,361	-0,152	-0,110
171,779	83,838	-0,214	-0,162
172,794	24,172	-0,141	-0,081
173,808	-51,273	-0,211	-0,068
174,823	28,028	-0,213	-0,125
175,837	567,726	-0,200	-0,339
176,852	137,782	-0,252	-0,230
177,867	-2,025	-0,312	-0,152
178,881	520,318	-0,131	-0,214
179,896	71,438	-0,140	-0,101
180,910	23,737	-0,249	-0,143
181,925	-48,238	-0,170	-0,057
182,940	-35,522	-0,224	-0,084
183,954	434,127	-0,072	-0,110
184,969	146,913	-0,135	-0,126
185,983	179,537	-0,153	-0,156
186,998	117,363	-0,322	-0,275
188,013	27,593	-0,246	-0,144
189,027	-200,000	-0,046	-0,178
190,042	-103,913	-0,307	-0,049
191,056	-57,864	-0,324	-0,098
192,071	294,575	-0,230	-0,293
193,086	53,629	-0,168	-0,112
194,100	11,527	-0,189	-0,101
195,115	33,080	-0,114	-0,069
196,129	23,119	-0,257	-0,147
197,144	459,387	-0,192	-0,299
198,159	-73,724	-0,289	-0,073
199,173	781,735	-0,072	-0,137
200,188	-99,627	-0,075	-0,013
201,202	128,918	-0,166	-0,147
202,217	186,884	-0,164	-0,170
203,232	-53,055	-0,242	-0,077
204,246	84,130	-0,271	-0,206
205,261	61,756	-0,198	-0,137
206,275	-58,017	-0,225	-0,068
207,290	235,622	-0,186	-0,214
208,304	79,497	-0,175	-0,130
209,319	227,762	-0,212	-0,240
210,334	56,738	-0,296	-0,200
211,348	231,282	-0,256	-0,292
212,363	160,920	-0,156	-0,152
213,377	668,483	-0,106	-0,192
214,392	-1,471	-0,203	-0,099
215,407	2,516	-0,237	-0,119
216,421	-61,233	-0,215	-0,063
217,436	141,363	-0,290	-0,267
218,450	800,000	-0,111	-0,265
219,465	58,039	-0,201	-0,137
220,480	138,164	-0,159	-0,144
221,494	92,333	-0,205	-0,160
222,509	-8,856	-0,168	-0,078
223,523	-200,000	-0,047	-0,146
224,538	-124,293	-0,208	0,022
225,553	34,091	-0,204	-0,123
226,567	1,290	-0,283	-0,140
227,582	-85,713	-0,295	-0,063
228,596	240,410	-0,152	-0,176
229,611	-34,088	-0,156	-0,059
230,626	331,827	-0,164	-0,219
231,640	274,942	-0,197	-0,243
232,655	794,775	-0,165	-0,316
233,669	310,782	-0,195	-0,254
234,684	259,730	-0,160	-0,192
235,699	15,299	-0,176	-0,095
236,713	127,427	-0,190	-0,167
237,728	10,216	-0,209	-0,110
238,742	800,000	-0,111	-0,317
239,757	650,901	-0,246	-0,438
240,772	535,184	-0,084	-0,139
241,786	86,889	-0,195	-0,149
242,801	21,970	-0,213	-0,120
243,815	150,617	-0,151	-0,142
244,830	189,999	-0,134	-0,139
245,844	293,657	-0,170	-0,216
246,859	94,008	-0,100	-0,079
247,874	135,180	-0,130	-0,117
248,888	63,360	-0,150	-0,104
249,903	-200,000	-0,038	-0,203
250,917	-39,363	-0,234	-0,085
251,932	-107,390	-0,225	-0,034
252,947	-5,486	-0,207	-0,098
253,961	-1,437	-0,162	-0,079
254,976	684,768	-0,098	-0,178
255,990	800,000	-0,089	-0,193
257,005	6,373	-0,087	-0,044
258,020	45,145	-0,204	-0,130
259,034	800,000	-0,091	-0,176
260,049	29,126	-0,196	-0,115
261,063	800,000	-0,122	-0,237
262,078	214,908	-0,161	-0,176
263,093	455,076	-0,184	-0,283
264,107	405,461	-0,126	-0,184
265,122	242,299	-0,127	-0,148
266,136	-138,680	-0,167	0,012
267,151	-120,077	-0,178	0,021
268,166	800,000	-0,097	-0,214
269,180	-10,227	-0,167	-0,077
270,195	315,625	-0,146	-0,190
271,209	72,131	-0,212	-0,152
272,224	-200,000	-0,061	-0,212
273,239	11,445	-0,187	-0,099
274,253	800,000	-0,050	-0,144
275,268	118,964	-0,150	-0,128
276,282	277,565	-0,186	-0,229
277,297	120,012	-0,154	-0,132
278,312	44,285	-0,193	-0,122
279,326	60,207	-0,131	-0,089
280,341	2,693	-0,219	-0,109
281,355	126,191	-0,170	-0,148
282,370	-39,550	-0,186	-0,067
283,384	-80,710	-0,235	-0,054
284,399	28,127	-0,199	-0,115
285,414	318,877	-0,162	-0,212
286,428	34,926	-0,166	-0,100
287,443	-128,690	-0,137	-0,013
288,457	-109,860	-0,111	-0,016
289,472	-164,576	-0,170	0,005
290,487	-174,485	-0,118	0,002
291,501	110,057	-0,200	-0,166
292,516	122,976	-0,223	-0,193
293,530	-200,000	0,044	-0,146
294,545	-73,186	-0,119	-0,030
295,560	20,793	-0,126	-0,070
296,574	60,842	-0,199	-0,136
297,589	271,246	-0,098	-0,120
298,603	800,000	-0,109	-0,217
299,618	-71,787	-0,140	-0,036
300,633	168,067	-0,168	-0,165
301,647	100,449	-0,064	-0,051
302,662	-0,084	-0,175	-0,086
303,676	-181,417	-0,216	0,003
304,691	240,081	-0,147	-0,169
305,706	800,000	-0,022	-0,046
306,720	30,850	-0,096	-0,056
307,735	-78,721	-0,163	-0,038
308,749	-200,000	0,000	-0,285
309,764	-118,955	-0,103	0,012
310,779	-116,199	-0,130	0,016
311,793	710,586	-0,116	-0,213
312,808	800,000	-0,071	-0,151
313,822	-25,528	-0,218	-0,088
314,837	-88,446	-0,344	-0,070
315,852	800,000	-0,047	-0,114
316,866	24,361	0,057	-0,033
317,881	800,000	-0,081	-0,187
318,895	-200,000	-0,030	-0,221
319,910	-200,000	-0,043	-0,202
320,925	75,151	-0,196	-0,142
321,939	397,312	-0,055	-0,080
322,954	800,000	-0,039	-0,112
323,968	106,277	-0,115	-0,094
324,983	25,907	-0,112	-0,064
325,997	800,000	0,063	-0,147
327,012	36,494	-0,214	-0,130
328,027	150,758	-0,129	-0,120
329,041	800,000	-0,064	-0,168
330,056	116,952	-0,215	-0,181
331,070	-200,000	-0,031	0,126
332,085	-200,000	-0,009	-0,031
333,100	60,754	-0,106	-0,072
334,114	255,109	-0,099	-0,117
335,129	-13,948	-0,229	-0,101
336,143	128,048	-0,086	-0,076
337,158	800,000	-0,064	-0,188
338,173	-102,942	-0,083	-0,013
339,187	-110,744	-0,099	0,014
340,202	87,231	-0,134	-0,102
341,216	260,469	-0,143	-0,170
342,231	800,000	-0,043	-0,116
343,246	-200,000	-0,024	-0,160
344,260	114,141	-0,151	-0,126
345,275	-200,000	-0,014	-0,163
346,289	439,184	-0,036	-0,054
347,304	-131,446	-0,058	-0,005
348,319	29,417	-0,244	-0,142
349,333	60,251	-0,196	-0,133
350,348	800,000	-0,093	-0,182
351,362	800,000	-0,093	-0,186
352,377	-200,000	-0,001	-0,123
353,392	-83,941	-0,222	0,048
354,406	-172,043	-0,197	-0,004
355,421	209,952	1314,188	1415,935
356,435	161,607	1474,856	1416,426
