DTS Sentinel unit serial number:	SN410029Multiplexer serial number:	ORYXHardware model number:	OX2-SRSoftware version number:	ORYX F/W v4,00 Oryx Data Collector v3.7.2.0data status	okinstallation	B3 Nyhavnadifferential loss correction	single-endedforward channel	channel 1reverse channel	N/Adate	2023/12/03time	11:27:30forward acquisition time	300,00reverse acquisition time	0,00gamma	499,1914k internal	0,3200k external	0,3200temperature offset calibration	1,0000default loss term (dB/km)	0,3820temperature slope calibration	1,0000multiplexer offset coefficient	1,0000multiplexer slope coefficient	1,0000fibre end	0,00T internal ref (°C)	13,52T ext. ref 1 (°C)	-1,25T ext. ref 2 (°C)	-1,25length (m)	temperature (°C)	Stokes	anti-Stokes-744,400	102,800	-0,267	-0,227
-743,385	-200,000	-0,005	0,270
-742,371	49,095	-0,244	-0,166
-741,356	800,000	-0,137	0,418
-740,342	362,443	-0,213	-0,311
-739,327	-200,000	0,099	0,402
-738,312	-200,000	-0,064	-0,219
-737,298	-200,000	-0,027	0,284
-736,283	104,668	-0,277	-0,237
-735,269	800,000	0,072	0,225
-734,254	5,793	-0,268	-0,144
-733,239	409,628	-0,159	0,245
-732,225	-200,000	-0,043	-0,162
-731,210	275,066	0,087	0,112
-730,196	693,692	-0,022	-0,043
-729,181	800,000	-0,037	-0,076
-728,167	7,313	-0,151	-0,082
-727,152	-101,784	0,027	0,005
-726,137	493,878	-0,019	-0,032
-725,123	1,268	0,076	-0,040
-724,108	481,838	-0,055	-0,091
-723,094	-200,000	-0,000	0,021
-722,079	-182,179	0,071	0,001
-721,064	97,356	-0,022	0,018
-720,050	800,000	-0,027	-0,056
-719,035	-100,200	-0,093	-0,017
-718,021	-68,628	-0,023	0,006
-717,006	42,268	-0,139	0,092
-715,991	-200,000	0,011	-0,110
-714,977	-92,541	-0,121	-0,024
-713,962	800,000	0,027	-0,057
-712,948	-65,727	0,106	0,031
-711,933	-200,000	0,005	-0,080
-710,918	800,000	0,032	-0,077
-709,904	-127,743	0,101	-0,010
-708,889	500,473	-0,106	-0,178
-707,875	306,431	-0,130	-0,177
-706,860	800,000	-0,042	-0,126
-705,845	584,974	-0,023	-0,041
-704,831	-200,000	0,004	-0,054
-703,816	-100,956	0,157	0,028
-702,802	-200,000	-0,008	-0,184
-701,787	-200,000	-0,003	-0,067
-700,772	-200,000	0,011	-0,205
-699,758	800,000	-0,021	0,044
-698,743	-200,000	0,009	0,174
-697,729	164,237	-0,047	0,048
-696,714	140,851	-0,052	-0,050
-695,699	81,338	-0,143	-0,112
-694,685	31,336	0,084	0,052
-693,670	-200,000	-0,018	-0,130
-692,656	169,514	-0,077	0,080
-691,641	296,373	0,036	-0,048
-690,627	-200,000	-0,000	-0,003
-689,612	-162,647	-0,133	-0,005
-688,597	116,937	0,052	0,046
-687,583	217,303	-0,057	-0,066
-686,568	800,000	-0,115	-0,268
-685,554	251,539	-0,065	-0,080
-684,539	-19,044	0,065	-0,029
-683,524	388,567	-0,043	0,065
-682,510	423,303	0,121	0,189
-681,495	44,657	0,116	-0,077
-680,481	800,000	0,014	0,034
-679,466	-61,311	-0,211	-0,064
-678,451	330,332	-0,052	-0,073
-677,437	345,117	0,069	0,098
-676,422	-61,932	0,116	0,035
-675,408	-200,000	-0,001	0,015
-674,393	-200,000	0,027	-0,097
-673,378	17,497	-0,130	-0,075
-672,364	-200,000	0,012	0,084
-671,349	-200,000	0,009	0,032
-670,335	-200,000	0,004	0,140
-669,320	200,296	-0,007	-0,008
-668,305	-200,000	0,001	-0,072
-667,291	26,491	0,060	0,037
-666,276	-111,280	-0,150	0,022
-665,262	351,188	-0,124	-0,178
-664,247	109,616	-0,056	-0,049
-663,232	-164,388	0,044	-0,001
-662,218	800,000	0,072	0,168
-661,203	10,499	-0,007	0,004
-660,189	800,000	-0,047	-0,102
-659,174	124,870	-0,031	0,028
-658,159	-90,205	0,046	0,010
-657,145	144,318	-0,082	-0,079
-656,130	510,674	-0,061	0,103
-655,116	39,704	0,088	-0,057
-654,101	-17,076	0,174	0,079
-653,086	-94,629	-0,146	0,029
-652,072	-74,990	-0,126	0,033
-651,057	-200,000	0,006	0,105
-650,043	800,000	-0,020	-0,051
-649,028	-93,669	-0,153	-0,030
-648,014	95,734	0,065	0,054
-646,999	-27,858	0,020	-0,008
-645,984	125,646	-0,132	-0,121
-644,970	-115,069	-0,183	0,025
-643,955	20,292	-0,073	-0,042
-642,941	46,791	0,006	0,004
-641,926	-73,225	-0,037	0,010
-640,911	410,940	0,048	0,074
-639,897	-14,409	0,085	0,040
-638,882	-153,186	-0,115	-0,006
-637,868	90,571	-0,142	0,115
-636,853	11,013	0,023	0,013
-635,838	185,098	-0,085	-0,091
-634,824	-200,000	0,003	-0,180
-633,809	-200,000	0,005	0,092
-632,795	-7,471	-0,018	-0,009
-631,780	-22,183	0,058	-0,025
-630,765	-200,000	-0,001	-0,019
-629,751	-186,658	-0,131	0,001
-628,736	16,322	-0,042	0,024
-627,722	-124,933	0,096	-0,011
-626,707	565,981	0,030	0,053
-625,692	-200,000	-0,039	0,133
-624,678	25,284	-0,091	0,055
-623,663	143,154	0,092	-0,089
-622,649	452,892	0,010	0,016
-621,634	-200,000	-0,003	0,040
-620,619	-50,946	0,065	0,022
-619,605	-14,180	-0,091	-0,043
-618,590	800,000	0,051	0,154
-617,576	-200,000	-0,023	0,123
-616,561	66,479	0,051	-0,037
-615,546	800,000	-0,063	-0,169
-614,532	9,569	-0,199	-0,109
-613,517	3,891	0,099	-0,052
-612,503	60,178	-0,133	-0,095
-611,488	800,000	0,025	-0,056
-610,474	-200,000	0,009	0,043
-609,459	-200,000	0,013	-0,088
-608,444	-166,611	-0,091	0,003
-607,430	-32,041	-0,120	-0,048
-606,415	-200,000	-0,002	-0,135
-605,401	172,041	-0,063	0,066
-604,386	62,094	-0,104	-0,075
-603,371	800,000	-0,030	-0,066
-602,357	-52,447	0,119	-0,040
-601,342	1,007	-0,040	-0,021
-600,328	-200,000	-0,028	-0,154
-599,313	-7,161	-0,015	-0,008
-598,298	-200,000	0,010	0,062
-597,284	33,146	0,119	-0,075
-596,269	800,000	-0,021	0,062
-595,255	-200,000	-0,001	0,038
-594,240	-106,091	-0,143	-0,023
-593,225	-200,000	-0,015	-0,098
-592,211	800,000	0,020	-0,060
-591,196	-83,623	-0,052	0,012
-590,182	-200,000	-0,000	0,035
-589,167	144,630	0,106	0,103
-588,152	-200,000	-0,019	0,078
-587,138	132,664	-0,047	0,044
-586,123	-200,000	-0,004	-0,060
-585,109	-72,191	-0,075	0,020
-584,094	73,874	-0,070	0,053
-583,079	230,098	-0,039	-0,047
-582,065	181,866	0,017	-0,018
-581,050	59,237	0,082	0,059
-580,036	47,479	0,047	0,032
-579,021	446,654	-0,043	-0,069
-578,006	-3,709	0,093	-0,046
-576,992	800,000	0,021	0,060
-575,977	-106,561	-0,059	0,009
-574,963	-176,423	0,095	0,002
-573,948	-200,000	0,020	0,077
-572,934	-200,000	0,004	-0,057
-571,919	373,670	-0,050	-0,074
-570,904	-136,901	-0,136	0,011
-569,890	26,530	-0,062	0,037
-568,875	-200,000	0,004	-0,043
-567,861	125,818	0,116	0,106
-566,846	104,689	0,052	0,044
-565,831	27,502	0,069	-0,042
-564,817	-200,000	-0,000	-0,029
-563,802	159,210	-0,120	-0,121
-562,788	-200,000	0,007	0,033
-561,773	-50,250	-0,017	0,006
-560,758	800,000	0,074	0,201
-559,744	460,198	0,014	-0,023
-558,729	748,852	0,025	0,048
-557,715	-33,662	0,059	-0,023
-556,700	178,874	-0,116	-0,122
-555,685	-149,669	-0,113	0,006
-554,671	95,881	-0,107	-0,088
-553,656	-200,000	0,015	0,085
-552,642	-200,000	0,024	0,156
-551,627	522,482	0,071	0,120
-550,612	-5,712	-0,077	0,038
-549,598	-73,701	0,065	0,017
-548,583	-200,000	0,014	-0,181
-547,569	186,797	0,108	-0,116
-546,554	-172,986	-0,010	0,000
-545,539	427,296	0,049	0,076
-544,525	22,516	0,027	0,016
-543,510	-41,246	-0,179	0,066
-542,496	760,807	-0,010	0,019
-541,481	-200,000	-0,010	0,137
-540,466	-200,000	-0,006	-0,048
-539,452	115,297	0,086	0,076
-538,437	387,268	-0,059	0,089
-537,423	-200,000	-0,000	0,003
-536,408	73,629	0,069	0,052
-535,393	-8,843	0,120	0,058
-534,379	-154,781	-0,071	-0,003
-533,364	800,000	0,027	-0,057
-532,350	98,673	-0,076	-0,063
-531,335	233,275	0,068	0,080
-530,321	246,063	-0,072	0,088
-529,306	57,233	-0,087	-0,061
-528,291	17,233	0,087	-0,050
-527,277	-200,000	-0,025	-0,143
-526,262	-200,000	-0,011	0,077
-525,248	-141,680	0,117	-0,008
-524,233	-65,122	0,111	-0,032
-523,218	273,271	0,056	-0,071
-522,204	531,992	0,024	0,040
-521,189	-4,109	0,033	-0,016
-520,175	164,384	0,062	-0,063
-519,160	3,197	0,014	0,007
-518,145	-4,880	0,137	-0,068
-517,131	-200,000	-0,001	-0,018
-516,116	-111,495	0,030	0,004
-515,102	-70,909	-0,064	-0,017
-514,087	-7,488	-0,031	0,015
-513,072	800,000	0,046	-0,114
-512,058	-200,000	-0,024	-0,130
-511,043	415,284	-0,036	-0,055
-510,029	800,000	0,043	-0,088
-509,014	800,000	-0,016	0,033
-507,999	800,000	-0,036	-0,084
-506,985	333,083	-0,082	-0,115
-505,970	-33,941	0,116	0,046
-504,956	40,021	-0,047	0,030
-503,941	-53,602	0,172	0,056
-502,926	-107,907	0,108	0,017
-501,912	-50,418	0,050	-0,017
-500,897	-136,383	0,085	-0,007
-499,883	-45,154	-0,061	-0,022
-498,868	197,846	-0,168	-0,185
-497,853	-161,793	-0,072	-0,003
-496,839	92,784	0,086	-0,070
-495,824	-200,000	0,000	0,017
-494,810	258,443	0,070	0,088
-493,795	-86,182	0,170	-0,037
-492,781	352,068	-0,041	-0,058
-491,766	-148,991	-0,119	-0,007
-490,751	-145,604	0,073	0,005
-489,737	-169,005	-0,078	0,002
-488,722	-200,000	0,031	0,000
-487,708	800,000	0,032	-0,086
-486,693	108,713	0,021	-0,018
-485,678	224,210	-0,061	0,071
-484,664	324,933	-0,015	0,021
-483,649	290,907	0,044	-0,058
-482,635	-118,376	-0,118	0,015
-481,620	-54,658	0,155	0,050
-480,605	164,471	0,098	-0,099
-479,591	-200,000	-0,009	0,068
-478,576	14,085	0,133	-0,074
-477,562	-23,233	0,050	-0,021
-476,547	-200,000	-0,033	-0,127
-475,532	85,384	0,055	-0,044
-474,518	-48,924	0,078	-0,027
-473,503	-46,465	0,131	-0,046
-472,489	800,000	0,033	-0,097
-471,474	75,569	-0,108	-0,082
-470,459	-6,371	0,066	-0,032
-469,445	-147,790	-0,071	0,004
-468,430	-78,420	-0,094	0,023
-467,416	800,000	-0,054	0,113
-466,401	-199,323	0,140	0,001
-465,386	800,000	-0,042	0,107
-464,372	800,000	0,015	0,031
-463,357	800,000	0,036	0,072
-462,343	475,323	-0,046	0,075
-461,328	-200,000	0,014	0,088
-460,313	232,475	-0,047	0,056
-459,299	-159,479	0,126	0,005
-458,284	634,301	-0,035	0,064
-457,270	16,883	0,061	-0,035
-456,255	-200,000	-0,015	0,103
-455,241	-109,963	0,016	0,002
-454,226	487,733	0,066	0,108
-453,211	-173,164	-0,176	0,004
-452,197	150,298	0,102	0,100
-451,182	-200,000	-0,014	-0,075
-450,168	100,045	0,034	0,029
-449,153	-3,487	0,117	0,058
-448,138	395,181	0,065	-0,098
-447,124	-200,000	0,002	-0,103
-446,109	-200,000	0,013	0,045
-445,095	252,024	-0,053	0,065
-444,080	-200,000	-0,002	0,022
-443,065	-200,000	-0,006	0,129
-442,051	-55,417	-0,158	0,051
-441,036	11,892	0,119	-0,065
-440,022	389,266	-0,012	0,018
-439,007	170,468	-0,047	0,048
-437,992	-200,000	0,050	0,219
-436,978	108,364	-0,031	0,027
-435,963	146,231	-0,068	-0,066
-434,949	-200,000	-0,004	-0,080
-433,934	-42,401	-0,117	-0,043
-432,919	800,000	-0,025	-0,067
-431,905	-113,466	0,206	-0,029
-430,890	40,943	0,025	-0,016
-429,876	-200,000	0,012	0,063
-428,861	27,568	-0,067	0,040
-427,846	-7,899	-0,150	0,072
-426,832	138,081	0,049	-0,046
-425,817	-90,662	-0,159	0,033
-424,803	112,712	-0,086	-0,074
-423,788	-85,859	-0,029	0,006
-422,773	-200,000	0,014	0,088
-421,759	-140,999	-0,098	0,007
-420,744	153,722	-0,014	0,014
-419,730	154,339	-0,041	-0,040
-418,715	-200,000	0,011	-0,150
-417,701	34,285	-0,114	-0,071
-416,686	-30,136	0,023	-0,009
-415,671	88,754	0,087	0,070
-414,657	800,000	0,036	-0,111
-413,642	-174,507	-0,098	-0,002
-412,628	-26,038	0,089	-0,037
-411,613	-26,513	0,047	0,020
-410,598	-117,333	-0,159	0,021
-409,584	132,664	-0,082	0,076
-408,569	-200,000	0,055	0,192
-407,555	-19,381	0,097	-0,043
-406,540	-200,000	0,027	0,093
-405,525	-49,124	0,176	0,060
-404,511	202,159	0,055	-0,060
-403,496	-119,724	-0,135	-0,017
-402,482	-156,552	-0,052	-0,002
-401,467	800,000	0,029	-0,059
-400,452	51,897	0,040	0,027
-399,438	2,505	-0,090	-0,046
-398,423	-200,000	-0,017	0,073
-397,409	-130,400	-0,206	0,020
-396,394	-200,000	0,006	-0,063
-395,379	104,496	-0,081	-0,068
-394,365	625,008	0,062	-0,113
-393,350	169,690	0,046	0,047
-392,336	166,107	0,052	0,053
-391,321	75,498	-0,092	0,070
-390,306	33,426	0,089	0,055
-389,292	800,000	-0,011	-0,026
-388,277	-200,000	-0,004	0,040
-387,263	468,963	-0,025	0,041
-386,248	-200,000	0,030	0,155
-385,233	13,502	-0,125	-0,069
-384,219	800,000	-0,060	-0,122
-383,204	275,835	-0,122	-0,156
-382,190	-168,923	0,008	0,000
-381,175	-200,000	-0,036	0,126
-380,160	31,480	-0,103	0,063
-379,146	-122,757	0,070	0,008
-378,131	-200,000	0,014	0,056
-377,117	-200,000	-0,043	0,187
-376,102	-42,278	-0,059	-0,021
-375,088	44,307	-0,035	0,023
-374,073	243,824	0,050	0,060
-373,058	584,360	-0,037	-0,066
-372,044	-68,377	0,071	-0,020
-371,029	273,314	0,096	0,123
-370,015	-171,958	-0,052	-0,001
-369,000	-200,000	0,007	-0,025
-367,985	-55,972	-0,208	0,066
-366,971	-50,145	0,180	0,061
-365,956	800,000	-0,037	-0,087
-364,942	504,815	0,060	0,101
-363,927	42,674	-0,094	0,062
-362,912	-200,000	0,009	0,151
-361,898	186,011	-0,108	0,115
-360,883	141,436	-0,089	-0,085
-359,869	684,206	0,036	-0,068
-358,854	163,142	-0,027	-0,027
-357,839	-82,740	0,077	-0,018
-356,825	55,764	0,085	-0,059
-355,810	-112,425	-0,114	0,016
-354,796	-200,000	0,008	0,049
-353,781	800,000	0,018	-0,044
-352,766	-153,112	-0,085	0,004
-351,752	-126,457	-0,048	0,005
-350,737	12,881	-0,064	-0,035
-349,723	-173,856	0,193	0,004
-348,708	-200,000	0,010	-0,036
-347,693	26,210	0,065	0,039
-346,679	-200,000	-0,002	0,029
-345,664	373,384	0,058	-0,085
-344,650	70,356	-0,089	-0,066
-343,635	-55,142	0,146	0,047
-342,620	-12,657	0,075	-0,035
-341,606	-36,033	-0,076	-0,029
-340,591	229,331	-0,057	-0,067
-339,577	-84,841	-0,195	-0,044
-338,562	-200,000	-0,008	-0,039
-337,548	-109,823	0,069	0,010
-336,533	-23,738	0,051	-0,022
-335,518	31,992	0,056	0,034
-334,504	-200,000	0,001	0,047
-333,489	307,126	-0,074	0,098
-332,475	-200,000	-0,019	-0,096
-331,460	130,560	-0,029	-0,027
-330,445	392,881	0,064	0,096
-329,431	728,380	0,044	0,085
-328,416	-135,860	0,089	0,007
-327,402	198,126	-0,113	0,124
-326,387	-200,000	-0,004	-0,022
-325,372	-200,000	0,034	-0,128
-324,358	29,497	-0,088	-0,053
-323,343	-200,000	0,011	-0,103
-322,329	800,000	0,013	0,030
-321,314	405,148	0,085	0,129
-320,299	800,000	0,022	0,049
-319,285	800,000	0,015	-0,037
-318,270	800,000	0,059	-0,151
-317,256	-66,754	0,168	-0,047
-316,241	29,978	0,077	0,047
-315,226	97,187	-0,029	-0,024
-314,212	35,731	0,127	-0,079
-313,197	84,056	0,087	-0,068
-312,183	-164,384	0,014	-0,000
-311,168	98,004	-0,080	-0,066
-310,153	177,125	-0,034	0,036
-309,139	800,000	-0,039	-0,107
-308,124	117,989	0,113	0,099
-307,110	-94,841	0,042	-0,008
-306,095	-60,740	0,121	-0,036
-305,080	-200,000	-0,013	0,100
-304,066	452,293	0,106	0,168
-303,051	800,000	0,029	0,065
-302,037	71,991	-0,068	-0,051
-301,022	0,710	0,102	-0,052
-300,008	-138,425	0,051	0,004
-298,993	-53,315	-0,125	0,041
-297,978	-200,000	-0,002	0,048
-296,964	-200,000	-0,002	-0,011
-295,949	800,000	0,048	-0,100
-294,935	-86,334	-0,127	-0,028
-293,920	48,269	-0,066	-0,044
-292,905	800,000	0,037	-0,073
-291,891	800,000	-0,051	0,128
-290,876	118,390	-0,081	-0,072
-289,862	-200,000	0,022	-0,069
-288,847	-200,000	0,005	0,056
-287,832	-21,852	-0,244	-0,106
-286,818	-107,703	-0,129	0,020
-285,803	800,000	-0,032	0,096
-284,789	-49,489	0,125	0,042
-283,774	-200,000	-0,020	-0,077
-282,759	277,455	0,022	-0,029
-281,745	-200,000	-0,010	-0,049
-280,730	-200,000	0,004	0,030
-279,716	-14,804	-0,043	0,020
-278,701	410,720	0,020	0,030
-277,686	327,181	-0,012	-0,017
-276,672	369,937	0,002	-0,003
-275,657	61,418	-0,084	0,060
-274,643	-136,706	-0,202	0,016
-273,628	267,976	0,088	0,110
-272,613	-150,957	0,057	0,003
-271,599	-129,285	0,182	-0,018
-270,584	355,325	0,051	0,072
-269,570	-41,182	0,252	0,092
-268,555	239,764	-0,077	0,092
-267,540	-200,000	0,002	0,124
-266,526	-155,323	-0,114	-0,005
-265,511	71,883	-0,053	-0,039
-264,497	570,759	0,041	-0,071
-263,482	-200,000	-0,003	0,058
-262,467	8,966	0,125	0,067
-261,453	96,383	-0,041	-0,033
-260,438	-200,000	0,015	-0,104
-259,424	-200,000	-0,011	-0,125
-258,409	-200,000	-0,018	-0,078
-257,395	-189,030	0,036	0,000
-256,380	-200,000	0,019	0,114
-255,365	192,705	0,138	-0,149
-254,351	171,176	0,114	-0,117
-253,336	0,491	-0,047	0,024
-252,322	170,635	-0,056	-0,057
-251,307	367,135	-0,030	-0,043
-250,292	-143,642	0,081	0,005
-249,278	180,195	0,081	-0,085
-248,263	149,349	-0,036	0,034
-247,249	-200,000	0,018	0,162
-246,234	79,337	0,154	-0,118
-245,219	11,210	-0,031	0,017
-244,205	-200,000	0,026	-0,088
-243,190	-31,894	0,100	-0,040
-242,176	-115,032	0,041	0,006
-241,161	800,000	0,069	0,153
-240,146	38,986	0,008	0,005
-239,132	-200,000	-0,007	-0,075
-238,117	-200,000	-0,011	0,132
-237,103	214,276	-0,026	-0,029
-236,088	-200,000	0,005	-0,064
-235,073	-200,000	0,018	-0,082
-234,059	800,000	-0,024	0,063
-233,044	711,810	-0,066	0,125
-232,030	-41,874	-0,083	-0,030
-231,015	800,000	-0,045	0,129
-230,000	597,740	-0,078	-0,139
-228,986	-200,000	0,015	-0,074
-227,971	-200,000	0,013	0,114
-226,957	-171,595	-0,081	-0,002
-225,942	121,249	-0,073	-0,065
-224,927	-81,983	0,149	-0,034
-223,913	487,039	-0,073	0,119
-222,898	256,678	-0,031	-0,038
-221,884	-44,789	0,066	0,023
-220,869	69,777	0,019	-0,014
-219,855	-200,000	0,004	0,040
-218,840	-156,146	0,029	0,001
-217,825	85,355	0,094	-0,074
-216,811	102,786	-0,089	0,075
-215,796	-200,000	0,003	-0,035
-214,782	-200,000	0,023	-0,121
-213,767	248,234	-0,017	0,020
-212,752	800,000	-0,019	-0,048
-211,738	5,179	0,185	0,097
-210,723	-200,000	-0,001	-0,056
-209,709	-57,146	-0,121	0,038
-208,694	-200,000	-0,040	-0,161
-207,679	800,000	-0,078	-0,161
-206,665	-97,951	-0,034	-0,006
-205,650	365,268	-0,053	0,076
-204,636	800,000	-0,031	0,082
-203,621	-91,017	0,080	-0,016
-202,606	-86,728	-0,103	-0,022
-201,592	-111,114	-0,065	-0,009
-200,577	-200,000	-0,001	-0,079
-199,563	-200,000	0,038	0,158
-198,548	167,892	0,102	0,104
-197,533	-89,717	-0,050	-0,010
-196,519	-93,794	0,100	0,019
-195,504	562,460	-0,047	0,082
-194,490	-25,931	-0,101	0,042
-193,475	78,259	-0,010	-0,008
-192,460	244,337	-0,077	0,092
-191,446	800,000	0,030	-0,088
-190,431	-64,400	0,074	-0,021
-189,417	800,000	-0,052	-0,119
-188,402	48,110	0,068	0,045
-187,387	-55,831	-0,039	0,012
-186,373	136,295	-0,067	-0,062
-185,358	77,047	-0,038	-0,028
-184,344	-200,000	0,009	0,126
-183,329	283,523	0,137	0,176
-182,315	98,640	0,116	0,095
-181,300	21,534	-0,102	0,059
-180,285	-158,584	-0,038	-0,002
-179,271	236,167	-0,089	0,105
-178,256	-55,296	0,092	-0,029
-177,242	-94,254	0,028	-0,005
-176,227	-200,000	-0,019	0,073
-175,212	-144,862	-0,045	-0,003
-174,198	800,000	0,022	-0,046
-173,183	279,816	-0,077	-0,098
-172,169	-17,659	0,071	-0,032
-171,154	-142,745	-0,108	0,007
-170,139	140,764	0,109	-0,103
-169,125	114,341	0,173	0,150
-168,110	215,389	-0,038	0,043
-167,096	-200,000	0,005	-0,024
-166,081	62,618	-0,047	-0,034
-165,066	-114,763	0,108	0,014
-164,052	148,043	0,095	-0,092
-163,037	75,736	0,032	-0,024
-162,023	800,000	0,033	-0,083
-161,008	57,347	0,058	-0,040
-159,993	58,183	0,034	0,024
-158,979	7,646	0,040	-0,021
-157,964	-90,851	-0,055	-0,011
-156,950	-143,129	0,019	-0,001
-155,935	37,728	0,115	0,073
-154,920	-144,045	0,043	-0,003
-153,906	-108,709	-0,086	0,013
-152,891	-200,000	-0,010	-0,102
-151,877	-34,923	-0,206	-0,079
-150,862	-125,215	-0,041	0,004
-149,847	-55,451	-0,070	0,022
-148,833	94,147	0,086	0,069
-147,818	800,000	-0,075	0,158
-146,804	-23,908	0,107	0,045
-145,789	-18,997	0,078	0,034
-144,775	127,511	0,045	0,041
-143,760	440,563	0,062	-0,096
-142,745	95,609	-0,064	-0,052
-141,731	490,039	0,075	-0,122
-140,716	800,000	-0,013	0,037
-139,702	-88,564	-0,045	-0,010
-138,687	490,202	0,071	0,115
-137,672	-12,927	0,095	-0,044
-136,658	800,000	0,030	-0,086
-135,643	800,000	-0,023	0,050
-134,629	-200,000	-0,017	0,092
-133,614	-200,000	-0,008	-0,133
-132,599	279,558	0,045	-0,057
-131,585	-200,000	0,011	0,078
-130,570	-38,794	0,099	-0,037
-129,556	-117,341	-0,183	-0,023
-128,541	-200,000	0,021	0,109
-127,526	-86,580	0,062	-0,013
-126,512	371,681	0,068	-0,098
-125,497	-107,927	-0,045	-0,007
-124,483	-42,822	-0,041	0,015
-123,468	758,832	-0,007	-0,014
-122,453	-200,000	-0,003	0,145
-121,439	320,265	-0,030	0,040
-120,424	-200,000	-0,003	-0,062
-119,410	563,722	-0,074	0,128
-118,395	-68,801	0,170	0,046
-117,380	86,756	-0,061	0,048
-116,366	54,953	-0,048	-0,033
-115,351	171,412	-0,044	-0,044
-114,337	-25,694	-0,101	-0,042
-113,322	-21,088	0,033	0,014
-112,307	-200,000	0,021	0,129
-111,293	-18,178	0,113	-0,050
-110,278	682,891	-0,071	-0,131
-109,264	-200,000	-0,006	0,040
-108,249	-83,721	-0,106	-0,024
-107,234	-200,000	-0,003	-0,116
-106,220	-200,000	-0,008	0,053
-105,205	-52,387	-0,114	-0,037
-104,191	800,000	0,100	0,235
-103,176	11,425	-0,091	0,050
-102,162	800,000	0,045	0,132
-101,147	301,489	-0,074	-0,097
-100,132	-200,000	-0,040	-0,259
-99,118	-40,330	-0,071	-0,026
-98,103	-200,000	0,020	-0,096
-97,089	-22,309	0,046	-0,020
-96,074	800,000	-0,045	-0,113
-95,059	265,529	-0,027	0,034
-94,045	-50,182	-0,068	-0,023
-93,030	478,612	0,061	-0,098
-92,016	129,861	-0,062	-0,056
-91,001	-200,000	0,010	0,136
-89,986	424,941	-0,029	0,044
-88,972	-83,663	0,018	-0,004
-87,957	800,000	-0,054	0,113
-86,943	-133,187	0,085	-0,007
-85,928	-9,524	-0,024	0,011
-84,913	487,956	-0,008	-0,012
-83,899	-200,000	0,002	0,073
-82,884	-190,242	0,074	-0,001
-81,870	-9,069	-0,037	0,018
-80,855	-145,843	0,118	0,007
-79,840	-35,000	-0,138	-0,053
-78,826	30,408	-0,125	-0,075
-77,811	-200,000	-0,007	-0,069
-76,797	-3,133	-0,087	0,043
-75,782	115,867	0,087	-0,075
-74,767	630,277	0,028	-0,051
-73,753	108,281	-0,062	-0,053
-72,738	-77,494	0,012	-0,003
-71,724	-12,524	-0,054	0,025
-70,709	-140,054	-0,101	0,007
-69,694	188,386	0,034	-0,036
-68,680	-117,415	0,104	-0,013
-67,665	-200,000	0,013	0,085
-66,651	427,720	0,018	0,028
-65,636	45,912	0,130	0,085
-64,622	65,489	0,064	0,046
-63,607	551,570	-0,102	0,175
-62,592	38,566	-0,030	-0,019
-61,578	65,191	0,045	0,032
-60,563	800,000	0,026	0,064
-59,549	83,054	0,062	0,048
-58,534	-28,478	-1,621	-0,659
-57,519	484,706	-1,300	-2,103
-56,505	-200,000	-0,606	-4,582
-55,490	253,475	1,021	1,237
-54,476	800,000	4,793	11,002
-53,461	-200,000	18,978	317,543
-52,446	-200,000	739,492	2333,187
-51,432	575,674	1655,035	2873,523
-50,417	78,676	1670,710	1263,855
-49,403	21,515	1543,570	886,685
-48,388	15,422	1465,782	812,382
-47,373	17,892	1456,174	818,962
-46,359	16,724	1446,178	807,704
-45,344	13,637	1441,630	790,346
-44,330	13,513	1439,712	788,671
-43,315	13,582	1437,727	787,879
-42,300	13,623	1436,246	787,233
-41,286	13,600	1434,974	786,397
-40,271	13,543	1433,574	785,328
-39,257	13,565	1432,336	784,719
-38,242	13,616	1431,185	784,300
-37,227	13,624	1430,076	783,702
-36,213	13,620	1428,613	782,850
-35,198	13,606	1427,489	782,137
-34,184	13,645	1426,555	781,780
-33,169	13,620	1425,068	780,815
-32,154	13,667	1423,846	780,334
-31,140	13,622	1422,660	779,440
-30,125	13,670	1421,677	779,102
-29,111	13,645	1420,505	778,306
-28,096	13,603	1419,344	777,444
-27,082	13,558	1418,458	776,714
-26,067	13,539	1417,163	775,885
-25,052	13,550	1416,220	775,391
-24,038	13,516	1415,261	774,673
-23,023	13,542	1414,168	774,167
-22,009	13,492	1413,274	773,412
-20,994	13,555	1412,322	773,157
-19,979	13,503	1411,329	772,340
-18,965	13,509	1410,511	771,888
-17,950	13,489	1409,517	771,221
-16,936	13,514	1408,444	770,721
-15,921	13,463	1407,565	769,967
-14,906	13,479	1406,675	769,526
-13,892	13,459	1405,655	768,843
-12,877	13,462	1404,807	768,364
-11,863	13,492	1403,797	767,921
-10,848	13,447	1402,924	767,204
-9,833	13,400	1402,283	766,603
-8,819	13,384	1401,232	765,924
-7,804	13,381	1400,332	765,387
-6,790	13,405	1399,147	764,820
-5,775	13,352	1398,489	764,186
-4,760	13,361	1397,310	763,552
-3,746	13,359	1396,546	763,094
-2,731	13,342	1395,685	762,513
-1,717	13,326	1394,830	761,943
-0,702	13,314	1393,054	760,888
0,313	17,146	1310,254	733,421
1,327	33,504	704,067	431,928
2,342	51,306	123,511	82,843
3,356	1,640	16,709	8,486
4,371	11,553	3,280	1,775
5,386	44,571	0,451	0,293
6,400	800,000	0,090	0,196
7,415	35,190	-0,284	-0,176
8,429	273,313	-0,227	-0,284
9,444	77,861	-0,370	-0,278
10,459	38,711	-0,356	-0,224
11,473	-49,185	-0,262	-0,088
12,488	203,713	-0,233	-0,255
13,502	118,785	-0,291	-0,254
14,517	-85,412	-0,361	-0,079
15,531	132,111	-0,437	-0,398
16,546	304,422	-0,216	-0,284
17,561	402,368	-0,244	-0,363
18,575	-86,114	-0,221	-0,048
19,590	103,336	-0,277	-0,230
20,604	68,789	-0,300	-0,217
21,619	34,127	-0,431	-0,265
22,634	35,334	-0,423	-0,262
23,648	184,284	-0,331	-0,346
24,663	62,827	-0,302	-0,213
25,677	141,307	-0,323	-0,302
26,692	48,667	-0,383	-0,253
27,707	165,067	-0,300	-0,299
28,721	50,695	-0,439	-0,293
29,736	-3,675	-0,362	-0,177
30,750	135,717	-0,443	-0,407
31,765	136,408	-0,436	-0,402
32,780	212,489	-0,304	-0,338
33,794	-9,367	-0,380	-0,179
34,809	258,635	-0,249	-0,304
35,823	50,024	-0,250	-0,166
36,838	136,292	-0,377	-0,347
37,853	29,881	-0,505	-0,303
38,867	49,125	-0,456	-0,301
39,882	79,763	-0,299	-0,226
40,896	114,657	-0,346	-0,298
41,911	65,409	-0,306	-0,218
42,926	-48,415	-0,449	-0,152
43,940	32,422	-0,440	-0,267
44,955	57,435	-0,414	-0,285
45,969	-18,620	-0,373	-0,163
46,984	-50,768	-0,279	-0,092
47,999	153,823	-0,297	-0,287
49,013	15,794	-0,469	-0,259
50,028	123,374	-0,266	-0,235
51,042	23,655	-0,329	-0,190
52,057	449,734	-0,160	-0,249
53,071	87,012	-0,327	-0,255
54,086	177,016	-0,341	-0,350
55,101	130,237	-0,291	-0,263
56,115	130,789	-0,299	-0,270
57,130	65,882	-0,302	-0,215
58,144	174,977	-0,350	-0,357
59,159	167,958	-0,298	-0,299
60,174	57,531	-0,436	-0,300
61,188	132,695	-0,337	-0,306
62,203	93,479	-0,293	-0,234
63,217	25,453	-0,321	-0,187
64,232	133,898	-0,290	-0,264
65,247	96,265	-0,334	-0,268
66,261	-25,421	-0,458	-0,190
67,276	199,328	-0,227	-0,245
68,290	13,729	-0,406	-0,221
69,305	27,665	-0,249	-0,147
70,320	-51,771	-0,260	-0,085
71,334	45,161	-0,344	-0,223
72,349	5,223	-0,302	-0,156
73,363	-5,934	-0,326	-0,156
74,378	74,346	-0,244	-0,180
75,393	184,023	-0,321	-0,335
76,407	9,552	-0,202	-0,107
77,422	77,022	-0,226	-0,169
78,436	75,551	-0,183	-0,136
79,451	78,736	-0,314	-0,236
80,466	400,656	-0,179	-0,265
81,480	-29,417	-0,375	-0,150
82,495	-49,766	-0,300	-0,099
83,509	518,667	-0,124	-0,204
84,524	41,706	-0,320	-0,203
85,539	453,110	-0,244	-0,380
86,553	37,913	-0,206	-0,129
87,568	33,144	-0,331	-0,201
88,582	44,082	-0,351	-0,225
89,597	6,851	-0,292	-0,152
90,611	199,613	-0,216	-0,232
91,626	-44,533	-0,297	-0,104
92,641	-7,616	-0,265	-0,125
93,655	91,396	-0,292	-0,230
94,670	223,998	-0,306	-0,347
95,684	267,295	-0,190	-0,234
96,699	53,228	-0,282	-0,189
97,714	460,125	-0,171	-0,268
98,728	18,111	-0,271	-0,151
99,743	267,493	-0,168	-0,207
100,757	17,228	-0,301	-0,167
101,772	126,630	-0,346	-0,307
102,787	12,494	-0,302	-0,163
103,801	93,489	-0,166	-0,132
104,816	-141,363	-0,166	-0,012
105,830	56,715	-0,217	-0,148
106,845	-87,777	-0,155	-0,032
107,860	103,842	-0,283	-0,233
108,874	232,607	-0,223	-0,257
109,889	190,109	-0,273	-0,288
110,903	56,675	-0,288	-0,197
111,918	82,845	-0,213	-0,162
112,933	269,100	-0,112	-0,137
113,947	-103,808	-0,203	-0,033
114,962	89,995	-0,234	-0,183
115,976	57,588	-0,291	-0,199
116,991	195,681	-0,243	-0,259
118,006	240,671	-0,210	-0,246
119,020	6,513	-0,357	-0,185
120,035	-25,182	-0,257	-0,106
121,049	371,987	-0,153	-0,218
122,064	17,924	-0,223	-0,124
123,079	-59,969	-0,157	-0,047
124,093	150,944	-0,159	-0,151
125,108	63,854	-0,285	-0,200
126,122	298,001	-0,222	-0,287
127,137	197,950	-0,151	-0,162
128,151	-39,189	-0,288	-0,105
129,166	-85,843	-0,307	-0,066
130,181	-25,571	-0,294	-0,121
131,195	-25,364	-0,215	-0,089
132,210	-71,159	-0,261	-0,068
133,224	176,427	-0,173	-0,176
134,239	69,862	-0,167	-0,121
135,254	132,996	-0,207	-0,187
136,268	-73,160	-0,312	-0,079
137,283	194,366	-0,123	-0,130
138,297	552,919	-0,133	-0,224
139,312	95,060	-0,319	-0,254
140,327	-96,554	-0,275	-0,050
141,341	172,215	-0,184	-0,186
142,356	7,521	-0,337	-0,176
143,370	80,371	-0,212	-0,159
144,385	301,709	-0,268	-0,347
145,400	41,727	-0,325	-0,206
146,414	42,956	-0,313	-0,199
147,429	-4,235	-0,188	-0,091
148,443	17,703	-0,210	-0,116
149,458	97,285	-0,152	-0,122
150,473	65,469	-0,251	-0,177
151,487	143,957	-0,253	-0,236
152,502	33,016	-0,365	-0,221
153,516	136,404	-0,204	-0,186
154,531	94,879	-0,243	-0,193
155,546	-64,614	-0,320	-0,090
156,560	800,000	-0,105	-0,206
157,575	59,732	-0,269	-0,185
158,589	383,721	-0,218	-0,314
159,604	-25,851	-0,366	-0,150
160,619	115,164	-0,295	-0,252
161,633	215,791	-0,247	-0,275
162,648	-31,320	-0,216	-0,085
163,662	33,316	-0,285	-0,172
164,677	11,999	-0,229	-0,123
165,692	88,133	-0,102	-0,079
166,706	-19,748	-0,282	-0,121
167,721	-145,795	-0,246	-0,015
168,735	214,750	-0,182	-0,201
169,750	-4,140	-0,253	-0,122
170,764	7,497	-0,231	-0,120
171,779	800,000	-0,076	-0,212
172,794	341,724	-0,048	-0,065
173,808	13,696	-0,228	-0,123
174,823	6,939	-0,271	-0,140
175,837	59,028	-0,290	-0,198
176,852	48,920	-0,258	-0,169
177,867	91,837	-0,202	-0,158
178,881	68,948	-0,288	-0,206
179,896	-32,312	-0,219	-0,085
180,910	2,192	-0,278	-0,140
181,925	-67,299	-0,221	-0,060
182,940	173,467	-0,232	-0,233
183,954	102,638	-0,245	-0,199
184,969	-32,264	-0,192	-0,074
185,983	557,219	-0,114	-0,192
186,998	-51,718	-0,258	-0,083
188,013	53,708	-0,214	-0,143
189,027	-61,135	-0,349	-0,102
190,042	83,684	-0,278	-0,211
191,056	105,242	-0,239	-0,196
192,071	313,477	-0,168	-0,221
193,086	23,283	-0,178	-0,101
194,100	566,334	-0,100	-0,169
195,115	-139,093	-0,265	-0,020
196,129	183,481	-0,175	-0,180
197,144	86,103	-0,233	-0,178
198,159	-8,997	-0,097	-0,045
199,173	127,836	-0,271	-0,240
200,188	113,295	-0,196	-0,166
201,202	-42,738	-0,166	0,058
202,217	83,004	-0,162	-0,122
203,232	203,588	-0,118	-0,127
204,246	211,216	-0,270	-0,296
205,261	153,911	-0,297	-0,283
206,275	800,000	-0,066	-0,133
207,290	175,639	-0,126	-0,127
208,304	148,193	-0,223	-0,209
209,319	13,742	-0,210	-0,113
210,334	366,593	-0,186	-0,261
211,348	194,286	-0,196	-0,207
212,363	388,990	-0,144	-0,208
213,377	-67,241	-0,170	-0,046
214,392	55,228	-0,201	-0,135
215,407	1,679	-0,141	-0,070
216,421	93,553	-0,207	-0,163
217,436	250,261	-0,156	-0,184
218,450	55,076	-0,301	-0,202
219,465	80,318	-0,293	-0,219
220,480	75,807	-0,146	-0,107
221,494	800,000	-0,126	-0,249
222,509	800,000	-0,139	-0,293
223,523	61,378	-0,255	-0,175
224,538	461,771	-0,179	-0,278
225,553	61,421	-0,194	-0,134
226,567	-67,437	-0,223	-0,060
227,582	440,868	-0,106	-0,162
228,596	60,307	-0,129	-0,088
229,611	-200,000	-0,057	-0,201
230,626	80,461	-0,163	-0,122
231,640	85,085	-0,301	-0,229
232,655	784,682	-0,067	-0,129
233,669	77,611	-0,186	-0,137
234,684	90,390	-0,202	-0,157
235,699	-200,000	0,021	-0,228
236,713	79,395	-0,184	-0,137
237,728	288,946	-0,087	-0,110
238,742	229,638	-0,108	-0,123
239,757	70,717	-0,100	-0,072
240,772	200,129	-0,224	-0,239
241,786	79,441	-0,228	-0,169
242,801	800,000	-0,114	-0,296
243,815	188,564	-0,130	-0,134
244,830	5,722	-0,120	-0,061
245,844	459,349	-0,158	-0,245
246,859	703,809	-0,093	-0,170
247,874	45,513	-0,333	-0,213
248,888	255,353	-0,165	-0,196
249,903	281,649	-0,093	-0,116
250,917	72,275	-0,173	-0,124
251,932	-132,565	-0,165	0,014
252,947	409,851	-0,120	-0,176
253,961	15,273	-0,127	-0,069
254,976	56,248	-0,211	-0,141
255,990	103,646	-0,228	-0,185
257,005	278,089	-0,151	-0,186
258,020	92,032	-0,215	-0,167
259,034	191,160	-0,184	-0,191
260,049	-20,063	-0,274	-0,117
261,063	75,600	-0,244	-0,178
262,078	29,840	-0,281	-0,165
263,093	68,006	-0,138	-0,098
264,107	65,567	-0,168	-0,118
265,122	-200,000	-0,038	-0,122
266,136	49,453	-0,198	-0,129
267,151	72,074	-0,157	-0,113
268,166	-41,395	-0,172	-0,061
269,180	51,199	-0,190	-0,124
270,195	800,000	-0,078	-0,216
271,209	-147,076	-0,252	0,015
272,224	17,785	-0,139	-0,076
273,239	-123,558	-0,211	-0,023
274,253	28,886	-0,135	-0,079
275,268	-116,650	-0,198	-0,025
276,282	205,328	-0,154	-0,166
277,297	155,224	-0,159	-0,151
278,312	307,677	-0,216	-0,279
279,326	-155,103	-0,146	-0,006
280,341	26,003	-0,186	-0,107
281,355	94,086	-0,197	-0,154
282,370	370,995	-0,127	-0,178
283,384	800,000	-0,131	-0,305
284,399	-90,697	-0,174	-0,034
285,414	216,027	-0,146	-0,161
286,428	0,893	-0,199	-0,098
287,443	651,661	-0,014	0,025
288,457	800,000	-0,106	-0,237
289,472	94,656	-0,176	-0,138
290,487	-110,831	-0,101	-0,014
291,501	300,554	-0,287	-0,367
292,516	322,075	-0,149	-0,197
293,530	217,634	-0,166	-0,182
294,545	800,000	-0,089	-0,190
295,560	-48,732	-0,132	-0,043
296,574	-35,667	-0,225	-0,084
297,589	800,000	-0,054	-0,160
298,603	379,072	-0,147	-0,208
299,618	447,629	-0,125	-0,190
300,633	-200,000	-0,044	-0,218
301,647	800,000	-0,022	0,061
302,662	69,731	-0,113	-0,080
303,676	-37,788	-0,182	-0,066
304,691	218,074	-0,164	-0,181
305,706	53,995	-0,126	-0,083
306,720	178,627	-0,135	-0,136
307,735	20,138	-0,085	-0,047
308,749	-93,437	-0,237	-0,045
309,764	-92,982	-0,171	-0,032
310,779	-167,833	-0,105	0,003
311,793	164,310	-0,105	-0,102
312,808	73,036	-0,256	-0,184
313,822	165,825	-0,217	-0,212
314,837	138,564	-0,100	-0,090
315,852	-106,821	-0,145	-0,022
316,866	-43,903	-0,049	-0,017
317,881	183,329	-0,083	-0,085
318,895	34,219	-0,202	-0,121
319,910	9,743	-0,248	-0,129
320,925	299,346	-0,085	-0,108
321,939	-133,846	-0,248	-0,021
322,954	800,000	0,013	0,034
323,968	-2,874	-0,149	-0,071
324,983	-41,300	-0,182	-0,064
325,997	-3,556	-0,152	-0,073
327,012	386,750	-0,095	-0,135
328,027	85,075	-0,192	-0,144
329,041	-88,936	-0,113	-0,023
330,056	31,009	-0,083	-0,049
331,070	29,960	-0,183	-0,107
332,085	-157,027	-0,207	0,009
333,100	-77,510	-0,085	-0,020
334,114	2,851	-0,190	-0,094
335,129	-118,737	-0,147	0,018
336,143	104,989	-0,111	0,090
337,158	521,236	-0,081	-0,131
338,173	800,000	-0,107	-0,234
339,187	85,331	-0,058	-0,044
340,202	-14,028	-0,105	-0,046
341,216	-81,970	-0,143	0,032
342,231	513,208	-0,075	-0,120
343,246	22,431	-0,096	-0,054
344,260	-200,000	-0,008	-0,032
345,275	-92,695	-0,045	-0,009
346,289	151,024	-0,088	-0,082
347,304	192,828	-0,135	-0,140
348,319	-115,613	-0,233	-0,030
349,333	604,430	-0,075	-0,129
350,348	-14,263	-0,086	-0,038
351,362	195,750	-0,162	-0,169
352,377	-200,000	-0,046	-0,141
353,392	332,248	-0,100	-0,133
354,406	-35,013	-0,159	-0,059
355,421	208,226	1314,114	1410,944
356,435	160,210	1474,771	1411,437
