DTS Sentinel unit serial number:	SN410029Multiplexer serial number:	ORYXHardware model number:	OX2-SRSoftware version number:	ORYX F/W v4,00 Oryx Data Collector v3.7.2.0data status	okinstallation	B3 Nyhavnadifferential loss correction	single-endedforward channel	channel 1reverse channel	N/Adate	2023/12/03time	21:57:30forward acquisition time	300,00reverse acquisition time	0,00gamma	499,1914k internal	0,3200k external	0,3200temperature offset calibration	1,0000default loss term (dB/km)	0,3820temperature slope calibration	1,0000multiplexer offset coefficient	1,0000multiplexer slope coefficient	1,0000fibre end	0,00T internal ref (°C)	13,38T ext. ref 1 (°C)	-1,99T ext. ref 2 (°C)	-2,01length (m)	temperature (°C)	Stokes	anti-Stokes-744,400	800,000	-0,171	-0,348
-743,385	-200,000	-0,022	0,273
-742,371	505,983	-0,173	-0,293
-741,356	-200,000	-0,065	0,279
-740,342	566,492	-0,164	-0,291
-739,327	-200,000	0,025	0,214
-738,312	6,967	-0,136	-0,073
-737,298	-200,000	0,036	0,212
-736,283	182,283	-0,174	-0,187
-735,269	582,427	-0,149	0,266
-734,254	22,685	-0,181	-0,107
-733,239	400,575	-0,079	0,121
-732,225	-200,000	0,038	-0,152
-731,210	-136,320	0,070	0,006
-730,196	203,134	-0,150	-0,169
-729,181	-8,178	-0,052	0,025
-728,167	52,775	-0,060	-0,042
-727,152	-38,224	-0,023	0,009
-726,137	370,426	-0,056	-0,082
-725,123	-200,000	0,025	-0,095
-724,108	183,839	-0,124	-0,133
-723,094	800,000	-0,040	-0,112
-722,079	-200,000	0,021	-0,082
-721,064	-200,000	-0,017	-0,056
-720,050	-200,000	0,004	-0,050
-719,035	-200,000	0,005	0,083
-718,021	-141,975	-0,190	0,014
-717,006	-200,000	0,001	-0,109
-715,991	-200,000	-0,023	-0,122
-714,977	-98,716	0,037	0,007
-713,962	79,666	-0,090	-0,070
-712,948	44,345	0,025	-0,017
-711,933	-169,980	-0,024	-0,001
-710,918	800,000	-0,078	-0,171
-709,904	-159,954	-0,104	-0,004
-708,889	66,043	0,027	-0,020
-707,875	-200,000	-0,011	-0,081
-706,860	426,285	-0,079	-0,125
-705,845	418,198	0,017	0,027
-704,831	-200,000	-0,003	-0,037
-703,816	-200,000	0,027	0,117
-702,802	-200,000	0,014	-0,053
-701,787	-120,479	-0,041	-0,005
-700,772	-97,179	-0,075	-0,014
-699,758	586,885	0,051	-0,092
-698,743	103,704	0,021	0,018
-697,729	13,613	0,068	0,038
-696,714	580,639	-0,028	0,049
-695,699	-135,253	0,081	0,007
-694,685	100,674	-0,061	-0,051
-693,670	609,495	0,008	0,015
-692,656	315,300	0,045	0,062
-691,641	-200,000	-0,026	0,109
-690,627	278,898	0,113	0,147
-689,612	29,498	-0,072	-0,044
-688,597	-66,639	0,111	-0,032
-687,583	-87,480	0,043	-0,009
-686,568	210,457	-0,118	-0,135
-685,554	800,000	-0,017	-0,045
-684,539	422,713	-0,056	0,088
-683,524	425,093	-0,035	0,054
-682,510	20,747	-0,080	0,047
-681,495	86,058	0,021	0,017
-680,481	193,468	-0,090	-0,099
-679,466	-200,000	-0,004	-0,024
-678,451	-89,282	-0,093	-0,020
-677,437	98,501	0,082	-0,068
-676,422	83,748	0,109	0,086
-675,408	-200,000	-0,006	-0,148
-674,393	-200,000	-0,049	-0,197
-673,378	228,778	-0,054	0,063
-672,364	-131,336	0,119	-0,011
-671,349	-200,000	0,019	-0,079
-670,335	-39,915	0,098	-0,037
-669,320	-200,000	0,003	0,053
-668,305	-103,087	-0,106	0,018
-667,291	-65,440	-0,149	-0,043
-666,276	58,730	-0,102	-0,073
-665,262	-200,000	-0,034	-0,131
-664,247	137,487	-0,062	0,059
-663,232	800,000	-0,050	0,129
-662,218	44,994	0,095	0,064
-661,203	-40,825	-0,073	0,027
-660,189	-200,000	0,000	0,002
-659,174	164,328	-0,046	0,047
-658,159	322,407	0,094	-0,131
-657,145	-14,266	-0,184	-0,085
-656,130	-200,000	0,001	-0,008
-655,116	-113,577	0,092	0,013
-654,101	-200,000	0,011	-0,149
-653,086	-200,000	-0,024	0,119
-652,072	-200,000	-0,005	0,026
-651,057	42,330	-0,034	-0,022
-650,043	692,539	-0,036	-0,069
-649,028	800,000	0,024	0,067
-648,014	630,492	0,035	0,065
-646,999	57,428	0,071	-0,050
-645,984	372,122	-0,078	0,116
-644,970	-200,000	0,011	0,056
-643,955	-200,000	0,011	0,085
-642,941	800,000	-0,053	-0,113
-641,926	-200,000	0,001	-0,042
-640,911	-200,000	-0,007	-0,052
-639,897	725,153	-0,039	-0,075
-638,882	102,298	-0,057	0,048
-637,868	800,000	-0,018	0,044
-636,853	-200,000	0,031	-0,162
-635,838	800,000	-0,114	-0,280
-634,824	-176,332	-0,055	0,001
-633,809	267,275	-0,047	0,059
-632,795	372,658	0,024	0,035
-631,780	-200,000	-0,024	0,077
-630,765	-143,784	-0,011	-0,001
-629,751	-200,000	-0,001	-0,098
-628,736	18,707	-0,057	-0,033
-627,722	79,487	-0,037	-0,028
-626,707	334,510	0,025	-0,035
-625,692	282,437	0,063	-0,081
-624,678	-15,951	0,072	0,033
-623,663	-200,000	0,007	0,164
-622,649	-133,049	-0,053	-0,005
-621,634	492,094	-0,060	-0,101
-620,619	-200,000	-0,007	-0,172
-619,605	188,238	0,090	0,098
-618,590	10,784	0,025	-0,014
-617,576	800,000	0,031	0,064
-616,561	-57,755	-0,091	0,029
-615,546	159,333	-0,042	0,042
-614,532	283,499	-0,067	0,088
-613,517	-200,000	-0,005	-0,072
-612,503	800,000	0,089	0,219
-611,488	-86,619	-0,011	-0,002
-610,474	112,482	-0,123	-0,107
-609,459	800,000	0,058	-0,122
-608,444	-200,000	0,026	-0,164
-607,430	-18,239	-0,075	-0,034
-606,415	-200,000	0,005	0,041
-605,401	-200,000	-0,005	-0,057
-604,386	23,978	0,057	0,034
-603,371	288,088	0,058	-0,077
-602,357	568,775	-0,042	0,075
-601,342	784,590	-0,020	-0,040
-600,328	26,806	0,132	-0,080
-599,313	452,517	-0,047	-0,076
-598,298	-200,000	0,016	-0,073
-597,284	283,425	0,056	-0,073
-596,269	800,000	-0,051	0,112
-595,255	166,974	0,055	0,057
-594,240	-200,000	-0,011	-0,143
-593,225	56,636	-0,100	0,070
-592,211	800,000	0,051	-0,159
-591,196	-200,000	0,038	0,124
-590,182	-133,172	0,075	-0,007
-589,167	800,000	0,042	0,111
-588,152	-154,511	-0,071	0,003
-587,138	800,000	0,062	-0,129
-586,123	-51,634	-0,025	0,008
-585,109	138,218	-0,101	0,096
-584,094	-200,000	-0,010	0,048
-583,079	800,000	0,073	0,170
-582,065	153,800	0,101	0,100
-581,050	24,776	0,166	-0,099
-580,036	-58,343	-0,105	-0,033
-579,021	-93,417	-0,099	-0,020
-578,006	130,046	-0,056	-0,052
-576,992	-82,143	-0,114	-0,027
-575,977	249,874	0,006	-0,008
-574,963	115,158	0,072	0,063
-573,948	-200,000	0,005	-0,153
-572,934	108,634	-0,080	-0,069
-571,919	-200,000	-0,007	-0,104
-570,904	-130,614	-0,053	-0,005
-569,890	-49,219	-0,070	0,024
-568,875	800,000	0,032	-0,092
-567,861	-41,308	-0,109	-0,040
-566,846	-27,903	-0,112	0,047
-565,831	-27,052	0,083	-0,035
-564,817	-65,900	-0,169	-0,048
-563,802	800,000	-0,007	-0,020
-562,788	800,000	-0,066	0,135
-561,773	800,000	-0,053	0,108
-560,758	67,706	0,106	0,078
-559,744	-23,327	-0,106	0,046
-558,729	501,431	-0,030	0,050
-557,715	-200,000	0,014	-0,079
-556,700	-51,989	-0,110	-0,037
-555,685	464,880	-0,030	0,048
-554,671	-200,000	0,010	-0,062
-553,656	-13,170	-0,083	0,039
-552,642	439,581	0,076	0,120
-551,627	91,570	0,081	-0,066
-550,612	-82,012	-0,101	0,024
-549,598	480,371	-0,093	0,152
-548,583	-16,145	-0,082	0,038
-547,569	71,769	0,195	0,146
-546,554	-1,871	-0,022	0,011
-545,539	71,423	-0,048	-0,036
-544,525	-73,545	0,058	0,015
-543,510	800,000	-0,012	-0,028
-542,496	-200,000	-0,014	-0,084
-541,481	306,371	-0,038	-0,052
-540,466	228,464	0,021	-0,025
-539,452	-37,772	-0,123	0,047
-538,437	69,525	-0,027	0,020
-537,423	492,739	0,062	-0,103
-536,408	443,661	0,037	-0,059
-535,393	5,500	-0,029	-0,015
-534,379	-1,164	0,028	0,014
-533,364	800,000	0,053	-0,116
-532,350	402,790	0,025	0,038
-531,335	284,391	-0,031	0,040
-530,321	132,667	0,064	0,060
-529,306	123,166	-0,026	-0,023
-528,291	128,590	0,117	-0,107
-527,277	800,000	-0,040	-0,099
-526,262	14,269	-0,063	-0,035
-525,248	-200,000	0,004	-0,085
-524,233	-70,642	0,028	-0,008
-523,218	-200,000	-0,023	0,119
-522,204	-69,050	-0,112	0,031
-521,189	28,015	-0,114	0,069
-520,175	74,005	0,097	-0,073
-519,160	-154,627	-0,118	-0,006
-518,145	-63,346	-0,088	0,026
-517,131	-158,256	0,070	-0,003
-516,116	32,711	0,105	-0,065
-515,102	-65,244	0,176	-0,051
-514,087	-12,541	-0,224	0,105
-513,072	-80,542	-0,199	0,047
-512,058	25,510	0,026	-0,016
-511,043	31,531	0,046	-0,028
-510,029	6,757	0,061	0,033
-509,014	-200,000	0,004	0,219
-507,999	26,676	0,010	-0,006
-506,985	116,426	-0,038	-0,034
-505,970	-200,000	-0,014	-0,075
-504,956	347,596	-0,045	0,064
-503,941	-32,008	0,061	0,024
-502,926	57,035	-0,056	0,039
-501,912	77,991	-0,028	0,021
-500,897	-175,678	-0,076	0,001
-499,883	697,685	0,010	0,018
-498,868	-200,000	-0,019	-0,176
-497,853	-70,414	-0,048	-0,013
-496,839	-200,000	-0,020	0,151
-495,824	-200,000	0,058	0,235
-494,810	800,000	-0,023	0,068
-493,795	-53,074	-0,044	0,015
-492,781	-57,804	-0,049	0,015
-491,766	-90,922	-0,009	-0,002
-490,751	-200,000	-0,011	0,099
-489,737	74,175	0,094	-0,071
-488,722	800,000	-0,043	0,112
-487,708	47,558	0,049	0,033
-486,693	74,981	0,032	-0,025
-485,678	184,657	0,119	-0,128
-484,664	-200,000	0,016	0,073
-483,649	205,864	-0,030	-0,034
-482,635	-75,308	-0,122	0,031
-481,620	-200,000	0,010	-0,061
-480,605	-200,000	-0,004	0,025
-479,591	-200,000	-0,027	0,136
-478,576	800,000	0,063	-0,153
-477,562	-200,000	0,015	0,063
-476,547	-1,597	-0,100	-0,051
-475,532	-200,000	-0,010	-0,069
-474,518	-59,103	0,066	0,020
-473,503	-200,000	0,003	0,012
-472,489	-75,114	0,054	0,014
-471,474	-200,000	0,011	0,101
-470,459	-200,000	0,003	0,047
-469,445	-200,000	-0,014	-0,113
-468,430	-167,905	0,084	-0,002
-467,416	-107,987	-0,040	0,006
-466,401	-200,000	0,040	0,189
-465,386	-89,833	0,047	0,010
-464,372	-200,000	0,010	0,045
-463,357	800,000	-0,035	-0,091
-462,343	-10,830	0,040	0,019
-461,328	-12,527	-0,073	0,034
-460,313	44,069	0,078	-0,051
-459,299	173,282	0,079	0,082
-458,284	-58,906	0,189	0,058
-457,270	-200,000	-0,011	-0,104
-456,255	240,899	-0,111	-0,133
-455,241	-200,000	-0,012	-0,094
-454,226	-108,001	0,088	0,014
-453,211	-200,000	0,007	-0,067
-452,197	-129,978	0,230	-0,022
-451,182	-113,725	0,047	-0,007
-450,168	800,000	0,019	-0,042
-449,153	-200,000	-0,008	0,153
-448,138	-200,000	0,007	0,059
-447,124	-25,855	0,080	0,034
-446,109	102,951	0,040	-0,034
-445,095	-128,075	0,169	-0,017
-444,080	182,873	0,140	0,149
-443,065	800,000	0,046	-0,112
-442,051	-9,141	-0,057	0,027
-441,036	-49,497	-0,163	-0,055
-440,022	-200,000	-0,025	-0,094
-439,007	582,053	0,050	-0,089
-437,992	-145,734	-0,119	0,007
-436,978	-200,000	-0,038	0,215
-435,963	-32,428	-0,079	0,031
-434,949	159,079	0,025	-0,025
-433,934	-140,804	0,053	-0,004
-432,919	800,000	-0,073	-0,182
-431,905	-200,000	-0,004	-0,135
-430,890	-200,000	-0,016	-0,112
-429,876	329,711	0,077	0,106
-428,861	-51,412	-0,008	-0,003
-427,846	800,000	-0,024	0,063
-426,832	-200,000	0,007	-0,117
-425,817	-86,808	-0,006	0,001
-424,803	-200,000	-0,016	-0,055
-423,788	27,105	0,063	0,038
-422,773	-200,000	0,014	0,070
-421,759	800,000	0,053	-0,150
-420,744	74,189	-0,093	0,070
-419,730	190,002	0,058	0,063
-418,715	-54,353	0,027	-0,009
-417,701	34,236	-0,031	0,020
-416,686	-200,000	0,022	0,116
-415,671	19,098	0,101	0,058
-414,657	800,000	0,044	0,090
-413,642	-200,000	-0,004	0,120
-412,628	2,481	-0,025	-0,013
-411,613	-15,163	0,105	-0,048
-410,598	91,562	0,052	0,042
-409,584	17,660	0,068	-0,039
-408,569	265,093	-0,017	0,021
-407,555	-132,090	0,087	0,008
-406,540	-200,000	-0,016	0,091
-405,525	-40,839	-0,128	0,047
-404,511	-107,756	-0,067	0,010
-403,496	-91,155	0,037	-0,008
-402,482	800,000	-0,011	-0,033
-401,467	288,851	0,093	-0,122
-400,452	277,895	0,082	-0,105
-399,438	519,856	-0,074	0,125
-398,423	-62,113	-0,076	0,023
-397,409	-135,643	0,078	0,007
-396,394	272,614	0,024	0,030
-395,379	-164,840	0,177	-0,006
-394,365	-200,000	-0,011	-0,046
-393,350	145,470	0,044	-0,042
-392,336	51,985	0,140	0,096
-391,321	360,158	0,030	0,043
-390,306	-12,672	0,077	0,036
-389,292	227,644	-0,016	0,019
-388,277	-69,406	0,131	-0,036
-387,263	-42,758	-0,084	-0,031
-386,248	-200,000	0,002	0,075
-385,233	-200,000	-0,022	0,098
-384,219	119,214	0,073	-0,065
-383,204	-53,214	-0,082	0,027
-382,190	800,000	-0,050	0,111
-381,175	-94,013	-0,024	-0,005
-380,160	96,514	-0,067	0,055
-379,146	71,039	0,111	0,083
-378,131	299,200	-0,099	-0,131
-377,117	-83,949	0,036	0,008
-376,102	60,696	0,031	-0,022
-375,088	800,000	-0,043	-0,112
-374,073	92,672	0,084	-0,068
-373,058	-43,953	-0,052	-0,019
-372,044	-168,522	-0,107	-0,003
-371,029	87,731	-0,112	0,089
-370,015	-133,971	0,156	-0,014
-369,000	246,922	-0,076	-0,092
-367,985	-200,000	0,000	0,067
-366,971	800,000	0,022	-0,068
-365,956	96,217	0,017	-0,014
-364,942	334,936	-0,021	0,029
-363,927	540,683	-0,025	-0,042
-362,912	-27,833	0,040	0,016
-361,898	-200,000	-0,015	-0,211
-360,883	-146,696	0,056	-0,003
-359,869	138,750	-0,018	-0,017
-358,854	800,000	0,021	-0,053
-357,839	-80,011	0,047	0,011
-356,825	-200,000	-0,021	-0,176
-355,810	-28,383	-0,091	-0,037
-354,796	672,078	0,015	-0,028
-353,781	305,334	-0,068	-0,091
-352,766	567,484	0,040	-0,070
-351,752	-200,000	-0,004	-0,020
-350,737	-138,942	0,136	-0,010
-349,723	-133,931	-0,077	0,007
-348,708	166,103	0,088	-0,089
-347,693	-168,063	0,077	0,002
-346,679	182,575	-0,077	-0,081
-345,664	89,387	0,107	-0,085
-344,650	-52,161	-0,154	0,051
-343,635	62,973	-0,094	-0,067
-342,620	-51,772	-0,101	-0,034
-341,606	-182,750	0,184	-0,002
-340,591	-200,000	-0,009	0,061
-339,577	-200,000	-0,011	-0,150
-338,562	800,000	-0,019	0,039
-337,548	-103,061	0,058	0,010
-336,533	-5,227	-0,046	0,022
-335,518	-200,000	-0,011	0,050
-334,504	143,268	0,032	0,031
-333,489	-107,528	-0,112	-0,017
-332,475	-193,784	-0,141	-0,001
-331,460	-67,314	-0,076	-0,021
-330,445	-200,000	-0,007	-0,060
-329,431	-200,000	0,002	0,046
-328,416	800,000	0,040	0,101
-327,402	309,444	0,110	0,148
-326,387	-145,284	-0,116	0,007
-325,372	28,483	0,126	0,076
-324,358	99,097	-0,145	-0,120
-323,343	-200,000	0,015	-0,053
-322,329	196,926	0,049	-0,054
-321,314	-200,000	0,014	0,102
-320,299	113,782	0,081	0,071
-319,285	392,630	-0,070	0,104
-318,270	126,521	-0,058	0,052
-317,256	-17,161	0,063	0,028
-316,241	-200,000	0,020	-0,077
-315,226	176,599	0,073	0,076
-314,212	-200,000	0,024	-0,094
-313,197	-15,346	0,042	0,019
-312,183	244,025	-0,075	0,091
-311,168	-200,000	-0,003	-0,041
-310,153	127,762	-0,059	0,053
-309,139	0,910	0,106	0,054
-308,124	337,336	-0,082	-0,114
-307,110	-149,627	-0,009	0,000
-306,095	60,678	0,110	-0,078
-305,080	-26,540	0,075	-0,031
-304,066	-200,000	0,003	-0,065
-303,051	97,542	-0,079	-0,065
-302,037	-65,520	-0,089	0,026
-301,022	-138,556	-0,084	-0,007
-300,008	-200,000	0,014	0,053
-298,993	112,557	0,102	0,088
-297,978	-120,004	0,072	-0,009
-296,964	-16,316	-0,051	-0,023
-295,949	62,096	-0,082	-0,058
-294,935	-98,965	0,066	-0,012
-293,920	-27,319	-0,047	-0,019
-292,905	-200,000	-0,014	0,085
-291,891	227,395	0,109	0,126
-290,876	800,000	0,080	0,188
-289,862	800,000	-0,021	-0,060
-288,847	-105,717	-0,047	-0,008
-287,832	-63,148	-0,022	-0,006
-286,818	557,160	-0,069	-0,119
-285,803	-87,339	0,027	-0,006
-284,789	-200,000	-0,027	0,186
-283,774	598,386	-0,034	0,060
-282,759	-200,000	0,003	-0,026
-281,745	123,205	0,135	-0,121
-280,730	-53,588	-0,016	-0,005
-279,716	120,788	-0,054	0,048
-278,701	-96,261	-0,062	-0,012
-277,686	297,405	-0,094	-0,123
-276,672	-200,000	0,006	0,074
-275,657	-200,000	-0,015	0,120
-274,643	-200,000	-0,009	0,036
-273,628	800,000	-0,028	-0,081
-272,613	-134,077	-0,029	0,003
-271,599	-200,000	0,021	0,093
-270,584	66,669	0,021	0,015
-269,570	-64,501	0,098	0,028
-268,555	-28,558	-0,296	-0,121
-267,540	-63,543	0,101	0,029
-266,526	162,732	-0,038	-0,038
-265,511	180,325	0,022	0,023
-264,497	188,099	-0,027	0,029
-263,482	-200,000	0,007	-0,069
-262,467	163,647	0,102	-0,102
-261,453	-102,294	-0,043	0,007
-260,438	-200,000	-0,019	-0,129
-259,424	-200,000	-0,004	0,058
-258,409	70,099	-0,067	-0,049
-257,395	655,508	0,070	0,129
-256,380	-53,216	-0,066	0,022
-255,365	-60,377	0,060	0,018
-254,351	78,213	0,131	0,100
-253,336	80,337	-0,044	-0,034
-252,322	385,542	0,036	-0,054
-251,307	122,716	-0,080	-0,071
-250,292	800,000	0,108	-0,221
-249,278	233,012	0,070	0,082
-248,263	-2,725	-0,029	-0,014
-247,249	661,657	-0,002	-0,004
-246,234	794,039	0,027	0,053
-245,219	256,482	-0,086	-0,105
-244,205	-200,000	-0,004	-0,027
-243,190	-63,751	0,095	0,028
-242,176	320,588	-0,070	0,095
-241,161	412,724	0,086	0,131
-240,146	-200,000	0,008	-0,024
-239,132	232,171	-0,054	-0,063
-238,117	-25,996	-0,090	-0,038
-237,103	626,784	-0,024	-0,043
-236,088	569,530	0,056	-0,097
-235,073	-76,179	0,076	-0,019
-234,059	86,521	0,055	0,043
-233,044	800,000	0,012	0,025
-232,030	-28,621	-0,024	-0,010
-231,015	135,818	-0,040	0,037
-230,000	-200,000	0,010	-0,107
-228,986	135,433	0,114	0,105
-227,971	-156,599	0,036	-0,002
-226,957	2,838	0,107	0,055
-225,942	398,148	-0,037	0,055
-224,927	-46,902	-0,031	-0,011
-223,913	214,210	0,080	-0,090
-222,898	800,000	-0,023	-0,073
-221,884	-21,889	0,036	-0,015
-220,869	-160,715	0,104	-0,004
-219,855	22,850	-0,056	0,033
-218,840	-200,000	0,018	-0,100
-217,825	800,000	0,017	-0,052
-216,811	371,049	-0,020	-0,029
-215,796	50,831	-0,224	-0,151
-214,782	800,000	-0,029	0,059
-213,767	-139,656	0,064	-0,005
-212,752	2,577	0,044	-0,023
-211,738	50,395	-0,040	0,027
-210,723	-200,000	-0,015	-0,111
-209,709	-200,000	-0,006	-0,050
-208,694	278,021	-0,045	0,057
-207,679	-15,634	0,101	-0,046
-206,665	368,323	-0,013	-0,019
-205,650	800,000	0,077	0,157
-204,636	306,631	-0,036	0,047
-203,621	705,287	0,037	0,070
-202,606	234,464	-0,073	0,086
-201,592	-10,391	0,109	-0,051
-200,577	483,893	-0,066	-0,107
-199,563	41,981	0,016	0,010
-198,548	-3,890	-0,043	0,021
-197,533	-4,400	-0,085	0,042
-196,519	-200,000	-0,013	-0,065
-195,504	-200,000	-0,020	-0,095
-194,490	-200,000	-0,007	0,032
-193,475	224,232	-0,071	0,082
-192,460	-70,534	-0,017	-0,004
-191,446	800,000	0,090	0,211
-190,431	114,293	-0,006	-0,005
-189,417	22,563	0,005	0,003
-188,402	114,601	0,080	0,069
-187,387	-28,811	-0,048	0,019
-186,373	-53,592	-0,168	0,054
-185,358	184,721	-0,145	0,154
-184,344	-200,000	0,013	0,186
-183,329	-147,486	0,118	0,007
-182,315	-200,000	0,001	0,153
-181,300	45,503	0,069	-0,045
-180,285	-200,000	-0,004	-0,040
-179,271	-123,220	-0,105	-0,012
-178,256	278,194	-0,059	-0,076
-177,242	-81,812	0,040	0,009
-176,227	-200,000	-0,034	0,182
-175,212	-200,000	0,010	0,095
-174,198	-86,751	0,055	0,012
-173,183	71,972	-0,044	-0,033
-172,169	357,239	-0,039	0,056
-171,154	-200,000	-0,008	-0,041
-170,139	247,082	0,172	-0,207
-169,125	800,000	-0,052	0,142
-168,110	-122,406	-0,085	-0,010
-167,096	800,000	0,041	0,084
-166,081	422,469	-0,052	-0,080
-165,066	-200,000	-0,002	-0,016
-164,052	157,681	0,035	-0,035
-163,037	336,784	-0,057	-0,080
-162,023	800,000	-0,040	-0,102
-161,008	151,905	0,047	-0,046
-159,993	-200,000	0,018	0,103
-158,979	-200,000	0,020	0,065
-157,964	237,570	0,037	-0,043
-156,950	-96,358	-0,089	0,017
-155,935	-26,144	0,133	0,056
-154,920	-200,000	0,012	0,070
-153,906	-88,400	0,111	-0,023
-152,891	767,478	0,024	-0,046
-151,877	800,000	-0,032	-0,073
-150,862	244,666	-0,010	0,012
-149,847	-45,259	-0,112	-0,039
-148,833	114,441	0,153	-0,132
-147,818	-127,960	-0,106	-0,011
-146,804	-200,000	0,002	0,059
-145,789	-40,677	0,050	0,018
-144,775	-136,234	0,088	-0,007
-143,760	-116,420	-0,078	0,010
-142,745	-21,502	0,079	0,034
-141,731	-200,000	-0,047	0,169
-140,716	366,456	0,138	0,198
-139,702	-200,000	0,019	0,082
-138,687	800,000	0,079	-0,197
-137,672	-158,208	0,073	-0,003
-136,658	31,380	-0,124	-0,075
-135,643	-200,000	-0,027	0,086
-134,629	-55,551	-0,074	0,023
-133,614	36,716	0,083	0,052
-132,599	59,020	-0,034	-0,024
-131,585	-200,000	-0,009	0,088
-130,570	227,643	0,009	-0,010
-129,556	2,903	-0,123	0,063
-128,541	139,366	0,037	-0,034
-127,526	72,009	-0,070	-0,052
-126,512	-200,000	-0,001	-0,023
-125,497	800,000	0,048	-0,108
-124,483	-200,000	-0,030	0,116
-123,468	-200,000	-0,033	0,122
-122,453	310,789	0,111	-0,148
-121,439	5,005	-0,038	-0,020
-120,424	800,000	-0,021	0,063
-119,410	216,341	-0,111	0,125
-118,395	645,601	0,021	0,039
-117,380	-81,176	0,057	-0,013
-116,366	-67,349	0,032	0,009
-115,351	800,000	-0,033	-0,070
-114,337	-200,000	-0,042	-0,184
-113,322	-92,265	-0,169	-0,033
-112,307	-74,926	0,108	0,027
-111,293	800,000	0,063	0,185
-110,278	800,000	0,063	0,126
-109,264	436,855	-0,068	0,106
-108,249	-2,676	-0,056	-0,028
-107,234	478,648	0,035	-0,056
-106,220	306,783	-0,060	-0,079
-105,205	122,790	0,153	0,136
-104,191	128,697	-0,064	-0,058
-103,176	-21,926	-0,092	-0,040
-102,162	382,872	-0,100	-0,146
-101,147	-200,000	-0,028	-0,109
-100,132	-200,000	-0,007	-0,025
-99,118	-57,386	0,053	-0,016
-98,103	-93,164	-0,141	-0,027
-97,089	800,000	0,045	0,091
-96,074	-53,375	0,124	0,040
-95,059	28,446	0,029	0,018
-94,045	451,838	-0,085	-0,133
-93,030	108,227	0,081	-0,069
-92,016	-200,000	0,010	0,036
-91,001	430,078	-0,074	0,114
-89,986	-96,944	0,122	-0,022
-88,972	-200,000	-0,012	0,079
-87,957	800,000	0,033	-0,081
-86,943	224,700	-0,030	-0,034
-85,928	-200,000	0,037	-0,204
-84,913	-200,000	0,032	-0,117
-83,899	181,321	0,054	-0,057
-82,884	-200,000	-0,011	-0,090
-81,870	31,272	-0,054	-0,033
-80,855	115,388	-0,025	-0,022
-79,840	800,000	-0,035	0,102
-78,826	299,697	-0,070	-0,092
-77,811	-118,845	0,061	-0,008
-76,797	-27,516	0,141	0,058
-75,782	-200,000	-0,006	-0,027
-74,767	-149,378	-0,046	-0,003
-73,753	261,583	0,090	0,111
-72,738	-200,000	-0,005	0,148
-71,724	-11,479	0,037	0,017
-70,709	800,000	-0,055	0,144
-69,694	24,663	0,062	-0,036
-68,680	-200,000	-0,022	-0,086
-67,665	800,000	0,045	-0,103
-66,651	-200,000	0,024	0,078
-65,636	-200,000	-0,001	-0,013
-64,622	-54,004	-0,141	0,045
-63,607	375,134	-0,045	0,066
-62,592	800,000	-0,066	-0,150
-61,578	800,000	0,040	0,123
-60,563	-117,053	0,108	-0,014
-59,549	-200,000	-0,040	0,166
-58,534	-24,256	-1,669	-0,702
-57,519	418,231	-1,347	-2,046
-56,505	-200,000	-0,612	-4,500
-55,490	279,192	0,924	1,170
-54,476	800,000	4,786	11,279
-53,461	-200,000	19,163	319,791
-52,446	-200,000	740,846	2335,009
-51,432	573,173	1656,148	2870,642
-50,417	78,343	1671,867	1263,105
-49,403	21,356	1544,719	886,591
-48,388	15,246	1467,159	812,337
-47,373	17,946	1457,408	819,965
-46,359	16,697	1447,433	808,325
-45,344	13,494	1442,866	790,384
-44,330	13,436	1440,849	788,970
-43,315	13,392	1439,262	787,863
-42,300	13,416	1437,331	786,886
-41,286	13,501	1435,824	786,439
-40,271	13,430	1434,691	785,447
-39,257	13,427	1433,505	784,752
-38,242	13,463	1432,193	784,174
-37,227	13,484	1430,879	783,524
-36,213	13,456	1429,883	782,814
-35,198	13,454	1428,742	782,150
-34,184	13,485	1427,507	781,588
-33,169	13,426	1426,207	780,568
-32,154	13,476	1425,137	780,186
-31,140	13,498	1423,815	779,537
-30,125	13,555	1422,699	779,165
-29,111	13,496	1421,653	778,278
-28,096	13,499	1420,462	777,611
-27,082	13,422	1419,454	776,664
-26,067	13,440	1418,377	776,131
-25,052	13,392	1417,246	775,254
-24,038	13,395	1416,262	774,698
-23,023	13,383	1415,355	774,116
-22,009	13,438	1414,042	773,627
-20,994	13,352	1413,345	772,809
-19,979	13,347	1412,542	772,317
-18,965	13,375	1411,419	771,805
-17,950	13,385	1410,549	771,343
-16,936	13,338	1409,795	770,680
-15,921	13,337	1408,537	769,957
-14,906	13,339	1407,708	769,482
-13,892	13,349	1406,738	768,969
-12,877	13,277	1405,935	768,164
-11,863	13,348	1404,926	767,911
-10,848	13,301	1404,145	767,236
-9,833	13,319	1403,033	766,684
-8,819	13,235	1402,324	765,875
-7,804	13,234	1401,359	765,313
-6,790	13,194	1400,390	764,565
-5,775	13,195	1399,358	763,974
-4,760	13,233	1398,260	763,523
-3,746	13,204	1397,548	762,971
-2,731	13,216	1396,821	762,599
-1,717	13,181	1395,874	761,888
-0,702	13,170	1394,024	760,800
0,313	17,067	1310,642	733,341
1,327	33,268	704,033	431,393
2,342	51,197	123,379	82,717
3,356	1,255	16,687	8,453
4,371	2,778	3,241	1,658
5,386	21,169	0,483	0,277
6,400	-200,000	0,035	0,190
7,415	12,789	-0,275	-0,150
8,429	20,544	-0,216	-0,123
9,444	148,696	-0,252	-0,241
10,459	-12,967	-0,204	-0,093
11,473	-49,178	-0,219	-0,074
12,488	-103,860	-0,223	-0,036
13,502	23,491	-0,324	-0,188
14,517	93,716	-0,393	-0,314
15,531	446,471	-0,174	-0,271
16,546	188,544	-0,279	-0,295
17,561	256,926	-0,347	-0,422
18,575	116,642	-0,164	-0,143
19,590	-200,000	-0,088	-0,276
20,604	-3,874	-0,350	-0,171
21,619	104,215	-0,416	-0,346
22,634	223,014	-0,328	-0,374
23,648	80,695	-0,441	-0,336
24,663	-15,122	-0,462	-0,208
25,677	13,268	-0,407	-0,222
26,692	81,897	-0,328	-0,250
27,707	90,118	-0,359	-0,283
28,721	201,006	-0,251	-0,272
29,736	199,137	-0,348	-0,377
30,750	63,214	-0,339	-0,240
31,765	155,826	-0,461	-0,449
32,780	123,685	-0,358	-0,317
33,794	-41,660	-0,361	-0,130
34,809	276,977	-0,191	-0,240
35,823	-15,610	-0,341	-0,153
36,838	348,216	-0,348	-0,485
37,853	72,362	-0,505	-0,371
38,867	178,579	-0,306	-0,316
39,882	87,502	-0,407	-0,317
40,896	-23,351	-0,381	-0,161
41,911	101,987	-0,336	-0,276
42,926	126,914	-0,285	-0,255
43,940	-3,263	-0,485	-0,238
44,955	140,044	-0,365	-0,340
45,969	78,841	-0,322	-0,242
46,984	366,726	-0,259	-0,370
47,999	-26,090	-0,392	-0,162
49,013	409,869	-0,199	-0,298
50,028	43,191	-0,407	-0,261
51,042	228,036	-0,343	-0,394
52,057	46,756	-0,280	-0,183
53,071	57,566	-0,387	-0,266
54,086	60,936	-0,202	-0,141
55,101	-26,830	-0,319	-0,131
56,115	-35,464	-0,320	-0,122
57,130	46,009	-0,350	-0,227
58,144	20,454	-0,409	-0,232
59,159	1,797	-0,345	-0,174
60,174	76,462	-0,288	-0,215
61,188	142,941	-0,352	-0,329
62,203	362,812	-0,274	-0,389
63,217	-49,839	-0,366	-0,122
64,232	-16,961	-0,299	-0,132
65,247	32,480	-0,449	-0,273
66,261	138,873	-0,292	-0,270
67,276	-45,523	-0,449	-0,156
68,290	303,358	-0,270	-0,353
69,305	-55,071	-0,293	-0,092
70,320	210,759	-0,307	-0,340
71,334	300,425	-0,229	-0,298
72,349	61,158	-0,367	-0,256
73,363	54,829	-0,282	-0,191
74,378	605,029	-0,203	-0,357
75,393	304,492	-0,274	-0,358
76,407	-8,962	-0,305	-0,143
77,422	58,258	-0,250	-0,172
78,436	-47,393	-0,304	-0,103
79,451	76,756	-0,288	-0,214
80,466	142,859	-0,360	-0,337
81,480	11,854	-0,295	-0,159
82,495	454,172	-0,212	-0,331
83,509	306,315	-0,155	-0,203
84,524	136,447	-0,216	-0,199
85,539	-125,326	-0,346	-0,037
86,553	17,152	-0,293	-0,163
87,568	-71,388	-0,399	-0,104
88,582	112,454	-0,258	-0,219
89,597	-24,006	-0,285	-0,119
90,611	-18,142	-0,350	-0,153
91,626	273,237	-0,203	-0,252
92,641	105,380	-0,188	-0,156
93,655	16,677	-0,332	-0,184
94,670	-24,181	-0,340	-0,142
95,684	47,449	-0,280	-0,183
96,699	2,388	-0,237	-0,120
97,714	9,286	-0,319	-0,169
98,728	-200,000	0,015	-0,191
99,743	14,163	-0,285	-0,155
100,757	299,551	-0,204	-0,264
101,772	124,293	-0,294	-0,260
102,787	85,487	-0,330	-0,254
103,801	179,226	-0,236	-0,242
104,816	58,002	-0,343	-0,235
105,830	111,623	-0,093	-0,078
106,845	188,752	-0,186	-0,195
107,860	159,458	-0,221	-0,216
108,874	56,751	-0,152	-0,103
109,889	78,986	-0,308	-0,231
110,903	27,226	-0,325	-0,191
111,918	-4,152	-0,252	-0,122
112,933	143,165	-0,134	-0,125
113,947	17,441	-0,262	-0,145
114,962	157,455	-0,243	-0,236
115,976	218,896	-0,185	-0,207
116,991	-135,824	-0,118	-0,010
118,006	175,650	-0,302	-0,307
119,020	51,516	-0,265	-0,176
120,035	262,316	-0,174	-0,212
121,049	32,507	-0,208	-0,125
122,064	37,446	-0,263	-0,163
123,079	88,883	-0,273	-0,213
124,093	-3,211	-0,420	-0,204
125,108	99,548	-0,233	-0,188
126,122	-32,321	-0,284	-0,111
127,137	171,829	-0,191	-0,193
128,151	14,867	-0,235	-0,128
129,166	11,632	-0,190	-0,102
130,181	-73,730	-0,361	-0,091
131,195	-36,475	-0,330	-0,124
132,210	62,836	-0,288	-0,202
133,224	16,861	-0,309	-0,171
134,239	329,960	-0,192	-0,260
135,254	147,128	-0,133	-0,125
136,268	46,450	-0,217	-0,141
137,283	64,953	-0,217	-0,153
138,297	283,573	-0,206	-0,260
139,312	92,746	-0,270	-0,213
140,327	129,718	-0,370	-0,331
141,341	247,425	-0,159	-0,188
142,356	377,934	-0,150	-0,215
143,370	255,088	-0,125	-0,149
144,385	137,352	-0,260	-0,238
145,400	281,136	-0,205	-0,257
146,414	58,577	-0,286	-0,196
147,429	131,284	-0,294	-0,264
148,443	-55,250	-0,270	-0,084
149,458	182,827	-0,172	-0,177
150,473	74,451	-0,242	-0,177
151,487	62,013	-0,233	-0,162
152,502	100,320	-0,262	-0,212
153,516	18,228	-0,344	-0,191
154,531	54,847	-0,226	-0,152
155,546	37,864	-0,217	-0,135
156,560	57,715	-0,211	-0,144
157,575	-77,345	-0,174	-0,042
158,589	-70,403	-0,257	-0,067
159,604	186,184	-0,306	-0,318
160,619	392,739	-0,236	-0,343
161,633	-10,587	-0,257	-0,118
162,648	-46,434	-0,227	-0,077
163,662	-12,900	-0,203	-0,092
164,677	25,422	-0,254	-0,147
165,692	-8,534	-0,332	-0,155
166,706	56,171	-0,221	-0,150
167,721	319,239	-0,172	-0,228
168,735	161,469	-0,295	-0,288
169,750	800,000	-0,120	-0,245
170,764	-11,199	-0,184	-0,084
171,779	72,430	-0,138	-0,100
172,794	176,303	-0,243	-0,246
173,808	7,733	-0,170	-0,089
174,823	-9,537	-0,269	-0,125
175,837	141,126	-0,293	-0,270
176,852	204,140	-0,259	-0,280
177,867	787,982	-0,147	-0,283
178,881	280,142	-0,097	-0,121
179,896	800,000	-0,109	-0,232
180,910	-24,856	-0,168	-0,069
181,925	44,427	-0,246	-0,157
182,940	90,943	-0,209	-0,163
183,954	-64,142	-0,177	-0,050
184,969	206,775	-0,143	-0,156
185,983	152,476	-0,166	-0,158
186,998	237,463	-0,128	-0,148
188,013	215,633	-0,160	-0,177
189,027	181,387	-0,192	-0,197
190,042	-97,141	-0,291	-0,053
191,056	175,606	-0,200	-0,203
192,071	258,317	-0,229	-0,275
193,086	208,149	-0,146	-0,159
194,100	-103,223	-0,241	-0,039
195,115	227,465	-0,225	-0,255
196,129	35,444	-0,282	-0,172
197,144	189,768	-0,200	-0,209
198,159	393,564	-0,135	-0,195
199,173	389,713	-0,171	-0,248
200,188	421,331	-0,087	-0,130
201,202	33,166	-0,199	-0,120
202,217	133,663	-0,163	-0,147
203,232	54,010	-0,213	-0,142
204,246	136,640	-0,242	-0,219
205,261	230,172	-0,207	-0,235
206,275	140,426	-0,190	-0,174
207,290	800,000	-0,079	-0,185
208,304	-14,945	-0,246	-0,109
209,319	206,475	-0,214	-0,232
210,334	-143,894	-0,157	-0,010
211,348	10,283	-0,272	-0,143
212,363	432,990	-0,156	-0,235
213,377	-8,813	-0,263	-0,122
214,392	-126,361	-0,213	-0,022
215,407	55,455	-0,132	-0,089
216,421	-38,992	-0,219	-0,080
217,436	12,003	-0,221	-0,118
218,450	61,275	-0,199	-0,137
219,465	-30,557	-0,360	-0,141
220,480	2,987	-0,208	-0,104
221,494	83,002	-0,192	-0,145
222,509	-74,980	-0,315	-0,078
223,523	-77,570	-0,163	-0,039
224,538	234,890	-0,092	-0,106
225,553	46,652	-0,312	-0,201
226,567	-52,468	-0,192	-0,061
227,582	171,548	-0,192	-0,192
228,596	170,518	-0,211	-0,210
229,611	94,996	-0,168	-0,132
230,626	736,827	-0,073	-0,135
231,640	105,753	-0,125	-0,102
232,655	528,697	-0,149	-0,245
233,669	-8,336	-0,163	-0,076
234,684	6,682	-0,311	-0,160
235,699	222,529	-0,169	-0,189
236,713	-25,818	-0,259	-0,105
237,728	-150,367	-0,215	0,011
238,742	-24,308	-0,260	-0,107
239,757	54,889	-0,212	-0,141
240,772	85,541	-0,231	-0,176
241,786	319,301	-0,154	-0,203
242,801	306,196	-0,098	-0,126
243,815	800,000	-0,057	-0,141
244,830	329,956	-0,197	-0,263
245,844	111,157	-0,269	-0,224
246,859	-24,625	-0,171	-0,070
247,874	25,783	-0,224	-0,129
248,888	-200,000	-0,032	-0,257
249,903	0,696	-0,193	-0,095
250,917	-122,042	-0,177	-0,020
251,932	77,764	-0,215	-0,158
252,947	-28,605	-0,256	-0,102
253,961	108,429	-0,179	-0,148
254,976	204,695	-0,184	-0,198
255,990	148,426	-0,179	-0,167
257,005	109,118	-0,153	-0,127
258,020	90,197	-0,207	-0,160
259,034	491,926	-0,110	-0,175
260,049	412,083	-0,084	-0,124
261,063	146,431	-0,134	-0,125
262,078	255,202	-0,203	-0,241
263,093	527,182	-0,107	-0,175
264,107	170,942	-0,223	-0,221
265,122	149,773	-0,166	-0,155
266,136	229,949	-0,124	-0,141
267,151	-175,962	-0,190	-0,003
268,166	-7,803	-0,246	-0,114
269,180	60,800	-0,155	-0,106
270,195	-148,110	-0,239	-0,013
271,209	-200,000	-0,041	-0,157
272,224	112,995	-0,132	-0,110
273,239	288,163	-0,126	-0,158
274,253	800,000	-0,127	-0,247
275,268	35,205	-0,129	-0,078
276,282	-27,506	-0,323	-0,129
277,297	20,986	-0,254	-0,142
278,312	-76,727	-0,223	-0,054
279,326	32,517	-0,062	-0,037
280,341	-12,427	-0,210	-0,095
281,355	308,733	-0,154	-0,199
282,370	-39,448	-0,231	-0,083
283,384	75,039	-0,072	-0,052
284,399	190,955	-0,153	-0,159
285,414	-29,176	-0,256	-0,101
286,428	67,101	-0,216	-0,152
287,443	-104,553	-0,221	-0,035
288,457	256,571	-0,135	-0,160
289,472	-200,000	-0,035	-0,169
290,487	41,098	-0,178	-0,111
291,501	180,165	-0,153	-0,155
292,516	31,110	-0,188	-0,111
293,530	458,922	0,083	-0,127
294,545	-188,655	-0,309	-0,003
295,560	574,154	-0,171	-0,289
296,574	224,704	-0,080	-0,089
297,589	44,466	-0,138	-0,087
298,603	-69,525	-0,226	-0,059
299,618	-145,418	-0,119	0,007
300,633	-200,000	-0,042	-0,229
301,647	159,660	-0,053	-0,051
302,662	301,229	-0,109	-0,140
303,676	-92,874	-0,182	0,035
304,691	175,267	-0,157	-0,157
305,706	332,429	-0,099	-0,131
306,720	195,946	-0,075	0,079
307,735	-139,942	-0,076	-0,005
308,749	-126,336	-0,057	-0,006
309,764	-128,213	-0,203	-0,020
310,779	-104,152	-0,141	0,022
311,793	10,496	-0,119	-0,062
312,808	21,447	-0,213	-0,119
313,822	414,857	-0,119	-0,175
314,837	70,668	-0,149	-0,106
315,852	-67,282	-0,107	-0,029
316,866	178,718	-0,128	-0,129
317,881	-56,548	-0,135	-0,041
318,895	32,746	-0,212	-0,126
319,910	104,322	-0,111	-0,090
320,925	158,867	-0,174	-0,167
321,939	473,434	-0,118	-0,184
322,954	-139,442	-0,101	-0,007
323,968	363,884	-0,071	-0,099
324,983	-114,336	-0,130	-0,017
325,997	67,012	-0,137	-0,096
327,012	800,000	-0,021	-0,044
328,027	800,000	-0,043	-0,087
329,041	656,487	-0,060	-0,107
330,056	-191,793	-0,157	-0,001
331,070	188,735	-0,085	-0,087
332,085	800,000	-0,033	-0,090
333,100	-13,450	-0,138	-0,061
334,114	-54,733	-0,221	-0,068
335,129	122,443	-0,163	-0,140
336,143	-71,170	-0,252	-0,065
337,158	249,872	-0,117	-0,137
338,173	-0,301	-0,099	-0,048
339,187	129,592	-0,162	-0,142
340,202	509,321	-0,129	-0,206
341,216	206,116	-0,130	-0,139
342,231	-50,473	-0,192	-0,062
343,246	-86,274	-0,141	-0,030
344,260	537,093	-0,074	-0,121
345,275	-39,885	-0,105	0,037
346,289	800,000	0,025	-0,067
347,304	-200,000	-0,035	-0,151
348,319	43,988	-0,093	-0,059
349,333	263,444	-0,133	-0,159
350,348	416,092	-0,157	-0,230
351,362	-45,361	-0,183	-0,062
352,377	-186,168	-0,061	-0,001
353,392	-17,859	-0,060	-0,026
354,406	126,247	-0,085	-0,074
355,421	208,196	1314,472	1411,325
356,435	160,182	1475,169	1411,803
