DTS Sentinel unit serial number:	SN410029Multiplexer serial number:	ORYXHardware model number:	OX2-SRSoftware version number:	ORYX F/W v4,00 Oryx Data Collector v3.7.2.0data status	okinstallation	B3 Nyhavnadifferential loss correction	single-endedforward channel	channel 1reverse channel	N/Adate	2023/12/05time	01:02:30forward acquisition time	300,00reverse acquisition time	0,00gamma	499,1914k internal	0,3200k external	0,3200temperature offset calibration	1,0000default loss term (dB/km)	0,3820temperature slope calibration	1,0000multiplexer offset coefficient	1,0000multiplexer slope coefficient	1,0000fibre end	0,00T internal ref (°C)	13,79T ext. ref 1 (°C)	-1,08T ext. ref 2 (°C)	-1,12length (m)	temperature (°C)	Stokes	anti-Stokes-744,400	117,267	-0,307	-0,274
-743,385	702,130	0,168	0,323
-742,371	275,189	-0,171	-0,221
-741,356	-200,000	0,064	0,385
-740,342	127,487	-0,252	-0,233
-739,327	-200,000	0,009	0,240
-738,312	2,558	-0,298	-0,156
-737,298	800,000	0,125	0,254
-736,283	234,626	-0,147	-0,177
-735,269	-200,000	0,127	0,453
-734,254	143,084	-0,168	-0,162
-733,239	-92,058	-0,111	0,023
-732,225	800,000	-0,097	-0,253
-731,210	33,824	0,143	0,090
-730,196	800,000	-0,017	-0,036
-729,181	338,899	-0,063	0,089
-728,167	800,000	0,032	-0,090
-727,152	-79,805	-0,033	-0,008
-726,137	-9,554	-0,067	-0,032
-725,123	111,284	-0,142	-0,124
-724,108	-200,000	-0,007	-0,286
-723,094	-200,000	0,012	-0,149
-722,079	178,218	-0,064	-0,068
-721,064	399,541	-0,076	-0,116
-720,050	-200,000	-0,007	0,073
-719,035	-111,574	-0,056	-0,008
-718,021	549,723	-0,064	0,111
-717,006	-92,434	-0,166	0,034
-715,991	-200,000	0,017	-0,213
-714,977	90,391	-0,101	-0,082
-713,962	-118,695	-0,015	-0,002
-712,948	-110,883	0,035	-0,005
-711,933	67,552	-0,110	-0,081
-710,918	43,933	0,041	-0,028
-709,904	150,056	-0,057	0,056
-708,889	334,477	0,040	0,057
-707,875	-200,000	-0,005	-0,059
-706,860	-101,638	-0,043	-0,007
-705,845	-200,000	-0,002	-0,165
-704,831	575,194	-0,030	-0,053
-703,816	343,649	0,011	-0,016
-702,802	219,316	-0,045	0,053
-701,787	800,000	-0,013	-0,029
-700,772	653,220	-0,037	-0,069
-699,758	-200,000	0,021	-0,186
-698,743	-96,183	0,003	-0,001
-697,729	-200,000	-0,019	-0,064
-696,714	111,483	-0,038	0,034
-695,699	132,052	-0,124	0,116
-694,685	104,072	-0,028	-0,024
-693,670	27,735	-0,124	0,076
-692,656	-166,788	0,081	0,002
-691,641	190,200	0,074	-0,080
-690,627	-200,000	-0,017	0,069
-689,612	392,846	0,107	0,162
-688,597	-200,000	0,015	0,060
-687,583	89,084	-0,121	-0,098
-686,568	74,989	-0,128	-0,098
-685,554	800,000	0,011	0,025
-684,539	-200,000	0,012	-0,066
-683,524	800,000	0,084	-0,173
-682,510	418,458	-0,026	0,040
-681,495	-82,424	0,120	-0,028
-680,481	-124,626	-0,085	-0,009
-679,466	-94,958	0,034	0,007
-678,451	-61,097	0,066	-0,020
-677,437	-60,434	-0,056	-0,017
-676,422	343,888	0,029	0,041
-675,408	-169,504	-0,046	-0,001
-674,393	-200,000	-0,004	-0,054
-673,378	568,672	0,052	-0,093
-672,364	-122,391	-0,069	0,008
-671,349	466,620	0,041	-0,068
-670,335	12,571	0,052	0,029
-669,320	-200,000	-0,019	-0,073
-668,305	-100,175	0,077	-0,014
-667,291	-200,000	-0,024	-0,089
-666,276	56,165	-0,153	-0,108
-665,262	225,010	-0,068	-0,080
-664,247	-200,000	-0,034	0,157
-663,232	-200,000	-0,006	0,061
-662,218	314,847	0,109	0,150
-661,203	-138,599	-0,061	-0,005
-660,189	-200,000	0,007	0,041
-659,174	-129,628	0,047	0,005
-658,159	124,014	-0,078	-0,071
-657,145	46,355	-0,133	0,090
-656,130	117,259	0,043	-0,039
-655,116	425,477	0,027	-0,043
-654,101	47,170	0,152	-0,102
-653,086	-65,805	-0,060	-0,017
-652,072	2,978	-0,082	0,043
-651,057	523,131	-0,051	-0,087
-650,043	198,912	-0,045	0,050
-649,028	-200,000	0,006	-0,050
-648,014	94,921	0,101	0,083
-646,999	-122,400	0,013	0,001
-645,984	173,045	-0,109	0,114
-644,970	-200,000	0,022	-0,084
-643,955	52,760	0,057	0,039
-642,941	338,133	-0,054	-0,076
-641,926	74,000	0,053	0,040
-640,911	-70,778	-0,054	0,015
-639,897	800,000	0,030	0,089
-638,882	518,314	0,068	-0,117
-637,868	-200,000	0,024	-0,113
-636,853	-200,000	-0,011	0,044
-635,838	251,130	-0,041	0,050
-634,824	361,567	0,077	0,112
-633,809	714,090	-0,019	0,037
-632,795	800,000	-0,033	0,084
-631,780	-118,455	0,131	0,017
-630,765	-200,000	-0,020	-0,127
-629,751	-200,000	-0,024	-0,096
-628,736	16,179	0,053	-0,030
-627,722	218,720	-0,074	-0,085
-626,707	38,796	-0,054	-0,035
-625,692	57,151	0,095	0,067
-624,678	20,887	-0,033	0,019
-623,663	13,879	-0,113	0,063
-622,649	-200,000	-0,018	-0,132
-621,634	800,000	-0,046	0,095
-620,619	138,601	-0,084	-0,080
-619,605	-45,061	0,111	0,040
-618,590	-200,000	0,012	0,057
-617,576	152,352	-0,131	-0,130
-616,561	55,685	-0,021	0,014
-615,546	-151,601	-0,035	0,002
-614,532	0,009	-0,128	-0,066
-613,517	545,623	-0,020	-0,034
-612,503	29,714	0,171	-0,105
-611,488	-200,000	-0,040	-0,139
-610,474	-29,235	0,126	0,052
-609,459	2,041	0,155	0,081
-608,444	-99,518	-0,156	-0,028
-607,430	-200,000	0,012	-0,055
-606,415	-109,835	-0,070	0,011
-605,401	-105,323	-0,078	-0,013
-604,386	0,987	0,115	-0,059
-603,371	800,000	0,031	-0,097
-602,357	-200,000	-0,007	-0,134
-601,342	-200,000	-0,040	-0,164
-600,328	-107,443	-0,060	0,009
-599,313	-126,781	-0,063	0,007
-598,298	-133,193	-0,108	0,010
-597,284	-103,423	0,174	0,029
-596,269	800,000	-0,041	0,086
-595,255	120,629	-0,088	-0,079
-594,240	151,902	0,030	-0,030
-593,225	-200,000	0,017	-0,204
-592,211	36,968	0,124	-0,079
-591,196	141,791	0,065	-0,062
-590,182	33,783	0,051	-0,032
-589,167	129,720	0,038	-0,035
-588,152	-159,485	0,104	-0,004
-587,138	249,113	-0,092	-0,113
-586,123	-200,000	0,002	-0,123
-585,109	800,000	-0,064	-0,146
-584,094	800,000	0,030	0,063
-583,079	800,000	0,025	-0,069
-582,065	-118,203	0,141	0,018
-581,050	800,000	0,050	0,106
-580,036	800,000	0,037	0,093
-579,021	406,053	0,057	-0,087
-578,006	291,289	-0,096	-0,126
-576,992	-200,000	-0,030	-0,137
-575,977	207,698	-0,097	0,110
-574,963	224,710	0,079	0,092
-573,948	3,010	0,163	0,086
-572,934	277,508	-0,032	-0,041
-571,919	195,765	-0,058	-0,064
-570,904	-200,000	-0,007	-0,082
-569,890	-96,143	-0,107	0,020
-568,875	306,647	-0,052	-0,070
-567,861	200,836	-0,069	0,076
-566,846	-102,025	0,113	-0,019
-565,831	27,149	0,081	-0,049
-564,817	186,891	-0,094	0,101
-563,802	-200,000	0,034	-0,172
-562,788	-35,691	-0,066	-0,026
-561,773	-87,799	-0,075	0,016
-560,758	166,845	0,045	0,046
-559,744	162,121	0,109	0,110
-558,729	-3,808	0,063	0,031
-557,715	800,000	0,075	-0,168
-556,700	-25,495	-0,107	-0,046
-555,685	191,727	-0,036	0,039
-554,671	186,980	0,009	-0,009
-553,656	84,548	-0,035	-0,028
-552,642	-29,193	0,156	0,064
-551,627	800,000	0,030	0,071
-550,612	-142,962	-0,149	0,010
-549,598	-102,896	-0,060	-0,010
-548,583	418,303	-0,093	-0,144
-547,569	-200,000	-0,002	-0,031
-546,554	-46,286	0,119	-0,042
-545,539	-200,000	0,001	0,054
-544,525	189,541	0,012	-0,013
-543,510	305,688	-0,075	0,101
-542,496	683,815	0,047	-0,089
-541,481	800,000	0,041	-0,120
-540,466	-2,958	-0,161	0,081
-539,452	-200,000	0,009	-0,092
-538,437	-34,487	0,016	-0,006
-537,423	-12,871	-0,015	-0,007
-536,408	-200,000	-0,018	0,062
-535,393	800,000	0,027	-0,077
-534,379	462,404	0,051	0,082
-533,364	-100,327	0,136	0,024
-532,350	1,285	0,150	-0,077
-531,335	-175,610	-0,135	0,003
-530,321	-200,000	0,012	-0,079
-529,306	-35,576	0,119	0,046
-528,291	27,883	0,070	-0,043
-527,277	-200,000	-0,024	-0,109
-526,262	158,193	-0,044	-0,044
-525,248	329,558	-0,036	0,049
-524,233	-14,724	0,096	0,044
-523,218	691,579	-0,039	0,073
-522,204	-20,310	0,028	-0,012
-521,189	137,809	-0,032	0,030
-520,175	-5,459	-0,038	-0,019
-519,160	-200,000	0,006	-0,197
-518,145	-32,062	0,203	-0,082
-517,131	-64,240	-0,049	-0,014
-516,116	-110,778	0,008	0,001
-515,102	800,000	-0,039	0,079
-514,087	-200,000	0,037	0,000
-513,072	-68,504	-0,106	-0,029
-512,058	274,147	-0,099	-0,126
-511,043	-200,000	0,015	-0,075
-510,029	-107,591	0,039	0,006
-509,014	800,000	0,030	0,078
-507,999	-79,773	0,132	-0,032
-506,985	800,000	-0,019	-0,039
-505,970	429,226	0,037	-0,057
-504,956	35,384	-0,054	-0,034
-503,941	42,171	-0,083	0,054
-502,926	-138,180	0,114	0,009
-501,912	-200,000	-0,009	0,073
-500,897	50,550	0,118	0,081
-499,883	-122,913	0,072	0,008
-498,868	-117,919	-0,147	-0,019
-497,853	290,121	-0,075	-0,099
-496,839	256,768	0,032	0,040
-495,824	202,560	0,080	0,089
-494,810	182,201	0,061	-0,064
-493,795	585,732	-0,012	-0,021
-492,781	-138,146	-0,101	0,008
-491,766	800,000	-0,084	-0,174
-490,751	71,804	-0,161	-0,120
-489,737	-191,894	-0,081	0,001
-488,722	-200,000	-0,025	0,098
-487,708	181,801	0,062	0,066
-486,693	-120,936	0,079	-0,009
-485,678	-127,458	-0,156	-0,016
-484,664	50,437	-0,077	-0,052
-483,649	800,000	0,027	-0,067
-482,635	-33,633	-0,202	-0,080
-481,620	661,396	0,100	0,186
-480,605	21,109	0,104	0,060
-479,591	800,000	-0,059	0,127
-478,576	-117,436	0,057	-0,007
-477,562	676,934	0,039	0,074
-476,547	196,537	-0,054	-0,059
-475,532	-200,000	0,005	-0,137
-474,518	236,528	0,052	-0,062
-473,503	-130,447	0,058	-0,006
-472,489	104,444	0,107	-0,090
-471,474	184,385	0,028	0,030
-470,459	-87,801	-0,078	-0,017
-469,445	712,316	-0,022	-0,041
-468,430	107,441	-0,023	0,020
-467,416	-200,000	-0,003	-0,010
-466,401	-200,000	-0,010	0,055
-465,386	-71,865	0,065	0,017
-464,372	131,782	0,055	0,051
-463,357	363,059	0,041	0,060
-462,343	163,498	-0,127	-0,129
-461,328	733,983	-0,028	0,054
-460,313	18,515	0,018	0,010
-459,299	-74,963	0,100	0,026
-458,284	374,227	-0,045	0,066
-457,270	357,774	-0,014	0,021
-456,255	-72,613	-0,107	-0,028
-455,241	-82,975	-0,058	0,013
-454,226	-200,000	-0,012	0,064
-453,211	-115,835	0,085	0,011
-452,197	-45,660	0,080	0,028
-451,182	-152,949	-0,065	0,003
-450,168	125,533	-0,038	0,034
-449,153	15,264	-0,163	0,092
-448,138	469,968	-0,029	-0,047
-447,124	-200,000	-0,024	-0,210
-446,109	287,284	0,043	-0,055
-445,095	-200,000	0,013	-0,106
-444,080	137,045	0,105	0,098
-443,065	385,885	-0,012	-0,018
-442,051	-109,437	-0,142	0,021
-441,036	34,656	-0,157	-0,098
-440,022	273,735	-0,063	0,080
-439,007	-200,000	0,004	-0,050
-437,992	-119,606	0,168	-0,021
-436,978	553,698	0,045	0,078
-435,963	-109,750	-0,154	0,023
-434,949	260,426	0,030	0,037
-433,934	-29,965	-0,019	-0,008
-432,919	95,568	0,043	-0,036
-431,905	71,289	-0,089	0,066
-430,890	15,934	0,029	0,016
-429,876	48,974	0,107	-0,072
-428,861	-200,000	-0,010	0,036
-427,846	-200,000	0,011	-0,043
-426,832	-43,815	-0,064	-0,023
-425,817	800,000	0,026	-0,062
-424,803	-183,431	0,072	0,001
-423,788	289,536	0,024	-0,031
-422,773	-200,000	-0,006	0,057
-421,759	-143,449	-0,102	0,007
-420,744	-200,000	0,025	0,092
-419,730	355,221	-0,050	-0,072
-418,715	121,412	-0,092	-0,082
-417,701	91,771	-0,074	0,060
-416,686	187,276	-0,032	0,035
-415,671	-117,970	0,168	-0,021
-414,657	800,000	0,041	0,096
-413,642	-200,000	-0,017	-0,072
-412,628	175,255	-0,064	0,067
-411,613	800,000	-0,095	-0,237
-410,598	-52,336	-0,129	-0,043
-409,584	290,068	0,108	-0,141
-408,569	800,000	-0,025	0,069
-407,555	107,256	0,058	0,050
-406,540	-179,926	0,159	0,002
-405,525	604,650	-0,045	-0,081
-404,511	-47,068	-0,107	0,037
-403,496	72,597	0,086	-0,064
-402,482	-54,083	0,202	-0,065
-401,467	-200,000	0,015	0,068
-400,452	67,182	0,039	0,028
-399,438	-200,000	-0,006	-0,038
-398,423	100,529	0,013	0,011
-397,409	-52,396	-0,029	0,010
-396,394	-40,416	0,036	0,013
-395,379	-66,439	-0,087	0,024
-394,365	693,030	-0,017	-0,032
-393,350	-129,142	0,118	-0,012
-392,336	83,004	0,017	0,013
-391,321	800,000	0,025	-0,053
-390,306	84,101	0,066	0,051
-389,292	410,811	0,122	-0,187
-388,277	-200,000	-0,013	-0,064
-387,263	-49,134	0,200	-0,068
-386,248	800,000	-0,079	0,191
-385,233	-200,000	0,005	0,062
-384,219	296,693	-0,046	0,061
-383,204	-142,046	-0,055	0,004
-382,190	-200,000	-0,015	0,068
-381,175	8,575	0,032	-0,017
-380,160	800,000	0,049	0,108
-379,146	-200,000	0,023	0,102
-378,131	-200,000	-0,012	0,066
-377,117	-163,698	-0,049	-0,002
-376,102	-102,194	-0,180	-0,031
-375,088	-200,000	-0,005	0,062
-374,073	-200,000	-0,002	0,050
-373,058	-125,937	-0,102	0,011
-372,044	-125,986	-0,027	-0,003
-371,029	-72,077	0,093	0,025
-370,015	2,036	0,067	0,034
-369,000	240,419	-0,039	0,046
-367,985	40,204	-0,071	0,045
-366,971	67,329	0,017	-0,012
-365,956	204,868	0,041	0,046
-364,942	800,000	0,028	0,056
-363,927	191,047	0,144	0,156
-362,912	77,156	-0,068	0,052
-361,898	-119,235	-0,087	0,011
-360,883	95,236	0,050	-0,041
-359,869	548,645	0,057	-0,098
-358,854	-114,626	0,127	-0,017
-357,839	-200,000	-0,025	0,082
-356,825	-200,000	0,017	0,157
-355,810	-56,023	-0,233	-0,074
-354,796	234,721	-0,080	-0,095
-353,781	-5,356	-0,060	-0,030
-352,766	78,331	-0,077	-0,059
-351,752	-200,000	-0,048	0,217
-350,737	103,267	0,032	-0,027
-349,723	92,910	-0,063	0,051
-348,708	-200,000	0,012	0,083
-347,693	-200,000	-0,007	0,125
-346,679	-200,000	0,016	-0,080
-345,664	462,717	-0,064	-0,102
-344,650	36,725	0,060	-0,038
-343,635	-149,803	-0,006	0,000
-342,620	-200,000	0,006	0,093
-341,606	305,834	0,106	0,142
-340,591	-115,569	-0,066	0,009
-339,577	-29,011	0,091	0,037
-338,562	638,336	-0,058	0,106
-337,548	-101,000	-0,057	0,010
-336,533	-121,980	0,012	-0,001
-335,518	33,283	0,024	0,015
-334,504	-62,359	0,051	0,015
-333,489	481,835	-0,041	-0,067
-332,475	-35,913	0,105	-0,041
-331,460	211,350	-0,131	-0,148
-330,445	381,515	-0,066	-0,097
-329,431	32,199	-0,148	0,091
-328,416	146,654	0,040	0,039
-327,402	800,000	-0,054	0,125
-326,387	-4,767	-0,056	0,028
-325,372	-87,236	0,067	0,014
-324,358	-200,000	-0,037	-0,118
-323,343	19,523	0,040	0,023
-322,329	409,073	0,088	-0,134
-321,314	-103,607	0,112	-0,019
-320,299	114,838	0,096	0,084
-319,285	-200,000	-0,034	0,126
-318,270	-162,129	-0,061	0,002
-317,256	451,157	-0,074	-0,117
-316,241	-10,476	-0,043	-0,020
-315,226	-86,656	0,064	-0,014
-314,212	487,094	0,018	0,030
-313,197	-115,917	0,172	0,023
-312,183	800,000	-0,061	-0,132
-311,168	-200,000	-0,020	-0,072
-310,153	-200,000	0,020	0,070
-309,139	18,868	-0,042	0,024
-308,124	800,000	0,031	-0,067
-307,110	24,280	0,064	0,038
-306,095	237,028	0,024	-0,028
-305,080	800,000	-0,025	0,052
-304,066	-200,000	-0,049	0,180
-303,051	144,067	-0,128	0,122
-302,037	-200,000	-0,020	0,148
-301,022	-22,247	-0,078	-0,034
-300,008	88,311	-0,079	0,062
-298,993	68,411	0,029	0,021
-297,978	-200,000	0,012	0,051
-296,964	-114,086	-0,021	-0,003
-295,949	-200,000	0,015	-0,145
-294,935	72,715	-0,005	0,004
-293,920	88,775	-0,100	0,079
-292,905	-200,000	0,012	0,085
-291,891	747,125	0,016	-0,031
-290,876	-200,000	0,019	0,084
-289,862	264,918	-0,051	-0,064
-288,847	253,129	-0,071	0,087
-287,832	-200,000	0,002	-0,014
-286,818	104,341	-0,083	0,070
-285,803	-79,790	0,058	-0,014
-284,789	-57,669	0,018	-0,005
-283,774	-200,000	-0,018	0,065
-282,759	-200,000	0,005	-0,105
-281,745	-200,000	0,024	-0,165
-280,730	800,000	0,027	-0,061
-279,716	0,068	0,014	0,007
-278,701	-200,000	0,001	-0,086
-277,686	800,000	0,025	0,059
-276,672	122,617	0,059	-0,053
-275,657	-200,000	-0,003	0,089
-274,643	128,426	-0,019	-0,017
-273,628	800,000	0,051	0,146
-272,613	105,136	-0,070	0,059
-271,599	-15,505	0,093	0,042
-270,584	-200,000	0,002	0,148
-269,570	331,821	-0,046	0,064
-268,555	800,000	-0,047	-0,106
-267,540	-200,000	-0,025	0,166
-266,526	3,780	0,118	-0,061
-265,511	800,000	-0,065	0,133
-264,497	-200,000	0,000	0,045
-263,482	-70,919	0,142	0,038
-262,467	5,661	-0,013	-0,007
-261,453	-166,043	-0,097	0,003
-260,438	127,605	-0,100	-0,091
-259,424	724,097	0,065	0,124
-258,409	143,259	0,056	-0,053
-257,395	-121,774	-0,119	0,014
-256,380	45,043	0,073	0,048
-255,365	-200,000	-0,014	0,047
-254,351	-200,000	0,012	-0,069
-253,336	-11,100	-0,060	0,028
-252,322	59,821	-0,020	-0,014
-251,307	-133,981	-0,137	0,012
-250,292	-200,000	0,013	0,081
-249,278	224,637	0,101	-0,116
-248,263	613,937	-0,069	0,124
-247,249	800,000	-0,035	0,097
-246,234	71,540	0,039	0,029
-245,219	-72,688	-0,081	0,021
-244,205	301,689	0,018	0,024
-243,190	24,446	0,085	0,050
-242,176	-200,000	0,019	0,138
-241,161	524,874	-0,017	-0,029
-240,146	130,626	-0,123	0,113
-239,132	45,154	-0,017	-0,011
-238,117	-200,000	0,007	-0,025
-237,103	107,941	-0,119	-0,101
-236,088	71,186	0,051	-0,038
-235,073	114,987	0,075	0,065
-234,059	500,408	-0,030	0,050
-233,044	359,882	-0,095	0,136
-232,030	195,113	-0,084	-0,091
-231,015	-72,957	-0,017	-0,004
-230,000	43,153	-0,093	-0,061
-228,986	35,733	-0,110	0,069
-227,971	-200,000	0,001	-0,057
-226,957	-2,128	0,136	-0,068
-225,942	280,234	0,116	0,149
-224,927	-200,000	0,030	0,107
-223,913	-38,883	0,183	-0,068
-222,898	-77,593	-0,070	0,017
-221,884	-200,000	-0,000	0,028
-220,869	421,370	0,043	-0,066
-219,855	-200,000	0,000	-0,023
-218,840	-72,550	0,054	0,014
-217,825	800,000	0,037	0,108
-216,811	-68,994	0,163	-0,044
-215,796	199,857	0,023	-0,025
-214,782	126,940	-0,110	0,099
-213,767	-200,000	0,010	0,060
-212,752	149,524	0,088	0,085
-211,738	85,862	0,058	-0,045
-210,723	800,000	-0,028	0,081
-209,709	326,608	-0,076	-0,104
-208,694	-200,000	-0,014	-0,074
-207,679	234,151	-0,024	-0,028
-206,665	380,732	-0,092	-0,135
-205,650	-200,000	-0,001	-0,036
-204,636	-200,000	0,018	0,152
-203,621	-99,138	0,056	0,010
-202,606	-92,167	-0,098	0,020
-201,592	-200,000	0,018	0,070
-200,577	555,596	-0,051	0,088
-199,563	122,614	-0,049	-0,044
-198,548	-200,000	-0,013	0,080
-197,533	336,097	0,043	-0,059
-196,519	-119,443	0,115	0,014
-195,504	-27,281	-0,076	0,031
-194,490	-109,413	-0,156	-0,023
-193,475	-169,107	-0,021	0,001
-192,460	609,707	0,089	0,159
-191,446	800,000	0,036	0,107
-190,431	64,103	0,092	-0,066
-189,417	607,930	-0,053	-0,095
-188,402	-200,000	0,008	-0,121
-187,387	234,486	-0,027	-0,031
-186,373	-22,338	0,075	-0,032
-185,358	-41,358	0,098	0,036
-184,344	-48,208	0,151	-0,052
-183,329	-131,000	-0,047	0,004
-182,315	156,137	0,043	0,042
-181,300	-154,298	0,113	0,005
-180,285	7,666	0,019	0,010
-179,271	158,464	0,062	-0,061
-178,256	-200,000	0,019	-0,148
-177,242	-200,000	0,022	-0,129
-176,227	-200,000	0,025	0,113
-175,212	-200,000	0,001	-0,079
-174,198	743,012	-0,039	0,076
-173,183	-3,463	-0,063	-0,031
-172,169	800,000	-0,020	-0,056
-171,154	-132,987	-0,096	-0,009
-170,139	-200,000	0,031	0,099
-169,125	-106,366	0,135	0,021
-168,110	-200,000	0,018	0,105
-167,096	-200,000	0,006	-0,060
-166,081	800,000	-0,008	-0,024
-165,066	-16,529	-0,085	0,038
-164,052	62,162	-0,050	0,036
-163,037	190,147	0,054	-0,057
-162,023	800,000	0,065	0,136
-161,008	-200,000	-0,002	-0,016
-159,993	-61,608	-0,028	-0,008
-158,979	-65,809	-0,055	0,016
-157,964	800,000	-0,027	0,059
-156,950	636,294	-0,039	-0,070
-155,935	98,939	0,091	-0,075
-154,920	-200,000	0,004	-0,068
-153,906	237,054	0,053	0,063
-152,891	-101,094	0,055	-0,009
-151,877	-158,223	-0,135	-0,006
-150,862	-58,901	-0,054	0,017
-149,847	-200,000	-0,037	-0,167
-148,833	117,496	-0,043	-0,038
-147,818	-131,644	0,068	0,006
-146,804	67,566	0,064	-0,046
-145,789	-200,000	0,046	0,145
-144,775	311,940	-0,048	0,064
-143,760	116,166	0,129	-0,112
-142,745	-3,502	-0,127	0,063
-141,731	600,288	0,011	-0,019
-140,716	85,173	-0,103	-0,080
-139,702	800,000	-0,014	0,042
-138,687	360,213	0,059	0,084
-137,672	-68,484	-0,044	0,012
-136,658	174,298	0,055	-0,057
-135,643	800,000	0,020	0,058
-134,629	235,935	-0,177	-0,208
-133,614	38,527	0,060	-0,038
-132,599	800,000	-0,038	0,110
-131,585	-161,754	0,152	0,005
-130,570	110,003	0,027	0,023
-129,556	-52,745	-0,152	0,049
-128,541	705,311	0,083	-0,156
-127,526	-200,000	-0,034	0,141
-126,512	-94,082	-0,052	0,010
-125,497	2,145	0,141	0,072
-124,483	736,761	0,084	0,160
-123,468	-200,000	-0,038	-0,144
-122,453	-198,146	-0,050	-0,000
-121,439	-200,000	-0,002	0,038
-120,424	-200,000	0,001	-0,098
-119,410	-90,066	0,138	-0,028
-118,395	151,311	-0,025	-0,024
-117,380	-54,962	0,128	-0,041
-116,366	667,877	0,015	0,027
-115,351	800,000	0,031	-0,068
-114,337	800,000	0,076	-0,172
-113,322	190,980	-0,043	0,046
-112,307	87,054	0,054	-0,043
-111,293	430,739	0,071	-0,109
-110,278	-78,842	0,190	0,046
-109,264	-69,713	0,178	-0,048
-108,249	-96,195	-0,017	0,003
-107,234	504,901	-0,078	-0,128
-106,220	50,641	0,062	-0,041
-105,205	-143,256	0,158	-0,011
-104,191	250,792	0,098	0,119
-103,176	0,976	0,126	-0,064
-102,162	-200,000	-0,002	0,135
-101,147	-166,566	-0,209	-0,006
-100,132	800,000	-0,032	0,077
-99,118	-200,000	0,009	-0,111
-98,103	-200,000	-0,030	-0,151
-97,089	-93,374	0,083	0,016
-96,074	800,000	0,011	0,032
-95,059	52,634	-0,011	-0,008
-94,045	101,703	0,155	-0,128
-93,030	-200,000	0,014	0,102
-92,016	-3,290	0,034	-0,017
-91,001	-126,210	0,049	0,005
-89,986	-22,255	-0,122	0,052
-88,972	-200,000	0,030	-0,132
-87,957	-11,741	0,049	-0,023
-86,943	-83,015	0,069	-0,016
-85,928	-19,857	-0,084	0,037
-84,913	128,828	0,094	-0,085
-83,899	-60,267	0,131	0,039
-82,884	-81,473	0,132	-0,030
-81,870	-200,000	0,015	0,097
-80,855	-200,000	-0,002	0,072
-79,840	-200,000	0,009	0,080
-78,826	-25,534	-0,114	-0,047
-77,811	323,514	-0,051	0,069
-76,797	-200,000	-0,004	-0,072
-75,782	-187,370	0,164	0,002
-74,767	96,420	0,165	0,134
-73,753	320,899	-0,056	0,076
-72,738	-33,363	0,086	-0,033
-71,724	129,219	-0,024	-0,022
-70,709	-200,000	0,007	0,035
-69,694	80,397	-0,102	-0,077
-68,680	27,829	-0,049	-0,029
-67,665	800,000	-0,011	-0,028
-66,651	616,825	0,050	-0,088
-65,636	274,433	-0,070	0,089
-64,622	800,000	0,050	-0,113
-63,607	-200,000	-0,011	-0,093
-62,592	-200,000	-0,016	-0,114
-61,578	800,000	-0,027	-0,080
-60,563	229,049	-0,092	0,107
-59,549	27,532	0,098	0,058
-58,534	-19,111	-1,548	-0,678
-57,519	295,578	-1,527	-1,985
-56,505	-200,000	-0,604	-4,615
-55,490	97,426	1,116	0,907
-54,476	800,000	4,935	11,628
-53,461	-200,000	18,984	314,059
-52,446	-200,000	739,286	2326,464
-51,432	574,952	1655,840	2873,453
-50,417	79,065	1671,889	1266,715
-49,403	21,834	1544,632	888,914
-48,388	15,682	1467,013	814,322
-47,373	17,870	1457,137	819,386
-46,359	16,815	1447,054	808,624
-45,344	13,917	1442,545	792,185
-44,330	13,851	1440,475	790,698
-43,315	13,852	1438,913	789,816
-42,300	13,857	1436,995	788,754
-41,286	13,897	1436,034	788,390
-40,271	13,835	1434,755	787,359
-39,257	13,798	1433,319	786,363
-38,242	13,889	1432,270	786,188
-37,227	13,894	1430,982	785,476
-36,213	13,924	1429,665	784,865
-35,198	13,894	1428,541	784,074
-34,184	13,920	1427,678	783,692
-33,169	13,875	1426,365	782,725
-32,154	13,937	1425,140	782,316
-31,140	13,912	1423,799	781,430
-30,125	13,953	1422,660	780,969
-29,111	13,921	1421,817	780,325
-28,096	13,901	1420,516	779,484
-27,082	13,802	1419,586	778,477
-26,067	13,842	1418,352	777,956
-25,052	13,834	1417,428	777,381
-24,038	13,778	1416,188	776,409
-23,023	13,834	1415,195	776,096
-22,009	13,827	1414,237	775,504
-20,994	13,771	1413,402	774,755
-19,979	13,783	1412,633	774,359
-18,965	13,734	1411,754	773,618
-17,950	13,735	1410,549	772,930
-16,936	13,790	1409,548	772,606
-15,921	13,700	1408,626	771,652
-14,906	13,734	1407,618	771,229
-13,892	13,751	1406,521	770,677
-12,877	13,730	1405,880	770,194
-11,863	13,722	1405,058	769,675
-10,848	13,730	1404,144	769,185
-9,833	13,658	1403,391	768,403
-8,819	13,627	1402,455	767,716
-7,804	13,611	1401,622	767,155
-6,790	13,674	1400,297	766,693
-5,775	13,642	1399,546	766,103
-4,760	13,671	1398,323	765,538
-3,746	13,615	1397,523	764,811
-2,731	13,670	1396,582	764,518
-1,717	13,581	1395,818	763,658
-0,702	13,632	1394,103	762,925
0,313	17,344	1311,475	734,959
1,327	33,429	705,554	432,664
2,342	51,411	123,761	83,051
3,356	2,545	16,578	8,469
4,371	-2,024	3,272	1,621
5,386	8,141	0,663	0,351
6,400	-200,000	0,027	0,278
7,415	-57,436	-0,329	-0,102
8,429	111,100	-0,366	-0,312
9,444	124,378	-0,294	-0,261
10,459	-7,636	-0,320	-0,153
11,473	174,065	-0,234	-0,240
12,488	-24,427	-0,230	-0,097
13,502	42,951	-0,463	-0,298
14,517	84,568	-0,221	-0,171
15,531	42,101	-0,408	-0,261
16,546	129,494	-0,292	-0,264
17,561	92,090	-0,414	-0,329
18,575	31,296	-0,236	-0,143
19,590	383,550	-0,200	-0,292
20,604	-18,812	-0,465	-0,204
21,619	34,832	-0,364	-0,225
22,634	74,202	-0,412	-0,305
23,648	50,554	-0,440	-0,293
24,663	108,604	-0,414	-0,349
25,677	41,093	-0,289	-0,184
26,692	-11,073	-0,436	-0,202
27,707	60,163	-0,287	-0,200
28,721	153,049	-0,334	-0,323
29,736	420,892	-0,259	-0,394
30,750	56,696	-0,284	-0,195
31,765	94,458	-0,372	-0,298
32,780	-10,958	-0,320	-0,149
33,794	324,686	-0,220	-0,297
34,809	28,912	-0,427	-0,255
35,823	24,556	-0,428	-0,249
36,838	64,430	-0,364	-0,258
37,853	77,819	-0,393	-0,295
38,867	160,498	-0,326	-0,321
39,882	107,999	-0,365	-0,307
40,896	50,244	-0,387	-0,258
41,911	3,274	-0,304	-0,156
42,926	86,996	-0,391	-0,304
43,940	81,726	-0,337	-0,257
44,955	84,772	-0,449	-0,346
45,969	234,105	-0,208	-0,242
46,984	232,253	-0,353	-0,409
47,999	151,766	-0,233	-0,224
49,013	98,968	-0,270	-0,220
50,028	101,116	-0,361	-0,296
51,042	136,826	-0,321	-0,296
52,057	72,756	-0,369	-0,271
53,071	381,049	-0,229	-0,332
54,086	94,708	-0,279	-0,224
55,101	69,912	-0,335	-0,243
56,115	92,662	-0,282	-0,224
57,130	-16,588	-0,426	-0,189
58,144	110,384	-0,328	-0,278
59,159	233,691	-0,368	-0,427
60,174	149,595	-0,444	-0,424
61,188	87,379	-0,262	-0,204
62,203	19,798	-0,298	-0,169
63,217	94,402	-0,325	-0,260
64,232	-74,239	-0,283	-0,072
65,247	35,299	-0,267	-0,165
66,261	-7,869	-0,435	-0,206
67,276	82,442	-0,291	-0,222
68,290	237,679	-0,255	-0,298
69,305	146,770	-0,307	-0,290
70,320	41,440	-0,244	-0,155
71,334	-61,186	-0,306	-0,090
72,349	14,645	-0,323	-0,177
73,363	177,049	-0,304	-0,312
74,378	37,686	-0,413	-0,258
75,393	159,195	-0,321	-0,314
76,407	137,843	-0,236	-0,217
77,422	77,620	-0,298	-0,223
78,436	533,123	-0,151	-0,252
79,451	800,000	-0,115	-0,301
80,466	-80,298	-0,223	-0,052
81,480	10,373	-0,447	-0,238
82,495	113,576	-0,189	-0,162
83,509	4,696	-0,303	-0,156
84,524	63,156	-0,289	-0,203
85,539	4,431	-0,375	-0,193
86,553	67,662	-0,235	-0,169
87,568	54,346	-0,295	-0,199
88,582	32,127	-0,314	-0,190
89,597	-109,324	-0,328	-0,048
90,611	19,324	-0,259	-0,146
91,626	59,003	-0,280	-0,193
92,641	-4,423	-0,173	-0,083
93,655	123,252	-0,177	-0,155
94,670	166,694	-0,281	-0,280
95,684	8,314	-0,347	-0,183
96,699	100,119	-0,282	-0,229
97,714	168,585	-0,305	-0,305
98,728	-0,760	-0,259	-0,128
99,743	113,879	-0,196	-0,167
100,757	123,269	-0,261	-0,229
101,772	136,258	-0,307	-0,281
102,787	58,891	-0,259	-0,178
103,801	147,952	-0,309	-0,293
104,816	6,040	-0,165	-0,085
105,830	131,339	-0,228	-0,205
106,845	-26,451	-0,294	-0,120
107,860	85,279	-0,294	-0,226
108,874	56,554	-0,126	-0,086
109,889	89,732	-0,298	-0,233
110,903	107,120	-0,238	-0,198
111,918	77,771	-0,200	-0,149
112,933	671,373	-0,107	-0,196
113,947	-45,147	-0,287	-0,100
114,962	-160,764	-0,134	0,005
115,976	209,422	-0,266	-0,293
116,991	1,936	-0,373	-0,188
118,006	268,586	-0,227	-0,279
119,020	495,838	-0,246	-0,397
120,035	339,961	-0,141	-0,193
121,049	204,892	-0,061	-0,067
122,064	344,448	-0,176	-0,242
123,079	214,186	-0,217	-0,241
124,093	-12,299	-0,310	-0,141
125,108	-43,020	-0,283	-0,100
126,122	-11,244	-0,228	-0,105
127,137	-43,030	-0,256	-0,090
128,151	34,561	-0,130	-0,079
129,166	800,000	-0,099	-0,226
130,181	50,531	-0,146	-0,096
131,195	34,027	-0,387	-0,235
132,210	-0,750	-0,173	-0,085
133,224	58,489	-0,225	-0,155
134,239	-35,897	-0,201	-0,076
135,254	225,492	-0,170	-0,193
136,268	30,381	-0,203	-0,121
137,283	56,451	-0,173	-0,117
138,297	-24,548	-0,339	-0,140
139,312	-38,903	-0,323	-0,118
140,327	-4,565	-0,422	-0,203
141,341	48,639	-0,147	-0,096
142,356	678,469	-0,144	-0,263
143,370	4,301	-0,251	-0,128
144,385	-88,751	-0,225	-0,046
145,400	199,603	-0,232	-0,249
146,414	149,252	-0,262	-0,248
147,429	276,227	-0,195	-0,242
148,443	71,818	-0,231	-0,168
149,458	-18,159	-0,313	-0,136
150,473	20,595	-0,098	-0,055
151,487	-102,574	-0,311	-0,051
152,502	7,081	-0,270	-0,140
153,516	168,209	-0,203	-0,202
154,531	777,445	-0,116	-0,221
155,546	-125,333	-0,308	-0,032
156,560	214,906	-0,155	-0,171
157,575	-39,394	-0,171	-0,062
158,589	800,000	-0,127	-0,279
159,604	68,426	-0,368	-0,263
160,619	71,326	-0,306	-0,221
161,633	-68,147	-0,220	-0,059
162,648	68,638	-0,260	-0,186
163,662	-141,403	-0,189	-0,013
164,677	-62,006	-0,154	0,045
165,692	-42,966	-0,143	0,050
166,706	151,215	-0,218	-0,207
167,721	257,497	-0,175	-0,210
168,735	60,188	-0,251	-0,173
169,750	-7,166	-0,307	-0,144
170,764	41,781	-0,137	-0,087
171,779	-38,270	-0,296	-0,109
172,794	206,332	-0,258	-0,280
173,808	-8,699	-0,304	-0,142
174,823	155,948	-0,215	-0,207
175,837	1,142	-0,358	-0,178
176,852	4,690	-0,180	-0,092
177,867	16,272	-0,313	-0,171
178,881	162,972	-0,175	-0,171
179,896	-64,894	-0,231	-0,065
180,910	-65,000	-0,148	-0,041
181,925	91,067	-0,256	-0,200
182,940	32,632	-0,196	-0,118
183,954	-98,917	-0,281	-0,049
184,969	345,434	-0,144	-0,198
185,983	107,881	-0,168	-0,140
186,998	-109,940	-0,228	-0,033
188,013	60,222	-0,144	-0,099
189,027	-21,847	-0,351	-0,148
190,042	88,783	-0,191	-0,148
191,056	433,033	-0,125	-0,190
192,071	-200,000	-0,033	-0,170
193,086	-11,716	-0,182	-0,083
194,100	171,738	-0,095	-0,095
195,115	12,194	-0,094	-0,050
196,129	265,705	-0,231	-0,281
197,144	271,050	-0,163	-0,200
198,159	90,587	-0,249	-0,193
199,173	385,312	-0,153	-0,219
200,188	21,057	-0,187	-0,105
201,202	110,591	-0,209	-0,174
202,217	-58,441	-0,138	-0,041
203,232	222,040	-0,175	-0,196
204,246	270,277	-0,207	-0,254
205,261	623,388	-0,125	-0,219
206,275	109,632	-0,118	-0,098
207,290	149,742	-0,143	-0,135
208,304	236,206	-0,122	-0,141
209,319	-104,277	-0,213	0,034
210,334	24,869	-0,244	-0,140
211,348	314,124	-0,138	-0,181
212,363	-19,276	-0,311	-0,133
213,377	-40,292	-0,200	-0,072
214,392	-200,000	-0,012	-0,087
215,407	234,217	-0,128	-0,146
216,421	-21,029	-0,185	-0,078
217,436	411,175	-0,201	-0,298
218,450	-0,377	-0,190	-0,094
219,465	96,362	-0,198	-0,157
220,480	-47,279	-0,162	-0,054
221,494	-11,076	-0,112	-0,051
222,509	-82,385	-0,296	0,066
223,523	64,862	-0,236	-0,165
224,538	-15,056	-0,217	-0,096
225,553	457,954	-0,156	-0,242
226,567	204,686	-0,238	-0,257
227,582	10,585	-0,216	-0,114
228,596	-200,000	-0,008	-0,115
229,611	127,065	-0,118	-0,104
230,626	-25,023	-0,102	-0,042
231,640	-146,430	-0,241	0,014
232,655	152,852	-0,219	-0,207
233,669	122,757	-0,187	-0,162
234,684	-31,743	-0,123	0,048
235,699	-64,613	-0,187	0,052
236,713	-157,347	-0,116	0,005
237,728	800,000	-0,089	-0,181
238,742	16,539	-0,313	-0,171
239,757	9,249	-0,262	-0,137
240,772	508,067	-0,195	-0,315
241,786	87,685	-0,275	-0,211
242,801	-1,431	-0,163	-0,079
243,815	595,609	-0,051	-0,088
244,830	-153,914	-0,123	0,006
245,844	87,421	-0,138	-0,106
246,859	334,089	-0,169	-0,228
247,874	236,408	-0,221	-0,254
248,888	71,432	-0,270	-0,194
249,903	82,331	-0,167	-0,125
250,917	93,994	-0,186	-0,146
251,932	563,127	-0,165	-0,278
252,947	-85,371	-0,177	-0,038
253,961	-115,759	-0,248	0,032
254,976	-32,570	-0,073	-0,028
255,990	299,709	-0,090	-0,115
257,005	104,272	-0,171	-0,139
258,020	94,411	-0,098	-0,077
259,034	800,000	-0,067	-0,179
260,049	-102,739	-0,105	-0,017
261,063	52,946	-0,144	-0,095
262,078	-149,435	-0,360	-0,019
263,093	245,604	-0,195	-0,227
264,107	45,435	-0,230	-0,146
265,122	26,391	-0,086	-0,049
266,136	33,966	-0,229	-0,137
267,151	800,000	-0,074	-0,172
268,166	339,068	-0,248	-0,335
269,180	800,000	-0,110	-0,245
270,195	312,226	-0,155	-0,202
271,209	-67,363	-0,108	-0,029
272,224	-200,000	-0,045	-0,176
273,239	800,000	-0,091	-0,212
274,253	-66,544	-0,114	-0,031
275,268	-44,929	-0,217	-0,074
276,282	-28,333	-0,127	-0,050
277,297	-5,781	-0,210	-0,099
278,312	146,702	-0,182	-0,169
279,326	3,643	-0,167	-0,084
280,341	-40,773	-0,221	-0,079
281,355	46,302	-0,176	-0,112
282,370	-149,688	-0,171	0,009
283,384	147,337	-0,211	-0,196
284,399	710,662	-0,080	-0,147
285,414	97,929	-0,132	-0,105
286,428	57,288	-0,112	-0,075
287,443	800,000	-0,056	-0,169
288,457	82,431	-0,141	-0,106
289,472	-200,000	0,005	-0,113
290,487	3,522	-0,118	-0,059
291,501	16,674	-0,203	-0,110
292,516	442,068	-0,082	-0,124
293,530	-81,846	-0,222	-0,050
294,545	-171,251	-0,134	-0,003
295,560	-157,211	-0,105	-0,004
296,574	356,999	-0,129	-0,178
297,589	328,104	-0,188	-0,249
298,603	318,675	-0,170	-0,222
299,618	-109,661	-0,183	-0,026
300,633	95,395	-0,192	-0,151
301,647	-200,000	-0,016	-0,156
302,662	452,006	-0,102	-0,156
303,676	158,306	-0,170	-0,163
304,691	-44,843	-0,274	-0,094
305,706	157,913	-0,186	-0,178
306,720	400,285	-0,116	-0,168
307,735	66,195	-0,140	-0,098
308,749	416,135	-0,118	-0,174
309,764	7,621	-0,137	-0,070
310,779	-138,286	-0,144	-0,011
311,793	527,014	-0,074	-0,120
312,808	51,283	-0,211	-0,138
313,822	5,282	-0,151	-0,076
314,837	-108,440	-0,078	-0,011
315,852	800,000	-0,079	-0,177
316,866	-9,581	-0,124	-0,057
317,881	-200,000	-0,022	0,084
318,895	800,000	-0,015	-0,041
319,910	407,746	-0,097	-0,142
320,925	-200,000	-0,085	-0,280
321,939	227,388	-0,147	-0,164
322,954	-59,817	-0,133	0,039
323,968	-165,987	-0,183	-0,005
324,983	800,000	-0,076	-0,163
325,997	182,895	-0,162	-0,164
327,012	-133,830	-0,142	-0,012
328,027	57,543	-0,261	-0,175
329,041	-200,000	-0,020	-0,120
330,056	784,782	0,059	-0,113
331,070	-46,425	-0,098	0,033
332,085	185,534	-0,135	-0,138
333,100	217,234	-0,125	-0,138
334,114	-54,727	-0,160	0,049
335,129	210,875	-0,182	-0,197
336,143	-43,295	-0,076	-0,026
337,158	172,376	-0,150	-0,148
338,173	16,374	-0,082	0,044
339,187	64,510	-0,115	0,079
340,202	-200,000	-0,011	-0,081
341,216	24,829	-0,161	-0,092
342,231	621,252	-0,088	-0,153
343,246	281,072	-0,066	-0,081
344,260	-30,126	-0,125	-0,049
345,275	462,287	-0,043	-0,067
346,289	115,146	-0,159	-0,133
347,304	148,615	-0,114	-0,106
348,319	-17,152	-0,182	-0,078
349,333	196,140	-0,115	-0,121
350,348	11,286	-0,178	-0,094
351,362	-118,179	-0,098	0,012
352,377	55,754	-0,123	-0,082
353,392	4,426	-0,144	-0,072
354,406	64,473	-0,296	-0,204
355,421	207,637	1315,581	1410,710
356,435	159,726	1476,434	1411,198
