DTS Sentinel unit serial number:	SN410029Multiplexer serial number:	ORYXHardware model number:	OX2-SRSoftware version number:	ORYX F/W v4,00 Oryx Data Collector v3.7.2.0data status	okinstallation	B3 Nyhavnadifferential loss correction	single-endedforward channel	channel 1reverse channel	N/Adate	2023/12/01time	17:02:30forward acquisition time	300,00reverse acquisition time	0,00gamma	499,1914k internal	0,3205k external	0,3205temperature offset calibration	1,0000default loss term (dB/km)	0,3820temperature slope calibration	1,0000multiplexer offset coefficient	1,0000multiplexer slope coefficient	1,0000fibre end	0,00T internal ref (°C)	13,77T ext. ref 1 (°C)	0,03T ext. ref 2 (°C)	0,01length (m)	temperature (°C)	Stokes	anti-Stokes-744,400	307,669	-0,231	-0,314
-743,385	-200,000	0,047	0,238
-742,371	-19,841	-0,184	-0,082
-741,356	-200,000	0,002	0,207
-740,342	228,061	-0,122	-0,145
-739,327	-200,000	0,052	0,406
-738,312	46,609	-0,185	-0,125
-737,298	800,000	-0,092	0,235
-736,283	800,000	-0,102	-0,225
-735,269	-200,000	-0,111	0,362
-734,254	74,715	-0,214	-0,163
-733,239	7,481	-0,159	0,086
-732,225	149,970	-0,181	-0,179
-731,210	241,360	0,143	0,173
-730,196	800,000	-0,032	0,096
-729,181	763,734	0,088	0,174
-728,167	-138,789	-0,081	0,006
-727,152	-9,243	0,075	0,036
-726,137	-77,022	-0,205	-0,051
-725,123	-133,738	0,058	0,005
-724,108	-114,350	-0,108	-0,015
-723,094	-64,521	-0,124	0,036
-722,079	32,584	0,034	-0,021
-721,064	45,074	0,001	-0,001
-720,050	-55,262	0,008	-0,003
-719,035	159,906	0,038	-0,039
-718,021	729,168	0,084	-0,164
-717,006	235,731	-0,062	-0,075
-715,991	-200,000	-0,003	-0,053
-714,977	-73,961	0,053	0,014
-713,962	-105,991	-0,104	-0,017
-712,948	626,655	0,067	-0,124
-711,933	45,865	0,057	-0,038
-710,918	-200,000	-0,012	-0,066
-709,904	-63,887	-0,029	-0,009
-708,889	-127,915	-0,029	-0,003
-707,875	131,414	-0,029	-0,027
-706,860	-97,866	0,064	0,012
-705,845	422,351	0,051	0,080
-704,831	176,478	0,062	0,066
-703,816	-106,295	0,032	-0,005
-702,802	-129,053	-0,118	0,012
-701,787	800,000	-0,034	0,079
-700,772	392,992	0,060	-0,091
-699,758	800,000	-0,031	-0,071
-698,743	-200,000	0,011	0,166
-697,729	-23,012	0,108	0,047
-696,714	190,556	-0,091	0,100
-695,699	-58,936	-0,058	-0,018
-694,685	-10,928	-0,070	0,033
-693,670	-140,984	-0,116	0,009
-692,656	800,000	-0,048	-0,100
-691,641	-50,281	-0,103	0,035
-690,627	91,966	-0,082	0,067
-689,612	-200,000	0,011	0,072
-688,597	-72,343	0,111	-0,030
-687,583	-200,000	0,002	-0,034
-686,568	-0,002	0,052	0,027
-685,554	96,052	0,038	-0,031
-684,539	-109,277	0,104	0,016
-683,524	123,521	0,046	-0,042
-682,510	-200,000	-0,026	-0,099
-681,495	-200,000	-0,035	-0,140
-680,481	182,978	0,042	0,045
-679,466	-200,000	0,031	-0,148
-678,451	-33,694	-0,072	0,029
-677,437	-200,000	0,003	-0,068
-676,422	-160,122	0,069	-0,003
-675,408	-200,000	-0,004	-0,041
-674,393	-81,511	0,104	0,025
-673,378	207,602	-0,079	-0,090
-672,364	380,844	0,054	-0,080
-671,349	-189,690	-0,083	-0,001
-670,335	-200,000	0,004	-0,083
-669,320	-59,988	-0,088	-0,027
-668,305	-200,000	-0,007	0,068
-667,291	800,000	0,029	0,069
-666,276	-20,578	-0,061	0,027
-665,262	-200,000	0,013	-0,075
-664,247	800,000	-0,032	-0,093
-663,232	-53,242	0,107	-0,035
-662,218	-200,000	-0,002	0,125
-661,203	97,740	-0,058	0,048
-660,189	-200,000	-0,017	-0,133
-659,174	12,282	-0,156	-0,087
-658,159	7,264	-0,214	-0,115
-657,145	14,646	0,104	0,059
-656,130	-108,136	-0,075	-0,012
-655,116	28,114	-0,040	0,024
-654,101	458,157	0,039	-0,064
-653,086	380,128	-0,074	-0,110
-652,072	-101,148	-0,082	-0,014
-651,057	-21,622	0,039	0,017
-650,043	643,417	-0,062	0,115
-649,028	800,000	0,021	0,056
-648,014	12,566	-0,123	0,068
-646,999	17,502	0,097	0,055
-645,984	-185,835	-0,110	-0,001
-644,970	-200,000	0,023	-0,087
-643,955	90,133	-0,033	0,026
-642,941	-200,000	0,004	-0,161
-641,926	-200,000	-0,032	-0,132
-640,911	79,176	0,050	-0,039
-639,897	-75,324	0,064	0,016
-638,882	800,000	-0,048	-0,109
-637,868	352,215	0,026	-0,038
-636,853	740,061	0,036	-0,071
-635,838	800,000	-0,018	-0,057
-634,824	411,500	0,087	-0,134
-633,809	-200,000	0,004	-0,017
-632,795	225,290	0,075	0,088
-631,780	-22,000	0,050	0,022
-630,765	-200,000	-0,027	0,089
-629,751	7,222	-0,037	0,020
-628,736	104,146	-0,052	-0,044
-627,722	-200,000	0,012	0,110
-626,707	-37,558	-0,056	-0,021
-625,692	167,770	0,073	0,075
-624,678	-153,531	0,061	0,003
-623,663	576,861	0,014	0,025
-622,649	800,000	-0,019	0,055
-621,634	352,051	-0,028	0,040
-620,619	2,516	-0,016	-0,008
-619,605	-200,000	-0,012	-0,102
-618,590	-116,948	-0,130	0,017
-617,576	-132,972	0,104	0,009
-616,561	174,944	-0,055	-0,057
-615,546	0,569	-0,119	0,061
-614,532	-17,936	-0,087	-0,039
-613,517	9,533	-0,077	-0,042
-612,503	-153,524	0,040	-0,002
-611,488	-139,472	0,085	0,007
-610,474	-200,000	-0,004	0,120
-609,459	-200,000	-0,006	-0,084
-608,444	93,296	-0,128	0,105
-607,430	315,926	0,048	0,065
-606,415	800,000	0,038	0,091
-605,401	-200,000	0,009	-0,101
-604,386	207,572	0,088	0,099
-603,371	219,233	0,109	-0,127
-602,357	177,664	-0,091	0,096
-601,342	-200,000	0,016	0,054
-600,328	-45,230	-0,085	-0,030
-599,313	406,917	0,015	0,024
-598,298	-49,606	0,134	0,046
-597,284	388,444	0,107	0,160
-596,269	58,167	0,119	0,084
-595,255	-191,730	0,160	0,001
-594,240	-200,000	-0,038	-0,130
-593,225	800,000	-0,023	-0,064
-592,211	-200,000	-0,031	-0,151
-591,196	-59,604	-0,215	0,066
-590,182	-85,707	0,077	0,017
-589,167	777,781	0,058	-0,114
-588,152	281,110	0,024	0,032
-587,138	129,391	-0,064	0,059
-586,123	240,445	0,037	-0,045
-585,109	504,329	-0,039	-0,066
-584,094	-124,987	-0,128	0,014
-583,079	164,324	-0,142	0,145
-582,065	800,000	-0,072	0,218
-581,050	800,000	0,039	0,111
-580,036	-105,520	0,085	0,014
-579,021	47,500	-0,057	0,038
-578,006	-84,907	-0,305	-0,069
-576,992	800,000	-0,018	-0,049
-575,977	-200,000	-0,021	-0,084
-574,963	430,026	-0,056	-0,087
-573,948	257,866	0,030	-0,037
-572,934	9,563	0,070	0,038
-571,919	-147,364	-0,137	-0,008
-570,904	206,298	0,150	-0,169
-569,890	-43,821	-0,114	-0,041
-568,875	585,926	0,110	0,196
-567,861	-120,293	0,086	-0,010
-566,846	800,000	-0,032	-0,068
-565,831	-27,019	-0,084	-0,035
-564,817	800,000	0,088	0,178
-563,802	800,000	0,031	0,081
-562,788	631,619	0,053	-0,097
-561,773	800,000	-0,025	-0,070
-560,758	80,840	0,053	-0,041
-559,744	22,383	-0,039	0,023
-558,729	-77,861	0,152	0,038
-557,715	163,042	0,027	-0,027
-556,700	-51,275	0,106	-0,036
-555,685	-200,000	-0,004	-0,041
-554,671	-14,747	0,095	-0,044
-553,656	-37,167	0,088	0,034
-552,642	-113,636	-0,069	-0,010
-551,627	119,972	-0,039	0,035
-550,612	-200,000	-0,022	-0,096
-549,598	-200,000	-0,007	-0,039
-548,583	581,741	-0,017	0,029
-547,569	25,642	0,086	-0,051
-546,554	145,073	0,022	0,022
-545,539	51,218	-0,100	0,068
-544,525	-200,000	-0,031	0,113
-543,510	-45,431	0,074	0,026
-542,496	35,766	-0,094	-0,059
-541,481	-34,872	0,040	0,016
-540,466	-155,003	-0,041	-0,002
-539,452	-35,858	0,054	-0,021
-538,437	-54,979	0,018	-0,006
-537,423	800,000	-0,043	-0,088
-536,408	-200,000	-0,019	0,082
-535,393	-167,917	-0,141	-0,004
-534,379	108,897	0,115	-0,099
-533,364	800,000	0,017	-0,034
-532,350	68,302	0,044	0,032
-531,335	-8,128	-0,035	-0,017
-530,321	800,000	-0,033	0,083
-529,306	87,546	-0,095	0,076
-528,291	75,729	0,027	-0,020
-527,277	-150,648	-0,126	-0,007
-526,262	500,534	0,051	0,086
-525,248	-200,000	-0,012	0,125
-524,233	120,845	0,061	-0,054
-523,218	-73,500	0,062	-0,016
-522,204	65,094	-0,018	-0,013
-521,189	-12,696	0,114	-0,053
-520,175	-24,512	-0,270	-0,115
-519,160	49,838	0,064	0,043
-518,145	568,144	0,039	0,068
-517,131	-100,658	0,141	-0,025
-516,116	4,740	-0,046	0,024
-515,102	800,000	0,029	0,091
-514,087	-59,463	-0,069	-0,021
-513,072	-200,000	-0,009	0,086
-512,058	75,319	-0,015	-0,011
-511,043	-200,000	-0,006	0,059
-510,029	-200,000	-0,007	-0,051
-509,014	-111,328	-0,077	-0,011
-507,999	800,000	-0,053	0,141
-506,985	-120,043	-0,037	-0,004
-505,970	165,801	-0,076	-0,078
-504,956	-200,000	-0,027	-0,142
-503,941	-117,579	-0,034	-0,004
-502,926	-117,657	0,117	0,015
-501,912	-200,000	-0,019	0,065
-500,897	291,361	-0,136	-0,179
-499,883	-146,157	0,031	-0,002
-498,868	-200,000	0,023	-0,108
-497,853	-200,000	0,005	-0,085
-496,839	57,931	0,113	-0,080
-495,824	-59,103	0,120	-0,037
-494,810	311,453	0,122	-0,164
-493,795	48,389	-0,054	-0,036
-492,781	278,326	0,060	0,077
-491,766	-200,000	-0,003	0,025
-490,751	10,643	0,082	0,045
-489,737	123,938	-0,067	-0,060
-488,722	800,000	0,033	-0,080
-487,708	111,521	0,152	0,131
-486,693	-128,259	-0,082	0,008
-485,678	-110,312	-0,085	0,013
-484,664	-58,803	-0,101	-0,031
-483,649	642,293	-0,078	-0,143
-482,635	-144,244	0,085	-0,006
-481,620	296,297	-0,036	-0,048
-480,605	534,065	-0,005	-0,008
-479,591	315,676	-0,009	-0,012
-478,576	-135,391	0,125	-0,011
-477,562	-189,246	-0,069	0,001
-476,547	800,000	-0,038	-0,115
-475,532	395,662	0,069	-0,104
-474,518	-17,871	0,065	-0,029
-473,503	401,136	0,127	0,193
-472,489	72,395	-0,072	-0,054
-471,474	-200,000	0,010	0,034
-470,459	-200,000	-0,009	-0,056
-469,445	-200,000	0,030	-0,103
-468,430	95,891	-0,062	-0,051
-467,416	-129,386	0,051	-0,005
-466,401	467,344	-0,019	0,031
-465,386	-16,265	-0,169	0,077
-464,372	-200,000	0,031	0,146
-463,357	-200,000	-0,027	-0,091
-462,343	-156,857	0,140	-0,006
-461,328	-26,623	-0,170	-0,071
-460,313	800,000	-0,022	-0,049
-459,299	213,065	0,080	-0,090
-458,284	800,000	0,017	-0,036
-457,270	-56,162	0,045	-0,014
-456,255	41,644	0,117	-0,076
-455,241	57,575	-0,094	0,066
-454,226	800,000	-0,013	-0,033
-453,211	503,006	0,079	0,131
-452,197	141,792	0,110	0,105
-451,182	46,796	-0,033	-0,022
-450,168	-29,861	0,095	-0,039
-449,153	21,360	-0,060	0,035
-448,138	-132,440	0,099	0,009
-447,124	-34,764	-0,101	0,039
-446,109	-3,427	0,092	-0,046
-445,095	532,266	0,052	-0,089
-444,080	150,699	-0,049	-0,048
-443,065	800,000	-0,014	0,028
-442,051	800,000	0,051	0,106
-441,036	-133,163	0,028	0,003
-440,022	-58,895	0,133	0,041
-439,007	-200,000	-0,008	-0,089
-437,992	800,000	0,015	0,034
-436,978	24,684	0,092	0,055
-435,963	85,310	0,019	0,015
-434,949	145,574	-0,048	0,047
-433,934	800,000	-0,041	0,109
-432,919	-129,074	0,074	-0,007
-431,905	134,385	-0,073	-0,068
-430,890	-6,631	-0,024	-0,012
-429,876	626,165	-0,021	-0,038
-428,861	-200,000	0,018	-0,110
-427,846	800,000	0,029	-0,084
-426,832	-177,954	-0,069	-0,001
-425,817	481,131	-0,056	0,091
-424,803	15,325	0,082	-0,046
-423,788	-124,367	0,100	-0,011
-422,773	209,998	-0,052	0,058
-421,759	-115,759	0,203	-0,027
-420,744	30,611	-0,046	0,028
-419,730	800,000	0,033	-0,071
-418,715	600,394	-0,026	0,046
-417,701	800,000	0,039	0,083
-416,686	401,380	-0,105	-0,158
-415,671	74,327	0,139	0,104
-414,657	179,811	-0,125	0,132
-413,642	-35,868	-0,038	-0,015
-412,628	323,983	-0,109	-0,150
-411,613	-200,000	-0,135	-0,000
-410,598	-79,442	0,030	-0,007
-409,584	200,789	-0,030	0,033
-408,569	-39,102	0,035	-0,013
-407,555	-31,067	-0,066	-0,027
-406,540	-40,685	0,027	0,010
-405,525	800,000	0,022	0,050
-404,511	-200,000	0,016	-0,220
-403,496	-49,454	-0,205	-0,070
-402,482	-200,000	0,018	0,077
-401,467	43,045	0,075	0,049
-400,452	800,000	0,042	0,099
-399,438	74,396	-0,096	-0,072
-398,423	-111,530	0,134	0,019
-397,409	800,000	-0,090	-0,183
-396,394	238,993	0,040	-0,048
-395,379	-200,000	0,012	-0,116
-394,365	668,066	0,041	0,077
-393,350	-200,000	0,010	-0,064
-392,336	-200,000	-0,022	0,132
-391,321	-200,000	0,007	-0,069
-390,306	-146,392	-0,041	0,003
-389,292	-76,258	-0,043	0,011
-388,277	-72,001	-0,069	0,018
-387,263	800,000	-0,038	0,088
-386,248	102,166	-0,167	0,140
-385,233	386,291	-0,019	-0,029
-384,219	-83,507	0,105	0,024
-383,204	-200,000	-0,008	0,053
-382,190	-18,341	-0,043	0,019
-381,175	258,184	-0,069	0,085
-380,160	-41,936	-0,159	-0,058
-379,146	-200,000	-0,015	-0,055
-378,131	-200,000	-0,019	0,106
-377,117	87,155	-0,121	0,096
-376,102	-91,816	0,074	-0,015
-375,088	-49,164	-0,100	-0,034
-374,073	-34,330	-0,152	0,060
-373,058	3,714	0,051	0,027
-372,044	-39,465	0,069	0,026
-371,029	35,006	0,073	-0,046
-370,015	546,493	0,041	-0,070
-369,000	-200,000	-0,002	-0,161
-367,985	-68,776	-0,072	0,020
-366,971	1,840	-0,091	0,047
-365,956	-118,478	0,100	-0,012
-364,942	-200,000	0,005	-0,112
-363,927	681,167	-0,011	0,020
-362,912	-157,121	0,133	0,006
-361,898	-200,000	-0,014	0,077
-360,883	800,000	-0,054	-0,160
-359,869	-23,767	-0,078	-0,033
-358,854	-102,075	0,087	-0,015
-357,839	-93,370	0,111	0,022
-356,825	-200,000	-0,040	0,126
-355,810	111,991	0,048	-0,041
-354,796	-200,000	-0,024	-0,129
-353,781	-68,912	0,065	-0,018
-352,766	451,070	-0,040	0,063
-351,752	130,729	0,013	-0,012
-350,737	13,296	0,092	0,051
-349,723	263,547	0,083	-0,104
-348,708	-44,245	-0,113	0,040
-347,693	-107,535	0,088	0,014
-346,679	-200,000	0,014	-0,170
-345,664	800,000	-0,039	-0,080
-344,650	143,125	0,078	0,075
-343,635	-200,000	-0,002	0,070
-342,620	-93,785	0,063	0,012
-341,606	294,089	0,107	0,141
-340,591	-200,000	-0,027	-0,089
-339,577	40,746	-0,058	-0,038
-338,562	-200,000	-0,015	-0,054
-337,548	-200,000	-0,017	0,070
-336,533	-30,980	-0,060	-0,024
-335,518	7,012	0,086	-0,046
-334,504	345,485	0,047	0,066
-333,489	-73,852	0,053	-0,014
-332,475	244,621	-0,106	-0,127
-331,460	800,000	-0,012	-0,034
-330,445	-200,000	-0,008	-0,041
-329,431	-90,386	0,059	-0,012
-328,416	800,000	-0,043	0,135
-327,402	800,000	-0,047	0,100
-326,387	65,522	-0,078	0,056
-325,372	-94,141	-0,076	0,015
-324,358	800,000	-0,006	-0,012
-323,343	390,139	-0,046	0,068
-322,329	333,607	0,128	0,178
-321,314	-75,958	0,074	0,018
-320,299	-22,905	0,032	-0,014
-319,285	206,321	0,023	-0,026
-318,270	126,025	-0,015	0,013
-317,256	70,135	-0,069	0,051
-316,241	-29,080	-0,068	-0,028
-315,226	8,907	0,101	0,054
-314,212	-1,703	0,111	0,056
-313,197	123,224	-0,052	0,046
-312,183	-47,504	-0,118	-0,041
-311,168	-81,246	-0,019	0,004
-310,153	-200,000	0,013	-0,075
-309,139	800,000	-0,011	-0,024
-308,124	-200,000	-0,006	-0,042
-307,110	-84,264	-0,028	-0,006
-306,095	800,000	0,027	0,056
-305,080	-8,565	0,088	0,042
-304,066	-127,621	-0,081	0,008
-303,051	-200,000	-0,002	-0,010
-302,037	31,935	-0,026	-0,016
-301,022	-20,107	0,096	-0,042
-300,008	-94,299	0,133	0,026
-298,993	410,577	-0,053	-0,081
-297,978	-168,259	0,087	0,002
-296,964	800,000	0,022	-0,049
-295,949	305,817	0,059	-0,079
-294,935	-200,000	0,005	-0,032
-293,920	-200,000	-0,036	0,133
-292,905	-200,000	-0,015	0,076
-291,891	3,085	0,084	0,044
-290,876	-200,000	-0,023	0,135
-289,862	800,000	-0,032	-0,063
-288,847	800,000	-0,030	-0,062
-287,832	37,502	-0,063	-0,040
-286,818	50,965	0,063	-0,043
-285,803	-40,042	0,058	0,022
-284,789	284,386	0,080	0,103
-283,774	111,125	-0,103	-0,088
-282,759	193,299	-0,131	-0,142
-281,745	20,067	-0,017	0,010
-280,730	345,812	-0,024	0,034
-279,716	62,312	0,033	0,023
-278,701	-200,000	-0,021	-0,166
-277,686	202,876	0,030	0,033
-276,672	14,319	0,080	-0,044
-275,657	233,571	-0,065	-0,076
-274,643	-200,000	0,008	-0,099
-273,628	-170,755	0,077	-0,002
-272,613	-200,000	0,022	0,070
-271,599	692,070	0,067	0,127
-270,584	322,187	-0,069	0,094
-269,570	-37,112	0,095	0,036
-268,555	176,863	-0,048	0,050
-267,540	26,373	-0,100	-0,060
-266,526	329,779	0,019	0,026
-265,511	-61,986	-0,119	-0,035
-264,497	100,493	-0,113	0,094
-263,482	800,000	0,041	0,106
-262,467	-106,743	0,013	-0,002
-261,453	-200,000	-0,017	-0,077
-260,438	-108,481	0,104	-0,016
-259,424	-200,000	-0,035	0,114
-258,409	800,000	-0,018	-0,055
-257,395	146,293	0,028	0,027
-256,380	-200,000	0,009	0,077
-255,365	800,000	-0,050	0,126
-254,351	34,785	-0,035	0,022
-253,336	144,060	0,022	0,021
-252,322	800,000	0,022	0,060
-251,307	-85,304	-0,083	-0,018
-250,292	19,874	0,091	-0,052
-249,278	423,080	0,035	-0,053
-248,263	-154,246	-0,124	0,006
-247,249	-200,000	0,016	0,071
-246,234	-200,000	-0,015	0,070
-245,219	800,000	0,021	0,063
-244,205	-98,689	0,142	0,026
-243,190	-200,000	-0,045	0,000
-242,176	800,000	-0,043	-0,121
-241,161	-200,000	-0,023	0,102
-240,146	-200,000	-0,008	0,238
-239,132	-39,184	-0,078	-0,029
-238,117	-30,686	-0,072	-0,029
-237,103	348,344	0,045	0,064
-236,088	136,840	-0,082	-0,076
-235,073	-3,757	-0,043	-0,021
-234,059	-200,000	-0,005	-0,082
-233,044	-200,000	0,032	0,130
-232,030	-135,296	-0,127	0,011
-231,015	-200,000	-0,003	-0,124
-230,000	-95,665	0,056	0,011
-228,986	-16,110	-0,054	-0,025
-227,971	-116,182	-0,137	0,018
-226,957	-200,000	0,019	0,091
-225,942	-13,200	0,059	-0,027
-224,927	10,988	0,017	-0,009
-223,913	142,301	-0,115	-0,109
-222,898	-40,021	0,046	-0,017
-221,884	-66,021	0,109	-0,031
-220,869	-200,000	-0,047	0,214
-219,855	800,000	0,020	-0,047
-218,840	-200,000	-0,001	0,119
-217,825	-200,000	0,024	-0,108
-216,811	-200,000	-0,029	-0,115
-215,796	366,565	-0,058	0,083
-214,782	201,706	0,018	0,019
-213,767	-65,397	0,034	0,010
-212,752	69,500	-0,100	-0,073
-211,738	800,000	-0,016	-0,042
-210,723	120,010	-0,105	-0,093
-209,709	-99,616	-0,037	-0,007
-208,694	-200,000	0,007	-0,111
-207,679	-86,129	-0,129	-0,028
-206,665	143,074	-0,061	0,058
-205,650	800,000	-0,015	-0,041
-204,636	-179,125	0,026	0,000
-203,621	-200,000	0,002	0,103
-202,606	-6,646	-0,069	0,033
-201,592	-17,785	-0,015	-0,007
-200,577	282,630	-0,068	-0,087
-199,563	-69,524	0,165	-0,045
-198,548	-200,000	0,002	-0,031
-197,533	-200,000	0,024	0,077
-196,519	139,997	-0,014	-0,013
-195,504	190,891	-0,036	-0,038
-194,490	800,000	-0,027	0,061
-193,475	-200,000	0,015	-0,068
-192,460	448,828	0,070	0,110
-191,446	268,954	-0,065	0,082
-190,431	-72,158	-0,006	-0,002
-189,417	-200,000	-0,001	-0,141
-188,402	266,145	0,034	-0,043
-187,387	84,329	0,005	-0,004
-186,373	114,314	-0,050	-0,043
-185,358	148,015	0,040	0,039
-184,344	-67,178	0,138	0,038
-183,329	291,564	0,098	0,127
-182,315	-200,000	-0,015	0,056
-181,300	800,000	0,005	0,015
-180,285	800,000	0,042	0,085
-179,271	562,807	0,117	-0,202
-178,256	-200,000	0,009	0,174
-177,242	-49,752	-0,110	0,037
-176,227	538,278	0,029	0,049
-175,212	24,272	0,114	0,067
-174,198	-200,000	0,030	0,189
-173,183	800,000	0,046	0,119
-172,169	-59,619	0,066	-0,020
-171,154	-59,441	-0,086	0,026
-170,139	-200,000	0,008	-0,071
-169,125	13,909	0,114	-0,063
-168,110	-3,299	0,042	-0,021
-167,096	286,935	-0,062	-0,079
-166,081	44,988	-0,127	-0,083
-165,066	-200,000	0,007	-0,090
-164,052	800,000	0,050	0,103
-163,037	375,044	-0,027	-0,040
-162,023	-200,000	0,005	0,067
-161,008	183,447	0,057	0,060
-159,993	-118,935	-0,053	-0,007
-158,979	-200,000	0,008	0,070
-157,964	59,524	-0,025	0,017
-156,950	800,000	0,020	-0,063
-155,935	16,977	-0,118	0,066
-154,920	-32,085	0,048	0,019
-153,906	-172,444	0,290	-0,006
-152,891	-200,000	0,014	-0,159
-151,877	800,000	-0,026	0,053
-150,862	-177,670	-0,066	0,001
-149,847	-200,000	0,007	-0,181
-148,833	775,013	0,017	-0,033
-147,818	634,264	0,016	0,028
-146,804	-138,868	-0,079	-0,006
-145,789	-150,478	0,068	0,004
-144,775	-62,002	0,020	0,006
-143,760	-5,495	-0,061	-0,030
-142,745	80,064	-0,086	-0,065
-141,731	-18,506	0,064	-0,028
-140,716	-105,408	-0,065	-0,010
-139,702	800,000	0,054	0,117
-138,687	533,829	0,041	-0,069
-137,672	294,405	-0,090	-0,118
-136,658	74,021	-0,143	-0,106
-135,643	-132,917	-0,052	0,005
-134,629	-56,880	-0,133	-0,041
-133,614	-200,000	0,026	0,110
-132,599	-69,789	0,100	0,027
-131,585	369,646	-0,067	-0,096
-130,570	-102,888	0,088	0,015
-129,556	-139,717	-0,010	0,001
-128,541	-200,000	0,001	-0,096
-127,526	9,633	0,134	-0,072
-126,512	88,939	0,032	-0,025
-125,497	800,000	-0,074	0,196
-124,483	-88,840	0,160	0,033
-123,468	-62,563	0,050	0,015
-122,453	706,032	-0,065	-0,122
-121,439	128,885	0,072	-0,065
-120,424	121,753	0,068	-0,060
-119,410	-114,850	0,068	0,009
-118,395	108,379	-0,031	-0,026
-117,380	-78,520	0,113	0,027
-116,366	16,489	0,018	0,010
-115,351	267,112	0,089	-0,110
-114,337	368,060	-0,038	-0,054
-113,322	-62,771	0,095	0,028
-112,307	-200,000	0,014	-0,099
-111,293	-91,077	-0,026	-0,005
-110,278	4,674	0,040	0,021
-109,264	577,573	0,016	-0,027
-108,249	-200,000	0,023	0,119
-107,234	-133,185	-0,130	0,012
-106,220	152,261	-0,057	0,055
-105,205	-10,200	-0,082	-0,038
-104,191	-145,859	-0,053	0,003
-103,176	-159,229	0,072	-0,003
-102,162	800,000	0,008	0,023
-101,147	800,000	-0,028	0,060
-100,132	800,000	0,014	0,045
-99,118	62,290	-0,057	0,040
-98,103	-76,653	-0,057	0,014
-97,089	248,357	0,044	-0,053
-96,074	-51,344	0,080	0,026
-95,059	-28,277	-0,048	-0,020
-94,045	418,313	-0,038	0,058
-93,030	-200,000	0,014	0,052
-92,016	-88,976	-0,030	0,006
-91,001	-200,000	0,010	-0,033
-89,986	115,993	0,029	0,026
-88,972	16,035	0,082	0,046
-87,957	555,256	0,037	-0,063
-86,943	-27,883	0,029	0,012
-85,928	800,000	-0,058	-0,146
-84,913	-200,000	0,003	-0,046
-83,899	88,637	0,083	0,065
-82,884	-116,649	0,150	-0,019
-81,870	-54,331	-0,086	0,027
-80,855	-200,000	0,006	0,104
-79,840	-200,000	0,004	-0,054
-78,826	54,154	0,068	-0,046
-77,811	800,000	0,030	-0,084
-76,797	-200,000	-0,001	0,040
-75,782	37,262	0,064	-0,040
-74,767	800,000	0,009	0,020
-73,753	71,995	-0,026	-0,019
-72,738	-161,392	0,061	-0,002
-71,724	-200,000	-0,033	-0,153
-70,709	800,000	0,043	-0,090
-69,694	-68,130	-0,050	0,014
-68,680	-200,000	-0,001	0,019
-67,665	-116,459	0,024	-0,003
-66,651	-100,953	-0,116	0,020
-65,636	-200,000	0,011	-0,107
-64,622	-200,000	-0,027	-0,123
-63,607	-38,389	0,130	-0,049
-62,592	559,478	0,050	-0,086
-61,578	800,000	0,021	-0,050
-60,563	800,000	0,019	0,056
-59,549	-200,000	0,005	0,178
-58,534	-20,491	-1,613	-0,698
-57,519	393,203	-1,506	-2,223
-56,505	-200,000	-0,355	-4,325
-55,490	207,893	0,883	0,976
-54,476	800,000	5,123	11,744
-53,461	-200,000	18,812	306,195
-52,446	800,000	735,588	2284,970
-51,432	564,385	1649,668	2836,973
-50,417	78,311	1666,641	1256,871
-49,403	21,706	1539,438	883,845
-48,388	15,670	1462,131	810,245
-47,373	17,892	1452,521	815,580
-46,359	16,844	1442,622	804,986
-45,344	13,912	1438,046	788,414
-44,330	13,822	1436,088	786,879
-43,315	13,794	1434,460	785,824
-42,300	13,845	1432,498	784,960
-41,286	13,873	1431,507	784,517
-40,271	13,855	1430,207	783,689
-39,257	13,861	1428,779	782,903
-38,242	13,876	1427,750	782,381
-37,227	13,895	1426,391	781,696
-36,213	13,904	1425,020	780,954
-35,198	13,869	1424,024	780,214
-34,184	13,898	1423,129	779,829
-33,169	13,830	1421,879	778,790
-32,154	13,888	1420,777	778,432
-31,140	13,875	1419,572	777,677
-30,125	13,940	1418,133	777,167
-29,111	13,881	1417,084	776,283
-28,096	13,823	1416,263	775,531
-27,082	13,793	1414,954	774,642
-26,067	13,799	1414,025	774,131
-25,052	13,812	1412,770	773,474
-24,038	13,797	1411,878	772,883
-23,023	13,776	1410,877	772,208
-22,009	13,796	1409,936	771,753
-20,994	13,755	1409,193	771,124
-19,979	13,750	1408,113	770,480
-18,965	13,733	1407,433	769,999
-17,950	13,730	1406,328	769,350
-16,936	13,771	1405,346	768,972
-15,921	13,741	1404,113	768,127
-14,906	13,699	1403,357	767,487
-13,892	13,749	1402,290	767,109
-12,877	13,712	1401,589	766,519
-11,863	13,678	1400,605	765,794
-10,848	13,736	1399,663	765,520
-9,833	13,692	1398,739	764,777
-8,819	13,598	1398,125	763,978
-7,804	13,603	1397,087	763,401
-6,790	13,600	1395,769	762,635
-5,775	13,633	1394,890	762,280
-4,760	13,634	1393,892	761,708
-3,746	13,632	1393,017	761,193
-2,731	13,608	1392,435	760,730
-1,717	13,627	1391,459	760,258
-0,702	13,641	1389,652	759,302
0,313	17,568	1307,652	732,603
1,327	34,092	703,777	432,394
2,342	52,667	123,570	83,281
3,356	1,141	16,585	8,381
4,371	-11,709	3,146	1,454
5,386	-29,392	0,631	0,254
6,400	-200,000	0,044	0,332
7,415	93,108	-0,255	-0,203
8,429	1,297	-0,215	-0,109
9,444	54,864	-0,283	-0,193
10,459	8,990	-0,374	-0,198
11,473	288,132	-0,201	-0,257
12,488	144,512	-0,216	-0,204
13,502	79,732	-0,293	-0,222
14,517	54,756	-0,354	-0,240
15,531	-6,343	-0,304	-0,146
16,546	-58,626	-0,317	-0,096
17,561	73,222	-0,357	-0,263
18,575	-122,429	-0,191	-0,022
19,590	-36,965	-0,289	-0,109
20,604	61,765	-0,316	-0,222
21,619	120,482	-0,359	-0,315
22,634	67,367	-0,358	-0,258
23,648	-9,138	-0,521	-0,245
24,663	-20,956	-0,502	-0,216
25,677	190,775	-0,317	-0,336
26,692	78,235	-0,360	-0,270
27,707	114,956	-0,422	-0,363
28,721	42,043	-0,451	-0,288
29,736	225,154	-0,229	-0,262
30,750	127,696	-0,356	-0,319
31,765	138,999	-0,306	-0,283
32,780	348,849	-0,267	-0,373
33,794	68,392	-0,442	-0,319
34,809	0,042	-0,303	-0,151
35,823	-5,796	-0,373	-0,179
36,838	141,209	-0,394	-0,367
37,853	7,368	-0,365	-0,192
38,867	115,339	-0,330	-0,284
39,882	-6,873	-0,373	-0,178
40,896	66,347	-0,375	-0,268
41,911	-40,245	-0,369	-0,135
42,926	169,866	-0,303	-0,305
43,940	69,925	-0,329	-0,239
44,955	10,359	-0,424	-0,226
45,969	119,974	-0,319	-0,278
46,984	64,671	-0,292	-0,207
47,999	-71,614	-0,314	-0,082
49,013	-7,608	-0,277	-0,131
50,028	113,217	-0,383	-0,326
51,042	154,199	-0,300	-0,290
52,057	59,435	-0,328	-0,227
53,071	30,646	-0,291	-0,175
54,086	60,820	-0,334	-0,232
55,101	34,807	-0,331	-0,203
56,115	52,931	-0,329	-0,221
57,130	-56,043	-0,363	-0,113
58,144	22,844	-0,511	-0,294
59,159	112,120	-0,357	-0,303
60,174	97,009	-0,322	-0,259
61,188	47,342	-0,276	-0,180
62,203	-13,357	-0,428	-0,194
63,217	132,434	-0,219	-0,199
64,232	32,075	-0,301	-0,182
65,247	87,975	-0,330	-0,257
66,261	66,547	-0,373	-0,266
67,276	-43,917	-0,449	-0,158
68,290	37,695	-0,381	-0,237
69,305	-60,514	-0,333	-0,099
70,320	-200,000	-0,075	-0,267
71,334	94,569	-0,247	-0,197
72,349	102,201	-0,373	-0,306
73,363	27,258	-0,258	-0,152
74,378	77,804	-0,332	-0,248
75,393	49,625	-0,273	-0,180
76,407	88,687	-0,264	-0,206
77,422	-50,850	-0,417	-0,137
78,436	157,238	-0,132	-0,128
79,451	-11,255	-0,349	-0,161
80,466	69,691	-0,365	-0,264
81,480	-71,305	-0,316	-0,083
82,495	84,409	-0,164	-0,126
83,509	-48,254	-0,343	-0,115
84,524	6,679	-0,230	-0,119
85,539	-10,703	-0,291	-0,135
86,553	85,017	-0,355	-0,273
87,568	163,357	-0,247	-0,243
88,582	90,694	-0,314	-0,247
89,597	35,688	-0,415	-0,255
90,611	179,846	-0,223	-0,229
91,626	45,847	-0,201	-0,130
92,641	541,607	-0,143	-0,240
93,655	12,038	-0,315	-0,169
94,670	131,018	-0,199	-0,179
95,684	13,098	-0,236	-0,127
96,699	113,148	-0,228	-0,194
97,714	-45,081	-0,359	-0,124
98,728	145,249	-0,167	-0,156
99,743	-200,000	-0,018	-0,196
100,757	118,730	-0,276	-0,239
101,772	23,094	-0,234	-0,134
102,787	265,880	-0,166	-0,203
103,801	-104,055	-0,311	-0,050
104,816	84,818	-0,202	-0,155
105,830	67,769	-0,209	-0,150
106,845	69,668	-0,211	-0,152
107,860	-34,990	-0,274	-0,104
108,874	126,727	-0,209	-0,185
109,889	583,951	-0,289	-0,498
110,903	57,412	-0,274	-0,187
111,918	-200,000	-0,072	-0,224
112,933	423,615	-0,141	-0,213
113,947	207,150	-0,155	-0,169
114,962	80,029	-0,175	-0,132
115,976	-47,720	-0,274	-0,092
116,991	-90,382	-0,302	-0,061
118,006	214,100	-0,253	-0,281
119,020	499,072	-0,214	-0,346
120,035	800,000	-0,113	-0,279
121,049	-93,881	-0,125	0,024
122,064	63,605	-0,301	-0,211
123,079	114,956	-0,335	-0,285
124,093	92,194	-0,283	-0,223
125,108	194,766	-0,209	-0,222
126,122	275,233	-0,213	-0,264
127,137	-5,901	-0,199	-0,095
128,151	372,337	-0,155	-0,220
129,166	-30,235	-0,230	-0,091
130,181	-58,962	-0,352	-0,106
131,195	-28,413	-0,343	-0,138
132,210	115,902	-0,348	-0,297
133,224	122,618	-0,295	-0,257
134,239	52,390	-0,200	-0,133
135,254	-123,291	-0,213	0,023
136,268	800,000	-0,049	-0,129
137,283	32,835	-0,164	-0,099
138,297	215,247	-0,273	-0,303
139,312	205,683	-0,222	-0,241
140,327	66,435	-0,261	-0,185
141,341	-27,193	-0,277	-0,112
142,356	112,820	-0,287	-0,242
143,370	119,934	-0,146	-0,126
144,385	-35,736	-0,233	-0,087
145,400	318,388	-0,163	-0,215
146,414	-24,656	-0,296	-0,122
147,429	155,989	-0,201	-0,194
148,443	31,754	-0,212	-0,127
149,458	37,341	-0,197	-0,121
150,473	136,328	-0,207	-0,188
151,487	4,393	-0,243	-0,124
152,502	76,109	-0,273	-0,202
153,516	800,000	-0,137	-0,292
154,531	35,564	-0,319	-0,195
155,546	57,719	-0,266	-0,181
156,560	-88,473	-0,346	-0,071
157,575	20,397	-0,238	-0,134
158,589	25,423	-0,234	-0,135
159,604	-31,466	-0,216	-0,084
160,619	-81,434	-0,324	-0,074
161,633	-69,927	-0,260	-0,069
162,648	149,350	-0,229	-0,216
163,662	120,665	-0,213	-0,184
164,677	98,337	-0,101	-0,081
165,692	28,138	-0,163	-0,095
166,706	35,173	-0,205	-0,125
167,721	198,221	-0,198	-0,211
168,735	4,281	-0,326	-0,166
169,750	106,671	-0,309	-0,255
170,764	252,734	-0,246	-0,293
171,779	204,955	-0,199	-0,216
172,794	-18,112	-0,213	-0,093
173,808	186,557	-0,261	-0,270
174,823	185,373	-0,180	-0,186
175,837	54,985	-0,316	-0,212
176,852	316,534	-0,203	-0,267
177,867	160,662	-0,193	-0,188
178,881	800,000	-0,156	-0,308
179,896	115,968	-0,158	-0,134
180,910	-109,885	-0,236	-0,034
181,925	166,213	-0,213	-0,210
182,940	61,039	-0,379	-0,261
183,954	-38,217	-0,206	-0,076
184,969	544,269	-0,105	-0,175
185,983	101,881	-0,175	-0,142
186,998	182,823	-0,240	-0,247
188,013	-96,620	-0,201	-0,036
189,027	75,583	-0,275	-0,202
190,042	368,308	-0,162	-0,228
191,056	-57,123	-0,345	-0,105
192,071	-20,196	-0,225	-0,096
193,086	800,000	-0,089	-0,206
194,100	800,000	-0,080	-0,222
195,115	144,651	-0,158	-0,147
196,129	47,674	-0,270	-0,175
197,144	-111,398	-0,236	-0,033
198,159	-53,323	-0,219	-0,069
199,173	505,728	-0,117	-0,189
200,188	-200,000	-0,056	-0,201
201,202	160,322	-0,109	-0,106
202,217	70,787	-0,252	-0,181
203,232	168,622	-0,189	-0,187
204,246	432,900	-0,138	-0,209
205,261	149,907	-0,171	-0,161
206,275	68,318	-0,310	-0,220
207,290	-50,504	-0,172	-0,056
208,304	150,723	-0,112	-0,106
209,319	8,520	-0,127	-0,066
210,334	95,216	-0,238	-0,188
211,348	-24,510	-0,205	-0,084
212,363	-60,103	-0,152	-0,045
213,377	319,092	-0,099	-0,131
214,392	47,230	-0,081	-0,052
215,407	-5,468	-0,130	-0,062
216,421	59,082	-0,133	-0,091
217,436	-46,255	-0,240	-0,082
218,450	176,841	-0,272	-0,275
219,465	31,420	-0,250	-0,148
220,480	155,441	-0,178	-0,170
221,494	800,000	-0,055	-0,146
222,509	-17,953	-0,133	-0,058
223,523	-103,539	-0,074	-0,012
224,538	46,515	-0,187	-0,120
225,553	33,636	-0,217	-0,131
226,567	146,351	-0,181	-0,169
227,582	139,071	-0,136	-0,124
228,596	-42,482	-0,168	-0,059
229,611	-79,421	-0,312	-0,072
230,626	-65,969	-0,232	0,064
231,640	124,348	-0,153	-0,133
232,655	86,750	-0,279	-0,213
233,669	800,000	-0,099	-0,231
234,684	800,000	-0,102	-0,274
235,699	-1,858	-0,132	-0,064
236,713	15,509	-0,095	-0,052
237,728	-118,716	-0,226	-0,027
238,742	82,850	-0,163	-0,122
239,757	349,706	-0,204	-0,279
240,772	23,788	-0,301	-0,171
241,786	-3,286	-0,098	-0,047
242,801	143,135	-0,180	-0,165
243,815	-72,127	-0,100	-0,026
244,830	54,447	-0,100	-0,067
245,844	35,871	-0,275	-0,167
246,859	-58,349	-0,105	-0,031
247,874	62,716	-0,138	-0,095
248,888	-30,288	-0,152	-0,059
249,903	-46,781	-0,067	-0,023
250,917	-136,851	-0,196	0,015
251,932	234,209	-0,189	-0,216
252,947	113,773	-0,152	-0,128
253,961	-35,501	-0,235	-0,088
254,976	-7,885	-0,247	-0,115
255,990	270,777	-0,119	-0,145
257,005	800,000	-0,102	-0,214
258,020	-150,045	-0,145	-0,008
259,034	-109,537	-0,293	0,042
260,049	-54,375	-0,125	-0,039
261,063	149,097	-0,161	-0,150
262,078	481,054	-0,112	-0,175
263,093	160,886	-0,180	-0,174
264,107	-21,968	-0,215	-0,090
265,122	148,490	-0,128	-0,120
266,136	126,645	-0,163	-0,142
267,151	35,025	-0,248	-0,149
268,166	-61,138	-0,163	0,047
269,180	141,527	-0,119	-0,109
270,195	520,847	-0,118	-0,192
271,209	68,717	-0,250	-0,177
272,224	155,522	-0,147	-0,140
273,239	117,271	-0,197	-0,167
274,253	-92,454	-0,197	-0,038
275,268	-106,247	-0,116	-0,018
276,282	146,364	-0,168	-0,155
277,297	-200,000	-0,049	-0,280
278,312	174,762	-0,252	-0,252
279,326	-7,981	-0,144	-0,067
280,341	-154,769	-0,081	0,004
281,355	362,688	-0,164	-0,228
282,370	79,741	-0,065	-0,048
283,384	108,812	-0,120	-0,099
284,399	19,999	-0,296	-0,164
285,414	427,168	-0,070	-0,104
286,428	168,351	-0,145	-0,143
287,443	334,160	-0,065	-0,088
288,457	159,694	-0,097	-0,093
289,472	-106,998	-0,148	0,022
290,487	-77,503	-0,251	-0,060
291,501	96,099	-0,171	-0,135
292,516	251,699	-0,079	-0,093
293,530	189,745	-0,139	-0,144
294,545	-99,795	-0,128	-0,022
295,560	25,293	-0,018	0,011
296,574	-200,000	-0,068	-0,224
297,589	-47,889	-0,139	-0,046
298,603	-26,750	-0,255	-0,102
299,618	217,732	-0,130	-0,143
300,633	27,046	-0,211	-0,122
301,647	24,455	-0,075	0,042
302,662	800,000	0,029	-0,074
303,676	253,668	-0,081	-0,096
304,691	211,774	-0,140	-0,152
305,706	126,818	-0,144	-0,125
306,720	800,000	-0,093	-0,210
307,735	274,598	-0,102	-0,124
308,749	-110,311	-0,182	-0,026
309,764	558,939	0,030	-0,049
310,779	-25,364	-0,233	-0,094
311,793	-52,226	-0,184	-0,058
312,808	-200,000	-0,070	-0,264
313,822	800,000	-0,043	-0,110
314,837	354,766	-0,087	-0,120
315,852	-23,816	-0,146	-0,060
316,866	266,252	-0,054	-0,065
317,881	-53,228	-0,052	-0,016
318,895	189,794	-0,101	-0,104
319,910	-11,360	-0,195	-0,088
320,925	25,939	-0,057	0,032
321,939	633,320	-0,101	-0,176
322,954	96,903	-0,119	-0,094
323,968	-200,000	-0,032	-0,111
324,983	-161,675	-0,123	-0,004
325,997	-147,781	-0,085	-0,005
327,012	383,945	-0,129	-0,183
328,027	66,701	-0,088	-0,061
329,041	257,500	-0,120	-0,142
330,056	800,000	0,041	-0,105
331,070	-16,000	-0,080	-0,035
332,085	-6,149	-0,162	-0,076
333,100	-33,953	-0,083	-0,031
334,114	800,000	-0,071	-0,169
335,129	115,851	-0,140	-0,117
336,143	-130,037	-0,209	-0,019
337,158	-12,786	-0,134	-0,060
338,173	-124,265	-0,027	-0,003
339,187	-200,000	0,021	-0,081
340,202	-90,189	-0,152	-0,030
341,216	-174,413	-0,178	0,003
342,231	188,538	-0,198	-0,204
343,246	434,381	-0,089	-0,133
344,260	-41,558	-0,143	-0,050
345,275	342,252	-0,090	-0,121
346,289	392,384	-0,072	-0,104
347,304	-52,152	-0,105	-0,033
348,319	-174,693	-0,132	0,003
349,333	-112,958	-0,155	0,021
350,348	-26,392	-0,216	-0,087
351,362	-134,350	-0,147	-0,012
352,377	-55,654	-0,150	-0,046
353,392	-13,118	-0,188	-0,083
354,406	3,834	-0,109	-0,054
355,421	209,446	1313,075	1411,230
356,435	161,199	1473,613	1411,734
