DTS Sentinel unit serial number:	SN410029Multiplexer serial number:	ORYXHardware model number:	OX2-SRSoftware version number:	ORYX F/W v4,00 Oryx Data Collector v3.7.2.0data status	okinstallation	B3 Nyhavnadifferential loss correction	single-endedforward channel	channel 1reverse channel	N/Adate	2023/12/01time	02:47:30forward acquisition time	300,00reverse acquisition time	0,00gamma	499,1914k internal	0,3211k external	0,3211temperature offset calibration	1,0000default loss term (dB/km)	0,3820temperature slope calibration	1,0000multiplexer offset coefficient	1,0000multiplexer slope coefficient	1,0000fibre end	0,00T internal ref (°C)	8,51T ext. ref 1 (°C)	-6,66T ext. ref 2 (°C)	-6,79length (m)	temperature (°C)	Stokes	anti-Stokes-744,400	139,889	-0,233	-0,223
-743,385	-200,000	-0,039	0,285
-742,371	-200,000	-0,026	-0,208
-741,356	-200,000	-0,020	0,329
-740,342	326,201	-0,114	-0,159
-739,327	-200,000	-0,018	0,059
-738,312	325,162	-0,177	-0,246
-737,298	-200,000	-0,007	0,281
-736,283	-200,000	-0,013	-0,106
-735,269	-200,000	-0,017	0,252
-734,254	203,287	-0,148	-0,166
-733,239	-99,197	-0,337	-0,061
-732,225	125,722	-0,160	-0,146
-731,210	-200,000	0,035	0,244
-730,196	172,889	-0,173	-0,181
-729,181	482,377	0,038	-0,063
-728,167	-200,000	0,008	0,052
-727,152	-200,000	0,005	0,018
-726,137	-26,151	0,010	-0,004
-725,123	155,536	-0,018	-0,018
-724,108	-200,000	-0,037	-0,213
-723,094	-73,883	0,074	-0,019
-722,079	302,286	0,090	-0,121
-721,064	58,989	-0,109	-0,078
-720,050	-200,000	0,018	0,098
-719,035	7,255	-0,128	0,069
-718,021	-200,000	0,021	-0,098
-717,006	38,879	-0,021	-0,014
-715,991	-77,564	-0,113	-0,028
-714,977	238,198	-0,019	-0,023
-713,962	-165,268	-0,121	0,004
-712,948	-144,435	0,158	0,010
-711,933	355,734	-0,011	-0,016
-710,918	15,221	-0,062	0,035
-709,904	-45,663	-0,133	-0,047
-708,889	102,001	-0,114	-0,096
-707,875	-122,808	-0,086	-0,010
-706,860	2,099	0,031	0,016
-705,845	-200,000	-0,023	-0,075
-704,831	502,448	0,023	0,039
-703,816	800,000	0,040	-0,104
-702,802	-16,335	-0,050	0,023
-701,787	-18,176	-0,043	0,019
-700,772	-151,321	0,052	0,003
-699,758	20,711	-0,183	-0,107
-698,743	-37,627	0,091	0,035
-697,729	437,037	-0,043	0,068
-696,714	-200,000	-0,044	0,151
-695,699	-200,000	-0,003	0,078
-694,685	-200,000	0,034	-0,157
-693,670	-200,000	0,026	-0,178
-692,656	-200,000	0,005	-0,033
-691,641	57,059	-0,120	0,084
-690,627	-128,068	0,034	-0,003
-689,612	188,488	0,059	-0,063
-688,597	-180,762	-0,193	0,003
-687,583	-115,369	-0,185	0,025
-686,568	694,027	-0,027	0,051
-685,554	-137,576	-0,125	-0,010
-684,539	-42,649	0,078	-0,029
-683,524	-81,096	0,047	0,011
-682,510	-109,662	-0,050	0,008
-681,495	-200,000	-0,001	-0,046
-680,481	312,713	-0,083	-0,112
-679,466	-200,000	-0,039	0,000
-678,451	325,405	-0,012	0,017
-677,437	-142,937	-0,065	-0,005
-676,422	335,330	0,054	0,075
-675,408	-200,000	0,004	-0,029
-674,393	800,000	-0,038	-0,107
-673,378	467,612	-0,085	-0,139
-672,364	328,956	-0,062	-0,086
-671,349	701,850	-0,055	0,105
-670,335	800,000	0,003	-0,011
-669,320	63,346	0,104	-0,076
-668,305	-5,791	0,096	0,048
-667,291	105,582	-0,072	0,061
-666,276	800,000	-0,041	-0,097
-665,262	-70,594	-0,063	0,017
-664,247	405,116	0,031	-0,047
-663,232	-124,605	0,137	-0,015
-662,218	-200,000	0,002	0,099
-661,203	302,138	0,088	0,118
-660,189	-181,502	0,116	0,002
-659,174	-30,928	0,094	0,038
-658,159	-54,067	-0,103	-0,034
-657,145	-200,000	-0,004	-0,023
-656,130	123,848	0,062	-0,056
-655,116	59,653	0,065	0,046
-654,101	-200,000	-0,001	-0,104
-653,086	-137,951	0,022	-0,002
-652,072	-96,134	-0,085	0,016
-651,057	-200,000	0,001	0,047
-650,043	-200,000	-0,010	0,036
-649,028	579,439	0,090	-0,159
-648,014	142,817	0,116	0,112
-646,999	-200,000	0,002	-0,021
-645,984	-121,815	0,097	-0,011
-644,970	-8,854	-0,235	0,113
-643,955	-68,331	-0,121	0,034
-642,941	-69,619	0,026	-0,007
-641,926	-15,308	-0,200	-0,092
-640,911	-95,157	0,124	-0,024
-639,897	771,655	0,068	-0,135
-638,882	-118,856	-0,146	-0,018
-637,868	-93,863	-0,077	0,015
-636,853	73,037	-0,186	-0,140
-635,838	-94,575	-0,053	0,010
-634,824	-78,583	0,044	0,011
-633,809	800,000	0,007	-0,014
-632,795	-165,299	-0,072	-0,002
-631,780	-61,855	-0,157	-0,047
-630,765	-200,000	-0,021	-0,098
-629,751	-161,528	-0,127	0,005
-628,736	562,373	-0,053	-0,093
-627,722	-131,691	0,154	0,014
-626,707	-76,716	-0,145	-0,036
-625,692	63,735	-0,008	0,006
-624,678	22,598	0,049	-0,029
-623,663	-11,341	0,101	-0,048
-622,649	520,278	0,038	0,064
-621,634	-166,149	-0,260	-0,008
-620,619	-98,266	0,048	0,009
-619,605	-200,000	-0,019	0,113
-618,590	292,154	0,067	-0,088
-617,576	-200,000	0,020	0,176
-616,561	233,935	-0,103	-0,123
-615,546	800,000	-0,081	-0,171
-614,532	-9,416	-0,058	-0,028
-613,517	-19,440	-0,035	-0,016
-612,503	176,727	-0,079	-0,083
-611,488	276,542	-0,042	0,054
-610,474	236,819	-0,184	-0,220
-609,459	-70,971	0,100	-0,027
-608,444	-192,869	-0,053	0,000
-607,430	-200,000	-0,021	-0,095
-606,415	-46,587	0,049	-0,017
-605,401	10,995	-0,077	-0,043
-604,386	124,698	0,071	0,064
-603,371	-200,000	0,008	0,061
-602,357	52,061	-0,075	0,051
-601,342	718,473	0,069	-0,133
-600,328	67,768	-0,121	0,089
-599,313	166,444	-0,100	-0,102
-598,298	-159,630	0,058	-0,002
-597,284	127,904	0,137	0,126
-596,269	-161,799	-0,196	0,007
-595,255	696,292	0,050	0,094
-594,240	12,281	0,081	0,045
-593,225	-200,000	0,000	-0,080
-592,211	-200,000	-0,034	-0,111
-591,196	-200,000	-0,004	-0,029
-590,182	-200,000	-0,005	-0,031
-589,167	-88,830	0,129	-0,027
-588,152	800,000	-0,023	0,052
-587,138	63,756	-0,036	0,026
-586,123	-200,000	-0,022	-0,114
-585,109	-200,000	0,009	-0,042
-584,094	184,748	-0,064	0,068
-583,079	593,420	0,036	0,065
-582,065	132,734	0,077	-0,071
-581,050	31,037	-0,027	-0,017
-580,036	695,133	0,023	-0,044
-579,021	-39,086	-0,085	0,032
-578,006	667,932	-0,026	-0,048
-576,992	349,082	-0,063	-0,089
-575,977	-200,000	-0,016	-0,080
-574,963	12,668	-0,049	0,027
-573,948	72,548	0,031	-0,023
-572,934	783,964	0,013	0,026
-571,919	-163,457	-0,057	-0,002
-570,904	299,789	-0,017	-0,023
-569,890	140,715	-0,048	-0,046
-568,875	-200,000	-0,003	0,057
-567,861	-91,485	-0,049	0,010
-566,846	800,000	0,061	0,178
-565,831	-200,000	0,011	0,121
-564,817	170,961	0,083	0,086
-563,802	-200,000	0,018	0,094
-562,788	-46,640	-0,108	0,038
-561,773	800,000	-0,016	-0,040
-560,758	510,651	-0,048	-0,080
-559,744	71,278	0,070	-0,053
-558,729	-139,356	0,030	-0,002
-557,715	172,449	-0,038	0,039
-556,700	-73,084	0,149	-0,039
-555,685	800,000	-0,054	-0,164
-554,671	613,139	-0,041	-0,075
-553,656	-131,085	0,119	-0,011
-552,642	-0,789	0,092	0,047
-551,627	93,415	0,162	-0,132
-550,612	-124,717	0,032	0,004
-549,598	148,591	0,065	0,063
-548,583	-200,000	0,013	-0,134
-547,569	157,489	0,026	-0,026
-546,554	-157,472	-0,059	-0,003
-545,539	800,000	0,045	0,139
-544,525	663,663	-0,023	0,044
-543,510	435,118	0,013	-0,020
-542,496	-42,585	-0,076	-0,028
-541,481	396,756	0,009	0,013
-540,466	-143,190	-0,151	-0,010
-539,452	-114,228	-0,150	-0,021
-538,437	107,917	-0,058	0,050
-537,423	454,302	0,019	-0,030
-536,408	637,949	0,008	-0,015
-535,393	-135,505	0,093	-0,008
-534,379	-109,467	0,061	-0,009
-533,364	-29,162	-0,044	0,018
-532,350	-55,324	0,036	0,011
-531,335	-42,948	0,081	0,029
-530,321	-26,420	0,060	-0,025
-529,306	-90,839	0,031	-0,006
-528,291	608,516	-0,026	-0,047
-527,277	-128,182	0,137	-0,014
-526,262	-23,938	-0,073	-0,031
-525,248	-60,672	-0,013	0,004
-524,233	-0,915	-0,119	0,060
-523,218	98,564	0,129	0,107
-522,204	-51,468	-0,019	-0,006
-521,189	-87,441	0,064	0,014
-520,175	-146,648	0,080	0,005
-519,160	137,603	-0,127	-0,120
-518,145	466,004	0,053	0,085
-517,131	212,912	0,019	-0,022
-516,116	699,565	0,012	-0,023
-515,102	-200,000	0,012	0,069
-514,087	-133,603	-0,056	0,005
-513,072	287,212	-0,082	-0,107
-512,058	-114,132	-0,067	0,009
-511,043	-86,854	0,122	0,026
-510,029	239,084	0,062	0,074
-509,014	88,257	0,036	0,029
-507,999	286,153	-0,020	-0,027
-506,985	-17,854	0,116	-0,052
-505,970	-84,067	0,031	0,007
-504,956	-40,053	-0,021	-0,008
-503,941	-19,237	-0,022	0,010
-502,926	-55,067	-0,036	0,012
-501,912	-200,000	-0,016	-0,052
-500,897	-43,035	-0,040	-0,015
-499,883	94,653	-0,081	-0,066
-498,868	225,659	0,038	-0,044
-497,853	56,562	0,135	-0,094
-496,839	48,542	-0,101	-0,068
-495,824	-37,838	0,101	-0,038
-494,810	134,635	0,051	-0,047
-493,795	-35,531	0,114	0,044
-492,781	421,653	0,015	0,022
-491,766	67,271	-0,099	-0,073
-490,751	-71,469	0,037	0,010
-489,737	80,113	0,061	-0,047
-488,722	-109,226	0,077	-0,012
-487,708	350,941	0,042	0,060
-486,693	-150,078	0,126	0,007
-485,678	800,000	-0,020	0,059
-484,664	29,357	-0,037	-0,023
-483,649	17,344	-0,031	-0,018
-482,635	139,504	0,066	-0,063
-481,620	215,560	0,092	0,104
-480,605	95,590	0,141	0,115
-479,591	58,072	-0,077	0,054
-478,576	-200,000	-0,030	-0,146
-477,562	12,595	-0,064	-0,035
-476,547	800,000	-0,049	-0,098
-475,532	-175,073	-0,090	-0,002
-474,518	-150,170	0,069	-0,004
-473,503	-200,000	0,050	-0,189
-472,489	800,000	0,039	0,119
-471,474	-200,000	-0,028	-0,137
-470,459	-200,000	-0,043	0,139
-469,445	-157,597	-0,097	0,004
-468,430	-61,171	0,139	-0,042
-467,416	800,000	-0,032	-0,100
-466,401	311,210	-0,026	0,035
-465,386	-95,898	0,067	-0,013
-464,372	-80,594	-0,130	-0,031
-463,357	121,154	0,099	0,089
-462,343	-200,000	0,004	0,039
-461,328	-194,320	-0,148	0,001
-460,313	165,101	-0,069	-0,070
-459,299	-54,999	-0,095	0,031
-458,284	565,764	0,098	0,171
-457,270	800,000	0,022	0,049
-456,255	173,372	-0,154	-0,159
-455,241	-200,000	-0,002	-0,006
-454,226	-27,559	-0,030	0,012
-453,211	147,372	0,065	0,063
-452,197	549,965	0,095	0,164
-451,182	-200,000	0,039	0,159
-450,168	-200,000	0,028	0,194
-449,153	78,332	-0,028	0,021
-448,138	800,000	0,027	-0,060
-447,124	-100,279	-0,057	-0,010
-446,109	-89,848	-0,113	0,023
-445,095	-21,299	0,098	-0,043
-444,080	-49,880	-0,032	-0,011
-443,065	-200,000	-0,024	0,131
-442,051	70,105	0,062	-0,046
-441,036	800,000	-0,027	-0,075
-440,022	44,355	-0,075	-0,049
-439,007	-74,501	0,166	-0,043
-437,992	-200,000	-0,006	0,033
-436,978	-200,000	0,001	-0,034
-435,963	207,236	-0,088	0,098
-434,949	297,022	0,038	0,050
-433,934	255,191	-0,064	0,079
-432,919	80,288	-0,075	0,058
-431,905	-200,000	-0,003	-0,030
-430,890	107,266	0,075	0,063
-429,876	77,647	-0,130	0,099
-428,861	132,204	-0,040	0,037
-427,846	-20,811	0,053	0,023
-426,832	584,928	0,077	-0,136
-425,817	-200,000	-0,010	-0,054
-424,803	-200,000	-0,000	0,004
-423,788	800,000	-0,047	0,141
-422,773	12,418	-0,047	0,026
-421,759	-42,647	-0,073	0,026
-420,744	-200,000	-0,019	0,101
-419,730	-78,294	0,054	0,013
-418,715	7,162	0,032	0,017
-417,701	43,181	-0,110	0,072
-416,686	162,747	-0,003	0,003
-415,671	522,930	0,034	0,057
-414,657	-110,680	0,007	0,001
-413,642	-28,349	-0,082	-0,034
-412,628	570,128	-0,027	-0,046
-411,613	297,616	-0,025	0,033
-410,598	457,071	-0,080	-0,128
-409,584	111,428	-0,031	0,027
-408,569	99,474	0,082	0,068
-407,555	13,044	0,093	-0,051
-406,540	20,484	0,034	-0,019
-405,525	93,284	-0,086	-0,069
-404,511	-200,000	-0,015	-0,081
-403,496	65,463	0,072	0,052
-402,482	-200,000	0,006	0,159
-401,467	101,944	-0,047	0,039
-400,452	-74,229	-0,061	0,016
-399,438	-113,843	0,157	0,022
-398,423	-200,000	0,014	0,057
-397,409	786,332	-0,032	0,063
-396,394	-27,209	-0,104	0,043
-395,379	-35,244	0,024	-0,009
-394,365	-200,000	-0,022	0,089
-393,350	-200,000	-0,020	0,152
-392,336	-2,736	0,100	0,050
-391,321	-200,000	0,013	0,087
-390,306	357,782	-0,052	0,074
-389,292	-46,046	0,078	-0,027
-388,277	255,591	0,043	0,053
-387,263	1,387	0,048	-0,025
-386,248	155,215	0,097	-0,095
-385,233	38,226	-0,065	0,042
-384,219	64,954	-0,096	-0,070
-383,204	77,823	0,037	-0,028
-382,190	-200,000	0,008	-0,109
-381,175	409,179	-0,045	0,069
-380,160	-19,348	0,037	-0,016
-379,146	-51,636	-0,013	-0,004
-378,131	-200,000	-0,031	-0,130
-377,117	61,865	0,012	-0,008
-376,102	-132,439	0,079	0,007
-375,088	187,341	-0,101	0,108
-374,073	445,065	-0,014	0,021
-373,058	27,821	0,113	0,068
-372,044	-146,538	-0,093	0,006
-371,029	800,000	-0,006	0,015
-370,015	800,000	0,032	-0,087
-369,000	-55,889	-0,151	-0,048
-367,985	-200,000	0,021	-0,090
-366,971	-200,000	0,009	-0,035
-365,956	-200,000	0,004	0,093
-364,942	273,377	0,045	0,056
-363,927	-200,000	0,000	-0,047
-362,912	217,549	0,126	0,144
-361,898	-149,383	-0,088	-0,005
-360,883	133,450	-0,072	0,067
-359,869	205,260	-0,060	-0,067
-358,854	-72,877	-0,109	0,028
-357,839	-148,706	0,061	-0,003
-356,825	62,085	0,043	0,030
-355,810	652,233	-0,033	0,061
-354,796	205,496	0,019	-0,021
-353,781	800,000	-0,042	-0,097
-352,766	658,692	-0,045	-0,083
-351,752	19,543	0,028	-0,016
-350,737	350,128	0,066	0,093
-349,723	163,464	0,145	0,146
-348,708	33,885	-0,004	0,002
-347,693	110,906	-0,036	0,031
-346,679	800,000	-0,025	-0,066
-345,664	-33,417	-0,092	0,036
-344,650	33,132	-0,093	-0,057
-343,635	17,202	-0,078	-0,044
-342,620	-57,558	0,115	0,036
-341,606	48,474	0,068	0,045
-340,591	-123,304	-0,142	0,016
-339,577	371,276	0,011	0,016
-338,562	800,000	-0,038	0,110
-337,548	800,000	0,047	-0,103
-336,533	96,862	0,134	0,110
-335,518	478,237	0,092	0,148
-334,504	-90,578	-0,043	-0,009
-333,489	800,000	-0,016	0,032
-332,475	140,587	-0,202	-0,190
-331,460	800,000	0,020	-0,057
-330,445	-15,024	-0,059	0,027
-329,431	-92,285	0,154	0,031
-328,416	47,047	-0,146	0,097
-327,402	800,000	0,072	0,170
-326,387	341,635	0,070	0,098
-325,372	-1,896	-0,128	0,064
-324,358	-37,946	-0,066	-0,025
-323,343	800,000	-0,014	-0,034
-322,329	-200,000	-0,008	0,124
-321,314	-104,110	0,088	-0,015
-320,299	549,646	0,043	0,075
-319,285	621,155	-0,090	-0,162
-318,270	570,443	-0,056	-0,097
-317,256	800,000	-0,033	-0,087
-316,241	-200,000	-0,000	0,047
-315,226	83,691	0,055	-0,043
-314,212	-200,000	0,017	0,056
-313,197	-200,000	-0,023	0,081
-312,183	800,000	-0,025	0,062
-311,168	-152,816	-0,004	0,000
-310,153	90,970	0,102	0,081
-309,139	-200,000	0,009	0,048
-308,124	-200,000	-0,013	0,050
-307,110	346,903	0,060	0,085
-306,095	694,804	0,090	0,169
-305,080	800,000	-0,028	-0,070
-304,066	-200,000	0,008	-0,062
-303,051	-200,000	0,016	0,098
-302,037	-200,000	0,009	0,093
-301,022	367,760	0,096	-0,138
-300,008	48,892	0,151	0,101
-298,993	283,966	-0,101	0,129
-297,978	63,136	0,028	0,020
-296,964	561,543	0,025	0,044
-295,949	-91,743	-0,032	-0,006
-294,935	800,000	0,042	-0,092
-293,920	-200,000	0,017	0,144
-292,905	11,294	0,050	-0,027
-291,891	-144,653	0,176	0,011
-290,876	-163,820	0,108	0,004
-289,862	128,341	-0,020	-0,018
-288,847	59,971	-0,021	0,015
-287,832	-200,000	0,017	-0,059
-286,818	-8,537	0,097	-0,046
-285,803	-200,000	0,022	-0,106
-284,789	192,434	0,067	-0,072
-283,774	-121,802	0,041	-0,005
-282,759	-87,188	0,067	-0,014
-281,745	245,453	0,059	0,071
-280,730	800,000	-0,054	-0,111
-279,716	554,665	0,008	-0,013
-278,701	-200,000	0,012	0,142
-277,686	127,686	0,026	0,023
-276,672	101,677	0,047	-0,039
-275,657	-66,798	-0,143	0,040
-274,643	8,398	-0,075	-0,040
-273,628	-200,000	-0,041	-0,192
-272,613	-115,029	-0,096	-0,013
-271,599	316,397	-0,087	0,118
-270,584	800,000	0,073	-0,145
-269,570	-98,898	0,047	0,008
-268,555	-63,012	0,063	-0,018
-267,540	-200,000	0,005	0,103
-266,526	186,775	-0,032	0,034
-265,511	-200,000	-0,024	0,136
-264,497	-200,000	-0,013	-0,047
-263,482	-62,432	0,133	-0,039
-262,467	27,023	0,032	0,019
-261,453	-119,526	0,089	0,011
-260,438	369,649	0,045	0,065
-259,424	800,000	0,061	-0,186
-258,409	221,864	0,047	-0,054
-257,395	-111,465	-0,105	-0,015
-256,380	255,008	0,080	0,098
-255,365	365,688	-0,019	-0,028
-254,351	-98,946	0,029	0,005
-253,336	-200,000	0,007	-0,076
-252,322	800,000	-0,015	0,045
-251,307	41,114	-0,029	0,018
-250,292	800,000	0,029	-0,090
-249,278	38,463	-0,043	-0,027
-248,263	581,817	0,056	0,097
-247,249	121,185	0,044	0,039
-246,234	-152,490	0,170	0,009
-245,219	247,664	-0,040	0,048
-244,205	173,602	-0,071	-0,073
-243,190	-30,176	0,127	0,051
-242,176	343,558	-0,047	0,065
-241,161	53,407	-0,051	0,035
-240,146	-157,162	0,106	0,005
-239,132	800,000	0,060	0,165
-238,117	-200,000	-0,001	0,070
-237,103	800,000	0,025	-0,062
-236,088	52,217	0,105	-0,071
-235,073	237,159	0,088	0,104
-234,059	-64,398	0,144	-0,041
-233,044	-169,016	-0,071	0,002
-232,030	308,265	-0,033	-0,043
-231,015	-200,000	0,011	-0,132
-230,000	-71,618	0,237	0,062
-228,986	800,000	-0,073	0,150
-227,971	420,999	0,022	-0,033
-226,957	-200,000	0,009	0,036
-225,942	37,782	-0,137	0,086
-224,927	-200,000	0,007	0,071
-223,913	-87,366	-0,207	0,044
-222,898	-200,000	-0,001	-0,072
-221,884	-200,000	0,004	-0,055
-220,869	-200,000	0,009	-0,067
-219,855	-200,000	-0,023	0,073
-218,840	-95,687	-0,055	-0,010
-217,825	661,231	0,044	-0,081
-216,811	331,880	0,064	-0,087
-215,796	536,333	-0,022	-0,038
-214,782	187,399	-0,081	-0,086
-213,767	652,465	-0,052	-0,095
-212,752	460,893	0,053	0,084
-211,738	-200,000	-0,018	0,083
-210,723	487,069	0,040	0,066
-209,709	-65,544	-0,036	-0,010
-208,694	800,000	-0,043	-0,120
-207,679	635,297	0,046	-0,083
-206,665	-200,000	0,005	-0,039
-205,650	-200,000	0,005	0,047
-204,636	96,818	0,047	-0,038
-203,621	-200,000	0,018	0,076
-202,606	800,000	0,065	-0,149
-201,592	303,296	-0,060	-0,080
-200,577	-195,834	0,113	0,001
-199,563	-64,732	-0,039	-0,011
-198,548	-93,277	0,112	-0,022
-197,533	-200,000	0,019	0,163
-196,519	136,892	0,076	-0,070
-195,504	-24,615	-0,105	-0,044
-194,490	42,886	0,076	-0,049
-193,475	-107,692	-0,174	0,027
-192,460	0,545	0,029	-0,015
-191,446	-122,040	-0,170	-0,020
-190,431	254,579	0,064	0,078
-189,417	-200,000	0,010	0,138
-188,402	-200,000	0,002	-0,024
-187,387	85,556	-0,100	-0,078
-186,373	-2,771	-0,142	0,070
-185,358	67,522	0,082	-0,060
-184,344	-200,000	-0,018	0,075
-183,329	129,252	0,038	-0,034
-182,315	800,000	0,053	-0,109
-181,300	482,668	-0,017	-0,027
-180,285	-200,000	-0,025	-0,129
-179,271	-152,613	-0,130	0,006
-178,256	800,000	0,091	-0,193
-177,242	-17,504	0,176	0,078
-176,227	47,219	0,093	-0,062
-175,212	201,864	0,025	-0,027
-174,198	172,994	0,097	-0,099
-173,183	-91,026	-0,054	-0,011
-172,169	-200,000	-0,046	-0,153
-171,154	355,447	-0,068	-0,097
-170,139	137,694	0,024	-0,022
-169,125	-51,668	-0,119	-0,039
-168,110	59,723	-0,033	-0,023
-167,096	145,252	0,135	0,128
-166,081	-200,000	-0,030	-0,130
-165,066	687,437	-0,034	-0,063
-164,052	-22,409	-0,099	-0,042
-163,037	-117,981	0,082	0,010
-162,023	800,000	0,023	-0,062
-161,008	-200,000	0,003	0,052
-159,993	361,440	-0,087	0,124
-158,979	120,575	-0,082	-0,073
-157,964	103,991	-0,034	-0,029
-156,950	-200,000	0,032	0,190
-155,935	-50,775	0,039	-0,013
-154,920	137,653	-0,056	-0,052
-153,906	-116,411	-0,066	-0,009
-152,891	800,000	0,042	0,087
-151,877	674,609	0,020	0,037
-150,862	800,000	0,050	-0,104
-149,847	54,393	-0,136	0,092
-148,833	-200,000	-0,008	-0,063
-147,818	127,557	0,036	0,033
-146,804	315,733	-0,066	-0,089
-145,789	-200,000	-0,013	0,065
-144,775	182,209	-0,065	-0,067
-143,760	-200,000	0,011	-0,156
-142,745	-125,186	-0,090	0,010
-141,731	154,203	0,046	-0,045
-140,716	191,246	0,106	-0,113
-139,702	199,304	-0,033	0,036
-138,687	800,000	0,037	-0,075
-137,672	800,000	0,045	0,105
-136,658	-29,148	-0,150	-0,061
-135,643	-150,515	0,150	-0,008
-134,629	116,150	-0,077	-0,067
-133,614	271,060	0,049	-0,061
-132,599	29,893	-0,102	-0,061
-131,585	75,813	0,038	0,029
-130,570	42,933	-0,061	0,039
-129,556	-87,804	0,043	-0,009
-128,541	800,000	-0,063	-0,132
-127,526	-133,647	0,076	0,007
-126,512	-200,000	-0,040	-0,193
-125,497	651,192	0,140	0,255
-124,483	780,492	-0,048	0,094
-123,468	278,039	-0,025	0,032
-122,453	350,932	-0,037	0,051
-121,439	-200,000	0,013	0,044
-120,424	300,967	0,103	-0,135
-119,410	349,145	-0,058	-0,081
-118,395	85,191	-0,019	-0,015
-117,380	-31,126	0,057	0,023
-116,366	138,425	0,056	0,052
-115,351	-200,000	0,037	-0,145
-114,337	324,522	0,109	0,147
-113,322	347,534	-0,042	0,059
-112,307	49,774	-0,032	0,021
-111,293	315,586	0,075	0,101
-110,278	265,894	0,158	0,196
-109,264	349,841	-0,060	-0,084
-108,249	-36,375	-0,034	-0,013
-107,234	-200,000	0,029	0,097
-106,220	-200,000	0,000	-0,057
-105,205	701,935	0,049	0,091
-104,191	17,115	-0,113	-0,063
-103,176	-141,555	-0,021	-0,001
-102,162	97,117	0,026	-0,021
-101,147	26,229	-0,090	0,053
-100,132	800,000	0,012	0,032
-99,118	-55,028	-0,029	-0,009
-98,103	-200,000	0,015	0,157
-97,089	75,254	0,075	0,056
-96,074	586,342	0,032	-0,055
-95,059	182,684	-0,061	0,064
-94,045	-200,000	-0,006	0,060
-93,030	141,278	-0,076	-0,071
-92,016	431,041	-0,019	0,029
-91,001	217,387	0,004	0,004
-89,986	-200,000	0,020	0,107
-88,972	-200,000	0,009	0,089
-87,957	-68,233	0,105	-0,029
-86,943	-200,000	-0,008	0,091
-85,928	148,689	-0,119	-0,114
-84,913	-200,000	-0,020	-0,096
-83,899	163,720	0,067	-0,067
-82,884	124,420	0,038	-0,033
-81,870	131,942	-0,088	-0,080
-80,855	800,000	0,018	0,053
-79,840	-200,000	-0,001	0,099
-78,826	65,582	0,081	-0,058
-77,811	-182,503	-0,207	-0,003
-76,797	80,705	0,091	-0,069
-75,782	6,827	0,151	-0,079
-74,767	-200,000	0,035	0,115
-73,753	-42,537	-0,119	-0,043
-72,738	395,261	-0,042	0,062
-71,724	61,132	-0,104	0,073
-70,709	54,362	-0,076	-0,051
-69,694	-101,480	-0,164	-0,028
-68,680	-200,000	-0,022	0,136
-67,665	-200,000	-0,002	-0,033
-66,651	-104,106	0,047	-0,008
-65,636	206,343	-0,131	-0,144
-64,622	-56,588	-0,053	0,016
-63,607	444,251	-0,129	-0,201
-62,592	800,000	0,009	0,023
-61,578	-155,409	0,069	0,003
-60,563	219,426	-0,014	0,016
-59,549	388,553	-0,123	0,180
-58,534	50,229	-2,081	-1,385
-57,519	447,753	-1,178	-1,837
-56,505	-200,000	-0,499	-4,604
-55,490	322,983	0,987	1,331
-54,476	800,000	5,466	12,207
-53,461	-200,000	22,363	344,515
-52,446	800,000	758,486	2303,631
-51,432	535,646	1649,447	2771,963
-50,417	68,865	1647,766	1192,604
-49,403	16,201	1523,897	845,606
-48,388	10,334	1449,151	775,897
-47,373	19,202	1441,449	814,085
-46,359	13,788	1429,999	781,982
-45,344	8,675	1425,949	755,507
-44,330	8,622	1424,130	754,264
-43,315	8,596	1422,284	753,133
-42,300	8,621	1420,655	752,359
-41,286	8,604	1419,361	751,564
-40,271	8,571	1418,258	750,795
-39,257	8,636	1416,730	750,263
-38,242	8,650	1415,592	749,695
-37,227	8,579	1414,783	748,903
-36,213	8,601	1413,440	748,266
-35,198	8,640	1412,139	747,729
-34,184	8,629	1411,193	747,150
-33,169	8,576	1409,921	746,197
-32,154	8,603	1408,862	745,733
-31,140	8,586	1407,722	745,019
-30,125	8,609	1406,308	744,349
-29,111	8,580	1405,097	743,545
-28,096	8,566	1404,101	742,922
-27,082	8,500	1403,030	742,017
-26,067	8,494	1401,984	741,409
-25,052	8,546	1400,784	740,987
-24,038	8,492	1399,907	740,241
-23,023	8,554	1398,942	739,991
-22,009	8,552	1397,910	739,404
-20,994	8,532	1396,828	738,710
-19,979	8,537	1395,744	738,130
-18,965	8,521	1394,949	737,605
-17,950	8,468	1393,964	736,810
-16,936	8,467	1393,133	736,337
-15,921	8,423	1392,216	735,622
-14,906	8,445	1391,136	735,122
-13,892	8,472	1390,344	734,799
-12,877	8,523	1389,613	734,622
-11,863	8,468	1388,836	733,928
-10,848	8,432	1387,710	733,136
-9,833	8,390	1386,926	732,500
-8,819	8,370	1385,923	731,847
-7,804	8,349	1385,111	731,293
-6,790	8,395	1383,845	730,805
-5,775	8,382	1383,018	730,282
-4,760	8,359	1382,208	729,720
-3,746	8,405	1381,237	729,390
-2,731	8,379	1380,283	728,736
-1,717	8,389	1379,287	728,226
-0,702	8,371	1377,665	727,258
0,313	12,306	1288,647	698,154
1,327	28,061	680,309	403,841
2,342	43,673	117,134	75,442
3,356	-1,548	16,488	8,168
4,371	3,585	3,691	1,892
5,386	4,680	1,349	0,696
6,400	501,317	0,349	0,569
7,415	3,631	-0,183	-0,094
8,429	110,421	-0,212	-0,179
9,444	80,725	-0,283	-0,215
10,459	-102,138	-0,255	-0,043
11,473	109,536	-0,283	-0,239
12,488	-55,694	-0,148	-0,046
13,502	-1,562	-0,385	-0,191
14,517	-73,951	-0,354	-0,090
15,531	-30,021	-0,429	-0,171
16,546	-29,677	-0,388	-0,155
17,561	69,052	-0,436	-0,315
18,575	-193,806	-0,279	-0,002
19,590	746,973	-0,150	-0,287
20,604	-40,246	-0,336	-0,123
21,619	30,120	-0,439	-0,263
22,634	130,338	-0,327	-0,295
23,648	59,429	-0,529	-0,366
24,663	83,091	-0,432	-0,331
25,677	138,415	-0,321	-0,297
26,692	30,889	-0,346	-0,208
27,707	72,268	-0,265	-0,194
28,721	-10,339	-0,398	-0,185
29,736	56,956	-0,405	-0,277
30,750	-11,217	-0,451	-0,208
31,765	192,705	-0,348	-0,370
32,780	47,886	-0,239	-0,156
33,794	23,744	-0,324	-0,187
34,809	101,991	-0,309	-0,253
35,823	58,361	-0,380	-0,262
36,838	61,711	-0,382	-0,267
37,853	67,498	-0,381	-0,273
38,867	59,846	-0,427	-0,296
39,882	238,932	-0,274	-0,320
40,896	232,457	-0,190	-0,220
41,911	14,078	-0,264	-0,144
42,926	282,055	-0,288	-0,364
43,940	108,862	-0,414	-0,348
44,955	29,429	-0,424	-0,253
45,969	84,538	-0,290	-0,222
46,984	186,524	-0,173	-0,181
47,999	108,599	-0,222	-0,186
49,013	138,692	-0,329	-0,303
50,028	49,467	-0,355	-0,234
51,042	24,617	-0,299	-0,174
52,057	43,052	-0,359	-0,230
53,071	100,221	-0,315	-0,256
54,086	65,878	-0,306	-0,218
55,101	5,252	-0,351	-0,181
56,115	-82,264	-0,455	-0,103
57,130	47,871	-0,218	-0,143
58,144	104,163	-0,436	-0,360
59,159	76,603	-0,350	-0,260
60,174	143,299	-0,363	-0,339
61,188	120,359	-0,284	-0,248
62,203	-55,053	-0,436	-0,137
63,217	13,794	-0,358	-0,195
64,232	159,891	-0,240	-0,235
65,247	567,822	-0,225	-0,385
66,261	-18,979	-0,360	-0,156
67,276	57,582	-0,391	-0,268
68,290	-117,747	-0,430	-0,054
69,305	58,299	-0,259	-0,178
70,320	-73,064	-0,378	-0,097
71,334	-24,625	-0,365	-0,151
72,349	-4,322	-0,308	-0,149
73,363	378,219	-0,110	-0,158
74,378	90,124	-0,444	-0,348
75,393	64,604	-0,231	-0,163
76,407	-56,390	-0,204	-0,063
77,422	-80,264	-0,373	-0,087
78,436	119,970	-0,196	-0,170
79,451	84,850	-0,286	-0,219
80,466	93,760	-0,324	-0,257
81,480	-31,937	-0,411	-0,160
82,495	-43,051	-0,342	-0,121
83,509	0,862	-0,174	-0,087
84,524	155,681	-0,187	-0,180
85,539	-32,556	-0,296	-0,115
86,553	228,642	-0,186	-0,213
87,568	332,486	-0,237	-0,321
88,582	176,538	-0,215	-0,219
89,597	124,109	-0,336	-0,295
90,611	335,762	-0,211	-0,287
91,626	111,255	-0,285	-0,240
92,641	373,303	-0,140	-0,199
93,655	137,244	-0,271	-0,248
94,670	11,271	-0,290	-0,155
95,684	96,909	-0,307	-0,246
96,699	48,087	-0,352	-0,230
97,714	242,851	-0,157	-0,184
98,728	49,277	-0,081	-0,053
99,743	54,266	-0,202	-0,136
100,757	-43,288	-0,223	-0,079
101,772	162,687	-0,287	-0,281
102,787	118,606	-0,186	-0,160
103,801	3,665	-0,316	-0,161
104,816	8,079	-0,340	-0,178
105,830	-27,785	-0,275	-0,111
106,845	119,517	-0,283	-0,245
107,860	60,365	-0,381	-0,263
108,874	110,657	-0,220	-0,185
109,889	202,007	-0,209	-0,225
110,903	132,596	-0,298	-0,269
111,918	77,882	-0,206	-0,153
112,933	21,088	-0,317	-0,179
113,947	134,430	-0,185	-0,168
114,962	-16,094	-0,277	-0,123
115,976	-25,385	-0,304	-0,125
116,991	39,860	-0,223	-0,140
118,006	78,517	-0,407	-0,303
119,020	-12,504	-0,139	-0,063
120,035	98,733	-0,236	-0,190
121,049	-143,201	-0,211	-0,014
122,064	-106,966	-0,188	-0,029
123,079	-10,671	-0,247	-0,114
124,093	97,386	-0,280	-0,224
125,108	18,771	-0,347	-0,193
126,122	353,310	-0,228	-0,316
127,137	90,318	-0,255	-0,199
128,151	7,268	-0,228	-0,118
129,166	-72,660	-0,295	-0,075
130,181	196,170	-0,274	-0,291
131,195	-68,534	-0,321	-0,086
132,210	188,302	-0,250	-0,261
133,224	85,887	-0,327	-0,250
134,239	72,799	-0,245	-0,178
135,254	40,775	-0,254	-0,159
136,268	58,415	-0,204	-0,139
137,283	86,536	-0,259	-0,199
138,297	241,364	-0,167	-0,195
139,312	-76,416	-0,282	-0,068
140,327	127,751	-0,209	-0,185
141,341	-97,402	-0,251	-0,045
142,356	179,755	-0,160	-0,163
143,370	155,153	-0,165	-0,158
144,385	67,619	-0,267	-0,190
145,400	105,231	-0,294	-0,242
146,414	474,072	-0,156	-0,245
147,429	166,725	-0,214	-0,212
148,443	49,219	-0,251	-0,164
149,458	188,349	-0,139	-0,145
150,473	-5,337	-0,091	-0,043
151,487	-47,522	-0,215	-0,072
152,502	-125,304	-0,221	-0,023
153,516	654,691	-0,232	-0,416
154,531	310,887	-0,218	-0,285
155,546	211,412	-0,202	-0,222
156,560	-200,000	-0,066	-0,206
157,575	97,356	-0,175	-0,140
158,589	-19,824	-0,241	-0,103
159,604	640,216	-0,148	-0,263
160,619	159,304	-0,189	-0,183
161,633	494,317	-0,228	-0,366
162,648	236,244	-0,234	-0,269
163,662	99,103	-0,145	-0,116
164,677	160,819	-0,244	-0,237
165,692	14,398	-0,226	-0,122
166,706	-140,810	-0,281	-0,020
167,721	-61,901	-0,250	-0,072
168,735	136,462	-0,210	-0,191
169,750	119,970	-0,161	-0,138
170,764	112,249	-0,218	-0,183
171,779	270,151	-0,222	-0,272
172,794	-35,391	-0,264	-0,099
173,808	75,045	-0,212	-0,155
174,823	-19,324	-0,216	-0,093
175,837	-93,927	-0,387	-0,073
176,852	-200,000	-0,016	-0,074
177,867	267,795	-0,141	-0,171
178,881	239,088	-0,154	-0,178
179,896	53,840	-0,223	-0,148
180,910	42,101	-0,303	-0,190
181,925	34,687	-0,265	-0,160
182,940	304,343	-0,197	-0,254
183,954	-3,463	-0,237	-0,114
184,969	800,000	-0,083	-0,186
185,983	-61,263	-0,175	-0,051
186,998	12,628	-0,202	-0,108
188,013	-101,090	-0,248	-0,042
189,027	240,479	-0,239	-0,277
190,042	800,000	-0,052	-0,121
191,056	160,885	-0,222	-0,215
192,071	106,184	-0,165	-0,135
193,086	25,713	-0,260	-0,150
194,100	800,000	-0,037	-0,077
195,115	-22,072	-0,259	-0,109
196,129	-14,862	-0,144	-0,064
197,144	181,318	-0,187	-0,191
198,159	135,500	-0,275	-0,248
199,173	22,622	-0,207	-0,117
200,188	127,426	-0,164	-0,145
201,202	155,150	-0,135	-0,129
202,217	-17,671	-0,219	-0,095
203,232	168,859	-0,143	-0,141
204,246	-69,369	-0,228	-0,060
205,261	-55,557	-0,157	-0,048
206,275	-103,147	-0,301	-0,049
207,290	299,944	-0,122	-0,156
208,304	227,888	-0,145	-0,164
209,319	82,186	-0,163	-0,123
210,334	259,867	-0,210	-0,252
211,348	7,639	-0,229	-0,118
212,363	-36,531	-0,268	-0,099
213,377	800,000	-0,098	-0,223
214,392	64,819	-0,201	-0,140
215,407	97,361	-0,100	0,080
216,421	-121,042	-0,247	0,028
217,436	-51,105	-0,248	-0,080
218,450	79,746	-0,219	-0,163
219,465	35,544	-0,252	-0,153
220,480	-0,091	-0,201	-0,099
221,494	23,628	-0,215	-0,122
222,509	5,481	-0,169	-0,086
223,523	69,546	-0,232	-0,165
224,538	314,728	-0,195	-0,255
225,553	640,040	-0,147	-0,260
226,567	16,480	-0,222	-0,121
227,582	6,976	-0,174	-0,089
228,596	800,000	-0,109	-0,243
229,611	120,781	-0,212	-0,183
230,626	234,171	-0,154	-0,176
231,640	231,343	-0,104	-0,118
232,655	524,290	-0,175	-0,286
233,669	-15,803	-0,298	-0,131
234,684	199,077	-0,218	-0,231
235,699	627,718	-0,107	-0,188
236,713	644,359	-0,086	-0,152
237,728	-43,914	-0,145	-0,050
238,742	-77,348	-0,139	0,033
239,757	267,755	-0,191	-0,232
240,772	297,517	-0,086	-0,110
241,786	186,118	-0,214	-0,220
242,801	-20,852	-0,198	-0,083
243,815	403,249	-0,046	-0,067
244,830	-149,959	-0,116	0,006
245,844	6,612	-0,203	-0,104
246,859	299,205	-0,160	-0,204
247,874	7,058	-0,176	-0,090
248,888	800,000	-0,054	-0,109
249,903	799,108	-0,124	-0,237
250,917	-125,861	-0,185	-0,019
251,932	15,450	-0,239	-0,129
252,947	357,349	-0,103	-0,143
253,961	223,299	-0,213	-0,238
254,976	588,212	-0,180	-0,308
255,990	205,787	-0,141	-0,151
257,005	-19,557	-0,239	-0,102
258,020	43,631	-0,093	-0,058
259,034	800,000	-0,060	-0,138
260,049	746,029	-0,088	-0,164
261,063	101,501	-0,142	-0,114
262,078	-34,378	-0,243	-0,091
263,093	235,419	-0,138	-0,157
264,107	800,000	-0,074	-0,188
265,122	-73,144	-0,131	0,033
266,136	62,393	-0,184	-0,126
267,151	-104,254	-0,240	-0,038
268,166	-63,207	-0,264	-0,075
269,180	-126,741	-0,164	-0,016
270,195	108,734	-0,225	-0,185
271,209	155,507	-0,132	-0,125
272,224	44,578	-0,100	-0,063
273,239	-200,000	-0,029	-0,110
274,253	-111,292	-0,222	0,031
275,268	32,518	-0,281	-0,167
276,282	-200,000	-0,014	-0,151
277,297	258,430	-0,164	-0,195
278,312	158,898	-0,054	-0,052
279,326	265,655	-0,095	-0,114
280,341	291,370	-0,107	-0,135
281,355	64,292	-0,061	-0,042
282,370	-41,209	-0,121	0,043
283,384	-71,387	-0,209	-0,053
284,399	-89,857	-0,296	0,059
285,414	175,211	-0,140	-0,139
286,428	229,792	-0,154	-0,173
287,443	-130,915	-0,175	-0,016
288,457	38,981	-0,035	-0,022
289,472	57,673	-0,167	-0,112
290,487	166,429	-0,116	-0,113
291,501	-68,209	-0,212	-0,056
292,516	-27,645	-0,160	-0,064
293,530	800,000	0,035	-0,075
294,545	180,144	-0,026	-0,026
295,560	-104,772	-0,274	-0,043
296,574	66,868	-0,137	-0,096
297,589	-169,746	-0,241	-0,006
298,603	47,781	-0,125	-0,080
299,618	337,141	-0,097	-0,129
300,633	612,164	0,017	-0,030
301,647	800,000	-0,084	-0,191
302,662	222,642	-0,111	-0,123
303,676	73,548	-0,126	-0,091
304,691	-36,734	-0,122	-0,045
305,706	191,704	-0,162	-0,168
306,720	-26,759	-0,213	-0,085
307,735	-38,596	-0,187	-0,067
308,749	-6,181	-0,164	0,076
309,764	-200,000	-0,029	0,098
310,779	-82,741	-0,205	0,045
311,793	66,850	-0,138	-0,096
312,808	-57,403	-0,144	-0,043
313,822	-78,918	-0,233	-0,054
314,837	22,849	-0,124	0,069
315,852	68,878	-0,149	-0,105
316,866	548,183	0,062	-0,103
317,881	-118,591	-0,148	-0,018
318,895	-58,625	-0,195	-0,058
319,910	370,697	-0,078	-0,109
320,925	58,718	-0,224	-0,150
321,939	32,850	-0,178	-0,105
322,954	800,000	-0,039	0,101
323,968	14,727	-0,175	-0,094
324,983	280,003	-0,088	-0,108
325,997	-165,170	-0,212	-0,006
327,012	-1,550	-0,109	0,052
328,027	0,017	-0,125	-0,061
329,041	216,989	-0,110	-0,120
330,056	-80,823	-0,138	-0,031
331,070	24,754	-0,072	0,041
332,085	42,366	-0,145	-0,090
333,100	423,077	-0,131	-0,193
334,114	800,000	-0,074	-0,189
335,129	50,858	-0,178	-0,115
336,143	800,000	-0,057	-0,141
337,158	436,478	-0,109	-0,163
338,173	182,451	-0,075	-0,076
339,187	244,012	0,056	-0,064
340,202	108,371	-0,087	-0,071
341,216	-58,822	-0,127	-0,037
342,231	359,602	-0,112	-0,154
343,246	225,980	-0,188	-0,209
344,260	635,546	-0,086	-0,150
345,275	153,387	-0,103	-0,097
346,289	800,000	-0,063	-0,126
347,304	-200,000	0,006	-0,113
348,319	-7,895	-0,113	-0,052
349,333	800,000	-0,081	-0,181
350,348	-200,000	-0,023	-0,085
351,362	-116,496	-0,119	0,015
352,377	455,291	-0,137	-0,208
353,392	205,658	0,091	-0,097
354,406	-109,941	-0,178	-0,025
355,421	206,752	1312,177	1399,483
356,435	159,019	1472,539	1399,933
