DTS Sentinel unit serial number:	SN410029Multiplexer serial number:	ORYXHardware model number:	OX2-SRSoftware version number:	ORYX F/W v4,00 Oryx Data Collector v3.7.2.0data status	okinstallation	B3 Nyhavnadifferential loss correction	single-endedforward channel	channel 1reverse channel	N/Adate	2023/12/03time	13:57:30forward acquisition time	300,00reverse acquisition time	0,00gamma	499,1914k internal	0,3199k external	0,3199temperature offset calibration	1,0000default loss term (dB/km)	0,3820temperature slope calibration	1,0000multiplexer offset coefficient	1,0000multiplexer slope coefficient	1,0000fibre end	0,00T internal ref (°C)	15,48T ext. ref 1 (°C)	1,56T ext. ref 2 (°C)	1,55length (m)	temperature (°C)	Stokes	anti-Stokes-744,400	327,233	-0,223	-0,312
-743,385	-200,000	-0,003	0,364
-742,371	800,000	-0,042	-0,101
-741,356	-200,000	0,015	0,291
-740,342	-161,905	-0,265	-0,010
-739,327	-200,000	0,069	0,358
-738,312	502,653	-0,201	-0,339
-737,298	-200,000	0,051	0,178
-736,283	800,000	-0,085	-0,239
-735,269	-200,000	0,010	0,230
-734,254	-13,939	-0,202	-0,095
-733,239	2,817	-0,212	0,111
-732,225	758,173	-0,201	-0,397
-731,210	80,893	-0,087	0,068
-730,196	-71,504	-0,122	0,033
-729,181	800,000	-0,062	-0,163
-728,167	105,367	-0,072	0,062
-727,152	24,651	0,150	0,090
-726,137	-48,730	-0,064	0,022
-725,123	210,515	-0,058	-0,067
-724,108	165,829	-0,020	-0,020
-723,094	-200,000	-0,019	-0,073
-722,079	-22,431	-0,181	-0,080
-721,064	800,000	0,050	0,134
-720,050	499,614	-0,042	0,070
-719,035	52,397	-0,149	-0,104
-718,021	-200,000	-0,030	-0,128
-717,006	116,996	-0,098	-0,087
-715,991	109,013	-0,086	0,075
-714,977	617,017	0,071	-0,130
-713,962	-175,483	-0,135	0,003
-712,948	-199,516	-0,078	-0,000
-711,933	19,891	-0,007	0,004
-710,918	-200,000	0,002	-0,046
-709,904	23,065	-0,075	0,045
-708,889	-41,490	-0,132	0,049
-707,875	-85,674	0,101	0,023
-706,860	-200,000	-0,017	-0,102
-705,845	-58,423	-0,128	-0,040
-704,831	800,000	0,015	0,031
-703,816	151,184	-0,067	-0,066
-702,802	-166,551	0,097	-0,003
-701,787	-200,000	-0,009	-0,045
-700,772	-200,000	-0,008	-0,055
-699,758	-87,171	0,057	0,013
-698,743	89,416	-0,052	0,042
-697,729	26,221	0,024	0,014
-696,714	163,921	0,101	-0,104
-695,699	-162,652	-0,118	0,004
-694,685	315,053	0,027	0,037
-693,670	-112,948	0,086	-0,012
-692,656	-93,169	0,068	-0,014
-691,641	214,781	-0,007	-0,008
-690,627	-84,479	0,037	0,008
-689,612	415,859	0,034	0,053
-688,597	82,321	0,119	-0,093
-687,583	-10,896	-0,056	-0,027
-686,568	326,392	0,065	-0,091
-685,554	198,488	-0,074	-0,083
-684,539	-173,438	0,042	0,001
-683,524	24,073	-0,122	0,073
-682,510	-200,000	0,016	0,064
-681,495	-200,000	-0,021	-0,090
-680,481	800,000	0,050	-0,114
-679,466	103,847	-0,061	-0,052
-678,451	-72,567	-0,102	-0,027
-677,437	92,566	-0,069	-0,057
-676,422	-67,346	0,069	0,020
-675,408	453,992	-0,104	-0,168
-674,393	248,394	-0,040	-0,049
-673,378	162,302	-0,056	-0,057
-672,364	-200,000	-0,058	0,000
-671,349	-16,046	0,058	-0,027
-670,335	155,009	0,060	-0,060
-669,320	168,822	0,045	-0,047
-668,305	697,450	-0,063	0,120
-667,291	-136,680	-0,146	-0,012
-666,276	12,973	-0,025	-0,014
-665,262	-32,608	-0,040	0,016
-664,247	-112,718	-0,092	-0,013
-663,232	712,683	-0,039	0,076
-662,218	800,000	-0,031	-0,067
-661,203	239,461	0,124	0,150
-660,189	249,670	-0,073	-0,090
-659,174	206,933	-0,005	-0,006
-658,159	157,930	-0,036	-0,036
-657,145	-23,299	-0,094	0,041
-656,130	94,696	0,095	-0,078
-655,116	-82,834	0,103	-0,024
-654,101	56,578	-0,079	0,056
-653,086	800,000	-0,049	0,136
-652,072	112,643	0,056	-0,049
-651,057	-26,855	-0,159	0,067
-650,043	144,363	0,102	-0,099
-649,028	62,855	-0,072	-0,052
-648,014	-11,447	0,113	0,054
-646,999	-200,000	0,068	-0,226
-645,984	3,735	0,039	-0,020
-644,970	-200,000	0,057	-0,276
-643,955	597,921	0,021	-0,038
-642,941	-200,000	0,001	-0,204
-641,926	190,986	0,062	0,068
-640,911	79,767	0,123	0,096
-639,897	-200,000	-0,031	0,176
-638,882	-6,397	0,105	-0,052
-637,868	29,760	-0,041	-0,025
-636,853	-155,071	-0,151	0,007
-635,838	-200,000	-0,004	-0,026
-634,824	-200,000	-0,063	0,228
-633,809	103,879	-0,011	0,009
-632,795	-10,075	0,044	-0,021
-631,780	502,945	0,043	0,073
-630,765	-22,879	0,056	-0,024
-629,751	508,002	-0,088	-0,149
-628,736	-200,000	0,009	-0,084
-627,722	169,930	0,021	-0,022
-626,707	-132,364	-0,134	-0,012
-625,692	-200,000	0,002	0,015
-624,678	97,292	0,084	-0,070
-623,663	20,678	-0,132	0,077
-622,649	800,000	-0,016	-0,049
-621,634	-200,000	0,006	-0,048
-620,619	-120,063	-0,072	-0,009
-619,605	-200,000	-0,038	0,137
-618,590	800,000	0,025	0,077
-617,576	-200,000	-0,014	-0,081
-616,561	208,378	0,068	-0,078
-615,546	17,959	0,078	-0,045
-614,532	215,108	0,031	-0,035
-613,517	164,601	-0,073	-0,075
-612,503	33,952	-0,057	0,036
-611,488	-200,000	0,006	-0,073
-610,474	234,794	-0,049	0,059
-609,459	81,264	0,046	-0,036
-608,444	-149,571	0,050	0,003
-607,430	263,800	-0,013	-0,016
-606,415	-35,601	-0,111	-0,043
-605,401	666,894	0,083	-0,155
-604,386	39,931	0,072	0,047
-603,371	800,000	-0,077	0,157
-602,357	15,419	0,120	0,068
-601,342	12,715	-0,033	0,018
-600,328	85,970	0,077	-0,062
-599,313	-66,434	0,049	-0,014
-598,298	-200,000	0,038	-0,179
-597,284	-115,301	0,071	0,010
-596,269	231,638	-0,117	0,139
-595,255	246,283	0,061	-0,075
-594,240	-200,000	-0,008	0,046
-593,225	-200,000	-0,005	0,069
-592,211	147,050	-0,091	0,088
-591,196	-200,000	-0,011	-0,072
-590,182	152,093	0,027	-0,026
-589,167	-88,526	0,128	0,027
-588,152	4,188	-0,033	0,018
-587,138	-152,681	0,031	0,002
-586,123	433,855	-0,063	-0,100
-585,109	186,761	-0,054	-0,058
-584,094	-99,619	-0,027	-0,005
-583,079	684,755	-0,062	-0,118
-582,065	52,487	0,155	0,107
-581,050	-200,000	0,019	-0,062
-580,036	-200,000	-0,034	0,113
-579,021	117,688	-0,034	-0,031
-578,006	195,733	-0,053	0,059
-576,992	72,999	0,108	-0,081
-575,977	-62,327	0,177	0,053
-574,963	800,000	0,090	0,200
-573,948	-200,000	0,007	-0,070
-572,934	-144,980	-0,039	0,003
-571,919	476,005	-0,083	-0,136
-570,904	800,000	-0,035	-0,092
-569,890	264,083	0,006	0,007
-568,875	800,000	-0,044	-0,091
-567,861	510,005	-0,047	0,079
-566,846	177,320	-0,060	0,063
-565,831	41,938	0,059	0,038
-564,817	510,678	0,047	-0,080
-563,802	-200,000	0,023	0,097
-562,788	-200,000	0,019	0,129
-561,773	203,493	-0,060	0,067
-560,758	800,000	0,003	0,007
-559,744	800,000	0,012	0,026
-558,729	-100,441	-0,067	0,012
-557,715	-200,000	0,000	0,059
-556,700	-111,985	-0,074	0,011
-555,685	-41,139	-0,047	-0,017
-554,671	229,903	0,075	0,089
-553,656	7,991	0,085	0,046
-552,642	54,510	-0,118	0,082
-551,627	800,000	-0,029	-0,066
-550,612	255,870	-0,055	0,069
-549,598	89,971	-0,044	0,036
-548,583	-132,745	-0,113	-0,010
-547,569	-38,921	-0,159	0,060
-546,554	800,000	0,018	0,045
-545,539	36,396	0,085	0,054
-544,525	211,584	0,097	0,110
-543,510	-200,000	0,014	-0,081
-542,496	-51,101	0,102	-0,034
-541,481	149,416	0,030	-0,030
-540,466	117,387	-0,043	-0,039
-539,452	-45,701	0,049	-0,017
-538,437	-83,886	-0,074	0,017
-537,423	279,894	0,013	-0,017
-536,408	-172,982	0,101	0,002
-535,393	-200,000	0,000	-0,020
-534,379	435,083	0,050	-0,078
-533,364	676,369	-0,063	-0,119
-532,350	490,780	0,067	0,111
-531,335	389,329	0,052	0,078
-530,321	86,983	0,095	0,076
-529,306	19,857	-0,025	0,015
-528,291	-97,247	0,058	-0,011
-527,277	-23,546	0,084	-0,036
-526,262	-200,000	-0,025	-0,107
-525,248	-200,000	0,022	-0,130
-524,233	-129,498	0,120	-0,012
-523,218	461,798	0,037	0,059
-522,204	-200,000	-0,038	-0,190
-521,189	-42,746	-0,102	-0,037
-520,175	-14,608	-0,062	-0,028
-519,160	-83,638	0,126	0,029
-518,145	800,000	0,035	-0,083
-517,131	-7,511	0,061	0,030
-516,116	-200,000	0,013	0,081
-515,102	-66,459	-0,060	-0,017
-514,087	-154,843	-0,087	-0,004
-513,072	176,420	-0,093	-0,098
-512,058	800,000	-0,027	0,057
-511,043	395,288	-0,065	0,098
-510,029	222,370	0,130	0,151
-509,014	-16,740	0,131	0,059
-507,999	-66,131	0,044	-0,013
-506,985	51,352	0,110	0,075
-505,970	285,343	-0,058	-0,075
-504,956	66,713	-0,056	0,041
-503,941	-106,720	-0,115	-0,018
-502,926	210,233	0,081	0,092
-501,912	617,563	0,032	0,059
-500,897	724,250	0,102	0,197
-499,883	592,490	-0,033	-0,060
-498,868	-105,310	-0,146	-0,024
-497,853	56,167	-0,123	-0,086
-496,839	6,228	-0,057	-0,031
-495,824	-94,401	-0,051	0,010
-494,810	46,461	-0,059	0,039
-493,795	723,014	0,026	-0,050
-492,781	-200,000	0,001	-0,084
-491,766	-32,746	-0,124	-0,050
-490,751	89,103	-0,100	-0,080
-489,737	193,892	0,145	-0,158
-488,722	800,000	-0,045	0,100
-487,708	66,289	0,057	-0,041
-486,693	-89,457	0,106	0,022
-485,678	-200,000	-0,006	-0,070
-484,664	66,256	-0,107	0,078
-483,649	-71,750	-0,151	-0,040
-482,635	-200,000	-0,001	0,025
-481,620	224,183	0,077	0,090
-480,605	-78,147	0,118	-0,029
-479,591	800,000	0,028	0,057
-478,576	-15,040	-0,037	-0,017
-477,562	-56,372	-0,058	0,018
-476,547	800,000	-0,049	-0,139
-475,532	311,800	-0,060	0,082
-474,518	491,469	-0,033	0,054
-473,503	63,141	0,057	-0,041
-472,489	-83,777	0,073	0,017
-471,474	-51,575	-0,145	-0,049
-470,459	114,062	0,077	-0,067
-469,445	222,221	-0,076	-0,088
-468,430	-113,258	-0,040	-0,006
-467,416	-20,565	0,169	-0,074
-466,401	67,498	-0,051	0,037
-465,386	-200,000	-0,007	-0,029
-464,372	124,764	0,035	0,032
-463,357	390,207	-0,073	0,109
-462,343	642,359	-0,043	-0,079
-461,328	543,786	0,039	0,068
-460,313	-91,891	0,026	-0,005
-459,299	-72,290	-0,056	0,015
-458,284	26,331	0,043	-0,026
-457,270	260,680	-0,069	-0,085
-456,255	586,937	-0,068	-0,120
-455,241	800,000	-0,038	-0,079
-454,226	-57,579	-0,088	-0,028
-453,211	-200,000	-0,004	-0,100
-452,197	-87,355	0,035	0,008
-451,182	496,524	0,095	-0,158
-450,168	246,555	-0,032	0,038
-449,153	206,380	-0,076	-0,086
-448,138	-200,000	0,040	-0,189
-447,124	515,271	0,095	0,159
-446,109	-157,559	0,152	-0,006
-445,095	800,000	0,014	-0,044
-444,080	-166,316	0,090	-0,003
-443,065	239,091	0,069	0,083
-442,051	326,315	0,125	0,172
-441,036	49,983	0,043	-0,029
-440,022	343,130	0,005	0,007
-439,007	248,584	0,108	-0,131
-437,992	602,562	0,024	0,043
-436,978	-180,040	0,041	-0,001
-435,963	302,733	0,083	0,110
-434,949	800,000	0,064	0,194
-433,934	-86,339	-0,229	-0,050
-432,919	24,218	-0,122	-0,073
-431,905	-200,000	-0,016	-0,089
-430,890	-68,722	-0,066	0,018
-429,876	-72,694	0,122	0,032
-428,861	427,559	0,092	-0,143
-427,846	-7,065	-0,066	-0,032
-426,832	-31,200	-0,086	-0,035
-425,817	-104,527	-0,094	-0,016
-424,803	800,000	-0,073	0,161
-423,788	-99,500	0,071	0,013
-422,773	-200,000	-0,001	0,037
-421,759	-70,240	0,163	0,044
-420,744	-200,000	-0,025	-0,086
-419,730	800,000	0,029	-0,063
-418,715	172,398	0,087	-0,090
-417,701	12,515	-0,063	-0,035
-416,686	-73,510	-0,068	-0,018
-415,671	-109,326	0,119	-0,018
-414,657	-97,216	0,047	0,009
-413,642	800,000	-0,048	0,131
-412,628	-27,420	-0,067	0,028
-411,613	800,000	-0,059	-0,138
-410,598	149,497	0,065	-0,063
-409,584	181,561	-0,014	-0,015
-408,569	800,000	0,026	-0,079
-407,555	800,000	0,024	0,051
-406,540	-200,000	-0,024	0,169
-405,525	171,792	0,041	0,042
-404,511	65,534	0,033	0,024
-403,496	675,861	0,028	-0,053
-402,482	342,433	0,083	0,117
-401,467	-0,942	0,062	-0,031
-400,452	-200,000	0,012	0,170
-399,438	-200,000	0,017	0,146
-398,423	-200,000	-0,007	-0,054
-397,409	-200,000	0,009	0,027
-396,394	-45,234	0,045	-0,016
-395,379	-55,521	0,028	-0,009
-394,365	66,442	0,096	0,070
-393,350	132,539	-0,091	0,084
-392,336	800,000	-0,044	0,116
-391,321	-84,677	0,058	0,013
-390,306	-200,000	-0,003	0,023
-389,292	317,096	0,070	-0,096
-388,277	-119,007	0,108	0,013
-387,263	-19,392	0,074	0,033
-386,248	-26,081	0,082	0,035
-385,233	800,000	0,001	-0,002
-384,219	-187,643	-0,121	0,001
-383,204	-200,000	-0,010	0,063
-382,190	-200,000	-0,002	0,015
-381,175	356,873	0,092	-0,133
-380,160	-200,000	0,010	0,069
-379,146	-100,951	0,064	0,011
-378,131	-9,682	0,079	0,038
-377,117	381,795	0,077	0,113
-376,102	348,423	-0,023	0,033
-375,088	7,791	-0,125	-0,067
-374,073	-200,000	0,002	-0,121
-373,058	-74,184	0,081	-0,021
-372,044	369,689	0,081	0,118
-371,029	-43,365	0,028	0,010
-370,015	-102,477	-0,030	0,005
-369,000	-49,866	-0,025	0,008
-367,985	-200,000	0,022	-0,097
-366,971	-200,000	0,045	0,000
-365,956	-13,299	-0,014	-0,006
-364,942	-31,796	-0,085	0,034
-363,927	-130,281	0,096	-0,009
-362,912	-200,000	0,069	-0,228
-361,898	-37,669	0,079	0,030
-360,883	475,207	-0,067	-0,109
-359,869	662,476	0,029	-0,053
-358,854	-139,675	-0,018	0,001
-357,839	800,000	-0,019	-0,039
-356,825	-200,000	-0,004	0,103
-355,810	675,143	-0,042	0,079
-354,796	-200,000	-0,014	0,060
-353,781	-77,672	0,084	-0,021
-352,766	800,000	-0,013	-0,028
-351,752	100,259	0,089	-0,074
-350,737	-60,414	0,035	0,011
-349,723	-200,000	0,017	-0,085
-348,708	-200,000	-0,007	0,068
-347,693	-0,945	0,047	-0,024
-346,679	-119,811	0,113	-0,014
-345,664	739,826	0,018	0,036
-344,650	195,146	-0,004	-0,005
-343,635	78,084	0,048	0,036
-342,620	162,098	-0,079	-0,079
-341,606	800,000	0,034	0,107
-340,591	303,893	-0,088	-0,118
-339,577	-200,000	-0,015	-0,118
-338,562	-200,000	0,002	-0,006
-337,548	95,006	-0,085	-0,069
-336,533	-36,302	0,050	-0,019
-335,518	179,075	-0,028	0,030
-334,504	-158,230	-0,043	0,002
-333,489	800,000	0,014	-0,035
-332,475	270,501	-0,035	0,044
-331,460	-200,000	0,001	-0,073
-330,445	613,094	0,078	0,141
-329,431	-85,897	-0,141	-0,031
-328,416	800,000	-0,020	-0,058
-327,402	156,801	-0,014	0,014
-326,387	291,064	-0,053	-0,070
-325,372	-64,115	-0,062	0,018
-324,358	-200,000	0,016	-0,076
-323,343	-162,829	-0,134	0,005
-322,329	-164,577	0,028	0,001
-321,314	99,130	0,064	0,053
-320,299	-200,000	-0,022	0,078
-319,285	207,494	0,122	-0,137
-318,270	34,394	0,043	0,027
-317,256	800,000	0,057	-0,138
-316,241	238,960	-0,065	0,077
-315,226	-1,098	-0,074	0,037
-314,212	26,622	-0,088	0,053
-313,197	40,454	0,107	0,069
-312,183	-200,000	0,006	-0,203
-311,168	-85,211	0,054	0,012
-310,153	800,000	-0,038	-0,110
-309,139	-16,132	-0,103	0,047
-308,124	-200,000	0,028	-0,131
-307,110	-106,243	-0,142	0,022
-306,095	-106,715	0,187	-0,029
-305,080	-200,000	0,002	0,095
-304,066	-92,094	-0,145	-0,029
-303,051	-200,000	-0,006	0,022
-302,037	-89,180	-0,051	0,011
-301,022	9,711	-0,039	-0,021
-300,008	76,372	-0,036	0,027
-298,993	-85,851	0,132	-0,029
-297,978	800,000	0,066	0,185
-296,964	-47,060	0,020	0,007
-295,949	278,785	-0,030	-0,039
-294,935	370,498	-0,045	-0,066
-293,920	-71,564	0,053	-0,014
-292,905	-200,000	0,006	0,039
-291,891	319,133	-0,067	-0,091
-290,876	-200,000	0,018	0,068
-289,862	124,661	-0,056	0,051
-288,847	-27,605	0,021	0,009
-287,832	-102,927	-0,018	0,003
-286,818	-200,000	0,031	0,121
-285,803	800,000	0,036	0,078
-284,789	-19,120	-0,090	-0,040
-283,774	-200,000	0,014	0,046
-282,759	800,000	-0,008	-0,022
-281,745	69,196	-0,048	-0,035
-280,730	322,725	-0,081	0,111
-279,716	29,688	-0,048	0,029
-278,701	46,087	-0,025	0,016
-277,686	15,652	0,103	0,058
-276,672	-200,000	-0,005	-0,059
-275,657	-137,155	-0,135	0,011
-274,643	49,776	0,014	0,010
-273,628	-200,000	-0,041	-0,129
-272,613	136,019	-0,094	-0,088
-271,599	56,137	-0,044	-0,030
-270,584	14,120	0,037	0,020
-269,570	800,000	0,065	0,137
-268,555	-200,000	-0,020	0,123
-267,540	194,052	-0,029	-0,031
-266,526	296,781	-0,096	-0,127
-265,511	50,975	0,119	0,081
-264,497	800,000	-0,047	0,109
-263,482	218,634	-0,088	0,100
-262,467	14,036	-0,045	0,025
-261,453	-200,000	0,022	0,117
-260,438	-94,613	-0,080	0,015
-259,424	-148,112	-0,029	-0,002
-258,409	60,806	0,080	0,057
-257,395	1,313	0,022	-0,011
-256,380	-10,365	0,064	0,030
-255,365	49,013	0,091	0,061
-254,351	142,808	0,066	0,063
-253,336	-2,712	-0,040	0,020
-252,322	800,000	0,001	0,002
-251,307	800,000	0,028	-0,074
-250,292	800,000	-0,029	-0,073
-249,278	321,439	-0,067	0,091
-248,263	401,126	0,034	-0,051
-247,249	38,673	0,094	0,060
-246,234	800,000	-0,020	0,040
-245,219	-86,817	-0,044	-0,010
-244,205	244,047	-0,077	-0,092
-243,190	-114,325	-0,113	-0,015
-242,176	-200,000	-0,001	0,006
-241,161	-103,306	0,154	-0,026
-240,146	-200,000	-0,006	0,118
-239,132	800,000	-0,039	0,091
-238,117	800,000	0,014	-0,036
-237,103	-83,753	0,033	0,007
-236,088	800,000	-0,053	-0,148
-235,073	415,424	0,013	-0,019
-234,059	-200,000	-0,010	-0,095
-233,044	800,000	0,042	0,095
-232,030	243,954	0,035	0,042
-231,015	569,868	-0,048	-0,083
-230,000	800,000	-0,053	0,136
-228,986	800,000	-0,029	0,077
-227,971	-200,000	0,011	-0,043
-226,957	32,019	-0,062	0,038
-225,942	360,999	0,097	0,139
-224,927	-156,067	-0,087	-0,004
-223,913	-200,000	-0,006	-0,033
-222,898	78,224	-0,159	-0,121
-221,884	-124,202	0,145	-0,016
-220,869	-73,625	0,061	-0,016
-219,855	114,487	-0,125	-0,108
-218,840	-200,000	0,004	-0,103
-217,825	30,177	-0,096	0,058
-216,811	-200,000	-0,025	-0,140
-215,796	-93,023	-0,089	-0,018
-214,782	-111,941	-0,119	0,017
-213,767	-140,657	0,116	0,008
-212,752	-87,553	0,050	0,011
-211,738	48,260	-0,058	0,039
-210,723	-200,000	0,006	0,086
-209,709	-200,000	0,005	0,025
-208,694	800,000	-0,045	-0,107
-207,679	-200,000	-0,011	-0,050
-206,665	800,000	-0,016	0,046
-205,650	-158,250	-0,043	0,002
-204,636	568,831	-0,097	-0,168
-203,621	-200,000	-0,002	0,040
-202,606	98,977	-0,024	0,020
-201,592	-20,814	0,120	0,052
-200,577	-46,618	-0,105	-0,037
-199,563	-113,610	0,167	0,023
-198,548	155,311	0,095	0,093
-197,533	201,969	0,039	0,043
-196,519	-115,353	0,114	0,015
-195,504	11,914	-0,044	0,024
-194,490	43,321	-0,066	-0,043
-193,475	-200,000	-0,005	-0,042
-192,460	159,578	-0,077	-0,076
-191,446	-9,322	-0,049	-0,023
-190,431	800,000	0,037	0,084
-189,417	-92,180	-0,113	-0,023
-188,402	318,850	0,014	0,019
-187,387	-200,000	0,009	0,230
-186,373	53,536	-0,050	0,034
-185,358	800,000	-0,073	-0,176
-184,344	5,600	0,129	-0,068
-183,329	800,000	-0,013	0,035
-182,315	-200,000	-0,022	0,072
-181,300	-40,169	-0,077	0,029
-180,285	-71,629	-0,173	0,046
-179,271	-113,789	-0,097	-0,013
-178,256	-95,699	-0,052	-0,010
-177,242	75,446	0,087	0,066
-176,227	-200,000	0,005	0,071
-175,212	20,246	0,080	0,046
-174,198	703,825	-0,070	-0,133
-173,183	125,745	-0,184	-0,165
-172,169	-200,000	0,041	-0,142
-171,154	-191,846	-0,069	0,000
-170,139	-200,000	0,011	-0,036
-169,125	-111,256	-0,086	0,012
-168,110	800,000	0,066	0,193
-167,096	319,915	-0,083	0,112
-166,081	-200,000	-0,025	-0,079
-165,066	-13,383	0,049	-0,022
-164,052	312,377	-0,042	0,056
-163,037	-118,703	0,085	-0,011
-162,023	-200,000	0,009	0,035
-161,008	-111,092	-0,051	-0,007
-159,993	-200,000	-0,018	0,079
-158,979	152,125	-0,080	0,077
-157,964	-58,875	-0,142	0,044
-156,950	221,376	-0,051	-0,058
-155,935	28,518	0,077	0,046
-154,920	800,000	0,037	0,074
-153,906	74,892	0,100	0,075
-152,891	-84,661	0,217	-0,048
-151,877	79,455	-0,063	0,048
-150,862	800,000	-0,031	-0,091
-149,847	-200,000	-0,004	-0,108
-148,833	-39,059	-0,066	-0,025
-147,818	233,993	0,032	-0,038
-146,804	153,068	-0,065	0,064
-145,789	-114,554	0,239	0,032
-144,775	33,391	0,108	-0,066
-143,760	800,000	-0,082	-0,246
-142,745	339,098	-0,026	-0,035
-141,731	-63,280	0,067	-0,019
-140,716	184,232	0,055	-0,058
-139,702	-200,000	-0,005	0,191
-138,687	69,298	0,093	0,068
-137,672	-170,205	-0,087	-0,002
-136,658	89,966	0,074	0,059
-135,643	800,000	-0,062	0,129
-134,629	-145,320	0,047	-0,003
-133,614	-200,000	-0,009	-0,076
-132,599	387,729	0,135	0,199
-131,585	531,748	0,017	0,029
-130,570	779,671	0,017	0,033
-129,556	800,000	-0,039	-0,079
-128,541	77,700	-0,069	-0,052
-127,526	70,148	0,070	0,051
-126,512	-9,426	0,064	0,030
-125,497	91,239	0,051	0,041
-124,483	-180,361	0,050	-0,001
-123,468	-22,236	-0,093	-0,040
-122,453	-118,427	-0,163	0,020
-121,439	5,979	0,072	-0,038
-120,424	139,955	-0,043	-0,040
-119,410	-200,000	-0,005	-0,030
-118,395	-29,814	0,037	-0,015
-117,380	-164,121	0,088	0,003
-116,366	52,058	0,082	0,055
-115,351	-95,120	0,101	-0,019
-114,337	361,481	-0,036	0,051
-113,322	800,000	-0,020	-0,043
-112,307	-200,000	0,019	0,081
-111,293	-47,589	-0,097	0,033
-110,278	650,569	0,051	0,092
-109,264	313,153	-0,069	0,093
-108,249	14,261	-0,014	-0,008
-107,234	800,000	0,060	0,140
-106,220	231,352	-0,073	-0,085
-105,205	-49,538	-0,020	0,007
-104,191	77,653	-0,069	0,052
-103,176	238,537	0,037	0,043
-102,162	43,252	-0,070	0,045
-101,147	-200,000	-0,001	-0,057
-100,132	800,000	-0,016	0,037
-99,118	-200,000	-0,011	-0,076
-98,103	-200,000	0,003	-0,013
-97,089	-200,000	-0,039	0,134
-96,074	363,320	-0,094	0,134
-95,059	-163,173	-0,067	-0,002
-94,045	8,685	-0,054	0,029
-93,030	-199,185	-0,051	-0,000
-92,016	-192,378	-0,023	0,000
-91,001	800,000	0,028	0,060
-89,986	-143,658	0,149	0,010
-88,972	800,000	0,034	-0,099
-87,957	-39,574	-0,087	0,032
-86,943	800,000	0,008	0,018
-85,928	146,746	0,088	-0,084
-84,913	206,964	-0,080	-0,089
-83,899	36,334	-0,065	0,041
-82,884	29,689	0,116	0,070
-81,870	300,747	0,074	0,097
-80,855	-200,000	-0,034	-0,140
-79,840	-116,937	-0,082	-0,011
-78,826	107,924	-0,155	0,131
-77,811	95,073	-0,139	-0,112
-76,797	4,354	-0,138	0,072
-75,782	-35,560	0,113	0,043
-74,767	-103,324	0,070	0,012
-73,753	423,579	-0,018	0,028
-72,738	121,341	0,014	0,013
-71,724	-47,162	0,051	0,017
-70,709	-122,437	-0,136	-0,016
-69,694	-200,000	0,042	-0,211
-68,680	-20,746	-0,076	0,033
-67,665	481,481	0,025	0,041
-66,651	-6,857	0,101	0,049
-65,636	185,535	0,023	-0,024
-64,622	800,000	-0,030	-0,082
-63,607	676,011	0,025	-0,047
-62,592	800,000	0,043	-0,090
-61,578	163,610	-0,061	0,061
-60,563	800,000	0,033	0,101
-59,549	800,000	0,027	0,082
-58,534	-53,013	-1,403	-0,455
-57,519	358,303	-1,600	-2,270
-56,505	-200,000	-0,536	-4,379
-55,490	193,432	1,023	1,098
-54,476	800,000	4,756	10,785
-53,461	-200,000	17,888	285,728
-52,446	800,000	723,397	2231,705
-51,432	561,539	1637,983	2817,180
-50,417	80,482	1661,196	1266,445
-49,403	23,392	1535,115	891,794
-48,388	17,335	1458,343	817,938
-47,373	18,031	1448,261	815,597
-46,359	17,544	1438,669	807,837
-45,344	15,566	1434,272	795,918
-44,330	15,532	1432,146	794,546
-43,315	15,505	1430,586	793,518
-42,300	15,553	1428,750	792,698
-41,286	15,618	1427,572	792,323
-40,271	15,566	1426,419	791,404
-39,257	15,523	1425,322	790,560
-38,242	15,588	1423,896	790,045
-37,227	15,611	1422,667	789,442
-36,213	15,606	1421,252	788,601
-35,198	15,575	1420,296	787,892
-34,184	15,573	1419,371	787,338
-33,169	15,546	1418,038	786,439
-32,154	15,570	1417,007	785,952
-31,140	15,610	1415,316	785,167
-30,125	15,632	1414,450	784,761
-29,111	15,586	1413,324	783,889
-28,096	15,561	1412,281	783,163
-27,082	15,510	1411,323	782,360
-26,067	15,526	1409,924	781,631
-25,052	15,508	1409,069	781,042
-24,038	15,499	1408,021	780,386
-23,023	15,474	1407,074	779,713
-22,009	15,448	1406,328	779,149
-20,994	15,450	1405,300	778,558
-19,979	15,398	1404,205	777,675
-18,965	15,434	1403,139	777,225
-17,950	15,490	1402,008	776,828
-16,936	15,438	1401,302	776,162
-15,921	15,444	1400,001	775,438
-14,906	15,380	1399,050	774,583
-13,892	15,425	1398,055	774,214
-12,877	15,422	1397,322	773,759
-11,863	15,451	1396,255	773,274
-10,848	15,417	1395,598	772,723
-9,833	15,409	1394,435	772,009
-8,819	15,333	1393,778	771,263
-7,804	15,363	1392,682	770,765
-6,790	15,298	1391,801	769,947
-5,775	15,304	1390,657	769,312
-4,760	15,339	1389,587	768,851
-3,746	15,285	1389,030	768,265
-2,731	15,335	1388,239	768,027
-1,717	15,285	1387,391	767,294
-0,702	15,298	1385,562	766,314
0,313	19,310	1305,660	740,589
1,327	35,912	707,181	439,601
2,342	55,295	125,037	85,492
3,356	2,045	16,670	8,493
4,371	-0,466	3,178	1,592
5,386	24,480	0,432	0,252
6,400	-200,000	-0,034	0,183
7,415	209,348	-0,179	-0,199
8,429	164,588	-0,299	-0,299
9,444	250,391	-0,320	-0,386
10,459	14,261	-0,326	-0,180
11,473	33,759	-0,471	-0,289
12,488	-93,528	-0,189	-0,037
13,502	54,202	-0,318	-0,216
14,517	147,474	-0,239	-0,228
15,531	48,389	-0,277	-0,183
16,546	131,133	-0,356	-0,323
17,561	99,138	-0,341	-0,279
18,575	-20,469	-0,211	-0,092
19,590	18,328	-0,324	-0,183
20,604	14,612	-0,287	-0,158
21,619	39,479	-0,425	-0,269
22,634	17,137	-0,451	-0,252
23,648	92,540	-0,360	-0,287
24,663	39,552	-0,513	-0,325
25,677	96,392	-0,431	-0,348
26,692	800,000	-0,151	-0,330
27,707	160,323	-0,388	-0,383
28,721	172,631	-0,467	-0,475
29,736	121,177	-0,340	-0,299
30,750	-7,530	-0,404	-0,192
31,765	92,619	-0,397	-0,316
32,780	117,688	-0,310	-0,270
33,794	26,021	-0,328	-0,193
34,809	192,731	-0,233	-0,248
35,823	60,542	-0,342	-0,239
36,838	55,836	-0,341	-0,233
37,853	167,797	-0,293	-0,295
38,867	175,245	-0,360	-0,368
39,882	115,213	-0,294	-0,253
40,896	55,253	-0,351	-0,239
41,911	10,198	-0,383	-0,205
42,926	22,717	-0,269	-0,155
43,940	-11,058	-0,398	-0,185
44,955	46,701	-0,457	-0,299
45,969	137,138	-0,143	-0,132
46,984	-93,774	-0,266	-0,051
47,999	6,824	-0,357	-0,187
49,013	55,515	-0,143	-0,097
50,028	32,653	-0,323	-0,196
51,042	82,018	-0,278	-0,212
52,057	186,050	-0,222	-0,233
53,071	-33,107	-0,432	-0,168
54,086	18,636	-0,341	-0,192
55,101	44,440	-0,355	-0,229
56,115	-26,654	-0,325	-0,134
57,130	48,348	-0,332	-0,219
58,144	5,318	-0,334	-0,173
59,159	136,034	-0,327	-0,300
60,174	132,701	-0,385	-0,350
61,188	13,205	-0,341	-0,185
62,203	46,625	-0,320	-0,209
63,217	60,981	-0,375	-0,261
64,232	87,993	-0,375	-0,292
65,247	269,986	-0,238	-0,295
66,261	110,641	-0,312	-0,264
67,276	35,098	-0,249	-0,154
68,290	137,570	-0,335	-0,309
69,305	-25,407	-0,351	-0,145
70,320	80,287	-0,270	-0,205
71,334	201,169	-0,216	-0,234
72,349	173,427	-0,303	-0,308
73,363	-72,701	-0,390	-0,100
74,378	66,783	-0,455	-0,326
75,393	-53,670	-0,368	-0,118
76,407	99,328	-0,203	-0,165
77,422	393,770	-0,161	-0,236
78,436	110,244	-0,271	-0,228
79,451	105,636	-0,143	-0,119
80,466	55,365	-0,188	-0,128
81,480	20,533	-0,329	-0,186
82,495	149,693	-0,269	-0,256
83,509	126,378	-0,242	-0,216
84,524	-1,740	-0,269	-0,133
85,539	232,742	-0,230	-0,266
86,553	-36,950	-0,301	-0,113
87,568	-36,380	-0,350	-0,132
88,582	-134,808	-0,232	-0,020
89,597	64,445	-0,268	-0,189
90,611	52,321	-0,219	-0,146
91,626	224,025	-0,219	-0,249
92,641	-20,812	-0,241	-0,103
93,655	141,773	-0,266	-0,248
94,670	146,594	-0,216	-0,204
95,684	-90,385	-0,275	-0,055
96,699	-19,726	-0,265	-0,115
97,714	-6,615	-0,258	-0,123
98,728	-200,000	-0,237	-0,001
99,743	29,009	-0,239	-0,142
100,757	6,070	-0,306	-0,159
101,772	69,283	-0,351	-0,253
102,787	-23,759	-0,315	-0,132
103,801	90,692	-0,260	-0,204
104,816	78,434	-0,316	-0,237
105,830	-70,466	-0,262	-0,069
106,845	56,994	-0,264	-0,180
107,860	199,198	-0,161	-0,173
108,874	149,427	-0,260	-0,247
109,889	88,381	-0,206	-0,160
110,903	52,602	-0,296	-0,198
111,918	161,619	-0,208	-0,204
112,933	30,060	-0,306	-0,183
113,947	36,966	-0,229	-0,142
114,962	-66,211	-0,364	-0,101
115,976	120,449	-0,252	-0,219
116,991	477,853	-0,236	-0,376
118,006	-18,933	-0,264	-0,115
119,020	610,141	-0,201	-0,353
120,035	384,648	-0,111	-0,161
121,049	-80,813	-0,320	-0,074
122,064	89,371	-0,292	-0,228
123,079	5,601	-0,279	-0,144
124,093	91,387	-0,242	-0,191
125,108	587,645	-0,174	-0,301
126,122	463,856	-0,160	-0,251
127,137	33,080	-0,238	-0,144
128,151	-87,157	-0,218	-0,046
129,166	37,995	-0,267	-0,166
130,181	-35,925	-0,312	-0,117
131,195	60,864	-0,272	-0,189
132,210	20,238	-0,325	-0,183
133,224	-97,388	-0,364	0,066
134,239	116,678	-0,178	-0,153
135,254	-93,867	-0,266	-0,051
136,268	-1,126	-0,283	-0,140
137,283	261,072	-0,174	-0,211
138,297	134,753	-0,245	-0,223
139,312	103,931	-0,240	-0,197
140,327	5,442	-0,242	-0,125
141,341	63,448	-0,316	-0,222
142,356	102,435	-0,225	-0,184
143,370	108,595	-0,173	-0,144
144,385	-1,382	-0,271	-0,133
145,400	93,609	-0,330	-0,261
146,414	94,673	-0,216	-0,171
147,429	23,577	-0,283	-0,163
148,443	69,294	-0,162	-0,116
149,458	800,000	-0,112	-0,231
150,473	-42,492	-0,284	-0,100
151,487	34,105	-0,143	-0,087
152,502	77,482	-0,197	-0,146
153,516	47,994	-0,363	-0,237
154,531	102,335	-0,186	-0,152
155,546	265,043	-0,128	-0,156
156,560	-200,000	-0,024	-0,256
157,575	800,000	-0,098	-0,244
158,589	145,899	-0,274	-0,257
159,604	460,498	-0,104	-0,163
160,619	40,297	-0,225	-0,141
161,633	148,648	-0,232	-0,219
162,648	507,149	-0,180	-0,293
163,662	17,106	-0,176	-0,097
164,677	-112,011	-0,200	0,028
165,692	5,153	-0,184	-0,094
166,706	-130,626	-0,309	-0,029
167,721	26,831	-0,183	-0,107
168,735	-62,400	-0,186	-0,054
169,750	61,776	-0,133	-0,092
170,764	167,911	-0,225	-0,223
171,779	284,702	-0,157	-0,197
172,794	95,084	-0,153	-0,122
173,808	73,012	-0,267	-0,195
174,823	171,869	-0,255	-0,255
175,837	199,307	-0,283	-0,302
176,852	171,627	-0,279	-0,279
177,867	247,039	-0,233	-0,275
178,881	42,765	-0,176	-0,112
179,896	72,022	-0,277	-0,201
180,910	-29,101	-0,238	-0,095
181,925	294,541	-0,201	-0,257
182,940	55,199	-0,278	-0,187
183,954	800,000	-0,109	-0,239
184,969	329,233	-0,153	-0,205
185,983	240,822	-0,192	-0,223
186,998	-22,648	-0,231	-0,097
188,013	47,554	-0,277	-0,180
189,027	-24,195	-0,230	-0,095
190,042	-29,448	-0,290	-0,115
191,056	11,221	-0,292	-0,155
192,071	136,462	-0,154	-0,140
193,086	-71,163	-0,263	-0,068
194,100	-29,451	-0,169	-0,067
195,115	-51,341	-0,238	-0,077
196,129	-80,406	-0,292	-0,067
197,144	12,670	-0,114	-0,061
198,159	431,714	-0,178	-0,269
199,173	197,325	-0,183	-0,195
200,188	49,078	-0,221	-0,144
201,202	93,158	-0,161	-0,126
202,217	-29,140	-0,282	-0,112
203,232	-13,914	-0,284	-0,127
204,246	244,373	-0,225	-0,264
205,261	158,794	-0,242	-0,234
206,275	355,871	-0,168	-0,233
207,290	334,551	-0,083	-0,112
208,304	111,143	-0,118	0,099
209,319	-39,729	-0,143	-0,052
210,334	283,172	-0,237	-0,296
211,348	316,153	-0,147	-0,193
212,363	-97,959	-0,216	-0,038
213,377	145,384	-0,246	-0,229
214,392	-33,852	-0,224	-0,085
215,407	475,353	-0,103	-0,162
216,421	41,432	-0,231	-0,145
217,436	125,231	-0,248	-0,217
218,450	117,823	-0,196	-0,168
219,465	800,000	-0,101	-0,288
220,480	510,189	-0,149	-0,241
221,494	-1,488	-0,177	-0,087
222,509	800,000	-0,139	-0,284
223,523	-3,116	-0,377	-0,182
224,538	49,069	-0,268	-0,175
225,553	-60,452	-0,126	-0,037
226,567	308,670	-0,186	-0,242
227,582	88,329	-0,189	-0,146
228,596	-24,812	-0,261	-0,107
229,611	-37,173	-0,299	-0,110
230,626	800,000	-0,060	-0,141
231,640	96,851	-0,139	-0,111
232,655	160,531	-0,257	-0,249
233,669	61,317	-0,237	-0,163
234,684	800,000	-0,141	-0,322
235,699	707,727	-0,105	-0,193
236,713	563,659	-0,110	-0,186
237,728	299,981	-0,120	-0,154
238,742	21,495	-0,176	-0,099
239,757	228,433	-0,209	-0,237
240,772	268,746	-0,161	-0,196
241,786	534,049	-0,122	-0,202
242,801	-49,725	-0,263	-0,086
243,815	338,813	-0,145	-0,196
244,830	138,039	-0,185	-0,169
245,844	-65,760	-0,322	-0,089
246,859	34,635	-0,119	-0,072
247,874	90,553	-0,187	-0,145
248,888	109,617	-0,269	-0,223
249,903	-132,157	-0,137	0,012
250,917	-97,115	-0,154	-0,028
251,932	18,668	-0,103	0,057
252,947	216,903	-0,156	-0,172
253,961	223,824	-0,134	-0,150
254,976	761,641	-0,165	-0,311
255,990	229,681	-0,150	-0,170
257,005	60,016	-0,199	-0,136
258,020	-136,676	-0,251	0,020
259,034	-49,331	-0,062	-0,020
260,049	2,957	-0,232	-0,116
261,063	-42,650	-0,265	-0,093
262,078	519,259	-0,155	-0,252
263,093	-58,085	-0,115	-0,035
264,107	-39,685	-0,226	-0,081
265,122	332,275	-0,101	-0,135
266,136	-200,000	0,007	-0,112
267,151	7,807	-0,143	-0,074
268,166	-26,900	-0,184	-0,074
269,180	-80,257	-0,270	-0,062
270,195	284,985	-0,157	-0,196
271,209	56,355	-0,162	-0,109
272,224	69,627	-0,208	-0,148
273,239	-200,000	-0,041	-0,131
274,253	43,977	-0,196	-0,124
275,268	4,984	-0,172	-0,087
276,282	50,116	-0,225	-0,146
277,297	89,026	-0,264	-0,203
278,312	4,459	-0,212	-0,107
279,326	800,000	-0,069	-0,183
280,341	332,264	-0,092	-0,123
281,355	153,138	-0,185	-0,175
282,370	61,657	-0,102	-0,070
283,384	240,378	-0,084	-0,097
284,399	-36,831	-0,173	-0,064
285,414	800,000	-0,117	-0,239
286,428	104,611	-0,188	-0,153
287,443	-85,200	-0,164	-0,035
288,457	21,925	-0,064	-0,036
289,472	39,600	-0,141	-0,087
290,487	-55,988	-0,190	-0,058
291,501	-104,202	-0,136	-0,022
292,516	46,500	-0,158	-0,101
293,530	-71,218	-0,089	-0,023
294,545	42,498	-0,177	0,111
295,560	160,570	-0,099	-0,095
296,574	324,288	-0,123	-0,162
297,589	259,833	-0,095	-0,113
298,603	744,883	-0,124	-0,232
299,618	215,578	-0,085	-0,093
300,633	-200,000	-0,042	-0,221
301,647	41,619	-0,104	-0,065
302,662	333,706	0,049	-0,066
303,676	-58,464	-0,118	-0,035
304,691	128,100	-0,103	-0,091
305,706	189,033	-0,145	-0,150
306,720	800,000	-0,085	-0,245
307,735	91,777	-0,150	-0,116
308,749	22,654	-0,068	0,038
309,764	-29,495	-0,150	-0,059
310,779	-95,412	-0,235	-0,043
311,793	222,855	-0,138	-0,153
312,808	-200,000	0,027	-0,129
313,822	-45,925	-0,232	-0,079
314,837	-114,436	-0,237	-0,031
315,852	113,434	-0,049	-0,041
316,866	198,536	-0,025	0,026
317,881	203,428	-0,113	-0,120
318,895	178,846	-0,096	-0,097
319,910	613,853	-0,104	-0,180
320,925	120,059	-0,164	-0,140
321,939	529,653	-0,036	-0,059
322,954	79,109	-0,122	-0,090
323,968	169,091	-0,025	-0,025
324,983	-3,810	-0,106	-0,050
325,997	329,673	-0,119	-0,158
327,012	173,423	-0,191	-0,189
328,027	69,937	-0,134	-0,095
329,041	-50,037	-0,140	-0,046
330,056	133,589	-0,156	-0,139
331,070	-66,692	-0,152	-0,041
332,085	-19,372	-0,150	-0,064
333,100	-60,434	-0,083	0,024
334,114	427,441	-0,129	-0,192
335,129	-82,470	-0,164	-0,036
336,143	678,464	-0,077	-0,138
337,158	165,339	-0,082	-0,080
338,173	141,320	-0,154	-0,140
339,187	-115,351	-0,163	0,021
340,202	-67,779	-0,163	-0,044
341,216	-8,206	-0,201	-0,093
342,231	-175,294	-0,201	0,004
343,246	44,609	-0,058	-0,036
344,260	-200,000	-0,076	-0,235
345,275	524,497	-0,058	-0,094
346,289	800,000	-0,018	-0,050
347,304	57,167	-0,159	-0,107
348,319	-85,857	-0,219	-0,046
349,333	95,294	-0,148	-0,116
350,348	199,662	-0,189	-0,199
351,362	-114,028	-0,162	-0,021
352,377	318,221	-0,090	-0,118
353,392	391,247	-0,119	-0,171
354,406	66,539	-0,008	0,005
355,421	209,507	1314,935	1416,442
356,435	161,249	1475,698	1416,948
