DTS Sentinel unit serial number:	SN410029Multiplexer serial number:	ORYXHardware model number:	OX2-SRSoftware version number:	ORYX F/W v4,00 Oryx Data Collector v3.7.2.0data status	okinstallation	B3 Nyhavnadifferential loss correction	single-endedforward channel	channel 1reverse channel	N/Adate	2023/12/02time	16:27:30forward acquisition time	300,00reverse acquisition time	0,00gamma	499,1914k internal	0,3198k external	0,3198temperature offset calibration	1,0000default loss term (dB/km)	0,3820temperature slope calibration	1,0000multiplexer offset coefficient	1,0000multiplexer slope coefficient	1,0000fibre end	0,00T internal ref (°C)	14,25T ext. ref 1 (°C)	-1,31T ext. ref 2 (°C)	-1,32length (m)	temperature (°C)	Stokes	anti-Stokes-744,400	415,147	-0,278	-0,433
-743,385	-200,000	0,017	0,325
-742,371	45,163	-0,132	-0,089
-741,356	-200,000	0,017	0,406
-740,342	76,410	-0,229	-0,176
-739,327	-200,000	0,006	0,276
-738,312	602,075	-0,115	-0,209
-737,298	-200,000	-0,050	0,328
-736,283	143,866	-0,269	-0,261
-735,269	-200,000	0,050	0,269
-734,254	471,041	-0,125	-0,205
-733,239	-91,265	-0,332	0,069
-732,225	43,802	-0,193	-0,129
-731,210	495,451	0,087	0,146
-730,196	-147,742	-0,197	0,012
-729,181	422,305	-0,065	-0,102
-728,167	800,000	-0,016	-0,039
-727,152	800,000	-0,039	0,088
-726,137	-96,123	-0,093	0,018
-725,123	37,186	0,064	-0,041
-724,108	-200,000	0,024	-0,163
-723,094	-38,377	-0,077	-0,030
-722,079	-200,000	0,034	-0,183
-721,064	-200,000	0,005	0,031
-720,050	4,080	0,130	-0,069
-719,035	-200,000	-0,020	0,099
-718,021	293,794	0,005	0,007
-717,006	83,460	-0,038	-0,030
-715,991	84,573	-0,063	-0,050
-714,977	333,448	-0,091	-0,128
-713,962	612,803	-0,024	-0,043
-712,948	800,000	0,026	0,070
-711,933	-25,321	-0,076	0,032
-710,918	291,046	-0,103	0,136
-709,904	-27,409	-0,166	-0,070
-708,889	47,410	0,187	-0,126
-707,875	-44,085	0,101	-0,037
-706,860	-92,816	0,115	-0,023
-705,845	-0,995	0,163	-0,084
-704,831	-200,000	0,012	0,056
-703,816	-200,000	0,000	0,019
-702,802	274,817	0,085	-0,109
-701,787	-200,000	-0,015	-0,050
-700,772	36,993	-0,029	-0,018
-699,758	176,128	0,065	-0,069
-698,743	800,000	0,011	0,031
-697,729	81,574	0,036	-0,028
-696,714	316,208	-0,013	0,018
-695,699	-200,000	-0,034	-0,140
-694,685	97,523	-0,089	-0,075
-693,670	525,248	-0,053	-0,091
-692,656	-200,000	0,011	-0,060
-691,641	-59,868	0,109	0,034
-690,627	211,684	-0,022	0,026
-689,612	-53,515	-0,025	-0,008
-688,597	-88,112	-0,099	0,021
-687,583	-82,118	0,083	-0,020
-686,568	740,363	0,016	-0,031
-685,554	74,217	-0,039	-0,030
-684,539	695,887	-0,062	0,119
-683,524	-200,000	0,044	-0,172
-682,510	800,000	0,034	-0,087
-681,495	269,125	-0,036	0,046
-680,481	-106,194	-0,058	-0,009
-679,466	800,000	-0,077	-0,178
-678,451	-64,302	0,035	-0,010
-677,437	-143,494	-0,119	-0,008
-676,422	-200,000	0,002	-0,126
-675,408	91,551	0,144	0,118
-674,393	56,419	0,088	-0,062
-673,378	-130,402	-0,096	-0,009
-672,364	86,010	-0,136	-0,108
-671,349	262,168	0,041	-0,052
-670,335	-200,000	-0,008	-0,027
-669,320	750,725	0,039	0,078
-668,305	462,161	0,054	0,088
-667,291	124,133	-0,013	-0,012
-666,276	170,451	-0,083	-0,086
-665,262	126,995	0,051	-0,047
-664,247	800,000	-0,050	0,116
-663,232	-128,558	-0,036	0,004
-662,218	420,676	0,014	-0,022
-661,203	-200,000	0,014	0,067
-660,189	-95,015	-0,097	0,019
-659,174	-110,019	-0,158	-0,024
-658,159	-171,600	-0,040	0,001
-657,145	-102,922	0,058	-0,010
-656,130	-200,000	0,014	0,082
-655,116	796,107	0,082	0,165
-654,101	23,057	0,062	0,037
-653,086	509,463	0,075	0,128
-652,072	275,341	0,067	0,087
-651,057	104,040	0,002	0,002
-650,043	412,073	-0,041	-0,063
-649,028	-83,079	-0,055	0,013
-648,014	-137,623	0,085	0,007
-646,999	520,866	-0,044	0,075
-645,984	-200,000	0,010	0,102
-644,970	-200,000	0,006	-0,069
-643,955	285,626	-0,072	0,095
-642,941	-200,000	0,002	-0,018
-641,926	-65,909	0,092	-0,026
-640,911	-200,000	0,017	0,055
-639,897	361,040	-0,088	0,129
-638,882	800,000	-0,036	0,092
-637,868	481,459	0,039	-0,065
-636,853	-103,946	-0,147	-0,025
-635,838	22,401	-0,012	0,007
-634,824	-200,000	0,008	-0,098
-633,809	-200,000	-0,037	0,152
-632,795	-45,336	-0,119	0,043
-631,780	-200,000	0,012	0,064
-630,765	86,433	-0,064	0,051
-629,751	-200,000	-0,006	0,060
-628,736	225,457	-0,123	-0,145
-627,722	684,815	-0,010	-0,020
-626,707	-200,000	0,003	-0,155
-625,692	75,256	-0,050	0,038
-624,678	78,386	0,075	0,058
-623,663	-200,000	-0,020	-0,073
-622,649	-200,000	-0,003	0,158
-621,634	-84,217	-0,109	0,025
-620,619	412,483	-0,071	-0,110
-619,605	4,241	-0,113	0,060
-618,590	-200,000	-0,022	0,135
-617,576	800,000	-0,053	-0,138
-616,561	-6,943	-0,075	-0,037
-615,546	-200,000	0,020	-0,118
-614,532	692,496	0,055	-0,104
-613,517	-106,526	-0,041	-0,007
-612,503	-200,000	0,002	-0,060
-611,488	43,862	0,107	-0,071
-610,474	800,000	0,029	-0,093
-609,459	-76,294	-0,043	0,011
-608,444	-200,000	-0,025	-0,112
-607,430	568,284	0,060	0,107
-606,415	40,340	0,054	-0,035
-605,401	-200,000	0,001	0,052
-604,386	-140,988	0,155	-0,011
-603,371	-76,289	0,141	-0,036
-602,357	7,850	-0,147	0,079
-601,342	259,785	-0,039	-0,049
-600,328	118,884	-0,087	-0,078
-599,313	-200,000	0,023	-0,140
-598,298	-200,000	0,009	-0,176
-597,284	800,000	0,034	-0,104
-596,269	800,000	0,014	0,042
-595,255	800,000	-0,067	0,146
-594,240	-128,625	-0,174	0,018
-593,225	-130,227	-0,124	-0,012
-592,211	230,660	-0,069	-0,081
-591,196	131,689	-0,060	-0,056
-590,182	-0,094	0,098	-0,050
-589,167	-200,000	-0,026	-0,110
-588,152	-169,583	0,116	0,003
-587,138	-200,000	-0,046	0,168
-586,123	-200,000	0,017	0,070
-585,109	33,086	-0,061	0,038
-584,094	77,146	-0,055	-0,042
-583,079	-200,000	-0,028	0,098
-582,065	686,152	0,048	0,092
-581,050	-137,482	-0,084	-0,007
-580,036	-200,000	-0,008	-0,067
-579,021	800,000	-0,032	0,080
-578,006	186,390	0,033	0,035
-576,992	-53,392	-0,143	-0,047
-575,977	19,604	0,031	-0,018
-574,963	236,364	0,083	0,100
-573,948	217,234	0,117	-0,135
-572,934	118,886	-0,060	0,053
-571,919	-200,000	-0,057	0,191
-570,904	164,255	-0,065	-0,066
-569,890	123,007	-0,084	0,076
-568,875	-200,000	0,000	0,028
-567,861	-104,080	0,061	0,010
-566,846	-200,000	-0,012	0,100
-565,831	-89,401	0,068	-0,014
-564,817	800,000	0,034	-0,079
-563,802	-200,000	-0,015	-0,126
-562,788	-45,915	-0,086	0,031
-561,773	116,198	0,072	-0,064
-560,758	80,614	0,109	0,085
-559,744	-9,905	-0,131	0,063
-558,729	-101,783	-0,088	-0,015
-557,715	800,000	-0,036	0,093
-556,700	800,000	-0,071	-0,144
-555,685	800,000	-0,069	-0,166
-554,671	800,000	0,041	-0,096
-553,656	-5,281	0,115	0,057
-552,642	-200,000	0,014	0,150
-551,627	312,868	-0,034	-0,046
-550,612	121,440	0,058	-0,052
-549,598	-15,981	-0,131	-0,060
-548,583	-200,000	0,008	-0,038
-547,569	800,000	-0,045	0,100
-546,554	52,761	0,045	0,031
-545,539	800,000	0,067	-0,194
-544,525	75,597	0,133	-0,102
-543,510	-100,586	0,050	0,009
-542,496	800,000	-0,028	-0,060
-541,481	74,037	0,031	0,024
-540,466	-121,594	-0,082	0,010
-539,452	-94,836	0,110	-0,021
-538,437	800,000	0,057	0,151
-537,423	800,000	-0,063	0,153
-536,408	800,000	-0,022	-0,051
-535,393	-87,674	-0,078	0,017
-534,379	-150,801	0,178	0,010
-533,364	-200,000	-0,004	0,023
-532,350	-17,610	-0,040	-0,018
-531,335	-159,631	0,062	0,002
-530,321	-200,000	0,011	0,079
-529,306	-200,000	-0,004	0,046
-528,291	-125,619	-0,195	-0,021
-527,277	-45,910	-0,130	-0,046
-526,262	-75,077	0,219	0,056
-525,248	-200,000	0,009	-0,034
-524,233	69,393	-0,103	0,076
-523,218	-121,921	0,058	-0,007
-522,204	800,000	0,010	-0,033
-521,189	124,141	-0,069	0,062
-520,175	40,496	-0,072	-0,047
-519,160	-69,049	0,096	0,026
-518,145	588,324	0,065	0,116
-517,131	248,611	0,046	-0,056
-516,116	-40,644	0,039	-0,015
-515,102	800,000	0,030	-0,063
-514,087	-115,023	0,051	-0,007
-513,072	153,328	0,072	-0,071
-512,058	365,583	0,057	0,084
-511,043	296,733	0,040	0,052
-510,029	800,000	0,047	-0,098
-509,014	-13,625	0,066	-0,031
-507,999	345,195	0,052	0,074
-506,985	-200,000	-0,050	-0,268
-505,970	24,226	-0,046	0,027
-504,956	27,454	0,109	0,066
-503,941	-146,851	0,071	-0,004
-502,926	169,314	0,029	-0,030
-501,912	-200,000	-0,012	-0,071
-500,897	18,647	0,083	-0,048
-499,883	87,803	-0,082	-0,066
-498,868	322,267	0,056	-0,077
-497,853	516,905	-0,032	-0,054
-496,839	488,082	-0,037	0,061
-495,824	119,060	0,150	0,134
-494,810	-200,000	-0,005	0,093
-493,795	-114,151	0,062	0,008
-492,781	-200,000	0,005	-0,138
-491,766	-149,848	-0,077	-0,004
-490,751	507,405	-0,001	0,002
-489,737	-200,000	-0,007	0,065
-488,722	183,566	-0,048	0,051
-487,708	-200,000	-0,018	-0,107
-486,693	-138,438	0,106	0,008
-485,678	70,001	-0,022	0,016
-484,664	528,729	-0,036	-0,062
-483,649	-16,352	-0,041	0,019
-482,635	38,338	-0,069	0,044
-481,620	-200,000	-0,009	-0,072
-480,605	-29,048	0,016	-0,006
-479,591	75,708	-0,162	0,124
-478,576	460,447	0,029	0,046
-477,562	365,930	0,057	0,083
-476,547	266,496	-0,083	0,105
-475,532	452,757	-0,035	0,056
-474,518	131,396	0,046	0,043
-473,503	-200,000	0,006	-0,073
-472,489	-200,000	0,016	0,144
-471,474	800,000	-0,033	0,081
-470,459	-69,030	-0,066	-0,018
-469,445	-14,878	-0,145	-0,067
-468,430	524,113	0,049	-0,083
-467,416	197,924	0,061	-0,067
-466,401	92,190	-0,145	0,117
-465,386	329,119	0,072	-0,100
-464,372	143,128	-0,012	-0,011
-463,357	-200,000	-0,015	-0,049
-462,343	579,829	-0,073	-0,130
-461,328	242,903	0,097	-0,118
-460,313	-31,924	0,082	-0,033
-459,299	-200,000	0,003	-0,082
-458,284	269,044	0,073	0,092
-457,270	-122,772	-0,023	0,003
-456,255	42,802	0,064	0,042
-455,241	30,944	0,097	-0,060
-454,226	252,672	0,063	-0,077
-453,211	266,453	-0,051	-0,064
-452,197	-52,459	-0,075	0,025
-451,182	-200,000	0,009	0,042
-450,168	-54,331	0,058	0,019
-449,153	129,940	0,031	0,029
-448,138	147,814	0,092	-0,089
-447,124	181,904	-0,136	-0,145
-446,109	-200,000	-0,014	-0,219
-445,095	-200,000	0,007	0,103
-444,080	-200,000	-0,022	0,124
-443,065	10,650	-0,024	-0,013
-442,051	-5,615	-0,075	0,037
-441,036	382,831	0,062	-0,092
-440,022	-200,000	-0,002	0,072
-439,007	119,201	0,106	0,094
-437,992	369,160	-0,048	0,070
-436,978	123,019	0,150	0,135
-435,963	-200,000	-0,005	0,040
-434,949	-40,536	0,080	-0,030
-433,934	-183,909	0,052	0,001
-432,919	800,000	0,017	-0,046
-431,905	-200,000	-0,010	-0,117
-430,890	289,051	0,013	-0,016
-429,876	-200,000	0,001	0,020
-428,861	-108,633	0,051	-0,008
-427,846	16,264	0,126	0,071
-426,832	800,000	-0,065	0,169
-425,817	800,000	-0,037	0,081
-424,803	175,222	-0,043	0,045
-423,788	-109,672	0,163	0,024
-422,773	-55,356	-0,068	0,022
-421,759	-66,076	-0,051	-0,015
-420,744	800,000	-0,041	-0,105
-419,730	174,979	-0,023	0,024
-418,715	800,000	0,054	-0,111
-417,701	-94,724	0,094	-0,018
-416,686	16,565	0,147	-0,083
-415,671	359,841	0,098	0,142
-414,657	490,931	0,016	-0,026
-413,642	-56,811	-0,144	0,045
-412,628	236,728	0,102	0,122
-411,613	-52,146	-0,058	0,019
-410,598	164,958	0,015	0,015
-409,584	800,000	0,034	-0,100
-408,569	-200,000	0,019	0,116
-407,555	349,312	-0,088	-0,126
-406,540	-200,000	0,022	-0,169
-405,525	38,004	-0,099	-0,063
-404,511	263,692	0,040	0,050
-403,496	-45,376	-0,012	-0,004
-402,482	-200,000	0,019	0,188
-401,467	-200,000	-0,012	0,045
-400,452	297,081	0,029	0,038
-399,438	-165,674	0,045	0,001
-398,423	157,962	-0,052	0,052
-397,409	606,504	-0,041	-0,074
-396,394	282,038	-0,041	-0,053
-395,379	791,240	-0,035	0,069
-394,365	-73,630	0,019	0,005
-393,350	800,000	-0,039	0,095
-392,336	-78,608	-0,162	-0,039
-391,321	-200,000	-0,028	0,227
-390,306	333,058	-0,040	0,056
-389,292	-200,000	-0,010	-0,067
-388,277	-146,842	0,111	0,007
-387,263	-38,703	0,114	0,043
-386,248	-15,156	-0,043	-0,020
-385,233	-40,385	-0,066	0,024
-384,219	29,042	0,048	-0,029
-383,204	-200,000	-0,015	-0,094
-382,190	-200,000	-0,000	-0,079
-381,175	-200,000	0,017	-0,094
-380,160	118,383	0,132	0,117
-379,146	-200,000	0,001	0,070
-378,131	393,242	-0,063	0,095
-377,117	-200,000	0,021	-0,072
-376,102	414,433	-0,079	-0,121
-375,088	273,693	-0,047	0,060
-374,073	-200,000	-0,049	0,192
-373,058	800,000	0,016	0,040
-372,044	800,000	-0,030	0,078
-371,029	270,524	0,062	0,079
-370,015	7,374	0,088	-0,047
-369,000	-200,000	0,008	-0,041
-367,985	800,000	0,038	-0,078
-366,971	22,534	-0,036	0,021
-365,956	-200,000	-0,020	-0,069
-364,942	-42,483	0,079	0,029
-363,927	800,000	0,034	-0,093
-362,912	156,497	0,069	-0,069
-361,898	30,154	-0,050	0,031
-360,883	-103,616	0,106	0,018
-359,869	311,505	-0,092	-0,124
-358,854	-200,000	0,017	0,130
-357,839	-108,238	0,035	-0,005
-356,825	800,000	0,069	-0,154
-355,810	137,206	0,021	-0,020
-354,796	-79,952	-0,063	-0,015
-353,781	800,000	0,031	-0,088
-352,766	529,834	0,028	-0,048
-351,752	-138,006	0,054	-0,004
-350,737	166,462	-0,075	0,076
-349,723	-47,880	0,053	-0,018
-348,708	-116,155	-0,042	0,005
-347,693	34,774	0,085	0,053
-346,679	-166,153	-0,088	-0,003
-345,664	206,811	-0,045	-0,050
-344,650	475,602	0,070	-0,114
-343,635	169,166	0,059	0,061
-342,620	-9,042	-0,006	0,003
-341,606	320,858	0,036	0,050
-340,591	-25,473	0,012	0,005
-339,577	-140,738	-0,111	0,008
-338,562	33,662	-0,106	-0,066
-337,548	-200,000	0,011	-0,182
-336,533	-121,588	-0,190	0,022
-335,518	6,289	0,087	0,046
-334,504	657,124	0,024	0,045
-333,489	-200,000	-0,001	0,011
-332,475	800,000	-0,031	-0,083
-331,460	-200,000	-0,014	0,000
-330,445	-35,244	-0,074	-0,029
-329,431	-200,000	-0,017	0,080
-328,416	0,298	0,042	-0,022
-327,402	-68,763	0,113	0,031
-326,387	-125,165	-0,074	0,008
-325,372	7,028	-0,175	-0,093
-324,358	119,964	0,016	-0,014
-323,343	0,156	-0,043	-0,022
-322,329	-1,674	0,121	0,061
-321,314	800,000	-0,017	0,053
-320,299	472,846	-0,044	-0,071
-319,285	224,320	-0,038	-0,044
-318,270	-200,000	-0,030	-0,103
-317,256	-200,000	-0,009	-0,124
-316,241	-200,000	-0,036	-0,162
-315,226	-96,399	-0,118	-0,022
-314,212	800,000	0,076	0,230
-313,197	-125,449	-0,102	-0,011
-312,183	34,829	0,176	0,110
-311,168	30,383	-0,116	-0,071
-310,153	-59,485	-0,034	-0,010
-309,139	-119,710	0,103	-0,013
-308,124	153,906	0,052	-0,052
-307,110	-57,715	-0,024	0,007
-306,095	627,435	0,072	0,131
-305,080	-101,219	0,039	-0,007
-304,066	271,010	-0,104	-0,132
-303,051	-200,000	0,006	0,038
-302,037	-121,889	-0,063	0,007
-301,022	-200,000	0,027	0,096
-300,008	-96,039	0,164	0,031
-298,993	800,000	0,064	0,191
-297,978	173,838	0,119	0,123
-296,964	-200,000	-0,020	-0,138
-295,949	800,000	-0,067	-0,150
-294,935	355,434	-0,013	-0,019
-293,920	-200,000	0,009	0,121
-292,905	332,167	0,040	0,056
-291,891	800,000	0,061	0,125
-290,876	-26,652	0,055	0,023
-289,862	-89,030	0,108	-0,023
-288,847	800,000	-0,048	0,130
-287,832	-200,000	0,000	0,001
-286,818	-132,196	-0,082	0,008
-285,803	-200,000	0,021	-0,143
-284,789	622,434	0,031	0,057
-283,774	-127,314	0,162	0,017
-282,759	-200,000	0,028	-0,122
-281,745	800,000	-0,030	0,064
-280,730	-200,000	0,036	-0,202
-279,716	-200,000	-0,005	-0,074
-278,701	-200,000	0,006	-0,112
-277,686	-5,461	0,077	0,038
-276,672	800,000	-0,022	0,066
-275,657	-200,000	0,006	-0,023
-274,643	-200,000	0,001	0,065
-273,628	7,207	-0,151	0,080
-272,613	-200,000	0,012	-0,047
-271,599	-61,225	0,022	0,007
-270,584	741,091	0,047	-0,091
-269,570	676,378	0,015	-0,028
-268,555	45,862	-0,063	-0,042
-267,540	102,636	-0,116	-0,097
-266,526	339,949	-0,035	0,049
-265,511	232,626	-0,054	0,063
-264,497	-200,000	-0,001	-0,014
-263,482	-84,962	-0,045	0,010
-262,467	124,452	0,046	0,041
-261,453	405,104	0,055	-0,083
-260,438	74,580	-0,013	0,010
-259,424	158,454	-0,078	-0,077
-258,409	23,448	0,023	-0,014
-257,395	800,000	0,037	-0,073
-256,380	-200,000	-0,003	0,069
-255,365	427,193	0,036	0,056
-254,351	162,437	0,045	0,045
-253,336	179,504	-0,036	0,038
-252,322	-92,196	-0,178	0,036
-251,307	-200,000	-0,004	-0,014
-250,292	-152,195	-0,035	0,002
-249,278	90,153	-0,100	0,080
-248,263	-200,000	0,057	-0,188
-247,249	741,746	0,024	-0,046
-246,234	800,000	-0,072	0,151
-245,219	4,486	-0,052	0,027
-244,205	74,977	0,053	0,040
-243,190	-106,311	-0,117	0,018
-242,176	280,958	-0,062	0,080
-241,161	-5,356	-0,025	-0,012
-240,146	-109,901	0,096	-0,014
-239,132	235,830	0,061	-0,072
-238,117	-200,000	0,003	-0,037
-237,103	60,513	0,042	0,030
-236,088	-200,000	0,012	-0,121
-235,073	-200,000	-0,023	0,152
-234,059	-55,234	0,094	0,030
-233,044	19,826	0,103	0,059
-232,030	-178,662	-0,117	-0,002
-231,015	800,000	-0,020	-0,060
-230,000	206,401	0,025	0,028
-228,986	142,112	0,062	0,059
-227,971	-39,701	0,124	-0,046
-226,957	242,055	0,077	-0,093
-225,942	-16,316	0,101	0,045
-224,927	148,087	0,042	0,041
-223,913	800,000	-0,048	-0,139
-222,898	-200,000	-0,017	-0,133
-221,884	-154,796	-0,062	0,003
-220,869	48,291	0,054	-0,036
-219,855	-1,024	0,139	0,070
-218,840	-200,000	0,006	0,058
-217,825	170,917	0,088	0,090
-216,811	118,703	-0,041	-0,036
-215,796	218,487	0,069	-0,079
-214,782	800,000	-0,043	0,108
-213,767	469,444	0,034	-0,055
-212,752	53,647	0,118	0,080
-211,738	-109,267	0,106	-0,016
-210,723	332,313	0,011	0,016
-209,709	-200,000	-0,003	0,049
-208,694	174,737	-0,085	0,088
-207,679	-130,713	-0,134	0,013
-206,665	800,000	-0,014	-0,034
-205,650	-18,403	-0,022	-0,010
-204,636	800,000	-0,048	0,148
-203,621	-144,145	-0,085	0,006
-202,606	187,743	-0,012	-0,013
-201,592	-200,000	0,001	0,097
-200,577	800,000	-0,054	0,117
-199,563	50,710	-0,128	-0,087
-198,548	-152,682	0,092	0,005
-197,533	800,000	-0,039	0,116
-196,519	311,542	-0,040	-0,054
-195,504	-200,000	-0,006	0,099
-194,490	-10,744	-0,116	-0,054
-193,475	201,341	-0,061	-0,067
-192,460	611,527	-0,022	0,040
-191,446	800,000	-0,021	0,051
-190,431	-200,000	-0,044	0,179
-189,417	-146,086	-0,141	0,009
-188,402	-111,414	0,132	0,019
-187,387	249,474	-0,041	-0,049
-186,373	-200,000	0,006	-0,065
-185,358	-200,000	-0,014	0,088
-184,344	-200,000	-0,002	-0,035
-183,329	73,912	-0,080	0,059
-182,315	80,717	0,119	0,092
-181,300	800,000	0,020	0,054
-180,285	-39,295	-0,068	0,025
-179,271	800,000	0,032	-0,077
-178,256	-185,473	-0,058	0,001
-177,242	-0,900	0,128	-0,064
-176,227	305,757	0,039	-0,052
-175,212	-139,435	0,178	0,013
-174,198	47,604	-0,008	0,005
-173,183	800,000	-0,053	-0,144
-172,169	-13,826	-0,041	0,019
-171,154	-10,989	0,088	-0,041
-170,139	800,000	0,013	0,030
-169,125	355,527	-0,065	-0,093
-168,110	-2,704	0,123	-0,061
-167,096	-200,000	-0,034	0,126
-166,081	800,000	0,046	0,122
-165,066	-43,767	0,083	0,029
-164,052	97,920	-0,060	0,049
-163,037	-32,005	0,098	0,039
-162,023	-90,124	0,069	-0,014
-161,008	-120,168	0,027	0,003
-159,993	-200,000	-0,009	-0,030
-158,979	504,287	-0,105	-0,174
-157,964	800,000	-0,032	-0,072
-156,950	171,835	-0,074	-0,076
-155,935	169,897	-0,038	-0,039
-154,920	44,866	0,048	0,031
-153,906	-109,709	-0,109	-0,016
-152,891	800,000	0,032	-0,064
-151,877	-142,512	-0,060	-0,004
-150,862	431,350	-0,078	0,120
-149,847	-115,029	-0,055	0,007
-148,833	-79,870	0,232	0,055
-147,818	365,060	0,058	0,083
-146,804	-143,205	0,164	-0,011
-145,789	222,314	0,037	0,043
-144,775	-200,000	-0,002	0,060
-143,760	-200,000	-0,028	-0,096
-142,745	-102,814	0,027	0,004
-141,731	28,319	0,157	-0,094
-140,716	800,000	-0,037	0,096
-139,702	-200,000	0,014	0,158
-138,687	229,751	0,017	-0,020
-137,672	-124,356	-0,078	0,008
-136,658	-77,359	0,028	0,007
-135,643	7,550	-0,032	-0,017
-134,629	84,570	-0,065	0,051
-133,614	266,270	0,072	0,090
-132,599	-200,000	0,000	-0,093
-131,585	-200,000	-0,015	0,145
-130,570	-200,000	0,033	0,112
-129,556	132,522	0,041	-0,038
-128,541	-78,139	-0,118	-0,029
-127,526	284,982	0,035	0,044
-126,512	-200,000	0,008	0,043
-125,497	-200,000	0,019	0,070
-124,483	-200,000	0,000	-0,062
-123,468	214,474	0,059	0,067
-122,453	-200,000	0,011	0,075
-121,439	-200,000	0,006	-0,096
-120,424	-76,553	0,034	0,008
-119,410	-3,084	0,079	0,039
-118,395	140,513	0,060	0,056
-117,380	29,993	-0,014	-0,008
-116,366	236,963	0,070	-0,083
-115,351	63,569	0,065	0,046
-114,337	-93,396	-0,117	0,023
-113,322	4,128	0,028	-0,015
-112,307	-200,000	-0,012	-0,074
-111,293	-160,533	-0,080	0,003
-110,278	-15,316	0,082	0,037
-109,264	-61,306	-0,057	0,017
-108,249	-72,062	-0,092	-0,024
-107,234	216,451	0,019	-0,022
-106,220	-93,693	-0,079	0,015
-105,205	-200,000	0,003	0,084
-104,191	138,987	0,090	0,084
-103,176	94,154	0,064	0,052
-102,162	800,000	0,067	0,133
-101,147	-73,695	-0,089	0,023
-100,132	50,540	-0,103	-0,069
-99,118	-200,000	-0,008	0,036
-98,103	37,991	0,078	0,049
-97,089	-119,693	0,083	-0,010
-96,074	800,000	0,053	0,108
-95,059	-19,593	0,077	-0,034
-94,045	213,844	-0,061	0,069
-93,030	800,000	-0,052	-0,137
-92,016	72,760	0,064	-0,047
-91,001	-200,000	-0,016	0,087
-89,986	57,415	0,093	0,064
-88,972	444,719	0,017	0,027
-87,957	-200,000	0,018	0,150
-86,943	-80,795	0,099	0,023
-85,928	352,653	-0,019	-0,027
-84,913	70,978	0,089	-0,065
-83,899	-200,000	-0,001	-0,102
-82,884	35,550	0,087	0,054
-81,870	83,549	0,079	0,061
-80,855	-38,597	0,082	0,031
-79,840	-60,565	0,033	-0,010
-78,826	-116,618	-0,158	-0,020
-77,811	664,589	0,057	-0,105
-76,797	800,000	-0,021	-0,042
-75,782	-200,000	0,003	0,127
-74,767	-16,818	0,074	0,033
-73,753	-200,000	0,007	0,058
-72,738	-65,587	0,068	0,019
-71,724	324,172	-0,051	0,069
-70,709	246,106	0,047	-0,057
-69,694	-129,594	-0,062	0,006
-68,680	-200,000	0,029	-0,163
-67,665	420,554	0,065	0,099
-66,651	344,833	0,089	0,124
-65,636	1,904	0,158	0,080
-64,622	800,000	-0,068	0,173
-63,607	-48,640	-0,142	-0,048
-62,592	627,311	-0,077	0,138
-61,578	800,000	0,051	0,159
-60,563	17,006	0,056	0,031
-59,549	-200,000	-0,007	-0,032
-58,534	-33,546	-1,516	-0,591
-57,519	391,558	-1,367	-2,019
-56,505	-200,000	-0,446	-4,540
-55,490	155,817	1,007	0,984
-54,476	800,000	4,845	11,434
-53,461	-200,000	18,646	301,881
-52,446	800,000	735,332	2279,503
-51,432	563,933	1651,254	2845,802
-50,417	78,794	1668,558	1263,891
-49,403	22,193	1541,439	889,661
-48,388	16,121	1464,298	815,647
-47,373	17,814	1454,363	818,256
-46,359	16,932	1444,605	808,506
-45,344	14,374	1439,906	793,601
-44,330	14,340	1437,924	792,311
-43,315	14,297	1436,295	791,179
-42,300	14,338	1434,663	790,444
-41,286	14,369	1433,424	789,877
-40,271	14,321	1432,139	788,908
-39,257	14,277	1431,114	788,106
-38,242	14,372	1429,474	787,620
-37,227	14,357	1428,467	786,964
-36,213	14,378	1427,113	786,287
-35,198	14,342	1426,131	785,544
-34,184	14,431	1424,824	785,216
-33,169	14,335	1423,627	784,066
-32,154	14,366	1422,682	783,664
-31,140	14,356	1421,317	782,832
-30,125	14,362	1420,199	782,216
-29,111	14,356	1419,166	781,585
-28,096	14,308	1418,017	780,695
-27,082	14,271	1417,016	779,940
-26,067	14,303	1416,000	779,498
-25,052	14,275	1414,728	778,635
-24,038	14,269	1413,834	778,088
-23,023	14,301	1412,747	777,609
-22,009	14,264	1411,859	776,915
-20,994	14,258	1410,951	776,356
-19,979	14,196	1410,224	775,632
-18,965	14,197	1408,948	774,908
-17,950	14,208	1408,113	774,467
-16,936	14,217	1407,171	773,962
-15,921	14,200	1406,006	773,210
-14,906	14,174	1405,389	772,721
-13,892	14,203	1404,155	772,147
-12,877	14,155	1403,297	771,418
-11,863	14,201	1402,411	771,115
-10,848	14,157	1401,566	770,413
-9,833	14,131	1400,737	769,806
-8,819	14,127	1399,816	769,251
-7,804	14,090	1398,748	768,462
-6,790	14,116	1397,735	767,998
-5,775	14,098	1396,877	767,411
-4,760	14,088	1395,847	766,770
-3,746	14,085	1394,943	766,230
-2,731	14,094	1394,248	765,857
-1,717	14,062	1393,329	765,173
-0,702	14,080	1391,434	764,185
0,313	17,938	1309,695	737,168
1,327	34,380	705,467	435,165
2,342	52,507	123,992	83,709
3,356	4,192	16,525	8,541
4,371	-6,849	3,249	1,558
5,386	79,023	0,475	0,360
6,400	-200,000	-0,002	0,252
7,415	768,371	-0,107	-0,207
8,429	58,983	-0,314	-0,218
9,444	76,969	-0,213	-0,160
10,459	-27,458	-0,269	-0,110
11,473	63,896	-0,234	-0,166
12,488	110,300	-0,248	-0,210
13,502	78,702	-0,254	-0,192
14,517	433,547	-0,191	-0,295
15,531	-72,984	-0,516	-0,133
16,546	74,356	-0,400	-0,297
17,561	27,376	-0,306	-0,182
18,575	110,187	-0,188	-0,159
19,590	23,370	-0,303	-0,176
20,604	-65,733	-0,344	-0,097
21,619	192,159	-0,335	-0,358
22,634	99,579	-0,464	-0,380
23,648	77,261	-0,461	-0,346
24,663	30,914	-0,330	-0,200
25,677	286,056	-0,343	-0,438
26,692	800,000	-0,240	-0,495
27,707	41,705	-0,266	-0,170
28,721	54,755	-0,434	-0,295
29,736	71,431	-0,398	-0,291
30,750	26,239	-0,374	-0,220
31,765	20,260	-0,374	-0,213
32,780	33,000	-0,357	-0,218
33,794	78,016	-0,283	-0,213
34,809	100,220	-0,450	-0,368
35,823	137,319	-0,329	-0,304
36,838	258,036	-0,263	-0,320
37,853	67,507	-0,404	-0,291
38,867	113,624	-0,417	-0,357
39,882	85,166	-0,410	-0,317
40,896	177,945	-0,233	-0,240
41,911	8,408	-0,467	-0,247
42,926	21,354	-0,384	-0,220
43,940	111,384	-0,382	-0,325
44,955	107,107	-0,336	-0,281
45,969	75,591	-0,362	-0,270
46,984	82,961	-0,389	-0,298
47,999	78,024	-0,267	-0,201
49,013	-83,348	-0,287	-0,064
50,028	-27,398	-0,327	-0,134
51,042	43,586	-0,322	-0,207
52,057	326,664	-0,299	-0,405
53,071	449,692	-0,264	-0,412
54,086	137,857	-0,338	-0,312
55,101	65,404	-0,365	-0,260
56,115	19,025	-0,295	-0,166
57,130	-29,755	-0,320	-0,128
58,144	39,253	-0,242	-0,153
59,159	9,224	-0,451	-0,240
60,174	61,459	-0,368	-0,257
61,188	338,949	-0,312	-0,430
62,203	30,720	-0,324	-0,195
63,217	86,311	-0,285	-0,221
64,232	149,627	-0,266	-0,254
65,247	238,443	-0,281	-0,330
66,261	-9,071	-0,417	-0,196
67,276	43,466	-0,355	-0,228
68,290	51,065	-0,260	-0,173
69,305	183,792	-0,283	-0,295
70,320	29,254	-0,366	-0,218
71,334	-7,968	-0,271	-0,128
72,349	198,265	-0,285	-0,307
73,363	165,060	-0,287	-0,285
74,378	-95,490	-0,396	-0,074
75,393	148,239	-0,266	-0,252
76,407	-18,530	-0,313	-0,137
77,422	-27,655	-0,384	-0,156
78,436	-47,150	-0,270	-0,092
79,451	76,595	-0,233	-0,173
80,466	-66,392	-0,232	-0,065
81,480	27,976	-0,271	-0,160
82,495	35,779	-0,349	-0,216
83,509	128,893	-0,170	-0,152
84,524	237,378	-0,166	-0,194
85,539	-42,882	-0,310	-0,110
86,553	332,433	-0,200	-0,272
87,568	265,392	-0,352	-0,432
88,582	337,704	-0,270	-0,370
89,597	80,945	-0,385	-0,292
90,611	319,450	-0,190	-0,254
91,626	82,335	-0,168	-0,128
92,641	205,895	-0,197	-0,215
93,655	-1,736	-0,356	-0,175
94,670	111,641	-0,293	-0,248
95,684	143,202	-0,244	-0,228
96,699	-15,327	-0,390	-0,175
97,714	27,637	-0,327	-0,193
98,728	357,045	-0,197	-0,277
99,743	149,080	-0,202	-0,192
100,757	-28,126	-0,244	-0,099
101,772	49,459	-0,309	-0,204
102,787	44,187	-0,304	-0,196
103,801	77,974	-0,265	-0,198
104,816	22,277	-0,316	-0,180
105,830	74,198	-0,229	-0,169
106,845	56,206	-0,250	-0,170
107,860	-30,510	-0,233	-0,092
108,874	-69,935	-0,220	-0,058
109,889	28,307	-0,258	-0,152
110,903	179,496	-0,335	-0,344
111,918	448,430	-0,193	-0,299
112,933	140,041	-0,277	-0,256
113,947	800,000	-0,120	-0,313
114,962	-51,906	-0,305	-0,099
115,976	296,447	-0,210	-0,270
116,991	203,885	-0,291	-0,317
118,006	-54,468	-0,245	-0,077
119,020	-16,931	-0,286	-0,126
120,035	363,488	-0,145	-0,205
121,049	-89,377	-0,206	-0,042
122,064	91,573	-0,197	-0,155
123,079	65,754	-0,337	-0,239
124,093	60,058	-0,222	-0,154
125,108	16,689	-0,293	-0,162
126,122	98,276	-0,140	-0,113
127,137	140,943	-0,174	-0,161
128,151	-12,061	-0,312	-0,143
129,166	1,048	-0,206	-0,103
130,181	96,328	-0,183	-0,147
131,195	74,949	-0,306	-0,226
132,210	366,330	-0,222	-0,314
133,224	-13,862	-0,282	-0,127
134,239	46,537	-0,256	-0,166
135,254	201,404	-0,157	-0,169
136,268	212,691	-0,287	-0,318
137,283	127,766	-0,209	-0,186
138,297	21,990	-0,332	-0,189
139,312	49,102	-0,290	-0,190
140,327	26,119	-0,296	-0,172
141,341	610,674	-0,187	-0,329
142,356	325,834	-0,123	-0,166
143,370	200,301	-0,164	-0,176
144,385	29,026	-0,214	-0,127
145,400	187,430	-0,165	-0,172
146,414	8,257	-0,273	-0,143
147,429	81,333	-0,225	-0,170
148,443	380,494	-0,167	-0,240
149,458	130,352	-0,152	-0,137
150,473	77,228	-0,172	-0,128
151,487	72,155	-0,226	-0,165
152,502	136,512	-0,219	-0,200
153,516	227,870	-0,183	-0,208
154,531	181,296	-0,207	-0,213
155,546	61,651	-0,236	-0,164
156,560	13,115	-0,246	-0,133
157,575	174,854	-0,178	-0,180
158,589	800,000	-0,101	-0,205
159,604	-33,277	-0,373	-0,144
160,619	115,725	-0,219	-0,187
161,633	800,000	-0,135	-0,330
162,648	109,244	-0,330	-0,275
163,662	-38,913	-0,372	-0,136
164,677	800,000	-0,122	-0,254
165,692	63,190	-0,193	-0,135
166,706	91,072	-0,292	-0,229
167,721	675,521	-0,153	-0,279
168,735	132,822	-0,178	-0,160
169,750	51,131	-0,252	-0,167
170,764	-58,054	-0,326	-0,099
171,779	-177,848	-0,154	-0,003
172,794	-200,000	-0,209	0,000
173,808	117,168	-0,110	-0,094
174,823	86,752	-0,272	-0,209
175,837	114,897	-0,209	-0,178
176,852	-155,289	-0,275	-0,012
177,867	140,514	-0,129	-0,119
178,881	-47,946	-0,249	-0,083
179,896	247,701	-0,098	-0,115
180,910	-15,863	-0,188	-0,083
181,925	-15,089	-0,241	-0,107
182,940	84,727	-0,186	-0,142
183,954	182,378	-0,131	-0,134
184,969	36,289	-0,105	0,064
185,983	214,287	-0,134	-0,149
186,998	-67,694	-0,322	-0,087
188,013	64,264	-0,246	-0,173
189,027	-54,362	-0,177	-0,056
190,042	-8,877	-0,240	-0,112
191,056	300,236	-0,208	-0,268
192,071	205,180	-0,197	-0,213
193,086	311,633	-0,091	-0,119
194,100	-146,044	-0,222	-0,013
195,115	-125,305	-0,168	0,018
196,129	62,469	-0,221	-0,154
197,144	12,093	-0,275	-0,147
198,159	-37,554	-0,227	-0,084
199,173	62,496	-0,300	-0,208
200,188	424,738	-0,061	-0,092
201,202	315,424	-0,168	-0,222
202,217	-43,689	-0,148	-0,052
203,232	90,776	-0,260	-0,203
204,246	206,850	-0,105	-0,115
205,261	243,415	-0,158	-0,184
206,275	-50,614	-0,180	-0,059
207,290	-28,551	-0,246	-0,098
208,304	25,860	-0,135	-0,078
209,319	14,422	-0,278	-0,151
210,334	192,988	-0,141	-0,149
211,348	-26,436	-0,243	-0,099
212,363	-64,701	-0,186	-0,052
213,377	109,163	-0,178	-0,148
214,392	287,232	-0,143	-0,181
215,407	17,437	-0,139	-0,076
216,421	-36,616	-0,244	-0,091
217,436	19,200	-0,254	-0,141
218,450	420,904	-0,118	-0,176
219,465	106,754	-0,205	-0,169
220,480	69,419	-0,212	-0,152
221,494	15,858	-0,200	-0,109
222,509	47,825	-0,100	0,065
223,523	-50,077	-0,179	-0,059
224,538	-16,082	-0,166	-0,073
225,553	-56,483	-0,256	-0,078
226,567	450,749	-0,170	-0,262
227,582	487,507	-0,107	-0,171
228,596	47,833	-0,170	-0,110
229,611	207,125	-0,231	-0,250
230,626	-121,428	-0,240	0,027
231,640	113,576	-0,177	-0,150
232,655	37,777	-0,195	-0,120
233,669	80,172	-0,268	-0,200
234,684	185,685	-0,152	-0,157
235,699	115,630	-0,135	-0,115
236,713	-24,384	-0,147	-0,061
237,728	-153,250	-0,259	-0,012
238,742	800,000	-0,131	-0,252
239,757	411,647	-0,103	-0,152
240,772	138,439	-0,145	-0,132
241,786	215,816	-0,178	-0,197
242,801	99,876	-0,184	-0,147
243,815	800,000	-0,091	-0,207
244,830	33,714	-0,198	-0,119
245,844	29,071	-0,236	-0,138
246,859	-134,670	-0,160	-0,013
247,874	223,031	-0,132	-0,147
248,888	-59,993	-0,241	-0,071
249,903	252,288	-0,194	-0,229
250,917	-200,000	-0,028	-0,297
251,932	-63,598	-0,117	-0,033
252,947	-196,117	-0,245	0,001
253,961	-33,195	-0,202	-0,077
254,976	-1,685	-0,215	-0,104
255,990	388,414	-0,181	-0,260
257,005	320,559	-0,140	-0,184
258,020	62,862	-0,155	-0,107
259,034	-31,020	-0,250	-0,097
260,049	58,874	-0,268	-0,182
261,063	-48,839	-0,168	-0,055
262,078	-2,670	-0,199	-0,096
263,093	-76,393	-0,193	-0,047
264,107	14,888	-0,138	-0,075
265,122	494,048	-0,102	-0,162
266,136	-78,765	-0,133	0,031
267,151	42,164	-0,202	-0,126
268,166	-128,466	-0,212	0,021
269,180	-98,939	-0,188	-0,033
270,195	8,155	-0,233	-0,121
271,209	-51,070	-0,193	-0,062
272,224	-95,135	-0,195	-0,036
273,239	4,061	-0,138	-0,070
274,253	-65,970	-0,226	-0,062
275,268	46,448	-0,185	-0,118
276,282	56,860	-0,168	-0,113
277,297	92,029	-0,187	-0,146
278,312	102,184	-0,191	-0,154
279,326	45,538	-0,257	-0,164
280,341	56,830	-0,095	-0,064
281,355	-60,129	-0,110	0,032
282,370	111,638	-0,244	-0,204
283,384	116,202	-0,118	-0,099
284,399	800,000	-0,128	-0,310
285,414	520,058	-0,063	-0,103
286,428	322,590	-0,148	-0,195
287,443	55,689	-0,106	-0,071
288,457	-0,099	-0,118	-0,058
289,472	5,335	-0,127	-0,064
290,487	154,097	-0,223	-0,212
291,501	706,154	-0,085	-0,156
292,516	485,259	-0,212	-0,334
293,530	-189,235	-0,059	-0,000
294,545	11,017	-0,216	-0,114
295,560	768,743	-0,037	0,069
296,574	800,000	-0,044	-0,118
297,589	233,528	-0,072	-0,082
298,603	-41,289	-0,128	-0,045
299,618	-35,860	-0,165	-0,061
300,633	-200,000	-0,020	-0,145
301,647	342,809	0,040	0,054
302,662	89,414	-0,100	-0,077
303,676	661,187	-0,121	-0,216
304,691	208,303	-0,216	-0,233
305,706	800,000	-0,046	-0,120
306,720	99,562	-0,122	-0,098
307,735	-129,359	-0,149	-0,014
308,749	800,000	-0,060	-0,157
309,764	-43,697	-0,201	0,070
310,779	26,445	-0,169	-0,097
311,793	-81,035	-0,100	-0,023
312,808	39,387	-0,140	-0,086
313,822	-82,453	-0,057	-0,013
314,837	97,864	-0,089	0,070
315,852	-0,627	-0,071	-0,035
316,866	-200,000	-0,016	-0,174
317,881	5,903	-0,132	-0,067
318,895	-98,468	-0,091	-0,016
319,910	282,720	-0,145	-0,180
320,925	19,776	-0,147	-0,082
321,939	-26,709	-0,182	-0,073
322,954	-11,378	-0,132	-0,060
323,968	-21,762	-0,113	-0,047
324,983	87,170	-0,049	-0,037
325,997	-51,746	-0,199	-0,064
327,012	127,267	-0,148	-0,129
328,027	-38,360	-0,202	-0,073
329,041	205,755	-0,148	-0,159
330,056	-130,379	-0,161	-0,015
331,070	124,208	-0,117	-0,101
332,085	67,988	-0,096	-0,068
333,100	-71,303	-0,142	-0,036
334,114	67,898	-0,192	-0,135
335,129	219,403	-0,217	-0,240
336,143	-31,218	-0,201	-0,078
337,158	20,333	-0,103	-0,057
338,173	-89,938	-0,097	-0,019
339,187	163,912	-0,111	-0,108
340,202	-6,942	-0,061	-0,028
341,216	-50,347	-0,205	0,066
342,231	-111,085	-0,239	-0,033
343,246	167,741	-0,105	-0,103
344,260	50,879	-0,108	-0,070
345,275	249,710	-0,156	-0,183
346,289	0,280	-0,118	-0,058
347,304	179,185	-0,155	-0,156
348,319	149,551	-0,145	-0,135
349,333	390,014	-0,124	-0,176
350,348	206,409	-0,190	-0,203
351,362	600,475	-0,086	-0,148
352,377	446,497	-0,100	-0,152
353,392	165,766	-0,221	-0,215
354,406	554,472	-0,107	-0,177
355,421	207,156	1314,115	1408,872
356,435	159,346	1474,775	1409,384
