DTS Sentinel unit serial number:	SN410029Multiplexer serial number:	ORYXHardware model number:	OX2-SRSoftware version number:	ORYX F/W v4,00 Oryx Data Collector v3.7.2.0data status	okinstallation	B3 Nyhavnadifferential loss correction	single-endedforward channel	channel 1reverse channel	N/Adate	2023/11/30time	10:47:30forward acquisition time	300,00reverse acquisition time	0,00gamma	499,1914k internal	0,3211k external	0,3211temperature offset calibration	1,0000default loss term (dB/km)	0,3820temperature slope calibration	1,0000multiplexer offset coefficient	1,0000multiplexer slope coefficient	1,0000fibre end	0,00T internal ref (°C)	9,56T ext. ref 1 (°C)	-5,46T ext. ref 2 (°C)	-5,58length (m)	temperature (°C)	Stokes	anti-Stokes-744,400	270,715	-0,185	-0,236
-743,385	-200,000	-0,036	0,214
-742,371	-103,847	-0,085	-0,014
-741,356	-200,000	-0,086	0,356
-740,342	432,027	-0,167	-0,264
-739,327	-200,000	0,021	0,259
-738,312	173,363	-0,255	-0,266
-737,298	-200,000	-0,041	0,229
-736,283	61,731	-0,257	-0,185
-735,269	92,380	-0,254	0,208
-734,254	18,231	-0,319	-0,184
-733,239	76,782	-0,154	0,118
-732,225	-200,000	0,004	-0,157
-731,210	-31,266	0,186	0,076
-730,196	105,584	-0,055	0,047
-729,181	-200,000	-0,005	-0,044
-728,167	470,760	-0,054	0,089
-727,152	-200,000	0,005	0,156
-726,137	9,396	-0,034	0,018
-725,123	-74,740	-0,093	-0,024
-724,108	-200,000	-0,027	-0,157
-723,094	-200,000	-0,042	-0,143
-722,079	800,000	-0,064	-0,142
-721,064	-2,338	0,063	-0,032
-720,050	800,000	0,057	0,136
-719,035	-98,333	-0,177	0,033
-718,021	-200,000	-0,018	-0,090
-717,006	49,513	-0,104	-0,071
-715,991	-200,000	-0,023	0,079
-714,977	533,153	-0,052	-0,089
-713,962	157,443	0,055	0,055
-712,948	9,059	0,016	-0,009
-711,933	244,865	-0,058	-0,070
-710,918	466,643	-0,017	0,028
-709,904	-200,000	-0,009	-0,090
-708,889	-114,542	0,111	-0,015
-707,875	-200,000	-0,040	-0,151
-706,860	685,625	-0,047	0,088
-705,845	-200,000	-0,049	0,169
-704,831	-200,000	-0,012	0,136
-703,816	257,313	0,040	-0,050
-702,802	145,942	-0,076	0,074
-701,787	-87,313	-0,064	-0,014
-700,772	33,695	0,135	0,085
-699,758	-162,803	-0,097	0,003
-698,743	-120,084	0,106	-0,013
-697,729	317,102	0,056	-0,077
-696,714	797,015	-0,017	-0,033
-695,699	-8,002	-0,082	-0,040
-694,685	-127,833	-0,148	0,015
-693,670	800,000	0,009	-0,026
-692,656	124,793	-0,046	-0,042
-691,641	93,806	-0,036	-0,029
-690,627	-200,000	0,001	0,039
-689,612	-200,000	-0,041	0,164
-688,597	25,545	-0,007	0,004
-687,583	-200,000	-0,025	-0,192
-686,568	275,450	-0,087	-0,112
-685,554	-109,756	-0,095	-0,014
-684,539	-49,739	0,043	-0,015
-683,524	-200,000	-0,019	0,074
-682,510	231,034	0,019	-0,022
-681,495	-76,179	-0,135	0,034
-680,481	94,392	-0,009	0,008
-679,466	-200,000	0,007	0,099
-678,451	-200,000	0,004	-0,113
-677,437	21,724	0,015	0,009
-676,422	800,000	0,043	-0,093
-675,408	154,134	0,042	-0,042
-674,393	86,054	0,016	0,013
-673,378	43,025	-0,084	-0,055
-672,364	477,191	-0,054	-0,088
-671,349	-9,277	-0,093	0,045
-670,335	-105,078	-0,166	-0,027
-669,320	-16,498	0,113	-0,051
-668,305	270,631	-0,052	-0,066
-667,291	118,188	0,054	-0,048
-666,276	348,098	-0,045	-0,064
-665,262	163,560	-0,083	-0,084
-664,247	-91,119	0,044	-0,009
-663,232	800,000	-0,062	-0,139
-662,218	214,410	0,105	0,120
-661,203	-200,000	-0,001	0,076
-660,189	92,648	-0,033	-0,027
-659,174	-54,142	-0,080	-0,026
-658,159	-200,000	0,002	-0,035
-657,145	-55,000	-0,082	-0,026
-656,130	-123,654	-0,020	0,002
-655,116	-78,316	0,123	0,030
-654,101	-38,687	-0,057	-0,022
-653,086	-200,000	0,010	0,175
-652,072	-161,556	-0,071	0,003
-651,057	753,975	0,017	0,034
-650,043	218,733	0,109	-0,127
-649,028	-76,613	-0,152	-0,038
-648,014	800,000	0,049	0,104
-646,999	210,013	-0,053	0,061
-645,984	-200,000	0,006	-0,083
-644,970	-200,000	0,002	-0,023
-643,955	157,096	-0,044	0,044
-642,941	216,947	0,097	-0,112
-641,926	-87,085	-0,071	-0,015
-640,911	268,172	0,040	0,051
-639,897	651,469	0,076	0,141
-638,882	4,965	0,151	0,080
-637,868	-121,789	-0,050	-0,006
-636,853	741,159	-0,054	0,105
-635,838	113,997	-0,040	-0,035
-634,824	-200,000	0,004	-0,085
-633,809	682,868	-0,047	0,089
-632,795	61,750	0,085	0,061
-631,780	21,949	0,140	-0,082
-630,765	-56,043	0,093	0,030
-629,751	12,326	-0,231	-0,128
-628,736	252,605	-0,033	-0,041
-627,722	-25,299	-0,093	0,039
-626,707	-129,309	0,071	-0,007
-625,692	-168,002	-0,125	0,003
-624,678	48,925	0,063	-0,043
-623,663	-112,186	0,027	0,004
-622,649	-200,000	-0,009	-0,065
-621,634	-79,171	-0,128	-0,031
-620,619	-200,000	0,000	-0,029
-619,605	79,478	0,122	-0,094
-618,590	-200,000	-0,002	0,022
-617,576	-200,000	0,002	0,034
-616,561	-43,756	0,115	0,042
-615,546	265,528	0,049	0,062
-614,532	216,646	-0,069	-0,079
-613,517	-110,881	-0,080	-0,012
-612,503	-200,000	0,018	-0,078
-611,488	-200,000	-0,014	0,078
-610,474	229,793	-0,035	0,042
-609,459	516,200	0,032	0,055
-608,444	239,314	-0,037	-0,045
-607,430	-200,000	-0,016	-0,063
-606,415	255,281	-0,056	-0,069
-605,401	67,479	0,045	-0,033
-604,386	11,926	0,021	-0,012
-603,371	-31,209	0,032	-0,013
-602,357	800,000	-0,015	0,042
-601,342	257,551	-0,074	-0,092
-600,328	739,966	-0,005	0,010
-599,313	158,672	-0,043	0,043
-598,298	131,677	-0,094	0,087
-597,284	-56,185	0,109	-0,035
-596,269	-200,000	0,004	-0,053
-595,255	129,416	-0,052	0,048
-594,240	-200,000	0,030	0,151
-593,225	-120,037	0,040	-0,005
-592,211	417,645	-0,047	-0,073
-591,196	-200,000	0,011	-0,056
-590,182	-200,000	0,016	-0,136
-589,167	-200,000	-0,001	0,055
-588,152	220,855	0,024	0,028
-587,138	-148,914	-0,140	0,008
-586,123	-153,791	0,032	0,002
-585,109	353,617	-0,100	-0,144
-584,094	-87,030	0,032	-0,007
-583,079	274,051	-0,073	-0,094
-582,065	-200,000	-0,008	0,051
-581,050	86,444	-0,088	-0,070
-580,036	-43,024	0,055	-0,020
-579,021	-13,724	0,147	-0,068
-578,006	-34,172	-0,098	-0,038
-576,992	-200,000	0,009	0,041
-575,977	282,335	0,023	0,030
-574,963	294,375	0,069	0,091
-573,948	-94,189	-0,153	0,030
-572,934	-200,000	-0,007	-0,107
-571,919	75,464	-0,073	0,056
-570,904	35,824	0,045	0,029
-569,890	-108,918	-0,067	-0,010
-568,875	-200,000	0,040	-0,130
-567,861	263,971	-0,099	0,124
-566,846	-200,000	0,019	-0,085
-565,831	325,951	-0,014	0,019
-564,817	-200,000	-0,014	-0,090
-563,802	800,000	-0,072	-0,209
-562,788	281,040	-0,067	-0,086
-561,773	66,461	0,062	0,046
-560,758	-55,815	0,176	0,056
-559,744	435,283	-0,090	0,141
-558,729	14,227	0,054	0,030
-557,715	2,067	-0,096	0,049
-556,700	-200,000	-0,005	-0,061
-555,685	-39,177	0,028	0,011
-554,671	-200,000	0,034	0,118
-553,656	-77,076	0,086	0,021
-552,642	800,000	0,005	-0,013
-551,627	-27,900	0,064	0,027
-550,612	200,968	0,032	-0,036
-549,598	98,370	-0,053	-0,044
-548,583	143,756	-0,057	0,054
-547,569	-6,004	0,039	-0,019
-546,554	-200,000	0,008	-0,041
-545,539	-200,000	0,000	-0,031
-544,525	-157,390	0,056	-0,002
-543,510	675,248	-0,065	-0,123
-542,496	-143,899	-0,102	-0,007
-541,481	-48,636	0,020	-0,007
-540,466	-41,282	-0,123	0,045
-539,452	-75,504	0,127	0,032
-538,437	85,578	-0,165	0,130
-537,423	153,250	-0,033	-0,032
-536,408	-41,284	-0,026	0,010
-535,393	-200,000	0,017	-0,212
-534,379	260,693	-0,104	-0,130
-533,364	573,523	-0,039	0,068
-532,350	350,741	-0,031	0,044
-531,335	469,967	0,062	-0,101
-530,321	231,358	0,076	-0,090
-529,306	-116,960	0,070	-0,009
-528,291	68,802	-0,080	-0,059
-527,277	-200,000	0,006	-0,023
-526,262	-46,530	-0,020	0,007
-525,248	65,055	0,074	0,053
-524,233	800,000	0,023	-0,067
-523,218	-200,000	-0,013	0,067
-522,204	-156,436	-0,135	0,006
-521,189	355,000	-0,018	0,026
-520,175	50,066	0,038	0,026
-519,160	430,669	0,042	-0,066
-518,145	-132,884	-0,081	-0,007
-517,131	-146,496	0,185	-0,011
-516,116	146,034	-0,061	0,059
-515,102	-178,240	0,044	-0,001
-514,087	-48,130	0,105	-0,036
-513,072	-200,000	-0,001	0,040
-512,058	-102,486	-0,083	0,014
-511,043	535,392	-0,064	0,110
-510,029	-171,106	0,186	0,004
-509,014	-200,000	-0,001	0,049
-507,999	-108,799	-0,072	-0,011
-506,985	-200,000	-0,019	-0,121
-505,970	-80,499	-0,083	-0,020
-504,956	32,310	0,055	0,034
-503,941	83,846	0,100	-0,078
-502,926	-64,698	-0,127	-0,037
-501,912	800,000	0,057	-0,134
-500,897	126,137	-0,054	0,049
-499,883	110,474	0,111	0,096
-498,868	113,997	-0,058	-0,051
-497,853	-141,298	-0,080	0,006
-496,839	53,571	-0,079	-0,054
-495,824	438,239	0,089	-0,139
-494,810	-200,000	-0,027	-0,109
-493,795	800,000	0,005	-0,012
-492,781	121,594	0,103	-0,092
-491,766	108,743	-0,055	-0,047
-490,751	104,384	0,086	0,073
-489,737	-101,131	-0,039	-0,007
-488,722	800,000	-0,015	-0,044
-487,708	538,623	-0,015	0,026
-486,693	185,594	0,047	-0,050
-485,678	-200,000	0,041	0,137
-484,664	800,000	-0,059	-0,156
-483,649	3,850	0,046	-0,024
-482,635	-200,000	-0,030	-0,101
-481,620	-26,171	0,254	0,107
-480,605	-89,637	-0,094	0,020
-479,591	-200,000	-0,007	-0,161
-478,576	81,020	0,089	0,069
-477,562	-200,000	-0,023	-0,113
-476,547	-149,450	-0,065	-0,004
-475,532	563,936	0,045	-0,079
-474,518	-99,169	0,098	-0,018
-473,503	-52,974	0,137	-0,045
-472,489	-91,346	-0,178	-0,036
-471,474	32,136	0,079	-0,049
-470,459	-32,241	-0,032	-0,013
-469,445	-120,704	-0,036	-0,004
-468,430	61,385	0,108	-0,077
-467,416	-21,813	0,134	0,058
-466,401	168,082	0,031	-0,031
-465,386	-71,455	-0,150	-0,040
-464,372	324,211	-0,041	0,056
-463,357	-200,000	-0,015	-0,064
-462,343	-155,544	0,103	0,005
-461,328	800,000	0,012	-0,032
-460,313	800,000	-0,051	0,104
-459,299	251,264	-0,107	0,131
-458,284	-99,107	-0,103	-0,019
-457,270	-38,730	0,041	0,015
-456,255	-120,362	-0,089	0,011
-455,241	800,000	-0,053	-0,149
-454,226	795,560	-0,115	-0,227
-453,211	-163,262	0,029	0,001
-452,197	620,948	0,044	0,080
-451,182	-200,000	-0,009	0,090
-450,168	776,030	0,084	0,166
-449,153	178,749	-0,078	-0,081
-448,138	-200,000	-0,007	-0,118
-447,124	5,492	-0,084	-0,044
-446,109	63,952	0,101	-0,072
-445,095	-200,000	0,001	0,104
-444,080	-96,939	0,093	-0,017
-443,065	800,000	0,057	0,162
-442,051	-100,798	-0,038	0,007
-441,036	-155,797	0,067	-0,003
-440,022	113,710	-0,076	-0,066
-439,007	-5,090	-0,063	-0,031
-437,992	-144,405	0,083	0,005
-436,978	19,038	0,071	-0,040
-435,963	-200,000	-0,007	0,048
-434,949	-200,000	-0,013	0,067
-433,934	800,000	-0,079	-0,182
-432,919	550,027	-0,099	-0,171
-431,905	-25,362	0,106	-0,045
-430,890	800,000	0,032	0,079
-429,876	124,943	0,019	0,017
-428,861	44,503	0,047	0,031
-427,846	416,565	0,009	-0,014
-426,832	-126,969	0,043	-0,004
-425,817	99,796	-0,079	0,066
-424,803	7,835	0,010	-0,005
-423,788	114,848	-0,021	0,019
-422,773	75,755	0,071	-0,054
-421,759	-53,226	0,098	-0,032
-420,744	-153,624	-0,067	0,003
-419,730	-103,090	-0,065	-0,011
-418,715	-91,633	-0,148	-0,030
-417,701	-144,881	-0,061	0,004
-416,686	-56,830	0,063	0,020
-415,671	-72,396	-0,071	-0,019
-414,657	-200,000	0,003	-0,045
-413,642	-200,000	-0,002	-0,030
-412,628	111,822	0,041	-0,036
-411,613	2,060	0,124	-0,064
-410,598	-200,000	0,017	0,086
-409,584	725,268	0,071	0,137
-408,569	-200,000	-0,018	0,166
-407,555	-200,000	0,007	-0,053
-406,540	800,000	0,029	0,066
-405,525	-200,000	-0,033	-0,116
-404,511	-134,126	-0,126	0,011
-403,496	-81,782	-0,088	0,020
-402,482	-88,668	-0,012	-0,002
-401,467	-108,963	0,139	-0,021
-400,452	-19,810	0,060	0,026
-399,438	-200,000	-0,024	0,223
-398,423	149,595	0,053	0,051
-397,409	202,057	-0,079	0,088
-396,394	73,390	-0,225	0,168
-395,379	-45,000	0,093	-0,033
-394,365	255,319	0,019	0,023
-393,350	-200,000	-0,005	0,133
-392,336	-16,129	0,172	0,078
-391,321	-65,162	-0,106	0,030
-390,306	-200,000	0,002	-0,158
-389,292	800,000	0,019	-0,057
-388,277	105,480	0,059	-0,050
-387,263	-200,000	0,001	-0,081
-386,248	228,089	0,059	0,069
-385,233	800,000	-0,029	0,083
-384,219	-200,000	-0,027	0,159
-383,204	-200,000	0,023	0,138
-382,190	662,133	-0,045	-0,084
-381,175	-200,000	-0,157	0,000
-380,160	-27,008	0,109	-0,045
-379,146	-169,349	0,146	-0,004
-378,131	82,448	-0,032	0,025
-377,117	-200,000	-0,002	-0,079
-376,102	-200,000	0,017	-0,121
-375,088	67,489	0,111	-0,081
-374,073	81,003	0,036	0,028
-373,058	-25,757	0,058	-0,024
-372,044	135,820	0,122	0,113
-371,029	20,124	0,116	0,067
-370,015	800,000	0,046	0,094
-369,000	-167,124	-0,185	-0,005
-367,985	-86,351	-0,135	-0,029
-366,971	589,002	0,077	0,137
-365,956	43,395	-0,083	0,054
-364,942	104,765	-0,057	-0,048
-363,927	-45,422	0,067	-0,024
-362,912	-42,225	-0,077	0,028
-361,898	-200,000	0,000	0,081
-360,883	-65,895	-0,069	-0,020
-359,869	305,592	-0,010	-0,014
-358,854	-200,000	-0,007	-0,188
-357,839	-72,651	0,149	-0,039
-356,825	-25,085	-0,115	0,048
-355,810	-150,198	0,121	0,007
-354,796	136,786	0,063	-0,058
-353,781	800,000	0,044	0,113
-352,766	-200,000	-0,141	-0,000
-351,752	-117,536	0,069	0,009
-350,737	800,000	0,042	0,106
-349,723	800,000	-0,039	0,080
-348,708	-200,000	0,002	-0,124
-347,693	420,990	-0,051	0,078
-346,679	160,341	0,026	-0,026
-345,664	614,331	0,047	-0,085
-344,650	-60,602	0,054	-0,016
-343,635	-200,000	0,016	0,087
-342,620	-117,126	-0,013	0,002
-341,606	-86,303	0,059	-0,013
-340,591	-59,504	-0,026	0,008
-339,577	-67,236	0,067	-0,019
-338,562	-103,891	-0,118	-0,019
-337,548	-46,698	-0,030	-0,010
-336,533	-36,077	0,104	-0,040
-335,518	192,034	0,024	0,026
-334,504	258,325	-0,053	0,065
-333,489	58,986	0,074	-0,052
-332,475	-15,909	-0,136	-0,062
-331,460	332,234	-0,070	-0,096
-330,445	118,113	0,046	0,041
-329,431	-90,774	-0,041	0,008
-328,416	800,000	-0,029	-0,090
-327,402	800,000	-0,018	0,036
-326,387	42,393	-0,067	0,044
-325,372	-200,000	-0,005	-0,058
-324,358	-169,110	0,128	-0,003
-323,343	484,439	-0,021	-0,034
-322,329	-200,000	0,005	-0,074
-321,314	800,000	0,036	-0,106
-320,299	482,184	0,032	0,053
-319,285	-15,172	0,082	0,037
-318,270	-184,242	0,064	-0,001
-317,256	478,667	-0,028	0,046
-316,241	49,080	0,023	0,016
-315,226	90,581	-0,033	0,026
-314,212	-124,601	0,024	-0,003
-313,197	-200,000	0,004	0,053
-312,183	-57,320	-0,059	0,018
-311,168	-200,000	-0,017	0,085
-310,153	-200,000	-0,004	-0,023
-309,139	-48,500	-0,119	0,040
-308,124	800,000	0,060	0,164
-307,110	-108,963	0,030	0,005
-306,095	509,447	-0,068	0,114
-305,080	-200,000	0,002	0,033
-304,066	-70,007	-0,052	0,014
-303,051	-200,000	-0,030	-0,156
-302,037	-200,000	-0,014	0,046
-301,022	-200,000	-0,014	-0,077
-300,008	650,696	-0,057	0,105
-298,993	-160,663	0,282	0,010
-297,978	-200,000	0,015	0,084
-296,964	-200,000	-0,014	-0,098
-295,949	-145,812	-0,066	0,004
-294,935	271,166	-0,083	-0,104
-293,920	169,368	0,123	0,125
-292,905	-30,243	0,129	0,052
-291,891	-200,000	-0,054	0,000
-290,876	-200,000	-0,004	-0,011
-289,862	56,164	-0,054	0,037
-288,847	-67,972	-0,086	0,024
-287,832	-3,833	-0,059	0,029
-286,818	-146,888	0,025	-0,002
-285,803	-127,538	-0,019	-0,002
-284,789	-200,000	0,019	0,077
-283,774	-200,000	-0,014	0,055
-282,759	-154,058	-0,211	0,010
-281,745	-96,070	-0,044	-0,008
-280,730	-200,000	0,006	0,038
-279,716	-29,863	0,070	0,028
-278,701	-200,000	0,003	-0,042
-277,686	-200,000	0,003	-0,035
-276,672	800,000	0,026	0,074
-275,657	-200,000	0,009	-0,030
-274,643	445,819	-0,052	-0,082
-273,628	172,066	-0,055	-0,057
-272,613	-200,000	0,020	-0,090
-271,599	-200,000	0,000	-0,098
-270,584	-200,000	-0,048	0,154
-269,570	-200,000	-0,013	-0,109
-268,555	-108,986	0,098	-0,015
-267,540	-44,242	-0,132	-0,047
-266,526	-119,385	0,091	-0,011
-265,511	-6,301	0,057	-0,028
-264,497	405,958	-0,062	0,093
-263,482	163,555	-0,055	0,055
-262,467	-200,000	0,012	0,200
-261,453	-200,000	-0,009	0,038
-260,438	800,000	-0,020	0,045
-259,424	800,000	-0,073	-0,155
-258,409	800,000	0,052	-0,163
-257,395	-200,000	0,014	-0,092
-256,380	-200,000	0,035	0,172
-255,365	-60,400	-0,032	-0,010
-254,351	800,000	-0,021	-0,045
-253,336	-101,095	0,121	0,021
-252,322	-69,907	0,049	0,013
-251,307	379,578	-0,123	-0,180
-250,292	-149,788	0,151	0,008
-249,278	184,167	-0,104	0,109
-248,263	148,146	-0,055	0,053
-247,249	-82,508	-0,058	-0,013
-246,234	-97,982	0,063	-0,011
-245,219	139,259	-0,051	0,047
-244,205	-200,000	-0,017	-0,090
-243,190	-171,581	-0,051	-0,001
-242,176	-11,149	0,054	0,025
-241,161	-200,000	0,018	-0,109
-240,146	237,891	-0,033	-0,039
-239,132	233,386	0,064	-0,075
-238,117	176,072	0,059	0,061
-237,103	-37,580	-0,115	0,044
-236,088	-200,000	-0,010	-0,056
-235,073	65,013	-0,020	-0,015
-234,059	-200,000	0,020	0,126
-233,044	-200,000	-0,001	0,045
-232,030	276,817	-0,101	0,128
-231,015	-33,814	-0,065	0,025
-230,000	-200,000	0,000	-0,186
-228,986	-124,602	0,136	0,015
-227,971	-200,000	0,007	-0,063
-226,957	435,891	0,031	0,048
-225,942	275,889	-0,023	0,029
-224,927	141,073	0,145	0,136
-223,913	-200,000	-0,018	0,073
-222,898	800,000	0,017	0,036
-221,884	-43,419	-0,071	0,025
-220,869	-128,000	0,119	-0,012
-219,855	800,000	0,056	0,143
-218,840	174,429	0,043	-0,044
-217,825	263,960	0,047	-0,059
-216,811	166,474	0,037	0,037
-215,796	-200,000	-0,012	0,075
-214,782	-200,000	0,011	-0,178
-213,767	209,394	0,053	0,059
-212,752	396,815	0,081	0,121
-211,738	-200,000	-0,006	0,040
-210,723	800,000	0,038	0,082
-209,709	535,253	-0,051	-0,086
-208,694	-200,000	-0,020	0,063
-207,679	800,000	-0,052	0,159
-206,665	23,598	0,115	0,067
-205,650	274,934	-0,066	-0,083
-204,636	-200,000	0,006	0,087
-203,621	161,463	0,032	0,032
-202,606	401,661	-0,057	-0,086
-201,592	-200,000	-0,002	-0,031
-200,577	-74,206	0,080	-0,020
-199,563	-19,670	-0,041	0,018
-198,548	-111,680	0,100	0,014
-197,533	15,072	-0,058	0,032
-196,519	459,248	-0,015	0,025
-195,504	-200,000	0,018	-0,088
-194,490	-129,856	-0,131	-0,013
-193,475	107,393	0,164	-0,139
-192,460	-149,642	0,086	-0,005
-191,446	800,000	0,021	-0,057
-190,431	800,000	-0,038	0,111
-189,417	-39,113	-0,109	0,040
-188,402	-81,255	0,134	-0,031
-187,387	800,000	0,075	-0,200
-186,373	-200,000	0,029	0,177
-185,358	-18,916	0,131	0,058
-184,344	691,136	0,044	0,082
-183,329	151,150	-0,057	0,056
-182,315	-74,333	0,133	0,034
-181,300	192,721	-0,052	0,056
-180,285	149,875	-0,080	0,077
-179,271	55,411	-0,129	-0,088
-178,256	-106,137	0,041	0,006
-177,242	-94,740	-0,136	-0,026
-176,227	-200,000	-0,002	-0,055
-175,212	800,000	0,039	0,079
-174,198	83,538	0,035	0,027
-173,183	-29,222	-0,077	-0,031
-172,169	45,969	0,157	-0,103
-171,154	-114,338	-0,155	0,021
-170,139	387,857	-0,060	-0,089
-169,125	248,726	0,073	0,087
-168,110	800,000	-0,060	0,120
-167,096	135,524	0,081	-0,074
-166,081	118,709	0,085	0,074
-165,066	239,390	0,082	0,096
-164,052	8,361	-0,054	-0,029
-163,037	800,000	-0,034	0,084
-162,023	33,456	0,077	0,048
-161,008	-104,608	0,058	-0,009
-159,993	335,027	0,058	0,080
-158,979	36,921	-0,040	-0,025
-157,964	86,632	-0,112	-0,088
-156,950	62,803	-0,100	-0,071
-155,935	800,000	-0,041	-0,119
-154,920	-116,641	-0,130	-0,017
-153,906	-200,000	0,020	0,207
-152,891	-10,861	0,056	0,026
-151,877	-200,000	0,000	-0,107
-150,862	-200,000	0,011	-0,069
-149,847	-200,000	-0,013	0,114
-148,833	1,128	0,138	-0,070
-147,818	-9,249	0,069	0,033
-146,804	-200,000	0,030	0,106
-145,789	-200,000	0,046	0,152
-144,775	-200,000	-0,021	0,100
-143,760	149,417	0,040	-0,038
-142,745	800,000	0,046	-0,102
-141,731	104,295	-0,047	0,039
-140,716	-200,000	0,014	0,135
-139,702	-155,184	0,150	0,007
-138,687	172,729	-0,104	-0,107
-137,672	800,000	-0,041	-0,105
-136,658	-136,740	0,074	0,006
-135,643	-105,182	-0,060	0,010
-134,629	-200,000	-0,001	0,021
-133,614	149,385	0,097	-0,093
-132,599	102,901	0,064	0,053
-131,585	402,790	0,021	0,031
-130,570	-67,743	0,134	-0,037
-129,556	-200,000	0,015	-0,061
-128,541	182,009	0,067	-0,070
-127,526	236,560	0,069	0,081
-126,512	26,801	-0,029	-0,017
-125,497	13,303	0,024	-0,013
-124,483	-200,000	-0,008	-0,066
-123,468	-200,000	-0,000	0,197
-122,453	800,000	-0,020	-0,052
-121,439	-200,000	0,014	-0,082
-120,424	-131,007	-0,090	0,008
-119,410	620,583	-0,041	-0,072
-118,395	562,735	0,050	0,086
-117,380	337,234	0,034	0,047
-116,366	14,830	-0,074	-0,041
-115,351	-200,000	0,002	-0,049
-114,337	-157,398	-0,067	0,003
-113,322	3,933	0,098	-0,050
-112,307	-116,702	0,061	0,008
-111,293	85,167	0,048	-0,037
-110,278	27,572	-0,177	0,105
-109,264	504,727	0,044	-0,072
-108,249	-200,000	-0,003	-0,046
-107,234	323,024	-0,014	-0,018
-106,220	-200,000	0,013	-0,058
-105,205	196,903	0,012	0,013
-104,191	-20,626	0,061	0,026
-103,176	531,150	0,071	-0,119
-102,162	800,000	0,066	-0,142
-101,147	800,000	0,077	-0,202
-100,132	-80,705	-0,149	0,035
-99,118	800,000	-0,019	-0,041
-98,103	-9,524	0,069	-0,033
-97,089	-200,000	0,019	0,087
-96,074	20,095	0,088	0,050
-95,059	800,000	0,031	-0,085
-94,045	-200,000	0,004	0,022
-93,030	20,023	0,060	-0,034
-92,016	-66,598	-0,301	-0,084
-91,001	451,852	-0,017	-0,027
-89,986	38,586	0,030	-0,019
-88,972	-22,517	0,052	-0,022
-87,957	-200,000	-0,026	0,109
-86,943	181,013	0,025	-0,026
-85,928	330,457	-0,006	-0,008
-84,913	545,443	-0,122	-0,207
-83,899	-200,000	0,005	0,040
-82,884	-196,410	0,088	-0,000
-81,870	800,000	-0,019	-0,053
-80,855	306,099	0,009	0,012
-79,840	-144,090	-0,083	0,005
-78,826	-200,000	-0,010	-0,033
-77,811	-47,166	-0,105	0,036
-76,797	-141,654	-0,057	0,004
-75,782	-200,000	0,017	0,104
-74,767	-200,000	0,044	0,162
-73,753	-200,000	0,018	0,099
-72,738	800,000	-0,046	0,094
-71,724	347,881	-0,049	0,068
-70,709	800,000	-0,039	-0,099
-69,694	103,939	0,019	-0,016
-68,680	316,840	0,081	0,108
-67,665	800,000	-0,027	-0,074
-66,651	-0,892	-0,058	-0,029
-65,636	-200,000	0,007	-0,160
-64,622	-42,931	-0,009	-0,003
-63,607	-200,000	-0,007	-0,085
-62,592	800,000	0,070	-0,186
-61,578	-9,713	-0,088	-0,041
-60,563	-200,000	-0,006	0,038
-59,549	-51,345	-0,165	-0,054
-58,534	63,842	-1,993	-1,412
-57,519	537,365	-1,217	-2,048
-56,505	-200,000	-0,261	-4,306
-55,490	440,151	0,934	1,445
-54,476	800,000	5,097	11,279
-53,461	-200,000	21,723	345,201
-52,446	800,000	763,659	2348,322
-51,432	548,343	1663,132	2822,168
-50,417	71,714	1659,562	1215,893
-49,403	17,362	1532,822	856,568
-48,388	11,410	1456,604	785,213
-47,373	19,403	1448,186	818,969
-46,359	14,922	1437,113	791,389
-45,344	9,713	1433,050	764,337
-44,330	9,627	1431,167	762,893
-43,315	9,601	1429,286	761,734
-42,300	9,616	1427,581	760,864
-41,286	9,651	1426,350	760,345
-40,271	9,593	1425,197	759,429
-39,257	9,582	1424,175	758,801
-38,242	9,663	1422,728	758,383
-37,227	9,690	1421,578	757,867
-36,213	9,634	1420,408	756,951
-35,198	9,658	1419,314	756,451
-34,184	9,664	1418,433	755,978
-33,169	9,606	1416,855	754,832
-32,154	9,681	1415,819	754,606
-31,140	9,618	1414,768	753,717
-30,125	9,672	1413,670	753,358
-29,111	9,648	1412,448	752,565
-28,096	9,625	1411,362	751,847
-27,082	9,599	1409,921	750,925
-26,067	9,550	1409,201	750,284
-25,052	9,607	1407,988	749,874
-24,038	9,617	1407,165	749,454
-23,023	9,591	1406,030	748,698
-22,009	9,584	1405,101	748,141
-20,994	9,596	1403,899	747,528
-19,979	9,593	1403,107	747,064
-18,965	9,547	1402,197	746,334
-17,950	9,524	1401,446	745,797
-16,936	9,508	1400,449	745,162
-15,921	9,483	1399,365	744,442
-14,906	9,544	1398,443	744,205
-13,892	9,578	1397,282	743,712
-12,877	9,506	1396,882	743,136
-11,863	9,494	1395,871	742,515
-10,848	9,462	1395,044	741,897
-9,833	9,445	1394,120	741,298
-8,819	9,397	1393,408	740,669
-7,804	9,416	1392,254	740,111
-6,790	9,367	1391,339	739,368
-5,775	9,399	1390,215	738,888
-4,760	9,401	1389,274	738,371
-3,746	9,402	1388,300	737,828
-2,731	9,403	1387,564	737,410
-1,717	9,398	1386,693	736,896
-0,702	9,363	1384,911	735,758
0,313	13,364	1296,954	707,311
1,327	29,320	687,507	410,998
2,342	45,616	118,920	77,343
3,356	0,501	16,610	8,344
4,371	-6,926	3,691	1,762
5,386	7,447	1,119	0,588
6,400	627,020	0,343	0,614
7,415	-121,071	-0,258	-0,030
8,429	41,107	-0,303	-0,193
9,444	201,383	-0,279	-0,303
10,459	-27,776	-0,234	-0,095
11,473	4,959	-0,332	-0,172
12,488	91,962	-0,228	-0,180
13,502	91,967	-0,242	-0,192
14,517	-21,317	-0,453	-0,194
15,531	-19,269	-0,471	-0,205
16,546	-54,460	-0,267	-0,085
17,561	174,977	-0,155	-0,158
18,575	-26,308	-0,181	-0,074
19,590	88,576	-0,263	-0,206
20,604	-155,272	-0,367	-0,017
21,619	-51,246	-0,603	-0,198
22,634	25,287	-0,475	-0,277
23,648	192,573	-0,302	-0,322
24,663	116,559	-0,262	-0,226
25,677	445,262	-0,278	-0,430
26,692	99,250	-0,257	-0,209
27,707	37,785	-0,366	-0,229
28,721	63,060	-0,410	-0,288
29,736	138,304	-0,314	-0,290
30,750	119,143	-0,413	-0,360
31,765	149,802	-0,390	-0,372
32,780	77,290	-0,379	-0,283
33,794	41,780	-0,337	-0,214
34,809	112,131	-0,383	-0,326
35,823	-8,316	-0,292	-0,138
36,838	131,660	-0,367	-0,332
37,853	196,041	-0,303	-0,325
38,867	377,206	-0,285	-0,410
39,882	86,958	-0,388	-0,301
40,896	207,266	-0,303	-0,333
41,911	73,488	-0,408	-0,300
42,926	182,657	-0,271	-0,281
43,940	112,759	-0,356	-0,303
44,955	11,166	-0,458	-0,245
45,969	151,927	-0,333	-0,319
46,984	800,000	-0,159	-0,338
47,999	17,111	-0,295	-0,164
49,013	33,694	-0,317	-0,193
50,028	96,117	-0,304	-0,244
51,042	-90,395	-0,293	-0,059
52,057	42,511	-0,415	-0,264
53,071	-23,011	-0,431	-0,182
54,086	87,363	-0,332	-0,258
55,101	133,571	-0,270	-0,245
56,115	-0,876	-0,355	-0,176
57,130	26,068	-0,337	-0,197
58,144	323,030	-0,214	-0,287
59,159	96,276	-0,373	-0,300
60,174	30,109	-0,334	-0,199
61,188	117,918	-0,279	-0,241
62,203	-11,971	-0,288	-0,132
63,217	39,998	-0,344	-0,217
64,232	22,427	-0,318	-0,182
65,247	77,030	-0,220	-0,164
66,261	172,737	-0,275	-0,277
67,276	57,828	-0,411	-0,282
68,290	87,561	-0,348	-0,270
69,305	5,529	-0,367	-0,190
70,320	-46,273	-0,316	-0,108
71,334	-116,259	-0,262	-0,034
72,349	10,015	-0,431	-0,229
73,363	51,941	-0,431	-0,287
74,378	75,697	-0,262	-0,194
75,393	52,994	-0,387	-0,259
76,407	28,947	-0,251	-0,149
77,422	121,153	-0,252	-0,220
78,436	80,242	-0,346	-0,261
79,451	-22,116	-0,205	-0,087
80,466	-10,603	-0,354	-0,163
81,480	-43,346	-0,398	-0,140
82,495	-79,002	-0,273	-0,064
83,509	27,786	-0,230	-0,135
84,524	153,123	-0,215	-0,206
85,539	-31,270	-0,321	-0,126
86,553	-18,309	-0,245	-0,107
87,568	168,134	-0,325	-0,324
88,582	117,805	-0,368	-0,317
89,597	69,617	-0,351	-0,253
90,611	77,955	-0,302	-0,225
91,626	141,800	-0,244	-0,226
92,641	-111,410	-0,356	-0,050
93,655	-2,737	-0,209	-0,102
94,670	105,586	-0,326	-0,270
95,684	162,129	-0,272	-0,267
96,699	66,507	-0,268	-0,191
97,714	157,844	-0,242	-0,234
98,728	-82,689	-0,338	-0,076
99,743	-148,305	-0,179	-0,010
100,757	188,394	-0,161	-0,168
101,772	142,901	-0,285	-0,265
102,787	23,503	-0,326	-0,187
103,801	-33,808	-0,204	-0,078
104,816	80,110	-0,284	-0,214
105,830	237,394	-0,154	-0,178
106,845	-181,446	-0,243	-0,003
107,860	47,483	-0,231	-0,150
108,874	-4,915	-0,290	-0,139
109,889	-23,499	-0,320	-0,133
110,903	-6,546	-0,269	-0,128
111,918	49,032	-0,304	-0,199
112,933	141,083	-0,132	-0,122
113,947	63,551	-0,248	-0,173
114,962	338,493	-0,081	-0,110
115,976	41,337	-0,375	-0,237
116,991	19,024	-0,231	-0,129
118,006	96,846	-0,199	-0,159
119,020	59,029	-0,329	-0,226
120,035	134,372	-0,263	-0,238
121,049	112,231	-0,198	-0,167
122,064	104,883	-0,178	-0,147
123,079	176,035	-0,150	-0,152
124,093	-31,096	-0,292	-0,114
125,108	4,899	-0,348	-0,178
126,122	433,391	-0,097	-0,148
127,137	195,146	-0,203	-0,215
128,151	-103,867	-0,318	-0,051
129,166	278,708	-0,141	-0,176
130,181	800,000	-0,121	-0,262
131,195	15,856	-0,288	-0,157
132,210	183,512	-0,165	-0,170
133,224	92,740	-0,180	-0,142
134,239	120,441	-0,203	-0,176
135,254	241,828	-0,127	-0,148
136,268	87,711	-0,178	-0,138
137,283	7,980	-0,398	-0,208
138,297	800,000	-0,110	-0,298
139,312	3,980	-0,243	-0,123
140,327	127,203	-0,335	-0,296
141,341	344,651	-0,189	-0,258
142,356	51,918	-0,215	-0,142
143,370	67,404	-0,145	-0,103
144,385	403,065	-0,126	-0,185
145,400	19,234	-0,313	-0,174
146,414	-196,046	-0,246	-0,001
147,429	274,632	-0,202	-0,250
148,443	-54,617	-0,269	-0,084
149,458	-199,680	-0,347	-0,001
150,473	268,404	-0,200	-0,244
151,487	215,739	-0,158	-0,175
152,502	150,564	-0,205	-0,194
153,516	98,327	-0,221	-0,177
154,531	271,479	-0,127	-0,156
155,546	51,131	-0,261	-0,172
156,560	54,076	-0,168	-0,112
157,575	20,425	-0,247	-0,139
158,589	106,300	-0,228	-0,188
159,604	-55,161	-0,248	-0,077
160,619	147,306	-0,255	-0,239
161,633	-50,601	-0,293	-0,096
162,648	33,523	-0,348	-0,210
163,662	-7,430	-0,172	-0,081
164,677	7,751	-0,281	-0,146
165,692	22,095	-0,319	-0,180
166,706	6,676	-0,157	-0,081
167,721	-0,057	-0,335	-0,165
168,735	-46,534	-0,213	-0,072
169,750	-21,240	-0,213	-0,090
170,764	218,960	-0,178	-0,198
171,779	-6,193	-0,256	-0,121
172,794	789,841	-0,118	-0,227
173,808	62,152	-0,129	-0,089
174,823	240,717	-0,181	-0,211
175,837	133,650	-0,191	-0,172
176,852	100,236	-0,220	-0,177
177,867	83,027	-0,181	-0,137
178,881	288,224	-0,123	-0,155
179,896	-118,211	-0,269	-0,033
180,910	38,044	-0,237	-0,146
181,925	-19,749	-0,288	-0,123
182,940	118,989	-0,203	-0,174
183,954	68,300	-0,275	-0,195
184,969	319,660	-0,181	-0,238
185,983	529,026	-0,130	-0,214
186,998	-134,667	-0,185	-0,015
188,013	-110,125	-0,245	-0,035
189,027	200,759	-0,215	-0,229
190,042	800,000	-0,100	-0,224
191,056	65,531	-0,215	-0,151
192,071	70,625	-0,149	-0,107
193,086	-9,429	-0,198	-0,091
194,100	-200,000	0,003	-0,095
195,115	21,939	-0,213	-0,120
196,129	66,379	-0,261	-0,184
197,144	21,215	-0,224	-0,126
198,159	-17,550	-0,382	-0,166
199,173	800,000	-0,068	-0,178
200,188	166,741	-0,205	-0,202
201,202	230,939	-0,126	-0,143
202,217	-84,530	-0,214	0,046
203,232	73,434	-0,289	-0,209
204,246	480,196	-0,146	-0,230
205,261	9,157	-0,158	-0,082
206,275	28,195	-0,211	-0,123
207,290	84,747	-0,118	-0,089
208,304	55,187	-0,168	-0,112
209,319	297,440	-0,066	-0,084
210,334	227,746	-0,206	-0,233
211,348	5,284	-0,219	-0,112
212,363	225,338	-0,257	-0,288
213,377	-154,705	-0,142	0,006
214,392	-149,853	-0,140	-0,007
215,407	259,539	-0,198	-0,237
216,421	55,517	-0,172	-0,115
217,436	71,276	-0,335	-0,241
218,450	21,624	-0,278	-0,156
219,465	69,840	-0,222	-0,158
220,480	432,110	-0,188	-0,283
221,494	493,929	-0,107	-0,170
222,509	109,812	-0,136	-0,113
223,523	-0,982	-0,303	-0,148
224,538	128,976	-0,188	-0,166
225,553	-31,409	-0,192	-0,074
226,567	91,435	-0,265	-0,206
227,582	421,175	-0,111	-0,165
228,596	517,893	-0,083	-0,134
229,611	106,708	-0,202	-0,165
230,626	124,636	-0,053	-0,046
231,640	68,932	-0,209	-0,148
232,655	745,288	-0,131	-0,245
233,669	-103,598	-0,268	-0,043
234,684	800,000	-0,109	-0,241
235,699	-164,552	-0,185	-0,006
236,713	232,283	-0,154	-0,175
237,728	-132,201	-0,253	-0,022
238,742	-136,278	-0,133	0,011
239,757	800,000	-0,101	-0,240
240,772	494,149	-0,174	-0,277
241,786	-23,740	-0,180	-0,074
242,801	641,293	-0,123	-0,217
243,815	184,335	-0,166	-0,170
244,830	64,358	-0,109	-0,076
245,844	-168,094	-0,144	0,004
246,859	78,767	-0,281	-0,207
247,874	193,286	-0,111	-0,116
248,888	107,575	-0,232	-0,190
249,903	102,826	-0,140	-0,113
250,917	-27,559	-0,067	-0,027
251,932	153,508	-0,067	-0,063
252,947	49,082	-0,047	-0,030
253,961	-113,722	-0,147	-0,020
254,976	119,581	-0,242	-0,207
255,990	17,093	-0,132	-0,072
257,005	386,300	-0,081	-0,115
258,020	65,521	-0,179	-0,125
259,034	-184,208	-0,146	-0,002
260,049	-32,213	-0,203	-0,078
261,063	61,097	-0,278	-0,190
262,078	26,754	-0,182	-0,105
263,093	20,531	-0,181	-0,101
264,107	-89,168	-0,171	-0,034
265,122	-200,000	-0,015	-0,090
266,136	-12,870	-0,136	-0,061
267,151	-200,000	0,020	-0,063
268,166	179,687	-0,220	-0,222
269,180	106,759	-0,202	-0,165
270,195	70,486	-0,231	-0,164
271,209	74,220	-0,269	-0,195
272,224	296,499	-0,148	-0,187
273,239	800,000	-0,021	-0,051
274,253	-103,948	-0,115	-0,018
275,268	-4,026	-0,165	-0,078
276,282	67,966	-0,241	-0,169
277,297	296,642	-0,155	-0,196
278,312	800,000	-0,012	-0,031
279,326	191,874	0,027	-0,028
280,341	-200,000	-0,054	-0,183
281,355	-33,479	-0,183	-0,069
282,370	614,081	-0,119	-0,207
283,384	0,540	-0,199	-0,098
284,399	-133,102	-0,203	-0,017
285,414	226,017	-0,183	-0,205
286,428	800,000	-0,113	-0,237
287,443	273,526	-0,050	-0,060
288,457	-40,849	-0,064	0,023
289,472	105,533	-0,160	-0,130
290,487	33,974	-0,250	-0,149
291,501	6,406	-0,129	-0,066
292,516	250,557	-0,148	-0,173
293,530	-68,910	-0,178	0,047
294,545	-62,628	-0,183	-0,052
295,560	-108,542	-0,120	-0,018
296,574	-84,259	-0,125	-0,027
297,589	-30,695	-0,211	-0,082
298,603	158,355	-0,146	-0,139
299,618	78,507	-0,255	-0,187
300,633	316,202	-0,155	-0,201
301,647	-200,000	-0,071	-0,256
302,662	46,455	-0,122	-0,078
303,676	642,079	-0,075	-0,132
304,691	128,752	-0,174	-0,152
305,706	200,971	-0,203	-0,215
306,720	140,178	-0,227	-0,205
307,735	150,731	-0,113	-0,105
308,749	54,002	-0,222	-0,146
309,764	-74,484	-0,189	-0,046
310,779	-32,667	-0,125	-0,047
311,793	-114,295	-0,158	-0,021
312,808	61,668	-0,188	-0,128
313,822	572,411	-0,092	-0,155
314,837	-25,482	-0,163	-0,066
315,852	-174,733	-0,108	0,002
316,866	682,834	-0,081	-0,146
317,881	358,985	0,025	0,034
318,895	-52,962	-0,147	-0,046
319,910	196,803	-0,198	-0,207
320,925	-54,737	-0,131	-0,040
321,939	81,645	-0,107	-0,080
322,954	800,000	-0,086	-0,195
323,968	800,000	-0,037	-0,101
324,983	-64,236	-0,077	-0,021
325,997	717,652	-0,063	-0,115
327,012	206,491	-0,209	-0,224
328,027	492,351	-0,092	-0,145
329,041	90,298	-0,176	-0,135
330,056	544,997	-0,056	-0,092
331,070	352,781	-0,056	0,076
332,085	54,930	-0,067	-0,044
333,100	-200,000	-0,016	-0,118
334,114	104,996	-0,219	-0,177
335,129	158,495	-0,183	-0,174
336,143	149,979	-0,102	-0,094
337,158	226,955	-0,153	-0,170
338,173	106,924	-0,113	-0,092
339,187	-85,703	-0,107	0,023
340,202	800,000	-0,033	-0,070
341,216	800,000	-0,041	-0,116
342,231	-200,000	-0,003	-0,132
343,246	117,664	-0,071	-0,060
344,260	800,000	-0,047	-0,118
345,275	7,481	-0,151	-0,077
346,289	-55,890	-0,205	-0,062
347,304	109,791	-0,118	-0,097
348,319	-34,477	-0,210	-0,078
349,333	606,037	-0,100	-0,171
350,348	129,136	-0,198	-0,173
351,362	3,381	-0,204	-0,101
352,377	-52,161	-0,058	0,018
353,392	254,933	-0,113	-0,133
354,406	-115,600	-0,167	-0,021
355,421	208,120	1310,234	1401,753
356,435	160,126	1470,382	1402,220
