DTS Sentinel unit serial number:	SN410029Multiplexer serial number:	ORYXHardware model number:	OX2-SRSoftware version number:	ORYX F/W v4,00 Oryx Data Collector v3.7.2.0data status	okinstallation	B3 Nyhavnadifferential loss correction	single-endedforward channel	channel 1reverse channel	N/Adate	2023/12/01time	23:47:30forward acquisition time	300,00reverse acquisition time	0,00gamma	499,1914k internal	0,3196k external	0,3196temperature offset calibration	1,0000default loss term (dB/km)	0,3820temperature slope calibration	1,0000multiplexer offset coefficient	1,0000multiplexer slope coefficient	1,0000fibre end	0,00T internal ref (°C)	16,00T ext. ref 1 (°C)	1,55T ext. ref 2 (°C)	1,53length (m)	temperature (°C)	Stokes	anti-Stokes-744,400	23,449	-0,184	-0,110
-743,385	-200,000	0,013	0,289
-742,371	88,504	-0,223	-0,180
-741,356	-200,000	0,024	0,390
-740,342	391,359	-0,201	-0,304
-739,327	800,000	0,113	0,346
-738,312	800,000	-0,151	-0,344
-737,298	195,952	0,121	0,134
-736,283	142,440	-0,161	-0,156
-735,269	-200,000	0,026	0,252
-734,254	-5,049	-0,141	-0,070
-733,239	146,392	-0,083	0,081
-732,225	568,982	-0,108	-0,192
-731,210	97,337	0,186	0,155
-730,196	-1,759	0,047	0,024
-729,181	-200,000	0,008	0,057
-728,167	394,805	0,082	0,125
-727,152	-200,000	0,041	0,222
-726,137	-38,998	-0,114	-0,043
-725,123	-147,361	-0,049	-0,003
-724,108	-200,000	-0,015	0,141
-723,094	-200,000	-0,014	-0,074
-722,079	-200,000	0,011	0,057
-721,064	-48,085	-0,135	0,047
-720,050	800,000	-0,069	0,158
-719,035	18,113	-0,132	0,076
-718,021	231,775	-0,042	0,050
-717,006	800,000	-0,065	-0,133
-715,991	800,000	0,018	0,037
-714,977	800,000	0,045	-0,100
-713,962	178,900	-0,075	-0,080
-712,948	95,978	0,042	0,035
-711,933	94,298	-0,135	0,111
-710,918	27,464	0,084	-0,051
-709,904	39,446	-0,156	-0,101
-708,889	-26,391	-0,085	-0,036
-707,875	165,653	0,114	-0,118
-706,860	800,000	0,013	-0,029
-705,845	253,363	-0,031	-0,039
-704,831	776,815	0,056	0,112
-703,816	800,000	-0,041	-0,115
-702,802	75,811	-0,128	-0,099
-701,787	-56,947	-0,156	-0,050
-700,772	639,746	-0,054	-0,100
-699,758	191,197	0,095	0,104
-698,743	134,388	0,103	-0,097
-697,729	58,528	0,021	0,015
-696,714	-200,000	-0,007	-0,151
-695,699	800,000	0,017	0,040
-694,685	42,176	-0,123	-0,081
-693,670	800,000	-0,043	-0,104
-692,656	780,212	0,004	0,008
-691,641	800,000	-0,013	-0,030
-690,627	800,000	0,026	0,074
-689,612	62,849	-0,032	0,024
-688,597	800,000	0,056	-0,155
-687,583	800,000	0,010	0,022
-686,568	4,159	-0,110	-0,058
-685,554	-200,000	-0,015	-0,048
-684,539	126,314	0,029	0,026
-683,524	56,395	0,058	-0,041
-682,510	85,564	-0,071	-0,057
-681,495	800,000	-0,024	-0,070
-680,481	-200,000	0,048	-0,273
-679,466	800,000	-0,040	-0,123
-678,451	-200,000	-0,005	-0,127
-677,437	16,678	0,078	-0,044
-676,422	-42,973	-0,067	-0,025
-675,408	236,566	0,062	-0,075
-674,393	800,000	-0,004	-0,010
-673,378	215,668	0,054	-0,062
-672,364	-200,000	-0,023	-0,076
-671,349	394,005	-0,046	0,070
-670,335	78,991	0,113	-0,088
-669,320	-200,000	0,003	0,076
-668,305	-26,943	-0,022	-0,009
-667,291	-71,510	0,077	0,021
-666,276	504,949	0,069	-0,116
-665,262	626,799	0,020	-0,038
-664,247	-64,932	-0,098	-0,029
-663,232	800,000	0,060	-0,151
-662,218	423,063	0,099	0,155
-661,203	-200,000	0,009	-0,084
-660,189	544,205	0,062	-0,109
-659,174	-200,000	0,004	-0,043
-658,159	-52,053	-0,042	0,014
-657,145	-161,193	0,092	-0,003
-656,130	452,582	0,034	0,055
-655,116	52,879	0,064	0,045
-654,101	-169,293	-0,084	0,002
-653,086	800,000	-0,040	-0,088
-652,072	20,874	-0,128	-0,075
-651,057	348,405	-0,090	-0,129
-650,043	-93,812	-0,085	-0,017
-649,028	800,000	0,047	0,114
-648,014	800,000	0,025	-0,061
-646,999	353,332	-0,103	-0,149
-645,984	325,360	-0,052	-0,072
-644,970	101,714	-0,053	-0,044
-643,955	-106,974	-0,061	0,010
-642,941	286,834	0,048	-0,063
-641,926	48,462	-0,099	-0,067
-640,911	-149,632	-0,108	0,006
-639,897	-106,110	-0,044	-0,007
-638,882	-200,000	-0,010	0,104
-637,868	365,761	0,056	-0,082
-636,853	-84,691	-0,198	0,045
-635,838	-85,370	-0,044	0,010
-634,824	393,252	-0,088	0,133
-633,809	270,593	0,022	-0,028
-632,795	-200,000	0,001	0,018
-631,780	-200,000	-0,000	-0,004
-630,765	-200,000	0,007	-0,132
-629,751	617,708	-0,081	-0,148
-628,736	-200,000	0,013	-0,070
-627,722	274,592	0,045	0,058
-626,707	-8,158	0,095	0,046
-625,692	562,264	-0,090	0,159
-624,678	-200,000	-0,011	-0,090
-623,663	-130,352	0,050	-0,005
-622,649	-200,000	0,012	-0,129
-621,634	-49,841	-0,089	0,031
-620,619	129,857	0,032	-0,030
-619,605	-74,813	-0,068	-0,018
-618,590	76,957	0,117	0,090
-617,576	-21,590	0,074	0,032
-616,561	264,217	-0,084	-0,107
-615,546	-200,000	0,004	-0,055
-614,532	-118,275	-0,074	0,009
-613,517	-200,000	0,010	-0,092
-612,503	800,000	-0,050	-0,129
-611,488	-200,000	-0,007	-0,104
-610,474	-78,906	0,057	-0,014
-609,459	159,599	0,089	0,090
-608,444	-16,370	0,018	-0,008
-607,430	-152,464	-0,084	-0,004
-606,415	-200,000	-0,005	-0,135
-605,401	-200,000	-0,015	-0,146
-604,386	-149,879	0,043	0,002
-603,371	-200,000	0,031	0,104
-602,357	42,340	-0,012	0,008
-601,342	-115,642	-0,196	0,026
-600,328	-200,000	-0,047	-0,218
-599,313	-196,116	-0,142	0,001
-598,298	-200,000	-0,015	0,171
-597,284	-51,097	0,097	0,033
-596,269	800,000	0,031	0,067
-595,255	28,490	0,065	0,040
-594,240	143,869	-0,104	-0,101
-593,225	-200,000	-0,019	0,103
-592,211	145,068	-0,091	-0,088
-591,196	-200,000	0,075	0,000
-590,182	-122,516	-0,100	-0,012
-589,167	134,197	0,064	0,060
-588,152	-200,000	0,009	-0,081
-587,138	418,659	-0,062	-0,096
-586,123	-200,000	-0,021	-0,073
-585,109	239,969	-0,057	-0,069
-584,094	-200,000	-0,040	-0,135
-583,079	800,000	0,032	0,071
-582,065	-200,000	-0,011	0,046
-581,050	800,000	-0,020	0,050
-580,036	-200,000	0,003	0,113
-579,021	18,711	-0,120	-0,069
-578,006	321,411	-0,027	-0,038
-576,992	84,264	-0,047	0,037
-575,977	25,967	0,021	-0,013
-574,963	-176,857	0,076	-0,001
-573,948	375,745	-0,039	0,057
-572,934	-200,000	-0,013	0,084
-571,919	-200,000	0,028	-0,096
-570,904	-105,594	-0,076	-0,012
-569,890	-149,514	0,072	0,004
-568,875	192,408	-0,090	-0,098
-567,861	-200,000	0,017	0,054
-566,846	43,404	0,100	-0,066
-565,831	202,620	-0,069	-0,077
-564,817	-200,000	0,039	-0,145
-563,802	-136,103	-0,150	0,013
-562,788	292,724	0,014	0,019
-561,773	223,737	0,100	-0,117
-560,758	706,499	0,028	-0,053
-559,744	197,327	0,041	-0,046
-558,729	-12,146	0,058	-0,027
-557,715	382,034	-0,020	-0,030
-556,700	800,000	-0,047	-0,130
-555,685	-9,800	-0,058	0,028
-554,671	122,642	0,080	-0,073
-553,656	-92,737	-0,050	-0,010
-552,642	55,142	-0,132	0,092
-551,627	319,803	0,077	0,106
-550,612	128,687	-0,096	-0,088
-549,598	-91,670	-0,024	0,005
-548,583	240,208	-0,100	0,120
-547,569	256,970	-0,023	0,029
-546,554	800,000	0,028	0,065
-545,539	622,385	0,028	-0,052
-544,525	197,842	0,041	0,045
-543,510	262,144	-0,044	0,055
-542,496	-62,787	-0,148	0,044
-541,481	19,467	0,103	0,060
-540,466	38,265	0,066	-0,042
-539,452	-200,000	-0,022	0,152
-538,437	-143,526	-0,155	-0,011
-537,423	-200,000	-0,015	-0,090
-536,408	-200,000	-0,006	0,094
-535,393	-200,000	-0,002	-0,016
-534,379	745,540	-0,030	-0,059
-533,364	63,756	-0,057	-0,042
-532,350	-75,042	-0,148	0,038
-531,335	-200,000	0,033	0,170
-530,321	-200,000	0,075	0,254
-529,306	800,000	0,021	-0,064
-528,291	-200,000	-0,054	-0,205
-527,277	-132,179	-0,101	0,009
-526,262	122,500	-0,072	0,065
-525,248	-102,161	-0,035	0,006
-524,233	325,174	0,019	0,027
-523,218	112,522	-0,110	0,096
-522,204	-67,394	0,126	0,035
-521,189	-130,968	-0,053	-0,005
-520,175	344,636	-0,123	-0,174
-519,160	16,399	0,032	-0,018
-518,145	635,521	-0,072	-0,132
-517,131	-7,113	0,026	0,012
-516,116	-114,213	0,199	0,027
-515,102	-83,081	0,090	0,021
-514,087	-200,000	0,011	-0,066
-513,072	-42,969	-0,180	-0,066
-512,058	683,169	-0,044	0,082
-511,043	800,000	0,056	0,177
-510,029	98,274	-0,027	0,022
-509,014	534,321	0,063	-0,109
-507,999	744,750	-0,058	0,112
-506,985	11,876	-0,117	0,065
-505,970	221,739	-0,053	0,061
-504,956	-159,264	0,072	-0,003
-503,941	-200,000	0,004	0,030
-502,926	385,294	0,083	0,124
-501,912	800,000	0,078	0,215
-500,897	800,000	-0,010	0,031
-499,883	-200,000	-0,024	-0,129
-498,868	406,989	-0,120	-0,184
-497,853	74,244	-0,094	0,071
-496,839	-200,000	0,005	-0,061
-495,824	-67,307	0,087	0,024
-494,810	800,000	0,056	0,122
-493,795	-200,000	-0,007	0,049
-492,781	-133,041	0,040	-0,004
-491,766	-88,367	-0,119	-0,025
-490,751	169,713	0,042	-0,043
-489,737	-200,000	0,006	-0,052
-488,722	-89,351	0,128	-0,027
-487,708	800,000	-0,009	0,024
-486,693	-200,000	0,030	0,106
-485,678	800,000	-0,009	0,019
-484,664	50,103	0,096	0,065
-483,649	146,542	-0,065	-0,063
-482,635	186,853	-0,050	0,053
-481,620	-200,000	-0,015	-0,086
-480,605	-128,295	-0,042	-0,004
-479,591	-16,955	0,134	-0,061
-478,576	-62,271	0,025	-0,008
-477,562	800,000	-0,070	-0,160
-476,547	194,353	0,077	-0,085
-475,532	319,187	0,089	0,123
-474,518	-200,000	0,019	0,135
-473,503	-200,000	0,009	-0,034
-472,489	-99,339	0,120	0,022
-471,474	-200,000	0,007	-0,185
-470,459	-200,000	-0,003	-0,171
-469,445	800,000	0,054	-0,164
-468,430	546,414	-0,056	-0,097
-467,416	-163,010	0,033	-0,001
-466,401	-200,000	-0,007	0,049
-465,386	-200,000	-0,004	-0,064
-464,372	800,000	-0,045	0,139
-463,357	-44,988	-0,110	-0,039
-462,343	251,902	-0,027	-0,033
-461,328	-64,068	-0,084	-0,025
-460,313	440,926	-0,045	0,072
-459,299	148,219	0,088	0,086
-458,284	-24,964	-0,083	0,035
-457,270	-200,000	0,003	0,043
-456,255	-3,231	0,071	0,036
-455,241	-44,549	0,060	0,022
-454,226	-200,000	-0,003	0,046
-453,211	-200,000	-0,010	0,118
-452,197	-60,802	0,064	0,019
-451,182	-43,704	0,140	-0,051
-450,168	-200,000	0,008	-0,050
-449,153	-60,094	0,028	-0,009
-448,138	2,660	-0,046	0,024
-447,124	31,073	-0,036	-0,022
-446,109	43,577	0,125	0,082
-445,095	-200,000	0,009	0,074
-444,080	800,000	-0,016	0,047
-443,065	-200,000	0,000	0,118
-442,051	-200,000	0,003	0,240
-441,036	184,609	0,082	0,088
-440,022	93,143	-0,085	-0,069
-439,007	741,355	0,030	-0,059
-437,992	-23,446	0,103	-0,044
-436,978	-200,000	0,058	0,202
-435,963	29,852	-0,030	-0,018
-434,949	800,000	0,002	0,005
-433,934	-187,491	-0,111	-0,001
-432,919	800,000	0,009	-0,021
-431,905	-200,000	0,006	0,065
-430,890	0,509	-0,114	0,059
-429,876	-46,021	0,083	-0,029
-428,861	83,250	0,056	-0,044
-427,846	-21,708	-0,088	0,038
-426,832	29,684	-0,096	0,058
-425,817	800,000	0,020	-0,054
-424,803	-1,671	-0,040	0,020
-423,788	-77,581	0,070	-0,017
-422,773	-51,205	0,165	0,055
-421,759	-6,839	-0,122	0,060
-420,744	127,502	-0,093	0,085
-419,730	291,676	-0,042	-0,055
-418,715	-200,000	-0,032	-0,137
-417,701	-37,474	-0,158	-0,060
-416,686	-200,000	-0,009	-0,054
-415,671	800,000	0,018	-0,041
-414,657	96,173	-0,086	-0,071
-413,642	39,566	-0,050	-0,032
-412,628	800,000	-0,038	0,075
-411,613	-12,741	-0,201	-0,094
-410,598	-29,550	0,044	-0,018
-409,584	-47,050	-0,026	-0,009
-408,569	-86,320	0,035	0,008
-407,555	686,005	-0,049	0,093
-406,540	-200,000	0,001	0,012
-405,525	-200,000	0,032	-0,106
-404,511	174,390	-0,151	-0,157
-403,496	77,726	-0,124	-0,095
-402,482	11,365	0,061	0,033
-401,467	-8,322	0,123	0,059
-400,452	-200,000	-0,019	0,249
-399,438	189,569	-0,090	0,097
-398,423	777,020	-0,027	-0,054
-397,409	-90,372	-0,099	-0,020
-396,394	800,000	0,044	-0,104
-395,379	10,160	-0,087	0,047
-394,365	-200,000	0,053	0,173
-393,350	800,000	0,032	-0,091
-392,336	-200,000	-0,010	0,059
-391,321	231,813	-0,039	0,046
-390,306	-200,000	0,005	-0,240
-389,292	277,771	-0,024	-0,031
-388,277	800,000	0,033	0,084
-387,263	30,385	-0,023	0,014
-386,248	-200,000	-0,010	0,061
-385,233	-147,591	0,159	0,009
-384,219	79,591	0,074	0,057
-383,204	389,408	0,039	0,059
-382,190	521,416	-0,075	0,127
-381,175	534,024	0,043	0,073
-380,160	-200,000	-0,013	0,050
-379,146	-59,545	0,184	0,056
-378,131	-168,100	0,081	0,002
-377,117	238,784	-0,093	0,111
-376,102	-43,674	0,222	-0,080
-375,088	-200,000	-0,026	-0,150
-374,073	348,158	0,052	-0,073
-373,058	227,071	-0,044	-0,051
-372,044	78,564	-0,026	0,020
-371,029	199,927	0,011	-0,012
-370,015	-50,406	0,076	-0,026
-369,000	-200,000	-0,005	-0,130
-367,985	-52,096	0,090	-0,030
-366,971	-200,000	0,005	0,130
-365,956	800,000	-0,029	-0,064
-364,942	-8,693	0,094	-0,045
-363,927	-200,000	-0,002	0,033
-362,912	-86,960	0,038	0,008
-361,898	55,752	0,134	0,093
-360,883	285,529	-0,082	-0,106
-359,869	445,763	0,057	-0,090
-358,854	298,724	0,103	-0,136
-357,839	24,365	0,090	0,053
-356,825	43,217	0,058	0,038
-355,810	-141,199	-0,088	-0,006
-354,796	-200,000	-0,007	-0,043
-353,781	503,147	-0,097	-0,161
-352,766	99,009	-0,073	0,061
-351,752	-200,000	0,012	-0,214
-350,737	523,702	0,027	0,045
-349,723	647,435	0,058	0,107
-348,708	-200,000	0,009	0,048
-347,693	9,780	-0,100	0,054
-346,679	-6,119	0,084	-0,041
-345,664	-120,862	-0,112	0,013
-344,650	698,988	-0,064	0,122
-343,635	-34,900	0,093	0,036
-342,620	800,000	0,101	0,231
-341,606	-200,000	-0,017	0,057
-340,591	-200,000	0,014	0,064
-339,577	32,517	-0,021	0,013
-338,562	-200,000	0,007	-0,129
-337,548	-113,517	0,019	-0,003
-336,533	415,371	0,046	-0,071
-335,518	800,000	-0,048	-0,097
-334,504	-38,928	0,086	0,032
-333,489	44,270	-0,094	0,061
-332,475	733,452	0,064	-0,123
-331,460	800,000	-0,029	-0,070
-330,445	40,946	0,122	-0,079
-329,431	242,516	-0,062	-0,075
-328,416	238,209	-0,080	-0,096
-327,402	-200,000	0,020	0,087
-326,387	800,000	0,015	0,036
-325,372	115,694	-0,100	-0,088
-324,358	247,897	-0,100	-0,121
-323,343	416,840	0,040	-0,062
-322,329	86,217	-0,030	0,023
-321,314	-200,000	-0,011	0,121
-320,299	94,345	0,065	0,053
-319,285	207,695	0,074	0,082
-318,270	-78,026	0,058	-0,014
-317,256	-200,000	0,010	-0,045
-316,241	159,705	0,057	0,057
-315,226	71,186	0,034	-0,026
-314,212	576,185	0,055	-0,096
-313,197	13,128	0,067	0,037
-312,183	-200,000	-0,007	0,136
-311,168	-95,825	-0,174	-0,033
-310,153	209,624	-0,069	0,078
-309,139	-123,403	0,003	0,000
-308,124	352,490	-0,101	0,144
-307,110	105,682	0,045	0,038
-306,095	186,242	-0,056	0,060
-305,080	371,142	0,016	-0,024
-304,066	-200,000	-0,028	0,179
-303,051	800,000	-0,080	0,192
-302,037	235,010	0,091	0,107
-301,022	800,000	0,037	-0,098
-300,008	800,000	0,029	0,079
-298,993	362,539	-0,023	-0,033
-297,978	-200,000	-0,017	0,066
-296,964	-9,471	-0,131	0,062
-295,949	-88,378	-0,067	0,014
-294,935	-61,008	-0,091	-0,027
-293,920	-27,846	0,121	-0,050
-292,905	-0,005	0,081	0,041
-291,891	129,583	0,068	0,063
-290,876	662,654	-0,023	0,042
-289,862	164,928	0,042	-0,043
-288,847	-10,616	-0,108	0,051
-287,832	-115,772	-0,053	0,007
-286,818	-200,000	0,010	0,074
-285,803	-116,972	0,136	-0,018
-284,789	-200,000	0,014	0,063
-283,774	800,000	-0,008	0,019
-282,759	227,461	-0,018	-0,021
-281,745	-200,000	-0,035	-0,146
-280,730	32,208	-0,038	-0,023
-279,716	800,000	-0,068	-0,136
-278,701	-140,786	0,059	-0,004
-277,686	-128,809	0,120	0,012
-276,672	-107,117	0,087	-0,014
-275,657	-200,000	-0,031	-0,130
-274,643	15,797	-0,103	-0,058
-273,628	800,000	-0,053	-0,130
-272,613	556,555	0,016	-0,028
-271,599	423,315	-0,059	0,092
-270,584	330,318	0,097	-0,134
-269,570	283,899	0,071	0,091
-268,555	800,000	-0,041	-0,084
-267,540	79,469	0,024	-0,018
-266,526	800,000	-0,056	-0,134
-265,511	367,994	0,145	0,210
-264,497	-91,875	0,062	-0,012
-263,482	800,000	-0,042	0,108
-262,467	800,000	0,050	0,103
-261,453	253,249	0,017	0,021
-260,438	800,000	0,020	-0,043
-259,424	-2,311	0,079	0,040
-258,409	-200,000	-0,007	-0,106
-257,395	-15,297	0,073	0,033
-256,380	-35,692	-0,055	0,021
-255,365	29,658	0,041	-0,025
-254,351	-62,114	0,077	0,023
-253,336	-200,000	-0,025	0,084
-252,322	84,913	0,165	0,129
-251,307	123,828	0,080	-0,072
-250,292	-44,265	0,105	-0,037
-249,278	1,101	0,091	0,046
-248,263	-200,000	0,028	0,096
-247,249	800,000	0,003	-0,009
-246,234	800,000	-0,034	-0,097
-245,219	-200,000	0,002	-0,049
-244,205	800,000	-0,017	-0,034
-243,190	-78,459	0,082	0,020
-242,176	-200,000	0,000	0,111
-241,161	158,658	0,057	0,056
-240,146	-200,000	-0,016	0,057
-239,132	-200,000	0,010	-0,096
-238,117	-190,324	0,134	0,001
-237,103	91,091	0,049	-0,039
-236,088	72,011	0,067	-0,050
-235,073	16,154	0,014	-0,008
-234,059	-58,499	0,240	-0,074
-233,044	-59,966	-0,104	-0,031
-232,030	146,979	-0,032	0,031
-231,015	163,565	-0,065	-0,065
-230,000	-1,747	-0,099	0,050
-228,986	800,000	0,008	-0,019
-227,971	-164,134	0,102	-0,003
-226,957	-117,812	0,091	-0,012
-225,942	288,825	0,051	0,066
-224,927	-200,000	-0,002	-0,040
-223,913	800,000	-0,046	-0,117
-222,898	161,769	-0,030	-0,030
-221,884	800,000	-0,090	-0,191
-220,869	748,936	0,024	-0,047
-219,855	316,018	0,105	0,141
-218,840	800,000	0,007	0,020
-217,825	800,000	0,017	0,040
-216,811	-200,000	0,005	0,034
-215,796	21,115	-0,031	0,018
-214,782	800,000	0,030	-0,070
-213,767	4,608	0,105	0,055
-212,752	-200,000	0,021	0,135
-211,738	92,988	0,089	0,072
-210,723	800,000	-0,021	0,060
-209,709	198,050	0,019	-0,020
-208,694	110,621	-0,145	-0,124
-207,679	114,527	0,132	0,115
-206,665	-9,446	-0,074	-0,035
-205,650	800,000	0,021	0,061
-204,636	372,315	0,043	-0,063
-203,621	-200,000	-0,035	0,149
-202,606	29,245	-0,037	-0,022
-201,592	-132,969	0,060	-0,005
-200,577	186,864	0,059	0,063
-199,563	43,564	0,073	-0,048
-198,548	-14,172	0,095	-0,044
-197,533	-50,732	-0,154	-0,051
-196,519	-200,000	0,016	0,157
-195,504	-111,701	-0,086	-0,012
-194,490	-9,120	-0,099	-0,047
-193,475	-55,870	0,043	0,014
-192,460	-157,418	-0,109	0,005
-191,446	-200,000	-0,022	0,105
-190,431	-83,637	0,142	0,032
-189,417	-26,185	-0,196	-0,082
-188,402	-64,553	-0,092	0,026
-187,387	800,000	0,046	-0,096
-186,373	-200,000	-0,001	0,016
-185,358	-138,861	-0,056	0,004
-184,344	-200,000	0,009	0,068
-183,329	800,000	0,051	0,121
-182,315	-200,000	-0,013	0,076
-181,300	-200,000	-0,008	0,100
-180,285	800,000	0,047	-0,131
-179,271	604,097	-0,040	0,071
-178,256	-200,000	0,014	-0,114
-177,242	431,755	0,080	-0,124
-176,227	286,724	-0,088	0,114
-175,212	330,880	0,079	-0,109
-174,198	67,570	0,113	-0,082
-173,183	800,000	0,029	-0,080
-172,169	-200,000	0,012	-0,111
-171,154	50,432	0,082	0,055
-170,139	-35,249	-0,051	0,019
-169,125	-62,047	-0,200	-0,059
-168,110	800,000	0,040	-0,081
-167,096	-200,000	-0,000	-0,017
-166,081	-19,291	-0,052	0,023
-165,066	-200,000	-0,014	-0,191
-164,052	-200,000	-0,012	0,057
-163,037	-120,260	0,116	-0,014
-162,023	-6,052	-0,046	0,023
-161,008	77,917	0,109	0,082
-159,993	-54,763	0,088	-0,028
-158,979	323,549	-0,030	0,041
-157,964	128,667	-0,068	-0,061
-156,950	-155,404	0,099	-0,004
-155,935	-45,391	0,068	-0,024
-154,920	199,988	-0,079	0,087
-153,906	-24,584	0,049	0,021
-152,891	-73,301	0,035	0,009
-151,877	88,976	-0,085	0,067
-150,862	27,967	-0,058	0,035
-149,847	255,641	-0,019	0,024
-148,833	-200,000	0,003	0,036
-147,818	0,304	-0,035	0,018
-146,804	-200,000	0,010	0,040
-145,789	-125,842	0,113	-0,012
-144,775	-130,079	0,059	-0,006
-143,760	-33,260	-0,107	-0,042
-142,745	-39,194	-0,146	-0,054
-141,731	-200,000	-0,001	0,082
-140,716	30,884	0,210	0,128
-139,702	-200,000	-0,013	-0,043
-138,687	-148,733	0,136	0,008
-137,672	-200,000	-0,014	0,049
-136,658	800,000	0,044	-0,104
-135,643	-200,000	-0,027	-0,113
-134,629	-71,079	-0,043	-0,012
-133,614	-200,000	0,019	0,087
-132,599	-200,000	0,045	0,143
-131,585	-200,000	0,001	0,026
-130,570	80,174	0,071	0,054
-129,556	-200,000	0,016	0,060
-128,541	148,133	-0,018	-0,017
-127,526	144,286	-0,077	-0,073
-126,512	231,550	0,039	-0,046
-125,497	129,246	0,047	-0,042
-124,483	-110,801	0,035	-0,005
-123,468	-4,512	-0,092	0,045
-122,453	593,181	0,027	-0,047
-121,439	-0,688	0,043	-0,022
-120,424	608,794	-0,058	-0,103
-119,410	800,000	0,063	0,138
-118,395	666,842	-0,048	-0,089
-117,380	-127,429	0,057	-0,006
-116,366	427,890	-0,034	0,053
-115,351	-61,854	-0,079	-0,023
-114,337	-74,379	0,031	-0,008
-113,322	335,026	0,087	-0,120
-112,307	-94,333	0,049	-0,009
-111,293	-200,000	0,009	0,082
-110,278	156,532	0,049	0,048
-109,264	-11,215	0,078	0,037
-108,249	12,089	-0,014	-0,008
-107,234	115,047	0,110	0,096
-106,220	153,799	-0,020	0,019
-105,205	-42,589	0,063	0,023
-104,191	345,993	0,044	0,062
-103,176	-200,000	-0,000	-0,138
-102,162	-53,942	0,103	0,033
-101,147	800,000	0,054	-0,109
-100,132	-51,386	-0,099	-0,033
-99,118	-109,832	0,049	-0,007
-98,103	164,336	0,046	-0,046
-97,089	-44,906	0,181	-0,064
-96,074	-172,655	0,101	0,002
-95,059	464,158	-0,019	-0,030
-94,045	800,000	0,033	-0,089
-93,030	-128,401	-0,090	0,009
-92,016	-48,032	-0,109	0,037
-91,001	-69,173	0,068	-0,018
-89,986	126,091	0,095	-0,086
-88,972	-200,000	-0,008	0,050
-87,957	102,817	0,135	-0,112
-86,943	322,554	-0,044	-0,059
-85,928	654,870	0,095	-0,173
-84,913	800,000	-0,051	-0,128
-83,899	493,229	-0,042	0,069
-82,884	-84,787	0,089	0,020
-81,870	-41,291	-0,041	0,015
-80,855	-200,000	0,004	0,092
-79,840	56,356	0,059	-0,040
-78,826	1,194	-0,073	-0,037
-77,811	-200,000	-0,020	-0,137
-76,797	125,082	0,108	0,097
-75,782	800,000	0,064	0,178
-74,767	-200,000	-0,010	0,115
-73,753	-163,832	0,134	0,004
-72,738	-200,000	0,045	0,158
-71,724	15,942	-0,149	-0,083
-70,709	800,000	0,070	-0,176
-69,694	-94,786	0,068	-0,013
-68,680	-81,153	0,045	-0,010
-67,665	-200,000	-0,008	0,109
-66,651	761,073	-0,035	0,068
-65,636	-200,000	0,004	0,179
-64,622	-73,409	-0,089	0,023
-63,607	-100,008	-0,147	-0,026
-62,592	-64,540	-0,046	-0,013
-61,578	-200,000	0,009	-0,035
-60,563	-200,000	0,012	0,128
-59,549	-200,000	-0,033	0,130
-58,534	-79,683	-1,485	-0,352
-57,519	334,085	-1,531	-2,107
-56,505	-200,000	-0,402	-4,302
-55,490	105,001	1,019	0,852
-54,476	800,000	4,835	11,283
-53,461	-200,000	17,641	280,095
-52,446	800,000	719,616	2218,880
-51,432	561,492	1633,994	2812,146
-50,417	81,106	1657,819	1267,880
-49,403	23,844	1532,228	893,007
-48,388	17,876	1455,543	819,541
-47,373	18,372	1444,665	815,761
-46,359	17,877	1435,733	808,328
-45,344	16,126	1430,918	797,265
-44,330	16,035	1428,876	795,662
-43,315	16,017	1427,481	794,770
-42,300	16,031	1425,672	793,795
-41,286	16,105	1424,480	793,451
-40,271	16,098	1423,238	792,697
-39,257	16,098	1421,863	791,896
-38,242	16,103	1420,569	791,167
-37,227	16,120	1419,229	790,471
-36,213	16,114	1418,129	789,797
-35,198	16,089	1416,926	788,981
-34,184	16,115	1415,997	788,555
-33,169	16,098	1414,762	787,757
-32,154	16,120	1413,758	787,269
-31,140	16,136	1412,310	786,507
-30,125	16,129	1411,196	785,821
-29,111	16,122	1409,937	785,055
-28,096	16,065	1408,906	784,186
-27,082	15,987	1407,968	783,268
-26,067	16,034	1406,881	782,852
-25,052	16,040	1405,647	782,158
-24,038	16,012	1404,820	781,537
-23,023	16,032	1403,578	780,910
-22,009	15,980	1402,791	780,197
-20,994	15,952	1401,984	779,587
-19,979	15,968	1400,833	778,991
-18,965	15,927	1399,931	778,269
-17,950	15,943	1398,816	777,691
-16,936	15,975	1397,767	777,228
-15,921	15,925	1396,819	776,436
-14,906	15,942	1395,820	775,930
-13,892	15,928	1394,922	775,334
-12,877	15,933	1393,980	774,803
-11,863	15,930	1393,075	774,257
-10,848	15,882	1392,248	773,545
-9,833	15,890	1391,382	773,067
-8,819	15,908	1390,270	772,501
-7,804	15,870	1389,312	771,767
-6,790	15,861	1388,200	771,074
-5,775	15,819	1387,424	770,419
-4,760	15,856	1386,493	770,043
-3,746	15,798	1385,635	769,268
-2,731	15,830	1384,781	768,914
-1,717	15,788	1383,882	768,191
-0,702	15,792	1382,036	767,154
0,313	19,623	1303,089	740,986
1,327	36,172	706,758	440,235
2,342	55,741	125,227	85,857
3,356	0,311	16,551	8,342
4,371	7,337	3,014	1,590
5,386	49,442	0,511	0,340
6,400	-200,000	-0,043	0,141
7,415	66,356	-0,238	-0,171
8,429	31,364	-0,221	-0,134
9,444	53,449	-0,368	-0,250
10,459	51,999	-0,282	-0,190
11,473	70,695	-0,490	-0,359
12,488	45,814	-0,368	-0,240
13,502	138,357	-0,240	-0,223
14,517	22,973	-0,229	-0,133
15,531	77,630	-0,393	-0,296
16,546	154,110	-0,269	-0,262
17,561	140,162	-0,428	-0,400
18,575	115,335	-0,261	-0,226
19,590	193,737	-0,252	-0,270
20,604	-74,073	-0,220	-0,056
21,619	41,634	-0,540	-0,345
22,634	-12,474	-0,439	-0,202
23,648	36,029	-0,435	-0,270
24,663	214,206	-0,263	-0,295
25,677	-101,640	-0,488	-0,083
26,692	44,097	-0,418	-0,270
27,707	17,776	-0,384	-0,216
28,721	253,510	-0,301	-0,363
29,736	303,740	-0,322	-0,423
30,750	90,749	-0,374	-0,296
31,765	107,825	-0,407	-0,342
32,780	4,213	-0,428	-0,221
33,794	120,202	-0,370	-0,324
34,809	118,244	-0,393	-0,342
35,823	110,545	-0,245	-0,208
36,838	42,171	-0,371	-0,238
37,853	37,987	-0,414	-0,259
38,867	231,019	-0,355	-0,411
39,882	143,247	-0,381	-0,358
40,896	154,431	-0,311	-0,302
41,911	-85,238	-0,392	-0,086
42,926	-103,616	-0,480	-0,079
43,940	63,532	-0,360	-0,255
44,955	-8,145	-0,393	-0,186
45,969	69,966	-0,305	-0,222
46,984	5,977	-0,366	-0,191
47,999	45,650	-0,250	-0,163
49,013	-27,579	-0,346	-0,141
50,028	128,409	-0,337	-0,303
51,042	11,166	-0,361	-0,194
52,057	185,157	-0,293	-0,307
53,071	150,705	-0,331	-0,317
54,086	90,674	-0,331	-0,261
55,101	83,911	-0,396	-0,305
56,115	31,218	-0,356	-0,215
57,130	-96,042	-0,404	-0,075
58,144	29,741	-0,334	-0,200
59,159	-7,006	-0,441	-0,211
60,174	-10,413	-0,412	-0,192
61,188	47,036	-0,356	-0,233
62,203	65,996	-0,361	-0,258
63,217	79,956	-0,296	-0,224
64,232	271,282	-0,215	-0,267
65,247	110,936	-0,266	-0,225
66,261	23,146	-0,392	-0,226
67,276	-17,806	-0,335	-0,147
68,290	-6,260	-0,386	-0,185
69,305	265,494	-0,279	-0,344
70,320	-22,075	-0,308	-0,131
71,334	-7,864	-0,333	-0,158
72,349	120,747	-0,340	-0,298
73,363	47,592	-0,278	-0,182
74,378	31,740	-0,386	-0,233
75,393	20,432	-0,328	-0,186
76,407	80,814	-0,275	-0,209
77,422	-14,704	-0,324	-0,146
78,436	280,680	-0,135	-0,170
79,451	-125,633	-0,309	0,033
80,466	-41,709	-0,363	-0,130
81,480	180,443	-0,330	-0,341
82,495	800,000	-0,159	-0,346
83,509	-21,559	-0,354	-0,151
84,524	119,561	-0,296	-0,258
85,539	-77,912	-0,262	-0,063
86,553	122,250	-0,249	-0,219
87,568	-76,995	-0,246	-0,060
88,582	80,629	-0,281	-0,212
89,597	314,720	-0,224	-0,297
90,611	162,155	-0,310	-0,305
91,626	125,941	-0,155	-0,138
92,641	133,395	-0,191	-0,174
93,655	-47,871	-0,179	-0,061
94,670	95,146	-0,201	-0,160
95,684	5,937	-0,398	-0,207
96,699	-47,745	-0,379	-0,128
97,714	433,048	-0,135	-0,207
98,728	-174,929	-0,221	0,004
99,743	44,010	-0,292	-0,187
100,757	94,635	-0,275	-0,219
101,772	78,634	-0,206	-0,155
102,787	-67,508	-0,285	-0,078
103,801	-137,811	-0,300	-0,023
104,816	196,100	-0,295	-0,316
105,830	27,122	-0,274	-0,161
106,845	37,788	-0,180	-0,112
107,860	62,598	-0,241	-0,169
108,874	153,780	-0,170	-0,164
109,889	31,852	-0,297	-0,179
110,903	-50,447	-0,318	-0,105
111,918	89,390	-0,259	-0,203
112,933	236,993	-0,111	-0,129
113,947	84,612	-0,262	-0,201
114,962	323,310	-0,082	-0,111
115,976	262,143	-0,240	-0,292
116,991	207,561	-0,281	-0,308
118,006	204,540	-0,187	-0,204
119,020	94,419	-0,239	-0,190
120,035	151,581	-0,195	-0,186
121,049	-3,302	-0,211	-0,103
122,064	16,511	-0,337	-0,186
123,079	179,314	-0,218	-0,223
124,093	-23,149	-0,289	-0,121
125,108	-61,139	-0,464	-0,136
126,122	-11,765	-0,191	-0,088
127,137	54,033	-0,161	-0,108
128,151	40,630	-0,255	-0,161
129,166	-200,000	-0,053	-0,165
130,181	471,768	-0,197	-0,311
131,195	412,626	-0,215	-0,321
132,210	-63,241	-0,331	-0,095
133,224	-57,371	-0,243	-0,074
134,239	43,957	-0,275	-0,176
135,254	66,874	-0,217	-0,155
136,268	-10,450	-0,269	-0,124
137,283	-112,344	-0,330	-0,046
138,297	51,559	-0,340	-0,226
139,312	165,080	-0,200	-0,198
140,327	27,323	-0,306	-0,179
141,341	104,034	-0,221	-0,182
142,356	-32,317	-0,190	-0,074
143,370	28,493	-0,202	-0,119
144,385	105,945	-0,228	-0,189
145,400	265,341	-0,203	-0,248
146,414	162,327	-0,324	-0,318
147,429	32,256	-0,240	-0,144
148,443	-82,474	-0,147	-0,033
149,458	-89,581	-0,297	-0,061
150,473	152,551	-0,168	-0,161
151,487	99,867	-0,271	-0,220
152,502	38,017	-0,273	-0,170
153,516	141,859	-0,159	-0,147
154,531	93,906	-0,308	-0,244
155,546	531,095	-0,094	-0,155
156,560	142,291	-0,281	-0,261
157,575	121,932	-0,181	-0,158
158,589	-63,002	-0,245	-0,070
159,604	-6,791	-0,218	-0,103
160,619	216,798	-0,169	-0,189
161,633	426,624	-0,230	-0,348
162,648	34,364	-0,231	-0,141
163,662	91,361	-0,234	-0,183
164,677	28,034	-0,153	-0,090
165,692	10,194	-0,341	-0,181
166,706	89,669	-0,237	-0,185
167,721	-62,037	-0,357	-0,103
168,735	37,839	-0,297	-0,184
169,750	62,255	-0,282	-0,196
170,764	283,685	-0,233	-0,293
171,779	125,637	-0,203	-0,179
172,794	-24,632	-0,295	-0,122
173,808	146,474	-0,281	-0,264
174,823	-7,604	-0,301	-0,141
175,837	-48,781	-0,217	-0,072
176,852	800,000	-0,082	-0,221
177,867	65,243	-0,219	-0,154
178,881	55,744	-0,262	-0,177
179,896	205,527	-0,184	-0,199
180,910	-82,105	-0,325	-0,073
181,925	152,515	-0,294	-0,280
182,940	45,187	-0,293	-0,188
183,954	67,790	-0,292	-0,208
184,969	-167,592	-0,164	0,004
185,983	-160,724	-0,225	-0,008
186,998	106,462	-0,170	-0,140
188,013	146,390	-0,240	-0,225
189,027	-200,000	-0,098	-0,349
190,042	202,644	-0,229	-0,247
191,056	209,243	-0,244	-0,267
192,071	185,209	-0,158	-0,164
193,086	235,584	-0,199	-0,230
194,100	144,563	-0,180	-0,168
195,115	294,361	-0,064	-0,082
196,129	257,998	-0,197	-0,236
197,144	262,128	-0,182	-0,220
198,159	-5,605	-0,179	-0,085
199,173	67,143	-0,169	-0,120
200,188	188,766	-0,179	-0,187
201,202	217,703	-0,132	-0,147
202,217	800,000	-0,100	-0,213
203,232	567,509	-0,109	-0,184
204,246	-5,427	-0,330	-0,157
205,261	82,902	-0,215	-0,163
206,275	-53,256	-0,269	-0,085
207,290	33,591	-0,206	-0,124
208,304	201,110	-0,146	-0,156
209,319	-20,624	-0,109	0,047
210,334	87,471	-0,237	-0,182
211,348	181,827	-0,200	-0,205
212,363	-17,831	-0,218	-0,095
213,377	39,034	-0,220	-0,136
214,392	503,426	-0,155	-0,250
215,407	68,925	-0,127	-0,091
216,421	178,400	-0,151	-0,153
217,436	111,522	-0,157	-0,131
218,450	89,899	-0,201	-0,156
219,465	161,343	-0,109	-0,106
220,480	233,723	-0,210	-0,241
221,494	48,150	-0,205	-0,133
222,509	791,039	-0,084	-0,161
223,523	800,000	-0,128	-0,258
224,538	49,144	-0,206	-0,134
225,553	37,997	-0,217	-0,134
226,567	-11,319	-0,296	-0,135
227,582	160,961	-0,239	-0,232
228,596	141,594	-0,202	-0,186
229,611	47,879	-0,244	-0,158
230,626	147,119	-0,092	-0,086
231,640	22,231	-0,174	-0,098
232,655	520,050	-0,201	-0,329
233,669	31,667	-0,285	-0,170
234,684	-44,258	-0,239	-0,083
235,699	-5,548	-0,081	-0,038
236,713	20,346	-0,170	-0,095
237,728	409,132	-0,135	-0,198
238,742	134,755	-0,253	-0,228
239,757	-57,013	-0,211	-0,064
240,772	66,056	-0,202	-0,142
241,786	43,242	-0,217	-0,137
242,801	87,380	-0,191	-0,146
243,815	72,005	-0,226	-0,163
244,830	199,987	-0,222	-0,237
245,844	475,745	-0,117	-0,183
246,859	166,691	-0,156	-0,153
247,874	40,076	-0,218	-0,135
248,888	800,000	-0,113	-0,333
249,903	116,487	-0,141	-0,120
250,917	658,836	-0,059	-0,105
251,932	195,357	-0,044	-0,046
252,947	386,876	-0,139	-0,199
253,961	102,739	-0,232	-0,188
254,976	195,112	-0,147	-0,155
255,990	-4,451	-0,227	-0,108
257,005	42,708	-0,155	-0,098
258,020	-200,000	-0,043	-0,181
259,034	73,729	-0,200	-0,145
260,049	-195,937	-0,235	0,001
261,063	-88,501	-0,229	-0,047
262,078	5,509	-0,130	-0,066
263,093	178,659	-0,187	-0,189
264,107	34,868	-0,181	-0,110
265,122	-126,928	-0,202	-0,020
266,136	135,611	-0,285	-0,257
267,151	7,075	-0,193	-0,100
268,166	261,708	-0,104	-0,125
269,180	160,557	-0,111	-0,107
270,195	-200,000	-0,040	-0,222
271,209	198,586	-0,203	-0,215
272,224	-200,000	-0,032	-0,145
273,239	136,587	-0,113	-0,102
274,253	234,648	-0,137	-0,156
275,268	-49,265	-0,284	-0,093
276,282	33,922	-0,250	-0,150
277,297	-17,523	-0,179	-0,077
278,312	180,636	-0,146	-0,149
279,326	800,000	-0,037	-0,096
280,341	-200,000	-0,010	-0,068
281,355	-30,368	-0,120	-0,047
282,370	50,625	-0,188	-0,123
283,384	70,680	-0,225	-0,161
284,399	4,670	-0,271	-0,137
285,414	31,634	-0,150	-0,089
286,428	144,284	-0,160	-0,148
287,443	50,787	-0,136	-0,089
288,457	-82,455	-0,225	-0,050
289,472	67,690	-0,091	-0,064
290,487	453,718	-0,086	-0,132
291,501	90,221	-0,259	-0,200
292,516	-37,913	-0,148	-0,054
293,530	654,604	-0,100	-0,178
294,545	239,894	-0,180	-0,208
295,560	224,975	-0,114	-0,127
296,574	-10,679	-0,197	-0,090
297,589	138,398	-0,183	-0,166
298,603	-6,984	-0,206	-0,096
299,618	103,984	-0,141	-0,115
300,633	-113,040	-0,179	-0,024
301,647	341,326	-0,099	-0,134
302,662	457,484	-0,103	-0,158
303,676	-44,586	-0,130	-0,045
304,691	-86,692	-0,191	-0,040
305,706	678,517	-0,102	-0,183
306,720	-14,796	-0,111	-0,049
307,735	709,515	-0,128	-0,234
308,749	132,318	-0,127	-0,113
309,764	317,185	-0,127	-0,166
310,779	189,716	-0,134	-0,139
311,793	-87,020	-0,173	-0,036
312,808	85,494	-0,237	-0,179
313,822	165,990	-0,171	-0,167
314,837	-16,737	-0,229	-0,099
315,852	96,002	-0,056	-0,044
316,866	800,000	-0,043	0,114
317,881	800,000	-0,023	-0,053
318,895	-200,000	-0,034	-0,245
319,910	588,389	-0,164	-0,279
320,925	143,916	-0,085	-0,078
321,939	-79,894	-0,121	-0,028
322,954	-103,011	-0,162	-0,026
323,968	140,145	-0,107	-0,097
324,983	-200,000	-0,062	-0,223
325,997	106,790	-0,177	-0,144
327,012	430,137	-0,101	-0,151
328,027	-40,733	-0,177	-0,063
329,041	53,189	-0,167	-0,110
330,056	548,780	-0,053	0,088
331,070	121,333	-0,091	-0,078
332,085	67,065	-0,056	0,039
333,100	38,486	-0,170	-0,104
334,114	169,172	-0,233	-0,229
335,129	100,036	-0,177	-0,141
336,143	-104,292	-0,156	-0,025
337,158	800,000	-0,087	-0,248
338,173	-200,000	-0,010	-0,190
339,187	5,700	-0,035	0,018
340,202	193,634	-0,157	-0,163
341,216	-44,341	-0,194	-0,067
342,231	-1,951	-0,107	-0,052
343,246	-96,174	-0,200	-0,036
344,260	69,313	-0,124	-0,087
345,275	646,416	-0,090	-0,158
346,289	-200,000	-0,056	-0,186
347,304	157,050	-0,130	-0,124
348,319	180,029	-0,199	-0,201
349,333	277,006	-0,137	-0,168
350,348	800,000	-0,076	-0,206
351,362	2,758	-0,140	-0,070
352,377	800,000	-0,088	-0,173
353,392	-26,447	-0,167	-0,067
354,406	-57,185	-0,223	-0,067
355,421	210,382	1312,433	1417,362
356,435	161,951	1472,932	1417,886
