DTS Sentinel unit serial number:	SN410029Multiplexer serial number:	ORYXHardware model number:	OX2-SRSoftware version number:	ORYX F/W v4,00 Oryx Data Collector v3.7.2.0data status	okinstallation	B3 Nyhavnadifferential loss correction	single-endedforward channel	channel 1reverse channel	N/Adate	2023/12/04time	17:32:30forward acquisition time	300,00reverse acquisition time	0,00gamma	499,1914k internal	0,3200k external	0,3200temperature offset calibration	1,0000default loss term (dB/km)	0,3820temperature slope calibration	1,0000multiplexer offset coefficient	1,0000multiplexer slope coefficient	1,0000fibre end	0,00T internal ref (°C)	15,08T ext. ref 1 (°C)	-0,00T ext. ref 2 (°C)	-0,01length (m)	temperature (°C)	Stokes	anti-Stokes-744,400	52,736	-0,284	-0,197
-743,385	800,000	0,110	0,275
-742,371	453,207	-0,083	-0,134
-741,356	-200,000	0,076	0,476
-740,342	162,984	-0,092	-0,094
-739,327	-200,000	-0,072	0,264
-738,312	389,106	-0,165	-0,250
-737,298	-200,000	-0,060	0,261
-736,283	520,058	-0,145	-0,248
-735,269	-200,000	0,013	0,368
-734,254	295,619	-0,235	-0,314
-733,239	-86,887	-0,195	0,043
-732,225	167,513	-0,161	-0,167
-731,210	222,007	0,049	0,057
-730,196	121,808	0,005	-0,004
-729,181	-200,000	0,011	0,124
-728,167	106,238	-0,025	-0,021
-727,152	647,868	-0,027	0,050
-726,137	800,000	-0,028	0,064
-725,123	-200,000	0,000	0,119
-724,108	800,000	-0,052	-0,132
-723,094	235,856	-0,030	-0,037
-722,079	252,131	-0,062	-0,076
-721,064	478,478	0,050	0,083
-720,050	41,053	-0,085	0,056
-719,035	40,327	0,034	-0,022
-718,021	434,709	-0,100	0,158
-717,006	88,012	-0,129	-0,104
-715,991	326,023	-0,031	-0,043
-714,977	-84,821	-0,070	-0,016
-713,962	415,993	-0,019	-0,030
-712,948	303,560	0,025	0,034
-711,933	1,458	-0,032	-0,017
-710,918	-200,000	-0,018	-0,125
-709,904	667,572	-0,016	-0,030
-708,889	-200,000	-0,016	-0,080
-707,875	24,979	-0,106	-0,064
-706,860	149,632	0,034	-0,034
-705,845	-200,000	0,039	-0,169
-704,831	735,526	-0,057	-0,111
-703,816	-178,626	-0,126	-0,002
-702,802	-200,000	0,000	-0,053
-701,787	697,511	-0,058	-0,112
-700,772	-200,000	0,015	0,064
-699,758	-78,308	-0,078	-0,019
-698,743	-70,246	0,061	-0,017
-697,729	-200,000	-0,004	0,027
-696,714	47,406	0,039	0,027
-695,699	-18,214	-0,106	-0,048
-694,685	141,278	-0,063	-0,061
-693,670	118,623	-0,069	-0,062
-692,656	-83,106	-0,083	-0,019
-691,641	-200,000	-0,014	-0,117
-690,627	800,000	0,039	-0,125
-689,612	-3,536	0,049	-0,025
-688,597	-69,742	-0,042	0,012
-687,583	-40,907	-0,037	-0,014
-686,568	69,217	-0,057	0,043
-685,554	243,729	-0,027	0,032
-684,539	207,015	0,037	0,042
-683,524	134,276	0,056	0,052
-682,510	270,549	-0,026	-0,034
-681,495	-200,000	0,024	0,134
-680,481	331,499	0,024	-0,034
-679,466	-200,000	-0,007	-0,039
-678,451	98,029	0,017	0,014
-677,437	234,711	-0,027	0,033
-676,422	-16,718	0,158	0,072
-675,408	427,504	-0,104	0,164
-674,393	-200,000	-0,020	0,089
-673,378	460,547	0,053	-0,086
-672,364	2,383	-0,074	-0,038
-671,349	-200,000	-0,007	-0,050
-670,335	-88,989	-0,078	-0,017
-669,320	800,000	-0,080	0,199
-668,305	800,000	-0,012	-0,028
-667,291	-200,000	0,006	0,066
-666,276	-8,916	-0,093	-0,045
-665,262	-22,933	-0,104	0,045
-664,247	800,000	0,027	0,076
-663,232	2,120	0,119	-0,062
-662,218	125,015	-0,079	0,073
-661,203	800,000	0,041	0,104
-660,189	-100,364	-0,128	-0,023
-659,174	654,168	-0,057	0,107
-658,159	11,157	-0,100	0,055
-657,145	587,999	-0,003	-0,006
-656,130	3,916	-0,064	0,034
-655,116	68,621	0,057	0,042
-654,101	107,650	0,118	0,102
-653,086	800,000	0,092	0,241
-652,072	-63,488	0,024	-0,007
-651,057	-40,820	-0,024	-0,009
-650,043	205,981	0,051	-0,058
-649,028	-200,000	-0,036	-0,160
-648,014	800,000	0,051	0,130
-646,999	409,618	-0,070	0,108
-645,984	-102,983	0,149	-0,025
-644,970	-92,439	-0,101	-0,020
-643,955	140,579	-0,128	-0,123
-642,941	-200,000	0,017	-0,151
-641,926	-200,000	-0,003	-0,040
-640,911	174,612	0,068	-0,071
-639,897	-102,747	0,135	-0,023
-638,882	-102,429	-0,218	0,037
-637,868	292,264	0,040	-0,053
-636,853	-200,000	0,010	-0,080
-635,838	-98,204	0,134	0,025
-634,824	58,388	-0,062	0,044
-633,809	434,122	0,047	0,074
-632,795	-200,000	0,038	0,161
-631,780	188,621	-0,063	0,069
-630,765	-16,341	0,040	0,018
-629,751	-200,000	-0,011	-0,110
-628,736	-113,427	-0,137	0,019
-627,722	-128,447	-0,076	0,008
-626,707	798,809	-0,036	-0,073
-625,692	-44,429	0,132	-0,048
-624,678	-13,242	-0,074	0,034
-623,663	292,477	0,121	-0,160
-622,649	70,026	-0,048	-0,036
-621,634	1,674	-0,137	0,071
-620,619	-41,256	-0,082	0,031
-619,605	800,000	-0,041	-0,092
-618,590	-200,000	0,009	-0,082
-617,576	-200,000	-0,005	0,083
-616,561	-134,087	-0,076	0,007
-615,546	-200,000	0,027	-0,106
-614,532	-62,910	-0,080	-0,024
-613,517	-48,634	-0,009	0,003
-612,503	-180,726	0,104	0,002
-611,488	-200,000	0,040	-0,135
-610,474	-194,873	0,081	-0,000
-609,459	143,402	-0,055	0,053
-608,444	-200,000	0,018	0,091
-607,430	281,145	-0,071	-0,093
-606,415	800,000	0,032	-0,083
-605,401	5,610	-0,069	0,037
-604,386	414,911	-0,056	0,087
-603,371	154,408	0,068	-0,067
-602,357	364,432	-0,027	0,039
-601,342	-200,000	0,016	0,095
-600,328	122,429	-0,085	0,076
-599,313	233,316	-0,052	0,062
-598,298	-126,899	0,080	-0,008
-597,284	706,347	-0,031	0,059
-596,269	-200,000	-0,006	0,129
-595,255	-200,000	0,002	0,208
-594,240	-200,000	0,002	0,037
-593,225	-35,885	-0,093	-0,036
-592,211	-43,043	-0,144	-0,053
-591,196	-108,748	-0,098	-0,015
-590,182	241,929	-0,033	-0,040
-589,167	800,000	-0,060	0,168
-588,152	-97,360	-0,057	0,011
-587,138	519,499	0,049	-0,083
-586,123	-200,000	0,036	-0,165
-585,109	67,061	-0,071	0,052
-584,094	800,000	-0,019	0,051
-583,079	-120,640	-0,111	0,013
-582,065	800,000	-0,025	-0,074
-581,050	6,358	-0,075	0,040
-580,036	255,645	-0,131	-0,163
-579,021	-200,000	-0,002	0,115
-578,006	800,000	-0,055	-0,138
-576,992	-200,000	0,023	-0,096
-575,977	-200,000	-0,016	0,073
-574,963	-200,000	-0,014	-0,045
-573,948	62,486	-0,019	-0,014
-572,934	-145,854	0,067	-0,004
-571,919	-113,896	-0,152	0,021
-570,904	-84,761	0,058	-0,013
-569,890	-39,151	-0,098	0,037
-568,875	800,000	-0,038	-0,105
-567,861	125,055	0,081	0,074
-566,846	-200,000	0,001	-0,007
-565,831	-108,985	0,068	0,010
-564,817	-200,000	0,023	-0,079
-563,802	-200,000	0,012	0,159
-562,788	-167,468	-0,058	-0,002
-561,773	-14,505	0,132	0,061
-560,758	-17,984	0,094	-0,042
-559,744	169,568	0,019	-0,020
-558,729	-108,082	-0,109	0,017
-557,715	-39,038	0,009	-0,003
-556,700	-56,435	0,039	-0,013
-555,685	-200,000	-0,027	-0,135
-554,671	725,448	-0,063	0,121
-553,656	-73,144	0,115	0,030
-552,642	-30,155	0,085	0,035
-551,627	278,710	-0,054	-0,069
-550,612	422,406	-0,029	0,045
-549,598	-200,000	0,018	-0,109
-548,583	492,141	-0,048	-0,080
-547,569	479,982	0,011	0,018
-546,554	-26,199	0,059	-0,025
-545,539	-200,000	-0,027	0,096
-544,525	135,999	0,057	0,054
-543,510	211,200	-0,038	-0,043
-542,496	40,828	-0,058	0,038
-541,481	-200,000	-0,056	-0,202
-540,466	-60,512	-0,020	-0,006
-539,452	51,071	-0,038	-0,026
-538,437	-41,201	0,035	0,013
-537,423	-131,848	0,036	0,003
-536,408	-200,000	-0,010	-0,077
-535,393	-200,000	0,005	-0,108
-534,379	-23,268	-0,060	0,026
-533,364	392,298	-0,027	0,041
-532,350	-160,798	0,119	-0,004
-531,335	47,783	-0,044	0,030
-530,321	-200,000	-0,001	-0,023
-529,306	119,804	0,088	-0,079
-528,291	-11,869	-0,172	-0,081
-527,277	800,000	-0,009	-0,021
-526,262	-115,479	0,130	-0,017
-525,248	-200,000	-0,012	-0,133
-524,233	-200,000	0,030	-0,103
-523,218	-200,000	-0,022	0,080
-522,204	-98,328	0,114	0,021
-521,189	-200,000	0,021	-0,152
-520,175	-200,000	-0,009	-0,045
-519,160	122,071	-0,107	-0,096
-518,145	800,000	0,040	-0,097
-517,131	-200,000	0,025	0,098
-516,116	-180,835	-0,088	0,001
-515,102	80,309	0,071	-0,055
-514,087	-5,775	-0,079	0,039
-513,072	36,746	-0,052	-0,033
-512,058	329,219	-0,042	-0,058
-511,043	734,034	-0,068	-0,133
-510,029	203,390	0,052	-0,058
-509,014	800,000	-0,049	0,140
-507,999	25,484	0,107	0,064
-506,985	800,000	-0,042	-0,087
-505,970	-200,000	-0,003	-0,078
-504,956	800,000	-0,044	0,102
-503,941	-200,000	0,012	0,087
-502,926	-1,132	0,067	0,034
-501,912	570,741	0,041	0,072
-500,897	34,376	-0,032	0,020
-499,883	-31,168	-0,102	0,041
-498,868	-87,765	-0,123	0,027
-497,853	-74,810	0,092	-0,024
-496,839	283,106	-0,007	-0,009
-495,824	82,014	0,153	0,119
-494,810	93,472	-0,033	0,027
-493,795	-103,815	0,092	-0,015
-492,781	800,000	0,046	-0,093
-491,766	568,648	-0,079	-0,139
-490,751	122,131	0,076	-0,069
-489,737	-70,838	0,084	0,023
-488,722	697,526	-0,039	-0,074
-487,708	457,332	-0,069	0,110
-486,693	-200,000	-0,007	0,150
-485,678	77,372	-0,083	-0,064
-484,664	-112,292	-0,061	0,009
-483,649	800,000	-0,054	-0,152
-482,635	178,799	0,086	-0,091
-481,620	94,209	0,118	0,097
-480,605	800,000	0,036	0,080
-479,591	-200,000	-0,014	-0,049
-478,576	28,977	0,050	0,030
-477,562	780,689	0,031	-0,062
-476,547	85,280	0,004	0,003
-475,532	-89,670	0,099	-0,021
-474,518	-200,000	0,007	-0,025
-473,503	475,828	0,048	-0,078
-472,489	150,722	-0,051	0,050
-471,474	6,006	-0,107	0,057
-470,459	800,000	0,014	-0,037
-469,445	411,585	-0,047	0,072
-468,430	770,175	-0,041	-0,081
-467,416	-97,630	0,106	0,020
-466,401	-143,760	0,154	0,010
-465,386	-171,654	-0,096	0,002
-464,372	-200,000	-0,021	-0,138
-463,357	-129,075	-0,098	-0,010
-462,343	-200,000	0,040	-0,154
-461,328	104,161	-0,006	0,005
-460,313	-200,000	-0,015	-0,054
-459,299	800,000	-0,015	-0,045
-458,284	528,586	-0,064	-0,109
-457,270	-99,354	0,123	-0,022
-456,255	56,436	-0,081	0,056
-455,241	800,000	0,039	-0,096
-454,226	-200,000	-0,027	0,089
-453,211	-100,241	-0,167	0,030
-452,197	-200,000	0,010	0,170
-451,182	-79,910	0,052	0,012
-450,168	-19,277	-0,016	0,007
-449,153	-200,000	0,014	0,057
-448,138	-200,000	-0,012	0,038
-447,124	21,540	-0,026	-0,015
-446,109	-200,000	-0,002	0,075
-445,095	-200,000	-0,021	-0,075
-444,080	172,970	-0,059	-0,061
-443,065	151,766	-0,040	0,039
-442,051	222,219	-0,037	0,043
-441,036	100,040	-0,047	0,039
-440,022	97,114	-0,106	0,087
-439,007	-44,958	0,038	0,013
-437,992	2,476	-0,050	-0,026
-436,978	283,710	0,078	-0,102
-435,963	210,067	-0,023	0,026
-434,949	429,614	-0,041	0,064
-433,934	-200,000	0,007	0,024
-432,919	800,000	-0,055	-0,146
-431,905	-200,000	0,004	-0,025
-430,890	308,974	-0,086	0,116
-429,876	518,492	0,066	0,112
-428,861	-48,034	-0,113	0,039
-427,846	142,039	-0,060	0,057
-426,832	-137,226	-0,156	-0,013
-425,817	-70,549	0,053	-0,014
-424,803	-200,000	0,029	-0,096
-423,788	-200,000	0,011	-0,163
-422,773	127,440	0,073	0,067
-421,759	-200,000	0,009	0,094
-420,744	-46,880	0,040	0,014
-419,730	-40,399	-0,056	-0,021
-418,715	800,000	0,045	0,112
-417,701	221,140	-0,052	0,060
-416,686	-74,264	0,130	-0,033
-415,671	-200,000	-0,002	0,012
-414,657	-200,000	-0,012	0,066
-413,642	224,321	0,081	0,094
-412,628	55,382	0,059	-0,041
-411,613	-2,821	-0,065	-0,033
-410,598	-200,000	0,016	-0,167
-409,584	800,000	-0,054	-0,126
-408,569	144,547	0,113	0,109
-407,555	671,768	-0,044	0,083
-406,540	-200,000	-0,016	-0,120
-405,525	228,714	-0,090	-0,105
-404,511	-34,566	-0,123	-0,048
-403,496	-200,000	0,004	-0,118
-402,482	-200,000	-0,005	0,048
-401,467	60,108	-0,079	0,056
-400,452	123,348	0,144	0,130
-399,438	-200,000	0,001	-0,077
-398,423	-200,000	0,049	0,187
-397,409	-200,000	-0,013	0,108
-396,394	120,290	-0,050	-0,045
-395,379	181,801	0,067	-0,071
-394,365	800,000	-0,030	0,081
-393,350	-59,495	0,095	-0,029
-392,336	169,112	-0,034	0,035
-391,321	800,000	0,039	0,081
-390,306	800,000	0,023	-0,064
-389,292	492,900	-0,053	-0,088
-388,277	-200,000	-0,002	-0,046
-387,263	299,927	-0,054	0,072
-386,248	-126,254	0,113	0,012
-385,233	23,758	0,124	0,073
-384,219	-3,156	-0,123	-0,061
-383,204	-200,000	0,025	0,105
-382,190	-79,657	0,082	0,020
-381,175	252,929	0,072	0,088
-380,160	-200,000	0,005	0,077
-379,146	-52,886	0,133	0,044
-378,131	-200,000	0,012	0,075
-377,117	-84,346	-0,013	-0,003
-376,102	84,172	-0,040	0,031
-375,088	-92,222	0,155	-0,031
-374,073	-200,000	0,001	0,040
-373,058	453,916	-0,066	0,104
-372,044	26,350	0,151	-0,091
-371,029	205,509	0,093	0,104
-370,015	800,000	-0,061	0,157
-369,000	-200,000	0,018	-0,057
-367,985	481,583	0,046	0,076
-366,971	554,605	-0,030	-0,053
-365,956	160,395	0,079	0,079
-364,942	396,868	0,036	-0,054
-363,927	109,621	0,103	0,088
-362,912	-111,530	0,061	-0,009
-361,898	64,488	-0,084	0,061
-360,883	232,518	0,096	0,113
-359,869	-200,000	0,007	0,033
-358,854	-78,230	0,081	-0,020
-357,839	-63,202	0,213	0,062
-356,825	270,596	0,105	0,133
-355,810	-162,456	0,108	0,004
-354,796	800,000	0,033	-0,089
-353,781	-103,275	-0,158	0,026
-352,766	-200,000	-0,012	-0,040
-351,752	13,425	0,082	0,045
-350,737	800,000	0,028	-0,081
-349,723	-78,559	0,115	-0,028
-348,708	-200,000	-0,012	-0,057
-347,693	1,113	-0,125	-0,064
-346,679	-121,927	0,111	0,013
-345,664	-32,396	0,006	-0,002
-344,650	800,000	0,059	0,137
-343,635	-26,226	-0,107	0,045
-342,620	12,228	-0,042	0,023
-341,606	22,445	0,056	0,033
-340,591	-130,338	-0,014	-0,001
-339,577	72,047	-0,069	0,052
-338,562	-146,603	-0,191	-0,012
-337,548	-34,562	-0,051	0,020
-336,533	37,677	0,031	0,020
-335,518	-200,000	-0,001	-0,032
-334,504	-122,217	0,055	0,006
-333,489	73,998	-0,060	0,045
-332,475	798,771	0,029	-0,058
-331,460	192,279	0,045	0,048
-330,445	-45,296	0,104	-0,037
-329,431	-200,000	0,017	-0,107
-328,416	800,000	-0,053	0,166
-327,402	-200,000	0,038	0,212
-326,387	201,617	-0,056	0,062
-325,372	-170,769	0,079	0,002
-324,358	-8,222	-0,059	-0,028
-323,343	-49,882	-0,179	0,060
-322,329	800,000	-0,018	-0,044
-321,314	800,000	-0,030	0,088
-320,299	-33,837	-0,057	0,022
-319,285	4,300	0,183	-0,095
-318,270	-115,122	-0,097	-0,013
-317,256	-88,179	-0,109	0,023
-316,241	-200,000	-0,003	-0,128
-315,226	2,604	-0,136	0,070
-314,212	-200,000	0,002	-0,104
-313,197	184,847	-0,027	-0,029
-312,183	-92,758	0,068	-0,013
-311,168	135,599	0,078	0,072
-310,153	800,000	-0,032	-0,092
-309,139	121,786	0,029	-0,026
-308,124	45,934	0,099	0,065
-307,110	119,724	0,133	-0,118
-306,095	740,873	0,049	0,094
-305,080	-200,000	-0,003	0,053
-304,066	-200,000	0,005	-0,135
-303,051	-200,000	0,013	-0,107
-302,037	424,978	-0,031	-0,048
-301,022	267,487	0,042	0,053
-300,008	-110,320	-0,067	0,010
-298,993	36,982	0,020	-0,012
-297,978	-86,208	0,055	0,012
-296,964	800,000	-0,046	-0,123
-295,949	411,956	-0,075	0,115
-294,935	286,313	0,028	0,036
-293,920	-5,385	-0,049	-0,024
-292,905	-200,000	0,005	0,031
-291,891	117,386	0,131	0,116
-290,876	-177,702	-0,021	-0,000
-289,862	50,144	-0,008	-0,005
-288,847	10,065	-0,019	-0,010
-287,832	190,650	-0,076	-0,082
-286,818	-141,161	-0,154	-0,011
-285,803	800,000	0,010	-0,031
-284,789	27,920	0,062	0,037
-283,774	720,446	0,028	0,053
-282,759	50,313	0,086	-0,058
-281,745	-55,867	-0,106	-0,033
-280,730	-34,336	-0,085	-0,033
-279,716	-65,280	0,071	-0,020
-278,701	-9,235	-0,066	0,031
-277,686	-105,258	0,089	0,014
-276,672	-200,000	0,002	-0,022
-275,657	673,232	0,005	-0,009
-274,643	-169,690	0,024	0,001
-273,628	-14,590	0,118	-0,054
-272,613	557,403	0,086	-0,149
-271,599	61,182	0,076	-0,054
-270,584	650,442	-0,050	0,091
-269,570	-174,250	0,069	0,001
-268,555	-40,092	-0,138	0,051
-267,540	-56,956	0,167	-0,052
-266,526	-200,000	0,029	-0,153
-265,511	-200,000	-0,006	-0,190
-264,497	-200,000	0,018	-0,133
-263,482	125,614	0,136	-0,123
-262,467	116,659	-0,049	-0,043
-261,453	60,227	0,131	0,093
-260,438	-45,081	-0,176	-0,062
-259,424	800,000	-0,055	-0,139
-258,409	-200,000	-0,007	-0,094
-257,395	84,827	-0,048	-0,037
-256,380	800,000	-0,043	0,091
-255,365	-200,000	-0,015	0,181
-254,351	129,470	0,091	-0,083
-253,336	-200,000	0,012	0,089
-252,322	-54,254	-0,080	0,026
-251,307	-30,181	-0,040	0,016
-250,292	-35,676	-0,095	-0,037
-249,278	113,875	0,071	0,062
-248,263	-147,396	0,004	-0,000
-247,249	800,000	0,048	0,129
-246,234	-80,046	-0,149	0,035
-245,219	-125,589	-0,124	-0,013
-244,205	119,095	0,011	-0,010
-243,190	-200,000	-0,005	-0,016
-242,176	-132,672	0,166	0,015
-241,161	-91,375	0,097	0,020
-240,146	-200,000	0,029	0,152
-239,132	-52,020	0,060	0,020
-238,117	62,925	-0,129	-0,092
-237,103	-200,000	0,023	-0,100
-236,088	596,741	0,019	-0,033
-235,073	800,000	0,009	0,023
-234,059	424,156	-0,106	0,163
-233,044	-200,000	-0,002	-0,021
-232,030	-145,384	0,147	-0,009
-231,015	-137,609	-0,060	0,005
-230,000	489,815	-0,032	-0,052
-228,986	351,352	-0,048	-0,068
-227,971	47,951	0,118	0,079
-226,957	800,000	-0,057	0,118
-225,942	315,916	-0,080	-0,107
-224,927	800,000	-0,053	0,139
-223,913	-200,000	-0,040	-0,187
-222,898	-125,794	0,007	0,001
-221,884	379,490	0,038	0,056
-220,869	113,427	0,089	0,077
-219,855	193,141	0,065	0,070
-218,840	800,000	0,040	0,084
-217,825	18,562	-0,128	0,073
-216,811	28,271	0,166	-0,100
-215,796	-200,000	0,028	-0,135
-214,782	161,855	-0,064	-0,064
-213,767	196,245	-0,060	0,065
-212,752	-200,000	0,011	0,103
-211,738	161,956	-0,116	0,115
-210,723	-200,000	0,001	0,036
-209,709	581,293	0,041	0,072
-208,694	-200,000	-0,000	-0,028
-207,679	-44,298	0,072	-0,026
-206,665	-87,723	-0,034	0,007
-205,650	-23,995	0,146	0,062
-204,636	-70,760	0,053	0,014
-203,621	-200,000	0,037	0,120
-202,606	299,415	0,035	-0,045
-201,592	-200,000	0,010	-0,059
-200,577	168,859	0,098	-0,099
-199,563	273,420	-0,045	0,057
-198,548	109,689	0,041	0,035
-197,533	337,765	-0,050	-0,069
-196,519	367,199	-0,049	-0,070
-195,504	-200,000	-0,001	-0,187
-194,490	-200,000	-0,006	-0,058
-193,475	270,066	-0,077	-0,096
-192,460	-103,598	-0,084	-0,014
-191,446	20,874	0,082	-0,047
-190,431	-200,000	-0,063	0,221
-189,417	-40,984	0,088	0,032
-188,402	800,000	-0,036	0,083
-187,387	-200,000	-0,001	0,095
-186,373	491,587	0,097	-0,158
-185,358	-200,000	0,027	-0,126
-184,344	-77,616	-0,031	0,008
-183,329	-9,573	-0,045	0,021
-182,315	243,062	0,089	0,106
-181,300	47,045	-0,074	-0,049
-180,285	202,387	0,014	-0,015
-179,271	-126,322	-0,067	-0,007
-178,256	-200,000	0,025	-0,147
-177,242	-1,471	-0,096	0,048
-176,227	-100,054	0,149	0,026
-175,212	800,000	0,037	0,072
-174,198	-2,160	0,084	0,042
-173,183	-200,000	0,004	-0,128
-172,169	-200,000	0,021	0,089
-171,154	800,000	0,058	-0,137
-170,139	-75,171	0,110	0,028
-169,125	532,187	0,046	0,077
-168,110	-95,379	0,127	-0,024
-167,096	-200,000	0,007	0,025
-166,081	618,144	-0,140	0,251
-165,066	-53,420	-0,148	-0,048
-164,052	85,641	-0,149	0,117
-163,037	-200,000	0,003	0,070
-162,023	800,000	-0,043	0,117
-161,008	215,445	0,111	0,125
-159,993	338,583	-0,095	0,131
-158,979	-22,448	-0,107	-0,046
-157,964	-200,000	-0,001	-0,125
-156,950	800,000	-0,056	-0,111
-155,935	164,630	0,026	-0,026
-154,920	-31,421	0,098	0,039
-153,906	57,531	0,032	-0,022
-152,891	-172,087	0,093	-0,002
-151,877	-105,281	-0,154	-0,025
-150,862	155,327	-0,037	0,036
-149,847	-200,000	0,014	-0,053
-148,833	800,000	0,055	0,126
-147,818	800,000	-0,031	0,068
-146,804	114,466	-0,099	-0,086
-145,789	222,680	0,149	-0,171
-144,775	800,000	-0,004	0,012
-143,760	79,222	-0,108	-0,082
-142,745	388,832	-0,059	-0,087
-141,731	191,481	0,099	0,106
-140,716	-144,722	-0,117	0,008
-139,702	648,247	0,069	0,127
-138,687	-45,424	-0,019	-0,007
-137,672	117,343	0,045	-0,040
-136,658	-108,763	0,110	0,016
-135,643	-114,265	-0,041	0,006
-134,629	230,855	0,051	-0,059
-133,614	-6,128	-0,085	-0,041
-132,599	280,037	-0,047	0,059
-131,585	-200,000	-0,064	0,212
-130,570	-185,960	-0,088	-0,001
-129,556	342,459	0,030	0,042
-128,541	-200,000	0,001	0,127
-127,526	800,000	-0,006	-0,019
-126,512	349,022	-0,120	0,168
-125,497	205,335	-0,027	-0,030
-124,483	-8,280	0,077	0,036
-123,468	800,000	0,045	0,127
-122,453	-200,000	-0,010	-0,073
-121,439	-141,072	-0,060	0,004
-120,424	800,000	0,030	0,094
-119,410	26,137	0,087	0,051
-118,395	-200,000	0,018	0,088
-117,380	-200,000	-0,031	0,196
-116,366	44,227	0,051	0,033
-115,351	86,155	0,146	-0,114
-114,337	-15,671	-0,038	-0,017
-113,322	-54,413	0,036	0,011
-112,307	10,736	-0,059	-0,032
-111,293	-75,481	0,142	-0,036
-110,278	406,505	-0,027	0,041
-109,264	69,796	0,056	0,041
-108,249	100,972	-0,111	-0,092
-107,234	38,457	-0,082	-0,052
-106,220	-69,742	-0,057	-0,015
-105,205	141,290	-0,041	0,038
-104,191	435,641	-0,134	0,207
-103,176	53,738	0,144	0,098
-102,162	-200,000	0,021	0,244
-101,147	-200,000	-0,004	-0,074
-100,132	302,388	-0,044	-0,058
-99,118	-200,000	0,011	-0,058
-98,103	88,652	0,098	-0,077
-97,089	-17,901	0,142	0,063
-96,074	55,426	-0,023	0,016
-95,059	-200,000	-0,019	0,082
-94,045	763,007	0,021	0,040
-93,030	549,710	-0,038	0,065
-92,016	800,000	0,040	0,086
-91,001	800,000	0,033	-0,072
-89,986	-200,000	-0,006	0,131
-88,972	115,772	-0,074	0,064
-87,957	-68,914	0,047	-0,013
-86,943	800,000	-0,060	0,184
-85,928	82,950	-0,024	0,018
-84,913	101,480	0,042	0,034
-83,899	-98,518	0,119	-0,021
-82,884	-117,691	-0,041	0,005
-81,870	-27,273	-0,064	0,026
-80,855	228,458	0,033	0,038
-79,840	743,548	0,052	-0,100
-78,826	-142,549	-0,148	-0,010
-77,811	23,910	-0,009	-0,005
-76,797	-5,241	-0,101	0,049
-75,782	-65,646	0,130	-0,037
-74,767	-180,239	0,104	0,002
-73,753	-25,148	0,028	-0,012
-72,738	800,000	0,024	0,053
-71,724	185,958	-0,063	0,066
-70,709	22,549	-0,132	0,076
-69,694	-200,000	-0,013	-0,126
-68,680	59,113	0,133	-0,093
-67,665	-200,000	0,009	0,051
-66,651	280,264	0,013	-0,017
-65,636	-60,816	0,086	0,026
-64,622	-200,000	0,003	0,074
-63,607	800,000	-0,073	0,166
-62,592	325,071	0,045	-0,061
-61,578	689,123	0,050	-0,093
-60,563	66,005	0,159	0,114
-59,549	-85,681	-0,032	0,007
-58,534	-68,804	-1,594	-0,433
-57,519	383,961	-1,376	-2,013
-56,505	-200,000	-0,567	-4,656
-55,490	111,282	0,983	0,839
-54,476	800,000	4,651	11,310
-53,461	-200,000	18,239	286,836
-52,446	800,000	727,166	2224,995
-51,432	553,915	1643,024	2809,039
-50,417	79,336	1665,241	1263,141
-49,403	22,910	1539,152	891,287
-48,388	16,948	1462,242	817,878
-47,373	17,889	1452,032	816,665
-46,359	17,290	1442,667	808,500
-45,344	15,213	1438,108	795,997
-44,330	15,094	1436,031	794,251
-43,315	15,124	1434,164	793,329
-42,300	15,181	1432,596	792,701
-41,286	15,215	1431,324	792,130
-40,271	15,126	1430,193	791,045
-39,257	15,133	1429,230	790,519
-38,242	15,201	1427,683	789,954
-37,227	15,216	1426,361	789,259
-36,213	15,189	1425,138	788,423
-35,198	15,168	1424,060	787,696
-34,184	15,184	1423,176	787,253
-33,169	15,173	1421,885	786,454
-32,154	15,208	1420,715	785,942
-31,140	15,227	1419,352	785,244
-30,125	15,201	1418,624	784,690
-29,111	15,206	1417,372	783,991
-28,096	15,203	1416,242	783,320
-27,082	15,152	1415,021	782,373
-26,067	15,116	1413,876	781,540
-25,052	15,105	1412,980	780,962
-24,038	15,122	1411,809	780,363
-23,023	15,132	1410,716	779,776
-22,009	15,036	1410,046	778,926
-20,994	15,052	1408,961	778,370
-19,979	15,052	1408,148	777,889
-18,965	15,052	1407,184	777,326
-17,950	15,038	1406,172	776,669
-16,936	15,028	1405,246	776,084
-15,921	15,027	1403,917	775,314
-14,906	14,979	1403,088	774,600
-13,892	14,985	1402,273	774,147
-12,877	15,041	1401,383	773,886
-11,863	14,997	1400,514	773,171
-10,848	15,013	1399,494	772,651
-9,833	14,989	1398,636	772,036
-8,819	14,967	1397,766	771,424
-7,804	14,897	1396,969	770,630
-6,790	14,899	1395,752	769,938
-5,775	14,914	1394,927	769,519
-4,760	14,939	1393,974	769,079
-3,746	14,951	1392,953	768,542
-2,731	14,946	1392,329	768,141
-1,717	14,927	1391,314	767,463
-0,702	14,954	1389,341	766,470
0,313	18,701	1308,622	739,293
1,327	34,990	707,188	437,288
2,342	53,824	124,917	84,789
3,356	3,201	16,572	8,503
4,371	7,133	3,079	1,621
5,386	-19,724	0,651	0,284
6,400	-200,000	-0,051	0,181
7,415	193,350	-0,185	-0,199
8,429	284,540	-0,276	-0,353
9,444	13,162	-0,367	-0,201
10,459	79,815	-0,319	-0,242
11,473	-17,173	-0,241	-0,107
12,488	-12,966	-0,294	-0,135
13,502	72,117	-0,359	-0,264
14,517	31,918	-0,238	-0,144
15,531	423,085	-0,273	-0,416
16,546	33,242	-0,300	-0,183
17,561	2,104	-0,393	-0,200
18,575	70,320	-0,151	-0,110
19,590	169,489	-0,249	-0,252
20,604	-51,473	-0,314	-0,103
21,619	134,390	-0,412	-0,378
22,634	256,657	-0,331	-0,402
23,648	65,264	-0,536	-0,382
24,663	-17,020	-0,373	-0,166
25,677	52,173	-0,279	-0,187
26,692	165,815	-0,324	-0,324
27,707	24,609	-0,321	-0,187
28,721	118,837	-0,291	-0,254
29,736	24,975	-0,485	-0,283
30,750	89,216	-0,347	-0,273
31,765	84,471	-0,459	-0,354
32,780	275,418	-0,289	-0,362
33,794	140,795	-0,321	-0,300
34,809	69,160	-0,397	-0,288
35,823	10,972	-0,382	-0,206
36,838	-109,591	-0,361	-0,053
37,853	111,293	-0,354	-0,301
38,867	39,924	-0,429	-0,271
39,882	240,663	-0,367	-0,432
40,896	-31,133	-0,272	-0,107
41,911	25,585	-0,401	-0,235
42,926	87,077	-0,338	-0,263
43,940	15,663	-0,432	-0,239
44,955	80,926	-0,264	-0,201
45,969	282,601	-0,305	-0,386
46,984	263,293	-0,241	-0,296
47,999	212,495	-0,212	-0,236
49,013	-74,772	-0,313	-0,079
50,028	77,669	-0,334	-0,250
51,042	43,566	-0,438	-0,282
52,057	207,810	-0,343	-0,378
53,071	104,151	-0,295	-0,244
54,086	-28,437	-0,328	-0,133
55,101	95,677	-0,209	-0,168
56,115	145,922	-0,279	-0,263
57,130	118,261	-0,360	-0,312
58,144	56,617	-0,434	-0,297
59,159	27,320	-0,422	-0,249
60,174	71,281	-0,305	-0,222
61,188	327,013	-0,303	-0,409
62,203	-50,535	-0,223	-0,074
63,217	49,349	-0,232	-0,153
64,232	69,334	-0,379	-0,274
65,247	153,668	-0,298	-0,288
66,261	-32,726	-0,329	-0,128
67,276	-46,045	-0,360	-0,124
68,290	179,505	-0,288	-0,297
69,305	-13,142	-0,386	-0,176
70,320	182,604	-0,213	-0,221
71,334	-86,021	-0,383	-0,083
72,349	40,028	-0,349	-0,220
73,363	64,876	-0,335	-0,237
74,378	137,123	-0,338	-0,311
75,393	104,027	-0,263	-0,218
76,407	137,611	-0,212	-0,195
77,422	-6,974	-0,230	-0,109
78,436	12,270	-0,289	-0,156
79,451	-38,910	-0,384	-0,141
80,466	30,318	-0,357	-0,214
81,480	166,353	-0,161	-0,161
82,495	105,887	-0,342	-0,284
83,509	40,188	-0,208	-0,131
84,524	-1,929	-0,289	-0,142
85,539	50,123	-0,368	-0,243
86,553	67,559	-0,387	-0,277
87,568	172,002	-0,152	-0,154
88,582	13,676	-0,371	-0,202
89,597	29,361	-0,267	-0,159
90,611	-49,125	-0,434	-0,145
91,626	79,146	-0,328	-0,246
92,641	69,455	-0,292	-0,211
93,655	-116,807	-0,408	-0,052
94,670	395,165	-0,170	-0,249
95,684	20,896	-0,253	-0,144
96,699	19,164	-0,319	-0,179
97,714	9,312	-0,351	-0,186
98,728	-31,662	-0,240	-0,094
99,743	126,921	-0,274	-0,244
100,757	-156,769	-0,186	-0,008
101,772	245,323	-0,207	-0,245
102,787	19,022	-0,391	-0,219
103,801	343,764	-0,169	-0,233
104,816	37,653	-0,361	-0,225
105,830	151,329	-0,248	-0,237
106,845	-61,851	-0,252	-0,074
107,860	28,333	-0,267	-0,158
108,874	120,218	-0,214	-0,186
109,889	95,971	-0,301	-0,241
110,903	87,809	-0,279	-0,217
111,918	142,547	-0,291	-0,271
112,933	90,566	-0,249	-0,195
113,947	187,149	-0,226	-0,236
114,962	154,078	-0,227	-0,218
115,976	-70,303	-0,353	-0,093
116,991	52,235	-0,400	-0,267
118,006	-20,604	-0,277	-0,119
119,020	199,742	-0,239	-0,257
120,035	51,237	-0,262	-0,174
121,049	158,669	-0,177	-0,173
122,064	-13,447	-0,289	-0,131
123,079	7,557	-0,346	-0,181
124,093	292,075	-0,201	-0,256
125,108	-34,270	-0,362	-0,139
126,122	-31,307	-0,349	-0,137
127,137	70,153	-0,191	-0,138
128,151	-83,240	-0,199	-0,044
129,166	-29,213	-0,278	-0,111
130,181	229,980	-0,111	-0,128
131,195	36,906	-0,370	-0,228
132,210	46,028	-0,292	-0,189
133,224	110,345	-0,232	-0,195
134,239	8,540	-0,195	-0,102
135,254	424,372	-0,123	-0,186
136,268	-28,250	-0,109	0,044
137,283	-71,530	-0,307	-0,080
138,297	2,844	-0,228	-0,115
139,312	82,659	-0,256	-0,194
140,327	501,838	-0,145	-0,235
141,341	0,485	-0,231	-0,115
142,356	159,985	-0,196	-0,191
143,370	145,328	-0,216	-0,203
144,385	222,868	-0,211	-0,238
145,400	-66,666	-0,299	-0,082
146,414	275,599	-0,194	-0,240
147,429	134,834	-0,239	-0,217
148,443	219,245	-0,265	-0,297
149,458	89,749	-0,267	-0,208
150,473	15,903	-0,287	-0,157
151,487	17,325	-0,248	-0,137
152,502	-34,594	-0,217	-0,083
153,516	88,837	-0,187	-0,145
154,531	-143,082	-0,282	-0,019
155,546	129,441	-0,212	-0,189
156,560	-4,790	-0,239	-0,115
157,575	63,937	-0,283	-0,198
158,589	158,358	-0,212	-0,205
159,604	14,878	-0,217	-0,118
160,619	-10,875	-0,214	-0,099
161,633	317,414	-0,171	-0,227
162,648	800,000	-0,098	-0,216
163,662	431,328	-0,067	-0,102
164,677	-80,487	-0,331	-0,076
165,692	-27,909	-0,169	-0,068
166,706	131,350	-0,281	-0,252
167,721	103,449	-0,289	-0,237
168,735	800,000	-0,158	-0,318
169,750	10,570	-0,187	-0,099
170,764	42,035	-0,201	-0,127
171,779	125,341	-0,156	-0,137
172,794	404,430	-0,158	-0,233
173,808	69,468	-0,231	-0,166
174,823	163,034	-0,158	-0,154
175,837	66,097	-0,239	-0,169
176,852	194,002	-0,171	-0,180
177,867	-5,814	-0,270	-0,129
178,881	95,623	-0,185	-0,147
179,896	-6,567	-0,184	-0,087
180,910	-129,706	-0,131	-0,012
181,925	56,153	-0,305	-0,206
182,940	177,321	-0,259	-0,263
183,954	76,309	-0,308	-0,227
184,969	-7,681	-0,181	-0,085
185,983	4,901	-0,267	-0,136
186,998	-143,421	-0,235	0,015
188,013	52,051	-0,311	-0,206
189,027	38,458	-0,309	-0,191
190,042	134,614	-0,253	-0,229
191,056	270,977	-0,134	-0,165
192,071	235,881	-0,218	-0,251
193,086	180,647	-0,135	-0,138
194,100	178,726	-0,215	-0,219
195,115	-32,507	-0,315	-0,122
196,129	5,230	-0,319	-0,163
197,144	91,642	-0,283	-0,221
198,159	113,045	-0,223	-0,188
199,173	800,000	-0,078	-0,176
200,188	40,989	-0,188	-0,118
201,202	-85,789	-0,303	-0,065
202,217	338,078	-0,161	-0,218
203,232	-200,000	-0,028	-0,123
204,246	354,799	-0,221	-0,306
205,261	141,748	-0,176	-0,162
206,275	112,540	-0,271	-0,228
207,290	169,123	-0,179	-0,177
208,304	-89,596	-0,164	-0,033
209,319	94,699	-0,126	-0,100
210,334	236,098	-0,135	-0,155
211,348	276,947	-0,165	-0,204
212,363	93,385	-0,329	-0,259
213,377	492,306	-0,136	-0,218
214,392	482,952	-0,141	-0,224
215,407	519,669	-0,020	-0,032
216,421	19,879	-0,184	-0,103
217,436	98,492	-0,179	-0,143
218,450	206,110	-0,269	-0,291
219,465	-1,877	-0,250	-0,122
220,480	233,584	-0,182	-0,208
221,494	350,728	-0,102	-0,140
222,509	168,325	-0,136	-0,134
223,523	693,405	-0,104	-0,190
224,538	140,579	-0,210	-0,192
225,553	800,000	-0,125	-0,242
226,567	133,963	-0,156	-0,140
227,582	60,417	-0,262	-0,180
228,596	575,792	-0,136	-0,232
229,611	-36,279	-0,168	-0,063
230,626	-72,946	-0,072	-0,018
231,640	-98,372	-0,304	-0,054
232,655	-19,564	-0,297	-0,127
233,669	239,650	-0,228	-0,263
234,684	65,071	-0,315	-0,220
235,699	236,071	-0,097	-0,111
236,713	-72,264	-0,170	-0,043
237,728	800,000	-0,111	-0,218
238,742	-43,783	-0,210	-0,073
239,757	800,000	-0,106	-0,284
240,772	-200,000	-0,084	-0,314
241,786	124,030	-0,230	-0,200
242,801	-41,073	-0,192	-0,068
243,815	14,246	-0,213	-0,115
244,830	-123,485	-0,203	0,022
245,844	42,330	-0,133	-0,083
246,859	46,765	-0,206	-0,132
247,874	89,060	-0,256	-0,198
248,888	508,664	-0,171	-0,277
249,903	728,079	-0,039	-0,072
250,917	-167,629	-0,251	0,007
251,932	-32,487	-0,179	-0,069
252,947	-78,566	-0,217	-0,051
253,961	800,000	-0,070	-0,160
254,976	-148,488	-0,185	-0,010
255,990	-106,673	-0,228	-0,035
257,005	-3,752	-0,245	-0,117
258,020	-200,000	-0,020	-0,104
259,034	202,162	-0,187	-0,200
260,049	78,021	-0,159	-0,117
261,063	-91,310	-0,240	-0,047
262,078	159,240	-0,197	-0,190
263,093	56,263	-0,158	-0,106
264,107	271,290	-0,222	-0,271
265,122	137,999	-0,065	0,059
266,136	800,000	-0,062	-0,155
267,151	800,000	-0,081	-0,202
268,166	-7,928	-0,160	-0,074
269,180	108,156	-0,139	-0,114
270,195	-68,481	-0,229	-0,061
271,209	-46,793	-0,165	-0,056
272,224	200,804	-0,103	-0,109
273,239	-200,000	-0,003	-0,130
274,253	-75,355	-0,090	-0,022
275,268	28,744	-0,186	-0,109
276,282	-7,962	-0,191	-0,089
277,297	29,581	-0,229	-0,134
278,312	-200,000	-0,003	-0,042
279,326	-39,346	-0,112	-0,041
280,341	107,765	-0,135	-0,111
281,355	11,451	-0,161	-0,085
282,370	370,905	-0,049	-0,068
283,384	-19,945	-0,203	-0,086
284,399	557,533	-0,082	-0,136
285,414	-20,155	-0,165	-0,070
286,428	108,452	-0,176	-0,145
287,443	-77,007	-0,264	-0,063
288,457	-39,355	-0,140	-0,050
289,472	18,028	-0,103	-0,056
290,487	19,135	-0,206	-0,114
291,501	264,732	-0,132	-0,159
292,516	800,000	0,070	-0,137
293,530	-2,949	-0,188	-0,090
294,545	-93,903	-0,132	-0,025
295,560	-98,300	-0,062	-0,011
296,574	-116,081	-0,186	0,024
297,589	26,505	-0,169	-0,097
298,603	51,317	-0,165	-0,108
299,618	-200,000	-0,054	-0,209
300,633	-200,000	-0,002	-0,148
301,647	22,205	-0,116	-0,065
302,662	-200,000	-0,018	-0,168
303,676	-112,323	-0,169	-0,023
304,691	33,820	-0,151	-0,091
305,706	62,211	-0,186	-0,128
306,720	536,001	-0,120	-0,197
307,735	-26,005	-0,143	-0,058
308,749	-124,768	-0,102	-0,011
309,764	48,246	-0,136	-0,088
310,779	225,646	-0,111	-0,125
311,793	800,000	-0,085	-0,212
312,808	169,046	-0,113	-0,111
313,822	97,218	-0,216	-0,170
314,837	-46,110	-0,168	-0,056
315,852	96,857	-0,061	-0,048
316,866	800,000	-0,098	-0,191
317,881	-103,947	-0,110	-0,017
318,895	-105,420	-0,121	-0,019
319,910	184,292	-0,111	-0,113
320,925	-107,395	-0,199	-0,030
321,939	-74,414	-0,242	-0,060
322,954	-51,535	-0,077	-0,025
323,968	-200,000	-0,036	-0,136
324,983	-123,592	-0,102	0,011
325,997	-89,892	-0,234	-0,047
327,012	-74,640	-0,275	-0,068
328,027	99,072	-0,148	-0,117
329,041	376,483	-0,170	-0,240
330,056	67,948	-0,181	-0,127
331,070	-200,000	0,028	-0,095
332,085	541,428	-0,052	-0,085
333,100	153,071	-0,114	-0,107
334,114	65,761	-0,165	-0,115
335,129	-89,204	-0,251	-0,051
336,143	-51,636	-0,118	-0,038
337,158	-48,466	-0,192	0,063
338,173	-182,828	-0,137	-0,002
339,187	81,956	-0,113	-0,084
340,202	-200,000	-0,000	-0,010
341,216	-154,870	-0,157	0,007
342,231	130,099	-0,198	-0,174
343,246	-54,449	-0,205	-0,063
344,260	90,277	-0,150	-0,115
345,275	67,393	-0,164	-0,115
346,289	76,205	-0,158	-0,115
347,304	97,711	-0,217	-0,171
348,319	-54,091	-0,233	-0,072
349,333	-13,444	-0,123	-0,054
350,348	80,535	-0,158	-0,117
351,362	-68,293	-0,151	0,040
352,377	-67,646	-0,240	-0,064
353,392	-200,000	-0,008	-0,088
354,406	418,010	-0,067	-0,098
355,421	208,929	1315,451	1414,600
356,435	160,781	1476,267	1415,096
