DTS Sentinel unit serial number:	SN410029Multiplexer serial number:	ORYXHardware model number:	OX2-SRSoftware version number:	ORYX F/W v4,00 Oryx Data Collector v3.7.2.0data status	okinstallation	B3 Nyhavnadifferential loss correction	single-endedforward channel	channel 1reverse channel	N/Adate	2023/11/29time	22:22:30forward acquisition time	300,00reverse acquisition time	0,00gamma	499,1914k internal	0,3210k external	0,3210temperature offset calibration	1,0000default loss term (dB/km)	0,3820temperature slope calibration	1,0000multiplexer offset coefficient	1,0000multiplexer slope coefficient	1,0000fibre end	0,00T internal ref (°C)	10,81T ext. ref 1 (°C)	-4,18T ext. ref 2 (°C)	-4,29length (m)	temperature (°C)	Stokes	anti-Stokes-744,400	800,000	-0,114	-0,279
-743,385	-200,000	-0,054	0,264
-742,371	108,406	-0,157	-0,136
-741,356	-200,000	0,014	0,356
-740,342	800,000	-0,077	-0,240
-739,327	800,000	-0,145	0,328
-738,312	77,379	-0,161	-0,124
-737,298	-200,000	0,033	0,126
-736,283	-200,000	-0,068	-0,219
-735,269	-200,000	0,027	0,219
-734,254	-59,294	-0,274	-0,085
-733,239	108,276	-0,123	0,107
-732,225	-200,000	-0,018	-0,167
-731,210	-147,686	0,149	-0,009
-730,196	800,000	-0,060	-0,186
-729,181	573,283	0,030	-0,054
-728,167	-200,000	0,011	-0,150
-727,152	4,318	-0,027	0,014
-726,137	29,006	0,078	0,048
-725,123	253,008	0,017	-0,021
-724,108	283,595	-0,109	-0,143
-723,094	-200,000	-0,032	-0,206
-722,079	-128,664	-0,223	-0,023
-721,064	-200,000	0,009	0,083
-720,050	-200,000	0,004	-0,025
-719,035	284,141	0,048	-0,063
-718,021	351,808	-0,036	0,052
-717,006	-200,000	-0,039	-0,169
-715,991	78,651	-0,095	-0,073
-714,977	800,000	-0,033	-0,090
-713,962	561,073	0,038	0,066
-712,948	715,207	0,037	-0,072
-711,933	-200,000	-0,014	-0,054
-710,918	37,836	-0,040	-0,026
-709,904	-61,224	-0,108	0,033
-708,889	-176,549	-0,072	0,001
-707,875	-200,000	-0,020	-0,082
-706,860	800,000	0,024	0,057
-705,845	333,513	0,063	0,089
-704,831	257,077	0,065	-0,081
-703,816	-68,270	-0,112	-0,031
-702,802	-200,000	-0,002	-0,143
-701,787	-4,121	-0,207	-0,104
-700,772	797,824	0,074	-0,148
-699,758	-178,303	-0,066	0,001
-698,743	800,000	-0,021	0,052
-697,729	800,000	0,020	0,063
-696,714	800,000	0,035	-0,076
-695,699	-71,113	0,153	-0,041
-694,685	236,224	0,066	-0,079
-693,670	-89,278	-0,178	-0,038
-692,656	-26,442	-0,036	0,015
-691,641	229,161	0,038	-0,045
-690,627	146,574	-0,043	-0,042
-689,612	49,559	-0,057	0,039
-688,597	206,626	-0,079	-0,089
-687,583	-29,924	0,066	0,027
-686,568	-200,000	-0,003	0,032
-685,554	10,715	-0,098	-0,054
-684,539	800,000	0,072	-0,156
-683,524	687,756	-0,037	-0,071
-682,510	-200,000	-0,013	-0,053
-681,495	800,000	0,053	-0,163
-680,481	214,708	0,068	-0,078
-679,466	283,524	-0,052	-0,068
-678,451	-35,768	-0,042	-0,016
-677,437	-200,000	-0,011	-0,076
-676,422	5,132	0,182	0,097
-675,408	-200,000	-0,005	0,041
-674,393	800,000	-0,052	-0,128
-673,378	800,000	-0,025	-0,071
-672,364	19,501	-0,022	-0,013
-671,349	-20,425	-0,102	-0,045
-670,335	-200,000	0,001	0,076
-669,320	-200,000	0,011	-0,145
-668,305	800,000	-0,045	0,129
-667,291	800,000	0,017	-0,049
-666,276	155,515	-0,024	-0,024
-665,262	32,120	-0,065	-0,041
-664,247	-171,599	-0,050	-0,001
-663,232	-157,130	-0,097	-0,004
-662,218	800,000	0,061	0,150
-661,203	-200,000	0,005	0,017
-660,189	-200,000	0,012	-0,077
-659,174	-38,410	0,087	-0,033
-658,159	-56,099	-0,120	-0,038
-657,145	69,720	-0,103	0,077
-656,130	-102,921	-0,114	-0,019
-655,116	-175,669	0,108	0,002
-654,101	143,016	0,035	-0,034
-653,086	-200,000	0,004	0,066
-652,072	800,000	-0,041	-0,097
-651,057	-200,000	-0,004	-0,111
-650,043	-200,000	-0,027	-0,098
-649,028	595,795	0,055	-0,100
-648,014	800,000	-0,050	0,144
-646,999	-200,000	-0,010	-0,053
-645,984	107,853	0,082	0,071
-644,970	59,004	-0,032	0,022
-643,955	636,352	-0,057	-0,105
-642,941	800,000	-0,054	-0,109
-641,926	800,000	0,015	0,030
-640,911	800,000	0,056	0,164
-639,897	89,525	0,031	0,025
-638,882	98,829	0,071	0,059
-637,868	-200,000	-0,011	0,173
-636,853	-33,704	-0,062	0,024
-635,838	800,000	-0,056	-0,118
-634,824	9,173	-0,024	0,013
-633,809	-200,000	0,011	-0,125
-632,795	-63,279	0,101	0,030
-631,780	800,000	0,029	0,074
-630,765	-98,867	-0,093	-0,017
-629,751	-59,746	-0,150	-0,046
-628,736	-118,625	-0,173	0,022
-627,722	-200,000	-0,017	-0,068
-626,707	600,320	0,076	0,137
-625,692	359,650	0,087	0,127
-624,678	654,069	-0,015	-0,028
-623,663	168,513	0,040	0,041
-622,649	71,688	-0,169	-0,127
-621,634	28,375	-0,135	-0,082
-620,619	290,841	0,068	-0,090
-619,605	79,353	-0,150	0,116
-618,590	113,405	0,079	-0,069
-617,576	-36,790	0,106	0,041
-616,561	800,000	0,015	0,041
-615,546	160,572	0,073	-0,074
-614,532	337,128	-0,076	-0,106
-613,517	-200,000	0,000	0,017
-612,503	238,683	-0,103	0,124
-611,488	378,335	0,066	0,098
-610,474	-161,889	-0,126	-0,005
-609,459	-92,065	-0,040	-0,008
-608,444	33,232	-0,039	0,024
-607,430	214,760	-0,054	-0,062
-606,415	-200,000	-0,023	-0,079
-605,401	-7,803	0,063	0,030
-604,386	-15,765	-0,039	-0,018
-603,371	-200,000	0,015	-0,051
-602,357	800,000	-0,040	-0,084
-601,342	170,266	-0,043	-0,044
-600,328	22,881	0,052	-0,031
-599,313	309,326	-0,107	-0,145
-598,298	800,000	-0,046	0,115
-597,284	-200,000	0,009	0,028
-596,269	604,080	0,028	0,051
-595,255	-200,000	-0,005	0,108
-594,240	117,058	0,042	0,037
-593,225	106,398	-0,059	-0,051
-592,211	316,960	-0,100	-0,137
-591,196	-16,955	0,085	-0,038
-590,182	-133,162	0,107	0,010
-589,167	-18,103	0,027	0,012
-588,152	-200,000	-0,022	0,074
-587,138	66,955	-0,074	-0,055
-586,123	-4,946	0,083	-0,041
-585,109	107,468	-0,052	-0,045
-584,094	-200,000	-0,001	0,043
-583,079	-119,617	-0,052	0,006
-582,065	-200,000	0,036	0,189
-581,050	168,417	-0,119	-0,122
-580,036	489,906	0,030	-0,049
-579,021	-103,312	-0,127	0,021
-578,006	189,051	-0,063	0,068
-576,992	-200,000	-0,002	0,074
-575,977	-200,000	-0,003	-0,077
-574,963	140,730	0,141	0,134
-573,948	553,906	-0,049	0,085
-572,934	165,227	0,092	0,094
-571,919	92,757	-0,090	-0,073
-570,904	-200,000	-0,007	-0,094
-569,890	727,631	0,067	0,130
-568,875	-60,417	0,176	0,054
-567,861	-200,000	0,000	0,066
-566,846	580,019	0,025	0,045
-565,831	536,579	0,068	0,116
-564,817	-143,104	-0,126	-0,009
-563,802	-200,000	-0,024	-0,089
-562,788	127,554	0,083	-0,076
-561,773	-131,270	-0,120	-0,011
-560,758	40,081	-0,068	-0,044
-559,744	156,215	0,050	0,050
-558,729	-18,598	-0,098	0,044
-557,715	207,979	0,039	-0,043
-556,700	224,809	-0,108	-0,126
-555,685	51,721	0,196	-0,134
-554,671	-200,000	-0,021	-0,161
-553,656	800,000	-0,029	-0,083
-552,642	800,000	0,011	0,030
-551,627	275,635	-0,042	0,054
-550,612	-200,000	-0,000	-0,001
-549,598	-200,000	0,037	-0,149
-548,583	767,872	0,033	-0,065
-547,569	-95,712	-0,044	0,008
-546,554	-163,984	-0,114	-0,004
-545,539	-143,959	0,091	-0,006
-544,525	-95,427	-0,147	-0,028
-543,510	63,922	-0,094	-0,068
-542,496	-200,000	-0,002	-0,105
-541,481	-18,488	0,085	-0,038
-540,466	800,000	0,049	0,114
-539,452	-200,000	0,014	-0,050
-538,437	149,689	0,071	0,070
-537,423	-200,000	-0,012	0,092
-536,408	273,183	-0,052	0,066
-535,393	183,817	-0,092	-0,098
-534,379	-154,682	-0,066	-0,003
-533,364	392,514	-0,090	0,135
-532,350	-96,926	0,042	0,008
-531,335	-159,803	-0,142	0,006
-530,321	36,183	0,018	0,011
-529,306	38,360	-0,115	-0,073
-528,291	391,030	0,035	-0,053
-527,277	21,949	-0,116	-0,068
-526,262	-60,203	-0,142	-0,043
-525,248	60,557	0,045	-0,032
-524,233	-162,350	0,068	0,002
-523,218	-200,000	0,020	-0,119
-522,204	-49,901	0,108	-0,037
-521,189	95,529	-0,176	-0,144
-520,175	-200,000	0,009	0,089
-519,160	180,683	-0,045	-0,048
-518,145	800,000	0,008	0,019
-517,131	-200,000	0,017	0,067
-516,116	59,085	-0,048	-0,034
-515,102	-64,672	0,109	0,032
-514,087	-28,390	-0,075	-0,031
-513,072	568,832	-0,010	-0,017
-512,058	32,210	-0,095	-0,059
-511,043	-200,000	-0,002	-0,056
-510,029	-200,000	-0,032	-0,116
-509,014	118,809	0,084	0,074
-507,999	800,000	0,060	0,144
-506,985	-41,036	-0,065	-0,024
-505,970	59,043	-0,025	0,018
-504,956	800,000	-0,046	-0,118
-503,941	-200,000	0,020	0,086
-502,926	6,437	-0,069	0,037
-501,912	-200,000	-0,003	0,034
-500,897	47,249	0,034	-0,023
-499,883	-84,579	-0,196	0,044
-498,868	-117,100	0,069	0,009
-497,853	-71,393	-0,150	0,040
-496,839	-157,844	-0,127	0,005
-495,824	164,475	0,075	-0,076
-494,810	-7,455	0,051	0,025
-493,795	84,764	0,035	0,027
-492,781	205,157	0,039	-0,044
-491,766	207,274	-0,123	-0,138
-490,751	-200,000	-0,040	-0,152
-489,737	-132,253	0,195	0,018
-488,722	125,473	0,040	0,036
-487,708	800,000	-0,018	0,054
-486,693	119,383	0,096	0,085
-485,678	105,968	-0,043	0,037
-484,664	-53,663	-0,069	0,023
-483,649	132,335	-0,060	0,056
-482,635	-200,000	0,021	-0,109
-481,620	800,000	-0,028	-0,060
-480,605	-200,000	0,005	0,036
-479,591	110,392	-0,064	0,055
-478,576	-136,769	-0,091	0,007
-477,562	458,576	-0,035	0,057
-476,547	130,137	-0,031	-0,029
-475,532	-82,673	-0,059	-0,014
-474,518	-123,953	0,110	0,012
-473,503	246,959	0,103	-0,125
-472,489	11,178	0,084	-0,046
-471,474	800,000	0,043	-0,101
-470,459	-131,976	-0,132	0,012
-469,445	-50,442	-0,060	-0,020
-468,430	-200,000	0,015	0,075
-467,416	0,769	0,086	-0,044
-466,401	-200,000	-0,019	-0,127
-465,386	-41,782	-0,054	0,020
-464,372	51,267	0,077	-0,052
-463,357	307,373	0,056	0,076
-462,343	101,634	-0,092	-0,077
-461,328	269,665	-0,025	0,032
-460,313	236,712	-0,045	-0,053
-459,299	787,225	0,042	0,082
-458,284	800,000	-0,050	0,114
-457,270	-200,000	0,005	0,045
-456,255	-200,000	-0,016	-0,080
-455,241	800,000	0,009	-0,022
-454,226	76,142	0,041	0,031
-453,211	-200,000	-0,025	0,140
-452,197	-200,000	0,011	-0,041
-451,182	37,817	-0,101	0,064
-450,168	-41,015	-0,049	-0,018
-449,153	356,430	-0,048	-0,069
-448,138	131,244	-0,121	-0,111
-447,124	75,284	0,029	-0,022
-446,109	130,931	0,028	-0,026
-445,095	-84,857	-0,029	0,007
-444,080	-119,634	0,056	0,007
-443,065	-72,841	0,120	0,031
-442,051	23,377	0,028	0,017
-441,036	800,000	0,065	0,142
-440,022	-99,964	-0,187	0,033
-439,007	-74,886	0,060	0,015
-437,992	7,776	0,051	0,027
-436,978	355,672	-0,020	0,028
-435,963	-165,880	-0,101	0,003
-434,949	45,830	0,080	-0,053
-433,934	-148,755	0,051	-0,003
-432,919	-173,066	-0,099	-0,002
-431,905	-200,000	0,000	0,028
-430,890	-91,683	0,058	-0,012
-429,876	3,824	0,095	-0,049
-428,861	800,000	0,043	-0,117
-427,846	241,665	-0,102	0,122
-426,832	73,296	-0,056	-0,042
-425,817	260,138	0,061	0,075
-424,803	-200,000	0,000	0,084
-423,788	-83,813	0,125	0,028
-422,773	107,077	0,053	0,045
-421,759	800,000	-0,056	0,164
-420,744	-39,067	-0,151	0,057
-419,730	-87,943	-0,054	-0,011
-418,715	370,927	-0,038	-0,055
-417,701	41,736	0,054	0,035
-416,686	-62,188	0,100	0,030
-415,671	38,482	-0,034	0,022
-414,657	-88,620	0,121	0,026
-413,642	-200,000	-0,003	0,201
-412,628	26,851	-0,060	0,036
-411,613	72,111	0,053	-0,040
-410,598	215,096	0,049	-0,056
-409,584	-200,000	0,028	-0,113
-408,569	-200,000	0,005	-0,095
-407,555	-200,000	-0,011	0,154
-406,540	-81,364	-0,121	0,028
-405,525	-200,000	-0,006	-0,022
-404,511	-200,000	-0,022	-0,120
-403,496	-200,000	0,009	0,033
-402,482	0,150	-0,137	0,069
-401,467	221,449	0,114	0,131
-400,452	12,693	-0,056	0,031
-399,438	547,773	-0,026	-0,044
-398,423	800,000	0,025	-0,069
-397,409	42,420	-0,039	-0,025
-396,394	-187,597	-0,149	-0,001
-395,379	5,825	0,092	0,049
-394,365	538,083	0,106	0,182
-393,350	-109,786	0,065	0,010
-392,336	800,000	0,006	0,013
-391,321	800,000	0,041	-0,088
-390,306	-200,000	-0,028	-0,153
-389,292	482,213	0,059	0,097
-388,277	140,796	-0,041	-0,039
-387,263	558,420	0,013	0,023
-386,248	-200,000	-0,004	0,093
-385,233	-15,774	-0,036	0,017
-384,219	-47,190	0,089	-0,031
-383,204	-39,993	-0,084	-0,031
-382,190	772,774	-0,024	0,046
-381,175	-31,294	-0,008	-0,003
-380,160	145,262	0,089	0,086
-379,146	-4,926	0,117	0,057
-378,131	672,219	-0,052	0,097
-377,117	174,027	-0,032	0,033
-376,102	-200,000	-0,012	0,054
-375,088	800,000	-0,022	-0,061
-374,073	-55,069	0,043	-0,014
-373,058	746,685	-0,017	-0,033
-372,044	-200,000	-0,006	0,086
-371,029	501,748	0,094	0,155
-370,015	800,000	-0,024	0,059
-369,000	59,269	0,065	-0,045
-367,985	153,080	-0,071	0,070
-366,971	-108,928	-0,056	-0,008
-365,956	273,529	0,064	0,081
-364,942	-123,825	-0,073	-0,008
-363,927	438,019	0,127	0,199
-362,912	800,000	-0,035	0,076
-361,898	-200,000	0,014	0,049
-360,883	472,342	-0,042	-0,069
-359,869	601,992	-0,060	-0,107
-358,854	361,093	0,075	0,108
-357,839	-61,494	0,069	0,020
-356,825	800,000	0,037	0,110
-355,810	-18,897	-0,011	0,005
-354,796	-200,000	-0,000	0,107
-353,781	171,877	-0,139	-0,143
-352,766	-24,203	0,050	-0,021
-351,752	773,932	0,018	-0,035
-350,737	183,546	0,124	0,131
-349,723	800,000	0,041	0,104
-348,708	-200,000	0,041	-0,163
-347,693	800,000	-0,019	-0,059
-346,679	561,118	0,023	-0,039
-345,664	-200,000	-0,022	-0,121
-344,650	-200,000	0,040	-0,212
-343,635	231,330	-0,004	0,004
-342,620	305,508	0,043	-0,057
-341,606	800,000	0,025	0,076
-340,591	189,780	-0,061	-0,065
-339,577	-200,000	-0,002	0,022
-338,562	379,616	-0,111	0,162
-337,548	-200,000	0,012	0,042
-336,533	416,948	0,080	0,122
-335,518	45,687	0,120	0,079
-334,504	-41,743	0,054	0,020
-333,489	9,048	-0,143	0,077
-332,475	535,842	0,023	-0,040
-331,460	-200,000	0,007	-0,109
-330,445	631,368	-0,079	0,143
-329,431	33,362	0,062	0,038
-328,416	215,542	0,073	0,083
-327,402	-149,367	-0,091	0,005
-326,387	-161,226	0,039	0,001
-325,372	45,457	0,110	0,073
-324,358	-59,759	-0,127	-0,038
-323,343	105,667	-0,118	-0,099
-322,329	-200,000	0,037	-0,205
-321,314	691,800	0,113	0,213
-320,299	-200,000	0,007	0,141
-319,285	-112,806	0,043	0,006
-318,270	140,221	-0,043	0,040
-317,256	317,070	0,093	-0,126
-316,241	2,357	-0,130	-0,067
-315,226	130,485	0,058	0,053
-314,212	156,560	0,072	0,071
-313,197	800,000	-0,007	-0,013
-312,183	294,464	-0,034	0,045
-311,168	-86,686	0,073	-0,016
-310,153	-54,102	-0,131	0,042
-309,139	-200,000	-0,003	-0,062
-308,124	-200,000	0,012	0,047
-307,110	-200,000	0,002	0,041
-306,095	-200,000	0,021	0,084
-305,080	-65,386	0,138	0,039
-304,066	97,126	-0,069	0,056
-303,051	-200,000	0,004	-0,086
-302,037	103,138	0,012	0,010
-301,022	-200,000	-0,011	-0,057
-300,008	-200,000	-0,001	0,049
-298,993	569,015	-0,029	-0,051
-297,978	-200,000	0,001	0,170
-296,964	-200,000	-0,004	0,054
-295,949	-200,000	0,007	0,049
-294,935	800,000	-0,068	0,149
-293,920	200,748	-0,058	0,063
-292,905	-131,283	0,135	0,013
-291,891	-200,000	0,016	-0,107
-290,876	-88,408	-0,004	-0,001
-289,862	11,836	-0,096	-0,053
-288,847	410,203	-0,041	0,062
-287,832	95,313	0,072	-0,058
-286,818	568,544	0,013	0,023
-285,803	-132,025	0,153	-0,014
-284,789	800,000	-0,021	0,058
-283,774	188,211	0,071	0,076
-282,759	114,592	0,057	0,050
-281,745	124,672	0,040	-0,036
-280,730	67,002	0,207	-0,150
-279,716	147,496	0,067	0,064
-278,701	419,852	0,020	-0,031
-277,686	-101,662	-0,026	-0,004
-276,672	252,639	0,077	-0,094
-275,657	800,000	0,023	0,048
-274,643	2,210	-0,037	-0,019
-273,628	470,935	0,139	-0,223
-272,613	-75,443	0,027	-0,007
-271,599	247,458	0,080	-0,097
-270,584	-70,322	0,091	-0,024
-269,570	499,289	0,052	-0,086
-268,555	-34,978	0,084	0,033
-267,540	177,508	-0,047	-0,049
-266,526	-200,000	-0,011	-0,096
-265,511	27,277	0,056	-0,034
-264,497	-78,465	-0,039	0,010
-263,482	-8,146	0,070	0,033
-262,467	-12,002	0,001	0,001
-261,453	94,481	-0,107	-0,087
-260,438	215,196	0,091	-0,103
-259,424	122,383	-0,049	0,044
-258,409	-119,960	-0,142	-0,017
-257,395	-29,924	0,111	-0,045
-256,380	-147,225	-0,114	-0,007
-255,365	-41,510	0,051	0,018
-254,351	5,872	-0,013	0,007
-253,336	-200,000	-0,014	-0,108
-252,322	677,605	-0,023	-0,043
-251,307	-161,689	0,052	0,002
-250,292	-200,000	-0,029	0,135
-249,278	-200,000	0,007	0,051
-248,263	142,426	0,051	0,048
-247,249	38,536	-0,145	0,092
-246,234	800,000	-0,032	-0,095
-245,219	800,000	-0,046	-0,111
-244,205	96,876	0,074	0,060
-243,190	129,319	0,044	-0,040
-242,176	336,519	-0,050	-0,069
-241,161	42,970	-0,074	-0,048
-240,146	-9,921	-0,044	0,021
-239,132	-24,377	-0,146	0,061
-238,117	292,119	-0,054	-0,071
-237,103	-200,000	0,014	-0,189
-236,088	-200,000	-0,018	-0,189
-235,073	49,394	0,097	-0,065
-234,059	113,552	0,048	-0,041
-233,044	353,594	-0,047	-0,067
-232,030	-90,408	0,038	0,008
-231,015	375,602	0,026	0,038
-230,000	-113,553	-0,130	-0,018
-228,986	-136,980	0,040	-0,003
-227,971	-110,568	0,067	-0,010
-226,957	-150,609	0,081	-0,004
-225,942	800,000	0,050	-0,104
-224,927	111,993	-0,073	-0,063
-223,913	725,676	-0,047	0,090
-222,898	-96,803	-0,050	0,009
-221,884	3,189	0,060	0,031
-220,869	800,000	0,032	-0,092
-219,855	241,105	0,058	0,069
-218,840	630,360	0,031	0,057
-217,825	-200,000	0,007	0,056
-216,811	-17,920	-0,082	0,036
-215,796	75,601	-0,053	-0,039
-214,782	-30,443	0,034	0,014
-213,767	21,719	0,090	0,052
-212,752	-27,693	-0,102	0,042
-211,738	102,503	0,100	-0,083
-210,723	-200,000	-0,008	-0,108
-209,709	136,635	0,038	-0,035
-208,694	-200,000	0,007	0,085
-207,679	-200,000	0,001	0,037
-206,665	561,201	0,059	0,102
-205,650	-200,000	0,003	0,115
-204,636	-86,440	0,065	0,014
-203,621	355,642	-0,039	0,056
-202,606	-200,000	-0,010	-0,056
-201,592	153,168	-0,057	-0,056
-200,577	-23,134	0,112	0,048
-199,563	0,917	0,024	-0,012
-198,548	35,125	-0,081	0,050
-197,533	-133,600	-0,033	-0,003
-196,519	800,000	0,018	-0,040
-195,504	35,493	0,073	-0,045
-194,490	-123,054	-0,087	-0,010
-193,475	-200,000	0,005	-0,022
-192,460	800,000	0,026	0,060
-191,446	49,428	0,151	-0,101
-190,431	-200,000	0,011	0,076
-189,417	345,310	0,080	0,112
-188,402	125,103	0,020	-0,018
-187,387	-200,000	0,002	-0,101
-186,373	36,067	0,089	0,055
-185,358	122,408	0,007	0,006
-184,344	20,151	0,123	0,070
-183,329	359,070	-0,054	0,077
-182,315	-200,000	0,004	-0,036
-181,300	62,991	-0,011	0,008
-180,285	-200,000	-0,008	-0,098
-179,271	-189,385	-0,030	0,000
-178,256	-52,266	0,195	-0,064
-177,242	-200,000	-0,023	-0,099
-176,227	313,807	0,107	0,144
-175,212	182,039	0,009	0,009
-174,198	241,426	-0,051	-0,060
-173,183	156,585	-0,086	-0,084
-172,169	34,331	-0,033	-0,021
-171,154	-200,000	0,008	-0,046
-170,139	-121,102	-0,039	0,005
-169,125	-91,353	0,186	-0,037
-168,110	800,000	-0,044	0,107
-167,096	131,010	0,056	0,051
-166,081	-200,000	0,050	-0,173
-165,066	80,056	-0,017	-0,013
-164,052	-200,000	-0,016	0,144
-163,037	-200,000	-0,008	-0,052
-162,023	-200,000	-0,006	-0,046
-161,008	145,343	0,102	-0,097
-159,993	-60,513	0,057	-0,017
-158,979	-134,231	0,026	-0,002
-157,964	496,832	-0,047	-0,077
-156,950	640,676	-0,058	-0,106
-155,935	-9,381	-0,044	0,021
-154,920	305,131	-0,043	-0,057
-153,906	299,706	0,022	0,029
-152,891	782,355	-0,020	-0,040
-151,877	188,103	-0,026	-0,028
-150,862	206,052	-0,027	-0,030
-149,847	800,000	-0,023	-0,057
-148,833	800,000	0,037	0,083
-147,818	473,532	0,080	0,128
-146,804	323,342	0,017	0,023
-145,789	-200,000	0,005	0,177
-144,775	215,530	0,051	-0,057
-143,760	632,468	0,028	-0,051
-142,745	253,144	-0,059	-0,071
-141,731	11,750	-0,141	-0,077
-140,716	18,885	-0,040	-0,023
-139,702	-133,360	0,045	-0,004
-138,687	-200,000	0,001	0,096
-137,672	258,303	0,032	0,039
-136,658	-82,612	-0,046	0,010
-135,643	-45,934	-0,058	0,020
-134,629	131,494	0,100	0,092
-133,614	176,091	0,111	-0,115
-132,599	107,893	0,129	0,109
-131,585	240,988	-0,034	-0,041
-130,570	-200,000	-0,023	0,096
-129,556	800,000	-0,037	-0,074
-128,541	65,676	-0,098	-0,070
-127,526	35,495	0,084	-0,052
-126,512	-37,348	0,158	0,060
-125,497	800,000	0,048	0,136
-124,483	31,735	0,125	0,076
-123,468	-29,624	-0,063	0,025
-122,453	299,949	0,015	-0,019
-121,439	100,584	-0,143	-0,118
-120,424	-200,000	0,021	0,081
-119,410	66,173	0,165	0,118
-118,395	611,734	-0,048	0,085
-117,380	-69,018	-0,105	0,028
-116,366	-104,943	0,006	0,001
-115,351	384,521	0,064	-0,094
-114,337	-102,529	-0,056	0,009
-113,322	-200,000	-0,002	-0,079
-112,307	151,441	0,077	-0,074
-111,293	-155,444	0,033	-0,002
-110,278	-9,323	-0,063	-0,030
-109,264	-20,056	0,123	-0,053
-108,249	249,665	0,037	0,044
-107,234	-200,000	-0,027	-0,085
-106,220	-48,655	0,154	-0,052
-105,205	144,452	-0,120	0,114
-104,191	-95,187	0,089	-0,017
-103,176	800,000	-0,028	-0,060
-102,162	-5,705	0,069	-0,033
-101,147	-200,000	-0,015	-0,192
-100,132	240,647	0,114	-0,134
-99,118	-200,000	0,012	-0,080
-98,103	387,302	0,038	-0,055
-97,089	800,000	0,048	0,094
-96,074	-29,451	0,102	-0,041
-95,059	63,553	0,155	0,110
-94,045	800,000	-0,036	-0,102
-93,030	-118,282	0,064	0,008
-92,016	-200,000	0,016	-0,119
-91,001	3,765	-0,054	-0,028
-89,986	194,801	0,052	0,056
-88,972	295,949	0,051	0,067
-87,957	120,084	-0,095	-0,083
-86,943	425,871	0,021	0,031
-85,928	-120,001	0,021	-0,003
-84,913	-200,000	0,021	-0,088
-83,899	274,931	-0,006	-0,007
-82,884	-200,000	0,010	-0,041
-81,870	-101,141	-0,030	0,005
-80,855	-200,000	0,012	-0,074
-79,840	291,659	-0,114	0,147
-78,826	493,707	-0,075	0,121
-77,811	62,242	-0,024	-0,017
-76,797	800,000	-0,025	0,066
-75,782	-11,351	0,125	-0,058
-74,767	-40,104	0,029	-0,011
-73,753	-40,892	0,053	0,019
-72,738	-88,520	0,124	-0,026
-71,724	23,281	-0,008	-0,005
-70,709	213,238	0,080	0,090
-69,694	239,740	-0,065	-0,076
-68,680	-200,000	0,011	-0,056
-67,665	-109,433	0,044	-0,006
-66,651	-89,063	0,107	0,022
-65,636	122,082	-0,051	-0,045
-64,622	144,924	0,050	0,048
-63,607	-200,000	0,016	-0,123
-62,592	-79,158	0,104	0,025
-61,578	800,000	-0,025	0,064
-60,563	589,154	-0,099	0,172
-59,549	550,389	-0,051	-0,087
-58,534	8,635	-1,916	-1,016
-57,519	461,402	-1,308	-2,066
-56,505	-200,000	-0,379	-4,475
-55,490	529,474	0,914	1,530
-54,476	800,000	5,036	11,127
-53,461	-200,000	20,842	329,285
-52,446	800,000	757,523	2323,601
-51,432	549,941	1662,293	2824,903
-50,417	73,471	1663,733	1228,286
-49,403	18,611	1537,138	865,579
-48,388	12,635	1459,937	793,183
-47,373	18,952	1450,892	818,579
-46,359	15,756	1440,085	797,236
-45,344	10,918	1435,879	771,825
-44,330	10,862	1433,787	770,401
-43,315	10,846	1432,129	769,406
-42,300	10,865	1430,335	768,501
-41,286	10,871	1429,110	767,839
-40,271	10,793	1428,015	766,852
-39,257	10,849	1426,711	766,390
-38,242	10,884	1425,488	765,864
-37,227	10,835	1424,518	765,081
-36,213	10,846	1423,148	764,369
-35,198	10,883	1422,024	763,910
-34,184	10,982	1421,012	763,801
-33,169	10,836	1420,063	762,575
-32,154	10,929	1418,675	762,234
-31,140	10,946	1417,504	761,657
-30,125	10,955	1416,339	761,045
-29,111	10,929	1415,213	760,284
-28,096	10,891	1414,086	759,472
-27,082	10,837	1412,883	758,540
-26,067	10,833	1412,024	758,030
-25,052	10,882	1410,739	757,543
-24,038	10,868	1409,862	756,976
-23,023	10,857	1408,897	756,374
-22,009	10,876	1407,898	755,897
-20,994	10,835	1406,829	755,104
-19,979	10,844	1405,741	754,532
-18,965	10,788	1405,112	753,903
-17,950	10,815	1403,940	753,370
-16,936	10,792	1403,348	752,912
-15,921	10,712	1402,319	751,961
-14,906	10,750	1401,321	751,571
-13,892	10,795	1400,310	751,210
-12,877	10,738	1399,843	750,661
-11,863	10,705	1398,920	749,984
-10,848	10,728	1397,706	749,412
-9,833	10,689	1396,773	748,698
-8,819	10,655	1396,294	748,258
-7,804	10,704	1395,051	747,785
-6,790	10,613	1394,469	747,025
-5,775	10,676	1393,044	746,522
-4,760	10,655	1392,257	745,974
-3,746	10,674	1391,272	745,502
-2,731	10,664	1390,471	745,001
-1,717	10,632	1389,689	744,402
-0,702	10,639	1387,673	743,325
0,313	14,666	1301,274	715,493
1,327	30,898	692,635	417,748
2,342	47,630	120,181	78,959
3,356	-0,279	16,456	8,226
4,371	-0,601	3,484	1,737
5,386	-8,637	0,910	0,429
6,400	800,000	0,144	0,379
7,415	17,357	-0,193	-0,108
8,429	183,636	-0,256	-0,267
9,444	-100,814	-0,333	-0,057
10,459	71,347	-0,307	-0,224
11,473	39,251	-0,268	-0,169
12,488	-25,588	-0,236	-0,098
13,502	23,083	-0,355	-0,205
14,517	110,183	-0,365	-0,309
15,531	136,445	-0,266	-0,244
16,546	94,176	-0,286	-0,229
17,561	74,497	-0,383	-0,283
18,575	436,547	-0,070	0,108
19,590	26,205	-0,252	-0,148
20,604	107,596	-0,206	-0,173
21,619	61,275	-0,436	-0,305
22,634	115,247	-0,375	-0,323
23,648	-9,660	-0,471	-0,220
24,663	86,228	-0,418	-0,324
25,677	176,015	-0,261	-0,267
26,692	212,685	-0,203	-0,225
27,707	104,165	-0,372	-0,308
28,721	44,191	-0,425	-0,274
29,736	59,992	-0,472	-0,328
30,750	5,309	-0,391	-0,202
31,765	204,034	-0,343	-0,375
32,780	469,840	-0,290	-0,460
33,794	86,936	-0,363	-0,282
34,809	33,308	-0,354	-0,216
35,823	63,633	-0,363	-0,256
36,838	86,247	-0,264	-0,204
37,853	63,595	-0,402	-0,284
38,867	309,628	-0,288	-0,380
39,882	87,578	-0,302	-0,235
40,896	152,726	-0,366	-0,352
41,911	100,186	-0,349	-0,284
42,926	-138,646	-0,326	-0,025
43,940	29,917	-0,264	-0,158
44,955	218,260	-0,241	-0,271
45,969	256,201	-0,295	-0,357
46,984	88,277	-0,400	-0,311
47,999	209,326	-0,337	-0,372
49,013	23,747	-0,343	-0,198
50,028	73,919	-0,277	-0,204
51,042	-12,036	-0,460	-0,211
52,057	169,473	-0,368	-0,369
53,071	137,914	-0,340	-0,313
54,086	47,357	-0,402	-0,263
55,101	100,022	-0,385	-0,313
56,115	18,954	-0,344	-0,193
57,130	32,849	-0,366	-0,222
58,144	18,546	-0,389	-0,218
59,159	128,636	-0,417	-0,373
60,174	15,398	-0,407	-0,223
61,188	58,956	-0,338	-0,233
62,203	-66,158	-0,273	-0,076
63,217	-11,161	-0,440	-0,203
64,232	35,769	-0,254	-0,157
65,247	-5,316	-0,503	-0,241
66,261	56,665	-0,373	-0,254
67,276	146,738	-0,341	-0,322
68,290	18,441	-0,336	-0,188
69,305	800,000	-0,151	-0,295
70,320	157,213	-0,241	-0,234
71,334	-8,563	-0,189	-0,089
72,349	-58,015	-0,229	-0,070
73,363	120,221	-0,343	-0,299
74,378	229,235	-0,292	-0,335
75,393	102,525	-0,365	-0,299
76,407	-90,133	-0,336	-0,068
77,422	14,313	-0,183	-0,100
78,436	-1,071	-0,238	-0,118
79,451	191,722	-0,244	-0,258
80,466	76,206	-0,315	-0,234
81,480	108,853	-0,297	-0,249
82,495	-14,486	-0,324	-0,145
83,509	-51,418	-0,322	-0,105
84,524	-43,927	-0,293	-0,103
85,539	-9,861	-0,299	-0,139
86,553	7,971	-0,287	-0,150
87,568	111,487	-0,337	-0,285
88,582	-37,367	-0,293	-0,109
89,597	122,682	-0,302	-0,264
90,611	172,104	-0,146	-0,147
91,626	137,639	-0,226	-0,207
92,641	24,454	-0,276	-0,159
93,655	-37,912	-0,377	-0,140
94,670	104,229	-0,226	-0,186
95,684	-72,355	-0,478	-0,123
96,699	215,936	-0,195	-0,217
97,714	61,265	-0,239	-0,166
98,728	-3,570	-0,344	-0,167
99,743	304,305	-0,130	-0,169
100,757	172,721	-0,201	-0,202
101,772	-4,979	-0,184	-0,088
102,787	36,119	-0,374	-0,230
103,801	126,097	-0,283	-0,251
104,816	80,394	-0,324	-0,244
105,830	142,575	-0,240	-0,223
106,845	169,697	-0,206	-0,206
107,860	-15,500	-0,193	-0,086
108,874	171,037	-0,239	-0,239
109,889	18,231	-0,348	-0,194
110,903	159,970	-0,314	-0,306
111,918	185,980	-0,233	-0,243
112,933	-31,580	-0,207	-0,081
113,947	-110,514	-0,206	0,029
114,962	41,540	-0,291	-0,184
115,976	258,729	-0,178	-0,215
116,991	12,083	-0,297	-0,159
118,006	-38,064	-0,309	-0,114
119,020	-168,245	-0,244	-0,006
120,035	-44,661	-0,318	-0,110
121,049	-139,643	-0,269	-0,020
122,064	23,622	-0,247	-0,141
123,079	63,970	-0,287	-0,201
124,093	-51,292	-0,344	-0,112
125,108	185,643	-0,290	-0,301
126,122	696,614	-0,127	-0,233
127,137	-24,251	-0,338	-0,140
128,151	-52,047	-0,175	-0,056
129,166	243,632	-0,218	-0,256
130,181	58,181	-0,202	-0,138
131,195	66,257	-0,352	-0,249
132,210	63,313	-0,337	-0,235
133,224	5,468	-0,290	-0,149
134,239	26,639	-0,341	-0,199
135,254	158,474	-0,214	-0,207
136,268	-73,733	-0,166	-0,042
137,283	-74,337	-0,276	-0,069
138,297	191,268	-0,183	-0,193
139,312	624,464	-0,160	-0,283
140,327	15,235	-0,389	-0,212
141,341	122,397	-0,137	-0,119
142,356	-97,076	-0,158	-0,029
143,370	122,734	-0,228	-0,198
144,385	572,260	-0,134	-0,228
145,400	263,359	-0,145	-0,176
146,414	211,373	-0,288	-0,317
147,429	491,888	-0,156	-0,251
148,443	69,404	-0,240	-0,172
149,458	319,778	-0,161	-0,213
150,473	93,276	-0,224	-0,176
151,487	431,137	-0,150	-0,226
152,502	640,459	-0,122	-0,217
153,516	479,642	-0,175	-0,277
154,531	118,985	-0,211	-0,182
155,546	44,426	-0,376	-0,240
156,560	318,386	-0,143	-0,188
157,575	26,140	-0,108	-0,062
158,589	173,684	-0,161	-0,162
159,604	30,352	-0,204	-0,121
160,619	-60,627	-0,296	-0,087
161,633	209,436	-0,309	-0,337
162,648	-2,354	-0,219	-0,106
163,662	800,000	-0,118	-0,264
164,677	213,910	-0,268	-0,295
165,692	-6,310	-0,227	-0,108
166,706	106,304	-0,200	-0,165
167,721	79,480	-0,196	-0,146
168,735	362,707	-0,118	-0,165
169,750	85,443	-0,241	-0,184
170,764	569,764	-0,086	-0,146
171,779	480,658	-0,089	-0,141
172,794	2,303	-0,252	-0,126
173,808	-125,151	-0,318	-0,033
174,823	247,715	-0,185	-0,217
175,837	285,138	-0,196	-0,245
176,852	-15,605	-0,298	-0,132
177,867	129,762	-0,168	-0,149
178,881	117,225	-0,199	-0,170
179,896	-90,158	-0,200	-0,040
180,910	14,868	-0,203	-0,110
181,925	271,103	-0,126	-0,155
182,940	271,232	-0,203	-0,249
183,954	193,847	-0,152	-0,160
184,969	29,203	-0,191	-0,113
185,983	206,109	-0,230	-0,249
186,998	202,156	-0,162	-0,174
188,013	252,608	-0,184	-0,218
189,027	34,829	-0,346	-0,210
190,042	800,000	-0,143	-0,310
191,056	660,542	-0,151	-0,270
192,071	140,814	-0,203	-0,186
193,086	80,212	-0,176	-0,131
194,100	-93,391	-0,208	-0,040
195,115	-64,686	-0,324	-0,090
196,129	102,401	-0,136	-0,110
197,144	72,168	-0,213	-0,154
198,159	-200,000	-0,212	0,000
199,173	-49,381	-0,186	-0,061
200,188	75,714	-0,234	-0,171
201,202	-121,773	-0,214	-0,024
202,217	63,110	-0,248	-0,172
203,232	149,879	-0,180	-0,169
204,246	-43,739	-0,212	-0,074
205,261	-37,674	-0,197	-0,072
206,275	442,262	-0,174	-0,265
207,290	12,556	-0,182	-0,097
208,304	-130,800	-0,201	-0,018
209,319	-46,365	-0,190	-0,064
210,334	800,000	-0,126	-0,304
211,348	-13,252	-0,318	-0,143
212,363	233,068	-0,250	-0,285
213,377	-45,766	-0,175	-0,060
214,392	86,231	-0,156	-0,119
215,407	70,283	-0,145	-0,104
216,421	55,350	-0,220	-0,147
217,436	333,809	-0,176	-0,236
218,450	69,758	-0,206	-0,147
219,465	18,785	-0,213	-0,117
220,480	166,131	-0,223	-0,218
221,494	-19,392	-0,171	-0,073
222,509	12,741	-0,191	-0,102
223,523	215,530	-0,245	-0,269
224,538	-141,548	-0,356	-0,024
225,553	258,768	-0,190	-0,226
226,567	20,609	-0,210	-0,117
227,582	-124,304	-0,143	0,015
228,596	800,000	-0,084	-0,167
229,611	-134,327	-0,156	-0,013
230,626	68,435	-0,317	-0,225
231,640	136,281	-0,125	-0,113
232,655	-118,177	-0,207	0,025
233,669	123,439	-0,198	-0,172
234,684	339,213	-0,101	-0,137
235,699	190,416	-0,058	-0,060
236,713	346,108	-0,083	-0,113
237,728	24,321	-0,174	-0,099
238,742	-66,514	-0,285	-0,078
239,757	265,528	-0,143	-0,172
240,772	315,952	-0,094	-0,123
241,786	180,734	-0,196	-0,199
242,801	-120,106	-0,147	0,017
243,815	-110,823	-0,075	-0,011
244,830	-91,276	-0,187	-0,037
245,844	-50,600	-0,177	-0,057
246,859	5,210	-0,242	-0,123
247,874	4,692	-0,199	-0,101
248,888	-36,663	-0,133	-0,049
249,903	208,130	-0,227	-0,245
250,917	65,675	-0,226	-0,158
251,932	800,000	-0,062	-0,176
252,947	334,002	-0,178	-0,238
253,961	191,916	-0,137	-0,142
254,976	99,296	-0,123	-0,098
255,990	800,000	-0,084	-0,167
257,005	87,602	-0,115	-0,088
258,020	376,423	-0,027	-0,038
259,034	25,588	-0,180	-0,103
260,049	29,114	-0,099	-0,058
261,063	107,213	-0,171	-0,140
262,078	62,432	-0,301	-0,207
263,093	-92,126	-0,184	-0,036
264,107	-25,480	-0,096	-0,039
265,122	381,130	-0,087	-0,124
266,136	800,000	-0,139	-0,266
267,151	400,994	-0,204	-0,296
268,166	113,589	-0,155	-0,130
269,180	527,010	-0,111	-0,181
270,195	67,102	-0,229	-0,161
271,209	-16,188	-0,179	-0,078
272,224	135,757	-0,082	-0,074
273,239	800,000	-0,049	-0,105
274,253	308,885	-0,186	-0,240
275,268	101,353	-0,209	-0,168
276,282	358,003	-0,177	-0,245
277,297	85,910	-0,141	-0,107
278,312	361,718	-0,081	-0,112
279,326	-95,057	-0,158	0,029
280,341	800,000	-0,053	-0,136
281,355	-38,041	-0,231	-0,084
282,370	-200,000	-0,019	-0,135
283,384	-32,728	-0,217	-0,083
284,399	-158,019	-0,193	-0,008
285,414	-200,000	0,024	-0,269
286,428	50,427	-0,122	-0,079
287,443	-51,454	-0,134	0,043
288,457	-64,637	-0,145	-0,040
289,472	-60,524	-0,225	-0,065
290,487	-150,526	-0,311	0,016
291,501	75,132	-0,162	-0,117
292,516	-69,941	-0,208	-0,054
293,530	-177,341	-0,080	0,001
294,545	10,362	-0,299	-0,156
295,560	135,820	-0,174	-0,155
296,574	49,791	-0,206	-0,133
297,589	99,168	-0,144	-0,114
298,603	-72,814	-0,186	-0,047
299,618	86,227	-0,162	-0,122
300,633	800,000	-0,103	-0,203
301,647	800,000	-0,101	-0,231
302,662	32,772	-0,098	-0,058
303,676	800,000	-0,095	-0,208
304,691	-200,000	0,038	-0,137
305,706	72,598	-0,192	-0,137
306,720	344,176	-0,119	-0,160
307,735	-55,068	-0,330	-0,101
308,749	63,444	-0,166	-0,114
309,764	400,857	-0,102	-0,148
310,779	157,113	-0,103	-0,098
311,793	800,000	-0,078	-0,229
312,808	291,160	-0,133	-0,167
313,822	105,937	-0,230	-0,187
314,837	-136,797	-0,127	-0,010
315,852	82,212	-0,096	-0,071
316,866	-164,420	-0,197	0,006
317,881	-200,000	-0,030	-0,109
318,895	-35,906	-0,007	-0,003
319,910	557,573	-0,120	-0,199
320,925	165,249	-0,276	-0,268
321,939	-33,969	-0,172	-0,065
322,954	94,468	-0,121	-0,094
323,968	-154,872	-0,086	0,004
324,983	324,604	-0,152	-0,200
325,997	279,550	-0,054	0,066
327,012	152,493	-0,234	-0,219
328,027	74,581	-0,066	-0,048
329,041	400,809	-0,118	-0,170
330,056	174,493	-0,064	-0,063
331,070	-99,663	-0,127	0,022
332,085	74,634	-0,175	-0,126
333,100	33,507	-0,129	-0,077
334,114	248,016	-0,141	-0,164
335,129	-200,000	-0,011	-0,032
336,143	29,432	-0,144	-0,084
337,158	122,039	-0,099	-0,085
338,173	-43,471	-0,191	0,066
339,187	-153,761	-0,173	-0,008
340,202	238,154	-0,201	-0,228
341,216	106,157	-0,182	-0,147
342,231	113,260	-0,163	-0,135
343,246	149,880	-0,165	-0,153
344,260	-17,727	-0,209	-0,090
345,275	-27,998	-0,151	0,060
346,289	304,585	-0,098	-0,125
347,304	-200,000	-0,057	-0,303
348,319	-200,000	-0,043	-0,252
349,333	54,060	-0,099	-0,065
350,348	-21,167	-0,184	-0,077
351,362	310,202	-0,108	-0,139
352,377	164,764	-0,102	-0,098
353,392	-52,659	-0,130	-0,041
354,406	111,246	-0,151	-0,124
355,421	206,335	1309,719	1396,214
356,435	158,680	1469,813	1396,691
