DTS Sentinel unit serial number:	SN410029Multiplexer serial number:	ORYXHardware model number:	OX2-SRSoftware version number:	ORYX F/W v4,00 Oryx Data Collector v3.7.2.0data status	okinstallation	B3 Nyhavnadifferential loss correction	single-endedforward channel	channel 1reverse channel	N/Adate	2023/12/02time	03:02:30forward acquisition time	300,00reverse acquisition time	0,00gamma	499,1914k internal	0,3194k external	0,3194temperature offset calibration	1,0000default loss term (dB/km)	0,3820temperature slope calibration	1,0000multiplexer offset coefficient	1,0000multiplexer slope coefficient	1,0000fibre end	0,00T internal ref (°C)	16,67T ext. ref 1 (°C)	1,76T ext. ref 2 (°C)	1,75length (m)	temperature (°C)	Stokes	anti-Stokes-744,400	64,668	-0,315	-0,231
-743,385	-200,000	0,083	0,343
-742,371	583,611	-0,130	-0,234
-741,356	800,000	0,093	0,256
-740,342	688,970	-0,092	-0,176
-739,327	800,000	0,162	0,366
-738,312	238,775	-0,222	-0,270
-737,298	-200,000	0,010	0,209
-736,283	62,085	-0,296	-0,215
-735,269	-200,000	-0,033	0,296
-734,254	506,062	-0,145	-0,246
-733,239	158,826	-0,124	0,126
-732,225	675,726	-0,091	-0,172
-731,210	664,705	0,081	0,153
-730,196	-24,934	0,071	0,031
-729,181	458,622	-0,020	-0,033
-728,167	76,443	0,131	0,101
-727,152	-67,783	-0,281	-0,080
-726,137	-91,160	-0,125	-0,026
-725,123	758,714	0,050	0,100
-724,108	472,111	-0,039	-0,064
-723,094	-200,000	-0,022	-0,140
-722,079	-101,779	-0,017	-0,003
-721,064	189,411	0,045	0,049
-720,050	-23,286	0,117	0,051
-719,035	-131,290	-0,182	-0,017
-718,021	-87,755	0,022	0,005
-717,006	-58,380	-0,168	-0,053
-715,991	-200,000	0,023	-0,172
-714,977	137,644	0,076	-0,073
-713,962	-200,000	0,011	-0,069
-712,948	415,785	-0,043	0,066
-711,933	128,756	0,013	0,012
-710,918	72,456	-0,064	-0,049
-709,904	107,270	-0,055	-0,048
-708,889	-42,398	-0,068	-0,025
-707,875	408,899	-0,080	-0,123
-706,860	-38,565	-0,045	-0,017
-705,845	230,011	-0,118	0,141
-704,831	-200,000	-0,030	-0,212
-703,816	-54,980	-0,171	-0,056
-702,802	-200,000	-0,013	-0,218
-701,787	52,775	-0,097	-0,067
-700,772	-200,000	-0,024	-0,103
-699,758	0,246	0,048	-0,025
-698,743	-39,429	0,048	0,018
-697,729	-200,000	0,008	0,071
-696,714	407,513	0,036	0,055
-695,699	65,184	-0,069	0,051
-694,685	608,195	0,083	-0,151
-693,670	-200,000	-0,038	-0,138
-692,656	-200,000	-0,004	-0,087
-691,641	176,053	0,079	-0,083
-690,627	306,862	-0,022	0,030
-689,612	14,408	0,071	0,040
-688,597	800,000	0,023	0,054
-687,583	-51,379	-0,039	-0,013
-686,568	-200,000	0,015	-0,050
-685,554	-109,767	-0,029	0,004
-684,539	-112,935	0,056	-0,008
-683,524	-120,466	-0,036	0,004
-682,510	148,729	0,126	0,124
-681,495	309,137	-0,071	-0,097
-680,481	-200,000	-0,008	-0,166
-679,466	124,650	-0,063	-0,057
-678,451	370,584	-0,050	-0,074
-677,437	-94,066	-0,106	0,021
-676,422	-200,000	-0,026	-0,115
-675,408	-200,000	-0,003	-0,149
-674,393	30,292	0,100	-0,062
-673,378	-59,714	-0,086	0,027
-672,364	130,087	-0,014	0,013
-671,349	424,345	-0,091	-0,142
-670,335	-97,018	0,096	0,018
-669,320	-200,000	0,006	0,087
-668,305	-121,409	-0,162	0,019
-667,291	83,206	-0,026	0,021
-666,276	179,494	-0,076	-0,081
-665,262	114,933	0,058	0,051
-664,247	70,605	-0,105	0,079
-663,232	-200,000	-0,000	0,020
-662,218	-66,056	-0,138	0,040
-661,203	800,000	0,018	0,039
-660,189	-200,000	0,006	-0,039
-659,174	-200,000	-0,003	-0,038
-658,159	744,104	0,052	-0,102
-657,145	800,000	0,085	-0,177
-656,130	-63,953	0,059	-0,017
-655,116	-125,402	-0,063	0,007
-654,101	495,945	0,056	0,094
-653,086	-18,402	-0,056	-0,025
-652,072	37,112	0,019	0,012
-651,057	-71,602	-0,074	-0,020
-650,043	800,000	0,047	0,120
-649,028	-167,523	-0,098	-0,003
-648,014	-200,000	0,003	-0,056
-646,999	44,254	0,103	0,068
-645,984	-35,229	-0,076	-0,030
-644,970	486,360	0,042	-0,070
-643,955	-200,000	-0,003	-0,059
-642,941	-200,000	-0,006	0,087
-641,926	250,955	-0,051	0,063
-640,911	-200,000	0,012	0,063
-639,897	141,249	0,115	0,110
-638,882	-26,407	-0,032	0,014
-637,868	743,183	0,049	-0,095
-636,853	757,100	0,003	0,007
-635,838	495,065	-0,091	-0,153
-634,824	-185,724	-0,099	-0,001
-633,809	213,603	-0,088	0,101
-632,795	33,123	0,089	0,056
-631,780	304,866	0,073	0,099
-630,765	-50,414	0,092	0,031
-629,751	-200,000	-0,017	0,130
-628,736	384,932	-0,066	-0,098
-627,722	27,442	0,055	-0,034
-626,707	-200,000	-0,013	-0,045
-625,692	-55,146	0,082	0,027
-624,678	-200,000	0,030	0,202
-623,663	-90,256	-0,051	0,011
-622,649	-135,089	0,027	-0,002
-621,634	126,782	-0,114	-0,105
-620,619	-200,000	-0,022	0,097
-619,605	-40,862	0,092	0,034
-618,590	-200,000	0,043	0,189
-617,576	666,413	0,064	0,120
-616,561	-161,369	0,049	-0,002
-615,546	15,296	-0,042	0,024
-614,532	800,000	0,023	-0,058
-613,517	-150,865	-0,020	-0,001
-612,503	82,966	0,090	-0,071
-611,488	306,641	0,002	-0,002
-610,474	-113,637	0,060	0,008
-609,459	-195,056	-0,084	0,000
-608,444	-92,208	-0,110	0,022
-607,430	83,839	0,112	-0,089
-606,415	-200,000	0,006	0,021
-605,401	-18,398	-0,075	-0,034
-604,386	167,001	0,026	0,027
-603,371	-51,731	0,156	0,052
-602,357	-8,130	-0,030	-0,015
-601,342	-57,638	-0,042	-0,013
-600,328	-200,000	-0,002	-0,120
-599,313	800,000	0,024	-0,062
-598,298	-31,996	-0,067	-0,027
-597,284	89,731	0,089	0,072
-596,269	-53,626	0,096	-0,032
-595,255	-200,000	0,022	0,149
-594,240	342,023	-0,062	-0,088
-593,225	-200,000	0,019	0,077
-592,211	234,250	-0,079	0,095
-591,196	-7,486	0,097	0,047
-590,182	80,076	0,056	0,044
-589,167	-53,417	-0,072	0,024
-588,152	-200,000	-0,002	-0,190
-587,138	4,748	-0,174	0,092
-586,123	29,384	-0,166	0,102
-585,109	-111,409	0,185	0,027
-584,094	-200,000	0,010	-0,127
-583,079	-200,000	0,003	0,122
-582,065	-200,000	-0,011	-0,055
-581,050	-200,000	0,035	0,126
-580,036	-124,609	0,052	0,006
-579,021	-97,406	-0,083	-0,016
-578,006	204,668	-0,062	-0,070
-576,992	-108,599	0,085	-0,013
-575,977	-200,000	-0,009	0,104
-574,963	145,870	0,036	0,035
-573,948	-59,129	-0,056	-0,017
-572,934	-200,000	0,012	0,123
-571,919	-137,485	-0,093	0,007
-570,904	-10,447	-0,038	-0,018
-569,890	-200,000	0,008	-0,102
-568,875	-94,406	-0,133	-0,026
-567,861	728,163	0,011	0,021
-566,846	800,000	-0,022	-0,057
-565,831	800,000	-0,066	-0,156
-564,817	800,000	0,094	-0,202
-563,802	516,603	0,027	0,045
-562,788	51,211	0,034	0,023
-561,773	5,060	-0,129	-0,068
-560,758	403,275	-0,042	-0,065
-559,744	-200,000	-0,006	0,033
-558,729	96,878	-0,103	-0,086
-557,715	247,406	-0,046	-0,056
-556,700	800,000	0,022	-0,047
-555,685	361,461	-0,035	0,051
-554,671	-132,901	-0,114	-0,010
-553,656	306,722	0,081	0,109
-552,642	27,047	0,045	0,027
-551,627	800,000	-0,036	-0,074
-550,612	-152,205	0,185	0,010
-549,598	-10,840	-0,044	0,021
-548,583	-44,052	-0,053	-0,019
-547,569	31,268	-0,106	0,066
-546,554	-200,000	0,011	0,036
-545,539	132,132	0,030	0,028
-544,525	292,879	-0,025	-0,033
-543,510	758,085	0,006	0,012
-542,496	-116,811	-0,086	-0,011
-541,481	62,847	-0,193	0,140
-540,466	-143,556	-0,122	-0,008
-539,452	-200,000	-0,040	0,127
-538,437	-49,559	0,087	-0,030
-537,423	-22,550	0,064	-0,028
-536,408	-21,746	0,025	-0,011
-535,393	800,000	-0,046	-0,142
-534,379	-175,157	0,062	0,001
-533,364	5,267	-0,025	-0,013
-532,350	-200,000	-0,006	0,045
-531,335	-191,236	0,146	-0,001
-530,321	68,909	-0,086	-0,064
-529,306	649,447	-0,040	-0,075
-528,291	800,000	0,004	-0,007
-527,277	354,555	0,042	-0,060
-526,262	14,431	-0,117	-0,066
-525,248	-62,814	0,080	-0,024
-524,233	84,418	-0,079	-0,063
-523,218	-47,436	-0,058	0,020
-522,204	10,019	-0,070	-0,038
-521,189	-141,900	-0,154	0,011
-520,175	-200,000	-0,072	-0,236
-519,160	155,876	-0,052	0,051
-518,145	72,176	0,075	-0,056
-517,131	800,000	0,045	0,130
-516,116	-142,162	-0,020	0,001
-515,102	181,560	0,052	-0,055
-514,087	800,000	-0,032	0,076
-513,072	-108,399	-0,012	-0,002
-512,058	263,084	-0,093	-0,117
-511,043	15,157	0,043	-0,024
-510,029	19,954	-0,089	0,052
-509,014	-127,149	0,057	-0,006
-507,999	310,509	0,026	-0,035
-506,985	800,000	-0,025	-0,078
-505,970	-82,731	-0,050	-0,012
-504,956	-3,452	-0,039	0,020
-503,941	-35,949	0,061	-0,024
-502,926	-124,298	0,085	-0,009
-501,912	-99,714	0,160	0,029
-500,897	-200,000	-0,014	-0,119
-499,883	800,000	0,064	0,148
-498,868	568,209	-0,071	-0,125
-497,853	131,925	0,047	0,043
-496,839	-85,470	0,039	0,009
-495,824	703,127	0,063	-0,120
-494,810	-200,000	0,004	0,031
-493,795	273,623	-0,028	-0,035
-492,781	-71,259	-0,102	-0,027
-491,766	-143,022	0,173	-0,012
-490,751	-114,981	-0,063	-0,008
-489,737	727,188	0,012	0,023
-488,722	800,000	0,009	-0,026
-487,708	800,000	-0,030	0,087
-486,693	-16,476	0,063	0,029
-485,678	-200,000	0,021	0,117
-484,664	-4,809	-0,043	0,022
-483,649	-200,000	-0,014	-0,055
-482,635	800,000	-0,016	0,035
-481,620	-77,027	0,067	-0,017
-480,605	68,901	-0,038	0,028
-479,591	-62,354	-0,029	0,009
-478,576	-200,000	0,014	0,067
-477,562	-191,489	-0,094	0,001
-476,547	404,823	-0,053	-0,081
-475,532	-200,000	0,008	0,053
-474,518	180,507	0,121	-0,128
-473,503	-200,000	0,001	-0,093
-472,489	-127,628	0,088	-0,009
-471,474	68,796	-0,156	0,116
-470,459	800,000	0,046	-0,110
-469,445	6,730	-0,109	-0,058
-468,430	97,474	-0,060	0,050
-467,416	-200,000	-0,008	-0,048
-466,401	-200,000	-0,011	-0,063
-465,386	-200,000	0,016	0,157
-464,372	-200,000	-0,017	-0,078
-463,357	270,547	-0,060	-0,077
-462,343	52,174	-0,082	-0,056
-461,328	800,000	-0,021	0,065
-460,313	-68,164	-0,146	-0,041
-459,299	-132,879	0,103	0,009
-458,284	-33,020	-0,170	-0,068
-457,270	-200,000	0,012	0,135
-456,255	-200,000	0,025	0,148
-455,241	5,710	-0,058	-0,031
-454,226	229,396	0,088	0,104
-453,211	-200,000	-0,016	0,143
-452,197	-35,544	-0,051	-0,020
-451,182	-160,062	0,191	0,007
-450,168	636,582	0,023	-0,042
-449,153	-95,523	-0,122	-0,023
-448,138	-143,664	0,066	0,004
-447,124	423,358	-0,078	0,121
-446,109	-200,000	0,027	-0,091
-445,095	109,120	-0,043	0,037
-444,080	219,008	0,010	-0,011
-443,065	-200,000	-0,028	0,198
-442,051	434,676	0,023	0,036
-441,036	-55,635	0,051	0,016
-440,022	-200,000	-0,019	-0,085
-439,007	82,332	0,047	-0,036
-437,992	1,733	0,123	0,064
-436,978	83,911	0,028	0,022
-435,963	258,280	0,039	-0,049
-434,949	-200,000	-0,021	0,081
-433,934	-200,000	-0,001	0,034
-432,919	-200,000	-0,022	-0,072
-431,905	3,014	-0,092	0,048
-430,890	-125,263	0,047	0,005
-429,876	95,562	0,053	0,043
-428,861	437,439	-0,055	-0,086
-427,846	118,536	-0,066	0,058
-426,832	-55,572	0,129	-0,041
-425,817	273,531	-0,032	0,041
-424,803	49,396	0,118	0,080
-423,788	800,000	0,038	0,083
-422,773	-134,316	0,182	-0,016
-421,759	81,357	0,076	-0,059
-420,744	-200,000	-0,026	-0,128
-419,730	90,856	-0,036	0,029
-418,715	-71,572	-0,092	0,025
-417,701	102,306	0,067	0,056
-416,686	-200,000	0,025	-0,141
-415,671	305,394	-0,035	0,046
-414,657	-200,000	0,006	-0,089
-413,642	-153,564	-0,208	0,010
-412,628	-76,468	0,072	-0,018
-411,613	602,197	0,037	-0,066
-410,598	-150,080	0,130	0,007
-409,584	72,925	0,026	-0,020
-408,569	-200,000	-0,001	0,121
-407,555	800,000	0,066	0,141
-406,540	-90,603	0,108	0,022
-405,525	-200,000	0,007	-0,163
-404,511	76,078	0,100	0,076
-403,496	43,708	0,064	-0,042
-402,482	-200,000	0,010	-0,169
-401,467	110,423	-0,080	-0,069
-400,452	92,942	-0,045	0,037
-399,438	148,554	-0,051	-0,050
-398,423	54,816	0,063	-0,044
-397,409	325,663	-0,124	-0,171
-396,394	-200,000	-0,040	-0,205
-395,379	304,147	0,035	0,047
-394,365	-200,000	-0,040	-0,172
-393,350	-200,000	0,003	-0,048
-392,336	-200,000	-0,013	-0,075
-391,321	-7,575	-0,075	0,036
-390,306	318,776	-0,178	-0,243
-389,292	85,789	0,154	-0,122
-388,277	-91,543	-0,023	0,005
-387,263	-38,611	-0,009	-0,003
-386,248	-200,000	0,016	0,079
-385,233	64,601	-0,096	0,069
-384,219	180,254	-0,090	0,095
-383,204	800,000	-0,018	0,050
-382,190	-200,000	0,021	-0,130
-381,175	-200,000	0,022	-0,085
-380,160	68,292	-0,029	-0,021
-379,146	-200,000	0,008	0,040
-378,131	800,000	-0,082	0,188
-377,117	209,238	0,073	-0,082
-376,102	204,730	-0,094	-0,105
-375,088	277,199	0,071	-0,091
-374,073	-105,355	-0,031	-0,005
-373,058	115,464	0,051	0,045
-372,044	32,165	-0,088	0,054
-371,029	336,505	0,028	0,039
-370,015	11,555	-0,087	0,048
-369,000	-47,860	0,046	-0,016
-367,985	33,496	-0,060	0,037
-366,971	-200,000	-0,021	-0,149
-365,956	710,490	0,020	0,039
-364,942	-54,755	0,109	-0,035
-363,927	572,725	-0,038	0,066
-362,912	800,000	0,052	0,163
-361,898	117,311	0,055	-0,049
-360,883	5,372	0,120	0,063
-359,869	-112,459	-0,197	-0,028
-358,854	-200,000	0,003	-0,131
-357,839	2,751	0,089	0,046
-356,825	-158,187	-0,032	0,001
-355,810	-200,000	0,019	-0,089
-354,796	-6,830	-0,018	-0,009
-353,781	439,264	0,031	0,048
-352,766	-200,000	0,013	-0,080
-351,752	-200,000	-0,000	0,042
-350,737	-18,455	0,014	-0,006
-349,723	-39,871	0,094	0,035
-348,708	-71,074	0,068	0,018
-347,693	800,000	-0,028	-0,060
-346,679	18,730	0,100	0,057
-345,664	767,387	0,046	-0,090
-344,650	522,750	-0,072	0,122
-343,635	-200,000	-0,016	0,072
-342,620	-200,000	-0,017	0,130
-341,606	-99,719	0,040	-0,007
-340,591	-63,450	-0,080	-0,024
-339,577	-114,233	0,054	0,007
-338,562	461,375	-0,096	-0,154
-337,548	-200,000	0,004	-0,026
-336,533	-148,422	0,033	-0,002
-335,518	800,000	0,052	-0,134
-334,504	598,656	-0,099	0,177
-333,489	-77,445	-0,146	0,036
-332,475	306,233	0,060	0,080
-331,460	19,321	-0,018	-0,010
-330,445	-200,000	0,019	0,073
-329,431	-19,365	-0,031	0,014
-328,416	-110,367	0,063	0,009
-327,402	-191,017	0,027	-0,000
-326,387	102,855	-0,033	0,027
-325,372	-200,000	-0,019	-0,097
-324,358	800,000	-0,076	-0,227
-323,343	-200,000	0,023	-0,075
-322,329	800,000	0,020	0,063
-321,314	-183,081	0,051	-0,001
-320,299	161,161	0,025	-0,025
-319,285	110,284	-0,136	-0,117
-318,270	350,381	0,029	-0,041
-317,256	473,227	-0,044	-0,071
-316,241	649,380	-0,086	-0,159
-315,226	674,559	0,020	-0,038
-314,212	408,797	-0,100	-0,152
-313,197	800,000	0,047	0,136
-312,183	-0,543	0,072	-0,037
-311,168	72,112	-0,061	-0,046
-310,153	62,103	0,104	-0,074
-309,139	178,572	-0,103	-0,108
-308,124	-4,885	0,147	0,072
-307,110	183,658	-0,008	-0,009
-306,095	-200,000	0,015	0,073
-305,080	-200,000	-0,012	0,072
-304,066	-134,046	-0,096	-0,008
-303,051	800,000	0,022	-0,057
-302,037	-140,324	-0,063	-0,005
-301,022	-200,000	0,009	-0,050
-300,008	242,531	0,099	0,119
-298,993	-64,682	0,127	0,037
-297,978	-85,883	0,141	0,031
-296,964	-67,835	-0,084	-0,023
-295,949	199,092	-0,149	-0,164
-294,935	-200,000	-0,001	0,027
-293,920	12,550	-0,059	-0,032
-292,905	-34,058	0,102	-0,040
-291,891	-85,360	0,155	-0,034
-290,876	800,000	0,044	0,102
-289,862	-16,582	-0,017	-0,008
-288,847	-75,666	-0,091	-0,023
-287,832	72,059	0,045	-0,034
-286,818	-32,882	-0,034	-0,013
-285,803	80,472	0,189	0,145
-284,789	800,000	-0,055	0,127
-283,774	-160,340	-0,036	-0,001
-282,759	161,773	-0,054	-0,054
-281,745	150,267	-0,084	0,082
-280,730	79,589	-0,068	0,052
-279,716	800,000	0,044	-0,098
-278,701	-200,000	0,005	0,049
-277,686	800,000	0,020	0,057
-276,672	-103,509	-0,082	-0,014
-275,657	-17,129	0,153	-0,069
-274,643	800,000	0,032	0,075
-273,628	-106,990	-0,074	0,012
-272,613	574,717	-0,046	-0,081
-271,599	264,308	0,082	0,103
-270,584	251,205	0,058	0,071
-269,570	-200,000	-0,030	-0,131
-268,555	507,786	0,026	-0,044
-267,540	133,841	-0,020	0,019
-266,526	102,693	-0,113	-0,094
-265,511	-108,140	-0,027	-0,004
-264,497	-200,000	0,018	0,063
-263,482	246,113	0,077	0,092
-262,467	36,990	0,022	0,014
-261,453	36,481	-0,089	-0,056
-260,438	-100,586	-0,107	-0,019
-259,424	-129,679	-0,098	0,010
-258,409	-13,231	-0,036	0,017
-257,395	144,313	-0,069	0,066
-256,380	-200,000	0,068	0,000
-255,365	-64,464	0,190	0,055
-254,351	-200,000	0,039	0,223
-253,336	37,783	0,151	-0,095
-252,322	-124,646	-0,074	0,008
-251,307	800,000	-0,015	0,045
-250,292	19,371	0,116	-0,067
-249,278	-200,000	0,005	0,130
-248,263	-69,534	0,140	0,038
-247,249	215,032	-0,068	0,077
-246,234	385,469	0,051	0,075
-245,219	-118,309	0,081	-0,010
-244,205	-200,000	-0,025	0,082
-243,190	116,362	-0,026	-0,023
-242,176	-50,875	0,157	-0,052
-241,161	107,069	0,044	-0,037
-240,146	-200,000	0,008	0,059
-239,132	499,078	0,025	0,041
-238,117	-200,000	-0,007	-0,114
-237,103	800,000	-0,080	-0,166
-236,088	62,405	-0,075	-0,053
-235,073	426,096	0,083	-0,128
-234,059	354,871	0,047	0,067
-233,044	-68,897	-0,133	0,036
-232,030	-200,000	0,015	0,081
-231,015	133,143	-0,073	0,067
-230,000	800,000	0,013	-0,032
-228,986	25,669	-0,083	-0,049
-227,971	800,000	0,024	-0,055
-226,957	89,277	0,110	0,087
-225,942	-200,000	-0,013	0,054
-224,927	-112,825	-0,085	0,012
-223,913	-200,000	0,000	0,025
-222,898	-200,000	0,002	-0,018
-221,884	-28,835	0,040	-0,016
-220,869	800,000	0,037	0,084
-219,855	-200,000	0,004	0,111
-218,840	-200,000	-0,002	0,135
-217,825	170,267	-0,085	0,087
-216,811	800,000	-0,020	-0,060
-215,796	800,000	-0,036	-0,090
-214,782	-45,627	0,123	0,043
-213,767	199,207	0,029	0,032
-212,752	201,972	0,068	0,075
-211,738	368,484	0,058	-0,084
-210,723	21,730	-0,053	0,031
-209,709	800,000	0,022	0,066
-208,694	-23,294	0,094	-0,040
-207,679	-136,677	0,037	-0,003
-206,665	135,704	0,064	0,059
-205,650	-200,000	-0,002	-0,049
-204,636	722,691	0,023	0,045
-203,621	555,034	-0,059	0,102
-202,606	-26,970	-0,086	0,036
-201,592	18,373	0,061	0,035
-200,577	203,192	-0,059	-0,065
-199,563	111,462	0,034	0,029
-198,548	373,397	-0,094	0,137
-197,533	79,492	0,056	0,043
-196,519	484,900	-0,017	0,027
-195,504	36,398	-0,155	-0,098
-194,490	-200,000	0,013	0,092
-193,475	585,787	-0,034	0,059
-192,460	800,000	0,025	-0,077
-191,446	267,546	0,054	-0,067
-190,431	172,027	0,121	0,124
-189,417	216,196	-0,072	-0,082
-188,402	800,000	0,033	-0,076
-187,387	-200,000	-0,000	0,082
-186,373	-200,000	0,018	-0,063
-185,358	-64,709	0,073	-0,021
-184,344	-200,000	0,004	0,093
-183,329	800,000	0,008	-0,021
-182,315	-11,464	-0,088	-0,041
-181,300	-200,000	0,011	-0,048
-180,285	-39,831	-0,090	0,033
-179,271	-200,000	-0,018	-0,112
-178,256	216,183	-0,083	0,094
-177,242	675,073	0,067	0,124
-176,227	27,106	-0,094	-0,056
-175,212	52,769	0,047	0,032
-174,198	800,000	-0,033	0,072
-173,183	164,726	0,053	-0,053
-172,169	10,748	0,022	0,012
-171,154	519,358	-0,026	-0,044
-170,139	2,116	-0,068	0,035
-169,125	360,698	0,048	-0,068
-168,110	-200,000	-0,002	-0,028
-167,096	-26,683	0,015	0,006
-166,081	264,230	-0,077	-0,096
-165,066	-68,227	0,082	0,023
-164,052	800,000	-0,025	0,064
-163,037	-200,000	0,023	-0,080
-162,023	-200,000	0,042	0,164
-161,008	160,043	-0,025	-0,025
-159,993	87,961	0,081	-0,064
-158,979	599,862	-0,037	-0,066
-157,964	800,000	0,045	-0,099
-156,950	-200,000	0,010	0,050
-155,935	-65,590	0,127	-0,036
-154,920	-200,000	-0,027	0,126
-153,906	301,874	0,090	0,119
-152,891	27,612	0,070	0,042
-151,877	-200,000	-0,008	-0,098
-150,862	-1,457	-0,103	-0,051
-149,847	8,473	-0,055	0,029
-148,833	-200,000	0,009	-0,038
-147,818	-48,239	0,047	0,016
-146,804	-95,520	-0,103	0,020
-145,789	358,973	0,050	-0,072
-144,775	613,302	-0,017	-0,030
-143,760	800,000	-0,003	0,007
-142,745	123,577	-0,053	-0,047
-141,731	250,201	-0,071	-0,085
-140,716	235,765	0,031	0,036
-139,702	-49,684	0,131	-0,044
-138,687	174,079	0,123	0,127
-137,672	-200,000	-0,021	0,098
-136,658	12,069	0,150	-0,082
-135,643	-200,000	-0,009	-0,113
-134,629	19,027	-0,051	-0,029
-133,614	219,680	-0,051	-0,058
-132,599	318,130	-0,044	0,059
-131,585	800,000	0,021	-0,043
-130,570	-200,000	0,001	0,136
-129,556	-72,638	-0,191	-0,050
-128,541	410,687	-0,057	-0,086
-127,526	-71,364	-0,147	-0,039
-126,512	443,380	0,043	0,067
-125,497	-200,000	0,009	0,068
-124,483	-111,202	-0,061	-0,009
-123,468	728,383	-0,020	0,037
-122,453	-200,000	-0,022	0,125
-121,439	-200,000	0,028	-0,131
-120,424	800,000	0,016	0,045
-119,410	-200,000	-0,024	0,120
-118,395	-200,000	0,119	0,000
-117,380	-12,370	-0,120	0,056
-116,366	-200,000	-0,001	0,049
-115,351	-19,238	0,067	0,029
-114,337	-146,267	-0,030	-0,002
-113,322	-92,852	-0,197	-0,039
-112,307	4,563	0,056	-0,029
-111,293	-117,880	0,016	0,002
-110,278	508,440	-0,029	0,047
-109,264	-200,000	-0,036	-0,152
-108,249	-200,000	-0,056	-0,220
-107,234	800,000	-0,036	0,101
-106,220	-200,000	-0,028	-0,140
-105,205	649,949	-0,036	-0,066
-104,191	800,000	-0,044	0,095
-103,176	-46,357	0,031	-0,011
-102,162	-200,000	0,006	-0,084
-101,147	67,487	0,124	-0,090
-100,132	-72,719	-0,076	-0,020
-99,118	-85,874	-0,072	-0,016
-98,103	418,628	0,022	0,034
-97,089	-18,468	-0,054	0,024
-96,074	-200,000	0,008	0,112
-95,059	503,138	0,032	0,053
-94,045	744,734	0,080	-0,154
-93,030	800,000	-0,023	-0,062
-92,016	-31,953	-0,159	-0,063
-91,001	-82,931	0,091	-0,021
-89,986	800,000	0,075	0,156
-88,972	14,309	-0,032	-0,018
-87,957	-31,656	-0,042	0,017
-86,943	248,155	-0,076	0,092
-85,928	568,277	0,064	-0,110
-84,913	-200,000	-0,037	-0,155
-83,899	238,438	-0,092	-0,109
-82,884	25,826	-0,070	0,041
-81,870	-200,000	0,027	-0,087
-80,855	-115,865	-0,101	0,013
-79,840	-83,050	0,067	-0,015
-78,826	800,000	0,015	-0,040
-77,811	576,368	-0,097	-0,168
-76,797	610,758	0,031	0,055
-75,782	630,980	-0,066	-0,119
-74,767	111,119	0,026	0,022
-73,753	197,030	-0,047	-0,051
-72,738	800,000	-0,059	0,153
-71,724	-137,931	-0,086	0,007
-70,709	-148,388	-0,078	0,004
-69,694	36,025	-0,080	-0,050
-68,680	77,224	-0,035	0,027
-67,665	-119,619	0,100	-0,012
-66,651	-200,000	0,002	0,091
-65,636	-200,000	-0,001	-0,072
-64,622	800,000	-0,055	-0,122
-63,607	-77,878	-0,039	-0,009
-62,592	158,922	-0,022	0,022
-61,578	-11,599	0,043	-0,020
-60,563	81,092	0,130	0,099
-59,549	800,000	-0,018	0,048
-58,534	-118,399	-1,334	-0,166
-57,519	356,918	-1,496	-2,122
-56,505	-200,000	-0,628	-4,369
-55,490	55,412	0,952	0,652
-54,476	800,000	4,647	11,235
-53,461	-200,000	17,075	268,259
-52,446	800,000	714,391	2178,580
-51,432	552,102	1628,846	2786,278
-50,417	81,477	1654,944	1268,465
-49,403	24,451	1529,464	895,102
-48,388	18,476	1452,839	821,502
-47,373	18,584	1442,446	816,110
-46,359	18,328	1433,024	809,529
-45,344	16,807	1428,586	799,773
-44,330	16,719	1426,552	798,183
-43,315	16,766	1424,762	797,376
-42,300	16,754	1423,270	796,449
-41,286	16,783	1422,196	795,956
-40,271	16,732	1421,021	795,027
-39,257	16,745	1419,437	794,169
-38,242	16,783	1418,151	793,598
-37,227	16,826	1416,961	793,101
-36,213	16,777	1415,728	792,152
-35,198	16,753	1414,417	791,270
-34,184	16,787	1413,652	790,972
-33,169	16,690	1412,408	789,790
-32,154	16,782	1411,459	789,658
-31,140	16,779	1410,054	788,827
-30,125	16,801	1408,889	788,247
-29,111	16,774	1407,780	787,472
-28,096	16,753	1406,468	786,608
-27,082	16,754	1405,307	785,930
-26,067	16,670	1404,408	785,005
-25,052	16,744	1403,253	784,674
-24,038	16,693	1402,501	783,985
-23,023	16,682	1401,294	783,228
-22,009	16,620	1400,422	782,419
-20,994	16,655	1399,421	781,990
-19,979	16,657	1398,589	781,507
-18,965	16,637	1397,651	780,856
-17,950	16,618	1396,614	780,161
-16,936	16,617	1395,729	779,632
-15,921	16,578	1394,552	778,761
-14,906	16,565	1393,547	778,110
-13,892	16,620	1392,654	777,835
-12,877	16,606	1391,679	777,193
-11,863	16,625	1390,657	776,678
-10,848	16,616	1389,922	776,195
-9,833	16,594	1389,081	775,593
-8,819	16,585	1388,269	775,070
-7,804	16,529	1387,156	774,160
-6,790	16,496	1386,091	773,381
-5,775	16,469	1385,148	772,701
-4,760	16,531	1384,211	772,432
-3,746	16,482	1383,590	771,828
-2,731	16,503	1382,570	771,327
-1,717	16,427	1381,697	770,462
-0,702	16,488	1379,763	769,631
0,313	20,261	1301,725	743,498
1,327	36,702	707,801	442,422
2,342	56,453	125,846	86,627
3,356	2,537	16,659	8,527
4,371	5,824	3,140	1,642
5,386	-27,508	0,608	0,249
6,400	-200,000	0,039	0,204
7,415	131,233	-0,313	-0,285
8,429	22,201	-0,196	-0,113
9,444	-29,405	-0,381	-0,154
10,459	103,615	-0,180	-0,150
11,473	114,109	-0,281	-0,242
12,488	100,157	-0,181	-0,148
13,502	800,000	-0,127	-0,291
14,517	-32,436	-0,393	-0,154
15,531	178,448	-0,256	-0,265
16,546	203,425	-0,271	-0,297
17,561	164,988	-0,344	-0,344
18,575	-67,718	-0,088	-0,024
19,590	408,513	-0,150	-0,226
20,604	55,138	-0,220	-0,150
21,619	125,625	-0,378	-0,338
22,634	13,752	-0,530	-0,291
23,648	89,800	-0,465	-0,367
24,663	112,543	-0,394	-0,338
25,677	28,399	-0,292	-0,174
26,692	168,372	-0,419	-0,422
27,707	-5,109	-0,321	-0,156
28,721	-124,436	-0,524	-0,057
29,736	45,339	-0,429	-0,279
30,750	114,648	-0,411	-0,354
31,765	120,499	-0,339	-0,298
32,780	113,935	-0,374	-0,321
33,794	62,835	-0,450	-0,318
34,809	53,660	-0,362	-0,245
35,823	57,153	-0,392	-0,270
36,838	171,495	-0,242	-0,246
37,853	88,510	-0,416	-0,326
38,867	40,442	-0,350	-0,222
39,882	21,540	-0,373	-0,214
40,896	181,150	-0,378	-0,393
41,911	75,249	-0,246	-0,183
42,926	130,918	-0,293	-0,266
43,940	-50,754	-0,376	-0,124
44,955	41,749	-0,292	-0,186
45,969	181,597	-0,366	-0,381
46,984	183,236	-0,309	-0,323
47,999	232,546	-0,254	-0,296
49,013	307,897	-0,233	-0,307
50,028	220,317	-0,321	-0,364
51,042	127,651	-0,324	-0,291
52,057	135,698	-0,388	-0,357
53,071	131,251	-0,330	-0,299
54,086	58,743	-0,346	-0,240
55,101	211,561	-0,257	-0,285
56,115	14,572	-0,402	-0,221
57,130	86,145	-0,303	-0,235
58,144	-17,081	-0,366	-0,162
59,159	145,419	-0,272	-0,257
60,174	64,022	-0,409	-0,290
61,188	188,054	-0,341	-0,360
62,203	-29,925	-0,452	-0,181
63,217	105,136	-0,339	-0,282
64,232	123,616	-0,265	-0,235
65,247	-8,534	-0,302	-0,142
66,261	2,990	-0,412	-0,210
67,276	67,342	-0,407	-0,292
68,290	94,693	-0,250	-0,200
69,305	21,609	-0,269	-0,154
70,320	-78,679	-0,301	-0,072
71,334	69,954	-0,327	-0,238
72,349	297,643	-0,309	-0,401
73,363	266,275	-0,220	-0,271
74,378	-55,909	-0,310	-0,097
75,393	-72,658	-0,368	-0,095
76,407	-96,103	-0,256	-0,047
77,422	113,257	-0,274	-0,234
78,436	126,006	-0,329	-0,293
79,451	79,335	-0,395	-0,298
80,466	84,319	-0,311	-0,239
81,480	-17,375	-0,275	-0,121
82,495	150,149	-0,330	-0,315
83,509	16,580	-0,314	-0,174
84,524	-0,168	-0,218	-0,109
85,539	-63,911	-0,419	-0,120
86,553	-99,588	-0,195	-0,034
87,568	62,553	-0,331	-0,233
88,582	76,059	-0,211	-0,157
89,597	-23,457	-0,412	-0,173
90,611	780,066	-0,125	-0,242
91,626	315,699	-0,202	-0,269
92,641	-73,938	-0,311	-0,079
93,655	-5,454	-0,234	-0,113
94,670	21,710	-0,373	-0,213
95,684	-126,827	-0,205	-0,021
96,699	-40,773	-0,205	-0,074
97,714	39,334	-0,331	-0,208
98,728	86,919	-0,310	-0,241
99,743	-26,925	-0,271	-0,111
100,757	-59,340	-0,451	-0,135
101,772	107,843	-0,282	-0,236
102,787	92,723	-0,312	-0,247
103,801	98,289	-0,309	-0,250
104,816	65,855	-0,189	-0,134
105,830	41,513	-0,292	-0,185
106,845	-102,301	-0,204	0,034
107,860	-121,485	-0,325	-0,038
108,874	-12,504	-0,362	-0,165
109,889	96,709	-0,319	-0,257
110,903	66,953	-0,294	-0,210
111,918	635,841	-0,109	-0,196
112,933	88,933	-0,217	-0,169
113,947	645,493	-0,054	-0,097
114,962	-29,635	-0,328	-0,131
115,976	247,440	-0,199	-0,237
116,991	161,388	-0,111	-0,109
118,006	243,113	-0,310	-0,366
119,020	38,510	-0,301	-0,188
120,035	-200,000	-0,056	-0,245
121,049	-115,011	-0,252	-0,033
122,064	-171,854	-0,266	0,006
123,079	27,411	-0,287	-0,169
124,093	550,177	-0,148	-0,250
125,108	-38,147	-0,349	-0,129
126,122	120,100	-0,279	-0,243
127,137	31,635	-0,205	-0,123
128,151	-185,297	-0,171	-0,002
129,166	197,274	-0,168	-0,180
130,181	117,078	-0,144	-0,124
131,195	119,465	-0,199	-0,173
132,210	238,702	-0,226	-0,264
133,224	-97,470	-0,220	-0,040
134,239	-12,398	-0,297	-0,135
135,254	142,066	-0,223	-0,208
136,268	800,000	-0,101	-0,275
137,283	-45,961	-0,358	-0,123
138,297	-65,472	-0,342	-0,096
139,312	71,199	-0,245	-0,178
140,327	31,978	-0,205	-0,123
141,341	207,863	-0,188	-0,206
142,356	-83,814	-0,220	-0,049
143,370	9,607	-0,262	-0,139
144,385	31,638	-0,239	-0,143
145,400	-45,589	-0,220	-0,076
146,414	205,980	-0,274	-0,299
147,429	75,238	-0,294	-0,217
148,443	9,121	-0,375	-0,197
149,458	-19,663	-0,320	-0,138
150,473	22,630	-0,179	-0,102
151,487	287,913	-0,160	-0,204
152,502	120,347	-0,216	-0,187
153,516	-23,729	-0,379	-0,158
154,531	32,069	-0,375	-0,226
155,546	271,729	-0,116	-0,143
156,560	-46,967	-0,049	-0,017
157,575	133,258	-0,252	-0,228
158,589	-26,584	-0,197	-0,080
159,604	32,073	-0,249	-0,150
160,619	272,790	-0,275	-0,341
161,633	53,449	-0,207	-0,139
162,648	-24,170	-0,265	-0,110
163,662	1,348	-0,159	-0,079
164,677	161,536	-0,081	-0,079
165,692	8,361	-0,339	-0,177
166,706	191,903	-0,266	-0,280
167,721	102,462	-0,318	-0,259
168,735	-47,417	-0,219	-0,074
169,750	61,278	-0,186	-0,129
170,764	800,000	-0,119	-0,240
171,779	-134,678	-0,237	0,020
172,794	395,635	-0,148	-0,216
173,808	260,306	-0,223	-0,269
174,823	19,053	-0,233	-0,130
175,837	78,551	-0,233	-0,174
176,852	53,548	-0,263	-0,176
177,867	168,412	-0,186	-0,186
178,881	106,862	-0,127	-0,105
179,896	679,849	-0,131	-0,240
180,910	-20,684	-0,275	-0,117
181,925	332,014	-0,206	-0,278
182,940	-62,362	-0,142	-0,041
183,954	800,000	-0,103	-0,262
184,969	208,699	-0,211	-0,231
185,983	96,126	-0,130	-0,103
186,998	0,968	-0,249	-0,124
188,013	-176,015	-0,222	0,004
189,027	-15,485	-0,232	-0,103
190,042	800,000	-0,115	-0,262
191,056	20,210	-0,187	-0,105
192,071	342,918	-0,188	-0,258
193,086	-68,619	-0,221	-0,059
194,100	-51,046	-0,248	-0,081
195,115	-180,699	-0,266	0,004
196,129	288,087	-0,138	-0,174
197,144	183,372	-0,214	-0,221
198,159	-200,000	-0,081	-0,257
199,173	163,214	-0,222	-0,217
200,188	25,481	-0,172	-0,099
201,202	54,018	-0,254	-0,170
202,217	225,188	-0,227	-0,256
203,232	208,051	-0,140	-0,152
204,246	-61,727	-0,181	-0,052
205,261	-200,000	-0,013	-0,119
206,275	113,870	-0,176	-0,149
207,290	377,670	-0,141	-0,201
208,304	800,000	-0,054	-0,106
209,319	-72,687	-0,214	-0,055
210,334	-11,991	-0,255	-0,116
211,348	-89,900	-0,170	-0,034
212,363	214,208	-0,171	-0,189
213,377	26,267	-0,206	-0,120
214,392	-25,139	-0,234	-0,096
215,407	-66,655	-0,135	-0,037
216,421	-122,085	-0,124	-0,014
217,436	-54,985	-0,218	-0,068
218,450	181,332	-0,256	-0,262
219,465	391,413	-0,220	-0,319
220,480	760,820	-0,163	-0,310
221,494	61,027	-0,123	-0,085
222,509	-61,283	-0,238	-0,069
223,523	538,480	-0,106	-0,175
224,538	-114,346	-0,188	0,025
225,553	180,830	-0,242	-0,247
226,567	72,825	-0,224	-0,163
227,582	221,251	-0,174	-0,195
228,596	800,000	-0,077	-0,181
229,611	-200,000	-0,014	-0,275
230,626	-57,832	-0,256	-0,077
231,640	288,356	-0,126	-0,158
232,655	58,804	-0,183	-0,125
233,669	-9,018	-0,243	-0,113
234,684	228,941	-0,143	-0,162
235,699	-73,644	-0,131	-0,033
236,713	281,390	-0,114	-0,142
237,728	-122,683	-0,348	-0,039
238,742	30,459	-0,281	-0,166
239,757	126,677	-0,190	-0,167
240,772	314,866	-0,190	-0,249
241,786	276,220	-0,166	-0,205
242,801	-135,637	-0,141	-0,011
243,815	547,155	-0,110	-0,183
244,830	-45,396	-0,138	-0,047
245,844	-28,949	-0,211	-0,084
246,859	17,781	-0,237	-0,130
247,874	32,614	-0,271	-0,162
248,888	62,938	-0,200	-0,138
249,903	-89,415	-0,190	-0,038
250,917	236,791	-0,072	-0,083
251,932	-84,355	-0,159	0,035
252,947	603,451	-0,161	-0,278
253,961	0,442	-0,247	-0,122
254,976	-51,399	-0,166	-0,053
255,990	-11,787	-0,266	-0,120
257,005	-110,030	-0,353	-0,051
258,020	135,047	-0,139	-0,125
259,034	-158,130	-0,187	0,007
260,049	108,349	-0,151	-0,125
261,063	9,257	-0,118	-0,062
262,078	-40,532	-0,304	-0,109
263,093	183,774	-0,163	-0,167
264,107	317,886	-0,098	-0,128
265,122	-75,630	-0,068	-0,017
266,136	143,305	-0,206	-0,190
267,151	-97,452	-0,116	0,021
268,166	800,000	-0,111	-0,221
269,180	158,530	-0,214	-0,206
270,195	203,097	-0,261	-0,279
271,209	191,365	-0,136	-0,141
272,224	49,680	-0,190	-0,124
273,239	-92,787	-0,188	-0,036
274,253	-142,211	-0,167	0,011
275,268	99,319	-0,132	-0,106
276,282	-87,051	-0,164	0,034
277,297	241,192	-0,134	-0,156
278,312	293,430	-0,141	-0,179
279,326	6,052	-0,143	-0,073
280,341	108,868	-0,159	-0,132
281,355	-200,000	0,013	-0,170
282,370	179,798	-0,219	-0,222
283,384	800,000	-0,055	-0,147
284,399	65,926	-0,195	-0,136
285,414	445,211	-0,094	-0,143
286,428	-89,665	-0,208	-0,042
287,443	78,553	-0,167	-0,123
288,457	-152,892	-0,100	-0,005
289,472	14,989	-0,157	-0,085
290,487	118,384	-0,168	-0,144
291,501	158,950	-0,183	-0,176
292,516	-35,105	-0,154	-0,058
293,530	279,025	-0,137	-0,170
294,545	-60,532	-0,177	-0,052
295,560	-109,749	-0,186	0,027
296,574	14,552	-0,103	-0,055
297,589	193,176	-0,158	-0,165
298,603	-49,734	-0,203	-0,066
299,618	99,510	-0,077	-0,062
300,633	-45,768	-0,075	-0,025
301,647	-65,461	-0,121	-0,033
302,662	111,114	-0,176	-0,147
303,676	293,635	-0,111	-0,140
304,691	212,534	-0,142	-0,155
305,706	455,753	-0,106	-0,163
306,720	-156,636	-0,230	0,010
307,735	-200,000	0,011	-0,082
308,749	44,898	-0,095	-0,061
309,764	800,000	-0,021	-0,059
310,779	-77,846	-0,161	-0,038
311,793	0,949	-0,239	-0,118
312,808	-89,917	-0,174	-0,035
313,822	43,659	-0,164	-0,103
314,837	21,297	-0,147	-0,082
315,852	-96,901	-0,188	-0,034
316,866	357,641	-0,137	-0,189
317,881	-149,812	-0,109	-0,006
318,895	184,400	-0,106	-0,109
319,910	57,362	-0,142	-0,096
320,925	182,141	-0,189	-0,192
321,939	800,000	-0,112	-0,296
322,954	64,451	-0,207	-0,143
323,968	-200,000	-0,030	-0,149
324,983	144,441	-0,047	-0,044
325,997	-37,697	-0,132	-0,048
327,012	-65,765	-0,196	-0,054
328,027	38,797	-0,243	-0,149
329,041	723,572	-0,045	-0,082
330,056	521,971	-0,086	-0,139
331,070	69,287	-0,067	-0,047
332,085	43,923	-0,199	0,126
333,100	197,140	-0,166	-0,174
334,114	-81,610	-0,205	-0,046
335,129	339,944	-0,190	-0,256
336,143	539,209	-0,061	-0,100
337,158	-181,824	-0,090	-0,001
338,173	11,796	-0,157	0,083
339,187	40,818	-0,175	-0,108
340,202	396,542	-0,128	-0,184
341,216	268,945	-0,086	-0,104
342,231	201,971	-0,102	-0,108
343,246	-200,000	-0,022	-0,079
344,260	-97,294	-0,154	-0,027
345,275	383,056	-0,144	-0,204
346,289	-200,000	-0,010	-0,190
347,304	800,000	-0,052	-0,137
348,319	-119,924	-0,149	0,017
349,333	153,356	-0,149	-0,140
350,348	17,098	-0,164	-0,089
351,362	66,512	-0,145	-0,101
352,377	19,975	-0,140	-0,077
353,392	-148,013	-0,151	-0,008
354,406	800,000	-0,068	-0,192
355,421	210,699	1313,788	1420,808
356,435	162,213	1474,440	1421,342
