DTS Sentinel unit serial number:	SN410029Multiplexer serial number:	ORYXHardware model number:	OX2-SRSoftware version number:	ORYX F/W v4,00 Oryx Data Collector v3.7.2.0data status	okinstallation	B3 Nyhavnadifferential loss correction	single-endedforward channel	channel 1reverse channel	N/Adate	2023/12/03time	23:02:30forward acquisition time	300,00reverse acquisition time	0,00gamma	499,1914k internal	0,3201k external	0,3201temperature offset calibration	1,0000default loss term (dB/km)	0,3820temperature slope calibration	1,0000multiplexer offset coefficient	1,0000multiplexer slope coefficient	1,0000fibre end	0,00T internal ref (°C)	13,02T ext. ref 1 (°C)	-2,30T ext. ref 2 (°C)	-2,32length (m)	temperature (°C)	Stokes	anti-Stokes-744,400	82,279	-0,175	-0,138
-743,385	-200,000	0,065	0,271
-742,371	-1,018	-0,179	-0,092
-741,356	-200,000	0,090	0,377
-740,342	281,232	-0,162	-0,211
-739,327	-200,000	0,006	0,292
-738,312	625,312	-0,146	-0,269
-737,298	-200,000	-0,034	0,240
-736,283	68,444	-0,172	-0,128
-735,269	-200,000	-0,007	0,112
-734,254	-40,879	-0,271	-0,101
-733,239	-46,015	-0,218	0,078
-732,225	800,000	-0,091	-0,224
-731,210	527,200	0,056	0,096
-730,196	-69,931	-0,122	-0,034
-729,181	172,278	-0,100	0,104
-728,167	-200,000	0,003	-0,027
-727,152	644,169	-0,047	0,088
-726,137	-124,081	-0,052	-0,006
-725,123	-4,940	-0,081	-0,040
-724,108	-68,432	-0,155	-0,043
-723,094	-73,776	-0,187	-0,049
-722,079	-96,055	-0,119	0,023
-721,064	-143,974	-0,028	-0,002
-720,050	252,372	-0,066	-0,082
-719,035	162,225	-0,083	0,084
-718,021	-96,036	-0,089	-0,017
-717,006	-55,843	-0,064	0,021
-715,991	-200,000	-0,026	-0,113
-714,977	72,978	-0,125	-0,095
-713,962	-120,426	0,100	0,012
-712,948	-19,070	-0,111	-0,050
-711,933	-75,755	0,028	-0,007
-710,918	-190,595	-0,122	-0,001
-709,904	630,963	0,033	-0,062
-708,889	-200,000	-0,007	0,074
-707,875	226,899	0,114	-0,134
-706,860	-200,000	-0,021	-0,070
-705,845	304,472	-0,085	0,115
-704,831	-200,000	0,026	0,228
-703,816	-4,596	-0,087	0,044
-702,802	105,497	-0,012	0,011
-701,787	800,000	0,029	-0,088
-700,772	22,595	-0,065	0,039
-699,758	-107,154	-0,096	-0,015
-698,743	-200,000	0,021	-0,183
-697,729	324,512	0,065	0,090
-696,714	-34,204	0,087	0,035
-695,699	-131,978	0,059	0,005
-694,685	113,736	-0,090	-0,079
-693,670	140,984	0,106	0,101
-692,656	15,370	0,084	0,048
-691,641	-200,000	-0,043	0,140
-690,627	800,000	0,074	0,234
-689,612	800,000	0,072	0,150
-688,597	502,462	-0,083	0,140
-687,583	800,000	-0,020	-0,064
-686,568	196,789	-0,166	-0,183
-685,554	-86,947	-0,104	-0,023
-684,539	-4,562	0,116	0,058
-683,524	-10,810	-0,096	0,046
-682,510	-200,000	-0,001	-0,076
-681,495	-63,060	-0,088	0,026
-680,481	-38,057	-0,129	-0,050
-679,466	-200,000	0,014	-0,165
-678,451	-200,000	0,005	0,016
-677,437	-200,000	-0,013	0,071
-676,422	64,850	-0,091	-0,066
-675,408	270,140	0,022	0,028
-674,393	39,727	-0,104	-0,068
-673,378	-200,000	0,010	0,045
-672,364	-200,000	0,050	-0,202
-671,349	66,648	0,045	-0,033
-670,335	195,939	0,087	-0,096
-669,320	644,218	0,022	-0,040
-668,305	-41,247	-0,016	0,006
-667,291	707,824	-0,036	0,070
-666,276	-21,177	0,141	0,062
-665,262	41,318	-0,152	-0,099
-664,247	800,000	0,007	-0,019
-663,232	-200,000	-0,026	0,093
-662,218	-68,341	-0,135	0,038
-661,203	-112,384	0,071	-0,010
-660,189	-200,000	0,002	-0,076
-659,174	-200,000	-0,002	-0,039
-658,159	84,506	-0,049	0,038
-657,145	96,167	-0,042	0,035
-656,130	-45,660	-0,074	0,026
-655,116	711,454	-0,057	0,110
-654,101	721,757	0,029	-0,056
-653,086	-26,107	-0,065	-0,028
-652,072	168,224	0,051	-0,053
-651,057	-90,269	-0,089	-0,019
-650,043	28,399	0,065	-0,039
-649,028	171,605	-0,058	-0,060
-648,014	379,070	0,155	-0,231
-646,999	-1,211	0,024	-0,012
-645,984	282,097	-0,144	-0,187
-644,970	-200,000	0,004	0,121
-643,955	346,835	0,050	-0,072
-642,941	-200,000	-0,020	-0,180
-641,926	-43,467	-0,068	0,025
-640,911	800,000	-0,028	-0,073
-639,897	-200,000	0,017	0,102
-638,882	800,000	-0,061	0,137
-637,868	-165,049	-0,070	-0,002
-636,853	493,156	0,062	-0,103
-635,838	65,342	-0,096	-0,070
-634,824	-79,246	0,075	0,018
-633,809	18,470	0,097	0,056
-632,795	102,876	0,089	0,075
-631,780	187,832	0,152	0,165
-630,765	421,913	0,014	-0,021
-629,751	-136,979	-0,076	-0,006
-628,736	-126,431	-0,069	-0,007
-627,722	103,844	-0,101	0,085
-626,707	-80,748	-0,106	-0,025
-625,692	-131,191	0,102	-0,010
-624,678	800,000	-0,012	0,034
-623,663	800,000	0,090	0,198
-622,649	210,264	-0,109	-0,124
-621,634	-45,160	-0,088	0,031
-620,619	246,459	-0,054	-0,066
-619,605	162,572	-0,051	0,052
-618,590	3,748	0,139	0,073
-617,576	328,716	-0,060	-0,084
-616,561	176,458	0,073	-0,076
-615,546	351,810	-0,005	-0,008
-614,532	73,779	-0,054	-0,041
-613,517	174,040	0,041	-0,042
-612,503	-51,282	0,122	0,041
-611,488	-200,000	0,028	0,173
-610,474	-35,754	0,067	-0,026
-609,459	800,000	-0,024	-0,052
-608,444	-200,000	-0,010	-0,115
-607,430	-133,794	-0,070	-0,006
-606,415	800,000	0,012	0,038
-605,401	-60,565	0,025	-0,008
-604,386	181,170	-0,041	-0,043
-603,371	-118,189	0,096	-0,012
-602,357	201,229	0,085	-0,095
-601,342	445,420	0,043	-0,069
-600,328	132,939	-0,034	-0,032
-599,313	800,000	0,015	0,042
-598,298	154,337	-0,162	0,161
-597,284	-200,000	-0,024	0,200
-596,269	231,475	0,043	0,051
-595,255	800,000	0,036	0,074
-594,240	316,835	0,017	0,023
-593,225	-200,000	-0,000	0,050
-592,211	254,143	-0,051	-0,063
-591,196	252,160	-0,045	-0,056
-590,182	-200,000	-0,006	0,068
-589,167	14,122	-0,079	-0,045
-588,152	-37,370	-0,183	0,070
-587,138	800,000	0,007	-0,019
-586,123	-200,000	0,006	-0,201
-585,109	168,555	0,026	-0,027
-584,094	-200,000	0,004	0,028
-583,079	-15,705	0,026	-0,012
-582,065	-200,000	-0,017	0,061
-581,050	-91,345	-0,027	-0,005
-580,036	579,292	0,057	0,102
-579,021	-110,512	-0,105	0,016
-578,006	127,861	0,128	-0,118
-576,992	-200,000	0,005	0,029
-575,977	13,175	0,058	-0,033
-574,963	800,000	0,013	0,033
-573,948	-200,000	0,022	-0,087
-572,934	144,636	0,034	-0,032
-571,919	800,000	0,036	-0,079
-570,904	150,414	0,004	0,004
-569,890	182,207	-0,039	0,042
-568,875	-123,148	0,105	-0,012
-567,861	-31,573	-0,060	0,024
-566,846	-200,000	0,046	0,158
-565,831	169,983	0,022	0,023
-564,817	-200,000	0,010	-0,134
-563,802	800,000	-0,025	-0,065
-562,788	-88,972	-0,113	-0,024
-561,773	23,489	0,194	-0,115
-560,758	-53,200	-0,076	-0,025
-559,744	800,000	0,032	0,070
-558,729	800,000	-0,020	0,039
-557,715	21,858	0,067	-0,039
-556,700	271,545	-0,103	-0,131
-555,685	-200,000	-0,036	-0,142
-554,671	109,002	-0,009	0,008
-553,656	340,010	-0,015	0,021
-552,642	800,000	0,031	0,086
-551,627	137,130	0,037	0,035
-550,612	181,739	-0,023	-0,025
-549,598	-83,100	-0,061	0,014
-548,583	800,000	0,019	-0,053
-547,569	800,000	0,022	0,051
-546,554	-45,830	0,094	0,033
-545,539	-200,000	-0,002	0,155
-544,525	-100,633	-0,088	0,016
-543,510	89,438	-0,050	0,040
-542,496	289,437	0,037	0,049
-541,481	44,948	-0,072	0,047
-540,466	225,636	0,033	-0,039
-539,452	499,096	-0,063	0,105
-538,437	335,612	0,113	0,159
-537,423	374,151	0,026	-0,039
-536,408	-200,000	-0,017	-0,060
-535,393	-200,000	0,028	-0,165
-534,379	-46,702	0,064	0,023
-533,364	-63,393	0,124	0,036
-532,350	619,322	-0,072	0,131
-531,335	362,524	0,041	0,059
-530,321	183,174	-0,071	-0,076
-529,306	102,066	0,133	0,112
-528,291	41,894	-0,140	-0,092
-527,277	800,000	-0,042	0,089
-526,262	505,160	0,032	-0,053
-525,248	182,471	-0,072	0,076
-524,233	577,241	0,013	-0,023
-523,218	94,008	-0,029	0,024
-522,204	27,542	0,045	0,027
-521,189	13,159	-0,131	-0,073
-520,175	-200,000	0,023	-0,077
-519,160	19,662	-0,035	-0,020
-518,145	172,232	-0,083	-0,086
-517,131	-157,299	0,174	0,007
-516,116	597,148	0,044	0,079
-515,102	-200,000	0,007	0,051
-514,087	75,709	0,028	0,021
-513,072	800,000	-0,072	-0,147
-512,058	-62,333	0,113	-0,034
-511,043	371,310	-0,091	-0,134
-510,029	76,332	0,108	-0,082
-509,014	173,485	0,133	0,139
-507,999	68,036	-0,185	0,137
-506,985	800,000	-0,025	-0,054
-505,970	750,622	0,081	-0,158
-504,956	11,809	-0,065	-0,036
-503,941	17,238	-0,039	-0,022
-502,926	-46,791	0,071	-0,025
-501,912	62,747	0,079	0,057
-500,897	394,156	-0,043	0,065
-499,883	-200,000	-0,008	0,079
-498,868	15,508	0,112	-0,063
-497,853	800,000	-0,081	-0,244
-496,839	-29,369	-0,068	0,028
-495,824	-114,296	0,129	-0,018
-494,810	800,000	-0,019	0,044
-493,795	800,000	0,052	0,123
-492,781	-200,000	0,006	-0,062
-491,766	-200,000	0,011	-0,081
-490,751	800,000	-0,059	-0,155
-489,737	-120,371	-0,140	0,017
-488,722	297,996	0,069	0,092
-487,708	-112,473	-0,089	0,013
-486,693	435,772	-0,065	0,103
-485,678	800,000	0,046	-0,106
-484,664	-200,000	0,008	-0,036
-483,649	14,911	-0,037	0,021
-482,635	-200,000	0,004	-0,103
-481,620	-200,000	-0,022	0,076
-480,605	-90,481	-0,006	0,001
-479,591	-200,000	0,006	0,088
-478,576	-148,726	0,087	-0,005
-477,562	370,961	-0,065	-0,095
-476,547	800,000	0,034	-0,096
-475,532	54,036	0,117	0,081
-474,518	217,319	-0,085	0,098
-473,503	-182,355	0,054	-0,001
-472,489	-200,000	0,001	-0,057
-471,474	800,000	-0,050	0,141
-470,459	61,193	0,081	-0,058
-469,445	-30,185	-0,085	0,034
-468,430	43,465	0,095	-0,063
-467,416	800,000	0,034	-0,084
-466,401	800,000	-0,046	0,140
-465,386	800,000	-0,075	0,235
-464,372	-141,648	-0,024	0,002
-463,357	161,244	0,022	-0,023
-462,343	52,467	-0,048	0,033
-461,328	-102,392	-0,065	-0,011
-460,313	279,185	0,023	-0,029
-459,299	212,739	0,037	-0,042
-458,284	-89,998	0,121	0,025
-457,270	393,026	-0,040	0,060
-456,255	143,281	0,051	0,049
-455,241	-90,774	-0,095	0,019
-454,226	-72,477	-0,089	-0,024
-453,211	333,798	-0,013	0,018
-452,197	-98,703	0,167	0,030
-451,182	199,799	-0,018	0,020
-450,168	157,930	0,077	0,077
-449,153	-25,244	-0,045	0,019
-448,138	56,948	-0,052	0,036
-447,124	-200,000	-0,006	-0,176
-446,109	-88,606	-0,088	0,019
-445,095	36,422	-0,156	-0,099
-444,080	-200,000	0,035	0,153
-443,065	800,000	-0,023	0,048
-442,051	126,496	0,030	0,027
-441,036	-200,000	-0,004	-0,089
-440,022	800,000	0,029	0,075
-439,007	-76,693	0,045	-0,011
-437,992	156,544	-0,059	-0,058
-436,978	-200,000	-0,001	-0,023
-435,963	-188,756	-0,041	-0,000
-434,949	-85,687	-0,082	-0,018
-433,934	-200,000	-0,059	-0,218
-432,919	165,556	-0,070	-0,071
-431,905	-46,081	-0,053	-0,019
-430,890	85,947	0,044	0,035
-429,876	800,000	0,040	-0,085
-428,861	-200,000	0,015	-0,079
-427,846	-58,369	0,107	0,033
-426,832	219,844	0,071	-0,081
-425,817	800,000	0,024	-0,065
-424,803	6,042	-0,186	0,099
-423,788	-63,073	0,163	0,048
-422,773	296,597	-0,051	0,068
-421,759	296,782	0,096	0,127
-420,744	-43,111	0,065	-0,023
-419,730	382,212	-0,032	0,047
-418,715	632,710	-0,050	-0,091
-417,701	294,441	0,073	-0,096
-416,686	-200,000	-0,002	0,066
-415,671	8,197	0,110	0,059
-414,657	-101,780	0,108	-0,019
-413,642	125,401	-0,008	-0,007
-412,628	800,000	0,028	-0,066
-411,613	-72,386	-0,102	-0,027
-410,598	47,786	-0,028	0,018
-409,584	-146,686	0,157	0,010
-408,569	-200,000	-0,040	0,129
-407,555	137,268	-0,034	0,032
-406,540	11,199	0,091	-0,050
-405,525	-58,714	-0,165	0,051
-404,511	210,273	0,053	0,060
-403,496	3,954	-0,025	0,013
-402,482	-136,944	0,080	0,007
-401,467	144,818	0,101	-0,097
-400,452	800,000	-0,039	-0,105
-399,438	194,818	-0,077	-0,084
-398,423	617,171	0,038	0,068
-397,409	69,336	-0,085	-0,062
-396,394	-200,000	-0,042	-0,161
-395,379	168,911	0,011	-0,011
-394,365	-200,000	-0,006	0,121
-393,350	-51,449	0,096	-0,032
-392,336	121,751	0,023	-0,021
-391,321	384,888	-0,028	0,042
-390,306	-200,000	-0,006	-0,063
-389,292	113,953	0,032	0,028
-388,277	428,513	0,072	-0,112
-387,263	135,389	0,140	-0,130
-386,248	-125,013	-0,081	-0,009
-385,233	-37,480	0,095	-0,036
-384,219	-200,000	0,012	0,068
-383,204	-156,441	-0,127	0,006
-382,190	-156,534	0,078	0,003
-381,175	-11,483	-0,141	-0,066
-380,160	42,660	-0,117	-0,076
-379,146	-58,437	0,137	0,042
-378,131	-65,182	0,124	0,036
-377,117	-51,071	-0,080	0,027
-376,102	-33,063	-0,092	0,036
-375,088	-200,000	-0,029	-0,162
-374,073	-158,121	0,038	0,002
-373,058	326,095	-0,073	0,100
-372,044	800,000	0,029	0,065
-371,029	-200,000	0,001	0,033
-370,015	55,410	0,172	-0,119
-369,000	6,666	-0,147	0,078
-367,985	-200,000	-0,019	-0,172
-366,971	-200,000	-0,012	0,170
-365,956	800,000	-0,046	0,131
-364,942	-200,000	0,027	0,098
-363,927	-200,000	0,002	0,093
-362,912	12,064	0,115	-0,063
-361,898	-200,000	-0,006	0,149
-360,883	-200,000	0,017	0,076
-359,869	529,767	0,061	0,104
-358,854	481,966	-0,068	0,110
-357,839	-46,077	0,056	-0,020
-356,825	743,944	0,047	0,091
-355,810	16,326	-0,012	0,007
-354,796	463,924	0,037	-0,059
-353,781	197,882	-0,052	-0,057
-352,766	-83,028	-0,091	-0,021
-351,752	-35,892	0,016	-0,006
-350,737	-72,273	0,125	0,033
-349,723	-5,606	0,113	0,055
-348,708	-12,934	0,130	0,061
-347,693	-200,000	-0,006	0,111
-346,679	800,000	-0,014	-0,030
-345,664	159,845	0,093	-0,093
-344,650	166,883	0,097	0,098
-343,635	314,004	0,049	-0,066
-342,620	16,266	0,091	0,051
-341,606	8,467	0,059	0,032
-340,591	-200,000	-0,007	-0,172
-339,577	665,607	0,062	0,115
-338,562	-200,000	0,035	-0,165
-337,548	589,787	-0,077	-0,136
-336,533	135,770	-0,013	0,012
-335,518	160,807	0,114	0,114
-334,504	800,000	0,071	0,146
-333,489	-200,000	-0,007	-0,087
-332,475	-200,000	0,020	-0,111
-331,460	71,518	0,143	-0,106
-330,445	17,657	-0,155	-0,088
-329,431	10,968	-0,022	-0,012
-328,416	-200,000	0,006	0,065
-327,402	-200,000	-0,014	0,115
-326,387	-200,000	0,022	0,125
-325,372	180,950	-0,039	-0,041
-324,358	-200,000	-0,051	-0,194
-323,343	1,608	0,096	-0,050
-322,329	-200,000	-0,002	0,093
-321,314	193,795	0,136	0,148
-320,299	800,000	-0,017	0,038
-319,285	85,497	0,026	0,020
-318,270	81,500	0,136	-0,105
-317,256	480,477	0,042	0,068
-316,241	-156,781	-0,107	0,005
-315,226	-200,000	0,011	-0,150
-314,212	-149,769	0,051	-0,003
-313,197	800,000	0,021	-0,043
-312,183	664,027	0,084	-0,156
-311,168	679,443	-0,036	0,067
-310,153	800,000	-0,008	0,023
-309,139	800,000	0,011	-0,023
-308,124	-77,511	0,027	-0,007
-307,110	578,975	0,086	0,151
-306,095	-200,000	-0,036	0,187
-305,080	318,939	-0,038	-0,052
-304,066	8,858	-0,137	-0,074
-303,051	139,335	-0,061	0,057
-302,037	70,960	0,028	0,021
-301,022	-200,000	-0,001	0,043
-300,008	-11,712	0,067	-0,031
-298,993	-200,000	0,014	-0,046
-297,978	4,776	-0,070	0,036
-296,964	-200,000	0,012	-0,143
-295,949	-121,674	-0,085	0,010
-294,935	759,297	-0,055	-0,108
-293,920	800,000	0,058	-0,140
-292,905	238,970	-0,075	-0,089
-291,891	490,877	-0,009	0,015
-290,876	-155,253	0,129	-0,006
-289,862	-62,373	0,086	0,025
-288,847	288,451	0,166	-0,216
-287,832	398,995	0,054	-0,082
-286,818	225,244	-0,059	-0,069
-285,803	353,076	-0,018	-0,025
-284,789	295,035	-0,098	0,129
-283,774	-41,637	-0,021	-0,008
-282,759	-83,104	-0,071	-0,016
-281,745	-111,438	-0,050	-0,007
-280,730	252,611	-0,100	-0,122
-279,716	33,970	0,070	-0,043
-278,701	382,149	-0,089	0,131
-277,686	276,492	0,098	-0,125
-276,672	-200,000	0,001	0,092
-275,657	-118,683	0,055	-0,007
-274,643	-87,419	-0,174	-0,037
-273,628	442,013	0,023	0,036
-272,613	-86,643	-0,093	-0,020
-271,599	-200,000	-0,008	0,109
-270,584	-49,897	0,065	-0,022
-269,570	-200,000	0,006	-0,060
-268,555	2,609	-0,076	0,039
-267,540	800,000	-0,033	0,087
-266,526	-170,722	-0,182	-0,004
-265,511	235,144	-0,099	-0,117
-264,497	66,430	-0,015	-0,011
-263,482	285,710	-0,099	0,128
-262,467	-200,000	-0,011	0,068
-261,453	59,210	-0,124	0,087
-260,438	-141,433	0,030	0,002
-259,424	800,000	0,037	-0,088
-258,409	-142,130	-0,058	0,004
-257,395	800,000	-0,026	0,062
-256,380	49,670	0,049	0,033
-255,365	62,952	0,080	0,057
-254,351	-9,035	0,126	0,060
-253,336	-200,000	0,025	-0,085
-252,322	209,689	0,021	-0,023
-251,307	-200,000	-0,032	-0,139
-250,292	168,361	0,086	0,087
-249,278	390,843	-0,035	0,052
-248,263	-124,064	-0,019	0,002
-247,249	567,303	0,013	-0,022
-246,234	800,000	0,029	-0,063
-245,219	-96,872	-0,119	-0,022
-244,205	-200,000	0,024	0,120
-243,190	-57,557	0,049	0,015
-242,176	192,423	-0,043	-0,046
-241,161	545,465	0,038	0,065
-240,146	29,164	-0,078	0,047
-239,132	-101,795	-0,119	-0,020
-238,117	-200,000	0,011	-0,122
-237,103	120,467	-0,097	-0,086
-236,088	592,737	-0,056	-0,100
-235,073	-200,000	-0,013	0,104
-234,059	-200,000	-0,028	0,109
-233,044	-131,490	0,071	0,007
-232,030	-122,976	-0,044	-0,005
-231,015	11,045	-0,079	-0,043
-230,000	-84,997	-0,096	-0,021
-228,986	-200,000	-0,005	-0,045
-227,971	12,306	0,061	-0,034
-226,957	643,934	-0,013	0,024
-225,942	800,000	0,011	-0,033
-224,927	-117,084	-0,044	0,006
-223,913	146,103	-0,068	-0,065
-222,898	441,301	0,016	0,025
-221,884	-14,714	0,137	-0,063
-220,869	-90,368	-0,073	0,015
-219,855	-200,000	-0,014	0,093
-218,840	800,000	-0,041	-0,093
-217,825	-200,000	0,006	-0,112
-216,811	-131,998	-0,036	-0,003
-215,796	175,591	-0,050	-0,052
-214,782	6,650	-0,100	-0,053
-213,767	-22,122	0,121	-0,052
-212,752	-200,000	-0,034	0,136
-211,738	-57,139	0,142	0,044
-210,723	-200,000	0,030	0,098
-209,709	26,880	-0,082	-0,049
-208,694	800,000	-0,010	0,026
-207,679	331,072	0,085	-0,117
-206,665	-30,273	-0,072	0,029
-205,650	-77,315	0,095	-0,023
-204,636	-86,589	0,064	0,014
-203,621	97,552	0,043	0,035
-202,606	-22,958	-0,055	0,023
-201,592	107,757	0,051	0,043
-200,577	-62,177	-0,114	-0,034
-199,563	85,121	0,080	0,062
-198,548	-39,082	0,064	-0,024
-197,533	49,804	0,186	0,124
-196,519	4,494	0,075	0,039
-195,504	104,052	0,052	0,044
-194,490	242,069	-0,107	-0,127
-193,475	-200,000	0,046	-0,192
-192,460	239,199	0,021	0,025
-191,446	800,000	0,048	0,136
-190,431	773,286	-0,023	0,044
-189,417	108,652	0,044	-0,037
-188,402	-138,336	-0,185	0,014
-187,387	148,506	-0,015	0,014
-186,373	-39,409	0,037	0,014
-185,358	-132,025	-0,126	-0,012
-184,344	-200,000	-0,028	0,160
-183,329	-200,000	-0,019	0,110
-182,315	199,936	-0,046	-0,051
-181,300	-159,175	-0,133	-0,005
-180,285	-22,538	0,077	0,033
-179,271	-139,522	-0,008	0,001
-178,256	132,435	0,065	-0,059
-177,242	21,511	-0,107	0,061
-176,227	800,000	-0,011	-0,026
-175,212	800,000	-0,048	0,115
-174,198	-193,488	-0,086	0,001
-173,183	243,987	-0,042	-0,050
-172,169	16,688	-0,014	-0,008
-171,154	600,644	-0,052	-0,092
-170,139	324,685	-0,075	0,102
-169,125	142,973	-0,073	0,069
-168,110	331,238	0,022	-0,030
-167,096	-111,583	-0,031	-0,004
-166,081	83,867	0,099	0,077
-165,066	97,535	0,045	0,037
-164,052	-146,541	0,022	-0,001
-163,037	-200,000	0,014	-0,089
-162,023	800,000	0,034	0,087
-161,008	34,008	0,097	0,060
-159,993	-200,000	0,006	0,049
-158,979	800,000	0,028	0,071
-157,964	223,328	-0,061	-0,070
-156,950	-110,326	-0,127	-0,019
-155,935	800,000	-0,040	0,090
-154,920	-17,218	-0,082	0,037
-153,906	140,891	-0,045	0,043
-152,891	-200,000	-0,010	0,034
-151,877	-200,000	0,020	-0,158
-150,862	183,190	-0,029	-0,031
-149,847	6,782	-0,018	-0,010
-148,833	-105,891	0,111	0,018
-147,818	-162,544	0,089	-0,003
-146,804	251,315	-0,027	0,033
-145,789	-200,000	0,000	-0,173
-144,775	-200,000	0,004	-0,103
-143,760	-47,899	-0,170	-0,058
-142,745	348,562	-0,055	0,077
-141,731	-200,000	-0,004	-0,065
-140,716	163,797	0,054	0,054
-139,702	257,040	-0,099	-0,121
-138,687	-200,000	0,014	0,111
-137,672	-92,117	0,063	0,013
-136,658	800,000	-0,004	-0,010
-135,643	-200,000	-0,056	-0,196
-134,629	-200,000	-0,012	-0,063
-133,614	800,000	0,043	-0,091
-132,599	-200,000	0,024	-0,086
-131,585	168,475	0,069	0,070
-130,570	-9,741	-0,024	-0,011
-129,556	91,197	-0,141	-0,112
-128,541	-200,000	0,014	0,079
-127,526	-200,000	-0,008	-0,034
-126,512	483,010	0,009	-0,014
-125,497	58,879	-0,045	0,032
-124,483	-34,758	0,129	0,050
-123,468	383,101	0,093	0,136
-122,453	315,156	0,066	-0,089
-121,439	-60,543	-0,100	-0,030
-120,424	-200,000	-0,027	0,127
-119,410	419,250	-0,057	0,088
-118,395	123,783	-0,004	-0,004
-117,380	598,987	0,023	-0,040
-116,366	609,275	-0,093	-0,166
-115,351	193,755	-0,038	0,041
-114,337	447,656	-0,035	0,055
-113,322	-61,291	-0,026	0,008
-112,307	-200,000	0,009	-0,135
-111,293	-84,613	-0,066	0,015
-110,278	106,878	-0,061	0,051
-109,264	-115,778	-0,126	-0,017
-108,249	35,929	-0,060	-0,037
-107,234	-200,000	0,011	-0,120
-106,220	41,477	-0,070	0,045
-105,205	800,000	-0,037	-0,105
-104,191	335,715	0,025	0,035
-103,176	24,067	0,199	-0,116
-102,162	82,199	0,120	0,092
-101,147	-200,000	-0,017	0,103
-100,132	-143,264	-0,096	-0,006
-99,118	-18,187	-0,036	0,016
-98,103	333,231	0,064	0,087
-97,089	565,964	0,032	-0,055
-96,074	622,784	-0,055	-0,098
-95,059	800,000	0,030	-0,071
-94,045	70,862	-0,074	0,054
-93,030	72,803	0,060	0,044
-92,016	133,642	-0,054	0,050
-91,001	-123,000	0,096	-0,011
-89,986	-86,221	-0,102	0,022
-88,972	-72,602	0,192	-0,050
-87,957	800,000	-0,037	0,084
-86,943	110,881	0,047	-0,040
-85,928	19,376	-0,059	-0,034
-84,913	-36,235	-0,100	-0,038
-83,899	-150,756	0,101	-0,005
-82,884	-93,334	-0,046	-0,009
-81,870	684,969	-0,040	-0,074
-80,855	-200,000	0,025	0,094
-79,840	800,000	0,008	-0,023
-78,826	800,000	-0,010	0,025
-77,811	800,000	0,054	-0,163
-76,797	-143,891	-0,085	0,006
-75,782	800,000	0,019	-0,038
-74,767	525,300	-0,069	0,115
-73,753	800,000	-0,055	0,147
-72,738	-200,000	0,024	-0,141
-71,724	-114,540	-0,070	0,009
-70,709	-53,069	-0,057	-0,019
-69,694	-200,000	-0,025	-0,160
-68,680	-115,428	-0,107	-0,014
-67,665	800,000	0,029	-0,058
-66,651	-200,000	0,002	-0,078
-65,636	15,686	-0,040	-0,022
-64,622	16,531	-0,016	0,009
-63,607	277,761	0,057	-0,072
-62,592	-200,000	-0,004	-0,090
-61,578	-10,239	-0,103	-0,048
-60,563	327,893	-0,033	0,045
-59,549	-200,000	0,027	0,200
-58,534	-0,348	-1,783	-0,894
-57,519	466,009	-1,293	-2,057
-56,505	-200,000	-0,608	-4,766
-55,490	174,703	0,993	1,018
-54,476	800,000	4,986	11,170
-53,461	-200,000	19,511	324,037
-52,446	-200,000	744,154	2334,803
-51,432	568,704	1657,229	2862,239
-50,417	77,576	1671,426	1258,290
-49,403	20,955	1544,629	884,093
-48,388	14,870	1467,148	810,131
-47,373	18,100	1457,220	820,234
-46,359	16,612	1447,013	807,320
-45,344	13,149	1442,497	788,171
-44,330	13,020	1440,741	786,563
-43,315	13,092	1438,881	785,859
-42,300	13,100	1437,169	784,932
-41,286	13,096	1435,941	784,211
-40,271	13,053	1434,571	783,228
-39,257	13,036	1433,286	782,415
-38,242	13,116	1432,053	782,088
-37,227	13,105	1430,864	781,359
-36,213	13,108	1429,413	780,549
-35,198	13,100	1428,429	779,940
-34,184	13,152	1427,461	779,631
-33,169	13,072	1426,041	778,442
-32,154	13,165	1424,649	778,095
-31,140	13,116	1423,739	777,335
-30,125	13,142	1422,548	776,776
-29,111	13,127	1421,434	776,065
-28,096	13,086	1420,403	775,278
-27,082	13,080	1419,227	774,576
-26,067	13,041	1418,044	773,717
-25,052	13,031	1416,995	773,067
-24,038	13,015	1416,233	772,544
-23,023	13,041	1415,019	771,972
-22,009	13,021	1413,992	771,291
-20,994	13,050	1412,938	770,821
-19,979	13,057	1412,074	770,352
-18,965	13,019	1411,249	769,693
-17,950	12,986	1410,494	769,093
-16,936	12,990	1409,400	768,487
-15,921	12,985	1408,156	767,756
-14,906	12,975	1407,624	767,388
-13,892	12,997	1406,698	766,955
-12,877	12,972	1405,611	766,214
-11,863	12,953	1404,749	765,624
-10,848	12,973	1403,567	765,043
-9,833	12,925	1402,939	764,449
-8,819	12,898	1402,205	763,894
-7,804	12,871	1401,226	763,202
-6,790	12,895	1400,129	762,686
-5,775	12,895	1399,016	762,048
-4,760	12,860	1398,189	761,408
-3,746	12,867	1397,256	760,901
-2,731	12,892	1396,407	760,526
-1,717	12,808	1395,737	759,741
-0,702	12,798	1393,792	758,605
0,313	16,798	1309,604	731,261
1,327	33,237	702,043	429,909
2,342	51,085	122,925	82,331
3,356	-0,426	16,543	8,284
4,371	2,709	3,124	1,597
5,386	-12,892	0,596	0,273
6,400	-200,000	-0,076	0,250
7,415	-9,694	-0,204	-0,096
8,429	30,672	-0,298	-0,180
9,444	-41,822	-0,451	-0,163
10,459	-60,767	-0,320	-0,095
11,473	76,232	-0,236	-0,176
12,488	71,263	-0,211	-0,154
13,502	71,788	-0,307	-0,225
14,517	-19,225	-0,307	-0,134
15,531	3,705	-0,392	-0,202
16,546	100,424	-0,341	-0,280
17,561	101,610	-0,313	-0,257
18,575	-99,213	-0,089	-0,016
19,590	32,142	-0,274	-0,166
20,604	-137,982	-0,231	-0,018
21,619	63,669	-0,451	-0,319
22,634	59,679	-0,447	-0,311
23,648	-27,150	-0,563	-0,231
24,663	138,813	-0,396	-0,368
25,677	148,401	-0,300	-0,286
26,692	173,459	-0,360	-0,367
27,707	233,008	-0,364	-0,424
28,721	-4,096	-0,432	-0,211
29,736	39,239	-0,481	-0,303
30,750	40,208	-0,390	-0,247
31,765	106,011	-0,371	-0,310
32,780	310,076	-0,206	-0,272
33,794	189,348	-0,360	-0,381
34,809	47,998	-0,389	-0,256
35,823	74,160	-0,458	-0,339
36,838	230,290	-0,204	-0,236
37,853	199,961	-0,342	-0,371
38,867	31,175	-0,442	-0,267
39,882	153,456	-0,324	-0,313
40,896	118,294	-0,342	-0,297
41,911	41,572	-0,369	-0,235
42,926	36,532	-0,323	-0,200
43,940	-48,412	-0,405	-0,137
44,955	141,709	-0,369	-0,344
45,969	44,732	-0,430	-0,278
46,984	-134,007	-0,396	-0,034
47,999	34,269	-0,322	-0,197
49,013	-11,078	-0,258	-0,119
50,028	-136,322	-0,401	-0,032
51,042	90,132	-0,448	-0,352
52,057	71,317	-0,312	-0,228
53,071	17,321	-0,449	-0,250
54,086	-8,587	-0,358	-0,169
55,101	193,100	-0,222	-0,236
56,115	52,086	-0,286	-0,192
57,130	-27,465	-0,195	-0,080
58,144	2,820	-0,374	-0,190
59,159	102,447	-0,368	-0,303
60,174	-0,850	-0,376	-0,187
61,188	109,559	-0,354	-0,299
62,203	158,303	-0,287	-0,280
63,217	44,327	-0,415	-0,267
64,232	22,767	-0,326	-0,187
65,247	20,663	-0,404	-0,229
66,261	114,039	-0,297	-0,254
67,276	76,592	-0,343	-0,256
68,290	34,643	-0,226	-0,139
69,305	-30,720	-0,325	-0,129
70,320	140,847	-0,238	-0,222
71,334	175,811	-0,241	-0,246
72,349	63,468	-0,314	-0,221
73,363	-40,921	-0,326	-0,118
74,378	-15,675	-0,338	-0,151
75,393	3,870	-0,368	-0,188
76,407	-39,743	-0,149	-0,055
77,422	151,727	-0,187	-0,180
78,436	106,459	-0,313	-0,261
79,451	-70,169	-0,318	-0,084
80,466	97,758	-0,313	-0,253
81,480	91,431	-0,281	-0,222
82,495	105,025	-0,325	-0,269
83,509	15,129	-0,273	-0,150
84,524	5,148	-0,281	-0,145
85,539	17,258	-0,304	-0,169
86,553	-46,444	-0,287	-0,098
87,568	177,870	-0,282	-0,289
88,582	4,095	-0,320	-0,164
89,597	120,464	-0,324	-0,282
90,611	-7,854	-0,247	-0,117
91,626	-45,025	-0,257	-0,089
92,641	218,141	-0,243	-0,272
93,655	87,129	-0,352	-0,273
94,670	364,276	-0,176	-0,250
95,684	270,323	-0,277	-0,342
96,699	642,284	-0,175	-0,314
97,714	35,476	-0,272	-0,167
98,728	-13,657	-0,362	-0,164
99,743	56,634	-0,228	-0,155
100,757	-31,123	-0,363	-0,143
101,772	-27,839	-0,311	-0,126
102,787	20,774	-0,302	-0,171
103,801	65,172	-0,369	-0,261
104,816	36,090	-0,336	-0,207
105,830	-18,210	-0,274	-0,119
106,845	-24,063	-0,267	-0,111
107,860	81,976	-0,268	-0,203
108,874	71,104	-0,238	-0,173
109,889	31,533	-0,448	-0,269
110,903	69,953	-0,189	-0,136
111,918	-36,070	-0,351	-0,132
112,933	239,984	-0,222	-0,259
113,947	8,131	-0,300	-0,157
114,962	-55,371	-0,357	-0,112
115,976	-59,426	-0,338	-0,101
116,991	45,570	-0,252	-0,163
118,006	800,000	-0,149	-0,391
119,020	115,370	-0,383	-0,328
120,035	108,483	-0,244	-0,204
121,049	-148,142	-0,355	0,020
122,064	126,408	-0,290	-0,257
123,079	-114,782	-0,277	-0,037
124,093	23,538	-0,233	-0,134
125,108	263,582	-0,226	-0,275
126,122	224,078	-0,177	-0,201
127,137	-123,225	-0,250	0,028
128,151	237,900	-0,219	-0,255
129,166	-180,454	-0,217	0,003
130,181	420,530	-0,202	-0,304
131,195	93,693	-0,332	-0,263
132,210	100,984	-0,254	-0,207
133,224	29,426	-0,145	-0,086
134,239	41,308	-0,153	-0,096
135,254	-101,981	-0,274	-0,046
136,268	51,503	-0,256	-0,170
137,283	3,796	-0,262	-0,133
138,297	-65,427	-0,291	-0,081
139,312	800,000	-0,108	-0,212
140,327	93,412	-0,285	-0,226
141,341	99,018	-0,230	-0,186
142,356	33,374	-0,276	-0,167
143,370	91,528	-0,195	-0,153
144,385	21,601	-0,241	-0,137
145,400	328,512	-0,168	-0,226
146,414	147,204	-0,333	-0,314
147,429	-108,733	-0,205	-0,030
148,443	662,795	-0,120	-0,216
149,458	-54,195	-0,294	-0,093
150,473	148,761	-0,199	-0,188
151,487	84,956	-0,310	-0,237
152,502	-15,489	-0,222	-0,098
153,516	800,000	-0,099	-0,236
154,531	-29,020	-0,247	-0,099
155,546	2,388	-0,277	-0,139
156,560	154,218	-0,189	-0,181
157,575	10,843	-0,261	-0,139
158,589	28,856	-0,342	-0,202
159,604	19,405	-0,222	-0,124
160,619	21,779	-0,236	-0,134
161,633	28,156	-0,254	-0,149
162,648	61,734	-0,334	-0,232
163,662	-200,000	-0,032	-0,124
164,677	-10,810	-0,144	-0,066
165,692	41,982	-0,151	-0,095
166,706	734,711	-0,109	-0,204
167,721	228,792	-0,185	-0,211
168,735	-6,147	-0,216	-0,102
169,750	-86,544	-0,290	-0,061
170,764	-200,000	-0,052	-0,162
171,779	46,114	-0,177	-0,114
172,794	18,130	-0,255	-0,141
173,808	55,611	-0,178	-0,120
174,823	141,001	-0,217	-0,200
175,837	-71,960	-0,158	-0,041
176,852	375,167	-0,147	-0,210
177,867	103,943	-0,194	-0,158
178,881	107,164	-0,324	-0,268
179,896	63,341	-0,297	-0,207
180,910	174,608	-0,176	-0,177
181,925	-25,493	-0,155	0,064
182,940	88,812	-0,255	-0,198
183,954	113,462	-0,253	-0,214
184,969	131,659	-0,158	-0,141
185,983	-81,578	-0,252	-0,057
186,998	377,181	-0,114	-0,163
188,013	-20,068	-0,260	-0,111
189,027	76,606	-0,280	-0,207
190,042	282,905	-0,183	-0,229
191,056	228,183	-0,123	-0,140
192,071	-18,537	-0,270	-0,117
193,086	15,690	-0,199	-0,109
194,100	-20,551	-0,254	-0,108
195,115	19,364	-0,212	-0,118
196,129	129,950	-0,134	-0,119
197,144	800,000	-0,134	-0,398
198,159	22,665	-0,217	-0,123
199,173	800,000	-0,126	-0,249
200,188	3,713	-0,208	-0,105
201,202	94,278	-0,140	-0,111
202,217	-121,083	-0,221	-0,025
203,232	337,983	-0,211	-0,286
204,246	713,931	-0,169	-0,312
205,261	133,840	-0,293	-0,264
206,275	350,848	-0,180	-0,248
207,290	141,761	-0,242	-0,223
208,304	83,881	-0,262	-0,198
209,319	318,368	-0,213	-0,280
210,334	-3,632	-0,247	-0,119
211,348	-117,512	-0,207	-0,026
212,363	-34,229	-0,201	-0,076
213,377	357,771	-0,132	-0,183
214,392	444,733	-0,069	-0,106
215,407	229,415	-0,170	-0,193
216,421	148,876	-0,229	-0,215
217,436	7,072	-0,194	-0,100
218,450	72,615	-0,225	-0,162
219,465	-88,203	-0,297	-0,061
220,480	364,093	-0,153	-0,214
221,494	76,798	-0,154	-0,113
222,509	199,418	-0,054	-0,057
223,523	37,067	-0,226	-0,139
224,538	-74,852	-0,231	-0,057
225,553	96,926	-0,164	-0,130
226,567	-134,624	-0,314	-0,026
227,582	632,527	-0,126	-0,223
228,596	800,000	-0,086	-0,229
229,611	394,639	-0,112	-0,163
230,626	39,413	-0,250	-0,155
231,640	5,163	-0,149	-0,076
232,655	359,670	-0,097	-0,135
233,669	83,467	-0,242	-0,183
234,684	321,245	-0,203	-0,269
235,699	7,571	-0,231	-0,119
236,713	77,117	-0,095	-0,070
237,728	225,006	-0,177	-0,199
238,742	-130,406	-0,149	-0,014
239,757	240,296	-0,123	-0,142
240,772	88,983	-0,231	-0,178
241,786	47,557	-0,146	-0,094
242,801	-26,610	-0,299	-0,121
243,815	800,000	-0,057	-0,130
244,830	-153,779	-0,214	0,010
245,844	118,712	-0,165	-0,141
246,859	-9,881	-0,266	-0,122
247,874	607,558	-0,109	-0,188
248,888	-1,295	-0,162	-0,079
249,903	243,331	-0,153	-0,177
250,917	800,000	-0,107	-0,265
251,932	469,544	0,070	-0,110
252,947	-49,786	-0,167	-0,054
253,961	249,846	-0,229	-0,269
254,976	402,079	-0,106	-0,154
255,990	129,493	-0,128	-0,113
257,005	316,007	-0,198	-0,259
258,020	42,648	-0,207	-0,130
259,034	800,000	-0,060	-0,135
260,049	-200,000	-0,117	-0,375
261,063	-128,043	-0,132	-0,013
262,078	-53,975	-0,276	-0,086
263,093	158,987	-0,172	-0,166
264,107	103,245	-0,214	-0,173
265,122	-1,265	-0,264	-0,129
266,136	66,200	-0,117	-0,082
267,151	16,287	-0,225	-0,122
268,166	-98,175	-0,121	-0,021
269,180	-200,000	-0,016	-0,150
270,195	76,859	-0,162	-0,119
271,209	800,000	-0,107	-0,277
272,224	23,984	-0,181	-0,103
273,239	72,893	-0,071	-0,051
274,253	-200,000	-0,093	-0,313
275,268	47,272	-0,190	-0,122
276,282	382,267	-0,171	-0,244
277,297	-185,533	-0,184	0,002
278,312	248,115	-0,098	-0,115
279,326	-58,292	-0,266	-0,079
280,341	205,396	-0,114	-0,123
281,355	-27,255	-0,112	-0,045
282,370	-85,347	-0,173	-0,037
283,384	19,032	-0,197	-0,109
284,399	31,808	-0,223	-0,132
285,414	95,939	-0,134	-0,105
286,428	232,537	-0,068	-0,078
287,443	7,093	-0,216	-0,111
288,457	-50,669	-0,133	-0,043
289,472	-83,893	-0,178	-0,039
290,487	800,000	-0,077	-0,187
291,501	-200,000	-0,029	-0,195
292,516	67,060	-0,227	-0,159
293,530	13,300	-0,144	0,077
294,545	-200,000	-0,035	-0,133
295,560	47,655	-0,119	-0,077
296,574	-189,465	-0,128	-0,001
297,589	152,859	-0,200	-0,189
298,603	12,714	-0,240	-0,127
299,618	-200,000	-0,065	-0,220
300,633	-81,731	-0,252	-0,056
301,647	619,393	-0,060	-0,104
302,662	356,792	-0,082	-0,113
303,676	21,911	-0,078	-0,043
304,691	800,000	-0,077	-0,225
305,706	49,596	-0,232	-0,150
306,720	-3,694	-0,073	0,035
307,735	242,080	-0,132	-0,152
308,749	-200,000	-0,011	-0,066
309,764	200,919	-0,114	-0,121
310,779	52,687	-0,201	-0,132
311,793	-31,182	-0,194	-0,075
312,808	-45,866	-0,212	-0,072
313,822	180,638	-0,162	-0,164
314,837	-114,250	-0,069	-0,009
315,852	-60,850	-0,179	-0,052
316,866	-2,249	-0,163	-0,079
317,881	21,404	-0,207	-0,115
318,895	257,643	-0,103	-0,122
319,910	230,956	-0,194	-0,218
320,925	-45,895	-0,236	-0,080
321,939	71,719	-0,180	-0,128
322,954	-118,699	-0,154	-0,018
323,968	11,467	-0,077	-0,040
324,983	45,010	-0,064	-0,040
325,997	-176,476	-0,246	-0,004
327,012	165,947	-0,200	-0,195
328,027	-30,926	-0,147	-0,057
329,041	-93,986	-0,305	-0,057
330,056	-20,780	-0,213	-0,089
331,070	141,393	-0,070	-0,063
332,085	23,766	-0,195	0,110
333,100	250,584	-0,083	-0,097
334,114	94,591	-0,249	-0,194
335,129	-90,907	-0,118	-0,023
336,143	58,410	-0,150	-0,101
337,158	35,078	-0,141	-0,085
338,173	51,751	-0,120	-0,078
339,187	-89,897	-0,232	-0,046
340,202	800,000	-0,034	-0,095
341,216	0,667	-0,248	-0,121
342,231	94,806	-0,237	-0,185
343,246	372,630	-0,146	-0,204
344,260	94,992	-0,138	-0,108
345,275	-36,832	-0,150	-0,055
346,289	-200,000	0,023	-0,208
347,304	79,907	-0,152	-0,112
348,319	671,385	-0,093	-0,167
349,333	222,457	-0,235	-0,259
350,348	188,250	-0,250	-0,256
351,362	39,530	-0,190	-0,117
352,377	423,639	-0,070	-0,103
353,392	-42,512	-0,231	-0,080
354,406	-88,954	-0,153	-0,031
355,421	208,443	1314,148	1411,089
356,435	160,385	1474,798	1411,569
