DTS Sentinel unit serial number:	SN410029Multiplexer serial number:	ORYXHardware model number:	OX2-SRSoftware version number:	ORYX F/W v4,00 Oryx Data Collector v3.7.2.0data status	okinstallation	B3 Nyhavnadifferential loss correction	single-endedforward channel	channel 1reverse channel	N/Adate	2023/12/02time	14:07:30forward acquisition time	300,00reverse acquisition time	0,00gamma	499,1914k internal	0,3198k external	0,3198temperature offset calibration	1,0000default loss term (dB/km)	0,3820temperature slope calibration	1,0000multiplexer offset coefficient	1,0000multiplexer slope coefficient	1,0000fibre end	0,00T internal ref (°C)	14,82T ext. ref 1 (°C)	0,31T ext. ref 2 (°C)	0,31length (m)	temperature (°C)	Stokes	anti-Stokes-744,400	171,729	-0,251	-0,263
-743,385	-200,000	0,056	0,246
-742,371	-97,457	-0,205	-0,038
-741,356	-200,000	-0,019	0,366
-740,342	481,166	-0,079	-0,131
-739,327	-200,000	0,061	0,280
-738,312	56,941	-0,141	-0,100
-737,298	-200,000	-0,051	0,373
-736,283	173,260	-0,260	-0,274
-735,269	-200,000	-0,037	0,342
-734,254	94,938	-0,243	-0,201
-733,239	67,232	-0,086	0,063
-732,225	202,339	-0,162	-0,182
-731,210	-200,000	-0,012	0,228
-730,196	120,670	0,047	-0,043
-729,181	40,593	-0,008	-0,006
-728,167	-108,701	0,055	-0,009
-727,152	-200,000	0,019	0,190
-726,137	361,380	-0,114	-0,167
-725,123	-47,850	0,105	-0,037
-724,108	-200,000	0,008	-0,133
-723,094	-16,772	-0,162	0,074
-722,079	163,161	-0,078	-0,080
-721,064	772,730	-0,023	0,045
-720,050	-92,769	-0,019	0,004
-719,035	239,511	0,052	-0,063
-718,021	-200,000	0,024	-0,183
-717,006	800,000	-0,066	-0,139
-715,991	62,986	-0,119	-0,086
-714,977	-200,000	-0,004	-0,054
-713,962	37,088	-0,064	0,041
-712,948	-119,545	0,105	0,013
-711,933	84,148	-0,070	-0,055
-710,918	90,432	0,086	-0,070
-709,904	464,287	-0,091	-0,149
-708,889	-61,090	0,080	-0,024
-707,875	142,245	-0,029	-0,028
-706,860	-29,918	0,011	0,004
-705,845	-200,000	0,024	0,082
-704,831	461,196	-0,080	-0,131
-703,816	46,047	0,179	-0,120
-702,802	-124,944	0,084	-0,009
-701,787	141,128	-0,032	-0,031
-700,772	800,000	0,016	-0,040
-699,758	800,000	-0,052	-0,134
-698,743	-200,000	-0,013	0,118
-697,729	-200,000	0,008	0,076
-696,714	-59,432	-0,147	-0,046
-695,699	800,000	0,025	0,070
-694,685	-200,000	0,013	-0,071
-693,670	137,836	-0,134	-0,128
-692,656	-120,825	-0,131	-0,016
-691,641	107,221	0,014	0,012
-690,627	-200,000	0,024	0,138
-689,612	722,857	-0,038	0,075
-688,597	-200,000	-0,065	-0,000
-687,583	-132,428	-0,089	-0,008
-686,568	800,000	0,008	-0,023
-685,554	23,207	0,097	0,058
-684,539	12,386	-0,159	0,089
-683,524	266,537	0,047	-0,060
-682,510	-200,000	-0,005	-0,020
-681,495	800,000	-0,028	0,056
-680,481	-200,000	-0,008	0,075
-679,466	-200,000	0,011	0,058
-678,451	-200,000	0,006	-0,037
-677,437	-32,821	0,119	-0,048
-676,422	-14,264	-0,155	-0,072
-675,408	120,196	-0,074	-0,066
-674,393	181,251	-0,091	0,097
-673,378	98,952	-0,084	-0,070
-672,364	104,756	-0,093	-0,079
-671,349	569,362	0,033	0,059
-670,335	-200,000	-0,036	0,142
-669,320	-200,000	0,002	0,046
-668,305	-125,362	-0,071	0,008
-667,291	254,934	-0,084	0,104
-666,276	-100,179	-0,154	-0,027
-665,262	-101,192	-0,157	0,028
-664,247	-200,000	-0,033	-0,132
-663,232	800,000	-0,033	-0,083
-662,218	-0,587	0,088	0,045
-661,203	-118,242	-0,114	0,015
-660,189	-54,052	0,165	-0,054
-659,174	48,801	-0,155	0,105
-658,159	-88,635	0,041	-0,009
-657,145	-1,873	-0,127	-0,065
-656,130	249,504	-0,075	-0,093
-655,116	-200,000	0,018	0,114
-654,101	-200,000	0,018	0,163
-653,086	197,452	0,092	0,102
-652,072	-200,000	-0,017	-0,109
-651,057	-1,867	-0,166	-0,084
-650,043	107,930	-0,042	-0,037
-649,028	191,620	0,046	0,051
-648,014	-127,742	0,122	0,013
-646,999	-200,000	-0,036	-0,140
-645,984	536,055	-0,082	0,142
-644,970	320,811	-0,048	0,066
-643,955	-200,000	-0,022	-0,096
-642,941	-28,660	-0,134	-0,056
-641,926	800,000	-0,023	-0,051
-640,911	800,000	-0,030	0,071
-639,897	-42,895	0,135	-0,050
-638,882	-200,000	-0,027	-0,135
-637,868	-88,450	-0,109	-0,023
-636,853	383,904	-0,026	0,038
-635,838	800,000	0,050	-0,130
-634,824	800,000	-0,050	-0,114
-633,809	-200,000	0,008	0,032
-632,795	-200,000	-0,014	0,125
-631,780	179,195	-0,014	-0,015
-630,765	-24,781	0,118	-0,051
-629,751	111,399	0,029	0,025
-628,736	320,060	-0,019	0,027
-627,722	109,139	-0,064	-0,056
-626,707	528,197	0,057	-0,097
-625,692	-200,000	-0,010	0,069
-624,678	186,403	0,084	0,091
-623,663	-166,653	-0,083	0,002
-622,649	19,833	0,125	-0,073
-621,634	17,695	-0,034	0,020
-620,619	-200,000	0,002	-0,079
-619,605	-200,000	-0,006	0,052
-618,590	-34,174	0,086	-0,034
-617,576	-78,998	-0,036	0,009
-616,561	800,000	-0,008	0,023
-615,546	-200,000	-0,009	0,062
-614,532	200,361	-0,171	-0,191
-613,517	-200,000	0,027	-0,122
-612,503	-200,000	-0,038	-0,134
-611,488	-200,000	0,003	0,089
-610,474	-108,938	0,054	-0,008
-609,459	150,731	-0,043	0,042
-608,444	-112,079	-0,103	0,015
-607,430	-200,000	0,022	0,071
-606,415	557,763	-0,026	-0,046
-605,401	366,739	-0,025	-0,036
-604,386	220,896	0,076	0,088
-603,371	-87,244	-0,109	0,024
-602,357	-85,859	0,086	0,019
-601,342	73,952	-0,089	-0,067
-600,328	80,673	-0,052	-0,040
-599,313	166,409	0,041	0,042
-598,298	800,000	-0,018	0,050
-597,284	212,201	-0,122	0,139
-596,269	-101,808	0,261	-0,045
-595,255	-89,321	-0,033	-0,007
-594,240	148,098	-0,044	-0,043
-593,225	60,740	-0,074	-0,053
-592,211	28,081	0,044	0,027
-591,196	27,230	0,089	-0,054
-590,182	-200,000	-0,004	0,045
-589,167	-200,000	0,014	0,122
-588,152	-29,749	-0,093	0,038
-587,138	800,000	-0,058	-0,126
-586,123	-22,117	-0,068	-0,030
-585,109	180,037	-0,084	0,089
-584,094	-62,767	-0,068	-0,020
-583,079	-102,972	0,044	0,007
-582,065	-170,024	0,108	0,003
-581,050	57,486	0,046	-0,033
-580,036	211,035	-0,026	-0,030
-579,021	191,117	-0,049	-0,053
-578,006	86,229	-0,034	0,027
-576,992	209,785	-0,092	-0,104
-575,977	-200,000	0,006	0,098
-574,963	-200,000	-0,122	0,000
-573,948	595,779	-0,052	-0,093
-572,934	111,446	-0,005	0,004
-571,919	475,607	0,062	-0,101
-570,904	-200,000	-0,002	0,105
-569,890	-104,428	0,110	0,018
-568,875	800,000	-0,042	-0,131
-567,861	184,091	0,120	0,128
-566,846	-200,000	0,029	0,131
-565,831	122,368	-0,031	-0,028
-564,817	109,950	-0,089	0,077
-563,802	101,546	-0,067	-0,056
-562,788	-154,244	-0,060	0,003
-561,773	715,097	0,094	0,182
-560,758	65,377	0,036	0,026
-559,744	67,368	0,055	0,041
-558,729	25,122	-0,057	-0,034
-557,715	59,204	-0,080	-0,057
-556,700	-167,987	0,103	-0,003
-555,685	-200,000	0,002	-0,081
-554,671	-151,335	-0,058	0,003
-553,656	404,427	-0,052	-0,079
-552,642	-179,962	0,069	0,001
-551,627	-200,000	-0,002	0,076
-550,612	-36,055	0,049	0,019
-549,598	-200,000	-0,016	-0,114
-548,583	383,120	0,021	-0,032
-547,569	-200,000	0,012	-0,088
-546,554	105,016	0,116	0,099
-545,539	-28,702	0,129	0,053
-544,525	-62,795	-0,011	0,003
-543,510	-18,814	0,019	0,009
-542,496	200,593	-0,097	-0,108
-541,481	97,549	-0,114	-0,095
-540,466	-200,000	0,003	0,040
-539,452	133,575	0,023	0,021
-538,437	800,000	0,019	-0,038
-537,423	28,887	0,130	-0,079
-536,408	-200,000	0,006	-0,020
-535,393	26,106	-0,045	-0,027
-534,379	800,000	-0,021	-0,058
-533,364	-200,000	-0,009	0,072
-532,350	-31,800	0,124	-0,050
-531,335	44,503	0,076	0,051
-530,321	-200,000	0,013	0,043
-529,306	-200,000	-0,002	-0,027
-528,291	-176,886	-0,075	-0,001
-527,277	-13,147	-0,116	0,054
-526,262	-115,096	0,088	0,012
-525,248	-149,164	-0,152	0,009
-524,233	-133,089	0,076	0,007
-523,218	800,000	-0,042	0,114
-522,204	-11,869	-0,098	0,046
-521,189	-200,000	-0,003	-0,015
-520,175	-22,757	-0,106	0,046
-519,160	240,567	-0,065	0,078
-518,145	-200,000	-0,019	-0,070
-517,131	25,197	0,050	0,030
-516,116	-162,582	0,073	0,003
-515,102	285,887	-0,089	0,116
-514,087	-44,414	-0,108	-0,039
-513,072	-79,270	0,241	-0,059
-512,058	4,957	-0,036	0,019
-511,043	-16,728	0,016	0,007
-510,029	-200,000	-0,008	0,037
-509,014	442,241	0,034	0,054
-507,999	258,442	-0,065	-0,082
-506,985	-108,422	-0,045	-0,007
-505,970	121,799	-0,093	0,083
-504,956	-125,313	-0,192	0,021
-503,941	202,131	0,061	-0,067
-502,926	54,190	0,103	0,072
-501,912	139,230	-0,034	0,032
-500,897	597,742	0,022	0,039
-499,883	-101,433	-0,032	0,006
-498,868	-200,000	0,008	0,062
-497,853	28,755	0,078	-0,047
-496,839	25,819	-0,079	0,048
-495,824	154,991	0,012	0,012
-494,810	-93,925	0,123	0,024
-493,795	674,181	-0,055	0,104
-492,781	800,000	0,022	0,048
-491,766	422,512	0,069	-0,108
-490,751	-122,578	-0,056	0,006
-489,737	-143,251	0,045	-0,003
-488,722	-200,000	-0,001	-0,023
-487,708	15,215	0,051	0,029
-486,693	800,000	0,046	-0,142
-485,678	-200,000	-0,008	-0,053
-484,664	-68,111	-0,174	-0,049
-483,649	-200,000	-0,018	-0,068
-482,635	195,325	-0,088	-0,097
-481,620	-200,000	-0,026	0,095
-480,605	165,129	0,025	0,025
-479,591	-200,000	-0,008	0,097
-478,576	156,114	0,059	-0,058
-477,562	-200,000	-0,011	0,096
-476,547	-200,000	-0,021	-0,218
-475,532	83,615	-0,115	-0,090
-474,518	149,232	-0,036	0,035
-473,503	7,442	-0,109	0,059
-472,489	-142,019	-0,043	0,003
-471,474	83,872	-0,055	0,043
-470,459	279,619	-0,034	0,044
-469,445	-200,000	-0,008	-0,049
-468,430	-200,000	-0,017	-0,104
-467,416	54,885	-0,057	0,039
-466,401	295,039	0,011	-0,015
-465,386	56,339	0,115	0,080
-464,372	-200,000	0,011	-0,049
-463,357	59,956	0,045	0,032
-462,343	21,459	-0,125	0,073
-461,328	-179,897	-0,105	0,002
-460,313	464,265	0,106	0,172
-459,299	-200,000	0,034	0,122
-458,284	800,000	-0,083	0,188
-457,270	-113,174	-0,033	0,005
-456,255	-5,697	0,192	0,094
-455,241	-200,000	-0,002	-0,188
-454,226	-96,751	0,047	0,009
-453,211	-21,560	-0,090	-0,039
-452,197	-200,000	-0,009	-0,081
-451,182	-200,000	-0,014	-0,068
-450,168	-143,171	-0,103	0,007
-449,153	-81,525	0,083	-0,020
-448,138	800,000	0,015	-0,038
-447,124	224,793	0,112	-0,130
-446,109	-7,623	-0,023	-0,011
-445,095	-85,505	0,081	-0,018
-444,080	-141,719	0,211	0,015
-443,065	389,259	0,053	-0,080
-442,051	345,127	0,073	-0,103
-441,036	381,292	-0,035	-0,051
-440,022	79,742	-0,026	-0,020
-439,007	-17,159	-0,114	0,051
-437,992	-200,000	0,028	-0,089
-436,978	331,248	0,031	0,043
-435,963	-200,000	-0,011	0,122
-434,949	-200,000	-0,002	-0,101
-433,934	191,555	-0,129	-0,140
-432,919	440,317	-0,007	-0,011
-431,905	800,000	0,018	-0,038
-430,890	137,190	-0,099	-0,093
-429,876	502,163	-0,046	0,077
-428,861	192,568	-0,099	0,108
-427,846	-105,998	0,055	-0,009
-426,832	44,575	-0,078	-0,052
-425,817	-107,851	-0,149	-0,023
-424,803	-200,000	-0,004	-0,119
-423,788	110,735	0,042	-0,036
-422,773	-104,324	0,087	0,014
-421,759	800,000	0,027	-0,071
-420,744	-108,664	-0,046	-0,007
-419,730	-40,777	-0,098	-0,036
-418,715	800,000	-0,042	-0,085
-417,701	759,270	-0,072	-0,140
-416,686	72,836	0,149	-0,112
-415,671	-200,000	0,006	-0,028
-414,657	-74,903	0,038	-0,010
-413,642	-35,428	-0,091	0,035
-412,628	70,515	-0,090	-0,067
-411,613	-43,899	-0,154	0,055
-410,598	190,253	0,023	-0,025
-409,584	105,507	0,103	-0,087
-408,569	-200,000	-0,011	0,054
-407,555	-200,000	-0,010	-0,115
-406,540	194,853	-0,009	-0,010
-405,525	-200,000	0,007	0,033
-404,511	112,894	0,082	-0,071
-403,496	5,633	-0,110	-0,058
-402,482	-71,447	0,070	-0,019
-401,467	-156,047	0,193	-0,009
-400,452	77,235	-0,016	0,012
-399,438	-200,000	-0,016	-0,056
-398,423	800,000	-0,076	-0,173
-397,409	746,898	0,123	-0,240
-396,394	136,533	-0,109	0,102
-395,379	-200,000	0,041	-0,151
-394,365	800,000	0,030	-0,060
-393,350	-200,000	-0,024	0,104
-392,336	800,000	0,014	0,044
-391,321	128,534	-0,096	-0,088
-390,306	800,000	-0,010	-0,028
-389,292	-200,000	-0,160	0,000
-388,277	-120,721	0,246	0,029
-387,263	-22,469	0,027	-0,012
-386,248	-200,000	0,013	0,044
-385,233	-200,000	0,006	0,052
-384,219	575,654	0,008	0,015
-383,204	-25,654	-0,155	-0,065
-382,190	-86,012	-0,153	0,034
-381,175	-114,026	0,099	0,014
-380,160	280,106	0,037	-0,048
-379,146	-0,757	-0,081	-0,041
-378,131	367,042	0,046	-0,066
-377,117	-148,659	-0,289	-0,017
-376,102	-163,099	0,097	-0,003
-375,088	-200,000	0,036	-0,192
-374,073	-5,167	0,048	0,024
-373,058	-133,747	-0,131	0,012
-372,044	-52,782	0,159	0,052
-371,029	-200,000	-0,030	0,187
-370,015	800,000	0,014	-0,041
-369,000	268,528	-0,041	0,051
-367,985	-144,797	-0,052	-0,003
-366,971	54,862	-0,086	-0,059
-365,956	-83,515	0,086	-0,020
-364,942	261,204	-0,094	0,117
-363,927	227,503	0,031	0,037
-362,912	458,048	-0,050	0,080
-361,898	-80,725	-0,062	-0,015
-360,883	-94,252	0,121	0,024
-359,869	-22,940	-0,084	0,036
-358,854	-200,000	-0,008	-0,113
-357,839	60,551	0,049	-0,035
-356,825	-21,392	0,145	-0,063
-355,810	247,574	0,065	0,079
-354,796	160,068	0,127	0,127
-353,781	45,971	-0,123	0,081
-352,766	515,160	0,072	0,121
-351,752	235,278	0,072	0,085
-350,737	-200,000	-0,021	-0,079
-349,723	77,866	0,048	-0,037
-348,708	-162,590	-0,068	-0,002
-347,693	187,597	-0,019	-0,021
-346,679	-129,716	0,161	0,016
-345,664	-200,000	-0,015	0,052
-344,650	69,759	-0,134	0,099
-343,635	-200,000	0,008	-0,058
-342,620	135,680	0,048	0,045
-341,606	800,000	-0,028	0,081
-340,591	-123,375	0,101	0,011
-339,577	-200,000	0,028	-0,139
-338,562	-200,000	-0,004	-0,077
-337,548	240,586	-0,127	-0,153
-336,533	169,210	0,073	-0,075
-335,518	100,688	-0,127	0,106
-334,504	-200,000	-0,007	0,145
-333,489	176,955	-0,027	0,029
-332,475	-200,000	0,002	-0,054
-331,460	33,490	-0,060	-0,037
-330,445	134,523	-0,091	0,084
-329,431	-139,436	0,105	-0,008
-328,416	-141,450	0,050	0,004
-327,402	-83,265	0,108	-0,025
-326,387	2,877	-0,115	0,060
-325,372	-200,000	0,003	-0,032
-324,358	27,148	-0,031	-0,018
-323,343	-58,433	-0,098	0,030
-322,329	-200,000	0,001	0,213
-321,314	-40,751	0,075	-0,028
-320,299	-200,000	-0,004	0,091
-319,285	800,000	0,021	-0,048
-318,270	-200,000	-0,027	-0,130
-317,256	164,477	-0,123	-0,124
-316,241	368,720	0,054	-0,079
-315,226	151,908	0,060	0,059
-314,212	800,000	-0,057	0,148
-313,197	-16,766	0,044	0,020
-312,183	741,595	-0,048	0,094
-311,168	-200,000	-0,002	-0,210
-310,153	800,000	-0,038	-0,081
-309,139	14,319	0,047	-0,026
-308,124	24,064	0,129	-0,076
-307,110	-38,974	0,112	0,042
-306,095	200,984	0,088	0,097
-305,080	177,618	-0,071	0,074
-304,066	-200,000	-0,021	-0,111
-303,051	52,514	-0,173	-0,118
-302,037	68,306	0,092	-0,067
-301,022	-200,000	-0,010	0,042
-300,008	333,511	-0,019	-0,026
-298,993	51,391	0,175	0,119
-297,978	-200,000	0,001	-0,025
-296,964	430,568	0,055	-0,086
-295,949	-200,000	-0,025	-0,124
-294,935	-200,000	-0,055	0,181
-293,920	-101,094	-0,065	-0,011
-292,905	-1,616	-0,073	-0,037
-291,891	-200,000	0,024	-0,081
-290,876	-2,683	0,142	0,071
-289,862	262,048	0,058	-0,072
-288,847	800,000	0,045	-0,120
-287,832	22,743	0,011	-0,007
-286,818	-41,225	-0,022	0,008
-285,803	-200,000	0,026	0,198
-284,789	-200,000	-0,007	0,073
-283,774	-200,000	0,016	0,076
-282,759	213,934	-0,045	-0,050
-281,745	90,633	0,087	-0,069
-280,730	345,837	0,078	-0,110
-279,716	13,398	-0,115	-0,063
-278,701	-39,701	-0,088	-0,033
-277,686	-200,000	0,033	0,130
-276,672	800,000	-0,034	0,104
-275,657	788,237	-0,013	-0,026
-274,643	-200,000	0,004	0,020
-273,628	-200,000	0,023	0,204
-272,613	-200,000	0,021	0,082
-271,599	37,831	-0,049	-0,031
-270,584	-56,731	0,198	0,062
-269,570	-200,000	0,021	-0,074
-268,555	-200,000	0,024	-0,096
-267,540	800,000	-0,045	-0,142
-266,526	53,158	-0,089	-0,061
-265,511	-3,627	0,170	0,084
-264,497	112,210	0,147	0,127
-263,482	800,000	-0,033	-0,100
-262,467	-23,682	0,056	-0,024
-261,453	-155,388	0,140	0,006
-260,438	-33,168	-0,073	0,029
-259,424	103,546	0,049	0,041
-258,409	17,068	0,069	0,039
-257,395	11,798	0,033	0,018
-256,380	800,000	0,054	0,152
-255,365	750,157	0,067	0,130
-254,351	62,962	0,195	0,139
-253,336	-8,806	-0,086	-0,041
-252,322	39,343	0,042	0,027
-251,307	800,000	-0,023	-0,061
-250,292	150,120	-0,043	-0,042
-249,278	58,335	-0,066	0,046
-248,263	202,121	-0,036	0,039
-247,249	-93,478	-0,087	0,017
-246,234	0,668	-0,002	-0,001
-245,219	-45,619	0,057	-0,020
-244,205	-54,265	-0,030	-0,010
-243,190	-78,378	-0,049	-0,012
-242,176	800,000	0,039	0,095
-241,161	-125,341	0,150	0,016
-240,146	-1,805	0,125	0,062
-239,132	183,772	0,065	0,069
-238,117	133,462	0,080	-0,074
-237,103	-200,000	-0,047	-0,151
-236,088	-132,052	-0,136	-0,012
-235,073	269,056	0,050	0,062
-234,059	127,455	0,069	0,063
-233,044	288,277	0,035	0,045
-232,030	312,131	0,060	0,081
-231,015	-37,519	-0,113	-0,043
-230,000	108,741	-0,008	-0,007
-228,986	-200,000	-0,009	-0,119
-227,971	14,373	0,051	0,028
-226,957	800,000	0,020	0,048
-225,942	616,063	0,051	0,091
-224,927	208,742	0,127	0,141
-223,913	129,957	0,027	0,025
-222,898	412,918	-0,030	0,045
-221,884	800,000	0,076	-0,152
-220,869	-122,298	0,151	0,017
-219,855	18,316	-0,154	0,087
-218,840	-200,000	0,016	0,075
-217,825	24,822	-0,037	0,022
-216,811	332,694	-0,016	0,022
-215,796	17,878	-0,162	-0,092
-214,782	-200,000	0,006	-0,040
-213,767	-200,000	-0,015	-0,060
-212,752	-40,794	-0,034	0,013
-211,738	291,490	0,038	-0,050
-210,723	188,929	0,101	0,108
-209,709	-134,094	0,125	-0,011
-208,694	800,000	-0,037	-0,110
-207,679	-71,285	0,134	-0,036
-206,665	33,056	0,030	-0,018
-205,650	-56,102	0,115	0,036
-204,636	130,732	-0,077	-0,071
-203,621	-200,000	0,007	0,042
-202,606	-50,496	0,019	0,006
-201,592	22,710	0,108	0,063
-200,577	-133,607	-0,102	0,009
-199,563	-200,000	-0,022	-0,138
-198,548	-200,000	0,034	0,159
-197,533	-200,000	0,012	0,175
-196,519	-174,366	0,026	-0,001
-195,504	-64,413	0,087	0,025
-194,490	112,848	-0,143	-0,124
-193,475	-200,000	-0,002	0,017
-192,460	-138,436	-0,129	0,010
-191,446	-177,324	-0,034	-0,001
-190,431	149,582	0,062	0,060
-189,417	465,026	-0,028	0,046
-188,402	-200,000	-0,006	0,046
-187,387	-75,969	-0,188	-0,047
-186,373	-200,000	0,014	-0,069
-185,358	71,068	-0,015	-0,011
-184,344	194,890	0,020	-0,021
-183,329	-73,049	-0,135	0,035
-182,315	200,313	0,035	-0,038
-181,300	286,712	0,046	-0,060
-180,285	800,000	-0,038	0,104
-179,271	105,625	0,109	-0,092
-178,256	236,236	-0,020	0,023
-177,242	800,000	0,059	0,179
-176,227	-200,000	0,066	0,318
-175,212	800,000	-0,022	0,044
-174,198	313,684	0,012	-0,016
-173,183	528,448	0,026	0,044
-172,169	-200,000	-0,003	-0,058
-171,154	150,574	-0,034	-0,033
-170,139	550,409	0,040	0,068
-169,125	-200,000	0,041	-0,160
-168,110	-200,000	0,026	0,138
-167,096	-200,000	0,028	0,105
-166,081	424,187	-0,050	-0,076
-165,066	-200,000	0,008	-0,102
-164,052	108,821	-0,075	0,064
-163,037	-82,102	-0,100	-0,023
-162,023	800,000	-0,020	0,057
-161,008	584,610	0,079	0,139
-159,993	-52,124	0,118	-0,039
-158,979	800,000	-0,033	0,078
-157,964	69,989	-0,023	0,017
-156,950	800,000	-0,059	-0,130
-155,935	-17,066	0,127	0,057
-154,920	589,058	-0,039	0,069
-153,906	-200,000	0,036	0,120
-152,891	-156,115	-0,109	0,005
-151,877	178,173	-0,115	0,120
-150,862	172,807	-0,038	-0,038
-149,847	-200,000	-0,015	-0,089
-148,833	-57,174	-0,141	-0,044
-147,818	-157,240	-0,049	0,002
-146,804	-95,322	0,115	0,022
-145,789	-200,000	-0,017	0,100
-144,775	-200,000	-0,012	0,087
-143,760	-187,161	-0,116	0,001
-142,745	376,502	0,067	0,097
-141,731	800,000	0,051	0,108
-140,716	209,836	0,014	0,016
-139,702	-8,756	0,202	0,096
-138,687	592,993	0,065	0,114
-137,672	68,386	-0,067	0,049
-136,658	-200,000	0,012	-0,066
-135,643	650,420	0,048	-0,088
-134,629	460,625	-0,062	0,099
-133,614	-200,000	0,008	0,071
-132,599	-121,767	0,131	0,015
-131,585	-46,479	0,015	0,005
-130,570	-75,525	0,077	0,019
-129,556	17,138	-0,096	-0,054
-128,541	54,335	0,102	-0,069
-127,526	47,440	0,104	0,068
-126,512	-69,220	0,057	-0,015
-125,497	-148,574	0,062	-0,004
-124,483	800,000	-0,052	-0,139
-123,468	24,219	-0,042	-0,025
-122,453	108,624	0,038	-0,032
-121,439	10,576	-0,142	0,076
-120,424	800,000	0,021	-0,056
-119,410	309,244	0,054	0,072
-118,395	128,723	0,042	-0,038
-117,380	800,000	-0,018	0,049
-116,366	-200,000	-0,009	0,057
-115,351	-76,450	0,018	-0,005
-114,337	800,000	0,015	0,037
-113,322	-200,000	-0,004	0,031
-112,307	339,370	-0,042	-0,058
-111,293	-200,000	0,034	-0,129
-110,278	103,096	0,055	-0,046
-109,264	-134,022	0,010	0,001
-108,249	0,537	0,078	0,039
-107,234	-50,509	-0,089	-0,030
-106,220	800,000	0,021	0,063
-105,205	-5,041	-0,073	-0,036
-104,191	57,541	-0,111	-0,077
-103,176	156,834	-0,037	-0,037
-102,162	-200,000	-0,014	-0,125
-101,147	85,295	0,101	0,079
-100,132	800,000	-0,025	0,067
-99,118	162,541	-0,077	-0,076
-98,103	-29,959	0,080	0,032
-97,089	-87,249	0,070	0,015
-96,074	-200,000	0,000	0,092
-95,059	-166,712	-0,153	-0,004
-94,045	7,613	0,068	-0,036
-93,030	-15,045	-0,060	-0,027
-92,016	-200,000	0,026	-0,093
-91,001	27,864	-0,102	-0,061
-89,986	-14,077	0,127	-0,058
-88,972	182,553	0,118	0,124
-87,957	-118,070	0,075	-0,009
-86,943	-200,000	-0,064	0,000
-85,928	-88,352	-0,070	0,015
-84,913	-128,188	-0,027	0,003
-83,899	340,159	-0,020	-0,027
-82,884	800,000	0,032	0,079
-81,870	-46,764	0,059	-0,020
-80,855	800,000	0,027	-0,080
-79,840	-134,177	0,085	0,007
-78,826	194,290	-0,082	0,088
-77,811	-200,000	-0,010	-0,239
-76,797	-110,436	0,137	-0,020
-75,782	154,858	0,075	-0,074
-74,767	800,000	-0,019	0,039
-73,753	-146,513	-0,134	-0,008
-72,738	-200,000	0,013	0,117
-71,724	-28,354	-0,054	0,022
-70,709	-86,134	-0,055	0,012
-69,694	-13,291	-0,060	0,028
-68,680	-200,000	0,017	0,112
-67,665	-130,140	0,017	-0,002
-66,651	342,003	0,045	-0,063
-65,636	800,000	0,048	0,109
-64,622	-200,000	-0,015	-0,058
-63,607	-200,000	-0,011	-0,144
-62,592	-200,000	-0,045	-0,203
-61,578	-200,000	-0,001	-0,036
-60,563	-200,000	-0,001	-0,004
-59,549	-200,000	-0,042	0,141
-58,534	-42,803	-1,451	-0,520
-57,519	379,183	-1,496	-2,178
-56,505	-200,000	-0,547	-4,486
-55,490	86,424	1,030	0,804
-54,476	800,000	4,866	11,332
-53,461	-200,000	18,296	289,327
-52,446	800,000	727,670	2236,931
-51,432	558,273	1643,764	2821,411
-50,417	79,106	1665,152	1262,891
-49,403	22,691	1538,855	890,698
-48,388	16,697	1461,823	817,063
-47,373	17,849	1451,684	816,917
-46,359	17,180	1442,118	808,298
-45,344	14,929	1437,552	794,955
-44,330	14,884	1435,432	793,536
-43,315	14,861	1433,967	792,585
-42,300	14,899	1432,162	791,737
-41,286	14,940	1431,026	791,273
-40,271	14,847	1429,791	790,117
-39,257	14,869	1428,558	789,509
-38,242	14,962	1426,912	789,009
-37,227	14,957	1425,929	788,410
-36,213	14,918	1424,620	787,470
-35,198	14,956	1423,345	786,914
-34,184	14,966	1422,604	786,519
-33,169	14,871	1421,335	785,340
-32,154	14,923	1420,447	785,061
-31,140	14,945	1418,955	784,308
-30,125	14,946	1417,843	783,670
-29,111	14,951	1416,735	783,051
-28,096	14,914	1415,727	782,288
-27,082	14,852	1414,548	781,314
-26,067	14,876	1413,613	780,880
-25,052	14,825	1412,436	779,957
-24,038	14,801	1411,400	779,243
-23,023	14,850	1410,313	778,839
-22,009	14,835	1409,228	778,139
-20,994	14,827	1408,546	777,696
-19,979	14,776	1407,544	776,871
-18,965	14,783	1406,498	776,299
-17,950	14,768	1405,594	775,696
-16,936	14,797	1404,657	775,286
-15,921	14,749	1403,739	774,525
-14,906	14,748	1402,782	773,960
-13,892	14,767	1401,745	773,445
-12,877	14,751	1401,082	772,974
-11,863	14,738	1399,945	772,258
-10,848	14,715	1399,127	771,668
-9,833	14,714	1398,159	771,098
-8,819	14,663	1397,195	770,298
-7,804	14,639	1396,414	769,727
-6,790	14,666	1395,148	769,124
-5,775	14,654	1394,252	768,542
-4,760	14,648	1393,460	768,048
-3,746	14,613	1392,764	767,471
-2,731	14,626	1391,753	766,945
-1,717	14,643	1390,818	766,476
-0,702	14,648	1389,199	765,577
0,313	18,382	1308,353	738,338
1,327	34,783	706,201	436,542
2,342	53,275	124,609	84,429
3,356	3,971	16,632	8,584
4,371	9,081	3,247	1,731
5,386	-45,097	0,527	0,185
6,400	-200,000	-0,033	0,118
7,415	343,196	-0,085	-0,119
8,429	-77,641	-0,376	-0,091
9,444	-38,930	-0,269	-0,100
10,459	83,458	-0,408	-0,315
11,473	191,196	-0,313	-0,334
12,488	30,632	-0,253	-0,153
13,502	-63,422	-0,266	-0,077
14,517	24,525	-0,299	-0,175
15,531	74,882	-0,458	-0,341
16,546	177,808	-0,284	-0,293
17,561	90,544	-0,366	-0,290
18,575	-102,239	-0,220	-0,037
19,590	19,922	-0,320	-0,182
20,604	111,877	-0,261	-0,223
21,619	43,054	-0,428	-0,276
22,634	5,241	-0,582	-0,302
23,648	22,193	-0,469	-0,270
24,663	84,128	-0,363	-0,280
25,677	70,446	-0,369	-0,269
26,692	-107,458	-0,310	-0,047
27,707	581,434	-0,191	-0,332
28,721	70,349	-0,461	-0,336
29,736	-14,365	-0,406	-0,184
30,750	38,259	-0,464	-0,291
31,765	78,234	-0,371	-0,280
32,780	5,600	-0,509	-0,265
33,794	0,775	-0,408	-0,206
34,809	-34,784	-0,536	-0,206
35,823	-3,128	-0,443	-0,217
36,838	150,356	-0,365	-0,350
37,853	-54,381	-0,511	-0,163
38,867	330,237	-0,179	-0,244
39,882	385,633	-0,278	-0,406
40,896	344,376	-0,248	-0,345
41,911	386,345	-0,201	-0,294
42,926	-24,056	-0,314	-0,132
43,940	197,771	-0,366	-0,395
44,955	-49,224	-0,417	-0,140
45,969	3,688	-0,267	-0,137
46,984	82,611	-0,329	-0,252
47,999	228,811	-0,269	-0,310
49,013	-7,138	-0,374	-0,178
50,028	312,252	-0,280	-0,371
51,042	775,378	-0,174	-0,337
52,057	281,746	-0,212	-0,269
53,071	271,741	-0,230	-0,286
54,086	169,958	-0,422	-0,426
55,101	214,333	-0,257	-0,287
56,115	132,514	-0,281	-0,256
57,130	17,759	-0,436	-0,244
58,144	14,568	-0,363	-0,199
59,159	69,436	-0,365	-0,265
60,174	-13,952	-0,391	-0,177
61,188	179,361	-0,273	-0,282
62,203	262,672	-0,291	-0,357
63,217	205,307	-0,240	-0,263
64,232	7,319	-0,341	-0,179
65,247	-63,742	-0,412	-0,118
66,261	298,126	-0,276	-0,358
67,276	72,312	-0,310	-0,227
68,290	-110,097	-0,392	-0,057
69,305	72,772	-0,260	-0,191
70,320	56,401	-0,317	-0,217
71,334	-19,917	-0,272	-0,118
72,349	26,505	-0,385	-0,226
73,363	77,759	-0,324	-0,243
74,378	161,736	-0,269	-0,266
75,393	110,566	-0,342	-0,290
76,407	106,215	-0,232	-0,193
77,422	251,128	-0,199	-0,238
78,436	-12,114	-0,319	-0,146
79,451	6,215	-0,379	-0,197
80,466	111,445	-0,320	-0,272
81,480	366,875	-0,202	-0,287
82,495	73,532	-0,154	-0,113
83,509	-135,347	-0,292	0,024
84,524	19,077	-0,117	-0,066
85,539	49,336	-0,236	-0,156
86,553	46,623	-0,165	-0,108
87,568	94,518	-0,206	-0,165
88,582	144,687	-0,239	-0,225
89,597	-46,273	-0,305	-0,105
90,611	74,870	-0,205	-0,151
91,626	-47,709	-0,295	-0,100
92,641	-165,250	-0,247	0,008
93,655	-75,456	-0,321	-0,080
94,670	244,114	-0,228	-0,269
95,684	77,465	-0,363	-0,271
96,699	69,182	-0,370	-0,267
97,714	3,723	-0,260	-0,133
98,728	-88,344	-0,304	-0,063
99,743	-89,956	-0,262	-0,053
100,757	304,633	-0,247	-0,323
101,772	56,609	-0,237	-0,162
102,787	303,024	-0,197	-0,256
103,801	239,831	-0,180	-0,210
104,816	52,639	-0,162	-0,109
105,830	6,525	-0,218	-0,113
106,845	-73,833	-0,223	-0,057
107,860	72,225	-0,259	-0,189
108,874	790,110	-0,124	-0,240
109,889	116,160	-0,193	-0,165
110,903	239,380	-0,203	-0,238
111,918	20,639	-0,319	-0,181
112,933	30,670	-0,352	-0,211
113,947	37,990	-0,215	-0,134
114,962	109,195	-0,187	-0,157
115,976	58,352	-0,240	-0,165
116,991	-28,258	-0,269	-0,109
118,006	21,884	-0,280	-0,159
119,020	-22,342	-0,232	-0,098
120,035	17,934	-0,204	-0,114
121,049	240,267	-0,182	-0,214
122,064	-103,492	-0,240	-0,039
123,079	-122,310	-0,271	0,031
124,093	62,422	-0,383	-0,268
125,108	180,435	-0,205	-0,211
126,122	107,185	-0,293	-0,244
127,137	-54,092	-0,161	0,051
128,151	165,265	-0,200	-0,198
129,166	27,543	-0,225	-0,132
130,181	111,691	-0,180	-0,152
131,195	32,701	-0,173	-0,104
132,210	431,541	-0,167	-0,255
133,224	76,026	-0,241	-0,178
134,239	96,031	-0,114	-0,091
135,254	-74,271	-0,292	-0,073
136,268	-0,776	-0,206	-0,102
137,283	-53,383	-0,217	-0,069
138,297	148,625	-0,349	-0,330
139,312	8,305	-0,315	-0,165
140,327	248,941	-0,240	-0,285
141,341	213,368	-0,264	-0,293
142,356	-88,091	-0,255	-0,053
143,370	230,894	-0,128	-0,147
144,385	-64,255	-0,251	-0,071
145,400	-26,261	-0,242	-0,099
146,414	-37,991	-0,271	-0,100
147,429	-73,202	-0,238	-0,060
148,443	174,713	-0,206	-0,208
149,458	49,187	-0,221	-0,145
150,473	-106,887	-0,096	0,015
151,487	-33,983	-0,316	-0,121
152,502	180,944	-0,196	-0,202
153,516	69,357	-0,220	-0,158
154,531	104,861	-0,337	-0,278
155,546	87,230	-0,237	-0,183
156,560	-100,769	-0,199	-0,034
157,575	83,410	-0,122	-0,092
158,589	110,226	-0,234	-0,196
159,604	285,194	-0,200	-0,252
160,619	97,046	-0,218	-0,175
161,633	74,176	-0,309	-0,227
162,648	9,478	-0,259	-0,137
163,662	-62,519	-0,205	-0,059
164,677	513,805	-0,119	-0,195
165,692	175,216	-0,200	-0,202
166,706	186,068	-0,232	-0,241
167,721	640,779	-0,179	-0,320
168,735	270,667	-0,191	-0,236
169,750	270,407	-0,175	-0,215
170,764	-111,577	-0,195	-0,027
171,779	164,489	-0,150	-0,147
172,794	-137,456	-0,202	-0,016
173,808	12,783	-0,230	-0,123
174,823	155,651	-0,266	-0,255
175,837	62,980	-0,203	-0,142
176,852	450,783	-0,198	-0,305
177,867	414,461	-0,117	-0,174
178,881	197,049	-0,159	-0,170
179,896	93,992	-0,211	-0,167
180,910	-138,255	-0,182	-0,014
181,925	280,228	-0,221	-0,276
182,940	372,759	-0,193	-0,274
183,954	326,578	-0,168	-0,225
184,969	800,000	-0,138	-0,308
185,983	365,964	-0,155	-0,218
186,998	107,147	-0,194	-0,160
188,013	-26,907	-0,251	-0,102
189,027	36,777	-0,339	-0,208
190,042	76,546	-0,123	-0,090
191,056	-137,103	-0,191	-0,015
192,071	51,599	-0,141	-0,093
193,086	800,000	-0,138	-0,326
194,100	140,830	-0,209	-0,192
195,115	2,638	-0,187	-0,094
196,129	-42,388	-0,284	-0,100
197,144	269,959	-0,124	-0,152
198,159	195,694	-0,175	-0,186
199,173	86,055	-0,162	-0,124
200,188	-113,678	-0,164	-0,022
201,202	40,122	-0,277	-0,173
202,217	72,907	-0,105	-0,076
203,232	770,441	-0,188	-0,358
204,246	546,333	-0,137	-0,229
205,261	800,000	-0,146	-0,305
206,275	-36,364	-0,382	-0,142
207,290	78,147	-0,243	-0,180
208,304	-200,000	-0,051	-0,161
209,319	-141,941	-0,083	-0,006
210,334	172,319	-0,179	-0,179
211,348	294,882	-0,159	-0,202
212,363	16,589	-0,231	-0,126
213,377	-50,401	-0,193	-0,063
214,392	-200,000	-0,004	-0,204
215,407	45,371	-0,250	-0,160
216,421	-76,136	-0,288	-0,070
217,436	131,916	-0,145	-0,129
218,450	274,017	-0,174	-0,215
219,465	18,699	-0,318	-0,176
220,480	179,386	-0,202	-0,205
221,494	55,982	-0,175	-0,118
222,509	260,605	-0,142	-0,171
223,523	394,576	-0,194	-0,281
224,538	-63,079	-0,177	-0,050
225,553	680,551	-0,193	-0,350
226,567	493,286	-0,106	-0,170
227,582	189,342	-0,245	-0,255
228,596	27,330	-0,156	-0,091
229,611	-96,001	-0,136	0,025
230,626	87,632	-0,139	-0,107
231,640	254,733	-0,183	-0,218
232,655	493,736	-0,132	-0,210
233,669	507,068	-0,135	-0,219
234,684	-0,729	-0,160	-0,079
235,699	191,174	-0,195	-0,204
236,713	408,693	-0,073	-0,108
237,728	151,010	-0,256	-0,241
238,742	-200,000	0,016	-0,049
239,757	67,895	-0,240	-0,170
240,772	261,856	-0,135	-0,163
241,786	-75,882	-0,348	-0,085
242,801	269,775	-0,036	-0,043
243,815	408,259	-0,190	-0,279
244,830	800,000	-0,102	-0,246
245,844	-200,000	-0,154	0,000
246,859	-92,502	-0,135	0,026
247,874	186,538	-0,270	-0,279
248,888	800,000	-0,087	-0,202
249,903	67,279	-0,288	-0,203
250,917	642,064	-0,066	-0,117
251,932	176,624	-0,178	-0,179
252,947	222,814	-0,160	-0,179
253,961	55,734	-0,237	-0,159
254,976	290,249	-0,074	-0,094
255,990	413,801	-0,092	-0,136
257,005	223,792	-0,141	-0,158
258,020	-200,000	0,006	0,047
259,034	-26,429	-0,154	-0,062
260,049	-69,315	-0,288	-0,076
261,063	29,260	-0,286	-0,168
262,078	216,914	-0,140	-0,154
263,093	26,915	-0,163	-0,094
264,107	209,515	-0,168	-0,182
265,122	-40,809	-0,200	-0,071
266,136	407,621	-0,092	-0,135
267,151	-142,422	-0,057	-0,004
268,166	61,577	-0,068	-0,047
269,180	-104,696	-0,369	-0,058
270,195	-3,785	-0,129	-0,062
271,209	292,564	-0,159	-0,201
272,224	800,000	-0,115	-0,245
273,239	-200,000	-0,049	-0,160
274,253	77,210	-0,147	-0,108
275,268	21,429	-0,182	-0,102
276,282	43,105	-0,205	-0,129
277,297	-200,000	-0,069	-0,236
278,312	134,797	-0,255	-0,229
279,326	-22,806	-0,248	-0,103
280,341	-200,000	0,009	-0,085
281,355	800,000	-0,077	-0,204
282,370	-52,346	-0,154	-0,049
283,384	91,901	-0,278	-0,216
284,399	237,366	-0,147	-0,168
285,414	469,723	-0,099	-0,154
286,428	-200,000	-0,010	-0,104
287,443	74,804	-0,130	-0,094
288,457	118,873	-0,093	-0,079
289,472	83,655	-0,075	-0,057
290,487	62,483	-0,176	-0,121
291,501	204,686	-0,124	-0,133
292,516	18,871	-0,175	-0,097
293,530	121,632	-0,115	-0,099
294,545	4,135	-0,194	-0,098
295,560	-126,700	-0,211	0,021
296,574	-147,926	-0,271	-0,015
297,589	-200,000	-0,041	-0,175
298,603	451,831	-0,126	-0,193
299,618	-17,289	-0,126	-0,055
300,633	50,403	-0,163	-0,106
301,647	176,244	-0,082	0,082
302,662	291,248	-0,083	-0,105
303,676	-113,520	-0,204	0,027
304,691	44,291	-0,163	-0,103
305,706	7,098	-0,237	-0,121
306,720	279,333	-0,198	-0,244
307,735	767,419	-0,112	-0,211
308,749	-200,000	-0,037	-0,170
309,764	-200,000	-0,019	-0,078
310,779	800,000	-0,071	-0,182
311,793	21,868	-0,244	-0,137
312,808	29,886	-0,204	-0,119
313,822	706,288	-0,089	-0,164
314,837	-139,779	0,010	-0,001
315,852	678,301	-0,091	-0,164
316,866	-13,128	-0,163	-0,073
317,881	-56,118	-0,171	-0,052
318,895	712,894	-0,065	0,119
319,910	557,160	-0,129	-0,214
320,925	-48,509	-0,202	-0,067
321,939	800,000	-0,022	-0,050
322,954	292,675	-0,050	-0,063
323,968	23,038	-0,077	-0,043
324,983	-135,739	-0,236	-0,019
325,997	-200,000	-0,027	0,136
327,012	15,285	-0,172	-0,093
328,027	-200,000	0,010	-0,176
329,041	-71,862	-0,224	-0,057
330,056	-164,845	-0,234	0,007
331,070	114,203	-0,117	-0,098
332,085	137,948	-0,138	-0,124
333,100	-0,424	-0,163	-0,079
334,114	488,554	-0,133	-0,211
335,129	-86,401	-0,197	-0,041
336,143	-27,902	-0,133	-0,053
337,158	800,000	-0,057	-0,159
338,173	800,000	0,056	0,115
339,187	-1,370	-0,148	-0,071
340,202	472,203	-0,088	-0,136
341,216	134,702	-0,161	-0,143
342,231	20,660	-0,173	-0,096
343,246	290,255	-0,101	-0,126
344,260	-102,883	-0,101	0,016
345,275	-86,816	-0,077	-0,016
346,289	-47,632	-0,114	0,038
347,304	-14,938	-0,089	-0,039
348,319	64,173	-0,137	-0,094
349,333	-40,827	-0,087	-0,031
350,348	-47,288	-0,129	-0,043
351,362	-112,234	-0,118	-0,016
352,377	-200,000	-0,005	-0,166
353,392	-173,108	-0,172	-0,004
354,406	-99,788	-0,064	-0,011
355,421	208,062	1313,051	1410,487
356,435	160,077	1473,593	1410,998
