DTS Sentinel unit serial number:	SN410029Multiplexer serial number:	ORYXHardware model number:	OX2-SRSoftware version number:	ORYX F/W v4,00 Oryx Data Collector v3.7.2.0data status	okinstallation	B3 Nyhavnadifferential loss correction	single-endedforward channel	channel 1reverse channel	N/Adate	2023/12/02time	01:47:30forward acquisition time	300,00reverse acquisition time	0,00gamma	499,1914k internal	0,3195k external	0,3195temperature offset calibration	1,0000default loss term (dB/km)	0,3820temperature slope calibration	1,0000multiplexer offset coefficient	1,0000multiplexer slope coefficient	1,0000fibre end	0,00T internal ref (°C)	16,56T ext. ref 1 (°C)	1,90T ext. ref 2 (°C)	1,88length (m)	temperature (°C)	Stokes	anti-Stokes-744,400	215,160	-0,247	-0,286
-743,385	-200,000	0,059	0,305
-742,371	303,653	-0,147	-0,199
-741,356	-200,000	0,083	0,299
-740,342	-20,450	-0,183	-0,082
-739,327	-200,000	-0,021	0,365
-738,312	44,440	-0,296	-0,198
-737,298	-200,000	0,018	0,275
-736,283	70,385	-0,262	-0,197
-735,269	800,000	0,158	0,400
-734,254	108,352	-0,266	-0,231
-733,239	355,388	-0,051	0,075
-732,225	800,000	-0,087	-0,211
-731,210	134,529	0,167	0,157
-730,196	79,682	0,055	0,043
-729,181	8,007	-0,095	0,052
-728,167	-200,000	0,002	-0,193
-727,152	-19,775	0,049	0,022
-726,137	218,382	0,026	0,030
-725,123	-200,000	-0,037	-0,127
-724,108	-101,661	-0,086	-0,015
-723,094	-200,000	-0,002	-0,260
-722,079	800,000	-0,039	-0,115
-721,064	12,064	0,096	0,054
-720,050	37,836	-0,089	-0,057
-719,035	77,772	-0,098	-0,076
-718,021	214,992	0,117	-0,135
-717,006	800,000	-0,034	-0,071
-715,991	83,816	0,078	-0,062
-714,977	24,151	-0,088	0,053
-713,962	-200,000	0,029	0,185
-712,948	-63,563	0,181	-0,054
-711,933	4,583	-0,131	0,070
-710,918	800,000	0,020	-0,048
-709,904	-200,000	0,017	-0,076
-708,889	-200,000	0,031	-0,322
-707,875	800,000	0,035	-0,076
-706,860	-101,304	-0,087	-0,015
-705,845	-200,000	0,000	-0,089
-704,831	-39,721	0,067	-0,025
-703,816	-200,000	-0,024	0,096
-702,802	100,698	-0,162	-0,137
-701,787	800,000	0,072	-0,178
-700,772	50,756	-0,093	-0,064
-699,758	-40,528	-0,063	-0,024
-698,743	-22,759	-0,036	-0,016
-697,729	800,000	0,042	0,127
-696,714	800,000	0,005	-0,011
-695,699	17,455	-0,072	-0,041
-694,685	800,000	0,010	0,021
-693,670	65,396	0,079	-0,058
-692,656	-93,548	-0,116	0,023
-691,641	-200,000	0,003	-0,040
-690,627	80,903	0,044	-0,034
-689,612	-200,000	-0,009	0,056
-688,597	-192,191	0,035	-0,000
-687,583	800,000	0,075	-0,185
-686,568	69,104	-0,105	-0,078
-685,554	-200,000	-0,013	-0,041
-684,539	182,796	-0,108	0,116
-683,524	583,318	-0,028	0,050
-682,510	-101,515	-0,054	0,009
-681,495	800,000	-0,058	0,160
-680,481	-10,721	-0,080	0,038
-679,466	-200,000	-0,002	-0,040
-678,451	800,000	0,029	-0,075
-677,437	105,368	0,103	0,089
-676,422	-200,000	-0,004	0,017
-675,408	105,871	-0,092	-0,079
-674,393	-200,000	-0,009	-0,078
-673,378	620,997	0,058	-0,106
-672,364	-50,433	-0,014	-0,005
-671,349	-144,242	-0,184	-0,012
-670,335	-98,296	0,024	0,005
-669,320	-99,256	0,144	-0,026
-668,305	800,000	-0,028	-0,058
-667,291	84,567	-0,039	0,031
-666,276	-30,240	-0,135	-0,055
-665,262	227,482	-0,083	-0,098
-664,247	283,511	-0,093	-0,122
-663,232	-104,655	-0,070	-0,012
-662,218	367,646	-0,039	0,057
-661,203	714,850	0,045	0,087
-660,189	268,438	-0,023	-0,029
-659,174	88,526	-0,054	0,043
-658,159	452,725	0,020	0,032
-657,145	-108,850	-0,059	0,009
-656,130	165,371	-0,102	-0,104
-655,116	-75,819	-0,061	-0,016
-654,101	58,715	-0,038	0,027
-653,086	800,000	-0,036	0,103
-652,072	120,971	-0,077	0,070
-651,057	-53,454	-0,042	0,014
-650,043	-200,000	0,029	-0,107
-649,028	-48,419	-0,097	-0,034
-648,014	-50,796	0,064	0,022
-646,999	-200,000	0,053	0,253
-645,984	800,000	0,029	-0,059
-644,970	-200,000	0,000	-0,041
-643,955	93,396	-0,024	0,020
-642,941	-200,000	-0,033	-0,148
-641,926	4,860	-0,064	-0,034
-640,911	-200,000	-0,014	-0,063
-639,897	387,287	0,094	-0,141
-638,882	78,289	-0,090	0,070
-637,868	-39,015	0,094	-0,036
-636,853	-200,000	0,019	-0,112
-635,838	211,244	0,029	-0,033
-634,824	247,076	0,137	-0,168
-633,809	696,424	0,051	-0,098
-632,795	211,888	0,072	0,082
-631,780	-88,365	-0,032	-0,007
-630,765	194,008	-0,020	0,022
-629,751	-23,432	-0,114	0,050
-628,736	100,113	-0,097	-0,081
-627,722	-83,972	-0,053	-0,012
-626,707	1,712	0,066	0,035
-625,692	-115,861	0,076	0,010
-624,678	138,349	-0,048	-0,045
-623,663	-43,123	-0,107	0,039
-622,649	1,371	0,027	-0,014
-621,634	800,000	0,034	-0,076
-620,619	324,866	-0,078	-0,108
-619,605	-105,303	-0,087	0,014
-618,590	86,535	0,019	0,015
-617,576	-200,000	-0,064	0,209
-616,561	-176,639	-0,176	-0,003
-615,546	89,929	-0,137	0,111
-614,532	800,000	0,073	-0,170
-613,517	-77,785	-0,089	0,022
-612,503	191,363	-0,037	0,040
-611,488	-200,000	0,005	0,080
-610,474	118,816	0,106	0,095
-609,459	78,034	0,033	-0,026
-608,444	196,435	-0,024	-0,027
-607,430	-114,003	0,048	-0,007
-606,415	-43,591	-0,104	-0,038
-605,401	56,776	0,148	-0,104
-604,386	-200,000	-0,016	-0,094
-603,371	800,000	-0,023	0,058
-602,357	800,000	0,016	0,046
-601,342	147,429	-0,052	-0,051
-600,328	800,000	0,089	-0,210
-599,313	800,000	-0,048	-0,099
-598,298	77,535	-0,082	-0,064
-597,284	-120,684	0,072	-0,009
-596,269	26,832	0,133	0,081
-595,255	800,000	-0,016	-0,052
-594,240	151,466	-0,061	-0,060
-593,225	800,000	-0,029	-0,088
-592,211	-27,481	-0,063	0,026
-591,196	46,163	0,090	-0,060
-590,182	-113,150	0,133	0,019
-589,167	273,280	-0,032	0,041
-588,152	-200,000	0,007	-0,027
-587,138	335,333	-0,043	-0,060
-586,123	654,765	-0,046	-0,086
-585,109	-200,000	0,014	-0,090
-584,094	219,605	-0,023	0,027
-583,079	-200,000	0,051	0,194
-582,065	432,334	-0,055	0,087
-581,050	140,055	-0,095	-0,091
-580,036	51,565	0,075	0,052
-579,021	-186,266	-0,051	0,001
-578,006	83,020	-0,192	-0,151
-576,992	-200,000	-0,002	-0,091
-575,977	3,199	-0,031	-0,016
-574,963	-200,000	0,012	0,089
-573,948	67,992	0,047	-0,035
-572,934	-162,681	-0,151	0,005
-571,919	88,213	0,125	-0,100
-570,904	139,824	0,095	-0,090
-569,890	177,271	-0,114	-0,120
-568,875	800,000	0,030	0,065
-567,861	66,333	0,043	-0,031
-566,846	138,765	-0,072	0,069
-565,831	-72,311	0,026	0,007
-564,817	37,628	-0,146	0,094
-563,802	-200,000	-0,028	0,105
-562,788	-200,000	-0,016	-0,183
-561,773	18,999	0,097	-0,056
-560,758	577,025	0,064	0,113
-559,744	-200,000	0,011	-0,063
-558,729	495,158	-0,032	0,053
-557,715	800,000	0,012	0,028
-556,700	-124,769	-0,110	-0,012
-555,685	-71,446	0,040	0,011
-554,671	-126,357	0,150	-0,016
-553,656	7,575	0,080	0,043
-552,642	-200,000	0,009	-0,076
-551,627	-174,784	0,154	-0,003
-550,612	273,083	-0,027	0,034
-549,598	321,145	0,005	-0,007
-548,583	314,770	-0,080	0,110
-547,569	745,342	-0,029	-0,057
-546,554	-75,377	0,067	-0,017
-545,539	800,000	-0,047	0,131
-544,525	174,623	-0,065	0,068
-543,510	-144,667	0,134	0,009
-542,496	-200,000	-0,047	-0,178
-541,481	16,791	-0,108	0,062
-540,466	-160,316	0,023	-0,001
-539,452	-151,896	0,092	-0,005
-538,437	82,361	0,103	0,081
-537,423	-48,442	-0,047	0,016
-536,408	-200,000	-0,015	0,107
-535,393	-200,000	-0,009	-0,039
-534,379	169,131	-0,052	-0,054
-533,364	35,600	-0,097	0,061
-532,350	-200,000	-0,063	0,000
-531,335	74,995	0,071	0,054
-530,321	516,630	0,049	0,083
-529,306	-200,000	0,006	0,026
-528,291	800,000	0,011	-0,023
-527,277	-200,000	-0,006	-0,092
-526,262	-84,424	-0,036	0,008
-525,248	-76,056	0,126	-0,032
-524,233	-200,000	0,016	-0,077
-523,218	-200,000	-0,022	0,089
-522,204	265,576	0,045	0,057
-521,189	298,500	-0,085	-0,113
-520,175	-200,000	-0,028	-0,181
-519,160	51,552	0,025	-0,017
-518,145	-88,954	-0,054	0,011
-517,131	154,829	0,061	-0,060
-516,116	-191,664	0,059	0,000
-515,102	211,874	-0,090	0,102
-514,087	92,854	-0,083	0,068
-513,072	66,648	0,048	0,035
-512,058	-200,000	0,027	-0,139
-511,043	189,051	0,081	0,088
-510,029	800,000	0,041	-0,120
-509,014	-200,000	-0,002	0,009
-507,999	-62,012	-0,148	-0,044
-506,985	572,623	-0,029	0,051
-505,970	-14,891	-0,060	0,028
-504,956	5,503	0,053	-0,028
-503,941	-200,000	-0,019	0,082
-502,926	460,679	-0,064	0,104
-501,912	391,307	0,054	0,081
-500,897	371,897	-0,069	0,101
-499,883	-200,000	-0,015	-0,149
-498,868	-18,033	-0,138	-0,062
-497,853	-147,545	-0,018	0,001
-496,839	286,532	-0,073	-0,095
-495,824	-200,000	-0,013	0,052
-494,810	438,234	-0,008	0,013
-493,795	800,000	0,049	-0,103
-492,781	-200,000	0,027	0,119
-491,766	800,000	-0,030	0,074
-490,751	-200,000	0,002	-0,034
-489,737	158,809	0,052	0,052
-488,722	99,358	-0,029	0,024
-487,708	-36,918	0,061	0,024
-486,693	-147,714	-0,021	-0,001
-485,678	412,265	0,041	0,063
-484,664	-200,000	-0,017	-0,085
-483,649	269,032	0,088	-0,112
-482,635	6,580	0,099	0,053
-481,620	-196,465	0,087	0,000
-480,605	-200,000	-0,009	0,099
-479,591	-37,950	0,035	-0,014
-478,576	800,000	-0,028	-0,057
-477,562	131,610	-0,131	0,122
-476,547	691,806	0,025	-0,048
-475,532	625,556	-0,059	-0,107
-474,518	800,000	0,041	0,131
-473,503	-15,842	0,146	-0,067
-472,489	409,603	-0,060	0,091
-471,474	-200,000	0,018	0,093
-470,459	-64,332	-0,155	-0,045
-469,445	182,056	-0,023	-0,025
-468,430	176,223	-0,116	-0,122
-467,416	800,000	-0,036	-0,076
-466,401	800,000	-0,031	0,070
-465,386	3,438	0,032	-0,017
-464,372	-200,000	0,036	-0,163
-463,357	-87,696	0,084	-0,018
-462,343	245,668	-0,102	0,125
-461,328	582,575	0,033	-0,059
-460,313	282,720	-0,066	-0,086
-459,299	-200,000	-0,024	0,203
-458,284	-200,000	0,005	0,032
-457,270	-68,705	0,104	0,029
-456,255	144,072	-0,088	0,085
-455,241	-27,994	0,057	0,024
-454,226	-0,630	-0,111	-0,057
-453,211	117,135	0,132	0,117
-452,197	-200,000	0,003	0,272
-451,182	-200,000	-0,048	0,179
-450,168	100,784	-0,037	-0,031
-449,153	-127,949	-0,085	0,009
-448,138	-14,834	-0,075	-0,034
-447,124	-25,846	0,080	0,034
-446,109	39,159	0,035	-0,023
-445,095	222,653	-0,082	0,095
-444,080	154,645	-0,089	0,089
-443,065	800,000	0,064	0,195
-442,051	414,986	0,017	0,026
-441,036	-200,000	0,014	-0,200
-440,022	-200,000	-0,013	-0,120
-439,007	750,974	-0,055	-0,107
-437,992	8,497	-0,004	0,002
-436,978	102,083	0,077	-0,064
-435,963	247,721	0,097	0,118
-434,949	63,358	-0,113	-0,082
-433,934	-28,322	0,058	-0,024
-432,919	-49,856	-0,164	0,056
-431,905	-23,515	-0,095	-0,041
-430,890	-38,498	0,061	-0,023
-429,876	-200,000	-0,005	0,034
-428,861	-200,000	0,024	0,162
-427,846	-71,335	-0,091	0,024
-426,832	148,968	0,027	0,026
-425,817	800,000	-0,056	-0,129
-424,803	58,250	0,023	-0,016
-423,788	146,336	-0,027	0,026
-422,773	-200,000	-0,007	-0,027
-421,759	-85,982	0,134	0,030
-420,744	-200,000	0,017	0,060
-419,730	-13,459	0,032	-0,015
-418,715	-171,893	-0,112	0,003
-417,701	304,548	-0,024	-0,033
-416,686	154,588	0,054	0,053
-415,671	-50,473	0,078	0,026
-414,657	7,999	-0,076	-0,041
-413,642	571,217	-0,059	0,105
-412,628	-44,670	-0,083	-0,030
-411,613	-200,000	0,014	-0,118
-410,598	391,489	-0,056	-0,084
-409,584	81,140	0,107	-0,083
-408,569	-200,000	0,007	0,060
-407,555	18,672	0,135	0,077
-406,540	-73,414	0,094	0,025
-405,525	-37,983	-0,098	-0,037
-404,511	-200,000	0,009	-0,125
-403,496	-70,484	-0,089	0,024
-402,482	-149,152	0,115	-0,007
-401,467	-60,075	-0,009	-0,003
-400,452	-200,000	0,013	-0,055
-399,438	-200,000	0,018	0,135
-398,423	-200,000	-0,024	0,088
-397,409	800,000	-0,044	-0,123
-396,394	-17,224	-0,041	0,019
-395,379	82,611	0,056	0,044
-394,365	113,740	-0,075	-0,066
-393,350	97,445	0,104	-0,086
-392,336	-76,930	-0,054	0,013
-391,321	402,825	0,106	0,161
-390,306	26,659	0,063	-0,038
-389,292	16,033	0,050	0,028
-388,277	-162,164	-0,080	-0,003
-387,263	197,826	0,093	-0,102
-386,248	37,223	0,132	-0,084
-385,233	-200,000	-0,002	-0,040
-384,219	-27,290	-0,034	0,014
-383,204	158,707	0,054	-0,054
-382,190	800,000	0,019	-0,043
-381,175	30,842	0,098	-0,060
-380,160	-96,427	-0,008	0,002
-379,146	538,719	0,042	0,072
-378,131	-68,593	-0,168	0,046
-377,117	-200,000	0,005	-0,019
-376,102	800,000	-0,073	-0,206
-375,088	-132,104	-0,120	0,011
-374,073	86,994	0,078	0,062
-373,058	-132,510	0,196	-0,018
-372,044	800,000	0,050	0,118
-371,029	88,471	0,077	-0,062
-370,015	-25,071	-0,044	0,019
-369,000	-200,000	0,018	-0,113
-367,985	-7,771	-0,052	0,025
-366,971	-151,847	-0,153	0,008
-365,956	305,499	0,086	0,116
-364,942	-43,327	0,169	0,061
-363,927	-128,409	-0,048	-0,005
-362,912	-118,074	0,064	0,008
-361,898	488,113	-0,041	-0,068
-360,883	-200,000	-0,026	-0,095
-359,869	396,906	0,004	-0,006
-358,854	-148,014	0,016	0,001
-357,839	-163,807	0,075	0,002
-356,825	-200,000	0,024	0,095
-355,810	800,000	0,039	0,112
-354,796	-122,332	-0,121	0,014
-353,781	-86,626	-0,177	-0,039
-352,766	-200,000	0,028	-0,108
-351,752	-200,000	0,003	-0,026
-350,737	-134,142	0,075	0,007
-349,723	-200,000	-0,004	0,178
-348,708	100,335	0,086	0,072
-347,693	-200,000	-0,032	0,128
-346,679	-200,000	0,008	-0,040
-345,664	800,000	0,003	0,009
-344,650	-200,000	0,010	0,096
-343,635	-200,000	0,015	-0,061
-342,620	105,204	0,108	0,091
-341,606	-200,000	-0,019	0,110
-340,591	800,000	0,008	0,020
-339,577	86,773	-0,093	0,073
-338,562	349,209	0,005	-0,007
-337,548	-164,244	0,233	0,008
-336,533	-200,000	-0,015	0,063
-335,518	41,247	0,115	0,074
-334,504	151,817	0,048	-0,047
-333,489	-38,367	-0,062	0,024
-332,475	674,395	0,058	-0,108
-331,460	322,443	0,017	-0,024
-330,445	-200,000	-0,041	-0,167
-329,431	-8,172	0,128	0,062
-328,416	800,000	-0,056	0,172
-327,402	67,762	0,117	0,085
-326,387	533,321	-0,024	-0,040
-325,372	-200,000	-0,003	-0,120
-324,358	312,921	-0,077	-0,104
-323,343	-17,598	0,066	0,030
-322,329	800,000	0,081	-0,195
-321,314	-200,000	0,033	-0,109
-320,299	-99,070	-0,097	0,017
-319,285	491,939	-0,071	0,117
-318,270	317,730	0,011	0,016
-317,256	541,141	-0,024	-0,041
-316,241	664,621	-0,071	-0,131
-315,226	-200,000	0,009	-0,148
-314,212	800,000	-0,002	-0,004
-313,197	171,105	0,049	-0,050
-312,183	77,307	0,018	-0,013
-311,168	800,000	0,043	-0,090
-310,153	-200,000	-0,002	-0,073
-309,139	-180,272	0,142	-0,002
-308,124	138,624	-0,041	0,038
-307,110	-200,000	-0,001	0,133
-306,095	212,924	-0,059	0,067
-305,080	3,097	0,119	0,062
-304,066	-200,000	-0,002	-0,056
-303,051	800,000	-0,015	0,032
-302,037	208,515	0,045	0,050
-301,022	-200,000	-0,034	0,148
-300,008	-200,000	0,026	0,160
-298,993	-200,000	0,021	0,133
-297,978	709,914	0,062	-0,118
-296,964	-149,636	-0,047	-0,003
-295,949	299,111	0,023	0,031
-294,935	-12,171	0,140	0,065
-293,920	800,000	0,027	-0,071
-292,905	-200,000	0,024	0,138
-291,891	800,000	0,013	-0,039
-290,876	129,644	-0,118	0,108
-289,862	610,292	0,004	-0,008
-288,847	787,447	-0,063	-0,124
-287,832	-200,000	0,013	-0,075
-286,818	-61,830	0,038	0,011
-285,803	800,000	-0,035	0,101
-284,789	-200,000	0,014	0,119
-283,774	428,031	0,045	0,070
-282,759	-6,566	0,155	0,075
-281,745	190,683	-0,081	-0,087
-280,730	-111,137	-0,077	0,011
-279,716	-185,631	0,118	-0,001
-278,701	-66,558	-0,049	-0,014
-277,686	679,333	0,053	0,098
-276,672	49,542	0,071	0,048
-275,657	-200,000	0,006	-0,020
-274,643	-59,571	-0,165	-0,050
-273,628	779,399	-0,044	-0,087
-272,613	56,405	0,044	-0,030
-271,599	-200,000	0,007	-0,091
-270,584	118,816	0,148	0,131
-269,570	4,422	-0,057	0,030
-268,555	799,545	-0,041	0,082
-267,540	67,061	-0,062	-0,045
-266,526	800,000	-0,011	0,031
-265,511	698,406	-0,030	-0,057
-264,497	52,191	0,068	0,046
-263,482	-200,000	-0,003	0,137
-262,467	-10,577	-0,099	0,047
-261,453	-119,630	-0,092	0,011
-260,438	287,732	0,072	0,094
-259,424	-200,000	0,005	-0,052
-258,409	195,292	0,089	0,097
-257,395	417,741	0,034	-0,051
-256,380	800,000	0,021	-0,065
-255,365	29,795	0,110	0,067
-254,351	-200,000	-0,046	0,211
-253,336	-89,520	-0,070	0,015
-252,322	-129,906	-0,219	0,021
-251,307	-200,000	0,001	-0,063
-250,292	30,244	-0,167	-0,102
-249,278	-167,376	0,129	-0,004
-248,263	92,448	0,068	-0,055
-247,249	51,779	-0,123	0,083
-246,234	-14,117	0,066	0,030
-245,219	88,067	-0,087	-0,069
-244,205	241,451	-0,043	0,051
-243,190	800,000	-0,065	0,156
-242,176	-200,000	0,001	-0,050
-241,161	35,924	0,076	0,048
-240,146	92,301	-0,077	0,062
-239,132	62,881	-0,081	-0,058
-238,117	-23,907	-0,078	-0,033
-237,103	-174,794	-0,052	-0,001
-236,088	-200,000	0,003	-0,088
-235,073	760,076	-0,022	-0,042
-234,059	305,380	0,014	0,019
-233,044	-170,270	-0,195	-0,005
-232,030	-200,000	0,023	-0,096
-231,015	-200,000	-0,022	0,124
-230,000	151,131	-0,017	-0,017
-228,986	-135,030	-0,044	0,004
-227,971	-136,775	0,181	-0,015
-226,957	800,000	0,046	0,107
-225,942	146,298	-0,030	-0,029
-224,927	33,543	-0,053	0,033
-223,913	800,000	-0,040	-0,101
-222,898	-71,671	0,088	-0,023
-221,884	-200,000	-0,019	-0,088
-220,869	15,493	0,036	0,020
-219,855	-77,650	0,032	-0,008
-218,840	101,276	0,125	0,104
-217,825	-1,403	-0,045	-0,023
-216,811	-200,000	0,002	-0,062
-215,796	-200,000	-0,013	-0,131
-214,782	-200,000	0,005	0,091
-213,767	-200,000	-0,007	0,079
-212,752	-66,669	0,076	-0,021
-211,738	6,529	0,051	-0,027
-210,723	-34,223	0,015	-0,006
-209,709	-77,149	0,097	-0,024
-208,694	-2,283	0,060	-0,030
-207,679	-154,984	-0,128	0,006
-206,665	487,488	0,023	0,038
-205,650	-200,000	-0,012	0,114
-204,636	800,000	0,065	0,186
-203,621	800,000	-0,056	-0,118
-202,606	416,300	-0,093	0,142
-201,592	-200,000	-0,002	-0,022
-200,577	-98,914	-0,082	-0,015
-199,563	-200,000	-0,020	-0,152
-198,548	35,026	0,131	0,081
-197,533	-200,000	-0,011	0,049
-196,519	332,636	-0,047	0,066
-195,504	-82,412	-0,052	-0,012
-194,490	64,608	-0,058	-0,042
-193,475	800,000	0,036	-0,082
-192,460	261,951	-0,028	0,035
-191,446	188,020	-0,120	0,128
-190,431	19,052	0,115	0,066
-189,417	-55,623	0,092	0,029
-188,402	9,121	-0,114	-0,061
-187,387	-199,523	-0,157	-0,001
-186,373	207,320	0,098	-0,109
-185,358	-25,266	-0,054	-0,023
-184,344	-200,000	0,015	0,119
-183,329	-17,141	0,104	0,047
-182,315	-200,000	-0,063	0,000
-181,300	-200,000	-0,028	-0,187
-180,285	-28,810	-0,132	0,054
-179,271	-200,000	-0,016	-0,118
-178,256	474,496	-0,086	-0,138
-177,242	-48,332	0,139	0,048
-176,227	-21,060	0,057	0,025
-175,212	-200,000	-0,032	-0,199
-174,198	241,986	0,015	0,018
-173,183	-147,817	0,030	-0,002
-172,169	-200,000	0,011	0,107
-171,154	-200,000	0,012	-0,140
-170,139	-200,000	-0,017	-0,096
-169,125	800,000	-0,017	0,048
-168,110	-200,000	0,009	0,075
-167,096	800,000	0,066	-0,196
-166,081	13,581	0,039	0,022
-165,066	140,835	-0,101	-0,095
-164,052	-200,000	-0,046	-0,206
-163,037	800,000	0,056	-0,145
-162,023	-200,000	-0,018	0,129
-161,008	296,897	0,079	0,103
-159,993	152,510	0,052	0,050
-158,979	455,895	0,078	-0,123
-157,964	-130,543	0,068	-0,006
-156,950	19,148	-0,023	-0,013
-155,935	98,913	0,031	0,025
-154,920	800,000	0,039	0,098
-153,906	-200,000	-0,009	0,040
-152,891	-200,000	-0,018	-0,104
-151,877	800,000	-0,072	0,160
-150,862	792,115	-0,050	-0,099
-149,847	-20,967	0,026	0,011
-148,833	45,442	0,069	0,045
-147,818	609,625	0,012	0,022
-146,804	369,770	0,084	0,122
-145,789	108,035	-0,048	0,041
-144,775	-200,000	0,014	-0,072
-143,760	-86,463	0,085	-0,019
-142,745	-95,525	-0,152	0,029
-141,731	503,152	0,070	-0,116
-140,716	118,256	0,024	0,021
-139,702	-200,000	0,002	0,046
-138,687	-37,690	-0,074	-0,028
-137,672	-168,852	0,085	-0,002
-136,658	-142,454	-0,113	0,008
-135,643	-31,429	-0,037	-0,015
-134,629	20,823	0,107	-0,062
-133,614	-200,000	0,016	0,067
-132,599	800,000	-0,045	0,126
-131,585	-200,000	0,001	0,123
-130,570	-70,914	-0,075	0,020
-129,556	-34,780	0,010	-0,004
-128,541	186,343	-0,030	-0,032
-127,526	41,485	-0,091	-0,059
-126,512	800,000	-0,063	-0,141
-125,497	28,418	0,039	-0,023
-124,483	-106,309	0,044	-0,007
-123,468	54,020	0,078	0,053
-122,453	-37,231	0,072	0,027
-121,439	800,000	-0,052	0,132
-120,424	800,000	-0,035	0,079
-119,410	-184,197	0,165	-0,002
-118,395	156,945	-0,012	0,012
-117,380	99,943	0,070	0,058
-116,366	20,799	-0,069	-0,039
-115,351	-41,510	-0,046	-0,017
-114,337	333,475	-0,081	-0,112
-113,322	20,747	0,052	-0,030
-112,307	278,818	0,054	-0,068
-111,293	29,912	-0,111	0,067
-110,278	-31,166	0,109	0,043
-109,264	800,000	0,044	0,099
-108,249	-99,426	-0,102	0,018
-107,234	-200,000	-0,008	-0,089
-106,220	-200,000	-0,043	-0,142
-105,205	-27,950	0,065	-0,027
-104,191	-116,859	0,055	0,007
-103,176	118,869	0,181	0,159
-102,162	20,928	-0,135	0,077
-101,147	-200,000	0,019	-0,090
-100,132	-59,274	-0,102	-0,031
-99,118	109,459	0,086	0,073
-98,103	-124,073	0,034	-0,004
-97,089	-200,000	-0,017	-0,080
-96,074	8,935	0,050	0,027
-95,059	453,901	-0,113	0,178
-94,045	-47,413	0,056	0,019
-93,030	-40,369	-0,126	-0,046
-92,016	47,230	-0,089	-0,059
-91,001	302,102	0,056	-0,073
-89,986	800,000	-0,054	-0,108
-88,972	211,740	0,066	0,074
-87,957	-200,000	0,004	0,130
-86,943	-200,000	0,015	0,105
-85,928	800,000	-0,019	0,050
-84,913	566,493	-0,049	-0,085
-83,899	65,389	-0,080	0,057
-82,884	-42,875	0,025	-0,009
-81,870	425,256	0,029	-0,045
-80,855	-200,000	-0,010	0,120
-79,840	-59,029	-0,113	-0,034
-78,826	-200,000	0,008	-0,045
-77,811	-200,000	0,018	-0,061
-76,797	314,356	0,050	-0,067
-75,782	64,728	0,144	0,103
-74,767	-157,946	0,069	0,003
-73,753	31,451	0,090	0,055
-72,738	319,347	0,063	0,085
-71,724	-4,041	-0,068	-0,034
-70,709	-200,000	0,005	-0,090
-69,694	450,480	0,094	-0,148
-68,680	-84,842	0,054	-0,012
-67,665	-200,000	-0,001	0,074
-66,651	800,000	0,035	0,084
-65,636	693,749	-0,072	0,134
-64,622	-200,000	-0,008	0,087
-63,607	86,239	-0,038	0,030
-62,592	166,497	-0,030	-0,030
-61,578	-69,996	-0,085	-0,023
-60,563	-200,000	0,005	0,172
-59,549	248,764	0,041	0,049
-58,534	-146,738	-1,278	-0,077
-57,519	347,121	-1,616	-2,263
-56,505	-200,000	-0,442	-4,360
-55,490	35,525	0,960	0,597
-54,476	800,000	4,706	11,248
-53,461	-200,000	17,299	268,771
-52,446	800,000	715,143	2179,594
-51,432	551,022	1629,703	2784,844
-50,417	81,317	1655,211	1267,549
-49,403	24,373	1529,639	894,592
-48,388	18,368	1453,155	820,955
-47,373	18,486	1442,528	815,487
-46,359	18,257	1433,252	809,119
-45,344	16,668	1428,691	798,975
-44,330	16,583	1426,816	797,490
-43,315	16,652	1425,112	796,835
-42,300	16,640	1423,553	795,871
-41,286	16,670	1422,236	795,248
-40,271	16,670	1420,933	794,486
-39,257	16,630	1419,677	793,565
-38,242	16,695	1418,294	793,067
-37,227	16,715	1416,992	792,402
-36,213	16,708	1415,864	791,704
-35,198	16,668	1414,829	790,908
-34,184	16,722	1413,705	790,503
-33,169	16,580	1412,472	789,112
-32,154	16,646	1411,675	788,947
-31,140	16,696	1410,116	788,279
-30,125	16,707	1409,257	787,818
-29,111	16,701	1407,856	786,977
-28,096	16,636	1406,859	786,084
-27,082	16,579	1405,788	785,186
-26,067	16,603	1404,383	784,484
-25,052	16,607	1403,604	784,038
-24,038	16,593	1402,663	783,413
-23,023	16,611	1401,400	782,760
-22,009	16,534	1400,452	781,845
-20,994	16,489	1399,823	781,252
-19,979	16,525	1398,897	780,871
-18,965	16,500	1397,691	780,053
-17,950	16,512	1396,871	779,618
-16,936	16,517	1395,837	779,035
-15,921	16,482	1394,592	778,146
-14,906	16,500	1393,720	777,712
-13,892	16,496	1392,936	777,226
-12,877	16,476	1392,032	776,596
-11,863	16,514	1390,888	776,105
-10,848	16,484	1390,166	775,531
-9,833	16,475	1389,204	774,923
-8,819	16,457	1388,085	774,185
-7,804	16,419	1387,333	773,558
-6,790	16,420	1386,289	772,949
-5,775	16,361	1385,319	772,110
-4,760	16,397	1384,571	771,828
-3,746	16,373	1383,847	771,279
-2,731	16,357	1382,949	770,676
-1,717	16,352	1381,918	770,047
-0,702	16,367	1380,125	769,086
0,313	20,222	1301,634	743,093
1,327	36,653	707,587	442,066
2,342	56,498	125,598	86,453
3,356	6,550	16,505	8,668
4,371	16,457	3,134	1,749
5,386	-49,471	0,530	0,178
6,400	-200,000	0,002	0,023
7,415	33,438	-0,345	-0,212
8,429	13,157	-0,348	-0,190
9,444	195,496	-0,361	-0,389
10,459	72,705	-0,258	-0,190
11,473	168,988	-0,249	-0,252
12,488	89,311	-0,179	-0,141
13,502	33,201	-0,223	-0,136
14,517	64,524	-0,331	-0,236
15,531	30,732	-0,432	-0,261
16,546	0,611	-0,252	-0,127
17,561	159,064	-0,233	-0,230
18,575	-90,837	-0,148	-0,030
19,590	51,041	-0,273	-0,183
20,604	-84,291	-0,230	-0,051
21,619	116,812	-0,388	-0,337
22,634	214,404	-0,410	-0,460
23,648	56,795	-0,465	-0,320
24,663	110,292	-0,403	-0,342
25,677	149,981	-0,215	-0,207
26,692	-24,931	-0,333	-0,139
27,707	22,372	-0,311	-0,179
28,721	9,875	-0,343	-0,184
29,736	153,524	-0,424	-0,411
30,750	260,735	-0,296	-0,363
31,765	48,586	-0,394	-0,260
32,780	28,245	-0,384	-0,229
33,794	-3,471	-0,345	-0,169
34,809	55,852	-0,293	-0,201
35,823	264,122	-0,230	-0,283
36,838	136,623	-0,278	-0,257
37,853	14,947	-0,447	-0,247
38,867	15,221	-0,408	-0,226
39,882	108,837	-0,260	-0,219
40,896	149,342	-0,243	-0,233
41,911	68,400	-0,252	-0,183
42,926	49,875	-0,432	-0,287
43,940	109,376	-0,385	-0,325
44,955	8,852	-0,388	-0,206
45,969	67,307	-0,282	-0,203
46,984	183,649	-0,257	-0,269
47,999	85,059	-0,339	-0,262
49,013	174,762	-0,247	-0,252
50,028	189,916	-0,271	-0,287
51,042	34,533	-0,402	-0,247
52,057	173,135	-0,327	-0,332
53,071	-12,642	-0,364	-0,167
54,086	92,911	-0,367	-0,292
55,101	185,182	-0,356	-0,373
56,115	32,774	-0,384	-0,234
57,130	205,590	-0,311	-0,341
58,144	-9,482	-0,445	-0,208
59,159	270,678	-0,251	-0,312
60,174	-112,342	-0,430	-0,060
61,188	39,054	-0,310	-0,195
62,203	117,174	-0,284	-0,246
63,217	122,071	-0,319	-0,281
64,232	163,803	-0,239	-0,237
65,247	97,751	-0,314	-0,254
66,261	29,275	-0,417	-0,249
67,276	65,276	-0,414	-0,295
68,290	93,810	-0,354	-0,283
69,305	19,848	-0,347	-0,197
70,320	-6,551	-0,271	-0,130
71,334	-42,200	-0,286	-0,102
72,349	175,564	-0,196	-0,201
73,363	126,169	-0,354	-0,315
74,378	44,739	-0,208	-0,134
75,393	88,790	-0,264	-0,207
76,407	104,467	-0,162	-0,134
77,422	86,385	-0,272	-0,211
78,436	66,229	-0,349	-0,249
79,451	285,616	-0,224	-0,285
80,466	-67,293	-0,406	-0,112
81,480	144,699	-0,240	-0,226
82,495	-61,404	-0,375	-0,110
83,509	-113,895	-0,339	0,046
84,524	97,793	-0,301	-0,244
85,539	-42,785	-0,496	-0,177
86,553	-105,978	-0,245	-0,038
87,568	124,886	-0,340	-0,301
88,582	120,964	-0,310	-0,272
89,597	190,740	-0,202	-0,214
90,611	170,288	-0,227	-0,229
91,626	-66,484	-0,200	-0,056
92,641	-31,859	-0,299	-0,117
93,655	57,916	-0,277	-0,190
94,670	-1,773	-0,331	-0,163
95,684	291,392	-0,302	-0,387
96,699	375,682	-0,177	-0,254
97,714	126,473	-0,229	-0,204
98,728	307,806	-0,190	-0,249
99,743	53,135	-0,168	-0,113
100,757	-51,285	-0,333	-0,109
101,772	52,183	-0,161	-0,108
102,787	290,705	-0,302	-0,386
103,801	71,944	-0,295	-0,215
104,816	35,184	-0,348	-0,214
105,830	402,381	-0,155	-0,229
106,845	63,391	-0,279	-0,196
107,860	240,149	-0,211	-0,248
108,874	-11,543	-0,380	-0,175
109,889	-93,333	-0,283	-0,055
110,903	11,737	-0,322	-0,173
111,918	-23,987	-0,221	-0,093
112,933	49,810	-0,310	-0,205
113,947	50,161	-0,210	-0,139
114,962	-200,000	-0,074	-0,281
115,976	15,118	-0,296	-0,162
116,991	-20,878	-0,327	-0,140
118,006	328,722	-0,234	-0,316
119,020	680,239	-0,127	-0,233
120,035	-73,981	-0,292	-0,074
121,049	20,373	-0,240	-0,136
122,064	-5,130	-0,280	-0,135
123,079	335,116	-0,185	-0,252
124,093	111,506	-0,233	-0,197
125,108	22,337	-0,208	-0,119
126,122	-11,389	-0,233	-0,107
127,137	86,419	-0,260	-0,201
128,151	61,565	-0,232	-0,161
129,166	114,885	-0,217	-0,186
130,181	-3,084	-0,165	-0,081
131,195	197,451	-0,225	-0,241
132,210	217,783	-0,184	-0,205
133,224	44,833	-0,205	-0,132
134,239	250,648	-0,163	-0,194
135,254	214,974	-0,196	-0,218
136,268	91,581	-0,201	-0,159
137,283	-49,274	-0,279	-0,093
138,297	-2,771	-0,374	-0,182
139,312	288,435	-0,224	-0,284
140,327	-147,458	-0,236	-0,014
141,341	-27,238	-0,205	-0,083
142,356	383,376	-0,168	-0,243
143,370	-114,148	-0,307	-0,041
144,385	96,591	-0,206	-0,165
145,400	34,368	-0,188	-0,115
146,414	20,119	-0,254	-0,143
147,429	111,568	-0,270	-0,228
148,443	722,809	-0,133	-0,249
149,458	137,841	-0,162	-0,149
150,473	28,487	-0,243	-0,143
151,487	166,888	-0,232	-0,231
152,502	182,675	-0,170	-0,176
153,516	702,965	-0,146	-0,270
154,531	241,635	-0,185	-0,217
155,546	48,898	-0,232	-0,152
156,560	23,961	-0,313	-0,180
157,575	-80,725	-0,272	-0,063
158,589	64,876	-0,156	-0,110
159,604	50,371	-0,206	-0,136
160,619	193,286	-0,214	-0,226
161,633	188,958	-0,230	-0,241
162,648	-22,935	-0,232	-0,097
163,662	-45,359	-0,231	-0,080
164,677	489,117	-0,083	-0,133
165,692	-71,493	-0,219	-0,057
166,706	-19,425	-0,267	-0,115
167,721	41,394	-0,323	-0,204
168,735	16,855	-0,259	-0,143
169,750	162,511	-0,262	-0,257
170,764	-130,613	-0,182	-0,017
171,779	191,397	-0,184	-0,194
172,794	242,620	-0,224	-0,263
173,808	69,694	-0,373	-0,268
174,823	202,372	-0,212	-0,229
175,837	-200,000	-0,065	-0,208
176,852	-9,987	-0,271	-0,125
177,867	272,342	-0,134	-0,165
178,881	-84,333	-0,200	-0,044
179,896	-58,268	-0,160	-0,048
180,910	204,127	-0,175	-0,190
181,925	97,126	-0,138	-0,111
182,940	40,993	-0,329	-0,207
183,954	235,610	-0,209	-0,241
184,969	37,937	-0,221	-0,137
185,983	182,430	-0,228	-0,235
186,998	84,263	-0,212	-0,162
188,013	96,722	-0,120	-0,096
189,027	95,854	-0,333	-0,265
190,042	79,684	-0,292	-0,219
191,056	116,774	-0,208	-0,178
192,071	201,825	-0,186	-0,200
193,086	27,687	-0,194	-0,114
194,100	-81,708	-0,156	-0,035
195,115	69,907	-0,249	-0,178
196,129	800,000	-0,053	-0,124
197,144	164,826	-0,164	-0,162
198,159	335,174	-0,245	-0,332
199,173	96,604	-0,134	-0,107
200,188	220,807	-0,106	-0,119
201,202	26,753	-0,223	-0,130
202,217	416,580	-0,166	-0,248
203,232	129,398	-0,102	-0,091
204,246	-4,250	-0,287	-0,138
205,261	800,000	-0,106	-0,219
206,275	102,200	-0,259	-0,211
207,290	717,160	-0,058	-0,108
208,304	87,356	-0,129	-0,100
209,319	-96,244	-0,261	-0,048
210,334	11,056	-0,375	-0,199
211,348	202,054	-0,148	-0,159
212,363	128,950	-0,200	-0,178
213,377	-92,002	-0,186	-0,036
214,392	198,617	-0,170	-0,181
215,407	800,000	-0,042	-0,114
216,421	338,426	-0,127	-0,173
217,436	50,878	-0,202	-0,133
218,450	-45,914	-0,193	-0,066
219,465	310,420	-0,178	-0,232
220,480	112,773	-0,202	-0,170
221,494	-53,135	-0,156	-0,050
222,509	-99,323	-0,197	-0,034
223,523	119,213	-0,078	-0,067
224,538	127,852	-0,216	-0,191
225,553	-156,588	-0,259	-0,011
226,567	127,378	-0,176	-0,155
227,582	-59,864	-0,148	0,044
228,596	-33,898	-0,131	-0,050
229,611	-85,908	-0,213	-0,046
230,626	-36,109	-0,158	-0,059
231,640	800,000	-0,120	-0,237
232,655	-15,164	-0,286	-0,126
233,669	139,482	-0,269	-0,246
234,684	589,179	-0,169	-0,291
235,699	75,203	-0,178	-0,130
236,713	-200,000	0,021	-0,097
237,728	-6,799	-0,170	-0,080
238,742	167,873	-0,177	-0,175
239,757	444,238	-0,160	-0,245
240,772	204,698	-0,164	-0,176
241,786	-13,152	-0,240	-0,108
242,801	-162,203	-0,162	-0,006
243,815	145,390	-0,058	-0,054
244,830	-48,150	-0,171	-0,057
245,844	30,933	-0,142	-0,085
246,859	24,841	-0,215	-0,123
247,874	30,821	-0,139	-0,083
248,888	197,003	-0,127	-0,135
249,903	-52,399	-0,106	-0,034
250,917	-45,946	-0,186	-0,063
251,932	492,600	-0,059	-0,094
252,947	-119,105	-0,244	-0,029
253,961	129,974	-0,181	-0,160
254,976	128,232	-0,206	-0,182
255,990	-33,465	-0,214	-0,081
257,005	-118,749	-0,301	0,036
258,020	91,792	-0,246	-0,192
259,034	-155,091	-0,291	-0,013
260,049	247,468	-0,190	-0,223
261,063	248,392	-0,097	-0,114
262,078	20,103	-0,268	-0,150
263,093	21,734	-0,143	-0,081
264,107	328,991	-0,183	-0,244
265,122	-12,248	-0,114	-0,051
266,136	201,766	-0,113	-0,120
267,151	800,000	-0,051	-0,127
268,166	-82,274	-0,243	0,054
269,180	5,322	-0,265	-0,135
270,195	-96,760	-0,209	-0,038
271,209	71,340	-0,139	-0,099
272,224	346,942	-0,056	-0,076
273,239	-62,424	-0,119	-0,034
274,253	226,626	-0,169	-0,190
275,268	2,256	-0,146	-0,073
276,282	800,000	-0,100	-0,222
277,297	-84,239	-0,208	-0,045
278,312	363,567	-0,152	-0,211
279,326	-67,487	-0,106	-0,029
280,341	-122,365	-0,141	-0,016
281,355	-101,878	-0,118	-0,019
282,370	84,480	-0,161	-0,122
283,384	-110,689	-0,193	-0,027
284,399	25,900	-0,185	-0,106
285,414	81,242	-0,142	-0,106
286,428	77,059	-0,188	-0,138
287,443	-88,366	-0,103	0,021
288,457	756,925	-0,091	-0,171
289,472	45,636	-0,168	-0,107
290,487	345,288	-0,155	-0,211
291,501	37,339	-0,168	-0,103
292,516	-1,481	-0,106	-0,052
293,530	18,567	-0,205	-0,113
294,545	-200,000	-0,017	-0,099
295,560	28,378	-0,186	-0,108
296,574	-200,000	-0,017	-0,087
297,589	177,041	-0,115	-0,116
298,603	800,000	-0,131	-0,292
299,618	79,311	-0,152	-0,112
300,633	-94,251	-0,098	-0,018
301,647	-60,522	-0,094	-0,027
302,662	142,209	-0,119	-0,109
303,676	-200,000	0,014	-0,089
304,691	11,899	-0,170	-0,090
305,706	-159,778	-0,064	-0,002
306,720	234,267	-0,123	-0,140
307,735	382,354	-0,154	-0,219
308,749	-16,455	-0,091	0,040
309,764	42,139	-0,193	-0,121
310,779	-32,840	-0,181	-0,069
311,793	153,021	-0,238	-0,225
312,808	170,812	-0,207	-0,205
313,822	38,221	-0,084	-0,052
314,837	-120,730	-0,160	0,018
315,852	10,327	-0,068	-0,036
316,866	700,012	-0,075	0,137
317,881	119,194	-0,185	-0,157
318,895	-74,079	-0,128	-0,032
319,910	333,610	-0,154	-0,206
320,925	237,744	-0,084	-0,097
321,939	181,411	-0,132	-0,134
322,954	-121,658	-0,161	-0,018
323,968	397,625	-0,128	-0,185
324,983	-62,447	-0,236	-0,067
325,997	-64,341	-0,213	-0,059
327,012	-138,953	-0,235	-0,017
328,027	54,447	-0,134	-0,089
329,041	92,167	-0,276	-0,214
330,056	-200,000	-0,079	-0,000
331,070	-118,632	-0,102	0,012
332,085	302,812	-0,121	-0,154
333,100	-9,436	-0,204	-0,093
334,114	184,571	-0,119	-0,122
335,129	-200,000	-0,062	-0,205
336,143	217,476	-0,105	-0,115
337,158	224,329	-0,085	-0,095
338,173	-25,321	-0,183	-0,074
339,187	-99,354	-0,091	0,016
340,202	158,990	-0,039	-0,038
341,216	210,332	-0,175	-0,190
342,231	800,000	-0,081	-0,213
343,246	-200,000	-0,020	-0,128
344,260	9,432	-0,110	-0,057
345,275	235,265	-0,020	0,023
346,289	-26,208	-0,134	-0,054
347,304	268,188	-0,195	-0,235
348,319	592,710	-0,023	-0,039
349,333	2,165	-0,155	-0,077
350,348	27,067	-0,149	-0,086
351,362	630,199	-0,129	-0,225
352,377	-19,100	-0,127	0,054
353,392	397,222	-0,102	-0,147
354,406	263,165	-0,137	-0,164
355,421	208,834	1315,650	1416,803
356,435	160,699	1476,537	1417,326
