DTS Sentinel unit serial number:	SN410029Multiplexer serial number:	ORYXHardware model number:	OX2-SRSoftware version number:	ORYX F/W v4,00 Oryx Data Collector v3.7.2.0data status	okinstallation	B3 Nyhavnadifferential loss correction	single-endedforward channel	channel 1reverse channel	N/Adate	2023/12/04time	06:42:30forward acquisition time	300,00reverse acquisition time	0,00gamma	499,1914k internal	0,3205k external	0,3205temperature offset calibration	1,0000default loss term (dB/km)	0,3820temperature slope calibration	1,0000multiplexer offset coefficient	1,0000multiplexer slope coefficient	1,0000fibre end	0,00T internal ref (°C)	12,06T ext. ref 1 (°C)	-2,75T ext. ref 2 (°C)	-2,77length (m)	temperature (°C)	Stokes	anti-Stokes-744,400	800,000	-0,150	-0,314
-743,385	-200,000	-0,032	0,289
-742,371	314,609	-0,085	-0,117
-741,356	246,322	0,175	0,215
-740,342	-24,531	-0,286	-0,123
-739,327	-200,000	-0,019	0,249
-738,312	64,860	-0,313	-0,229
-737,298	-200,000	-0,013	0,184
-736,283	-200,000	-0,013	-0,195
-735,269	-200,000	0,026	0,305
-734,254	430,197	-0,137	-0,217
-733,239	-79,757	-0,192	0,047
-732,225	129,176	-0,194	-0,179
-731,210	-97,300	0,118	-0,022
-730,196	96,901	0,032	-0,026
-729,181	-126,047	0,061	0,007
-728,167	234,312	-0,017	0,020
-727,152	93,430	-0,057	-0,047
-726,137	800,000	0,017	-0,045
-725,123	216,693	-0,072	-0,083
-724,108	800,000	-0,015	-0,045
-723,094	408,004	-0,074	-0,114
-722,079	800,000	-0,070	-0,149
-721,064	800,000	0,084	-0,178
-720,050	314,848	0,048	-0,066
-719,035	-116,651	-0,051	0,007
-718,021	78,738	-0,143	-0,111
-717,006	-61,054	-0,101	-0,031
-715,991	-200,000	-0,003	-0,108
-714,977	800,000	0,029	-0,060
-713,962	-200,000	0,007	-0,054
-712,948	-68,145	-0,069	0,019
-711,933	164,662	-0,038	0,039
-710,918	-200,000	-0,006	0,050
-709,904	27,790	-0,075	0,045
-708,889	768,134	0,029	0,058
-707,875	563,550	-0,018	-0,032
-706,860	-200,000	-0,002	-0,072
-705,845	-200,000	-0,015	-0,103
-704,831	-60,194	-0,130	0,040
-703,816	105,154	-0,028	0,024
-702,802	239,919	-0,011	-0,013
-701,787	127,128	-0,146	-0,134
-700,772	-200,000	-0,005	-0,139
-699,758	139,572	-0,091	-0,087
-698,743	218,972	-0,022	-0,026
-697,729	401,457	0,034	-0,051
-696,714	-89,487	-0,058	-0,012
-695,699	800,000	-0,057	-0,139
-694,685	-83,137	-0,119	-0,027
-693,670	368,853	-0,017	-0,025
-692,656	154,763	-0,110	0,109
-691,641	-200,000	0,003	-0,070
-690,627	-21,077	-0,040	-0,018
-689,612	226,714	-0,010	-0,011
-688,597	-200,000	-0,009	-0,064
-687,583	-127,647	-0,056	-0,006
-686,568	-37,524	-0,030	-0,011
-685,554	43,944	0,122	-0,081
-684,539	800,000	0,026	0,076
-683,524	-200,000	-0,014	-0,130
-682,510	-200,000	-0,089	0,000
-681,495	-37,786	0,055	-0,021
-680,481	393,870	0,056	-0,084
-679,466	-34,252	-0,148	-0,058
-678,451	536,746	0,079	0,137
-677,437	378,461	0,073	-0,109
-676,422	-200,000	-0,012	-0,064
-675,408	800,000	0,017	-0,047
-674,393	800,000	-0,065	-0,172
-673,378	60,882	-0,086	-0,061
-672,364	-47,554	0,019	-0,006
-671,349	-50,879	-0,114	0,039
-670,335	116,826	-0,089	-0,079
-669,320	90,334	0,030	-0,025
-668,305	24,884	-0,064	0,038
-667,291	-59,223	-0,035	0,011
-666,276	-135,049	-0,137	-0,012
-665,262	-81,111	-0,136	-0,032
-664,247	800,000	-0,039	-0,094
-663,232	-200,000	0,009	0,098
-662,218	-151,278	0,102	-0,005
-661,203	743,737	-0,039	0,076
-660,189	176,681	-0,038	-0,040
-659,174	27,866	0,036	-0,022
-658,159	-19,616	-0,115	-0,052
-657,145	-200,000	0,005	-0,087
-656,130	4,594	0,059	-0,031
-655,116	-1,293	0,055	-0,028
-654,101	-200,000	0,006	0,127
-653,086	439,885	0,020	-0,032
-652,072	148,031	-0,048	0,047
-651,057	-56,294	-0,036	-0,012
-650,043	85,146	-0,056	-0,044
-649,028	302,851	0,068	-0,092
-648,014	770,221	-0,045	-0,090
-646,999	-145,010	0,113	-0,007
-645,984	26,813	-0,150	0,090
-644,970	375,779	-0,052	0,077
-643,955	-114,784	0,102	0,014
-642,941	-65,686	-0,168	-0,048
-641,926	-200,000	0,017	-0,165
-640,911	-67,105	-0,132	-0,037
-639,897	-200,000	0,012	0,040
-638,882	334,071	0,062	-0,087
-637,868	191,645	-0,010	-0,011
-636,853	574,675	0,017	-0,031
-635,838	346,544	0,049	0,070
-634,824	-200,000	-0,002	-0,032
-633,809	85,877	0,041	-0,033
-632,795	-79,784	-0,075	-0,018
-631,780	-9,620	0,109	0,053
-630,765	-132,931	-0,097	0,009
-629,751	135,871	0,029	-0,028
-628,736	150,993	0,027	0,026
-627,722	-104,039	-0,037	0,006
-626,707	243,683	0,133	-0,162
-625,692	16,026	-0,047	-0,027
-624,678	-103,060	-0,078	0,013
-623,663	-36,106	0,085	-0,033
-622,649	119,912	0,015	-0,014
-621,634	-22,714	-0,059	-0,026
-620,619	93,363	0,097	-0,080
-619,605	800,000	0,047	0,094
-618,590	-78,175	0,128	-0,032
-617,576	119,169	-0,074	0,066
-616,561	-200,000	-0,013	-0,119
-615,546	-81,802	0,092	-0,022
-614,532	-200,000	0,027	-0,117
-613,517	34,128	-0,027	0,017
-612,503	-200,000	-0,012	0,042
-611,488	188,876	0,067	0,072
-610,474	-200,000	0,005	0,066
-609,459	-200,000	-0,013	-0,121
-608,444	-47,350	0,046	-0,016
-607,430	249,218	-0,062	-0,076
-606,415	50,660	0,069	0,047
-605,401	-200,000	-0,001	0,009
-604,386	-52,901	0,099	0,033
-603,371	25,421	0,132	-0,079
-602,357	-8,324	-0,246	-0,119
-601,342	207,396	0,068	-0,077
-600,328	395,215	-0,010	0,015
-599,313	-200,000	-0,001	0,054
-598,298	191,621	-0,041	0,044
-597,284	-7,651	-0,116	-0,056
-596,269	-9,014	0,068	0,033
-595,255	-200,000	-0,008	-0,060
-594,240	-124,716	-0,184	0,020
-593,225	360,781	-0,039	-0,056
-592,211	-200,000	-0,022	-0,120
-591,196	51,740	-0,056	-0,038
-590,182	800,000	-0,016	-0,038
-589,167	-133,732	-0,057	0,005
-588,152	-120,897	0,149	0,018
-587,138	29,271	-0,040	-0,025
-586,123	-51,433	-0,195	-0,065
-585,109	1,250	-0,048	-0,025
-584,094	800,000	0,026	-0,057
-583,079	-61,854	0,130	-0,039
-582,065	613,860	0,024	0,044
-581,050	111,384	0,092	0,080
-580,036	-200,000	0,027	0,167
-579,021	42,627	0,045	0,030
-578,006	-200,000	-0,032	-0,135
-576,992	800,000	-0,018	-0,045
-575,977	-77,666	0,069	0,017
-574,963	50,463	0,036	-0,025
-573,948	-200,000	-0,012	0,123
-572,934	-97,318	0,122	0,023
-571,919	25,810	-0,055	0,033
-570,904	155,734	-0,003	-0,003
-569,890	-77,932	0,106	-0,026
-568,875	-200,000	-0,029	0,157
-567,861	-85,226	0,185	-0,041
-566,846	368,298	-0,041	-0,060
-565,831	25,485	-0,056	-0,033
-564,817	119,918	0,022	0,020
-563,802	263,149	0,070	-0,087
-562,788	-154,434	0,043	-0,002
-561,773	517,921	-0,049	-0,083
-560,758	-111,921	-0,060	-0,009
-559,744	-142,141	-0,014	-0,001
-558,729	-200,000	-0,000	-0,022
-557,715	49,036	-0,145	-0,098
-556,700	-87,878	-0,116	0,025
-555,685	198,130	0,018	-0,020
-554,671	-200,000	-0,022	-0,081
-553,656	800,000	-0,015	0,043
-552,642	-200,000	-0,031	0,170
-551,627	-200,000	0,004	-0,058
-550,612	-200,000	0,002	-0,204
-549,598	-200,000	0,009	-0,038
-548,583	-20,679	0,048	-0,021
-547,569	57,623	-0,085	-0,060
-546,554	351,429	0,072	-0,103
-545,539	161,209	0,040	0,040
-544,525	362,279	0,046	0,067
-543,510	-0,492	0,084	-0,043
-542,496	-200,000	0,021	-0,133
-541,481	283,258	-0,031	-0,041
-540,466	-84,119	0,091	-0,021
-539,452	-200,000	0,007	0,086
-538,437	-38,786	0,053	0,020
-537,423	278,566	-0,035	-0,045
-536,408	-89,462	-0,097	-0,020
-535,393	188,790	-0,056	-0,060
-534,379	292,431	-0,044	0,057
-533,364	214,379	0,150	0,172
-532,350	357,246	0,038	0,054
-531,335	-56,140	0,099	-0,032
-530,321	-200,000	-0,007	0,110
-529,306	-200,000	0,004	-0,207
-528,291	800,000	0,029	0,058
-527,277	-200,000	0,022	0,080
-526,262	38,544	-0,022	0,014
-525,248	155,651	0,175	0,173
-524,233	-200,000	-0,014	-0,066
-523,218	-77,511	-0,082	-0,020
-522,204	800,000	0,005	0,016
-521,189	-200,000	0,011	-0,072
-520,175	-200,000	0,011	-0,123
-519,160	216,167	-0,043	0,050
-518,145	102,127	-0,023	0,020
-517,131	19,234	0,104	0,060
-516,116	166,901	-0,091	0,093
-515,102	-90,200	0,123	-0,026
-514,087	-173,651	-0,128	0,003
-513,072	-156,338	-0,093	-0,004
-512,058	635,118	0,064	0,117
-511,043	-12,842	-0,003	-0,001
-510,029	149,963	0,129	0,126
-509,014	800,000	0,012	-0,031
-507,999	50,241	-0,055	0,037
-506,985	-11,374	-0,095	0,045
-505,970	84,539	0,040	0,032
-504,956	-77,564	-0,178	-0,044
-503,941	800,000	-0,052	0,141
-502,926	60,460	0,060	0,043
-501,912	-200,000	-0,007	-0,060
-500,897	-106,176	-0,030	0,005
-499,883	546,820	0,049	-0,085
-498,868	-200,000	-0,000	-0,026
-497,853	-27,262	-0,064	-0,027
-496,839	-178,059	-0,170	-0,003
-495,824	28,315	0,123	-0,075
-494,810	635,105	-0,026	0,047
-493,795	-161,926	0,058	-0,002
-492,781	-114,565	-0,100	-0,014
-491,766	-64,094	-0,029	-0,009
-490,751	680,120	0,067	0,126
-489,737	740,101	-0,066	0,128
-488,722	-73,336	0,083	-0,022
-487,708	627,904	0,028	-0,051
-486,693	-200,000	0,021	-0,139
-485,678	-200,000	-0,014	-0,054
-484,664	21,995	-0,086	-0,050
-483,649	-200,000	0,017	-0,084
-482,635	-123,108	-0,183	-0,021
-481,620	-200,000	-0,017	-0,063
-480,605	-200,000	-0,010	-0,080
-479,591	800,000	-0,031	0,082
-478,576	391,689	-0,078	0,116
-477,562	182,941	-0,064	-0,068
-476,547	107,045	0,072	0,061
-475,532	49,510	0,021	0,014
-474,518	459,372	0,024	0,039
-473,503	-54,886	-0,006	-0,002
-472,489	258,139	-0,053	0,066
-471,474	-1,988	0,080	0,040
-470,459	428,494	-0,015	-0,023
-469,445	-95,741	0,052	0,010
-468,430	76,095	0,018	-0,014
-467,416	-145,799	0,129	-0,008
-466,401	800,000	0,048	0,138
-465,386	14,274	-0,080	0,045
-464,372	-79,370	-0,107	-0,026
-463,357	-200,000	0,009	0,050
-462,343	519,263	-0,018	-0,031
-461,328	800,000	-0,023	-0,053
-460,313	-29,770	0,043	0,017
-459,299	-47,215	-0,143	0,050
-458,284	-200,000	-0,029	0,094
-457,270	-200,000	0,021	0,170
-456,255	-200,000	-0,006	-0,091
-455,241	54,677	-0,154	-0,107
-454,226	-114,149	0,114	0,016
-453,211	-119,685	-0,140	0,017
-452,197	220,181	-0,076	0,088
-451,182	527,565	0,081	0,137
-450,168	293,576	-0,082	0,108
-449,153	-200,000	0,026	-0,149
-448,138	248,065	-0,016	-0,020
-447,124	-66,587	-0,047	-0,013
-446,109	533,953	-0,048	-0,082
-445,095	393,728	-0,046	-0,068
-444,080	-200,000	0,000	0,172
-443,065	238,252	0,044	0,053
-442,051	145,189	0,043	-0,041
-441,036	452,360	-0,033	-0,053
-440,022	-200,000	-0,007	-0,026
-439,007	704,634	-0,043	-0,082
-437,992	-200,000	0,010	0,069
-436,978	-25,793	0,172	0,072
-435,963	800,000	0,034	0,105
-434,949	311,776	0,034	-0,046
-433,934	-84,943	-0,035	-0,008
-432,919	27,043	0,043	0,026
-431,905	800,000	-0,010	0,029
-430,890	20,833	0,037	0,022
-429,876	508,919	-0,035	0,059
-428,861	800,000	-0,028	-0,057
-427,846	170,037	0,070	-0,072
-426,832	800,000	-0,060	-0,127
-425,817	58,820	-0,062	-0,043
-424,803	-200,000	0,003	-0,069
-423,788	-72,260	-0,040	-0,010
-422,773	-92,820	0,059	-0,012
-421,759	-200,000	0,004	-0,029
-420,744	-34,219	-0,145	0,057
-419,730	191,102	-0,119	-0,129
-418,715	800,000	0,048	-0,147
-417,701	-200,000	-0,027	-0,105
-416,686	68,102	0,040	0,029
-415,671	31,543	-0,050	-0,031
-414,657	640,601	-0,034	0,062
-413,642	-200,000	-0,001	0,082
-412,628	800,000	0,014	-0,034
-411,613	-105,600	0,114	-0,018
-410,598	-200,000	-0,039	0,184
-409,584	-200,000	-0,003	-0,012
-408,569	-200,000	-0,005	0,028
-407,555	-48,072	0,154	-0,053
-406,540	63,796	0,090	0,065
-405,525	-154,801	-0,071	0,003
-404,511	-186,271	-0,054	-0,001
-403,496	800,000	0,027	0,083
-402,482	22,646	0,026	0,015
-401,467	-200,000	0,029	0,104
-400,452	47,993	0,032	-0,022
-399,438	-22,697	0,081	0,035
-398,423	70,861	0,126	0,094
-397,409	-29,201	-0,240	0,098
-396,394	226,805	-0,036	0,042
-395,379	-112,125	0,108	-0,015
-394,365	-200,000	0,017	0,066
-393,350	-200,000	0,011	0,093
-392,336	-118,199	0,086	0,011
-391,321	-156,535	-0,033	-0,001
-390,306	800,000	-0,025	-0,079
-389,292	-103,342	-0,053	0,009
-388,277	-200,000	-0,037	-0,133
-387,263	61,343	0,053	0,037
-386,248	800,000	0,014	0,039
-385,233	-76,105	0,169	0,042
-384,219	258,458	-0,090	0,112
-383,204	-3,419	0,092	-0,046
-382,190	800,000	-0,076	-0,221
-381,175	-200,000	0,002	-0,061
-380,160	267,369	-0,012	0,015
-379,146	-200,000	0,010	-0,056
-378,131	800,000	0,021	0,053
-377,117	-143,096	0,044	0,003
-376,102	-64,581	-0,136	0,039
-375,088	511,599	0,036	0,061
-374,073	57,392	-0,133	0,093
-373,058	-200,000	0,027	0,091
-372,044	-200,000	0,009	-0,056
-371,029	168,031	0,041	-0,042
-370,015	-200,000	0,016	0,067
-369,000	-93,522	-0,209	-0,041
-367,985	20,262	0,059	0,034
-366,971	-200,000	0,017	0,118
-365,956	-62,431	-0,111	0,033
-364,942	54,525	0,118	0,081
-363,927	-34,684	0,101	0,039
-362,912	100,096	-0,055	-0,046
-361,898	98,064	-0,053	-0,044
-360,883	57,402	-0,086	-0,060
-359,869	-81,992	-0,112	0,026
-358,854	12,235	-0,027	0,015
-357,839	-48,697	0,172	0,059
-356,825	-69,067	-0,120	0,033
-355,810	-87,259	0,035	-0,007
-354,796	18,209	-0,101	-0,058
-353,781	800,000	-0,018	-0,046
-352,766	-200,000	-0,013	0,151
-351,752	23,289	0,230	0,135
-350,737	4,584	0,131	0,069
-349,723	-7,597	0,015	0,007
-348,708	192,036	0,041	0,044
-347,693	800,000	-0,046	-0,111
-346,679	-200,000	-0,041	-0,194
-345,664	800,000	0,045	-0,113
-344,650	-45,452	0,084	0,030
-343,635	-200,000	0,005	0,078
-342,620	696,314	0,036	-0,069
-341,606	-106,952	-0,028	0,004
-340,591	-29,654	0,028	-0,012
-339,577	-200,000	0,004	0,113
-338,562	118,127	-0,133	0,117
-337,548	-200,000	0,032	-0,159
-336,533	-57,408	-0,081	0,025
-335,518	55,516	0,133	0,092
-334,504	468,097	0,053	0,085
-333,489	69,815	-0,116	-0,085
-332,475	-200,000	0,011	-0,233
-331,460	277,636	0,057	-0,073
-330,445	531,952	-0,045	-0,076
-329,431	-200,000	0,009	-0,051
-328,416	445,350	-0,016	-0,026
-327,402	629,365	0,059	0,106
-326,387	555,944	0,060	0,103
-325,372	800,000	-0,042	-0,116
-324,358	-32,444	-0,072	-0,029
-323,343	800,000	0,053	-0,136
-322,329	52,226	0,082	0,056
-321,314	41,346	0,021	0,014
-320,299	79,257	0,034	0,026
-319,285	-9,588	-0,113	-0,053
-318,270	-41,476	-0,103	-0,038
-317,256	800,000	0,038	-0,084
-316,241	86,080	-0,102	0,080
-315,226	30,298	0,051	0,031
-314,212	26,709	0,081	0,048
-313,197	-200,000	-0,025	0,078
-312,183	552,351	0,039	0,067
-311,168	-48,831	-0,129	-0,044
-310,153	194,325	-0,077	0,083
-309,139	131,921	-0,082	-0,075
-308,124	60,333	-0,043	0,031
-307,110	456,530	-0,069	0,110
-306,095	-75,011	0,103	0,026
-305,080	-89,464	0,134	-0,028
-304,066	-200,000	-0,019	0,094
-303,051	-63,310	-0,088	0,026
-302,037	-200,000	0,005	-0,103
-301,022	-105,212	-0,029	0,005
-300,008	-113,910	0,050	-0,007
-298,993	142,340	0,056	0,053
-297,978	675,735	0,057	0,106
-296,964	-200,000	0,005	0,032
-295,949	358,826	0,059	-0,084
-294,935	-158,155	-0,029	-0,001
-293,920	-200,000	-0,005	-0,045
-292,905	590,653	0,096	-0,169
-291,891	414,672	0,029	0,044
-290,876	-200,000	-0,011	0,090
-289,862	-47,094	0,066	-0,023
-288,847	37,582	-0,061	0,038
-287,832	-124,177	-0,119	0,013
-286,818	48,530	-0,065	0,044
-285,803	293,243	0,078	0,101
-284,789	-128,213	0,138	0,014
-283,774	-147,026	-0,018	0,001
-282,759	-154,068	-0,061	0,003
-281,745	182,613	-0,008	-0,008
-280,730	800,000	-0,048	-0,098
-279,716	308,527	0,031	-0,041
-278,701	315,541	0,064	-0,086
-277,686	131,187	-0,084	0,077
-276,672	800,000	0,020	0,042
-275,657	800,000	0,037	0,106
-274,643	28,729	0,088	-0,053
-273,628	-85,850	-0,114	-0,025
-272,613	800,000	0,052	-0,105
-271,599	434,622	-0,083	-0,129
-270,584	-44,128	0,073	0,026
-269,570	-60,341	0,057	0,017
-268,555	127,426	0,120	-0,109
-267,540	27,315	-0,071	-0,043
-266,526	83,617	-0,065	0,051
-265,511	574,467	0,032	0,056
-264,497	-173,056	0,051	-0,001
-263,482	-51,671	0,077	-0,025
-262,467	-200,000	0,003	0,057
-261,453	80,997	-0,104	0,080
-260,438	-101,979	-0,060	-0,010
-259,424	610,967	-0,018	-0,032
-258,409	34,656	-0,089	-0,055
-257,395	204,763	0,064	0,070
-256,380	-200,000	-0,010	0,161
-255,365	-9,910	0,059	-0,028
-254,351	-200,000	0,005	-0,040
-253,336	-19,033	-0,104	-0,046
-252,322	-94,680	0,093	0,018
-251,307	91,114	-0,107	-0,086
-250,292	67,365	0,096	-0,070
-249,278	-113,789	0,083	-0,011
-248,263	-108,860	-0,032	-0,005
-247,249	-71,009	0,068	0,018
-246,234	7,892	0,048	0,026
-245,219	222,460	-0,087	-0,100
-244,205	-85,480	0,100	-0,022
-243,190	19,736	0,106	0,061
-242,176	62,374	-0,110	0,078
-241,161	-98,319	-0,005	0,001
-240,146	-200,000	0,002	0,089
-239,132	100,988	0,027	0,022
-238,117	-48,541	-0,072	0,024
-237,103	-150,026	0,074	-0,004
-236,088	118,710	-0,109	0,096
-235,073	531,705	0,070	0,118
-234,059	86,377	0,088	0,069
-233,044	-116,428	0,050	-0,006
-232,030	800,000	0,014	0,030
-231,015	800,000	-0,041	-0,088
-230,000	66,484	-0,129	-0,094
-228,986	57,392	0,126	0,087
-227,971	356,351	0,027	0,038
-226,957	232,242	0,027	0,031
-225,942	112,378	0,024	0,021
-224,927	-97,916	-0,137	0,025
-223,913	-200,000	0,016	-0,060
-222,898	-200,000	0,008	-0,101
-221,884	146,408	0,117	-0,112
-220,869	204,759	0,033	0,036
-219,855	394,161	0,087	-0,130
-218,840	-98,057	0,056	-0,010
-217,825	56,276	-0,109	0,075
-216,811	-200,000	0,065	-0,207
-215,796	250,879	0,035	-0,042
-214,782	-200,000	0,003	-0,057
-213,767	-200,000	0,028	0,145
-212,752	13,448	0,033	0,018
-211,738	148,168	0,059	-0,057
-210,723	-200,000	-0,037	0,161
-209,709	-68,488	0,139	-0,038
-208,694	800,000	-0,024	-0,052
-207,679	-200,000	0,006	-0,059
-206,665	626,713	0,049	0,089
-205,650	97,140	0,085	0,070
-204,636	161,352	0,091	0,091
-203,621	-53,308	-0,175	0,057
-202,606	-200,000	-0,023	-0,094
-201,592	70,946	-0,117	-0,086
-200,577	-43,531	-0,037	-0,013
-199,563	-138,555	0,085	0,007
-198,548	232,736	0,054	-0,063
-197,533	800,000	-0,057	0,131
-196,519	254,888	-0,068	0,083
-195,504	-81,799	-0,132	0,031
-194,490	-51,524	-0,040	-0,013
-193,475	800,000	-0,041	-0,117
-192,460	80,282	0,057	-0,044
-191,446	17,114	0,069	0,039
-190,431	62,377	0,144	0,102
-189,417	461,425	-0,057	0,091
-188,402	67,226	0,098	-0,071
-187,387	370,942	-0,041	-0,060
-186,373	94,736	-0,122	-0,098
-185,358	111,356	0,058	0,050
-184,344	-16,400	0,140	0,063
-183,329	149,788	-0,075	0,073
-182,315	-200,000	0,020	0,143
-181,300	-200,000	-0,029	0,099
-180,285	-200,000	0,020	-0,192
-179,271	357,594	-0,037	-0,052
-178,256	-49,630	-0,080	-0,027
-177,242	-200,000	0,000	-0,064
-176,227	-191,425	-0,044	0,000
-175,212	800,000	-0,040	0,110
-174,198	-200,000	0,010	-0,152
-173,183	-200,000	-0,010	-0,102
-172,169	-12,952	-0,155	0,071
-171,154	-24,024	-0,083	0,035
-170,139	-47,944	0,132	0,045
-169,125	11,685	-0,057	0,031
-168,110	800,000	0,005	-0,011
-167,096	459,518	-0,048	-0,076
-166,081	800,000	0,025	-0,056
-165,066	-200,000	-0,013	-0,046
-164,052	459,429	-0,078	0,124
-163,037	-200,000	0,008	0,065
-162,023	231,047	0,112	-0,130
-161,008	99,313	0,120	0,099
-159,993	246,906	-0,058	0,070
-158,979	210,732	-0,097	-0,108
-157,964	-200,000	-0,043	-0,145
-156,950	-23,495	-0,117	-0,050
-155,935	155,169	-0,082	0,080
-154,920	-200,000	-0,036	0,125
-153,906	242,687	0,070	0,084
-152,891	-200,000	-0,005	0,079
-151,877	-95,946	0,122	0,023
-150,862	48,711	-0,107	0,071
-149,847	800,000	-0,042	-0,097
-148,833	483,368	-0,032	0,051
-147,818	-51,216	-0,097	0,032
-146,804	800,000	0,035	0,083
-145,789	-200,000	-0,008	0,122
-144,775	800,000	-0,022	-0,045
-143,760	-27,871	0,116	0,047
-142,745	-131,569	0,080	0,007
-141,731	-2,929	-0,118	0,058
-140,716	124,872	0,033	0,030
-139,702	210,360	-0,057	-0,064
-138,687	-43,611	0,065	-0,023
-137,672	-127,965	-0,047	-0,005
-136,658	-186,592	-0,065	0,001
-135,643	800,000	-0,033	-0,100
-134,629	-200,000	-0,005	0,095
-133,614	232,828	-0,031	0,037
-132,599	800,000	0,036	0,088
-131,585	-57,540	0,066	0,020
-130,570	117,288	-0,087	-0,076
-129,556	302,376	0,039	-0,051
-128,541	305,318	0,011	-0,014
-127,526	-200,000	0,009	-0,070
-126,512	-200,000	-0,031	0,105
-125,497	-10,703	0,083	-0,039
-124,483	98,449	0,094	-0,077
-123,468	800,000	0,040	0,095
-122,453	-181,912	0,017	-0,000
-121,439	-200,000	-0,015	-0,118
-120,424	154,640	0,095	-0,093
-119,410	-35,742	-0,016	-0,006
-118,395	707,684	0,040	-0,076
-117,380	106,651	0,128	0,108
-116,366	569,679	0,061	-0,106
-115,351	800,000	0,066	0,137
-114,337	800,000	-0,041	-0,106
-113,322	153,002	-0,079	-0,076
-112,307	-53,122	-0,163	-0,053
-111,293	-102,474	0,117	0,020
-110,278	-200,000	-0,000	0,022
-109,264	-200,000	-0,029	0,091
-108,249	-200,000	0,008	-0,088
-107,234	-200,000	-0,009	0,036
-106,220	710,365	0,041	0,077
-105,205	-200,000	0,012	0,090
-104,191	-200,000	0,001	-0,005
-103,176	-108,667	0,090	0,014
-102,162	-19,899	-0,026	-0,011
-101,147	7,138	-0,089	-0,047
-100,132	31,550	-0,118	-0,072
-99,118	109,310	-0,051	-0,043
-98,103	-200,000	-0,014	0,051
-97,089	68,969	0,121	0,088
-96,074	-200,000	-0,005	0,115
-95,059	-200,000	-0,005	0,104
-94,045	35,018	-0,056	0,035
-93,030	317,960	-0,083	-0,112
-92,016	-33,888	-0,072	-0,028
-91,001	-200,000	-0,022	0,106
-89,986	41,664	0,099	0,063
-88,972	304,229	0,096	0,127
-87,957	-31,665	0,145	-0,057
-86,943	321,798	-0,062	-0,084
-85,928	83,049	0,013	-0,010
-84,913	159,860	0,057	0,056
-83,899	287,679	0,058	0,075
-82,884	-139,173	0,028	-0,002
-81,870	-14,551	-0,146	0,066
-80,855	800,000	-0,037	0,092
-79,840	295,306	0,060	0,078
-78,826	-11,005	-0,066	0,031
-77,811	76,588	-0,090	0,067
-76,797	800,000	0,023	0,060
-75,782	-107,812	0,149	0,023
-74,767	-200,000	-0,001	0,028
-73,753	6,295	-0,097	-0,051
-72,738	367,013	0,025	0,036
-71,724	532,286	-0,021	-0,035
-70,709	-138,264	0,020	-0,002
-69,694	412,256	0,006	-0,009
-68,680	510,088	0,048	0,079
-67,665	-170,411	0,018	-0,000
-66,651	727,071	0,023	0,043
-65,636	-200,000	0,011	-0,097
-64,622	33,592	0,012	-0,007
-63,607	800,000	-0,041	-0,098
-62,592	-200,000	0,009	-0,037
-61,578	800,000	0,032	-0,092
-60,563	-200,000	-0,013	0,101
-59,549	800,000	-0,020	-0,040
-58,534	42,600	-1,681	-1,080
-57,519	445,788	-1,233	-1,922
-56,505	-200,000	-0,603	-4,559
-55,490	319,375	1,070	1,439
-54,476	800,000	4,783	11,076
-53,461	-200,000	20,289	324,380
-52,446	800,000	752,692	2311,594
-51,432	548,629	1663,442	2828,151
-50,417	74,773	1671,700	1242,610
-49,403	19,917	1544,428	877,590
-48,388	13,916	1467,064	804,437
-47,373	18,363	1457,586	820,691
-46,359	16,295	1446,880	804,726
-45,344	12,166	1442,290	782,368
-44,330	12,114	1440,504	781,121
-43,315	12,138	1438,689	780,222
-42,300	12,052	1437,198	778,968
-41,286	12,097	1435,906	778,451
-40,271	12,095	1434,415	777,606
-39,257	12,099	1433,219	776,942
-38,242	12,098	1432,029	776,261
-37,227	12,185	1430,744	775,949
-36,213	12,163	1429,497	775,138
-35,198	12,177	1428,291	774,522
-34,184	12,186	1427,431	774,065
-33,169	12,105	1426,066	772,913
-32,154	12,167	1424,778	772,478
-31,140	12,177	1423,728	771,923
-30,125	12,207	1422,646	771,446
-29,111	12,160	1421,597	770,626
-28,096	12,149	1420,336	769,860
-27,082	12,071	1419,321	768,911
-26,067	12,094	1418,110	768,333
-25,052	12,105	1417,090	767,801
-24,038	12,072	1416,058	767,059
-23,023	12,084	1415,107	766,570
-22,009	12,046	1413,993	765,757
-20,994	12,057	1413,096	765,292
-19,979	12,091	1412,106	764,885
-18,965	12,027	1411,328	764,132
-17,950	12,021	1410,324	763,530
-16,936	12,037	1409,502	763,131
-15,921	11,990	1408,638	762,412
-14,906	12,013	1407,651	761,954
-13,892	11,999	1406,599	761,289
-12,877	11,944	1405,903	760,627
-11,863	11,989	1404,863	760,245
-10,848	11,973	1403,910	759,623
-9,833	11,940	1403,117	759,007
-8,819	11,905	1402,320	758,385
-7,804	11,929	1401,356	757,945
-6,790	11,918	1400,126	757,199
-5,775	11,865	1399,249	756,449
-4,760	11,935	1398,127	756,137
-3,746	11,873	1397,558	755,511
-2,731	11,867	1396,666	754,972
-1,717	11,859	1395,758	754,411
-0,702	11,862	1394,111	753,507
0,313	15,927	1308,813	726,138
1,327	32,508	699,487	426,153
2,342	50,320	121,887	81,238
3,356	0,467	16,488	8,295
4,371	-5,899	3,304	1,591
5,386	56,307	0,593	0,406
6,400	-200,000	0,091	0,471
7,415	-85,802	-0,226	-0,049
8,429	9,395	-0,280	-0,149
9,444	247,934	-0,287	-0,343
10,459	126,625	-0,345	-0,308
11,473	-9,314	-0,301	-0,142
12,488	5,592	-0,108	-0,056
13,502	-70,822	-0,338	-0,089
14,517	-7,004	-0,303	-0,145
15,531	268,546	-0,236	-0,293
16,546	167,142	-0,298	-0,299
17,561	16,466	-0,471	-0,262
18,575	54,648	-0,190	-0,129
19,590	398,386	-0,152	-0,225
20,604	-97,953	-0,315	-0,057
21,619	20,888	-0,565	-0,322
22,634	173,386	-0,438	-0,445
23,648	11,523	-0,460	-0,248
24,663	673,590	-0,207	-0,380
25,677	193,304	-0,288	-0,307
26,692	-19,074	-0,407	-0,177
27,707	75,857	-0,287	-0,214
28,721	118,504	-0,441	-0,383
29,736	-66,050	-0,431	-0,120
30,750	103,363	-0,499	-0,412
31,765	116,954	-0,248	-0,215
32,780	196,445	-0,295	-0,317
33,794	77,286	-0,287	-0,215
34,809	-35,417	-0,221	-0,084
35,823	59,796	-0,325	-0,225
36,838	-44,010	-0,571	-0,201
37,853	316,317	-0,305	-0,406
38,867	151,391	-0,405	-0,388
39,882	104,842	-0,474	-0,393
40,896	167,328	-0,304	-0,304
41,911	81,247	-0,207	-0,158
42,926	207,118	-0,193	-0,212
43,940	92,720	-0,309	-0,246
44,955	28,627	-0,423	-0,251
45,969	64,079	-0,343	-0,243
46,984	-40,347	-0,396	-0,144
47,999	182,201	-0,275	-0,285
49,013	89,065	-0,366	-0,287
50,028	144,154	-0,332	-0,312
51,042	2,299	-0,244	-0,124
52,057	586,292	-0,218	-0,380
53,071	41,428	-0,311	-0,198
54,086	103,058	-0,366	-0,301
55,101	210,894	-0,132	-0,146
56,115	63,723	-0,306	-0,216
57,130	69,964	-0,349	-0,253
58,144	158,971	-0,290	-0,284
59,159	89,284	-0,302	-0,237
60,174	96,472	-0,398	-0,320
61,188	17,479	-0,498	-0,277
62,203	7,230	-0,325	-0,170
63,217	182,591	-0,282	-0,292
64,232	163,849	-0,272	-0,269
65,247	60,241	-0,277	-0,192
66,261	-63,137	-0,346	-0,100
67,276	179,276	-0,272	-0,280
68,290	11,976	-0,324	-0,175
69,305	-27,354	-0,339	-0,138
70,320	800,000	-0,087	-0,243
71,334	65,571	-0,361	-0,256
72,349	-31,664	-0,375	-0,147
73,363	15,898	-0,330	-0,182
74,378	24,358	-0,301	-0,175
75,393	-37,857	-0,257	-0,096
76,407	208,072	-0,234	-0,257
77,422	80,363	-0,357	-0,270
78,436	108,499	-0,277	-0,232
79,451	-4,095	-0,210	-0,102
80,466	74,597	-0,447	-0,330
81,480	-16,568	-0,357	-0,158
82,495	-3,406	-0,281	-0,137
83,509	2,831	-0,374	-0,190
84,524	62,276	-0,320	-0,224
85,539	-154,307	-0,274	0,013
86,553	38,335	-0,267	-0,167
87,568	228,654	-0,221	-0,253
88,582	189,268	-0,304	-0,319
89,597	-74,267	-0,343	-0,086
90,611	-24,884	-0,339	-0,140
91,626	-6,800	-0,271	-0,129
92,641	-39,138	-0,276	-0,101
93,655	8,561	-0,287	-0,151
94,670	23,660	-0,350	-0,201
95,684	158,461	-0,310	-0,302
96,699	34,192	-0,223	-0,136
97,714	34,975	-0,189	-0,116
98,728	43,019	-0,230	-0,147
99,743	43,364	-0,239	-0,153
100,757	23,120	-0,385	-0,221
101,772	69,821	-0,249	-0,179
102,787	17,471	-0,306	-0,170
103,801	-109,755	-0,214	-0,031
104,816	255,113	-0,242	-0,291
105,830	37,949	-0,334	-0,208
106,845	39,969	-0,221	-0,139
107,860	800,000	-0,096	-0,208
108,874	232,819	-0,213	-0,245
109,889	9,371	-0,262	-0,138
110,903	22,082	-0,315	-0,180
111,918	172,108	-0,279	-0,281
112,933	10,935	-0,309	-0,165
113,947	434,891	-0,154	-0,235
114,962	214,396	-0,194	-0,215
115,976	203,460	-0,227	-0,246
116,991	72,373	-0,215	-0,157
118,006	121,920	-0,320	-0,279
119,020	-22,107	-0,241	-0,102
120,035	15,026	-0,269	-0,147
121,049	42,914	-0,198	-0,126
122,064	157,017	-0,183	-0,177
123,079	122,749	-0,246	-0,215
124,093	-31,610	-0,234	-0,092
125,108	-42,613	-0,325	-0,115
126,122	-70,459	-0,393	-0,103
127,137	293,600	-0,229	-0,292
128,151	129,898	-0,147	-0,131
129,166	54,084	-0,193	-0,130
130,181	-34,725	-0,269	-0,102
131,195	-169,143	-0,294	-0,007
132,210	-49,628	-0,369	-0,122
133,224	-79,252	-0,304	-0,071
134,239	13,057	-0,239	-0,129
135,254	25,415	-0,186	-0,108
136,268	-38,955	-0,145	-0,053
137,283	480,780	-0,167	-0,266
138,297	79,388	-0,332	-0,248
139,312	-61,768	-0,313	-0,091
140,327	800,000	-0,100	-0,271
141,341	-27,381	-0,359	-0,145
142,356	128,784	-0,213	-0,190
143,370	181,567	-0,144	-0,148
144,385	6,788	-0,287	-0,149
145,400	85,798	-0,285	-0,219
146,414	92,525	-0,265	-0,209
147,429	-9,044	-0,219	-0,102
148,443	202,569	-0,196	-0,211
149,458	10,479	-0,229	-0,121
150,473	355,552	-0,234	-0,326
151,487	-200,000	-0,044	-0,267
152,502	-47,217	-0,381	-0,129
153,516	95,269	-0,309	-0,245
154,531	2,479	-0,240	-0,121
155,546	-42,006	-0,158	-0,056
156,560	32,195	-0,185	-0,111
157,575	-27,210	-0,291	-0,117
158,589	10,088	-0,174	-0,092
159,604	51,271	-0,286	-0,189
160,619	124,303	-0,200	-0,175
161,633	33,230	-0,367	-0,221
162,648	503,139	-0,121	-0,196
163,662	-88,862	-0,192	-0,039
164,677	-43,992	-0,135	-0,047
165,692	-62,725	-0,298	-0,085
166,706	339,016	-0,167	-0,227
167,721	454,750	-0,169	-0,262
168,735	124,919	-0,262	-0,230
169,750	152,267	-0,320	-0,304
170,764	172,389	-0,128	-0,128
171,779	61,001	-0,173	-0,119
172,794	3,589	-0,200	-0,101
173,808	185,459	-0,223	-0,231
174,823	143,473	-0,250	-0,231
175,837	89,261	-0,342	-0,265
176,852	13,514	-0,206	-0,111
177,867	-7,096	-0,354	-0,166
178,881	447,063	-0,155	-0,238
179,896	46,634	-0,254	-0,164
180,910	-19,686	-0,273	-0,117
181,925	156,850	-0,221	-0,213
182,940	10,614	-0,285	-0,151
183,954	768,648	-0,107	-0,204
184,969	73,952	-0,068	-0,050
185,983	-34,639	-0,170	-0,064
186,998	250,761	-0,171	-0,202
188,013	-74,546	-0,226	-0,056
189,027	124,892	-0,157	-0,137
190,042	-60,041	-0,271	-0,080
191,056	196,328	-0,219	-0,232
192,071	495,057	-0,163	-0,261
193,086	72,723	-0,165	-0,119
194,100	172,350	-0,155	-0,155
195,115	-117,490	-0,335	-0,042
196,129	-77,404	-0,383	-0,092
197,144	19,027	-0,201	-0,112
198,159	288,205	-0,186	-0,235
199,173	297,049	-0,273	-0,348
200,188	14,472	-0,256	-0,138
201,202	-24,019	-0,217	-0,090
202,217	-50,008	-0,245	-0,080
203,232	-31,246	-0,326	-0,127
204,246	64,747	-0,254	-0,178
205,261	4,295	-0,304	-0,154
206,275	211,066	-0,157	-0,171
207,290	-200,000	-0,078	-0,265
208,304	736,852	-0,115	-0,215
209,319	2,406	-0,074	-0,037
210,334	95,895	-0,170	-0,134
211,348	-3,095	-0,223	-0,108
212,363	447,070	-0,155	-0,237
213,377	316,868	-0,137	-0,180
214,392	573,666	-0,061	-0,104
215,407	98,393	-0,117	-0,094
216,421	-85,812	-0,138	-0,029
217,436	34,662	-0,339	-0,205
218,450	227,776	-0,221	-0,250
219,465	-19,561	-0,277	-0,118
220,480	27,885	-0,161	-0,094
221,494	800,000	-0,059	-0,131
222,509	378,006	-0,211	-0,300
223,523	-9,820	-0,136	-0,062
224,538	375,769	-0,072	-0,102
225,553	185,405	-0,319	-0,329
226,567	-20,751	-0,261	-0,110
227,582	167,047	-0,181	-0,178
228,596	327,727	-0,080	-0,106
229,611	-188,219	-0,149	0,001
230,626	-169,275	-0,172	0,004
231,640	-51,421	-0,240	-0,077
232,655	56,580	-0,274	-0,185
233,669	799,609	-0,193	-0,371
234,684	70,350	-0,091	-0,065
235,699	142,577	-0,109	-0,101
236,713	83,854	-0,089	-0,067
237,728	-0,986	-0,174	-0,085
238,742	82,471	-0,149	-0,112
239,757	431,352	-0,167	-0,250
240,772	-200,000	-0,019	-0,057
241,786	-99,453	-0,187	-0,032
242,801	204,719	-0,167	-0,179
243,815	-200,000	0,003	-0,182
244,830	800,000	-0,083	-0,247
245,844	250,911	-0,116	-0,136
246,859	-13,994	-0,235	-0,105
247,874	97,507	-0,260	-0,207
248,888	211,594	-0,178	-0,194
249,903	42,004	-0,184	-0,115
250,917	800,000	-0,072	-0,139
251,932	-0,775	-0,187	-0,091
252,947	-116,517	-0,170	-0,021
253,961	-79,163	-0,155	-0,036
254,976	-37,307	-0,312	-0,114
255,990	800,000	-0,069	-0,139
257,005	-24,177	-0,151	-0,062
258,020	345,391	-0,051	-0,069
259,034	251,777	-0,053	-0,062
260,049	52,410	-0,246	-0,162
261,063	-46,357	-0,292	-0,098
262,078	-154,519	-0,165	-0,007
263,093	268,189	-0,134	-0,163
264,107	411,786	-0,139	-0,204
265,122	-98,356	-0,261	-0,046
266,136	800,000	-0,095	-0,194
267,151	-96,989	-0,077	-0,014
268,166	66,267	-0,295	-0,206
269,180	800,000	-0,090	-0,208
270,195	-200,000	-0,047	-0,173
271,209	149,013	-0,135	-0,126
272,224	190,107	-0,081	-0,084
273,239	-19,840	-0,170	-0,072
274,253	800,000	-0,070	-0,197
275,268	127,905	-0,104	-0,091
276,282	-0,127	-0,305	-0,149
277,297	140,106	-0,189	-0,172
278,312	-85,336	-0,180	-0,038
279,326	-56,420	-0,138	-0,042
280,341	-94,705	-0,246	-0,046
281,355	-5,447	-0,146	-0,069
282,370	19,230	-0,105	-0,058
283,384	-52,240	-0,254	-0,081
284,399	143,199	-0,237	-0,217
285,414	131,032	-0,205	-0,181
286,428	5,801	-0,097	-0,049
287,443	118,542	-0,084	0,071
288,457	502,802	-0,069	-0,111
289,472	-4,434	-0,205	-0,097
290,487	38,863	-0,038	0,023
291,501	-14,908	-0,175	-0,077
292,516	170,643	-0,146	-0,144
293,530	164,689	-0,143	-0,139
294,545	-200,000	-0,014	0,075
295,560	75,727	-0,170	0,123
296,574	-0,911	-0,177	-0,086
297,589	305,712	-0,105	-0,135
298,603	800,000	-0,060	-0,142
299,618	-72,139	-0,278	-0,070
300,633	720,648	-0,087	-0,159
301,647	-87,617	-0,133	-0,027
302,662	111,961	-0,173	-0,144
303,676	800,000	-0,085	-0,167
304,691	479,683	-0,106	-0,165
305,706	284,625	-0,117	-0,145
306,720	252,726	-0,150	-0,177
307,735	313,283	-0,074	-0,096
308,749	800,000	-0,041	-0,121
309,764	-11,415	-0,191	0,086
310,779	16,422	-0,092	-0,050
311,793	533,910	-0,145	-0,236
312,808	256,614	-0,218	-0,258
313,822	-200,000	-0,032	-0,168
314,837	-49,211	-0,113	-0,037
315,852	155,555	-0,082	-0,078
316,866	613,693	-0,120	-0,207
317,881	-97,209	-0,103	0,018
318,895	-6,664	-0,127	-0,059
319,910	219,256	-0,173	-0,191
320,925	-99,210	-0,133	-0,023
321,939	243,614	-0,182	-0,210
322,954	608,113	-0,118	-0,203
323,968	165,318	-0,134	0,130
324,983	800,000	-0,032	-0,087
325,997	-42,844	-0,109	-0,038
327,012	178,635	-0,135	-0,136
328,027	4,497	-0,072	-0,036
329,041	118,315	-0,158	-0,134
330,056	226,188	-0,085	-0,094
331,070	-119,472	-0,098	-0,012
332,085	-20,821	-0,107	-0,045
333,100	-186,033	-0,233	-0,002
334,114	33,638	-0,115	-0,068
335,129	572,617	-0,150	-0,252
336,143	-70,796	-0,313	-0,080
337,158	649,476	-0,079	-0,140
338,173	251,940	-0,108	-0,126
339,187	255,644	-0,129	-0,152
340,202	431,958	-0,108	-0,161
341,216	208,360	-0,163	-0,175
342,231	289,904	-0,142	-0,177
343,246	317,556	-0,153	-0,199
344,260	-41,636	-0,120	0,042
345,275	208,612	-0,121	-0,130
346,289	-20,013	-0,177	-0,074
347,304	143,965	-0,094	-0,086
348,319	-157,721	-0,086	0,003
349,333	190,696	-0,096	-0,099
350,348	-200,000	0,017	-0,089
351,362	399,325	-0,172	-0,248
352,377	-147,248	-0,177	-0,010
353,392	-146,509	-0,167	0,010
354,406	26,054	-0,202	-0,115
355,421	209,380	1316,289	1414,482
356,435	161,144	1477,193	1414,957
