DTS Sentinel unit serial number:	SN410029Multiplexer serial number:	ORYXHardware model number:	OX2-SRSoftware version number:	ORYX F/W v4,00 Oryx Data Collector v3.7.2.0data status	okinstallation	B3 Nyhavnadifferential loss correction	single-endedforward channel	channel 1reverse channel	N/Adate	2023/12/03time	10:37:30forward acquisition time	300,00reverse acquisition time	0,00gamma	499,1914k internal	0,3201k external	0,3201temperature offset calibration	1,0000default loss term (dB/km)	0,3820temperature slope calibration	1,0000multiplexer offset coefficient	1,0000multiplexer slope coefficient	1,0000fibre end	0,00T internal ref (°C)	13,40T ext. ref 1 (°C)	-1,44T ext. ref 2 (°C)	-1,43length (m)	temperature (°C)	Stokes	anti-Stokes-744,400	779,397	-0,078	-0,155
-743,385	-200,000	0,036	0,368
-742,371	-200,000	-0,022	-0,119
-741,356	-200,000	-0,028	0,168
-740,342	800,000	-0,063	-0,168
-739,327	-200,000	-0,047	0,327
-738,312	193,619	-0,211	-0,233
-737,298	-200,000	0,030	0,250
-736,283	248,659	-0,268	-0,330
-735,269	370,568	0,151	0,224
-734,254	83,715	-0,282	-0,224
-733,239	-94,236	-0,251	0,050
-732,225	645,045	-0,101	-0,188
-731,210	64,550	0,158	0,115
-730,196	8,143	-0,104	0,056
-729,181	-200,000	0,032	0,110
-728,167	-121,956	-0,118	0,014
-727,152	-82,924	-0,026	0,006
-726,137	146,156	-0,061	0,059
-725,123	-128,343	-0,102	-0,010
-724,108	-0,697	0,075	-0,039
-723,094	10,411	-0,058	-0,032
-722,079	258,578	0,009	-0,011
-721,064	195,068	0,077	-0,085
-720,050	-95,832	0,046	-0,009
-719,035	800,000	0,024	0,050
-718,021	-144,497	-0,118	0,008
-717,006	800,000	0,019	-0,058
-715,991	122,084	-0,063	-0,057
-714,977	195,399	-0,033	-0,036
-713,962	-200,000	0,004	0,073
-712,948	-200,000	-0,016	-0,058
-711,933	-82,784	-0,081	0,019
-710,918	-83,599	-0,103	0,024
-709,904	-68,236	0,029	-0,008
-708,889	35,098	-0,070	-0,044
-707,875	364,535	-0,044	-0,064
-706,860	108,659	-0,097	-0,084
-705,845	-61,044	0,131	0,040
-704,831	-200,000	0,009	-0,074
-703,816	-85,719	-0,105	0,023
-702,802	-24,178	-0,024	0,010
-701,787	-121,966	-0,150	-0,018
-700,772	800,000	0,019	0,038
-699,758	309,967	-0,065	-0,088
-698,743	99,428	-0,033	-0,028
-697,729	-200,000	-0,016	-0,104
-696,714	15,008	-0,056	-0,032
-695,699	-200,000	0,012	-0,183
-694,685	-200,000	-0,099	-0,000
-693,670	-200,000	-0,006	-0,184
-692,656	15,688	0,104	0,059
-691,641	-50,208	0,096	0,033
-690,627	-46,062	-0,045	-0,016
-689,612	-200,000	0,000	-0,122
-688,597	-200,000	0,011	-0,051
-687,583	123,472	-0,121	0,110
-686,568	167,246	0,091	-0,093
-685,554	548,110	-0,021	0,036
-684,539	-200,000	-0,034	0,146
-683,524	442,376	0,052	-0,083
-682,510	-120,750	-0,142	-0,017
-681,495	-200,000	-0,007	0,039
-680,481	800,000	0,014	-0,038
-679,466	-8,606	0,010	0,005
-678,451	30,228	-0,147	0,091
-677,437	-200,000	-0,014	0,130
-676,422	-200,000	-0,002	0,016
-675,408	-200,000	-0,007	-0,053
-674,393	-200,000	-0,023	0,085
-673,378	-124,359	-0,204	-0,023
-672,364	-200,000	-0,006	-0,019
-671,349	-200,000	-0,002	0,028
-670,335	-200,000	-0,023	0,100
-669,320	800,000	0,076	0,230
-668,305	-200,000	-0,032	0,109
-667,291	590,236	-0,034	-0,062
-666,276	649,584	0,035	-0,066
-665,262	73,788	-0,064	-0,048
-664,247	-124,776	-0,114	0,013
-663,232	-200,000	-0,019	-0,077
-662,218	36,316	0,183	-0,117
-661,203	9,974	-0,116	0,063
-660,189	466,794	-0,056	-0,091
-659,174	351,315	0,064	-0,092
-658,159	-85,749	-0,142	-0,032
-657,145	378,248	0,010	0,015
-656,130	357,853	-0,082	-0,119
-655,116	-111,202	0,064	0,009
-654,101	453,105	0,030	-0,048
-653,086	28,239	0,071	0,043
-652,072	-200,000	-0,025	-0,132
-651,057	-125,521	0,124	-0,013
-650,043	-122,158	0,089	-0,010
-649,028	2,175	-0,134	-0,070
-648,014	-72,921	0,050	0,013
-646,999	123,849	0,092	-0,083
-645,984	-200,000	-0,013	0,057
-644,970	294,637	0,059	0,079
-643,955	800,000	-0,012	0,027
-642,941	86,901	-0,110	0,088
-641,926	524,434	0,047	0,080
-640,911	-69,482	-0,079	-0,022
-639,897	76,221	-0,077	-0,059
-638,882	143,111	-0,110	0,106
-637,868	-107,918	0,075	0,012
-636,853	-17,257	-0,019	0,009
-635,838	326,427	-0,061	0,086
-634,824	-190,515	0,022	0,000
-633,809	800,000	0,060	0,176
-632,795	-151,520	0,105	0,006
-631,780	-200,000	-0,018	0,108
-630,765	348,041	0,122	0,174
-629,751	800,000	-0,016	-0,034
-628,736	35,104	0,065	0,041
-627,722	-200,000	0,014	-0,061
-626,707	246,543	0,068	-0,084
-625,692	-177,330	0,112	-0,002
-624,678	-200,000	-0,028	-0,137
-623,663	-200,000	0,021	-0,143
-622,649	319,061	0,048	0,065
-621,634	293,306	-0,085	-0,112
-620,619	-116,831	0,080	0,011
-619,605	153,212	-0,111	-0,110
-618,590	223,751	-0,021	0,024
-617,576	800,000	-0,053	-0,118
-616,561	-200,000	-0,019	0,071
-615,546	81,677	-0,056	0,044
-614,532	800,000	0,028	-0,058
-613,517	-200,000	-0,019	0,096
-612,503	-115,168	0,048	-0,007
-611,488	10,705	0,118	0,065
-610,474	-149,776	-0,051	0,003
-609,459	800,000	0,016	-0,034
-608,444	170,516	-0,080	0,083
-607,430	-200,000	-0,043	-0,206
-606,415	73,463	-0,191	-0,144
-605,401	85,745	0,066	0,053
-604,386	-200,000	-0,004	-0,019
-603,371	-200,000	0,013	-0,075
-602,357	800,000	-0,034	-0,104
-601,342	281,112	-0,019	-0,024
-600,328	229,740	0,103	0,122
-599,313	103,823	-0,056	0,048
-598,298	800,000	-0,017	-0,052
-597,284	96,834	0,069	-0,057
-596,269	-104,834	0,096	0,016
-595,255	-61,155	-0,062	0,019
-594,240	-171,688	-0,077	0,002
-593,225	265,667	0,015	-0,019
-592,211	800,000	-0,114	-0,229
-591,196	-22,116	0,022	-0,010
-590,182	20,893	-0,144	0,084
-589,167	36,369	-0,043	-0,027
-588,152	-200,000	0,001	0,080
-587,138	91,882	0,099	0,081
-586,123	-200,000	0,001	-0,006
-585,109	-123,177	-0,110	-0,013
-584,094	800,000	-0,046	0,099
-583,079	800,000	-0,038	-0,099
-582,065	-131,933	0,147	0,014
-581,050	98,147	-0,055	0,046
-580,036	-88,584	-0,124	-0,026
-579,021	64,935	0,098	0,072
-578,006	58,764	-0,030	0,021
-576,992	249,642	0,040	-0,050
-575,977	39,674	0,068	-0,044
-574,963	140,460	0,038	0,036
-573,948	412,372	0,061	-0,094
-572,934	-153,012	-0,086	0,004
-571,919	124,413	-0,070	-0,063
-570,904	402,121	0,035	-0,054
-569,890	-200,000	0,026	0,104
-568,875	-108,330	-0,078	0,012
-567,861	800,000	0,067	0,156
-566,846	99,789	0,032	0,027
-565,831	678,005	0,053	0,099
-564,817	-29,888	-0,063	-0,026
-563,802	-200,000	0,007	-0,097
-562,788	-200,000	0,008	-0,152
-561,773	800,000	-0,015	-0,041
-560,758	313,202	0,031	-0,042
-559,744	113,031	-0,073	0,064
-558,729	49,722	0,051	0,035
-557,715	48,842	-0,055	-0,037
-556,700	345,091	-0,067	-0,095
-555,685	-28,630	0,153	-0,063
-554,671	-74,650	0,161	0,041
-553,656	-200,000	-0,023	-0,101
-552,642	221,333	0,039	0,045
-551,627	-200,000	0,011	0,044
-550,612	-39,853	-0,048	-0,018
-549,598	-200,000	0,017	-0,193
-548,583	-200,000	-0,036	-0,124
-547,569	-132,634	-0,070	0,006
-546,554	44,328	0,027	0,018
-545,539	354,307	-0,099	-0,143
-544,525	180,092	-0,089	-0,094
-543,510	-200,000	-0,030	-0,121
-542,496	800,000	-0,077	-0,220
-541,481	-68,083	-0,059	0,016
-540,466	64,982	-0,042	0,031
-539,452	271,037	0,084	0,107
-538,437	-139,235	0,072	-0,006
-537,423	55,433	-0,099	0,069
-536,408	-200,000	-0,007	-0,129
-535,393	221,206	-0,048	-0,056
-534,379	-200,000	-0,009	0,039
-533,364	32,962	-0,110	-0,069
-532,350	800,000	-0,060	0,152
-531,335	398,960	0,079	0,119
-530,321	800,000	-0,021	-0,049
-529,306	-200,000	-0,005	0,053
-528,291	-200,000	-0,017	-0,139
-527,277	77,057	-0,061	-0,047
-526,262	-51,152	0,088	-0,030
-525,248	-200,000	0,016	-0,101
-524,233	-200,000	0,005	0,138
-523,218	216,924	-0,059	0,068
-522,204	198,539	-0,053	-0,059
-521,189	114,786	-0,069	-0,060
-520,175	-200,000	0,018	-0,125
-519,160	-50,823	0,024	-0,008
-518,145	35,698	0,041	0,026
-517,131	-200,000	0,006	-0,028
-516,116	246,178	0,047	0,058
-515,102	262,665	0,125	-0,157
-514,087	-81,656	-0,138	0,032
-513,072	-119,905	0,105	0,013
-512,058	-21,780	-0,077	-0,034
-511,043	-49,952	0,079	-0,027
-510,029	98,615	0,035	0,029
-509,014	223,632	0,083	0,097
-507,999	800,000	-0,037	0,093
-506,985	800,000	-0,036	-0,110
-505,970	-200,000	-0,005	0,137
-504,956	800,000	-0,085	-0,184
-503,941	37,603	-0,071	-0,045
-502,926	-200,000	0,004	0,224
-501,912	669,560	0,097	0,182
-500,897	-200,000	0,040	0,157
-499,883	700,391	0,058	-0,111
-498,868	-200,000	-0,015	-0,235
-497,853	37,059	-0,165	0,105
-496,839	-75,190	0,054	-0,014
-495,824	704,605	-0,087	0,167
-494,810	-146,437	0,062	-0,004
-493,795	131,429	0,153	0,142
-492,781	-45,257	0,064	0,023
-491,766	-32,423	-0,087	-0,035
-490,751	-144,620	-0,069	0,004
-489,737	-58,340	-0,044	-0,014
-488,722	-200,000	-0,006	0,073
-487,708	98,696	0,093	0,077
-486,693	-123,328	-0,227	0,026
-485,678	-147,532	0,011	0,001
-484,664	-62,578	0,076	-0,023
-483,649	-111,414	-0,086	-0,012
-482,635	166,188	0,056	-0,057
-481,620	-61,897	0,138	-0,041
-480,605	18,772	0,131	0,075
-479,591	174,005	-0,047	-0,049
-478,576	58,989	0,090	-0,064
-477,562	490,273	-0,044	-0,073
-476,547	142,621	-0,099	-0,095
-475,532	63,592	-0,068	-0,049
-474,518	3,075	0,043	-0,022
-473,503	-128,776	0,065	0,006
-472,489	-120,131	0,071	0,009
-471,474	152,566	0,092	0,090
-470,459	67,602	-0,092	-0,068
-469,445	396,734	-0,023	-0,035
-468,430	-200,000	-0,013	-0,068
-467,416	-200,000	0,024	0,083
-466,401	-118,355	-0,105	0,013
-465,386	-143,672	0,125	0,008
-464,372	-200,000	0,001	0,093
-463,357	60,356	-0,113	0,080
-462,343	-1,330	-0,075	-0,038
-461,328	800,000	-0,013	-0,032
-460,313	-200,000	0,010	-0,099
-459,299	70,344	0,056	-0,042
-458,284	315,001	-0,075	0,102
-457,270	-200,000	0,001	-0,068
-456,255	216,324	-0,049	-0,056
-455,241	-200,000	0,004	-0,041
-454,226	157,215	0,079	0,079
-453,211	19,300	0,130	-0,075
-452,197	800,000	-0,031	0,087
-451,182	-60,312	-0,010	-0,003
-450,168	-8,920	-0,074	-0,035
-449,153	-200,000	0,028	0,108
-448,138	694,635	-0,080	-0,152
-447,124	629,758	0,031	-0,056
-446,109	174,618	0,070	0,073
-445,095	-200,000	0,004	0,043
-444,080	-46,180	0,034	-0,012
-443,065	-91,811	-0,073	0,015
-442,051	-176,119	-0,137	-0,003
-441,036	-43,681	-0,056	-0,020
-440,022	66,168	-0,054	0,039
-439,007	-121,733	0,136	-0,016
-437,992	-40,204	-0,015	0,006
-436,978	-42,968	0,013	-0,005
-435,963	172,497	-0,127	0,131
-434,949	224,821	-0,041	-0,047
-433,934	37,006	-0,072	-0,046
-432,919	-121,937	0,047	-0,006
-431,905	467,373	0,021	0,033
-430,890	800,000	0,036	0,115
-429,876	-200,000	0,018	-0,112
-428,861	-200,000	0,012	0,236
-427,846	226,093	0,061	0,071
-426,832	-200,000	-0,012	0,081
-425,817	800,000	-0,103	0,235
-424,803	265,634	-0,088	0,111
-423,788	-180,515	-0,034	0,000
-422,773	-116,868	0,174	0,023
-421,759	-119,645	0,055	-0,007
-420,744	5,312	-0,020	0,011
-419,730	800,000	0,031	0,069
-418,715	-72,260	0,007	-0,002
-417,701	356,923	-0,068	0,098
-416,686	312,651	-0,033	0,045
-415,671	120,585	0,088	0,078
-414,657	800,000	0,022	0,065
-413,642	276,870	-0,066	0,084
-412,628	119,253	0,159	-0,141
-411,613	547,424	-0,057	-0,099
-410,598	262,133	-0,066	0,082
-409,584	800,000	0,037	-0,109
-408,569	35,301	0,003	-0,002
-407,555	520,747	0,099	0,167
-406,540	-200,000	0,005	-0,048
-405,525	800,000	0,017	-0,039
-404,511	-200,000	-0,001	-0,016
-403,496	275,303	-0,060	-0,077
-402,482	-93,919	0,095	0,019
-401,467	-200,000	0,016	0,135
-400,452	49,808	0,041	0,028
-399,438	303,683	0,037	0,050
-398,423	-51,797	-0,157	-0,052
-397,409	-200,000	-0,003	-0,028
-396,394	-75,505	-0,071	0,018
-395,379	-200,000	0,020	0,078
-394,365	-200,000	-0,006	0,025
-393,350	317,480	-0,106	0,144
-392,336	800,000	0,015	0,043
-391,321	145,014	-0,096	0,092
-390,306	27,889	0,039	0,024
-389,292	65,511	-0,057	0,042
-388,277	-1,422	0,144	0,073
-387,263	-200,000	0,011	0,083
-386,248	31,322	0,140	0,086
-385,233	800,000	-0,024	0,061
-384,219	-200,000	-0,000	0,040
-383,204	18,939	0,040	-0,023
-382,190	-200,000	-0,007	-0,129
-381,175	590,496	0,003	-0,005
-380,160	800,000	0,030	0,078
-379,146	-200,000	0,052	0,174
-378,131	165,181	0,035	-0,035
-377,117	80,627	0,093	-0,072
-376,102	-200,000	-0,039	0,131
-375,088	184,293	0,063	0,067
-374,073	22,758	0,028	-0,016
-373,058	127,609	0,063	-0,058
-372,044	20,450	0,026	-0,015
-371,029	39,487	0,066	0,042
-370,015	-200,000	0,030	0,142
-369,000	49,301	-0,030	0,020
-367,985	316,736	-0,018	0,025
-366,971	533,589	0,034	-0,059
-365,956	165,686	0,060	0,061
-364,942	-200,000	0,011	-0,064
-363,927	-199,194	0,063	-0,000
-362,912	800,000	0,060	-0,154
-361,898	62,627	-0,115	-0,082
-360,883	318,164	-0,068	0,093
-359,869	-200,000	-0,010	0,060
-358,854	54,303	-0,088	-0,060
-357,839	7,996	0,124	-0,067
-356,825	-200,000	0,024	-0,146
-355,810	283,070	0,147	0,189
-354,796	800,000	-0,007	0,016
-353,781	800,000	0,049	-0,127
-352,766	14,822	-0,149	-0,084
-351,752	-44,554	-0,074	-0,026
-350,737	-91,463	0,019	-0,004
-349,723	52,267	0,077	0,053
-348,708	-141,796	-0,037	0,003
-347,693	-200,000	-0,004	-0,044
-346,679	-91,410	0,065	-0,013
-345,664	211,227	-0,037	-0,042
-344,650	-73,655	0,087	-0,023
-343,635	-200,000	-0,009	-0,151
-342,620	-18,393	0,029	-0,013
-341,606	800,000	-0,017	-0,043
-340,591	225,606	0,104	-0,121
-339,577	-45,938	-0,045	0,016
-338,562	-143,021	0,023	-0,002
-337,548	-200,000	-0,002	-0,088
-336,533	445,169	-0,010	0,016
-335,518	5,877	0,065	0,034
-334,504	106,947	0,028	0,024
-333,489	174,898	0,029	0,030
-332,475	800,000	-0,043	-0,088
-331,460	220,327	-0,038	0,044
-330,445	713,592	-0,015	-0,028
-329,431	-200,000	-0,004	0,043
-328,416	110,265	0,039	0,033
-327,402	-200,000	-0,048	0,223
-326,387	255,476	-0,070	-0,087
-325,372	433,287	0,021	-0,033
-324,358	-200,000	0,041	-0,174
-323,343	415,335	0,022	-0,033
-322,329	427,939	0,032	0,050
-321,314	-200,000	-0,007	0,116
-320,299	-28,134	0,060	0,025
-319,285	-44,340	0,084	-0,030
-318,270	-200,000	0,004	-0,021
-317,256	-200,000	0,001	-0,150
-316,241	19,926	0,086	0,050
-315,226	800,000	-0,032	0,086
-314,212	-95,449	0,026	-0,005
-313,197	52,386	0,100	0,068
-312,183	200,591	-0,088	-0,097
-311,168	267,428	0,031	0,040
-310,153	-200,000	-0,010	0,057
-309,139	35,298	0,033	0,021
-308,124	-0,685	-0,069	0,035
-307,110	229,242	-0,040	-0,047
-306,095	800,000	0,044	-0,109
-305,080	379,453	0,028	-0,041
-304,066	-200,000	0,022	-0,072
-303,051	800,000	-0,108	-0,239
-302,037	153,941	-0,099	0,097
-301,022	438,925	0,060	-0,094
-300,008	93,890	0,077	-0,062
-298,993	800,000	0,026	0,059
-297,978	-41,757	0,192	0,070
-296,964	36,210	-0,121	-0,076
-295,949	78,581	0,059	-0,045
-294,935	145,974	-0,085	-0,081
-293,920	-149,288	0,072	-0,004
-292,905	612,218	0,032	-0,058
-291,891	67,321	-0,056	-0,040
-290,876	82,503	0,080	-0,062
-289,862	79,148	0,071	-0,054
-288,847	100,557	-0,031	0,025
-287,832	-23,244	-0,038	-0,016
-286,818	-47,917	-0,096	-0,033
-285,803	104,899	0,128	0,108
-284,789	246,398	0,087	-0,105
-283,774	-134,064	0,044	-0,004
-282,759	55,662	0,116	0,080
-281,745	800,000	-0,028	0,069
-280,730	-76,563	0,027	-0,007
-279,716	-89,719	-0,039	0,008
-278,701	17,542	0,050	-0,028
-277,686	57,624	0,084	0,058
-276,672	77,626	0,088	0,067
-275,657	800,000	-0,039	-0,084
-274,643	-64,323	-0,022	0,006
-273,628	-200,000	-0,001	-0,055
-272,613	800,000	-0,046	0,123
-271,599	-39,571	0,090	-0,033
-270,584	-21,953	0,055	0,024
-269,570	-200,000	-0,009	0,087
-268,555	-71,271	0,169	-0,045
-267,540	800,000	0,017	-0,043
-266,526	800,000	-0,067	-0,189
-265,511	-200,000	0,016	-0,063
-264,497	-200,000	-0,016	0,062
-263,482	800,000	0,123	0,261
-262,467	-148,807	0,169	0,010
-261,453	-9,992	0,127	0,060
-260,438	-200,000	-0,008	-0,064
-259,424	-200,000	-0,011	-0,045
-258,409	-8,238	-0,070	0,034
-257,395	145,261	-0,067	0,064
-256,380	648,948	-0,041	-0,075
-255,365	800,000	0,044	-0,137
-254,351	300,213	-0,022	-0,029
-253,336	90,587	-0,039	-0,031
-252,322	800,000	-0,016	0,036
-251,307	800,000	-0,033	-0,102
-250,292	39,065	0,032	0,021
-249,278	-200,000	0,023	-0,073
-248,263	-200,000	0,005	0,062
-247,249	-200,000	0,012	0,113
-246,234	183,392	-0,103	0,108
-245,219	-101,949	-0,117	-0,020
-244,205	-72,754	-0,008	-0,002
-243,190	-200,000	0,024	0,119
-242,176	-120,843	0,093	0,011
-241,161	-54,757	-0,033	-0,010
-240,146	-118,334	-0,127	0,016
-239,132	-200,000	-0,009	-0,184
-238,117	254,123	-0,131	-0,161
-237,103	149,009	-0,095	0,091
-236,088	-200,000	0,005	-0,037
-235,073	-167,421	0,060	0,002
-234,059	-200,000	-0,007	-0,127
-233,044	570,439	0,080	0,139
-232,030	800,000	-0,026	0,056
-231,015	189,065	0,013	-0,014
-230,000	428,209	0,007	-0,011
-228,986	-60,166	-0,132	0,040
-227,971	800,000	-0,062	0,123
-226,957	800,000	0,009	-0,027
-225,942	-97,881	-0,107	-0,020
-224,927	482,180	-0,032	0,052
-223,913	800,000	-0,093	-0,210
-222,898	451,585	0,010	-0,016
-221,884	78,261	-0,058	-0,044
-220,869	-146,356	0,094	-0,006
-219,855	74,362	0,097	0,073
-218,840	-151,011	0,081	-0,004
-217,825	-138,297	0,060	0,005
-216,811	54,403	-0,083	-0,057
-215,796	-184,767	-0,135	0,001
-214,782	41,214	-0,066	-0,043
-213,767	42,951	0,116	0,075
-212,752	-200,000	-0,045	0,182
-211,738	-200,000	0,003	-0,014
-210,723	-200,000	0,017	0,087
-209,709	800,000	-0,041	0,082
-208,694	277,669	-0,040	-0,051
-207,679	-37,172	-0,079	0,030
-206,665	-9,648	0,057	0,027
-205,650	258,703	-0,087	0,107
-204,636	-120,768	0,151	0,018
-203,621	136,940	-0,051	0,047
-202,606	-195,933	-0,078	0,000
-201,592	-94,734	-0,021	0,004
-200,577	-105,772	-0,097	-0,015
-199,563	44,520	-0,040	-0,026
-198,548	-200,000	-0,013	-0,057
-197,533	-200,000	0,026	0,102
-196,519	250,250	0,044	0,053
-195,504	465,301	-0,049	-0,078
-194,490	365,008	-0,002	0,003
-193,475	275,396	-0,082	-0,104
-192,460	309,929	-0,052	-0,070
-191,446	131,255	0,031	-0,028
-190,431	139,248	0,048	-0,045
-189,417	-37,760	0,025	0,009
-188,402	800,000	-0,019	0,040
-187,387	-62,580	-0,024	0,007
-186,373	105,019	-0,034	0,029
-185,358	-200,000	0,002	-0,073
-184,344	68,030	0,090	0,065
-183,329	800,000	0,017	-0,051
-182,315	105,687	-0,131	0,110
-181,300	-73,529	-0,109	0,028
-180,285	800,000	0,057	-0,149
-179,271	-26,354	-0,131	0,054
-178,256	116,361	-0,048	-0,042
-177,242	-103,871	-0,037	0,006
-176,227	73,635	0,036	0,027
-175,212	376,793	0,031	-0,046
-174,198	800,000	0,084	-0,184
-173,183	800,000	-0,029	-0,077
-172,169	-57,572	0,038	-0,012
-171,154	-36,626	0,113	0,043
-170,139	713,938	-0,034	0,065
-169,125	415,197	-0,070	0,107
-168,110	-30,487	0,120	-0,048
-167,096	134,757	-0,110	-0,102
-166,081	81,799	-0,081	-0,063
-165,066	-1,996	0,041	-0,020
-164,052	493,725	-0,054	-0,088
-163,037	-200,000	-0,001	-0,082
-162,023	433,375	0,044	0,068
-161,008	-200,000	-0,005	0,078
-159,993	791,435	-0,029	0,058
-158,979	-39,723	-0,055	0,020
-157,964	135,358	0,066	0,061
-156,950	-48,207	-0,102	0,035
-155,935	-166,380	-0,050	0,001
-154,920	-91,532	0,152	0,031
-153,906	800,000	-0,061	0,138
-152,891	800,000	-0,048	-0,103
-151,877	-11,222	0,024	-0,011
-150,862	-11,825	-0,122	-0,057
-149,847	-200,000	-0,009	0,127
-148,833	-97,752	-0,078	-0,014
-147,818	800,000	-0,060	0,162
-146,804	-17,772	0,095	0,042
-145,789	800,000	0,077	0,161
-144,775	-200,000	-0,040	-0,153
-143,760	430,407	-0,028	-0,043
-142,745	-200,000	0,007	-0,033
-141,731	283,579	0,080	0,103
-140,716	-33,668	0,136	0,053
-139,702	-10,418	0,089	0,042
-138,687	-185,317	-0,100	0,001
-137,672	800,000	0,045	0,092
-136,658	-200,000	0,006	-0,106
-135,643	327,033	-0,082	-0,112
-134,629	-200,000	0,000	-0,104
-133,614	343,580	-0,085	0,118
-132,599	800,000	-0,051	0,155
-131,585	-68,012	-0,085	-0,023
-130,570	406,607	-0,030	-0,045
-129,556	331,442	-0,051	-0,070
-128,541	-200,000	-0,011	-0,042
-127,526	-200,000	-0,008	-0,046
-126,512	-200,000	-0,015	0,087
-125,497	115,900	-0,068	0,059
-124,483	-154,791	0,159	-0,007
-123,468	17,687	0,103	-0,058
-122,453	309,306	0,029	-0,038
-121,439	800,000	-0,086	0,221
-120,424	-152,009	0,015	-0,001
-119,410	800,000	-0,009	0,019
-118,395	39,370	-0,073	-0,046
-117,380	170,239	0,103	0,104
-116,366	-10,168	-0,116	0,055
-115,351	-9,390	-0,094	-0,044
-114,337	-200,000	-0,035	0,147
-113,322	36,780	-0,039	0,024
-112,307	800,000	0,010	0,027
-111,293	-200,000	0,009	0,034
-110,278	46,928	-0,027	0,018
-109,264	62,663	-0,104	0,074
-108,249	800,000	0,025	0,064
-107,234	379,220	-0,077	0,112
-106,220	447,528	0,044	-0,070
-105,205	7,508	0,095	-0,050
-104,191	279,590	0,109	0,138
-103,176	-200,000	0,012	0,061
-102,162	85,992	-0,049	0,038
-101,147	10,949	0,157	0,085
-100,132	800,000	-0,016	0,040
-99,118	-133,501	0,097	-0,008
-98,103	800,000	0,030	0,091
-97,089	-200,000	-0,025	0,292
-96,074	-200,000	0,033	0,147
-95,059	388,336	0,011	-0,016
-94,045	-200,000	-0,018	-0,136
-93,030	800,000	0,056	-0,123
-92,016	-79,499	-0,092	-0,022
-91,001	-200,000	0,012	-0,042
-89,986	-51,602	0,083	-0,027
-88,972	19,023	-0,052	0,029
-87,957	-200,000	0,004	0,073
-86,943	800,000	0,039	0,082
-85,928	-19,099	-0,186	-0,082
-84,913	443,226	0,047	0,073
-83,899	10,809	-0,061	0,033
-82,884	5,683	0,034	0,018
-81,870	84,937	0,071	-0,055
-80,855	192,285	-0,071	0,076
-79,840	38,431	-0,032	-0,020
-78,826	147,777	-0,033	0,032
-77,811	314,422	0,044	0,059
-76,797	548,938	-0,038	0,064
-75,782	295,851	0,020	-0,025
-74,767	-171,638	-0,031	0,001
-73,753	-200,000	-0,007	0,036
-72,738	-138,961	0,102	0,008
-71,724	-33,460	0,107	-0,042
-70,709	800,000	-0,026	-0,075
-69,694	800,000	-0,014	0,043
-68,680	94,416	-0,115	0,093
-67,665	38,176	0,110	0,069
-66,651	800,000	0,024	0,068
-65,636	-43,295	0,140	-0,050
-64,622	-82,457	-0,178	0,041
-63,607	-66,596	0,051	-0,014
-62,592	-200,000	0,005	0,055
-61,578	-200,000	-0,015	0,209
-60,563	-14,381	0,076	0,035
-59,549	-200,000	0,028	0,161
-58,534	-52,414	-1,730	-0,563
-57,519	278,424	-1,514	-1,915
-56,505	-200,000	-0,517	-4,522
-55,490	209,770	1,102	1,226
-54,476	800,000	4,794	10,881
-53,461	-200,000	19,127	319,059
-52,446	-200,000	739,922	2334,871
-51,432	574,655	1655,223	2871,439
-50,417	78,470	1671,007	1262,860
-49,403	21,387	1543,941	886,128
-48,388	15,285	1466,223	811,854
-47,373	17,904	1456,635	819,168
-46,359	16,714	1446,444	807,700
-45,344	13,527	1441,809	789,812
-44,330	13,431	1439,702	788,168
-43,315	13,484	1438,101	787,510
-42,300	13,461	1436,541	786,515
-41,286	13,490	1435,223	785,905
-40,271	13,427	1433,940	784,868
-39,257	13,408	1432,599	784,015
-38,242	13,457	1431,389	783,553
-37,227	13,505	1430,104	783,045
-36,213	13,450	1429,042	782,174
-35,198	13,478	1427,659	781,518
-34,184	13,540	1426,725	781,271
-33,169	13,432	1425,487	780,048
-32,154	13,521	1424,358	779,820
-31,140	13,527	1422,999	779,074
-30,125	13,533	1421,969	778,508
-29,111	13,506	1420,726	777,668
-28,096	13,477	1419,800	776,996
-27,082	13,419	1418,624	776,049
-26,067	13,417	1417,477	775,379
-25,052	13,433	1416,332	774,796
-24,038	13,406	1415,348	774,100
-23,023	13,443	1414,356	773,703
-22,009	13,410	1413,513	773,057
-20,994	13,376	1412,572	772,350
-19,979	13,382	1411,596	771,814
-18,965	13,364	1410,747	771,235
-17,950	13,393	1409,711	770,772
-16,936	13,427	1408,621	770,305
-15,921	13,389	1407,671	769,577
-14,906	13,315	1406,922	768,794
-13,892	13,369	1405,794	768,398
-12,877	13,355	1405,038	767,888
-11,863	13,341	1404,229	767,350
-10,848	13,299	1403,631	766,799
-9,833	13,297	1402,223	765,989
-8,819	13,299	1401,532	765,589
-7,804	13,234	1400,750	764,832
-6,790	13,296	1399,448	764,379
-5,775	13,248	1398,432	763,568
-4,760	13,251	1397,533	763,059
-3,746	13,263	1396,685	762,625
-2,731	13,245	1395,709	761,979
-1,717	13,210	1395,007	761,401
-0,702	13,213	1393,230	760,415
0,313	16,997	1310,218	732,658
1,327	33,245	704,008	431,242
2,342	51,250	123,374	82,718
3,356	3,128	16,681	8,554
4,371	3,844	3,249	1,674
5,386	49,665	0,605	0,403
6,400	162,527	0,113	0,112
7,415	-52,642	-0,185	-0,060
8,429	138,197	-0,223	-0,207
9,444	-64,638	-0,425	-0,121
10,459	18,920	-0,303	-0,171
11,473	222,958	-0,155	-0,177
12,488	-27,865	-0,358	-0,146
13,502	-94,387	-0,348	-0,067
14,517	49,557	-0,352	-0,234
15,531	86,226	-0,387	-0,301
16,546	-3,454	-0,357	-0,175
17,561	-30,291	-0,393	-0,157
18,575	392,916	-0,051	-0,076
19,590	197,444	-0,262	-0,282
20,604	-106,458	-0,271	-0,042
21,619	89,655	-0,410	-0,323
22,634	190,558	-0,287	-0,305
23,648	89,319	-0,521	-0,409
24,663	26,392	-0,406	-0,239
25,677	21,375	-0,411	-0,235
26,692	-39,865	-0,266	-0,098
27,707	164,663	-0,391	-0,389
28,721	21,228	-0,406	-0,232
29,736	31,904	-0,337	-0,204
30,750	20,597	-0,414	-0,236
31,765	147,622	-0,350	-0,333
32,780	82,404	-0,289	-0,221
33,794	39,890	-0,355	-0,225
34,809	181,317	-0,394	-0,409
35,823	91,120	-0,415	-0,328
36,838	218,549	-0,365	-0,412
37,853	227,367	-0,311	-0,357
38,867	193,193	-0,296	-0,316
39,882	38,857	-0,438	-0,276
40,896	24,398	-0,237	-0,138
41,911	63,626	-0,360	-0,254
42,926	141,811	-0,402	-0,376
43,940	180,068	-0,390	-0,403
44,955	99,754	-0,427	-0,349
45,969	28,433	-0,500	-0,297
46,984	172,529	-0,271	-0,275
47,999	80,404	-0,324	-0,246
49,013	-17,694	-0,296	-0,130
50,028	1,508	-0,453	-0,229
51,042	73,914	-0,348	-0,257
52,057	89,545	-0,356	-0,279
53,071	82,831	-0,348	-0,266
54,086	10,721	-0,357	-0,191
55,101	111,412	-0,344	-0,292
56,115	79,757	-0,320	-0,242
57,130	110,927	-0,388	-0,329
58,144	100,399	-0,373	-0,305
59,159	168,793	-0,369	-0,371
60,174	-33,575	-0,449	-0,174
61,188	231,459	-0,352	-0,407
62,203	169,390	-0,256	-0,258
63,217	21,593	-0,376	-0,215
64,232	-80,653	-0,402	-0,093
65,247	162,223	-0,272	-0,269
66,261	64,144	-0,188	-0,133
67,276	-155,345	-0,256	-0,011
68,290	122,103	-0,266	-0,234
69,305	-16,304	-0,299	-0,133
70,320	50,558	-0,260	-0,173
71,334	-145,365	-0,286	0,018
72,349	-97,295	-0,353	-0,064
73,363	37,192	-0,210	-0,130
74,378	161,804	-0,319	-0,314
75,393	155,325	-0,264	-0,256
76,407	71,126	-0,337	-0,245
77,422	-79,229	-0,279	-0,066
78,436	378,169	-0,178	-0,257
79,451	206,815	-0,229	-0,251
80,466	13,211	-0,349	-0,189
81,480	129,391	-0,297	-0,267
82,495	-29,549	-0,393	-0,157
83,509	21,459	-0,309	-0,176
84,524	221,152	-0,147	-0,166
85,539	83,415	-0,189	-0,145
86,553	-12,896	-0,346	-0,158
87,568	103,327	-0,323	-0,266
88,582	103,158	-0,332	-0,273
89,597	119,199	-0,283	-0,246
90,611	26,448	-0,320	-0,188
91,626	15,762	-0,246	-0,135
92,641	-13,257	-0,247	-0,112
93,655	-101,339	-0,454	-0,077
94,670	121,674	-0,346	-0,303
95,684	111,796	-0,263	-0,223
96,699	13,833	-0,415	-0,226
97,714	50,977	-0,277	-0,184
98,728	-176,921	-0,336	0,006
99,743	16,334	-0,260	-0,143
100,757	168,574	-0,238	-0,238
101,772	40,631	-0,382	-0,241
102,787	31,856	-0,260	-0,156
103,801	-59,431	-0,352	-0,106
104,816	-102,653	-0,284	-0,047
105,830	0,080	-0,281	-0,140
106,845	243,064	-0,182	-0,214
107,860	-59,125	-0,351	-0,105
108,874	-30,141	-0,262	-0,104
109,889	-28,216	-0,361	-0,146
110,903	27,709	-0,361	-0,212
111,918	26,930	-0,292	-0,171
112,933	88,300	-0,196	-0,152
113,947	192,960	-0,151	-0,160
114,962	-64,129	-0,358	-0,102
115,976	157,591	-0,160	-0,155
116,991	-15,632	-0,284	-0,126
118,006	-27,241	-0,304	-0,124
119,020	266,211	-0,112	-0,137
120,035	-104,249	-0,358	-0,058
121,049	-29,443	-0,254	-0,101
122,064	-105,784	-0,262	-0,041
123,079	800,000	-0,095	-0,242
124,093	224,730	-0,158	-0,179
125,108	439,573	-0,169	-0,260
126,122	112,538	-0,263	-0,223
127,137	21,226	-0,194	-0,110
128,151	63,811	-0,178	-0,125
129,166	451,942	-0,151	-0,234
130,181	103,717	-0,280	-0,230
131,195	-1,353	-0,269	-0,133
132,210	447,089	-0,236	-0,364
133,224	800,000	-0,121	-0,250
134,239	739,831	-0,232	-0,438
135,254	14,074	-0,210	-0,114
136,268	197,992	-0,145	-0,155
137,283	-17,806	-0,288	-0,126
138,297	111,879	-0,298	-0,252
139,312	30,789	-0,328	-0,196
140,327	44,449	-0,189	-0,121
141,341	139,912	-0,203	-0,187
142,356	169,756	-0,214	-0,214
143,370	-71,597	-0,219	-0,057
144,385	75,083	-0,275	-0,203
145,400	11,365	-0,323	-0,172
146,414	-50,825	-0,148	-0,048
147,429	-51,481	-0,328	-0,106
148,443	81,509	-0,183	-0,138
149,458	52,947	-0,211	-0,141
150,473	2,294	-0,256	-0,129
151,487	71,724	-0,213	-0,155
152,502	62,133	-0,222	-0,155
153,516	30,095	-0,408	-0,243
154,531	483,193	-0,109	-0,174
155,546	-43,330	-0,269	-0,094
156,560	-12,052	-0,160	-0,073
157,575	150,232	-0,190	-0,180
158,589	105,296	-0,283	-0,233
159,604	283,743	-0,159	-0,199
160,619	11,751	-0,195	-0,104
161,633	77,208	-0,273	-0,203
162,648	-61,015	-0,173	-0,051
163,662	21,821	-0,231	-0,131
164,677	166,354	-0,105	-0,104
165,692	-65,415	-0,264	-0,074
166,706	3,141	-0,140	-0,071
167,721	-17,062	-0,322	-0,141
168,735	-47,794	-0,253	-0,085
169,750	24,356	-0,254	-0,146
170,764	124,810	-0,142	-0,124
171,779	139,041	-0,251	-0,230
172,794	401,898	-0,139	-0,205
173,808	2,260	-0,221	-0,111
174,823	123,645	-0,141	-0,123
175,837	458,477	-0,123	-0,192
176,852	-2,915	-0,357	-0,173
177,867	214,043	-0,161	-0,177
178,881	143,161	-0,108	-0,100
179,896	12,652	-0,260	-0,139
180,910	-31,550	-0,129	-0,050
181,925	41,508	-0,320	-0,202
182,940	45,204	-0,357	-0,229
183,954	-28,244	-0,177	-0,071
184,969	200,023	-0,164	-0,176
185,983	-57,535	-0,244	-0,074
186,998	-132,377	-0,231	0,020
188,013	-9,835	-0,216	-0,100
189,027	-106,556	-0,255	-0,039
190,042	228,734	-0,234	-0,266
191,056	236,925	-0,261	-0,301
192,071	39,937	-0,297	-0,185
193,086	277,043	-0,197	-0,245
194,100	242,727	-0,180	-0,210
195,115	-200,000	-0,000	-0,069
196,129	139,368	-0,211	-0,193
197,144	-21,903	-0,235	-0,099
198,159	447,693	-0,167	-0,257
199,173	59,166	-0,253	-0,173
200,188	-32,830	-0,157	-0,060
201,202	-73,954	-0,169	-0,042
202,217	-81,601	-0,256	-0,058
203,232	17,257	-0,080	-0,044
204,246	103,210	-0,145	-0,118
205,261	800,000	-0,129	-0,264
206,275	25,756	-0,117	-0,068
207,290	260,733	-0,123	-0,148
208,304	95,275	-0,150	-0,119
209,319	167,477	-0,146	-0,144
210,334	61,361	-0,211	-0,145
211,348	496,521	-0,116	-0,186
212,363	463,323	-0,183	-0,285
213,377	19,782	-0,188	-0,105
214,392	72,530	-0,206	-0,149
215,407	233,908	-0,150	-0,172
216,421	-94,953	-0,186	-0,035
217,436	98,649	-0,241	-0,193
218,450	336,050	-0,196	-0,265
219,465	-65,413	-0,252	-0,070
220,480	-32,110	-0,199	-0,077
221,494	130,949	-0,192	-0,171
222,509	104,798	-0,141	-0,115
223,523	58,214	-0,163	-0,111
224,538	253,284	-0,180	-0,213
225,553	-21,925	-0,206	-0,086
226,567	290,147	-0,194	-0,245
227,582	800,000	-0,071	-0,163
228,596	392,856	-0,124	-0,179
229,611	200,005	-0,120	-0,128
230,626	62,732	-0,162	-0,113
231,640	800,000	-0,056	-0,115
232,655	620,871	-0,086	-0,151
233,669	749,450	-0,144	-0,270
234,684	243,986	-0,146	-0,171
235,699	129,117	-0,150	-0,133
236,713	85,245	-0,161	-0,123
237,728	-59,306	-0,141	-0,042
238,742	-158,336	-0,212	0,008
239,757	-65,546	-0,260	-0,072
240,772	402,552	-0,179	-0,261
241,786	665,168	-0,161	-0,290
242,801	163,729	-0,170	-0,166
243,815	106,176	-0,209	-0,172
244,830	549,639	-0,119	-0,198
245,844	556,993	-0,096	-0,161
246,859	128,561	-0,117	-0,103
247,874	-56,458	-0,265	-0,081
248,888	-45,238	-0,228	0,078
249,903	-7,081	-0,175	-0,082
250,917	-165,888	-0,192	0,006
251,932	5,741	-0,169	-0,086
252,947	56,508	-0,184	-0,124
253,961	-44,069	-0,209	-0,072
254,976	99,996	-0,167	-0,134
255,990	66,744	-0,197	-0,139
257,005	-100,601	-0,195	-0,033
258,020	-55,342	-0,094	-0,029
259,034	0,456	-0,191	-0,094
260,049	7,263	-0,151	-0,078
261,063	-106,383	-0,184	-0,028
262,078	125,558	-0,199	-0,174
263,093	215,583	-0,151	-0,166
264,107	87,523	-0,190	-0,145
265,122	61,785	-0,184	-0,126
266,136	732,008	-0,067	-0,124
267,151	572,256	-0,081	-0,137
268,166	-47,940	-0,220	-0,073
269,180	49,646	-0,030	-0,020
270,195	110,781	-0,184	-0,153
271,209	36,343	-0,158	-0,096
272,224	373,891	-0,087	-0,122
273,239	800,000	-0,046	0,107
274,253	-200,000	-0,013	-0,063
275,268	-200,000	-0,024	-0,223
276,282	48,701	-0,202	-0,131
277,297	-43,694	-0,197	-0,068
278,312	-68,298	-0,168	-0,045
279,326	532,264	-0,055	-0,091
280,341	-36,906	-0,191	-0,071
281,355	-200,000	-0,139	-0,000
282,370	39,373	-0,145	-0,089
283,384	-16,155	-0,233	-0,102
284,399	741,752	-0,101	-0,189
285,414	83,209	-0,102	-0,077
286,428	325,313	-0,099	-0,131
287,443	118,751	-0,175	-0,149
288,457	-117,768	-0,130	-0,016
289,472	85,238	-0,125	-0,094
290,487	29,685	-0,135	-0,079
291,501	-3,085	-0,233	-0,112
292,516	143,265	-0,154	-0,142
293,530	800,000	-0,109	-0,251
294,545	-154,365	-0,151	0,007
295,560	55,026	-0,197	-0,131
296,574	19,596	-0,093	-0,052
297,589	219,714	-0,241	-0,267
298,603	204,608	-0,224	-0,240
299,618	19,776	-0,236	-0,131
300,633	800,000	-0,056	-0,134
301,647	-17,473	-0,174	-0,075
302,662	-69,207	-0,101	0,027
303,676	0,165	-0,144	-0,071
304,691	45,437	-0,113	-0,072
305,706	-51,956	-0,284	-0,090
306,720	118,032	-0,201	-0,170
307,735	38,910	-0,158	-0,097
308,749	-65,053	-0,129	0,036
309,764	-200,000	-0,038	-0,146
310,779	-123,945	-0,187	-0,020
311,793	-200,000	-0,019	0,091
312,808	-158,435	-0,310	0,012
313,822	51,616	-0,204	-0,133
314,837	-200,000	0,001	-0,107
315,852	213,512	-0,142	-0,155
316,866	-133,717	-0,249	-0,021
317,881	101,572	-0,136	-0,109
318,895	31,122	-0,089	-0,053
319,910	71,283	-0,155	-0,111
320,925	104,237	-0,109	-0,088
321,939	-10,569	-0,209	-0,095
322,954	-50,373	-0,165	0,053
323,968	-200,000	-0,015	-0,113
324,983	442,461	-0,086	-0,129
325,997	19,561	-0,276	-0,152
327,012	495,731	-0,127	-0,202
328,027	236,801	-0,074	-0,084
329,041	-200,000	-0,008	-0,175
330,056	93,027	-0,129	-0,100
331,070	-105,996	-0,086	0,013
332,085	349,881	-0,048	-0,066
333,100	8,335	-0,119	-0,061
334,114	-200,000	-0,073	-0,352
335,129	800,000	-0,087	-0,226
336,143	62,851	-0,199	-0,137
337,158	348,033	-0,159	-0,216
338,173	-200,000	-0,002	-0,032
339,187	22,234	-0,098	0,055
340,202	-0,785	-0,122	-0,059
341,216	309,699	-0,081	-0,104
342,231	156,094	-0,154	-0,146
343,246	98,123	-0,154	-0,122
344,260	30,054	-0,144	-0,084
345,275	-200,000	0,004	-0,099
346,289	-200,000	-0,022	-0,080
347,304	800,000	-0,012	-0,024
348,319	486,865	-0,070	-0,110
349,333	333,924	-0,163	-0,218
350,348	115,642	-0,205	-0,172
351,362	651,300	-0,078	-0,138
352,377	70,866	-0,172	-0,122
353,392	-8,204	-0,114	-0,052
354,406	9,368	-0,091	-0,047
355,421	208,585	1314,708	1412,486
356,435	160,502	1475,421	1412,967
