DTS Sentinel unit serial number:	SN410029Multiplexer serial number:	ORYXHardware model number:	OX2-SRSoftware version number:	ORYX F/W v4,00 Oryx Data Collector v3.7.2.0data status	okinstallation	B3 Nyhavnadifferential loss correction	single-endedforward channel	channel 1reverse channel	N/Adate	2023/12/04time	14:37:30forward acquisition time	300,00reverse acquisition time	0,00gamma	499,1914k internal	0,3201k external	0,3201temperature offset calibration	1,0000default loss term (dB/km)	0,3820temperature slope calibration	1,0000multiplexer offset coefficient	1,0000multiplexer slope coefficient	1,0000fibre end	0,00T internal ref (°C)	15,01T ext. ref 1 (°C)	0,22T ext. ref 2 (°C)	0,21length (m)	temperature (°C)	Stokes	anti-Stokes-744,400	284,443	-0,221	-0,290
-743,385	-200,000	-0,071	0,327
-742,371	266,025	-0,102	-0,130
-741,356	-200,000	0,089	0,291
-740,342	196,517	-0,097	-0,108
-739,327	-200,000	0,027	0,321
-738,312	45,185	-0,288	-0,193
-737,298	-200,000	0,024	0,224
-736,283	459,651	-0,120	-0,195
-735,269	-200,000	0,084	0,285
-734,254	-38,447	-0,202	-0,077
-733,239	-9,691	-0,295	0,142
-732,225	-54,501	-0,278	-0,091
-731,210	160,733	0,165	0,168
-730,196	-67,917	-0,091	-0,026
-729,181	649,556	-0,035	-0,065
-728,167	271,454	0,057	0,073
-727,152	493,884	0,065	0,109
-726,137	-200,000	0,018	0,068
-725,123	-200,000	-0,007	-0,042
-724,108	-44,895	-0,032	-0,011
-723,094	223,142	0,066	-0,078
-722,079	67,184	-0,057	0,042
-721,064	542,619	-0,033	-0,058
-720,050	-1,095	-0,053	0,027
-719,035	800,000	-0,022	-0,046
-718,021	800,000	0,016	-0,045
-717,006	586,547	-0,113	-0,203
-715,991	279,288	-0,124	-0,161
-714,977	-200,000	-0,010	-0,138
-713,962	-70,789	0,122	-0,033
-712,948	-200,000	0,004	0,032
-711,933	800,000	-0,039	0,084
-710,918	218,997	-0,045	0,052
-709,904	25,574	-0,117	-0,070
-708,889	-200,000	-0,021	-0,091
-707,875	-200,000	-0,008	-0,096
-706,860	-200,000	-0,084	0,000
-705,845	-200,000	0,024	0,129
-704,831	206,383	-0,044	-0,050
-703,816	-64,024	-0,080	-0,024
-702,802	800,000	0,018	-0,050
-701,787	700,832	-0,055	-0,105
-700,772	333,434	-0,071	-0,100
-699,758	-176,746	0,045	0,001
-698,743	26,236	0,027	0,017
-697,729	358,339	0,137	-0,199
-696,714	-200,000	0,000	0,053
-695,699	-40,184	-0,100	0,038
-694,685	-23,348	-0,150	-0,065
-693,670	73,649	-0,061	0,046
-692,656	800,000	-0,015	0,040
-691,641	800,000	0,010	0,025
-690,627	800,000	0,053	0,115
-689,612	214,359	0,039	0,045
-688,597	213,410	0,029	0,034
-687,583	800,000	0,064	-0,170
-686,568	-200,000	0,017	-0,184
-685,554	800,000	-0,051	-0,148
-684,539	-74,711	0,105	0,027
-683,524	4,651	0,045	-0,024
-682,510	800,000	0,079	0,188
-681,495	-130,379	0,096	-0,009
-680,481	-200,000	-0,013	-0,127
-679,466	194,848	-0,091	-0,101
-678,451	800,000	0,067	-0,143
-677,437	-129,498	-0,115	-0,011
-676,422	-123,373	0,124	0,014
-675,408	-200,000	0,021	0,081
-674,393	-115,784	-0,103	0,014
-673,378	-24,286	-0,052	-0,023
-672,364	-29,701	-0,074	0,031
-671,349	-200,000	-0,016	-0,133
-670,335	-169,489	-0,059	-0,002
-669,320	-119,405	0,180	-0,022
-668,305	330,174	0,109	-0,152
-667,291	26,290	-0,028	-0,017
-666,276	800,000	-0,026	-0,055
-665,262	-106,256	-0,065	0,010
-664,247	700,842	-0,037	0,070
-663,232	98,744	-0,139	0,116
-662,218	800,000	0,015	0,032
-661,203	29,468	-0,073	0,045
-660,189	-200,000	0,012	-0,113
-659,174	66,428	-0,124	0,092
-658,159	88,239	-0,135	-0,108
-657,145	516,368	0,035	-0,059
-656,130	-89,347	-0,084	-0,018
-655,116	120,572	0,063	0,056
-654,101	-200,000	0,073	0,000
-653,086	481,994	-0,035	0,058
-652,072	-200,000	-0,024	0,083
-651,057	106,150	0,016	-0,013
-650,043	421,531	-0,081	-0,126
-649,028	-200,000	-0,001	-0,015
-648,014	800,000	0,019	0,045
-646,999	-88,343	0,173	-0,037
-645,984	-117,239	0,135	-0,018
-644,970	800,000	-0,022	-0,053
-643,955	36,233	0,051	-0,033
-642,941	42,879	-0,155	-0,102
-641,926	613,322	0,016	-0,030
-640,911	252,662	-0,083	0,103
-639,897	800,000	-0,042	-0,098
-638,882	-200,000	-0,008	-0,084
-637,868	-92,821	-0,123	-0,025
-636,853	75,180	-0,013	0,010
-635,838	226,060	-0,081	-0,095
-634,824	550,046	0,042	-0,073
-633,809	-38,013	0,031	-0,012
-632,795	357,503	0,037	0,054
-631,780	-200,000	-0,004	0,152
-630,765	241,581	-0,102	-0,124
-629,751	-200,000	0,019	-0,163
-628,736	800,000	0,043	-0,096
-627,722	647,196	0,032	0,060
-626,707	-200,000	-0,001	-0,095
-625,692	134,042	0,032	-0,030
-624,678	-200,000	0,018	0,072
-623,663	-200,000	0,005	-0,109
-622,649	-49,341	0,093	0,032
-621,634	-85,653	-0,097	-0,022
-620,619	800,000	-0,025	-0,077
-619,605	252,607	-0,019	0,024
-618,590	194,133	0,084	-0,092
-617,576	0,168	0,085	-0,044
-616,561	-200,000	0,005	0,077
-615,546	25,361	0,115	-0,069
-614,532	-200,000	0,013	-0,053
-613,517	290,661	0,009	0,012
-612,503	-200,000	-0,000	-0,013
-611,488	346,473	-0,058	0,083
-610,474	800,000	-0,037	-0,111
-609,459	800,000	-0,033	-0,070
-608,444	39,870	-0,060	0,039
-607,430	800,000	0,048	-0,103
-606,415	-56,238	-0,060	-0,019
-605,401	-106,433	0,103	0,017
-604,386	-53,548	0,119	-0,039
-603,371	-79,886	0,134	0,032
-602,357	-200,000	0,018	0,078
-601,342	334,707	0,055	-0,078
-600,328	-85,159	-0,063	0,014
-599,313	-78,973	-0,078	-0,019
-598,298	117,335	0,026	-0,023
-597,284	29,453	0,082	-0,050
-596,269	28,307	-0,065	0,039
-595,255	800,000	0,037	-0,079
-594,240	-81,355	0,076	-0,018
-593,225	247,869	-0,122	-0,150
-592,211	-200,000	-0,030	-0,139
-591,196	232,005	0,083	-0,099
-590,182	73,706	-0,009	0,007
-589,167	224,008	0,074	0,087
-588,152	-148,777	-0,095	-0,005
-587,138	800,000	-0,019	0,050
-586,123	78,467	-0,168	-0,130
-585,109	-200,000	0,005	0,028
-584,094	632,458	-0,028	-0,052
-583,079	130,451	0,014	-0,013
-582,065	95,510	-0,091	-0,075
-581,050	171,146	-0,108	0,112
-580,036	800,000	-0,016	0,043
-579,021	123,055	-0,058	-0,053
-578,006	773,248	-0,067	-0,133
-576,992	504,311	0,063	-0,106
-575,977	-200,000	0,012	-0,120
-574,963	-12,860	0,085	0,040
-573,948	-200,000	-0,028	0,166
-572,934	800,000	-0,023	-0,057
-571,919	800,000	-0,093	0,201
-570,904	-116,150	-0,087	-0,012
-569,890	336,657	-0,067	-0,094
-568,875	-200,000	-0,004	0,033
-567,861	-200,000	-0,020	-0,173
-566,846	109,304	0,136	-0,118
-565,831	-149,472	-0,057	-0,003
-564,817	800,000	0,071	-0,187
-563,802	369,394	0,021	0,031
-562,788	-26,596	-0,025	0,011
-561,773	-146,626	0,106	-0,007
-560,758	341,342	-0,073	0,104
-559,744	-89,017	0,099	-0,021
-558,729	486,352	0,042	-0,069
-557,715	687,832	0,021	-0,039
-556,700	152,869	-0,081	-0,080
-555,685	800,000	-0,028	-0,080
-554,671	-200,000	-0,006	-0,125
-553,656	-104,156	-0,070	-0,012
-552,642	-200,000	0,003	-0,116
-551,627	507,570	0,086	-0,145
-550,612	435,962	-0,053	0,084
-549,598	-200,000	0,004	-0,034
-548,583	-37,514	-0,118	-0,045
-547,569	629,984	-0,053	-0,097
-546,554	259,294	0,100	0,125
-545,539	-200,000	0,012	0,215
-544,525	-68,568	0,043	-0,012
-543,510	23,392	-0,136	0,081
-542,496	800,000	-0,030	-0,066
-541,481	-200,000	-0,011	-0,094
-540,466	-19,447	-0,103	0,046
-539,452	287,158	0,078	0,102
-538,437	-150,465	-0,147	-0,008
-537,423	-200,000	0,005	-0,048
-536,408	26,971	-0,018	0,011
-535,393	11,720	-0,117	0,065
-534,379	-76,187	-0,085	-0,021
-533,364	-200,000	0,026	-0,142
-532,350	-86,917	-0,083	0,018
-531,335	337,853	0,086	0,121
-530,321	650,098	0,025	0,046
-529,306	663,380	-0,088	0,164
-528,291	103,954	0,038	-0,032
-527,277	-200,000	-0,009	-0,103
-526,262	800,000	-0,037	-0,077
-525,248	51,813	-0,054	-0,037
-524,233	800,000	-0,057	0,157
-523,218	212,385	0,158	0,180
-522,204	-51,895	-0,032	0,011
-521,189	280,694	-0,041	-0,053
-520,175	193,024	0,074	-0,081
-519,160	126,230	0,104	0,095
-518,145	-200,000	0,012	0,098
-517,131	146,772	-0,030	-0,029
-516,116	-136,900	0,066	-0,005
-515,102	596,233	-0,045	-0,081
-514,087	734,236	0,023	-0,045
-513,072	-43,971	-0,090	0,032
-512,058	10,712	-0,075	0,041
-511,043	374,486	-0,036	-0,054
-510,029	-101,988	0,098	-0,017
-509,014	161,811	0,080	0,081
-507,999	-22,270	0,135	0,059
-506,985	-86,247	-0,205	-0,045
-505,970	29,706	-0,092	-0,056
-504,956	-200,000	0,027	-0,134
-503,941	34,484	-0,073	0,046
-502,926	-200,000	0,007	0,024
-501,912	51,963	0,162	0,111
-500,897	558,935	-0,043	0,075
-499,883	793,970	0,020	0,040
-498,868	-63,330	0,075	-0,022
-497,853	64,447	-0,043	0,031
-496,839	-200,000	0,014	0,058
-495,824	70,373	0,079	0,059
-494,810	800,000	-0,038	-0,080
-493,795	800,000	-0,026	0,083
-492,781	-100,700	-0,130	0,023
-491,766	-200,000	-0,000	-0,205
-490,751	117,063	0,032	-0,029
-489,737	-200,000	0,025	-0,105
-488,722	800,000	0,028	0,087
-487,708	800,000	-0,047	0,097
-486,693	800,000	0,006	-0,014
-485,678	-14,533	-0,064	-0,030
-484,664	-45,100	-0,170	-0,060
-483,649	-200,000	0,009	0,062
-482,635	39,765	-0,022	0,014
-481,620	182,204	0,075	0,080
-480,605	-35,892	0,100	0,039
-479,591	-90,963	0,223	-0,046
-478,576	38,461	-0,075	0,048
-477,562	337,262	-0,089	-0,125
-476,547	798,478	-0,046	-0,093
-475,532	168,162	-0,083	0,085
-474,518	188,870	-0,115	0,124
-473,503	64,330	0,142	0,102
-472,489	-25,184	0,100	0,042
-471,474	-124,667	-0,135	0,015
-470,459	281,722	0,025	-0,033
-469,445	-19,123	0,102	-0,045
-468,430	225,714	-0,049	-0,058
-467,416	800,000	0,021	-0,046
-466,401	60,479	0,094	-0,067
-465,386	164,329	-0,061	0,062
-464,372	-113,659	0,057	0,008
-463,357	-62,646	-0,052	-0,015
-462,343	-200,000	0,014	-0,075
-461,328	-200,000	-0,028	-0,145
-460,313	-122,468	-0,110	0,013
-459,299	1,726	0,035	-0,018
-458,284	-200,000	0,009	0,035
-457,270	-120,426	0,129	-0,016
-456,255	49,317	-0,119	-0,081
-455,241	138,914	0,097	0,091
-454,226	731,710	0,003	0,005
-453,211	-8,792	-0,074	0,036
-452,197	-200,000	0,006	0,038
-451,182	800,000	-0,036	0,085
-450,168	266,693	0,051	-0,064
-449,153	591,449	-0,066	0,117
-448,138	123,958	-0,051	0,046
-447,124	71,493	0,046	-0,035
-446,109	-18,573	-0,124	0,055
-445,095	-200,000	-0,001	0,160
-444,080	277,165	-0,042	0,053
-443,065	-200,000	0,006	0,049
-442,051	-200,000	0,015	0,057
-441,036	-152,599	-0,128	0,006
-440,022	-200,000	0,006	-0,062
-439,007	94,705	-0,061	-0,050
-437,992	-12,984	-0,107	-0,050
-436,978	-24,464	0,108	-0,046
-435,963	218,805	-0,049	-0,056
-434,949	-200,000	-0,022	0,076
-433,934	-46,068	0,064	-0,023
-432,919	-89,901	-0,132	0,028
-431,905	298,979	0,018	-0,024
-430,890	-5,970	0,142	0,069
-429,876	800,000	0,015	-0,037
-428,861	104,807	0,059	0,050
-427,846	502,511	0,051	0,085
-426,832	800,000	0,026	-0,062
-425,817	-200,000	0,001	-0,020
-424,803	253,594	-0,085	-0,104
-423,788	25,263	0,027	-0,016
-422,773	267,462	0,016	-0,020
-421,759	42,465	0,034	0,022
-420,744	-91,817	0,143	-0,029
-419,730	-85,757	-0,153	-0,034
-418,715	800,000	-0,080	-0,238
-417,701	69,933	-0,135	0,100
-416,686	38,762	-0,002	0,001
-415,671	-200,000	0,021	0,090
-414,657	-200,000	0,016	0,063
-413,642	156,474	0,035	-0,034
-412,628	32,382	-0,022	0,014
-411,613	53,805	0,087	0,060
-410,598	-28,071	0,083	-0,034
-409,584	225,344	0,054	-0,063
-408,569	800,000	-0,071	0,154
-407,555	72,546	0,123	0,092
-406,540	-127,826	0,055	-0,006
-405,525	98,219	-0,074	0,061
-404,511	-30,519	-0,069	-0,028
-403,496	317,579	0,045	0,062
-402,482	-200,000	-0,044	0,000
-401,467	-122,926	0,113	0,013
-400,452	1,619	-0,026	0,013
-399,438	90,516	0,095	-0,076
-398,423	-200,000	0,031	-0,150
-397,409	-200,000	0,012	0,078
-396,394	48,890	-0,080	-0,054
-395,379	243,508	0,031	0,037
-394,365	314,784	-0,052	0,071
-393,350	438,583	0,050	0,079
-392,336	800,000	-0,038	0,093
-391,321	800,000	0,010	-0,022
-390,306	31,106	0,071	-0,044
-389,292	800,000	0,015	-0,034
-388,277	176,537	0,043	-0,045
-387,263	-200,000	-0,010	0,045
-386,248	-200,000	0,034	0,127
-385,233	26,591	0,052	-0,031
-384,219	-148,117	0,034	-0,002
-383,204	-22,850	0,059	0,025
-382,190	218,648	0,131	-0,150
-381,175	-82,187	-0,064	0,015
-380,160	-62,297	-0,045	0,013
-379,146	-37,451	0,074	-0,028
-378,131	42,566	-0,020	-0,013
-377,117	469,346	0,037	-0,060
-376,102	800,000	-0,006	0,016
-375,088	-200,000	-0,019	-0,096
-374,073	-200,000	0,002	-0,062
-373,058	-62,752	0,081	0,024
-372,044	-49,873	0,177	0,060
-371,029	-200,000	0,005	0,030
-370,015	141,305	-0,068	-0,065
-369,000	-48,840	-0,003	-0,001
-367,985	800,000	-0,036	-0,082
-366,971	534,065	0,065	0,110
-365,956	72,207	-0,047	-0,035
-364,942	172,482	0,025	-0,026
-363,927	73,209	0,052	0,039
-362,912	-33,194	-0,068	0,027
-361,898	182,423	-0,052	-0,055
-360,883	-0,074	-0,153	-0,078
-359,869	117,537	-0,123	-0,109
-358,854	-200,000	-0,012	-0,072
-357,839	242,675	0,121	0,145
-356,825	16,391	0,093	-0,052
-355,810	-200,000	0,006	0,099
-354,796	224,874	-0,032	-0,037
-353,781	-200,000	-0,009	0,037
-352,766	-200,000	0,018	-0,097
-351,752	236,645	-0,097	0,115
-350,737	-55,049	0,149	-0,048
-349,723	-102,465	-0,126	0,021
-348,708	-76,653	-0,112	0,028
-347,693	-200,000	0,003	-0,070
-346,679	-115,553	0,112	0,015
-345,664	-20,681	0,130	-0,057
-344,650	-50,704	-0,106	0,035
-343,635	-164,307	0,110	0,004
-342,620	800,000	0,028	0,060
-341,606	-200,000	-0,019	0,226
-340,591	279,101	0,055	0,070
-339,577	800,000	0,038	-0,112
-338,562	-200,000	-0,000	-0,056
-337,548	-19,445	-0,051	0,022
-336,533	-27,819	0,104	0,043
-335,518	-126,183	0,046	-0,005
-334,504	46,409	-0,058	0,038
-333,489	297,974	-0,089	0,117
-332,475	-100,753	-0,054	0,009
-331,460	100,922	-0,110	0,092
-330,445	-133,701	0,198	-0,017
-329,431	-105,783	0,152	0,024
-328,416	-200,000	0,016	0,094
-327,402	800,000	0,032	0,086
-326,387	-200,000	0,016	0,055
-325,372	-133,108	-0,032	-0,003
-324,358	61,336	-0,073	-0,052
-323,343	-168,274	0,063	0,002
-322,329	463,035	-0,027	-0,043
-321,314	412,772	-0,051	-0,077
-320,299	-200,000	0,009	-0,125
-319,285	-200,000	-0,000	0,138
-318,270	546,028	0,033	0,056
-317,256	-200,000	-0,023	-0,149
-316,241	-6,244	0,093	0,045
-315,226	-14,483	0,207	-0,095
-314,212	257,614	-0,031	-0,038
-313,197	-200,000	0,003	-0,056
-312,183	-19,042	0,027	-0,012
-311,168	177,830	-0,051	-0,053
-310,153	-200,000	-0,008	-0,110
-309,139	567,981	-0,061	-0,106
-308,124	-200,000	0,012	0,120
-307,110	371,025	0,105	0,152
-306,095	151,822	0,073	0,071
-305,080	-87,780	-0,075	-0,016
-304,066	-146,044	0,089	0,006
-303,051	-200,000	-0,028	-0,094
-302,037	800,000	0,064	-0,153
-301,022	28,433	-0,101	0,061
-300,008	-200,000	-0,010	0,073
-298,993	-200,000	-0,002	-0,137
-297,978	11,722	0,103	0,056
-296,964	-200,000	0,005	-0,024
-295,949	83,176	-0,066	-0,051
-294,935	-159,920	0,054	-0,002
-293,920	-200,000	-0,005	0,059
-292,905	12,405	-0,084	-0,046
-291,891	-200,000	-0,013	0,123
-290,876	-200,000	0,024	0,113
-289,862	-69,522	-0,113	-0,031
-288,847	800,000	0,032	-0,073
-287,832	-95,850	-0,129	-0,024
-286,818	-200,000	-0,010	-0,071
-285,803	800,000	0,052	0,138
-284,789	800,000	0,046	-0,112
-283,774	800,000	-0,051	0,155
-282,759	120,069	-0,080	-0,071
-281,745	219,058	0,111	-0,127
-280,730	-27,152	-0,167	0,069
-279,716	800,000	-0,038	0,114
-278,701	9,938	0,080	0,043
-277,686	800,000	-0,069	0,146
-276,672	-200,000	0,000	0,052
-275,657	-170,635	0,105	0,003
-274,643	-89,037	-0,162	-0,034
-273,628	307,558	-0,021	0,029
-272,613	-21,460	0,094	-0,041
-271,599	-200,000	0,007	-0,066
-270,584	-47,798	-0,027	-0,009
-269,570	-16,732	-0,063	0,028
-268,555	-200,000	0,014	-0,086
-267,540	21,643	-0,093	0,054
-266,526	-5,715	-0,117	-0,057
-265,511	-200,000	0,003	-0,204
-264,497	278,861	-0,043	-0,055
-263,482	-200,000	0,025	0,109
-262,467	197,341	0,089	0,098
-261,453	-156,577	-0,086	-0,004
-260,438	-9,193	-0,039	0,019
-259,424	-110,854	0,057	-0,008
-258,409	-12,629	-0,140	-0,065
-257,395	0,144	-0,105	0,054
-256,380	800,000	0,041	0,128
-255,365	93,610	0,056	-0,045
-254,351	-146,528	0,149	-0,009
-253,336	800,000	-0,050	0,101
-252,322	800,000	0,012	-0,024
-251,307	800,000	-0,028	-0,085
-250,292	8,758	0,070	-0,037
-249,278	78,937	-0,023	-0,018
-248,263	-106,475	0,059	-0,009
-247,249	-200,000	-0,017	-0,104
-246,234	-108,306	-0,223	0,034
-245,219	-200,000	0,029	0,148
-244,205	522,732	-0,022	-0,037
-243,190	-124,698	-0,051	0,006
-242,176	417,657	0,057	-0,087
-241,161	-200,000	0,012	-0,120
-240,146	-167,845	-0,141	0,004
-239,132	-81,031	-0,109	-0,026
-238,117	-31,453	-0,103	-0,041
-237,103	-83,483	0,122	-0,028
-236,088	196,377	0,098	0,107
-235,073	54,206	0,065	0,044
-234,059	-42,189	0,092	0,033
-233,044	-200,000	0,002	0,071
-232,030	43,340	0,111	-0,072
-231,015	-144,930	-0,018	-0,001
-230,000	297,695	-0,070	-0,092
-228,986	699,208	-0,066	-0,125
-227,971	-59,481	0,087	0,026
-226,957	729,748	-0,039	0,075
-225,942	127,211	0,048	-0,043
-224,927	-116,813	-0,084	0,011
-223,913	411,637	0,018	0,027
-222,898	394,342	-0,066	-0,098
-221,884	-200,000	-0,009	-0,065
-220,869	-200,000	0,014	-0,072
-219,855	-200,000	0,007	-0,080
-218,840	-200,000	-0,024	0,120
-217,825	222,352	0,140	0,161
-216,811	73,079	-0,048	-0,036
-215,796	147,622	-0,028	-0,027
-214,782	-129,363	0,162	0,016
-213,767	7,619	0,041	0,022
-212,752	-59,374	0,124	0,038
-211,738	-129,588	0,104	-0,010
-210,723	664,211	-0,049	0,090
-209,709	645,625	-0,044	0,081
-208,694	-58,738	-0,065	-0,020
-207,679	-123,272	-0,061	-0,007
-206,665	20,711	-0,007	0,004
-205,650	-4,741	0,090	-0,044
-204,636	-35,553	0,111	0,043
-203,621	249,602	-0,049	0,059
-202,606	-136,659	-0,017	0,001
-201,592	53,536	-0,097	-0,066
-200,577	4,232	0,049	-0,025
-199,563	800,000	-0,024	0,066
-198,548	165,814	0,031	0,032
-197,533	-200,000	-0,021	0,089
-196,519	20,209	0,082	0,047
-195,504	800,000	-0,022	-0,050
-194,490	788,952	0,036	-0,070
-193,475	-105,955	0,049	0,008
-192,460	338,171	0,018	0,025
-191,446	274,914	0,101	0,127
-190,431	97,541	-0,079	0,065
-189,417	-200,000	0,002	0,051
-188,402	-40,848	0,059	0,022
-187,387	109,349	-0,080	-0,068
-186,373	800,000	0,068	-0,148
-185,358	10,516	-0,101	0,055
-184,344	15,065	0,065	0,036
-183,329	38,854	0,098	0,062
-182,315	468,537	0,029	0,046
-181,300	-36,748	0,128	0,049
-180,285	-200,000	0,012	0,072
-179,271	-101,644	-0,110	0,019
-178,256	9,979	-0,126	-0,068
-177,242	208,554	-0,062	0,069
-176,227	-200,000	0,030	0,127
-175,212	-200,000	0,021	0,105
-174,198	-103,451	-0,020	0,003
-173,183	800,000	0,045	0,141
-172,169	-180,680	0,080	0,001
-171,154	-109,458	-0,184	0,027
-170,139	-200,000	0,003	0,011
-169,125	800,000	0,026	0,052
-168,110	538,922	0,101	0,171
-167,096	-200,000	0,016	0,095
-166,081	77,223	-0,032	0,024
-165,066	291,931	0,017	0,022
-164,052	-200,000	0,035	0,117
-163,037	800,000	-0,067	0,141
-162,023	-103,475	-0,034	0,006
-161,008	800,000	0,031	0,079
-159,993	6,919	0,111	-0,059
-158,979	-200,000	-0,034	0,188
-157,964	333,069	-0,072	-0,100
-156,950	-103,699	0,099	0,016
-155,935	-125,549	0,068	-0,007
-154,920	29,686	-0,120	-0,073
-153,906	67,560	0,100	0,073
-152,891	-40,114	-0,169	0,062
-151,877	-89,879	-0,072	-0,015
-150,862	-6,937	-0,069	-0,033
-149,847	-200,000	0,016	-0,088
-148,833	-200,000	-0,002	-0,010
-147,818	186,218	0,049	0,052
-146,804	-200,000	0,006	0,086
-145,789	-42,380	-0,096	-0,035
-144,775	464,878	-0,015	-0,024
-143,760	173,751	-0,059	0,061
-142,745	-200,000	0,002	-0,061
-141,731	38,521	-0,092	-0,058
-140,716	130,887	0,072	-0,065
-139,702	24,710	-0,058	0,034
-138,687	-200,000	0,028	0,096
-137,672	-200,000	-0,018	-0,084
-136,658	-149,550	0,018	-0,001
-135,643	261,670	-0,060	-0,074
-134,629	541,707	0,074	-0,126
-133,614	800,000	-0,028	0,061
-132,599	17,830	0,177	0,100
-131,585	93,422	0,060	-0,048
-130,570	-200,000	0,000	-0,050
-129,556	-75,008	-0,123	0,031
-128,541	800,000	-0,030	-0,092
-127,526	-47,985	0,032	0,011
-126,512	800,000	0,010	0,022
-125,497	-200,000	-0,008	0,066
-124,483	0,341	-0,106	0,054
-123,468	-156,219	-0,193	-0,008
-122,453	-148,792	-0,168	-0,010
-121,439	800,000	-0,025	-0,071
-120,424	12,822	-0,083	-0,045
-119,410	-18,740	-0,033	-0,015
-118,395	162,260	-0,083	-0,083
-117,380	-42,650	0,078	0,028
-116,366	16,499	-0,172	-0,096
-115,351	800,000	0,067	-0,174
-114,337	8,726	-0,139	0,074
-113,322	-200,000	-0,001	-0,112
-112,307	46,515	-0,028	0,018
-111,293	518,310	0,047	0,079
-110,278	-65,860	-0,092	0,026
-109,264	98,383	-0,053	-0,044
-108,249	73,917	-0,160	0,119
-107,234	-200,000	-0,018	-0,057
-106,220	86,907	-0,029	-0,023
-105,205	800,000	-0,008	0,022
-104,191	-200,000	0,003	-0,017
-103,176	-200,000	-0,001	0,014
-102,162	308,045	0,038	-0,051
-101,147	659,694	-0,003	-0,006
-100,132	-44,719	-0,069	-0,024
-99,118	10,033	0,062	-0,033
-98,103	46,291	-0,035	0,023
-97,089	146,316	-0,067	0,064
-96,074	-8,410	0,054	0,026
-95,059	-200,000	-0,013	0,174
-94,045	419,873	-0,074	-0,112
-93,030	211,791	0,118	-0,132
-92,016	-200,000	0,017	-0,138
-91,001	137,396	-0,022	-0,020
-89,986	177,765	0,020	-0,021
-88,972	-140,502	0,112	0,008
-87,957	-50,020	-0,050	0,017
-86,943	-200,000	0,006	-0,093
-85,928	7,772	-0,026	-0,014
-84,913	741,280	-0,040	-0,077
-83,899	186,136	0,057	0,060
-82,884	-139,033	0,032	0,002
-81,870	499,726	-0,042	0,068
-80,855	-46,402	0,040	-0,014
-79,840	800,000	-0,068	0,182
-78,826	436,861	-0,074	-0,115
-77,811	81,437	-0,068	0,052
-76,797	-200,000	0,030	-0,110
-75,782	735,234	-0,092	0,175
-74,767	-79,289	0,090	0,021
-73,753	-25,744	0,079	-0,033
-72,738	-200,000	0,035	0,111
-71,724	-200,000	-0,026	0,109
-70,709	5,579	-0,067	0,035
-69,694	284,947	-0,146	-0,187
-68,680	45,082	-0,037	0,024
-67,665	29,516	-0,141	0,085
-66,651	-200,000	0,001	0,062
-65,636	104,205	-0,067	-0,056
-64,622	-200,000	-0,009	-0,061
-63,607	800,000	0,036	-0,106
-62,592	-41,809	-0,066	-0,024
-61,578	-116,639	0,151	-0,019
-60,563	800,000	0,015	-0,047
-59,549	-200,000	-0,004	0,054
-58,534	-57,506	-1,517	-0,468
-57,519	386,726	-1,402	-2,057
-56,505	-200,000	-0,648	-4,575
-55,490	161,133	0,976	0,967
-54,476	800,000	4,841	11,268
-53,461	-200,000	18,207	287,315
-52,446	800,000	726,979	2226,886
-51,432	554,573	1643,076	2809,864
-50,417	79,337	1665,240	1262,872
-49,403	22,885	1539,120	890,949
-48,388	16,877	1462,277	817,372
-47,373	17,865	1452,131	816,426
-46,359	17,235	1442,690	808,075
-45,344	15,137	1438,221	795,525
-44,330	15,059	1436,074	793,934
-43,315	15,070	1434,448	793,057
-42,300	15,048	1432,788	792,003
-41,286	15,105	1431,708	791,645
-40,271	15,060	1430,399	790,674
-39,257	15,116	1428,960	790,114
-38,242	15,115	1427,899	789,493
-37,227	15,175	1426,311	788,864
-36,213	15,093	1425,170	787,816
-35,198	15,156	1424,291	787,595
-34,184	15,149	1423,388	787,034
-33,169	15,093	1422,114	786,035
-32,154	15,137	1420,895	785,535
-31,140	15,124	1419,754	784,811
-30,125	15,157	1418,613	784,305
-29,111	15,130	1417,301	783,421
-28,096	15,140	1416,225	782,843
-27,082	15,016	1415,277	781,706
-26,067	15,072	1413,909	781,180
-25,052	15,055	1413,070	780,610
-24,038	14,986	1412,369	779,865
-23,023	15,030	1411,042	779,306
-22,009	15,028	1409,976	778,680
-20,994	15,035	1408,942	778,112
-19,979	14,948	1408,244	777,285
-18,965	14,964	1407,313	776,819
-17,950	14,971	1406,287	776,253
-16,936	14,926	1405,354	775,495
-15,921	14,895	1404,245	774,708
-14,906	14,959	1403,197	774,396
-13,892	14,950	1402,462	773,921
-12,877	14,958	1401,383	773,333
-11,863	14,936	1400,586	772,759
-10,848	14,907	1399,933	772,232
-9,833	14,900	1398,701	771,492
-8,819	14,869	1398,121	770,998
-7,804	14,855	1397,024	770,296
-6,790	14,861	1395,912	769,678
-5,775	14,865	1394,681	768,988
-4,760	14,842	1394,026	768,492
-3,746	14,818	1393,166	767,873
-2,731	14,839	1392,380	767,508
-1,717	14,835	1391,458	766,951
-0,702	14,837	1389,684	765,951
0,313	18,598	1308,742	738,754
1,327	34,782	707,080	436,647
2,342	53,080	124,696	84,327
3,356	4,697	16,573	8,585
4,371	6,455	3,086	1,616
5,386	-75,857	0,572	0,142
6,400	688,861	0,117	0,217
7,415	54,850	-0,131	-0,089
8,429	54,370	-0,304	-0,207
9,444	273,944	-0,238	-0,298
10,459	72,319	-0,258	-0,190
11,473	-25,479	-0,391	-0,163
12,488	-70,531	-0,259	-0,069
13,502	-9,449	-0,203	-0,096
14,517	-86,840	-0,307	-0,066
15,531	147,747	-0,289	-0,275
16,546	-7,426	-0,463	-0,221
17,561	170,808	-0,367	-0,372
18,575	190,019	-0,113	-0,120
19,590	120,582	-0,262	-0,230
20,604	-84,725	-0,306	-0,067
21,619	-2,297	-0,454	-0,224
22,634	73,324	-0,409	-0,302
23,648	313,048	-0,336	-0,447
24,663	35,407	-0,443	-0,274
25,677	16,443	-0,455	-0,253
26,692	-1,198	-0,421	-0,209
27,707	-71,095	-0,398	-0,105
28,721	-91,922	-0,297	-0,059
29,736	-11,441	-0,504	-0,233
30,750	69,109	-0,494	-0,358
31,765	78,300	-0,495	-0,373
32,780	87,802	-0,312	-0,244
33,794	99,228	-0,327	-0,266
34,809	237,169	-0,285	-0,334
35,823	15,995	-0,413	-0,229
36,838	-54,927	-0,433	-0,137
37,853	-27,991	-0,333	-0,136
38,867	56,027	-0,318	-0,217
39,882	198,847	-0,366	-0,395
40,896	60,934	-0,402	-0,281
41,911	93,876	-0,351	-0,280
42,926	16,863	-0,330	-0,184
43,940	47,811	-0,328	-0,215
44,955	56,556	-0,439	-0,300
45,969	32,172	-0,397	-0,241
46,984	112,999	-0,323	-0,276
47,999	-52,751	-0,333	-0,107
49,013	-16,556	-0,399	-0,178
50,028	14,364	-0,280	-0,154
51,042	-20,028	-0,348	-0,151
52,057	31,428	-0,358	-0,216
53,071	79,333	-0,411	-0,310
54,086	74,938	-0,294	-0,218
55,101	59,047	-0,462	-0,320
56,115	-16,566	-0,371	-0,165
57,130	5,368	-0,420	-0,217
58,144	88,592	-0,356	-0,278
59,159	221,955	-0,259	-0,294
60,174	26,623	-0,425	-0,250
61,188	114,929	-0,333	-0,286
62,203	42,280	-0,323	-0,206
63,217	29,064	-0,356	-0,212
64,232	-0,255	-0,353	-0,176
65,247	242,587	-0,278	-0,329
66,261	-25,649	-0,537	-0,222
67,276	38,609	-0,351	-0,220
68,290	78,814	-0,259	-0,194
69,305	91,358	-0,306	-0,241
70,320	140,256	-0,184	-0,170
71,334	85,337	-0,363	-0,280
72,349	5,774	-0,301	-0,156
73,363	-9,462	-0,397	-0,186
74,378	-28,919	-0,340	-0,137
75,393	107,051	-0,218	-0,182
76,407	3,288	-0,239	-0,122
77,422	30,329	-0,238	-0,143
78,436	20,550	-0,256	-0,145
79,451	11,175	-0,401	-0,215
80,466	-55,469	-0,392	-0,123
81,480	-37,209	-0,336	-0,126
82,495	3,831	-0,360	-0,184
83,509	24,262	-0,289	-0,167
84,524	-13,451	-0,358	-0,162
85,539	-74,023	-0,336	-0,085
86,553	148,349	-0,234	-0,222
87,568	85,689	-0,323	-0,249
88,582	-47,666	-0,323	-0,109
89,597	192,789	-0,264	-0,281
90,611	62,597	-0,245	-0,172
91,626	410,842	-0,162	-0,242
92,641	154,317	-0,240	-0,231
93,655	-57,258	-0,317	0,097
94,670	-1,014	-0,283	-0,140
95,684	133,483	-0,368	-0,334
96,699	164,563	-0,240	-0,238
97,714	-138,558	-0,344	-0,026
98,728	24,509	-0,226	-0,131
99,743	362,305	-0,114	-0,161
100,757	27,484	-0,344	-0,202
101,772	146,963	-0,220	-0,207
102,787	5,572	-0,278	-0,144
103,801	28,343	-0,369	-0,218
104,816	-184,388	-0,282	-0,003
105,830	40,854	-0,280	-0,177
106,845	-25,278	-0,362	-0,149
107,860	-91,331	-0,310	-0,062
108,874	71,336	-0,262	-0,190
109,889	33,148	-0,363	-0,220
110,903	247,465	-0,262	-0,311
111,918	208,040	-0,183	-0,200
112,933	2,917	-0,230	-0,117
113,947	-38,250	-0,185	-0,068
114,962	29,297	-0,289	-0,171
115,976	16,694	-0,226	-0,125
116,991	148,621	-0,193	-0,183
118,006	65,221	-0,240	-0,170
119,020	65,913	-0,333	-0,236
120,035	584,897	-0,166	-0,287
121,049	2,966	-0,281	-0,142
122,064	-10,827	-0,334	-0,154
123,079	138,272	-0,298	-0,274
124,093	234,110	-0,227	-0,262
125,108	77,525	-0,304	-0,226
126,122	-45,813	-0,308	-0,106
127,137	518,849	-0,093	-0,153
128,151	254,385	-0,132	-0,158
129,166	20,942	-0,326	-0,185
130,181	52,493	-0,247	-0,165
131,195	-106,196	-0,363	0,056
132,210	-50,683	-0,172	-0,056
133,224	248,031	-0,272	-0,322
134,239	800,000	-0,134	-0,292
135,254	-40,100	-0,286	-0,104
136,268	147,435	-0,236	-0,223
137,283	110,528	-0,332	-0,279
138,297	104,817	-0,273	-0,225
139,312	182,747	-0,175	-0,180
140,327	181,354	-0,336	-0,346
141,341	277,527	-0,103	-0,128
142,356	33,559	-0,234	-0,142
143,370	197,396	-0,128	-0,137
144,385	-27,033	-0,251	-0,102
145,400	-30,031	-0,217	-0,086
146,414	42,434	-0,296	-0,188
147,429	-30,408	-0,284	-0,112
148,443	269,997	-0,150	-0,184
149,458	113,110	-0,223	-0,188
150,473	18,891	-0,279	-0,155
151,487	1,843	-0,239	-0,120
152,502	79,247	-0,284	-0,212
153,516	140,341	-0,296	-0,273
154,531	468,061	-0,151	-0,237
155,546	-120,029	-0,248	-0,029
156,560	-119,572	-0,265	-0,032
157,575	304,479	-0,175	-0,228
158,589	22,067	-0,256	-0,146
159,604	-7,277	-0,237	-0,112
160,619	-1,872	-0,338	-0,165
161,633	94,014	-0,249	-0,197
162,648	200,550	-0,248	-0,266
163,662	-10,825	-0,250	-0,115
164,677	-36,136	-0,278	-0,104
165,692	200,457	-0,217	-0,233
166,706	-53,767	-0,219	-0,069
167,721	73,293	-0,359	-0,262
168,735	215,652	-0,209	-0,232
169,750	92,145	-0,216	-0,170
170,764	23,053	-0,095	-0,054
171,779	-12,311	-0,185	-0,084
172,794	162,180	-0,210	-0,205
173,808	-98,174	-0,223	-0,040
174,823	157,176	-0,221	-0,213
175,837	-75,696	-0,339	-0,083
176,852	84,153	-0,289	-0,220
177,867	250,920	-0,147	-0,174
178,881	41,071	-0,320	-0,201
179,896	13,411	-0,063	-0,034
180,910	-14,793	-0,197	-0,088
181,925	154,930	-0,241	-0,230
182,940	116,845	-0,275	-0,235
183,954	265,024	-0,115	-0,139
184,969	48,226	-0,258	-0,168
185,983	91,667	-0,295	-0,231
186,998	251,730	-0,161	-0,191
188,013	49,970	-0,211	-0,138
189,027	189,598	-0,268	-0,280
190,042	190,710	-0,219	-0,229
191,056	239,572	-0,220	-0,255
192,071	-122,886	-0,148	0,016
193,086	-60,992	-0,310	-0,091
194,100	332,633	-0,153	-0,206
195,115	111,879	-0,296	-0,248
196,129	95,939	-0,254	-0,202
197,144	800,000	-0,133	-0,268
198,159	678,316	-0,154	-0,280
199,173	529,067	-0,167	-0,275
200,188	-60,139	-0,211	-0,062
201,202	-36,708	-0,276	-0,103
202,217	-89,500	-0,205	-0,042
203,232	177,182	-0,127	-0,129
204,246	25,944	-0,254	-0,147
205,261	197,875	-0,212	-0,225
206,275	-98,901	-0,335	-0,059
207,290	655,942	-0,083	-0,149
208,304	-57,060	-0,119	-0,036
209,319	-29,484	-0,189	-0,075
210,334	-97,803	-0,400	-0,071
211,348	800,000	-0,140	-0,343
212,363	224,490	-0,180	-0,202
213,377	781,464	-0,090	-0,173
214,392	61,812	-0,071	-0,049
215,407	7,034	-0,147	-0,076
216,421	140,722	-0,189	-0,174
217,436	5,353	-0,189	-0,096
218,450	-2,015	-0,341	-0,166
219,465	425,059	-0,184	-0,276
220,480	195,527	-0,135	-0,142
221,494	267,424	-0,152	-0,185
222,509	63,906	-0,288	-0,200
223,523	-200,000	-0,056	-0,213
224,538	20,721	-0,242	-0,136
225,553	29,032	-0,309	-0,182
226,567	-34,484	-0,133	-0,050
227,582	-20,205	-0,158	-0,067
228,596	14,252	-0,225	-0,121
229,611	14,188	-0,187	-0,101
230,626	143,008	-0,159	-0,147
231,640	126,542	-0,191	-0,168
232,655	199,566	-0,260	-0,277
233,669	431,843	-0,121	-0,183
234,684	31,605	-0,247	-0,147
235,699	31,883	-0,253	-0,151
236,713	59,546	-0,168	0,115
237,728	-169,050	-0,096	0,002
238,742	44,343	-0,155	-0,098
239,757	400,375	-0,209	-0,304
240,772	278,062	-0,239	-0,295
241,786	-36,039	-0,294	-0,110
242,801	-146,691	-0,221	0,013
243,815	-59,870	-0,201	-0,059
244,830	140,010	-0,199	-0,181
245,844	240,310	-0,148	-0,171
246,859	-84,203	-0,183	-0,040
247,874	11,208	-0,251	-0,133
248,888	158,236	-0,236	-0,226
249,903	240,578	-0,105	-0,121
250,917	429,747	-0,075	-0,112
251,932	-42,792	-0,230	-0,081
252,947	-142,871	-0,246	0,016
253,961	115,118	-0,205	-0,173
254,976	24,660	-0,222	-0,127
255,990	111,051	-0,153	-0,128
257,005	70,699	-0,287	-0,206
258,020	-160,683	-0,211	-0,008
259,034	0,497	-0,222	-0,110
260,049	-22,394	-0,161	-0,067
261,063	46,266	-0,114	-0,073
262,078	-120,634	-0,190	-0,022
263,093	360,212	-0,065	-0,091
264,107	182,504	-0,158	-0,161
265,122	197,813	-0,046	-0,049
266,136	119,967	-0,130	0,111
267,151	-91,951	-0,117	-0,023
268,166	-134,877	-0,244	0,020
269,180	-42,974	-0,160	0,056
270,195	-98,177	-0,103	-0,018
271,209	286,416	-0,075	-0,094
272,224	-102,282	-0,200	-0,033
273,239	23,990	-0,164	-0,093
274,253	639,713	-0,056	-0,098
275,268	-111,666	-0,153	-0,021
276,282	-34,680	-0,186	-0,070
277,297	194,127	-0,180	-0,188
278,312	79,310	-0,122	-0,090
279,326	-173,570	-0,116	0,002
280,341	123,550	-0,123	-0,107
281,355	-27,017	-0,156	0,062
282,370	78,394	-0,113	-0,083
283,384	103,311	-0,053	-0,043
284,399	16,140	-0,128	-0,069
285,414	-102,566	-0,194	-0,032
286,428	-40,742	-0,073	-0,026
287,443	-2,865	-0,085	-0,041
288,457	118,725	-0,130	-0,111
289,472	-19,983	-0,229	-0,097
290,487	324,482	-0,143	-0,188
291,501	289,140	-0,114	-0,143
292,516	-111,309	-0,174	-0,024
293,530	98,649	-0,124	-0,099
294,545	-132,770	-0,168	0,015
295,560	-62,906	-0,132	-0,037
296,574	800,000	-0,058	-0,147
297,589	-21,446	-0,195	-0,082
298,603	800,000	-0,044	-0,097
299,618	64,495	-0,180	-0,125
300,633	-132,735	-0,177	0,015
301,647	108,758	-0,195	-0,160
302,662	108,511	-0,114	-0,094
303,676	800,000	-0,020	0,045
304,691	452,710	-0,102	-0,156
305,706	395,245	-0,128	-0,184
306,720	743,743	-0,144	-0,268
307,735	-200,000	0,010	-0,036
308,749	-68,510	-0,093	-0,025
309,764	133,808	-0,074	-0,066
310,779	800,000	-0,070	-0,200
311,793	136,777	-0,207	-0,186
312,808	202,395	-0,108	-0,115
313,822	797,454	-0,100	-0,191
314,837	-140,882	-0,148	0,010
315,852	-117,730	-0,103	0,013
316,866	-200,000	-0,018	-0,084
317,881	579,785	-0,082	-0,138
318,895	50,313	-0,072	0,047
319,910	12,526	-0,135	-0,071
320,925	-69,037	-0,285	-0,075
321,939	800,000	-0,106	-0,218
322,954	800,000	-0,084	-0,182
323,968	-149,439	-0,075	-0,004
324,983	317,319	-0,123	-0,161
325,997	61,615	-0,207	-0,142
327,012	-35,254	-0,152	-0,056
328,027	334,152	-0,166	-0,222
329,041	711,841	-0,126	-0,230
330,056	21,743	-0,080	-0,045
331,070	110,787	-0,150	-0,124
332,085	135,058	-0,058	-0,052
333,100	112,694	-0,096	-0,080
334,114	-141,057	-0,059	0,004
335,129	130,020	-0,191	-0,168
336,143	-147,512	-0,197	-0,011
337,158	420,428	-0,154	-0,228
338,173	-200,000	-0,034	-0,137
339,187	-96,236	-0,123	-0,022
340,202	-8,407	-0,116	-0,053
341,216	90,187	-0,130	-0,100
342,231	364,032	-0,179	-0,248
343,246	-93,711	-0,115	-0,022
344,260	-73,916	-0,198	-0,049
345,275	-200,000	-0,016	-0,073
346,289	416,657	-0,086	-0,127
347,304	-39,378	-0,072	-0,026
348,319	800,000	-0,047	-0,116
349,333	97,828	-0,146	-0,115
350,348	102,023	-0,144	-0,115
351,362	270,556	-0,165	-0,199
352,377	-200,000	-0,000	-0,112
353,392	5,466	-0,065	-0,033
354,406	-67,378	-0,160	-0,043
355,421	209,322	1314,164	1414,097
356,435	161,098	1474,840	1414,607
