DTS Sentinel unit serial number:	SN410029Multiplexer serial number:	ORYXHardware model number:	OX2-SRSoftware version number:	ORYX F/W v4,00 Oryx Data Collector v3.7.2.0data status	okinstallation	B3 Nyhavnadifferential loss correction	single-endedforward channel	channel 1reverse channel	N/Adate	2023/12/03time	03:52:30forward acquisition time	300,00reverse acquisition time	0,00gamma	499,1914k internal	0,3201k external	0,3201temperature offset calibration	1,0000default loss term (dB/km)	0,3820temperature slope calibration	1,0000multiplexer offset coefficient	1,0000multiplexer slope coefficient	1,0000fibre end	0,00T internal ref (°C)	13,31T ext. ref 1 (°C)	-1,78T ext. ref 2 (°C)	-1,79length (m)	temperature (°C)	Stokes	anti-Stokes-744,400	150,145	-0,221	-0,218
-743,385	800,000	-0,137	0,310
-742,371	10,625	-0,207	-0,114
-741,356	-200,000	-0,051	0,369
-740,342	-35,584	-0,188	-0,074
-739,327	-200,000	-0,083	0,272
-738,312	105,614	-0,229	-0,197
-737,298	-200,000	0,005	0,257
-736,283	800,000	-0,113	-0,292
-735,269	-200,000	-0,029	0,362
-734,254	157,223	-0,142	-0,143
-733,239	-32,072	-0,220	0,089
-732,225	634,724	-0,114	-0,211
-731,210	-32,532	0,002	0,001
-730,196	489,660	-0,030	0,050
-729,181	419,862	-0,033	-0,052
-728,167	800,000	-0,011	-0,027
-727,152	317,742	0,065	-0,089
-726,137	298,810	0,052	0,070
-725,123	19,252	-0,078	0,045
-724,108	800,000	-0,041	-0,118
-723,094	-200,000	0,004	-0,030
-722,079	372,169	-0,050	-0,074
-721,064	-88,688	-0,086	-0,018
-720,050	317,115	-0,102	0,141
-719,035	-81,887	0,078	0,018
-718,021	72,661	-0,156	-0,118
-717,006	540,177	-0,045	-0,078
-715,991	-76,548	-0,175	-0,044
-714,977	283,325	0,055	-0,071
-713,962	396,322	-0,034	-0,052
-712,948	-184,553	-0,054	-0,001
-711,933	800,000	-0,015	0,044
-710,918	800,000	-0,037	0,105
-709,904	-43,921	-0,214	-0,078
-708,889	261,988	-0,069	0,087
-707,875	367,672	0,043	0,064
-706,860	70,394	0,035	0,026
-705,845	-159,405	-0,047	-0,002
-704,831	-200,000	-0,005	-0,133
-703,816	352,734	0,040	-0,058
-702,802	-200,000	-0,001	0,117
-701,787	-200,000	0,009	-0,042
-700,772	-200,000	-0,032	-0,167
-699,758	212,689	-0,045	0,052
-698,743	800,000	0,029	-0,080
-697,729	800,000	-0,040	-0,111
-696,714	111,565	0,071	-0,062
-695,699	-79,549	-0,121	-0,029
-694,685	177,650	-0,118	-0,125
-693,670	430,561	-0,037	-0,059
-692,656	383,994	0,064	0,096
-691,641	800,000	0,026	0,079
-690,627	-119,530	-0,107	0,013
-689,612	-200,000	-0,001	-0,090
-688,597	800,000	-0,050	-0,123
-687,583	-109,984	-0,139	-0,021
-686,568	590,247	-0,003	0,005
-685,554	724,857	0,063	0,123
-684,539	247,609	-0,098	0,120
-683,524	-102,452	0,114	-0,020
-682,510	-76,877	0,114	-0,029
-681,495	627,435	-0,019	-0,034
-680,481	-125,297	-0,059	0,007
-679,466	52,145	-0,117	-0,081
-678,451	-200,000	-0,008	-0,034
-677,437	-45,412	0,192	0,069
-676,422	800,000	0,056	-0,134
-675,408	350,724	-0,076	-0,110
-674,393	8,142	-0,099	0,054
-673,378	218,873	0,134	-0,156
-672,364	-96,287	-0,080	0,015
-671,349	-136,087	-0,019	0,002
-670,335	-60,444	0,114	0,035
-669,320	-76,212	0,036	0,009
-668,305	28,629	0,145	-0,089
-667,291	-200,000	-0,023	0,172
-666,276	-200,000	-0,041	0,160
-665,262	-56,262	0,052	-0,017
-664,247	-93,649	-0,059	0,012
-663,232	-34,637	0,146	0,058
-662,218	-5,744	-0,069	-0,034
-661,203	-200,000	-0,004	0,069
-660,189	470,378	-0,015	-0,025
-659,174	-22,245	-0,137	-0,060
-658,159	160,526	-0,109	0,110
-657,145	-200,000	-0,029	-0,169
-656,130	389,500	-0,038	-0,058
-655,116	115,313	-0,093	0,082
-654,101	110,207	0,109	0,095
-653,086	-63,787	-0,117	-0,034
-652,072	-47,972	0,030	0,011
-651,057	122,620	-0,147	-0,133
-650,043	-93,950	-0,036	0,007
-649,028	-126,508	0,016	0,002
-648,014	-200,000	0,043	-0,157
-646,999	206,114	0,057	0,064
-645,984	33,722	0,105	-0,066
-644,970	-28,410	-0,023	-0,010
-643,955	-26,218	-0,122	-0,052
-642,941	229,037	-0,033	-0,039
-641,926	800,000	-0,039	-0,096
-640,911	800,000	-0,010	0,021
-639,897	-200,000	-0,002	0,205
-638,882	-200,000	0,036	0,118
-637,868	800,000	0,070	0,152
-636,853	-121,941	-0,047	-0,006
-635,838	-114,020	-0,199	-0,028
-634,824	-174,485	-0,072	-0,001
-633,809	7,901	-0,058	-0,031
-632,795	-49,877	-0,061	0,021
-631,780	100,053	-0,081	0,068
-630,765	-99,262	0,037	-0,007
-629,751	-200,000	-0,030	-0,203
-628,736	-200,000	0,008	-0,125
-627,722	8,411	-0,033	-0,018
-626,707	-200,000	0,007	0,035
-625,692	44,180	0,147	-0,098
-624,678	-137,924	0,055	-0,004
-623,663	800,000	-0,028	-0,069
-622,649	19,214	0,185	-0,107
-621,634	-200,000	-0,007	-0,031
-620,619	-136,359	-0,097	-0,008
-619,605	-200,000	0,000	0,080
-618,590	5,581	0,129	-0,069
-617,576	150,955	0,112	0,111
-616,561	-75,260	-0,217	-0,056
-615,546	70,011	-0,118	0,088
-614,532	-117,861	0,076	-0,010
-613,517	-200,000	-0,011	-0,122
-612,503	-200,000	-0,016	0,058
-611,488	172,895	0,083	0,086
-610,474	-49,288	0,048	-0,016
-609,459	173,804	-0,077	0,080
-608,444	800,000	0,030	0,069
-607,430	-200,000	-0,068	-0,248
-606,415	-135,401	-0,025	0,002
-605,401	800,000	-0,017	0,036
-604,386	174,035	0,039	-0,041
-603,371	334,308	0,045	0,064
-602,357	-56,242	-0,041	0,013
-601,342	-88,908	-0,100	-0,021
-600,328	-114,679	-0,120	-0,016
-599,313	-200,000	-0,001	0,006
-598,298	287,670	-0,067	0,088
-597,284	-138,851	-0,062	-0,005
-596,269	800,000	0,058	0,141
-595,255	-111,376	-0,057	0,008
-594,240	-149,870	-0,034	-0,002
-593,225	141,326	-0,022	0,021
-592,211	-200,000	-0,002	-0,023
-591,196	437,520	-0,052	-0,082
-590,182	800,000	-0,014	0,040
-589,167	-68,399	0,134	-0,037
-588,152	-200,000	-0,003	0,051
-587,138	57,566	0,120	-0,085
-586,123	14,679	-0,126	-0,071
-585,109	-200,000	-0,016	-0,108
-584,094	164,716	0,019	-0,019
-583,079	-200,000	0,016	0,119
-582,065	-200,000	-0,011	-0,129
-581,050	-143,710	0,057	-0,004
-580,036	800,000	0,010	-0,025
-579,021	357,854	0,105	-0,152
-578,006	117,251	-0,055	0,049
-576,992	800,000	-0,019	0,060
-575,977	-34,445	-0,043	-0,017
-574,963	-171,395	0,111	0,003
-573,948	-5,598	0,121	-0,060
-572,934	800,000	-0,021	0,055
-571,919	177,153	0,079	-0,083
-570,904	78,635	-0,050	0,039
-569,890	800,000	0,043	-0,095
-568,875	-36,973	0,080	0,031
-567,861	12,302	0,061	-0,034
-566,846	800,000	-0,030	-0,061
-565,831	437,382	0,017	-0,027
-564,817	-28,981	0,103	-0,043
-563,802	-156,069	-0,071	-0,003
-562,788	800,000	0,017	0,034
-561,773	800,000	0,023	0,072
-560,758	217,845	0,072	-0,083
-559,744	-99,375	0,055	-0,010
-558,729	-97,279	-0,107	0,020
-557,715	-200,000	-0,017	0,062
-556,700	-34,353	-0,137	0,054
-555,685	610,563	-0,027	-0,049
-554,671	43,063	-0,100	-0,066
-553,656	107,148	0,119	0,102
-552,642	800,000	0,047	0,098
-551,627	130,449	0,009	0,009
-550,612	-85,522	-0,081	0,018
-549,598	-200,000	0,001	-0,113
-548,583	281,904	-0,110	-0,143
-547,569	-5,891	-0,049	-0,024
-546,554	-113,843	0,027	0,004
-545,539	-16,173	-0,060	0,027
-544,525	-71,016	-0,041	-0,011
-543,510	-37,746	0,022	-0,009
-542,496	-182,101	-0,100	0,001
-541,481	321,281	0,046	-0,064
-540,466	800,000	-0,043	0,130
-539,452	-89,934	0,174	0,036
-538,437	800,000	0,050	0,141
-537,423	380,491	0,027	0,040
-536,408	-200,000	-0,036	0,000
-535,393	47,334	-0,070	-0,047
-534,379	-200,000	0,005	0,103
-533,364	792,989	0,044	-0,088
-532,350	-200,000	0,021	0,071
-531,335	-44,361	0,099	-0,036
-530,321	-200,000	0,000	-0,054
-529,306	800,000	-0,048	0,117
-528,291	-127,301	-0,139	-0,014
-527,277	661,858	-0,064	-0,119
-526,262	-200,000	0,024	-0,097
-525,248	226,905	-0,093	-0,109
-524,233	106,025	0,012	-0,010
-523,218	144,824	0,041	-0,039
-522,204	10,245	-0,081	0,045
-521,189	-54,615	-0,058	-0,019
-520,175	612,879	-0,108	-0,195
-519,160	800,000	-0,049	-0,115
-518,145	800,000	0,021	0,067
-517,131	488,422	-0,058	-0,096
-516,116	277,908	-0,041	-0,053
-515,102	279,823	0,010	0,013
-514,087	-169,446	-0,043	0,001
-513,072	-99,043	-0,186	0,034
-512,058	-200,000	-0,021	-0,180
-511,043	-23,845	0,036	-0,015
-510,029	11,461	0,150	0,083
-509,014	21,435	-0,051	-0,030
-507,999	31,471	-0,048	-0,030
-506,985	-9,196	0,141	-0,068
-505,970	233,921	-0,076	0,091
-504,956	-5,484	-0,060	0,030
-503,941	-200,000	0,015	-0,173
-502,926	-163,282	0,097	-0,003
-501,912	-166,989	-0,119	-0,003
-500,897	186,382	0,116	0,124
-499,883	-44,536	-0,134	0,048
-498,868	637,388	0,016	-0,030
-497,853	-200,000	0,007	0,091
-496,839	294,965	0,018	-0,024
-495,824	91,550	-0,071	0,057
-494,810	-200,000	0,116	0,000
-493,795	-141,389	-0,042	-0,003
-492,781	234,488	-0,037	-0,044
-491,766	-200,000	0,004	0,083
-490,751	-9,542	-0,076	0,036
-489,737	-31,832	-0,057	-0,023
-488,722	800,000	-0,019	0,038
-487,708	-41,959	-0,042	-0,015
-486,693	71,310	-0,061	-0,045
-485,678	158,026	0,040	-0,040
-484,664	-44,602	-0,027	-0,010
-483,649	60,809	0,069	-0,049
-482,635	-200,000	-0,029	-0,137
-481,620	50,206	0,132	0,090
-480,605	-118,717	0,029	-0,004
-479,591	-101,300	0,058	0,010
-478,576	98,039	-0,102	0,084
-477,562	800,000	-0,066	-0,141
-476,547	-164,398	-0,082	0,003
-475,532	237,320	0,050	0,060
-474,518	455,645	0,079	-0,126
-473,503	50,825	-0,142	0,097
-472,489	-96,119	0,044	0,008
-471,474	255,765	-0,019	-0,024
-470,459	-52,088	0,076	-0,025
-469,445	-200,000	-0,009	-0,051
-468,430	-200,000	0,000	-0,007
-467,416	383,767	-0,133	0,198
-466,401	-116,528	0,047	0,006
-465,386	-200,000	0,035	0,161
-464,372	94,923	-0,078	0,064
-463,357	152,698	-0,017	0,017
-462,343	-9,601	-0,076	-0,036
-461,328	64,391	0,077	0,056
-460,313	800,000	0,017	0,052
-459,299	126,822	0,168	-0,153
-458,284	-200,000	0,017	0,130
-457,270	-200,000	-0,029	-0,130
-456,255	-38,164	0,034	0,013
-455,241	590,574	0,086	-0,153
-454,226	47,329	0,112	-0,075
-453,211	43,337	0,116	-0,076
-452,197	288,306	-0,064	0,084
-451,182	-137,903	0,014	0,001
-450,168	369,150	0,046	0,067
-449,153	61,730	0,051	-0,036
-448,138	-49,947	-0,133	-0,045
-447,124	26,679	0,080	0,048
-446,109	-98,379	0,052	-0,010
-445,095	212,020	0,038	0,043
-444,080	-68,030	0,093	0,026
-443,065	-112,392	-0,123	-0,017
-442,051	182,562	0,034	-0,037
-441,036	800,000	-0,034	-0,106
-440,022	-61,632	0,046	0,014
-439,007	-83,671	0,049	0,011
-437,992	-90,270	-0,075	-0,015
-436,978	112,275	0,047	-0,041
-435,963	800,000	0,025	0,060
-434,949	209,496	0,011	0,013
-433,934	189,109	-0,077	-0,083
-432,919	552,168	0,062	-0,108
-431,905	199,295	0,111	0,122
-430,890	87,292	0,088	-0,070
-429,876	213,169	-0,048	0,054
-428,861	344,055	0,018	-0,025
-427,846	59,441	-0,027	0,019
-426,832	-200,000	0,011	-0,073
-425,817	-114,765	-0,098	0,013
-424,803	100,290	0,043	-0,036
-423,788	590,286	0,048	0,085
-422,773	52,460	-0,105	0,072
-421,759	-200,000	0,005	0,047
-420,744	39,789	-0,180	0,116
-419,730	-200,000	-0,049	-0,174
-418,715	517,211	-0,021	0,036
-417,701	78,722	-0,076	0,058
-416,686	113,713	-0,040	0,035
-415,671	-61,409	0,051	0,015
-414,657	-102,815	0,120	0,020
-413,642	364,064	-0,071	-0,103
-412,628	98,726	0,121	-0,101
-411,613	605,575	-0,077	-0,138
-410,598	80,487	-0,032	-0,025
-409,584	-200,000	0,007	-0,101
-408,569	-144,618	0,047	0,003
-407,555	106,557	0,113	0,097
-406,540	521,016	0,069	0,117
-405,525	-125,761	-0,086	0,009
-404,511	-43,848	0,072	-0,026
-403,496	-200,000	0,015	-0,120
-402,482	51,982	0,093	-0,063
-401,467	-200,000	-0,015	0,079
-400,452	186,552	0,018	-0,019
-399,438	134,246	-0,088	-0,082
-398,423	-2,184	-0,174	-0,087
-397,409	778,729	0,024	-0,047
-396,394	-200,000	0,013	-0,100
-395,379	94,003	0,095	0,077
-394,365	553,776	-0,036	0,062
-393,350	-200,000	-0,007	-0,038
-392,336	109,121	-0,098	-0,084
-391,321	-33,277	-0,104	-0,041
-390,306	-200,000	-0,010	0,105
-389,292	-25,821	0,087	-0,036
-388,277	543,504	-0,080	-0,138
-387,263	745,890	-0,043	-0,083
-386,248	800,000	0,047	0,120
-385,233	-200,000	0,036	0,204
-384,219	267,449	-0,094	-0,118
-383,204	-93,829	-0,148	0,029
-382,190	-31,900	-0,042	-0,017
-381,175	176,058	-0,034	-0,036
-380,160	22,870	-0,112	-0,066
-379,146	800,000	0,019	0,051
-378,131	-140,453	0,047	0,003
-377,117	-200,000	-0,030	-0,151
-376,102	-57,280	0,047	-0,015
-375,088	-200,000	0,003	-0,094
-374,073	-136,682	-0,071	-0,006
-373,058	-200,000	-0,010	-0,056
-372,044	257,928	0,106	0,131
-371,029	800,000	-0,053	0,114
-370,015	-200,000	0,023	-0,094
-369,000	83,685	-0,060	-0,046
-367,985	-91,873	0,118	0,024
-366,971	800,000	-0,039	0,121
-365,956	21,736	-0,134	-0,078
-364,942	183,125	-0,064	0,068
-363,927	-200,000	-0,050	0,165
-362,912	-26,126	0,096	0,040
-361,898	-200,000	-0,009	0,098
-360,883	78,296	-0,067	-0,051
-359,869	-36,909	0,028	-0,011
-358,854	-97,121	0,163	-0,030
-357,839	-200,000	0,023	0,083
-356,825	483,372	0,088	-0,144
-355,810	-200,000	0,000	0,002
-354,796	163,934	0,087	0,088
-353,781	800,000	0,052	0,104
-352,766	68,713	0,025	0,019
-351,752	-200,000	-0,027	-0,173
-350,737	-38,398	0,021	0,008
-349,723	-200,000	0,026	0,179
-348,708	278,871	0,049	0,062
-347,693	186,000	-0,017	0,018
-346,679	161,005	0,044	-0,044
-345,664	-49,823	-0,178	0,060
-344,650	59,554	0,047	0,033
-343,635	800,000	0,048	0,133
-342,620	291,039	0,080	0,105
-341,606	-109,914	-0,093	-0,014
-340,591	721,539	-0,068	-0,131
-339,577	-200,000	-0,058	-0,190
-338,562	34,113	-0,116	-0,072
-337,548	700,704	-0,023	0,043
-336,533	-164,240	-0,079	-0,003
-335,518	568,044	0,033	-0,058
-334,504	-200,000	0,013	0,096
-333,489	-200,000	-0,000	-0,153
-332,475	580,425	-0,036	-0,064
-331,460	9,685	0,170	-0,092
-330,445	-137,615	0,039	0,003
-329,431	-44,364	-0,031	-0,011
-328,416	-10,728	0,148	0,070
-327,402	-57,757	-0,114	-0,035
-326,387	31,580	-0,075	0,046
-325,372	-200,000	-0,017	-0,085
-324,358	-200,000	-0,045	0,165
-323,343	800,000	-0,046	0,116
-322,329	-107,291	-0,145	-0,023
-321,314	70,694	0,182	0,135
-320,299	341,004	-0,022	0,031
-319,285	-200,000	-0,007	0,181
-318,270	67,812	-0,140	-0,102
-317,256	-200,000	0,010	0,087
-316,241	205,995	-0,034	-0,038
-315,226	29,134	0,093	0,056
-314,212	16,031	-0,063	0,035
-313,197	372,990	-0,093	0,136
-312,183	229,114	0,057	0,067
-311,168	800,000	-0,055	-0,125
-310,153	-28,410	-0,053	-0,022
-309,139	732,123	0,052	0,100
-308,124	-200,000	-0,016	-0,109
-307,110	-88,029	0,078	0,017
-306,095	-20,772	-0,078	-0,034
-305,080	-200,000	0,024	-0,077
-304,066	-25,114	-0,088	0,037
-303,051	-200,000	-0,016	-0,117
-302,037	-113,509	0,120	-0,017
-301,022	111,264	0,037	-0,032
-300,008	800,000	0,060	-0,167
-298,993	-3,313	-0,107	-0,053
-297,978	-57,982	0,077	-0,024
-296,964	-200,000	0,009	-0,043
-295,949	-112,802	0,032	0,004
-294,935	-126,482	0,070	-0,007
-293,920	44,346	-0,146	0,096
-292,905	-11,652	0,096	0,045
-291,891	-200,000	0,011	0,120
-290,876	-144,751	0,034	0,002
-289,862	204,256	0,047	-0,052
-288,847	172,200	-0,104	0,107
-287,832	567,233	0,070	-0,122
-286,818	700,535	0,062	-0,117
-285,803	27,776	0,088	0,053
-284,789	800,000	0,037	-0,076
-283,774	717,636	0,029	0,055
-282,759	531,186	-0,012	-0,020
-281,745	724,823	-0,037	0,070
-280,730	-200,000	-0,026	-0,108
-279,716	-7,640	-0,112	-0,054
-278,701	317,582	0,059	0,079
-277,686	66,774	0,129	0,094
-276,672	175,682	0,159	0,165
-275,657	163,292	-0,081	-0,081
-274,643	143,251	-0,060	-0,057
-273,628	-77,614	0,100	0,025
-272,613	-200,000	0,023	-0,111
-271,599	-200,000	0,003	0,073
-270,584	51,714	0,071	0,048
-269,570	15,607	0,021	0,012
-268,555	-200,000	0,063	0,000
-267,540	324,615	-0,042	-0,058
-266,526	800,000	0,045	0,105
-265,511	146,267	0,043	-0,041
-264,497	95,714	0,068	0,055
-263,482	800,000	0,050	0,133
-262,467	71,197	0,099	-0,073
-261,453	-200,000	0,017	0,096
-260,438	-71,513	-0,097	-0,026
-259,424	165,646	-0,037	-0,037
-258,409	-200,000	-0,009	-0,095
-257,395	661,925	0,057	-0,105
-256,380	800,000	0,052	0,148
-255,365	-200,000	-0,024	-0,100
-254,351	97,611	-0,045	-0,037
-253,336	138,362	-0,045	0,042
-252,322	-200,000	-0,008	-0,151
-251,307	624,056	-0,007	-0,013
-250,292	56,156	0,017	0,012
-249,278	151,070	0,017	-0,016
-248,263	-200,000	-0,000	0,063
-247,249	-145,957	0,126	0,008
-246,234	800,000	-0,045	-0,097
-245,219	-200,000	0,027	-0,116
-244,205	-41,812	-0,065	-0,024
-243,190	-57,317	-0,046	-0,014
-242,176	-8,345	-0,033	0,016
-241,161	97,325	0,061	0,050
-240,146	-200,000	-0,021	0,068
-239,132	258,784	0,045	0,056
-238,117	-200,000	0,002	0,005
-237,103	-200,000	-0,018	-0,098
-236,088	72,221	0,080	0,060
-235,073	-200,000	-0,023	0,121
-234,059	-44,303	0,060	-0,021
-233,044	-142,253	0,142	-0,010
-232,030	-200,000	0,006	0,021
-231,015	98,904	-0,089	0,073
-230,000	800,000	-0,038	0,082
-228,986	-41,858	0,086	-0,031
-227,971	-149,891	0,072	0,004
-226,957	-200,000	0,008	0,174
-225,942	134,382	-0,120	0,111
-224,927	800,000	-0,033	0,092
-223,913	-200,000	-0,016	0,105
-222,898	800,000	-0,032	0,095
-221,884	-85,914	0,026	0,006
-220,869	-46,362	0,054	-0,019
-219,855	800,000	0,014	0,034
-218,840	196,807	0,075	0,081
-217,825	643,878	-0,075	-0,137
-216,811	288,277	0,037	0,047
-215,796	-200,000	0,019	-0,088
-214,782	745,647	-0,075	-0,144
-213,767	-57,130	0,128	-0,040
-212,752	322,738	0,014	-0,019
-211,738	-200,000	-0,032	0,111
-210,723	-35,913	0,071	-0,027
-209,709	-55,826	-0,032	0,010
-208,694	-200,000	-0,030	0,111
-207,679	-130,087	-0,075	-0,007
-206,665	49,936	-0,039	-0,026
-205,650	177,481	0,059	0,062
-204,636	-200,000	-0,004	0,116
-203,621	-200,000	-0,016	-0,096
-202,606	-200,000	0,004	-0,110
-201,592	800,000	0,029	-0,075
-200,577	23,497	-0,083	0,049
-199,563	136,321	0,048	-0,044
-198,548	179,715	0,031	0,032
-197,533	156,846	0,054	0,054
-196,519	-200,000	-0,026	0,145
-195,504	-200,000	-0,023	-0,085
-194,490	800,000	-0,063	0,144
-193,475	-0,851	0,032	0,016
-192,460	-200,000	-0,008	-0,072
-191,446	-121,972	0,137	-0,016
-190,431	-78,135	-0,015	0,004
-189,417	800,000	0,019	-0,054
-188,402	-26,899	-0,072	-0,030
-187,387	-56,669	-0,077	0,024
-186,373	-109,269	0,039	0,006
-185,358	369,643	0,070	0,101
-184,344	-200,000	-0,009	-0,033
-183,329	466,469	-0,038	-0,061
-182,315	-110,285	-0,086	0,013
-181,300	-131,793	0,159	-0,015
-180,285	320,838	-0,133	-0,180
-179,271	37,280	0,039	-0,025
-178,256	382,776	0,049	0,072
-177,242	-17,905	0,022	-0,010
-176,227	-200,000	0,028	0,130
-175,212	-200,000	0,005	0,126
-174,198	193,759	0,068	-0,074
-173,183	161,662	-0,063	-0,063
-172,169	-49,150	0,041	-0,014
-171,154	4,553	0,054	0,028
-170,139	502,217	0,040	-0,066
-169,125	800,000	0,064	0,166
-168,110	603,786	0,054	-0,097
-167,096	544,103	-0,048	0,082
-166,081	448,600	-0,022	0,035
-165,066	63,739	0,127	0,091
-164,052	13,737	-0,066	-0,036
-163,037	443,047	-0,046	0,072
-162,023	-11,903	0,123	0,057
-161,008	-75,399	-0,080	0,020
-159,993	800,000	0,058	0,131
-158,979	2,164	-0,120	0,061
-157,964	-14,619	-0,120	0,055
-156,950	275,392	0,019	-0,024
-155,935	-200,000	0,006	0,081
-154,920	-200,000	-0,005	0,120
-153,906	249,056	0,070	0,085
-152,891	-200,000	0,016	0,069
-151,877	-56,945	0,088	-0,027
-150,862	800,000	0,037	0,091
-149,847	233,945	-0,062	-0,072
-148,833	800,000	-0,099	-0,203
-147,818	157,505	0,058	-0,057
-146,804	-200,000	-0,003	0,052
-145,789	82,729	-0,030	0,023
-144,775	-3,520	0,076	0,038
-143,760	151,108	-0,038	-0,037
-142,745	-6,247	-0,027	-0,013
-141,731	800,000	-0,030	-0,081
-140,716	-200,000	0,018	-0,059
-139,702	-200,000	0,007	0,098
-138,687	414,618	0,058	-0,088
-137,672	-153,608	-0,093	-0,004
-136,658	107,958	0,133	-0,113
-135,643	800,000	-0,043	-0,094
-134,629	800,000	0,024	0,055
-133,614	61,993	0,081	0,057
-132,599	-200,000	-0,006	0,122
-131,585	-56,217	-0,046	0,014
-130,570	23,637	-0,137	-0,080
-129,556	323,686	0,016	0,021
-128,541	648,308	0,018	0,032
-127,526	800,000	-0,031	-0,064
-126,512	235,169	-0,039	-0,046
-125,497	-200,000	-0,044	0,160
-124,483	286,817	0,009	-0,011
-123,468	-200,000	-0,016	-0,058
-122,453	78,435	0,079	-0,060
-121,439	-200,000	-0,013	-0,062
-120,424	193,892	-0,049	-0,053
-119,410	-200,000	0,013	-0,062
-118,395	281,668	-0,072	0,091
-117,380	33,822	-0,080	-0,049
-116,366	121,570	-0,074	0,066
-115,351	-200,000	-0,071	0,000
-114,337	-200,000	-0,000	-0,096
-113,322	-69,324	0,130	0,035
-112,307	-42,417	-0,051	-0,019
-111,293	88,139	0,130	-0,102
-110,278	800,000	0,057	-0,141
-109,264	48,125	0,045	0,030
-108,249	800,000	-0,073	-0,148
-107,234	17,814	-0,066	-0,037
-106,220	164,214	0,056	0,056
-105,205	-80,048	0,085	0,020
-104,191	99,542	0,142	0,116
-103,176	-58,661	-0,023	-0,007
-102,162	137,665	-0,104	0,097
-101,147	5,586	0,020	0,010
-100,132	800,000	0,055	0,136
-99,118	-69,270	0,080	0,022
-98,103	-24,088	0,056	0,024
-97,089	171,791	0,047	0,048
-96,074	-200,000	0,000	0,084
-95,059	2,493	0,096	0,049
-94,045	199,619	-0,125	-0,136
-93,030	-200,000	-0,022	0,099
-92,016	-200,000	-0,035	-0,177
-91,001	800,000	0,051	-0,139
-89,986	-80,773	-0,183	0,043
-88,972	482,823	0,040	0,065
-87,957	-77,465	0,121	-0,030
-86,943	-200,000	-0,010	0,060
-85,928	-200,000	0,001	-0,060
-84,913	-123,011	0,087	0,010
-83,899	-63,077	-0,041	0,012
-82,884	-41,451	0,071	-0,026
-81,870	137,345	0,020	-0,019
-80,855	135,564	-0,059	0,055
-79,840	-52,110	-0,022	-0,007
-78,826	-63,522	0,051	-0,015
-77,811	69,605	-0,089	-0,065
-76,797	-117,547	0,056	0,007
-75,782	118,783	0,101	0,089
-74,767	-200,000	0,024	0,085
-73,753	239,206	0,036	-0,043
-72,738	29,893	0,132	-0,079
-71,724	-200,000	0,005	-0,042
-70,709	176,375	0,066	-0,068
-69,694	156,780	-0,013	0,013
-68,680	-35,293	-0,066	-0,025
-67,665	-82,046	0,150	-0,035
-66,651	-25,950	-0,032	-0,013
-65,636	-200,000	-0,025	0,117
-64,622	-200,000	-0,014	-0,054
-63,607	-33,914	-0,064	-0,025
-62,592	662,127	0,036	-0,066
-61,578	-87,452	0,079	0,017
-60,563	116,847	0,091	0,079
-59,549	54,561	0,021	0,014
-58,534	-40,507	-1,605	-0,587
-57,519	401,247	-1,340	-1,998
-56,505	-200,000	-0,424	-4,437
-55,490	223,984	0,915	1,048
-54,476	800,000	4,961	11,418
-53,461	-200,000	19,302	319,970
-52,446	-200,000	740,593	2334,112
-51,432	573,657	1655,280	2869,244
-50,417	78,296	1671,068	1261,888
-49,403	21,326	1543,940	885,725
-48,388	15,160	1466,350	811,230
-47,373	17,954	1456,528	819,262
-46,359	16,646	1446,648	807,402
-45,344	13,423	1441,907	789,285
-44,330	13,344	1439,916	787,783
-43,315	13,364	1438,105	786,859
-42,300	13,328	1436,568	785,814
-41,286	13,351	1435,457	785,285
-40,271	13,351	1433,845	784,371
-39,257	13,369	1432,565	783,727
-38,242	13,437	1431,191	783,267
-37,227	13,365	1430,181	782,339
-36,213	13,431	1428,752	781,842
-35,198	13,414	1427,586	781,090
-34,184	13,453	1426,613	780,715
-33,169	13,365	1425,466	779,636
-32,154	13,482	1424,166	779,449
-31,140	13,424	1422,998	778,503
-30,125	13,408	1421,988	777,847
-29,111	13,390	1420,982	777,181
-28,096	13,349	1419,720	776,264
-27,082	13,395	1418,462	775,762
-26,067	13,349	1417,642	775,065
-25,052	13,358	1416,294	774,341
-24,038	13,282	1415,528	773,533
-23,023	13,327	1414,375	773,087
-22,009	13,321	1413,298	772,439
-20,994	13,275	1412,613	771,817
-19,979	13,326	1411,765	771,564
-18,965	13,294	1410,683	770,792
-17,950	13,318	1409,540	770,248
-16,936	13,297	1408,799	769,715
-15,921	13,246	1407,641	768,811
-14,906	13,256	1406,683	768,303
-13,892	13,252	1405,876	767,812
-12,877	13,225	1405,082	767,223
-11,863	13,255	1404,156	766,830
-10,848	13,224	1403,177	766,119
-9,833	13,233	1402,283	765,643
-8,819	13,171	1401,586	764,942
-7,804	13,146	1400,747	764,336
-6,790	13,126	1399,626	763,601
-5,775	13,196	1398,398	763,227
-4,760	13,152	1397,483	762,492
-3,746	13,171	1396,588	762,065
-2,731	13,120	1395,912	761,428
-1,717	13,141	1394,915	760,949
-0,702	13,091	1393,085	759,692
0,313	16,993	1309,903	732,389
1,327	33,352	703,699	431,250
2,342	51,338	123,265	82,671
3,356	2,254	16,768	8,548
4,371	1,906	3,288	1,672
5,386	-36,769	0,533	0,201
6,400	800,000	0,083	0,195
7,415	-72,362	-0,235	-0,061
8,429	-28,560	-0,286	-0,116
9,444	95,377	-0,296	-0,238
10,459	8,329	-0,307	-0,163
11,473	173,418	-0,289	-0,295
12,488	62,258	-0,330	-0,233
13,502	39,159	-0,318	-0,201
14,517	51,898	-0,284	-0,191
15,531	74,824	-0,264	-0,196
16,546	74,020	-0,383	-0,283
17,561	97,238	-0,309	-0,250
18,575	-144,725	-0,205	-0,013
19,590	97,136	-0,360	-0,291
20,604	12,497	-0,201	-0,109
21,619	214,828	-0,338	-0,379
22,634	249,208	-0,362	-0,434
23,648	181,377	-0,409	-0,425
24,663	60,935	-0,327	-0,229
25,677	55,512	-0,352	-0,240
26,692	9,785	-0,382	-0,204
27,707	86,399	-0,243	-0,189
28,721	116,849	-0,431	-0,373
29,736	36,592	-0,465	-0,289
30,750	73,410	-0,476	-0,351
31,765	156,746	-0,374	-0,365
32,780	269,249	-0,268	-0,332
33,794	101,734	-0,295	-0,243
34,809	4,566	-0,369	-0,190
35,823	131,046	-0,290	-0,263
36,838	217,074	-0,330	-0,371
37,853	11,095	-0,425	-0,229
38,867	225,953	-0,383	-0,439
39,882	88,935	-0,326	-0,256
40,896	-41,237	-0,298	-0,108
41,911	-72,412	-0,362	-0,094
42,926	199,505	-0,313	-0,339
43,940	-39,285	-0,463	-0,171
44,955	338,351	-0,263	-0,361
45,969	191,762	-0,216	-0,229
46,984	61,583	-0,329	-0,230
47,999	-23,134	-0,335	-0,142
49,013	68,322	-0,294	-0,212
50,028	69,902	-0,363	-0,264
51,042	-3,782	-0,384	-0,187
52,057	280,415	-0,296	-0,373
53,071	414,233	-0,227	-0,341
54,086	84,944	-0,373	-0,287
55,101	88,925	-0,349	-0,273
56,115	168,531	-0,311	-0,312
57,130	58,709	-0,290	-0,200
58,144	149,999	-0,454	-0,434
59,159	151,013	-0,198	-0,189
60,174	126,010	-0,315	-0,280
61,188	84,518	-0,340	-0,262
62,203	234,727	-0,260	-0,303
63,217	-16,323	-0,305	-0,136
64,232	54,066	-0,377	-0,254
65,247	166,989	-0,274	-0,274
66,261	206,948	-0,196	-0,216
67,276	26,176	-0,423	-0,248
68,290	-12,362	-0,244	-0,112
69,305	98,695	-0,337	-0,273
70,320	30,847	-0,306	-0,184
71,334	-38,206	-0,245	-0,091
72,349	34,272	-0,327	-0,200
73,363	94,284	-0,358	-0,286
74,378	149,212	-0,268	-0,255
75,393	12,540	-0,251	-0,136
76,407	48,837	-0,270	-0,177
77,422	101,348	-0,255	-0,209
78,436	22,785	-0,379	-0,217
79,451	106,361	-0,212	-0,177
80,466	-88,484	-0,355	-0,074
81,480	36,809	-0,357	-0,221
82,495	-19,782	-0,348	-0,151
83,509	240,144	-0,254	-0,298
84,524	103,744	-0,268	-0,221
85,539	142,272	-0,328	-0,306
86,553	150,297	-0,211	-0,202
87,568	121,506	-0,310	-0,271
88,582	18,403	-0,348	-0,195
89,597	65,555	-0,340	-0,241
90,611	3,643	-0,309	-0,158
91,626	20,417	-0,233	-0,132
92,641	-19,588	-0,300	-0,130
93,655	92,401	-0,202	-0,160
94,670	43,532	-0,355	-0,227
95,684	79,010	-0,255	-0,192
96,699	360,670	-0,228	-0,321
97,714	6,191	-0,291	-0,151
98,728	83,687	-0,237	-0,181
99,743	-105,801	-0,203	0,032
100,757	-29,591	-0,410	-0,164
101,772	226,577	-0,260	-0,297
102,787	12,462	-0,323	-0,174
103,801	-34,679	-0,313	-0,120
104,816	67,530	-0,363	-0,259
105,830	30,328	-0,246	-0,147
106,845	-13,353	-0,268	-0,122
107,860	-61,693	-0,251	-0,073
108,874	136,234	-0,249	-0,228
109,889	64,066	-0,394	-0,278
110,903	97,950	-0,227	-0,183
111,918	244,409	-0,249	-0,294
112,933	-17,154	-0,229	-0,101
113,947	800,000	-0,063	-0,178
114,962	4,412	-0,443	-0,227
115,976	85,714	-0,277	-0,213
116,991	81,860	-0,196	-0,149
118,006	22,782	-0,354	-0,203
119,020	50,102	-0,279	-0,184
120,035	317,788	-0,160	-0,212
121,049	16,782	-0,132	-0,073
122,064	103,087	-0,253	-0,207
123,079	85,404	-0,213	-0,164
124,093	21,560	-0,239	-0,136
125,108	-0,504	-0,259	-0,128
126,122	-45,733	-0,306	-0,105
127,137	-66,176	-0,149	0,041
128,151	-82,113	-0,249	-0,056
129,166	-95,753	-0,196	-0,036
130,181	94,488	-0,241	-0,191
131,195	-24,703	-0,330	-0,137
132,210	-11,519	-0,316	-0,145
133,224	-82,507	-0,178	-0,040
134,239	-10,229	-0,232	-0,107
135,254	-21,545	-0,309	-0,131
136,268	-38,419	-0,240	-0,088
137,283	800,000	-0,118	-0,337
138,297	236,603	-0,265	-0,307
139,312	34,573	-0,198	-0,121
140,327	-6,397	-0,244	-0,116
141,341	529,830	-0,163	-0,271
142,356	-67,086	-0,183	-0,050
143,370	-18,937	-0,363	-0,157
144,385	800,000	-0,132	-0,262
145,400	20,569	-0,299	-0,169
146,414	-27,493	-0,263	-0,106
147,429	48,779	-0,256	-0,167
148,443	87,698	-0,178	-0,137
149,458	-50,245	-0,273	-0,090
150,473	99,843	-0,224	-0,181
151,487	119,363	-0,202	-0,175
152,502	142,038	-0,232	-0,215
153,516	152,761	-0,220	-0,210
154,531	-159,234	-0,223	0,009
155,546	-72,500	-0,251	-0,064
156,560	-32,549	-0,401	-0,155
157,575	150,756	-0,207	-0,196
158,589	-77,596	-0,258	-0,062
159,604	304,905	-0,144	-0,186
160,619	108,768	-0,245	-0,204
161,633	246,376	-0,220	-0,259
162,648	161,731	-0,352	-0,344
163,662	199,106	-0,232	-0,248
164,677	554,637	-0,167	-0,282
165,692	17,080	-0,219	-0,121
166,706	-131,304	-0,181	-0,016
167,721	182,083	-0,186	-0,192
168,735	503,196	-0,195	-0,316
169,750	40,794	-0,197	-0,124
170,764	88,244	-0,155	-0,120
171,779	536,582	-0,098	-0,162
172,794	243,319	-0,223	-0,261
173,808	95,326	-0,265	-0,211
174,823	45,419	-0,350	-0,225
175,837	457,462	-0,157	-0,243
176,852	13,502	-0,243	-0,131
177,867	30,665	-0,267	-0,159
178,881	-32,364	-0,289	-0,112
179,896	-69,470	-0,168	-0,044
180,910	-24,327	-0,214	-0,088
181,925	-6,859	-0,282	-0,133
182,940	24,001	-0,185	-0,106
183,954	59,326	-0,157	-0,107
184,969	800,000	-0,065	-0,143
185,983	33,707	-0,172	-0,104
186,998	800,000	-0,116	-0,238
188,013	41,726	-0,241	-0,152
189,027	51,248	-0,305	-0,201
190,042	362,215	-0,174	-0,243
191,056	101,653	-0,248	-0,201
192,071	39,521	-0,351	-0,219
193,086	-68,322	-0,297	-0,080
194,100	42,386	-0,284	-0,179
195,115	480,109	-0,119	-0,188
196,129	42,705	-0,234	-0,148
197,144	206,333	-0,212	-0,230
198,159	4,640	-0,162	-0,083
199,173	-100,630	-0,187	0,032
200,188	770,811	-0,094	-0,179
201,202	14,240	-0,139	-0,075
202,217	32,670	-0,210	-0,126
203,232	233,992	-0,180	-0,206
204,246	-17,123	-0,338	-0,147
205,261	120,623	-0,177	-0,153
206,275	67,117	-0,239	-0,169
207,290	40,112	-0,207	-0,129
208,304	570,472	-0,189	-0,320
209,319	-122,961	-0,246	-0,027
210,334	-123,271	-0,307	0,034
211,348	88,619	-0,222	-0,172
212,363	75,549	-0,290	-0,212
213,377	41,658	-0,234	-0,147
214,392	95,098	-0,259	-0,204
215,407	-95,751	-0,269	-0,050
216,421	-97,387	-0,156	0,028
217,436	203,453	-0,125	-0,134
218,450	40,601	-0,216	-0,135
219,465	121,395	-0,190	-0,164
220,480	176,523	-0,117	-0,118
221,494	-85,891	-0,064	-0,014
222,509	113,782	-0,151	-0,127
223,523	41,906	-0,282	-0,177
224,538	-52,214	-0,108	-0,035
225,553	741,473	-0,174	-0,325
226,567	102,934	-0,319	-0,259
227,582	189,325	-0,183	-0,191
228,596	317,998	-0,114	-0,149
229,611	-200,000	-0,010	-0,235
230,626	-62,135	-0,148	-0,043
231,640	300,687	-0,147	-0,189
232,655	55,407	-0,101	-0,068
233,669	249,863	-0,162	-0,191
234,684	137,158	-0,231	-0,209
235,699	-81,326	-0,185	-0,042
236,713	17,596	-0,171	-0,094
237,728	30,662	-0,221	-0,131
238,742	-122,838	-0,246	0,027
239,757	-39,466	-0,189	-0,068
240,772	257,327	-0,203	-0,242
241,786	78,856	-0,157	-0,116
242,801	1,105	-0,148	-0,073
243,815	-16,429	-0,258	-0,113
244,830	-72,752	-0,221	-0,056
245,844	205,670	-0,164	-0,177
246,859	-156,645	-0,117	-0,005
247,874	-165,787	-0,194	0,006
248,888	485,484	-0,167	-0,264
249,903	55,708	-0,222	-0,149
250,917	20,680	-0,193	-0,108
251,932	2,747	-0,127	-0,064
252,947	800,000	-0,036	-0,072
253,961	240,888	-0,113	-0,130
254,976	100,194	-0,175	-0,141
255,990	124,092	-0,190	-0,165
257,005	-57,363	-0,159	-0,048
258,020	800,000	-0,082	-0,164
259,034	-124,842	-0,167	-0,018
260,049	-87,943	-0,178	-0,037
261,063	-112,494	-0,297	-0,041
262,078	34,777	-0,223	-0,134
263,093	-18,726	-0,129	-0,055
264,107	-145,045	-0,175	-0,011
265,122	19,249	-0,225	-0,124
266,136	-46,418	-0,094	-0,032
267,151	576,119	-0,140	-0,238
268,166	77,453	-0,119	-0,087
269,180	172,977	-0,272	-0,271
270,195	-30,186	-0,268	-0,105
271,209	-38,475	-0,252	-0,092
272,224	-48,633	-0,128	-0,042
273,239	800,000	-0,082	-0,159
274,253	8,919	-0,188	-0,098
275,268	-200,000	-0,011	-0,075
276,282	320,691	-0,163	-0,214
277,297	33,271	-0,206	-0,123
278,312	241,381	-0,196	-0,227
279,326	-63,889	-0,207	-0,058
280,341	800,000	-0,043	-0,116
281,355	-10,475	-0,132	-0,060
282,370	-94,427	-0,188	-0,035
283,384	-20,732	-0,211	-0,089
284,399	147,744	-0,142	-0,132
285,414	76,040	-0,151	-0,110
286,428	42,385	-0,189	-0,118
287,443	-46,172	-0,212	0,072
288,457	485,796	0,039	-0,062
289,472	-162,363	-0,150	-0,005
290,487	106,351	-0,085	-0,069
291,501	114,603	-0,212	-0,178
292,516	800,000	-0,080	-0,229
293,530	-63,374	-0,227	-0,064
294,545	800,000	-0,076	-0,170
295,560	59,928	-0,136	-0,092
296,574	800,000	-0,053	-0,111
297,589	79,139	-0,120	-0,088
298,603	-18,190	-0,138	-0,059
299,618	550,517	-0,143	-0,238
300,633	800,000	-0,059	-0,137
301,647	-4,156	-0,151	-0,072
302,662	-150,846	-0,083	-0,004
303,676	800,000	0,024	-0,066
304,691	-200,000	0,000	-0,015
305,706	44,609	-0,304	-0,192
306,720	-27,822	-0,226	-0,090
307,735	222,603	-0,171	-0,190
308,749	597,911	-0,112	-0,192
309,764	756,148	-0,089	-0,167
310,779	697,168	-0,137	-0,248
311,793	83,831	-0,126	-0,095
312,808	-129,105	-0,180	-0,017
313,822	-110,010	-0,201	-0,029
314,837	-86,610	-0,141	0,029
315,852	562,973	-0,060	-0,100
316,866	-32,551	-0,077	0,029
317,881	34,354	-0,156	-0,093
318,895	55,737	-0,196	-0,130
319,910	22,384	-0,169	-0,095
320,925	233,753	-0,064	-0,073
321,939	-200,000	-0,022	-0,235
322,954	103,414	-0,203	-0,164
323,968	-200,000	-0,022	-0,160
324,983	-31,908	-0,206	-0,079
325,997	-200,000	-0,198	-0,000
327,012	800,000	-0,088	-0,173
328,027	-200,000	-0,007	-0,143
329,041	800,000	-0,069	-0,159
330,056	-59,840	-0,152	-0,045
331,070	224,530	-0,060	0,066
332,085	216,851	-0,118	0,129
333,100	184,497	-0,140	-0,143
334,114	273,772	-0,146	-0,177
335,129	193,943	-0,201	-0,209
336,143	240,783	-0,146	-0,168
337,158	287,570	-0,156	-0,194
338,173	-88,105	-0,120	0,024
339,187	800,000	-0,090	-0,265
340,202	198,882	-0,130	-0,137
341,216	-52,372	-0,188	-0,060
342,231	-107,650	-0,225	-0,033
343,246	-124,700	-0,162	0,017
344,260	-114,127	-0,135	-0,018
345,275	383,879	-0,061	-0,086
346,289	-200,000	0,002	0,092
347,304	-63,381	0,012	-0,003
348,319	380,020	-0,156	-0,220
349,333	451,936	-0,130	-0,197
350,348	-46,284	-0,133	-0,045
351,362	-200,000	0,028	-0,094
352,377	-124,072	0,056	0,006
353,392	380,920	-0,138	-0,195
354,406	-11,658	-0,203	-0,091
355,421	209,347	1313,630	1413,491
356,435	161,115	1474,236	1413,980
