DTS Sentinel unit serial number:	SN410029Multiplexer serial number:	ORYXHardware model number:	OX2-SRSoftware version number:	ORYX F/W v4,00 Oryx Data Collector v3.7.2.0data status	okinstallation	B3 Nyhavnadifferential loss correction	single-endedforward channel	channel 1reverse channel	N/Adate	2023/12/03time	16:07:30forward acquisition time	300,00reverse acquisition time	0,00gamma	499,1914k internal	0,3197k external	0,3197temperature offset calibration	1,0000default loss term (dB/km)	0,3820temperature slope calibration	1,0000multiplexer offset coefficient	1,0000multiplexer slope coefficient	1,0000fibre end	0,00T internal ref (°C)	15,49T ext. ref 1 (°C)	-0,01T ext. ref 2 (°C)	-0,02length (m)	temperature (°C)	Stokes	anti-Stokes-744,400	66,604	-0,172	-0,127
-743,385	-200,000	0,024	0,320
-742,371	416,985	-0,099	-0,154
-741,356	-200,000	0,046	0,255
-740,342	-33,305	-0,294	-0,118
-739,327	-200,000	0,042	0,215
-738,312	42,698	-0,305	-0,202
-737,298	-200,000	-0,050	0,229
-736,283	247,354	-0,232	-0,286
-735,269	-200,000	-0,025	0,302
-734,254	-61,855	-0,158	-0,048
-733,239	-84,083	-0,307	0,070
-732,225	-21,396	-0,098	-0,044
-731,210	122,008	0,211	0,192
-730,196	-123,536	-0,050	0,006
-729,181	205,302	-0,035	0,039
-728,167	-200,000	0,008	-0,065
-727,152	298,798	-0,064	0,086
-726,137	-62,376	-0,125	-0,038
-725,123	66,254	-0,143	-0,106
-724,108	-200,000	0,003	-0,036
-723,094	-200,000	-0,006	0,045
-722,079	-130,484	-0,269	0,026
-721,064	391,726	0,026	-0,039
-720,050	173,308	-0,069	-0,073
-719,035	-140,041	0,016	0,001
-718,021	-95,315	-0,159	-0,031
-717,006	49,793	-0,124	-0,085
-715,991	-200,000	-0,029	-0,162
-714,977	271,224	-0,071	-0,091
-713,962	800,000	0,050	0,139
-712,948	115,576	0,084	0,075
-711,933	7,888	0,035	-0,019
-710,918	226,632	-0,017	0,021
-709,904	-36,363	-0,198	-0,077
-708,889	-200,000	-0,025	-0,084
-707,875	800,000	0,049	-0,109
-706,860	800,000	0,033	-0,107
-705,845	64,916	-0,055	0,041
-704,831	134,927	-0,054	-0,051
-703,816	103,571	0,049	0,042
-702,802	157,354	-0,102	-0,103
-701,787	-100,411	-0,180	-0,032
-700,772	130,683	-0,071	-0,066
-699,758	-43,250	0,015	0,005
-698,743	202,293	0,059	-0,067
-697,729	435,411	0,064	0,101
-696,714	-124,116	0,026	-0,003
-695,699	-92,844	-0,085	-0,017
-694,685	800,000	0,020	0,065
-693,670	800,000	-0,040	-0,096
-692,656	800,000	-0,015	-0,047
-691,641	-146,198	-0,177	-0,011
-690,627	586,522	-0,036	-0,064
-689,612	-36,332	0,101	-0,040
-688,597	98,930	0,040	-0,034
-687,583	800,000	0,030	-0,065
-686,568	485,589	0,007	-0,012
-685,554	-200,000	0,010	-0,076
-684,539	-41,395	0,097	0,036
-683,524	-200,000	0,025	-0,102
-682,510	-86,440	0,084	-0,019
-681,495	521,127	0,036	0,062
-680,481	-178,603	-0,191	0,003
-679,466	272,998	0,070	-0,090
-678,451	-200,000	0,010	0,118
-677,437	23,427	-0,178	0,106
-676,422	-150,765	0,048	0,003
-675,408	-110,944	-0,084	-0,012
-674,393	-200,000	0,028	-0,092
-673,378	-77,326	-0,168	0,042
-672,364	-200,000	0,006	0,062
-671,349	-183,977	0,064	-0,001
-670,335	-150,050	0,053	-0,003
-669,320	244,269	0,078	0,096
-668,305	-46,192	0,061	0,022
-667,291	227,185	-0,064	0,076
-666,276	121,170	0,118	0,106
-665,262	74,977	-0,108	-0,083
-664,247	-200,000	0,003	-0,016
-663,232	156,152	0,043	0,043
-662,218	-112,215	0,147	-0,021
-661,203	733,101	0,083	0,163
-660,189	800,000	0,038	0,082
-659,174	-36,031	-0,091	-0,036
-658,159	-99,926	-0,102	-0,018
-657,145	-200,000	-0,017	-0,153
-656,130	-89,475	0,054	-0,011
-655,116	205,040	-0,069	-0,078
-654,101	-112,349	-0,086	0,012
-653,086	482,480	0,034	-0,057
-652,072	154,071	-0,120	-0,119
-651,057	-2,582	-0,042	0,021
-650,043	-111,393	0,119	0,017
-649,028	154,103	0,084	0,084
-648,014	42,211	-0,051	0,034
-646,999	143,132	0,113	-0,109
-645,984	15,353	0,039	0,022
-644,970	241,621	0,009	0,011
-643,955	124,495	-0,046	-0,042
-642,941	-200,000	0,018	0,066
-641,926	-104,912	-0,096	0,016
-640,911	136,760	-0,062	0,059
-639,897	31,633	-0,095	-0,059
-638,882	75,736	0,112	0,086
-637,868	-65,492	-0,098	0,028
-636,853	-200,000	0,035	-0,146
-635,838	488,497	-0,058	-0,096
-634,824	114,074	0,115	0,101
-633,809	347,419	0,038	-0,054
-632,795	800,000	-0,061	-0,135
-631,780	-35,001	0,025	-0,010
-630,765	-52,503	-0,113	0,038
-629,751	-200,000	-0,000	0,051
-628,736	306,479	-0,090	0,122
-627,722	800,000	0,026	-0,057
-626,707	-200,000	-0,002	-0,066
-625,692	-75,484	0,133	0,034
-624,678	-57,576	0,034	0,011
-623,663	9,454	-0,127	0,070
-622,649	644,305	0,040	-0,075
-621,634	-200,000	-0,056	-0,301
-620,619	800,000	0,025	-0,077
-619,605	33,398	-0,048	0,030
-618,590	800,000	-0,015	0,046
-617,576	-200,000	-0,017	0,077
-616,561	98,042	0,089	-0,074
-615,546	132,772	-0,041	0,039
-614,532	401,119	-0,061	-0,093
-613,517	209,314	0,123	-0,140
-612,503	314,125	-0,069	-0,095
-611,488	223,516	0,053	0,062
-610,474	14,050	-0,066	0,037
-609,459	649,262	0,045	-0,084
-608,444	-104,956	-0,108	-0,018
-607,430	18,988	-0,096	-0,056
-606,415	363,456	-0,105	-0,153
-605,401	136,454	0,084	0,080
-604,386	156,837	0,055	0,055
-603,371	-63,428	-0,120	0,036
-602,357	800,000	-0,041	-0,114
-601,342	-200,000	0,005	0,042
-600,328	15,386	0,053	-0,030
-599,313	-200,000	0,014	-0,068
-598,298	-200,000	0,007	-0,023
-597,284	380,450	0,065	0,097
-596,269	102,107	0,021	0,018
-595,255	46,609	-0,084	-0,056
-594,240	-76,950	-0,193	-0,048
-593,225	-200,000	-0,008	0,086
-592,211	800,000	-0,010	-0,021
-591,196	-200,000	0,015	0,106
-590,182	-200,000	0,015	0,119
-589,167	-162,805	0,180	0,006
-588,152	800,000	-0,017	-0,036
-587,138	-200,000	0,037	0,140
-586,123	45,700	-0,108	-0,072
-585,109	387,021	-0,098	-0,148
-584,094	-200,000	-0,001	-0,048
-583,079	-200,000	-0,007	-0,048
-582,065	-200,000	0,012	-0,040
-581,050	235,998	0,050	0,060
-580,036	633,232	0,090	0,166
-579,021	-168,871	-0,158	-0,004
-578,006	35,449	-0,036	-0,023
-576,992	-200,000	-0,003	-0,040
-575,977	-94,762	0,110	0,021
-574,963	-116,302	0,079	0,010
-573,948	800,000	-0,037	0,097
-572,934	-70,389	0,062	0,017
-571,919	-14,174	-0,098	-0,045
-570,904	-200,000	0,002	0,102
-569,890	54,754	-0,036	-0,025
-568,875	38,648	-0,065	0,042
-567,861	106,704	0,094	0,081
-566,846	-94,104	-0,137	0,027
-565,831	-200,000	-0,021	-0,080
-564,817	-51,864	0,081	-0,027
-563,802	530,755	0,015	-0,026
-562,788	398,064	-0,067	0,102
-561,773	-106,397	0,139	0,022
-560,758	-200,000	-0,018	0,076
-559,744	800,000	0,070	0,143
-558,729	1,067	0,037	-0,019
-557,715	242,671	-0,054	0,065
-556,700	-200,000	-0,001	0,034
-555,685	-200,000	-0,017	-0,076
-554,671	-200,000	-0,005	0,110
-553,656	-76,517	0,096	-0,024
-552,642	-98,967	0,164	0,030
-551,627	800,000	-0,037	0,097
-550,612	-200,000	-0,024	-0,110
-549,598	-200,000	-0,010	-0,123
-548,583	724,741	-0,068	-0,132
-547,569	99,452	-0,058	0,048
-546,554	-200,000	0,017	-0,061
-545,539	800,000	-0,028	0,082
-544,525	800,000	0,048	0,104
-543,510	440,444	-0,100	0,158
-542,496	800,000	0,024	-0,075
-541,481	6,385	0,096	-0,051
-540,466	-26,796	-0,098	0,041
-539,452	-40,353	0,078	-0,029
-538,437	-200,000	0,018	0,098
-537,423	309,894	0,027	0,037
-536,408	519,909	-0,048	0,081
-535,393	-131,180	-0,130	0,012
-534,379	-200,000	0,005	-0,166
-533,364	-200,000	0,022	-0,182
-532,350	800,000	0,014	-0,029
-531,335	-84,736	0,135	0,030
-530,321	43,246	0,016	-0,010
-529,306	-80,441	-0,177	0,042
-528,291	800,000	0,033	0,083
-527,277	-200,000	-0,026	-0,104
-526,262	800,000	-0,025	0,077
-525,248	-148,647	0,133	-0,008
-524,233	-61,855	0,157	0,047
-523,218	-131,004	-0,042	0,004
-522,204	-74,616	-0,143	0,037
-521,189	27,531	-0,104	-0,063
-520,175	800,000	-0,033	0,077
-519,160	-200,000	0,002	0,073
-518,145	-122,912	-0,048	-0,006
-517,131	-61,466	0,042	-0,013
-516,116	800,000	0,033	0,085
-515,102	-200,000	0,015	0,075
-514,087	261,474	0,041	-0,052
-513,072	800,000	-0,054	-0,114
-512,058	174,234	-0,082	-0,086
-511,043	65,347	0,073	0,054
-510,029	97,401	0,032	0,026
-509,014	-200,000	-0,020	-0,090
-507,999	-34,670	0,031	-0,012
-506,985	800,000	-0,054	-0,134
-505,970	-200,000	-0,035	-0,147
-504,956	-132,618	-0,148	0,013
-503,941	12,474	0,040	-0,022
-502,926	-128,675	0,072	0,007
-501,912	66,287	-0,124	0,091
-500,897	394,891	-0,068	0,103
-499,883	-200,000	0,006	-0,048
-498,868	-200,000	0,043	-0,195
-497,853	-200,000	-0,007	-0,042
-496,839	-79,032	0,099	0,024
-495,824	-200,000	0,002	0,084
-494,810	23,504	0,071	0,042
-493,795	-200,000	-0,014	0,223
-492,781	80,305	-0,035	0,027
-491,766	-155,695	-0,072	-0,003
-490,751	-125,775	0,186	0,020
-489,737	-200,000	0,039	-0,188
-488,722	700,543	-0,062	0,119
-487,708	-200,000	0,014	0,156
-486,693	182,104	0,087	0,092
-485,678	-105,211	0,139	-0,023
-484,664	-200,000	0,025	-0,172
-483,649	79,166	-0,096	-0,074
-482,635	-44,750	0,130	-0,046
-481,620	48,065	0,043	-0,029
-480,605	-200,000	0,000	-0,025
-479,591	61,416	0,107	-0,077
-478,576	42,337	-0,129	-0,085
-477,562	-200,000	-0,003	-0,087
-476,547	45,197	-0,135	-0,089
-475,532	-200,000	0,005	0,061
-474,518	800,000	-0,026	0,052
-473,503	-200,000	0,063	-0,233
-472,489	195,872	-0,058	0,063
-471,474	222,598	-0,047	-0,055
-470,459	189,672	0,109	0,118
-469,445	800,000	-0,030	0,089
-468,430	-200,000	0,054	-0,197
-467,416	-200,000	0,006	0,042
-466,401	-200,000	0,019	0,109
-465,386	28,793	-0,034	-0,020
-464,372	-200,000	0,016	-0,143
-463,357	-13,151	0,009	0,004
-462,343	-131,377	-0,085	-0,008
-461,328	421,087	0,006	0,009
-460,313	345,585	-0,084	0,120
-459,299	323,152	0,087	0,120
-458,284	60,410	0,054	0,038
-457,270	800,000	0,013	-0,037
-456,255	-132,272	-0,145	-0,013
-455,241	-154,463	-0,085	-0,004
-454,226	156,888	0,052	-0,052
-453,211	-25,196	0,034	-0,014
-452,197	482,962	0,056	-0,092
-451,182	800,000	-0,011	0,033
-450,168	360,904	0,010	-0,015
-449,153	800,000	0,030	-0,085
-448,138	-200,000	-0,016	-0,093
-447,124	-200,000	0,005	0,061
-446,109	-91,374	0,226	-0,046
-445,095	267,669	-0,129	0,163
-444,080	118,211	0,041	0,037
-443,065	248,169	0,155	-0,189
-442,051	-200,000	-0,009	0,052
-441,036	-36,718	-0,158	-0,061
-440,022	429,146	0,079	-0,123
-439,007	37,232	0,137	-0,087
-437,992	270,283	0,117	0,149
-436,978	-57,166	0,031	0,010
-435,963	800,000	0,054	-0,155
-434,949	96,780	-0,125	-0,103
-433,934	75,532	-0,060	0,045
-432,919	357,719	0,034	-0,049
-431,905	-200,000	0,008	0,071
-430,890	-62,356	-0,003	-0,001
-429,876	-200,000	-0,022	0,076
-428,861	96,414	0,006	0,005
-427,846	-39,194	0,103	0,039
-426,832	-200,000	-0,001	0,007
-425,817	141,375	-0,025	-0,023
-424,803	173,366	0,084	-0,087
-423,788	800,000	0,064	0,147
-422,773	-200,000	0,005	0,022
-421,759	68,214	0,069	0,051
-420,744	-77,283	0,090	0,022
-419,730	81,977	0,088	0,069
-418,715	-55,926	0,115	-0,037
-417,701	-200,000	-0,025	-0,129
-416,686	-200,000	0,012	-0,064
-415,671	85,054	-0,041	0,032
-414,657	257,959	0,056	0,070
-413,642	-72,311	-0,116	0,031
-412,628	-119,793	-0,063	-0,008
-411,613	-200,000	0,043	0,145
-410,598	396,288	-0,071	-0,106
-409,584	-200,000	0,014	-0,047
-408,569	-89,121	0,053	-0,011
-407,555	800,000	-0,020	0,040
-406,540	389,142	0,051	-0,076
-405,525	365,006	-0,081	-0,117
-404,511	195,674	-0,050	0,054
-403,496	90,585	-0,029	-0,023
-402,482	-9,867	0,122	-0,058
-401,467	282,953	0,006	-0,008
-400,452	22,122	-0,084	-0,049
-399,438	-200,000	-0,001	0,030
-398,423	800,000	-0,028	-0,066
-397,409	31,196	0,078	-0,048
-396,394	798,748	0,022	-0,044
-395,379	-52,811	0,033	-0,011
-394,365	-200,000	0,014	-0,055
-393,350	800,000	-0,054	0,159
-392,336	-200,000	-0,024	0,140
-391,321	65,321	-0,071	0,052
-390,306	-200,000	-0,004	0,023
-389,292	-90,354	-0,080	0,017
-388,277	523,158	-0,081	0,137
-387,263	800,000	0,012	0,031
-386,248	364,536	0,070	0,101
-385,233	-200,000	0,008	0,072
-384,219	-200,000	0,008	0,099
-383,204	-68,338	-0,081	0,023
-382,190	-5,373	-0,148	-0,073
-381,175	-74,609	-0,031	-0,008
-380,160	-81,176	0,050	-0,012
-379,146	-103,166	0,139	0,023
-378,131	-200,000	0,016	-0,132
-377,117	-76,744	0,110	-0,027
-376,102	103,551	-0,061	-0,052
-375,088	-200,000	-0,020	-0,110
-374,073	145,522	0,089	-0,086
-373,058	466,708	0,092	0,148
-372,044	-164,077	0,113	-0,004
-371,029	-70,506	-0,084	0,023
-370,015	-103,275	-0,080	0,013
-369,000	-200,000	-0,010	-0,033
-367,985	237,454	-0,013	-0,016
-366,971	-11,993	-0,055	0,026
-365,956	366,929	0,061	-0,088
-364,942	-200,000	0,012	0,076
-363,927	358,972	-0,086	0,123
-362,912	-134,526	-0,055	-0,005
-361,898	125,379	0,017	0,015
-360,883	159,859	-0,098	-0,098
-359,869	40,389	0,017	0,011
-358,854	-13,885	0,068	-0,031
-357,839	355,740	-0,060	0,086
-356,825	222,420	0,085	-0,098
-355,810	31,249	0,117	0,072
-354,796	800,000	0,024	-0,060
-353,781	800,000	-0,042	-0,109
-352,766	-134,384	-0,094	0,008
-351,752	-137,063	-0,124	0,010
-350,737	-89,016	0,121	0,025
-349,723	-100,604	0,201	0,035
-348,708	560,003	0,015	-0,027
-347,693	311,904	-0,097	-0,131
-346,679	62,911	-0,072	0,051
-345,664	-200,000	-0,022	0,076
-344,650	-85,390	0,049	0,011
-343,635	595,894	0,023	-0,041
-342,620	37,566	0,051	-0,032
-341,606	7,278	-0,090	0,048
-340,591	-45,017	-0,104	-0,037
-339,577	321,871	0,050	-0,068
-338,562	-161,603	-0,099	0,004
-337,548	18,970	-0,107	-0,061
-336,533	-200,000	-0,003	-0,061
-335,518	88,508	0,012	-0,010
-334,504	152,625	0,092	0,090
-333,489	198,106	-0,086	0,094
-332,475	-200,000	0,014	0,058
-331,460	173,564	-0,020	0,020
-330,445	5,995	-0,050	0,026
-329,431	-46,251	-0,082	0,029
-328,416	33,254	-0,027	0,017
-327,402	800,000	0,031	-0,076
-326,387	162,619	-0,070	0,070
-325,372	-200,000	0,010	-0,033
-324,358	-118,759	0,136	0,017
-323,343	-200,000	0,001	0,009
-322,329	-200,000	-0,015	0,070
-321,314	57,717	0,112	-0,078
-320,299	46,240	0,058	0,038
-319,285	-74,148	0,157	0,040
-318,270	76,788	-0,073	-0,056
-317,256	218,723	-0,014	0,016
-316,241	-200,000	0,000	0,013
-315,226	-200,000	-0,029	0,120
-314,212	800,000	0,067	0,146
-313,197	-200,000	0,027	0,147
-312,183	333,872	-0,110	-0,153
-311,168	800,000	0,043	0,092
-310,153	-34,462	-0,139	-0,054
-309,139	-200,000	-0,025	-0,133
-308,124	-30,077	0,061	0,025
-307,110	-200,000	-0,010	0,061
-306,095	-200,000	0,012	0,140
-305,080	-200,000	-0,012	0,121
-304,066	304,004	-0,036	-0,048
-303,051	-200,000	-0,029	-0,103
-302,037	-130,701	-0,069	-0,007
-301,022	-200,000	0,014	-0,133
-300,008	-200,000	0,015	0,180
-298,993	-33,464	0,156	0,062
-297,978	-200,000	-0,016	-0,136
-296,964	51,972	-0,162	0,111
-295,949	653,436	0,087	0,159
-294,935	32,656	0,074	-0,046
-293,920	-200,000	-0,012	0,087
-292,905	-77,434	0,069	0,017
-291,891	74,204	0,056	0,042
-290,876	-15,869	-0,154	0,070
-289,862	-31,894	0,077	-0,031
-288,847	-143,265	-0,123	0,008
-287,832	800,000	-0,027	-0,071
-286,818	144,134	-0,076	0,072
-285,803	-33,727	-0,095	-0,037
-284,789	-200,000	0,008	0,065
-283,774	-67,700	0,052	0,015
-282,759	-138,643	-0,136	-0,010
-281,745	79,649	-0,065	-0,050
-280,730	-200,000	-0,021	0,068
-279,716	-200,000	0,022	0,085
-278,701	-182,019	0,106	0,001
-277,686	-115,857	-0,045	-0,006
-276,672	172,481	0,063	0,065
-275,657	356,691	-0,027	0,038
-274,643	-50,303	0,103	-0,034
-273,628	-25,306	-0,220	0,093
-272,613	100,457	-0,017	0,014
-271,599	318,849	0,057	0,077
-270,584	155,192	0,153	-0,151
-269,570	-200,000	0,007	-0,144
-268,555	-123,240	0,095	0,011
-267,540	217,320	0,098	-0,111
-266,526	-200,000	0,013	-0,215
-265,511	-115,717	0,046	0,006
-264,497	800,000	-0,100	0,215
-263,482	652,710	-0,051	0,093
-262,467	-200,000	-0,022	0,166
-261,453	434,691	0,026	0,041
-260,438	-178,783	-0,128	0,002
-259,424	290,439	0,043	-0,056
-258,409	489,814	-0,058	0,096
-257,395	-200,000	0,022	-0,082
-256,380	-200,000	0,020	-0,117
-255,365	19,012	-0,097	0,056
-254,351	-200,000	-0,070	0,000
-253,336	800,000	-0,061	-0,141
-252,322	627,220	0,015	-0,028
-251,307	101,028	-0,057	-0,048
-250,292	800,000	-0,034	-0,071
-249,278	-148,669	0,126	0,007
-248,263	238,745	0,147	0,175
-247,249	-51,963	0,071	0,024
-246,234	-200,000	-0,006	-0,044
-245,219	-5,408	-0,166	-0,081
-244,205	625,811	-0,050	-0,090
-243,190	-100,740	-0,042	-0,007
-242,176	149,314	0,058	0,056
-241,161	5,578	-0,085	0,045
-240,146	800,000	0,023	-0,062
-239,132	-66,232	0,116	-0,033
-238,117	43,329	0,047	0,030
-237,103	-17,881	-0,077	-0,034
-236,088	-200,000	0,001	0,130
-235,073	120,364	0,013	0,011
-234,059	15,813	0,119	0,067
-233,044	-200,000	0,000	0,162
-232,030	48,805	0,062	-0,041
-231,015	800,000	-0,077	-0,162
-230,000	751,644	-0,061	0,119
-228,986	370,771	0,076	0,111
-227,971	423,847	0,034	-0,052
-226,957	-122,798	0,205	-0,023
-225,942	-34,053	0,061	0,024
-224,927	-23,101	-0,143	0,061
-223,913	116,183	-0,098	-0,086
-222,898	-89,375	-0,118	-0,025
-221,884	-200,000	0,027	-0,131
-220,869	520,675	0,077	0,130
-219,855	290,190	0,099	0,128
-218,840	-200,000	0,029	0,118
-217,825	228,904	-0,037	0,043
-216,811	310,537	0,036	-0,048
-215,796	800,000	0,102	-0,226
-214,782	-90,978	-0,081	-0,017
-213,767	-200,000	-0,039	0,145
-212,752	-200,000	-0,003	0,080
-211,738	195,471	0,092	0,099
-210,723	-26,002	-0,071	0,030
-209,709	230,524	-0,113	-0,132
-208,694	83,235	-0,097	-0,075
-207,679	-82,777	-0,047	-0,011
-206,665	89,070	0,155	0,123
-205,650	213,791	0,044	-0,050
-204,636	77,756	0,096	0,073
-203,621	-200,000	-0,009	0,042
-202,606	-9,713	-0,043	0,020
-201,592	-114,690	-0,048	-0,006
-200,577	-200,000	0,001	-0,039
-199,563	266,275	0,054	0,067
-198,548	-33,408	-0,160	0,063
-197,533	70,043	0,082	0,060
-196,519	231,602	-0,063	-0,073
-195,504	-54,166	-0,058	-0,019
-194,490	-200,000	-0,007	-0,049
-193,475	111,689	-0,089	-0,077
-192,460	-200,000	0,009	-0,094
-191,446	800,000	-0,027	-0,069
-190,431	-44,285	0,046	-0,016
-189,417	498,602	-0,100	0,164
-188,402	-46,560	0,070	0,024
-187,387	-70,106	0,110	-0,029
-186,373	-120,216	-0,059	0,007
-185,358	553,943	-0,051	0,089
-184,344	529,110	0,009	0,015
-183,329	-122,362	-0,203	0,023
-182,315	446,974	0,006	0,009
-181,300	800,000	0,022	-0,062
-180,285	-200,000	0,022	0,075
-179,271	800,000	0,027	-0,053
-178,256	162,928	-0,110	-0,110
-177,242	210,015	0,098	0,110
-176,227	329,509	0,021	-0,029
-175,212	117,927	-0,046	0,040
-174,198	74,250	-0,065	-0,049
-173,183	800,000	-0,076	-0,184
-172,169	-92,897	0,157	-0,031
-171,154	-99,926	0,066	0,012
-170,139	-11,918	0,062	0,029
-169,125	382,080	0,064	0,094
-168,110	62,271	-0,104	0,074
-167,096	800,000	0,024	-0,053
-166,081	800,000	-0,065	-0,202
-165,066	-200,000	-0,047	-0,242
-164,052	-200,000	-0,009	-0,059
-163,037	-153,538	0,023	-0,001
-162,023	-25,521	0,145	0,061
-161,008	351,026	-0,039	-0,055
-159,993	-12,168	0,068	0,032
-158,979	3,748	-0,038	-0,020
-157,964	716,154	0,032	-0,060
-156,950	-200,000	0,022	-0,139
-155,935	-200,000	0,013	-0,070
-154,920	-200,000	0,017	0,103
-153,906	800,000	0,023	-0,051
-152,891	179,893	0,070	0,073
-151,877	-176,721	-0,036	0,001
-150,862	787,282	-0,031	-0,062
-149,847	-67,383	-0,093	0,026
-148,833	800,000	-0,045	0,130
-147,818	800,000	-0,048	0,100
-146,804	-62,361	-0,166	0,049
-145,789	-200,000	-0,012	0,224
-144,775	-8,826	-0,088	-0,042
-143,760	-200,000	0,027	-0,113
-142,745	-114,590	-0,107	-0,014
-141,731	10,915	-0,111	-0,060
-140,716	-129,317	0,100	-0,010
-139,702	-57,658	0,144	-0,045
-138,687	-91,305	0,064	0,013
-137,672	311,045	0,056	0,075
-136,658	-65,924	-0,043	-0,012
-135,643	21,780	-0,016	0,009
-134,629	-139,040	-0,064	0,005
-133,614	800,000	0,049	0,123
-132,599	48,243	-0,035	0,023
-131,585	800,000	-0,024	0,066
-130,570	-1,489	0,074	-0,037
-129,556	73,159	0,066	-0,049
-128,541	609,832	-0,048	-0,085
-127,526	800,000	0,046	-0,142
-126,512	-76,157	-0,081	0,020
-125,497	-200,000	0,028	0,103
-124,483	409,990	0,069	0,104
-123,468	241,968	-0,042	0,051
-122,453	-200,000	-0,046	-0,183
-121,439	800,000	0,030	0,086
-120,424	798,350	0,035	-0,068
-119,410	-68,268	-0,007	-0,002
-118,395	478,897	0,067	0,109
-117,380	18,654	0,121	0,069
-116,366	800,000	-0,020	0,056
-115,351	-200,000	-0,020	0,099
-114,337	-155,409	0,050	-0,002
-113,322	177,663	-0,106	0,110
-112,307	427,846	-0,064	0,098
-111,293	193,018	0,098	0,105
-110,278	-200,000	0,037	0,202
-109,264	800,000	0,051	0,155
-108,249	800,000	-0,029	0,067
-107,234	-200,000	-0,019	-0,116
-106,220	125,630	0,089	-0,080
-105,205	-24,560	0,073	0,031
-104,191	-168,671	-0,115	-0,003
-103,176	170,041	-0,064	0,066
-102,162	180,578	-0,050	0,053
-101,147	43,284	0,055	0,036
-100,132	-85,438	-0,093	-0,020
-99,118	256,662	0,076	0,093
-98,103	-200,000	-0,007	0,114
-97,089	-22,221	-0,090	0,038
-96,074	115,750	-0,028	0,025
-95,059	128,050	-0,072	-0,065
-94,045	258,284	-0,135	-0,166
-93,030	-19,368	-0,132	-0,058
-92,016	-200,000	-0,023	-0,074
-91,001	372,143	-0,064	-0,092
-89,986	391,965	0,033	0,049
-88,972	800,000	0,089	0,220
-87,957	-38,193	-0,074	-0,028
-86,943	-98,999	0,076	-0,014
-85,928	34,812	-0,149	0,092
-84,913	293,543	-0,024	0,031
-83,899	-200,000	-0,003	-0,087
-82,884	800,000	0,091	-0,193
-81,870	-116,504	0,062	-0,008
-80,855	225,520	0,045	-0,052
-79,840	427,629	0,070	0,107
-78,826	-34,244	-0,045	-0,017
-77,811	-16,169	-0,057	0,026
-76,797	-200,000	0,010	0,174
-75,782	800,000	-0,024	0,073
-74,767	800,000	0,040	0,107
-73,753	534,912	-0,075	0,126
-72,738	800,000	-0,037	0,105
-71,724	-200,000	-0,005	0,121
-70,709	-129,966	0,047	0,005
-69,694	-200,000	0,004	-0,050
-68,680	-153,897	-0,088	0,004
-67,665	98,698	0,050	0,041
-66,651	-10,819	0,084	0,039
-65,636	-106,219	-0,062	0,010
-64,622	-200,000	-0,028	-0,105
-63,607	-200,000	0,002	0,010
-62,592	536,081	-0,080	-0,134
-61,578	347,866	-0,056	0,078
-60,563	-15,674	0,078	0,035
-59,549	138,168	-0,100	0,093
-58,534	-73,170	-1,425	-0,368
-57,519	427,939	-1,428	-2,194
-56,505	-200,000	-0,529	-4,526
-55,490	190,370	0,911	0,971
-54,476	800,000	4,697	10,956
-53,461	-200,000	17,881	286,498
-52,446	800,000	724,989	2230,316
-51,432	558,607	1640,471	2817,180
-50,417	80,132	1663,016	1266,810
-49,403	23,368	1536,839	893,199
-48,388	17,340	1460,208	819,492
-47,373	18,056	1450,213	817,297
-46,359	17,589	1440,440	809,528
-45,344	15,617	1436,031	797,608
-44,330	15,545	1433,899	796,048
-43,315	15,561	1432,226	795,165
-42,300	15,581	1430,647	794,352
-41,286	15,624	1429,582	793,937
-40,271	15,600	1428,090	792,958
-39,257	15,596	1426,822	792,207
-38,242	15,581	1425,749	791,505
-37,227	15,605	1424,223	790,742
-36,213	15,605	1422,979	790,022
-35,198	15,585	1422,051	789,380
-34,184	15,600	1421,188	788,938
-33,169	15,541	1419,678	787,792
-32,154	15,634	1418,713	787,666
-31,140	15,598	1417,472	786,772
-30,125	15,630	1416,075	786,119
-29,111	15,636	1415,096	785,569
-28,096	15,606	1413,891	784,730
-27,082	15,499	1413,128	783,773
-26,067	15,540	1411,740	783,166
-25,052	15,557	1410,896	782,745
-24,038	15,509	1410,009	781,995
-23,023	15,529	1408,706	781,337
-22,009	15,487	1407,720	780,560
-20,994	15,494	1406,800	780,052
-19,979	15,501	1405,938	779,575
-18,965	15,477	1404,824	778,817
-17,950	15,500	1403,996	778,432
-16,936	15,446	1403,091	777,649
-15,921	15,401	1401,895	776,748
-14,906	15,414	1400,907	776,231
-13,892	15,445	1400,031	775,857
-12,877	15,412	1399,096	775,154
-11,863	15,420	1397,994	774,552
-10,848	15,404	1397,394	774,113
-9,833	15,394	1396,263	773,411
-8,819	15,348	1395,304	772,635
-7,804	15,303	1394,614	772,013
-6,790	15,311	1393,437	771,370
-5,775	15,330	1392,491	770,903
-4,760	15,330	1391,571	770,364
-3,746	15,341	1390,770	769,937
-2,731	15,300	1390,230	769,420
-1,717	15,322	1389,077	768,851
-0,702	15,308	1387,299	767,776
0,313	19,186	1307,220	741,373
1,327	35,658	707,600	439,537
2,342	54,798	125,115	85,399
3,356	5,267	16,531	8,606
4,371	3,468	3,119	1,605
5,386	64,615	0,506	0,361
6,400	589,810	0,092	0,162
7,415	800,000	-0,122	-0,240
8,429	56,277	-0,333	-0,229
9,444	83,820	-0,355	-0,274
10,459	104,943	-0,262	-0,218
11,473	-0,289	-0,222	-0,111
12,488	-29,837	-0,272	-0,109
13,502	-54,559	-0,327	-0,104
14,517	-55,075	-0,348	-0,110
15,531	56,670	-0,306	-0,210
16,546	-19,498	-0,238	-0,104
17,561	182,542	-0,292	-0,305
18,575	-95,981	-0,279	-0,052
19,590	305,471	-0,140	-0,185
20,604	-48,422	-0,284	-0,096
21,619	81,078	-0,411	-0,313
22,634	152,967	-0,368	-0,356
23,648	-16,460	-0,546	-0,244
24,663	67,516	-0,415	-0,299
25,677	203,184	-0,340	-0,372
26,692	-32,804	-0,319	-0,125
27,707	321,002	-0,242	-0,326
28,721	194,700	-0,290	-0,311
29,736	5,964	-0,453	-0,237
30,750	53,860	-0,348	-0,236
31,765	98,641	-0,335	-0,273
32,780	433,418	-0,230	-0,354
33,794	87,985	-0,358	-0,281
34,809	239,183	-0,303	-0,357
35,823	68,930	-0,360	-0,261
36,838	415,866	-0,259	-0,392
37,853	50,595	-0,423	-0,282
38,867	56,565	-0,324	-0,222
39,882	95,843	-0,392	-0,316
40,896	69,890	-0,311	-0,227
41,911	82,340	-0,349	-0,267
42,926	-11,168	-0,320	-0,148
43,940	163,562	-0,357	-0,355
44,955	107,415	-0,293	-0,246
45,969	261,030	-0,264	-0,323
46,984	28,149	-0,256	-0,152
47,999	79,253	-0,319	-0,241
49,013	54,519	-0,289	-0,197
50,028	-134,994	-0,290	0,024
51,042	-15,773	-0,363	-0,163
52,057	-21,170	-0,451	-0,194
53,071	49,066	-0,332	-0,220
54,086	-36,005	-0,402	-0,152
55,101	800,000	-0,204	-0,460
56,115	39,235	-0,300	-0,189
57,130	-77,331	-0,357	-0,087
58,144	126,626	-0,326	-0,291
59,159	224,294	-0,332	-0,379
60,174	43,240	-0,425	-0,273
61,188	-6,762	-0,341	-0,163
62,203	103,404	-0,379	-0,313
63,217	66,885	-0,282	-0,202
64,232	-104,290	-0,274	-0,044
65,247	37,803	-0,372	-0,232
66,261	47,087	-0,330	-0,216
67,276	73,054	-0,384	-0,283
68,290	87,976	-0,297	-0,232
69,305	66,753	-0,284	-0,203
70,320	90,040	-0,311	-0,245
71,334	44,684	-0,298	-0,192
72,349	34,969	-0,257	-0,158
73,363	112,514	-0,354	-0,302
74,378	264,934	-0,252	-0,310
75,393	7,400	-0,353	-0,185
76,407	128,122	-0,267	-0,239
77,422	-25,306	-0,318	-0,132
78,436	-158,853	-0,307	-0,012
79,451	45,910	-0,398	-0,258
80,466	-64,134	-0,405	-0,115
81,480	9,663	-0,393	-0,209
82,495	261,561	-0,182	-0,222
83,509	-10,021	-0,332	-0,155
84,524	-44,399	-0,253	-0,089
85,539	-87,026	-0,333	-0,071
86,553	42,483	-0,283	-0,181
87,568	51,100	-0,349	-0,233
88,582	-50,608	-0,324	-0,107
89,597	-39,182	-0,321	-0,118
90,611	337,379	-0,218	-0,299
91,626	85,795	-0,242	-0,187
92,641	-139,737	-0,264	-0,019
93,655	-134,503	-0,270	-0,023
94,670	35,330	-0,365	-0,224
95,684	-21,689	-0,425	-0,181
96,699	103,474	-0,394	-0,324
97,714	280,146	-0,232	-0,292
98,728	52,663	-0,226	-0,151
99,743	-48,185	-0,329	-0,111
100,757	287,659	-0,168	-0,213
101,772	-65,927	-0,420	-0,117
102,787	65,272	-0,309	-0,219
103,801	-16,202	-0,259	-0,115
104,816	-52,658	-0,319	-0,103
105,830	105,071	-0,203	-0,168
106,845	-9,015	-0,239	-0,112
107,860	53,917	-0,155	-0,104
108,874	756,039	-0,153	-0,291
109,889	-185,210	-0,335	0,004
110,903	299,894	-0,246	-0,319
111,918	78,705	-0,274	-0,205
112,933	248,549	-0,254	-0,302
113,947	71,128	-0,113	-0,082
114,962	14,346	-0,281	-0,154
115,976	171,014	-0,242	-0,243
116,991	36,862	-0,287	-0,178
118,006	133,248	-0,166	-0,151
119,020	380,767	-0,190	-0,274
120,035	-33,860	-0,233	-0,090
121,049	121,387	-0,214	-0,187
122,064	-42,257	-0,339	-0,121
123,079	130,484	-0,165	-0,148
124,093	62,737	-0,346	-0,242
125,108	-39,639	-0,272	-0,099
126,122	-105,780	-0,237	-0,037
127,137	84,047	-0,178	-0,136
128,151	100,380	-0,205	-0,166
129,166	245,479	-0,153	-0,181
130,181	-39,269	-0,271	-0,099
131,195	197,319	-0,278	-0,297
132,210	-31,349	-0,163	-0,064
133,224	31,733	-0,140	-0,084
134,239	94,107	-0,252	-0,200
135,254	-6,074	-0,172	-0,082
136,268	14,094	-0,277	-0,151
137,283	88,040	-0,247	-0,192
138,297	38,815	-0,262	-0,163
139,312	157,108	-0,207	-0,200
140,327	31,902	-0,234	-0,140
141,341	131,339	-0,300	-0,270
142,356	59,304	-0,130	-0,089
143,370	-63,774	-0,248	-0,071
144,385	-37,335	-0,319	-0,119
145,400	60,011	-0,289	-0,200
146,414	-30,365	-0,254	-0,100
147,429	109,636	-0,220	-0,184
148,443	143,676	-0,251	-0,234
149,458	135,105	-0,201	-0,182
150,473	275,145	-0,152	-0,189
151,487	8,612	-0,350	-0,184
152,502	64,240	-0,316	-0,222
153,516	355,670	-0,210	-0,293
154,531	-96,438	-0,316	-0,058
155,546	-46,300	-0,198	-0,068
156,560	248,110	-0,208	-0,246
157,575	152,557	-0,266	-0,254
158,589	800,000	-0,132	-0,264
159,604	6,822	-0,272	-0,141
160,619	509,069	-0,197	-0,321
161,633	143,185	-0,268	-0,249
162,648	145,629	-0,162	-0,152
163,662	375,021	-0,138	-0,197
164,677	68,679	-0,260	-0,186
165,692	-148,229	-0,108	0,006
166,706	31,351	-0,293	-0,175
167,721	198,964	-0,324	-0,347
168,735	170,744	-0,267	-0,268
169,750	206,071	-0,113	-0,123
170,764	14,639	-0,167	-0,091
171,779	10,794	-0,177	-0,094
172,794	-27,765	-0,246	-0,099
173,808	-69,776	-0,255	-0,067
174,823	-21,726	-0,270	-0,114
175,837	101,588	-0,256	-0,208
176,852	378,913	-0,153	-0,220
177,867	-75,674	-0,281	0,069
178,881	85,251	-0,237	-0,181
179,896	11,718	-0,189	-0,101
180,910	-58,938	-0,219	0,066
181,925	-63,263	-0,162	-0,046
182,940	57,905	-0,215	-0,147
183,954	10,028	-0,232	-0,123
184,969	30,086	-0,223	-0,132
185,983	100,873	-0,252	-0,204
186,998	542,908	-0,089	-0,149
188,013	610,003	-0,117	-0,205
189,027	722,902	-0,153	-0,285
190,042	-60,206	-0,315	-0,093
191,056	5,578	-0,238	-0,122
192,071	99,255	-0,182	-0,147
193,086	34,095	-0,167	-0,101
194,100	135,009	-0,293	-0,266
195,115	18,942	-0,162	-0,090
196,129	62,477	-0,139	-0,097
197,144	165,030	-0,191	-0,188
198,159	515,700	-0,180	-0,294
199,173	0,778	-0,195	-0,097
200,188	800,000	-0,086	-0,181
201,202	90,273	-0,080	-0,062
202,217	299,803	-0,094	-0,121
203,232	145,678	-0,174	-0,163
204,246	83,163	-0,265	-0,201
205,261	-60,317	-0,192	-0,056
206,275	128,596	-0,255	-0,226
207,290	-31,971	-0,261	-0,101
208,304	-62,347	-0,193	-0,056
209,319	50,652	-0,123	-0,081
210,334	49,166	-0,281	-0,184
211,348	256,692	-0,209	-0,250
212,363	-32,583	-0,192	-0,074
213,377	214,714	-0,245	-0,270
214,392	-24,512	-0,090	-0,037
215,407	69,037	-0,024	-0,017
216,421	-45,884	-0,246	-0,084
217,436	82,412	-0,182	-0,137
218,450	33,434	-0,241	-0,145
219,465	198,295	-0,224	-0,239
220,480	-200,000	-0,076	-0,271
221,494	-56,878	-0,164	0,050
222,509	-65,578	-0,220	0,061
223,523	329,912	-0,150	-0,201
224,538	10,554	-0,251	-0,133
225,553	66,924	-0,245	-0,173
226,567	-125,259	-0,228	-0,024
227,582	800,000	-0,092	-0,232
228,596	208,962	-0,140	-0,152
229,611	344,608	-0,181	-0,248
230,626	800,000	-0,076	-0,231
231,640	67,466	-0,096	-0,068
232,655	203,730	-0,171	-0,183
233,669	44,445	-0,254	-0,162
234,684	-55,088	-0,239	-0,074
235,699	195,439	-0,182	-0,192
236,713	144,295	-0,124	-0,115
237,728	24,854	-0,274	-0,157
238,742	800,000	-0,084	-0,178
239,757	408,254	-0,178	-0,262
240,772	132,323	-0,261	-0,234
241,786	-113,214	-0,264	-0,036
242,801	748,535	-0,078	-0,146
243,815	-2,613	-0,109	-0,052
244,830	-14,274	-0,232	-0,103
245,844	97,091	-0,231	-0,183
246,859	151,999	-0,159	-0,150
247,874	-38,572	-0,209	-0,076
248,888	174,955	-0,191	-0,192
249,903	341,957	-0,186	-0,253
250,917	-68,919	-0,176	-0,047
251,932	-40,359	-0,217	-0,078
252,947	-43,705	-0,154	-0,053
253,961	-69,268	-0,256	-0,068
254,976	59,112	-0,161	-0,110
255,990	-86,653	-0,204	-0,043
257,005	-41,593	-0,152	-0,054
258,020	79,884	-0,152	-0,113
259,034	206,703	-0,130	-0,140
260,049	-200,000	-0,025	-0,153
261,063	-101,909	-0,225	-0,037
262,078	123,140	-0,137	-0,119
263,093	-35,137	-0,275	-0,103
264,107	29,699	-0,135	-0,079
265,122	450,706	-0,068	-0,104
266,136	-200,000	-0,058	-0,213
267,151	53,350	-0,178	-0,118
268,166	-27,455	-0,134	-0,054
269,180	65,937	-0,184	-0,129
270,195	-200,000	-0,046	-0,171
271,209	61,923	-0,111	-0,077
272,224	800,000	-0,087	-0,204
273,239	800,000	-0,060	-0,176
274,253	42,897	-0,092	-0,058
275,268	-70,967	-0,318	-0,082
276,282	-1,782	-0,161	-0,078
277,297	-96,609	-0,209	-0,038
278,312	1,101	-0,256	-0,127
279,326	-120,235	-0,062	0,007
280,341	-175,536	-0,248	-0,005
281,355	-41,684	-0,172	0,061
282,370	100,472	-0,124	-0,099
283,384	184,236	-0,128	-0,131
284,399	36,088	-0,126	-0,076
285,414	10,261	-0,249	-0,131
286,428	800,000	-0,132	-0,290
287,443	142,464	-0,135	-0,124
288,457	800,000	-0,105	-0,209
289,472	-200,000	-0,007	-0,103
290,487	240,769	-0,129	-0,149
291,501	146,743	-0,134	-0,125
292,516	-30,537	-0,220	-0,086
293,530	-20,010	-0,200	-0,085
294,545	800,000	-0,042	-0,118
295,560	290,149	-0,154	-0,194
296,574	260,714	-0,177	-0,212
297,589	92,716	-0,101	-0,079
298,603	62,439	-0,090	-0,062
299,618	64,726	-0,224	-0,156
300,633	216,277	-0,173	-0,190
301,647	-200,000	-0,032	-0,222
302,662	98,834	-0,203	-0,162
303,676	-1,806	-0,128	0,062
304,691	-78,608	-0,133	-0,031
305,706	79,721	-0,171	-0,127
306,720	45,282	-0,176	-0,112
307,735	-28,821	-0,164	-0,065
308,749	38,283	-0,180	-0,111
309,764	78,797	-0,111	-0,082
310,779	-36,088	-0,208	-0,077
311,793	113,596	0,016	-0,014
312,808	163,531	-0,102	-0,099
313,822	108,426	-0,101	-0,083
314,837	141,902	-0,188	-0,172
315,852	5,594	-0,160	-0,081
316,866	800,000	-0,065	-0,130
317,881	-39,168	-0,175	-0,063
318,895	243,072	-0,104	-0,120
319,910	-45,956	-0,163	-0,055
320,925	800,000	0,066	-0,128
321,939	-97,547	-0,082	-0,014
322,954	3,700	-0,193	-0,097
323,968	236,404	-0,119	-0,135
324,983	281,886	-0,164	-0,203
325,997	100,023	-0,062	-0,049
327,012	-173,835	-0,065	-0,001
328,027	-124,296	-0,203	-0,022
329,041	-141,225	-0,177	-0,012
330,056	221,405	-0,148	-0,164
331,070	-200,000	-0,041	-0,247
332,085	-116,302	-0,238	-0,030
333,100	-54,580	-0,183	-0,057
334,114	-18,256	-0,189	-0,081
335,129	-4,076	-0,140	-0,067
336,143	-99,029	-0,158	0,027
337,158	119,222	-0,132	-0,113
338,173	105,786	-0,166	-0,135
339,187	-23,956	-0,119	0,049
340,202	-88,568	-0,244	-0,050
341,216	567,165	-0,143	-0,240
342,231	206,510	-0,086	-0,092
343,246	-112,882	-0,175	0,024
344,260	217,775	-0,137	-0,150
345,275	145,536	-0,055	-0,050
346,289	93,050	-0,097	0,075
347,304	-37,244	-0,160	-0,058
348,319	-15,257	-0,089	-0,039
349,333	-200,000	-0,021	-0,140
350,348	180,852	-0,178	-0,179
351,362	-28,565	-0,080	-0,032
352,377	47,130	-0,243	-0,155
353,392	-200,000	-0,043	-0,250
354,406	92,594	-0,069	-0,054
355,421	209,204	1315,368	1416,825
356,435	161,004	1476,190	1417,338
