DTS Sentinel unit serial number:	SN410029Multiplexer serial number:	ORYXHardware model number:	OX2-SRSoftware version number:	ORYX F/W v4,00 Oryx Data Collector v3.7.2.0data status	okinstallation	B3 Nyhavnadifferential loss correction	single-endedforward channel	channel 1reverse channel	N/Adate	2023/11/30time	20:32:30forward acquisition time	300,00reverse acquisition time	0,00gamma	499,1914k internal	0,3208k external	0,3208temperature offset calibration	1,0000default loss term (dB/km)	0,3820temperature slope calibration	1,0000multiplexer offset coefficient	1,0000multiplexer slope coefficient	1,0000fibre end	0,00T internal ref (°C)	11,22T ext. ref 1 (°C)	-4,16T ext. ref 2 (°C)	-4,29length (m)	temperature (°C)	Stokes	anti-Stokes-744,400	-200,000	-0,018	-0,177
-743,385	-200,000	0,016	0,326
-742,371	-200,000	-0,098	-0,339
-741,356	-200,000	0,047	0,198
-740,342	172,700	-0,166	-0,173
-739,327	-200,000	-0,030	0,305
-738,312	197,823	-0,150	-0,167
-737,298	-200,000	0,008	0,264
-736,283	90,576	-0,243	-0,198
-735,269	-200,000	0,039	0,184
-734,254	65,309	-0,293	-0,215
-733,239	391,824	-0,143	0,216
-732,225	495,761	-0,157	-0,263
-731,210	60,486	0,087	0,063
-730,196	118,064	-0,060	-0,054
-729,181	-200,000	0,003	-0,129
-728,167	119,060	-0,017	-0,015
-727,152	800,000	-0,042	0,105
-726,137	-183,502	-0,071	-0,001
-725,123	-200,000	0,015	-0,114
-724,108	21,242	-0,104	-0,061
-723,094	-95,130	-0,081	-0,016
-722,079	731,042	0,076	-0,147
-721,064	95,508	-0,062	0,051
-720,050	-154,692	-0,025	-0,001
-719,035	242,902	-0,032	-0,038
-718,021	-118,368	-0,159	0,020
-717,006	8,308	-0,053	0,029
-715,991	-78,619	-0,085	0,021
-714,977	-68,812	-0,133	-0,037
-713,962	389,595	0,072	-0,108
-712,948	113,784	0,021	-0,018
-711,933	-200,000	-0,006	-0,026
-710,918	227,751	-0,097	0,114
-709,904	-20,695	0,046	0,021
-708,889	-200,000	0,007	-0,059
-707,875	-119,061	0,033	-0,004
-706,860	-200,000	0,006	0,027
-705,845	-65,632	-0,017	0,005
-704,831	-10,748	-0,082	-0,039
-703,816	-200,000	-0,011	0,084
-702,802	-96,595	-0,026	0,005
-701,787	116,854	-0,156	-0,139
-700,772	-49,030	-0,017	0,006
-699,758	-200,000	-0,008	-0,065
-698,743	1,429	0,043	-0,022
-697,729	-12,067	-0,029	0,014
-696,714	-200,000	0,034	0,122
-695,699	54,637	-0,107	-0,074
-694,685	21,964	0,064	-0,038
-693,670	465,411	-0,037	0,060
-692,656	800,000	0,033	-0,106
-691,641	800,000	-0,030	-0,072
-690,627	800,000	-0,015	0,036
-689,612	-200,000	0,017	0,062
-688,597	-200,000	0,006	0,131
-687,583	-6,304	-0,092	-0,045
-686,568	273,176	0,011	0,014
-685,554	-200,000	0,000	0,018
-684,539	-71,147	0,095	0,026
-683,524	-68,794	0,084	-0,023
-682,510	102,200	-0,137	-0,116
-681,495	-92,707	0,219	-0,044
-680,481	800,000	-0,087	0,187
-679,466	-186,929	-0,077	-0,001
-678,451	-111,823	-0,114	-0,016
-677,437	-200,000	-0,008	-0,081
-676,422	406,655	0,066	0,101
-675,408	-35,310	-0,175	0,068
-674,393	231,622	0,037	-0,044
-673,378	124,855	-0,123	0,112
-672,364	-200,000	-0,038	-0,179
-671,349	-200,000	-0,007	0,127
-670,335	-200,000	0,004	-0,013
-669,320	299,269	-0,016	-0,021
-668,305	175,570	0,134	-0,141
-667,291	-102,520	-0,090	0,015
-666,276	-177,597	-0,202	-0,003
-665,262	126,217	-0,135	-0,123
-664,247	16,718	-0,158	-0,090
-663,232	-200,000	0,011	-0,115
-662,218	288,525	0,048	-0,063
-661,203	211,245	0,110	-0,125
-660,189	5,497	0,091	-0,048
-659,174	800,000	-0,015	-0,039
-658,159	9,319	-0,051	0,028
-657,145	393,294	-0,044	-0,067
-656,130	175,656	-0,060	0,063
-655,116	240,100	0,082	0,099
-654,101	-137,810	-0,054	-0,004
-653,086	-126,255	0,134	0,014
-652,072	9,431	-0,061	-0,033
-651,057	-59,562	-0,108	-0,033
-650,043	519,518	-0,063	-0,107
-649,028	-123,924	0,015	-0,002
-648,014	40,734	0,116	0,075
-646,999	680,333	0,013	0,024
-645,984	-103,960	0,115	-0,019
-644,970	-148,701	-0,079	0,005
-643,955	118,258	-0,096	0,085
-642,941	52,456	-0,052	0,036
-641,926	134,749	0,051	-0,048
-640,911	800,000	-0,068	0,157
-639,897	245,766	0,046	-0,057
-638,882	800,000	0,032	0,079
-637,868	-200,000	0,012	-0,120
-636,853	575,686	0,059	0,105
-635,838	-46,767	-0,164	-0,058
-634,824	-4,706	0,052	-0,026
-633,809	206,096	-0,017	-0,019
-632,795	487,223	-0,079	0,131
-631,780	800,000	0,090	0,204
-630,765	-200,000	-0,020	-0,115
-629,751	-200,000	-0,003	-0,069
-628,736	-76,922	0,053	0,013
-627,722	-200,000	0,017	0,071
-626,707	-127,947	-0,117	-0,012
-625,692	49,891	0,146	0,099
-624,678	728,621	-0,040	0,077
-623,663	-200,000	-0,014	0,047
-622,649	-200,000	-0,014	-0,048
-621,634	77,500	0,093	-0,071
-620,619	-200,000	0,008	-0,068
-619,605	199,144	0,130	0,144
-618,590	-200,000	0,027	0,098
-617,576	-51,820	-0,025	0,008
-616,561	800,000	0,015	0,030
-615,546	-132,943	-0,092	0,008
-614,532	370,276	0,017	-0,024
-613,517	-200,000	0,002	-0,083
-612,503	-200,000	-0,012	-0,068
-611,488	401,718	-0,024	-0,037
-610,474	800,000	-0,024	-0,051
-609,459	-36,768	-0,134	-0,052
-608,444	710,357	-0,106	-0,203
-607,430	-200,000	-0,017	-0,172
-606,415	-60,313	-0,102	-0,031
-605,401	-200,000	-0,006	-0,040
-604,386	-200,000	0,012	0,070
-603,371	329,824	-0,130	0,181
-602,357	-200,000	0,022	-0,178
-601,342	-8,647	-0,072	0,035
-600,328	-200,000	0,009	-0,113
-599,313	13,149	-0,127	0,071
-598,298	-200,000	-0,010	-0,040
-597,284	-170,101	0,150	0,004
-596,269	800,000	-0,051	0,143
-595,255	-2,854	0,081	0,040
-594,240	26,557	-0,038	-0,023
-593,225	134,824	0,017	-0,016
-592,211	-200,000	-0,039	-0,182
-591,196	-200,000	0,002	-0,020
-590,182	-103,076	-0,214	-0,036
-589,167	800,000	-0,014	-0,028
-588,152	-74,956	0,066	-0,017
-587,138	-184,075	-0,112	-0,001
-586,123	34,156	-0,120	-0,075
-585,109	-2,636	-0,080	-0,040
-584,094	261,148	-0,071	0,089
-583,079	-20,008	-0,172	0,076
-582,065	135,889	0,155	0,146
-581,050	800,000	-0,005	0,015
-580,036	13,294	0,023	0,013
-579,021	371,049	0,021	-0,031
-578,006	-75,552	-0,079	0,020
-576,992	4,257	-0,044	-0,023
-575,977	800,000	-0,037	-0,113
-574,963	147,064	0,087	-0,084
-573,948	-200,000	0,032	-0,106
-572,934	255,267	-0,118	0,146
-571,919	207,974	-0,079	-0,089
-570,904	678,666	-0,063	-0,118
-569,890	800,000	0,014	-0,028
-568,875	-89,912	0,089	-0,018
-567,861	-129,283	-0,075	0,007
-566,846	-79,643	0,200	-0,048
-565,831	800,000	0,051	0,114
-564,817	267,676	-0,075	-0,095
-563,802	605,484	0,027	0,048
-562,788	800,000	0,028	0,088
-561,773	-47,511	0,095	0,033
-560,758	800,000	0,023	-0,051
-559,744	-9,939	0,019	-0,009
-558,729	-7,405	-0,071	0,034
-557,715	-77,910	-0,120	0,030
-556,700	-101,973	0,153	-0,026
-555,685	358,172	-0,046	-0,066
-554,671	-200,000	-0,004	-0,188
-553,656	192,085	0,110	0,119
-552,642	-200,000	-0,002	-0,034
-551,627	800,000	-0,059	0,141
-550,612	6,354	-0,019	0,010
-549,598	-119,861	-0,074	0,009
-548,583	-150,266	-0,115	-0,006
-547,569	-200,000	-0,017	-0,124
-546,554	-117,686	0,050	0,006
-545,539	-200,000	0,005	-0,051
-544,525	220,497	-0,081	0,094
-543,510	800,000	-0,062	-0,173
-542,496	-200,000	0,035	-0,199
-541,481	800,000	-0,019	0,054
-540,466	-150,027	-0,114	-0,006
-539,452	-31,539	0,073	-0,029
-538,437	182,018	0,052	0,056
-537,423	800,000	-0,052	-0,137
-536,408	-68,055	-0,050	0,014
-535,393	560,726	0,046	-0,080
-534,379	-200,000	0,008	0,144
-533,364	488,106	-0,010	0,017
-532,350	-200,000	-0,030	0,124
-531,335	-114,844	0,151	-0,021
-530,321	46,467	0,088	-0,059
-529,306	-56,545	0,042	0,013
-528,291	-200,000	-0,001	-0,024
-527,277	357,730	-0,013	-0,019
-526,262	247,224	0,086	-0,105
-525,248	-73,518	-0,076	-0,020
-524,233	-68,791	0,156	-0,043
-523,218	-33,584	0,135	-0,053
-522,204	363,800	0,019	0,028
-521,189	-84,390	-0,075	0,017
-520,175	-200,000	-0,004	-0,125
-519,160	68,788	0,116	-0,085
-518,145	21,433	-0,093	0,054
-517,131	-200,000	0,041	0,147
-516,116	-200,000	0,023	0,080
-515,102	117,225	0,133	0,118
-514,087	-97,787	-0,059	-0,011
-513,072	84,522	-0,022	-0,017
-512,058	47,027	-0,087	-0,058
-511,043	-93,302	0,118	0,023
-510,029	-200,000	0,004	-0,117
-509,014	-83,560	0,026	-0,006
-507,999	-200,000	0,000	-0,020
-506,985	-200,000	-0,027	-0,096
-505,970	238,081	-0,045	0,054
-504,956	-103,064	-0,026	-0,004
-503,941	-114,879	0,221	-0,030
-502,926	800,000	-0,033	0,076
-501,912	382,433	0,116	0,172
-500,897	218,592	0,032	-0,037
-499,883	66,124	0,059	-0,043
-498,868	251,750	-0,038	-0,047
-497,853	421,172	-0,050	0,078
-496,839	-200,000	0,016	0,129
-495,824	267,645	0,034	-0,043
-494,810	800,000	-0,024	0,050
-493,795	714,669	0,022	0,042
-492,781	208,217	-0,082	-0,093
-491,766	40,420	0,083	0,054
-490,751	-200,000	-0,001	0,124
-489,737	800,000	0,036	0,085
-488,722	-200,000	-0,002	0,021
-487,708	-11,995	0,043	-0,020
-486,693	-200,000	0,010	-0,056
-485,678	79,679	-0,077	0,059
-484,664	-200,000	-0,024	-0,103
-483,649	155,050	-0,020	0,019
-482,635	-164,135	-0,076	-0,002
-481,620	191,066	0,062	0,067
-480,605	-200,000	0,019	0,107
-479,591	-200,000	0,010	0,036
-478,576	-200,000	-0,013	0,129
-477,562	342,544	0,101	0,142
-476,547	73,876	-0,105	-0,079
-475,532	532,888	-0,057	-0,097
-474,518	-14,187	0,116	-0,053
-473,503	-200,000	-0,015	0,061
-472,489	-76,631	-0,049	-0,012
-471,474	-200,000	-0,002	0,040
-470,459	-145,155	0,120	0,008
-469,445	156,143	-0,056	-0,056
-468,430	241,486	-0,060	0,072
-467,416	800,000	-0,021	-0,048
-466,401	98,916	0,074	-0,062
-465,386	-200,000	0,059	0,207
-464,372	721,324	0,020	-0,038
-463,357	-139,212	-0,036	-0,003
-462,343	563,828	0,018	-0,031
-461,328	488,584	-0,029	0,048
-460,313	322,953	-0,071	-0,097
-459,299	9,939	0,211	0,114
-458,284	9,792	-0,066	-0,036
-457,270	-130,878	0,074	-0,007
-456,255	800,000	-0,023	0,064
-455,241	800,000	-0,027	-0,053
-454,226	-118,487	0,003	0,000
-453,211	81,852	0,123	-0,095
-452,197	800,000	-0,045	0,132
-451,182	245,130	0,114	0,137
-450,168	-166,790	-0,089	-0,003
-449,153	9,700	-0,149	-0,081
-448,138	-139,307	-0,057	-0,004
-447,124	145,628	-0,028	0,027
-446,109	592,615	-0,031	0,055
-445,095	349,303	0,070	0,099
-444,080	208,985	-0,023	-0,026
-443,065	568,582	0,014	0,024
-442,051	-57,985	0,073	0,023
-441,036	72,305	0,041	-0,031
-440,022	30,369	-0,151	-0,093
-439,007	800,000	-0,031	-0,087
-437,992	430,356	0,081	0,127
-436,978	-24,066	-0,102	-0,044
-435,963	800,000	-0,045	0,091
-434,949	-33,323	0,161	-0,064
-433,934	-161,793	-0,039	0,001
-432,919	50,096	-0,095	0,064
-431,905	800,000	-0,027	-0,066
-430,890	698,105	-0,058	-0,110
-429,876	-200,000	-0,010	-0,124
-428,861	-200,000	0,017	0,059
-427,846	-200,000	-0,017	0,068
-426,832	-33,147	0,076	-0,030
-425,817	800,000	0,076	-0,164
-424,803	63,214	0,060	-0,043
-423,788	232,710	-0,037	-0,043
-422,773	800,000	-0,031	-0,085
-421,759	32,813	0,057	0,035
-420,744	157,083	-0,102	0,101
-419,730	183,420	-0,031	-0,032
-418,715	-95,613	0,135	0,026
-417,701	-200,000	-0,023	0,124
-416,686	-106,242	0,037	-0,006
-415,671	5,310	-0,041	0,021
-414,657	-86,255	0,023	0,005
-413,642	-75,577	-0,096	-0,024
-412,628	206,841	0,059	-0,066
-411,613	-71,909	-0,073	-0,019
-410,598	-200,000	-0,000	0,006
-409,584	-200,000	0,049	0,000
-408,569	-105,366	0,140	-0,023
-407,555	800,000	-0,037	0,085
-406,540	-41,811	0,027	0,010
-405,525	48,196	0,051	-0,034
-404,511	-30,905	-0,064	-0,026
-403,496	-200,000	0,033	0,170
-402,482	800,000	-0,054	0,148
-401,467	800,000	0,060	0,161
-400,452	-200,000	0,002	0,110
-399,438	800,000	-0,049	0,117
-398,423	18,124	0,115	0,065
-397,409	508,646	0,044	-0,073
-396,394	112,320	-0,083	-0,072
-395,379	30,058	0,044	-0,027
-394,365	476,605	0,014	0,023
-393,350	-200,000	0,007	0,102
-392,336	-200,000	0,009	0,100
-391,321	-125,632	-0,106	0,011
-390,306	-200,000	0,008	-0,096
-389,292	800,000	0,054	0,113
-388,277	-200,000	-0,040	-0,192
-387,263	261,605	-0,062	-0,078
-386,248	162,382	-0,032	-0,032
-385,233	-23,513	0,142	-0,061
-384,219	-85,130	-0,117	-0,026
-383,204	488,160	-0,032	-0,053
-382,190	15,814	-0,102	-0,057
-381,175	-200,000	-0,004	0,058
-380,160	146,562	-0,114	-0,110
-379,146	441,305	-0,106	0,166
-378,131	240,874	0,040	-0,048
-377,117	60,839	-0,090	-0,064
-376,102	800,000	-0,005	-0,013
-375,088	800,000	-0,053	-0,154
-374,073	545,458	0,026	0,045
-373,058	800,000	-0,023	0,047
-372,044	-200,000	0,017	0,146
-371,029	800,000	0,040	0,091
-370,015	121,668	-0,013	-0,011
-369,000	-25,805	0,021	-0,009
-367,985	-31,118	-0,030	-0,012
-366,971	-31,776	0,051	-0,020
-365,956	-200,000	-0,004	0,094
-364,942	-107,200	0,184	0,029
-363,927	332,817	-0,075	0,104
-362,912	5,008	0,072	-0,038
-361,898	-115,770	0,155	-0,021
-360,883	-51,951	-0,050	-0,017
-359,869	357,048	-0,058	-0,084
-358,854	-200,000	0,007	-0,029
-357,839	383,339	0,040	0,060
-356,825	-200,000	0,002	0,033
-355,810	-200,000	0,006	-0,115
-354,796	-200,000	-0,010	-0,088
-353,781	34,388	0,027	-0,017
-352,766	452,114	-0,070	-0,111
-351,752	-200,000	-0,003	0,075
-350,737	-30,473	-0,125	0,050
-349,723	355,899	-0,036	0,052
-348,708	-68,127	0,101	-0,028
-347,693	-142,431	-0,188	0,013
-346,679	9,414	-0,004	0,002
-345,664	-200,000	0,022	-0,099
-344,650	414,653	0,057	0,087
-343,635	-135,813	0,087	0,007
-342,620	39,991	-0,136	0,087
-341,606	800,000	-0,045	0,139
-340,591	-36,153	-0,045	0,017
-339,577	-200,000	0,007	-0,023
-338,562	-200,000	0,000	-0,168
-337,548	-42,435	-0,134	-0,048
-336,533	-127,655	0,108	0,011
-335,518	-118,180	0,060	0,008
-334,504	-40,303	-0,049	0,018
-333,489	800,000	-0,052	-0,104
-332,475	-37,303	-0,117	-0,044
-331,460	-14,489	0,139	-0,063
-330,445	-200,000	0,003	-0,100
-329,431	-13,303	0,059	-0,027
-328,416	147,190	0,039	0,037
-327,402	185,946	0,038	-0,041
-326,387	-60,548	0,071	-0,021
-325,372	38,099	-0,081	0,051
-324,358	-146,627	0,058	-0,004
-323,343	9,143	0,038	0,021
-322,329	68,524	0,064	0,047
-321,314	-144,282	0,096	-0,006
-320,299	-164,605	0,106	-0,003
-319,285	800,000	-0,034	-0,069
-318,270	800,000	-0,013	0,029
-317,256	70,699	-0,105	0,077
-316,241	-132,090	0,068	0,006
-315,226	-200,000	-0,013	-0,098
-314,212	-45,336	0,059	-0,021
-313,197	71,941	-0,045	-0,033
-312,183	719,392	0,041	0,078
-311,168	-2,975	-0,034	0,017
-310,153	-132,490	-0,141	0,013
-309,139	-200,000	-0,024	-0,081
-308,124	800,000	0,023	0,065
-307,110	-200,000	-0,007	0,121
-306,095	-108,281	0,115	0,018
-305,080	-200,000	-0,001	-0,040
-304,066	800,000	0,035	-0,103
-303,051	258,505	-0,055	-0,068
-302,037	-200,000	0,004	-0,225
-301,022	31,739	0,078	0,048
-300,008	-200,000	-0,015	0,061
-298,993	800,000	-0,049	0,099
-297,978	-67,308	0,093	-0,026
-296,964	-48,780	-0,096	-0,033
-295,949	73,797	0,091	0,068
-294,935	-128,887	0,106	0,010
-293,920	28,070	0,122	0,073
-292,905	800,000	0,047	0,107
-291,891	124,877	0,172	0,154
-290,876	-106,999	0,034	0,005
-289,862	-200,000	-0,012	-0,065
-288,847	695,230	-0,076	0,143
-287,832	-200,000	-0,040	-0,127
-286,818	458,428	-0,047	-0,075
-285,803	-145,815	-0,055	0,003
-284,789	-109,356	-0,100	-0,015
-283,774	19,819	0,147	0,084
-282,759	-89,786	-0,100	0,021
-281,745	4,323	-0,042	-0,022
-280,730	-200,000	-0,003	-0,138
-279,716	800,000	-0,048	-0,097
-278,701	205,876	0,042	-0,047
-277,686	37,386	-0,120	-0,076
-276,672	-200,000	-0,007	0,060
-275,657	2,660	-0,044	0,023
-274,643	19,559	0,141	-0,081
-273,628	-200,000	-0,008	-0,099
-272,613	-114,498	-0,010	0,001
-271,599	1,449	-0,020	-0,010
-270,584	195,766	0,126	0,137
-269,570	-74,771	-0,027	-0,007
-268,555	70,554	-0,079	0,058
-267,540	-25,717	-0,031	0,013
-266,526	800,000	-0,056	-0,148
-265,511	-200,000	-0,021	0,088
-264,497	335,029	0,038	-0,053
-263,482	-200,000	-0,004	-0,029
-262,467	800,000	0,015	0,043
-261,453	-200,000	-0,018	0,085
-260,438	-200,000	-0,008	0,091
-259,424	13,667	0,083	0,046
-258,409	183,350	-0,138	0,145
-257,395	800,000	0,020	0,060
-256,380	-10,349	0,023	-0,011
-255,365	-11,103	0,092	0,043
-254,351	203,491	-0,097	0,106
-253,336	125,475	-0,068	-0,061
-252,322	-43,937	-0,114	-0,040
-251,307	-91,222	-0,141	-0,029
-250,292	-181,999	0,023	0,000
-249,278	692,139	-0,072	0,134
-248,263	63,333	-0,058	0,042
-247,249	401,907	0,048	-0,071
-246,234	401,666	-0,050	-0,074
-245,219	122,323	-0,116	-0,103
-244,205	-200,000	0,008	-0,043
-243,190	136,083	0,148	-0,137
-242,176	187,907	0,081	-0,086
-241,161	259,498	0,056	-0,069
-240,146	-137,588	-0,067	-0,005
-239,132	-96,902	0,154	-0,028
-238,117	13,451	-0,047	-0,026
-237,103	2,285	-0,072	-0,037
-236,088	32,729	-0,057	0,035
-235,073	337,124	0,048	0,066
-234,059	194,500	-0,032	0,035
-233,044	76,576	0,069	-0,052
-232,030	-31,136	0,051	0,020
-231,015	-22,115	-0,022	-0,010
-230,000	114,135	0,043	-0,037
-228,986	-68,226	0,047	-0,013
-227,971	800,000	-0,040	0,110
-226,957	155,709	0,077	0,075
-225,942	-200,000	-0,003	0,036
-224,927	-16,699	-0,116	0,052
-223,913	-141,646	0,078	0,005
-222,898	17,927	0,078	0,044
-221,884	227,336	-0,025	0,029
-220,869	56,964	-0,024	-0,017
-219,855	-200,000	0,027	0,098
-218,840	-62,241	0,141	-0,042
-217,825	-26,020	-0,051	-0,021
-216,811	5,218	-0,058	0,030
-215,796	215,612	-0,075	0,084
-214,782	-200,000	0,017	0,066
-213,767	-52,888	0,075	-0,024
-212,752	122,670	-0,069	-0,061
-211,738	-200,000	-0,007	-0,084
-210,723	609,491	0,043	0,076
-209,709	200,691	-0,073	-0,079
-208,694	-17,483	0,041	-0,018
-207,679	-144,687	-0,186	0,012
-206,665	-200,000	0,016	-0,060
-205,650	-200,000	-0,015	0,081
-204,636	339,851	0,069	0,096
-203,621	198,828	0,021	0,023
-202,606	88,379	-0,077	-0,061
-201,592	57,759	0,086	-0,060
-200,577	22,256	-0,054	-0,031
-199,563	-200,000	0,003	-0,059
-198,548	-200,000	0,029	0,102
-197,533	-200,000	-0,014	0,072
-196,519	-87,745	0,110	0,023
-195,504	-140,413	-0,115	0,008
-194,490	-17,535	0,099	0,044
-193,475	-200,000	-0,004	-0,058
-192,460	-84,436	-0,175	0,039
-191,446	800,000	0,016	-0,032
-190,431	-192,874	0,139	0,001
-189,417	-200,000	0,001	0,004
-188,402	800,000	0,051	0,104
-187,387	530,420	-0,010	-0,017
-186,373	220,755	-0,071	-0,081
-185,358	-200,000	0,009	-0,036
-184,344	-130,036	-0,107	0,010
-183,329	-73,774	0,078	0,020
-182,315	721,875	-0,075	0,142
-181,300	-200,000	0,006	-0,092
-180,285	-70,347	0,076	0,020
-179,271	408,441	-0,029	-0,043
-178,256	246,323	-0,067	-0,081
-177,242	109,420	0,090	0,077
-176,227	-117,493	0,072	-0,009
-175,212	122,198	0,097	-0,086
-174,198	321,704	-0,097	-0,131
-173,183	-85,096	-0,047	0,010
-172,169	29,660	-0,042	-0,025
-171,154	3,974	-0,028	0,014
-170,139	-60,378	0,106	0,032
-169,125	-12,447	0,116	0,054
-168,110	-200,000	0,002	0,056
-167,096	81,555	-0,011	-0,008
-166,081	-60,975	-0,016	-0,005
-165,066	140,045	0,092	-0,086
-164,052	-193,838	-0,056	-0,000
-163,037	800,000	0,051	-0,104
-162,023	-100,168	0,051	0,009
-161,008	800,000	-0,052	0,123
-159,993	-200,000	0,033	0,122
-158,979	109,950	-0,091	-0,077
-157,964	171,677	0,111	-0,114
-156,950	318,530	0,057	-0,077
-155,935	-28,122	-0,092	-0,037
-154,920	160,103	0,049	-0,048
-153,906	-122,126	0,151	0,017
-152,891	587,128	-0,048	-0,084
-151,877	-17,229	0,120	-0,053
-150,862	43,720	-0,056	0,036
-149,847	689,091	0,032	-0,060
-148,833	-124,169	-0,108	0,012
-147,818	-200,000	-0,006	0,101
-146,804	-200,000	0,000	-0,031
-145,789	-200,000	0,011	-0,091
-144,775	-84,731	-0,091	-0,020
-143,760	-89,542	-0,162	-0,033
-142,745	-200,000	0,015	-0,095
-141,731	15,956	0,139	0,078
-140,716	-200,000	-0,007	-0,025
-139,702	-87,739	0,127	-0,027
-138,687	800,000	-0,048	0,121
-137,672	-80,437	-0,051	-0,012
-136,658	280,324	0,099	-0,125
-135,643	244,128	0,050	0,060
-134,629	800,000	-0,043	0,089
-133,614	-140,020	0,088	-0,006
-132,599	800,000	0,017	0,033
-131,585	34,749	0,048	0,029
-130,570	324,649	0,026	0,036
-129,556	-28,863	-0,119	0,048
-128,541	-86,916	-0,065	-0,014
-127,526	800,000	-0,030	-0,064
-126,512	-159,839	-0,057	-0,002
-125,497	800,000	-0,123	-0,263
-124,483	-200,000	-0,005	-0,028
-123,468	216,199	0,043	-0,049
-122,453	800,000	0,059	-0,131
-121,439	16,711	-0,092	-0,051
-120,424	-95,836	0,045	0,009
-119,410	-24,442	0,057	-0,024
-118,395	-200,000	0,004	0,104
-117,380	630,702	-0,082	0,147
-116,366	157,391	0,049	-0,048
-115,351	-200,000	0,024	-0,144
-114,337	-200,000	0,034	-0,184
-113,322	79,821	-0,115	-0,087
-112,307	-90,470	0,079	0,016
-111,293	-200,000	0,010	-0,096
-110,278	82,018	0,074	0,057
-109,264	-200,000	-0,006	-0,041
-108,249	573,120	0,064	0,110
-107,234	497,018	0,090	-0,148
-106,220	-98,935	0,106	-0,019
-105,205	43,222	0,110	0,071
-104,191	591,978	-0,016	0,029
-103,176	35,324	0,095	-0,059
-102,162	1,408	0,103	0,052
-101,147	718,625	-0,047	-0,088
-100,132	-44,941	-0,087	-0,030
-99,118	-125,267	-0,082	-0,009
-98,103	-64,493	0,095	-0,027
-97,089	800,000	-0,012	0,026
-96,074	800,000	0,007	0,015
-95,059	28,376	-0,137	0,081
-94,045	284,354	-0,068	-0,087
-93,030	-200,000	-0,015	-0,058
-92,016	-200,000	-0,018	-0,061
-91,001	62,488	0,077	0,055
-89,986	18,635	-0,059	0,033
-88,972	800,000	0,028	0,080
-87,957	-126,690	0,125	-0,013
-86,943	-43,918	-0,125	-0,044
-85,928	-167,494	-0,176	-0,005
-84,913	213,851	0,112	0,126
-83,899	123,260	-0,063	-0,056
-82,884	-200,000	0,042	0,161
-81,870	209,206	-0,069	0,077
-80,855	671,810	-0,060	0,110
-79,840	-200,000	-0,033	0,126
-78,826	-200,000	-0,003	-0,051
-77,811	-200,000	-0,025	-0,168
-76,797	78,592	0,133	-0,101
-75,782	-200,000	0,014	0,126
-74,767	89,443	0,071	-0,056
-73,753	-45,055	0,110	-0,039
-72,738	636,404	0,040	-0,072
-71,724	146,739	-0,013	0,013
-70,709	791,122	-0,054	0,106
-69,694	-128,748	0,050	-0,005
-68,680	72,195	-0,051	0,037
-67,665	17,327	0,082	0,046
-66,651	720,888	0,036	0,068
-65,636	-47,796	-0,018	-0,006
-64,622	63,218	-0,178	0,126
-63,607	371,179	-0,080	0,115
-62,592	-62,647	0,053	-0,015
-61,578	-200,000	-0,019	0,136
-60,563	-200,000	-0,010	0,158
-59,549	-200,000	-0,023	0,094
-58,534	26,180	-1,928	-1,135
-57,519	382,120	-1,298	-1,889
-56,505	-200,000	-0,257	-4,410
-55,490	280,605	0,914	1,157
-54,476	800,000	5,164	11,541
-53,461	-200,000	20,646	329,493
-52,446	800,000	755,698	2322,551
-51,432	551,975	1662,801	2831,327
-50,417	73,929	1666,656	1233,365
-49,403	19,060	1540,008	869,889
-48,388	13,045	1462,686	797,039
-47,373	19,090	1453,430	821,062
-46,359	16,134	1442,895	800,977
-45,344	11,377	1438,470	775,779
-44,330	11,250	1436,732	774,202
-43,315	11,252	1434,671	773,075
-42,300	11,257	1432,967	772,149
-41,286	11,259	1431,801	771,496
-40,271	11,251	1430,505	770,729
-39,257	11,260	1429,109	769,993
-38,242	11,265	1428,221	769,506
-37,227	11,272	1426,922	768,811
-36,213	11,283	1425,920	768,291
-35,198	11,307	1424,586	767,653
-34,184	11,351	1423,561	767,279
-33,169	11,260	1422,414	766,203
-32,154	11,311	1421,321	765,823
-31,140	11,367	1419,938	765,311
-30,125	11,396	1418,676	764,739
-29,111	11,306	1418,107	763,977
-28,096	11,325	1416,638	763,245
-27,082	11,283	1415,576	762,443
-26,067	11,275	1414,538	761,816
-25,052	11,267	1413,389	761,131
-24,038	11,261	1412,471	760,578
-23,023	11,251	1411,271	759,857
-22,009	11,248	1410,185	759,226
-20,994	11,214	1409,432	758,632
-19,979	11,252	1408,611	758,336
-18,965	11,219	1407,611	757,615
-17,950	11,172	1406,926	756,996
-16,936	11,164	1406,114	756,489
-15,921	11,138	1404,822	755,647
-14,906	11,125	1404,003	755,116
-13,892	11,182	1402,738	754,668
-12,877	11,171	1402,070	754,228
-11,863	11,145	1401,368	753,702
-10,848	11,092	1400,484	752,948
-9,833	11,070	1399,603	752,344
-8,819	11,045	1398,713	751,719
-7,804	11,045	1397,600	751,089
-6,790	11,090	1396,522	750,689
-5,775	11,056	1395,514	749,958
-4,760	11,044	1394,899	749,545
-3,746	11,043	1393,739	748,887
-2,731	11,066	1392,994	748,565
-1,717	11,037	1392,063	747,898
-0,702	10,989	1390,450	746,779
0,313	14,985	1304,091	718,761
1,327	31,090	695,156	419,902
2,342	48,204	120,903	79,692
3,356	-0,604	16,563	8,265
4,371	3,274	3,389	1,735
5,386	8,431	0,941	0,498
6,400	-200,000	0,115	0,535
7,415	-27,400	-0,272	-0,111
8,429	293,339	-0,192	-0,247
9,444	-6,332	-0,354	-0,170
10,459	37,970	-0,281	-0,176
11,473	18,900	-0,326	-0,184
12,488	-114,645	-0,244	-0,033
13,502	54,446	-0,287	-0,195
14,517	-34,771	-0,305	-0,117
15,531	-23,176	-0,412	-0,174
16,546	-43,880	-0,541	-0,191
17,561	-4,409	-0,485	-0,236
18,575	-102,121	-0,256	0,043
19,590	97,474	-0,256	-0,207
20,604	-103,373	-0,334	-0,055
21,619	231,544	-0,364	-0,421
22,634	57,302	-0,494	-0,339
23,648	126,836	-0,486	-0,434
24,663	29,463	-0,425	-0,254
25,677	-39,919	-0,388	-0,142
26,692	52,896	-0,348	-0,234
27,707	-50,208	-0,424	-0,140
28,721	83,051	-0,470	-0,360
29,736	36,127	-0,467	-0,289
30,750	230,615	-0,280	-0,323
31,765	334,395	-0,359	-0,491
32,780	16,450	-0,394	-0,218
33,794	158,026	-0,322	-0,315
34,809	218,438	-0,318	-0,358
35,823	277,083	-0,276	-0,346
36,838	136,292	-0,384	-0,352
37,853	90,211	-0,301	-0,237
38,867	45,063	-0,309	-0,200
39,882	122,264	-0,352	-0,309
40,896	23,683	-0,317	-0,183
41,911	135,266	-0,276	-0,253
42,926	5,243	-0,353	-0,182
43,940	-11,881	-0,436	-0,200
44,955	124,882	-0,320	-0,283
45,969	5,902	-0,325	-0,169
46,984	256,485	-0,258	-0,313
47,999	-16,010	-0,380	-0,169
49,013	-1,634	-0,329	-0,162
50,028	-122,462	-0,347	-0,039
51,042	128,352	-0,285	-0,255
52,057	113,158	-0,329	-0,280
53,071	80,474	-0,372	-0,281
54,086	81,278	-0,319	-0,242
55,101	414,165	-0,220	-0,331
56,115	-0,376	-0,318	-0,158
57,130	-66,889	-0,391	-0,108
58,144	-6,233	-0,330	-0,158
59,159	85,508	-0,382	-0,295
60,174	205,668	-0,303	-0,331
61,188	36,666	-0,369	-0,228
62,203	141,718	-0,266	-0,248
63,217	45,639	-0,382	-0,248
64,232	-118,633	-0,497	-0,061
65,247	108,344	-0,241	-0,201
66,261	117,238	-0,358	-0,308
67,276	97,640	-0,354	-0,285
68,290	-26,386	-0,256	-0,105
69,305	-14,396	-0,333	-0,150
70,320	18,405	-0,347	-0,194
71,334	137,304	-0,255	-0,234
72,349	-7,352	-0,325	-0,154
73,363	-17,290	-0,373	-0,164
74,378	-30,565	-0,310	-0,123
75,393	121,411	-0,240	-0,210
76,407	-83,410	-0,332	-0,074
77,422	4,577	-0,303	-0,155
78,436	159,712	-0,186	-0,181
79,451	-22,170	-0,250	-0,106
80,466	2,620	-0,287	-0,145
81,480	82,260	-0,325	-0,247
82,495	115,768	-0,236	-0,202
83,509	117,704	-0,206	-0,178
84,524	-7,440	-0,297	-0,140
85,539	-18,603	-0,240	-0,105
86,553	432,523	-0,146	-0,222
87,568	121,156	-0,279	-0,243
88,582	-123,155	-0,239	-0,026
89,597	228,179	-0,252	-0,288
90,611	2,862	-0,356	-0,180
91,626	-6,414	-0,264	-0,126
92,641	59,675	-0,355	-0,245
93,655	-5,957	-0,276	-0,132
94,670	97,930	-0,235	-0,189
95,684	66,216	-0,246	-0,175
96,699	528,589	-0,167	-0,277
97,714	384,600	-0,204	-0,296
98,728	-67,122	-0,409	-0,112
99,743	54,121	-0,249	-0,167
100,757	68,695	-0,247	-0,177
101,772	439,524	-0,137	-0,209
102,787	126,507	-0,256	-0,227
103,801	76,886	-0,340	-0,252
104,816	20,318	-0,338	-0,191
105,830	98,479	-0,185	-0,149
106,845	-98,571	-0,280	-0,050
107,860	18,469	-0,233	-0,130
108,874	-77,171	-0,306	-0,074
109,889	-87,404	-0,284	-0,060
110,903	-26,524	-0,354	-0,145
111,918	-52,154	-0,203	-0,066
112,933	61,780	-0,305	-0,212
113,947	60,457	-0,210	-0,145
114,962	130,276	-0,306	-0,274
115,976	-8,651	-0,262	-0,122
116,991	52,065	-0,233	-0,155
118,006	60,178	-0,309	-0,214
119,020	-105,029	-0,220	-0,035
120,035	-24,504	-0,239	-0,099
121,049	83,917	-0,223	-0,170
122,064	78,730	-0,257	-0,192
123,079	169,828	-0,303	-0,303
124,093	166,533	-0,277	-0,274
125,108	-200,000	-0,051	-0,274
126,122	79,292	-0,213	-0,159
127,137	24,840	-0,351	-0,203
128,151	136,102	-0,204	-0,186
129,166	171,406	-0,181	-0,182
130,181	173,093	-0,220	-0,222
131,195	-108,645	-0,394	-0,058
132,210	351,871	-0,202	-0,279
133,224	14,459	-0,277	-0,151
134,239	22,984	-0,371	-0,212
135,254	682,330	-0,047	-0,085
136,268	-7,473	-0,147	-0,069
137,283	13,929	-0,224	-0,121
138,297	137,825	-0,299	-0,273
139,312	102,050	-0,324	-0,263
140,327	-2,241	-0,383	-0,187
141,341	20,324	-0,238	-0,134
142,356	638,281	-0,152	-0,270
143,370	-131,878	-0,230	-0,021
144,385	70,484	-0,220	-0,158
145,400	52,565	-0,307	-0,204
146,414	89,378	-0,194	-0,151
147,429	-39,412	-0,238	-0,087
148,443	163,377	-0,168	-0,164
149,458	89,621	-0,275	-0,214
150,473	61,988	-0,267	-0,185
151,487	243,463	-0,170	-0,199
152,502	-12,631	-0,314	-0,142
153,516	-69,290	-0,333	-0,088
154,531	194,453	-0,204	-0,215
155,546	85,640	-0,240	-0,184
156,560	-99,629	-0,164	-0,028
157,575	168,883	-0,199	-0,198
158,589	463,146	-0,095	-0,149
159,604	-108,022	-0,326	-0,049
160,619	-64,980	-0,174	-0,049
161,633	20,233	-0,267	-0,149
162,648	763,988	-0,108	-0,206
163,662	-31,148	-0,300	-0,117
164,677	26,905	-0,277	-0,161
165,692	58,426	-0,245	-0,167
166,706	67,578	-0,326	-0,231
167,721	234,936	-0,178	-0,205
168,735	165,720	-0,222	-0,219
169,750	9,525	-0,240	-0,126
170,764	123,346	-0,226	-0,197
171,779	42,802	-0,205	-0,129
172,794	-77,272	-0,169	-0,041
173,808	7,571	-0,222	-0,115
174,823	74,258	-0,217	-0,158
175,837	38,325	-0,222	-0,137
176,852	123,588	-0,223	-0,195
177,867	18,763	-0,253	-0,141
178,881	800,000	-0,034	-0,096
179,896	-56,926	-0,374	-0,114
180,910	55,276	-0,267	-0,179
181,925	-32,766	-0,281	-0,108
182,940	15,879	-0,186	-0,101
183,954	25,676	-0,247	-0,143
184,969	179,151	-0,313	-0,318
185,983	4,127	-0,172	-0,087
186,998	40,286	-0,073	-0,045
188,013	263,947	-0,167	-0,202
189,027	72,494	-0,241	-0,175
190,042	1,543	-0,183	-0,091
191,056	-95,651	-0,299	-0,055
192,071	45,605	-0,132	-0,085
193,086	191,951	-0,149	-0,156
194,100	-121,440	-0,183	0,021
195,115	87,531	-0,263	-0,202
196,129	269,647	-0,167	-0,204
197,144	183,419	-0,124	-0,127
198,159	403,612	-0,143	-0,210
199,173	23,893	-0,262	-0,149
200,188	-116,474	-0,250	0,032
201,202	595,714	-0,113	-0,195
202,217	37,327	-0,179	-0,110
203,232	14,219	-0,259	-0,140
204,246	30,840	-0,262	-0,155
205,261	472,575	-0,170	-0,267
206,275	800,000	-0,075	-0,179
207,290	-49,484	-0,134	-0,044
208,304	-107,508	-0,185	0,028
209,319	154,099	-0,139	-0,132
210,334	60,562	-0,219	-0,150
211,348	238,465	-0,228	-0,262
212,363	37,486	-0,236	-0,145
213,377	1,684	-0,312	-0,155
214,392	19,695	-0,173	-0,096
215,407	197,160	-0,115	-0,122
216,421	-51,481	-0,162	0,052
217,436	193,413	-0,132	-0,138
218,450	-11,091	-0,278	-0,126
219,465	26,917	-0,252	-0,146
220,480	112,719	-0,087	-0,073
221,494	11,908	-0,134	-0,071
222,509	-55,931	-0,225	-0,069
223,523	222,199	-0,121	-0,135
224,538	-153,876	-0,110	-0,005
225,553	-200,000	-0,009	-0,149
226,567	75,286	-0,168	-0,123
227,582	-86,523	-0,216	-0,045
228,596	68,235	-0,167	-0,118
229,611	-7,331	-0,059	-0,028
230,626	-39,125	-0,207	-0,075
231,640	277,512	-0,134	-0,165
232,655	40,149	-0,266	-0,165
233,669	-51,359	-0,333	-0,107
234,684	82,334	-0,143	-0,107
235,699	-167,758	-0,101	-0,003
236,713	-12,178	-0,148	-0,067
237,728	77,213	-0,220	-0,162
238,742	-117,234	-0,358	-0,045
239,757	11,741	-0,256	-0,136
240,772	2,178	-0,238	-0,118
241,786	353,382	-0,170	-0,233
242,801	57,241	-0,160	-0,108
243,815	-12,861	-0,138	-0,062
244,830	84,130	-0,112	-0,085
245,844	609,508	-0,101	-0,175
246,859	-200,000	-0,078	-0,279
247,874	252,656	-0,153	-0,180
248,888	253,539	-0,129	-0,153
249,903	569,764	-0,147	-0,249
250,917	-11,230	-0,223	-0,101
251,932	320,502	-0,137	-0,181
252,947	580,512	-0,136	-0,231
253,961	621,794	-0,086	-0,150
254,976	-174,758	-0,182	-0,003
255,990	-200,000	-0,063	-0,245
257,005	141,716	-0,127	-0,116
258,020	-48,206	-0,205	0,068
259,034	66,563	-0,135	-0,094
260,049	37,718	-0,063	0,038
261,063	-61,557	-0,221	-0,064
262,078	292,929	-0,102	-0,129
263,093	-74,715	-0,190	-0,047
264,107	684,056	-0,102	-0,185
265,122	-53,301	-0,190	-0,060
266,136	571,124	-0,123	-0,208
267,151	-114,451	-0,201	0,026
268,166	80,560	-0,161	-0,120
269,180	-200,000	-0,041	-0,273
270,195	265,771	-0,248	-0,299
271,209	-149,279	-0,239	0,013
272,224	6,890	-0,164	-0,084
273,239	-140,907	-0,053	-0,004
274,253	-68,087	-0,260	-0,069
275,268	190,985	-0,202	-0,209
276,282	800,000	-0,128	-0,304
277,297	161,907	-0,169	-0,163
278,312	108,848	-0,181	-0,149
279,326	44,810	-0,209	-0,132
280,341	800,000	-0,056	-0,159
281,355	-150,242	-0,169	0,009
282,370	173,373	-0,192	-0,191
283,384	-71,031	-0,158	-0,041
284,399	177,788	-0,151	-0,152
285,414	194,477	-0,067	0,070
286,428	-151,354	-0,263	-0,013
287,443	147,308	-0,150	-0,139
288,457	-119,274	-0,082	0,010
289,472	115,628	-0,163	-0,137
290,487	41,010	-0,089	-0,055
291,501	-129,288	-0,213	-0,020
292,516	800,000	-0,105	-0,222
293,530	134,757	-0,229	-0,205
294,545	-32,477	-0,235	-0,090
295,560	29,574	-0,200	-0,117
296,574	-200,000	-0,001	-0,113
297,589	107,468	-0,140	-0,115
298,603	185,965	-0,183	-0,187
299,618	800,000	-0,055	-0,150
300,633	161,483	-0,136	-0,131
301,647	103,451	-0,149	-0,120
302,662	48,190	-0,180	-0,116
303,676	199,277	-0,185	-0,196
304,691	6,567	-0,178	-0,091
305,706	-71,255	-0,221	-0,057
306,720	-116,844	-0,160	-0,020
307,735	-135,711	-0,136	-0,011
308,749	80,555	-0,133	-0,098
309,764	171,834	-0,059	-0,058
310,779	130,312	-0,180	-0,158
311,793	-0,557	-0,111	-0,054
312,808	-181,738	-0,117	-0,002
313,822	-87,383	-0,208	0,043
314,837	-96,262	-0,132	-0,024
315,852	34,368	-0,029	0,017
316,866	-120,304	-0,159	-0,018
317,881	797,000	-0,092	-0,175
318,895	439,263	-0,187	-0,281
319,910	120,482	-0,048	-0,041
320,925	312,199	-0,110	-0,142
321,939	-107,304	-0,113	-0,017
322,954	-161,062	-0,178	-0,006
323,968	120,879	-0,125	-0,106
324,983	247,764	-0,128	-0,148
325,997	800,000	-0,050	-0,126
327,012	-129,474	-0,031	0,003
328,027	88,535	-0,177	-0,135
329,041	48,049	-0,238	-0,152
330,056	-6,320	-0,134	-0,062
331,070	164,137	-0,130	-0,126
332,085	-131,505	-0,118	-0,010
333,100	-43,000	-0,120	-0,041
334,114	-165,794	-0,284	-0,008
335,129	151,324	-0,225	-0,210
336,143	133,097	-0,115	-0,102
337,158	449,829	-0,072	-0,110
338,173	47,489	-0,101	-0,064
339,187	101,271	-0,059	0,047
340,202	204,966	-0,145	-0,155
341,216	246,506	-0,149	-0,172
342,231	-127,749	-0,188	0,018
343,246	215,399	-0,115	-0,125
344,260	116,418	-0,087	-0,073
345,275	224,311	-0,071	0,079
346,289	722,910	-0,043	-0,078
347,304	-24,525	-0,144	-0,059
348,319	617,188	-0,123	-0,212
349,333	248,459	-0,122	-0,141
350,348	660,405	-0,098	-0,173
351,362	800,000	-0,047	-0,123
352,377	-116,747	-0,178	-0,022
353,392	773,319	-0,032	-0,061
354,406	272,379	-0,111	-0,135
355,421	208,143	1313,539	1406,437
356,435	160,149	1474,096	1406,924
