DTS Sentinel unit serial number:	SN410029Multiplexer serial number:	ORYXHardware model number:	OX2-SRSoftware version number:	ORYX F/W v4,00 Oryx Data Collector v3.7.2.0data status	okinstallation	B3 Nyhavnadifferential loss correction	single-endedforward channel	channel 1reverse channel	N/Adate	2023/12/01time	13:17:30forward acquisition time	300,00reverse acquisition time	0,00gamma	499,1914k internal	0,3214k external	0,3214temperature offset calibration	1,0000default loss term (dB/km)	0,3820temperature slope calibration	1,0000multiplexer offset coefficient	1,0000multiplexer slope coefficient	1,0000fibre end	0,00T internal ref (°C)	9,35T ext. ref 1 (°C)	-4,32T ext. ref 2 (°C)	-4,41length (m)	temperature (°C)	Stokes	anti-Stokes-744,400	800,000	-0,134	-0,372
-743,385	800,000	0,085	0,211
-742,371	418,697	-0,107	-0,167
-741,356	-200,000	-0,007	0,252
-740,342	376,740	-0,147	-0,218
-739,327	800,000	-0,087	0,179
-738,312	135,116	-0,310	-0,292
-737,298	800,000	-0,091	0,244
-736,283	251,758	-0,209	-0,258
-735,269	-200,000	0,026	0,318
-734,254	222,601	-0,213	-0,249
-733,239	-106,455	-0,181	0,029
-732,225	90,738	-0,209	-0,169
-731,210	388,635	0,103	0,154
-730,196	17,526	-0,133	0,076
-729,181	69,696	0,027	0,020
-728,167	-22,285	-0,068	-0,030
-727,152	-85,418	0,087	-0,020
-726,137	-152,036	-0,135	-0,007
-725,123	226,281	-0,085	0,100
-724,108	35,922	-0,052	-0,033
-723,094	-200,000	0,004	-0,166
-722,079	800,000	-0,071	-0,218
-721,064	354,027	0,065	0,094
-720,050	118,618	-0,022	-0,020
-719,035	501,137	-0,037	0,063
-718,021	-1,876	-0,099	-0,050
-717,006	-166,869	-0,018	0,001
-715,991	-200,000	-0,002	-0,089
-714,977	-200,000	-0,004	0,030
-713,962	-79,309	0,123	0,030
-712,948	40,624	-0,098	0,064
-711,933	275,989	-0,033	-0,042
-710,918	23,107	-0,136	-0,081
-709,904	53,112	0,055	-0,038
-708,889	800,000	0,045	-0,138
-707,875	-166,677	-0,065	-0,002
-706,860	29,416	-0,057	0,035
-705,845	-79,079	0,141	0,034
-704,831	800,000	0,015	-0,041
-703,816	-71,084	-0,144	0,039
-702,802	-200,000	-0,018	-0,070
-701,787	-30,960	-0,135	-0,055
-700,772	158,961	-0,096	-0,097
-699,758	166,049	0,066	0,068
-698,743	-57,919	0,094	0,030
-697,729	258,066	0,064	0,080
-696,714	-200,000	-0,016	-0,148
-695,699	-200,000	-0,003	-0,128
-694,685	-200,000	-0,017	-0,165
-693,670	35,666	0,099	-0,063
-692,656	756,488	0,017	-0,034
-691,641	800,000	-0,059	-0,123
-690,627	-200,000	0,002	0,007
-689,612	126,420	0,065	0,059
-688,597	-132,802	-0,080	0,007
-687,583	690,875	-0,075	-0,143
-686,568	-115,226	-0,008	0,001
-685,554	58,016	-0,075	-0,053
-684,539	279,729	-0,010	0,013
-683,524	800,000	0,025	-0,062
-682,510	-6,095	-0,018	0,009
-681,495	344,510	0,027	-0,038
-680,481	-200,000	0,020	-0,084
-679,466	132,222	-0,039	-0,037
-678,451	46,803	-0,060	0,040
-677,437	221,984	-0,060	0,069
-676,422	22,434	0,077	0,045
-675,408	203,709	-0,040	0,045
-674,393	-200,000	0,002	-0,105
-673,378	-200,000	-0,049	-0,157
-672,364	323,805	-0,015	0,020
-671,349	407,931	-0,059	0,091
-670,335	36,821	0,059	0,038
-669,320	800,000	-0,026	0,083
-668,305	360,177	0,034	0,049
-667,291	800,000	-0,059	-0,144
-666,276	-6,120	-0,083	0,041
-665,262	-0,868	-0,097	-0,049
-664,247	-84,673	-0,089	-0,020
-663,232	800,000	-0,067	-0,169
-662,218	40,784	-0,089	0,058
-661,203	-109,147	0,136	-0,021
-660,189	-19,309	0,030	0,014
-659,174	-200,000	-0,006	-0,081
-658,159	-35,253	-0,070	-0,027
-657,145	800,000	0,059	-0,150
-656,130	-167,952	0,116	0,003
-655,116	4,317	0,040	0,021
-654,101	331,174	0,041	-0,058
-653,086	698,015	0,070	0,134
-652,072	136,075	0,095	-0,089
-651,057	-46,229	-0,030	0,011
-650,043	-161,781	0,121	-0,004
-649,028	-200,000	0,017	-0,083
-648,014	-70,751	0,102	-0,027
-646,999	800,000	0,020	-0,058
-645,984	800,000	-0,023	0,062
-644,970	-142,203	0,012	-0,001
-643,955	13,005	0,029	-0,016
-642,941	163,049	-0,044	-0,045
-641,926	800,000	0,063	-0,179
-640,911	-200,000	-0,016	0,053
-639,897	12,672	-0,069	-0,039
-638,882	-200,000	0,017	-0,114
-637,868	-200,000	-0,005	-0,023
-636,853	-200,000	-0,042	-0,163
-635,838	45,762	-0,038	0,025
-634,824	-87,185	0,038	0,008
-633,809	-200,000	0,001	-0,097
-632,795	-200,000	-0,033	-0,143
-631,780	93,559	-0,043	-0,035
-630,765	59,088	-0,053	0,037
-629,751	-200,000	-0,021	0,069
-628,736	231,308	-0,008	-0,010
-627,722	800,000	-0,035	-0,078
-626,707	283,658	-0,016	0,021
-625,692	119,429	0,110	0,098
-624,678	485,043	-0,051	0,084
-623,663	-60,450	-0,136	0,041
-622,649	44,140	0,020	-0,013
-621,634	-200,000	0,012	-0,239
-620,619	98,810	-0,101	-0,084
-619,605	90,874	0,082	0,066
-618,590	-200,000	0,021	0,112
-617,576	92,100	-0,066	-0,053
-616,561	-85,508	0,191	-0,042
-615,546	25,195	-0,161	-0,096
-614,532	405,614	-0,112	0,171
-613,517	19,297	-0,113	-0,065
-612,503	-200,000	0,019	0,077
-611,488	557,387	0,103	0,180
-610,474	-200,000	0,014	0,051
-609,459	-77,147	-0,039	-0,010
-608,444	74,069	-0,138	-0,104
-607,430	-200,000	-0,013	0,060
-606,415	300,452	0,051	-0,068
-605,401	53,948	0,029	-0,020
-604,386	146,871	0,024	0,023
-603,371	-8,686	0,214	0,103
-602,357	-200,000	-0,003	0,055
-601,342	48,578	-0,137	0,093
-600,328	-200,000	-0,035	-0,189
-599,313	-4,965	-0,016	-0,008
-598,298	-170,700	0,104	0,003
-597,284	-200,000	0,016	0,087
-596,269	-200,000	0,004	0,094
-595,255	288,698	-0,045	0,059
-594,240	111,009	-0,087	-0,075
-593,225	-127,415	0,080	0,008
-592,211	73,666	0,061	0,046
-591,196	98,787	-0,070	0,058
-590,182	-86,111	0,160	0,035
-589,167	-81,541	-0,041	0,010
-588,152	-200,000	0,004	0,054
-587,138	-200,000	-0,002	-0,147
-586,123	62,090	0,062	0,044
-585,109	503,228	-0,062	0,104
-584,094	-164,165	-0,082	-0,003
-583,079	-74,598	0,154	0,039
-582,065	771,871	-0,083	0,163
-581,050	261,163	-0,011	0,014
-580,036	-156,696	-0,144	0,006
-579,021	-162,133	-0,110	-0,004
-578,006	-200,000	0,036	-0,152
-576,992	-84,782	-0,127	-0,029
-575,977	-200,000	-0,011	0,164
-574,963	65,924	0,021	-0,016
-573,948	263,266	-0,047	-0,058
-572,934	-11,889	0,127	-0,060
-571,919	800,000	-0,031	0,070
-570,904	22,914	-0,122	-0,072
-569,890	262,211	-0,070	0,087
-568,875	-200,000	-0,035	0,152
-567,861	-200,000	-0,012	0,075
-566,846	519,453	-0,055	0,093
-565,831	202,946	-0,054	0,060
-564,817	-174,245	0,044	-0,001
-563,802	-41,818	-0,141	-0,052
-562,788	-200,000	0,003	-0,020
-561,773	800,000	0,064	-0,130
-560,758	74,280	0,019	0,014
-559,744	-69,361	-0,117	0,032
-558,729	-200,000	-0,023	0,108
-557,715	-163,261	0,008	0,000
-556,700	-31,442	-0,055	0,022
-555,685	-85,225	-0,052	0,012
-554,671	87,570	0,123	0,098
-553,656	204,300	-0,056	-0,062
-552,642	-105,267	-0,064	0,010
-551,627	-200,000	0,025	0,112
-550,612	183,365	-0,038	0,041
-549,598	118,784	-0,102	-0,091
-548,583	-49,129	-0,154	-0,053
-547,569	-200,000	0,011	-0,110
-546,554	221,222	0,077	0,089
-545,539	112,842	0,096	0,084
-544,525	800,000	-0,048	0,108
-543,510	-200,000	-0,011	0,037
-542,496	472,020	-0,102	-0,166
-541,481	800,000	-0,015	-0,047
-540,466	538,465	-0,053	0,091
-539,452	800,000	-0,048	0,134
-538,437	-154,578	0,160	0,008
-537,423	-170,410	-0,168	0,004
-536,408	20,545	0,048	-0,028
-535,393	-27,522	0,074	-0,031
-534,379	-21,817	0,157	0,068
-533,364	167,833	-0,055	0,057
-532,350	23,652	-0,107	-0,063
-531,335	-200,000	0,006	0,073
-530,321	55,934	-0,032	0,022
-529,306	116,181	0,057	0,051
-528,291	800,000	-0,040	-0,099
-527,277	-13,869	-0,067	-0,031
-526,262	-83,241	0,096	-0,022
-525,248	-151,338	-0,087	0,005
-524,233	-53,204	0,120	0,039
-523,218	108,943	0,059	-0,051
-522,204	171,612	-0,058	-0,059
-521,189	800,000	0,042	-0,088
-520,175	-75,489	-0,043	-0,011
-519,160	-33,178	0,074	0,029
-518,145	-200,000	-0,010	0,066
-517,131	409,749	0,084	0,128
-516,116	800,000	-0,027	0,075
-515,102	-140,324	-0,097	0,007
-514,087	-40,282	-0,041	-0,015
-513,072	334,797	-0,039	-0,054
-512,058	-200,000	-0,041	-0,178
-511,043	149,685	0,055	-0,054
-510,029	507,069	-0,027	0,046
-509,014	-66,762	0,144	0,041
-507,999	-20,918	-0,047	-0,020
-506,985	800,000	0,012	-0,028
-505,970	-200,000	-0,004	-0,051
-504,956	-200,000	-0,003	0,052
-503,941	-200,000	-0,033	-0,112
-502,926	-74,067	0,044	-0,011
-501,912	-129,559	0,144	0,014
-500,897	228,135	0,040	0,047
-499,883	33,908	-0,097	-0,060
-498,868	81,005	-0,140	-0,108
-497,853	169,092	-0,075	-0,077
-496,839	376,835	0,011	0,016
-495,824	-141,543	0,155	-0,011
-494,810	800,000	0,024	0,049
-493,795	273,767	-0,048	0,062
-492,781	-111,429	-0,051	-0,007
-491,766	-159,616	-0,078	-0,003
-490,751	-62,392	0,175	0,052
-489,737	-136,843	-0,138	-0,011
-488,722	45,002	0,077	0,051
-487,708	-81,532	-0,076	0,018
-486,693	-200,000	-0,009	0,071
-485,678	98,890	0,082	0,067
-484,664	14,610	0,059	-0,033
-483,649	800,000	-0,019	-0,046
-482,635	-139,179	-0,045	-0,003
-481,620	-200,000	-0,011	-0,037
-480,605	-200,000	-0,013	0,059
-479,591	-200,000	-0,008	0,154
-478,576	33,102	0,108	0,067
-477,562	-15,760	-0,080	0,036
-476,547	-200,000	0,021	-0,082
-475,532	-200,000	0,013	0,048
-474,518	-24,984	-0,023	0,010
-473,503	-200,000	0,036	-0,134
-472,489	800,000	0,060	-0,168
-471,474	180,446	-0,035	-0,037
-470,459	-200,000	0,004	-0,048
-469,445	420,556	-0,041	-0,063
-468,430	330,402	0,038	-0,053
-467,416	-200,000	-0,003	0,235
-466,401	-9,963	0,054	-0,025
-465,386	800,000	0,049	0,117
-464,372	-27,922	-0,065	0,027
-463,357	345,634	-0,048	-0,067
-462,343	-200,000	0,003	-0,083
-461,328	-200,000	0,022	-0,116
-460,313	-131,200	0,110	0,010
-459,299	135,596	0,038	-0,035
-458,284	-200,000	-0,010	0,111
-457,270	-93,634	-0,106	0,021
-456,255	800,000	-0,039	-0,110
-455,241	-200,000	0,015	-0,069
-454,226	137,747	-0,125	-0,117
-453,211	-85,652	0,066	-0,015
-452,197	-73,311	-0,010	0,003
-451,182	-30,529	0,072	-0,029
-450,168	-93,231	-0,067	-0,013
-449,153	-115,174	0,058	0,008
-448,138	-107,100	-0,163	0,025
-447,124	-200,000	0,008	0,108
-446,109	186,205	-0,115	-0,123
-445,095	109,441	0,119	-0,102
-444,080	800,000	0,022	-0,053
-443,065	14,907	-0,023	0,013
-442,051	800,000	0,028	-0,068
-441,036	-200,000	0,031	-0,100
-440,022	144,238	-0,120	-0,115
-439,007	-56,195	0,116	-0,037
-437,992	290,437	0,087	0,113
-436,978	-74,101	-0,124	0,032
-435,963	-21,737	-0,090	-0,039
-434,949	-200,000	0,031	-0,161
-433,934	800,000	-0,045	-0,091
-432,919	-68,087	-0,121	-0,034
-431,905	155,002	0,049	0,048
-430,890	259,207	-0,039	-0,048
-429,876	232,145	0,098	-0,115
-428,861	1,423	0,145	-0,074
-427,846	455,520	-0,059	-0,093
-426,832	262,619	0,030	0,037
-425,817	-91,877	0,071	-0,014
-424,803	57,453	0,103	0,072
-423,788	800,000	0,003	0,008
-422,773	318,414	0,031	0,043
-421,759	-35,891	-0,157	-0,060
-420,744	-149,429	0,049	-0,003
-419,730	-134,016	-0,026	0,002
-418,715	-56,295	-0,053	-0,017
-417,701	60,972	-0,088	0,062
-416,686	-200,000	0,032	0,129
-415,671	186,099	0,072	0,076
-414,657	-52,015	0,098	-0,032
-413,642	179,773	0,036	-0,038
-412,628	65,086	-0,013	-0,009
-411,613	267,340	-0,014	-0,018
-410,598	141,632	0,076	0,072
-409,584	425,517	0,056	-0,086
-408,569	690,534	0,071	0,133
-407,555	-200,000	0,011	-0,091
-406,540	-57,378	0,105	0,033
-405,525	523,322	-0,073	-0,123
-404,511	800,000	0,010	-0,023
-403,496	66,216	0,040	-0,029
-402,482	266,781	-0,032	-0,040
-401,467	-77,953	0,104	-0,025
-400,452	800,000	0,010	0,023
-399,438	-200,000	0,060	0,202
-398,423	187,291	-0,071	-0,076
-397,409	-200,000	0,006	0,145
-396,394	32,506	-0,089	-0,055
-395,379	191,259	0,047	-0,050
-394,365	669,483	0,040	0,073
-393,350	726,866	0,080	0,154
-392,336	584,585	0,025	-0,044
-391,321	800,000	-0,028	-0,078
-390,306	35,151	-0,042	-0,026
-389,292	22,847	0,030	-0,017
-388,277	-44,534	0,020	0,007
-387,263	800,000	-0,012	0,025
-386,248	-50,005	0,093	-0,031
-385,233	391,778	0,055	-0,082
-384,219	-200,000	0,002	0,041
-383,204	-102,368	-0,074	-0,013
-382,190	-200,000	-0,010	0,056
-381,175	147,516	0,060	-0,057
-380,160	-200,000	0,014	0,117
-379,146	383,262	-0,053	0,077
-378,131	-12,240	0,125	-0,058
-377,117	-200,000	0,006	0,049
-376,102	-200,000	0,004	-0,018
-375,088	272,287	-0,041	-0,052
-374,073	494,135	0,041	0,068
-373,058	-116,064	-0,047	0,006
-372,044	-8,849	-0,062	0,030
-371,029	-200,000	0,001	0,104
-370,015	128,744	0,085	-0,077
-369,000	-200,000	-0,031	-0,104
-367,985	114,750	-0,134	-0,117
-366,971	-200,000	-0,012	-0,066
-365,956	-68,589	-0,042	0,011
-364,942	172,633	0,138	-0,142
-363,927	131,790	0,097	0,089
-362,912	-200,000	-0,026	0,111
-361,898	244,577	-0,038	-0,045
-360,883	-169,652	-0,083	0,002
-359,869	-120,835	0,141	0,017
-358,854	317,669	0,068	0,092
-357,839	-200,000	-0,001	0,066
-356,825	800,000	0,039	0,104
-355,810	800,000	-0,030	0,061
-354,796	-200,000	-0,002	-0,101
-353,781	-115,502	-0,085	-0,011
-352,766	-200,000	0,008	0,040
-351,752	-53,356	-0,073	0,024
-350,737	612,717	0,059	0,106
-349,723	360,959	-0,060	-0,086
-348,708	155,082	0,035	0,034
-347,693	-99,673	-0,243	0,043
-346,679	-200,000	0,003	-0,094
-345,664	800,000	0,036	-0,092
-344,650	800,000	0,040	-0,124
-343,635	24,403	-0,011	-0,007
-342,620	-96,614	0,154	-0,029
-341,606	377,352	-0,117	-0,170
-340,591	-200,000	-0,004	0,033
-339,577	-200,000	0,007	-0,133
-338,562	40,257	-0,156	-0,100
-337,548	-85,354	-0,152	0,033
-336,533	318,321	0,032	-0,043
-335,518	619,631	0,036	-0,064
-334,504	-43,432	0,066	0,024
-333,489	-200,000	-0,003	0,065
-332,475	183,697	-0,074	-0,078
-331,460	146,065	-0,066	0,063
-330,445	-55,604	0,052	-0,017
-329,431	-200,000	0,040	-0,132
-328,416	61,866	0,070	-0,049
-327,402	-24,092	-0,058	0,025
-326,387	-200,000	-0,025	0,100
-325,372	-83,575	0,150	0,034
-324,358	83,066	-0,050	-0,039
-323,343	305,241	0,013	0,018
-322,329	-14,075	0,103	-0,047
-321,314	39,749	0,012	0,008
-320,299	-120,214	-0,085	-0,010
-319,285	167,259	0,042	0,042
-318,270	255,279	-0,054	-0,066
-317,256	338,383	-0,097	-0,135
-316,241	-200,000	0,013	0,073
-315,226	-0,485	0,060	-0,030
-314,212	-121,115	-0,089	-0,011
-313,197	800,000	-0,038	0,098
-312,183	800,000	0,034	-0,101
-311,168	485,377	0,022	0,036
-310,153	800,000	0,041	-0,101
-309,139	-72,701	-0,099	0,026
-308,124	-200,000	0,029	0,130
-307,110	800,000	0,045	0,106
-306,095	-112,989	0,055	0,008
-305,080	-124,087	0,047	-0,005
-304,066	-200,000	-0,017	-0,117
-303,051	800,000	-0,045	-0,111
-302,037	-112,517	0,204	0,029
-301,022	-152,610	-0,104	-0,005
-300,008	-48,332	0,157	-0,054
-298,993	-146,230	-0,172	-0,011
-297,978	53,641	0,093	-0,063
-296,964	-18,004	-0,019	-0,008
-295,949	-77,078	0,208	-0,051
-294,935	800,000	-0,018	0,047
-293,920	-17,995	-0,079	-0,035
-292,905	-111,327	0,138	-0,020
-291,891	16,937	0,111	0,063
-290,876	-4,616	-0,071	-0,035
-289,862	800,000	-0,059	0,134
-288,847	-200,000	-0,001	-0,131
-287,832	292,381	-0,039	-0,050
-286,818	-17,833	0,035	-0,015
-285,803	-123,366	0,074	-0,008
-284,789	-15,504	0,214	0,097
-283,774	-113,656	0,066	0,009
-282,759	159,173	0,050	-0,050
-281,745	137,858	-0,061	-0,057
-280,730	81,986	0,054	-0,041
-279,716	748,306	0,012	-0,023
-278,701	-27,457	-0,027	0,011
-277,686	654,968	0,048	0,089
-276,672	10,810	0,112	0,060
-275,657	800,000	0,032	0,073
-274,643	800,000	0,019	-0,043
-273,628	-200,000	-0,012	-0,089
-272,613	-25,804	-0,005	-0,002
-271,599	800,000	-0,031	0,094
-270,584	14,890	0,062	-0,034
-269,570	-3,901	0,133	0,066
-268,555	-200,000	-0,021	-0,119
-267,540	-200,000	-0,011	0,045
-266,526	-65,222	-0,074	-0,021
-265,511	-42,182	-0,028	-0,010
-264,497	275,687	0,049	0,062
-263,482	-200,000	-0,023	0,132
-262,467	-200,000	0,006	0,046
-261,453	800,000	0,027	0,080
-260,438	277,098	0,035	-0,044
-259,424	-200,000	0,012	-0,090
-258,409	-200,000	-0,009	-0,121
-257,395	93,362	-0,058	-0,047
-256,380	63,772	0,140	0,100
-255,365	-165,569	-0,123	-0,004
-254,351	-135,269	0,191	0,016
-253,336	353,364	-0,078	0,110
-252,322	800,000	-0,046	-0,133
-251,307	-30,906	-0,123	-0,049
-250,292	7,610	-0,090	-0,048
-249,278	-200,000	0,011	0,059
-248,263	-200,000	-0,006	0,089
-247,249	-200,000	0,011	0,039
-246,234	88,814	-0,040	0,031
-245,219	281,311	-0,091	-0,116
-244,205	-200,000	0,000	-0,085
-243,190	-159,122	-0,078	0,003
-242,176	-50,637	0,099	0,033
-241,161	-3,145	0,060	-0,030
-240,146	682,604	0,040	0,075
-239,132	-200,000	0,016	-0,070
-238,117	-152,107	-0,044	0,002
-237,103	800,000	0,022	-0,060
-236,088	-200,000	-0,018	-0,083
-235,073	-200,000	0,019	0,083
-234,059	194,209	0,116	0,124
-233,044	768,905	-0,035	0,069
-232,030	800,000	0,007	0,014
-231,015	718,257	-0,007	-0,013
-230,000	-33,580	0,223	-0,087
-228,986	65,691	-0,045	0,032
-227,971	-187,090	0,043	0,000
-226,957	1,426	0,131	0,067
-225,942	389,061	-0,062	0,091
-224,927	158,728	-0,075	0,074
-223,913	162,611	0,055	-0,054
-222,898	-162,550	-0,128	-0,004
-221,884	-200,000	-0,013	-0,075
-220,869	-200,000	0,019	0,112
-219,855	290,814	-0,053	0,068
-218,840	49,610	0,032	0,021
-217,825	31,814	-0,041	0,025
-216,811	-108,554	-0,081	-0,012
-215,796	-200,000	-0,022	-0,149
-214,782	-200,000	-0,006	0,027
-213,767	800,000	0,028	0,083
-212,752	800,000	-0,025	0,061
-211,738	26,179	0,032	-0,019
-210,723	56,875	-0,060	-0,042
-209,709	15,954	-0,095	-0,053
-208,694	98,000	0,067	0,055
-207,679	116,895	-0,123	0,107
-206,665	245,558	0,068	-0,082
-205,650	-200,000	-0,008	-0,070
-204,636	800,000	-0,045	0,130
-203,621	800,000	-0,042	0,097
-202,606	-28,929	-0,107	0,043
-201,592	292,079	-0,114	-0,148
-200,577	-4,266	-0,089	0,044
-199,563	-77,054	-0,019	-0,005
-198,548	-22,334	0,164	-0,070
-197,533	-17,383	0,129	0,057
-196,519	42,185	-0,105	-0,068
-195,504	-76,079	0,057	-0,014
-194,490	-90,168	-0,015	0,003
-193,475	86,671	-0,170	-0,133
-192,460	228,832	0,101	0,116
-191,446	116,102	0,111	0,096
-190,431	-200,000	0,025	0,188
-189,417	-48,144	-0,064	-0,022
-188,402	527,970	-0,094	0,158
-187,387	-97,998	-0,068	-0,012
-186,373	-81,095	0,014	0,003
-185,358	-122,727	0,087	0,010
-184,344	-60,455	0,026	-0,008
-183,329	-200,000	0,040	0,181
-182,315	-123,573	0,019	0,002
-181,300	69,299	-0,023	0,017
-180,285	384,121	-0,064	-0,094
-179,271	-55,100	0,083	0,026
-178,256	168,403	-0,042	-0,042
-177,242	-39,044	-0,093	0,035
-176,227	-139,636	0,079	-0,006
-175,212	-115,116	-0,072	-0,010
-174,198	-162,873	0,151	0,005
-173,183	665,362	-0,044	0,080
-172,169	-200,000	0,011	-0,110
-171,154	-200,000	-0,015	0,090
-170,139	129,184	0,045	0,041
-169,125	291,139	0,055	0,071
-168,110	-83,801	-0,109	0,024
-167,096	-98,179	-0,077	-0,014
-166,081	138,939	-0,072	-0,067
-165,066	800,000	-0,018	-0,041
-164,052	615,395	-0,033	0,059
-163,037	-10,772	0,047	-0,022
-162,023	-12,355	0,049	0,023
-161,008	-197,227	-0,093	0,000
-159,993	-200,000	-0,003	0,068
-158,979	396,594	0,076	0,113
-157,964	-119,000	0,098	-0,012
-156,950	591,560	-0,023	-0,040
-155,935	-200,000	-0,020	0,101
-154,920	251,479	0,166	0,200
-153,906	23,982	0,016	-0,009
-152,891	66,291	0,097	-0,070
-151,877	-167,102	0,063	0,002
-150,862	-72,297	-0,086	0,022
-149,847	326,602	-0,065	0,088
-148,833	-21,437	0,037	0,016
-147,818	-77,551	-0,162	0,039
-146,804	800,000	0,093	0,193
-145,789	-16,329	0,139	-0,062
-144,775	82,552	-0,042	-0,032
-143,760	256,212	-0,025	0,031
-142,745	800,000	0,020	0,056
-141,731	-200,000	-0,008	0,114
-140,716	-106,693	0,275	0,043
-139,702	717,788	-0,025	0,047
-138,687	-95,407	0,131	-0,025
-137,672	-200,000	0,005	-0,119
-136,658	531,171	0,024	-0,040
-135,643	-200,000	0,001	-0,088
-134,629	421,544	0,012	0,018
-133,614	-200,000	0,049	0,195
-132,599	-14,589	0,092	-0,042
-131,585	116,851	0,018	0,016
-130,570	-149,408	-0,100	-0,006
-129,556	206,310	0,084	0,093
-128,541	-128,233	0,075	-0,007
-127,526	-88,632	-0,102	0,021
-126,512	631,616	0,037	0,067
-125,497	52,322	0,103	0,069
-124,483	-77,969	-0,111	0,027
-123,468	119,060	0,091	0,080
-122,453	16,306	0,039	-0,022
-121,439	79,631	-0,053	0,040
-120,424	-176,153	-0,076	0,001
-119,410	305,340	0,055	0,072
-118,395	-200,000	0,023	-0,075
-117,380	43,793	-0,027	-0,018
-116,366	-200,000	-0,065	0,000
-115,351	-31,631	0,015	-0,006
-114,337	800,000	0,091	-0,189
-113,322	-8,263	0,065	0,031
-112,307	-46,283	0,033	0,012
-111,293	-200,000	0,014	0,145
-110,278	170,513	0,041	0,042
-109,264	0,555	-0,121	0,061
-108,249	-125,353	-0,021	-0,002
-107,234	-73,277	0,077	-0,020
-106,220	508,900	-0,045	-0,075
-105,205	43,340	0,100	0,065
-104,191	17,639	0,075	0,042
-103,176	321,860	-0,084	0,113
-102,162	800,000	0,024	0,068
-101,147	800,000	-0,062	0,162
-100,132	396,841	0,050	0,074
-99,118	-200,000	-0,009	-0,067
-98,103	14,908	0,095	-0,053
-97,089	800,000	-0,036	0,084
-96,074	244,597	-0,025	-0,029
-95,059	210,002	-0,064	-0,071
-94,045	205,453	-0,116	-0,127
-93,030	660,663	0,033	0,061
-92,016	800,000	-0,014	0,031
-91,001	-200,000	-0,003	0,013
-89,986	800,000	0,044	0,117
-88,972	64,822	0,068	-0,048
-87,957	127,456	-0,069	0,062
-86,943	-200,000	0,009	-0,104
-85,928	36,319	-0,051	0,032
-84,913	-6,387	0,020	0,010
-83,899	800,000	-0,030	-0,070
-82,884	-90,093	0,060	-0,012
-81,870	800,000	0,043	0,104
-80,855	263,370	-0,067	-0,083
-79,840	19,859	-0,047	-0,027
-78,826	800,000	0,022	0,067
-77,811	36,058	-0,088	-0,054
-76,797	204,746	-0,015	0,017
-75,782	197,404	-0,037	-0,040
-74,767	71,037	0,070	0,051
-73,753	182,608	0,011	-0,012
-72,738	62,485	0,086	-0,061
-71,724	17,841	-0,116	-0,065
-70,709	9,068	0,038	-0,020
-69,694	103,640	0,052	0,043
-68,680	3,541	0,093	-0,048
-67,665	800,000	0,047	0,095
-66,651	607,573	-0,039	0,068
-65,636	800,000	-0,029	0,058
-64,622	-51,237	0,113	-0,037
-63,607	-22,790	-0,093	0,039
-62,592	800,000	-0,023	-0,047
-61,578	363,254	0,035	0,050
-60,563	-200,000	0,024	0,137
-59,549	-200,000	0,031	0,162
-58,534	39,446	-2,144	-1,352
-57,519	590,455	-1,107	-1,934
-56,505	-200,000	-0,612	-4,560
-55,490	416,072	1,079	1,629
-54,476	800,000	5,141	11,230
-53,461	-200,000	21,671	344,354
-52,446	800,000	764,028	2336,651
-51,432	544,226	1662,614	2810,149
-50,417	71,028	1659,571	1211,310
-49,403	17,130	1533,142	854,809
-48,388	11,155	1457,165	783,575
-47,373	19,344	1448,921	818,371
-46,359	14,698	1437,602	789,883
-45,344	9,466	1433,608	762,773
-44,330	9,409	1431,858	761,536
-43,315	9,390	1429,997	760,426
-42,300	9,446	1428,056	759,629
-41,286	9,458	1426,978	759,085
-40,271	9,344	1426,041	758,018
-39,257	9,410	1424,450	757,453
-38,242	9,404	1423,626	756,958
-37,227	9,438	1422,589	756,538
-36,213	9,415	1421,185	755,652
-35,198	9,466	1419,776	755,112
-34,184	9,481	1418,940	754,710
-33,169	9,388	1417,601	753,527
-32,154	9,416	1416,576	753,086
-31,140	9,384	1415,416	752,287
-30,125	9,425	1414,299	751,855
-29,111	9,466	1413,012	751,334
-28,096	9,435	1411,810	750,519
-27,082	9,395	1410,477	749,594
-26,067	9,368	1409,552	748,944
-25,052	9,390	1408,559	748,492
-24,038	9,413	1407,695	748,112
-23,023	9,372	1406,678	747,352
-22,009	9,376	1405,510	746,718
-20,994	9,391	1404,544	746,246
-19,979	9,390	1403,724	745,774
-18,965	9,344	1402,720	744,998
-17,950	9,314	1401,729	744,302
-16,936	9,330	1401,067	743,994
-15,921	9,253	1400,175	743,134
-14,906	9,349	1399,001	742,928
-13,892	9,350	1397,998	742,372
-12,877	9,354	1397,296	741,988
-11,863	9,312	1396,444	741,312
-10,848	9,261	1395,598	740,594
-9,833	9,240	1394,623	739,951
-8,819	9,229	1393,586	739,319
-7,804	9,203	1392,946	738,831
-6,790	9,187	1391,733	738,086
-5,775	9,198	1390,711	737,565
-4,760	9,199	1389,651	736,977
-3,746	9,259	1388,656	736,700
-2,731	9,203	1387,852	735,984
-1,717	9,229	1387,101	735,675
-0,702	9,187	1385,474	734,591
0,313	13,449	1297,204	707,179
1,327	29,872	687,452	411,835
2,342	46,901	118,702	77,618
3,356	0,091	16,577	8,297
4,371	1,595	3,685	1,863
5,386	-9,666	1,163	0,544
6,400	-200,000	0,209	0,695
7,415	394,993	-0,109	-0,160
8,429	70,803	-0,324	-0,236
9,444	20,209	-0,469	-0,266
10,459	-123,801	-0,338	-0,037
11,473	-25,766	-0,279	-0,115
12,488	56,865	-0,409	-0,280
13,502	-27,947	-0,386	-0,157
14,517	-62,414	-0,440	-0,128
15,531	48,743	-0,442	-0,291
16,546	18,229	-0,301	-0,168
17,561	126,872	-0,416	-0,371
18,575	-34,016	-0,231	-0,089
19,590	335,185	-0,223	-0,304
20,604	-6,925	-0,253	-0,120
21,619	114,551	-0,462	-0,396
22,634	132,503	-0,416	-0,377
23,648	70,273	-0,348	-0,252
24,663	7,113	-0,338	-0,177
25,677	18,377	-0,358	-0,201
26,692	11,009	-0,399	-0,214
27,707	8,830	-0,363	-0,192
28,721	3,003	-0,409	-0,208
29,736	197,396	-0,356	-0,383
30,750	183,075	-0,380	-0,395
31,765	98,243	-0,281	-0,227
32,780	38,712	-0,264	-0,165
33,794	194,479	-0,274	-0,292
34,809	423,228	-0,232	-0,351
35,823	-30,636	-0,361	-0,143
36,838	14,951	-0,376	-0,206
37,853	88,888	-0,449	-0,350
38,867	110,766	-0,398	-0,336
39,882	117,750	-0,368	-0,318
40,896	-36,138	-0,496	-0,187
41,911	78,482	-0,328	-0,246
42,926	27,817	-0,363	-0,214
43,940	-9,833	-0,303	-0,141
44,955	-17,290	-0,434	-0,191
45,969	90,646	-0,356	-0,280
46,984	149,897	-0,267	-0,254
47,999	40,166	-0,398	-0,251
49,013	84,410	-0,306	-0,235
50,028	0,538	-0,355	-0,177
51,042	100,965	-0,371	-0,302
52,057	-50,889	-0,335	-0,110
53,071	319,785	-0,292	-0,390
54,086	113,940	-0,300	-0,256
55,101	363,104	-0,206	-0,291
56,115	19,451	-0,368	-0,207
57,130	73,683	-0,299	-0,220
58,144	124,336	-0,306	-0,270
59,159	178,181	-0,318	-0,325
60,174	167,667	-0,409	-0,408
61,188	-14,147	-0,481	-0,216
62,203	115,500	-0,277	-0,237
63,217	133,940	-0,340	-0,308
64,232	321,297	-0,227	-0,303
65,247	49,055	-0,241	-0,158
66,261	4,649	-0,418	-0,214
67,276	52,673	-0,263	-0,176
68,290	20,037	-0,330	-0,186
69,305	153,212	-0,217	-0,208
70,320	63,056	-0,365	-0,256
71,334	179,659	-0,295	-0,303
72,349	38,200	-0,275	-0,171
73,363	-15,336	-0,405	-0,181
74,378	52,713	-0,365	-0,244
75,393	49,433	-0,365	-0,240
76,407	54,936	-0,298	-0,201
77,422	143,100	-0,183	-0,171
78,436	-61,894	-0,314	-0,091
79,451	32,411	-0,230	-0,139
80,466	36,808	-0,273	-0,169
81,480	90,257	-0,280	-0,219
82,495	-5,459	-0,267	-0,128
83,509	89,606	-0,234	-0,182
84,524	-61,975	-0,330	-0,096
85,539	25,986	-0,314	-0,183
86,553	-89,968	-0,198	-0,040
87,568	-5,112	-0,399	-0,191
88,582	59,120	-0,286	-0,196
89,597	88,075	-0,276	-0,214
90,611	62,188	-0,273	-0,190
91,626	23,505	-0,278	-0,160
92,641	67,336	-0,273	-0,194
93,655	316,049	-0,084	-0,111
94,670	184,318	-0,252	-0,261
95,684	-39,551	-0,326	-0,119
96,699	22,390	-0,327	-0,186
97,714	-16,586	-0,330	-0,146
98,728	62,039	-0,294	-0,204
99,743	84,576	-0,244	-0,187
100,757	1,824	-0,258	-0,130
101,772	52,089	-0,301	-0,200
102,787	83,074	-0,236	-0,179
103,801	140,513	-0,275	-0,253
104,816	44,909	-0,250	-0,160
105,830	38,958	-0,202	-0,126
106,845	-42,083	-0,207	-0,074
107,860	-108,227	-0,481	-0,072
108,874	1,797	-0,276	-0,139
109,889	209,836	-0,246	-0,270
110,903	18,576	-0,175	-0,098
111,918	4,544	-0,272	-0,139
112,933	118,852	-0,227	-0,195
113,947	6,913	-0,259	-0,134
114,962	-64,124	-0,311	-0,088
115,976	-25,927	-0,158	-0,065
116,991	61,883	-0,278	-0,193
118,006	31,298	-0,309	-0,185
119,020	268,009	-0,171	-0,209
120,035	800,000	-0,085	-0,259
121,049	-118,431	-0,225	0,028
122,064	-184,721	-0,272	0,003
123,079	88,731	-0,219	-0,170
124,093	-23,453	-0,392	-0,164
125,108	176,931	-0,201	-0,204
126,122	281,471	-0,162	-0,202
127,137	168,074	-0,246	-0,244
128,151	-150,885	-0,307	-0,016
129,166	-162,484	-0,298	-0,010
130,181	1,195	-0,233	-0,116
131,195	408,053	-0,142	-0,210
132,210	800,000	-0,124	-0,250
133,224	160,343	-0,245	-0,238
134,239	800,000	-0,087	-0,247
135,254	214,415	-0,131	-0,145
136,268	-25,600	-0,314	-0,129
137,283	-119,777	-0,220	-0,026
138,297	142,694	-0,240	-0,223
139,312	34,217	-0,309	-0,187
140,327	498,146	-0,162	-0,260
141,341	214,319	-0,245	-0,271
142,356	137,674	-0,084	-0,076
143,370	293,017	-0,115	-0,147
144,385	-45,535	-0,303	-0,104
145,400	-96,907	-0,171	-0,031
146,414	63,833	-0,205	-0,143
147,429	101,359	-0,228	-0,184
148,443	66,161	-0,184	-0,130
149,458	-107,243	-0,298	-0,045
150,473	34,508	-0,113	-0,068
151,487	28,877	-0,223	-0,131
152,502	56,158	-0,232	-0,156
153,516	188,591	-0,222	-0,231
154,531	79,637	-0,338	-0,252
155,546	2,713	-0,307	-0,154
156,560	-0,708	-0,169	-0,083
157,575	-68,128	-0,164	-0,044
158,589	-67,964	-0,163	-0,044
159,604	18,541	-0,290	-0,161
160,619	164,357	-0,212	-0,208
161,633	32,616	-0,252	-0,151
162,648	-110,393	-0,289	-0,041
163,662	90,981	-0,186	-0,145
164,677	151,330	-0,128	-0,121
165,692	96,411	-0,114	-0,090
166,706	0,282	-0,266	-0,131
167,721	148,293	-0,272	-0,255
168,735	94,044	-0,277	-0,218
169,750	-3,339	-0,197	-0,095
170,764	5,874	-0,219	-0,112
171,779	83,471	-0,152	-0,115
172,794	12,425	-0,244	-0,130
173,808	-20,516	-0,296	-0,126
174,823	-29,423	-0,252	-0,100
175,837	53,668	-0,321	-0,213
176,852	82,367	-0,224	-0,169
177,867	-200,000	0,004	-0,134
178,881	44,814	-0,177	-0,113
179,896	271,094	-0,159	-0,195
180,910	159,495	-0,239	-0,230
181,925	130,432	-0,280	-0,249
182,940	85,771	-0,291	-0,222
183,954	-14,030	-0,262	-0,117
184,969	-121,087	-0,186	0,021
185,983	23,050	-0,175	-0,099
186,998	-10,344	-0,313	-0,143
188,013	135,094	-0,162	-0,146
189,027	-45,445	-0,248	-0,085
190,042	-49,652	-0,292	-0,096
191,056	17,104	-0,184	-0,101
192,071	-4,627	-0,146	-0,070
193,086	-200,000	-0,041	-0,193
194,100	190,278	-0,176	-0,184
195,115	-38,926	-0,295	-0,107
196,129	-65,159	-0,152	-0,042
197,144	-61,672	-0,241	-0,070
198,159	162,006	-0,140	-0,136
199,173	116,152	-0,165	-0,140
200,188	114,599	-0,248	-0,209
201,202	13,193	-0,147	-0,079
202,217	-42,960	-0,192	-0,067
203,232	63,440	-0,170	-0,118
204,246	-200,000	-0,069	-0,321
205,261	161,911	-0,231	-0,224
206,275	800,000	-0,091	-0,189
207,290	47,199	-0,127	-0,082
208,304	-200,000	-0,013	-0,076
209,319	-119,702	-0,196	0,023
210,334	-22,760	-0,325	-0,135
211,348	-60,897	-0,257	-0,075
212,363	40,450	-0,262	-0,163
213,377	285,450	-0,143	-0,179
214,392	-105,773	-0,127	-0,020
215,407	-111,082	-0,173	0,024
216,421	-13,783	-0,121	-0,054
217,436	-150,545	-0,150	0,008
218,450	-59,259	-0,220	-0,065
219,465	633,682	-0,133	-0,234
220,480	261,561	-0,157	-0,189
221,494	376,081	-0,065	-0,092
222,509	173,787	-0,139	-0,139
223,523	252,005	-0,103	-0,122
224,538	83,298	-0,141	-0,106
225,553	800,000	-0,130	-0,293
226,567	89,378	-0,196	-0,151
227,582	88,303	-0,242	-0,186
228,596	31,235	-0,089	0,053
229,611	156,485	-0,195	-0,186
230,626	406,652	-0,103	-0,151
231,640	800,000	-0,051	-0,122
232,655	-62,442	-0,154	-0,044
233,669	115,781	-0,222	-0,188
234,684	486,346	-0,103	-0,162
235,699	85,519	-0,136	-0,103
236,713	-200,000	-0,034	-0,252
237,728	104,097	-0,143	-0,116
238,742	-200,000	-0,055	-0,254
239,757	92,730	-0,197	-0,153
240,772	-69,019	-0,291	-0,077
241,786	800,000	-0,058	-0,141
242,801	-100,301	-0,245	-0,041
243,815	-105,585	-0,261	-0,040
244,830	-65,255	-0,160	-0,044
245,844	179,963	-0,187	-0,190
246,859	120,712	-0,233	-0,200
247,874	-42,141	-0,348	-0,122
248,888	-55,525	-0,287	-0,088
249,903	145,505	-0,192	-0,178
250,917	800,000	-0,080	-0,157
251,932	121,816	-0,113	-0,098
252,947	41,283	-0,259	-0,161
253,961	122,542	-0,262	-0,225
254,976	317,855	-0,109	-0,142
255,990	236,427	-0,168	-0,192
257,005	212,752	-0,170	-0,185
258,020	-112,840	-0,115	0,015
259,034	26,751	-0,122	-0,070
260,049	33,656	-0,152	-0,091
261,063	-106,452	-0,201	0,031
262,078	800,000	-0,068	-0,136
263,093	-10,958	-0,168	-0,076
264,107	796,451	-0,110	-0,210
265,122	485,437	-0,070	-0,109
266,136	699,320	-0,109	-0,198
267,151	-99,504	-0,106	0,018
268,166	138,501	-0,122	-0,110
269,180	75,539	-0,201	-0,146
270,195	716,664	-0,061	-0,112
271,209	-104,776	-0,290	-0,045
272,224	13,924	-0,201	-0,107
273,239	-121,569	-0,128	-0,014
274,253	-65,111	-0,198	-0,054
275,268	290,558	-0,191	-0,239
276,282	403,581	-0,108	-0,157
277,297	-122,589	-0,135	-0,015
278,312	156,708	-0,120	-0,114
279,326	394,412	-0,044	-0,063
280,341	-72,884	-0,141	-0,035
281,355	-84,138	-0,076	-0,016
282,370	127,028	-0,120	-0,105
283,384	123,658	-0,213	-0,183
284,399	210,979	-0,152	-0,165
285,414	37,618	-0,179	-0,109
286,428	137,577	0,052	-0,047
287,443	-82,271	-0,117	-0,026
288,457	-200,000	0,026	0,084
289,472	800,000	-0,063	-0,128
290,487	676,469	-0,072	-0,129
291,501	160,781	-0,242	-0,232
292,516	-60,221	-0,167	-0,049
293,530	16,860	-0,202	-0,110
294,545	84,162	-0,141	-0,105
295,560	-92,609	-0,144	-0,027
296,574	39,567	-0,095	-0,058
297,589	235,592	-0,105	-0,119
298,603	102,784	-0,170	-0,136
299,618	-58,627	-0,204	-0,060
300,633	190,012	-0,113	-0,117
301,647	-58,699	-0,220	-0,065
302,662	262,073	-0,093	-0,111
303,676	800,000	-0,090	-0,184
304,691	119,543	-0,168	-0,143
305,706	376,823	-0,086	-0,121
306,720	-31,742	-0,131	-0,050
307,735	147,233	-0,126	-0,116
308,749	-121,384	-0,097	-0,011
309,764	-75,060	-0,155	-0,038
310,779	66,917	-0,266	-0,185
311,793	325,038	-0,080	-0,105
312,808	94,843	-0,194	-0,151
313,822	800,000	-0,088	-0,171
314,837	250,320	-0,071	-0,083
315,852	173,047	-0,106	-0,105
316,866	25,138	-0,080	-0,045
317,881	-48,035	-0,134	-0,044
318,895	38,239	-0,131	-0,080
319,910	380,254	-0,020	-0,028
320,925	-127,435	-0,226	-0,022
321,939	301,523	-0,028	-0,035
322,954	800,000	-0,106	-0,267
323,968	-173,994	-0,136	0,003
324,983	31,540	-0,164	-0,096
325,997	45,601	-0,086	-0,054
327,012	323,258	-0,128	-0,167
328,027	170,470	-0,188	-0,185
329,041	-5,436	-0,073	-0,034
330,056	58,050	-0,075	-0,050
331,070	36,072	-0,066	-0,040
332,085	-61,787	-0,115	-0,033
333,100	-200,000	-0,022	-0,128
334,114	800,000	-0,049	-0,099
335,129	664,720	-0,103	-0,182
336,143	234,278	-0,133	-0,150
337,158	496,904	-0,060	-0,095
338,173	-93,282	-0,090	0,017
339,187	-105,060	-0,163	-0,025
340,202	-200,000	0,007	-0,120
341,216	-80,483	-0,092	-0,021
342,231	132,563	-0,100	-0,089
343,246	-168,628	-0,112	0,003
344,260	54,378	-0,104	-0,068
345,275	-69,024	-0,145	0,038
346,289	799,098	-0,067	-0,127
347,304	37,230	-0,110	0,066
348,319	-147,244	-0,244	-0,014
349,333	144,825	-0,131	-0,120
350,348	68,877	-0,124	-0,087
351,362	559,363	-0,075	-0,124
352,377	800,000	-0,079	-0,206
353,392	87,389	-0,033	-0,025
354,406	-117,426	-0,123	0,015
355,421	207,774	1312,237	1401,593
356,435	159,846	1472,615	1402,047
