DTS Sentinel unit serial number:	SN410029Multiplexer serial number:	ORYXHardware model number:	OX2-SRSoftware version number:	ORYX F/W v4,00 Oryx Data Collector v3.7.2.0data status	okinstallation	B3 Nyhavnadifferential loss correction	single-endedforward channel	channel 1reverse channel	N/Adate	2023/12/03time	16:42:30forward acquisition time	300,00reverse acquisition time	0,00gamma	499,1914k internal	0,3197k external	0,3197temperature offset calibration	1,0000default loss term (dB/km)	0,3820temperature slope calibration	1,0000multiplexer offset coefficient	1,0000multiplexer slope coefficient	1,0000fibre end	0,00T internal ref (°C)	15,24T ext. ref 1 (°C)	-0,23T ext. ref 2 (°C)	-0,24length (m)	temperature (°C)	Stokes	anti-Stokes-744,400	-8,433	-0,318	-0,155
-743,385	-200,000	0,071	0,303
-742,371	-200,000	-0,054	-0,305
-741,356	-200,000	0,059	0,258
-740,342	-85,155	-0,244	-0,055
-739,327	46,280	0,093	0,063
-738,312	60,566	-0,367	-0,265
-737,298	-200,000	0,082	0,468
-736,283	258,688	-0,188	-0,236
-735,269	-200,000	-0,030	0,244
-734,254	144,574	-0,222	-0,216
-733,239	-10,992	-0,170	0,082
-732,225	800,000	-0,083	-0,216
-731,210	70,805	0,112	-0,084
-730,196	-200,000	0,029	-0,116
-729,181	-200,000	-0,005	-0,161
-728,167	727,786	0,022	0,044
-727,152	655,287	-0,060	-0,113
-726,137	800,000	-0,029	-0,080
-725,123	211,901	-0,075	-0,086
-724,108	-200,000	-0,035	-0,194
-723,094	250,009	-0,067	-0,083
-722,079	-47,671	-0,047	-0,016
-721,064	685,026	-0,055	-0,104
-720,050	-19,812	0,108	-0,048
-719,035	5,911	-0,063	-0,034
-718,021	-200,000	-0,023	-0,080
-717,006	120,856	-0,115	0,104
-715,991	-200,000	0,028	0,140
-714,977	-116,866	-0,090	0,012
-713,962	800,000	-0,015	0,042
-712,948	-200,000	-0,009	0,070
-711,933	-200,000	-0,002	0,077
-710,918	-131,459	-0,134	-0,013
-709,904	796,884	0,006	-0,013
-708,889	312,140	0,073	-0,101
-707,875	255,732	-0,099	-0,124
-706,860	583,894	0,070	-0,125
-705,845	-200,000	-0,041	0,137
-704,831	-59,173	0,042	0,013
-703,816	171,895	0,052	0,054
-702,802	130,813	-0,059	-0,055
-701,787	800,000	-0,046	-0,121
-700,772	-200,000	0,005	-0,103
-699,758	-124,558	-0,105	-0,012
-698,743	47,233	-0,020	0,014
-697,729	-87,574	0,068	0,015
-696,714	180,450	-0,018	-0,019
-695,699	-200,000	0,005	-0,079
-694,685	-59,068	0,096	-0,030
-693,670	800,000	-0,057	-0,140
-692,656	110,148	-0,139	-0,121
-691,641	-117,850	0,146	0,019
-690,627	-112,213	-0,056	-0,008
-689,612	11,788	-0,084	-0,047
-688,597	-200,000	-0,008	-0,090
-687,583	-160,114	0,100	0,004
-686,568	-200,000	-0,018	-0,086
-685,554	-200,000	-0,012	0,040
-684,539	54,387	0,071	-0,049
-683,524	613,886	-0,045	0,083
-682,510	-196,463	-0,041	-0,000
-681,495	59,856	-0,062	-0,045
-680,481	-94,659	-0,092	-0,018
-679,466	308,220	0,069	-0,093
-678,451	49,296	0,057	-0,039
-677,437	17,551	0,026	-0,015
-676,422	334,905	-0,062	0,087
-675,408	-99,247	0,058	0,010
-674,393	-165,401	-0,107	-0,003
-673,378	-200,000	-0,008	-0,092
-672,364	-16,911	-0,127	0,058
-671,349	35,317	0,046	0,029
-670,335	-86,893	0,025	-0,005
-669,320	-200,000	0,010	-0,051
-668,305	-200,000	0,003	-0,022
-667,291	-200,000	-0,014	-0,063
-666,276	-99,883	0,049	-0,009
-665,262	23,304	-0,068	0,040
-664,247	366,532	0,062	-0,092
-663,232	3,046	0,079	-0,042
-662,218	-32,621	0,045	-0,018
-661,203	129,176	0,058	-0,053
-660,189	666,921	0,027	0,052
-659,174	780,467	0,026	-0,052
-658,159	392,110	0,027	0,040
-657,145	52,147	-0,059	-0,040
-656,130	176,147	0,037	-0,039
-655,116	-123,040	0,024	0,003
-654,101	22,574	0,033	-0,020
-653,086	800,000	0,048	-0,129
-652,072	127,295	0,107	-0,099
-651,057	113,915	-0,136	-0,120
-650,043	-187,311	-0,036	0,000
-649,028	88,536	0,068	0,055
-648,014	57,764	0,118	0,083
-646,999	28,066	-0,096	0,059
-645,984	-27,065	0,074	-0,031
-644,970	79,253	-0,046	-0,036
-643,955	-200,000	0,008	-0,115
-642,941	-200,000	-0,065	-0,232
-641,926	-200,000	-0,003	-0,011
-640,911	33,527	-0,061	-0,038
-639,897	454,782	-0,046	0,074
-638,882	40,796	0,027	-0,017
-637,868	-200,000	0,003	0,062
-636,853	-133,594	-0,151	0,014
-635,838	-200,000	-0,024	0,090
-634,824	-57,551	-0,121	-0,038
-633,809	-200,000	-0,016	0,115
-632,795	-31,807	0,152	0,061
-631,780	81,659	0,046	0,036
-630,765	800,000	-0,042	-0,090
-629,751	-80,785	-0,108	-0,026
-628,736	-65,128	-0,081	-0,024
-627,722	-22,224	-0,052	0,023
-626,707	-28,827	-0,044	0,018
-625,692	-200,000	0,014	-0,102
-624,678	600,568	0,047	0,084
-623,663	800,000	-0,034	-0,094
-622,649	142,861	-0,101	-0,098
-621,634	6,923	0,016	-0,009
-620,619	784,131	0,074	-0,148
-619,605	-60,885	0,020	-0,006
-618,590	-145,217	-0,135	0,009
-617,576	-200,000	-0,001	0,047
-616,561	-92,701	-0,097	0,019
-615,546	-200,000	0,013	0,068
-614,532	800,000	-0,053	-0,122
-613,517	-200,000	-0,029	-0,151
-612,503	-200,000	0,011	0,091
-611,488	539,637	0,043	-0,074
-610,474	24,964	-0,099	-0,059
-609,459	-11,099	-0,079	0,038
-608,444	-137,208	0,189	-0,015
-607,430	-81,933	-0,168	-0,040
-606,415	222,890	-0,002	-0,002
-605,401	-4,053	0,083	-0,042
-604,386	-200,000	0,006	-0,064
-603,371	-50,739	0,138	-0,047
-602,357	-200,000	-0,017	-0,066
-601,342	85,043	-0,072	0,057
-600,328	320,198	-0,107	-0,148
-599,313	-119,868	0,151	0,019
-598,298	800,000	0,026	-0,069
-597,284	15,653	0,125	-0,071
-596,269	-177,404	0,093	-0,002
-595,255	-9,610	-0,048	-0,023
-594,240	-200,000	-0,005	0,094
-593,225	211,286	-0,067	0,077
-592,211	800,000	0,022	-0,064
-591,196	-164,198	-0,126	0,004
-590,182	800,000	0,058	-0,143
-589,167	-200,000	-0,023	0,157
-588,152	-200,000	-0,013	0,056
-587,138	-132,827	0,078	0,007
-586,123	714,582	-0,064	-0,123
-585,109	485,838	0,050	-0,083
-584,094	270,475	-0,045	0,058
-583,079	800,000	0,024	0,072
-582,065	88,885	0,079	0,064
-581,050	-77,294	-0,106	0,027
-580,036	356,261	0,026	-0,037
-579,021	528,298	-0,115	-0,197
-578,006	127,788	-0,145	-0,133
-576,992	800,000	0,047	0,124
-575,977	45,516	-0,075	0,050
-574,963	-200,000	-0,007	0,024
-573,948	-80,843	0,090	-0,021
-572,934	-37,737	0,071	-0,027
-571,919	2,267	-0,066	-0,034
-570,904	129,380	-0,024	-0,022
-569,890	16,393	0,016	0,009
-568,875	37,339	-0,043	-0,027
-567,861	760,102	0,050	-0,099
-566,846	800,000	-0,035	0,071
-565,831	-200,000	0,067	0,221
-564,817	77,707	-0,205	0,158
-563,802	-200,000	-0,009	-0,088
-562,788	-81,218	-0,141	-0,033
-561,773	141,367	-0,083	0,080
-560,758	9,010	0,067	0,037
-559,744	-7,084	0,083	0,040
-558,729	292,135	-0,065	-0,085
-557,715	314,674	0,022	-0,030
-556,700	482,786	-0,051	-0,083
-555,685	145,740	-0,042	-0,041
-554,671	395,916	-0,009	0,014
-553,656	-200,000	-0,002	-0,116
-552,642	-200,000	-0,007	-0,062
-551,627	-144,842	-0,086	-0,006
-550,612	108,622	0,032	0,028
-549,598	92,355	0,030	-0,024
-548,583	38,365	-0,066	-0,042
-547,569	-200,000	0,007	0,088
-546,554	-200,000	0,042	-0,138
-545,539	-200,000	-0,029	-0,155
-544,525	726,159	0,014	0,027
-543,510	-102,302	-0,031	-0,005
-542,496	323,425	0,035	0,049
-541,481	-40,544	-0,117	0,044
-540,466	-40,491	0,180	0,067
-539,452	69,676	0,038	0,028
-538,437	-152,231	0,114	0,006
-537,423	800,000	-0,062	0,189
-536,408	180,398	-0,018	-0,019
-535,393	297,501	0,042	-0,056
-534,379	-200,000	0,016	0,078
-533,364	130,945	0,022	-0,021
-532,350	-200,000	-0,001	0,019
-531,335	-52,297	-0,200	-0,067
-530,321	-125,976	0,134	-0,014
-529,306	659,198	-0,034	0,063
-528,291	-3,116	-0,082	-0,041
-527,277	800,000	0,032	-0,072
-526,262	800,000	-0,059	-0,121
-525,248	800,000	-0,017	-0,052
-524,233	-64,689	-0,009	0,003
-523,218	-200,000	-0,018	0,062
-522,204	569,775	-0,067	0,118
-521,189	114,698	-0,075	-0,066
-520,175	-97,996	-0,076	0,014
-519,160	119,763	-0,114	-0,102
-518,145	-40,278	-0,045	0,017
-517,131	-87,408	0,061	-0,013
-516,116	-40,826	-0,067	0,025
-515,102	-200,000	-0,016	0,162
-514,087	-147,159	-0,108	-0,007
-513,072	-200,000	-0,001	-0,133
-512,058	-181,083	0,070	0,001
-511,043	-200,000	-0,002	-0,031
-510,029	21,522	0,021	0,012
-509,014	-163,566	-0,103	0,003
-507,999	35,886	0,121	0,077
-506,985	800,000	-0,059	0,166
-505,970	50,162	-0,121	-0,082
-504,956	-200,000	-0,037	-0,135
-503,941	-93,631	0,052	-0,010
-502,926	-200,000	-0,009	-0,058
-501,912	-200,000	-0,003	0,013
-500,897	249,315	-0,041	0,051
-499,883	-200,000	0,008	-0,121
-498,868	441,312	-0,066	0,105
-497,853	-200,000	-0,052	-0,204
-496,839	-200,000	-0,021	-0,112
-495,824	800,000	-0,007	-0,021
-494,810	-200,000	-0,008	0,093
-493,795	-200,000	0,018	0,062
-492,781	-15,646	-0,049	-0,022
-491,766	62,970	-0,083	0,060
-490,751	800,000	-0,042	-0,099
-489,737	428,865	-0,071	-0,112
-488,722	6,836	-0,084	-0,045
-487,708	-33,105	-0,081	-0,032
-486,693	-200,000	0,045	0,165
-485,678	-186,040	0,054	0,001
-484,664	78,803	-0,053	-0,041
-483,649	-30,498	-0,059	0,024
-482,635	-149,553	0,091	0,005
-481,620	-71,304	0,062	0,017
-480,605	-5,288	-0,166	0,082
-479,591	45,268	0,125	-0,083
-478,576	-200,000	0,014	0,080
-477,562	-114,218	-0,127	0,018
-476,547	179,313	0,050	-0,053
-475,532	214,083	-0,134	-0,153
-474,518	-45,855	0,060	0,021
-473,503	-200,000	0,015	0,066
-472,489	-10,807	0,146	0,069
-471,474	-200,000	0,003	-0,050
-470,459	422,297	-0,038	-0,059
-469,445	21,259	-0,101	0,059
-468,430	259,378	0,118	0,147
-467,416	48,050	0,032	0,021
-466,401	194,442	0,014	0,015
-465,386	193,463	-0,067	0,073
-464,372	800,000	0,032	-0,084
-463,357	-200,000	0,016	0,119
-462,343	-48,383	-0,093	0,032
-461,328	-103,592	0,041	-0,007
-460,313	-52,403	0,106	0,035
-459,299	-200,000	-0,013	0,055
-458,284	-71,231	-0,219	0,059
-457,270	800,000	0,002	-0,006
-456,255	-200,000	0,012	-0,041
-455,241	-119,098	-0,025	-0,003
-454,226	558,705	-0,008	-0,014
-453,211	450,682	0,081	-0,129
-452,197	45,007	0,129	0,085
-451,182	208,080	-0,069	0,077
-450,168	-140,277	0,128	0,010
-449,153	1,176	-0,014	-0,007
-448,138	-200,000	0,015	0,069
-447,124	-200,000	-0,009	0,042
-446,109	-200,000	-0,009	-0,032
-445,095	-99,130	0,096	0,017
-444,080	-200,000	0,057	0,184
-443,065	-200,000	-0,014	0,147
-442,051	42,395	0,080	-0,052
-441,036	170,365	-0,051	0,052
-440,022	62,276	-0,066	0,047
-439,007	-27,689	-0,105	0,044
-437,992	227,420	0,050	-0,058
-436,978	-3,830	0,117	0,058
-435,963	-68,195	0,129	0,036
-434,949	70,057	-0,084	-0,062
-433,934	-133,647	-0,169	-0,015
-432,919	-200,000	0,011	0,071
-431,905	234,459	0,024	0,028
-430,890	-4,449	-0,143	-0,071
-429,876	-56,729	0,048	0,015
-428,861	491,542	0,045	0,075
-427,846	399,454	-0,057	0,086
-426,832	-200,000	0,003	-0,092
-425,817	90,675	0,019	-0,015
-424,803	-179,101	0,033	-0,001
-423,788	-200,000	0,003	-0,019
-422,773	317,087	0,073	0,099
-421,759	-26,729	0,036	0,015
-420,744	800,000	0,042	0,127
-419,730	800,000	0,014	-0,043
-418,715	-200,000	0,034	-0,247
-417,701	800,000	-0,066	-0,143
-416,686	127,351	-0,051	-0,046
-415,671	268,013	0,036	0,046
-414,657	-200,000	0,008	-0,055
-413,642	65,876	-0,105	0,076
-412,628	-200,000	0,028	-0,101
-411,613	677,363	-0,055	-0,104
-410,598	-200,000	-0,001	-0,006
-409,584	655,942	0,029	0,054
-408,569	630,440	0,054	0,098
-407,555	-116,819	0,114	0,015
-406,540	-200,000	-0,087	0,000
-405,525	800,000	-0,073	-0,154
-404,511	101,509	-0,075	0,063
-403,496	-107,449	0,174	-0,027
-402,482	800,000	0,025	0,078
-401,467	214,663	-0,083	0,095
-400,452	196,421	0,053	0,058
-399,438	800,000	0,007	0,020
-398,423	-115,843	0,066	0,009
-397,409	-200,000	-0,009	-0,192
-396,394	674,310	0,035	0,066
-395,379	800,000	-0,035	0,071
-394,365	761,826	0,057	0,112
-393,350	-11,645	-0,040	-0,019
-392,336	-19,723	-0,064	-0,028
-391,321	366,758	-0,038	0,055
-390,306	401,422	-0,032	-0,048
-389,292	800,000	0,089	-0,227
-388,277	17,352	0,072	0,041
-387,263	-55,467	0,092	0,029
-386,248	-106,977	0,063	0,010
-385,233	-146,884	0,107	0,006
-384,219	265,872	0,033	-0,041
-383,204	254,705	-0,109	-0,134
-382,190	-200,000	-0,038	-0,156
-381,175	-200,000	0,014	0,101
-380,160	-115,269	0,023	0,003
-379,146	62,745	0,095	0,068
-378,131	104,925	0,042	0,036
-377,117	-200,000	0,007	0,025
-376,102	-200,000	0,003	-0,129
-375,088	182,412	-0,104	-0,110
-374,073	604,395	-0,031	0,055
-373,058	-200,000	0,015	0,194
-372,044	483,809	0,054	-0,088
-371,029	-200,000	0,005	0,092
-370,015	-155,869	0,041	0,002
-369,000	-166,907	-0,049	0,001
-367,985	800,000	0,021	-0,065
-366,971	155,695	0,021	-0,021
-365,956	-174,575	0,037	-0,001
-364,942	-200,000	-0,020	-0,102
-363,927	724,668	0,045	0,087
-362,912	-200,000	-0,006	0,039
-361,898	259,760	-0,084	-0,104
-360,883	-102,422	-0,185	-0,032
-359,869	16,349	-0,032	-0,018
-358,854	329,137	-0,052	0,072
-357,839	240,971	-0,061	-0,073
-356,825	254,407	0,064	0,079
-355,810	800,000	0,041	0,122
-354,796	-61,299	0,064	-0,019
-353,781	-38,544	-0,124	0,047
-352,766	-37,523	0,142	-0,054
-351,752	800,000	-0,030	0,060
-350,737	-178,138	0,098	-0,002
-349,723	-200,000	-0,025	0,185
-348,708	-200,000	0,020	0,089
-347,693	698,813	0,073	-0,139
-346,679	-200,000	0,029	-0,120
-345,664	800,000	-0,043	-0,135
-344,650	191,601	-0,007	-0,007
-343,635	-111,790	0,021	0,003
-342,620	-200,000	0,012	0,190
-341,606	-146,758	0,266	0,016
-340,591	114,292	-0,031	-0,027
-339,577	800,000	-0,046	0,102
-338,562	-200,000	-0,053	-0,195
-337,548	-200,000	0,017	-0,064
-336,533	354,093	0,064	-0,092
-335,518	-39,664	-0,086	0,032
-334,504	-139,235	0,184	-0,014
-333,489	173,062	0,072	-0,075
-332,475	-47,197	0,085	-0,029
-331,460	-200,000	0,015	-0,075
-330,445	-8,406	0,054	-0,026
-329,431	-124,679	0,120	-0,013
-328,416	6,144	0,128	0,068
-327,402	309,005	-0,037	0,050
-326,387	800,000	0,034	0,103
-325,372	-168,925	-0,066	0,002
-324,358	587,784	-0,024	-0,042
-323,343	-98,686	0,140	-0,025
-322,329	256,994	0,067	-0,083
-321,314	-200,000	-0,057	0,204
-320,299	30,771	0,131	0,080
-319,285	215,536	0,061	0,069
-318,270	-45,509	-0,176	0,062
-317,256	-200,000	0,003	-0,090
-316,241	178,456	0,111	0,116
-315,226	-200,000	0,008	0,146
-314,212	-45,383	0,172	0,061
-313,197	-33,611	0,025	0,010
-312,183	304,080	-0,096	0,127
-311,168	329,577	-0,075	-0,103
-310,153	329,456	0,010	-0,013
-309,139	-130,990	0,047	0,004
-308,124	800,000	0,031	-0,063
-307,110	800,000	0,015	-0,031
-306,095	-52,275	-0,079	0,026
-305,080	800,000	0,068	0,185
-304,066	-50,178	0,104	0,035
-303,051	29,603	-0,069	-0,042
-302,037	-77,807	-0,059	-0,014
-301,022	-127,152	0,120	0,012
-300,008	-141,776	0,060	-0,004
-298,993	-164,453	0,095	0,003
-297,978	41,853	0,030	0,020
-296,964	689,908	-0,073	-0,138
-295,949	393,006	-0,029	0,044
-294,935	800,000	-0,035	-0,096
-293,920	-9,329	-0,057	-0,027
-292,905	146,076	0,017	0,016
-291,891	-78,933	0,110	0,027
-290,876	-146,449	-0,044	0,003
-289,862	-106,416	-0,270	-0,043
-288,847	800,000	0,033	0,081
-287,832	458,493	-0,033	-0,052
-286,818	800,000	-0,079	0,181
-285,803	22,837	-0,125	0,073
-284,789	167,996	0,038	-0,039
-283,774	311,799	0,052	0,070
-282,759	252,122	0,115	-0,141
-281,745	-0,652	-0,100	0,050
-280,730	-15,964	-0,111	0,050
-279,716	-68,144	-0,143	-0,040
-278,701	-200,000	0,003	0,017
-277,686	87,518	0,084	0,066
-276,672	800,000	-0,012	-0,030
-275,657	-200,000	0,003	0,138
-274,643	51,750	-0,099	-0,067
-273,628	164,177	-0,082	-0,082
-272,613	-53,462	0,130	0,042
-271,599	-200,000	0,008	0,035
-270,584	-200,000	0,005	-0,119
-269,570	483,568	0,034	-0,056
-268,555	98,962	0,086	0,071
-267,540	785,745	-0,035	0,068
-266,526	-200,000	0,039	-0,240
-265,511	331,724	0,036	0,050
-264,497	800,000	0,019	-0,042
-263,482	785,019	0,035	0,068
-262,467	352,694	0,063	0,089
-261,453	435,144	-0,062	-0,097
-260,438	155,578	0,031	-0,031
-259,424	-88,240	-0,064	-0,014
-258,409	-30,622	-0,038	-0,015
-257,395	131,355	0,120	-0,110
-256,380	-59,773	0,148	0,045
-255,365	78,811	-0,059	-0,045
-254,351	363,866	0,035	0,050
-253,336	800,000	-0,026	-0,082
-252,322	565,588	-0,048	0,083
-251,307	731,542	0,021	-0,041
-250,292	-65,569	0,113	0,032
-249,278	311,988	0,154	0,207
-248,263	47,369	0,047	0,031
-247,249	299,240	0,043	0,057
-246,234	-185,996	-0,209	-0,002
-245,219	258,921	0,051	-0,063
-244,205	-137,330	-0,046	0,004
-243,190	-200,000	-0,012	0,058
-242,176	800,000	-0,030	0,095
-241,161	-200,000	-0,002	-0,010
-240,146	800,000	0,032	0,068
-239,132	14,586	-0,091	-0,051
-238,117	-32,717	0,038	-0,015
-237,103	-87,868	-0,015	-0,003
-236,088	73,905	0,147	0,110
-235,073	-57,533	0,171	0,053
-234,059	-94,066	-0,014	0,003
-233,044	80,915	0,068	-0,052
-232,030	-200,000	-0,007	-0,046
-231,015	-200,000	0,031	-0,116
-230,000	4,507	0,055	-0,029
-228,986	-200,000	0,002	-0,086
-227,971	-47,278	0,077	-0,027
-226,957	89,486	-0,027	-0,022
-225,942	-75,596	-0,077	0,019
-224,927	388,573	0,056	0,083
-223,913	-200,000	-0,012	0,042
-222,898	-38,126	-0,038	0,014
-221,884	800,000	-0,049	-0,117
-220,869	-200,000	0,007	-0,088
-219,855	-96,986	-0,112	0,021
-218,840	114,263	0,012	0,011
-217,825	-200,000	0,020	0,109
-216,811	258,449	-0,049	-0,060
-215,796	174,537	-0,087	-0,089
-214,782	-160,298	0,114	-0,004
-213,767	800,000	-0,034	0,068
-212,752	-200,000	-0,022	0,114
-211,738	100,146	-0,159	0,132
-210,723	216,935	-0,055	0,063
-209,709	-140,191	-0,120	0,009
-208,694	800,000	-0,068	0,189
-207,679	-200,000	0,005	-0,166
-206,665	78,070	-0,041	-0,031
-205,650	148,160	-0,028	0,026
-204,636	236,743	0,022	-0,026
-203,621	-61,338	0,086	-0,026
-202,606	-200,000	-0,009	0,037
-201,592	-200,000	0,013	-0,072
-200,577	203,618	0,046	-0,051
-199,563	238,241	0,065	0,077
-198,548	106,009	0,039	-0,033
-197,533	-111,318	0,077	-0,011
-196,519	-200,000	0,004	0,083
-195,504	-200,000	-0,000	-0,062
-194,490	-113,515	0,064	-0,009
-193,475	-42,217	-0,114	0,041
-192,460	59,171	0,121	0,085
-191,446	94,147	0,070	0,056
-190,431	-200,000	-0,005	0,083
-189,417	-84,011	0,152	-0,034
-188,402	64,857	0,074	-0,053
-187,387	-118,434	-0,140	0,018
-186,373	-200,000	-0,006	0,108
-185,358	800,000	0,034	0,086
-184,344	117,128	0,036	0,031
-183,329	377,045	0,142	0,207
-182,315	800,000	0,041	0,095
-181,300	301,839	0,034	-0,045
-180,285	-48,433	-0,051	-0,017
-179,271	39,025	-0,122	0,078
-178,256	-200,000	-0,011	0,114
-177,242	-70,998	-0,085	-0,023
-176,227	-200,000	0,022	0,075
-175,212	-138,065	-0,096	0,007
-174,198	-11,080	0,086	-0,040
-173,183	-200,000	0,022	-0,081
-172,169	800,000	-0,035	-0,111
-171,154	430,250	-0,039	-0,061
-170,139	-200,000	-0,013	-0,042
-169,125	-90,922	0,041	-0,008
-168,110	800,000	-0,068	0,193
-167,096	-60,271	-0,064	0,019
-166,081	-131,965	0,123	0,011
-165,066	63,746	0,126	-0,090
-164,052	791,899	-0,055	-0,108
-163,037	43,988	0,109	-0,071
-162,023	74,129	0,056	-0,042
-161,008	121,031	-0,149	-0,132
-159,993	117,531	0,046	-0,040
-158,979	314,149	-0,081	-0,108
-157,964	157,645	-0,070	0,069
-156,950	210,277	0,048	-0,053
-155,935	557,090	0,073	-0,126
-154,920	-127,822	0,090	0,009
-153,906	23,172	0,033	-0,019
-152,891	332,207	0,051	-0,070
-151,877	-142,549	0,144	-0,010
-150,862	368,040	-0,087	-0,125
-149,847	45,043	0,082	-0,054
-148,833	147,131	-0,006	0,006
-147,818	-200,000	0,000	-0,071
-146,804	800,000	0,026	-0,067
-145,789	125,147	0,021	0,019
-144,775	42,560	-0,075	-0,048
-143,760	-200,000	0,021	0,091
-142,745	54,914	-0,112	-0,077
-141,731	109,559	-0,144	-0,123
-140,716	318,044	0,054	0,072
-139,702	-98,663	0,175	0,031
-138,687	-69,001	0,021	0,006
-137,672	-200,000	0,000	0,041
-136,658	256,476	-0,034	0,042
-135,643	27,746	-0,074	0,044
-134,629	356,937	-0,042	-0,059
-133,614	125,132	0,077	0,069
-132,599	-140,068	-0,023	-0,002
-131,585	226,629	-0,036	0,042
-130,570	-69,590	0,073	-0,020
-129,556	768,727	0,037	-0,072
-128,541	-126,702	-0,193	-0,020
-127,526	-73,282	0,114	-0,029
-126,512	800,000	-0,010	0,021
-125,497	-200,000	-0,001	0,043
-124,483	40,214	0,095	0,061
-123,468	-52,524	0,044	-0,014
-122,453	-159,483	-0,203	0,008
-121,439	134,000	-0,072	0,066
-120,424	44,145	0,052	-0,034
-119,410	274,717	-0,027	0,034
-118,395	93,776	0,036	-0,029
-117,380	58,306	0,097	0,067
-116,366	-200,000	0,019	-0,085
-115,351	-200,000	-0,035	-0,168
-114,337	142,123	-0,111	-0,105
-113,322	639,878	0,036	-0,066
-112,307	5,891	0,158	0,083
-111,293	267,467	-0,134	0,167
-110,278	-76,282	-0,034	0,009
-109,264	-58,711	0,081	0,025
-108,249	22,582	0,039	0,022
-107,234	724,281	-0,028	0,054
-106,220	-200,000	0,000	-0,075
-105,205	-13,846	0,053	-0,024
-104,191	92,506	0,111	-0,089
-103,176	145,224	0,060	-0,057
-102,162	-73,703	-0,035	-0,009
-101,147	-17,104	0,043	-0,019
-100,132	-3,503	-0,045	0,022
-99,118	-200,000	0,031	-0,111
-98,103	800,000	-0,029	-0,059
-97,089	18,185	0,076	0,043
-96,074	65,119	0,112	0,081
-95,059	-2,763	0,093	-0,046
-94,045	277,204	-0,105	-0,133
-93,030	38,615	-0,040	-0,026
-92,016	108,627	-0,036	0,030
-91,001	800,000	0,079	-0,202
-89,986	-150,203	-0,042	0,002
-88,972	81,221	0,131	0,100
-87,957	-200,000	-0,011	0,109
-86,943	-200,000	-0,016	0,134
-85,928	-33,138	-0,042	0,016
-84,913	-58,267	0,064	0,020
-83,899	189,188	0,016	-0,017
-82,884	-27,102	-0,124	0,051
-81,870	800,000	-0,030	-0,083
-80,855	-200,000	-0,012	-0,041
-79,840	-200,000	0,003	0,030
-78,826	-38,547	-0,086	0,032
-77,811	-114,999	-0,026	-0,003
-76,797	56,594	0,057	-0,039
-75,782	-200,000	0,015	-0,070
-74,767	236,521	0,026	0,031
-73,753	-96,907	0,230	-0,042
-72,738	1,152	-0,102	0,052
-71,724	240,327	0,019	-0,023
-70,709	-200,000	0,006	-0,089
-69,694	800,000	0,063	-0,127
-68,680	65,602	-0,046	-0,033
-67,665	-137,689	-0,043	0,003
-66,651	-69,193	0,097	-0,026
-65,636	138,962	0,013	0,012
-64,622	42,508	0,066	0,043
-63,607	-200,000	0,001	-0,090
-62,592	591,327	0,069	-0,122
-61,578	800,000	-0,039	-0,080
-60,563	14,162	0,075	0,042
-59,549	-124,190	-0,178	-0,020
-58,534	-61,817	-1,416	-0,418
-57,519	378,145	-1,509	-2,195
-56,505	-200,000	-0,538	-4,509
-55,490	182,797	0,938	0,982
-54,476	800,000	4,543	10,961
-53,461	-200,000	18,179	286,320
-52,446	800,000	726,839	2225,020
-51,432	555,302	1642,102	2812,613
-50,417	79,468	1664,094	1263,979
-49,403	23,118	1537,770	892,274
-48,388	17,058	1461,355	818,590
-47,373	17,909	1451,129	816,924
-46,359	17,401	1441,583	809,089
-45,344	15,367	1436,922	796,731
-44,330	15,295	1434,998	795,289
-43,315	15,297	1433,349	794,355
-42,300	15,290	1431,810	793,435
-41,286	15,316	1430,605	792,862
-40,271	15,302	1429,364	792,078
-39,257	15,298	1428,147	791,349
-38,242	15,355	1426,724	790,803
-37,227	15,397	1425,273	790,166
-36,213	15,328	1424,241	789,234
-35,198	15,322	1423,106	788,544
-34,184	15,390	1422,088	788,274
-33,169	15,255	1420,949	786,970
-32,154	15,373	1419,692	786,799
-31,140	15,363	1418,579	786,106
-30,125	15,387	1417,418	785,545
-29,111	15,370	1416,181	784,745
-28,096	15,339	1415,205	784,029
-27,082	15,270	1414,005	783,009
-26,067	15,304	1412,765	782,453
-25,052	15,326	1411,823	782,004
-24,038	15,264	1410,916	781,180
-23,023	15,311	1409,821	780,762
-22,009	15,269	1408,754	779,944
-20,994	15,191	1408,106	779,186
-19,979	15,232	1407,114	778,801
-18,965	15,180	1406,141	777,987
-17,950	15,153	1405,122	777,266
-16,936	15,156	1404,369	776,832
-15,921	15,175	1402,918	776,088
-14,906	15,151	1402,226	775,564
-13,892	15,179	1401,335	775,170
-12,877	15,173	1400,194	774,481
-11,863	15,165	1399,480	774,015
-10,848	15,145	1398,431	773,312
-9,833	15,128	1397,638	772,766
-8,819	15,099	1396,692	772,079
-7,804	15,121	1395,581	771,534
-6,790	15,093	1394,754	770,916
-5,775	15,069	1393,833	770,266
-4,760	15,058	1392,701	769,558
-3,746	15,074	1392,001	769,214
-2,731	15,072	1391,137	768,698
-1,717	15,061	1390,168	768,081
-0,702	15,050	1388,481	767,068
0,313	18,824	1307,975	740,070
1,327	35,391	706,912	438,399
2,342	54,457	124,763	85,005
3,356	3,168	16,660	8,554
4,371	5,061	3,177	1,651
5,386	-57,446	0,519	0,160
6,400	244,578	0,058	-0,069
7,415	141,307	-0,289	-0,270
8,429	-85,113	-0,339	0,075
9,444	176,140	-0,264	-0,272
10,459	222,434	-0,307	-0,350
11,473	-81,749	-0,427	-0,098
12,488	-145,441	-0,298	-0,019
13,502	-30,116	-0,383	-0,153
14,517	-22,224	-0,341	-0,146
15,531	155,982	-0,285	-0,278
16,546	15,387	-0,406	-0,225
17,561	230,714	-0,375	-0,435
18,575	-154,764	-0,258	-0,012
19,590	585,765	-0,167	-0,291
20,604	2,658	-0,302	-0,154
21,619	1,220	-0,471	-0,238
22,634	183,967	-0,383	-0,401
23,648	28,699	-0,509	-0,304
24,663	31,524	-0,410	-0,249
25,677	48,847	-0,351	-0,232
26,692	137,740	-0,361	-0,334
27,707	6,018	-0,384	-0,200
28,721	56,857	-0,405	-0,278
29,736	17,497	-0,552	-0,309
30,750	80,790	-0,406	-0,309
31,765	149,619	-0,321	-0,308
32,780	32,492	-0,384	-0,234
33,794	-56,805	-0,381	-0,118
34,809	62,037	-0,324	-0,228
35,823	159,379	-0,279	-0,274
36,838	192,623	-0,414	-0,442
37,853	108,487	-0,420	-0,354
38,867	83,975	-0,298	-0,230
39,882	201,259	-0,261	-0,284
40,896	190,096	-0,295	-0,313
41,911	48,367	-0,250	-0,165
42,926	-9,434	-0,362	-0,170
43,940	60,773	-0,448	-0,313
44,955	84,515	-0,417	-0,322
45,969	158,821	-0,336	-0,330
46,984	115,466	-0,286	-0,246
47,999	13,830	-0,287	-0,157
49,013	43,874	-0,264	-0,170
50,028	170,817	-0,198	-0,201
51,042	39,198	-0,314	-0,198
52,057	325,592	-0,289	-0,391
53,071	38,766	-0,377	-0,237
54,086	-62,929	-0,513	-0,148
55,101	-14,827	-0,301	-0,136
56,115	85,628	-0,252	-0,195
57,130	18,955	-0,304	-0,171
58,144	5,617	-0,343	-0,178
59,159	3,606	-0,414	-0,212
60,174	148,192	-0,272	-0,259
61,188	-35,300	-0,361	-0,138
62,203	106,695	-0,351	-0,294
63,217	-18,444	-0,370	-0,162
64,232	75,979	-0,312	-0,232
65,247	311,636	-0,330	-0,437
66,261	217,126	-0,266	-0,299
67,276	0,665	-0,319	-0,160
68,290	22,621	-0,248	-0,143
69,305	96,359	-0,342	-0,275
70,320	-30,931	-0,320	-0,127
71,334	2,504	-0,417	-0,212
72,349	-31,425	-0,315	-0,124
73,363	14,361	-0,434	-0,238
74,378	188,350	-0,288	-0,303
75,393	-22,842	-0,447	-0,189
76,407	-19,970	-0,379	-0,164
77,422	76,006	-0,374	-0,278
78,436	95,339	-0,268	-0,215
79,451	123,009	-0,299	-0,264
80,466	61,657	-0,370	-0,258
81,480	86,416	-0,362	-0,281
82,495	100,087	-0,326	-0,265
83,509	17,049	-0,331	-0,184
84,524	-54,734	-0,275	-0,087
85,539	437,049	-0,185	-0,284
86,553	131,286	-0,258	-0,233
87,568	-19,780	-0,386	-0,167
88,582	196,625	-0,263	-0,282
89,597	292,071	-0,268	-0,344
90,611	191,505	-0,316	-0,335
91,626	7,055	-0,279	-0,146
92,641	-25,583	-0,322	-0,133
93,655	159,526	-0,231	-0,226
94,670	8,779	-0,373	-0,197
95,684	39,088	-0,258	-0,162
96,699	260,611	-0,146	-0,178
97,714	-127,367	-0,202	-0,020
98,728	79,117	-0,188	-0,142
99,743	143,856	-0,323	-0,302
100,757	-48,560	-0,239	-0,080
101,772	332,498	-0,171	-0,233
102,787	20,878	-0,333	-0,189
103,801	7,086	-0,331	-0,173
104,816	-22,957	-0,200	-0,084
105,830	110,443	-0,121	-0,102
106,845	165,847	-0,272	-0,270
107,860	-133,372	-0,212	0,018
108,874	27,996	-0,282	-0,167
109,889	118,767	-0,372	-0,322
110,903	608,290	-0,138	-0,242
111,918	180,585	-0,305	-0,315
112,933	-37,330	-0,286	-0,107
113,947	225,360	-0,168	-0,191
114,962	-5,341	-0,262	-0,126
115,976	-32,550	-0,213	-0,083
116,991	206,728	-0,190	-0,208
118,006	40,097	-0,201	-0,126
119,020	139,031	-0,156	-0,144
120,035	-86,559	-0,356	-0,076
121,049	51,412	-0,283	-0,188
122,064	363,517	-0,231	-0,326
123,079	-184,161	-0,249	0,003
124,093	42,200	-0,260	-0,165
125,108	68,973	-0,329	-0,237
126,122	-116,708	-0,357	-0,045
127,137	193,873	-0,203	-0,216
128,151	800,000	-0,093	-0,272
129,166	188,287	-0,162	-0,170
130,181	65,446	-0,232	-0,164
131,195	145,779	-0,315	-0,296
132,210	56,535	-0,246	-0,167
133,224	221,662	-0,211	-0,237
134,239	800,000	-0,105	-0,228
135,254	269,563	-0,114	-0,141
136,268	76,523	-0,182	-0,135
137,283	-0,196	-0,291	-0,144
138,297	109,392	-0,298	-0,250
139,312	-35,877	-0,303	-0,114
140,327	-21,103	-0,242	-0,103
141,341	265,691	-0,251	-0,308
142,356	19,292	-0,185	-0,104
143,370	72,561	-0,199	-0,145
144,385	22,966	-0,224	-0,128
145,400	115,403	-0,249	-0,213
146,414	60,908	-0,278	-0,192
147,429	51,618	-0,320	-0,212
148,443	254,223	-0,220	-0,264
149,458	41,624	-0,195	-0,123
150,473	208,921	-0,107	-0,117
151,487	-147,717	-0,259	0,015
152,502	72,684	-0,265	-0,193
153,516	104,906	-0,309	-0,255
154,531	95,032	-0,236	-0,188
155,546	80,479	-0,249	-0,187
156,560	-11,859	-0,183	-0,084
157,575	-75,776	-0,212	-0,052
158,589	91,801	-0,236	-0,185
159,604	308,171	-0,216	-0,282
160,619	106,859	-0,192	-0,159
161,633	199,222	-0,178	-0,191
162,648	565,408	-0,184	-0,312
163,662	-154,622	-0,231	-0,011
164,677	-37,676	-0,146	-0,054
165,692	170,291	-0,152	-0,152
166,706	62,358	-0,253	-0,176
167,721	29,343	-0,174	-0,103
168,735	131,209	-0,264	-0,237
169,750	800,000	-0,085	-0,190
170,764	135,527	-0,230	-0,209
171,779	620,437	-0,082	-0,145
172,794	172,832	-0,224	-0,225
173,808	294,462	-0,249	-0,319
174,823	-59,936	-0,211	-0,062
175,837	70,177	-0,342	-0,246
176,852	131,238	-0,241	-0,216
177,867	152,101	-0,159	-0,151
178,881	78,089	-0,282	-0,210
179,896	148,327	-0,219	-0,206
180,910	-79,488	-0,308	-0,072
181,925	83,913	-0,116	-0,088
182,940	219,963	-0,230	-0,258
183,954	222,334	-0,253	-0,285
184,969	75,084	-0,243	-0,178
185,983	237,833	-0,082	-0,095
186,998	-151,687	-0,261	0,013
188,013	-63,267	-0,139	-0,040
189,027	3,399	-0,247	-0,125
190,042	340,961	-0,088	-0,121
191,056	150,866	-0,290	-0,275
192,071	5,360	-0,198	-0,101
193,086	437,175	-0,146	-0,222
194,100	25,776	-0,237	-0,137
195,115	137,769	-0,297	-0,271
196,129	214,159	-0,212	-0,234
197,144	1,419	-0,194	-0,097
198,159	210,294	-0,284	-0,311
199,173	89,774	-0,265	-0,206
200,188	19,700	-0,205	-0,115
201,202	109,526	-0,165	-0,137
202,217	-43,177	-0,171	-0,060
203,232	74,896	-0,210	-0,154
204,246	74,476	-0,261	-0,191
205,261	-29,111	-0,217	-0,086
206,275	-200,000	-0,025	-0,159
207,290	559,280	-0,079	-0,133
208,304	800,000	-0,106	-0,218
209,319	45,560	-0,267	-0,171
210,334	-94,773	-0,240	-0,045
211,348	84,991	-0,168	-0,128
212,363	297,800	-0,179	-0,229
213,377	522,627	-0,124	-0,203
214,392	-73,213	-0,262	-0,066
215,407	548,860	-0,129	-0,216
216,421	31,807	-0,132	0,079
217,436	73,227	-0,310	-0,225
218,450	26,114	-0,301	-0,174
219,465	37,505	-0,298	-0,183
220,480	-44,503	-0,288	-0,099
221,494	394,086	-0,166	-0,241
222,509	800,000	-0,043	-0,089
223,523	335,262	-0,148	-0,199
224,538	-160,115	-0,164	0,006
225,553	6,365	-0,238	-0,122
226,567	50,768	-0,333	-0,219
227,582	-200,000	-0,048	-0,170
228,596	-186,827	-0,204	-0,002
229,611	150,164	-0,226	-0,213
230,626	-140,491	-0,206	-0,015
231,640	-64,552	-0,269	0,075
232,655	-4,894	-0,244	-0,116
233,669	211,207	-0,195	-0,213
234,684	121,408	-0,198	-0,171
235,699	165,991	-0,170	-0,167
236,713	159,310	-0,127	-0,123
237,728	-3,573	-0,241	-0,116
238,742	18,555	-0,226	-0,125
239,757	-8,855	-0,183	-0,085
240,772	-37,957	-0,352	-0,129
241,786	32,085	-0,202	-0,120
242,801	29,313	-0,208	-0,122
243,815	-41,552	-0,048	0,017
244,830	461,713	-0,126	-0,196
245,844	-65,963	-0,168	-0,046
246,859	292,325	-0,127	-0,161
247,874	150,483	-0,197	-0,186
248,888	-200,000	-0,043	-0,165
249,903	800,000	-0,034	-0,066
250,917	139,983	-0,180	-0,165
251,932	-44,138	-0,166	-0,057
252,947	69,825	-0,132	-0,094
253,961	122,656	-0,150	-0,130
254,976	141,412	-0,227	-0,208
255,990	-156,242	-0,114	-0,005
257,005	-5,764	-0,099	-0,047
258,020	-83,016	-0,243	-0,054
259,034	-25,828	-0,201	0,081
260,049	100,111	-0,103	-0,082
261,063	800,000	-0,050	-0,149
262,078	41,396	-0,122	-0,076
263,093	800,000	-0,056	-0,158
264,107	-44,944	-0,212	-0,073
265,122	351,829	-0,084	-0,116
266,136	-20,301	-0,245	-0,104
267,151	117,588	-0,145	-0,124
268,166	460,701	-0,173	-0,268
269,180	54,831	-0,267	-0,178
270,195	106,056	-0,131	-0,107
271,209	-54,533	-0,154	-0,048
272,224	201,269	-0,178	-0,190
273,239	-200,000	-0,031	-0,098
274,253	-125,641	-0,192	-0,020
275,268	-21,838	-0,177	-0,074
276,282	18,048	-0,244	-0,134
277,297	129,604	-0,091	-0,080
278,312	-150,037	-0,153	-0,008
279,326	-200,000	-0,006	-0,113
280,341	196,401	-0,101	-0,107
281,355	99,348	-0,123	-0,098
282,370	292,911	-0,153	-0,194
283,384	25,689	-0,165	-0,095
284,399	800,000	-0,071	-0,197
285,414	86,266	-0,128	-0,097
286,428	-75,727	-0,136	0,033
287,443	800,000	-0,072	-0,144
288,457	141,148	-0,198	-0,181
289,472	422,766	-0,066	-0,098
290,487	81,273	-0,156	-0,117
291,501	-43,014	-0,186	-0,065
292,516	494,398	-0,172	-0,274
293,530	48,289	-0,165	-0,107
294,545	80,865	-0,215	-0,160
295,560	-200,000	0,024	-0,110
296,574	667,462	-0,040	-0,072
297,589	-18,761	-0,246	-0,105
298,603	-36,696	-0,253	-0,094
299,618	24,459	-0,251	-0,143
300,633	800,000	-0,094	-0,218
301,647	76,334	-0,133	-0,097
302,662	368,153	-0,081	-0,114
303,676	-200,000	-0,042	-0,141
304,691	260,880	-0,084	-0,100
305,706	163,315	-0,173	-0,167
306,720	118,445	-0,136	-0,116
307,735	-10,184	-0,170	-0,078
308,749	800,000	-0,055	-0,121
309,764	326,137	-0,086	-0,114
310,779	-59,025	-0,030	0,009
311,793	0,785	-0,186	-0,091
312,808	-200,000	-0,044	-0,155
313,822	102,154	-0,201	-0,162
314,837	-45,410	-0,266	-0,090
315,852	121,601	-0,106	-0,091
316,866	64,060	-0,164	-0,113
317,881	30,806	-0,230	-0,136
318,895	-40,296	-0,157	-0,056
319,910	800,000	-0,094	-0,252
320,925	-111,790	-0,197	0,027
321,939	304,192	-0,115	-0,147
322,954	385,621	-0,063	-0,089
323,968	379,679	-0,048	-0,069
324,983	-34,396	-0,124	0,046
325,997	394,598	-0,087	-0,125
327,012	14,388	-0,120	-0,064
328,027	-152,169	-0,202	-0,010
329,041	63,316	-0,085	-0,058
330,056	108,741	-0,167	-0,138
331,070	-58,422	-0,213	-0,063
332,085	-7,366	-0,112	-0,052
333,100	163,472	-0,149	-0,144
334,114	-175,774	-0,155	-0,003
335,129	800,000	-0,079	-0,182
336,143	43,365	-0,183	-0,115
337,158	-1,558	-0,089	-0,043
338,173	349,399	-0,108	-0,147
339,187	-125,583	-0,168	0,017
340,202	18,003	-0,116	-0,063
341,216	800,000	-0,072	-0,139
342,231	-64,088	-0,196	-0,055
343,246	800,000	-0,080	-0,167
344,260	115,958	-0,187	-0,158
345,275	-111,745	-0,116	0,016
346,289	-124,061	-0,067	0,007
347,304	145,372	-0,153	-0,141
348,319	125,716	-0,116	-0,100
349,333	136,392	-0,148	-0,133
350,348	-20,856	-0,171	-0,072
351,362	-18,403	-0,177	-0,075
352,377	-200,000	0,009	-0,123
353,392	315,243	-0,148	-0,192
354,406	-39,755	-0,132	-0,047
355,421	211,420	1314,022	1421,774
356,435	162,796	1474,682	1422,283
