DTS Sentinel unit serial number:	SN410029Multiplexer serial number:	ORYXHardware model number:	OX2-SRSoftware version number:	ORYX F/W v4,00 Oryx Data Collector v3.7.2.0data status	okinstallation	B3 Nyhavnadifferential loss correction	single-endedforward channel	channel 1reverse channel	N/Adate	2023/11/30time	04:42:30forward acquisition time	300,00reverse acquisition time	0,00gamma	499,1914k internal	0,3211k external	0,3211temperature offset calibration	1,0000default loss term (dB/km)	0,3820temperature slope calibration	1,0000multiplexer offset coefficient	1,0000multiplexer slope coefficient	1,0000fibre end	0,00T internal ref (°C)	10,15T ext. ref 1 (°C)	-5,26T ext. ref 2 (°C)	-5,35length (m)	temperature (°C)	Stokes	anti-Stokes-744,400	800,000	-0,102	-0,226
-743,385	-200,000	-0,020	0,333
-742,371	-30,582	-0,250	-0,102
-741,356	-200,000	-0,015	0,346
-740,342	289,529	-0,123	-0,162
-739,327	-200,000	0,078	0,252
-738,312	349,743	-0,125	-0,180
-737,298	800,000	-0,133	0,286
-736,283	24,492	-0,269	-0,161
-735,269	-200,000	-0,033	0,260
-734,254	362,500	-0,195	-0,285
-733,239	-131,024	-0,261	0,025
-732,225	-200,000	0,073	-0,297
-731,210	-200,000	0,021	0,133
-730,196	532,077	-0,067	-0,115
-729,181	-200,000	0,017	-0,077
-728,167	-55,287	0,102	0,033
-727,152	-200,000	0,003	0,024
-726,137	-115,639	-0,163	-0,022
-725,123	-200,000	0,035	-0,202
-724,108	226,321	0,063	0,074
-723,094	800,000	-0,054	-0,124
-722,079	-95,449	-0,078	-0,015
-721,064	-200,000	-0,000	0,015
-720,050	-165,028	-0,048	-0,002
-719,035	-148,088	-0,070	0,004
-718,021	-181,582	-0,204	-0,003
-717,006	-43,119	-0,069	-0,025
-715,991	-32,864	0,075	-0,030
-714,977	-200,000	0,042	-0,192
-713,962	-14,992	0,134	-0,062
-712,948	34,517	-0,029	-0,019
-711,933	-200,000	-0,003	-0,065
-710,918	146,077	-0,074	0,072
-709,904	-50,634	-0,102	-0,035
-708,889	147,838	-0,058	-0,056
-707,875	232,108	-0,045	0,053
-706,860	800,000	0,064	0,138
-705,845	-200,000	-0,003	-0,102
-704,831	-200,000	-0,002	0,036
-703,816	87,959	0,057	-0,046
-702,802	-200,000	-0,003	-0,044
-701,787	74,000	-0,115	-0,087
-700,772	162,451	0,124	0,126
-699,758	334,153	0,063	-0,089
-698,743	-91,776	0,128	-0,026
-697,729	800,000	-0,024	-0,056
-696,714	7,177	-0,132	0,071
-695,699	386,645	-0,035	-0,052
-694,685	73,625	0,034	0,026
-693,670	-173,602	-0,092	0,002
-692,656	800,000	-0,038	-0,098
-691,641	800,000	0,023	0,071
-690,627	393,240	-0,017	0,026
-689,612	403,930	0,027	0,042
-688,597	-200,000	-0,025	0,132
-687,583	-200,000	-0,065	-0,218
-686,568	800,000	-0,060	-0,145
-685,554	256,908	-0,094	-0,117
-684,539	7,856	0,058	0,031
-683,524	102,285	-0,077	-0,065
-682,510	35,927	0,070	0,044
-681,495	-200,000	0,000	-0,127
-680,481	-82,038	-0,177	0,042
-679,466	800,000	0,053	-0,149
-678,451	-200,000	0,030	-0,097
-677,437	638,346	-0,066	-0,122
-676,422	-200,000	0,042	-0,153
-675,408	64,805	-0,036	0,026
-674,393	123,923	0,052	0,048
-673,378	-200,000	-0,024	-0,083
-672,364	164,059	-0,076	-0,078
-671,349	-200,000	-0,010	0,090
-670,335	66,600	-0,042	-0,031
-669,320	201,694	0,056	0,063
-668,305	5,385	0,077	0,041
-667,291	64,931	-0,065	0,047
-666,276	-200,000	0,006	-0,022
-665,262	35,665	-0,145	-0,092
-664,247	-29,133	0,082	0,034
-663,232	-200,000	-0,009	0,057
-662,218	-80,836	0,118	-0,028
-661,203	-200,000	-0,017	0,121
-660,189	582,342	0,013	0,023
-659,174	253,581	-0,075	-0,093
-658,159	-200,000	-0,036	-0,123
-657,145	800,000	0,043	-0,088
-656,130	18,412	-0,063	-0,036
-655,116	2,933	0,033	-0,017
-654,101	-71,998	0,047	-0,012
-653,086	-114,935	-0,013	0,002
-652,072	-200,000	-0,012	-0,070
-651,057	-200,000	-0,142	-0,000
-650,043	-130,811	-0,127	0,012
-649,028	-18,500	-0,049	-0,022
-648,014	-200,000	-0,033	-0,107
-646,999	-200,000	-0,005	-0,117
-645,984	-11,725	-0,069	0,033
-644,970	-200,000	-0,029	-0,116
-643,955	68,982	0,073	0,054
-642,941	-200,000	0,023	0,088
-641,926	221,814	-0,062	0,072
-640,911	-190,714	-0,145	0,001
-639,897	50,521	0,115	0,078
-638,882	69,169	-0,049	0,036
-637,868	31,909	-0,064	-0,040
-636,853	-200,000	-0,007	0,062
-635,838	617,624	-0,059	0,107
-634,824	800,000	-0,020	-0,049
-633,809	3,555	-0,027	-0,014
-632,795	-180,505	0,104	0,002
-631,780	-128,024	-0,109	-0,011
-630,765	-200,000	-0,048	0,168
-629,751	321,596	-0,042	-0,057
-628,736	-112,262	0,078	-0,011
-627,722	-200,000	-0,028	-0,164
-626,707	73,821	-0,124	-0,093
-625,692	222,884	-0,038	-0,045
-624,678	-12,373	-0,129	0,061
-623,663	-81,078	-0,121	0,029
-622,649	84,061	-0,101	-0,080
-621,634	-200,000	-0,030	-0,181
-620,619	-200,000	-0,009	0,039
-619,605	60,414	0,093	0,067
-618,590	121,479	-0,041	0,037
-617,576	-22,040	0,119	-0,052
-616,561	-43,488	-0,118	0,043
-615,546	390,691	0,020	-0,030
-614,532	-195,433	-0,168	0,001
-613,517	-43,124	0,126	-0,046
-612,503	-72,248	0,065	0,017
-611,488	623,383	-0,069	0,126
-610,474	785,097	-0,051	0,101
-609,459	159,800	0,064	-0,064
-608,444	-138,657	-0,122	-0,009
-607,430	-200,000	0,006	0,058
-606,415	800,000	0,033	0,070
-605,401	145,596	0,042	-0,040
-604,386	-92,364	-0,028	-0,006
-603,371	800,000	-0,010	-0,025
-602,357	148,130	0,036	0,035
-601,342	28,346	-0,124	-0,075
-600,328	602,005	0,044	-0,078
-599,313	-25,851	-0,105	-0,045
-598,298	3,348	0,047	0,024
-597,284	800,000	0,017	-0,045
-596,269	800,000	-0,047	0,146
-595,255	-200,000	-0,001	0,064
-594,240	-200,000	0,008	0,096
-593,225	800,000	-0,016	0,043
-592,211	800,000	-0,075	-0,180
-591,196	-133,837	0,079	-0,007
-590,182	800,000	-0,034	0,093
-589,167	-23,232	0,052	0,022
-588,152	-102,865	0,045	0,008
-587,138	-200,000	-0,011	-0,070
-586,123	-17,824	-0,061	-0,028
-585,109	-200,000	0,012	-0,145
-584,094	800,000	0,044	-0,101
-583,079	-19,714	0,070	0,031
-582,065	181,897	0,071	0,076
-581,050	507,809	-0,015	0,025
-580,036	76,690	-0,034	0,026
-579,021	800,000	0,065	-0,157
-578,006	4,781	-0,091	-0,048
-576,992	306,049	0,003	-0,004
-575,977	-118,331	-0,075	-0,009
-574,963	-45,333	0,047	0,017
-573,948	-119,513	0,055	0,007
-572,934	-107,641	0,064	-0,010
-571,919	-72,009	-0,086	-0,023
-570,904	-200,000	-0,015	0,074
-569,890	678,468	0,035	0,065
-568,875	-200,000	-0,034	-0,125
-567,861	-98,635	0,092	0,017
-566,846	-138,796	0,016	0,001
-565,831	209,429	-0,048	0,054
-564,817	51,451	-0,095	-0,065
-563,802	339,256	0,137	-0,193
-562,788	-200,000	-0,019	-0,086
-561,773	-21,518	-0,033	-0,014
-560,758	-77,917	0,063	0,016
-559,744	800,000	-0,068	0,172
-558,729	493,428	0,054	0,090
-557,715	386,834	0,026	-0,038
-556,700	453,954	-0,050	-0,080
-555,685	800,000	-0,033	-0,086
-554,671	160,726	-0,049	-0,049
-553,656	-63,598	-0,071	-0,021
-552,642	31,901	-0,119	0,074
-551,627	-130,203	-0,051	-0,005
-550,612	-200,000	-0,017	-0,060
-549,598	13,202	0,034	-0,019
-548,583	-10,777	0,061	0,029
-547,569	-73,980	0,065	-0,017
-546,554	-38,221	0,063	0,024
-545,539	122,983	0,082	0,074
-544,525	-200,000	-0,010	-0,084
-543,510	-200,000	0,014	0,052
-542,496	197,496	0,066	0,073
-541,481	-200,000	0,006	0,091
-540,466	173,608	-0,021	-0,022
-539,452	-105,054	0,150	0,024
-538,437	115,113	0,172	0,151
-537,423	-71,242	-0,169	-0,045
-536,408	391,626	-0,046	-0,069
-535,393	347,934	0,021	-0,030
-534,379	-183,346	-0,054	0,001
-533,364	-38,430	0,044	-0,017
-532,350	80,008	0,106	-0,082
-531,335	800,000	0,085	0,212
-530,321	76,134	0,141	0,107
-529,306	230,656	-0,063	0,074
-528,291	-6,240	-0,055	0,027
-527,277	-63,175	-0,150	0,044
-526,262	316,273	0,041	0,056
-525,248	318,752	0,087	0,119
-524,233	-200,000	-0,017	0,131
-523,218	800,000	0,042	-0,108
-522,204	231,806	0,066	-0,078
-521,189	328,807	0,074	-0,103
-520,175	-81,677	-0,047	-0,011
-519,160	241,239	0,059	0,071
-518,145	489,327	-0,091	0,150
-517,131	28,336	0,144	0,087
-516,116	-26,707	-0,113	0,047
-515,102	317,107	0,069	-0,094
-514,087	24,152	-0,124	-0,073
-513,072	-61,616	-0,076	-0,023
-512,058	-200,000	-0,001	-0,029
-511,043	449,830	-0,122	-0,194
-510,029	313,054	0,075	0,101
-509,014	-0,198	-0,075	0,038
-507,999	-200,000	0,007	0,150
-506,985	321,852	-0,061	-0,084
-505,970	800,000	0,070	-0,145
-504,956	48,962	-0,058	-0,039
-503,941	305,050	0,106	0,142
-502,926	774,447	0,056	0,109
-501,912	336,160	0,032	0,045
-500,897	800,000	-0,057	-0,153
-499,883	-200,000	-0,027	0,108
-498,868	-52,465	-0,049	-0,016
-497,853	144,063	0,059	0,056
-496,839	663,398	-0,016	-0,031
-495,824	800,000	0,013	-0,037
-494,810	-200,000	0,038	0,224
-493,795	-65,993	0,096	0,027
-492,781	-200,000	-0,016	0,086
-491,766	626,862	-0,050	-0,092
-490,751	101,840	-0,036	0,030
-489,737	6,272	0,041	0,022
-488,722	44,317	0,121	0,080
-487,708	126,279	-0,045	0,041
-486,693	-200,000	0,002	-0,080
-485,678	-146,606	-0,171	0,010
-484,664	800,000	-0,049	-0,125
-483,649	313,123	-0,042	-0,057
-482,635	-200,000	-0,002	0,014
-481,620	-200,000	-0,008	0,053
-480,605	157,036	0,120	0,119
-479,591	607,167	-0,023	0,042
-478,576	246,112	-0,025	-0,030
-477,562	-97,871	-0,162	-0,030
-476,547	397,747	0,043	0,064
-475,532	1,848	-0,132	-0,068
-474,518	329,510	-0,049	0,068
-473,503	-200,000	-0,004	-0,045
-472,489	102,906	0,067	0,057
-471,474	194,918	-0,085	0,092
-470,459	-200,000	0,018	0,140
-469,445	-51,700	-0,117	0,039
-468,430	277,508	-0,022	0,028
-467,416	37,212	0,039	-0,025
-466,401	-200,000	-0,005	-0,026
-465,386	62,288	-0,121	-0,087
-464,372	20,879	-0,122	-0,071
-463,357	-200,000	0,005	-0,087
-462,343	800,000	-0,067	-0,163
-461,328	800,000	-0,007	-0,017
-460,313	-65,756	0,040	-0,012
-459,299	-140,064	0,155	-0,012
-458,284	-35,674	0,088	0,034
-457,270	800,000	0,022	0,055
-456,255	-200,000	-0,011	-0,074
-455,241	488,346	-0,054	0,089
-454,226	80,233	0,021	-0,016
-453,211	-1,144	0,011	-0,006
-452,197	67,808	0,063	-0,046
-451,182	800,000	0,058	0,132
-450,168	326,747	0,052	0,072
-449,153	-200,000	0,002	-0,010
-448,138	122,111	-0,055	-0,049
-447,124	-200,000	-0,006	0,170
-446,109	-104,389	0,157	0,026
-445,095	-200,000	0,026	0,133
-444,080	800,000	0,054	0,129
-443,065	-200,000	-0,024	0,133
-442,051	45,858	0,070	0,046
-441,036	-11,762	-0,075	-0,035
-440,022	-11,517	0,051	-0,024
-439,007	5,323	0,130	0,068
-437,992	-14,336	-0,106	-0,049
-436,978	-44,857	0,055	0,020
-435,963	800,000	0,022	0,055
-434,949	401,370	0,034	-0,051
-433,934	-200,000	0,014	-0,096
-432,919	54,700	0,048	0,033
-431,905	-200,000	0,003	-0,067
-430,890	-200,000	-0,004	0,139
-429,876	-84,722	-0,012	0,003
-428,861	800,000	-0,075	0,165
-427,846	36,283	-0,076	0,048
-426,832	-72,669	-0,116	0,030
-425,817	-200,000	-0,023	0,122
-424,803	83,021	-0,032	-0,025
-423,788	192,818	0,060	-0,065
-422,773	-200,000	-0,004	-0,088
-421,759	93,271	0,020	-0,017
-420,744	-21,671	0,103	-0,045
-419,730	-138,833	-0,055	0,004
-418,715	800,000	-0,042	-0,107
-417,701	144,726	-0,071	-0,068
-416,686	449,223	0,074	0,118
-415,671	-200,000	-0,000	-0,134
-414,657	800,000	0,051	0,102
-413,642	32,958	0,115	0,071
-412,628	-200,000	-0,018	-0,057
-411,613	-131,395	-0,109	0,010
-410,598	-49,782	0,067	-0,023
-409,584	-200,000	-0,005	0,042
-408,569	30,470	0,059	-0,036
-407,555	800,000	0,003	0,007
-406,540	378,975	0,057	-0,084
-405,525	443,581	-0,077	-0,121
-404,511	318,803	-0,028	0,038
-403,496	-200,000	0,007	-0,084
-402,482	38,631	0,100	0,064
-401,467	800,000	-0,018	-0,044
-400,452	142,281	-0,041	0,039
-399,438	81,049	0,161	-0,124
-398,423	627,342	-0,124	-0,226
-397,409	285,978	0,064	0,083
-396,394	-83,450	-0,133	-0,030
-395,379	112,036	0,103	-0,089
-394,365	63,545	0,099	0,071
-393,350	704,700	0,031	-0,059
-392,336	-81,607	0,141	0,033
-391,321	-200,000	0,004	-0,057
-390,306	-45,593	-0,145	-0,051
-389,292	-62,147	0,085	0,025
-388,277	23,527	-0,095	-0,056
-387,263	-1,475	0,039	-0,020
-386,248	-200,000	-0,029	0,189
-385,233	423,231	-0,073	0,112
-384,219	-114,564	0,046	0,006
-383,204	800,000	0,035	0,076
-382,190	-78,449	0,063	-0,015
-381,175	-152,853	0,115	0,006
-380,160	291,070	0,061	-0,079
-379,146	-84,293	-0,018	0,004
-378,131	-200,000	0,006	0,064
-377,117	-95,744	0,126	0,024
-376,102	386,566	0,063	-0,093
-375,088	800,000	0,026	0,067
-374,073	95,881	-0,025	-0,020
-373,058	24,709	-0,052	0,031
-372,044	153,158	0,058	0,056
-371,029	-76,791	0,050	-0,012
-370,015	46,691	0,043	0,029
-369,000	216,576	0,020	-0,023
-367,985	143,821	0,110	-0,104
-366,971	238,707	-0,051	-0,061
-365,956	72,179	0,050	-0,037
-364,942	800,000	0,053	0,119
-363,927	-200,000	0,027	0,181
-362,912	174,859	0,099	-0,102
-361,898	-200,000	-0,012	-0,040
-360,883	-200,000	0,004	0,063
-359,869	46,556	-0,051	-0,034
-358,854	-3,714	-0,039	0,019
-357,839	182,172	0,051	0,054
-356,825	482,663	0,114	0,186
-355,810	-81,981	-0,120	0,028
-354,796	-96,950	-0,078	-0,014
-353,781	417,713	-0,061	-0,094
-352,766	527,004	-0,014	0,024
-351,752	-200,000	-0,008	0,136
-350,737	113,651	0,051	0,044
-349,723	-200,000	-0,014	-0,075
-348,708	-163,649	0,111	-0,004
-347,693	45,941	0,050	0,033
-346,679	-22,327	-0,092	0,040
-345,664	800,000	0,039	-0,108
-344,650	-25,793	-0,094	0,039
-343,635	119,977	0,105	0,093
-342,620	-200,000	-0,003	0,065
-341,606	-200,000	0,026	0,127
-340,591	-77,814	-0,129	-0,032
-339,577	-200,000	0,012	-0,080
-338,562	323,064	0,013	0,018
-337,548	-200,000	-0,007	0,117
-336,533	-102,739	0,132	0,022
-335,518	59,705	0,063	-0,044
-334,504	214,578	0,095	0,107
-333,489	159,195	-0,022	-0,022
-332,475	307,529	0,015	-0,020
-331,460	-200,000	0,004	-0,178
-330,445	228,989	-0,111	0,130
-329,431	-200,000	0,021	0,137
-328,416	33,985	0,134	0,083
-327,402	800,000	0,055	0,160
-326,387	-96,273	-0,155	0,029
-325,372	296,830	-0,083	-0,109
-324,358	206,107	-0,082	-0,091
-323,343	-72,082	-0,125	0,033
-322,329	-200,000	-0,000	-0,182
-321,314	160,213	-0,032	-0,032
-320,299	800,000	0,055	0,141
-319,285	370,988	-0,073	-0,107
-318,270	-86,029	0,086	-0,019
-317,256	356,769	0,068	-0,096
-316,241	-200,000	-0,004	0,053
-315,226	-200,000	-0,001	0,049
-314,212	-14,380	0,087	0,040
-313,197	800,000	-0,052	-0,107
-312,183	-200,000	0,002	-0,061
-311,168	-78,161	-0,040	0,010
-310,153	52,965	-0,094	-0,064
-309,139	800,000	0,011	0,027
-308,124	220,434	0,017	-0,020
-307,110	319,305	0,082	0,111
-306,095	-123,264	0,151	-0,017
-305,080	-169,055	-0,167	0,004
-304,066	114,682	0,041	0,036
-303,051	-37,818	0,120	-0,045
-302,037	503,443	-0,064	-0,106
-301,022	-200,000	0,004	-0,129
-300,008	-38,560	0,095	-0,036
-298,993	800,000	0,022	0,070
-297,978	800,000	0,050	0,134
-296,964	-200,000	0,018	-0,083
-295,949	-43,219	-0,069	-0,025
-294,935	-108,914	-0,161	0,024
-293,920	14,224	-0,058	-0,032
-292,905	285,565	0,008	-0,010
-291,891	800,000	0,038	0,109
-290,876	339,624	0,075	0,104
-289,862	186,092	0,036	0,038
-288,847	184,361	-0,091	-0,097
-287,832	81,348	-0,129	-0,099
-286,818	-68,831	0,130	-0,036
-285,803	-200,000	0,028	0,109
-284,789	-200,000	-0,001	0,052
-283,774	-39,328	0,129	-0,048
-282,759	484,589	-0,014	-0,023
-281,745	-200,000	-0,005	-0,211
-280,730	676,713	-0,030	-0,056
-279,716	507,226	0,093	-0,155
-278,701	-104,696	-0,057	0,009
-277,686	-200,000	0,021	0,095
-276,672	92,697	0,026	0,021
-275,657	-69,461	0,059	0,016
-274,643	-200,000	-0,008	-0,090
-273,628	4,853	-0,103	-0,054
-272,613	-37,719	0,069	0,026
-271,599	98,994	0,096	0,079
-270,584	116,132	0,145	0,127
-269,570	152,750	-0,013	-0,012
-268,555	116,866	-0,045	0,040
-267,540	-200,000	-0,018	0,082
-266,526	76,226	-0,053	0,040
-265,511	800,000	-0,036	-0,106
-264,497	468,823	-0,092	-0,147
-263,482	-200,000	-0,000	0,118
-262,467	2,145	0,147	-0,076
-261,453	-200,000	-0,002	-0,017
-260,438	-42,912	-0,057	0,020
-259,424	-61,816	-0,128	0,038
-258,409	-88,565	-0,030	0,006
-257,395	86,796	0,071	-0,056
-256,380	21,779	0,033	-0,019
-255,365	53,216	0,152	-0,103
-254,351	-200,000	-0,005	0,149
-253,336	-31,376	-0,106	0,042
-252,322	3,842	-0,160	-0,083
-251,307	-144,081	0,079	0,005
-250,292	98,285	0,024	0,019
-249,278	728,744	-0,017	-0,032
-248,263	-77,919	0,075	0,018
-247,249	265,909	0,108	-0,134
-246,234	-82,740	0,099	-0,023
-245,219	153,554	0,076	-0,074
-244,205	-110,876	-0,176	0,025
-243,190	43,007	-0,104	0,067
-242,176	680,012	-0,048	0,089
-241,161	-200,000	0,024	0,076
-240,146	-200,000	0,000	-0,090
-239,132	-154,038	-0,037	0,002
-238,117	650,604	0,038	-0,070
-237,103	-111,133	-0,154	0,022
-236,088	326,411	-0,074	-0,102
-235,073	27,542	-0,077	0,046
-234,059	-133,900	0,036	-0,003
-233,044	411,931	-0,068	0,102
-232,030	-78,899	0,058	0,014
-231,015	-200,000	-0,012	-0,140
-230,000	107,450	0,079	-0,067
-228,986	-42,795	-0,075	-0,027
-227,971	-200,000	-0,018	-0,097
-226,957	306,041	-0,018	0,024
-225,942	800,000	0,089	0,187
-224,927	182,421	-0,084	0,088
-223,913	160,094	-0,041	-0,041
-222,898	282,937	-0,096	-0,122
-221,884	66,171	0,082	0,059
-220,869	285,062	-0,021	0,026
-219,855	286,468	-0,026	-0,033
-218,840	216,562	-0,036	0,041
-217,825	136,442	0,046	-0,042
-216,811	617,198	-0,046	-0,082
-215,796	68,468	-0,121	-0,088
-214,782	36,527	0,089	-0,056
-213,767	800,000	-0,024	0,051
-212,752	-101,496	-0,078	0,013
-211,738	21,237	0,036	0,021
-210,723	-200,000	-0,006	-0,184
-209,709	-169,394	-0,067	-0,002
-208,694	-200,000	0,011	-0,060
-207,679	117,514	0,037	0,033
-206,665	461,037	0,072	0,115
-205,650	65,144	-0,053	0,038
-204,636	-191,477	-0,063	0,000
-203,621	-200,000	-0,006	0,081
-202,606	-120,128	-0,092	0,011
-201,592	800,000	0,028	0,066
-200,577	800,000	-0,029	-0,085
-199,563	111,686	0,028	-0,024
-198,548	-200,000	0,014	-0,082
-197,533	149,487	0,070	-0,068
-196,519	394,475	-0,037	-0,055
-195,504	-52,558	-0,059	0,019
-194,490	-200,000	0,013	-0,107
-193,475	-58,054	0,101	0,031
-192,460	-151,090	0,101	-0,005
-191,446	-89,074	0,042	-0,009
-190,431	-200,000	0,016	0,071
-189,417	-134,233	0,066	-0,006
-188,402	800,000	-0,031	-0,079
-187,387	97,431	0,061	0,050
-186,373	-76,332	-0,057	-0,014
-185,358	-200,000	0,005	-0,074
-184,344	-171,619	0,146	-0,003
-183,329	153,755	-0,060	0,058
-182,315	-200,000	0,009	0,061
-181,300	127,478	-0,066	-0,059
-180,285	-122,538	-0,094	0,011
-179,271	104,559	-0,066	-0,055
-178,256	-68,168	0,155	-0,042
-177,242	111,568	0,056	-0,048
-176,227	387,943	0,045	0,066
-175,212	-200,000	0,030	0,218
-174,198	64,838	-0,028	0,020
-173,183	-97,983	-0,104	0,019
-172,169	-196,689	-0,096	0,000
-171,154	-200,000	0,008	-0,096
-170,139	-61,097	0,062	-0,018
-169,125	-200,000	0,027	-0,109
-168,110	-19,325	0,051	-0,022
-167,096	59,662	-0,051	-0,036
-166,081	10,348	0,104	-0,056
-165,066	-200,000	0,033	-0,144
-164,052	-74,477	-0,089	0,023
-163,037	-200,000	-0,013	0,109
-162,023	279,435	0,060	-0,076
-161,008	28,520	0,043	-0,026
-159,993	-187,651	-0,189	-0,002
-158,979	21,429	-0,094	-0,054
-157,964	423,269	0,043	-0,065
-156,950	220,213	-0,130	-0,148
-155,935	800,000	-0,030	-0,060
-154,920	482,708	0,042	-0,068
-153,906	-71,220	0,047	0,012
-152,891	224,146	0,044	0,050
-151,877	575,696	-0,042	-0,073
-150,862	800,000	-0,021	0,061
-149,847	800,000	-0,083	-0,173
-148,833	800,000	-0,045	0,126
-147,818	-200,000	-0,005	0,082
-146,804	-156,258	0,113	-0,005
-145,789	770,504	0,098	0,190
-144,775	77,291	-0,049	0,037
-143,760	-61,666	-0,066	0,019
-142,745	-200,000	-0,008	-0,067
-141,731	-104,491	0,081	0,013
-140,716	-143,617	0,111	0,007
-139,702	242,517	-0,071	-0,084
-138,687	-200,000	0,009	-0,061
-137,672	800,000	-0,044	-0,129
-136,658	41,754	0,123	-0,078
-135,643	331,949	-0,082	-0,112
-134,629	-200,000	0,020	0,120
-133,614	35,642	0,083	0,051
-132,599	-116,961	0,108	-0,014
-131,585	-200,000	0,007	-0,025
-130,570	-57,078	-0,159	-0,049
-129,556	-184,330	0,095	-0,001
-128,541	190,744	-0,059	-0,063
-127,526	64,598	-0,040	-0,028
-126,512	195,677	-0,084	-0,091
-125,497	65,290	0,041	0,029
-124,483	-200,000	-0,040	0,139
-123,468	-200,000	0,015	-0,100
-122,453	-22,694	-0,059	-0,025
-121,439	373,184	-0,024	-0,035
-120,424	223,991	0,082	-0,094
-119,410	629,362	0,015	0,027
-118,395	-200,000	0,005	-0,063
-117,380	-100,825	-0,145	-0,025
-116,366	-157,540	-0,050	0,002
-115,351	-200,000	-0,004	-0,074
-114,337	777,126	0,031	-0,060
-113,322	497,082	-0,065	-0,106
-112,307	-113,442	-0,087	0,012
-111,293	431,683	0,063	0,096
-110,278	533,278	-0,007	0,012
-109,264	56,550	-0,091	-0,063
-108,249	-199,453	-0,094	0,000
-107,234	800,000	0,040	0,121
-106,220	-22,502	-0,154	0,065
-105,205	135,823	0,053	0,049
-104,191	800,000	0,036	0,097
-103,176	800,000	-0,014	0,035
-102,162	115,578	0,084	-0,073
-101,147	166,086	0,055	-0,056
-100,132	-131,174	0,021	-0,002
-99,118	-200,000	0,012	-0,111
-98,103	45,778	0,071	-0,046
-97,089	610,882	0,052	0,093
-96,074	-200,000	0,022	0,117
-95,059	-200,000	-0,002	-0,015
-94,045	-186,477	-0,064	-0,001
-93,030	-0,350	-0,063	-0,032
-92,016	21,784	0,037	0,021
-91,001	2,600	0,092	-0,047
-89,986	-200,000	0,010	0,183
-88,972	345,022	0,012	-0,017
-87,957	800,000	0,025	0,070
-86,943	-172,600	0,025	-0,001
-85,928	218,167	-0,042	0,048
-84,913	800,000	-0,046	-0,097
-83,899	133,954	0,016	0,015
-82,884	211,109	0,071	0,079
-81,870	445,128	0,078	-0,122
-80,855	-200,000	-0,013	0,105
-79,840	-150,207	0,054	-0,003
-78,826	-200,000	-0,012	0,054
-77,811	-66,532	0,137	0,038
-76,797	319,018	0,032	-0,043
-75,782	119,651	0,109	0,095
-74,767	-200,000	-0,004	-0,030
-73,753	-83,543	-0,183	0,041
-72,738	185,316	0,052	-0,055
-71,724	11,269	-0,146	0,079
-70,709	152,686	0,047	-0,045
-69,694	-161,874	-0,123	0,004
-68,680	-200,000	0,005	0,019
-67,665	800,000	0,008	-0,020
-66,651	104,615	-0,043	0,036
-65,636	-47,107	-0,043	0,015
-64,622	106,201	0,073	0,061
-63,607	10,757	-0,078	0,042
-62,592	800,000	0,047	-0,099
-61,578	-77,213	-0,119	-0,029
-60,563	210,875	-0,053	0,059
-59,549	233,687	-0,078	0,091
-58,534	51,975	-1,939	-1,302
-57,519	433,465	-1,290	-1,983
-56,505	-200,000	-0,295	-4,414
-55,490	437,233	0,965	1,489
-54,476	800,000	5,033	11,238
-53,461	-200,000	21,398	340,528
-52,446	800,000	759,572	2359,531
-51,432	560,040	1662,271	2845,003
-50,417	73,662	1661,527	1227,327
-49,403	18,009	1534,905	861,054
-48,388	11,980	1458,312	788,931
-47,373	19,406	1449,499	819,764
-46,359	15,491	1438,730	795,028
-45,344	10,256	1434,562	767,768
-44,330	10,178	1432,634	766,333
-43,315	10,195	1430,919	765,468
-42,300	10,213	1429,048	764,523
-41,286	10,238	1427,949	764,022
-40,271	10,184	1426,695	763,063
-39,257	10,143	1425,609	762,260
-38,242	10,237	1424,504	762,083
-37,227	10,248	1423,186	761,402
-36,213	10,195	1422,101	760,539
-35,198	10,245	1420,855	760,079
-34,184	10,292	1419,968	759,797
-33,169	10,198	1418,608	758,597
-32,154	10,279	1417,434	758,320
-31,140	10,260	1416,266	757,572
-30,125	10,244	1415,200	756,897
-29,111	10,246	1414,081	756,277
-28,096	10,217	1412,932	755,498
-27,082	10,190	1411,752	754,709
-26,067	10,154	1410,636	753,917
-25,052	10,180	1409,673	753,494
-24,038	10,140	1408,658	752,735
-23,023	10,204	1407,664	752,472
-22,009	10,198	1406,548	751,815
-20,994	10,189	1405,599	751,236
-19,979	10,196	1404,611	750,712
-18,965	10,129	1403,871	749,976
-17,950	10,129	1402,834	749,394
-16,936	10,118	1402,043	748,887
-15,921	10,074	1401,200	748,204
-14,906	10,101	1400,199	747,766
-13,892	10,159	1399,079	747,404
-12,877	10,099	1398,216	746,636
-11,863	10,056	1397,760	746,164
-10,848	10,067	1396,819	745,682
-9,833	10,032	1395,942	745,022
-8,819	10,025	1394,848	744,378
-7,804	10,002	1394,043	743,811
-6,790	9,974	1393,067	743,132
-5,775	10,022	1391,952	742,731
-4,760	10,041	1390,826	742,186
-3,746	9,986	1389,978	741,452
-2,731	9,988	1389,175	741,004
-1,717	10,009	1388,314	740,610
-0,702	10,022	1386,530	739,688
0,313	14,077	1299,385	711,741
1,327	30,384	689,990	414,895
2,342	46,834	119,586	78,245
3,356	0,066	16,524	8,277
4,371	0,933	3,580	1,804
5,386	-15,465	0,899	0,403
6,400	800,000	0,179	0,531
7,415	108,947	-0,247	-0,208
8,429	62,548	-0,330	-0,232
9,444	-178,589	-0,251	-0,004
10,459	-10,118	-0,246	-0,115
11,473	-66,225	-0,437	-0,122
12,488	16,461	-0,323	-0,179
13,502	7,914	-0,354	-0,187
14,517	-27,956	-0,390	-0,158
15,531	19,326	-0,472	-0,266
16,546	39,826	-0,268	-0,169
17,561	14,044	-0,394	-0,215
18,575	31,851	-0,242	-0,146
19,590	800,000	-0,113	-0,288
20,604	8,544	-0,261	-0,138
21,619	130,478	-0,408	-0,368
22,634	143,217	-0,313	-0,293
23,648	61,116	-0,374	-0,261
24,663	84,164	-0,412	-0,317
25,677	260,207	-0,308	-0,375
26,692	350,492	-0,240	-0,336
27,707	-37,608	-0,486	-0,181
28,721	-38,248	-0,343	-0,127
29,736	81,316	-0,372	-0,283
30,750	123,545	-0,361	-0,318
31,765	17,027	-0,393	-0,218
32,780	45,683	-0,334	-0,217
33,794	70,385	-0,339	-0,246
34,809	-15,164	-0,270	-0,121
35,823	74,573	-0,372	-0,275
36,838	411,354	-0,239	-0,358
37,853	-39,509	-0,514	-0,188
38,867	61,076	-0,420	-0,293
39,882	418,006	-0,201	-0,303
40,896	53,005	-0,313	-0,210
41,911	78,486	-0,215	-0,161
42,926	61,787	-0,321	-0,224
43,940	69,791	-0,343	-0,248
44,955	164,721	-0,256	-0,254
45,969	221,988	-0,283	-0,321
46,984	745,007	-0,177	-0,336
47,999	67,619	-0,227	-0,163
49,013	-81,957	-0,345	-0,079
50,028	-57,258	-0,432	-0,133
51,042	-0,361	-0,262	-0,130
52,057	173,397	-0,336	-0,340
53,071	160,833	-0,317	-0,311
54,086	66,215	-0,320	-0,228
55,101	136,932	-0,325	-0,299
56,115	80,242	-0,332	-0,250
57,130	140,944	-0,309	-0,287
58,144	59,950	-0,348	-0,241
59,159	4,531	-0,546	-0,281
60,174	40,201	-0,488	-0,307
61,188	47,990	-0,314	-0,206
62,203	-28,027	-0,230	-0,093
63,217	-39,718	-0,431	-0,157
64,232	61,451	-0,330	-0,230
65,247	94,567	-0,280	-0,223
66,261	43,617	-0,347	-0,222
67,276	70,406	-0,399	-0,289
68,290	47,461	-0,229	-0,149
69,305	-1,579	-0,310	-0,153
70,320	111,270	-0,226	-0,191
71,334	104,483	-0,233	-0,192
72,349	800,000	-0,099	-0,230
73,363	39,939	-0,324	-0,204
74,378	107,747	-0,338	-0,282
75,393	678,125	-0,222	-0,406
76,407	-16,185	-0,171	-0,076
77,422	27,696	-0,383	-0,226
78,436	145,629	-0,308	-0,290
79,451	146,507	-0,274	-0,258
80,466	12,823	-0,380	-0,205
81,480	42,138	-0,348	-0,221
82,495	48,157	-0,335	-0,219
83,509	201,173	-0,226	-0,244
84,524	279,607	-0,169	-0,212
85,539	27,586	-0,200	-0,118
86,553	46,476	-0,319	-0,207
87,568	-20,916	-0,332	-0,142
88,582	-6,312	-0,326	-0,155
89,597	-80,613	-0,229	-0,053
90,611	27,845	-0,307	-0,181
91,626	57,878	-0,278	-0,190
92,641	160,677	-0,166	-0,162
93,655	-102,276	-0,337	-0,056
94,670	194,554	-0,330	-0,350
95,684	-19,004	-0,335	-0,145
96,699	-0,635	-0,379	-0,187
97,714	-68,895	-0,281	-0,075
98,728	82,066	-0,301	-0,228
99,743	-54,967	-0,163	-0,051
100,757	800,000	-0,099	-0,253
101,772	25,229	-0,264	-0,153
102,787	24,655	-0,221	-0,127
103,801	134,404	-0,247	-0,224
104,816	-71,613	-0,399	-0,104
105,830	-32,018	-0,312	-0,122
106,845	-124,559	-0,340	-0,036
107,860	-11,909	-0,228	-0,104
108,874	33,398	-0,321	-0,194
109,889	-75,092	-0,285	-0,071
110,903	273,426	-0,259	-0,321
111,918	75,324	-0,225	-0,166
112,933	28,258	-0,198	-0,116
113,947	440,888	-0,238	-0,365
114,962	82,791	-0,277	-0,210
115,976	53,929	-0,321	-0,215
116,991	129,481	-0,191	-0,170
118,006	113,849	-0,281	-0,238
119,020	100,138	-0,160	-0,129
120,035	228,097	-0,142	-0,161
121,049	-69,269	-0,224	-0,060
122,064	-200,000	-0,030	-0,206
123,079	-23,743	-0,296	-0,123
124,093	-47,359	-0,255	-0,086
125,108	40,375	-0,262	-0,164
126,122	-38,599	-0,193	-0,071
127,137	-53,898	-0,186	-0,059
128,151	-15,423	-0,337	-0,150
129,166	80,369	-0,271	-0,203
130,181	-64,271	-0,150	-0,042
131,195	704,834	-0,149	-0,276
132,210	137,365	-0,297	-0,271
133,224	-15,551	-0,303	-0,134
134,239	-31,724	-0,373	-0,145
135,254	800,000	-0,110	-0,235
136,268	166,200	-0,204	-0,202
137,283	442,537	-0,098	-0,150
138,297	64,064	-0,317	-0,222
139,312	21,720	-0,357	-0,202
140,327	41,829	-0,203	-0,128
141,341	144,834	-0,242	-0,225
142,356	395,375	-0,181	-0,264
143,370	120,790	-0,257	-0,222
144,385	-49,427	-0,399	-0,132
145,400	183,444	-0,258	-0,266
146,414	130,446	-0,376	-0,336
147,429	-29,148	-0,231	-0,092
148,443	708,575	-0,153	-0,282
149,458	-158,369	-0,198	-0,008
150,473	-10,304	-0,201	-0,092
151,487	-2,838	-0,319	-0,154
152,502	-33,905	-0,248	-0,095
153,516	7,911	-0,327	-0,170
154,531	340,856	-0,184	-0,251
155,546	317,978	-0,123	-0,163
156,560	-0,568	-0,270	-0,133
157,575	-58,402	-0,176	-0,053
158,589	800,000	-0,065	-0,192
159,604	271,779	-0,218	-0,267
160,619	0,979	-0,290	-0,144
161,633	188,850	-0,156	-0,162
162,648	620,583	-0,158	-0,278
163,662	181,683	-0,122	-0,125
164,677	-87,455	-0,217	-0,045
165,692	-109,736	-0,206	-0,030
166,706	-41,063	-0,273	-0,097
167,721	472,341	-0,127	-0,199
168,735	123,567	-0,161	-0,141
169,750	77,726	-0,221	-0,164
170,764	298,530	-0,150	-0,192
171,779	13,402	-0,206	-0,110
172,794	83,606	-0,234	-0,177
173,808	10,505	-0,354	-0,187
174,823	59,943	-0,296	-0,203
175,837	-69,417	-0,285	-0,075
176,852	143,889	-0,213	-0,197
177,867	140,635	-0,179	-0,165
178,881	68,089	-0,168	-0,120
179,896	309,190	-0,167	-0,218
180,910	-135,359	-0,236	-0,019
181,925	37,309	-0,307	-0,188
182,940	203,294	-0,230	-0,247
183,954	-60,453	-0,229	-0,067
184,969	-0,852	-0,172	-0,084
185,983	205,500	-0,161	-0,174
186,998	6,344	-0,217	-0,111
188,013	151,873	-0,231	-0,219
189,027	233,470	-0,172	-0,197
190,042	501,763	-0,151	-0,242
191,056	27,013	-0,268	-0,156
192,071	65,154	-0,151	-0,106
193,086	95,105	-0,227	-0,179
194,100	194,126	-0,118	-0,124
195,115	-108,300	-0,232	-0,034
196,129	390,690	-0,205	-0,296
197,144	159,940	-0,250	-0,241
198,159	179,268	-0,198	-0,201
199,173	458,900	-0,115	-0,178
200,188	252,968	-0,137	-0,163
201,202	173,444	-0,177	-0,177
202,217	800,000	-0,112	-0,222
203,232	-25,150	-0,182	-0,074
204,246	-26,046	-0,185	-0,075
205,261	104,994	-0,244	-0,199
206,275	43,618	-0,254	-0,161
207,290	244,659	-0,147	-0,171
208,304	-49,375	-0,134	-0,044
209,319	-44,906	-0,259	-0,089
210,334	-200,000	-0,039	-0,164
211,348	800,000	-0,108	-0,241
212,363	160,457	-0,220	-0,213
213,377	-200,000	-0,038	-0,200
214,392	147,940	-0,103	-0,096
215,407	554,763	-0,119	-0,199
216,421	99,323	-0,316	-0,253
217,436	197,750	-0,153	-0,162
218,450	139,118	-0,214	-0,195
219,465	239,500	-0,229	-0,265
220,480	-119,640	-0,258	-0,031
221,494	87,785	-0,222	-0,170
222,509	43,888	-0,192	-0,122
223,523	720,775	-0,077	-0,143
224,538	-48,717	-0,229	-0,076
225,553	151,104	-0,199	-0,187
226,567	104,930	-0,237	-0,193
227,582	-124,787	-0,090	-0,009
228,596	-144,625	-0,227	-0,014
229,611	800,000	-0,042	-0,082
230,626	-200,000	-0,013	-0,146
231,640	145,009	-0,202	-0,187
232,655	800,000	-0,090	-0,248
233,669	298,444	-0,200	-0,255
234,684	48,680	-0,220	-0,142
235,699	61,059	-0,157	-0,107
236,713	271,365	-0,127	-0,155
237,728	-66,863	-0,239	-0,065
238,742	142,473	-0,099	-0,090
239,757	-20,335	-0,130	-0,055
240,772	127,793	-0,194	-0,171
241,786	-60,335	-0,268	-0,078
242,801	-0,597	-0,236	-0,115
243,815	274,343	-0,144	-0,176
244,830	-43,662	-0,113	0,039
245,844	266,742	-0,208	-0,252
246,859	178,258	-0,208	-0,209
247,874	21,522	-0,177	-0,099
248,888	-163,777	-0,177	0,006
249,903	-41,559	-0,180	0,064
250,917	-14,085	-0,160	0,071
251,932	-200,000	-0,019	-0,083
252,947	-114,924	-0,123	-0,016
253,961	-63,837	-0,248	-0,070
254,976	97,889	-0,221	-0,175
255,990	124,912	-0,263	-0,228
257,005	166,909	-0,121	-0,118
258,020	-109,271	-0,096	-0,014
259,034	-32,983	-0,173	0,066
260,049	13,320	-0,209	-0,111
261,063	-126,244	-0,329	0,033
262,078	236,224	-0,187	-0,213
263,093	30,293	-0,235	-0,138
264,107	61,072	-0,208	-0,142
265,122	332,031	-0,130	-0,174
266,136	196,477	-0,173	-0,182
267,151	-1,511	-0,082	-0,040
268,166	-30,806	-0,185	-0,072
269,180	111,612	-0,273	-0,227
270,195	-150,396	-0,176	-0,009
271,209	227,650	-0,132	-0,149
272,224	5,669	-0,171	-0,087
273,239	-161,755	-0,182	-0,006
274,253	-105,781	-0,141	-0,022
275,268	-191,330	-0,220	-0,001
276,282	592,909	-0,132	-0,226
277,297	206,688	-0,127	-0,137
278,312	3,308	-0,128	-0,064
279,326	-114,799	-0,208	0,027
280,341	70,262	-0,107	-0,076
281,355	-112,071	-0,143	-0,020
282,370	256,369	-0,073	-0,086
283,384	-65,673	-0,210	-0,058
284,399	-57,616	-0,205	-0,062
285,414	48,044	-0,083	-0,054
286,428	24,488	-0,130	-0,074
287,443	361,493	-0,059	-0,082
288,457	596,185	-0,076	-0,129
289,472	-41,292	-0,239	0,084
290,487	121,540	-0,158	-0,135
291,501	-131,556	-0,233	-0,021
292,516	93,362	-0,146	-0,114
293,530	66,503	-0,145	-0,101
294,545	42,501	-0,161	-0,101
295,560	-80,121	-0,061	-0,014
296,574	28,379	-0,194	-0,113
297,589	265,833	-0,217	-0,261
298,603	470,199	-0,098	-0,152
299,618	-70,850	-0,054	-0,014
300,633	457,948	-0,120	-0,183
301,647	172,899	-0,107	-0,106
302,662	115,391	-0,198	-0,166
303,676	-12,397	-0,183	-0,082
304,691	-37,537	-0,123	-0,045
305,706	553,167	-0,130	-0,215
306,720	112,623	-0,174	-0,145
307,735	88,944	-0,122	-0,093
308,749	253,783	-0,117	-0,138
309,764	800,000	-0,083	-0,212
310,779	189,412	-0,143	-0,148
311,793	-154,928	-0,133	-0,006
312,808	-28,165	-0,193	-0,076
313,822	-120,058	-0,275	-0,032
314,837	69,375	-0,132	-0,093
315,852	-73,710	-0,126	-0,031
316,866	163,237	0,056	-0,054
317,881	655,418	-0,017	0,030
318,895	800,000	-0,083	-0,184
319,910	800,000	-0,083	-0,175
320,925	150,510	-0,158	-0,148
321,939	65,556	-0,109	-0,076
322,954	94,504	-0,174	-0,136
323,968	-200,000	-0,015	-0,143
324,983	-200,000	-0,040	-0,148
325,997	28,125	-0,206	-0,119
327,012	800,000	-0,130	-0,251
328,027	288,733	-0,111	-0,139
329,041	45,161	-0,187	-0,118
330,056	-200,000	-0,046	-0,145
331,070	800,000	-0,040	0,113
332,085	-46,309	-0,087	0,029
333,100	368,085	-0,049	-0,068
334,114	178,494	-0,130	-0,130
335,129	386,300	-0,074	-0,105
336,143	411,137	-0,078	-0,114
337,158	-198,352	-0,199	0,001
338,173	70,913	-0,067	-0,048
339,187	19,157	-0,174	0,095
340,202	-40,334	-0,073	0,026
341,216	800,000	-0,076	-0,192
342,231	210,546	-0,146	-0,157
343,246	51,804	-0,187	-0,121
344,260	-136,648	-0,108	0,008
345,275	-44,445	-0,133	-0,045
346,289	-47,485	-0,208	-0,069
347,304	-82,591	-0,140	-0,031
348,319	95,163	-0,128	-0,099
349,333	31,007	-0,143	-0,083
350,348	256,838	-0,052	-0,061
351,362	381,267	-0,067	-0,094
352,377	-28,803	-0,095	0,037
353,392	499,656	-0,092	-0,146
354,406	180,095	-0,130	-0,131
355,421	207,693	1310,155	1400,444
356,435	159,784	1470,288	1400,917
