DTS Sentinel unit serial number:	SN410029Multiplexer serial number:	ORYXHardware model number:	OX2-SRSoftware version number:	ORYX F/W v4,00 Oryx Data Collector v3.7.2.0data status	okinstallation	B3 Nyhavnadifferential loss correction	single-endedforward channel	channel 1reverse channel	N/Adate	2023/11/29time	04:52:30forward acquisition time	300,00reverse acquisition time	0,00gamma	499,1914k internal	0,3211k external	0,3211temperature offset calibration	1,0000default loss term (dB/km)	0,3820temperature slope calibration	1,0000multiplexer offset coefficient	1,0000multiplexer slope coefficient	1,0000fibre end	0,00T internal ref (°C)	9,23T ext. ref 1 (°C)	-6,18T ext. ref 2 (°C)	-6,32length (m)	temperature (°C)	Stokes	anti-Stokes-744,400	587,871	-0,103	-0,185
-743,385	-200,000	-0,020	0,276
-742,371	-103,149	-0,110	-0,019
-741,356	-200,000	0,033	0,393
-740,342	-200,000	-0,060	-0,205
-739,327	-200,000	-0,098	0,326
-738,312	779,423	-0,166	-0,331
-737,298	800,000	-0,114	0,243
-736,283	74,930	-0,158	-0,120
-735,269	-200,000	0,002	0,423
-734,254	257,962	-0,159	-0,198
-733,239	-29,404	-0,200	0,083
-732,225	800,000	-0,031	-0,069
-731,210	-200,000	0,033	0,140
-730,196	63,394	-0,150	-0,109
-729,181	422,351	-0,065	0,101
-728,167	800,000	-0,030	0,073
-727,152	295,684	-0,093	-0,123
-726,137	-50,308	-0,099	-0,034
-725,123	-93,955	-0,169	0,033
-724,108	800,000	-0,020	-0,047
-723,094	113,676	-0,134	-0,118
-722,079	135,215	-0,068	0,064
-721,064	350,428	-0,021	-0,031
-720,050	-153,030	-0,143	0,007
-719,035	226,211	0,054	-0,063
-718,021	-94,197	-0,124	0,024
-717,006	689,980	-0,022	-0,043
-715,991	22,144	-0,106	0,063
-714,977	-200,000	-0,012	-0,100
-713,962	-200,000	0,016	0,080
-712,948	-93,820	-0,083	0,016
-711,933	38,592	0,051	0,033
-710,918	26,693	-0,089	-0,054
-709,904	32,590	-0,058	0,036
-708,889	800,000	-0,050	-0,121
-707,875	780,096	-0,083	-0,165
-706,860	522,228	0,037	-0,063
-705,845	-200,000	0,004	-0,029
-704,831	-200,000	0,003	0,066
-703,816	-200,000	0,003	-0,047
-702,802	-25,504	-0,019	0,008
-701,787	-200,000	-0,011	-0,090
-700,772	-20,739	0,026	0,011
-699,758	-200,000	-0,007	-0,071
-698,743	-27,573	0,049	-0,020
-697,729	-200,000	0,040	0,204
-696,714	-128,751	-0,097	0,010
-695,699	-40,944	0,052	0,019
-694,685	25,297	0,094	-0,057
-693,670	-200,000	-0,022	-0,119
-692,656	-157,259	0,034	-0,001
-691,641	-200,000	-0,022	-0,073
-690,627	13,565	0,103	0,058
-689,612	-48,257	0,082	-0,028
-688,597	-69,648	-0,133	-0,037
-687,583	-200,000	0,010	-0,097
-686,568	-200,000	0,031	0,124
-685,554	-200,000	-0,018	0,129
-684,539	356,913	0,052	0,075
-683,524	-152,472	0,189	0,010
-682,510	92,505	0,068	0,055
-681,495	800,000	-0,026	-0,063
-680,481	-88,148	-0,094	0,020
-679,466	651,278	-0,010	0,019
-678,451	158,367	-0,022	0,022
-677,437	-57,313	-0,084	-0,026
-676,422	-170,111	0,062	-0,002
-675,408	56,444	-0,096	-0,067
-674,393	100,372	0,079	0,066
-673,378	-54,241	-0,059	0,019
-672,364	151,038	-0,096	0,094
-671,349	-67,104	-0,132	-0,037
-670,335	-122,413	0,062	-0,007
-669,320	-146,210	-0,119	0,007
-668,305	117,071	0,073	0,065
-667,291	41,338	-0,151	0,099
-666,276	13,215	-0,136	-0,076
-665,262	-200,000	0,010	-0,031
-664,247	-200,000	0,041	-0,146
-663,232	800,000	-0,001	0,002
-662,218	-200,000	0,037	0,146
-661,203	-200,000	0,024	0,119
-660,189	-160,886	0,030	-0,001
-659,174	800,000	0,031	-0,079
-658,159	-143,477	-0,104	0,007
-657,145	-200,000	-0,003	-0,034
-656,130	-56,054	-0,085	-0,027
-655,116	57,337	-0,028	-0,020
-654,101	243,550	-0,038	-0,046
-653,086	-31,650	0,060	0,024
-652,072	-49,415	0,141	0,048
-651,057	-32,586	0,036	-0,014
-650,043	236,913	0,055	-0,066
-649,028	800,000	-0,061	0,153
-648,014	120,248	0,053	0,048
-646,999	-140,553	0,078	0,006
-645,984	-125,183	-0,085	0,009
-644,970	-39,009	-0,085	0,032
-643,955	97,761	0,081	-0,067
-642,941	314,504	0,066	-0,090
-641,926	-200,000	-0,002	-0,017
-640,911	-200,000	-0,013	-0,046
-639,897	79,024	-0,067	0,052
-638,882	-93,059	-0,070	0,014
-637,868	800,000	-0,036	-0,100
-636,853	800,000	-0,041	0,087
-635,838	800,000	-0,040	-0,095
-634,824	-64,305	-0,075	0,022
-633,809	693,546	-0,036	-0,069
-632,795	-200,000	0,038	0,139
-631,780	800,000	0,014	0,033
-630,765	405,878	0,093	-0,141
-629,751	77,525	-0,069	-0,053
-628,736	800,000	-0,032	0,093
-627,722	-147,380	-0,010	0,001
-626,707	-131,314	0,117	-0,011
-625,692	577,570	0,081	-0,143
-624,678	-91,690	0,108	0,022
-623,663	-108,692	0,079	0,012
-622,649	-200,000	0,023	-0,181
-621,634	22,860	-0,070	0,041
-620,619	-200,000	-0,007	0,134
-619,605	-200,000	0,000	0,145
-618,590	-35,978	0,114	-0,044
-617,576	-14,487	0,051	-0,023
-616,561	-50,244	-0,132	-0,045
-615,546	-200,000	0,001	0,077
-614,532	97,402	-0,056	-0,047
-613,517	247,034	0,022	-0,027
-612,503	71,265	0,112	-0,084
-611,488	-36,464	0,064	0,025
-610,474	800,000	0,062	0,129
-609,459	-112,616	-0,161	0,023
-608,444	86,154	0,025	0,020
-607,430	800,000	-0,012	0,026
-606,415	-200,000	0,033	-0,132
-605,401	331,828	0,051	0,072
-604,386	315,878	0,078	-0,106
-603,371	800,000	0,044	-0,128
-602,357	-28,454	-0,074	-0,031
-601,342	-27,337	-0,069	-0,029
-600,328	-122,177	0,044	0,005
-599,313	-53,534	-0,001	-0,000
-598,298	-76,254	0,139	0,035
-597,284	-51,484	0,079	0,027
-596,269	-200,000	-0,023	0,155
-595,255	-200,000	0,003	-0,132
-594,240	2,218	-0,066	0,034
-593,225	88,188	-0,117	-0,094
-592,211	-200,000	-0,005	-0,223
-591,196	-126,999	0,095	0,010
-590,182	-19,593	-0,047	0,021
-589,167	-193,596	0,045	0,000
-588,152	-77,170	0,114	0,028
-587,138	33,786	0,069	-0,043
-586,123	220,638	-0,100	-0,116
-585,109	31,846	-0,130	-0,081
-584,094	129,847	-0,148	-0,136
-583,079	-200,000	0,013	0,082
-582,065	69,307	0,136	0,101
-581,050	800,000	0,091	0,196
-580,036	-200,000	-0,009	0,094
-579,021	558,286	0,048	0,084
-578,006	171,643	0,048	-0,049
-576,992	-200,000	0,002	-0,047
-575,977	-200,000	0,010	-0,103
-574,963	147,908	0,068	0,066
-573,948	-200,000	-0,026	0,149
-572,934	0,254	0,052	0,027
-571,919	-200,000	-0,049	-0,171
-570,904	-138,405	-0,114	0,009
-569,890	-100,424	0,084	0,015
-568,875	107,429	-0,077	-0,066
-567,861	-15,180	0,060	-0,028
-566,846	-200,000	0,007	0,046
-565,831	-83,523	0,138	-0,032
-564,817	19,105	-0,107	0,062
-563,802	-148,512	-0,071	0,004
-562,788	800,000	-0,063	-0,142
-561,773	-200,000	0,004	-0,040
-560,758	800,000	-0,040	0,094
-559,744	-29,730	-0,021	-0,009
-558,729	199,132	-0,038	-0,042
-557,715	-200,000	0,000	-0,135
-556,700	60,702	-0,014	0,010
-555,685	-114,216	0,222	0,030
-554,671	-200,000	0,000	0,028
-553,656	-120,980	0,058	-0,007
-552,642	12,176	-0,098	-0,054
-551,627	800,000	-0,020	0,064
-550,612	157,862	-0,106	-0,105
-549,598	549,466	0,026	-0,044
-548,583	-108,845	0,020	0,003
-547,569	58,914	-0,081	-0,057
-546,554	179,511	-0,037	-0,039
-545,539	800,000	0,018	-0,037
-544,525	-120,908	0,074	0,009
-543,510	-14,399	-0,119	-0,055
-542,496	64,452	0,129	-0,093
-541,481	49,620	-0,085	-0,058
-540,466	800,000	-0,047	-0,108
-539,452	800,000	-0,045	0,108
-538,437	-95,394	0,048	0,009
-537,423	276,288	-0,062	-0,079
-536,408	346,727	0,092	0,130
-535,393	-180,955	-0,070	0,001
-534,379	652,015	0,007	-0,014
-533,364	-79,350	-0,024	-0,006
-532,350	113,244	0,110	-0,096
-531,335	800,000	0,056	0,143
-530,321	-64,126	-0,087	-0,025
-529,306	518,071	-0,040	-0,067
-528,291	-94,319	0,097	-0,019
-527,277	506,341	-0,022	-0,036
-526,262	459,727	-0,102	-0,163
-525,248	-200,000	0,010	0,054
-524,233	268,528	-0,088	0,111
-523,218	-159,874	-0,198	-0,008
-522,204	-200,000	0,004	-0,038
-521,189	142,399	-0,130	0,124
-520,175	546,016	0,022	0,038
-519,160	437,752	-0,050	-0,079
-518,145	-9,530	0,020	0,010
-517,131	649,609	-0,083	0,153
-516,116	-12,319	0,053	-0,025
-515,102	481,646	-0,036	0,059
-514,087	-150,333	-0,211	-0,011
-513,072	143,402	-0,083	-0,079
-512,058	431,821	0,041	-0,063
-511,043	-34,270	0,118	-0,046
-510,029	536,283	0,042	0,072
-509,014	-200,000	-0,027	-0,127
-507,999	-85,035	-0,164	0,037
-506,985	-200,000	0,006	0,087
-505,970	800,000	-0,011	0,026
-504,956	126,699	0,076	0,069
-503,941	-127,949	-0,014	0,001
-502,926	-200,000	-0,030	0,107
-501,912	800,000	0,027	0,054
-500,897	46,649	-0,107	-0,071
-499,883	-200,000	-0,003	0,068
-498,868	800,000	-0,024	-0,069
-497,853	41,133	-0,109	0,071
-496,839	-200,000	0,010	0,087
-495,824	89,015	0,091	0,072
-494,810	179,890	0,117	-0,123
-493,795	-120,679	0,057	0,007
-492,781	-200,000	-0,017	0,069
-491,766	-13,942	0,113	-0,052
-490,751	182,066	-0,076	-0,080
-489,737	-200,000	0,008	0,133
-488,722	800,000	-0,015	-0,043
-487,708	292,708	0,094	0,124
-486,693	4,026	-0,138	0,072
-485,678	266,350	0,062	0,078
-484,664	800,000	0,010	0,031
-483,649	374,711	-0,039	-0,057
-482,635	-200,000	-0,001	0,003
-481,620	278,074	0,093	0,119
-480,605	267,884	0,074	0,093
-479,591	-19,914	0,045	-0,020
-478,576	-55,950	0,071	-0,022
-477,562	-86,817	-0,140	-0,030
-476,547	800,000	-0,034	-0,105
-475,532	-85,321	-0,180	-0,040
-474,518	170,543	0,103	0,106
-473,503	800,000	0,021	0,048
-472,489	-89,490	0,031	-0,006
-471,474	-200,000	-0,010	-0,090
-470,459	360,184	0,013	-0,018
-469,445	-71,996	-0,105	-0,028
-468,430	765,117	-0,032	0,062
-467,416	171,201	-0,076	-0,078
-466,401	104,408	0,175	0,148
-465,386	496,376	0,088	0,146
-464,372	280,863	0,035	-0,044
-463,357	-95,919	-0,086	-0,016
-462,343	-200,000	-0,010	-0,086
-461,328	800,000	0,091	-0,183
-460,313	668,158	0,018	-0,033
-459,299	345,898	-0,058	0,082
-458,284	-200,000	0,010	0,109
-457,270	-31,452	-0,085	-0,034
-456,255	-11,304	0,080	0,038
-455,241	-147,383	0,102	0,006
-454,226	-69,443	-0,019	0,005
-453,211	110,846	0,122	0,105
-452,197	387,238	0,072	0,107
-451,182	-165,578	0,182	-0,006
-450,168	-200,000	-0,002	-0,029
-449,153	-200,000	-0,007	0,058
-448,138	592,514	-0,022	-0,039
-447,124	187,680	-0,016	0,018
-446,109	-60,926	0,146	0,044
-445,095	800,000	0,060	0,153
-444,080	800,000	0,043	0,091
-443,065	-200,000	0,042	0,154
-442,051	138,739	-0,051	0,048
-441,036	-200,000	0,019	-0,107
-440,022	-200,000	0,028	0,124
-439,007	800,000	-0,064	-0,148
-437,992	-107,119	0,101	0,016
-436,978	-3,292	0,048	0,024
-435,963	29,840	0,133	0,081
-434,949	-200,000	-0,021	-0,090
-433,934	-200,000	0,010	-0,203
-432,919	57,614	0,045	-0,032
-431,905	284,912	-0,066	-0,085
-430,890	-53,744	0,060	-0,019
-429,876	-119,471	0,065	-0,008
-428,861	194,907	0,124	0,135
-427,846	-68,927	-0,044	0,012
-426,832	229,594	-0,116	-0,136
-425,817	-121,348	-0,043	0,005
-424,803	-109,281	-0,070	-0,011
-423,788	504,871	-0,048	0,080
-422,773	39,160	0,089	0,057
-421,759	517,041	0,037	-0,062
-420,744	-200,000	0,002	-0,013
-419,730	800,000	-0,048	-0,122
-418,715	-200,000	0,020	-0,080
-417,701	343,575	-0,016	-0,022
-416,686	800,000	-0,031	-0,097
-415,671	-8,906	0,173	0,083
-414,657	-161,277	0,037	-0,001
-413,642	-92,747	0,130	0,026
-412,628	-62,147	-0,102	0,030
-411,613	-125,164	-0,146	-0,016
-410,598	-71,186	0,046	-0,012
-409,584	-89,528	0,095	-0,020
-408,569	139,151	-0,080	0,075
-407,555	-72,761	0,151	-0,040
-406,540	230,420	0,062	-0,073
-405,525	51,958	0,116	0,079
-404,511	93,934	0,074	0,060
-403,496	-150,300	-0,134	0,007
-402,482	301,962	-0,016	-0,021
-401,467	419,030	0,024	0,036
-400,452	87,993	0,069	-0,054
-399,438	800,000	0,026	0,056
-398,423	167,965	-0,186	0,189
-397,409	-200,000	-0,023	-0,143
-396,394	-200,000	-0,007	0,039
-395,379	800,000	-0,041	-0,090
-394,365	-45,911	0,155	0,054
-393,350	-43,423	0,160	0,058
-392,336	-60,707	0,026	-0,008
-391,321	246,126	-0,023	-0,028
-390,306	-145,078	-0,048	-0,003
-389,292	-200,000	-0,002	0,017
-388,277	618,367	0,061	-0,109
-387,263	477,808	0,025	0,041
-386,248	-200,000	0,024	0,134
-385,233	170,529	-0,072	0,074
-384,219	800,000	0,026	-0,069
-383,204	-11,965	-0,081	-0,038
-382,190	187,961	0,033	-0,035
-381,175	443,876	-0,034	0,053
-380,160	-11,031	0,105	0,049
-379,146	191,471	0,122	0,132
-378,131	61,271	-0,162	0,115
-377,117	-39,495	-0,181	-0,068
-376,102	602,979	-0,013	0,024
-375,088	-200,000	-0,008	-0,108
-374,073	800,000	0,034	-0,090
-373,058	-45,024	-0,139	0,049
-372,044	464,928	0,057	0,091
-371,029	-101,065	-0,123	0,021
-370,015	-47,076	0,054	0,019
-369,000	42,774	0,042	-0,028
-367,985	800,000	-0,036	-0,104
-366,971	-200,000	-0,017	-0,060
-365,956	-200,000	0,029	-0,151
-364,942	541,974	-0,029	0,050
-363,927	-200,000	0,009	0,096
-362,912	-0,760	0,107	0,054
-361,898	-40,555	-0,195	-0,072
-360,883	-200,000	0,010	-0,054
-359,869	-111,678	0,049	0,007
-358,854	-200,000	0,004	-0,138
-357,839	800,000	-0,010	-0,025
-356,825	76,188	0,028	-0,021
-355,810	-200,000	0,003	0,087
-354,796	170,960	0,047	-0,048
-353,781	800,000	0,039	-0,097
-352,766	118,925	-0,010	-0,009
-351,752	-79,802	-0,099	0,024
-350,737	800,000	0,039	0,116
-349,723	-150,852	0,145	0,008
-348,708	800,000	0,019	-0,049
-347,693	722,531	-0,069	-0,131
-346,679	-64,869	0,032	-0,009
-345,664	-200,000	-0,019	0,147
-344,650	-31,907	-0,082	0,033
-343,635	-200,000	0,012	0,048
-342,620	347,934	0,039	-0,055
-341,606	29,055	-0,104	0,063
-340,591	-200,000	-0,025	-0,088
-339,577	-91,854	-0,145	0,029
-338,562	169,166	-0,113	-0,115
-337,548	220,824	0,114	-0,131
-336,533	6,608	0,029	-0,015
-335,518	-50,064	0,117	0,039
-334,504	-60,769	0,096	-0,029
-333,489	21,441	-0,132	-0,076
-332,475	198,664	-0,039	-0,043
-331,460	178,226	-0,069	0,071
-330,445	-200,000	-0,006	-0,054
-329,431	-134,540	0,026	-0,002
-328,416	800,000	0,075	0,151
-327,402	441,179	0,101	0,158
-326,387	691,953	0,029	0,055
-325,372	13,870	-0,109	0,060
-324,358	74,104	-0,050	-0,037
-323,343	27,866	-0,119	-0,072
-322,329	189,905	-0,095	-0,102
-321,314	125,153	0,209	0,188
-320,299	132,923	0,066	0,060
-319,285	40,390	-0,052	0,034
-318,270	-200,000	0,020	0,088
-317,256	-30,339	0,059	0,024
-316,241	86,893	-0,013	0,011
-315,226	475,820	0,065	-0,106
-314,212	307,355	-0,044	0,059
-313,197	800,000	0,093	0,186
-312,183	-151,145	-0,171	0,009
-311,168	-5,981	-0,067	0,033
-310,153	105,915	-0,128	-0,108
-309,139	-121,611	0,089	-0,010
-308,124	585,474	0,084	0,148
-307,110	131,872	0,081	0,074
-306,095	58,735	0,034	-0,024
-305,080	-96,812	-0,170	0,032
-304,066	-200,000	0,011	0,143
-303,051	328,104	0,059	-0,081
-302,037	249,890	0,069	-0,084
-301,022	-48,453	0,102	0,035
-300,008	-76,007	0,043	-0,011
-298,993	-43,462	0,178	0,064
-297,978	145,730	0,085	0,081
-296,964	127,987	-0,045	0,041
-295,949	94,686	0,083	-0,067
-294,935	-19,043	-0,136	-0,060
-293,920	-200,000	0,008	-0,027
-292,905	-38,516	0,091	-0,034
-291,891	-200,000	0,005	-0,080
-290,876	-28,437	0,099	0,040
-289,862	226,370	-0,054	-0,063
-288,847	53,469	-0,099	-0,067
-287,832	-177,482	-0,172	0,003
-286,818	51,827	0,021	-0,014
-285,803	156,679	-0,073	0,072
-284,789	202,038	0,028	-0,031
-283,774	800,000	-0,019	-0,049
-282,759	203,954	-0,072	-0,080
-281,745	800,000	-0,074	0,147
-280,730	40,231	-0,058	-0,037
-279,716	59,589	-0,116	-0,081
-278,701	800,000	0,042	-0,119
-277,686	-134,904	-0,080	-0,007
-276,672	9,533	0,076	-0,041
-275,657	-186,002	-0,128	0,001
-274,643	150,321	-0,066	0,064
-273,628	214,514	-0,065	-0,074
-272,613	-183,824	0,060	-0,001
-271,599	-23,812	0,100	-0,042
-270,584	-14,502	-0,052	0,024
-269,570	94,483	0,020	0,016
-268,555	-103,670	-0,059	-0,010
-267,540	-149,444	0,087	-0,005
-266,526	564,568	-0,075	-0,130
-265,511	61,325	-0,139	0,098
-264,497	-200,000	0,007	0,057
-263,482	800,000	-0,041	-0,128
-262,467	-200,000	0,011	0,220
-261,453	1,174	0,127	-0,065
-260,438	-38,723	-0,146	-0,054
-259,424	231,609	0,023	0,027
-258,409	-59,517	-0,082	0,025
-257,395	481,025	0,029	0,046
-256,380	-200,000	-0,014	-0,075
-255,365	-59,462	0,084	-0,025
-254,351	800,000	-0,038	-0,095
-253,336	800,000	0,003	0,008
-252,322	137,530	-0,018	-0,016
-251,307	-141,274	0,130	-0,009
-250,292	-200,000	-0,001	-0,071
-249,278	-200,000	-0,000	-0,015
-248,263	220,033	0,084	0,096
-247,249	460,525	-0,017	0,028
-246,234	-6,696	-0,047	0,023
-245,219	-39,738	-0,027	-0,010
-244,205	-58,754	0,127	-0,039
-243,190	-8,499	0,024	-0,011
-242,176	800,000	0,046	-0,138
-241,161	-200,000	-0,005	-0,038
-240,146	-94,662	-0,119	0,023
-239,132	-200,000	0,002	0,069
-238,117	-200,000	0,015	-0,073
-237,103	465,285	-0,068	-0,108
-236,088	217,740	-0,113	-0,129
-235,073	-200,000	0,020	0,079
-234,059	-200,000	-0,008	0,097
-233,044	800,000	-0,061	0,144
-232,030	800,000	0,006	0,016
-231,015	-77,129	-0,052	0,013
-230,000	464,748	-0,056	-0,090
-228,986	-200,000	0,010	-0,099
-227,971	-61,061	-0,022	0,006
-226,957	-33,202	-0,041	0,016
-225,942	440,342	0,035	0,055
-224,927	-200,000	0,014	0,074
-223,913	-96,438	0,034	-0,006
-222,898	365,059	-0,049	-0,071
-221,884	160,344	-0,041	-0,040
-220,869	5,561	-0,097	0,051
-219,855	-200,000	0,006	-0,152
-218,840	415,533	0,061	0,093
-217,825	-200,000	-0,017	0,092
-216,811	-153,608	-0,112	-0,005
-215,796	-200,000	-0,008	-0,081
-214,782	57,569	0,083	0,058
-213,767	56,372	0,100	-0,069
-212,752	-200,000	0,010	-0,036
-211,738	-13,728	0,133	-0,061
-210,723	800,000	-0,062	0,162
-209,709	-62,035	-0,057	-0,017
-208,694	800,000	-0,036	-0,095
-207,679	-120,030	-0,149	-0,018
-206,665	-200,000	-0,043	0,180
-205,650	-200,000	-0,007	0,123
-204,636	165,719	-0,067	-0,068
-203,621	-96,377	0,068	-0,013
-202,606	145,452	-0,020	-0,019
-201,592	-74,010	-0,212	-0,054
-200,577	-200,000	-0,025	0,107
-199,563	480,425	0,034	-0,055
-198,548	-62,810	0,124	-0,036
-197,533	40,480	0,053	0,034
-196,519	-145,422	-0,063	-0,004
-195,504	12,062	-0,015	-0,008
-194,490	-187,891	0,046	-0,000
-193,475	397,672	-0,062	-0,092
-192,460	199,948	-0,098	-0,107
-191,446	-200,000	0,000	0,105
-190,431	381,557	0,045	0,066
-189,417	269,002	0,047	0,059
-188,402	-17,834	-0,058	-0,026
-187,387	352,610	-0,075	0,106
-186,373	-23,188	0,098	-0,042
-185,358	670,991	0,030	0,054
-184,344	169,940	-0,072	-0,073
-183,329	104,595	0,067	0,056
-182,315	-55,723	0,091	0,029
-181,300	-179,915	-0,150	0,002
-180,285	-200,000	0,001	-0,105
-179,271	800,000	0,025	-0,063
-178,256	800,000	0,032	0,100
-177,242	436,873	0,037	0,057
-176,227	-102,563	-0,051	0,009
-175,212	800,000	-0,024	0,048
-174,198	235,646	-0,057	-0,067
-173,183	-200,000	-0,005	-0,141
-172,169	192,650	-0,138	-0,148
-171,154	-119,941	-0,080	0,010
-170,139	732,196	-0,061	0,116
-169,125	-200,000	-0,008	-0,101
-168,110	54,774	0,093	-0,063
-167,096	800,000	0,044	0,110
-166,081	94,393	0,045	0,036
-165,066	-68,032	-0,121	0,033
-164,052	-38,703	0,055	0,020
-163,037	-71,615	0,064	-0,017
-162,023	-200,000	-0,007	0,138
-161,008	337,391	0,116	0,160
-159,993	436,044	-0,040	0,061
-158,979	271,674	0,022	-0,028
-157,964	12,899	0,122	-0,067
-156,950	-77,666	0,062	0,015
-155,935	25,386	-0,062	0,036
-154,920	-44,934	0,143	0,050
-153,906	-131,574	0,108	0,010
-152,891	-200,000	0,054	-0,172
-151,877	250,794	0,023	-0,028
-150,862	800,000	-0,051	-0,124
-149,847	220,729	0,034	-0,039
-148,833	-49,180	0,088	0,030
-147,818	800,000	-0,020	-0,063
-146,804	-94,529	0,100	0,019
-145,789	-200,000	-0,007	0,023
-144,775	-15,979	0,017	0,008
-143,760	734,670	-0,094	-0,180
-142,745	5,250	0,057	-0,030
-141,731	800,000	-0,056	0,145
-140,716	-200,000	-0,029	0,146
-139,702	4,328	0,153	0,079
-138,687	178,460	-0,070	0,073
-137,672	-115,287	0,086	-0,011
-136,658	440,521	-0,045	-0,069
-135,643	15,895	-0,032	0,018
-134,629	-200,000	0,016	0,145
-133,614	-200,000	0,001	0,054
-132,599	11,739	0,076	0,041
-131,585	-132,271	-0,055	0,005
-130,570	298,048	-0,104	-0,136
-129,556	-86,980	0,015	0,003
-128,541	209,642	-0,074	-0,082
-127,526	-51,166	-0,163	-0,054
-126,512	-34,112	0,094	-0,037
-125,497	-180,176	-0,075	0,001
-124,483	14,540	-0,083	-0,046
-123,468	-75,255	-0,211	0,053
-122,453	-72,607	0,054	-0,014
-121,439	131,134	0,068	0,061
-120,424	800,000	-0,057	0,114
-119,410	-200,000	-0,029	0,285
-118,395	-54,494	0,070	-0,022
-117,380	800,000	0,031	-0,070
-116,366	-33,052	0,057	0,022
-115,351	-119,609	-0,102	0,012
-114,337	-51,763	-0,039	-0,013
-113,322	-200,000	0,002	-0,058
-112,307	-71,026	0,102	0,027
-111,293	-200,000	-0,014	-0,078
-110,278	246,745	-0,070	-0,083
-109,264	77,037	0,205	0,154
-108,249	168,120	-0,070	-0,071
-107,234	-200,000	-0,025	0,079
-106,220	28,469	-0,042	-0,025
-105,205	-200,000	-0,015	-0,090
-104,191	-200,000	0,024	0,163
-103,176	52,080	0,071	0,048
-102,162	95,095	-0,113	0,091
-101,147	12,621	0,122	0,067
-100,132	91,878	-0,076	0,060
-99,118	21,695	-0,056	0,032
-98,103	22,293	0,039	-0,023
-97,089	800,000	0,066	0,145
-96,074	436,608	-0,060	0,093
-95,059	-200,000	-0,001	0,080
-94,045	-200,000	0,001	-0,006
-93,030	-164,280	-0,082	0,003
-92,016	-200,000	-0,012	0,060
-91,001	-200,000	0,054	0,235
-89,986	-137,273	-0,039	-0,003
-88,972	611,009	0,158	0,280
-87,957	-200,000	0,015	0,079
-86,943	-200,000	-0,008	0,048
-85,928	177,523	0,089	0,092
-84,913	-120,041	-0,153	-0,018
-83,899	-200,000	0,011	-0,039
-82,884	12,305	0,119	0,064
-81,870	-148,021	0,136	-0,008
-80,855	-200,000	-0,034	0,174
-79,840	-200,000	0,036	-0,113
-78,826	532,338	-0,037	-0,062
-77,811	-111,602	-0,086	-0,012
-76,797	145,043	-0,074	0,070
-75,782	-26,732	-0,048	-0,020
-74,767	432,688	-0,123	0,189
-73,753	87,218	0,055	-0,043
-72,738	138,133	-0,031	-0,028
-71,724	-200,000	-0,001	0,082
-70,709	-129,666	-0,160	-0,015
-69,694	-16,689	-0,096	-0,043
-68,680	-200,000	-0,017	-0,087
-67,665	800,000	0,031	-0,069
-66,651	800,000	0,038	0,102
-65,636	-200,000	-0,037	0,140
-64,622	49,516	-0,126	-0,084
-63,607	81,014	0,074	0,056
-62,592	326,614	-0,049	-0,066
-61,578	-200,000	-0,020	0,154
-60,563	735,350	-0,042	0,081
-59,549	26,996	-0,103	0,061
-58,534	46,281	-1,983	-1,295
-57,519	503,881	-1,198	-1,963
-56,505	-200,000	-0,147	-4,374
-55,490	800,000	0,829	1,638
-54,476	800,000	5,143	11,248
-53,461	-200,000	21,726	340,427
-52,446	800,000	761,368	2317,510
-51,432	538,992	1657,133	2792,211
-50,417	70,213	1654,013	1204,107
-49,403	16,904	1527,949	851,481
-48,388	11,069	1451,936	781,000
-47,373	19,186	1443,950	815,489
-46,359	14,483	1432,735	786,846
-45,344	9,374	1428,583	760,295
-44,330	9,325	1426,853	759,111
-43,315	9,289	1425,121	757,987
-42,300	9,288	1423,081	756,869
-41,286	9,323	1421,910	756,380
-40,271	9,282	1420,868	755,602
-39,257	9,258	1419,721	754,849
-38,242	9,306	1418,498	754,398
-37,227	9,307	1417,530	753,857
-36,213	9,328	1416,132	753,182
-35,198	9,274	1414,881	752,232
-34,184	9,327	1414,151	752,066
-33,169	9,280	1412,636	751,010
-32,154	9,308	1411,631	750,577
-31,140	9,327	1410,385	749,973
-30,125	9,357	1408,966	749,329
-29,111	9,329	1408,213	748,766
-28,096	9,282	1406,907	747,820
-27,082	9,235	1405,683	746,923
-26,067	9,196	1404,925	746,307
-25,052	9,299	1403,636	746,077
-24,038	9,310	1402,545	745,518
-23,023	9,245	1401,945	744,865
-22,009	9,271	1400,584	744,231
-20,994	9,252	1399,689	743,642
-19,979	9,273	1398,685	743,173
-18,965	9,259	1397,773	742,596
-17,950	9,249	1396,809	742,008
-16,936	9,189	1396,189	741,371
-15,921	9,217	1394,772	740,718
-14,906	9,158	1394,281	740,152
-13,892	9,230	1393,222	739,897
-12,877	9,212	1392,317	739,304
-11,863	9,184	1391,562	738,743
-10,848	9,115	1390,682	737,927
-9,833	9,121	1389,770	737,441
-8,819	9,091	1388,841	736,779
-7,804	9,087	1387,863	736,215
-6,790	9,065	1387,004	735,630
-5,775	9,063	1385,809	734,955
-4,760	9,074	1384,966	734,531
-3,746	9,099	1383,804	733,998
-2,731	9,131	1383,038	733,710
-1,717	9,110	1382,262	733,176
-0,702	9,033	1380,669	731,945
0,313	13,034	1292,689	703,527
1,327	29,088	684,252	408,511
2,342	45,261	118,120	76,684
3,356	-0,120	16,640	8,324
4,371	-2,560	3,773	1,856
5,386	-8,164	1,239	0,586
6,400	800,000	0,218	0,599
7,415	255,158	-0,085	-0,103
8,429	-16,699	-0,271	-0,120
9,444	139,520	-0,206	-0,191
10,459	30,018	-0,441	-0,264
11,473	18,894	-0,313	-0,177
12,488	116,598	-0,217	-0,188
13,502	724,871	-0,138	-0,261
14,517	52,791	-0,345	-0,232
15,531	23,851	-0,437	-0,253
16,546	107,717	-0,267	-0,224
17,561	-4,387	-0,351	-0,170
18,575	-83,630	-0,113	0,025
19,590	62,527	-0,234	-0,164
20,604	68,700	-0,313	-0,226
21,619	55,327	-0,417	-0,283
22,634	-4,833	-0,329	-0,159
23,648	-79,870	-0,376	-0,088
24,663	-62,286	-0,344	-0,100
25,677	144,463	-0,278	-0,262
26,692	23,135	-0,265	-0,153
27,707	-5,576	-0,425	-0,204
28,721	10,174	-0,389	-0,208
29,736	83,759	-0,332	-0,254
30,750	194,988	-0,354	-0,379
31,765	205,262	-0,374	-0,409
32,780	18,598	-0,248	-0,139
33,794	119,649	-0,335	-0,292
34,809	68,096	-0,343	-0,247
35,823	19,016	-0,306	-0,172
36,838	-50,314	-0,378	-0,125
37,853	41,855	-0,423	-0,269
38,867	-81,988	-0,523	-0,119
39,882	-50,074	-0,372	-0,123
40,896	51,493	-0,296	-0,197
41,911	118,687	-0,290	-0,252
42,926	-40,395	-0,411	-0,149
43,940	16,932	-0,308	-0,171
44,955	52,938	-0,408	-0,274
45,969	268,990	-0,299	-0,369
46,984	52,186	-0,238	-0,159
47,999	34,517	-0,358	-0,219
49,013	203,778	-0,167	-0,181
50,028	-18,417	-0,315	-0,138
51,042	78,373	-0,271	-0,203
52,057	102,970	-0,324	-0,266
53,071	69,352	-0,317	-0,229
54,086	54,746	-0,253	-0,171
55,101	-0,063	-0,386	-0,192
56,115	69,639	-0,322	-0,232
57,130	-54,562	-0,266	-0,084
58,144	-66,776	-0,397	-0,109
59,159	44,769	-0,394	-0,254
60,174	97,253	-0,371	-0,298
61,188	-38,538	-0,393	-0,145
62,203	-26,870	-0,305	-0,124
63,217	-47,303	-0,235	-0,080
64,232	275,494	-0,135	-0,168
65,247	53,259	-0,338	-0,227
66,261	89,374	-0,285	-0,223
67,276	-22,077	-0,277	-0,117
68,290	-34,486	-0,377	-0,144
69,305	4,186	-0,310	-0,158
70,320	65,783	-0,190	-0,135
71,334	-100,757	-0,316	-0,054
72,349	11,862	-0,277	-0,149
73,363	5,839	-0,368	-0,190
74,378	89,517	-0,376	-0,294
75,393	-24,367	-0,402	-0,167
76,407	-78,252	-0,300	-0,072
77,422	-129,114	-0,282	0,027
78,436	-70,374	-0,327	-0,086
79,451	227,441	-0,187	-0,214
80,466	44,863	-0,246	-0,158
81,480	-4,201	-0,283	-0,137
82,495	4,751	-0,359	-0,184
83,509	61,759	-0,224	-0,156
84,524	-142,306	-0,350	0,024
85,539	-138,769	-0,248	-0,019
86,553	-120,633	-0,287	0,034
87,568	98,697	-0,344	-0,278
88,582	298,303	-0,209	-0,270
89,597	57,776	-0,334	-0,228
90,611	165,064	-0,237	-0,235
91,626	87,719	-0,276	-0,214
92,641	9,795	-0,171	-0,090
93,655	-95,321	-0,342	-0,064
94,670	-13,607	-0,294	-0,133
95,684	-25,462	-0,279	-0,115
96,699	-200,000	-0,072	-0,224
97,714	-13,241	-0,296	-0,134
98,728	-95,682	-0,264	-0,049
99,743	-69,848	-0,283	-0,075
100,757	166,433	-0,309	-0,307
101,772	6,312	-0,325	-0,168
102,787	26,181	-0,212	-0,123
103,801	54,618	-0,312	-0,210
104,816	33,717	-0,210	-0,128
105,830	51,069	-0,219	-0,145
106,845	-134,638	-0,196	-0,016
107,860	-35,791	-0,281	-0,106
108,874	44,592	-0,270	-0,173
109,889	-70,494	-0,194	-0,051
110,903	-63,091	-0,364	-0,104
111,918	-144,682	-0,364	0,023
112,933	-105,916	-0,214	0,033
113,947	-3,980	-0,232	-0,112
114,962	-91,111	-0,227	0,045
115,976	-15,546	-0,305	-0,135
116,991	199,750	-0,200	-0,214
118,006	3,317	-0,370	-0,187
119,020	-0,234	-0,227	-0,112
120,035	144,231	-0,174	-0,163
121,049	-132,873	-0,237	-0,021
122,064	-31,253	-0,190	-0,074
123,079	77,377	-0,224	-0,166
124,093	97,902	-0,334	-0,268
125,108	6,896	-0,265	-0,137
126,122	159,087	-0,155	-0,150
127,137	23,047	-0,195	-0,111
128,151	28,930	-0,183	-0,108
129,166	128,041	-0,228	-0,203
130,181	15,115	-0,296	-0,161
131,195	392,983	-0,149	-0,216
132,210	94,016	-0,367	-0,290
133,224	159,247	-0,112	-0,109
134,239	-8,266	-0,262	-0,122
135,254	144,255	-0,236	-0,220
136,268	61,051	-0,257	-0,178
137,283	4,998	-0,223	-0,114
138,297	-36,809	-0,325	-0,121
139,312	113,911	-0,233	-0,197
140,327	26,418	-0,276	-0,161
141,341	-73,082	-0,170	0,043
142,356	-63,472	-0,084	-0,024
143,370	-29,384	-0,154	-0,061
144,385	800,000	-0,072	-0,141
145,400	69,548	-0,341	-0,245
146,414	-73,222	-0,232	-0,059
147,429	-128,110	-0,288	0,028
148,443	164,103	-0,140	-0,138
149,458	-38,442	-0,208	-0,076
150,473	55,468	-0,255	-0,171
151,487	-177,303	-0,177	-0,003
152,502	47,539	-0,198	-0,128
153,516	298,658	-0,157	-0,202
154,531	-83,880	-0,191	-0,042
155,546	393,823	-0,101	-0,146
156,560	-124,884	-0,315	-0,033
157,575	-137,168	-0,244	-0,019
158,589	138,216	-0,276	-0,252
159,604	321,880	-0,232	-0,308
160,619	-65,074	-0,261	-0,073
161,633	-45,845	-0,250	-0,085
162,648	-132,459	-0,318	-0,028
163,662	-32,429	-0,194	-0,075
164,677	-64,680	-0,317	-0,089
165,692	98,842	-0,223	-0,179
166,706	-123,081	-0,277	0,031
167,721	-20,350	-0,222	-0,094
168,735	208,013	-0,284	-0,309
169,750	-24,004	-0,269	-0,111
170,764	-55,645	-0,317	-0,098
171,779	-106,048	-0,092	-0,014
172,794	-8,066	-0,138	-0,064
173,808	-140,376	-0,410	-0,029
174,823	-39,728	-0,290	-0,105
175,837	-40,464	-0,313	-0,112
176,852	800,000	-0,097	-0,247
177,867	452,692	-0,126	-0,194
178,881	-32,318	-0,238	-0,092
179,896	-152,741	-0,288	-0,014
180,910	53,537	-0,174	-0,116
181,925	-64,634	-0,188	-0,053
182,940	-47,665	-0,208	-0,070
183,954	258,878	-0,163	-0,195
184,969	632,971	-0,132	-0,232
185,983	83,304	-0,064	-0,048
186,998	515,021	-0,126	-0,205
188,013	107,800	-0,175	-0,144
189,027	382,609	-0,134	-0,192
190,042	49,820	-0,294	-0,192
191,056	-77,267	-0,138	-0,033
192,071	439,785	-0,118	-0,180
193,086	44,782	-0,230	-0,146
194,100	-6,495	-0,149	-0,070
195,115	57,223	-0,229	-0,155
196,129	-22,909	-0,235	-0,098
197,144	78,950	-0,214	-0,159
198,159	183,522	-0,187	-0,191
199,173	487,029	-0,164	-0,260
200,188	26,863	-0,203	-0,117
201,202	-106,946	-0,119	-0,018
202,217	25,148	-0,234	-0,134
203,232	626,629	-0,105	-0,184
204,246	529,313	-0,130	-0,213
205,261	202,173	-0,234	-0,250
206,275	264,547	-0,112	-0,136
207,290	-86,524	-0,070	-0,015
208,304	60,346	-0,163	-0,112
209,319	216,145	-0,253	-0,279
210,334	-50,872	-0,228	-0,074
211,348	-6,039	-0,238	-0,112
212,363	85,351	-0,174	-0,132
213,377	9,948	-0,157	-0,082
214,392	80,319	-0,161	-0,120
215,407	-200,000	-0,034	-0,224
216,421	520,137	-0,078	-0,127
217,436	-11,856	-0,206	-0,093
218,450	275,399	-0,193	-0,238
219,465	159,526	-0,156	-0,150
220,480	147,570	-0,124	0,115
221,494	443,673	-0,094	-0,143
222,509	-170,788	-0,160	-0,004
223,523	-38,331	-0,214	-0,078
224,538	-110,716	-0,172	0,024
225,553	129,831	-0,181	-0,160
226,567	121,463	-0,174	-0,150
227,582	83,877	-0,158	-0,119
228,596	-11,455	-0,149	-0,067
229,611	-71,643	-0,131	-0,033
230,626	218,106	-0,081	-0,089
231,640	-151,227	-0,160	0,008
232,655	119,198	-0,184	-0,157
233,669	106,666	-0,152	-0,124
234,684	217,763	-0,128	-0,142
235,699	800,000	-0,069	-0,163
236,713	217,497	-0,133	-0,147
237,728	-104,727	-0,241	-0,038
238,742	91,103	-0,204	-0,158
239,757	33,906	-0,228	-0,137
240,772	153,343	-0,246	-0,233
241,786	80,658	-0,241	-0,179
242,801	-41,425	-0,256	-0,091
243,815	266,030	-0,058	-0,070
244,830	-158,903	-0,122	0,005
245,844	127,246	-0,113	-0,099
246,859	48,898	-0,100	-0,065
247,874	132,398	-0,189	-0,169
248,888	130,108	-0,230	-0,204
249,903	-42,659	-0,186	-0,065
250,917	-47,810	-0,157	-0,052
251,932	-75,074	-0,221	-0,054
252,947	75,669	-0,193	-0,140
253,961	266,400	-0,124	-0,150
254,976	800,000	-0,057	-0,115
255,990	50,917	-0,207	-0,135
257,005	124,475	-0,101	-0,087
258,020	82,524	-0,178	-0,133
259,034	189,877	-0,042	-0,043
260,049	-24,008	-0,164	-0,067
261,063	-89,537	-0,165	-0,033
262,078	310,172	-0,155	-0,200
263,093	-200,000	0,008	-0,261
264,107	-75,103	-0,159	-0,039
265,122	-98,410	-0,150	-0,026
266,136	159,012	-0,083	0,079
267,151	2,231	-0,215	-0,107
268,166	40,737	-0,170	-0,105
269,180	5,599	-0,148	-0,075
270,195	274,368	-0,140	-0,171
271,209	13,753	-0,206	-0,110
272,224	207,122	-0,075	-0,081
273,239	233,654	-0,102	-0,116
274,253	-23,291	-0,121	-0,050
275,268	-124,358	-0,262	0,028
276,282	54,462	-0,223	-0,147
277,297	-161,446	-0,122	-0,004
278,312	125,961	-0,191	-0,166
279,326	-78,079	-0,180	0,042
280,341	420,568	-0,124	-0,183
281,355	71,790	-0,190	-0,136
282,370	35,565	-0,149	-0,090
283,384	23,634	-0,183	-0,103
284,399	-17,768	-0,262	-0,113
285,414	-55,955	-0,219	-0,067
286,428	264,158	-0,134	-0,160
287,443	-108,637	-0,203	0,030
288,457	-58,373	-0,073	-0,022
289,472	-200,000	-0,049	-0,170
290,487	-129,580	-0,208	-0,020
291,501	78,526	-0,181	-0,133
292,516	-19,206	-0,127	-0,054
293,530	800,000	-0,058	-0,169
294,545	141,028	-0,141	0,128
295,560	58,651	-0,077	-0,052
296,574	102,108	-0,161	-0,129
297,589	52,108	-0,139	-0,091
298,603	66,606	-0,113	-0,079
299,618	148,172	-0,198	-0,183
300,633	443,282	-0,088	-0,133
301,647	21,942	-0,087	0,049
302,662	-200,000	-0,037	-0,138
303,676	113,768	-0,123	-0,102
304,691	-70,034	-0,191	-0,050
305,706	800,000	-0,083	-0,170
306,720	-133,763	-0,275	-0,023
307,735	-35,262	-0,142	-0,053
308,749	-200,000	-0,028	0,119
309,764	-87,909	-0,070	0,014
310,779	-4,371	-0,141	-0,067
311,793	85,183	-0,065	-0,049
312,808	359,806	-0,224	-0,309
313,822	19,670	-0,223	-0,123
314,837	125,423	-0,112	-0,097
315,852	-117,862	-0,184	0,022
316,866	241,968	-0,090	-0,104
317,881	-56,316	-0,090	-0,027
318,895	-200,000	0,037	-0,177
319,910	255,666	-0,105	-0,124
320,925	-97,175	-0,241	0,043
321,939	-74,222	-0,190	-0,047
322,954	-124,726	-0,139	-0,015
323,968	102,526	-0,110	0,088
324,983	-82,800	-0,162	0,036
325,997	521,846	-0,077	-0,125
327,012	-200,000	-0,018	-0,259
328,027	294,946	-0,085	-0,107
329,041	705,759	-0,045	-0,081
330,056	780,867	-0,078	-0,146
331,070	51,535	-0,065	-0,042
332,085	-200,000	-0,019	-0,106
333,100	-200,000	-0,020	-0,160
334,114	-200,000	-0,028	-0,100
335,129	2,563	-0,162	-0,080
336,143	-152,872	-0,071	-0,003
337,158	-128,319	-0,099	-0,009
338,173	98,640	-0,177	-0,140
339,187	-126,320	-0,107	-0,011
340,202	5,178	-0,206	0,104
341,216	195,408	-0,181	-0,189
342,231	238,394	-0,117	-0,133
343,246	-33,601	-0,034	-0,013
344,260	144,250	-0,105	-0,096
345,275	-161,493	-0,225	0,008
346,289	-46,567	-0,105	0,035
347,304	23,592	-0,126	0,071
348,319	106,887	-0,118	-0,096
349,333	430,294	-0,082	-0,122
350,348	141,079	-0,153	-0,139
351,362	-155,127	-0,213	-0,009
352,377	-29,312	-0,152	-0,059
353,392	-32,099	-0,135	-0,051
354,406	319,677	-0,072	0,094
355,421	207,682	1306,630	1396,493
356,435	159,773	1466,334	1396,962
