DTS Sentinel unit serial number:	SN410029Multiplexer serial number:	ORYXHardware model number:	OX2-SRSoftware version number:	ORYX F/W v4,00 Oryx Data Collector v3.7.2.0data status	okinstallation	B3 Nyhavnadifferential loss correction	single-endedforward channel	channel 1reverse channel	N/Adate	2023/12/04time	00:42:30forward acquisition time	300,00reverse acquisition time	0,00gamma	499,1914k internal	0,3204k external	0,3204temperature offset calibration	1,0000default loss term (dB/km)	0,3820temperature slope calibration	1,0000multiplexer offset coefficient	1,0000multiplexer slope coefficient	1,0000fibre end	0,00T internal ref (°C)	12,62T ext. ref 1 (°C)	-2,60T ext. ref 2 (°C)	-2,63length (m)	temperature (°C)	Stokes	anti-Stokes-744,400	263,968	-0,264	-0,334
-743,385	-200,000	-0,035	0,220
-742,371	163,286	-0,134	-0,137
-741,356	-200,000	-0,068	0,305
-740,342	800,000	-0,080	-0,187
-739,327	800,000	0,097	0,305
-738,312	279,853	-0,204	-0,265
-737,298	-200,000	-0,044	0,176
-736,283	156,239	-0,234	-0,234
-735,269	-200,000	-0,047	0,285
-734,254	152,360	-0,148	-0,147
-733,239	-79,379	-0,353	0,086
-732,225	-200,000	-0,011	-0,355
-731,210	-200,000	0,009	0,144
-730,196	-200,000	0,005	0,026
-729,181	-93,712	-0,148	0,029
-728,167	618,369	-0,037	-0,069
-727,152	-107,375	-0,110	0,017
-726,137	-127,997	0,069	0,007
-725,123	14,204	-0,129	-0,073
-724,108	800,000	0,017	-0,040
-723,094	78,359	-0,019	-0,015
-722,079	220,528	-0,039	0,046
-721,064	298,115	-0,052	-0,070
-720,050	39,825	-0,137	-0,089
-719,035	800,000	0,033	-0,081
-718,021	-200,000	0,021	-0,111
-717,006	-200,000	-0,005	0,037
-715,991	5,448	0,030	-0,016
-714,977	-7,318	0,067	-0,033
-713,962	-150,163	-0,116	-0,006
-712,948	-200,000	0,014	-0,121
-711,933	-58,343	-0,021	0,006
-710,918	-200,000	-0,003	0,130
-709,904	589,374	0,024	-0,043
-708,889	125,783	-0,100	-0,091
-707,875	-60,740	-0,078	0,024
-706,860	328,691	-0,080	-0,112
-705,845	-23,816	0,055	0,024
-704,831	-200,000	0,009	0,041
-703,816	-104,984	0,050	0,008
-702,802	270,311	-0,016	0,020
-701,787	315,164	-0,069	-0,095
-700,772	152,305	0,050	-0,049
-699,758	474,016	0,033	-0,054
-698,743	209,572	0,040	0,046
-697,729	262,768	-0,044	-0,055
-696,714	-200,000	0,009	-0,034
-695,699	800,000	-0,030	-0,077
-694,685	-131,938	-0,184	-0,017
-693,670	-200,000	-0,020	-0,167
-692,656	16,360	-0,078	-0,044
-691,641	-200,000	-0,010	-0,034
-690,627	209,716	-0,113	0,129
-689,612	96,771	-0,160	0,133
-688,597	-142,246	0,113	-0,008
-687,583	273,179	-0,043	-0,055
-686,568	-200,000	0,018	-0,123
-685,554	-157,505	0,113	0,005
-684,539	655,668	-0,044	-0,082
-683,524	213,112	0,036	0,041
-682,510	-76,605	0,117	-0,030
-681,495	120,467	-0,152	-0,137
-680,481	239,314	-0,160	-0,193
-679,466	-200,000	-0,008	-0,337
-678,451	242,234	-0,090	-0,109
-677,437	-200,000	0,011	-0,043
-676,422	800,000	0,041	0,128
-675,408	270,168	0,040	-0,051
-674,393	260,340	-0,035	-0,044
-673,378	-200,000	-0,014	-0,063
-672,364	-68,824	-0,122	-0,034
-671,349	145,108	-0,099	-0,096
-670,335	-200,000	-0,012	0,121
-669,320	800,000	-0,042	-0,090
-668,305	635,290	-0,047	0,087
-667,291	384,353	-0,075	-0,113
-666,276	160,522	0,053	-0,054
-665,262	800,000	0,025	-0,070
-664,247	-35,553	0,056	0,022
-663,232	229,500	0,072	-0,085
-662,218	139,535	0,088	0,084
-661,203	9,442	-0,047	0,025
-660,189	73,095	-0,053	-0,040
-659,174	-200,000	-0,003	0,040
-658,159	-58,304	-0,077	0,024
-657,145	-200,000	0,002	0,021
-656,130	336,941	0,053	-0,075
-655,116	154,153	0,161	-0,161
-654,101	-200,000	0,005	-0,110
-653,086	205,781	0,083	0,093
-652,072	-79,877	-0,147	0,036
-651,057	145,903	0,097	-0,094
-650,043	251,059	-0,035	0,043
-649,028	311,889	-0,060	-0,082
-648,014	-200,000	0,003	-0,043
-646,999	304,113	0,036	-0,048
-645,984	-200,000	0,002	0,133
-644,970	-104,066	-0,039	0,007
-643,955	-200,000	-0,033	0,112
-642,941	155,319	-0,119	-0,119
-641,926	-0,901	0,059	0,030
-640,911	127,836	-0,024	-0,022
-639,897	167,429	0,025	0,026
-638,882	-200,000	0,007	0,077
-637,868	-89,651	-0,056	-0,012
-636,853	800,000	0,013	0,027
-635,838	82,624	-0,061	-0,048
-634,824	800,000	-0,035	-0,104
-633,809	-51,920	-0,092	-0,031
-632,795	-200,000	-0,020	-0,064
-631,780	800,000	0,053	-0,166
-630,765	-200,000	-0,008	-0,081
-629,751	781,063	0,024	-0,048
-628,736	-67,874	-0,067	0,019
-627,722	405,669	0,114	-0,174
-626,707	116,067	-0,032	-0,028
-625,692	800,000	-0,034	-0,077
-624,678	121,849	-0,025	0,022
-623,663	-200,000	-0,007	-0,095
-622,649	-200,000	0,001	-0,069
-621,634	800,000	-0,028	-0,084
-620,619	-200,000	0,010	0,068
-619,605	319,308	-0,035	0,048
-618,590	-200,000	-0,010	0,056
-617,576	-118,082	0,064	0,008
-616,561	127,276	0,120	0,110
-615,546	66,853	0,049	-0,036
-614,532	-92,153	-0,099	-0,020
-613,517	98,518	-0,078	-0,065
-612,503	769,600	-0,041	-0,080
-611,488	-200,000	-0,011	0,167
-610,474	-125,340	-0,062	-0,007
-609,459	-130,019	-0,147	0,014
-608,444	233,123	0,081	-0,096
-607,430	-200,000	0,010	-0,128
-606,415	80,695	-0,055	-0,043
-605,401	138,040	-0,037	0,035
-604,386	800,000	-0,010	0,026
-603,371	800,000	0,027	0,062
-602,357	-200,000	0,003	-0,022
-601,342	-200,000	-0,030	-0,115
-600,328	-28,150	-0,100	-0,041
-599,313	-200,000	0,012	0,086
-598,298	241,832	0,023	0,028
-597,284	-200,000	0,015	0,057
-596,269	272,344	-0,068	0,087
-595,255	-106,037	-0,024	-0,004
-594,240	89,015	0,138	-0,111
-593,225	800,000	-0,035	0,082
-592,211	718,132	0,032	0,062
-591,196	316,637	-0,060	-0,082
-590,182	232,331	0,108	0,129
-589,167	-200,000	0,008	0,121
-588,152	-21,270	0,104	-0,046
-587,138	-200,000	-0,005	0,037
-586,123	-200,000	-0,009	-0,047
-585,109	-24,828	0,060	-0,026
-584,094	-100,631	0,068	0,012
-583,079	76,323	-0,022	-0,017
-582,065	239,845	-0,060	-0,073
-581,050	177,718	0,022	0,023
-580,036	-200,000	-0,006	0,042
-579,021	457,977	-0,092	-0,148
-578,006	800,000	-0,020	-0,062
-576,992	-200,000	-0,005	0,065
-575,977	-20,034	-0,064	-0,028
-574,963	43,398	0,064	-0,042
-573,948	-57,965	0,019	-0,006
-572,934	-92,701	-0,011	-0,002
-571,919	288,023	0,050	-0,065
-570,904	320,981	-0,088	-0,121
-569,890	-200,000	-0,001	0,023
-568,875	694,281	-0,055	0,104
-567,861	-38,885	0,177	-0,067
-566,846	575,874	0,028	0,049
-565,831	-200,000	0,003	0,017
-564,817	-87,282	0,030	0,006
-563,802	40,394	-0,081	0,052
-562,788	40,959	0,106	0,069
-561,773	396,546	-0,043	0,065
-560,758	-98,752	-0,063	0,012
-559,744	800,000	-0,045	-0,109
-558,729	800,000	-0,033	0,088
-557,715	-126,490	0,070	-0,007
-556,700	800,000	-0,078	-0,158
-555,685	-200,000	0,009	-0,126
-554,671	-200,000	-0,039	-0,175
-553,656	192,895	0,068	-0,074
-552,642	800,000	0,035	0,080
-551,627	-74,923	-0,032	-0,008
-550,612	-104,448	0,099	-0,016
-549,598	403,462	0,046	-0,071
-548,583	-159,391	-0,183	-0,007
-547,569	-3,906	-0,080	-0,040
-546,554	-79,537	0,043	0,010
-545,539	156,483	-0,066	0,066
-544,525	263,797	0,054	-0,068
-543,510	36,532	-0,164	-0,104
-542,496	172,474	-0,057	0,059
-541,481	44,013	-0,039	-0,025
-540,466	-48,029	0,045	0,016
-539,452	64,165	-0,041	0,030
-538,437	433,031	0,048	0,076
-537,423	154,679	-0,088	0,087
-536,408	560,129	0,022	0,039
-535,393	292,819	0,028	-0,036
-534,379	-144,881	0,126	-0,008
-533,364	25,960	-0,116	-0,069
-532,350	-200,000	-0,019	0,087
-531,335	-69,497	0,060	-0,016
-530,321	275,162	-0,050	0,064
-529,306	529,479	-0,053	-0,091
-528,291	31,832	0,102	-0,063
-527,277	368,097	0,058	-0,085
-526,262	-48,546	-0,150	0,052
-525,248	105,946	-0,038	0,033
-524,233	800,000	0,019	0,041
-523,218	800,000	0,027	-0,070
-522,204	341,754	-0,054	-0,076
-521,189	-80,715	-0,075	-0,018
-520,175	22,134	0,030	-0,017
-519,160	432,743	0,096	0,151
-518,145	-200,000	-0,033	-0,137
-517,131	800,000	-0,026	-0,057
-516,116	-69,493	0,067	-0,018
-515,102	-70,686	-0,094	0,025
-514,087	-91,474	0,056	0,011
-513,072	80,566	-0,046	-0,036
-512,058	5,364	-0,099	-0,052
-511,043	-29,104	-0,107	-0,044
-510,029	-200,000	0,013	0,116
-509,014	782,187	0,016	-0,032
-507,999	358,891	-0,090	-0,129
-506,985	397,103	0,061	0,092
-505,970	-8,308	-0,171	-0,083
-504,956	-195,219	-0,091	-0,000
-503,941	-52,293	-0,102	0,034
-502,926	-103,954	0,136	0,023
-501,912	-112,281	0,174	0,025
-500,897	-93,511	-0,064	-0,013
-499,883	244,726	-0,073	0,088
-498,868	-200,000	-0,012	-0,121
-497,853	-200,000	0,006	-0,054
-496,839	120,316	0,155	-0,138
-495,824	-125,943	0,103	0,011
-494,810	-200,000	0,007	-0,159
-493,795	-64,223	-0,099	0,029
-492,781	800,000	0,046	0,096
-491,766	694,035	-0,028	0,053
-490,751	383,918	-0,027	-0,039
-489,737	800,000	-0,046	-0,093
-488,722	-200,000	0,004	-0,046
-487,708	800,000	0,013	-0,028
-486,693	-49,531	0,095	0,032
-485,678	195,774	0,029	0,032
-484,664	800,000	-0,039	-0,105
-483,649	800,000	-0,045	0,101
-482,635	70,671	-0,086	0,064
-481,620	1,768	0,086	0,045
-480,605	196,542	0,115	0,126
-479,591	598,825	0,030	0,053
-478,576	-200,000	-0,015	-0,093
-477,562	258,455	-0,049	0,061
-476,547	42,995	0,023	0,015
-475,532	-80,825	-0,022	0,005
-474,518	355,534	-0,045	0,064
-473,503	800,000	0,025	0,049
-472,489	219,026	0,036	0,041
-471,474	800,000	-0,070	0,163
-470,459	-105,255	0,070	0,011
-469,445	393,014	-0,063	-0,095
-468,430	-200,000	0,025	-0,094
-467,416	760,038	0,034	0,067
-466,401	16,652	0,105	0,059
-465,386	114,559	-0,115	0,100
-464,372	-172,761	0,095	-0,002
-463,357	-53,817	0,050	0,016
-462,343	312,627	0,102	-0,137
-461,328	-200,000	-0,036	-0,154
-460,313	396,297	0,008	0,011
-459,299	-27,060	0,100	0,042
-458,284	322,108	0,012	-0,016
-457,270	-135,053	-0,066	-0,006
-456,255	-21,719	0,014	0,006
-455,241	131,449	-0,047	-0,043
-454,226	-200,000	0,004	-0,019
-453,211	223,655	0,011	-0,013
-452,197	314,015	0,023	0,031
-451,182	91,666	-0,066	0,053
-450,168	-200,000	-0,001	0,013
-449,153	-116,070	0,084	0,011
-448,138	154,195	0,091	0,090
-447,124	231,611	0,115	-0,136
-446,109	254,034	0,029	-0,035
-445,095	377,451	0,068	-0,100
-444,080	800,000	0,065	0,161
-443,065	-43,335	-0,048	0,017
-442,051	113,487	-0,122	-0,106
-441,036	-200,000	0,001	-0,052
-440,022	-200,000	-0,003	-0,028
-439,007	-200,000	-0,014	-0,079
-437,992	-24,173	0,061	0,026
-436,978	-5,642	0,058	0,029
-435,963	-55,738	-0,081	0,026
-434,949	13,659	0,040	0,022
-433,934	-75,502	-0,279	0,071
-432,919	-200,000	0,004	-0,031
-431,905	127,313	-0,006	0,006
-430,890	112,184	0,155	0,135
-429,876	-30,325	0,022	-0,009
-428,861	61,372	0,068	0,048
-427,846	-200,000	0,012	0,070
-426,832	-200,000	-0,007	-0,031
-425,817	-11,715	-0,051	0,024
-424,803	3,443	0,078	-0,041
-423,788	643,463	0,087	0,159
-422,773	-200,000	0,018	0,122
-421,759	593,573	0,059	0,105
-420,744	-112,835	0,009	0,001
-419,730	-200,000	-0,009	0,074
-418,715	-105,535	-0,078	-0,013
-417,701	224,030	0,013	-0,015
-416,686	361,761	-0,025	0,036
-415,671	800,000	0,020	-0,057
-414,657	-200,000	0,020	0,069
-413,642	524,360	-0,032	0,054
-412,628	-200,000	-0,055	0,176
-411,613	63,086	-0,044	-0,032
-410,598	461,994	0,080	-0,129
-409,584	28,752	-0,011	0,007
-408,569	565,097	0,034	-0,060
-407,555	139,646	0,099	0,094
-406,540	-93,628	-0,099	0,019
-405,525	495,035	0,085	-0,140
-404,511	-156,267	-0,083	-0,004
-403,496	-34,612	-0,095	-0,037
-402,482	183,936	0,057	-0,060
-401,467	-106,995	-0,110	-0,017
-400,452	125,652	-0,167	0,151
-399,438	-200,000	0,012	0,085
-398,423	98,055	0,024	0,019
-397,409	305,892	0,062	-0,082
-396,394	800,000	-0,024	0,056
-395,379	-200,000	-0,002	-0,024
-394,365	-200,000	-0,009	0,069
-393,350	-42,342	0,105	0,038
-392,336	125,171	0,024	-0,021
-391,321	-30,094	0,039	0,016
-390,306	53,345	-0,161	0,110
-389,292	-36,099	0,138	0,053
-388,277	800,000	-0,022	-0,051
-387,263	800,000	0,024	0,063
-386,248	45,178	-0,083	-0,055
-385,233	-20,187	-0,068	-0,030
-384,219	42,493	0,152	-0,099
-383,204	46,689	-0,139	0,092
-382,190	-200,000	0,029	-0,152
-381,175	2,114	0,121	-0,063
-380,160	-116,335	-0,115	-0,015
-379,146	148,617	-0,049	0,048
-378,131	34,195	0,090	0,056
-377,117	673,016	-0,123	0,229
-376,102	-200,000	0,010	0,041
-375,088	130,229	-0,023	0,021
-374,073	254,084	-0,065	0,079
-373,058	66,377	0,054	0,039
-372,044	-159,518	0,105	-0,004
-371,029	229,161	0,062	0,073
-370,015	-112,820	0,101	-0,014
-369,000	420,749	0,052	0,081
-367,985	-62,570	-0,015	-0,004
-366,971	-162,111	0,044	-0,002
-365,956	-200,000	0,003	0,117
-364,942	-200,000	-0,009	0,065
-363,927	-200,000	0,021	0,120
-362,912	-200,000	-0,001	-0,022
-361,898	-200,000	0,018	0,060
-360,883	-200,000	0,020	0,067
-359,869	20,487	-0,033	-0,019
-358,854	185,280	-0,050	-0,053
-357,839	-11,134	0,111	-0,052
-356,825	-29,786	0,061	-0,025
-355,810	235,273	0,063	-0,075
-354,796	-200,000	-0,020	-0,117
-353,781	332,082	0,145	0,200
-352,766	-86,578	-0,117	-0,025
-351,752	800,000	-0,004	0,009
-350,737	800,000	0,055	0,118
-349,723	128,256	0,080	0,073
-348,708	-46,071	-0,092	-0,032
-347,693	-200,000	-0,039	0,183
-346,679	540,164	0,031	-0,053
-345,664	-200,000	-0,022	0,141
-344,650	637,730	-0,063	0,116
-343,635	-124,744	0,116	0,013
-342,620	-96,132	-0,151	0,028
-341,606	356,897	0,132	0,189
-340,591	170,446	0,010	-0,010
-339,577	-200,000	0,007	-0,072
-338,562	800,000	-0,025	-0,069
-337,548	-200,000	-0,007	-0,037
-336,533	-26,341	0,108	0,045
-335,518	-23,523	0,120	-0,051
-334,504	-200,000	0,008	0,083
-333,489	519,547	-0,023	0,039
-332,475	-6,796	-0,150	0,073
-331,460	-200,000	-0,004	-0,180
-330,445	-200,000	0,099	0,000
-329,431	101,446	-0,035	-0,029
-328,416	800,000	0,013	0,031
-327,402	-38,096	-0,056	0,021
-326,387	569,246	-0,057	0,100
-325,372	80,953	-0,071	-0,054
-324,358	-200,000	-0,016	0,093
-323,343	800,000	0,046	-0,133
-322,329	521,725	0,060	-0,102
-321,314	569,010	0,037	0,065
-320,299	-200,000	-0,001	0,072
-319,285	-200,000	0,001	-0,019
-318,270	800,000	0,045	-0,105
-317,256	-8,057	-0,054	-0,026
-316,241	-131,222	0,095	-0,009
-315,226	190,243	-0,077	0,083
-314,212	-94,534	0,100	-0,019
-313,197	-184,916	-0,069	0,001
-312,183	-69,738	-0,111	-0,030
-311,168	800,000	0,058	-0,138
-310,153	800,000	-0,104	-0,213
-309,139	127,647	0,022	-0,020
-308,124	-95,929	0,057	-0,011
-307,110	541,600	0,063	-0,107
-306,095	187,485	0,047	-0,050
-305,080	181,047	0,042	0,044
-304,066	3,180	-0,048	-0,025
-303,051	-200,000	0,020	-0,108
-302,037	231,258	-0,030	-0,036
-301,022	-200,000	-0,001	0,130
-300,008	109,280	0,039	0,033
-298,993	-200,000	0,021	0,078
-297,978	601,909	-0,044	0,079
-296,964	-49,911	-0,160	0,054
-295,949	-85,910	-0,099	-0,022
-294,935	431,120	-0,044	-0,069
-293,920	64,419	0,121	-0,087
-292,905	800,000	-0,025	0,054
-291,891	-200,000	0,041	0,147
-290,876	-34,002	0,144	-0,056
-289,862	79,641	0,076	-0,058
-288,847	244,612	-0,046	-0,055
-287,832	26,852	0,164	-0,098
-286,818	-200,000	-0,013	-0,079
-285,803	491,293	0,009	-0,014
-284,789	148,796	0,054	-0,052
-283,774	-200,000	-0,010	0,051
-282,759	-200,000	-0,004	-0,015
-281,745	800,000	0,032	-0,066
-280,730	257,411	0,080	0,099
-279,716	216,347	-0,031	0,036
-278,701	-200,000	0,007	-0,068
-277,686	456,133	0,026	0,041
-276,672	-79,140	-0,067	-0,016
-275,657	186,104	0,032	-0,034
-274,643	-200,000	-0,039	-0,122
-273,628	603,094	0,036	-0,064
-272,613	66,554	-0,051	-0,037
-271,599	-4,401	0,021	-0,010
-270,584	8,702	-0,090	-0,048
-269,570	313,373	0,070	0,094
-268,555	-200,000	0,007	-0,037
-267,540	-163,139	0,079	0,003
-266,526	800,000	-0,076	-0,184
-265,511	-172,436	-0,134	0,003
-264,497	405,249	0,028	-0,042
-263,482	-83,989	0,070	0,016
-262,467	-200,000	-0,013	0,111
-261,453	-190,208	0,105	-0,001
-260,438	-200,000	0,009	-0,034
-259,424	-200,000	-0,001	-0,137
-258,409	-120,827	0,037	-0,004
-257,395	-31,659	0,137	-0,054
-256,380	800,000	-0,040	0,112
-255,365	369,607	-0,065	0,094
-254,351	-11,111	0,059	0,027
-253,336	-200,000	0,008	0,167
-252,322	-110,113	0,072	0,011
-251,307	-101,353	-0,084	-0,014
-250,292	-26,273	-0,060	-0,025
-249,278	-169,665	0,135	0,003
-248,263	-112,350	-0,052	-0,007
-247,249	-91,847	0,130	-0,026
-246,234	800,000	-0,057	0,126
-245,219	-44,439	-0,070	-0,025
-244,205	-200,000	-0,010	-0,110
-243,190	-97,534	0,076	0,014
-242,176	51,959	-0,127	-0,086
-241,161	198,999	0,046	0,050
-240,146	688,351	0,021	0,040
-239,132	-175,631	-0,078	0,001
-238,117	182,639	-0,052	-0,055
-237,103	-136,675	0,095	0,008
-236,088	-144,800	-0,008	-0,001
-235,073	-200,000	0,025	0,110
-234,059	13,861	0,039	0,021
-233,044	800,000	-0,024	0,065
-232,030	-157,314	-0,092	-0,004
-231,015	-200,000	0,028	-0,228
-230,000	216,774	0,015	-0,017
-228,986	131,762	0,015	-0,014
-227,971	-200,000	-0,017	-0,123
-226,957	64,934	-0,076	-0,054
-225,942	344,637	0,023	0,033
-224,927	-94,899	-0,134	0,026
-223,913	219,300	-0,028	-0,032
-222,898	-51,394	-0,087	-0,029
-221,884	35,229	-0,066	0,041
-220,869	-95,833	-0,065	0,012
-219,855	800,000	0,076	0,182
-218,840	800,000	0,052	0,143
-217,825	-115,282	-0,107	0,014
-216,811	-200,000	-0,004	-0,113
-215,796	-138,682	0,053	-0,004
-214,782	176,107	0,023	0,024
-213,767	602,893	-0,016	0,028
-212,752	382,994	-0,102	0,150
-211,738	-55,581	0,123	0,039
-210,723	-51,440	-0,104	-0,034
-209,709	-200,000	-0,003	-0,073
-208,694	-90,243	-0,165	0,034
-207,679	33,935	0,069	-0,043
-206,665	-80,609	0,035	-0,008
-205,650	-104,374	0,177	0,029
-204,636	-200,000	-0,010	0,083
-203,621	800,000	-0,032	-0,097
-202,606	-200,000	0,006	0,020
-201,592	-167,259	-0,088	-0,002
-200,577	800,000	0,030	-0,071
-199,563	-31,008	-0,208	0,083
-198,548	-115,902	0,082	0,011
-197,533	-17,034	-0,096	0,043
-196,519	-1,357	-0,113	-0,057
-195,504	-200,000	0,008	0,059
-194,490	799,419	-0,074	-0,146
-193,475	800,000	-0,020	-0,054
-192,460	-200,000	-0,014	-0,153
-191,446	-22,214	0,022	0,010
-190,431	-200,000	-0,017	0,174
-189,417	-78,579	0,019	-0,005
-188,402	-59,503	-0,095	-0,029
-187,387	-100,618	-0,083	-0,014
-186,373	691,149	0,014	0,026
-185,358	20,450	0,057	0,033
-184,344	512,559	0,049	0,081
-183,329	-137,149	0,038	0,003
-182,315	-6,912	0,055	0,027
-181,300	17,328	0,059	-0,033
-180,285	-72,816	0,046	-0,012
-179,271	-200,000	0,006	-0,076
-178,256	418,211	-0,047	0,072
-177,242	-29,893	0,031	0,013
-176,227	-124,845	-0,134	0,015
-175,212	800,000	0,048	0,106
-174,198	-55,903	-0,052	0,016
-173,183	-94,785	0,039	-0,007
-172,169	800,000	0,038	0,091
-171,154	-92,061	0,121	-0,024
-170,139	-26,682	0,186	0,077
-169,125	-200,000	-0,022	0,110
-168,110	800,000	0,029	-0,059
-167,096	-48,171	0,055	-0,019
-166,081	90,648	-0,138	-0,110
-165,066	129,974	-0,138	-0,125
-164,052	56,481	-0,046	-0,032
-163,037	800,000	-0,027	0,070
-162,023	-200,000	0,026	0,186
-161,008	-24,520	0,154	0,065
-159,993	-15,038	-0,057	-0,026
-158,979	558,392	0,061	-0,105
-157,964	181,736	0,024	0,025
-156,950	-116,092	0,120	-0,016
-155,935	-200,000	-0,004	0,106
-154,920	800,000	0,042	-0,087
-153,906	-19,503	0,033	-0,015
-152,891	-200,000	0,015	-0,072
-151,877	96,616	0,059	-0,048
-150,862	-153,826	-0,059	0,003
-149,847	109,958	0,072	0,061
-148,833	800,000	-0,049	0,112
-147,818	-200,000	0,001	0,040
-146,804	-3,331	0,046	-0,023
-145,789	-51,514	0,043	0,014
-144,775	-82,833	-0,094	0,021
-143,760	-200,000	0,056	0,207
-142,745	726,057	-0,035	-0,066
-141,731	-63,683	0,170	-0,049
-140,716	-200,000	0,004	0,053
-139,702	235,897	0,063	0,074
-138,687	27,063	-0,079	-0,047
-137,672	86,079	-0,084	0,066
-136,658	-116,261	-0,136	0,018
-135,643	-30,199	0,058	-0,023
-134,629	-200,000	0,015	0,060
-133,614	-17,205	0,110	-0,049
-132,599	236,634	0,087	-0,103
-131,585	98,634	0,096	0,078
-130,570	212,731	0,060	-0,068
-129,556	800,000	-0,027	-0,055
-128,541	353,714	-0,038	0,054
-127,526	-57,639	-0,170	0,053
-126,512	146,531	0,021	0,020
-125,497	800,000	-0,028	0,059
-124,483	-200,000	-0,009	-0,105
-123,468	-71,394	-0,062	-0,016
-122,453	-143,761	0,039	-0,003
-121,439	71,907	-0,072	-0,053
-120,424	800,000	0,035	-0,074
-119,410	-73,863	0,132	0,034
-118,395	-147,885	0,156	-0,009
-117,380	239,068	0,026	-0,031
-116,366	65,621	-0,142	-0,102
-115,351	-200,000	-0,004	-0,012
-114,337	-15,376	-0,197	0,089
-113,322	-73,346	-0,078	0,020
-112,307	800,000	-0,062	-0,135
-111,293	-200,000	-0,015	0,132
-110,278	5,126	0,149	0,078
-109,264	-51,866	0,073	-0,024
-108,249	-34,214	-0,115	0,044
-107,234	800,000	-0,034	-0,101
-106,220	33,207	0,151	0,092
-105,205	-200,000	0,009	-0,038
-104,191	-121,232	0,070	0,008
-103,176	800,000	0,031	-0,083
-102,162	-130,312	-0,030	-0,003
-101,147	356,451	-0,024	-0,034
-100,132	455,203	-0,086	-0,135
-99,118	196,834	-0,130	-0,141
-98,103	800,000	0,017	-0,042
-97,089	146,920	0,126	0,120
-96,074	-200,000	0,001	-0,057
-95,059	-200,000	-0,019	-0,123
-94,045	-59,176	-0,142	0,043
-93,030	-200,000	-0,013	0,054
-92,016	485,575	-0,066	-0,108
-91,001	249,543	0,009	-0,010
-89,986	286,108	0,105	0,135
-88,972	-4,513	-0,047	0,023
-87,957	33,433	-0,029	-0,018
-86,943	-200,000	-0,006	-0,106
-85,928	180,442	-0,094	0,098
-84,913	351,632	-0,113	-0,159
-83,899	104,345	-0,071	-0,059
-82,884	8,924	0,153	-0,081
-81,870	800,000	-0,003	-0,008
-80,855	320,554	0,057	0,077
-79,840	800,000	-0,044	0,090
-78,826	140,091	-0,129	-0,120
-77,811	-71,775	0,053	0,014
-76,797	116,211	-0,001	0,001
-75,782	613,339	0,043	0,076
-74,767	36,082	-0,108	0,067
-73,753	30,298	0,116	-0,070
-72,738	-200,000	0,021	-0,069
-71,724	-77,100	-0,069	0,017
-70,709	-76,471	-0,054	-0,013
-69,694	205,443	0,061	-0,067
-68,680	474,080	-0,079	-0,126
-67,665	-57,356	0,058	-0,018
-66,651	698,631	0,028	0,052
-65,636	-146,444	-0,030	-0,002
-64,622	185,640	-0,069	0,073
-63,607	639,658	-0,062	-0,112
-62,592	-200,000	0,008	-0,083
-61,578	800,000	0,081	-0,177
-60,563	40,621	0,120	0,076
-59,549	-62,368	-0,060	-0,017
-58,534	4,668	-1,769	-0,917
-57,519	501,929	-1,237	-2,029
-56,505	-200,000	-0,583	-4,739
-55,490	378,412	0,796	1,155
-54,476	800,000	5,099	11,498
-53,461	-200,000	19,919	326,739
-52,446	800,000	747,998	2327,476
-51,432	560,241	1659,586	2847,261
-50,417	76,460	1671,470	1251,806
-49,403	20,565	1544,604	881,518
-48,388	14,465	1467,229	807,680
-47,373	18,272	1457,180	820,513
-46,359	16,514	1446,983	806,309
-45,344	12,753	1442,247	785,624
-44,330	12,631	1440,473	784,044
-43,315	12,698	1438,780	783,411
-42,300	12,661	1437,100	782,287
-41,286	12,705	1435,708	781,711
-40,271	12,651	1434,447	780,737
-39,257	12,685	1433,216	780,198
-38,242	12,692	1431,973	779,519
-37,227	12,719	1430,762	778,962
-36,213	12,723	1429,211	778,103
-35,198	12,678	1428,282	777,354
-34,184	12,751	1427,345	777,158
-33,169	12,720	1425,913	776,204
-32,154	12,754	1424,948	775,805
-31,140	12,741	1423,420	774,880
-30,125	12,758	1422,292	774,319
-29,111	12,735	1421,269	773,621
-28,096	12,709	1420,276	772,929
-27,082	12,669	1419,219	772,131
-26,067	12,662	1418,083	771,451
-25,052	12,686	1416,912	770,895
-24,038	12,650	1416,085	770,247
-23,023	12,656	1414,946	769,625
-22,009	12,623	1413,864	768,852
-20,994	12,606	1413,058	768,303
-19,979	12,625	1412,116	767,847
-18,965	12,624	1411,040	767,230
-17,950	12,617	1410,269	766,748
-16,936	12,617	1409,291	766,186
-15,921	12,542	1408,347	765,287
-14,906	12,555	1407,654	764,943
-13,892	12,564	1406,436	764,292
-12,877	12,528	1405,892	763,800
-11,863	12,600	1404,523	763,360
-10,848	12,511	1403,931	762,595
-9,833	12,488	1403,191	762,054
-8,819	12,469	1402,298	761,452
-7,804	12,452	1401,350	760,825
-6,790	12,466	1400,301	760,290
-5,775	12,525	1398,994	759,824
-4,760	12,498	1397,972	759,116
-3,746	12,457	1397,297	758,529
-2,731	12,435	1396,398	757,909
-1,717	12,413	1395,619	757,352
-0,702	12,414	1393,778	756,330
0,313	16,390	1309,439	728,925
1,327	33,008	701,105	428,534
2,342	50,605	122,504	81,809
3,356	2,969	16,569	8,480
4,371	-3,635	3,204	1,568
5,386	83,559	0,589	0,454
6,400	800,000	0,119	0,292
7,415	-163,657	-0,172	-0,006
8,429	22,536	-0,304	-0,175
9,444	12,974	-0,363	-0,198
10,459	85,422	-0,374	-0,290
11,473	110,140	-0,271	-0,229
12,488	30,693	-0,364	-0,219
13,502	13,616	-0,370	-0,202
14,517	100,733	-0,261	-0,214
15,531	139,187	-0,328	-0,305
16,546	179,494	-0,247	-0,256
17,561	192,402	-0,290	-0,309
18,575	-29,521	-0,200	-0,080
19,590	20,000	-0,319	-0,181
20,604	-15,626	-0,398	-0,179
21,619	38,424	-0,456	-0,286
22,634	-10,528	-0,628	-0,293
23,648	209,801	-0,377	-0,418
24,663	133,500	-0,421	-0,385
25,677	48,334	-0,278	-0,183
26,692	16,631	-0,395	-0,220
27,707	77,107	-0,294	-0,220
28,721	78,341	-0,361	-0,272
29,736	99,894	-0,441	-0,360
30,750	148,111	-0,325	-0,310
31,765	97,297	-0,428	-0,346
32,780	651,355	-0,153	-0,277
33,794	110,070	-0,292	-0,247
34,809	27,198	-0,422	-0,249
35,823	161,747	-0,250	-0,246
36,838	167,212	-0,296	-0,297
37,853	-87,797	-0,523	-0,110
38,867	105,052	-0,362	-0,301
39,882	-139,736	-0,312	-0,023
40,896	150,725	-0,280	-0,268
41,911	113,073	-0,375	-0,321
42,926	9,898	-0,330	-0,176
43,940	-46,354	-0,452	-0,156
44,955	213,727	-0,325	-0,363
45,969	55,909	-0,345	-0,235
46,984	4,259	-0,296	-0,152
47,999	70,315	-0,360	-0,262
49,013	-2,481	-0,447	-0,220
50,028	183,688	-0,288	-0,300
51,042	71,049	-0,331	-0,241
52,057	97,568	-0,313	-0,253
53,071	75,559	-0,421	-0,313
54,086	3,722	-0,346	-0,177
55,101	58,933	-0,336	-0,232
56,115	7,703	-0,265	-0,139
57,130	49,569	-0,247	-0,163
58,144	406,693	-0,216	-0,322
59,159	59,464	-0,292	-0,202
60,174	58,486	-0,387	-0,267
61,188	38,409	-0,338	-0,212
62,203	270,687	-0,188	-0,233
63,217	-26,879	-0,337	-0,138
64,232	89,955	-0,307	-0,241
65,247	-11,468	-0,292	-0,134
66,261	50,819	-0,467	-0,311
67,276	113,085	-0,325	-0,277
68,290	-102,402	-0,449	-0,075
69,305	-17,811	-0,262	-0,115
70,320	-110,938	-0,309	-0,044
71,334	1,560	-0,374	-0,188
72,349	52,460	-0,338	-0,226
73,363	20,065	-0,353	-0,200
74,378	110,873	-0,356	-0,301
75,393	40,101	-0,207	-0,130
76,407	-23,896	-0,421	-0,176
77,422	381,690	-0,191	-0,277
78,436	-61,240	-0,254	-0,075
79,451	19,036	-0,296	-0,166
80,466	5,834	-0,212	-0,110
81,480	195,960	-0,227	-0,242
82,495	10,305	-0,324	-0,173
83,509	25,405	-0,340	-0,198
84,524	-105,754	-0,346	-0,054
85,539	169,516	-0,246	-0,247
86,553	212,364	-0,227	-0,251
87,568	32,159	-0,366	-0,221
88,582	98,554	-0,304	-0,246
89,597	101,538	-0,277	-0,227
90,611	60,070	-0,297	-0,205
91,626	29,412	-0,354	-0,210
92,641	181,138	-0,199	-0,206
93,655	78,212	-0,321	-0,240
94,670	35,077	-0,249	-0,153
95,684	162,301	-0,397	-0,390
96,699	-33,027	-0,316	-0,122
97,714	192,257	-0,214	-0,227
98,728	149,317	-0,153	-0,146
99,743	241,999	-0,228	-0,268
100,757	-12,058	-0,283	-0,130
101,772	49,496	-0,250	-0,165
102,787	38,956	-0,207	-0,129
103,801	138,679	-0,232	-0,213
104,816	88,928	-0,296	-0,230
105,830	77,255	-0,212	-0,158
106,845	19,790	-0,287	-0,161
107,860	392,779	-0,232	-0,339
108,874	97,949	-0,199	-0,161
109,889	148,319	-0,264	-0,250
110,903	84,560	-0,239	-0,183
111,918	76,104	-0,246	-0,182
112,933	142,557	-0,250	-0,232
113,947	74,230	-0,246	-0,181
114,962	41,010	-0,296	-0,187
115,976	84,130	-0,293	-0,224
116,991	23,308	-0,322	-0,185
118,006	183,516	-0,311	-0,322
119,020	130,872	-0,249	-0,224
120,035	53,796	-0,313	-0,210
121,049	83,924	-0,307	-0,234
122,064	15,857	-0,373	-0,205
123,079	61,897	-0,259	-0,180
124,093	61,002	-0,288	-0,199
125,108	58,442	-0,321	-0,220
126,122	32,860	-0,251	-0,152
127,137	-11,329	-0,205	-0,094
128,151	268,039	-0,183	-0,225
129,166	-5,437	-0,223	-0,106
130,181	107,096	-0,289	-0,240
131,195	70,677	-0,198	-0,143
132,210	-107,984	-0,201	-0,030
133,224	202,272	-0,240	-0,259
134,239	114,108	-0,215	-0,183
135,254	511,033	-0,158	-0,258
136,268	50,782	-0,255	-0,168
137,283	46,365	-0,225	-0,146
138,297	114,311	-0,250	-0,213
139,312	130,586	-0,209	-0,187
140,327	223,775	-0,235	-0,265
141,341	216,492	-0,191	-0,212
142,356	-36,232	-0,293	-0,110
143,370	420,389	-0,146	-0,220
144,385	22,716	-0,336	-0,192
145,400	-200,000	-0,107	-0,422
146,414	190,609	-0,246	-0,258
147,429	51,755	-0,339	-0,225
148,443	52,900	-0,278	-0,186
149,458	111,560	-0,202	-0,170
150,473	-53,335	-0,213	-0,068
151,487	-53,229	-0,324	-0,103
152,502	51,955	-0,211	-0,140
153,516	107,654	-0,268	-0,223
154,531	173,871	-0,222	-0,224
155,546	-28,461	-0,193	-0,077
156,560	74,776	-0,264	-0,193
157,575	-167,048	-0,186	-0,005
158,589	195,539	-0,261	-0,277
159,604	494,028	-0,185	-0,297
160,619	140,880	-0,305	-0,281
161,633	143,374	-0,243	-0,226
162,648	98,891	-0,285	-0,229
163,662	302,886	-0,185	-0,239
164,677	19,852	-0,252	-0,141
165,692	-25,668	-0,152	-0,062
166,706	14,668	-0,297	-0,161
167,721	-52,829	-0,357	-0,114
168,735	360,186	-0,176	-0,246
169,750	200,542	-0,288	-0,309
170,764	800,000	-0,131	-0,296
171,779	98,062	-0,159	-0,128
172,794	28,322	-0,107	-0,063
173,808	253,621	-0,190	-0,227
174,823	111,480	-0,174	-0,146
175,837	-66,738	-0,271	-0,074
176,852	-200,000	-0,262	0,000
177,867	-13,382	-0,266	-0,119
178,881	-31,076	-0,177	-0,069
179,896	599,263	-0,119	-0,207
180,910	121,734	-0,176	-0,153
181,925	68,173	-0,208	-0,148
182,940	138,424	-0,211	-0,193
183,954	69,014	-0,237	-0,170
184,969	126,267	-0,192	-0,169
185,983	-15,545	-0,108	-0,048
186,998	36,937	-0,337	-0,207
188,013	-63,968	-0,258	-0,073
189,027	63,822	-0,230	-0,161
190,042	-80,590	-0,207	-0,048
191,056	25,082	-0,241	-0,139
192,071	408,215	-0,115	-0,170
193,086	800,000	-0,120	-0,265
194,100	28,926	-0,143	-0,084
195,115	-35,612	-0,345	-0,129
196,129	800,000	-0,065	-0,182
197,144	800,000	-0,096	-0,260
198,159	70,547	-0,324	-0,233
199,173	2,405	-0,235	-0,118
200,188	100,091	-0,216	-0,174
201,202	115,999	-0,217	-0,184
202,217	37,117	-0,227	-0,139
203,232	800,000	-0,097	-0,198
204,246	268,080	-0,207	-0,252
205,261	191,355	-0,258	-0,270
206,275	256,090	-0,180	-0,215
207,290	-82,001	-0,180	-0,040
208,304	131,965	-0,157	-0,140
209,319	-116,890	-0,255	0,032
210,334	-41,921	-0,278	-0,098
211,348	-20,799	-0,235	-0,100
212,363	34,432	-0,115	-0,069
213,377	157,637	-0,152	-0,146
214,392	546,780	-0,103	-0,172
215,407	261,739	-0,123	-0,149
216,421	-9,281	-0,246	-0,114
217,436	48,274	-0,220	-0,142
218,450	309,313	-0,166	-0,216
219,465	800,000	-0,074	-0,147
220,480	102,245	-0,149	-0,121
221,494	117,483	-0,165	-0,141
222,509	144,388	-0,203	-0,188
223,523	275,377	-0,139	-0,171
224,538	159,752	-0,240	-0,232
225,553	117,407	-0,343	-0,292
226,567	13,156	-0,308	-0,165
227,582	-87,936	-0,173	-0,036
228,596	73,703	-0,130	-0,094
229,611	-128,773	-0,143	-0,014
230,626	-200,000	-0,012	-0,100
231,640	12,028	-0,226	-0,120
232,655	-67,367	-0,249	-0,067
233,669	196,865	-0,163	-0,172
234,684	39,539	-0,158	-0,098
235,699	82,606	-0,309	-0,232
236,713	229,382	-0,145	-0,164
237,728	92,407	-0,158	-0,123
238,742	73,986	-0,167	-0,121
239,757	-128,807	-0,273	-0,026
240,772	267,676	-0,185	-0,224
241,786	649,299	-0,073	-0,129
242,801	112,529	-0,183	-0,154
243,815	679,333	-0,100	-0,181
244,830	307,946	-0,105	-0,136
245,844	91,867	-0,212	-0,165
246,859	59,917	-0,163	-0,111
247,874	800,000	-0,115	-0,246
248,888	73,704	-0,204	-0,148
249,903	101,342	-0,167	-0,135
250,917	113,229	-0,131	-0,110
251,932	151,065	-0,111	-0,104
252,947	289,795	-0,095	-0,119
253,961	163,584	-0,160	-0,156
254,976	63,371	-0,259	-0,180
255,990	162,250	-0,067	-0,065
257,005	-46,132	-0,261	-0,088
258,020	-23,875	-0,063	-0,026
259,034	-12,810	-0,170	-0,076
260,049	-200,000	-0,028	-0,164
261,063	-132,858	-0,209	-0,018
262,078	666,417	-0,125	-0,224
263,093	9,891	-0,141	-0,074
264,107	212,261	-0,178	-0,194
265,122	94,093	-0,129	-0,101
266,136	112,852	-0,132	-0,110
267,151	-155,783	-0,177	0,008
268,166	-200,000	-0,027	-0,263
269,180	123,550	-0,086	-0,074
270,195	-98,441	-0,224	-0,039
271,209	800,000	-0,137	-0,275
272,224	-102,267	-0,200	-0,033
273,239	-94,251	-0,162	-0,030
274,253	41,613	-0,143	-0,089
275,268	183,420	-0,179	-0,182
276,282	248,657	-0,182	-0,213
277,297	173,904	-0,198	-0,197
278,312	324,956	-0,177	-0,234
279,326	479,508	-0,083	-0,129
280,341	106,452	-0,098	-0,080
281,355	242,570	-0,101	-0,116
282,370	-142,208	-0,137	-0,009
283,384	-121,037	-0,181	-0,021
284,399	800,000	-0,088	-0,231
285,414	182,302	-0,142	-0,145
286,428	-124,351	-0,183	0,019
287,443	-63,415	-0,155	-0,044
288,457	38,185	-0,204	-0,125
289,472	-79,277	-0,345	-0,080
290,487	-53,587	-0,151	-0,047
291,501	50,659	-0,213	-0,139
292,516	-92,694	-0,140	0,027
293,530	377,564	-0,102	-0,144
294,545	-184,826	-0,186	-0,002
295,560	469,748	-0,193	-0,299
296,574	-200,000	-0,031	-0,101
297,589	128,520	-0,232	-0,203
298,603	287,456	-0,157	-0,196
299,618	-25,596	-0,290	-0,117
300,633	1,772	-0,141	-0,070
301,647	-116,223	-0,074	0,009
302,662	800,000	-0,053	-0,127
303,676	76,872	-0,181	-0,132
304,691	-86,670	-0,082	0,017
305,706	10,061	-0,180	-0,094
306,720	-169,485	-0,274	0,007
307,735	62,962	-0,141	-0,097
308,749	-73,691	-0,054	0,013
309,764	-36,319	-0,063	0,023
310,779	-95,812	-0,164	-0,030
311,793	158,840	-0,083	0,079
312,808	203,580	-0,088	-0,094
313,822	-58,694	-0,304	-0,090
314,837	197,357	-0,157	-0,165
315,852	54,350	-0,110	0,072
316,866	-200,000	0,012	-0,108
317,881	-95,451	-0,220	0,040
318,895	364,404	-0,134	-0,185
319,910	34,764	-0,135	-0,081
320,925	225,426	-0,174	-0,194
321,939	699,215	-0,062	-0,112
322,954	-54,783	-0,143	0,044
323,968	-14,283	-0,110	-0,048
324,983	445,919	-0,118	-0,179
325,997	-36,854	-0,059	-0,021
327,012	31,705	-0,137	-0,081
328,027	-143,397	-0,197	0,013
329,041	468,227	-0,124	-0,191
330,056	114,927	-0,134	-0,112
331,070	66,790	-0,173	-0,120
332,085	449,051	-0,125	-0,190
333,100	131,320	-0,051	-0,045
334,114	88,176	-0,218	-0,166
335,129	105,639	-0,215	-0,174
336,143	-3,611	-0,161	-0,076
337,158	-120,356	-0,056	-0,006
338,173	-200,000	-0,004	-0,082
339,187	-63,517	-0,133	0,037
340,202	340,955	-0,087	-0,117
341,216	67,192	-0,213	-0,149
342,231	62,247	-0,256	-0,175
343,246	242,009	-0,178	-0,205
344,260	-40,459	-0,131	-0,046
345,275	-86,185	-0,145	-0,031
346,289	-22,927	0,105	-0,043
347,304	-14,635	-0,197	-0,087
348,319	128,760	-0,238	-0,208
349,333	173,318	-0,145	-0,143
350,348	182,394	-0,083	-0,084
351,362	-91,143	-0,060	0,012
352,377	-3,894	-0,123	-0,058
353,392	-143,646	-0,127	-0,008
354,406	-50,378	-0,226	-0,073
355,421	208,612	1313,935	1410,461
356,435	160,523	1474,556	1410,943
