DTS Sentinel unit serial number:	SN410029Multiplexer serial number:	ORYXHardware model number:	OX2-SRSoftware version number:	ORYX F/W v4,00 Oryx Data Collector v3.7.2.0data status	okinstallation	B3 Nyhavnadifferential loss correction	single-endedforward channel	channel 1reverse channel	N/Adate	2023/11/29time	11:37:30forward acquisition time	300,00reverse acquisition time	0,00gamma	499,1914k internal	0,3211k external	0,3211temperature offset calibration	1,0000default loss term (dB/km)	0,3820temperature slope calibration	1,0000multiplexer offset coefficient	1,0000multiplexer slope coefficient	1,0000fibre end	0,00T internal ref (°C)	9,57T ext. ref 1 (°C)	-5,21T ext. ref 2 (°C)	-5,33length (m)	temperature (°C)	Stokes	anti-Stokes-744,400	800,000	-0,102	-0,208
-743,385	368,853	0,131	0,193
-742,371	623,392	-0,176	-0,322
-741,356	-200,000	-0,049	0,418
-740,342	110,046	-0,281	-0,244
-739,327	-200,000	-0,100	0,367
-738,312	44,260	-0,254	-0,169
-737,298	800,000	-0,111	0,273
-736,283	217,029	-0,115	-0,133
-735,269	319,366	0,150	0,207
-734,254	200,036	-0,260	-0,290
-733,239	59,273	-0,188	0,134
-732,225	-200,000	-0,015	-0,111
-731,210	-200,000	0,028	0,198
-730,196	-200,000	-0,018	-0,058
-729,181	-200,000	-0,008	-0,084
-728,167	-38,987	-0,093	-0,035
-727,152	36,943	-0,095	0,060
-726,137	-200,000	-0,020	-0,135
-725,123	-58,205	-0,153	-0,048
-724,108	133,592	-0,164	-0,154
-723,094	-200,000	-0,041	-0,176
-722,079	800,000	0,006	-0,014
-721,064	216,877	0,056	-0,064
-720,050	-200,000	0,019	-0,077
-719,035	-200,000	-0,018	0,071
-718,021	-79,712	-0,089	-0,022
-717,006	-24,849	-0,105	-0,045
-715,991	-200,000	-0,006	-0,096
-714,977	-78,991	-0,155	-0,038
-713,962	-38,645	-0,019	-0,007
-712,948	-126,712	-0,073	0,008
-711,933	-184,350	-0,099	0,001
-710,918	-60,186	-0,131	0,040
-709,904	800,000	-0,048	-0,151
-708,889	-171,218	-0,099	0,002
-707,875	800,000	-0,048	-0,123
-706,860	172,864	0,051	-0,053
-705,845	11,602	0,127	-0,070
-704,831	800,000	-0,034	0,104
-703,816	-51,114	-0,053	0,018
-702,802	-113,992	-0,028	-0,004
-701,787	-200,000	0,038	-0,209
-700,772	83,527	-0,106	0,084
-699,758	-23,062	0,174	0,076
-698,743	-14,775	-0,061	0,028
-697,729	-197,307	0,133	-0,001
-696,714	-72,121	0,090	0,024
-695,699	-200,000	-0,036	0,145
-694,685	-76,074	-0,159	0,040
-693,670	-35,958	0,111	-0,043
-692,656	-200,000	-0,006	-0,023
-691,641	185,728	0,034	0,037
-690,627	-200,000	-0,014	-0,073
-689,612	513,552	0,056	0,096
-688,597	800,000	-0,023	-0,050
-687,583	-200,000	0,032	-0,133
-686,568	-200,000	-0,014	0,152
-685,554	-49,697	-0,135	-0,046
-684,539	-54,271	-0,088	-0,029
-683,524	-43,737	0,062	-0,022
-682,510	-86,502	0,068	-0,015
-681,495	12,866	-0,181	-0,101
-680,481	-200,000	-0,028	-0,162
-679,466	285,648	-0,061	0,080
-678,451	-200,000	0,018	-0,127
-677,437	800,000	-0,034	-0,072
-676,422	437,899	0,062	-0,099
-675,408	87,176	-0,114	-0,091
-674,393	-85,772	0,019	-0,004
-673,378	-82,654	-0,101	0,023
-672,364	800,000	-0,054	-0,111
-671,349	-200,000	0,022	-0,133
-670,335	-63,618	0,075	0,022
-669,320	176,359	-0,046	0,049
-668,305	800,000	0,055	-0,165
-667,291	-200,000	0,008	0,116
-666,276	203,168	-0,016	0,018
-665,262	800,000	-0,022	-0,049
-664,247	-143,129	-0,117	-0,008
-663,232	268,453	0,063	-0,079
-662,218	-200,000	0,007	0,052
-661,203	250,957	-0,032	-0,039
-660,189	-29,454	-0,120	0,050
-659,174	800,000	0,034	-0,072
-658,159	-200,000	-0,025	0,000
-657,145	115,295	0,022	-0,019
-656,130	-6,450	0,099	0,048
-655,116	800,000	0,052	0,109
-654,101	-34,699	-0,093	0,037
-653,086	-69,645	-0,058	-0,016
-652,072	-124,863	-0,059	-0,006
-651,057	-200,000	0,046	-0,169
-650,043	334,009	-0,010	-0,014
-649,028	-200,000	-0,002	0,033
-648,014	-17,082	0,084	-0,038
-646,999	-2,400	0,045	0,023
-645,984	774,239	-0,041	-0,082
-644,970	540,000	-0,051	0,089
-643,955	160,416	-0,076	-0,076
-642,941	573,869	-0,056	-0,099
-641,926	-200,000	-0,015	0,066
-640,911	-6,920	0,069	0,034
-639,897	620,822	-0,018	0,034
-638,882	-66,922	0,062	0,018
-637,868	-169,778	0,081	-0,002
-636,853	50,775	-0,057	-0,039
-635,838	210,586	-0,098	-0,111
-634,824	800,000	-0,045	-0,124
-633,809	134,667	0,018	-0,017
-632,795	-200,000	0,020	0,140
-631,780	249,350	-0,095	-0,116
-630,765	-200,000	0,020	0,080
-629,751	281,929	-0,070	0,091
-628,736	40,116	0,064	0,041
-627,722	-200,000	-0,002	-0,047
-626,707	-200,000	0,008	0,141
-625,692	227,645	0,059	0,070
-624,678	-38,442	-0,131	0,050
-623,663	-200,000	-0,002	0,061
-622,649	216,732	-0,052	-0,060
-621,634	-200,000	0,020	-0,147
-620,619	148,826	-0,027	0,027
-619,605	800,000	0,055	0,159
-618,590	-62,128	0,145	0,043
-617,576	-200,000	-0,033	0,121
-616,561	105,872	0,032	-0,028
-615,546	153,926	0,056	-0,056
-614,532	572,513	-0,108	-0,190
-613,517	-178,397	-0,045	0,001
-612,503	91,473	0,010	0,008
-611,488	-200,000	-0,014	0,112
-610,474	-150,054	-0,060	-0,003
-609,459	738,162	-0,071	0,138
-608,444	463,514	-0,069	-0,112
-607,430	-0,338	-0,119	-0,061
-606,415	49,230	0,084	-0,057
-605,401	-28,253	0,088	-0,037
-604,386	-200,000	0,015	0,063
-603,371	258,585	0,060	-0,075
-602,357	-23,961	-0,037	0,016
-601,342	236,040	-0,050	0,059
-600,328	-11,824	-0,134	0,063
-599,313	-56,512	0,063	-0,020
-598,298	291,777	0,088	-0,116
-597,284	583,359	0,022	-0,039
-596,269	55,929	-0,054	-0,038
-595,255	-200,000	0,018	-0,128
-594,240	-200,000	0,000	0,015
-593,225	-141,698	-0,063	0,005
-592,211	-188,290	-0,116	0,001
-591,196	-200,000	0,015	-0,100
-590,182	-200,000	0,004	-0,036
-589,167	800,000	0,016	0,037
-588,152	8,655	-0,068	0,037
-587,138	-97,387	0,098	0,018
-586,123	18,976	-0,179	-0,103
-585,109	-109,677	-0,148	0,022
-584,094	16,293	0,077	0,044
-583,079	-200,000	-0,019	0,160
-582,065	-200,000	-0,002	0,037
-581,050	589,352	0,019	-0,035
-580,036	-200,000	-0,028	0,103
-579,021	-200,000	-0,002	-0,015
-578,006	543,270	0,051	0,088
-576,992	800,000	-0,045	-0,107
-575,977	32,196	0,112	0,069
-574,963	-200,000	0,001	-0,104
-573,948	-31,222	-0,025	0,010
-572,934	-200,000	-0,004	-0,043
-571,919	-200,000	0,030	-0,119
-570,904	-200,000	0,003	-0,118
-569,890	-200,000	0,003	-0,127
-568,875	-200,000	-0,015	0,105
-567,861	73,448	0,065	0,049
-566,846	-200,000	-0,006	0,238
-565,831	800,000	-0,048	-0,137
-564,817	-200,000	0,006	-0,113
-563,802	174,329	0,065	0,068
-562,788	-115,197	-0,158	0,021
-561,773	-93,388	0,040	-0,008
-560,758	800,000	0,070	0,184
-559,744	-200,000	0,017	0,096
-558,729	170,346	-0,044	-0,046
-557,715	-200,000	0,009	-0,044
-556,700	526,570	0,066	0,112
-555,685	216,612	-0,070	-0,080
-554,671	-138,334	0,079	-0,006
-553,656	-200,000	0,001	-0,040
-552,642	26,196	-0,107	-0,064
-551,627	-51,565	0,086	0,029
-550,612	-200,000	0,017	0,167
-549,598	-200,000	-0,020	-0,066
-548,583	-200,000	-0,015	-0,055
-547,569	-200,000	0,000	0,010
-546,554	69,607	0,109	0,081
-545,539	-200,000	0,030	-0,148
-544,525	43,679	0,100	-0,066
-543,510	236,978	-0,051	0,061
-542,496	-200,000	0,004	-0,071
-541,481	173,770	-0,167	-0,174
-540,466	77,244	-0,081	0,062
-539,452	230,438	-0,035	0,041
-538,437	-105,088	-0,059	-0,010
-537,423	420,662	-0,047	-0,072
-536,408	800,000	-0,060	0,137
-535,393	-42,151	-0,053	0,019
-534,379	-200,000	0,035	-0,137
-533,364	118,829	-0,053	-0,047
-532,350	-41,609	-0,094	0,034
-531,335	22,386	0,118	0,069
-530,321	-95,079	-0,042	-0,008
-529,306	-56,860	-0,033	-0,011
-528,291	20,711	-0,103	0,060
-527,277	-7,153	0,090	-0,044
-526,262	-134,255	0,107	-0,009
-525,248	-200,000	0,004	0,109
-524,233	800,000	0,032	0,085
-523,218	-200,000	0,001	0,103
-522,204	-200,000	-0,002	0,042
-521,189	800,000	-0,075	-0,151
-520,175	196,380	0,063	0,070
-519,160	800,000	-0,048	0,118
-518,145	-200,000	-0,038	0,191
-517,131	-200,000	0,001	0,093
-516,116	-115,491	-0,084	0,011
-515,102	-160,034	-0,038	-0,001
-514,087	800,000	-0,002	0,004
-513,072	-29,349	-0,124	-0,051
-512,058	41,794	-0,107	0,070
-511,043	-16,938	0,057	0,026
-510,029	280,038	0,019	0,024
-509,014	-146,314	0,126	0,008
-507,999	-105,900	-0,118	-0,019
-506,985	98,583	-0,100	-0,083
-505,970	-200,000	0,003	-0,073
-504,956	800,000	-0,031	-0,072
-503,941	315,968	0,054	0,073
-502,926	-49,705	0,104	-0,035
-501,912	-200,000	0,007	0,085
-500,897	800,000	-0,040	0,099
-499,883	-200,000	-0,015	0,058
-498,868	557,528	0,015	-0,027
-497,853	-200,000	0,022	-0,117
-496,839	184,352	-0,032	0,034
-495,824	-44,084	-0,126	0,045
-494,810	-15,030	0,021	-0,010
-493,795	-50,091	-0,083	0,028
-492,781	308,788	-0,042	-0,057
-491,766	-108,124	-0,142	-0,022
-490,751	-200,000	-0,015	-0,054
-489,737	-47,602	0,076	0,026
-488,722	-56,157	0,094	-0,030
-487,708	569,859	0,052	0,091
-486,693	198,482	-0,038	0,042
-485,678	131,571	0,096	-0,089
-484,664	-170,321	-0,020	0,000
-483,649	9,769	0,057	0,031
-482,635	-200,000	-0,028	-0,143
-481,620	344,222	0,035	0,049
-480,605	65,411	0,190	0,138
-479,591	-144,829	-0,099	-0,006
-478,576	90,198	0,087	0,069
-477,562	-200,000	-0,004	-0,038
-476,547	-200,000	0,035	-0,147
-475,532	-128,515	0,103	-0,010
-474,518	486,888	0,063	-0,103
-473,503	-200,000	-0,014	-0,064
-472,489	-78,725	-0,025	0,006
-471,474	167,515	0,044	0,045
-470,459	-200,000	0,026	-0,150
-469,445	-9,993	-0,089	-0,042
-468,430	-26,949	-0,061	0,025
-467,416	-200,000	0,049	0,156
-466,401	-200,000	0,025	0,139
-465,386	36,504	0,103	0,065
-464,372	-84,279	-0,030	-0,007
-463,357	-200,000	-0,007	-0,156
-462,343	-73,418	-0,080	0,021
-461,328	373,645	0,039	-0,056
-460,313	-94,687	-0,093	0,018
-459,299	30,824	0,020	0,012
-458,284	159,506	-0,076	0,076
-457,270	-3,146	-0,066	-0,033
-456,255	-200,000	0,005	-0,109
-455,241	0,659	-0,057	-0,029
-454,226	448,276	-0,086	-0,137
-453,211	420,933	-0,038	-0,058
-452,197	-42,100	0,077	0,028
-451,182	-73,442	0,069	-0,018
-450,168	-156,038	0,076	-0,003
-449,153	443,561	-0,050	-0,079
-448,138	214,868	-0,127	-0,144
-447,124	-41,842	0,077	0,028
-446,109	310,508	-0,092	0,124
-445,095	-16,483	0,112	0,051
-444,080	42,778	0,145	0,095
-443,065	125,254	-0,109	-0,099
-442,051	-200,000	-0,009	0,114
-441,036	315,949	-0,021	0,028
-440,022	-61,042	-0,062	-0,019
-439,007	800,000	0,036	0,087
-437,992	-62,786	-0,032	0,009
-436,978	-200,000	0,012	0,098
-435,963	-122,639	0,065	0,008
-434,949	-200,000	-0,011	-0,167
-433,934	-200,000	0,014	0,068
-432,919	88,822	-0,098	-0,078
-431,905	84,937	-0,130	0,102
-430,890	427,980	0,047	0,073
-429,876	-200,000	0,004	0,103
-428,861	248,634	0,095	0,115
-427,846	44,404	0,088	0,058
-426,832	-200,000	-0,015	-0,083
-425,817	5,679	-0,087	0,046
-424,803	-200,000	-0,006	0,061
-423,788	35,814	0,119	-0,075
-422,773	-174,867	-0,087	0,002
-421,759	691,006	-0,024	0,045
-420,744	-200,000	0,005	-0,053
-419,730	588,463	-0,039	-0,070
-418,715	-55,020	-0,123	0,040
-417,701	-154,607	0,059	0,003
-416,686	752,843	0,094	-0,183
-415,671	-5,411	-0,071	0,035
-414,657	514,939	0,054	0,090
-413,642	-200,000	0,035	-0,251
-412,628	182,973	-0,091	-0,097
-411,613	53,159	-0,124	0,085
-410,598	89,660	0,057	0,045
-409,584	-118,836	0,059	-0,007
-408,569	714,135	0,032	-0,061
-407,555	3,864	-0,057	-0,030
-406,540	800,000	-0,046	0,131
-405,525	-200,000	0,024	-0,184
-404,511	177,858	-0,080	-0,083
-403,496	186,716	-0,047	-0,050
-402,482	-1,077	0,142	0,072
-401,467	595,676	-0,052	0,092
-400,452	-200,000	0,035	0,185
-399,438	800,000	0,038	0,103
-398,423	65,962	-0,087	-0,063
-397,409	-49,240	0,058	0,020
-396,394	-78,566	0,153	-0,037
-395,379	-200,000	-0,001	-0,034
-394,365	-141,323	0,029	-0,002
-393,350	495,892	0,057	0,095
-392,336	800,000	-0,024	-0,048
-391,321	548,913	-0,065	-0,111
-390,306	748,262	-0,057	-0,111
-389,292	-200,000	0,007	0,121
-388,277	-158,766	0,057	-0,002
-387,263	-21,859	-0,074	-0,032
-386,248	-135,207	0,064	-0,005
-385,233	-137,374	0,170	-0,014
-384,219	287,995	0,060	-0,077
-383,204	800,000	0,012	0,034
-382,190	-89,356	-0,182	-0,038
-381,175	-200,000	-0,007	-0,050
-380,160	800,000	0,045	0,097
-379,146	-58,165	0,127	-0,039
-378,131	800,000	-0,004	0,012
-377,117	-200,000	0,008	0,070
-376,102	-200,000	-0,015	0,072
-375,088	35,594	-0,084	-0,053
-374,073	-200,000	0,024	0,126
-373,058	-24,078	0,095	0,041
-372,044	750,417	0,042	0,081
-371,029	-96,702	0,057	-0,011
-370,015	800,000	-0,062	-0,169
-369,000	213,335	0,003	-0,004
-367,985	-200,000	0,013	-0,045
-366,971	-106,151	-0,166	-0,026
-365,956	-48,702	0,106	0,036
-364,942	-4,021	0,019	0,009
-363,927	76,113	0,066	0,050
-362,912	354,982	-0,051	0,072
-361,898	-34,980	0,016	-0,006
-360,883	84,541	-0,043	-0,033
-359,869	800,000	-0,089	-0,179
-358,854	-130,339	0,121	-0,012
-357,839	-1,353	0,205	0,103
-356,825	-113,176	-0,098	-0,014
-355,810	-105,863	-0,041	-0,007
-354,796	-172,492	-0,159	0,004
-353,781	610,810	-0,017	-0,030
-352,766	-38,246	-0,061	0,023
-351,752	337,447	0,055	-0,077
-350,737	-20,370	0,057	-0,025
-349,723	-68,976	0,103	0,028
-348,708	-107,246	-0,116	-0,018
-347,693	-77,849	-0,119	-0,029
-346,679	-200,000	-0,008	0,100
-345,664	352,561	0,056	-0,080
-344,650	800,000	-0,032	-0,082
-343,635	406,360	0,023	0,036
-342,620	-200,000	0,015	-0,065
-341,606	-143,658	0,105	-0,007
-340,591	-200,000	-0,017	-0,078
-339,577	-38,968	-0,095	0,036
-338,562	338,333	0,053	-0,074
-337,548	-200,000	0,019	-0,062
-336,533	218,248	0,082	-0,094
-335,518	-38,452	0,058	0,022
-334,504	84,255	0,012	-0,009
-333,489	346,380	-0,100	0,140
-332,475	800,000	-0,008	-0,023
-331,460	-200,000	-0,036	0,115
-330,445	-200,000	0,006	-0,086
-329,431	71,887	-0,087	-0,065
-328,416	-150,390	0,123	-0,007
-327,402	800,000	-0,037	0,082
-326,387	90,421	-0,081	-0,064
-325,372	367,183	-0,040	-0,057
-324,358	800,000	-0,079	-0,226
-323,343	-200,000	0,018	0,095
-322,329	-200,000	-0,001	0,033
-321,314	102,378	0,137	0,114
-320,299	330,614	0,097	0,134
-319,285	-36,942	0,122	-0,046
-318,270	-110,765	-0,094	0,014
-317,256	-200,000	-0,003	-0,067
-316,241	226,721	0,031	0,035
-315,226	-200,000	0,006	0,129
-314,212	800,000	0,033	0,097
-313,197	116,318	0,048	0,042
-312,183	138,155	0,069	0,065
-311,168	-19,143	0,143	0,063
-310,153	-200,000	0,051	-0,179
-309,139	-200,000	-0,012	-0,045
-308,124	263,962	0,140	-0,174
-307,110	-65,080	0,141	0,040
-306,095	264,463	0,074	0,092
-305,080	-200,000	-0,018	0,057
-304,066	-200,000	0,017	-0,063
-303,051	98,396	-0,094	-0,077
-302,037	110,760	0,023	-0,020
-301,022	-8,121	0,090	-0,043
-300,008	447,447	-0,043	0,068
-298,993	-200,000	-0,001	0,015
-297,978	386,917	0,078	0,115
-296,964	-200,000	0,045	-0,153
-295,949	584,740	-0,029	-0,051
-294,935	-69,582	-0,095	-0,026
-293,920	-84,851	0,121	0,027
-292,905	-200,000	-0,016	-0,065
-291,891	277,335	0,047	0,060
-290,876	-118,819	0,159	0,020
-289,862	-21,227	-0,110	-0,048
-288,847	338,689	-0,016	0,022
-287,832	-49,990	-0,054	-0,018
-286,818	-140,569	0,157	-0,011
-285,803	208,827	0,008	-0,009
-284,789	-200,000	0,003	-0,076
-283,774	239,567	0,050	-0,059
-282,759	800,000	0,027	-0,079
-281,745	-200,000	-0,013	-0,057
-280,730	-113,822	0,083	-0,011
-279,716	-135,573	0,086	0,007
-278,701	800,000	0,030	-0,068
-277,686	168,538	0,159	0,161
-276,672	-121,075	0,070	-0,008
-275,657	267,164	-0,078	0,097
-274,643	172,194	0,042	-0,043
-273,628	-133,827	0,014	0,001
-272,613	-136,671	0,120	0,010
-271,599	800,000	0,034	-0,076
-270,584	128,603	0,103	0,093
-269,570	1,877	0,139	0,071
-268,555	103,612	-0,059	0,049
-267,540	-57,181	0,079	-0,025
-266,526	194,608	0,068	-0,073
-265,511	10,618	0,111	0,060
-264,497	109,916	0,110	0,094
-263,482	421,545	0,052	0,080
-262,467	-200,000	-0,003	0,100
-261,453	369,831	0,046	-0,067
-260,438	115,491	-0,033	-0,029
-259,424	57,946	-0,104	-0,072
-258,409	101,763	-0,023	0,019
-257,395	-94,889	-0,056	-0,011
-256,380	-88,099	0,104	0,022
-255,365	800,000	0,046	-0,132
-254,351	-200,000	0,023	-0,103
-253,336	217,280	-0,136	0,155
-252,322	588,648	-0,060	-0,105
-251,307	-160,599	0,149	-0,006
-250,292	43,098	-0,038	0,025
-249,278	-200,000	-0,002	0,076
-248,263	-84,547	0,176	-0,039
-247,249	800,000	-0,053	0,150
-246,234	-200,000	-0,016	-0,064
-245,219	-50,778	-0,153	-0,051
-244,205	-63,104	-0,038	-0,011
-243,190	-77,022	0,055	-0,013
-242,176	-156,624	0,188	-0,008
-241,161	144,381	0,070	-0,067
-240,146	38,886	-0,028	-0,018
-239,132	155,006	-0,030	0,029
-238,117	22,243	-0,130	-0,075
-237,103	800,000	0,019	-0,051
-236,088	-164,043	-0,090	0,003
-235,073	556,173	0,027	0,046
-234,059	212,183	0,043	0,048
-233,044	-162,829	0,043	-0,001
-232,030	791,802	-0,044	0,087
-231,015	73,028	0,046	0,034
-230,000	-102,625	-0,147	-0,025
-228,986	509,910	0,009	0,015
-227,971	-17,390	0,050	0,022
-226,957	-115,884	0,042	0,005
-225,942	-153,511	-0,073	0,004
-224,927	-200,000	0,005	0,087
-223,913	406,425	-0,028	0,043
-222,898	55,424	-0,052	0,035
-221,884	-118,106	0,088	0,011
-220,869	800,000	0,044	0,098
-219,855	-200,000	-0,011	0,059
-218,840	41,899	-0,020	-0,013
-217,825	161,989	0,092	0,091
-216,811	-200,000	-0,008	-0,046
-215,796	-200,000	0,034	-0,204
-214,782	69,555	0,046	0,033
-213,767	208,983	0,043	-0,048
-212,752	-200,000	-0,045	0,147
-211,738	143,025	-0,021	0,020
-210,723	161,888	0,064	-0,064
-209,709	56,166	-0,113	-0,078
-208,694	73,865	0,057	-0,043
-207,679	69,843	-0,073	0,054
-206,665	121,704	-0,074	0,065
-205,650	343,609	0,023	-0,032
-204,636	800,000	0,020	0,045
-203,621	800,000	-0,035	0,089
-202,606	-200,000	0,011	-0,094
-201,592	-0,683	-0,096	-0,048
-200,577	800,000	-0,032	-0,066
-199,563	442,172	-0,043	0,067
-198,548	64,352	0,034	0,024
-197,533	-167,253	0,100	-0,003
-196,519	-75,554	-0,061	-0,015
-195,504	-138,118	0,133	0,010
-194,490	800,000	-0,027	-0,078
-193,475	-49,327	-0,232	-0,078
-192,460	-200,000	0,027	0,124
-191,446	205,820	-0,073	-0,081
-190,431	192,224	0,047	0,050
-189,417	270,776	-0,032	0,041
-188,402	-200,000	-0,002	0,116
-187,387	-200,000	0,005	-0,168
-186,373	162,696	-0,064	-0,063
-185,358	-112,272	0,054	0,008
-184,344	-26,583	0,040	0,017
-183,329	-61,308	0,070	0,021
-182,315	-55,715	-0,027	-0,008
-181,300	-60,704	-0,180	-0,054
-180,285	-29,865	0,117	-0,047
-179,271	16,663	-0,199	-0,111
-178,256	452,755	-0,006	-0,009
-177,242	-200,000	0,004	-0,176
-176,227	71,950	0,090	0,066
-175,212	-163,413	0,066	-0,002
-174,198	174,066	-0,077	0,079
-173,183	-65,208	0,001	0,000
-172,169	-200,000	-0,012	-0,155
-171,154	35,932	0,104	-0,065
-170,139	-200,000	-0,039	0,175
-169,125	448,666	0,042	0,065
-168,110	-200,000	-0,021	-0,093
-167,096	137,750	-0,053	-0,050
-166,081	800,000	-0,030	0,074
-165,066	-161,430	-0,168	0,006
-164,052	-59,429	-0,051	0,015
-163,037	-106,496	-0,063	-0,010
-162,023	-200,000	-0,037	0,124
-161,008	20,024	-0,052	0,030
-159,993	800,000	-0,036	-0,082
-158,979	-102,872	-0,109	0,018
-157,964	-113,987	-0,163	0,022
-156,950	-126,818	-0,128	-0,013
-155,935	800,000	0,012	0,032
-154,920	800,000	0,031	0,082
-153,906	384,132	0,024	0,035
-152,891	118,503	-0,126	0,110
-151,877	-200,000	0,017	-0,169
-150,862	362,706	-0,024	0,034
-149,847	-200,000	-0,012	-0,058
-148,833	-127,104	0,056	-0,006
-147,818	491,405	-0,050	0,082
-146,804	151,979	-0,140	0,135
-145,789	800,000	0,012	0,033
-144,775	788,256	0,049	-0,095
-143,760	-200,000	0,003	-0,027
-142,745	-200,000	-0,001	-0,057
-141,731	-200,000	0,014	-0,111
-140,716	101,987	0,063	0,052
-139,702	-200,000	0,027	0,161
-138,687	10,604	0,063	-0,034
-137,672	-190,325	0,037	0,000
-136,658	800,000	0,013	-0,032
-135,643	30,048	0,091	-0,055
-134,629	-122,715	-0,127	-0,014
-133,614	-200,000	-0,020	-0,098
-132,599	-128,430	0,090	0,009
-131,585	54,849	0,072	0,049
-130,570	-200,000	-0,034	0,138
-129,556	735,849	0,053	-0,100
-128,541	-200,000	-0,001	-0,042
-127,526	-159,007	0,139	0,005
-126,512	609,217	0,067	0,118
-125,497	264,700	0,020	-0,024
-124,483	-47,000	-0,105	0,036
-123,468	51,088	0,107	0,072
-122,453	-54,468	-0,044	-0,014
-121,439	-200,000	-0,010	-0,102
-120,424	130,393	0,157	0,142
-119,410	221,664	-0,021	0,024
-118,395	204,673	0,104	0,114
-117,380	338,157	-0,047	0,065
-116,366	800,000	0,010	-0,025
-115,351	-200,000	0,071	-0,245
-114,337	800,000	-0,062	-0,172
-113,322	800,000	0,026	-0,052
-112,307	-112,019	-0,092	-0,013
-111,293	76,280	0,045	0,034
-110,278	800,000	0,025	-0,074
-109,264	-22,553	0,107	0,045
-108,249	-150,121	-0,066	0,004
-107,234	-200,000	0,017	-0,085
-106,220	-200,000	-0,021	-0,118
-105,205	-200,000	0,009	-0,051
-104,191	17,392	0,144	-0,080
-103,176	57,340	0,089	-0,061
-102,162	-4,030	0,215	-0,105
-101,147	800,000	0,028	-0,084
-100,132	243,558	0,081	-0,096
-99,118	15,956	-0,069	-0,038
-98,103	-123,006	-0,073	0,008
-97,089	384,129	-0,123	0,180
-96,074	-57,494	0,038	-0,012
-95,059	142,442	-0,037	0,035
-94,045	-11,732	0,129	-0,060
-93,030	131,285	-0,086	0,078
-92,016	-82,489	0,126	-0,029
-91,001	76,176	-0,074	-0,056
-89,986	800,000	0,076	-0,153
-88,972	46,000	0,011	0,007
-87,957	305,579	-0,053	-0,069
-86,943	-72,772	-0,070	0,018
-85,928	11,647	-0,110	-0,060
-84,913	-200,000	-0,009	0,052
-83,899	-21,913	-0,059	0,025
-82,884	612,282	0,074	-0,131
-81,870	-80,548	-0,136	-0,032
-80,855	55,505	0,107	0,073
-79,840	-108,548	-0,132	0,020
-78,826	-31,528	-0,020	0,008
-77,811	45,032	-0,137	-0,089
-76,797	79,674	-0,120	-0,091
-75,782	-200,000	0,007	-0,101
-74,767	332,264	0,074	0,101
-73,753	16,712	-0,127	0,071
-72,738	258,429	0,048	0,059
-71,724	1,687	0,109	0,055
-70,709	800,000	0,030	-0,072
-69,694	800,000	-0,004	-0,009
-68,680	-25,732	-0,097	-0,040
-67,665	-19,124	-0,046	0,020
-66,651	520,834	-0,021	0,035
-65,636	250,919	0,111	-0,133
-64,622	116,184	-0,063	0,055
-63,607	126,431	-0,023	-0,020
-62,592	-17,716	-0,097	0,043
-61,578	-48,752	0,060	0,020
-60,563	-200,000	0,046	0,152
-59,549	-200,000	-0,053	0,194
-58,534	51,708	-2,033	-1,362
-57,519	555,214	-1,172	-1,998
-56,505	-200,000	-0,153	-4,389
-55,490	466,970	0,821	1,303
-54,476	800,000	5,166	11,298
-53,461	-200,000	21,693	343,836
-52,446	800,000	763,382	2354,574
-51,432	551,565	1662,941	2828,095
-50,417	72,093	1658,895	1217,138
-49,403	17,434	1532,229	856,465
-48,388	11,347	1456,210	784,569
-47,373	19,373	1447,828	818,493
-46,359	14,940	1436,688	791,115
-45,344	9,712	1432,670	764,003
-44,330	9,608	1430,868	762,519
-43,315	9,605	1429,025	761,493
-42,300	9,658	1426,891	760,576
-41,286	9,691	1425,853	760,151
-40,271	9,595	1424,754	759,076
-39,257	9,624	1423,338	758,432
-38,242	9,644	1422,551	758,074
-37,227	9,630	1421,319	757,324
-36,213	9,681	1419,869	756,764
-35,198	9,638	1418,788	755,953
-34,184	9,720	1417,727	755,743
-33,169	9,644	1416,496	754,700
-32,154	9,659	1415,493	754,207
-31,140	9,635	1414,263	753,409
-30,125	9,690	1413,265	753,104
-29,111	9,668	1412,055	752,325
-28,096	9,673	1410,900	751,706
-27,082	9,611	1409,604	750,696
-26,067	9,579	1408,625	749,992
-25,052	9,618	1407,625	749,615
-24,038	9,623	1406,685	749,108
-23,023	9,589	1405,711	748,399
-22,009	9,618	1404,740	747,987
-20,994	9,583	1403,701	747,241
-19,979	9,604	1402,955	746,910
-18,965	9,605	1401,690	746,213
-17,950	9,554	1400,846	745,498
-16,936	9,552	1399,882	744,948
-15,921	9,431	1399,222	744,000
-14,906	9,517	1398,129	743,790
-13,892	9,567	1397,049	743,421
-12,877	9,523	1396,283	742,778
-11,863	9,488	1395,515	742,176
-10,848	9,482	1394,685	741,678
-9,833	9,453	1393,736	741,012
-8,819	9,420	1392,973	740,424
-7,804	9,415	1391,949	739,824
-6,790	9,416	1390,963	739,279
-5,775	9,422	1390,022	738,777
-4,760	9,433	1388,867	738,184
-3,746	9,435	1387,850	737,623
-2,731	9,454	1387,126	737,298
-1,717	9,402	1386,319	736,599
-0,702	9,384	1384,453	735,493
0,313	13,460	1296,757	707,505
1,327	29,300	687,613	410,951
2,342	45,688	118,603	77,152
3,356	-3,505	16,599	8,114
4,371	8,150	3,530	1,863
5,386	47,844	1,000	0,657
6,400	-200,000	0,080	0,563
7,415	-168,428	-0,135	-0,004
8,429	2,636	-0,295	-0,150
9,444	23,212	-0,311	-0,179
10,459	139,435	-0,189	-0,175
11,473	-14,237	-0,261	-0,118
12,488	-94,806	-0,184	-0,035
13,502	129,390	-0,337	-0,304
14,517	163,880	-0,282	-0,280
15,531	221,478	-0,289	-0,327
16,546	176,040	-0,296	-0,303
17,561	-23,374	-0,480	-0,202
18,575	258,209	-0,072	-0,088
19,590	9,486	-0,364	-0,193
20,604	5,305	-0,350	-0,181
21,619	277,563	-0,377	-0,473
22,634	242,524	-0,330	-0,390
23,648	4,573	-0,477	-0,246
24,663	169,118	-0,389	-0,391
25,677	191,580	-0,250	-0,265
26,692	23,474	-0,356	-0,205
27,707	199,631	-0,322	-0,348
28,721	94,160	-0,356	-0,284
29,736	63,676	-0,461	-0,325
30,750	800,000	-0,246	-0,491
31,765	155,099	-0,411	-0,398
32,780	70,388	-0,422	-0,306
33,794	28,205	-0,371	-0,220
34,809	143,416	-0,287	-0,269
35,823	43,249	-0,420	-0,269
36,838	74,352	-0,380	-0,280
37,853	228,761	-0,298	-0,342
38,867	55,877	-0,267	-0,182
39,882	-11,405	-0,400	-0,184
40,896	153,420	-0,221	-0,213
41,911	50,633	-0,314	-0,208
42,926	-0,013	-0,414	-0,207
43,940	34,979	-0,425	-0,261
44,955	107,997	-0,296	-0,248
45,969	96,196	-0,372	-0,299
46,984	101,094	-0,305	-0,249
47,999	98,984	-0,216	-0,176
49,013	666,081	-0,148	-0,270
50,028	154,393	-0,230	-0,222
51,042	188,966	-0,299	-0,315
52,057	184,815	-0,367	-0,383
53,071	4,518	-0,406	-0,208
54,086	311,667	-0,201	-0,266
55,101	90,612	-0,358	-0,282
56,115	142,370	-0,279	-0,260
57,130	36,764	-0,283	-0,175
58,144	-59,889	-0,413	-0,123
59,159	53,272	-0,313	-0,210
60,174	46,655	-0,540	-0,351
61,188	4,205	-0,335	-0,172
62,203	-24,822	-0,329	-0,136
63,217	-99,635	-0,250	-0,044
64,232	47,041	-0,334	-0,218
65,247	311,880	-0,180	-0,238
66,261	3,723	-0,398	-0,203
67,276	217,612	-0,310	-0,347
68,290	176,822	-0,368	-0,375
69,305	23,105	-0,312	-0,179
70,320	82,483	-0,298	-0,227
71,334	32,154	-0,389	-0,235
72,349	73,107	-0,313	-0,229
73,363	127,755	-0,340	-0,303
74,378	71,899	-0,384	-0,280
75,393	58,375	-0,419	-0,288
76,407	-8,281	-0,280	-0,131
77,422	110,054	-0,177	-0,149
78,436	-25,157	-0,235	-0,097
79,451	-32,979	-0,431	-0,167
80,466	800,000	-0,165	-0,328
81,480	-60,327	-0,365	-0,108
82,495	171,963	-0,280	-0,282
83,509	103,471	-0,213	-0,175
84,524	-42,668	-0,408	-0,144
85,539	-98,824	-0,228	-0,040
86,553	11,826	-0,215	-0,115
87,568	97,741	-0,297	-0,239
88,582	23,700	-0,267	-0,153
89,597	70,745	-0,357	-0,258
90,611	168,425	-0,186	-0,185
91,626	46,177	-0,299	-0,194
92,641	189,682	-0,291	-0,306
93,655	44,160	-0,244	-0,157
94,670	25,649	-0,347	-0,202
95,684	54,662	-0,315	-0,212
96,699	-55,948	-0,257	-0,080
97,714	48,756	-0,303	-0,199
98,728	4,978	-0,299	-0,154
99,743	12,394	-0,300	-0,161
100,757	-46,912	-0,192	-0,065
101,772	-51,304	-0,265	-0,086
102,787	118,979	-0,358	-0,309
103,801	80,276	-0,274	-0,206
104,816	305,342	-0,185	-0,240
105,830	-11,786	-0,272	-0,124
106,845	51,237	-0,192	-0,127
107,860	24,893	-0,306	-0,177
108,874	485,467	-0,133	-0,212
109,889	-189,576	-0,200	0,002
110,903	21,226	-0,215	-0,122
111,918	800,000	-0,143	-0,286
112,933	-62,774	-0,212	-0,061
113,947	339,557	-0,162	-0,220
114,962	-92,955	-0,201	-0,039
115,976	34,725	-0,300	-0,183
116,991	-11,897	-0,159	-0,073
118,006	118,039	-0,206	-0,177
119,020	19,957	-0,314	-0,176
120,035	182,124	-0,175	-0,180
121,049	-68,886	-0,236	-0,063
122,064	42,690	-0,220	-0,139
123,079	800,000	-0,108	-0,225
124,093	138,504	-0,303	-0,277
125,108	164,298	-0,261	-0,257
126,122	75,728	-0,326	-0,240
127,137	800,000	-0,118	-0,239
128,151	-89,705	-0,207	0,042
129,166	45,813	-0,303	-0,195
130,181	25,416	-0,160	-0,092
131,195	-53,716	-0,208	-0,066
132,210	70,083	-0,245	-0,176
133,224	-1,338	-0,267	-0,131
134,239	-41,965	-0,327	-0,116
135,254	-137,253	-0,241	-0,019
136,268	243,944	-0,186	-0,218
137,283	183,699	-0,258	-0,267
138,297	86,841	-0,301	-0,231
139,312	195,143	-0,210	-0,222
140,327	-13,587	-0,391	-0,176
141,341	71,593	-0,233	-0,168
142,356	291,131	-0,144	-0,183
143,370	52,759	-0,222	-0,148
144,385	-49,130	-0,292	-0,097
145,400	11,562	-0,286	-0,152
146,414	-200,000	-0,077	-0,246
147,429	-48,283	-0,252	-0,084
148,443	800,000	-0,091	-0,272
149,458	114,439	-0,209	-0,177
150,473	381,928	-0,166	-0,238
151,487	20,154	-0,237	-0,133
152,502	352,783	-0,243	-0,336
153,516	24,261	-0,190	-0,109
154,531	110,263	-0,205	-0,171
155,546	116,714	-0,190	-0,162
156,560	-57,221	-0,331	-0,101
157,575	150,750	-0,172	-0,163
158,589	-54,986	-0,274	-0,085
159,604	79,996	-0,329	-0,246
160,619	105,203	-0,244	-0,201
161,633	101,293	-0,225	-0,182
162,648	-29,651	-0,294	-0,116
163,662	87,279	-0,229	-0,176
164,677	-32,028	-0,285	-0,110
165,692	-79,838	-0,403	-0,093
166,706	132,329	-0,221	-0,198
167,721	800,000	-0,133	-0,274
168,735	37,538	-0,286	-0,176
169,750	-48,774	-0,247	-0,082
170,764	50,610	-0,314	-0,206
171,779	397,816	-0,105	-0,153
172,794	109,809	-0,118	-0,099
173,808	-150,942	-0,325	-0,017
174,823	144,125	-0,152	-0,141
175,837	44,220	-0,285	-0,181
176,852	173,665	-0,191	-0,192
177,867	43,067	-0,216	-0,137
178,881	26,643	-0,189	-0,109
179,896	18,889	-0,223	-0,124
180,910	325,107	-0,234	-0,311
181,925	87,285	-0,184	-0,141
182,940	129,910	-0,184	-0,164
183,954	-0,682	-0,230	-0,113
184,969	12,689	-0,251	-0,134
185,983	-95,172	-0,134	-0,025
186,998	469,347	-0,109	-0,171
188,013	281,930	-0,170	-0,212
189,027	234,335	-0,139	-0,159
190,042	-23,003	-0,273	-0,114
191,056	-200,000	-0,073	-0,515
192,071	-27,859	-0,193	-0,077
193,086	24,733	-0,200	-0,115
194,100	-35,246	-0,246	-0,092
195,115	-97,433	-0,244	-0,044
196,129	35,784	-0,239	-0,145
197,144	124,705	-0,245	-0,214
198,159	303,266	-0,154	-0,199
199,173	61,605	-0,125	-0,086
200,188	-41,911	-0,126	-0,045
201,202	-104,187	-0,143	-0,023
202,217	276,301	-0,157	-0,193
203,232	447,379	-0,226	-0,345
204,246	101,660	-0,244	-0,197
205,261	-82,453	-0,294	-0,066
206,275	7,735	-0,161	-0,083
207,290	-68,431	-0,172	-0,046
208,304	-115,878	-0,158	-0,020
209,319	-8,142	-0,142	-0,066
210,334	-54,539	-0,321	-0,100
211,348	585,363	-0,108	-0,185
212,363	209,210	-0,197	-0,214
213,377	222,713	-0,106	-0,118
214,392	-67,011	-0,200	-0,054
215,407	-33,081	-0,152	-0,058
216,421	-37,445	-0,220	-0,081
217,436	49,128	-0,149	-0,097
218,450	108,520	-0,193	-0,159
219,465	188,236	-0,230	-0,238
220,480	78,342	-0,184	-0,136
221,494	398,760	-0,112	-0,162
222,509	-9,912	-0,117	0,054
223,523	63,670	-0,191	-0,132
224,538	-49,770	-0,214	-0,070
225,553	76,818	-0,156	-0,114
226,567	86,960	-0,271	-0,207
227,582	78,134	-0,114	-0,084
228,596	307,012	-0,167	-0,216
229,611	-200,000	-0,005	-0,102
230,626	-50,459	-0,219	-0,071
231,640	135,542	-0,166	-0,149
232,655	800,000	-0,142	-0,316
233,669	800,000	-0,103	-0,232
234,684	-28,533	-0,382	-0,151
235,699	259,136	-0,092	-0,110
236,713	4,792	-0,226	-0,114
237,728	72,764	-0,198	-0,142
238,742	-37,819	-0,137	-0,050
239,757	-115,859	-0,187	-0,024
240,772	77,276	-0,150	-0,110
241,786	332,615	-0,219	-0,293
242,801	125,675	-0,206	-0,179
243,815	800,000	-0,072	-0,147
244,830	-64,323	-0,271	-0,076
245,844	231,989	-0,154	-0,175
246,859	10,279	-0,185	-0,097
247,874	170,216	-0,188	-0,186
248,888	-15,478	-0,269	-0,118
249,903	-200,000	-0,047	-0,173
250,917	244,098	-0,137	-0,159
251,932	246,903	-0,112	-0,130
252,947	230,809	-0,121	-0,137
253,961	94,005	-0,112	-0,087
254,976	-26,111	-0,183	-0,074
255,990	110,425	-0,220	-0,182
257,005	271,560	-0,143	-0,174
258,020	-61,899	-0,087	0,025
259,034	800,000	-0,082	-0,159
260,049	303,446	-0,112	-0,144
261,063	336,210	-0,147	-0,197
262,078	109,696	-0,164	-0,135
263,093	-109,162	-0,201	-0,029
264,107	101,099	-0,169	-0,135
265,122	421,054	-0,073	-0,108
266,136	122,709	-0,121	-0,104
267,151	59,157	-0,066	-0,045
268,166	27,952	-0,187	-0,108
269,180	431,116	-0,148	-0,222
270,195	76,112	-0,234	-0,170
271,209	105,419	-0,131	-0,107
272,224	344,745	-0,050	-0,067
273,239	-110,295	-0,245	-0,035
274,253	140,875	-0,156	-0,142
275,268	132,724	-0,243	-0,216
276,282	731,186	-0,168	-0,310
277,297	102,702	-0,232	-0,187
278,312	369,861	-0,107	-0,150
279,326	501,471	-0,087	-0,139
280,341	32,221	-0,161	-0,095
281,355	428,044	-0,040	-0,060
282,370	1,556	-0,156	-0,077
283,384	63,707	-0,133	-0,092
284,399	800,000	-0,081	-0,163
285,414	5,930	-0,258	-0,131
286,428	96,471	-0,056	-0,044
287,443	87,219	-0,070	0,053
288,457	-17,061	-0,158	-0,068
289,472	-95,853	-0,159	0,029
290,487	-72,090	-0,174	0,044
291,501	-200,000	-0,051	-0,248
292,516	53,137	-0,249	-0,163
293,530	-109,192	-0,107	-0,015
294,545	94,604	-0,100	-0,078
295,560	36,249	-0,029	0,017
296,574	-200,000	-0,018	-0,086
297,589	169,602	-0,186	-0,182
298,603	144,170	-0,148	-0,136
299,618	800,000	-0,106	-0,240
300,633	38,600	-0,172	-0,105
301,647	-137,280	-0,139	-0,011
302,662	2,447	-0,090	0,044
303,676	-200,000	-0,019	-0,183
304,691	-36,150	-0,178	-0,066
305,706	67,600	-0,139	-0,097
306,720	271,446	-0,073	-0,088
307,735	401,606	-0,093	-0,134
308,749	59,068	-0,108	-0,073
309,764	4,549	-0,104	-0,052
310,779	-37,028	-0,220	-0,081
311,793	87,297	-0,071	-0,054
312,808	353,435	-0,089	-0,121
313,822	23,239	-0,095	-0,053
314,837	800,000	-0,119	-0,249
315,852	-20,314	-0,162	-0,068
316,866	-200,000	-0,088	0,000
317,881	285,772	-0,093	-0,116
318,895	-4,463	-0,227	-0,107
319,910	-64,678	-0,069	0,019
320,925	-41,087	-0,164	-0,058
321,939	-106,884	-0,075	0,011
322,954	163,989	-0,094	-0,091
323,968	-18,095	-0,125	0,053
324,983	791,281	-0,077	0,146
325,997	-143,661	-0,230	-0,015
327,012	176,594	-0,091	-0,091
328,027	-62,269	-0,119	-0,034
329,041	39,992	-0,184	-0,113
330,056	800,000	-0,012	0,030
331,070	125,757	-0,133	-0,115
332,085	32,931	-0,127	-0,075
333,100	194,743	-0,126	-0,132
334,114	-108,850	-0,100	-0,014
335,129	800,000	-0,125	-0,267
336,143	-125,687	-0,122	0,013
337,158	800,000	-0,075	-0,175
338,173	-129,745	-0,122	-0,011
339,187	248,013	-0,041	-0,047
340,202	-121,313	-0,066	-0,007
341,216	509,118	-0,156	-0,249
342,231	199,547	-0,122	-0,128
343,246	84,690	-0,188	-0,141
344,260	413,243	-0,048	-0,069
345,275	-200,000	-0,079	-0,280
346,289	-91,246	-0,129	-0,025
347,304	38,329	-0,102	-0,062
348,319	39,981	-0,142	-0,087
349,333	50,858	-0,201	-0,130
350,348	119,170	-0,162	-0,137
351,362	4,142	-0,194	-0,097
352,377	-100,657	-0,132	-0,022
353,392	-200,000	0,005	0,041
354,406	108,658	-0,118	-0,096
355,421	207,209	1305,860	1394,105
356,435	159,392	1465,464	1394,578
