DTS Sentinel unit serial number:	SN410029Multiplexer serial number:	ORYXHardware model number:	OX2-SRSoftware version number:	ORYX F/W v4,00 Oryx Data Collector v3.7.2.0data status	okinstallation	B3 Nyhavnadifferential loss correction	single-endedforward channel	channel 1reverse channel	N/Adate	2023/12/05time	04:42:30forward acquisition time	300,00reverse acquisition time	0,00gamma	499,1914k internal	0,3201k external	0,3201temperature offset calibration	1,0000default loss term (dB/km)	0,3820temperature slope calibration	1,0000multiplexer offset coefficient	1,0000multiplexer slope coefficient	1,0000fibre end	0,00T internal ref (°C)	14,13T ext. ref 1 (°C)	-0,89T ext. ref 2 (°C)	-0,92length (m)	temperature (°C)	Stokes	anti-Stokes-744,400	800,000	-0,148	-0,331
-743,385	-200,000	0,027	0,293
-742,371	435,241	-0,141	-0,224
-741,356	-200,000	-0,050	0,317
-740,342	139,011	-0,067	-0,064
-739,327	-200,000	-0,021	0,349
-738,312	45,772	-0,255	-0,171
-737,298	-200,000	0,001	0,300
-736,283	210,441	-0,233	-0,267
-735,269	-200,000	0,073	0,324
-734,254	47,220	-0,282	-0,191
-733,239	-170,077	-0,183	0,005
-732,225	800,000	-0,119	-0,294
-731,210	-194,442	0,172	0,001
-730,196	800,000	-0,078	-0,157
-729,181	-146,158	-0,113	0,007
-728,167	86,865	0,122	0,098
-727,152	119,812	-0,059	0,053
-726,137	-155,215	0,055	-0,003
-725,123	-106,373	-0,169	0,027
-724,108	-142,339	-0,050	-0,004
-723,094	-200,000	0,021	0,124
-722,079	-147,124	-0,075	0,005
-721,064	-62,215	0,048	-0,015
-720,050	-108,419	-0,178	0,028
-719,035	800,000	-0,010	0,026
-718,021	76,120	0,053	0,041
-717,006	-200,000	-0,012	-0,064
-715,991	-200,000	-0,023	-0,165
-714,977	-124,287	-0,066	-0,007
-713,962	244,087	0,019	0,023
-712,948	-200,000	-0,004	0,057
-711,933	800,000	-0,075	0,181
-710,918	77,356	-0,086	-0,066
-709,904	-35,867	-0,098	0,038
-708,889	-3,771	-0,092	0,046
-707,875	-61,140	-0,206	-0,063
-706,860	-118,594	0,069	-0,009
-705,845	-88,865	-0,154	-0,033
-704,831	-148,070	-0,073	-0,004
-703,816	347,929	0,003	0,004
-702,802	-200,000	-0,005	-0,094
-701,787	-200,000	-0,039	-0,203
-700,772	109,082	-0,050	0,043
-699,758	-52,671	-0,133	0,044
-698,743	800,000	0,036	0,106
-697,729	800,000	-0,044	-0,134
-696,714	-200,000	0,004	0,139
-695,699	782,493	-0,069	-0,138
-694,685	253,940	0,052	-0,065
-693,670	276,920	0,019	-0,024
-692,656	100,272	0,017	-0,014
-691,641	-161,039	-0,092	-0,003
-690,627	-110,169	0,174	-0,026
-689,612	-200,000	0,015	0,078
-688,597	96,459	-0,052	0,044
-687,583	56,763	0,105	0,074
-686,568	-61,989	-0,143	0,043
-685,554	140,054	0,036	0,034
-684,539	207,099	0,062	0,070
-683,524	800,000	0,060	0,172
-682,510	-98,244	-0,107	0,020
-681,495	-145,787	0,083	-0,005
-680,481	25,150	0,045	0,027
-679,466	423,025	-0,059	-0,092
-678,451	-14,379	-0,096	-0,044
-677,437	31,778	-0,032	0,020
-676,422	800,000	-0,040	0,095
-675,408	-200,000	0,008	0,035
-674,393	333,530	-0,053	0,075
-673,378	-93,682	-0,203	-0,040
-672,364	-200,000	-0,030	-0,120
-671,349	-200,000	0,010	-0,072
-670,335	-13,491	0,079	-0,037
-669,320	-200,000	-0,003	0,091
-668,305	312,513	0,048	0,065
-667,291	154,609	-0,075	0,075
-666,276	-200,000	-0,059	-0,193
-665,262	-200,000	0,038	-0,196
-664,247	-200,000	0,017	-0,064
-663,232	800,000	0,004	-0,008
-662,218	800,000	0,039	0,084
-661,203	10,239	-0,057	-0,031
-660,189	800,000	-0,077	0,210
-659,174	800,000	-0,030	0,067
-658,159	38,119	-0,011	0,007
-657,145	-113,295	0,086	-0,012
-656,130	-200,000	0,024	-0,099
-655,116	232,229	-0,061	-0,073
-654,101	800,000	0,041	-0,087
-653,086	-200,000	0,005	-0,048
-652,072	-62,194	-0,240	-0,072
-651,057	-66,625	-0,041	0,012
-650,043	-200,000	-0,032	-0,145
-649,028	23,501	-0,148	-0,088
-648,014	-200,000	-0,021	0,084
-646,999	401,664	-0,076	0,116
-645,984	335,784	0,023	-0,032
-644,970	212,485	0,015	-0,017
-643,955	-100,402	-0,039	0,007
-642,941	-87,830	0,091	-0,020
-641,926	364,237	-0,066	0,097
-640,911	-200,000	-0,002	0,112
-639,897	-200,000	0,010	-0,040
-638,882	-200,000	0,002	0,092
-637,868	-126,129	0,218	-0,023
-636,853	-90,172	-0,121	0,025
-635,838	102,292	-0,113	-0,096
-634,824	-200,000	0,008	-0,061
-633,809	31,688	0,115	0,071
-632,795	75,516	0,074	0,057
-631,780	-44,431	-0,059	0,021
-630,765	800,000	-0,053	-0,119
-629,751	129,996	-0,113	-0,104
-628,736	328,171	-0,041	-0,058
-627,722	-96,514	-0,104	-0,020
-626,707	88,131	0,143	-0,115
-625,692	-73,807	-0,026	-0,007
-624,678	800,000	-0,066	0,142
-623,663	461,721	0,040	0,065
-622,649	-33,503	-0,189	0,075
-621,634	-200,000	0,003	-0,034
-620,619	-200,000	-0,010	0,075
-619,605	-200,000	0,009	0,096
-618,590	-99,054	0,024	-0,004
-617,576	-167,896	-0,147	-0,004
-616,561	800,000	0,021	-0,064
-615,546	-127,808	-0,114	-0,012
-614,532	-200,000	-0,019	-0,102
-613,517	300,701	-0,077	-0,104
-612,503	-200,000	0,009	-0,100
-611,488	-194,420	-0,039	-0,000
-610,474	-69,535	-0,038	0,011
-609,459	-200,000	0,012	-0,119
-608,444	3,096	-0,011	0,006
-607,430	-200,000	-0,028	-0,150
-606,415	-200,000	-0,005	-0,101
-605,401	-13,950	0,132	-0,062
-604,386	88,976	0,168	-0,135
-603,371	-200,000	-0,008	0,119
-602,357	-51,070	0,050	-0,017
-601,342	330,991	0,089	-0,124
-600,328	672,281	0,017	-0,032
-599,313	-113,218	-0,093	-0,013
-598,298	-146,588	0,108	-0,007
-597,284	28,321	-0,031	-0,019
-596,269	7,587	0,109	-0,059
-595,255	59,883	-0,065	-0,047
-594,240	-142,591	0,055	-0,004
-593,225	-35,499	-0,116	0,045
-592,211	-25,983	-0,124	0,052
-591,196	73,816	0,115	0,087
-590,182	800,000	0,069	0,146
-589,167	800,000	0,068	0,167
-588,152	363,006	0,017	-0,025
-587,138	-166,506	-0,157	0,005
-586,123	12,624	-0,157	-0,087
-585,109	481,328	0,031	0,052
-584,094	64,599	-0,025	0,018
-583,079	-139,397	0,095	0,007
-582,065	-183,236	-0,119	-0,001
-581,050	173,633	-0,043	-0,045
-580,036	471,562	0,062	0,101
-579,021	-97,859	-0,087	0,016
-578,006	-104,830	-0,044	-0,007
-576,992	83,763	-0,091	-0,072
-575,977	800,000	0,037	-0,091
-574,963	-200,000	-0,012	0,051
-573,948	40,559	-0,130	0,085
-572,934	22,490	0,152	-0,089
-571,919	348,511	-0,058	-0,083
-570,904	193,637	0,147	-0,161
-569,890	-1,948	0,147	-0,074
-568,875	-200,000	0,003	0,020
-567,861	-200,000	0,018	0,080
-566,846	-76,170	0,140	-0,035
-565,831	-135,660	-0,112	-0,009
-564,817	-200,000	-0,016	0,064
-563,802	368,571	0,044	0,064
-562,788	-70,009	0,079	-0,021
-561,773	101,398	0,056	0,047
-560,758	-200,000	0,004	-0,086
-559,744	-113,062	0,056	-0,008
-558,729	-200,000	0,042	0,170
-557,715	-200,000	-0,018	-0,177
-556,700	800,000	0,058	-0,117
-555,685	326,415	-0,044	-0,062
-554,671	800,000	0,023	0,050
-553,656	345,235	-0,036	-0,051
-552,642	800,000	0,047	0,138
-551,627	-200,000	0,019	0,162
-550,612	800,000	0,068	0,163
-549,598	800,000	-0,086	-0,195
-548,583	-200,000	-0,019	-0,076
-547,569	-200,000	0,014	-0,051
-546,554	113,921	0,042	-0,037
-545,539	256,761	0,107	0,133
-544,525	-200,000	0,011	0,144
-543,510	88,706	-0,121	0,097
-542,496	139,638	-0,038	-0,036
-541,481	800,000	-0,026	0,076
-540,466	454,271	-0,006	-0,010
-539,452	165,292	-0,020	0,020
-538,437	-146,773	0,083	-0,005
-537,423	-107,055	-0,142	-0,022
-536,408	10,302	0,117	-0,064
-535,393	800,000	-0,048	0,109
-534,379	-200,000	-0,088	-0,000
-533,364	-67,136	0,218	0,061
-532,350	800,000	0,040	0,126
-531,335	197,892	0,079	0,087
-530,321	800,000	-0,020	-0,054
-529,306	-200,000	0,046	0,150
-528,291	353,465	0,052	-0,075
-527,277	-34,747	-0,004	0,002
-526,262	218,301	0,012	-0,014
-525,248	-200,000	-0,001	-0,082
-524,233	295,200	-0,036	0,048
-523,218	95,262	-0,048	-0,039
-522,204	800,000	0,074	-0,163
-521,189	800,000	-0,038	-0,085
-520,175	-121,184	-0,167	0,020
-519,160	-200,000	-0,017	-0,064
-518,145	-142,206	-0,022	-0,002
-517,131	316,328	-0,046	0,063
-516,116	-200,000	-0,031	0,103
-515,102	102,892	0,046	-0,039
-514,087	449,160	0,041	0,065
-513,072	114,048	-0,064	-0,056
-512,058	800,000	0,040	-0,114
-511,043	-0,317	-0,076	0,039
-510,029	428,336	0,042	-0,066
-509,014	189,818	0,080	0,086
-507,999	633,829	0,064	-0,117
-506,985	-200,000	0,003	-0,020
-505,970	340,462	0,082	-0,116
-504,956	46,723	0,052	0,035
-503,941	-200,000	0,004	0,029
-502,926	57,483	0,131	0,092
-501,912	-109,206	0,127	-0,019
-500,897	800,000	0,029	0,069
-499,883	-200,000	0,006	0,031
-498,868	159,789	-0,107	-0,108
-497,853	800,000	-0,006	-0,015
-496,839	-15,512	0,167	-0,076
-495,824	-68,628	-0,087	0,024
-494,810	-200,000	0,018	0,065
-493,795	276,958	-0,049	0,063
-492,781	-200,000	0,000	-0,049
-491,766	-200,000	0,032	-0,142
-490,751	-137,297	0,075	0,006
-489,737	-200,000	-0,001	0,019
-488,722	-172,097	-0,022	-0,001
-487,708	175,423	-0,079	0,082
-486,693	-200,000	0,009	0,066
-485,678	113,520	-0,061	-0,054
-484,664	-79,061	-0,095	0,023
-483,649	652,885	-0,041	-0,075
-482,635	-122,265	0,107	-0,012
-481,620	800,000	-0,035	0,083
-480,605	-140,264	-0,073	0,005
-479,591	38,248	0,045	0,029
-478,576	-170,418	-0,146	0,004
-477,562	-200,000	-0,001	0,094
-476,547	-8,351	0,022	-0,010
-475,532	469,315	-0,079	-0,129
-474,518	156,931	0,017	-0,017
-473,503	800,000	0,029	-0,069
-472,489	138,977	-0,141	0,134
-471,474	716,584	0,055	-0,105
-470,459	-200,000	-0,014	-0,117
-469,445	-77,673	0,035	0,009
-468,430	420,336	0,047	0,072
-467,416	640,483	0,088	-0,161
-466,401	24,546	0,052	0,031
-465,386	-200,000	-0,024	-0,108
-464,372	800,000	-0,044	0,100
-463,357	-65,738	0,049	0,014
-462,343	-141,154	-0,141	0,010
-461,328	28,069	0,032	-0,019
-460,313	-200,000	-0,014	0,055
-459,299	-191,470	0,138	-0,001
-458,284	-200,000	-0,008	-0,157
-457,270	-200,000	0,025	0,117
-456,255	800,000	0,008	0,018
-455,241	-200,000	-0,007	-0,069
-454,226	276,659	0,071	-0,091
-453,211	-200,000	-0,020	0,094
-452,197	800,000	0,030	-0,078
-451,182	800,000	0,070	-0,155
-450,168	773,559	-0,028	-0,054
-449,153	800,000	-0,007	-0,015
-448,138	226,051	-0,104	-0,122
-447,124	-86,591	-0,079	0,017
-446,109	-104,515	-0,070	0,012
-445,095	-34,893	0,065	0,025
-444,080	800,000	-0,050	-0,111
-443,065	-200,000	0,045	0,152
-442,051	800,000	0,022	-0,046
-441,036	-200,000	-0,006	-0,058
-440,022	800,000	-0,059	-0,152
-439,007	-140,733	-0,046	0,003
-437,992	-200,000	0,015	0,085
-436,978	-200,000	0,014	0,207
-435,963	-200,000	-0,010	0,100
-434,949	-200,000	0,028	0,170
-433,934	-118,265	-0,146	0,018
-432,919	-200,000	-0,012	-0,046
-431,905	-114,489	-0,015	0,002
-430,890	139,762	0,054	0,051
-429,876	-200,000	0,012	0,062
-428,861	-37,688	0,059	0,022
-427,846	466,984	-0,035	-0,056
-426,832	-200,000	-0,019	0,088
-425,817	-200,000	0,006	0,037
-424,803	-200,000	-0,004	0,024
-423,788	-157,409	0,108	0,005
-422,773	71,712	0,037	-0,027
-421,759	-200,000	-0,009	0,056
-420,744	692,454	-0,054	0,103
-419,730	22,864	-0,092	0,054
-418,715	-75,392	-0,157	0,040
-417,701	-125,952	0,097	0,010
-416,686	780,137	0,038	0,076
-415,671	44,539	0,049	0,032
-414,657	218,090	0,033	-0,038
-413,642	462,103	-0,065	-0,105
-412,628	800,000	0,023	-0,065
-411,613	581,719	-0,031	-0,055
-410,598	-200,000	-0,010	-0,043
-409,584	800,000	0,060	-0,126
-408,569	213,981	-0,173	0,197
-407,555	182,966	0,099	0,105
-406,540	-15,571	0,055	-0,025
-405,525	-57,925	0,009	-0,003
-404,511	285,029	-0,021	0,027
-403,496	85,908	-0,057	0,045
-402,482	800,000	-0,041	-0,131
-401,467	-200,000	-0,018	0,100
-400,452	103,640	0,084	-0,071
-399,438	58,950	0,041	-0,029
-398,423	800,000	0,032	0,074
-397,409	102,083	-0,050	0,042
-396,394	59,885	0,022	0,015
-395,379	800,000	0,056	-0,144
-394,365	-14,513	0,002	-0,001
-393,350	-161,830	-0,049	0,002
-392,336	332,391	-0,062	-0,086
-391,321	492,999	-0,076	0,125
-390,306	110,182	0,034	0,029
-389,292	435,941	-0,094	-0,147
-388,277	-71,417	0,073	0,020
-387,263	61,494	0,046	-0,033
-386,248	-70,202	0,095	0,026
-385,233	-200,000	-0,009	0,131
-384,219	172,010	-0,050	-0,051
-383,204	-85,245	0,108	0,024
-382,190	-200,000	-0,006	-0,039
-381,175	800,000	0,023	0,067
-380,160	-9,302	-0,003	0,002
-379,146	-200,000	0,009	0,045
-378,131	-188,226	0,073	-0,001
-377,117	-56,847	0,126	-0,040
-376,102	113,157	-0,082	0,071
-375,088	293,674	-0,085	0,112
-374,073	-23,898	-0,134	-0,057
-373,058	-22,840	-0,044	0,019
-372,044	-188,731	-0,051	-0,000
-371,029	-200,000	-0,009	0,082
-370,015	-90,172	0,084	0,017
-369,000	100,928	-0,020	0,017
-367,985	-200,000	0,003	-0,124
-366,971	-200,000	0,007	0,117
-365,956	220,688	-0,039	0,045
-364,942	-200,000	-0,030	0,111
-363,927	766,350	-0,088	0,173
-362,912	800,000	-0,028	0,081
-361,898	318,501	0,058	-0,080
-360,883	-51,383	-0,098	-0,033
-359,869	152,159	0,058	-0,056
-358,854	-85,870	0,115	-0,025
-357,839	23,567	-0,084	0,050
-356,825	-82,467	-0,087	-0,020
-355,810	-31,980	0,062	0,025
-354,796	-70,366	-0,081	-0,022
-353,781	45,872	-0,137	0,091
-352,766	36,263	0,052	-0,033
-351,752	59,379	0,089	-0,063
-350,737	-200,000	0,059	0,237
-349,723	48,550	-0,109	0,073
-348,708	-200,000	-0,003	-0,048
-347,693	-200,000	0,018	-0,095
-346,679	24,607	-0,154	-0,091
-345,664	86,117	0,051	0,040
-344,650	-86,763	0,030	0,007
-343,635	29,672	0,105	-0,064
-342,620	170,062	-0,056	-0,058
-341,606	14,424	0,105	-0,059
-340,591	-200,000	0,013	-0,043
-339,577	-166,932	-0,090	-0,003
-338,562	317,540	0,091	-0,124
-337,548	119,192	-0,057	-0,050
-336,533	128,273	-0,032	-0,029
-335,518	-200,000	-0,028	0,132
-334,504	-4,311	0,073	0,036
-333,489	28,851	-0,109	-0,066
-332,475	-94,027	-0,013	-0,003
-331,460	-200,000	-0,019	-0,102
-330,445	-90,426	-0,068	-0,014
-329,431	-116,909	-0,074	0,010
-328,416	-200,000	0,031	-0,155
-327,402	-16,271	0,017	0,008
-326,387	800,000	0,044	-0,106
-325,372	-108,833	0,036	0,006
-324,358	-167,180	-0,092	0,003
-323,343	-200,000	0,032	-0,149
-322,329	-89,243	-0,110	0,023
-321,314	6,795	0,020	0,010
-320,299	40,574	0,044	-0,029
-319,285	-36,704	-0,060	-0,023
-318,270	-66,098	0,124	0,035
-317,256	-100,501	-0,147	0,026
-316,241	-200,000	-0,011	-0,153
-315,226	340,819	-0,010	0,015
-314,212	800,000	-0,037	0,097
-313,197	108,011	-0,070	-0,060
-312,183	-153,344	0,067	0,003
-311,168	-200,000	0,000	0,006
-310,153	232,289	-0,021	0,024
-309,139	780,462	-0,062	0,123
-308,124	45,922	0,039	0,026
-307,110	418,625	-0,083	0,128
-306,095	-200,000	-0,002	0,184
-305,080	375,615	0,026	0,038
-304,066	195,494	0,021	0,023
-303,051	61,317	-0,050	0,035
-302,037	44,761	-0,033	0,022
-301,022	136,930	0,105	-0,098
-300,008	-200,000	0,087	-0,000
-298,993	-122,284	0,196	-0,023
-297,978	800,000	-0,028	0,065
-296,964	129,061	-0,046	-0,042
-295,949	532,868	-0,017	0,029
-294,935	800,000	-0,036	-0,076
-293,920	-71,302	-0,183	-0,049
-292,905	-108,532	0,111	0,017
-291,891	800,000	0,044	-0,107
-290,876	70,695	0,050	-0,037
-289,862	-18,863	-0,038	0,017
-288,847	-90,395	-0,061	0,013
-287,832	77,825	-0,088	-0,067
-286,818	-200,000	-0,020	-0,080
-285,803	156,073	0,069	0,068
-284,789	-200,000	-0,015	0,083
-283,774	-84,361	0,052	-0,012
-282,759	3,963	-0,033	-0,017
-281,745	-6,587	-0,046	0,022
-280,730	195,935	-0,089	0,097
-279,716	-131,235	-0,125	0,012
-278,701	3,038	-0,061	0,031
-277,686	5,908	0,030	0,016
-276,672	462,886	0,006	-0,010
-275,657	-67,794	0,081	-0,023
-274,643	105,033	-0,045	-0,038
-273,628	-200,000	0,002	-0,073
-272,613	-126,630	0,057	-0,006
-271,599	800,000	0,035	-0,074
-270,584	467,589	0,040	0,065
-269,570	-103,058	0,078	-0,013
-268,555	800,000	-0,030	0,077
-267,540	74,651	0,115	-0,087
-266,526	800,000	-0,034	-0,083
-265,511	-83,750	-0,065	-0,015
-264,497	326,610	0,065	-0,090
-263,482	86,615	0,040	0,031
-262,467	20,225	0,056	0,032
-261,453	382,386	0,030	0,043
-260,438	56,055	0,086	0,059
-259,424	-71,734	-0,098	-0,026
-258,409	-200,000	0,014	-0,167
-257,395	18,181	0,093	0,053
-256,380	0,320	-0,032	0,016
-255,365	92,609	-0,136	-0,109
-254,351	184,647	-0,027	0,028
-253,336	42,265	-0,100	-0,065
-252,322	-200,000	0,005	-0,036
-251,307	497,946	-0,038	-0,063
-250,292	-200,000	0,004	-0,148
-249,278	-14,747	-0,051	-0,023
-248,263	82,228	0,132	0,102
-247,249	-58,392	0,191	0,059
-246,234	55,146	-0,025	0,017
-245,219	-200,000	-0,032	-0,111
-244,205	-116,037	0,067	0,009
-243,190	179,605	0,045	0,047
-242,176	-200,000	0,004	0,020
-241,161	317,069	-0,090	0,122
-240,146	-83,008	-0,078	-0,018
-239,132	350,238	-0,073	0,104
-238,117	800,000	-0,049	-0,108
-237,103	800,000	-0,007	-0,020
-236,088	-200,000	-0,000	-0,082
-235,073	133,143	0,043	0,039
-234,059	315,194	-0,017	-0,022
-233,044	-200,000	0,008	0,141
-232,030	-64,941	-0,069	-0,020
-231,015	800,000	-0,078	-0,172
-230,000	121,618	-0,076	-0,068
-228,986	55,661	0,033	-0,023
-227,971	160,952	-0,108	0,107
-226,957	-41,005	0,125	-0,046
-225,942	-200,000	0,007	-0,061
-224,927	288,220	0,090	-0,117
-223,913	-53,610	0,041	0,013
-222,898	-60,181	0,080	0,024
-221,884	82,292	-0,120	0,093
-220,869	800,000	0,076	0,162
-219,855	800,000	0,026	0,072
-218,840	101,520	-0,050	-0,042
-217,825	-61,401	0,182	0,054
-216,811	21,734	0,106	0,061
-215,796	-200,000	-0,032	-0,107
-214,782	800,000	0,044	-0,088
-213,767	-43,966	-0,053	0,019
-212,752	800,000	-0,044	0,134
-211,738	651,471	0,077	0,141
-210,723	13,693	0,052	0,029
-209,709	-95,643	-0,135	0,026
-208,694	800,000	-0,042	-0,099
-207,679	180,018	0,015	-0,016
-206,665	-200,000	0,030	-0,156
-205,650	800,000	-0,031	0,089
-204,636	-200,000	0,010	0,038
-203,621	-115,590	0,039	0,005
-202,606	-67,223	-0,075	-0,021
-201,592	-184,572	-0,087	-0,001
-200,577	-200,000	-0,001	-0,062
-199,563	234,733	0,010	0,012
-198,548	-57,367	0,092	0,029
-197,533	-88,026	0,031	0,007
-196,519	23,530	0,103	-0,060
-195,504	-59,780	-0,112	-0,034
-194,490	-15,112	-0,038	-0,017
-193,475	-200,000	-0,017	-0,068
-192,460	1,407	-0,089	-0,045
-191,446	-200,000	0,005	0,102
-190,431	-59,420	0,021	0,007
-189,417	254,571	-0,064	0,078
-188,402	5,638	0,109	0,057
-187,387	-200,000	0,008	0,029
-186,373	-200,000	-0,010	-0,088
-185,358	263,803	-0,092	0,115
-184,344	29,769	0,114	0,069
-183,329	308,503	0,062	0,082
-182,315	447,063	0,003	0,004
-181,300	-23,521	-0,118	0,050
-180,285	-175,910	0,049	0,001
-179,271	-200,000	-0,036	-0,119
-178,256	-55,848	-0,124	-0,039
-177,242	63,353	0,091	0,065
-176,227	-47,084	0,108	0,037
-175,212	-200,000	0,001	-0,010
-174,198	612,198	-0,053	0,095
-173,183	63,940	-0,018	0,013
-172,169	265,537	0,046	0,057
-171,154	184,562	-0,036	0,038
-170,139	542,538	0,035	-0,059
-169,125	126,957	0,100	0,090
-168,110	-83,271	0,034	-0,008
-167,096	800,000	0,023	0,060
-166,081	-200,000	-0,001	0,100
-165,066	-4,820	0,065	0,032
-164,052	14,597	-0,064	-0,035
-163,037	800,000	0,041	-0,111
-162,023	-114,026	0,194	0,026
-161,008	106,374	0,068	0,058
-159,993	273,397	0,034	-0,043
-158,979	134,761	-0,086	-0,080
-157,964	800,000	0,024	0,067
-156,950	-85,147	-0,058	0,013
-155,935	-13,424	0,105	-0,048
-154,920	-61,763	0,106	-0,031
-153,906	671,613	-0,052	0,096
-152,891	-72,109	0,183	-0,048
-151,877	800,000	0,021	0,066
-150,862	-149,815	0,081	0,004
-149,847	591,183	-0,050	-0,088
-148,833	-200,000	-0,008	-0,050
-147,818	154,827	-0,019	-0,018
-146,804	150,586	0,050	0,048
-145,789	-22,369	0,046	0,020
-144,775	800,000	-0,023	-0,068
-143,760	474,420	0,052	-0,084
-142,745	201,135	0,047	0,052
-141,731	800,000	0,051	0,150
-140,716	-6,405	0,055	0,027
-139,702	45,135	0,079	0,052
-138,687	44,314	0,062	0,041
-137,672	2,552	-0,116	-0,059
-136,658	-159,725	-0,112	0,004
-135,643	800,000	-0,060	-0,119
-134,629	17,394	0,082	-0,046
-133,614	180,422	0,060	0,062
-132,599	27,012	0,057	0,034
-131,585	161,913	0,025	0,025
-130,570	-200,000	0,002	-0,017
-129,556	-200,000	0,011	0,042
-128,541	-200,000	-0,006	-0,053
-127,526	580,998	-0,031	0,054
-126,512	-91,118	0,072	-0,015
-125,497	-32,998	0,061	0,024
-124,483	287,891	-0,073	0,094
-123,468	800,000	0,033	-0,095
-122,453	-96,561	-0,105	0,020
-121,439	800,000	0,010	0,026
-120,424	-200,000	0,023	-0,080
-119,410	572,550	0,048	0,083
-118,395	-61,160	-0,101	-0,030
-117,380	217,137	0,082	-0,093
-116,366	711,834	0,079	0,149
-115,351	420,081	-0,016	-0,025
-114,337	-27,910	-0,068	0,028
-113,322	-200,000	0,004	-0,051
-112,307	-200,000	0,000	-0,016
-111,293	68,333	0,053	0,039
-110,278	-63,002	0,135	0,039
-109,264	561,436	0,067	0,116
-108,249	-103,517	-0,156	-0,026
-107,234	-9,092	-0,054	-0,026
-106,220	784,890	-0,018	0,036
-105,205	-171,290	0,087	-0,002
-104,191	-200,000	0,031	-0,180
-103,176	800,000	0,040	0,087
-102,162	-55,414	0,097	0,031
-101,147	800,000	0,056	-0,116
-100,132	-0,361	-0,084	-0,042
-99,118	331,763	-0,117	-0,161
-98,103	-200,000	0,006	0,102
-97,089	-200,000	0,017	0,139
-96,074	-200,000	0,042	0,156
-95,059	-200,000	0,012	0,044
-94,045	-143,902	-0,151	-0,010
-93,030	800,000	0,026	-0,053
-92,016	184,580	0,065	-0,069
-91,001	45,827	0,053	-0,035
-89,986	118,294	-0,087	-0,076
-88,972	63,674	0,090	0,064
-87,957	-8,658	0,024	-0,011
-86,943	549,990	0,071	-0,121
-85,928	-16,404	-0,169	-0,076
-84,913	-200,000	0,035	-0,120
-83,899	-126,063	0,087	0,009
-82,884	137,067	0,011	-0,011
-81,870	-200,000	-0,021	0,103
-80,855	-105,755	-0,091	0,014
-79,840	275,483	-0,020	-0,025
-78,826	8,290	-0,097	-0,052
-77,811	-24,507	0,090	0,038
-76,797	751,835	0,034	0,065
-75,782	-200,000	-0,033	-0,102
-74,767	128,019	-0,068	0,061
-73,753	45,146	0,128	0,083
-72,738	31,684	0,046	0,028
-71,724	-200,000	-0,022	-0,071
-70,709	-200,000	0,003	0,036
-69,694	800,000	-0,011	0,027
-68,680	-200,000	-0,007	-0,094
-67,665	-80,503	0,100	0,023
-66,651	54,712	0,081	0,055
-65,636	-200,000	0,014	0,076
-64,622	23,397	-0,092	-0,053
-63,607	-87,144	0,093	0,020
-62,592	-200,000	0,012	-0,101
-61,578	106,453	-0,080	0,067
-60,563	664,875	0,074	0,136
-59,549	800,000	-0,046	0,107
-58,534	-57,113	-1,665	-0,516
-57,519	348,162	-1,491	-2,087
-56,505	-200,000	-0,610	-4,708
-55,490	105,035	1,052	0,879
-54,476	800,000	4,893	11,544
-53,461	-200,000	18,887	306,501
-52,446	800,000	736,680	2294,515
-51,432	567,560	1652,697	2852,650
-50,417	79,045	1670,443	1265,274
-49,403	22,077	1543,523	889,343
-48,388	15,992	1466,399	815,336
-47,373	17,805	1456,250	818,417
-46,359	16,882	1446,352	808,399
-45,344	14,242	1441,946	793,260
-44,330	14,187	1439,993	791,894
-43,315	14,158	1438,205	790,739
-42,300	14,181	1436,549	789,905
-41,286	14,207	1435,397	789,366
-40,271	14,204	1434,011	788,561
-39,257	14,180	1432,960	787,837
-38,242	14,247	1431,383	787,254
-37,227	14,265	1430,031	786,567
-36,213	14,241	1429,027	785,867
-35,198	14,238	1427,793	785,146
-34,184	14,288	1426,698	784,751
-33,169	14,237	1425,463	783,797
-32,154	14,243	1424,573	783,304
-31,140	14,225	1423,056	782,354
-30,125	14,237	1422,078	781,844
-29,111	14,237	1420,947	781,191
-28,096	14,256	1419,810	780,621
-27,082	14,155	1418,934	779,635
-26,067	14,131	1417,768	778,850
-25,052	14,149	1416,704	778,318
-24,038	14,124	1415,549	777,536
-23,023	14,142	1414,641	777,092
-22,009	14,176	1413,653	776,675
-20,994	14,161	1412,828	776,124
-19,979	14,102	1412,006	775,364
-18,965	14,071	1411,208	774,751
-17,950	14,103	1410,043	774,227
-16,936	14,107	1409,084	773,690
-15,921	14,022	1408,021	772,676
-14,906	13,990	1407,163	772,025
-13,892	14,056	1406,129	771,738
-12,877	14,076	1405,184	771,279
-11,863	14,070	1404,330	770,753
-10,848	14,061	1403,285	770,109
-9,833	14,008	1402,610	769,462
-8,819	13,968	1401,870	768,837
-7,804	14,001	1400,642	768,288
-6,790	13,973	1399,791	767,661
-5,775	13,966	1398,575	766,929
-4,760	13,956	1397,903	766,486
-3,746	13,984	1397,068	766,127
-2,731	13,949	1396,195	765,454
-1,717	13,943	1395,200	764,852
-0,702	13,960	1393,372	763,896
0,313	17,685	1311,454	736,287
1,327	33,908	706,130	434,035
2,342	52,064	124,207	83,592
3,356	3,723	16,680	8,586
4,371	-4,151	3,238	1,581
5,386	8,500	0,564	0,299
6,400	-200,000	-0,035	0,186
7,415	-77,515	-0,202	-0,049
8,429	-12,098	-0,183	-0,085
9,444	122,539	-0,231	-0,204
10,459	136,442	-0,204	-0,188
11,473	60,406	-0,164	-0,115
12,488	-26,385	-0,437	-0,181
13,502	129,067	-0,316	-0,285
14,517	141,465	-0,297	-0,278
15,531	53,373	-0,346	-0,234
16,546	22,662	-0,241	-0,139
17,561	348,892	-0,361	-0,504
18,575	74,098	-0,167	-0,124
19,590	-19,299	-0,249	-0,109
20,604	15,036	-0,366	-0,202
21,619	17,971	-0,376	-0,211
22,634	168,272	-0,491	-0,494
23,648	57,534	-0,485	-0,334
24,663	-22,784	-0,516	-0,219
25,677	503,675	-0,292	-0,479
26,692	67,240	-0,315	-0,226
27,707	98,440	-0,400	-0,325
28,721	42,238	-0,492	-0,315
29,736	21,770	-0,381	-0,218
30,750	237,185	-0,321	-0,376
31,765	118,758	-0,402	-0,350
32,780	133,073	-0,317	-0,289
33,794	105,041	-0,323	-0,269
34,809	124,172	-0,366	-0,324
35,823	231,375	-0,290	-0,335
36,838	153,923	-0,354	-0,342
37,853	26,665	-0,333	-0,196
38,867	220,209	-0,327	-0,371
39,882	69,808	-0,360	-0,261
40,896	119,860	-0,431	-0,377
41,911	-79,900	-0,264	-0,062
42,926	24,588	-0,304	-0,177
43,940	144,695	-0,283	-0,266
44,955	13,101	-0,302	-0,165
45,969	150,069	-0,304	-0,291
46,984	101,052	-0,316	-0,259
47,999	43,027	-0,318	-0,204
49,013	299,614	-0,288	-0,374
50,028	-58,751	-0,281	-0,085
51,042	196,960	-0,264	-0,284
52,057	13,543	-0,344	-0,188
53,071	302,361	-0,238	-0,310
54,086	-9,759	-0,332	-0,155
55,101	-14,324	-0,369	-0,167
56,115	146,635	-0,224	-0,212
57,130	14,396	-0,288	-0,158
58,144	-41,842	-0,315	-0,113
59,159	106,596	-0,285	-0,238
60,174	204,628	-0,261	-0,285
61,188	28,588	-0,324	-0,193
62,203	93,574	-0,309	-0,246
63,217	87,485	-0,372	-0,290
64,232	51,299	-0,275	-0,183
65,247	-35,375	-0,368	-0,140
66,261	89,642	-0,395	-0,310
67,276	157,492	-0,377	-0,368
68,290	6,383	-0,464	-0,241
69,305	22,561	-0,260	-0,149
70,320	96,830	-0,317	-0,256
71,334	68,385	-0,379	-0,273
72,349	300,016	-0,207	-0,269
73,363	254,894	-0,273	-0,330
74,378	-49,094	-0,326	-0,109
75,393	28,466	-0,395	-0,234
76,407	14,251	-0,285	-0,156
77,422	111,560	-0,354	-0,300
78,436	76,493	-0,294	-0,219
79,451	106,894	-0,388	-0,324
80,466	-4,479	-0,279	-0,135
81,480	40,411	-0,258	-0,163
82,495	184,038	-0,233	-0,243
83,509	268,345	-0,259	-0,320
84,524	-25,834	-0,358	-0,147
85,539	-2,323	-0,454	-0,223
86,553	122,206	-0,317	-0,278
87,568	107,506	-0,320	-0,267
88,582	27,115	-0,440	-0,258
89,597	89,583	-0,291	-0,228
90,611	73,867	-0,329	-0,242
91,626	43,197	-0,350	-0,224
92,641	-85,599	-0,297	-0,064
93,655	18,802	-0,310	-0,174
94,670	70,021	-0,216	-0,156
95,684	66,287	-0,310	-0,221
96,699	-10,732	-0,434	-0,201
97,714	89,649	-0,337	-0,264
98,728	57,851	-0,253	-0,174
99,743	5,213	-0,206	-0,106
100,757	99,995	-0,266	-0,216
101,772	95,370	-0,254	-0,203
102,787	131,722	-0,246	-0,222
103,801	59,747	-0,328	-0,227
104,816	61,545	-0,220	-0,153
105,830	70,913	-0,227	-0,165
106,845	-115,591	-0,283	-0,037
107,860	-93,350	-0,341	-0,066
108,874	-9,182	-0,296	-0,138
109,889	-13,855	-0,298	-0,134
110,903	105,003	-0,320	-0,265
111,918	32,812	-0,285	-0,173
112,933	-12,273	-0,342	-0,156
113,947	51,273	-0,168	-0,111
114,962	-36,521	-0,287	-0,108
115,976	73,212	-0,207	-0,151
116,991	125,887	-0,250	-0,221
118,006	16,864	-0,261	-0,144
119,020	165,539	-0,282	-0,280
120,035	-48,484	-0,219	-0,073
121,049	131,522	-0,188	-0,169
122,064	50,788	-0,228	-0,151
123,079	41,184	-0,149	-0,094
124,093	68,867	-0,218	-0,156
125,108	77,030	-0,305	-0,227
126,122	-43,451	-0,266	-0,093
127,137	159,089	-0,241	-0,234
128,151	2,973	-0,230	-0,116
129,166	-108,360	-0,210	0,031
130,181	-35,093	-0,270	-0,102
131,195	107,707	-0,221	-0,184
132,210	292,173	-0,247	-0,316
133,224	41,250	-0,352	-0,222
134,239	106,218	-0,252	-0,208
135,254	154,888	-0,124	-0,119
136,268	238,909	-0,280	-0,326
137,283	-48,738	-0,276	-0,092
138,297	70,140	-0,195	-0,141
139,312	-22,268	-0,307	-0,130
140,327	129,100	-0,223	-0,199
141,341	46,886	-0,264	-0,171
142,356	183,828	-0,141	-0,146
143,370	118,568	-0,214	-0,185
144,385	81,535	-0,282	-0,213
145,400	79,024	-0,193	-0,145
146,414	1,790	-0,308	-0,155
147,429	-68,325	-0,393	-0,106
148,443	43,163	-0,230	-0,146
149,458	180,965	-0,259	-0,266
150,473	69,125	-0,226	-0,162
151,487	25,016	-0,209	-0,121
152,502	388,913	-0,202	-0,292
153,516	259,875	-0,199	-0,240
154,531	0,120	-0,390	-0,193
155,546	-16,298	-0,308	-0,136
156,560	45,696	-0,199	-0,128
157,575	-85,389	-0,189	-0,041
158,589	-72,346	-0,400	-0,103
159,604	107,525	-0,212	-0,176
160,619	-7,013	-0,259	-0,122
161,633	48,370	-0,273	-0,178
162,648	101,572	-0,203	-0,165
163,662	107,253	-0,209	-0,173
164,677	207,892	-0,147	-0,160
165,692	335,983	-0,127	-0,173
166,706	164,498	-0,218	-0,215
167,721	137,275	-0,215	-0,197
168,735	-49,420	-0,282	-0,093
169,750	294,649	-0,189	-0,242
170,764	178,764	-0,187	-0,190
171,779	800,000	-0,039	-0,118
172,794	620,141	-0,077	-0,136
173,808	47,441	-0,272	-0,176
174,823	263,646	-0,127	-0,155
175,837	-14,739	-0,380	-0,169
176,852	104,319	-0,243	-0,199
177,867	196,637	-0,297	-0,316
178,881	470,552	-0,134	-0,211
179,896	332,479	-0,138	-0,186
180,910	-76,853	-0,264	-0,064
181,925	-48,204	-0,318	-0,106
182,940	72,152	-0,221	-0,160
183,954	-2,742	-0,335	-0,162
184,969	57,330	-0,198	-0,134
185,983	63,931	-0,191	-0,134
186,998	800,000	-0,075	-0,190
188,013	145,484	-0,232	-0,216
189,027	594,382	-0,152	-0,263
190,042	40,556	-0,145	-0,091
191,056	89,872	-0,279	-0,216
192,071	178,239	-0,203	-0,207
193,086	108,790	-0,195	-0,162
194,100	-200,000	-0,018	-0,136
195,115	85,635	-0,159	-0,122
196,129	54,696	-0,268	-0,180
197,144	124,718	-0,223	-0,195
198,159	612,518	-0,106	-0,186
199,173	489,546	-0,126	-0,201
200,188	193,316	-0,171	-0,180
201,202	100,763	-0,219	-0,177
202,217	-30,810	-0,357	-0,140
203,232	2,476	-0,285	-0,143
204,246	509,838	-0,112	-0,181
205,261	325,069	-0,131	-0,175
206,275	-180,421	-0,207	-0,003
207,290	800,000	-0,064	-0,160
208,304	-115,081	-0,133	-0,017
209,319	-42,732	-0,257	-0,090
210,334	-97,016	-0,213	-0,038
211,348	130,154	-0,223	-0,198
212,363	139,132	-0,222	-0,202
213,377	14,222	-0,219	-0,118
214,392	-125,753	-0,178	0,018
215,407	800,000	-0,031	-0,087
216,421	53,135	-0,170	-0,113
217,436	51,565	-0,176	-0,116
218,450	14,467	-0,235	-0,127
219,465	18,770	-0,249	-0,138
220,480	-21,055	-0,209	-0,088
221,494	-29,302	-0,258	-0,102
222,509	-8,076	-0,256	-0,119
223,523	-77,382	-0,263	-0,063
224,538	283,731	-0,153	-0,191
225,553	776,246	-0,136	-0,259
226,567	603,158	-0,213	-0,369
227,582	363,518	-0,224	-0,313
228,596	23,774	-0,204	-0,117
229,611	-69,088	-0,124	-0,033
230,626	800,000	-0,140	-0,289
231,640	309,807	-0,155	-0,201
232,655	39,438	-0,226	-0,140
233,669	-95,282	-0,175	-0,032
234,684	105,818	-0,201	-0,165
235,699	-24,935	-0,290	-0,119
236,713	196,142	-0,151	-0,160
237,728	356,961	-0,139	-0,193
238,742	141,524	-0,156	-0,144
239,757	-4,230	-0,215	-0,103
240,772	116,289	-0,284	-0,241
241,786	252,496	-0,137	-0,162
242,801	377,322	-0,099	-0,140
243,815	118,404	-0,129	0,110
244,830	196,393	-0,066	-0,069
245,844	221,876	-0,214	-0,238
246,859	-83,493	-0,165	-0,036
247,874	521,041	-0,149	-0,243
248,888	-15,533	-0,270	-0,119
249,903	34,701	-0,163	-0,098
250,917	-20,248	-0,164	-0,070
251,932	54,778	-0,141	-0,094
252,947	181,145	-0,223	-0,227
253,961	75,747	-0,240	-0,176
254,976	285,715	-0,086	-0,107
255,990	153,593	-0,198	-0,187
257,005	-117,106	-0,227	0,028
258,020	65,741	-0,178	-0,125
259,034	150,105	-0,068	-0,064
260,049	-1,037	-0,136	-0,066
261,063	800,000	-0,126	-0,309
262,078	193,488	-0,157	-0,164
263,093	75,417	-0,232	-0,169
264,107	-15,583	-0,140	-0,062
265,122	94,173	-0,157	-0,123
266,136	800,000	-0,031	-0,084
267,151	-63,569	-0,168	-0,047
268,166	680,867	-0,110	-0,199
269,180	39,732	-0,248	-0,153
270,195	137,398	-0,137	-0,124
271,209	229,258	-0,154	-0,174
272,224	65,676	-0,168	-0,117
273,239	291,280	0,033	-0,041
274,253	-111,464	-0,271	-0,038
275,268	-124,095	-0,096	0,010
276,282	-140,327	-0,196	0,014
277,297	-105,628	-0,211	-0,033
278,312	-20,378	-0,200	-0,085
279,326	28,574	-0,135	-0,079
280,341	-200,000	-0,049	-0,202
281,355	-200,000	-0,004	-0,161
282,370	-28,839	-0,209	-0,083
283,384	41,546	-0,130	-0,081
284,399	153,436	-0,218	-0,206
285,414	800,000	-0,104	-0,302
286,428	-21,817	-0,170	-0,071
287,443	118,135	-0,147	-0,125
288,457	-148,255	-0,192	0,011
289,472	-10,021	-0,284	-0,130
290,487	-44,958	-0,197	-0,067
291,501	616,953	-0,093	-0,161
292,516	54,318	-0,187	-0,124
293,530	173,104	-0,153	-0,152
294,545	-104,826	-0,153	0,024
295,560	-30,066	-0,141	-0,055
296,574	113,747	-0,193	-0,162
297,589	238,284	-0,059	-0,068
298,603	800,000	-0,109	-0,236
299,618	260,037	-0,178	-0,213
300,633	-44,709	-0,189	-0,065
301,647	48,768	-0,180	-0,116
302,662	103,516	-0,192	-0,155
303,676	7,384	-0,162	-0,083
304,691	-56,734	-0,237	-0,072
305,706	192,220	-0,107	-0,111
306,720	34,154	-0,108	-0,065
307,735	-61,900	-0,078	-0,022
308,749	-86,303	-0,135	-0,028
309,764	43,319	-0,145	-0,091
310,779	-27,572	-0,100	-0,040
311,793	264,400	-0,100	-0,120
312,808	-59,513	-0,150	0,044
313,822	89,217	-0,224	-0,172
314,837	276,474	-0,131	-0,160
315,852	61,558	-0,072	-0,049
316,866	-79,469	-0,026	0,006
317,881	-17,941	-0,170	-0,073
318,895	26,652	-0,087	-0,050
319,910	407,533	-0,102	-0,149
320,925	210,874	-0,165	-0,179
321,939	-200,000	-0,017	-0,108
322,954	136,145	-0,093	-0,083
323,968	-83,814	-0,173	0,038
324,983	-20,568	-0,163	0,068
325,997	33,338	-0,231	-0,138
327,012	-102,110	-0,113	-0,019
328,027	65,021	-0,134	-0,093
329,041	-37,627	-0,254	-0,093
330,056	187,007	-0,134	-0,138
331,070	67,935	-0,082	-0,058
332,085	44,936	-0,154	-0,097
333,100	-57,799	-0,097	-0,029
334,114	-140,970	-0,183	-0,013
335,129	-200,000	-0,019	-0,119
336,143	177,133	-0,198	-0,198
337,158	-21,556	-0,112	-0,047
338,173	251,913	-0,099	-0,116
339,187	-105,684	-0,114	0,018
340,202	800,000	-0,024	-0,066
341,216	51,267	-0,129	-0,084
342,231	581,570	-0,137	-0,232
343,246	434,243	-0,108	-0,162
344,260	800,000	-0,102	-0,215
345,275	800,000	0,017	-0,040
346,289	303,693	-0,109	-0,138
347,304	-200,000	-0,040	-0,177
348,319	-19,783	-0,267	-0,113
349,333	-200,000	0,013	0,059
350,348	327,847	-0,116	-0,153
351,362	114,688	-0,120	-0,100
352,377	-85,937	-0,130	-0,027
353,392	145,868	-0,216	-0,199
354,406	-31,663	-0,123	-0,047
355,421	209,851	1315,084	1416,634
356,435	161,526	1475,853	1417,122
