DTS Sentinel unit serial number:	SN410029Multiplexer serial number:	ORYXHardware model number:	OX2-SRSoftware version number:	ORYX F/W v4,00 Oryx Data Collector v3.7.2.0data status	okinstallation	B3 Nyhavnadifferential loss correction	single-endedforward channel	channel 1reverse channel	N/Adate	2023/12/03time	17:12:30forward acquisition time	300,00reverse acquisition time	0,00gamma	499,1914k internal	0,3197k external	0,3197temperature offset calibration	1,0000default loss term (dB/km)	0,3820temperature slope calibration	1,0000multiplexer offset coefficient	1,0000multiplexer slope coefficient	1,0000fibre end	0,00T internal ref (°C)	15,03T ext. ref 1 (°C)	-0,38T ext. ref 2 (°C)	-0,40length (m)	temperature (°C)	Stokes	anti-Stokes-744,400	106,505	-0,241	-0,208
-743,385	-200,000	-0,018	0,439
-742,371	189,384	-0,078	-0,085
-741,356	-200,000	0,072	0,339
-740,342	-32,581	-0,253	-0,102
-739,327	-200,000	0,049	0,296
-738,312	800,000	-0,122	-0,250
-737,298	800,000	-0,076	0,236
-736,283	215,672	-0,182	-0,211
-735,269	-200,000	0,073	0,316
-734,254	-39,512	-0,342	-0,130
-733,239	131,162	-0,168	0,157
-732,225	800,000	-0,105	-0,227
-731,210	65,799	0,087	0,064
-730,196	800,000	-0,032	-0,073
-729,181	-200,000	0,003	0,030
-728,167	314,083	-0,063	-0,086
-727,152	-114,067	-0,145	-0,020
-726,137	74,351	0,020	0,015
-725,123	217,809	-0,063	0,073
-724,108	-200,000	-0,015	-0,199
-723,094	-150,043	-0,055	0,003
-722,079	392,784	-0,053	0,080
-721,064	7,783	0,109	0,059
-720,050	271,525	0,076	0,098
-719,035	57,562	0,105	0,075
-718,021	55,400	0,034	0,024
-717,006	800,000	-0,080	-0,161
-715,991	144,111	-0,061	-0,059
-714,977	-200,000	0,015	-0,061
-713,962	635,535	-0,037	-0,069
-712,948	-200,000	-0,001	-0,037
-711,933	213,278	-0,028	0,032
-710,918	121,323	0,054	0,049
-709,904	-45,130	-0,079	-0,028
-708,889	70,310	0,035	0,026
-707,875	56,786	-0,127	-0,090
-706,860	112,446	-0,040	-0,035
-705,845	-0,331	-0,056	-0,029
-704,831	148,106	0,094	-0,092
-703,816	220,966	-0,052	0,061
-702,802	-200,000	0,007	-0,089
-701,787	144,723	-0,121	-0,117
-700,772	-37,561	-0,106	0,041
-699,758	-36,548	0,094	-0,037
-698,743	-60,650	0,086	0,026
-697,729	-200,000	0,011	0,068
-696,714	-68,092	0,072	-0,020
-695,699	-35,709	-0,092	-0,036
-694,685	-200,000	-0,028	-0,116
-693,670	-200,000	-0,021	0,087
-692,656	-127,570	0,042	-0,004
-691,641	-105,747	-0,054	-0,009
-690,627	-38,788	0,052	0,020
-689,612	800,000	-0,008	0,020
-688,597	800,000	0,043	-0,087
-687,583	-159,510	-0,052	0,002
-686,568	643,969	-0,061	0,113
-685,554	-200,000	-0,012	-0,109
-684,539	-78,593	0,104	0,026
-683,524	375,026	0,029	0,042
-682,510	500,154	-0,069	0,116
-681,495	230,487	-0,118	-0,140
-680,481	-50,732	-0,080	-0,027
-679,466	-200,000	-0,001	-0,013
-678,451	-200,000	0,053	-0,203
-677,437	-200,000	0,007	-0,101
-676,422	-200,000	0,002	0,046
-675,408	525,694	0,042	0,072
-674,393	-104,949	0,037	-0,006
-673,378	358,308	-0,077	-0,112
-672,364	250,571	0,077	-0,096
-671,349	796,529	-0,015	-0,030
-670,335	520,178	0,050	-0,085
-669,320	-67,481	0,077	-0,022
-668,305	411,496	0,040	-0,061
-667,291	122,254	-0,045	-0,040
-666,276	800,000	-0,019	-0,054
-665,262	-200,000	0,008	-0,103
-664,247	361,896	-0,108	-0,158
-663,232	-75,377	-0,053	-0,013
-662,218	212,166	0,019	-0,022
-661,203	235,739	-0,073	0,087
-660,189	-200,000	0,042	-0,139
-659,174	6,165	-0,039	-0,021
-658,159	800,000	-0,047	-0,101
-657,145	-200,000	-0,024	-0,087
-656,130	727,916	0,066	-0,128
-655,116	271,464	0,080	0,103
-654,101	384,672	0,100	-0,150
-653,086	17,908	0,064	0,037
-652,072	479,870	-0,082	0,135
-651,057	800,000	0,007	-0,015
-650,043	-200,000	-0,017	-0,171
-649,028	-82,827	-0,131	-0,030
-648,014	5,360	0,117	-0,063
-646,999	207,047	-0,063	0,071
-645,984	38,377	0,061	0,039
-644,970	-142,813	-0,178	-0,012
-643,955	-25,984	-0,060	-0,025
-642,941	800,000	0,027	-0,057
-641,926	74,451	-0,066	-0,050
-640,911	-120,749	0,084	0,010
-639,897	800,000	0,096	0,230
-638,882	800,000	0,092	0,187
-637,868	-121,032	-0,140	0,017
-636,853	618,682	-0,028	-0,050
-635,838	-200,000	0,014	-0,170
-634,824	-29,502	-0,055	-0,023
-633,809	76,726	-0,085	-0,065
-632,795	800,000	-0,003	0,008
-631,780	-53,172	0,199	-0,066
-630,765	-200,000	-0,015	0,075
-629,751	-149,361	0,088	0,005
-628,736	755,758	-0,071	-0,140
-627,722	-124,709	0,081	0,009
-626,707	24,816	0,110	-0,066
-625,692	-148,958	0,051	0,003
-624,678	94,278	-0,123	0,101
-623,663	123,638	0,064	0,058
-622,649	-27,012	-0,110	-0,046
-621,634	-200,000	0,010	0,086
-620,619	-36,118	0,118	0,046
-619,605	800,000	-0,053	0,124
-618,590	-77,952	0,136	0,034
-617,576	-200,000	0,011	0,132
-616,561	-22,659	-0,104	0,045
-615,546	-10,097	-0,081	0,039
-614,532	26,587	-0,034	-0,020
-613,517	-168,224	-0,158	0,004
-612,503	800,000	0,066	0,137
-611,488	539,150	0,031	0,054
-610,474	-139,679	0,070	0,005
-609,459	-171,687	0,046	-0,001
-608,444	156,197	-0,063	0,063
-607,430	-57,071	-0,118	-0,037
-606,415	-161,067	-0,078	-0,003
-605,401	800,000	0,041	0,105
-604,386	-200,000	0,012	-0,077
-603,371	-103,624	0,117	-0,020
-602,357	-102,904	-0,057	0,010
-601,342	90,859	-0,158	0,128
-600,328	-200,000	-0,000	0,088
-599,313	-104,562	-0,142	0,023
-598,298	-200,000	0,051	-0,183
-597,284	-200,000	0,032	0,136
-596,269	490,227	0,041	-0,069
-595,255	-200,000	0,007	-0,101
-594,240	512,613	-0,072	-0,123
-593,225	800,000	0,007	-0,021
-592,211	-200,000	0,011	-0,060
-591,196	-142,432	0,108	-0,008
-590,182	130,858	-0,089	-0,082
-589,167	-9,847	0,118	0,056
-588,152	33,195	0,041	0,026
-587,138	121,469	0,034	0,031
-586,123	-18,730	-0,097	-0,044
-585,109	-200,000	0,056	-0,224
-584,094	268,454	-0,093	-0,118
-583,079	800,000	-0,020	0,063
-582,065	-19,296	0,209	0,093
-581,050	469,884	0,072	0,118
-580,036	8,047	-0,021	0,011
-579,021	565,197	-0,027	-0,048
-578,006	-137,933	-0,145	-0,012
-576,992	-200,000	0,007	-0,081
-575,977	334,300	-0,040	-0,056
-574,963	129,913	0,089	-0,082
-573,948	-200,000	-0,018	0,065
-572,934	-141,446	-0,051	0,004
-571,919	158,787	-0,033	-0,033
-570,904	33,471	-0,077	-0,048
-569,890	-200,000	-0,001	0,073
-568,875	-200,000	0,019	0,088
-567,861	800,000	0,023	0,049
-566,846	186,502	0,118	0,128
-565,831	-73,851	0,067	-0,017
-564,817	-200,000	-0,031	-0,123
-563,802	-73,981	-0,071	-0,018
-562,788	-200,000	-0,015	-0,070
-561,773	-63,682	-0,043	-0,013
-560,758	351,932	0,095	0,137
-559,744	30,518	0,055	-0,034
-558,729	-200,000	-0,014	-0,046
-557,715	229,818	-0,065	-0,077
-556,700	-200,000	0,013	0,090
-555,685	370,935	-0,049	-0,072
-554,671	-200,000	0,002	-0,083
-553,656	-75,816	-0,052	0,013
-552,642	800,000	0,050	0,144
-551,627	183,686	0,002	-0,002
-550,612	62,431	0,071	0,051
-549,598	-200,000	-0,028	-0,256
-548,583	-60,451	-0,086	-0,026
-547,569	-127,088	-0,225	0,024
-546,554	-200,000	0,002	0,111
-545,539	567,938	0,029	0,052
-544,525	-83,952	0,058	-0,013
-543,510	-200,000	0,017	-0,081
-542,496	-193,696	-0,020	0,000
-541,481	-200,000	0,021	-0,123
-540,466	800,000	-0,028	-0,086
-539,452	77,432	0,100	0,077
-538,437	-200,000	0,015	0,135
-537,423	142,675	-0,054	0,052
-536,408	37,891	0,134	0,086
-535,393	338,793	-0,087	0,123
-534,379	800,000	-0,028	0,089
-533,364	41,667	0,045	0,030
-532,350	74,494	0,005	0,004
-531,335	80,295	0,130	0,101
-530,321	800,000	0,031	0,069
-529,306	-200,000	-0,021	0,067
-528,291	-200,000	0,006	0,055
-527,277	202,487	-0,042	-0,047
-526,262	-179,879	-0,049	-0,001
-525,248	800,000	-0,025	0,060
-524,233	-34,258	0,136	0,054
-523,218	-200,000	0,017	0,221
-522,204	287,510	-0,057	-0,075
-521,189	0,338	0,065	0,033
-520,175	-200,000	-0,003	0,011
-519,160	198,073	-0,124	0,137
-518,145	59,531	-0,035	-0,025
-517,131	258,712	0,080	0,100
-516,116	-200,000	-0,051	0,173
-515,102	-200,000	0,004	0,129
-514,087	-40,198	0,065	-0,024
-513,072	-44,997	0,069	-0,025
-512,058	178,670	0,022	0,023
-511,043	-200,000	0,018	-0,160
-510,029	-109,372	0,072	0,011
-509,014	800,000	-0,061	0,190
-507,999	800,000	-0,006	-0,018
-506,985	138,074	-0,085	-0,080
-505,970	146,685	0,133	-0,129
-504,956	261,007	-0,009	-0,011
-503,941	256,168	0,112	0,138
-502,926	-64,940	-0,045	0,013
-501,912	-88,766	0,064	0,014
-500,897	-50,195	-0,049	0,017
-499,883	0,224	-0,125	-0,064
-498,868	-200,000	0,006	0,098
-497,853	800,000	0,042	0,085
-496,839	-15,132	0,180	0,083
-495,824	108,615	0,020	0,017
-494,810	-77,179	0,048	-0,012
-493,795	-106,370	-0,015	-0,002
-492,781	-192,919	0,032	-0,000
-491,766	-151,175	0,073	-0,004
-490,751	530,114	0,036	0,062
-489,737	55,348	0,112	-0,078
-488,722	25,542	0,050	0,030
-487,708	-0,615	-0,048	-0,025
-486,693	343,718	-0,054	0,076
-485,678	-88,035	-0,123	-0,026
-484,664	-200,000	-0,023	-0,088
-483,649	443,127	-0,061	-0,097
-482,635	800,000	0,029	-0,059
-481,620	792,359	0,040	-0,079
-480,605	11,364	0,126	0,069
-479,591	212,314	-0,008	0,009
-478,576	-4,056	-0,095	0,047
-477,562	637,102	-0,134	-0,246
-476,547	255,833	-0,036	0,044
-475,532	556,781	0,029	0,050
-474,518	-71,101	-0,065	-0,017
-473,503	-52,454	-0,186	-0,062
-472,489	43,484	0,118	0,077
-471,474	-63,536	0,111	-0,033
-470,459	164,023	0,059	0,060
-469,445	-51,899	-0,131	0,044
-468,430	800,000	0,020	-0,046
-467,416	306,643	0,058	-0,078
-466,401	-200,000	0,004	0,185
-465,386	266,965	0,067	-0,085
-464,372	-88,614	-0,097	0,021
-463,357	-132,574	-0,069	0,006
-462,343	211,037	-0,051	0,057
-461,328	-200,000	0,005	-0,106
-460,313	-67,862	-0,026	0,007
-459,299	401,646	0,026	0,040
-458,284	153,549	-0,077	-0,076
-457,270	-107,086	0,082	-0,013
-456,255	629,097	0,042	-0,077
-455,241	18,493	-0,078	-0,045
-454,226	-0,685	0,055	-0,028
-453,211	-200,000	-0,017	-0,065
-452,197	-16,129	0,204	-0,093
-451,182	-97,186	0,043	0,008
-450,168	-96,409	0,120	-0,023
-449,153	-200,000	0,020	-0,103
-448,138	-76,399	-0,127	0,032
-447,124	-77,501	-0,067	-0,017
-446,109	-12,978	-0,133	-0,062
-445,095	-74,287	0,048	-0,012
-444,080	191,694	-0,057	0,061
-443,065	800,000	0,050	-0,123
-442,051	-6,563	-0,065	0,032
-441,036	-200,000	-0,012	-0,067
-440,022	148,309	-0,024	-0,024
-439,007	585,230	-0,030	0,054
-437,992	90,031	0,020	-0,016
-436,978	-200,000	0,007	0,140
-435,963	-200,000	0,018	0,104
-434,949	-33,692	0,121	0,048
-433,934	-200,000	-0,006	0,046
-432,919	-62,397	-0,024	0,007
-431,905	-89,919	-0,121	0,025
-430,890	104,616	0,058	-0,049
-429,876	692,624	-0,019	-0,036
-428,861	-174,118	-0,094	-0,002
-427,846	-200,000	0,007	0,024
-426,832	-200,000	0,003	0,022
-425,817	800,000	-0,033	0,079
-424,803	507,528	0,016	0,026
-423,788	-118,549	0,042	0,005
-422,773	162,104	0,067	0,067
-421,759	-71,382	0,168	0,045
-420,744	-61,662	-0,156	-0,047
-419,730	123,535	-0,050	-0,045
-418,715	-3,966	-0,057	-0,028
-417,701	-200,000	0,007	0,046
-416,686	105,336	0,084	-0,072
-415,671	439,418	0,022	0,035
-414,657	-200,000	0,006	0,039
-413,642	-72,218	-0,017	-0,005
-412,628	174,408	-0,126	-0,131
-411,613	800,000	-0,027	0,069
-410,598	-32,414	-0,052	0,021
-409,584	118,527	0,101	0,090
-408,569	-200,000	0,009	0,100
-407,555	156,526	0,025	0,025
-406,540	-200,000	-0,013	0,065
-405,525	7,000	-0,064	0,034
-404,511	-18,566	-0,062	-0,028
-403,496	800,000	0,031	-0,086
-402,482	800,000	-0,019	-0,044
-401,467	34,849	0,049	0,030
-400,452	176,898	-0,007	-0,007
-399,438	-200,000	-0,020	0,112
-398,423	-6,759	-0,067	-0,033
-397,409	800,000	-0,014	-0,030
-396,394	-87,677	0,168	0,036
-395,379	-200,000	-0,017	0,079
-394,365	800,000	0,007	0,020
-393,350	-200,000	-0,006	-0,064
-392,336	130,840	0,033	0,030
-391,321	-64,461	-0,085	0,025
-390,306	276,375	-0,049	-0,062
-389,292	-73,070	-0,071	-0,018
-388,277	-200,000	0,012	0,099
-387,263	-106,084	0,040	-0,006
-386,248	-161,131	0,074	0,003
-385,233	-200,000	-0,008	-0,050
-384,219	97,511	-0,097	-0,080
-383,204	79,374	-0,080	-0,061
-382,190	800,000	0,051	-0,148
-381,175	-200,000	0,032	-0,112
-380,160	25,441	0,177	-0,106
-379,146	35,885	0,150	-0,094
-378,131	533,863	0,025	0,043
-377,117	98,732	0,075	-0,062
-376,102	-45,149	-0,046	0,016
-375,088	800,000	-0,054	0,116
-374,073	478,026	-0,059	-0,096
-373,058	-106,234	0,145	0,023
-372,044	-200,000	-0,016	0,082
-371,029	572,522	0,047	-0,083
-370,015	-200,000	-0,022	0,124
-369,000	-200,000	0,009	-0,223
-367,985	84,360	-0,138	0,108
-366,971	-117,805	0,103	0,013
-365,956	447,555	0,058	-0,092
-364,942	114,982	0,025	-0,022
-363,927	437,704	-0,051	0,080
-362,912	-200,000	-0,014	0,068
-361,898	-200,000	0,008	-0,117
-360,883	-70,330	0,046	-0,013
-359,869	-18,244	0,015	-0,007
-358,854	68,602	0,145	0,107
-357,839	-143,160	-0,032	-0,002
-356,825	-13,589	0,012	-0,005
-355,810	5,155	-0,070	-0,037
-354,796	-119,957	-0,133	-0,016
-353,781	800,000	-0,062	-0,126
-352,766	-200,000	-0,012	-0,114
-351,752	-156,633	0,087	0,004
-350,737	-200,000	0,003	0,053
-349,723	1,871	-0,071	0,036
-348,708	75,789	-0,106	0,080
-347,693	526,827	-0,023	0,040
-346,679	800,000	0,030	-0,063
-345,664	166,591	-0,131	-0,133
-344,650	-65,316	0,147	0,042
-343,635	-200,000	-0,002	0,100
-342,620	363,263	0,093	-0,134
-341,606	72,791	-0,085	0,063
-340,591	161,007	0,054	-0,054
-339,577	-200,000	0,010	-0,032
-338,562	-112,953	-0,031	-0,004
-337,548	-200,000	-0,019	-0,163
-336,533	-77,612	-0,079	-0,020
-335,518	-41,663	0,119	-0,044
-334,504	-106,231	0,124	0,020
-333,489	209,392	-0,076	-0,086
-332,475	234,422	-0,032	0,038
-331,460	38,174	-0,018	-0,012
-330,445	230,255	0,064	0,076
-329,431	458,315	0,060	0,097
-328,416	-200,000	0,027	-0,128
-327,402	-67,395	-0,087	-0,024
-326,387	-194,437	0,119	0,001
-325,372	-78,520	-0,119	-0,029
-324,358	38,361	-0,069	-0,044
-323,343	-162,499	-0,069	0,002
-322,329	-121,221	0,054	0,006
-321,314	32,105	0,048	0,029
-320,299	302,527	-0,027	0,035
-319,285	-67,411	0,041	-0,011
-318,270	267,985	0,120	-0,151
-317,256	-200,000	0,002	-0,048
-316,241	-200,000	-0,006	-0,031
-315,226	175,480	-0,061	0,063
-314,212	237,394	0,118	-0,140
-313,197	83,094	0,035	-0,027
-312,183	283,334	0,015	-0,019
-311,168	800,000	-0,084	-0,177
-310,153	-43,010	0,035	-0,013
-309,139	149,052	-0,084	-0,081
-308,124	-55,100	0,051	0,016
-307,110	-200,000	-0,024	0,094
-306,095	403,305	0,039	0,060
-305,080	276,806	0,031	0,040
-304,066	208,454	-0,059	-0,066
-303,051	-19,882	0,082	-0,036
-302,037	800,000	0,067	-0,188
-301,022	389,191	0,017	-0,025
-300,008	162,713	-0,034	-0,035
-298,993	197,590	-0,076	0,083
-297,978	78,081	0,049	0,038
-296,964	-200,000	-0,021	-0,078
-295,949	-200,000	-0,022	-0,120
-294,935	-200,000	0,010	-0,116
-293,920	-149,825	-0,084	-0,005
-292,905	85,588	0,030	0,024
-291,891	800,000	0,048	0,104
-290,876	-170,911	-0,076	-0,002
-289,862	0,795	0,054	0,027
-288,847	40,510	-0,181	-0,116
-287,832	-86,453	-0,145	-0,032
-286,818	331,892	0,036	0,050
-285,803	224,639	-0,048	0,055
-284,789	64,974	-0,030	-0,022
-283,774	-68,263	0,063	0,017
-282,759	-109,359	-0,029	-0,004
-281,745	278,621	-0,067	-0,085
-280,730	-171,399	-0,078	-0,002
-279,716	-200,000	-0,021	0,117
-278,701	-150,044	0,067	-0,004
-277,686	16,047	0,059	-0,033
-276,672	800,000	0,042	-0,107
-275,657	327,513	-0,104	0,143
-274,643	800,000	0,018	0,049
-273,628	130,039	0,034	0,031
-272,613	-200,000	0,004	-0,062
-271,599	-200,000	0,030	0,101
-270,584	-77,625	0,102	-0,025
-269,570	72,339	-0,037	-0,028
-268,555	-78,318	-0,064	-0,016
-267,540	800,000	-0,014	-0,041
-266,526	17,629	-0,086	0,049
-265,511	-200,000	-0,018	-0,090
-264,497	-3,764	0,147	0,072
-263,482	800,000	-0,026	0,082
-262,467	-200,000	0,004	-0,080
-261,453	84,640	0,050	-0,039
-260,438	-45,657	-0,109	0,038
-259,424	233,467	0,027	0,032
-258,409	-200,000	-0,001	-0,053
-257,395	217,633	0,078	-0,089
-256,380	50,946	-0,132	0,089
-255,365	92,288	0,049	0,039
-254,351	-96,600	-0,023	0,004
-253,336	-200,000	0,054	-0,183
-252,322	-200,000	-0,005	-0,087
-251,307	435,200	-0,041	-0,065
-250,292	259,284	0,040	-0,049
-249,278	-200,000	-0,022	0,169
-248,263	-10,146	-0,025	0,012
-247,249	-81,849	-0,052	-0,012
-246,234	1,093	-0,046	0,024
-245,219	406,737	-0,121	-0,183
-244,205	800,000	0,088	0,174
-243,190	97,792	-0,017	-0,014
-242,176	157,978	-0,013	-0,013
-241,161	360,011	-0,070	0,100
-240,146	4,712	-0,044	-0,023
-239,132	11,453	-0,102	0,056
-238,117	-200,000	-0,005	0,032
-237,103	800,000	0,035	-0,103
-236,088	-200,000	-0,021	0,121
-235,073	-200,000	0,054	0,236
-234,059	-20,884	0,042	0,018
-233,044	-17,489	-0,084	0,037
-232,030	37,820	0,090	-0,057
-231,015	-200,000	0,012	0,048
-230,000	265,763	0,126	-0,158
-228,986	800,000	0,049	-0,116
-227,971	-200,000	-0,017	0,130
-226,957	-200,000	0,023	0,073
-225,942	-200,000	0,022	0,151
-224,927	800,000	-0,044	-0,123
-223,913	-21,934	-0,032	0,014
-222,898	800,000	0,019	-0,054
-221,884	800,000	0,018	-0,045
-220,869	-40,456	0,109	-0,040
-219,855	552,731	0,078	0,134
-218,840	-200,000	-0,050	0,193
-217,825	67,841	0,014	0,010
-216,811	-200,000	-0,015	-0,161
-215,796	-200,000	0,033	-0,140
-214,782	77,796	-0,107	-0,081
-213,767	800,000	0,006	-0,017
-212,752	337,347	0,043	0,059
-211,738	397,124	0,056	-0,084
-210,723	-8,988	-0,077	-0,037
-209,709	-200,000	0,014	-0,103
-208,694	-108,104	-0,148	-0,023
-207,679	-134,898	-0,058	-0,005
-206,665	-100,889	0,100	-0,017
-205,650	-200,000	-0,007	0,033
-204,636	800,000	0,013	0,032
-203,621	215,204	0,081	-0,092
-202,606	-200,000	0,002	0,082
-201,592	-200,000	-0,001	0,066
-200,577	3,963	-0,033	0,017
-199,563	-200,000	-0,006	0,029
-198,548	800,000	-0,053	0,163
-197,533	191,996	0,101	0,109
-196,519	-119,286	-0,019	-0,002
-195,504	-200,000	-0,002	0,079
-194,490	265,200	-0,051	-0,063
-193,475	474,612	0,036	0,058
-192,460	441,800	-0,041	0,064
-191,446	-200,000	0,038	0,121
-190,431	800,000	-0,051	0,115
-189,417	281,956	-0,081	-0,104
-188,402	36,894	0,094	0,059
-187,387	-137,685	0,044	0,003
-186,373	25,147	0,035	-0,021
-185,358	275,108	-0,072	0,091
-184,344	112,075	0,147	-0,127
-183,329	-200,000	0,013	0,072
-182,315	-200,000	0,016	0,082
-181,300	-132,504	-0,052	0,005
-180,285	-200,000	-0,020	-0,090
-179,271	-50,874	-0,120	0,040
-178,256	-77,535	0,182	-0,045
-177,242	628,253	-0,012	0,022
-176,227	-108,639	0,204	0,031
-175,212	174,371	-0,103	0,106
-174,198	-124,491	-0,060	-0,007
-173,183	-200,000	-0,007	0,152
-172,169	-68,453	-0,118	0,032
-171,154	161,089	-0,050	0,049
-170,139	301,355	-0,023	0,030
-169,125	78,977	0,074	0,056
-168,110	-200,000	-0,018	-0,073
-167,096	435,875	-0,092	-0,143
-166,081	92,608	0,071	-0,057
-165,066	-200,000	0,009	-0,193
-164,052	22,129	-0,091	-0,053
-163,037	61,174	0,134	-0,095
-162,023	-200,000	-0,009	0,049
-161,008	580,754	0,058	0,101
-159,993	-132,897	-0,231	-0,021
-158,979	158,663	-0,048	0,048
-157,964	208,397	0,136	-0,152
-156,950	-200,000	0,009	-0,088
-155,935	800,000	-0,029	-0,079
-154,920	387,441	0,027	-0,040
-153,906	102,923	0,100	-0,083
-152,891	-200,000	0,016	0,072
-151,877	578,537	-0,057	0,100
-150,862	88,413	-0,172	-0,136
-149,847	800,000	0,052	-0,138
-148,833	48,089	-0,023	0,016
-147,818	-97,984	0,088	-0,016
-146,804	702,799	0,048	0,090
-145,789	424,087	-0,055	0,085
-144,775	-124,746	-0,054	0,006
-143,760	706,122	0,045	-0,085
-142,745	-27,654	-0,114	-0,047
-141,731	-111,185	0,071	-0,010
-140,716	616,272	0,045	-0,081
-139,702	-50,965	-0,044	-0,015
-138,687	74,071	-0,065	-0,049
-137,672	22,810	0,067	0,039
-136,658	-38,347	-0,164	-0,061
-135,643	-200,000	-0,017	-0,090
-134,629	205,445	-0,033	0,036
-133,614	49,023	0,106	0,071
-132,599	12,206	-0,058	0,032
-131,585	800,000	0,062	0,127
-130,570	-129,344	0,128	-0,013
-129,556	800,000	0,082	-0,186
-128,541	-200,000	0,014	0,107
-127,526	-200,000	0,011	-0,093
-126,512	-24,962	0,055	-0,023
-125,497	102,261	0,086	0,071
-124,483	-198,867	0,089	0,000
-123,468	691,825	0,055	0,104
-122,453	117,892	0,048	0,042
-121,439	57,358	-0,110	-0,076
-120,424	30,538	0,016	0,010
-119,410	155,578	0,009	0,008
-118,395	800,000	-0,057	0,132
-117,380	800,000	0,048	-0,102
-116,366	422,712	-0,057	-0,087
-115,351	-200,000	0,056	-0,216
-114,337	182,872	0,093	-0,098
-113,322	-104,378	-0,043	-0,007
-112,307	-12,088	0,022	0,010
-111,293	-49,244	0,069	-0,023
-110,278	491,776	0,021	-0,035
-109,264	-129,829	0,179	-0,017
-108,249	259,042	-0,010	0,013
-107,234	-200,000	0,007	-0,075
-106,220	72,185	-0,060	-0,044
-105,205	144,195	0,085	-0,081
-104,191	165,075	0,087	-0,087
-103,176	-41,306	-0,034	0,012
-102,162	-65,209	0,073	0,021
-101,147	87,738	-0,045	-0,035
-100,132	-200,000	0,017	-0,099
-99,118	-46,605	-0,088	-0,031
-98,103	800,000	0,012	-0,027
-97,089	-146,406	-0,154	0,009
-96,074	504,592	0,050	0,082
-95,059	260,208	-0,052	0,064
-94,045	688,648	-0,007	-0,012
-93,030	618,037	0,078	-0,141
-92,016	800,000	0,037	0,082
-91,001	160,000	-0,075	0,075
-89,986	-46,812	-0,055	0,019
-88,972	-200,000	0,032	0,190
-87,957	113,058	0,031	-0,027
-86,943	148,013	-0,069	0,066
-85,928	-200,000	0,015	-0,115
-84,913	149,601	-0,103	-0,099
-83,899	-61,740	-0,056	-0,016
-82,884	-13,841	0,080	0,036
-81,870	367,354	-0,051	-0,073
-80,855	541,676	0,020	-0,033
-79,840	800,000	-0,033	-0,104
-78,826	-57,930	-0,093	-0,029
-77,811	800,000	-0,044	-0,087
-76,797	800,000	0,041	-0,084
-75,782	-82,422	0,157	-0,036
-74,767	-200,000	-0,031	0,101
-73,753	-46,787	-0,120	0,041
-72,738	775,091	-0,020	0,040
-71,724	-145,620	-0,038	-0,002
-70,709	228,222	-0,041	0,047
-69,694	485,227	-0,056	-0,091
-68,680	800,000	0,018	0,038
-67,665	83,749	0,204	-0,158
-66,651	800,000	0,017	0,035
-65,636	-23,126	-0,078	0,033
-64,622	731,738	-0,013	0,025
-63,607	-200,000	-0,014	0,057
-62,592	-27,369	-0,186	0,076
-61,578	72,571	-0,047	0,035
-60,563	385,671	0,125	0,184
-59,549	358,814	-0,069	0,099
-58,534	-61,359	-1,551	-0,460
-57,519	393,720	-1,490	-2,207
-56,505	-200,000	-0,448	-4,294
-55,490	231,033	1,010	1,174
-54,476	800,000	4,684	10,967
-53,461	-200,000	18,191	286,970
-52,446	800,000	727,130	2229,215
-51,432	556,290	1643,100	2816,342
-50,417	79,309	1664,980	1263,846
-49,403	22,862	1538,921	891,642
-48,388	16,879	1461,979	818,069
-47,373	17,921	1451,659	817,278
-46,359	17,291	1442,299	808,962
-45,344	15,146	1437,748	796,132
-44,330	15,019	1435,850	794,445
-43,315	15,033	1434,105	793,514
-42,300	15,071	1432,427	792,736
-41,286	15,150	1431,383	792,502
-40,271	15,099	1430,141	791,542
-39,257	15,098	1428,859	790,795
-38,242	15,124	1427,583	790,180
-37,227	15,173	1426,087	789,555
-36,213	15,161	1424,786	788,744
-35,198	15,141	1423,681	788,005
-34,184	15,174	1422,822	787,656
-33,169	15,110	1421,539	786,614
-32,154	15,143	1420,438	786,126
-31,140	15,145	1419,300	785,474
-30,125	15,195	1417,996	784,961
-29,111	15,169	1416,919	784,210
-28,096	15,151	1415,721	783,433
-27,082	15,064	1414,751	782,454
-26,067	15,027	1413,835	781,742
-25,052	15,123	1412,619	781,491
-24,038	15,016	1411,768	780,486
-23,023	15,061	1410,449	779,935
-22,009	15,036	1409,569	779,303
-20,994	15,058	1408,641	778,863
-19,979	14,990	1407,883	778,092
-18,965	14,984	1406,857	777,466
-17,950	14,984	1405,704	776,800
-16,936	14,973	1405,145	776,409
-15,921	15,014	1403,543	775,681
-14,906	14,963	1402,845	775,028
-13,892	14,982	1401,902	774,567
-12,877	14,925	1401,276	773,924
-11,863	14,967	1400,117	773,447
-10,848	14,940	1399,300	772,840
-9,833	14,929	1398,659	772,403
-8,819	14,900	1397,523	771,613
-7,804	14,882	1396,726	771,059
-6,790	14,851	1395,509	770,210
-5,775	14,856	1394,498	769,647
-4,760	14,859	1393,760	769,220
-3,746	14,858	1392,924	768,725
-2,731	14,898	1392,011	768,376
-1,717	14,857	1390,984	767,590
-0,702	14,848	1389,227	766,548
0,313	18,582	1308,271	739,186
1,327	34,706	707,110	436,946
2,342	53,479	124,744	84,605
3,356	3,882	16,619	8,572
4,371	-0,679	3,070	1,536
5,386	-67,935	0,467	0,128
6,400	200,957	0,103	0,112
7,415	40,459	-0,245	-0,156
8,429	40,404	-0,323	-0,206
9,444	13,195	-0,323	-0,177
10,459	80,176	-0,175	-0,133
11,473	46,799	-0,239	-0,157
12,488	-124,472	-0,248	-0,027
13,502	54,138	-0,282	-0,192
14,517	-7,795	-0,384	-0,183
15,531	55,275	-0,447	-0,305
16,546	-40,471	-0,392	-0,143
17,561	131,606	-0,421	-0,383
18,575	48,448	-0,031	0,021
19,590	410,913	-0,167	-0,251
20,604	-60,863	-0,428	-0,127
21,619	19,238	-0,479	-0,271
22,634	20,399	-0,560	-0,319
23,648	129,526	-0,438	-0,396
24,663	43,775	-0,404	-0,261
25,677	109,586	-0,284	-0,240
26,692	47,970	-0,326	-0,215
27,707	94,816	-0,445	-0,357
28,721	119,730	-0,383	-0,336
29,736	143,220	-0,477	-0,449
30,750	166,571	-0,355	-0,356
31,765	139,602	-0,475	-0,442
32,780	275,069	-0,227	-0,285
33,794	14,504	-0,323	-0,177
34,809	46,199	-0,316	-0,206
35,823	0,150	-0,349	-0,175
36,838	14,480	-0,336	-0,184
37,853	220,890	-0,298	-0,338
38,867	130,239	-0,336	-0,304
39,882	233,821	-0,322	-0,374
40,896	-23,017	-0,350	-0,148
41,911	63,178	-0,385	-0,272
42,926	-55,417	-0,426	-0,134
43,940	-107,243	-0,472	-0,073
44,955	429,487	-0,269	-0,412
45,969	46,410	-0,339	-0,221
46,984	109,443	-0,279	-0,236
47,999	199,399	-0,314	-0,340
49,013	49,846	-0,261	-0,173
50,028	147,186	-0,264	-0,250
51,042	56,255	-0,346	-0,237
52,057	100,973	-0,350	-0,287
53,071	121,094	-0,323	-0,284
54,086	-7,109	-0,351	-0,167
55,101	-11,201	-0,293	-0,136
56,115	-102,972	-0,312	-0,052
57,130	-40,926	-0,417	-0,151
58,144	41,200	-0,406	-0,258
59,159	-36,888	-0,297	-0,112
60,174	109,837	-0,430	-0,363
61,188	55,309	-0,340	-0,231
62,203	20,136	-0,278	-0,158
63,217	91,709	-0,301	-0,238
64,232	106,403	-0,268	-0,223
65,247	-22,105	-0,372	-0,158
66,261	257,910	-0,303	-0,368
67,276	-8,270	-0,376	-0,178
68,290	-20,355	-0,355	-0,153
69,305	242,423	-0,181	-0,214
70,320	243,673	-0,237	-0,281
71,334	61,154	-0,279	-0,195
72,349	58,498	-0,326	-0,225
73,363	-17,382	-0,384	-0,170
74,378	14,598	-0,348	-0,191
75,393	5,185	-0,268	-0,139
76,407	-8,802	-0,300	-0,141
77,422	33,638	-0,277	-0,169
78,436	-57,153	-0,268	-0,083
79,451	-8,748	-0,297	-0,140
80,466	22,622	-0,320	-0,184
81,480	112,608	-0,348	-0,297
82,495	94,746	-0,277	-0,222
83,509	83,607	-0,207	-0,159
84,524	205,362	-0,155	-0,169
85,539	20,730	-0,344	-0,195
86,553	194,358	-0,222	-0,237
87,568	193,453	-0,203	-0,216
88,582	4,438	-0,430	-0,221
89,597	168,064	-0,248	-0,248
90,611	204,800	-0,247	-0,270
91,626	70,070	-0,261	-0,189
92,641	28,728	-0,271	-0,161
93,655	84,034	-0,120	-0,092
94,670	85,196	-0,296	-0,228
95,684	-0,165	-0,381	-0,190
96,699	76,352	-0,214	-0,159
97,714	-81,502	-0,256	-0,059
98,728	76,653	-0,193	-0,143
99,743	314,176	-0,137	-0,182
100,757	27,154	-0,296	-0,174
101,772	35,245	-0,356	-0,219
102,787	72,022	-0,225	-0,164
103,801	102,713	-0,240	-0,197
104,816	31,184	-0,279	-0,168
105,830	188,088	-0,185	-0,194
106,845	250,037	-0,197	-0,235
107,860	29,265	-0,291	-0,173
108,874	-11,513	-0,377	-0,173
109,889	66,394	-0,369	-0,262
110,903	8,961	-0,273	-0,144
111,918	138,982	-0,172	-0,159
112,933	175,542	-0,241	-0,245
113,947	262,031	-0,186	-0,227
114,962	-50,674	-0,283	-0,093
115,976	-45,599	-0,320	-0,110
116,991	800,000	-0,111	-0,249
118,006	559,822	-0,182	-0,310
119,020	-17,036	-0,397	-0,175
120,035	117,372	-0,163	-0,141
121,049	128,929	-0,246	-0,220
122,064	-200,000	-0,032	-0,157
123,079	-30,254	-0,340	-0,135
124,093	222,205	-0,246	-0,277
125,108	241,929	-0,267	-0,313
126,122	27,946	-0,251	-0,148
127,137	193,684	-0,193	-0,205
128,151	76,058	-0,280	-0,207
129,166	698,755	-0,163	-0,301
130,181	107,044	-0,233	-0,193
131,195	284,446	-0,236	-0,298
132,210	130,504	-0,289	-0,259
133,224	149,121	-0,180	-0,171
134,239	-41,602	-0,267	-0,096
135,254	-83,290	-0,196	-0,044
136,268	-61,064	-0,230	-0,068
137,283	-44,163	-0,321	-0,112
138,297	-0,424	-0,241	-0,119
139,312	52,557	-0,291	-0,194
140,327	1,116	-0,279	-0,140
141,341	-40,213	-0,246	-0,089
142,356	179,408	-0,251	-0,257
143,370	190,811	-0,228	-0,241
144,385	134,427	-0,242	-0,220
145,400	214,488	-0,118	-0,131
146,414	18,494	-0,238	-0,133
147,429	-4,788	-0,281	-0,135
148,443	360,995	-0,247	-0,348
149,458	102,935	-0,181	-0,148
150,473	128,431	-0,234	-0,208
151,487	128,980	-0,143	-0,128
152,502	-89,847	-0,209	-0,042
153,516	-49,056	-0,297	-0,099
154,531	97,657	-0,232	-0,186
155,546	152,782	-0,223	-0,213
156,560	308,531	-0,179	-0,234
157,575	37,989	-0,229	-0,142
158,589	93,597	-0,249	-0,197
159,604	13,685	-0,242	-0,131
160,619	110,639	-0,262	-0,220
161,633	10,351	-0,232	-0,123
162,648	177,073	-0,203	-0,207
163,662	25,028	-0,278	-0,160
164,677	-18,266	-0,268	-0,117
165,692	436,661	-0,174	-0,266
166,706	3,686	-0,194	-0,098
167,721	127,583	-0,253	-0,225
168,735	174,342	-0,236	-0,239
169,750	-89,534	-0,258	-0,052
170,764	-82,629	-0,147	-0,033
171,779	372,278	-0,133	-0,189
172,794	88,849	-0,213	-0,165
173,808	15,044	-0,280	-0,152
174,823	221,912	-0,211	-0,237
175,837	39,462	-0,235	-0,147
176,852	72,876	-0,233	-0,170
177,867	8,686	-0,295	-0,154
178,881	800,000	-0,085	-0,228
179,896	403,881	-0,140	-0,206
180,910	111,881	-0,193	-0,163
181,925	204,815	-0,095	-0,103
182,940	98,471	-0,273	-0,219
183,954	112,090	-0,225	-0,190
184,969	224,941	-0,169	-0,191
185,983	-144,452	-0,227	-0,014
186,998	172,243	-0,231	-0,232
188,013	-4,214	-0,278	-0,134
189,027	-166,899	-0,189	0,005
190,042	72,020	-0,183	-0,133
191,056	516,813	-0,161	-0,264
192,071	80,498	-0,173	-0,130
193,086	-58,587	-0,308	-0,092
194,100	25,045	-0,195	-0,113
195,115	140,641	-0,196	-0,180
196,129	102,827	-0,172	-0,140
197,144	211,971	-0,243	-0,267
198,159	244,195	-0,207	-0,242
199,173	94,325	-0,243	-0,192
200,188	138,258	-0,133	-0,121
201,202	-55,890	-0,167	-0,052
202,217	37,958	-0,194	-0,120
203,232	182,975	-0,226	-0,232
204,246	466,239	-0,183	-0,286
205,261	35,876	-0,192	-0,117
206,275	800,000	-0,088	-0,202
207,290	142,150	-0,138	-0,127
208,304	69,409	-0,253	-0,181
209,319	54,678	-0,174	-0,117
210,334	611,197	-0,085	-0,149
211,348	111,549	-0,264	-0,221
212,363	172,743	-0,132	-0,133
213,377	69,058	-0,163	-0,116
214,392	10,422	-0,149	-0,079
215,407	-200,000	-0,026	-0,269
216,421	35,797	-0,128	-0,078
217,436	800,000	-0,074	-0,218
218,450	175,451	-0,214	-0,216
219,465	671,599	-0,124	-0,225
220,480	219,157	-0,177	-0,197
221,494	74,674	-0,173	-0,126
222,509	277,923	-0,157	-0,194
223,523	56,344	-0,234	-0,158
224,538	47,739	-0,197	-0,127
225,553	29,692	-0,227	-0,134
226,567	201,526	-0,221	-0,237
227,582	-125,014	-0,107	-0,011
228,596	144,118	-0,095	-0,088
229,611	32,131	-0,174	-0,104
230,626	191,497	-0,277	-0,290
231,640	155,316	-0,242	-0,231
232,655	168,721	-0,213	-0,211
233,669	20,694	-0,374	-0,210
234,684	-33,036	-0,156	-0,060
235,699	800,000	-0,075	-0,160
236,713	11,331	-0,190	-0,100
237,728	-21,069	-0,326	-0,138
238,742	250,308	-0,179	-0,211
239,757	11,302	-0,230	-0,122
240,772	302,136	-0,116	-0,149
241,786	363,863	-0,180	-0,251
242,801	39,053	-0,186	-0,115
243,815	351,360	-0,134	-0,184
244,830	334,617	-0,163	-0,219
245,844	83,196	-0,260	-0,196
246,859	-55,168	-0,272	-0,084
247,874	72,607	-0,198	-0,143
248,888	313,579	-0,186	-0,243
249,903	-198,384	-0,277	-0,001
250,917	70,495	-0,132	-0,095
251,932	800,000	-0,039	0,086
252,947	100,180	-0,198	-0,159
253,961	121,942	-0,183	-0,158
254,976	249,379	-0,125	-0,147
255,990	800,000	-0,078	-0,182
257,005	452,493	-0,144	-0,221
258,020	-100,608	-0,183	-0,031
259,034	-20,431	-0,200	-0,085
260,049	20,830	-0,071	0,040
261,063	-66,327	-0,105	-0,029
262,078	29,497	-0,154	-0,090
263,093	800,000	-0,099	-0,204
264,107	-63,527	-0,182	-0,051
265,122	10,016	-0,206	-0,108
266,136	800,000	-0,078	-0,204
267,151	-200,000	-0,034	-0,187
268,166	-13,626	-0,168	-0,075
269,180	81,018	-0,273	-0,204
270,195	203,802	-0,154	-0,165
271,209	171,790	-0,094	-0,094
272,224	800,000	-0,063	-0,179
273,239	545,349	-0,121	-0,201
274,253	-200,000	-0,047	-0,227
275,268	-60,191	-0,199	-0,058
276,282	19,987	-0,229	-0,127
277,297	800,000	-0,114	-0,273
278,312	231,862	-0,173	-0,196
279,326	556,763	-0,105	-0,176
280,341	193,185	-0,182	-0,191
281,355	352,405	0,040	-0,056
282,370	-200,000	-0,021	-0,067
283,384	800,000	-0,121	-0,257
284,399	226,780	-0,108	-0,121
285,414	-28,556	-0,220	-0,087
286,428	-70,429	-0,187	-0,048
287,443	137,371	-0,123	-0,111
288,457	333,932	-0,051	-0,068
289,472	104,195	-0,141	-0,114
290,487	754,843	-0,129	-0,241
291,501	323,037	-0,243	-0,321
292,516	57,831	-0,153	-0,103
293,530	-200,000	-0,076	-0,287
294,545	101,857	-0,190	-0,153
295,560	497,023	-0,155	-0,247
296,574	-70,937	-0,208	-0,054
297,589	121,033	-0,095	-0,082
298,603	-36,317	-0,275	-0,102
299,618	800,000	-0,087	-0,234
300,633	800,000	-0,071	-0,191
301,647	800,000	-0,042	-0,113
302,662	218,465	-0,077	-0,085
303,676	-200,000	0,019	-0,083
304,691	-78,708	-0,266	-0,062
305,706	-200,000	-0,055	-0,270
306,720	24,350	-0,165	-0,094
307,735	143,655	-0,111	-0,102
308,749	-127,126	-0,224	-0,022
309,764	-70,413	-0,147	-0,038
310,779	39,248	-0,086	-0,053
311,793	571,379	-0,108	-0,182
312,808	119,831	-0,136	-0,116
313,822	43,306	-0,272	-0,171
314,837	363,668	-0,186	-0,258
315,852	151,052	-0,098	-0,092
316,866	-200,000	-0,082	0,000
317,881	37,736	-0,258	-0,158
318,895	109,321	-0,134	-0,110
319,910	-200,000	-0,008	-0,108
320,925	-40,968	-0,243	-0,086
321,939	175,938	-0,157	-0,157
322,954	172,066	-0,058	-0,057
323,968	800,000	-0,067	-0,161
324,983	220,611	-0,082	-0,090
325,997	-24,108	-0,186	-0,076
327,012	-200,000	-0,028	-0,213
328,027	800,000	-0,075	-0,149
329,041	237,622	-0,118	-0,134
330,056	489,905	-0,078	-0,123
331,070	-111,741	-0,116	-0,016
332,085	-63,628	-0,068	-0,019
333,100	69,219	-0,141	-0,100
334,114	-69,399	-0,184	-0,048
335,129	8,211	-0,082	-0,042
336,143	-14,333	-0,265	-0,117
337,158	147,812	-0,141	-0,131
338,173	129,823	-0,140	-0,123
339,187	175,526	-0,109	-0,108
340,202	118,137	-0,163	-0,138
341,216	112,603	-0,188	-0,156
342,231	356,329	-0,151	-0,208
343,246	42,040	-0,240	-0,149
344,260	388,484	-0,113	-0,161
345,275	-131,194	-0,050	0,005
346,289	39,824	-0,088	-0,054
347,304	95,018	-0,132	-0,103
348,319	-131,723	-0,200	-0,018
349,333	8,209	-0,168	-0,086
350,348	716,522	-0,077	-0,140
351,362	-160,823	-0,146	0,005
352,377	-87,802	-0,162	-0,033
353,392	-93,501	-0,081	0,015
354,406	191,090	-0,057	-0,059
355,421	209,329	1316,511	1418,119
356,435	161,103	1477,464	1418,617
