DTS Sentinel unit serial number:	SN410029Multiplexer serial number:	ORYXHardware model number:	OX2-SRSoftware version number:	ORYX F/W v4,00 Oryx Data Collector v3.7.2.0data status	okinstallation	B3 Nyhavnadifferential loss correction	single-endedforward channel	channel 1reverse channel	N/Adate	2023/12/05time	01:42:30forward acquisition time	300,00reverse acquisition time	0,00gamma	499,1914k internal	0,3200k external	0,3200temperature offset calibration	1,0000default loss term (dB/km)	0,3820temperature slope calibration	1,0000multiplexer offset coefficient	1,0000multiplexer slope coefficient	1,0000fibre end	0,00T internal ref (°C)	13,81T ext. ref 1 (°C)	-0,91T ext. ref 2 (°C)	-0,96length (m)	temperature (°C)	Stokes	anti-Stokes-744,400	-7,543	-0,198	-0,097
-743,385	-200,000	-0,002	0,231
-742,371	92,762	-0,145	-0,119
-741,356	-200,000	0,104	0,362
-740,342	410,761	-0,153	-0,236
-739,327	-200,000	-0,069	0,251
-738,312	32,875	-0,291	-0,183
-737,298	-200,000	-0,038	0,288
-736,283	143,662	-0,237	-0,230
-735,269	-200,000	0,010	0,186
-734,254	121,473	-0,267	-0,242
-733,239	-45,865	-0,190	0,068
-732,225	465,332	-0,147	-0,239
-731,210	-40,356	0,144	0,054
-730,196	-58,495	-0,131	0,041
-729,181	32,409	0,052	-0,033
-728,167	173,642	-0,100	0,105
-727,152	-45,776	0,170	-0,061
-726,137	228,871	-0,081	-0,096
-725,123	28,053	-0,079	-0,048
-724,108	-73,631	-0,109	0,029
-723,094	158,140	-0,096	-0,097
-722,079	-35,541	-0,075	-0,029
-721,064	141,936	0,050	0,049
-720,050	378,528	0,054	-0,080
-719,035	-104,037	0,115	0,019
-718,021	-19,382	-0,075	-0,034
-717,006	63,433	-0,043	-0,031
-715,991	-1,667	0,028	-0,014
-714,977	-18,304	-0,119	-0,054
-713,962	800,000	-0,028	-0,089
-712,948	-0,397	-0,074	-0,038
-711,933	-28,548	-0,038	0,016
-710,918	-200,000	-0,015	0,107
-709,904	132,613	-0,033	-0,031
-708,889	-158,151	-0,046	0,002
-707,875	800,000	0,022	0,048
-706,860	114,815	-0,114	0,101
-705,845	315,717	0,059	-0,081
-704,831	93,672	0,093	-0,076
-703,816	-79,757	-0,095	-0,023
-702,802	264,324	0,055	0,069
-701,787	-149,304	0,022	-0,001
-700,772	-200,000	0,020	-0,160
-699,758	-17,563	0,139	-0,063
-698,743	-40,371	-0,078	-0,029
-697,729	-31,987	0,063	-0,026
-696,714	230,412	0,078	-0,092
-695,699	59,639	-0,027	-0,019
-694,685	6,596	-0,014	-0,008
-693,670	251,776	-0,080	-0,099
-692,656	-28,979	0,236	-0,098
-691,641	349,628	0,013	-0,019
-690,627	-200,000	0,000	0,029
-689,612	-200,000	-0,012	-0,080
-688,597	800,000	-0,028	-0,057
-687,583	793,889	0,047	-0,095
-686,568	453,865	0,080	-0,129
-685,554	-84,769	-0,036	-0,008
-684,539	800,000	-0,027	-0,082
-683,524	-135,317	-0,011	-0,001
-682,510	-167,021	-0,198	-0,006
-681,495	29,375	-0,109	-0,067
-680,481	-200,000	-0,000	0,047
-679,466	-61,581	-0,115	0,035
-678,451	-200,000	0,000	0,002
-677,437	-140,235	-0,101	-0,008
-676,422	8,256	0,097	0,053
-675,408	601,470	0,016	-0,030
-674,393	75,379	0,039	0,030
-673,378	-74,494	0,128	0,033
-672,364	-200,000	0,005	-0,064
-671,349	295,139	0,019	0,025
-670,335	-133,630	-0,098	-0,009
-669,320	-200,000	0,014	0,052
-668,305	-200,000	0,001	0,062
-667,291	14,609	-0,103	0,058
-666,276	-200,000	-0,002	0,102
-665,262	58,271	-0,086	0,061
-664,247	-132,429	-0,027	-0,003
-663,232	129,756	0,095	0,089
-662,218	-147,910	-0,162	-0,010
-661,203	-200,000	0,000	0,045
-660,189	218,185	-0,045	0,052
-659,174	20,399	-0,224	-0,131
-658,159	-200,000	-0,033	-0,179
-657,145	-48,681	-0,068	-0,024
-656,130	-200,000	-0,011	-0,055
-655,116	-200,000	0,047	0,168
-654,101	-56,174	0,040	0,013
-653,086	209,490	-0,187	-0,213
-652,072	-44,193	-0,221	-0,080
-651,057	-200,000	0,001	-0,050
-650,043	331,529	-0,090	0,127
-649,028	-66,218	-0,087	0,025
-648,014	-145,138	0,121	0,008
-646,999	-87,629	-0,046	0,010
-645,984	-77,450	-0,087	0,022
-644,970	478,348	-0,082	0,135
-643,955	-64,677	-0,090	0,026
-642,941	-200,000	0,008	0,062
-641,926	167,836	0,018	0,018
-640,911	222,972	-0,033	-0,039
-639,897	-133,381	0,117	-0,010
-638,882	-92,854	0,145	-0,029
-637,868	-200,000	-0,013	-0,070
-636,853	273,659	-0,077	0,098
-635,838	800,000	0,021	0,066
-634,824	-200,000	-0,004	-0,020
-633,809	-200,000	0,018	0,066
-632,795	-61,516	0,102	0,031
-631,780	-6,509	-0,106	-0,052
-630,765	-57,914	0,101	0,032
-629,751	784,173	-0,031	-0,062
-628,736	-62,682	-0,042	-0,012
-627,722	187,804	-0,040	-0,044
-626,707	495,234	-0,032	0,054
-625,692	313,403	0,110	0,150
-624,678	180,863	-0,081	0,086
-623,663	-19,427	-0,131	0,059
-622,649	134,695	-0,085	-0,080
-621,634	30,030	-0,064	0,040
-620,619	-62,112	0,016	-0,005
-619,605	301,466	-0,057	0,076
-618,590	800,000	-0,046	0,123
-617,576	-50,873	0,079	-0,027
-616,561	-200,000	0,030	-0,140
-615,546	800,000	-0,027	-0,057
-614,532	799,863	0,051	-0,102
-613,517	51,689	-0,118	-0,081
-612,503	800,000	0,011	-0,029
-611,488	800,000	-0,042	0,113
-610,474	84,552	0,025	0,020
-609,459	430,231	-0,055	-0,087
-608,444	-200,000	0,015	-0,156
-607,430	-200,000	-0,056	-0,332
-606,415	163,470	-0,106	-0,108
-605,401	225,524	-0,074	-0,087
-604,386	138,735	-0,067	0,064
-603,371	800,000	0,055	0,151
-602,357	54,286	0,069	0,048
-601,342	-145,246	0,042	-0,003
-600,328	800,000	-0,016	-0,049
-599,313	-151,893	0,060	0,003
-598,298	-200,000	-0,005	0,036
-597,284	-200,000	-0,007	0,075
-596,269	447,753	-0,043	0,068
-595,255	800,000	0,056	-0,149
-594,240	-121,510	-0,087	0,010
-593,225	151,559	0,029	0,028
-592,211	-121,316	-0,136	0,016
-591,196	-200,000	-0,024	-0,100
-590,182	-11,092	0,050	0,024
-589,167	800,000	0,037	0,078
-588,152	-3,615	0,063	0,032
-587,138	-58,251	-0,061	-0,019
-586,123	688,510	0,084	-0,159
-585,109	100,562	-0,059	0,049
-584,094	-154,906	-0,130	0,006
-583,079	236,161	-0,064	-0,077
-582,065	-9,029	0,118	0,057
-581,050	-84,151	-0,025	-0,006
-580,036	278,945	0,022	-0,029
-579,021	269,993	0,014	0,018
-578,006	-23,462	-0,026	0,011
-576,992	212,820	-0,160	-0,183
-575,977	800,000	-0,040	0,088
-574,963	57,398	0,031	0,022
-573,948	-151,982	0,025	0,001
-572,934	-120,525	-0,060	-0,007
-571,919	74,018	-0,028	-0,022
-570,904	360,531	-0,072	-0,104
-569,890	-44,448	0,081	0,029
-568,875	-120,219	0,151	0,018
-567,861	-129,135	0,096	-0,010
-566,846	189,399	0,076	0,082
-565,831	12,381	-0,082	0,045
-564,817	-54,388	-0,144	-0,047
-563,802	293,212	0,034	-0,045
-562,788	102,801	0,045	0,038
-561,773	800,000	-0,036	0,096
-560,758	89,545	0,113	0,091
-559,744	-110,458	0,066	0,010
-558,729	-69,117	-0,109	0,030
-557,715	-54,156	0,050	0,016
-556,700	800,000	0,055	-0,113
-555,685	800,000	0,059	0,175
-554,671	245,262	-0,048	0,059
-553,656	12,679	0,053	-0,030
-552,642	-16,061	0,104	0,047
-551,627	-186,941	-0,031	-0,000
-550,612	-116,644	-0,135	-0,018
-549,598	-200,000	-0,009	-0,045
-548,583	154,153	-0,100	-0,099
-547,569	517,435	-0,036	-0,061
-546,554	800,000	0,030	0,064
-545,539	126,279	0,097	0,089
-544,525	-200,000	0,022	-0,103
-543,510	-200,000	-0,012	-0,116
-542,496	327,717	0,029	0,040
-541,481	308,024	-0,068	-0,092
-540,466	-200,000	-0,207	-0,001
-539,452	-200,000	-0,042	0,148
-538,437	-89,589	-0,034	0,007
-537,423	146,375	0,134	0,130
-536,408	-200,000	0,027	0,101
-535,393	-200,000	0,023	-0,081
-534,379	-147,648	-0,147	-0,009
-533,364	95,944	-0,157	0,129
-532,350	204,926	0,121	-0,135
-531,335	800,000	-0,090	-0,184
-530,321	-185,746	0,090	0,001
-529,306	-170,761	-0,121	0,003
-528,291	-19,814	0,047	-0,021
-527,277	522,070	-0,078	-0,133
-526,262	-121,091	-0,110	0,013
-525,248	-93,487	0,104	-0,021
-524,233	453,506	0,032	0,051
-523,218	-36,480	-0,069	-0,027
-522,204	226,252	0,037	-0,043
-521,189	-200,000	0,003	-0,043
-520,175	539,214	0,063	-0,109
-519,160	-104,346	-0,073	-0,012
-518,145	481,860	0,070	0,115
-517,131	800,000	-0,010	0,025
-516,116	800,000	-0,023	0,058
-515,102	-74,284	0,098	0,025
-514,087	-11,184	0,090	0,042
-513,072	359,338	-0,013	-0,018
-512,058	377,626	-0,026	0,039
-511,043	72,747	0,047	0,035
-510,029	140,528	0,081	0,077
-509,014	766,684	0,071	0,141
-507,999	-200,000	0,025	0,166
-506,985	145,423	0,044	0,043
-505,970	74,374	0,060	-0,045
-504,956	154,708	-0,114	0,113
-503,941	-200,000	0,002	-0,060
-502,926	-130,532	0,207	-0,020
-501,912	-39,921	0,077	-0,029
-500,897	-200,000	-0,004	-0,052
-499,883	-168,446	-0,065	-0,002
-498,868	-83,471	-0,182	-0,042
-497,853	206,660	-0,056	-0,063
-496,839	183,504	-0,114	-0,122
-495,824	85,483	0,069	-0,055
-494,810	46,431	-0,091	0,060
-493,795	21,268	0,062	0,036
-492,781	800,000	0,014	-0,031
-491,766	-20,404	-0,145	-0,064
-490,751	-200,000	0,008	-0,099
-489,737	-200,000	0,012	-0,131
-488,722	794,561	0,068	-0,136
-487,708	-200,000	-0,010	-0,041
-486,693	-80,533	0,105	-0,025
-485,678	41,670	-0,178	-0,116
-484,664	-200,000	0,006	-0,084
-483,649	-200,000	0,016	-0,060
-482,635	800,000	-0,055	-0,113
-481,620	-200,000	-0,029	0,096
-480,605	-76,759	0,052	0,013
-479,591	97,275	-0,053	0,043
-478,576	192,864	0,044	-0,048
-477,562	-63,316	-0,031	0,009
-476,547	-53,283	-0,130	-0,043
-475,532	172,263	-0,052	0,054
-474,518	-200,000	0,024	-0,089
-473,503	-61,491	0,122	0,037
-472,489	177,646	-0,147	0,155
-471,474	-200,000	-0,003	-0,070
-470,459	64,703	-0,029	-0,021
-469,445	-200,000	0,013	-0,115
-468,430	-43,628	-0,039	-0,014
-467,416	68,143	0,047	0,035
-466,401	-12,604	0,050	-0,023
-465,386	-30,614	0,094	0,038
-464,372	-200,000	0,020	0,068
-463,357	108,055	0,032	0,027
-462,343	231,627	-0,086	0,101
-461,328	800,000	0,026	0,067
-460,313	-200,000	0,007	0,114
-459,299	-46,669	0,134	0,047
-458,284	177,756	-0,082	-0,086
-457,270	-200,000	0,001	0,088
-456,255	-200,000	-0,048	-0,161
-455,241	-107,258	-0,116	0,018
-454,226	214,432	0,051	0,059
-453,211	800,000	0,020	-0,051
-452,197	-200,000	0,021	-0,079
-451,182	312,165	0,093	0,126
-450,168	-65,277	-0,070	0,020
-449,153	800,000	-0,025	0,078
-448,138	147,069	-0,084	-0,081
-447,124	-30,517	-0,196	-0,080
-446,109	-200,000	-0,025	-0,083
-445,095	-2,155	0,013	-0,006
-444,080	-159,963	-0,041	-0,002
-443,065	800,000	0,071	-0,164
-442,051	-79,144	-0,087	0,021
-441,036	-200,000	-0,015	-0,132
-440,022	393,181	0,075	-0,112
-439,007	86,927	0,057	0,046
-437,992	800,000	0,050	0,117
-436,978	452,517	-0,037	0,058
-435,963	-18,358	0,036	0,016
-434,949	800,000	0,039	-0,105
-433,934	-200,000	-0,013	0,074
-432,919	-12,544	-0,213	0,099
-431,905	93,864	-0,071	-0,058
-430,890	278,043	0,059	-0,076
-429,876	800,000	-0,037	0,113
-428,861	-200,000	-0,001	0,153
-427,846	236,364	0,052	-0,062
-426,832	-53,864	0,085	0,028
-425,817	282,997	-0,055	0,071
-424,803	38,617	0,081	-0,052
-423,788	800,000	0,036	0,098
-422,773	130,144	0,098	0,090
-421,759	106,606	0,084	-0,071
-420,744	-124,266	0,100	0,011
-419,730	77,977	0,051	0,039
-418,715	92,314	0,090	-0,073
-417,701	-61,238	-0,096	0,029
-416,686	143,216	0,105	-0,100
-415,671	-138,131	0,133	-0,010
-414,657	-200,000	0,003	0,089
-413,642	-40,235	-0,085	0,032
-412,628	-78,926	0,064	0,015
-411,613	45,285	-0,040	-0,027
-410,598	101,076	0,114	-0,095
-409,584	419,929	0,026	0,040
-408,569	-200,000	0,015	0,188
-407,555	-64,013	0,085	-0,025
-406,540	-200,000	0,038	-0,130
-405,525	561,888	-0,052	0,091
-404,511	-9,949	0,127	0,060
-403,496	439,928	0,018	-0,029
-402,482	163,652	-0,044	0,045
-401,467	479,428	0,052	0,084
-400,452	-200,000	0,020	0,166
-399,438	-3,345	-0,035	-0,017
-398,423	-200,000	0,002	0,120
-397,409	482,013	-0,125	-0,205
-396,394	346,765	0,033	-0,046
-395,379	-19,198	0,088	-0,039
-394,365	500,308	-0,039	-0,066
-393,350	106,349	0,142	0,121
-392,336	-90,526	-0,195	-0,040
-391,321	-104,880	-0,018	0,003
-390,306	205,494	-0,040	-0,044
-389,292	-162,666	-0,131	-0,005
-388,277	-40,996	0,134	-0,049
-387,263	-120,267	0,210	0,025
-386,248	-200,000	-0,029	0,189
-385,233	552,180	0,034	-0,059
-384,219	-200,000	0,006	0,032
-383,204	-200,000	-0,004	0,068
-382,190	800,000	0,025	-0,075
-381,175	-200,000	0,018	-0,100
-380,160	-43,976	0,097	0,035
-379,146	-57,211	0,079	0,025
-378,131	-45,355	-0,039	-0,014
-377,117	-200,000	0,029	0,169
-376,102	514,046	0,067	-0,112
-375,088	-16,936	-0,117	-0,053
-374,073	-66,449	-0,047	-0,013
-373,058	267,824	-0,079	0,100
-372,044	800,000	0,046	0,106
-371,029	800,000	0,029	0,065
-370,015	311,920	-0,033	0,044
-369,000	146,312	-0,022	0,021
-367,985	314,015	0,103	-0,139
-366,971	-43,702	0,129	-0,046
-365,956	-58,031	0,091	-0,028
-364,942	25,718	0,107	-0,064
-363,927	800,000	0,011	0,025
-362,912	-183,610	-0,052	-0,001
-361,898	84,997	0,031	-0,025
-360,883	583,902	0,046	-0,081
-359,869	253,404	-0,055	0,068
-358,854	13,765	-0,110	0,061
-357,839	-200,000	0,018	-0,073
-356,825	13,917	0,168	-0,094
-355,810	-134,654	0,129	0,011
-354,796	800,000	-0,021	-0,045
-353,781	66,972	-0,038	-0,028
-352,766	177,461	-0,072	-0,076
-351,752	-43,272	-0,141	-0,051
-350,737	-102,911	0,093	-0,016
-349,723	69,217	0,113	0,083
-348,708	-14,525	-0,013	-0,006
-347,693	800,000	0,017	0,037
-346,679	262,413	-0,037	-0,046
-345,664	-61,757	-0,085	-0,025
-344,650	800,000	-0,059	-0,150
-343,635	-31,924	0,122	0,049
-342,620	-10,667	-0,043	0,020
-341,606	57,866	0,090	0,063
-340,591	-200,000	-0,014	-0,203
-339,577	-45,933	-0,088	0,031
-338,562	-163,702	-0,086	0,003
-337,548	96,835	0,022	-0,018
-336,533	68,936	0,038	-0,028
-335,518	-108,366	0,136	0,021
-334,504	759,531	0,024	0,047
-333,489	-107,302	0,127	-0,020
-332,475	19,351	-0,039	-0,023
-331,460	59,366	-0,069	-0,049
-330,445	-200,000	-0,030	-0,109
-329,431	-200,000	0,009	-0,079
-328,416	-200,000	0,000	-0,067
-327,402	-200,000	-0,004	0,165
-326,387	106,005	-0,020	-0,017
-325,372	-120,380	-0,058	0,007
-324,358	-200,000	0,013	-0,086
-323,343	89,862	-0,080	0,064
-322,329	-71,318	-0,026	0,007
-321,314	-167,261	0,102	0,003
-320,299	81,210	0,059	0,046
-319,285	-200,000	-0,025	0,087
-318,270	-200,000	-0,009	-0,033
-317,256	-115,224	-0,044	0,006
-316,241	86,114	-0,044	0,035
-315,226	-200,000	0,019	-0,086
-314,212	-111,983	0,072	0,010
-313,197	-154,803	-0,054	-0,003
-312,183	-26,719	0,074	-0,031
-311,168	110,053	0,098	0,084
-310,153	-126,675	0,030	0,003
-309,139	-200,000	-0,008	-0,090
-308,124	78,021	-0,086	0,065
-307,110	145,527	0,028	0,027
-306,095	-200,000	-0,028	-0,129
-305,080	-69,589	0,065	0,018
-304,066	197,102	-0,115	0,126
-303,051	-44,260	0,046	-0,017
-302,037	-79,747	-0,131	-0,031
-301,022	123,978	0,075	-0,067
-300,008	58,417	0,050	0,035
-298,993	-90,295	0,089	-0,018
-297,978	-200,000	-0,025	-0,116
-296,964	800,000	0,054	0,144
-295,949	800,000	-0,043	-0,102
-294,935	-155,920	-0,046	0,002
-293,920	-72,751	-0,147	0,038
-292,905	122,993	0,117	0,105
-291,891	-200,000	0,019	0,109
-290,876	-71,266	0,090	-0,024
-289,862	77,313	-0,069	-0,052
-288,847	-200,000	-0,037	-0,169
-287,832	-35,546	-0,140	0,054
-286,818	708,152	0,056	-0,106
-285,803	10,124	0,118	0,064
-284,789	604,076	0,010	0,017
-283,774	145,953	0,067	-0,064
-282,759	52,871	0,178	0,121
-281,745	-200,000	0,000	-0,128
-280,730	18,048	-0,052	-0,030
-279,716	-20,708	0,115	-0,050
-278,701	-200,000	-0,050	0,215
-277,686	185,350	0,122	0,130
-276,672	-200,000	0,024	0,107
-275,657	-21,609	0,093	0,040
-274,643	-200,000	0,006	-0,049
-273,628	-200,000	-0,025	-0,148
-272,613	-21,723	-0,080	-0,035
-271,599	-200,000	-0,018	0,149
-270,584	99,976	0,043	0,036
-269,570	-17,789	-0,071	0,032
-268,555	167,987	-0,035	0,035
-267,540	-200,000	-0,015	0,086
-266,526	265,932	-0,054	-0,068
-265,511	78,396	0,090	0,068
-264,497	-200,000	0,029	0,101
-263,482	-200,000	0,046	0,219
-262,467	800,000	-0,018	0,040
-261,453	-174,449	0,042	-0,001
-260,438	-25,277	0,052	-0,022
-259,424	-101,806	-0,066	0,011
-258,409	-200,000	0,015	-0,065
-257,395	800,000	-0,010	-0,031
-256,380	179,317	0,098	-0,103
-255,365	-172,399	0,028	-0,001
-254,351	269,815	-0,122	-0,153
-253,336	-200,000	-0,046	-0,156
-252,322	-200,000	0,017	-0,157
-251,307	224,608	-0,060	-0,070
-250,292	141,190	0,042	-0,039
-249,278	-200,000	-0,020	0,141
-248,263	-101,502	-0,112	-0,019
-247,249	800,000	0,030	0,090
-246,234	233,613	-0,034	-0,040
-245,219	-164,576	0,149	-0,005
-244,205	-128,311	-0,139	-0,014
-243,190	-59,311	-0,063	-0,019
-242,176	-200,000	0,016	0,156
-241,161	78,174	0,099	0,076
-240,146	602,379	0,050	0,089
-239,132	-37,955	0,108	-0,041
-238,117	-200,000	-0,013	-0,056
-237,103	-200,000	-0,027	-0,101
-236,088	-117,528	-0,126	-0,016
-235,073	800,000	0,039	-0,112
-234,059	15,237	0,100	-0,056
-233,044	108,531	0,072	-0,061
-232,030	-200,000	-0,033	-0,109
-231,015	-59,441	0,046	0,014
-230,000	54,063	-0,061	0,042
-228,986	149,646	0,073	-0,070
-227,971	800,000	0,075	0,191
-226,957	621,107	-0,088	0,159
-225,942	800,000	-0,053	0,122
-224,927	-108,634	0,096	-0,015
-223,913	-77,639	-0,164	-0,040
-222,898	797,134	-0,066	-0,130
-221,884	-200,000	0,007	0,071
-220,869	-81,653	0,082	-0,019
-219,855	-87,057	0,112	-0,024
-218,840	-200,000	-0,011	0,063
-217,825	-118,819	0,014	-0,002
-216,811	65,874	-0,052	-0,037
-215,796	-200,000	-0,023	0,080
-214,782	487,352	-0,113	0,184
-213,767	-200,000	-0,009	0,072
-212,752	163,067	0,057	0,057
-211,738	800,000	-0,035	-0,080
-210,723	118,785	-0,045	0,039
-209,709	-200,000	-0,009	0,053
-208,694	-154,862	-0,099	0,005
-207,679	70,842	0,091	-0,067
-206,665	-85,506	0,091	-0,020
-205,650	139,175	-0,081	-0,076
-204,636	-200,000	0,002	0,104
-203,621	-6,523	-0,121	0,059
-202,606	-200,000	0,001	0,031
-201,592	-97,586	-0,077	0,014
-200,577	85,401	-0,050	0,039
-199,563	228,112	0,068	0,079
-198,548	-187,002	0,156	-0,001
-197,533	-200,000	0,014	0,080
-196,519	-57,637	0,094	0,029
-195,504	-159,840	-0,064	0,002
-194,490	12,080	-0,104	-0,057
-193,475	10,035	-0,138	0,074
-192,460	-43,196	0,070	0,025
-191,446	420,458	0,075	-0,115
-190,431	147,945	-0,089	0,086
-189,417	-200,000	0,024	0,116
-188,402	-37,998	0,066	0,025
-187,387	106,487	0,041	-0,035
-186,373	-70,880	-0,053	0,014
-185,358	-35,358	-0,056	-0,022
-184,344	800,000	-0,062	-0,153
-183,329	-55,020	-0,115	0,037
-182,315	-151,443	0,183	0,010
-181,300	518,239	-0,042	0,070
-180,285	49,209	-0,178	-0,119
-179,271	-200,000	0,024	-0,209
-178,256	-200,000	-0,039	-0,143
-177,242	-31,351	-0,140	-0,056
-176,227	-124,180	0,102	0,011
-175,212	128,306	-0,062	-0,056
-174,198	800,000	-0,043	0,085
-173,183	-200,000	-0,009	-0,088
-172,169	-200,000	-0,002	-0,018
-171,154	-63,834	-0,050	-0,014
-170,139	800,000	-0,027	0,079
-169,125	-45,179	-0,115	-0,040
-168,110	-200,000	0,016	0,106
-167,096	-200,000	-0,004	-0,074
-166,081	-200,000	0,017	-0,110
-165,066	195,455	-0,072	-0,078
-164,052	412,639	0,071	0,108
-163,037	-104,460	-0,077	0,013
-162,023	-200,000	-0,015	0,184
-161,008	-8,877	-0,045	0,021
-159,993	-152,450	0,071	0,004
-158,979	-200,000	0,004	0,028
-157,964	-200,000	-0,041	0,148
-156,950	800,000	-0,020	-0,052
-155,935	431,641	0,090	-0,140
-154,920	36,342	0,079	0,049
-153,906	58,987	0,163	0,114
-152,891	-91,023	-0,110	0,022
-151,877	135,790	0,019	0,018
-150,862	72,282	-0,054	-0,040
-149,847	-200,000	0,018	0,089
-148,833	-106,494	0,088	-0,014
-147,818	-51,754	0,040	0,013
-146,804	-200,000	-0,007	0,098
-145,789	16,901	0,028	0,016
-144,775	260,523	-0,060	-0,073
-143,760	90,716	-0,082	0,065
-142,745	48,405	-0,049	-0,033
-141,731	-170,157	-0,034	-0,001
-140,716	-118,832	0,137	-0,017
-139,702	800,000	0,019	0,040
-138,687	-33,716	-0,123	-0,048
-137,672	-200,000	0,037	-0,151
-136,658	124,778	-0,013	0,012
-135,643	78,582	-0,131	0,100
-134,629	-85,863	0,039	0,008
-133,614	72,960	-0,053	-0,040
-132,599	800,000	-0,052	0,140
-131,585	-200,000	-0,003	-0,042
-130,570	43,919	-0,022	0,014
-129,556	-200,000	-0,012	-0,102
-128,541	-200,000	-0,023	-0,158
-127,526	14,741	0,068	0,037
-126,512	13,101	0,087	-0,048
-125,497	-10,427	0,173	0,081
-124,483	-115,063	-0,016	-0,002
-123,468	-15,626	-0,106	0,048
-122,453	-70,331	0,107	-0,029
-121,439	-99,703	-0,038	0,007
-120,424	-200,000	0,000	-0,027
-119,410	0,198	-0,064	0,032
-118,395	29,451	0,051	-0,030
-117,380	248,819	0,065	0,078
-116,366	77,460	0,074	-0,056
-115,351	-97,987	-0,091	-0,017
-114,337	-146,235	-0,061	0,004
-113,322	174,886	-0,047	0,049
-112,307	711,806	-0,080	0,151
-111,293	-200,000	0,021	0,091
-110,278	764,960	0,055	-0,107
-109,264	800,000	-0,018	0,054
-108,249	410,309	0,020	-0,031
-107,234	-200,000	-0,000	-0,103
-106,220	800,000	-0,033	-0,068
-105,205	800,000	0,088	-0,210
-104,191	-32,707	0,053	-0,021
-103,176	800,000	0,007	0,022
-102,162	-200,000	0,007	0,064
-101,147	277,635	-0,070	0,088
-100,132	-37,600	0,072	-0,027
-99,118	-110,982	0,047	0,007
-98,103	800,000	-0,011	0,029
-97,089	232,632	0,105	0,123
-96,074	155,707	0,043	0,042
-95,059	-200,000	0,004	0,067
-94,045	-61,524	0,070	0,021
-93,030	-8,460	0,112	0,053
-92,016	142,557	-0,115	-0,108
-91,001	-134,650	0,034	0,003
-89,986	800,000	0,038	-0,107
-88,972	800,000	0,037	-0,106
-87,957	-75,848	-0,156	-0,039
-86,943	-200,000	-0,007	0,132
-85,928	-200,000	0,001	-0,065
-84,913	435,893	-0,053	-0,082
-83,899	27,068	-0,117	0,070
-82,884	-136,716	0,112	-0,009
-81,870	-74,846	0,061	0,015
-80,855	-200,000	0,017	0,119
-79,840	800,000	0,077	0,165
-78,826	455,061	-0,041	-0,065
-77,811	-100,531	-0,155	-0,027
-76,797	-42,990	-0,090	-0,032
-75,782	-30,231	-0,106	-0,042
-74,767	-200,000	0,004	-0,046
-73,753	357,012	-0,014	-0,020
-72,738	-113,992	-0,172	0,023
-71,724	44,114	0,098	0,063
-70,709	-200,000	-0,004	-0,122
-69,694	150,876	0,053	0,051
-68,680	154,482	-0,047	0,046
-67,665	800,000	0,038	0,078
-66,651	800,000	0,023	0,055
-65,636	471,940	-0,063	0,101
-64,622	200,092	-0,152	-0,166
-63,607	-200,000	-0,020	-0,140
-62,592	-200,000	-0,015	-0,104
-61,578	-140,663	0,112	-0,008
-60,563	800,000	-0,023	0,071
-59,549	-200,000	-0,018	-0,059
-58,534	-23,192	-1,634	-0,694
-57,519	367,705	-1,362	-1,954
-56,505	-200,000	-0,661	-4,664
-55,490	170,173	0,984	0,998
-54,476	800,000	4,993	11,401
-53,461	-200,000	18,862	312,958
-52,446	-200,000	739,197	2322,990
-51,432	574,051	1655,560	2871,271
-50,417	79,044	1671,438	1266,309
-49,403	21,837	1544,199	888,710
-48,388	15,689	1466,555	814,132
-47,373	17,834	1456,800	819,054
-46,359	16,788	1446,895	808,434
-45,344	13,966	1442,232	792,273
-44,330	13,860	1440,496	790,782
-43,315	13,865	1438,624	789,747
-42,300	13,882	1436,901	788,851
-41,286	13,881	1435,694	788,152
-40,271	13,828	1434,520	787,226
-39,257	13,860	1433,216	786,630
-38,242	13,871	1432,047	786,009
-37,227	13,949	1430,665	785,591
-36,213	13,940	1429,353	784,793
-35,198	13,907	1428,268	784,011
-34,184	13,960	1427,172	783,633
-33,169	13,880	1426,119	782,643
-32,154	13,929	1425,026	782,244
-31,140	13,946	1423,441	781,424
-30,125	13,947	1422,432	780,843
-29,111	13,935	1421,461	780,221
-28,096	13,896	1420,227	779,328
-27,082	13,861	1419,188	778,562
-26,067	13,847	1417,957	777,794
-25,052	13,829	1416,830	777,055
-24,038	13,808	1416,067	776,508
-23,023	13,800	1415,046	775,882
-22,009	13,773	1414,186	775,251
-20,994	13,828	1413,106	774,887
-19,979	13,823	1412,413	774,454
-18,965	13,804	1411,280	773,709
-17,950	13,792	1410,151	773,006
-16,936	13,768	1409,512	772,511
-15,921	13,760	1408,319	771,789
-14,906	13,717	1407,514	771,116
-13,892	13,767	1406,480	770,753
-12,877	13,733	1405,626	770,097
-11,863	13,743	1404,751	769,636
-10,848	13,736	1403,965	769,138
-9,833	13,709	1402,960	768,430
-8,819	13,676	1402,000	767,723
-7,804	13,685	1401,049	767,212
-6,790	13,640	1400,150	766,482
-5,775	13,643	1399,208	765,948
-4,760	13,647	1398,224	765,400
-3,746	13,646	1397,269	764,839
-2,731	13,617	1396,724	764,378
-1,717	13,614	1395,603	763,722
-0,702	13,649	1393,719	762,819
0,313	17,320	1311,399	734,839
1,327	33,473	705,431	432,705
2,342	50,986	123,828	82,931
3,356	0,811	16,529	8,349
4,371	-6,121	3,220	1,551
5,386	-59,831	0,616	0,185
6,400	592,689	0,108	0,190
7,415	177,422	-0,293	-0,302
8,429	781,788	-0,129	-0,250
9,444	119,589	-0,242	-0,212
10,459	99,209	-0,330	-0,270
11,473	-23,150	-0,388	-0,164
12,488	-89,537	-0,309	-0,064
13,502	91,696	-0,342	-0,272
14,517	8,257	-0,424	-0,224
15,531	-5,226	-0,378	-0,183
16,546	256,042	-0,294	-0,357
17,561	110,145	-0,391	-0,331
18,575	-94,358	-0,238	-0,045
19,590	-4,052	-0,351	-0,171
20,604	-90,810	-0,275	-0,056
21,619	235,789	-0,365	-0,427
22,634	124,194	-0,444	-0,394
23,648	133,578	-0,466	-0,426
24,663	112,383	-0,410	-0,350
25,677	202,818	-0,271	-0,296
26,692	36,410	-0,387	-0,241
27,707	36,797	-0,278	-0,173
28,721	53,404	-0,388	-0,262
29,736	79,569	-0,400	-0,303
30,750	134,519	-0,376	-0,345
31,765	193,027	-0,376	-0,402
32,780	114,810	-0,386	-0,332
33,794	98,808	-0,351	-0,286
34,809	-32,521	-0,418	-0,164
35,823	-2,367	-0,472	-0,233
36,838	166,346	-0,345	-0,345
37,853	226,870	-0,357	-0,410
38,867	39,013	-0,363	-0,229
39,882	180,494	-0,226	-0,234
40,896	19,648	-0,378	-0,214
41,911	-25,120	-0,416	-0,173
42,926	429,248	-0,227	-0,347
43,940	2,525	-0,456	-0,232
44,955	74,381	-0,423	-0,313
45,969	209,107	-0,368	-0,407
46,984	104,390	-0,256	-0,212
47,999	146,178	-0,251	-0,237
49,013	-79,867	-0,356	-0,084
50,028	61,650	-0,239	-0,167
51,042	132,872	-0,304	-0,276
52,057	72,820	-0,354	-0,260
53,071	153,472	-0,343	-0,331
54,086	10,828	-0,408	-0,219
55,101	138,126	-0,346	-0,320
56,115	24,233	-0,352	-0,204
57,130	-99,947	-0,248	0,043
58,144	57,708	-0,319	-0,219
59,159	335,762	-0,295	-0,403
60,174	-18,600	-0,405	-0,177
61,188	141,142	-0,217	-0,202
62,203	195,460	-0,252	-0,270
63,217	29,524	-0,405	-0,242
64,232	46,345	-0,378	-0,246
65,247	800,000	-0,135	-0,308
66,261	92,800	-0,307	-0,244
67,276	26,730	-0,386	-0,227
68,290	32,850	-0,430	-0,262
69,305	63,281	-0,354	-0,249
70,320	77,927	-0,221	-0,166
71,334	208,334	-0,198	-0,218
72,349	24,896	-0,326	-0,190
73,363	-23,736	-0,376	-0,158
74,378	158,570	-0,241	-0,235
75,393	301,457	-0,201	-0,262
76,407	4,939	-0,392	-0,202
77,422	-16,698	-0,317	-0,141
78,436	-4,270	-0,292	-0,142
79,451	-94,205	-0,303	-0,058
80,466	38,772	-0,296	-0,185
81,480	123,701	-0,250	-0,221
82,495	-21,892	-0,317	-0,135
83,509	157,186	-0,340	-0,331
84,524	11,686	-0,322	-0,173
85,539	-80,634	-0,385	-0,089
86,553	-2,433	-0,286	-0,141
87,568	8,762	-0,343	-0,181
88,582	87,483	-0,197	-0,153
89,597	524,097	-0,246	-0,408
90,611	6,317	-0,400	-0,208
91,626	-17,340	-0,313	-0,138
92,641	-63,157	-0,336	-0,097
93,655	-100,002	-0,264	-0,046
94,670	197,054	-0,212	-0,227
95,684	-36,910	-0,315	-0,118
96,699	12,275	-0,341	-0,184
97,714	33,434	-0,297	-0,181
98,728	-48,622	-0,212	-0,071
99,743	146,297	-0,096	-0,090
100,757	17,412	-0,328	-0,182
101,772	-26,024	-0,281	-0,115
102,787	41,780	-0,374	-0,237
103,801	31,512	-0,286	-0,172
104,816	256,638	-0,191	-0,231
105,830	27,274	-0,190	-0,112
106,845	800,000	-0,092	-0,187
107,860	-120,681	-0,202	-0,024
108,874	75,197	-0,353	-0,260
109,889	196,530	-0,250	-0,268
110,903	72,247	-0,296	-0,216
111,918	706,077	-0,121	-0,224
112,933	150,588	-0,181	-0,173
113,947	234,876	-0,228	-0,264
114,962	800,000	-0,097	-0,252
115,976	-71,869	-0,326	-0,085
116,991	28,305	-0,302	-0,179
118,006	261,799	-0,183	-0,223
119,020	73,187	-0,110	-0,080
120,035	260,838	-0,161	-0,196
121,049	-129,125	-0,279	-0,027
122,064	0,186	-0,252	-0,126
123,079	48,113	-0,327	-0,214
124,093	193,944	-0,245	-0,260
125,108	145,659	-0,194	-0,182
126,122	-57,721	-0,273	-0,083
127,137	-42,856	-0,377	-0,133
128,151	59,794	-0,187	-0,129
129,166	-28,096	-0,260	-0,105
130,181	187,918	-0,250	-0,262
131,195	238,009	-0,218	-0,254
132,210	-16,051	-0,368	-0,163
133,224	376,923	-0,244	-0,350
134,239	139,246	-0,246	-0,226
135,254	308,752	-0,188	-0,246
136,268	246,750	-0,093	-0,110
137,283	148,327	-0,228	-0,215
138,297	-21,630	-0,268	-0,114
139,312	60,425	-0,295	-0,204
140,327	172,843	-0,194	-0,196
141,341	74,441	-0,248	-0,182
142,356	121,135	-0,207	-0,180
143,370	-10,054	-0,345	-0,159
144,385	64,391	-0,121	-0,085
145,400	183,767	-0,293	-0,303
146,414	88,614	-0,262	-0,203
147,429	-62,615	-0,264	-0,076
148,443	-2,528	-0,334	-0,163
149,458	-139,494	-0,144	-0,011
150,473	-156,819	-0,240	-0,010
151,487	39,825	-0,214	-0,134
152,502	432,553	-0,174	-0,264
153,516	170,310	-0,219	-0,219
154,531	131,264	-0,311	-0,279
155,546	210,223	-0,265	-0,291
156,560	-2,489	-0,186	-0,091
157,575	-36,965	-0,301	-0,112
158,589	140,630	-0,185	-0,171
159,604	0,487	-0,394	-0,196
160,619	-10,434	-0,346	-0,159
161,633	41,256	-0,285	-0,180
162,648	124,894	-0,332	-0,292
163,662	216,498	-0,166	-0,185
164,677	-90,899	-0,231	-0,046
165,692	-136,326	-0,141	0,011
166,706	312,660	-0,179	-0,236
167,721	65,195	-0,286	-0,201
168,735	205,816	-0,213	-0,231
169,750	-46,163	-0,275	-0,094
170,764	608,290	-0,117	-0,204
171,779	-200,000	-0,246	0,001
172,794	-141,066	-0,186	-0,013
173,808	210,002	-0,101	-0,111
174,823	276,133	-0,211	-0,262
175,837	64,993	-0,231	-0,162
176,852	131,281	-0,285	-0,255
177,867	36,657	-0,271	-0,166
178,881	104,222	-0,284	-0,232
179,896	-62,048	-0,201	-0,058
180,910	270,747	-0,146	-0,179
181,925	-97,344	-0,142	-0,026
182,940	574,409	-0,149	-0,254
183,954	394,184	-0,210	-0,305
184,969	113,424	-0,230	-0,194
185,983	2,455	-0,316	-0,159
186,998	102,241	-0,168	-0,137
188,013	33,718	-0,221	-0,133
189,027	362,222	-0,139	-0,195
190,042	25,517	-0,280	-0,162
191,056	143,189	-0,160	-0,148
192,071	282,708	-0,163	-0,204
193,086	211,532	-0,172	-0,189
194,100	31,342	-0,228	-0,136
195,115	800,000	-0,097	-0,218
196,129	-200,000	-0,069	-0,286
197,144	205,827	-0,185	-0,200
198,159	106,708	-0,234	-0,193
199,173	283,716	-0,185	-0,231
200,188	294,345	-0,127	-0,162
201,202	71,693	-0,185	-0,134
202,217	-90,483	-0,151	-0,030
203,232	216,010	-0,152	-0,168
204,246	257,370	-0,276	-0,330
205,261	800,000	-0,106	-0,234
206,275	106,611	-0,250	-0,206
207,290	447,317	-0,141	-0,217
208,304	217,755	-0,161	-0,179
209,319	262,392	-0,130	-0,157
210,334	188,685	-0,194	-0,202
211,348	277,425	-0,263	-0,326
212,363	-200,000	-0,038	-0,198
213,377	-57,828	-0,206	-0,062
214,392	135,200	-0,117	-0,106
215,407	-59,305	-0,089	-0,026
216,421	34,504	-0,145	-0,088
217,436	13,650	-0,178	-0,096
218,450	-133,389	-0,230	-0,020
219,465	800,000	-0,081	-0,212
220,480	42,712	-0,208	-0,131
221,494	-54,638	-0,170	-0,053
222,509	800,000	-0,080	-0,187
223,523	28,936	-0,196	-0,115
224,538	201,834	-0,147	-0,158
225,553	142,180	-0,198	-0,182
226,567	341,992	-0,192	-0,261
227,582	-82,671	-0,292	-0,065
228,596	371,952	-0,122	-0,173
229,611	705,849	-0,095	-0,175
230,626	7,609	-0,137	-0,071
231,640	289,752	-0,142	-0,179
232,655	-65,914	-0,189	-0,052
233,669	37,263	-0,225	-0,138
234,684	52,333	-0,210	-0,138
235,699	191,719	-0,111	-0,116
236,713	-22,610	-0,197	-0,082
237,728	77,168	-0,177	-0,131
238,742	185,380	-0,167	-0,172
239,757	193,791	-0,166	-0,174
240,772	164,579	-0,125	-0,122
241,786	134,733	-0,247	-0,222
242,801	90,947	-0,176	-0,137
243,815	124,328	-0,045	-0,040
244,830	138,165	-0,108	-0,098
245,844	187,023	-0,160	-0,165
246,859	207,671	-0,175	-0,189
247,874	405,219	-0,186	-0,272
248,888	98,479	-0,229	-0,183
249,903	390,177	-0,140	-0,202
250,917	30,190	-0,104	-0,062
251,932	-92,732	-0,241	-0,046
252,947	215,572	-0,144	-0,159
253,961	101,638	-0,206	-0,166
254,976	4,077	-0,174	-0,088
255,990	800,000	-0,085	-0,249
257,005	-79,361	-0,084	0,019
258,020	-145,834	-0,175	0,011
259,034	76,026	-0,087	-0,064
260,049	157,047	-0,111	-0,106
261,063	772,090	-0,144	-0,272
262,078	464,182	-0,157	-0,244
263,093	107,502	-0,149	-0,123
264,107	127,251	-0,158	-0,139
265,122	800,000	-0,062	-0,155
266,136	-77,541	-0,127	-0,030
267,151	216,816	-0,059	-0,065
268,166	404,006	-0,092	-0,135
269,180	800,000	-0,091	-0,213
270,195	800,000	-0,133	-0,291
271,209	800,000	-0,077	-0,215
272,224	-200,000	-0,033	-0,142
273,239	-200,000	0,003	-0,079
274,253	146,793	-0,132	-0,123
275,268	79,891	-0,279	-0,207
276,282	221,711	-0,207	-0,231
277,297	100,604	-0,225	-0,181
278,312	171,859	-0,129	-0,128
279,326	97,266	-0,238	-0,189
280,341	27,268	-0,285	-0,165
281,355	-55,122	-0,087	0,027
282,370	-64,893	-0,222	-0,062
283,384	299,141	-0,181	-0,230
284,399	-27,018	-0,217	-0,087
285,414	251,321	-0,253	-0,297
286,428	-200,000	-0,030	-0,223
287,443	41,297	-0,199	-0,124
288,457	47,795	-0,072	-0,046
289,472	154,054	-0,171	-0,161
290,487	373,761	-0,202	-0,284
291,501	800,000	-0,186	-0,398
292,516	-42,084	-0,154	-0,054
293,530	-101,952	-0,112	-0,018
294,545	681,307	-0,085	-0,153
295,560	280,089	-0,123	-0,151
296,574	-90,341	-0,224	0,044
297,589	308,691	-0,161	-0,208
298,603	378,183	-0,141	-0,200
299,618	180,959	-0,142	-0,144
300,633	-45,069	-0,259	-0,088
301,647	-119,433	-0,147	0,017
302,662	43,644	-0,095	-0,060
303,676	-36,363	-0,123	-0,045
304,691	800,000	-0,073	-0,173
305,706	765,989	-0,130	-0,244
306,720	572,681	-0,121	-0,204
307,735	-30,195	-0,167	-0,065
308,749	529,545	-0,084	-0,137
309,764	-127,607	-0,098	0,010
310,779	-59,935	-0,106	0,031
311,793	-94,377	-0,143	-0,027
312,808	190,754	-0,146	-0,151
313,822	340,804	-0,121	-0,164
314,837	68,481	-0,156	-0,110
315,852	-36,684	-0,045	0,017
316,866	268,276	-0,112	-0,135
317,881	96,756	-0,106	-0,084
318,895	281,864	-0,186	-0,230
319,910	-26,060	-0,238	-0,096
320,925	-200,000	-0,028	-0,099
321,939	451,512	-0,133	-0,203
322,954	800,000	-0,079	-0,216
323,968	637,096	-0,048	-0,084
324,983	-200,000	-0,023	0,085
325,997	566,024	-0,138	-0,232
327,012	130,969	-0,155	-0,137
328,027	459,839	-0,105	-0,161
329,041	3,006	-0,149	-0,074
330,056	-84,118	-0,226	-0,049
331,070	30,229	-0,080	-0,047
332,085	-27,837	-0,169	0,067
333,100	-69,936	-0,163	-0,042
334,114	-54,562	-0,129	-0,040
335,129	228,309	-0,162	-0,182
336,143	407,937	-0,124	-0,181
337,158	-97,536	-0,156	0,028
338,173	-134,941	-0,212	0,017
339,187	-82,124	-0,178	0,040
340,202	800,000	-0,075	-0,184
341,216	-200,000	-0,022	-0,108
342,231	301,021	-0,176	-0,223
343,246	343,240	-0,132	-0,178
344,260	-1,658	-0,057	-0,027
345,275	49,716	-0,106	-0,069
346,289	255,267	-0,082	-0,096
347,304	92,028	-0,150	-0,116
348,319	28,350	-0,111	0,064
349,333	85,742	-0,228	-0,172
350,348	64,401	-0,126	-0,087
351,362	177,374	-0,130	-0,130
352,377	440,125	-0,126	-0,189
353,392	-150,734	-0,120	-0,006
354,406	800,000	-0,050	-0,139
355,421	207,351	1314,843	1409,097
356,435	159,503	1475,573	1409,585
