DTS Sentinel unit serial number:	SN410029Multiplexer serial number:	ORYXHardware model number:	OX2-SRSoftware version number:	ORYX F/W v4,00 Oryx Data Collector v3.7.2.0data status	okinstallation	B3 Nyhavnadifferential loss correction	single-endedforward channel	channel 1reverse channel	N/Adate	2023/11/29time	08:27:30forward acquisition time	300,00reverse acquisition time	0,00gamma	499,1914k internal	0,3212k external	0,3212temperature offset calibration	1,0000default loss term (dB/km)	0,3820temperature slope calibration	1,0000multiplexer offset coefficient	1,0000multiplexer slope coefficient	1,0000fibre end	0,00T internal ref (°C)	8,89T ext. ref 1 (°C)	-6,01T ext. ref 2 (°C)	-6,11length (m)	temperature (°C)	Stokes	anti-Stokes-744,400	-200,000	-0,065	-0,210
-743,385	-200,000	-0,026	0,310
-742,371	60,052	-0,164	-0,117
-741,356	800,000	0,113	0,325
-740,342	800,000	-0,106	-0,214
-739,327	800,000	0,098	0,251
-738,312	190,030	-0,281	-0,306
-737,298	-200,000	-0,107	0,348
-736,283	-75,212	-0,261	-0,067
-735,269	-200,000	-0,088	0,315
-734,254	800,000	-0,201	-0,405
-733,239	-31,718	-0,233	0,094
-732,225	-6,945	-0,156	-0,076
-731,210	-200,000	0,028	0,283
-730,196	-125,481	-0,112	0,012
-729,181	800,000	0,037	-0,080
-728,167	543,544	-0,050	0,088
-727,152	-21,043	-0,055	0,024
-726,137	147,369	-0,108	-0,105
-725,123	-99,180	-0,115	0,021
-724,108	-56,748	-0,062	-0,020
-723,094	-35,262	-0,142	-0,056
-722,079	36,348	-0,100	-0,064
-721,064	800,000	0,039	-0,115
-720,050	648,605	-0,058	0,108
-719,035	-200,000	0,013	0,178
-718,021	-200,000	-0,002	-0,085
-717,006	199,908	-0,152	-0,169
-715,991	-107,033	-0,160	0,025
-714,977	343,157	-0,060	-0,085
-713,962	59,823	0,028	0,020
-712,948	-200,000	0,006	0,122
-711,933	-55,260	-0,122	-0,039
-710,918	52,105	0,273	0,188
-709,904	108,920	0,106	-0,092
-708,889	-200,000	0,009	-0,042
-707,875	90,464	-0,086	-0,070
-706,860	14,398	0,117	-0,066
-705,845	-65,554	-0,017	-0,005
-704,831	694,292	-0,011	0,020
-703,816	-200,000	-0,022	0,077
-702,802	800,000	0,027	0,060
-701,787	416,126	-0,167	-0,259
-700,772	-200,000	-0,035	-0,133
-699,758	800,000	0,019	-0,044
-698,743	459,682	0,037	-0,060
-697,729	-100,102	0,168	0,030
-696,714	-200,000	0,018	0,170
-695,699	-200,000	0,009	0,106
-694,685	-174,971	-0,030	-0,001
-693,670	108,054	0,024	0,021
-692,656	247,685	-0,036	0,044
-691,641	228,686	0,057	-0,067
-690,627	396,392	0,053	0,080
-689,612	159,963	0,044	-0,044
-688,597	-200,000	-0,000	0,047
-687,583	-7,027	-0,139	-0,068
-686,568	-43,462	0,071	0,026
-685,554	-94,006	0,106	0,021
-684,539	800,000	0,044	0,106
-683,524	-3,493	-0,096	-0,048
-682,510	502,934	0,101	0,169
-681,495	122,731	-0,095	0,086
-680,481	800,000	0,036	-0,093
-679,466	731,297	-0,056	-0,109
-678,451	-200,000	0,003	-0,013
-677,437	800,000	0,024	0,052
-676,422	-200,000	0,004	0,170
-675,408	-143,310	-0,194	-0,013
-674,393	-143,227	-0,143	-0,010
-673,378	800,000	0,014	-0,029
-672,364	-200,000	-0,027	0,110
-671,349	286,945	-0,034	-0,045
-670,335	-200,000	0,023	0,098
-669,320	61,041	0,043	0,031
-668,305	376,308	0,143	0,211
-667,291	449,778	0,057	0,091
-666,276	310,376	-0,034	0,046
-665,262	138,801	-0,172	-0,164
-664,247	-31,045	0,139	-0,056
-663,232	788,766	-0,041	0,082
-662,218	279,006	-0,062	0,080
-661,203	388,274	-0,023	-0,035
-660,189	160,235	-0,069	0,070
-659,174	321,480	-0,031	-0,043
-658,159	-33,667	-0,104	0,041
-657,145	50,634	-0,037	-0,025
-656,130	-25,356	-0,010	0,004
-655,116	800,000	0,017	-0,036
-654,101	-200,000	-0,017	-0,156
-653,086	-200,000	0,014	-0,084
-652,072	-124,359	-0,096	-0,011
-651,057	73,323	-0,144	-0,109
-650,043	245,577	-0,050	-0,060
-649,028	0,876	0,059	-0,030
-648,014	485,286	0,112	0,185
-646,999	-200,000	-0,055	0,215
-645,984	-69,309	0,124	0,034
-644,970	800,000	-0,055	-0,148
-643,955	-20,795	-0,122	0,054
-642,941	-97,412	0,087	-0,016
-641,926	129,378	0,056	-0,052
-640,911	-200,000	0,003	0,034
-639,897	535,956	-0,035	-0,060
-638,882	800,000	0,036	-0,095
-637,868	800,000	0,024	-0,069
-636,853	68,483	-0,095	-0,070
-635,838	23,682	-0,132	0,078
-634,824	772,904	0,018	-0,035
-633,809	800,000	0,023	-0,055
-632,795	-26,126	0,036	0,015
-631,780	-123,550	-0,087	-0,010
-630,765	196,829	-0,069	-0,076
-629,751	-163,564	-0,053	0,002
-628,736	91,339	0,028	0,022
-627,722	-83,068	-0,119	0,027
-626,707	-200,000	-0,010	0,104
-625,692	284,093	0,071	0,092
-624,678	-53,307	-0,137	0,045
-623,663	236,386	0,016	-0,020
-622,649	-200,000	0,012	0,047
-621,634	800,000	-0,064	-0,132
-620,619	21,775	-0,037	0,022
-619,605	250,722	0,030	0,037
-618,590	-183,561	0,078	-0,001
-617,576	-200,000	0,008	0,065
-616,561	302,842	0,022	0,029
-615,546	52,550	-0,101	-0,069
-614,532	7,931	-0,110	-0,059
-613,517	-65,235	-0,078	-0,023
-612,503	-56,743	-0,119	-0,038
-611,488	-87,399	-0,008	-0,002
-610,474	-200,000	-0,002	0,098
-609,459	20,920	-0,050	-0,029
-608,444	-125,254	-0,109	0,012
-607,430	800,000	0,026	0,076
-606,415	28,073	-0,031	-0,019
-605,401	76,702	0,102	-0,078
-604,386	30,394	0,096	0,059
-603,371	99,037	0,083	0,069
-602,357	292,156	-0,064	0,084
-601,342	800,000	0,057	0,136
-600,328	101,013	-0,065	0,055
-599,313	-200,000	-0,003	-0,055
-598,298	-200,000	-0,020	-0,096
-597,284	-168,422	0,102	0,003
-596,269	-200,000	-0,016	-0,124
-595,255	18,637	0,014	-0,008
-594,240	-200,000	0,009	-0,070
-593,225	3,353	0,019	-0,010
-592,211	-200,000	0,000	-0,135
-591,196	-65,643	-0,126	0,036
-590,182	16,458	0,135	-0,077
-589,167	-17,081	0,107	0,049
-588,152	16,730	-0,063	0,036
-587,138	-128,637	-0,122	-0,012
-586,123	-112,724	-0,147	0,021
-585,109	-80,043	-0,097	-0,023
-584,094	58,105	0,102	-0,072
-583,079	-18,834	-0,037	0,016
-582,065	-200,000	-0,023	0,103
-581,050	-146,913	-0,111	-0,007
-580,036	180,663	-0,062	0,065
-579,021	36,595	-0,095	-0,060
-578,006	399,148	0,028	-0,042
-576,992	405,355	0,050	0,077
-575,977	-10,906	0,109	-0,052
-574,963	-200,000	0,021	0,130
-573,948	-62,653	-0,005	0,001
-572,934	-43,496	0,069	-0,025
-571,919	800,000	-0,047	-0,114
-570,904	-200,000	0,016	-0,062
-569,890	221,697	0,103	-0,120
-568,875	-48,735	0,061	-0,021
-567,861	-69,658	0,053	0,015
-566,846	85,316	0,104	0,082
-565,831	-144,316	-0,109	-0,007
-564,817	81,528	-0,101	0,079
-563,802	-118,330	-0,045	-0,006
-562,788	-200,000	0,031	-0,156
-561,773	-38,192	0,043	-0,016
-560,758	162,774	0,067	0,067
-559,744	-41,512	0,144	-0,053
-558,729	-200,000	-0,015	-0,068
-557,715	109,697	0,062	-0,054
-556,700	-156,986	-0,094	-0,004
-555,685	657,685	-0,056	-0,105
-554,671	-42,842	-0,207	0,075
-553,656	-36,205	0,095	-0,037
-552,642	4,663	-0,050	0,026
-551,627	25,103	-0,137	0,082
-550,612	-127,942	-0,084	-0,009
-549,598	-50,487	-0,054	-0,018
-548,583	320,602	-0,040	-0,055
-547,569	800,000	0,035	0,078
-546,554	-200,000	0,011	-0,047
-545,539	753,030	0,011	0,022
-544,525	800,000	-0,039	-0,114
-543,510	-135,932	-0,081	0,007
-542,496	-200,000	0,003	-0,019
-541,481	-16,702	-0,171	-0,077
-540,466	-105,196	-0,100	0,016
-539,452	-14,040	0,045	0,021
-538,437	404,024	0,076	0,116
-537,423	-200,000	0,013	0,095
-536,408	-166,417	0,075	0,002
-535,393	-200,000	0,036	-0,133
-534,379	359,822	-0,050	-0,072
-533,364	85,736	0,052	-0,041
-532,350	-102,929	0,090	-0,015
-531,335	-200,000	0,028	-0,092
-530,321	-200,000	-0,016	0,092
-529,306	76,018	-0,002	0,002
-528,291	800,000	0,016	-0,039
-527,277	87,965	-0,104	-0,082
-526,262	-132,294	-0,057	-0,005
-525,248	90,790	-0,044	-0,035
-524,233	179,656	0,034	0,036
-523,218	381,991	0,017	-0,026
-522,204	-200,000	-0,026	-0,082
-521,189	-72,034	-0,032	-0,008
-520,175	16,194	-0,020	-0,011
-519,160	800,000	0,055	0,164
-518,145	-33,364	0,119	-0,047
-517,131	750,295	-0,079	0,154
-516,116	60,050	0,127	0,090
-515,102	126,884	-0,033	-0,030
-514,087	50,315	0,101	0,069
-513,072	-145,686	-0,126	-0,008
-512,058	59,120	0,047	-0,034
-511,043	800,000	0,037	0,097
-510,029	72,466	-0,023	0,017
-509,014	-200,000	0,006	0,183
-507,999	-26,822	0,129	0,054
-506,985	-24,543	0,036	-0,015
-505,970	-200,000	-0,052	-0,173
-504,956	-200,000	-0,004	-0,155
-503,941	-76,702	0,116	-0,029
-502,926	-200,000	0,013	0,090
-501,912	40,499	0,059	0,038
-500,897	-40,546	-0,145	-0,054
-499,883	800,000	0,061	-0,132
-498,868	-153,924	-0,055	-0,003
-497,853	-200,000	-0,022	-0,078
-496,839	509,365	0,041	-0,068
-495,824	-200,000	0,011	-0,130
-494,810	275,758	0,045	-0,057
-493,795	-115,229	-0,078	0,011
-492,781	79,543	-0,065	-0,050
-491,766	-90,070	-0,119	0,025
-490,751	145,743	-0,024	0,024
-489,737	10,113	0,034	0,018
-488,722	61,490	0,098	0,070
-487,708	800,000	0,044	0,091
-486,693	-40,574	-0,156	0,058
-485,678	240,510	-0,065	-0,078
-484,664	-152,017	0,167	-0,009
-483,649	-200,000	-0,004	-0,075
-482,635	393,227	-0,050	-0,075
-481,620	704,767	-0,033	-0,063
-480,605	-200,000	-0,034	0,237
-479,591	185,079	0,092	0,098
-478,576	34,512	0,086	0,053
-477,562	290,491	0,058	-0,076
-476,547	-200,000	-0,143	-0,000
-475,532	-48,163	-0,066	0,023
-474,518	26,141	0,050	0,030
-473,503	-31,422	0,052	-0,021
-472,489	-62,833	0,119	0,035
-471,474	649,434	-0,065	0,121
-470,459	800,000	0,048	-0,108
-469,445	-200,000	0,003	0,042
-468,430	800,000	-0,120	-0,255
-467,416	800,000	0,079	-0,165
-466,401	-200,000	0,024	0,092
-465,386	-200,000	0,039	0,129
-464,372	-200,000	0,004	-0,123
-463,357	-71,540	-0,089	-0,024
-462,343	737,433	0,091	-0,176
-461,328	576,039	-0,017	0,030
-460,313	356,672	0,067	0,097
-459,299	-200,000	-0,037	0,142
-458,284	182,953	0,060	0,064
-457,270	-7,650	0,109	-0,053
-456,255	800,000	-0,024	0,061
-455,241	114,810	0,034	0,030
-454,226	27,307	-0,108	0,065
-453,211	800,000	0,057	0,132
-452,197	-200,000	0,009	0,164
-451,182	800,000	-0,032	0,085
-450,168	-104,474	-0,128	-0,021
-449,153	-200,000	0,019	-0,171
-448,138	-43,666	-0,107	0,038
-447,124	-200,000	0,002	0,127
-446,109	36,446	-0,064	-0,040
-445,095	-200,000	0,000	-0,058
-444,080	391,677	-0,060	0,089
-443,065	100,655	0,072	0,060
-442,051	-200,000	-0,019	0,072
-441,036	7,741	-0,131	0,070
-440,022	36,729	0,069	-0,044
-439,007	-97,566	0,200	0,037
-437,992	100,025	0,036	-0,030
-436,978	711,707	0,059	-0,112
-435,963	-200,000	-0,011	-0,045
-434,949	369,274	-0,045	-0,066
-433,934	800,000	-0,022	-0,052
-432,919	800,000	0,057	-0,131
-431,905	235,578	-0,030	-0,035
-430,890	-200,000	0,019	0,253
-429,876	60,406	0,033	0,023
-428,861	-27,076	0,029	0,012
-427,846	180,488	-0,026	0,027
-426,832	800,000	-0,024	-0,053
-425,817	-28,742	-0,075	-0,031
-424,803	85,054	-0,069	0,054
-423,788	316,722	0,078	0,106
-422,773	303,892	-0,024	-0,031
-421,759	90,563	0,076	-0,061
-420,744	127,292	-0,062	0,057
-419,730	-84,926	0,133	0,030
-418,715	-67,388	-0,129	0,036
-417,701	-200,000	0,015	0,157
-416,686	-37,586	0,127	-0,048
-415,671	355,013	-0,040	-0,057
-414,657	-200,000	-0,013	-0,087
-413,642	683,561	0,033	-0,063
-412,628	800,000	0,026	-0,066
-411,613	-67,584	-0,055	0,015
-410,598	-200,000	-0,004	-0,095
-409,584	194,499	0,010	0,011
-408,569	-2,315	0,253	0,127
-407,555	-200,000	0,008	0,055
-406,540	340,315	-0,026	0,037
-405,525	800,000	-0,066	0,177
-404,511	800,000	-0,018	0,037
-403,496	-200,000	0,010	-0,056
-402,482	259,738	-0,026	0,033
-401,467	-143,480	0,134	-0,009
-400,452	-200,000	0,007	-0,032
-399,438	164,857	-0,058	0,059
-398,423	-71,475	0,090	-0,024
-397,409	800,000	0,006	0,014
-396,394	-39,437	-0,055	-0,021
-395,379	38,163	0,033	0,021
-394,365	46,785	0,064	-0,042
-393,350	-49,848	-0,043	0,015
-392,336	82,594	-0,123	0,096
-391,321	-90,306	-0,165	-0,034
-390,306	-200,000	-0,019	-0,103
-389,292	-200,000	-0,001	0,105
-388,277	39,439	0,035	0,022
-387,263	-38,322	0,146	0,055
-386,248	-106,394	0,077	0,012
-385,233	-93,904	-0,097	0,019
-384,219	219,566	-0,025	0,028
-383,204	136,859	-0,070	0,065
-382,190	-66,793	0,172	-0,048
-381,175	-200,000	-0,042	0,000
-380,160	800,000	0,037	0,112
-379,146	380,310	0,111	0,163
-378,131	-200,000	0,020	-0,089
-377,117	-45,373	-0,073	0,026
-376,102	-200,000	0,051	-0,171
-375,088	-87,317	-0,079	0,017
-374,073	16,516	0,117	0,066
-373,058	-166,064	0,068	-0,002
-372,044	475,755	0,110	0,178
-371,029	448,579	-0,019	-0,030
-370,015	-14,460	-0,031	0,014
-369,000	94,904	0,031	-0,025
-367,985	57,943	0,111	-0,078
-366,971	-10,168	0,155	-0,073
-365,956	-200,000	-0,001	-0,034
-364,942	79,042	0,066	0,050
-363,927	15,179	0,103	-0,058
-362,912	-142,678	-0,146	-0,010
-361,898	134,859	-0,064	0,059
-360,883	29,433	-0,115	0,070
-359,869	800,000	-0,012	-0,035
-358,854	800,000	0,013	-0,030
-357,839	167,818	0,065	0,066
-356,825	753,930	-0,025	0,049
-355,810	69,066	-0,039	0,029
-354,796	-9,882	-0,102	-0,048
-353,781	88,757	-0,089	-0,071
-352,766	800,000	0,038	-0,111
-351,752	179,302	0,061	0,064
-350,737	-200,000	0,016	-0,055
-349,723	205,746	0,143	0,158
-348,708	800,000	0,045	0,092
-347,693	504,853	-0,051	-0,085
-346,679	20,915	0,044	-0,026
-345,664	800,000	0,011	0,033
-344,650	-200,000	0,024	-0,122
-343,635	-200,000	-0,020	0,088
-342,620	-128,850	-0,033	0,003
-341,606	-35,873	-0,089	0,034
-340,591	12,542	-0,146	-0,080
-339,577	54,654	-0,162	-0,111
-338,562	94,285	0,026	-0,021
-337,548	492,226	-0,073	0,120
-336,533	-5,762	0,132	-0,064
-335,518	-190,187	-0,106	0,001
-334,504	-19,087	0,168	0,074
-333,489	-60,911	-0,101	0,030
-332,475	378,181	0,016	-0,024
-331,460	143,650	-0,129	-0,123
-330,445	-5,299	0,063	0,031
-329,431	271,555	0,041	-0,051
-328,416	29,767	-0,022	0,013
-327,402	623,136	0,012	0,022
-326,387	-200,000	0,015	-0,072
-325,372	89,928	-0,013	0,010
-324,358	-200,000	-0,015	-0,071
-323,343	-70,633	0,109	-0,029
-322,329	550,710	-0,052	-0,090
-321,314	-200,000	-0,020	0,074
-320,299	663,572	-0,052	0,096
-319,285	-200,000	-0,004	-0,046
-318,270	347,246	-0,049	-0,069
-317,256	179,377	-0,032	-0,033
-316,241	-52,635	-0,092	-0,030
-315,226	-200,000	0,007	-0,039
-314,212	-69,021	0,097	0,026
-313,197	800,000	-0,067	0,160
-312,183	492,214	0,009	-0,015
-311,168	800,000	0,012	0,032
-310,153	-191,054	-0,101	-0,001
-309,139	-131,224	0,041	0,004
-308,124	-112,994	0,177	0,025
-307,110	522,890	-0,044	-0,074
-306,095	43,313	-0,048	0,031
-305,080	154,910	0,040	-0,039
-304,066	-200,000	-0,005	-0,091
-303,051	66,603	0,139	-0,100
-302,037	200,594	0,013	-0,014
-301,022	800,000	0,036	0,095
-300,008	550,846	0,047	-0,080
-298,993	301,926	-0,103	0,136
-297,978	-200,000	0,019	0,097
-296,964	618,010	-0,072	0,128
-295,949	800,000	-0,069	-0,178
-294,935	202,013	0,099	-0,109
-293,920	-34,602	-0,058	-0,022
-292,905	590,960	0,014	-0,025
-291,891	-191,343	0,180	-0,001
-290,876	800,000	-0,024	0,050
-289,862	264,112	0,141	-0,176
-288,847	800,000	-0,059	-0,147
-287,832	79,793	-0,113	-0,086
-286,818	-22,566	-0,063	0,027
-285,803	-19,165	-0,122	-0,054
-284,789	-29,972	0,130	0,052
-283,774	12,247	-0,049	0,027
-282,759	127,363	0,082	0,074
-281,745	-87,375	0,084	0,018
-280,730	-68,960	-0,121	-0,033
-279,716	457,676	0,056	0,089
-278,701	88,572	0,043	-0,034
-277,686	468,031	0,080	0,128
-276,672	-200,000	-0,012	-0,051
-275,657	347,867	-0,035	-0,050
-274,643	83,636	0,027	-0,021
-273,628	800,000	-0,052	-0,129
-272,613	-200,000	0,001	0,021
-271,599	-75,475	0,104	-0,026
-270,584	373,897	0,093	0,135
-269,570	33,742	0,080	0,049
-268,555	36,617	-0,102	0,064
-267,540	-200,000	0,005	-0,039
-266,526	94,819	-0,093	0,075
-265,511	-5,535	0,086	0,042
-264,497	-200,000	0,012	0,089
-263,482	-200,000	-0,004	0,079
-262,467	800,000	0,032	0,081
-261,453	169,689	0,003	-0,003
-260,438	42,820	0,079	-0,051
-259,424	382,444	-0,095	-0,140
-258,409	-200,000	-0,013	-0,147
-257,395	-200,000	0,015	-0,109
-256,380	-45,967	0,161	-0,056
-255,365	208,875	0,084	0,094
-254,351	-155,222	0,103	-0,005
-253,336	800,000	0,013	-0,028
-252,322	-119,866	-0,221	-0,027
-251,307	-200,000	0,032	0,122
-250,292	-200,000	0,004	0,069
-249,278	50,462	0,052	0,035
-248,263	-200,000	0,001	0,135
-247,249	-101,963	-0,049	0,008
-246,234	-126,677	-0,244	-0,025
-245,219	800,000	0,067	-0,186
-244,205	-200,000	0,045	-0,168
-243,190	-153,810	-0,119	-0,006
-242,176	-81,073	0,121	-0,028
-241,161	-32,007	-0,017	0,007
-240,146	644,654	0,022	0,041
-239,132	37,734	-0,086	0,054
-238,117	800,000	0,048	-0,149
-237,103	-200,000	-0,003	0,050
-236,088	226,731	-0,070	-0,081
-235,073	-126,814	-0,013	0,001
-234,059	686,251	-0,036	0,067
-233,044	-200,000	0,034	0,144
-232,030	800,000	-0,039	-0,082
-231,015	-200,000	-0,010	-0,063
-230,000	41,896	-0,226	-0,145
-228,986	-200,000	-0,015	0,147
-227,971	800,000	0,030	-0,088
-226,957	-90,734	-0,145	-0,030
-225,942	1,944	0,151	0,077
-224,927	29,521	0,063	0,038
-223,913	-73,000	-0,063	0,016
-222,898	-95,253	-0,168	-0,032
-221,884	-200,000	0,024	0,080
-220,869	-181,653	0,156	0,002
-219,855	-200,000	0,005	0,138
-218,840	-84,300	0,221	0,049
-217,825	-19,599	-0,083	-0,036
-216,811	-178,743	-0,104	0,002
-215,796	-127,747	-0,135	-0,014
-214,782	86,052	0,096	-0,075
-213,767	-200,000	0,003	-0,010
-212,752	-78,512	0,122	0,030
-211,738	-53,805	-0,111	-0,036
-210,723	-12,191	0,066	-0,031
-209,709	-200,000	-0,019	-0,137
-208,694	83,224	-0,019	-0,014
-207,679	-200,000	0,042	0,163
-206,665	109,716	-0,059	-0,050
-205,650	559,668	0,029	0,049
-204,636	112,848	-0,017	-0,015
-203,621	-200,000	-0,025	0,121
-202,606	183,051	0,088	0,093
-201,592	-135,549	-0,080	0,007
-200,577	662,757	0,020	-0,038
-199,563	12,326	0,089	-0,048
-198,548	142,421	0,056	0,053
-197,533	800,000	-0,011	-0,028
-196,519	-200,000	-0,029	-0,167
-195,504	137,142	0,053	0,049
-194,490	800,000	0,044	-0,102
-193,475	308,199	-0,057	-0,076
-192,460	-143,347	-0,098	-0,007
-191,446	66,512	0,131	-0,094
-190,431	233,720	-0,035	0,041
-189,417	800,000	0,045	-0,093
-188,402	671,080	-0,035	-0,065
-187,387	-152,744	-0,092	-0,005
-186,373	800,000	0,012	-0,028
-185,358	-55,505	-0,132	-0,042
-184,344	-106,407	0,081	0,013
-183,329	-200,000	-0,013	-0,043
-182,315	800,000	0,038	0,104
-181,300	-200,000	0,000	-0,051
-180,285	100,999	-0,101	0,083
-179,271	-200,000	-0,019	-0,092
-178,256	47,471	0,186	0,123
-177,242	110,339	-0,007	-0,006
-176,227	-200,000	0,021	0,175
-175,212	-0,595	0,056	0,028
-174,198	-118,931	0,111	0,014
-173,183	-200,000	-0,013	-0,087
-172,169	-159,969	0,069	0,003
-171,154	8,126	-0,045	-0,024
-170,139	-153,147	-0,065	0,003
-169,125	-129,349	0,091	0,009
-168,110	800,000	0,036	0,091
-167,096	507,460	0,009	0,015
-166,081	-136,506	-0,097	-0,008
-165,066	-50,904	-0,089	0,029
-164,052	331,523	-0,034	0,046
-163,037	800,000	0,030	-0,072
-162,023	800,000	-0,033	0,096
-161,008	-24,827	-0,039	0,016
-159,993	-29,689	0,112	0,045
-158,979	59,414	-0,134	0,094
-157,964	-200,000	0,022	-0,126
-156,950	160,970	0,036	0,036
-155,935	-22,523	0,038	0,016
-154,920	-81,658	0,052	-0,012
-153,906	-200,000	0,002	0,023
-152,891	800,000	0,010	-0,032
-151,877	-124,457	-0,028	0,003
-150,862	98,857	0,015	0,012
-149,847	-131,219	-0,102	-0,009
-148,833	-200,000	0,020	-0,086
-147,818	-200,000	-0,002	0,058
-146,804	800,000	0,035	0,078
-145,789	-200,000	0,005	-0,112
-144,775	15,498	-0,041	0,023
-143,760	274,659	0,045	0,057
-142,745	-200,000	-0,002	-0,065
-141,731	168,545	-0,118	0,119
-140,716	-200,000	0,013	0,102
-139,702	-200,000	-0,017	0,109
-138,687	-200,000	-0,024	0,077
-137,672	793,327	-0,071	0,140
-136,658	-42,652	0,091	-0,033
-135,643	444,682	0,047	-0,074
-134,629	-200,000	0,016	-0,069
-133,614	800,000	0,038	0,102
-132,599	-70,685	-0,027	-0,007
-131,585	377,870	0,030	0,043
-130,570	142,880	-0,031	-0,029
-129,556	-31,564	-0,082	-0,032
-128,541	235,697	-0,068	-0,079
-127,526	-165,258	-0,026	0,001
-126,512	164,833	-0,127	0,127
-125,497	293,667	0,043	-0,055
-124,483	-200,000	-0,027	0,147
-123,468	-200,000	-0,004	-0,064
-122,453	41,482	-0,131	0,084
-121,439	31,746	-0,060	0,037
-120,424	758,678	0,059	0,114
-119,410	187,820	0,094	0,099
-118,395	800,000	-0,027	0,059
-117,380	-160,632	0,075	-0,003
-116,366	724,083	0,031	-0,059
-115,351	-200,000	-0,024	0,234
-114,337	-200,000	0,011	-0,055
-113,322	-200,000	0,008	-0,036
-112,307	-200,000	-0,007	0,023
-111,293	800,000	0,030	-0,086
-110,278	27,074	0,011	-0,006
-109,264	55,238	0,069	-0,047
-108,249	463,684	-0,069	-0,109
-107,234	-200,000	0,001	0,123
-106,220	800,000	0,029	-0,078
-105,205	-99,809	-0,108	-0,019
-104,191	-200,000	-0,031	0,112
-103,176	73,534	0,074	-0,055
-102,162	89,027	-0,082	0,065
-101,147	-176,079	-0,057	-0,001
-100,132	800,000	-0,016	0,037
-99,118	800,000	0,053	-0,114
-98,103	161,727	0,124	-0,123
-97,089	-200,000	-0,005	0,111
-96,074	-200,000	0,024	-0,135
-95,059	800,000	0,008	0,022
-94,045	544,291	-0,032	0,054
-93,030	800,000	0,029	0,079
-92,016	-200,000	-0,003	-0,138
-91,001	800,000	0,008	-0,024
-89,986	33,936	-0,057	0,035
-88,972	-200,000	-0,021	0,132
-87,957	47,937	0,163	0,107
-86,943	-200,000	0,021	-0,146
-85,928	754,862	-0,014	-0,026
-84,913	800,000	0,088	-0,178
-83,899	16,104	-0,057	0,031
-82,884	312,445	-0,014	0,019
-81,870	-200,000	-0,013	-0,071
-80,855	800,000	0,032	0,099
-79,840	800,000	-0,053	-0,116
-78,826	444,838	0,037	-0,057
-77,811	-48,623	-0,097	0,033
-76,797	-200,000	0,005	-0,079
-75,782	-200,000	-0,015	-0,115
-74,767	13,564	0,085	0,046
-73,753	-88,268	0,125	0,026
-72,738	-200,000	0,011	0,055
-71,724	29,541	-0,081	0,049
-70,709	-200,000	-0,026	0,092
-69,694	42,872	0,087	-0,056
-68,680	477,738	-0,071	0,114
-67,665	800,000	0,031	0,072
-66,651	-200,000	0,058	0,000
-65,636	-200,000	-0,012	-0,061
-64,622	-94,719	-0,089	0,017
-63,607	50,613	0,040	0,027
-62,592	-4,618	-0,084	-0,041
-61,578	-200,000	-0,013	-0,073
-60,563	-200,000	-0,016	-0,090
-59,549	286,706	0,068	0,087
-58,534	37,798	-2,201	-1,377
-57,519	662,288	-1,066	-1,947
-56,505	-200,000	-0,162	-4,410
-55,490	493,212	0,910	1,478
-54,476	800,000	5,248	11,469
-53,461	-200,000	22,027	337,662
-52,446	800,000	758,657	2294,344
-51,432	532,653	1652,051	2769,648
-50,417	69,146	1650,188	1195,643
-49,403	16,539	1525,033	847,842
-48,388	10,732	1449,443	777,876
-47,373	19,021	1441,612	813,216
-46,359	14,111	1430,347	783,607
-45,344	9,016	1426,492	757,326
-44,330	8,995	1424,501	756,138
-43,315	8,961	1422,793	755,041
-42,300	8,982	1420,865	754,086
-41,286	8,978	1419,802	753,476
-40,271	8,933	1418,510	752,547
-39,257	8,971	1417,193	751,995
-38,242	9,007	1416,067	751,538
-37,227	8,977	1415,172	750,894
-36,213	8,990	1413,733	750,161
-35,198	9,018	1412,378	749,543
-34,184	9,029	1411,463	749,078
-33,169	8,926	1410,206	747,902
-32,154	8,949	1409,461	747,583
-31,140	8,944	1407,999	746,756
-30,125	8,941	1406,907	746,133
-29,111	8,952	1405,616	745,470
-28,096	8,965	1404,450	744,882
-27,082	8,933	1403,143	744,008
-26,067	8,923	1402,357	743,519
-25,052	8,923	1401,254	742,901
-24,038	8,919	1400,327	742,360
-23,023	8,930	1399,267	741,824
-22,009	8,920	1398,380	741,274
-20,994	8,929	1397,295	740,712
-19,979	8,908	1396,121	739,966
-18,965	8,858	1395,383	739,314
-17,950	8,842	1394,506	738,743
-16,936	8,862	1393,703	738,380
-15,921	8,782	1392,723	737,464
-14,906	8,818	1391,375	736,887
-13,892	8,850	1390,669	736,633
-12,877	8,862	1389,969	736,284
-11,863	8,790	1389,055	735,441
-10,848	8,825	1388,142	735,090
-9,833	8,761	1387,258	734,297
-8,819	8,734	1386,319	733,648
-7,804	8,774	1385,390	733,311
-6,790	8,736	1384,409	732,585
-5,775	8,768	1383,423	732,181
-4,760	8,771	1382,422	731,637
-3,746	8,774	1381,672	731,223
-2,731	8,793	1380,527	730,677
-1,717	8,775	1379,886	730,226
-0,702	8,779	1377,900	729,164
0,313	12,864	1289,558	700,950
1,327	28,826	681,792	406,375
2,342	44,764	117,353	75,984
3,356	-0,167	16,470	8,234
4,371	9,037	3,772	2,001
5,386	-11,072	1,234	0,572
6,400	800,000	0,183	0,447
7,415	248,396	-0,148	-0,177
8,429	583,387	-0,147	-0,256
9,444	-63,445	-0,313	-0,090
10,459	112,995	-0,239	-0,204
11,473	177,966	-0,192	-0,198
12,488	-83,206	-0,225	-0,051
13,502	108,348	-0,197	-0,166
14,517	-19,572	-0,263	-0,114
15,531	292,560	-0,179	-0,231
16,546	7,087	-0,394	-0,206
17,561	89,860	-0,367	-0,288
18,575	154,693	-0,245	-0,237
19,590	203,999	-0,175	-0,191
20,604	164,833	-0,148	-0,147
21,619	72,264	-0,443	-0,324
22,634	111,193	-0,432	-0,366
23,648	121,949	-0,387	-0,340
24,663	336,000	-0,339	-0,464
25,677	95,560	-0,390	-0,313
26,692	15,095	-0,291	-0,160
27,707	8,529	-0,357	-0,189
28,721	-43,041	-0,538	-0,191
29,736	121,750	-0,358	-0,314
30,750	64,370	-0,330	-0,233
31,765	129,072	-0,279	-0,250
32,780	104,945	-0,325	-0,270
33,794	175,576	-0,215	-0,219
34,809	37,581	-0,225	-0,140
35,823	21,204	-0,389	-0,221
36,838	104,826	-0,390	-0,323
37,853	-3,737	-0,300	-0,146
38,867	253,684	-0,252	-0,303
39,882	118,097	-0,267	-0,231
40,896	-49,632	-0,338	-0,112
41,911	-10,032	-0,335	-0,156
42,926	111,440	-0,420	-0,356
43,940	-37,953	-0,336	-0,125
44,955	37,623	-0,393	-0,244
45,969	257,956	-0,262	-0,317
46,984	-51,727	-0,451	-0,147
47,999	-66,014	-0,371	0,103
49,013	-94,173	-0,366	-0,070
50,028	124,004	-0,291	-0,256
51,042	259,393	-0,285	-0,346
52,057	118,848	-0,344	-0,298
53,071	238,256	-0,302	-0,352
54,086	240,901	-0,261	-0,306
55,101	-4,355	-0,286	-0,138
56,115	6,396	-0,477	-0,248
57,130	54,524	-0,212	-0,143
58,144	24,674	-0,306	-0,177
59,159	18,313	-0,400	-0,223
60,174	27,197	-0,378	-0,222
61,188	10,580	-0,384	-0,205
62,203	-191,874	-0,348	-0,002
63,217	227,398	-0,206	-0,236
64,232	-45,018	-0,374	-0,130
65,247	38,911	-0,275	-0,172
66,261	6,468	-0,434	-0,226
67,276	42,950	-0,324	-0,206
68,290	7,369	-0,235	-0,123
69,305	-102,933	-0,258	-0,043
70,320	-20,203	-0,271	-0,116
71,334	61,955	-0,226	-0,158
72,349	-68,275	-0,207	-0,056
73,363	-76,392	-0,392	-0,096
74,378	-78,557	-0,324	-0,077
75,393	457,375	-0,233	-0,364
76,407	286,101	-0,197	-0,250
77,422	210,769	-0,313	-0,345
78,436	-21,396	-0,234	-0,100
79,451	-13,388	-0,285	-0,129
80,466	-18,894	-0,328	-0,142
81,480	32,649	-0,264	-0,160
82,495	35,364	-0,310	-0,190
83,509	-2,027	-0,456	-0,223
84,524	163,083	-0,230	-0,227
85,539	-11,481	-0,291	-0,133
86,553	16,019	-0,180	-0,099
87,568	-57,324	-0,361	-0,110
88,582	-59,765	-0,402	-0,120
89,597	-48,777	-0,286	-0,096
90,611	-24,506	-0,233	-0,097
91,626	-37,778	-0,165	-0,061
92,641	152,335	-0,198	-0,189
93,655	-16,809	-0,440	-0,194
94,670	143,760	-0,309	-0,288
95,684	88,175	-0,228	-0,177
96,699	48,551	-0,353	-0,231
97,714	-49,808	-0,301	-0,099
98,728	800,000	-0,061	-0,130
99,743	-145,323	-0,283	-0,018
100,757	-36,183	-0,355	-0,133
101,772	143,345	-0,207	-0,193
102,787	-8,177	-0,160	-0,075
103,801	66,325	-0,297	-0,211
104,816	141,376	-0,224	-0,207
105,830	41,302	-0,291	-0,184
106,845	86,703	-0,247	-0,190
107,860	-18,093	-0,332	-0,145
108,874	-62,386	-0,226	-0,065
109,889	168,351	-0,277	-0,275
110,903	35,180	-0,322	-0,197
111,918	-29,651	-0,377	-0,150
112,933	93,258	-0,321	-0,253
113,947	153,995	-0,212	-0,203
114,962	83,062	-0,189	-0,143
115,976	204,454	-0,206	-0,223
116,991	54,341	-0,229	-0,154
118,006	114,707	-0,221	-0,188
119,020	162,497	-0,167	-0,164
120,035	3,682	-0,314	-0,159
121,049	7,355	-0,326	-0,169
122,064	9,290	-0,167	-0,088
123,079	-40,770	-0,231	-0,083
124,093	67,676	-0,239	-0,170
125,108	35,269	-0,283	-0,173
126,122	-0,084	-0,204	-0,101
127,137	32,719	-0,286	-0,172
128,151	-87,524	-0,246	0,052
129,166	-9,553	-0,174	-0,081
130,181	149,806	-0,212	-0,200
131,195	240,795	-0,195	-0,227
132,210	106,397	-0,312	-0,258
133,224	54,793	-0,202	-0,136
134,239	93,745	-0,201	-0,159
135,254	569,585	-0,160	-0,272
136,268	-80,895	-0,177	-0,041
137,283	171,377	-0,133	-0,133
138,297	18,214	-0,275	-0,152
139,312	87,051	-0,231	-0,177
140,327	-28,004	-0,390	-0,156
141,341	73,935	-0,114	-0,084
142,356	51,363	-0,276	-0,182
143,370	129,956	-0,238	-0,212
144,385	113,410	-0,201	-0,170
145,400	324,728	-0,194	-0,259
146,414	129,466	-0,189	-0,168
147,429	392,458	-0,220	-0,320
148,443	279,886	-0,187	-0,233
149,458	317,277	-0,153	-0,201
150,473	-35,399	-0,181	-0,068
151,487	-68,066	-0,207	-0,056
152,502	106,620	-0,297	-0,245
153,516	382,295	-0,144	-0,206
154,531	94,978	-0,355	-0,281
155,546	-200,000	-0,038	-0,152
156,560	-57,047	-0,292	-0,089
157,575	5,882	-0,157	-0,080
158,589	-17,877	-0,257	-0,112
159,604	-86,373	-0,256	-0,054
160,619	-27,373	-0,209	-0,084
161,633	146,797	-0,203	-0,190
162,648	123,295	-0,203	-0,177
163,662	-71,535	-0,295	-0,076
164,677	78,427	-0,192	-0,143
165,692	78,317	-0,165	-0,123
166,706	65,820	-0,193	-0,136
167,721	189,321	-0,252	-0,263
168,735	86,148	-0,190	-0,145
169,750	123,572	-0,217	-0,189
170,764	52,892	-0,217	-0,144
171,779	214,162	-0,195	-0,214
172,794	-11,245	-0,157	-0,071
173,808	235,197	-0,227	-0,261
174,823	183,987	-0,226	-0,232
175,837	61,924	-0,256	-0,177
176,852	96,229	-0,184	-0,146
177,867	56,569	-0,201	-0,135
178,881	175,975	-0,165	-0,166
179,896	12,367	-0,206	-0,110
180,910	-6,085	-0,251	-0,119
181,925	395,329	-0,099	-0,144
182,940	184,995	-0,160	-0,165
183,954	16,805	-0,176	-0,097
184,969	-6,727	-0,247	-0,116
185,983	198,033	-0,181	-0,192
186,998	482,562	-0,065	-0,102
188,013	-42,159	-0,235	-0,083
189,027	129,809	-0,208	-0,185
190,042	115,992	-0,230	-0,196
191,056	149,307	-0,200	-0,188
192,071	-30,158	-0,300	-0,118
193,086	-200,000	-0,060	-0,191
194,100	244,452	-0,170	-0,199
195,115	4,253	-0,255	-0,129
196,129	45,330	-0,297	-0,190
197,144	-16,369	-0,286	-0,125
198,159	87,402	-0,217	-0,166
199,173	180,658	-0,280	-0,286
200,188	82,245	-0,148	-0,112
201,202	-7,628	-0,122	-0,057
202,217	145,248	-0,239	-0,222
203,232	-111,441	-0,305	-0,043
204,246	635,231	-0,111	-0,196
205,261	117,882	-0,280	-0,239
206,275	6,535	-0,111	-0,057
207,290	-27,012	-0,107	-0,043
208,304	-131,462	-0,191	-0,017
209,319	64,222	-0,182	-0,127
210,334	603,749	-0,093	-0,161
211,348	-10,792	-0,211	-0,096
212,363	25,102	-0,237	-0,136
213,377	160,086	-0,150	-0,145
214,392	283,818	-0,103	-0,128
215,407	57,106	-0,191	-0,129
216,421	208,058	-0,155	-0,168
217,436	6,440	-0,180	-0,092
218,450	276,343	-0,235	-0,289
219,465	-51,498	-0,335	-0,108
220,480	-107,816	-0,276	-0,041
221,494	-17,428	-0,243	-0,105
222,509	13,021	-0,077	-0,041
223,523	35,645	-0,205	-0,124
224,538	34,343	-0,239	-0,144
225,553	-38,983	-0,154	-0,056
226,567	236,765	-0,098	-0,112
227,582	165,970	-0,154	-0,150
228,596	-93,130	-0,281	-0,054
229,611	800,000	-0,044	-0,126
230,626	59,305	-0,119	-0,081
231,640	-139,713	-0,123	0,009
232,655	33,528	-0,291	-0,175
233,669	696,332	-0,185	-0,337
234,684	692,749	-0,052	-0,095
235,699	461,922	-0,178	-0,276
236,713	-67,345	-0,244	-0,066
237,728	227,441	-0,106	-0,119
238,742	98,843	-0,201	-0,160
239,757	57,224	-0,124	-0,084
240,772	-139,086	-0,260	-0,019
241,786	-191,262	-0,146	0,001
242,801	126,169	-0,266	-0,232
243,815	-56,440	-0,138	-0,042
244,830	255,401	-0,106	-0,126
245,844	182,107	-0,259	-0,263
246,859	322,515	-0,161	-0,213
247,874	13,072	-0,186	-0,099
248,888	-138,342	-0,248	0,019
249,903	24,472	-0,112	-0,064
250,917	-113,071	-0,218	-0,029
251,932	-122,364	-0,087	-0,010
252,947	213,541	-0,168	-0,184
253,961	110,673	-0,298	-0,248
254,976	277,358	-0,205	-0,251
255,990	356,603	-0,108	-0,149
257,005	144,303	-0,146	-0,134
258,020	-17,145	-0,160	-0,069
259,034	-10,642	-0,177	-0,080
260,049	-115,666	-0,266	0,034
261,063	411,732	-0,108	-0,158
262,078	139,251	-0,114	-0,103
263,093	-80,914	-0,224	0,051
264,107	800,000	-0,068	-0,195
265,122	-98,570	-0,210	-0,037
266,136	474,835	-0,176	-0,275
267,151	-118,409	-0,130	-0,016
268,166	-61,188	-0,192	-0,055
269,180	42,682	-0,144	0,090
270,195	12,287	-0,260	-0,138
271,209	-109,317	-0,118	-0,017
272,224	145,719	-0,089	-0,082
273,239	204,565	-0,135	-0,144
274,253	52,215	-0,215	-0,141
275,268	43,677	-0,153	-0,096
276,282	638,849	-0,141	-0,247
277,297	800,000	-0,066	-0,169
278,312	800,000	-0,124	-0,254
279,326	41,278	-0,077	0,048
280,341	-125,655	-0,085	0,009
281,355	17,989	-0,047	-0,026
282,370	103,287	-0,190	-0,153
283,384	-21,522	-0,191	-0,080
284,399	220,073	-0,137	-0,151
285,414	-154,292	-0,222	-0,010
286,428	53,763	-0,216	-0,143
287,443	-37,546	-0,111	-0,041
288,457	111,502	-0,088	-0,073
289,472	-42,274	-0,128	0,045
290,487	178,227	-0,237	-0,238
291,501	-146,863	-0,233	-0,014
292,516	-36,152	-0,312	-0,115
293,530	90,668	-0,139	-0,107
294,545	22,946	-0,130	-0,073
295,560	-110,492	-0,220	0,031
296,574	-14,128	-0,208	-0,092
297,589	28,482	-0,226	-0,131
298,603	800,000	-0,056	-0,119
299,618	-132,612	-0,279	-0,024
300,633	-200,000	0,003	-0,134
301,647	180,343	-0,116	0,117
302,662	-163,281	-0,177	-0,006
303,676	185,387	-0,091	-0,093
304,691	91,430	-0,270	-0,208
305,706	98,554	-0,134	0,106
306,720	458,430	-0,064	-0,098
307,735	-64,416	-0,193	-0,053
308,749	485,123	-0,100	-0,157
309,764	259,252	-0,141	-0,167
310,779	-29,536	-0,189	-0,074
311,793	-133,528	-0,181	-0,015
312,808	-73,624	-0,251	-0,062
313,822	-12,241	-0,040	-0,018
314,837	-8,914	-0,153	-0,070
315,852	99,886	-0,077	0,061
316,866	-200,000	-0,002	-0,080
317,881	-104,473	-0,191	-0,030
318,895	28,051	-0,239	-0,138
319,910	386,533	-0,090	-0,128
320,925	124,925	-0,215	-0,186
321,939	289,343	-0,082	-0,102
322,954	523,940	-0,080	-0,130
323,968	-200,000	-0,048	-0,181
324,983	-200,000	-0,018	-0,156
325,997	-35,504	-0,096	0,036
327,012	152,193	-0,224	-0,209
328,027	800,000	-0,087	-0,190
329,041	197,346	-0,099	-0,104
330,056	463,655	-0,104	-0,160
331,070	-130,959	-0,147	-0,013
332,085	-200,000	-0,003	-0,071
333,100	60,635	-0,079	0,053
334,114	82,624	-0,056	-0,042
335,129	-20,725	-0,170	-0,071
336,143	9,518	-0,162	-0,084
337,158	-200,000	0,018	-0,067
338,173	800,000	-0,028	0,081
339,187	-177,533	-0,110	-0,002
340,202	53,267	-0,071	-0,046
341,216	-107,345	-0,199	-0,030
342,231	-22,765	-0,138	-0,057
343,246	185,278	-0,202	-0,206
344,260	147,742	-0,041	-0,038
345,275	546,528	-0,026	0,043
346,289	-42,057	-0,176	0,061
347,304	94,893	-0,064	-0,050
348,319	800,000	-0,115	-0,262
349,333	68,010	-0,269	-0,188
350,348	232,412	-0,088	-0,098
351,362	173,622	-0,102	-0,101
352,377	577,909	-0,080	-0,134
353,392	-27,131	-0,058	-0,023
354,406	-71,719	-0,060	-0,015
355,421	208,205	1303,564	1394,501
356,435	160,201	1462,881	1394,972
