DTS Sentinel unit serial number:	SN410029Multiplexer serial number:	ORYXHardware model number:	OX2-SRSoftware version number:	ORYX F/W v4,00 Oryx Data Collector v3.7.2.0data status	okinstallation	B3 Nyhavnadifferential loss correction	single-endedforward channel	channel 1reverse channel	N/Adate	2023/12/04time	21:52:30forward acquisition time	300,00reverse acquisition time	0,00gamma	499,1914k internal	0,3200k external	0,3200temperature offset calibration	1,0000default loss term (dB/km)	0,3820temperature slope calibration	1,0000multiplexer offset coefficient	1,0000multiplexer slope coefficient	1,0000fibre end	0,00T internal ref (°C)	14,56T ext. ref 1 (°C)	-0,37T ext. ref 2 (°C)	-0,38length (m)	temperature (°C)	Stokes	anti-Stokes-744,400	273,955	-0,195	-0,252
-743,385	-200,000	0,024	0,240
-742,371	139,219	-0,213	-0,204
-741,356	800,000	0,116	0,350
-740,342	734,484	-0,079	-0,155
-739,327	-200,000	0,009	0,254
-738,312	90,727	-0,328	-0,267
-737,298	743,942	0,101	0,199
-736,283	371,328	-0,225	-0,333
-735,269	-200,000	-0,024	0,306
-734,254	44,032	-0,219	-0,146
-733,239	-1,202	-0,220	0,113
-732,225	685,845	-0,052	-0,100
-731,210	55,251	0,086	0,060
-730,196	-0,991	-0,150	0,077
-729,181	-200,000	-0,005	-0,042
-728,167	-200,000	0,005	0,071
-727,152	-82,762	-0,025	-0,006
-726,137	25,239	-0,148	-0,089
-725,123	-200,000	-0,013	0,106
-724,108	443,799	-0,067	-0,107
-723,094	800,000	-0,008	-0,022
-722,079	280,777	-0,008	-0,010
-721,064	-200,000	-0,010	0,135
-720,050	-128,966	-0,157	0,016
-719,035	800,000	0,022	-0,050
-718,021	-73,679	0,042	-0,011
-717,006	16,375	-0,046	0,026
-715,991	539,805	-0,034	-0,059
-714,977	-79,845	-0,220	0,053
-713,962	52,586	-0,056	-0,039
-712,948	-41,680	0,163	-0,061
-711,933	-69,967	-0,068	0,019
-710,918	502,132	0,069	-0,117
-709,904	-200,000	-0,012	-0,054
-708,889	-200,000	0,007	-0,108
-707,875	-200,000	-0,001	0,026
-706,860	6,712	0,088	-0,047
-705,845	-165,945	0,069	0,002
-704,831	-200,000	-0,022	0,079
-703,816	564,819	0,029	-0,052
-702,802	157,126	-0,103	-0,103
-701,787	-200,000	0,016	-0,153
-700,772	-126,879	-0,081	0,009
-699,758	-200,000	-0,044	-0,204
-698,743	8,232	0,049	0,027
-697,729	-200,000	0,011	0,087
-696,714	127,151	0,005	0,005
-695,699	114,797	-0,117	0,103
-694,685	-113,725	-0,051	-0,007
-693,670	-83,676	-0,063	0,015
-692,656	280,840	0,116	0,151
-691,641	-141,415	0,053	-0,004
-690,627	3,854	-0,073	0,038
-689,612	232,809	0,139	0,166
-688,597	560,960	-0,012	-0,021
-687,583	800,000	-0,067	-0,137
-686,568	-172,253	-0,096	0,002
-685,554	800,000	-0,033	-0,101
-684,539	206,587	0,079	-0,089
-683,524	-200,000	0,000	0,025
-682,510	800,000	0,031	0,071
-681,495	-200,000	-0,007	0,077
-680,481	-200,000	-0,047	-0,156
-679,466	-200,000	-0,011	-0,137
-678,451	800,000	0,027	0,059
-677,437	-116,549	-0,155	0,020
-676,422	-62,810	0,071	-0,021
-675,408	-200,000	-0,001	0,068
-674,393	17,680	-0,048	0,028
-673,378	27,795	0,030	-0,018
-672,364	-32,223	-0,077	-0,031
-671,349	-89,564	-0,053	0,011
-670,335	-175,727	0,038	-0,001
-669,320	-200,000	0,010	0,113
-668,305	-57,127	0,085	-0,027
-667,291	-200,000	-0,009	0,035
-666,276	-200,000	-0,012	-0,044
-665,262	-200,000	0,039	-0,170
-664,247	-146,258	-0,037	0,002
-663,232	55,716	0,067	0,047
-662,218	-42,211	0,116	-0,043
-661,203	-200,000	0,003	0,061
-660,189	607,119	0,048	-0,087
-659,174	690,847	-0,067	-0,128
-658,159	-10,352	-0,194	0,093
-657,145	35,258	-0,043	-0,027
-656,130	800,000	0,031	0,083
-655,116	-200,000	0,006	-0,056
-654,101	-200,000	0,016	0,157
-653,086	80,918	-0,029	-0,023
-652,072	-117,500	0,154	0,020
-651,057	159,451	-0,037	0,038
-650,043	-32,771	0,089	0,036
-649,028	-200,000	-0,015	0,072
-648,014	-58,228	0,005	0,001
-646,999	-93,927	0,130	0,026
-645,984	-106,363	0,134	-0,022
-644,970	92,704	-0,080	-0,065
-643,955	-200,000	0,012	-0,098
-642,941	239,122	-0,012	0,015
-641,926	-96,022	-0,072	-0,014
-640,911	210,187	-0,029	0,033
-639,897	197,799	-0,036	0,040
-638,882	107,186	-0,095	0,082
-637,868	-200,000	-0,028	-0,111
-636,853	-200,000	0,000	-0,025
-635,838	-40,164	-0,100	-0,037
-634,824	-200,000	-0,001	-0,110
-633,809	-45,491	0,052	-0,019
-632,795	-200,000	0,012	0,113
-631,780	113,458	0,074	0,065
-630,765	312,433	-0,013	-0,017
-629,751	-200,000	-0,009	-0,051
-628,736	37,355	-0,135	0,086
-627,722	-49,082	0,120	0,041
-626,707	-200,000	-0,017	-0,066
-625,692	-200,000	0,028	0,140
-624,678	73,647	-0,100	-0,076
-623,663	75,706	-0,115	0,088
-622,649	-200,000	-0,009	0,033
-621,634	173,341	-0,091	-0,095
-620,619	-155,647	-0,162	-0,007
-619,605	81,831	0,115	-0,090
-618,590	300,533	0,059	-0,080
-617,576	156,330	-0,019	-0,019
-616,561	-200,000	-0,028	0,096
-615,546	-166,186	-0,145	0,004
-614,532	-148,813	0,093	-0,005
-613,517	-15,247	-0,133	-0,061
-612,503	103,921	-0,073	0,062
-611,488	-150,485	-0,080	0,004
-610,474	40,568	-0,044	-0,028
-609,459	-200,000	-0,028	0,114
-608,444	-51,863	-0,072	0,024
-607,430	800,000	-0,077	0,183
-606,415	669,746	-0,027	0,051
-605,401	121,075	0,051	0,046
-604,386	-30,139	-0,094	0,038
-603,371	257,875	0,024	0,030
-602,357	-200,000	-0,007	0,045
-601,342	-81,785	-0,133	0,031
-600,328	-174,132	-0,091	0,002
-599,313	-29,781	0,062	0,026
-598,298	800,000	-0,009	0,022
-597,284	-99,703	0,112	-0,020
-596,269	-200,000	0,009	0,081
-595,255	-88,534	-0,096	0,021
-594,240	33,922	-0,023	-0,014
-593,225	254,700	0,055	-0,068
-592,211	-6,395	-0,094	-0,046
-591,196	-29,631	0,079	0,033
-590,182	-200,000	-0,000	-0,079
-589,167	-44,336	-0,017	0,006
-588,152	122,589	0,043	-0,039
-587,138	109,677	-0,068	0,059
-586,123	800,000	0,037	-0,081
-585,109	15,777	0,027	-0,015
-584,094	-110,356	-0,035	0,005
-583,079	800,000	0,034	-0,100
-582,065	-110,403	0,177	-0,026
-581,050	-200,000	-0,002	0,053
-580,036	-9,789	-0,051	0,025
-579,021	26,235	0,058	-0,035
-578,006	699,448	-0,035	0,066
-576,992	-98,232	0,105	-0,019
-575,977	-200,000	-0,016	-0,069
-574,963	-200,000	0,010	-0,072
-573,948	800,000	-0,022	-0,053
-572,934	800,000	0,007	-0,024
-571,919	-29,080	-0,072	-0,030
-570,904	-200,000	-0,022	-0,071
-569,890	-200,000	-0,055	-0,185
-568,875	137,548	-0,070	-0,066
-567,861	800,000	0,046	0,123
-566,846	178,717	-0,081	0,085
-565,831	404,612	0,020	0,030
-564,817	113,819	-0,104	-0,091
-563,802	-200,000	-0,031	-0,117
-562,788	-127,872	-0,042	0,004
-561,773	800,000	-0,046	-0,124
-560,758	364,956	-0,042	0,061
-559,744	800,000	0,044	0,112
-558,729	-200,000	-0,003	0,042
-557,715	-110,256	0,092	-0,014
-556,700	-29,905	-0,064	0,026
-555,685	94,805	-0,057	0,046
-554,671	-21,964	-0,089	-0,039
-553,656	-114,012	-0,093	0,013
-552,642	-200,000	-0,014	0,061
-551,627	486,716	0,054	-0,089
-550,612	800,000	-0,024	0,050
-549,598	350,312	0,029	-0,042
-548,583	765,250	-0,026	-0,051
-547,569	252,191	-0,034	-0,042
-546,554	-87,420	0,068	0,015
-545,539	-105,520	-0,057	0,009
-544,525	-73,077	0,037	0,010
-543,510	-126,465	-0,083	-0,009
-542,496	-200,000	-0,010	-0,081
-541,481	92,909	-0,023	-0,019
-540,466	-143,820	-0,115	-0,008
-539,452	-200,000	0,001	-0,039
-538,437	-200,000	-0,006	-0,030
-537,423	-133,577	0,050	0,004
-536,408	-68,781	-0,101	-0,028
-535,393	34,301	0,074	-0,046
-534,379	153,286	0,077	-0,076
-533,364	251,839	-0,033	-0,040
-532,350	-2,886	-0,105	0,053
-531,335	-164,998	-0,111	0,003
-530,321	-200,000	-0,005	-0,052
-529,306	581,565	0,075	0,133
-528,291	162,691	-0,028	0,028
-527,277	-200,000	0,013	-0,128
-526,262	158,248	0,133	-0,133
-525,248	26,303	0,097	0,059
-524,233	120,205	-0,016	0,014
-523,218	-6,971	0,092	0,045
-522,204	-17,521	0,084	-0,038
-521,189	-75,266	-0,115	-0,029
-520,175	42,410	-0,055	-0,036
-519,160	-77,835	0,184	-0,046
-518,145	-48,882	0,076	-0,026
-517,131	432,235	0,041	0,064
-516,116	296,860	0,027	-0,036
-515,102	39,899	-0,115	0,074
-514,087	-116,498	-0,104	0,014
-513,072	-2,425	-0,123	-0,062
-512,058	22,191	0,118	-0,069
-511,043	-94,364	-0,092	-0,018
-510,029	575,356	0,036	-0,063
-509,014	11,875	0,154	0,085
-507,999	38,194	-0,036	0,023
-506,985	-200,000	0,017	-0,085
-505,970	-106,356	-0,051	-0,008
-504,956	335,301	-0,046	0,065
-503,941	-200,000	-0,011	-0,236
-502,926	-200,000	0,034	0,148
-501,912	-200,000	-0,018	0,102
-500,897	-200,000	0,001	-0,067
-499,883	800,000	-0,049	0,142
-498,868	350,996	0,042	-0,060
-497,853	-166,678	-0,036	-0,001
-496,839	121,955	-0,065	-0,058
-495,824	17,665	0,071	0,041
-494,810	245,970	-0,085	0,103
-493,795	-45,835	-0,036	-0,013
-492,781	37,664	0,033	0,021
-491,766	7,965	0,072	0,039
-490,751	-109,744	-0,113	0,017
-489,737	552,865	0,041	0,071
-488,722	-200,000	-0,015	0,074
-487,708	-200,000	-0,004	0,158
-486,693	383,985	0,009	0,013
-485,678	702,587	-0,033	0,063
-484,664	-200,000	0,011	0,058
-483,649	-200,000	-0,019	0,081
-482,635	800,000	-0,052	0,125
-481,620	-69,569	-0,018	-0,005
-480,605	-115,037	0,060	-0,008
-479,591	800,000	-0,029	-0,080
-478,576	-12,720	0,076	-0,035
-477,562	15,059	-0,087	-0,049
-476,547	425,305	-0,062	-0,097
-475,532	112,953	-0,088	-0,077
-474,518	-135,640	0,167	0,014
-473,503	-200,000	0,003	0,012
-472,489	-200,000	0,007	0,038
-471,474	249,014	0,077	-0,094
-470,459	800,000	-0,012	-0,035
-469,445	22,023	-0,046	0,027
-468,430	-200,000	0,008	-0,124
-467,416	80,831	0,163	0,126
-466,401	-78,760	-0,020	0,005
-465,386	37,922	0,048	0,031
-464,372	290,879	0,089	-0,117
-463,357	66,564	0,052	-0,038
-462,343	788,651	-0,100	-0,198
-461,328	-200,000	0,001	-0,093
-460,313	323,441	-0,041	0,057
-459,299	128,761	0,060	0,055
-458,284	-7,511	0,207	0,100
-457,270	465,714	0,078	0,126
-456,255	-200,000	-0,010	-0,037
-455,241	-200,000	0,001	-0,038
-454,226	645,392	0,011	-0,021
-453,211	270,190	0,029	-0,036
-452,197	-120,570	0,170	-0,020
-451,182	-77,536	-0,138	0,034
-450,168	-200,000	0,001	0,005
-449,153	-200,000	-0,007	0,046
-448,138	-73,181	-0,120	-0,031
-447,124	-200,000	-0,010	-0,149
-446,109	36,154	-0,035	0,022
-445,095	-200,000	-0,004	0,026
-444,080	-76,521	0,097	0,024
-443,065	-89,822	-0,059	0,012
-442,051	582,287	-0,024	-0,043
-441,036	-48,243	-0,045	-0,016
-440,022	-200,000	-0,007	0,075
-439,007	312,783	0,047	0,064
-437,992	46,420	0,093	0,062
-436,978	382,603	-0,061	-0,091
-435,963	800,000	-0,048	0,107
-434,949	93,526	0,045	-0,037
-433,934	-35,896	-0,127	-0,049
-432,919	164,376	-0,038	-0,039
-431,905	343,535	-0,031	-0,043
-430,890	365,146	-0,012	-0,018
-429,876	-43,866	0,026	-0,009
-428,861	-200,000	0,000	-0,046
-427,846	-123,254	0,031	0,003
-426,832	-89,288	0,047	-0,010
-425,817	800,000	0,015	0,042
-424,803	-77,741	0,065	0,016
-423,788	-57,610	0,150	0,047
-422,773	800,000	-0,025	0,073
-421,759	800,000	0,015	-0,035
-420,744	-73,406	0,045	0,012
-419,730	-74,776	-0,060	-0,015
-418,715	-171,864	0,149	-0,003
-417,701	-56,679	-0,019	-0,006
-416,686	505,664	0,035	0,058
-415,671	-17,019	0,114	0,052
-414,657	713,770	0,094	0,179
-413,642	148,785	0,042	-0,041
-412,628	-200,000	-0,013	-0,084
-411,613	-200,000	0,050	0,000
-410,598	-200,000	0,006	0,051
-409,584	-200,000	0,004	0,043
-408,569	800,000	-0,010	0,024
-407,555	35,932	0,156	0,098
-406,540	800,000	0,035	0,105
-405,525	229,490	-0,044	0,052
-404,511	-121,426	0,086	-0,010
-403,496	266,278	0,009	-0,011
-402,482	77,064	0,048	0,037
-401,467	-127,293	0,119	-0,012
-400,452	800,000	0,061	0,136
-399,438	800,000	0,020	0,059
-398,423	365,803	0,113	0,164
-397,409	-200,000	-0,041	-0,154
-396,394	581,050	0,033	-0,058
-395,379	284,027	0,046	0,059
-394,365	142,922	0,069	0,066
-393,350	-80,067	-0,148	-0,035
-392,336	108,293	0,036	-0,030
-391,321	-200,000	-0,003	-0,070
-390,306	-200,000	-0,001	-0,169
-389,292	-200,000	-0,020	-0,082
-388,277	800,000	-0,031	-0,082
-387,263	648,100	0,024	0,044
-386,248	214,366	-0,042	0,048
-385,233	406,176	0,068	0,103
-384,219	355,557	0,003	-0,005
-383,204	-106,240	-0,187	-0,030
-382,190	387,064	-0,029	0,043
-381,175	65,421	-0,087	-0,063
-380,160	-52,377	0,110	-0,036
-379,146	800,000	0,078	0,194
-378,131	-15,221	0,093	0,042
-377,117	-200,000	-0,087	-0,000
-376,102	755,705	-0,052	0,101
-375,088	-200,000	-0,014	-0,122
-374,073	-8,308	0,086	-0,041
-373,058	-59,887	-0,017	-0,005
-372,044	800,000	-0,035	0,080
-371,029	280,276	0,085	0,109
-370,015	97,798	0,057	-0,047
-369,000	-97,245	-0,212	-0,039
-367,985	800,000	0,041	-0,129
-366,971	-37,349	-0,222	0,084
-365,956	87,687	-0,038	-0,030
-364,942	12,849	0,104	0,057
-363,927	-200,000	-0,034	0,110
-362,912	-200,000	-0,025	0,094
-361,898	-200,000	0,014	-0,097
-360,883	-200,000	0,002	-0,108
-359,869	284,735	-0,127	-0,165
-358,854	-72,702	0,088	-0,023
-357,839	-200,000	-0,015	-0,135
-356,825	35,547	0,070	0,044
-355,810	99,550	-0,105	0,087
-354,796	-172,372	-0,114	-0,003
-353,781	-68,017	0,171	-0,048
-352,766	-200,000	-0,024	0,154
-351,752	-60,736	-0,097	0,029
-350,737	-83,101	0,026	-0,006
-349,723	-200,000	0,004	0,047
-348,708	608,166	-0,036	0,064
-347,693	800,000	-0,063	-0,139
-346,679	94,640	-0,058	0,047
-345,664	27,005	-0,170	0,102
-344,650	-200,000	-0,015	0,096
-343,635	-200,000	0,024	0,110
-342,620	-49,166	-0,070	-0,024
-341,606	800,000	0,013	0,028
-340,591	-50,441	-0,076	-0,025
-339,577	-57,464	-0,064	0,020
-338,562	-200,000	0,000	-0,098
-337,548	-50,313	-0,073	-0,025
-336,533	792,325	0,052	-0,103
-335,518	309,353	0,058	-0,078
-334,504	356,063	-0,054	0,078
-333,489	800,000	-0,040	-0,102
-332,475	-200,000	-0,004	0,042
-331,460	800,000	-0,005	0,014
-330,445	23,864	-0,065	-0,038
-329,431	-20,161	0,143	0,063
-328,416	800,000	0,045	-0,104
-327,402	126,029	0,131	0,118
-326,387	-200,000	0,012	-0,073
-325,372	-200,000	0,036	-0,135
-324,358	157,299	-0,064	-0,064
-323,343	-200,000	0,003	0,025
-322,329	-200,000	0,009	0,123
-321,314	800,000	-0,055	0,149
-320,299	-200,000	0,014	0,187
-319,285	800,000	-0,020	-0,053
-318,270	80,141	0,021	-0,016
-317,256	89,606	-0,144	-0,115
-316,241	-67,385	0,169	-0,047
-315,226	800,000	-0,077	-0,169
-314,212	-71,423	-0,092	0,024
-313,197	114,231	0,071	-0,062
-312,183	184,697	-0,089	-0,094
-311,168	280,512	-0,078	-0,101
-310,153	-4,427	0,042	-0,021
-309,139	92,483	0,066	-0,053
-308,124	52,549	0,024	-0,016
-307,110	602,997	0,073	0,130
-306,095	-16,767	-0,086	0,039
-305,080	-200,000	-0,019	0,069
-304,066	148,418	0,069	0,067
-303,051	-200,000	0,028	0,092
-302,037	-127,612	0,046	-0,005
-301,022	77,959	0,157	-0,120
-300,008	-1,841	-0,023	0,012
-298,993	-81,762	0,096	0,022
-297,978	-120,711	-0,121	0,015
-296,964	-42,964	0,062	-0,022
-295,949	-200,000	-0,014	-0,130
-294,935	-200,000	0,023	-0,085
-293,920	-53,832	-0,071	-0,023
-292,905	562,224	-0,108	0,187
-291,891	-200,000	0,023	-0,092
-290,876	426,652	0,105	-0,162
-289,862	1,785	0,121	-0,062
-288,847	-66,548	-0,065	0,018
-287,832	800,000	-0,020	-0,063
-286,818	243,740	-0,053	-0,064
-285,803	-200,000	0,015	0,052
-284,789	67,237	0,182	0,132
-283,774	-144,619	0,080	0,005
-282,759	-52,166	0,033	0,011
-281,745	-112,083	-0,064	0,009
-280,730	-37,259	0,084	-0,032
-279,716	-200,000	0,028	0,095
-278,701	-200,000	0,008	0,074
-277,686	171,120	0,010	0,011
-276,672	-133,654	0,047	0,004
-275,657	754,025	-0,036	0,069
-274,643	155,714	-0,032	0,032
-273,628	391,000	-0,093	-0,138
-272,613	800,000	0,052	-0,140
-271,599	-0,737	0,028	-0,014
-270,584	562,620	-0,027	-0,047
-269,570	145,843	0,068	0,065
-268,555	4,753	-0,097	-0,051
-267,540	55,340	0,045	0,031
-266,526	-3,668	-0,112	0,056
-265,511	144,397	0,071	-0,067
-264,497	542,850	-0,036	0,062
-263,482	160,591	0,050	-0,049
-262,467	-200,000	0,004	0,131
-261,453	-117,245	0,064	-0,008
-260,438	-200,000	-0,005	-0,124
-259,424	-200,000	-0,018	-0,079
-258,409	-57,798	0,120	0,037
-257,395	800,000	-0,004	-0,008
-256,380	70,241	-0,049	-0,036
-255,365	800,000	0,084	0,189
-254,351	-145,478	-0,122	0,008
-253,336	-200,000	0,029	0,153
-252,322	132,167	0,021	0,020
-251,307	-88,008	-0,129	-0,027
-250,292	-78,820	-0,116	0,028
-249,278	-21,226	0,205	0,089
-248,263	800,000	-0,045	0,088
-247,249	-99,520	0,133	-0,024
-246,234	-85,474	0,087	0,019
-245,219	800,000	0,020	0,054
-244,205	-79,360	-0,046	-0,011
-243,190	133,618	0,027	-0,025
-242,176	614,661	0,076	0,137
-241,161	649,291	0,047	-0,087
-240,146	800,000	0,019	-0,051
-239,132	48,716	0,100	0,067
-238,117	-200,000	-0,015	0,099
-237,103	-21,415	-0,101	-0,044
-236,088	-68,447	0,032	0,009
-235,073	-67,006	0,066	0,019
-234,059	-56,794	0,133	0,042
-233,044	63,448	-0,119	-0,085
-232,030	-200,000	-0,152	0,000
-231,015	668,145	0,028	0,052
-230,000	-200,000	-0,013	-0,073
-228,986	-200,000	0,022	0,077
-227,971	800,000	0,035	0,088
-226,957	107,976	-0,090	0,076
-225,942	-200,000	-0,028	0,099
-224,927	-66,896	0,024	-0,007
-223,913	-200,000	0,005	-0,068
-222,898	347,007	0,065	-0,092
-221,884	362,289	0,047	-0,068
-220,869	800,000	-0,022	-0,050
-219,855	98,420	0,056	0,046
-218,840	137,318	0,040	-0,038
-217,825	189,307	0,103	0,110
-216,811	-200,000	-0,032	0,135
-215,796	324,529	-0,056	-0,076
-214,782	-200,000	0,007	-0,098
-213,767	181,173	-0,095	-0,100
-212,752	-52,462	0,107	-0,035
-211,738	-200,000	-0,009	-0,082
-210,723	-200,000	-0,015	-0,065
-209,709	3,476	-0,030	-0,015
-208,694	800,000	0,022	0,052
-207,679	-28,517	-0,037	-0,015
-206,665	800,000	0,019	0,053
-205,650	-67,155	0,111	-0,031
-204,636	800,000	0,041	-0,104
-203,621	-102,182	-0,070	0,012
-202,606	-64,939	0,033	0,009
-201,592	-200,000	-0,039	-0,257
-200,577	175,498	-0,111	-0,115
-199,563	-14,986	0,071	-0,032
-198,548	71,892	0,076	-0,056
-197,533	103,069	0,037	-0,031
-196,519	-200,000	-0,022	0,085
-195,504	421,333	-0,079	0,121
-194,490	27,252	-0,033	-0,020
-193,475	-200,000	-0,011	-0,137
-192,460	-200,000	-0,017	-0,141
-191,446	121,503	0,072	-0,064
-190,431	800,000	-0,029	0,057
-189,417	800,000	0,023	-0,049
-188,402	-200,000	0,004	-0,119
-187,387	-127,683	-0,116	0,012
-186,373	639,186	-0,053	-0,097
-185,358	66,237	-0,069	-0,050
-184,344	647,432	0,024	-0,044
-183,329	800,000	-0,008	-0,021
-182,315	800,000	0,037	0,117
-181,300	20,579	-0,064	-0,037
-180,285	442,255	0,019	-0,030
-179,271	-200,000	-0,001	0,118
-178,256	800,000	0,027	0,067
-177,242	800,000	0,059	0,144
-176,227	-63,832	0,020	0,006
-175,212	-200,000	-0,009	0,115
-174,198	-155,325	-0,078	-0,004
-173,183	-200,000	-0,006	-0,137
-172,169	-200,000	0,000	-0,028
-171,154	800,000	-0,029	0,081
-170,139	209,027	-0,101	-0,112
-169,125	800,000	-0,054	0,150
-168,110	784,316	0,048	0,095
-167,096	531,883	-0,017	0,028
-166,081	-200,000	-0,024	-0,078
-165,066	-95,612	-0,078	0,015
-164,052	471,062	-0,037	-0,059
-163,037	379,497	0,053	-0,078
-162,023	-46,913	0,135	-0,047
-161,008	251,410	0,011	0,013
-159,993	-200,000	-0,010	0,120
-158,979	800,000	-0,019	0,041
-157,964	95,214	0,082	-0,066
-156,950	662,042	0,050	-0,092
-155,935	800,000	0,053	0,136
-154,920	800,000	0,040	0,103
-153,906	42,251	0,212	0,137
-152,891	523,018	-0,077	0,130
-151,877	213,958	-0,094	-0,106
-150,862	84,419	0,142	-0,110
-149,847	-74,046	-0,049	-0,013
-148,833	26,802	0,073	-0,043
-147,818	-46,049	0,058	-0,020
-146,804	800,000	-0,039	0,096
-145,789	323,451	-0,107	0,146
-144,775	70,733	0,109	-0,080
-143,760	27,655	-0,021	-0,012
-142,745	12,776	0,080	-0,044
-141,731	-76,048	0,156	-0,039
-140,716	800,000	0,103	0,209
-139,702	-200,000	-0,050	0,213
-138,687	-125,981	0,048	-0,005
-137,672	-157,395	-0,117	-0,005
-136,658	93,815	0,020	0,016
-135,643	-50,676	-0,164	-0,055
-134,629	800,000	0,020	0,051
-133,614	-0,251	-0,148	0,074
-132,599	-200,000	-0,040	0,166
-131,585	189,306	-0,039	-0,041
-130,570	-200,000	0,009	0,031
-129,556	-200,000	-0,036	-0,194
-128,541	-200,000	-0,007	0,049
-127,526	800,000	0,025	-0,054
-126,512	-135,505	0,114	-0,009
-125,497	385,421	0,027	-0,040
-124,483	190,346	0,091	0,097
-123,468	-200,000	-0,008	0,130
-122,453	-200,000	-0,003	0,096
-121,439	547,377	0,014	0,024
-120,424	-200,000	0,004	-0,077
-119,410	-41,520	0,155	0,056
-118,395	-200,000	0,021	0,130
-117,380	690,283	0,047	0,087
-116,366	-200,000	-0,004	-0,017
-115,351	87,709	0,118	-0,093
-114,337	-4,235	0,019	0,010
-113,322	362,448	0,068	0,097
-112,307	-200,000	-0,024	-0,124
-111,293	-151,300	0,046	0,002
-110,278	800,000	-0,042	-0,098
-109,264	800,000	0,024	0,057
-108,249	415,966	-0,032	0,049
-107,234	163,131	0,113	-0,113
-106,220	-128,593	-0,064	-0,006
-105,205	800,000	0,039	-0,114
-104,191	-5,112	0,203	-0,099
-103,176	18,777	-0,006	0,003
-102,162	20,647	-0,150	-0,086
-101,147	-200,000	0,015	-0,183
-100,132	-134,739	-0,029	-0,002
-99,118	-200,000	-0,020	0,075
-98,103	800,000	0,059	0,124
-97,089	-200,000	-0,021	0,096
-96,074	24,238	0,131	-0,076
-95,059	-97,901	0,141	-0,026
-94,045	-53,300	-0,134	0,043
-93,030	-200,000	0,017	0,082
-92,016	-85,986	-0,156	-0,034
-91,001	800,000	0,029	-0,071
-89,986	800,000	-0,011	0,030
-88,972	-76,560	0,089	0,022
-87,957	-57,142	0,058	-0,018
-86,943	800,000	0,038	-0,092
-85,928	-200,000	-0,006	-0,047
-84,913	800,000	-0,043	0,109
-83,899	648,758	0,036	0,065
-82,884	79,794	0,049	-0,038
-81,870	-16,249	0,128	-0,058
-80,855	800,000	0,070	0,149
-79,840	629,486	-0,061	0,110
-78,826	800,000	0,061	-0,119
-77,811	97,318	-0,075	-0,061
-76,797	-200,000	0,009	0,039
-75,782	-92,321	0,066	-0,013
-74,767	303,843	-0,030	-0,040
-73,753	-14,264	0,037	0,017
-72,738	194,947	-0,063	0,068
-71,724	-23,909	-0,010	-0,004
-70,709	-200,000	0,001	-0,105
-69,694	-68,259	-0,104	0,028
-68,680	-200,000	-0,003	-0,055
-67,665	-133,451	-0,108	-0,009
-66,651	-200,000	0,017	0,085
-65,636	103,107	-0,069	0,057
-64,622	356,950	-0,025	-0,035
-63,607	-118,668	0,078	0,010
-62,592	-200,000	-0,009	-0,040
-61,578	420,566	0,064	-0,097
-60,563	-114,461	-0,052	0,007
-59,549	800,000	-0,046	0,110
-58,534	-29,829	-1,469	-0,590
-57,519	405,900	-1,419	-2,127
-56,505	-200,000	-0,497	-4,532
-55,490	114,754	1,028	0,887
-54,476	800,000	4,910	11,400
-53,461	-200,000	18,453	297,047
-52,446	800,000	730,870	2256,002
-51,432	558,750	1647,537	2826,595
-50,417	78,927	1668,344	1263,389
-49,403	22,465	1541,556	890,394
-48,388	16,407	1464,600	816,550
-47,373	17,820	1454,571	817,742
-46,359	17,126	1444,630	808,797
-45,344	14,709	1440,321	794,796
-44,330	14,621	1438,357	793,261
-43,315	14,613	1436,627	792,237
-42,300	14,626	1435,061	791,403
-41,286	14,675	1433,862	790,941
-40,271	14,632	1432,526	789,969
-39,257	14,626	1431,308	789,240
-38,242	14,678	1430,068	788,772
-37,227	14,676	1428,730	787,989
-36,213	14,685	1427,356	787,244
-35,198	14,642	1426,237	786,391
-34,184	14,729	1425,368	786,295
-33,169	14,629	1423,984	785,025
-32,154	14,654	1423,066	784,608
-31,140	14,673	1421,615	783,864
-30,125	14,651	1420,671	783,211
-29,111	14,659	1419,450	782,544
-28,096	14,651	1418,475	781,938
-27,082	14,590	1417,328	780,985
-26,067	14,629	1416,120	780,476
-25,052	14,627	1415,209	779,933
-24,038	14,536	1414,442	779,050
-23,023	14,567	1413,226	778,497
-22,009	14,607	1412,078	778,018
-20,994	14,535	1411,357	777,254
-19,979	14,566	1410,119	776,685
-18,965	14,504	1409,457	776,000
-17,950	14,515	1408,440	775,460
-16,936	14,516	1407,437	774,883
-15,921	14,523	1406,245	774,231
-14,906	14,496	1405,486	773,653
-13,892	14,559	1404,446	773,345
-12,877	14,468	1403,727	772,495
-11,863	14,476	1402,789	771,985
-10,848	14,518	1401,673	771,536
-9,833	14,451	1401,193	770,929
-8,819	14,418	1400,257	770,231
-7,804	14,378	1399,366	769,525
-6,790	14,432	1398,056	769,022
-5,775	14,397	1397,158	768,335
-4,760	14,400	1396,362	767,883
-3,746	14,435	1395,502	767,540
-2,731	14,426	1394,651	766,999
-1,717	14,353	1393,995	766,271
-0,702	14,389	1391,949	765,284
0,313	18,264	1310,296	738,328
1,327	34,643	706,334	435,955
2,342	53,374	124,267	84,169
3,356	2,028	16,624	8,465
4,371	6,208	3,148	1,647
5,386	73,291	0,530	0,392
6,400	-200,000	-0,012	0,221
7,415	121,942	-0,236	-0,209
8,429	105,775	-0,197	-0,165
9,444	20,013	-0,403	-0,229
10,459	340,348	-0,235	-0,325
11,473	37,855	-0,283	-0,178
12,488	-1,705	-0,267	-0,132
13,502	-2,867	-0,364	-0,179
14,517	-8,456	-0,349	-0,165
15,531	104,548	-0,386	-0,321
16,546	32,248	-0,434	-0,264
17,561	56,737	-0,447	-0,307
18,575	-77,007	-0,147	-0,036
19,590	-46,516	-0,383	-0,132
20,604	795,617	-0,092	-0,181
21,619	56,875	-0,386	-0,265
22,634	68,304	-0,455	-0,329
23,648	150,260	-0,424	-0,407
24,663	71,362	-0,378	-0,276
25,677	86,621	-0,420	-0,327
26,692	62,585	-0,307	-0,216
27,707	43,425	-0,277	-0,178
28,721	139,538	-0,460	-0,428
29,736	402,537	-0,221	-0,328
30,750	67,088	-0,407	-0,293
31,765	127,370	-0,395	-0,354
32,780	105,673	-0,347	-0,289
33,794	-28,686	-0,401	-0,162
34,809	-64,328	-0,482	-0,137
35,823	177,187	-0,319	-0,328
36,838	100,703	-0,385	-0,315
37,853	77,542	-0,413	-0,310
38,867	-0,611	-0,552	-0,275
39,882	389,476	-0,272	-0,398
40,896	9,759	-0,310	-0,165
41,911	63,680	-0,397	-0,281
42,926	166,482	-0,382	-0,382
43,940	250,999	-0,302	-0,362
44,955	137,891	-0,412	-0,380
45,969	321,413	-0,318	-0,428
46,984	20,574	-0,440	-0,250
47,999	14,412	-0,316	-0,173
49,013	23,116	-0,243	-0,140
50,028	164,656	-0,294	-0,293
51,042	14,540	-0,491	-0,269
52,057	45,614	-0,485	-0,315
53,071	50,361	-0,451	-0,300
54,086	107,592	-0,306	-0,257
55,101	223,982	-0,224	-0,255
56,115	-8,562	-0,444	-0,209
57,130	91,430	-0,267	-0,211
58,144	62,615	-0,369	-0,259
59,159	49,865	-0,305	-0,202
60,174	29,477	-0,343	-0,205
61,188	16,528	-0,349	-0,193
62,203	52,058	-0,406	-0,272
63,217	-43,787	-0,350	-0,123
64,232	48,854	-0,276	-0,182
65,247	30,268	-0,354	-0,212
66,261	80,468	-0,388	-0,294
67,276	11,731	-0,467	-0,252
68,290	78,029	-0,212	-0,159
69,305	76,949	-0,449	-0,335
70,320	95,325	-0,306	-0,245
71,334	-51,838	-0,436	-0,142
72,349	-63,111	-0,309	-0,089
73,363	20,735	-0,239	-0,136
74,378	95,828	-0,230	-0,184
75,393	54,767	-0,279	-0,189
76,407	190,857	-0,257	-0,272
77,422	-102,247	-0,381	-0,064
78,436	51,992	-0,307	-0,205
79,451	180,410	-0,212	-0,219
80,466	172,422	-0,297	-0,301
81,480	-80,777	-0,358	-0,083
82,495	70,085	-0,361	-0,262
83,509	188,315	-0,277	-0,291
84,524	56,830	-0,206	-0,140
85,539	800,000	-0,090	-0,192
86,553	121,846	-0,193	-0,169
87,568	119,779	-0,272	-0,237
88,582	152,147	-0,271	-0,260
89,597	149,538	-0,240	-0,229
90,611	127,069	-0,227	-0,203
91,626	68,480	-0,247	-0,178
92,641	163,258	-0,085	-0,084
93,655	219,002	-0,185	-0,208
94,670	-29,494	-0,288	-0,115
95,684	85,954	-0,377	-0,291
96,699	294,286	-0,210	-0,270
97,714	56,223	-0,285	-0,194
98,728	49,034	-0,244	-0,160
99,743	-21,591	-0,305	-0,130
100,757	65,872	-0,203	-0,144
101,772	274,217	-0,227	-0,282
102,787	-36,127	-0,274	-0,103
103,801	89,117	-0,271	-0,212
104,816	13,109	-0,218	-0,118
105,830	203,393	-0,142	-0,155
106,845	102,378	-0,241	-0,198
107,860	-106,358	-0,219	-0,034
108,874	-15,955	-0,250	-0,111
109,889	23,672	-0,247	-0,142
110,903	129,615	-0,234	-0,210
111,918	-3,795	-0,415	-0,201
112,933	-81,317	-0,243	-0,056
113,947	513,256	-0,171	-0,281
114,962	127,542	-0,273	-0,243
115,976	254,887	-0,159	-0,191
116,991	79,694	-0,191	-0,144
118,006	21,019	-0,351	-0,199
119,020	287,992	-0,185	-0,235
120,035	322,669	-0,157	-0,210
121,049	46,146	-0,322	-0,208
122,064	2,795	-0,297	-0,150
123,079	-19,749	-0,274	-0,118
124,093	62,302	-0,253	-0,177
125,108	129,512	-0,216	-0,193
126,122	159,552	-0,221	-0,215
127,137	381,325	-0,153	-0,220
128,151	261,513	-0,074	-0,090
129,166	28,944	-0,316	-0,187
130,181	-22,174	-0,268	-0,113
131,195	800,000	-0,159	-0,324
132,210	241,113	-0,215	-0,252
133,224	-31,481	-0,295	-0,116
134,239	7,666	-0,219	-0,114
135,254	11,470	-0,244	-0,131
136,268	58,698	-0,222	-0,152
137,283	356,736	-0,226	-0,316
138,297	42,969	-0,286	-0,182
139,312	43,477	-0,269	-0,172
140,327	-36,221	-0,345	-0,129
141,341	180,314	-0,216	-0,222
142,356	336,039	-0,126	-0,171
143,370	169,365	-0,186	-0,185
144,385	77,287	-0,298	-0,221
145,400	311,940	-0,158	-0,208
146,414	-42,005	-0,204	-0,073
147,429	106,555	-0,301	-0,249
148,443	-93,104	-0,206	-0,040
149,458	-9,447	-0,218	-0,101
150,473	800,000	-0,135	-0,287
151,487	-126,731	-0,149	-0,015
152,502	134,647	-0,218	-0,198
153,516	16,026	-0,326	-0,179
154,531	9,098	-0,262	-0,138
155,546	-184,866	-0,232	0,003
156,560	-65,712	-0,181	-0,050
157,575	-38,175	-0,188	0,069
158,589	9,901	-0,207	-0,109
159,604	6,140	-0,389	-0,200
160,619	45,959	-0,193	-0,125
161,633	9,053	-0,216	-0,113
162,648	20,958	-0,310	-0,175
163,662	124,185	-0,227	-0,199
164,677	339,231	-0,187	-0,255
165,692	215,927	-0,196	-0,217
166,706	397,559	-0,150	-0,220
167,721	20,716	-0,306	-0,172
168,735	125,514	-0,271	-0,238
169,750	-67,577	-0,145	-0,039
170,764	243,389	-0,151	-0,177
171,779	-123,396	-0,321	-0,035
172,794	-136,777	-0,345	-0,027
173,808	-25,754	-0,181	-0,074
174,823	1,479	-0,363	-0,181
175,837	-85,440	-0,221	-0,048
176,852	5,173	-0,305	-0,156
177,867	-9,507	-0,210	-0,097
178,881	-108,323	-0,166	0,025
179,896	138,174	-0,182	-0,167
180,910	-9,230	-0,282	-0,131
181,925	103,578	-0,355	-0,290
182,940	97,452	-0,301	-0,240
183,954	251,383	-0,230	-0,273
184,969	800,000	-0,095	-0,219
185,983	-200,000	-0,068	-0,262
186,998	170,756	-0,188	-0,187
188,013	90,491	-0,106	-0,083
189,027	-11,187	-0,205	-0,094
190,042	739,724	-0,133	-0,249
191,056	42,605	-0,315	-0,199
192,071	-200,000	-0,031	-0,174
193,086	-25,810	-0,228	-0,093
194,100	47,054	-0,145	-0,094
195,115	189,946	-0,191	-0,200
196,129	65,412	-0,165	-0,116
197,144	46,033	-0,260	-0,167
198,159	134,467	-0,213	-0,192
199,173	86,423	-0,185	-0,142
200,188	-200,000	-0,028	-0,196
201,202	288,229	-0,117	-0,148
202,217	107,638	-0,163	-0,135
203,232	63,438	-0,262	-0,183
204,246	309,314	-0,264	-0,344
205,261	15,234	-0,316	-0,172
206,275	7,026	-0,129	-0,067
207,290	-92,742	-0,163	-0,031
208,304	10,344	-0,165	-0,087
209,319	73,884	-0,159	-0,116
210,334	800,000	-0,092	-0,238
211,348	93,206	-0,221	-0,174
212,363	-114,813	-0,258	-0,034
213,377	128,812	-0,248	-0,220
214,392	10,602	-0,207	-0,109
215,407	172,457	-0,142	-0,142
216,421	168,732	-0,110	-0,109
217,436	39,398	-0,301	-0,187
218,450	255,949	-0,196	-0,234
219,465	-200,000	-0,064	-0,219
220,480	-18,197	-0,303	-0,131
221,494	-200,000	-0,037	-0,307
222,509	41,696	-0,232	-0,145
223,523	-123,461	-0,139	0,015
224,538	518,958	-0,109	-0,177
225,553	165,247	-0,228	-0,223
226,567	368,347	-0,178	-0,250
227,582	276,972	-0,209	-0,258
228,596	262,748	-0,088	-0,106
229,611	21,301	-0,203	-0,114
230,626	106,317	-0,173	-0,142
231,640	90,249	-0,223	-0,173
232,655	756,426	-0,143	-0,270
233,669	-119,721	-0,284	-0,034
234,684	34,316	-0,185	-0,112
235,699	800,000	-0,052	-0,127
236,713	-43,813	-0,139	-0,048
237,728	-6,696	-0,195	-0,091
238,742	36,139	-0,157	-0,096
239,757	-28,869	-0,169	-0,067
240,772	170,056	-0,151	-0,150
241,786	17,784	-0,235	-0,129
242,801	-62,414	-0,176	-0,051
243,815	447,602	-0,076	-0,117
244,830	-23,051	-0,274	-0,114
245,844	-84,488	-0,195	-0,042
246,859	-200,000	-0,030	-0,231
247,874	42,969	-0,167	-0,105
248,888	57,362	-0,198	-0,134
249,903	208,300	-0,185	-0,201
250,917	104,767	-0,238	-0,194
251,932	41,581	-0,075	-0,047
252,947	-68,729	-0,206	-0,055
253,961	718,490	-0,110	-0,203
254,976	196,337	-0,258	-0,272
255,990	183,787	-0,116	-0,119
257,005	-10,770	-0,126	-0,058
258,020	161,991	-0,090	-0,087
259,034	-116,498	-0,234	-0,030
260,049	800,000	-0,078	-0,156
261,063	325,817	-0,116	-0,154
262,078	67,632	-0,267	-0,189
263,093	246,151	-0,196	-0,228
264,107	89,701	-0,218	-0,168
265,122	-134,078	-0,123	0,010
266,136	4,283	-0,133	-0,067
267,151	228,652	-0,124	-0,140
268,166	-160,960	-0,256	-0,009
269,180	172,665	-0,110	-0,110
270,195	534,206	-0,162	-0,266
271,209	-89,890	-0,253	-0,051
272,224	119,934	-0,097	-0,083
273,239	142,881	-0,132	-0,121
274,253	-51,021	-0,115	-0,037
275,268	80,386	-0,196	-0,146
276,282	35,923	-0,257	-0,156
277,297	43,229	-0,201	-0,127
278,312	-111,155	-0,123	0,017
279,326	198,325	-0,083	-0,088
280,341	730,914	-0,121	-0,224
281,355	160,439	-0,155	-0,149
282,370	-25,211	-0,140	0,057
283,384	15,296	-0,213	-0,115
284,399	-59,044	-0,143	-0,042
285,414	200,542	-0,163	-0,173
286,428	-121,474	-0,165	-0,019
287,443	43,488	-0,095	-0,060
288,457	-36,517	-0,203	-0,075
289,472	283,158	-0,097	-0,121
290,487	-117,851	-0,262	-0,032
291,501	-27,893	-0,168	-0,067
292,516	69,695	-0,226	-0,160
293,530	135,553	-0,261	-0,234
294,545	269,104	-0,164	-0,199
295,560	-75,543	-0,074	-0,018
296,574	202,141	-0,120	-0,128
297,589	20,414	-0,068	-0,038
298,603	-200,000	0,004	-0,020
299,618	-162,390	-0,194	0,007
300,633	4,587	-0,126	-0,063
301,647	-200,000	-0,024	-0,177
302,662	309,318	-0,145	-0,187
303,676	193,488	-0,112	-0,117
304,691	30,973	-0,095	-0,056
305,706	-73,043	-0,245	-0,061
306,720	-81,809	-0,210	-0,047
307,735	291,880	-0,139	-0,175
308,749	-33,526	-0,184	-0,070
309,764	800,000	-0,090	-0,182
310,779	-28,374	-0,158	-0,062
311,793	-155,446	-0,173	0,008
312,808	800,000	-0,035	-0,103
313,822	-95,841	-0,067	0,012
314,837	-62,758	-0,067	-0,019
315,852	496,015	-0,056	-0,089
316,866	-200,000	-0,002	-0,118
317,881	377,096	-0,095	-0,134
318,895	106,568	-0,094	-0,076
319,910	162,220	-0,189	-0,183
320,925	-200,000	-0,035	-0,239
321,939	800,000	-0,021	-0,051
322,954	-36,080	-0,138	-0,051
323,968	17,339	-0,146	-0,079
324,983	401,947	-0,148	-0,215
325,997	-176,772	-0,340	-0,006
327,012	257,677	-0,120	-0,142
328,027	491,788	-0,076	-0,121
329,041	71,044	-0,143	-0,102
330,056	-200,000	0,036	-0,211
331,070	-65,295	-0,155	-0,043
332,085	800,000	-0,015	0,042
333,100	9,298	-0,270	-0,140
334,114	-16,663	-0,107	-0,046
335,129	406,157	-0,092	-0,134
336,143	-96,112	-0,150	-0,027
337,158	-3,791	-0,164	-0,078
338,173	-98,804	-0,019	-0,003
339,187	97,414	-0,099	-0,078
340,202	26,361	-0,244	-0,140
341,216	-200,000	-0,225	-0,001
342,231	-18,138	-0,226	-0,097
343,246	304,222	-0,103	-0,132
344,260	800,000	-0,113	-0,262
345,275	205,752	-0,152	-0,163
346,289	355,008	-0,105	-0,143
347,304	127,493	-0,119	-0,104
348,319	-200,000	-0,034	-0,158
349,333	220,162	-0,193	-0,213
350,348	431,006	-0,053	-0,078
351,362	520,678	-0,074	-0,119
352,377	196,894	-0,116	-0,122
353,392	-81,341	-0,087	-0,020
354,406	-200,000	-0,058	-0,222
355,421	209,860	1316,740	1418,785
356,435	161,531	1477,720	1419,273
