DTS Sentinel unit serial number:	SN410029Multiplexer serial number:	ORYXHardware model number:	OX2-SRSoftware version number:	ORYX F/W v4,00 Oryx Data Collector v3.7.2.0data status	okinstallation	B3 Nyhavnadifferential loss correction	single-endedforward channel	channel 1reverse channel	N/Adate	2023/11/29time	16:07:30forward acquisition time	300,00reverse acquisition time	0,00gamma	499,1914k internal	0,3209k external	0,3209temperature offset calibration	1,0000default loss term (dB/km)	0,3820temperature slope calibration	1,0000multiplexer offset coefficient	1,0000multiplexer slope coefficient	1,0000fibre end	0,00T internal ref (°C)	11,43T ext. ref 1 (°C)	-3,46T ext. ref 2 (°C)	-3,60length (m)	temperature (°C)	Stokes	anti-Stokes-744,400	188,924	-0,259	-0,282
-743,385	-200,000	-0,026	0,260
-742,371	195,852	-0,138	-0,152
-741,356	-200,000	-0,024	0,369
-740,342	379,587	-0,183	-0,274
-739,327	231,600	0,150	0,179
-738,312	110,568	-0,241	-0,211
-737,298	-200,000	0,023	0,175
-736,283	262,130	-0,195	-0,246
-735,269	487,357	-0,091	0,151
-734,254	-200,000	-0,087	-0,317
-733,239	371,744	-0,109	0,161
-732,225	529,999	-0,093	-0,160
-731,210	80,530	0,173	0,135
-730,196	-138,365	0,036	0,003
-729,181	-200,000	0,001	-0,092
-728,167	105,445	-0,107	-0,092
-727,152	209,029	-0,021	-0,024
-726,137	-200,000	0,008	-0,132
-725,123	-137,600	0,093	-0,007
-724,108	52,585	-0,083	-0,058
-723,094	60,850	-0,074	-0,053
-722,079	-200,000	-0,020	0,097
-721,064	-200,000	-0,001	0,034
-720,050	-77,298	0,014	0,004
-719,035	349,881	-0,060	0,086
-718,021	-97,479	-0,064	0,012
-717,006	-99,453	0,016	-0,003
-715,991	-32,364	-0,045	0,018
-714,977	800,000	-0,095	-0,213
-713,962	800,000	-0,067	-0,174
-712,948	65,094	-0,059	-0,043
-711,933	245,842	-0,000	-0,000
-710,918	800,000	-0,010	0,029
-709,904	113,688	0,048	-0,042
-708,889	37,323	-0,144	-0,092
-707,875	45,036	-0,071	-0,047
-706,860	800,000	-0,011	0,025
-705,845	170,270	0,060	-0,062
-704,831	-200,000	0,009	0,151
-703,816	-200,000	0,004	0,042
-702,802	171,529	-0,068	-0,071
-701,787	800,000	0,046	-0,105
-700,772	50,153	-0,102	-0,070
-699,758	-200,000	-0,003	0,015
-698,743	-31,651	0,072	-0,029
-697,729	230,313	-0,078	-0,093
-696,714	511,423	0,060	0,102
-695,699	-116,900	-0,056	0,007
-694,685	-200,000	-0,026	-0,190
-693,670	673,370	-0,018	-0,033
-692,656	-200,000	0,015	-0,125
-691,641	-200,000	-0,024	0,099
-690,627	4,489	0,097	0,052
-689,612	-200,000	-0,014	-0,069
-688,597	787,330	-0,055	0,110
-687,583	-200,000	0,005	0,151
-686,568	-200,000	0,004	-0,081
-685,554	135,961	-0,045	0,043
-684,539	94,723	0,024	-0,020
-683,524	-62,917	0,067	0,020
-682,510	-200,000	-0,028	0,157
-681,495	800,000	0,025	0,057
-680,481	-200,000	-0,003	0,129
-679,466	35,503	-0,142	-0,090
-678,451	-85,149	-0,047	0,010
-677,437	-159,355	-0,028	0,001
-676,422	-111,573	-0,052	0,008
-675,408	-200,000	0,011	-0,179
-674,393	-200,000	0,007	0,025
-673,378	84,458	-0,043	0,034
-672,364	800,000	0,029	-0,074
-671,349	575,775	-0,081	-0,144
-670,335	-105,871	0,027	-0,004
-669,320	233,403	-0,062	-0,074
-668,305	-200,000	-0,007	-0,159
-667,291	717,034	0,042	0,081
-666,276	800,000	0,039	-0,092
-665,262	158,040	0,058	-0,058
-664,247	-200,000	-0,018	-0,174
-663,232	640,874	-0,060	-0,112
-662,218	706,928	0,060	-0,115
-661,203	296,749	0,025	-0,033
-660,189	-200,000	-0,012	0,082
-659,174	-51,365	-0,133	0,045
-658,159	-133,978	-0,116	0,010
-657,145	316,249	-0,041	0,057
-656,130	1,134	0,027	-0,014
-655,116	800,000	0,023	0,049
-654,101	-181,804	-0,047	0,001
-653,086	-64,428	-0,083	0,024
-652,072	-28,892	-0,139	-0,058
-651,057	150,876	-0,038	0,037
-650,043	-172,847	-0,084	-0,002
-649,028	-116,599	0,088	-0,012
-648,014	800,000	0,021	-0,063
-646,999	-200,000	0,000	0,015
-645,984	715,317	-0,008	-0,016
-644,970	-200,000	-0,031	0,140
-643,955	64,647	-0,066	0,048
-642,941	-200,000	-0,004	-0,115
-641,926	-200,000	0,010	-0,055
-640,911	397,719	-0,072	0,110
-639,897	372,429	0,082	0,121
-638,882	-200,000	0,006	0,109
-637,868	-200,000	-0,003	0,104
-636,853	800,000	-0,021	-0,046
-635,838	219,324	0,081	-0,094
-634,824	26,159	-0,026	0,016
-633,809	-89,911	0,154	0,032
-632,795	-187,198	0,110	-0,001
-631,780	28,210	-0,018	0,011
-630,765	46,699	-0,044	0,030
-629,751	-200,000	-0,001	-0,106
-628,736	-200,000	-0,023	-0,259
-627,722	-200,000	0,008	-0,124
-626,707	-200,000	-0,015	0,081
-625,692	17,520	0,042	0,024
-624,678	214,610	0,082	0,095
-623,663	31,527	-0,022	-0,013
-622,649	-158,828	-0,069	-0,003
-621,634	185,672	-0,160	-0,172
-620,619	-12,909	0,143	0,067
-619,605	199,725	-0,051	0,056
-618,590	-137,746	0,109	0,009
-617,576	-71,402	-0,059	0,016
-616,561	50,802	-0,129	-0,088
-615,546	-200,000	-0,005	-0,032
-614,532	-200,000	0,026	-0,179
-613,517	149,773	-0,088	-0,087
-612,503	-200,000	0,002	0,060
-611,488	325,655	-0,049	0,068
-610,474	800,000	-0,042	0,113
-609,459	160,816	-0,094	0,094
-608,444	170,759	-0,098	-0,101
-607,430	-21,803	-0,071	-0,031
-606,415	-200,000	0,016	-0,054
-605,401	95,986	0,083	-0,068
-604,386	-60,379	0,040	-0,012
-603,371	168,660	-0,062	-0,064
-602,357	-30,829	0,068	-0,028
-601,342	196,792	0,001	0,001
-600,328	13,411	-0,122	-0,068
-599,313	-200,000	-0,018	-0,081
-598,298	787,100	-0,053	-0,105
-597,284	800,000	0,039	0,107
-596,269	-109,759	0,176	0,026
-595,255	197,795	-0,023	0,026
-594,240	10,013	-0,198	0,108
-593,225	25,797	0,053	-0,032
-592,211	-18,309	-0,072	-0,032
-591,196	-115,904	-0,062	0,008
-590,182	-200,000	0,014	-0,089
-589,167	-200,000	0,016	0,084
-588,152	330,639	0,045	0,063
-587,138	800,000	0,033	0,097
-586,123	15,813	-0,079	-0,045
-585,109	-36,508	-0,138	0,053
-584,094	-103,209	0,040	0,007
-583,079	-200,000	-0,017	0,069
-582,065	-109,841	-0,100	0,015
-581,050	-59,568	0,023	-0,007
-580,036	442,285	0,027	-0,042
-579,021	41,801	-0,098	0,064
-578,006	798,968	-0,067	-0,133
-576,992	-200,000	-0,012	-0,166
-575,977	521,760	0,039	-0,067
-574,963	-200,000	-0,013	0,111
-573,948	369,291	0,011	-0,016
-572,934	735,433	-0,039	0,076
-571,919	-200,000	0,002	-0,018
-570,904	-200,000	-0,006	-0,068
-569,890	80,688	-0,041	-0,032
-568,875	-200,000	0,000	-0,033
-567,861	800,000	-0,074	-0,157
-566,846	-146,481	0,093	-0,006
-565,831	653,561	0,061	-0,113
-564,817	664,337	-0,029	0,055
-563,802	143,724	-0,083	-0,079
-562,788	-152,499	-0,156	-0,008
-561,773	-58,567	-0,065	-0,020
-560,758	260,924	0,111	-0,139
-559,744	721,289	0,039	-0,075
-558,729	800,000	0,020	-0,047
-557,715	-200,000	-0,020	-0,116
-556,700	269,176	0,033	0,042
-555,685	262,477	-0,101	-0,126
-554,671	800,000	0,011	0,024
-553,656	-10,705	0,069	0,033
-552,642	800,000	0,025	-0,053
-551,627	-200,000	0,003	0,037
-550,612	-200,000	-0,005	0,107
-549,598	161,746	-0,046	-0,046
-548,583	800,000	-0,020	-0,055
-547,569	84,666	0,032	0,026
-546,554	256,099	-0,036	0,045
-545,539	367,840	-0,028	-0,041
-544,525	800,000	-0,015	0,046
-543,510	800,000	0,029	-0,078
-542,496	-161,311	0,039	-0,001
-541,481	-200,000	0,019	-0,112
-540,466	66,526	-0,124	-0,091
-539,452	51,428	0,022	0,015
-538,437	-65,868	-0,026	0,007
-537,423	-200,000	0,015	0,103
-536,408	-200,000	-0,006	-0,095
-535,393	800,000	0,002	-0,004
-534,379	15,419	0,107	0,060
-533,364	102,734	0,025	0,021
-532,350	107,115	-0,061	0,052
-531,335	800,000	0,029	0,064
-530,321	135,892	0,077	-0,072
-529,306	69,905	-0,090	0,067
-528,291	-200,000	-0,014	-0,073
-527,277	-71,516	-0,079	-0,021
-526,262	-112,413	0,118	0,017
-525,248	-200,000	0,011	0,147
-524,233	225,007	-0,080	0,094
-523,218	224,820	-0,026	0,031
-522,204	-191,509	-0,064	-0,000
-521,189	103,312	-0,112	0,095
-520,175	-157,558	0,141	-0,006
-519,160	377,115	0,015	0,022
-518,145	800,000	-0,008	-0,025
-517,131	197,262	0,015	-0,017
-516,116	-200,000	0,016	0,071
-515,102	160,235	0,123	-0,123
-514,087	-21,421	-0,037	0,016
-513,072	800,000	0,025	-0,078
-512,058	54,828	-0,042	0,029
-511,043	182,178	-0,052	0,055
-510,029	800,000	-0,035	0,083
-509,014	537,461	-0,035	-0,059
-507,999	-200,000	0,004	-0,013
-506,985	245,736	-0,140	-0,170
-505,970	-170,051	-0,108	-0,003
-504,956	-31,564	-0,047	0,019
-503,941	-130,670	-0,084	-0,008
-502,926	-97,611	0,110	-0,020
-501,912	55,021	-0,026	0,018
-500,897	-200,000	0,018	0,067
-499,883	-2,443	-0,068	0,034
-498,868	-200,000	-0,003	-0,027
-497,853	-200,000	0,016	0,058
-496,839	-97,881	-0,067	0,012
-495,824	-49,853	0,123	0,042
-494,810	-200,000	0,002	-0,056
-493,795	-65,977	0,113	0,032
-492,781	-160,713	-0,031	-0,001
-491,766	-187,035	-0,125	-0,001
-490,751	3,150	0,111	-0,058
-489,737	-95,313	0,064	0,012
-488,722	-200,000	-0,003	0,041
-487,708	-200,000	-0,018	0,150
-486,693	-200,000	0,017	0,101
-485,678	-136,761	0,145	0,012
-484,664	-200,000	0,034	-0,169
-483,649	162,388	0,104	-0,105
-482,635	-200,000	-0,006	-0,021
-481,620	88,906	0,073	-0,058
-480,605	-200,000	0,046	-0,204
-479,591	-200,000	-0,025	0,091
-478,576	156,114	-0,069	0,068
-477,562	-200,000	-0,025	-0,117
-476,547	371,800	-0,048	-0,070
-475,532	-200,000	0,156	0,000
-474,518	-200,000	-0,007	0,026
-473,503	-200,000	-0,024	0,108
-472,489	-200,000	-0,017	0,101
-471,474	-103,916	-0,039	-0,006
-470,459	-12,841	0,064	0,030
-469,445	-200,000	0,006	-0,059
-468,430	544,138	-0,041	0,070
-467,416	252,569	-0,027	0,032
-466,401	124,903	0,042	0,038
-465,386	800,000	0,032	0,094
-464,372	-121,406	0,189	0,022
-463,357	662,147	-0,014	-0,026
-462,343	-200,000	-0,001	-0,088
-461,328	573,011	-0,065	-0,113
-460,313	239,212	0,065	-0,078
-459,299	-46,389	0,166	0,058
-458,284	121,102	0,029	0,026
-457,270	-142,950	-0,129	0,009
-456,255	124,027	-0,068	-0,061
-455,241	-200,000	-0,012	0,068
-454,226	800,000	0,078	0,165
-453,211	800,000	-0,021	0,043
-452,197	-200,000	0,007	0,071
-451,182	-200,000	-0,005	0,150
-450,168	78,558	-0,088	0,067
-449,153	374,631	-0,077	0,112
-448,138	436,691	0,052	-0,081
-447,124	175,322	-0,139	-0,145
-446,109	-200,000	-0,000	0,030
-445,095	77,130	0,092	0,070
-444,080	-130,697	-0,058	-0,005
-443,065	800,000	0,027	0,070
-442,051	548,787	0,064	-0,111
-441,036	-200,000	-0,009	-0,102
-440,022	156,751	0,020	0,020
-439,007	800,000	-0,062	-0,143
-437,992	36,445	0,078	-0,049
-436,978	260,351	-0,024	0,030
-435,963	366,164	-0,023	-0,034
-434,949	413,232	-0,058	0,089
-433,934	-200,000	0,009	-0,053
-432,919	-200,000	0,018	-0,070
-431,905	98,053	-0,113	-0,093
-430,890	-200,000	0,015	-0,073
-429,876	191,145	0,084	0,091
-428,861	-39,282	0,190	0,071
-427,846	-74,865	-0,046	-0,012
-426,832	800,000	-0,045	0,115
-425,817	-200,000	0,011	-0,115
-424,803	405,774	-0,064	0,097
-423,788	-200,000	-0,018	0,100
-422,773	50,017	0,115	0,078
-421,759	116,484	0,081	0,072
-420,744	800,000	0,052	0,127
-419,730	800,000	0,005	-0,010
-418,715	213,607	-0,156	-0,177
-417,701	643,387	-0,030	-0,055
-416,686	110,069	-0,041	-0,035
-415,671	268,169	-0,104	0,130
-414,657	-200,000	0,035	0,157
-413,642	-200,000	-0,013	-0,046
-412,628	-200,000	0,008	0,100
-411,613	800,000	-0,044	-0,095
-410,598	371,687	0,063	0,092
-409,584	-200,000	0,033	0,147
-408,569	70,963	0,092	-0,068
-407,555	376,330	-0,080	-0,117
-406,540	436,172	0,040	-0,063
-405,525	-200,000	-0,004	-0,068
-404,511	-69,354	-0,019	0,005
-403,496	-14,936	-0,085	-0,039
-402,482	13,555	0,060	0,033
-401,467	800,000	-0,056	0,177
-400,452	-58,306	0,106	0,033
-399,438	-91,966	-0,167	-0,034
-398,423	173,023	-0,119	-0,123
-397,409	-200,000	-0,009	0,055
-396,394	-92,686	-0,159	0,032
-395,379	-154,548	0,174	-0,008
-394,365	-145,179	-0,090	-0,006
-393,350	69,613	-0,026	0,019
-392,336	54,344	0,081	-0,056
-391,321	-161,427	-0,154	-0,006
-390,306	-38,504	-0,095	0,036
-389,292	-127,628	-0,097	0,010
-388,277	-200,000	0,019	-0,141
-387,263	800,000	0,032	-0,063
-386,248	-84,128	0,081	-0,018
-385,233	30,283	0,061	-0,037
-384,219	-39,563	0,051	-0,019
-383,204	-146,873	0,139	0,008
-382,190	800,000	-0,032	-0,071
-381,175	-111,823	-0,188	0,027
-380,160	-66,001	0,137	0,039
-379,146	-63,916	0,067	0,019
-378,131	54,832	-0,076	0,053
-377,117	-200,000	0,026	0,134
-376,102	-200,000	0,001	-0,110
-375,088	-49,931	-0,118	-0,040
-374,073	-200,000	-0,010	0,114
-373,058	236,224	-0,104	0,123
-372,044	193,924	0,050	0,055
-371,029	211,620	-0,087	0,098
-370,015	800,000	-0,030	-0,080
-369,000	34,031	-0,071	-0,044
-367,985	585,581	-0,079	0,139
-366,971	29,035	0,028	0,017
-365,956	566,801	-0,015	-0,025
-364,942	800,000	0,072	0,146
-363,927	-28,021	-0,123	0,051
-362,912	1,568	-0,128	-0,066
-361,898	-200,000	0,019	-0,112
-360,883	-103,070	0,085	0,014
-359,869	-200,000	0,012	-0,227
-358,854	-82,986	-0,069	-0,016
-357,839	800,000	-0,024	0,061
-356,825	-156,743	0,113	0,005
-355,810	196,307	0,029	0,032
-354,796	-200,000	-0,007	0,080
-353,781	453,479	-0,078	-0,123
-352,766	800,000	0,030	-0,064
-351,752	-20,615	0,052	0,023
-350,737	165,309	0,087	0,088
-349,723	-200,000	0,025	-0,127
-348,708	268,466	0,058	-0,072
-347,693	-200,000	0,017	0,069
-346,679	47,911	0,046	-0,030
-345,664	-10,806	-0,028	-0,013
-344,650	-81,100	0,057	-0,013
-343,635	-100,461	0,064	-0,011
-342,620	-200,000	0,002	-0,126
-341,606	223,855	-0,095	-0,109
-340,591	-40,332	0,087	-0,032
-339,577	139,203	-0,042	-0,039
-338,562	800,000	-0,076	-0,189
-337,548	-200,000	-0,019	-0,140
-336,533	-2,940	0,079	0,039
-335,518	76,108	0,092	-0,069
-334,504	-120,781	-0,073	0,009
-333,489	800,000	0,047	-0,137
-332,475	800,000	-0,058	-0,116
-331,460	39,590	-0,080	0,051
-330,445	-124,304	0,109	0,012
-329,431	-73,601	0,052	-0,013
-328,416	442,797	0,083	0,130
-327,402	-200,000	-0,026	0,092
-326,387	-200,000	-0,023	0,132
-325,372	-200,000	-0,003	0,047
-324,358	173,537	0,066	-0,068
-323,343	-120,628	-0,054	0,006
-322,329	3,369	0,055	0,029
-321,314	18,843	-0,085	0,048
-320,299	-200,000	-0,010	0,120
-319,285	-120,207	0,088	-0,011
-318,270	70,565	-0,064	-0,047
-317,256	-200,000	-0,040	-0,157
-316,241	42,074	0,032	0,021
-315,226	378,163	-0,030	0,044
-314,212	-200,000	0,027	0,094
-313,197	-200,000	0,005	0,021
-312,183	-200,000	-0,004	-0,050
-311,168	-65,514	0,130	0,037
-310,153	-101,137	-0,111	0,019
-309,139	-65,709	0,069	-0,019
-308,124	-3,487	0,094	0,046
-307,110	-200,000	0,008	-0,098
-306,095	-120,327	0,080	-0,010
-305,080	800,000	-0,034	0,079
-304,066	-200,000	0,017	-0,093
-303,051	-200,000	0,002	-0,075
-302,037	-137,271	-0,113	-0,009
-301,022	-91,999	0,011	-0,002
-300,008	440,840	0,042	0,065
-298,993	-200,000	-0,024	-0,126
-297,978	137,038	0,035	-0,033
-296,964	-135,948	0,098	0,008
-295,949	276,879	0,052	0,066
-294,935	-100,630	0,116	-0,020
-293,920	104,395	-0,049	-0,041
-292,905	-156,256	0,078	0,003
-291,891	-138,680	0,153	-0,012
-290,876	-200,000	-0,004	0,052
-289,862	426,477	-0,019	0,029
-288,847	71,272	0,060	-0,044
-287,832	2,094	-0,089	0,045
-286,818	46,237	0,100	-0,066
-285,803	-127,079	-0,066	0,007
-284,789	474,536	-0,004	-0,006
-283,774	-108,795	0,086	0,013
-282,759	-200,000	0,012	0,049
-281,745	126,447	0,066	-0,060
-280,730	-67,297	0,140	0,039
-279,716	800,000	0,045	0,095
-278,701	800,000	0,020	-0,059
-277,686	-200,000	0,001	0,075
-276,672	-48,124	-0,053	-0,018
-275,657	446,487	0,031	0,049
-274,643	99,489	-0,028	0,023
-273,628	602,586	0,046	0,082
-272,613	-21,459	-0,089	0,038
-271,599	89,424	-0,044	0,035
-270,584	-200,000	-0,018	-0,062
-269,570	53,355	0,137	0,094
-268,555	800,000	-0,033	0,094
-267,540	800,000	-0,034	-0,074
-266,526	-83,923	-0,061	0,014
-265,511	-26,138	-0,100	0,042
-264,497	-200,000	-0,009	-0,089
-263,482	296,131	0,118	0,154
-262,467	296,602	0,031	0,040
-261,453	-51,422	0,118	0,039
-260,438	-16,847	-0,116	-0,052
-259,424	-110,255	-0,059	0,009
-258,409	20,343	0,073	-0,042
-257,395	-140,429	0,105	-0,008
-256,380	800,000	0,045	0,142
-255,365	193,153	-0,037	-0,040
-254,351	-200,000	-0,001	-0,045
-253,336	81,093	-0,132	-0,101
-252,322	108,929	-0,076	-0,065
-251,307	-138,939	0,093	-0,007
-250,292	-200,000	-0,001	0,036
-249,278	235,711	0,110	0,130
-248,263	-200,000	-0,007	0,000
-247,249	37,506	0,106	0,067
-246,234	-131,806	-0,040	-0,004
-245,219	15,096	0,037	-0,021
-244,205	192,064	0,059	-0,063
-243,190	-100,002	0,104	-0,018
-242,176	-200,000	0,004	-0,080
-241,161	517,812	-0,017	-0,028
-240,146	-18,852	0,110	-0,049
-239,132	92,944	-0,089	0,071
-238,117	-200,000	-0,005	0,050
-237,103	23,606	-0,061	-0,036
-236,088	-200,000	0,000	0,127
-235,073	-19,742	-0,042	0,018
-234,059	800,000	0,023	-0,064
-233,044	158,821	-0,121	0,120
-232,030	95,600	-0,034	-0,027
-231,015	477,932	0,048	0,078
-230,000	-1,833	-0,125	-0,062
-228,986	776,261	0,013	-0,026
-227,971	96,694	-0,026	-0,021
-226,957	800,000	0,021	-0,064
-225,942	-200,000	-0,018	0,082
-224,927	22,005	0,069	0,040
-223,913	-200,000	0,017	-0,057
-222,898	642,250	0,038	0,069
-221,884	14,739	-0,045	0,025
-220,869	-200,000	0,011	0,089
-219,855	178,135	-0,022	-0,023
-218,840	239,305	-0,062	0,074
-217,825	-200,000	0,005	0,064
-216,811	56,821	-0,136	0,094
-215,796	800,000	0,043	0,129
-214,782	-200,000	0,003	0,024
-213,767	3,482	-0,043	-0,022
-212,752	-200,000	-0,003	0,053
-211,738	800,000	0,021	-0,047
-210,723	-171,450	0,027	-0,001
-209,709	800,000	0,022	0,048
-208,694	306,914	0,027	0,035
-207,679	-84,653	0,103	-0,023
-206,665	-88,107	-0,081	0,017
-205,650	-79,596	0,203	0,048
-204,636	159,514	-0,069	0,068
-203,621	26,239	-0,095	-0,056
-202,606	-42,888	0,115	-0,041
-201,592	-200,000	0,014	-0,095
-200,577	-40,857	-0,067	0,024
-199,563	-200,000	-0,026	0,093
-198,548	173,297	-0,042	-0,043
-197,533	-59,148	0,105	-0,032
-196,519	36,865	-0,076	0,047
-195,504	2,251	-0,059	-0,030
-194,490	-200,000	-0,012	0,078
-193,475	214,651	-0,069	0,077
-192,460	216,917	-0,077	-0,087
-191,446	-200,000	0,038	0,134
-190,431	159,352	0,108	0,107
-189,417	458,654	-0,043	0,068
-188,402	-161,946	0,024	-0,001
-187,387	-200,000	0,001	-0,149
-186,373	800,000	0,016	-0,045
-185,358	399,277	-0,065	-0,096
-184,344	-59,432	0,003	0,001
-183,329	-135,804	0,088	-0,007
-182,315	-178,878	0,067	-0,001
-181,300	141,784	-0,046	-0,043
-180,285	-200,000	-0,018	-0,158
-179,271	-170,579	-0,134	0,003
-178,256	168,805	0,054	0,055
-177,242	-74,252	0,191	-0,049
-176,227	515,117	0,049	0,081
-175,212	586,880	-0,090	0,158
-174,198	800,000	0,036	0,101
-173,183	24,605	-0,021	-0,012
-172,169	-3,104	-0,060	-0,030
-171,154	182,572	0,085	-0,090
-170,139	-200,000	-0,012	-0,155
-169,125	83,693	-0,026	0,020
-168,110	277,958	0,026	-0,033
-167,096	-128,064	0,127	0,013
-166,081	231,291	-0,131	-0,153
-165,066	291,389	0,068	0,088
-164,052	-200,000	-0,009	0,052
-163,037	329,242	0,066	-0,090
-162,023	-200,000	0,015	-0,128
-161,008	31,538	-0,083	0,051
-159,993	-200,000	0,000	-0,022
-158,979	-84,910	-0,096	-0,021
-157,964	-27,573	0,109	-0,045
-156,950	-83,716	-0,086	0,019
-155,935	-200,000	0,001	0,103
-154,920	800,000	0,097	0,193
-153,906	76,890	0,003	0,002
-152,891	600,943	-0,022	0,039
-151,877	-144,842	0,117	0,007
-150,862	-54,785	-0,069	-0,022
-149,847	800,000	0,055	0,171
-148,833	26,683	-0,182	-0,108
-147,818	-71,965	0,095	0,025
-146,804	29,974	0,027	0,016
-145,789	234,623	-0,107	0,125
-144,775	513,896	-0,056	0,093
-143,760	276,931	0,082	-0,104
-142,745	-200,000	0,012	0,081
-141,731	269,327	-0,126	0,157
-140,716	-200,000	0,007	-0,087
-139,702	34,588	0,083	0,051
-138,687	-15,311	0,083	0,037
-137,672	176,331	0,030	0,031
-136,658	800,000	0,051	-0,132
-135,643	756,251	-0,015	-0,029
-134,629	-200,000	0,016	-0,072
-133,614	-200,000	0,067	0,297
-132,599	800,000	-0,064	0,134
-131,585	-34,801	0,094	0,036
-130,570	-44,231	0,081	0,029
-129,556	78,721	0,072	0,054
-128,541	384,684	-0,063	-0,092
-127,526	6,467	-0,071	-0,037
-126,512	385,699	-0,090	0,132
-125,497	128,053	0,104	0,094
-124,483	-97,071	0,108	-0,020
-123,468	62,404	-0,035	-0,024
-122,453	509,409	0,026	-0,043
-121,439	-147,337	-0,052	-0,003
-120,424	86,996	0,096	-0,075
-119,410	364,841	0,084	0,119
-118,395	670,082	0,052	0,096
-117,380	-148,064	0,113	0,007
-116,366	-200,000	-0,001	0,028
-115,351	38,170	-0,049	0,031
-114,337	728,022	-0,043	-0,082
-113,322	-140,053	-0,078	0,006
-112,307	-7,062	-0,056	-0,027
-111,293	6,547	0,032	0,017
-110,278	-23,257	0,056	-0,024
-109,264	-200,000	0,030	0,104
-108,249	-200,000	-0,020	-0,096
-107,234	-1,596	0,045	-0,022
-106,220	657,860	0,110	0,202
-105,205	-68,341	0,114	-0,031
-104,191	574,629	-0,027	-0,047
-103,176	-51,993	-0,088	-0,029
-102,162	-67,134	-0,123	-0,034
-101,147	800,000	-0,012	-0,037
-100,132	278,490	0,025	-0,031
-99,118	608,011	0,064	-0,114
-98,103	-57,944	0,066	0,020
-97,089	-60,760	-0,085	-0,025
-96,074	-200,000	0,002	-0,046
-95,059	78,766	-0,108	-0,081
-94,045	800,000	-0,026	0,064
-93,030	621,638	0,027	-0,048
-92,016	-63,477	-0,041	-0,012
-91,001	-200,000	-0,026	0,126
-89,986	-18,920	0,200	0,088
-88,972	800,000	0,036	0,097
-87,957	63,368	0,062	-0,044
-86,943	-50,329	-0,108	0,036
-85,928	-32,177	0,053	-0,021
-84,913	10,977	0,107	-0,058
-83,899	-132,397	0,053	0,005
-82,884	800,000	-0,017	0,053
-81,870	190,013	0,100	-0,106
-80,855	800,000	-0,022	0,068
-79,840	-92,089	0,141	0,028
-78,826	-200,000	-0,014	-0,060
-77,811	-200,000	-0,040	-0,181
-76,797	120,280	0,098	-0,086
-75,782	-176,281	0,115	-0,002
-74,767	-200,000	-0,006	0,058
-73,753	-107,059	0,079	0,012
-72,738	-114,602	-0,111	0,015
-71,724	800,000	0,004	0,008
-70,709	-200,000	0,039	-0,122
-69,694	107,935	-0,122	-0,103
-68,680	-200,000	0,004	-0,038
-67,665	-200,000	-0,006	0,044
-66,651	44,822	-0,016	-0,010
-65,636	117,895	0,117	0,102
-64,622	28,715	0,055	-0,033
-63,607	43,627	-0,070	0,045
-62,592	260,867	0,036	-0,044
-61,578	201,210	0,036	-0,039
-60,563	-120,473	0,074	-0,009
-59,549	-196,370	0,089	0,000
-58,534	24,698	-1,844	-1,076
-57,519	425,011	-1,273	-1,942
-56,505	-200,000	-0,324	-4,366
-55,490	299,131	0,912	1,188
-54,476	800,000	5,059	11,390
-53,461	-200,000	20,434	326,226
-52,446	800,000	751,865	2309,989
-51,432	550,233	1657,570	2818,236
-50,417	74,055	1663,758	1231,613
-49,403	19,326	1536,739	869,212
-48,388	13,319	1459,519	796,482
-47,373	18,778	1449,990	817,456
-46,359	16,149	1439,363	798,925
-45,344	11,499	1435,283	774,487
-44,330	11,473	1433,228	773,223
-43,315	11,466	1431,369	772,152
-42,300	11,476	1429,736	771,292
-41,286	11,506	1428,395	770,680
-40,271	11,460	1427,106	769,732
-39,257	11,440	1426,057	769,042
-38,242	11,512	1424,611	768,574
-37,227	11,540	1423,302	767,971
-36,213	11,498	1422,313	767,205
-35,198	11,479	1421,349	766,565
-34,184	11,588	1419,898	766,266
-33,169	11,464	1418,771	765,045
-32,154	11,550	1417,763	764,874
-31,140	11,544	1416,530	764,153
-30,125	11,607	1415,406	763,813
-29,111	11,546	1414,315	762,905
-28,096	11,570	1413,211	762,395
-27,082	11,473	1412,019	761,263
-26,067	11,446	1411,119	760,624
-25,052	11,509	1410,006	760,288
-24,038	11,464	1409,033	759,524
-23,023	11,457	1407,876	758,837
-22,009	11,433	1407,068	758,259
-20,994	11,426	1405,899	757,567
-19,979	11,479	1405,113	757,356
-18,965	11,450	1403,985	756,585
-17,950	11,454	1403,015	756,050
-16,936	11,397	1402,627	755,549
-15,921	11,371	1401,500	754,789
-14,906	11,377	1400,463	754,226
-13,892	11,386	1399,580	753,765
-12,877	11,351	1398,703	753,099
-11,863	11,339	1397,810	752,532
-10,848	11,287	1397,114	751,889
-9,833	11,324	1396,122	751,494
-8,819	11,241	1395,327	750,654
-7,804	11,261	1394,316	750,172
-6,790	11,279	1393,205	749,626
-5,775	11,254	1392,355	749,023
-4,760	11,243	1391,514	748,492
-3,746	11,284	1390,575	748,147
-2,731	11,232	1389,717	747,416
-1,717	11,226	1388,896	746,916
-0,702	11,249	1387,047	745,998
0,313	15,356	1301,939	719,027
1,327	31,810	694,904	421,293
2,342	49,618	120,874	80,200
3,356	1,372	16,519	8,351
4,371	6,745	3,383	1,771
5,386	7,585	0,718	0,378
6,400	-200,000	0,136	0,497
7,415	177,041	-0,133	-0,137
8,429	-89,065	-0,262	-0,054
9,444	170,303	-0,280	-0,283
10,459	197,514	-0,288	-0,311
11,473	33,045	-0,271	-0,165
12,488	-197,784	-0,254	-0,001
13,502	38,032	-0,279	-0,175
14,517	50,192	-0,300	-0,199
15,531	89,763	-0,344	-0,271
16,546	-24,417	-0,383	-0,160
17,561	48,248	-0,416	-0,274
18,575	-23,255	-0,198	-0,084
19,590	117,983	-0,306	-0,265
20,604	31,980	-0,209	-0,127
21,619	283,008	-0,310	-0,393
22,634	152,422	-0,506	-0,487
23,648	0,324	-0,486	-0,244
24,663	140,185	-0,317	-0,294
25,677	50,782	-0,225	-0,150
26,692	240,521	-0,217	-0,255
27,707	276,269	-0,269	-0,337
28,721	60,876	-0,267	-0,186
29,736	202,390	-0,396	-0,431
30,750	195,992	-0,354	-0,380
31,765	61,179	-0,408	-0,285
32,780	125,475	-0,198	-0,176
33,794	111,970	-0,362	-0,307
34,809	341,389	-0,295	-0,407
35,823	174,332	-0,263	-0,267
36,838	305,356	-0,283	-0,371
37,853	59,007	-0,348	-0,240
38,867	108,278	-0,339	-0,285
39,882	167,332	-0,291	-0,290
40,896	99,036	-0,300	-0,244
41,911	676,673	-0,209	-0,383
42,926	-81,855	-0,397	-0,091
43,940	28,721	-0,336	-0,200
44,955	96,290	-0,295	-0,237
45,969	277,226	-0,234	-0,293
46,984	17,206	-0,302	-0,168
47,999	45,967	-0,378	-0,245
49,013	96,594	-0,233	-0,187
50,028	90,904	-0,296	-0,233
51,042	99,662	-0,385	-0,313
52,057	100,965	-0,253	-0,207
53,071	122,198	-0,340	-0,298
54,086	75,533	-0,331	-0,245
55,101	54,093	-0,164	-0,111
56,115	99,181	-0,288	-0,233
57,130	114,389	-0,272	-0,232
58,144	107,470	-0,324	-0,271
59,159	31,826	-0,336	-0,203
60,174	20,859	-0,387	-0,220
61,188	210,578	-0,250	-0,276
62,203	93,335	-0,297	-0,236
63,217	54,366	-0,311	-0,210
64,232	9,621	-0,355	-0,188
65,247	-16,565	-0,333	-0,147
66,261	19,455	-0,375	-0,211
67,276	143,497	-0,273	-0,255
68,290	39,964	-0,411	-0,259
69,305	241,437	-0,226	-0,266
70,320	155,956	-0,261	-0,253
71,334	13,313	-0,311	-0,169
72,349	1,342	-0,346	-0,174
73,363	-24,495	-0,325	-0,135
74,378	81,018	-0,386	-0,292
75,393	128,072	-0,247	-0,221
76,407	-41,905	-0,245	-0,087
77,422	42,393	-0,216	-0,137
78,436	59,615	-0,309	-0,214
79,451	-55,613	-0,271	-0,085
80,466	122,039	-0,294	-0,257
81,480	365,901	-0,233	-0,329
82,495	93,122	-0,220	-0,174
83,509	161,830	-0,166	-0,163
84,524	31,084	-0,225	-0,135
85,539	29,513	-0,204	-0,121
86,553	13,597	-0,261	-0,142
87,568	154,029	-0,314	-0,302
88,582	33,434	-0,275	-0,167
89,597	-25,847	-0,267	-0,110
90,611	37,761	-0,325	-0,202
91,626	-31,320	-0,263	-0,103
92,641	-9,044	-0,292	-0,137
93,655	178,544	-0,263	-0,269
94,670	664,515	-0,192	-0,349
95,684	152,965	-0,379	-0,363
96,699	231,164	-0,177	-0,203
97,714	52,324	-0,288	-0,192
98,728	102,829	-0,242	-0,198
99,743	-158,035	-0,186	-0,008
100,757	-8,363	-0,210	-0,098
101,772	-39,690	-0,417	-0,152
102,787	381,402	-0,242	-0,348
103,801	-9,977	-0,203	-0,094
104,816	-200,000	-0,300	-0,000
105,830	-53,540	-0,247	-0,078
106,845	80,461	-0,171	-0,129
107,860	-30,898	-0,186	-0,073
108,874	57,402	-0,275	-0,188
109,889	23,099	-0,323	-0,185
110,903	92,948	-0,270	-0,213
111,918	4,267	-0,271	-0,138
112,933	58,403	-0,258	-0,177
113,947	43,115	-0,150	-0,096
114,962	227,511	-0,245	-0,279
115,976	113,710	-0,324	-0,275
116,991	73,682	-0,333	-0,244
118,006	78,413	-0,191	-0,142
119,020	140,565	-0,203	-0,187
120,035	800,000	-0,085	-0,175
121,049	118,231	-0,181	-0,156
122,064	280,839	-0,230	-0,288
123,079	110,564	-0,211	-0,177
124,093	40,522	-0,247	-0,155
125,108	249,110	-0,188	-0,222
126,122	37,730	-0,265	-0,164
127,137	-49,275	-0,278	-0,092
128,151	16,100	-0,211	-0,116
129,166	498,732	-0,179	-0,289
130,181	-55,209	-0,268	-0,083
131,195	58,984	-0,245	-0,168
132,210	51,993	-0,242	-0,160
133,224	76,304	-0,250	-0,185
134,239	7,479	-0,295	-0,153
135,254	40,868	-0,167	-0,105
136,268	-55,038	-0,357	-0,111
137,283	-5,394	-0,162	-0,077
138,297	26,591	-0,298	-0,173
139,312	183,975	-0,220	-0,227
140,327	16,067	-0,298	-0,163
141,341	-39,444	-0,216	-0,079
142,356	23,041	-0,216	-0,123
143,370	166,006	-0,152	-0,150
144,385	53,356	-0,259	-0,173
145,400	81,882	-0,248	-0,187
146,414	59,874	-0,285	-0,196
147,429	117,188	-0,319	-0,273
148,443	74,001	-0,252	-0,184
149,458	147,363	-0,213	-0,200
150,473	387,551	-0,172	-0,248
151,487	-47,620	-0,362	-0,122
152,502	163,966	-0,233	-0,229
153,516	119,950	-0,192	-0,165
154,531	132,938	-0,184	-0,165
155,546	83,488	-0,215	-0,163
156,560	279,737	-0,138	-0,172
157,575	5,591	-0,268	-0,137
158,589	171,814	-0,115	-0,115
159,604	-64,042	-0,163	-0,046
160,619	-57,453	-0,285	-0,086
161,633	47,032	-0,331	-0,214
162,648	-200,000	-0,065	-0,207
163,662	78,783	-0,223	-0,166
164,677	82,729	-0,297	-0,225
165,692	499,427	-0,141	-0,227
166,706	10,018	-0,201	-0,106
167,721	229,878	-0,257	-0,292
168,735	-80,015	-0,355	-0,082
169,750	36,303	-0,246	-0,150
170,764	232,356	-0,155	-0,177
171,779	-66,575	-0,318	-0,087
172,794	49,037	-0,137	-0,089
173,808	-9,509	-0,273	-0,126
174,823	76,843	-0,167	-0,123
175,837	73,802	-0,218	-0,159
176,852	-12,910	-0,328	-0,148
177,867	-146,272	-0,243	0,015
178,881	-41,274	-0,241	-0,086
179,896	148,170	-0,159	-0,150
180,910	562,110	-0,065	-0,109
181,925	-56,362	-0,151	-0,046
182,940	135,865	-0,172	-0,156
183,954	140,066	-0,187	-0,171
184,969	800,000	-0,101	-0,198
185,983	342,491	-0,075	-0,103
186,998	460,727	-0,121	-0,189
188,013	120,137	-0,230	-0,198
189,027	1,185	-0,259	-0,128
190,042	110,660	-0,258	-0,216
191,056	116,428	-0,162	-0,138
192,071	-64,013	-0,238	-0,067
193,086	9,480	-0,230	-0,121
194,100	800,000	-0,073	-0,203
195,115	231,203	-0,165	-0,188
196,129	126,461	-0,159	-0,140
197,144	366,531	-0,179	-0,251
198,159	194,250	-0,163	-0,171
199,173	800,000	-0,116	-0,229
200,188	16,411	-0,213	-0,116
201,202	278,161	-0,137	-0,169
202,217	-51,486	-0,194	-0,063
203,232	143,228	-0,288	-0,266
204,246	36,223	-0,240	-0,146
205,261	37,561	-0,255	-0,157
206,275	243,425	-0,119	-0,139
207,290	217,425	-0,186	-0,206
208,304	91,006	-0,234	-0,182
209,319	-21,829	-0,136	-0,057
210,334	63,682	-0,196	-0,136
211,348	490,209	-0,148	-0,236
212,363	80,323	-0,242	-0,181
213,377	-89,883	-0,305	-0,061
214,392	461,993	-0,123	-0,191
215,407	-200,000	-0,025	-0,107
216,421	101,445	-0,220	-0,177
217,436	79,109	-0,190	-0,141
218,450	-12,175	-0,253	-0,114
219,465	-39,067	-0,224	-0,081
220,480	195,078	-0,178	-0,187
221,494	247,594	-0,221	-0,259
222,509	-200,000	-0,039	-0,179
223,523	-40,007	-0,124	-0,045
224,538	-103,855	-0,355	-0,057
225,553	182,044	-0,133	-0,136
226,567	160,555	-0,123	-0,119
227,582	-3,256	-0,310	-0,149
228,596	-44,613	-0,193	-0,066
229,611	-5,057	-0,175	-0,083
230,626	-5,392	-0,202	-0,096
231,640	456,088	-0,197	-0,304
232,655	166,053	-0,231	-0,226
233,669	-53,363	-0,168	-0,053
234,684	77,424	-0,202	-0,148
235,699	37,840	-0,212	-0,130
236,713	-131,453	-0,216	0,019
237,728	36,959	-0,157	-0,096
238,742	-104,453	-0,219	0,035
239,757	125,884	-0,173	-0,151
240,772	80,851	-0,255	-0,190
241,786	22,921	-0,244	-0,138
242,801	57,424	-0,193	-0,130
243,815	170,718	-0,169	-0,168
244,830	-105,020	-0,222	-0,035
245,844	144,958	-0,184	-0,170
246,859	166,336	-0,158	-0,155
247,874	158,484	-0,111	-0,106
248,888	111,648	-0,173	-0,144
249,903	-200,000	-0,003	-0,266
250,917	-18,275	-0,158	-0,068
251,932	-64,713	-0,132	-0,037
252,947	92,813	-0,206	-0,160
253,961	-19,927	-0,054	-0,023
254,976	-113,664	-0,204	-0,027
255,990	-50,325	-0,242	-0,078
257,005	-79,414	-0,090	-0,021
258,020	-154,190	-0,162	-0,007
259,034	132,260	-0,142	-0,127
260,049	-79,522	-0,161	-0,037
261,063	68,642	-0,122	-0,086
262,078	304,919	-0,189	-0,243
263,093	21,891	-0,213	-0,119
264,107	313,960	-0,132	-0,171
265,122	408,545	-0,129	-0,189
266,136	191,346	-0,225	-0,233
267,151	800,000	-0,050	-0,102
268,166	88,136	-0,192	-0,147
269,180	-4,230	-0,245	-0,116
270,195	-164,961	-0,173	0,005
271,209	-200,000	-0,049	-0,187
272,224	25,409	-0,192	-0,110
273,239	142,980	-0,090	-0,083
274,253	43,573	-0,124	-0,078
275,268	5,056	-0,187	-0,095
276,282	61,236	-0,226	-0,154
277,297	-29,013	-0,331	-0,130
278,312	800,000	-0,136	-0,307
279,326	-108,251	-0,181	-0,027
280,341	-28,949	-0,149	-0,059
281,355	222,994	-0,154	-0,172
282,370	80,792	-0,327	-0,243
283,384	253,477	-0,211	-0,249
284,399	271,285	-0,157	-0,190
285,414	-60,380	-0,139	-0,040
286,428	-57,596	-0,183	-0,055
287,443	263,107	-0,147	-0,176
288,457	-34,795	-0,055	-0,020
289,472	-5,950	-0,271	-0,127
290,487	282,746	-0,160	-0,198
291,501	800,000	-0,104	-0,210
292,516	194,863	-0,243	-0,254
293,530	428,131	-0,056	-0,083
294,545	-33,434	-0,175	-0,066
295,560	101,682	-0,233	-0,187
296,574	-174,147	-0,123	0,002
297,589	13,296	-0,198	-0,105
298,603	280,638	-0,212	-0,261
299,618	-80,915	-0,095	-0,021
300,633	800,000	-0,064	-0,128
301,647	81,335	-0,157	-0,117
302,662	59,649	-0,141	-0,096
303,676	321,922	-0,178	-0,233
304,691	-200,000	-0,029	-0,125
305,706	96,127	-0,181	-0,142
306,720	558,513	-0,069	-0,115
307,735	131,960	-0,130	-0,115
308,749	800,000	-0,130	-0,281
309,764	-53,364	-0,112	0,035
310,779	800,000	-0,033	-0,067
311,793	323,452	-0,117	-0,154
312,808	-35,925	-0,196	-0,073
313,822	-8,714	-0,165	-0,076
314,837	-200,000	-0,019	-0,106
315,852	800,000	-0,072	-0,153
316,866	10,941	-0,144	-0,075
317,881	254,517	-0,112	-0,132
318,895	89,385	-0,166	-0,127
319,910	267,602	-0,171	-0,206
320,925	9,848	-0,144	-0,075
321,939	153,935	-0,235	-0,222
322,954	116,474	-0,072	-0,060
323,968	800,000	-0,057	-0,130
324,983	748,864	-0,075	-0,140
325,997	182,672	-0,125	-0,126
327,012	280,503	-0,161	-0,197
328,027	292,520	-0,147	-0,184
329,041	-114,232	-0,114	-0,015
330,056	-73,156	-0,113	-0,028
331,070	397,291	-0,074	-0,106
332,085	-94,958	-0,140	-0,026
333,100	106,489	-0,136	-0,111
334,114	-200,000	-0,029	-0,172
335,129	43,907	-0,123	-0,077
336,143	60,604	-0,197	-0,133
337,158	-54,947	-0,193	-0,059
338,173	217,991	-0,126	-0,138
339,187	800,000	-0,043	-0,123
340,202	149,749	-0,099	-0,092
341,216	651,811	-0,103	-0,181
342,231	383,744	-0,086	-0,122
343,246	32,402	-0,158	-0,093
344,260	800,000	-0,047	-0,091
345,275	-17,581	-0,050	0,022
346,289	139,181	-0,050	0,045
347,304	7,404	-0,200	-0,102
348,319	-39,201	-0,245	-0,088
349,333	574,113	-0,095	-0,158
350,348	65,207	-0,254	-0,176
351,362	800,000	-0,074	-0,151
352,377	150,814	-0,098	-0,091
353,392	800,000	-0,043	-0,098
354,406	100,697	-0,073	-0,058
355,421	208,674	1307,623	1401,414
356,435	160,580	1467,465	1401,912
