DTS Sentinel unit serial number:	SN410029Multiplexer serial number:	ORYXHardware model number:	OX2-SRSoftware version number:	ORYX F/W v4,00 Oryx Data Collector v3.7.2.0data status	okinstallation	B3 Nyhavnadifferential loss correction	single-endedforward channel	channel 1reverse channel	N/Adate	2023/12/01time	14:22:30forward acquisition time	300,00reverse acquisition time	0,00gamma	499,1914k internal	0,3213k external	0,3213temperature offset calibration	1,0000default loss term (dB/km)	0,3820temperature slope calibration	1,0000multiplexer offset coefficient	1,0000multiplexer slope coefficient	1,0000fibre end	0,00T internal ref (°C)	10,61T ext. ref 1 (°C)	-2,74T ext. ref 2 (°C)	-2,80length (m)	temperature (°C)	Stokes	anti-Stokes-744,400	182,945	-0,124	-0,133
-743,385	800,000	0,110	0,264
-742,371	266,342	-0,185	-0,235
-741,356	-200,000	0,046	0,318
-740,342	-200,000	-0,030	-0,218
-739,327	-200,000	-0,073	0,270
-738,312	305,483	-0,160	-0,216
-737,298	542,446	-0,090	0,155
-736,283	7,654	-0,232	-0,126
-735,269	461,963	-0,120	0,195
-734,254	82,422	-0,277	-0,217
-733,239	-89,986	-0,240	0,050
-732,225	388,893	-0,240	-0,360
-731,210	-138,370	0,079	-0,006
-730,196	-200,000	-0,016	-0,210
-729,181	-200,000	0,077	0,000
-728,167	-10,626	-0,233	-0,111
-727,152	340,090	-0,055	0,078
-726,137	-64,073	0,157	-0,046
-725,123	473,792	-0,024	0,039
-724,108	-96,007	-0,048	0,009
-723,094	-82,525	-0,131	0,031
-722,079	-200,000	-0,002	-0,171
-721,064	-200,000	0,012	-0,073
-720,050	-5,447	-0,083	-0,041
-719,035	-200,000	0,006	0,056
-718,021	545,268	0,034	0,059
-717,006	-200,000	-0,007	-0,074
-715,991	-9,928	-0,208	-0,100
-714,977	800,000	-0,017	0,037
-713,962	-154,555	-0,149	0,007
-712,948	133,350	-0,061	0,057
-711,933	-200,000	0,003	-0,013
-710,918	800,000	-0,011	-0,032
-709,904	193,856	-0,071	-0,077
-708,889	52,415	0,057	-0,040
-707,875	-160,460	0,026	-0,001
-706,860	-48,466	0,097	-0,034
-705,845	603,973	0,065	0,118
-704,831	-42,801	-0,130	0,047
-703,816	-104,050	-0,035	0,006
-702,802	-200,000	-0,007	-0,074
-701,787	396,022	0,016	-0,024
-700,772	-63,094	-0,109	-0,032
-699,758	326,690	0,050	-0,070
-698,743	-106,773	0,216	0,034
-697,729	236,891	-0,028	-0,034
-696,714	78,189	-0,053	0,041
-695,699	127,429	0,070	-0,064
-694,685	800,000	0,049	-0,107
-693,670	-173,307	0,124	0,003
-692,656	-70,102	-0,122	0,033
-691,641	-60,769	0,046	-0,014
-690,627	800,000	-0,030	-0,072
-689,612	-200,000	-0,031	0,110
-688,597	-24,165	0,051	0,022
-687,583	800,000	-0,071	-0,178
-686,568	19,723	-0,056	-0,033
-685,554	-107,315	-0,061	0,010
-684,539	212,730	0,062	0,071
-683,524	93,885	0,070	0,057
-682,510	766,074	-0,030	-0,060
-681,495	-200,000	-0,006	-0,091
-680,481	263,408	-0,075	-0,094
-679,466	485,171	-0,089	-0,146
-678,451	-200,000	0,010	-0,107
-677,437	99,663	0,107	-0,090
-676,422	800,000	-0,094	-0,190
-675,408	-56,220	0,105	-0,034
-674,393	124,375	-0,097	0,088
-673,378	231,447	-0,118	-0,141
-672,364	-200,000	0,031	-0,108
-671,349	-200,000	0,003	0,025
-670,335	-200,000	0,021	0,080
-669,320	-93,835	-0,101	0,020
-668,305	65,045	0,036	0,026
-667,291	-200,000	-0,014	0,047
-666,276	-53,644	-0,146	0,048
-665,262	99,174	-0,050	-0,042
-664,247	800,000	-0,028	0,077
-663,232	164,035	-0,044	-0,045
-662,218	346,902	0,080	-0,115
-661,203	47,151	-0,076	0,051
-660,189	-200,000	-0,012	0,092
-659,174	800,000	-0,061	-0,137
-658,159	537,287	-0,087	-0,150
-657,145	800,000	0,047	-0,102
-656,130	-161,301	-0,193	-0,007
-655,116	44,518	-0,016	-0,011
-654,101	-84,548	0,157	0,035
-653,086	142,979	-0,017	0,016
-652,072	-200,000	0,021	-0,096
-651,057	420,108	-0,080	-0,123
-650,043	-91,998	-0,134	-0,027
-649,028	43,493	0,102	-0,068
-648,014	764,080	-0,026	0,052
-646,999	-200,000	0,008	-0,090
-645,984	-69,102	0,055	-0,015
-644,970	-126,635	-0,110	0,012
-643,955	33,210	0,031	-0,020
-642,941	209,540	-0,081	-0,091
-641,926	37,285	-0,044	0,028
-640,911	404,082	0,079	0,120
-639,897	140,632	-0,028	0,027
-638,882	-200,000	0,001	0,030
-637,868	-32,798	0,055	0,022
-636,853	-200,000	-0,064	-0,239
-635,838	800,000	0,018	-0,046
-634,824	226,810	0,017	0,019
-633,809	-200,000	-0,005	-0,077
-632,795	-200,000	0,012	0,093
-631,780	-49,908	-0,098	-0,033
-630,765	-33,192	-0,052	-0,021
-629,751	-200,000	-0,001	-0,119
-628,736	800,000	0,070	-0,159
-627,722	-98,996	-0,113	0,020
-626,707	-89,733	0,042	0,009
-625,692	14,544	-0,049	-0,027
-624,678	800,000	-0,015	0,040
-623,663	93,425	-0,066	-0,054
-622,649	-86,684	-0,107	-0,023
-621,634	-200,000	-0,019	-0,112
-620,619	-200,000	0,004	-0,139
-619,605	41,196	-0,090	0,059
-618,590	-137,862	0,103	0,008
-617,576	-44,929	0,111	0,040
-616,561	130,297	0,048	-0,044
-615,546	298,504	-0,018	-0,024
-614,532	157,411	0,057	-0,057
-613,517	-200,000	0,002	0,082
-612,503	-200,000	-0,013	-0,088
-611,488	72,585	0,047	0,036
-610,474	37,501	-0,008	0,005
-609,459	449,666	-0,050	0,080
-608,444	-131,788	0,109	0,010
-607,430	800,000	-0,027	-0,074
-606,415	-63,988	-0,039	0,011
-605,401	103,988	-0,027	-0,023
-604,386	800,000	0,008	0,017
-603,371	-198,915	0,098	0,000
-602,357	773,374	-0,036	-0,071
-601,342	128,021	0,023	-0,021
-600,328	-73,873	0,120	0,031
-599,313	-83,816	-0,093	-0,021
-598,298	-122,645	-0,025	-0,003
-597,284	723,071	0,032	0,062
-596,269	176,419	0,069	0,072
-595,255	-200,000	-0,015	0,087
-594,240	-200,000	0,002	-0,009
-593,225	331,038	-0,032	0,044
-592,211	375,446	-0,051	0,075
-591,196	800,000	0,031	0,066
-590,182	-76,520	0,074	-0,019
-589,167	-96,426	0,155	0,029
-588,152	-63,334	-0,146	-0,043
-587,138	71,638	0,017	-0,013
-586,123	44,747	-0,152	0,101
-585,109	800,000	-0,044	0,107
-584,094	-143,088	-0,047	0,003
-583,079	-200,000	0,025	0,116
-582,065	755,731	0,054	0,106
-581,050	-200,000	-0,022	-0,071
-580,036	250,863	0,080	0,098
-579,021	-200,000	-0,018	0,128
-578,006	-26,669	-0,107	-0,045
-576,992	-200,000	0,012	-0,048
-575,977	800,000	0,051	0,120
-574,963	-179,458	0,109	-0,002
-573,948	1,256	0,152	0,078
-572,934	705,300	-0,024	-0,045
-571,919	247,992	-0,106	0,130
-570,904	-72,421	-0,264	-0,070
-569,890	-12,108	-0,096	-0,045
-568,875	800,000	-0,039	-0,112
-567,861	800,000	0,015	-0,039
-566,846	-45,264	-0,134	-0,048
-565,831	96,862	-0,059	0,048
-564,817	90,596	0,058	-0,046
-563,802	389,928	-0,001	-0,002
-562,788	-48,282	0,095	0,033
-561,773	-200,000	0,022	0,146
-560,758	27,939	0,052	0,031
-559,744	609,042	0,032	0,058
-558,729	-51,831	0,106	0,035
-557,715	14,563	-0,052	-0,029
-556,700	68,688	0,106	-0,078
-555,685	35,396	-0,059	-0,037
-554,671	800,000	-0,074	0,149
-553,656	800,000	0,032	0,090
-552,642	430,078	0,070	0,109
-551,627	149,256	-0,052	-0,051
-550,612	800,000	0,050	-0,136
-549,598	30,336	0,074	-0,045
-548,583	-182,344	-0,112	0,001
-547,569	-200,000	-0,010	-0,065
-546,554	-146,854	0,125	0,008
-545,539	800,000	0,042	0,116
-544,525	-200,000	0,005	0,045
-543,510	190,372	-0,083	-0,090
-542,496	0,586	0,098	-0,050
-541,481	327,565	-0,073	-0,101
-540,466	392,031	0,025	-0,038
-539,452	800,000	0,014	-0,033
-538,437	-48,057	0,168	0,058
-537,423	16,451	0,104	0,059
-536,408	61,005	-0,032	0,023
-535,393	-82,488	0,093	-0,022
-534,379	-200,000	-0,011	-0,054
-533,364	-200,000	0,005	-0,021
-532,350	-40,179	-0,059	-0,022
-531,335	21,098	-0,073	-0,043
-530,321	212,604	0,073	0,082
-529,306	99,877	0,044	-0,036
-528,291	-41,304	-0,175	0,064
-527,277	4,814	0,196	-0,103
-526,262	-200,000	0,037	-0,149
-525,248	-200,000	-0,023	-0,090
-524,233	-200,000	0,005	0,062
-523,218	-14,458	0,094	0,043
-522,204	137,136	-0,014	0,013
-521,189	57,931	-0,127	-0,089
-520,175	-200,000	0,019	0,222
-519,160	-200,000	0,044	0,168
-518,145	-115,465	-0,084	0,011
-517,131	107,477	-0,062	0,053
-516,116	-200,000	0,014	-0,081
-515,102	-200,000	0,008	0,072
-514,087	-39,703	-0,066	0,025
-513,072	229,393	-0,030	-0,035
-512,058	209,006	-0,125	-0,140
-511,043	155,347	0,027	-0,027
-510,029	800,000	0,031	-0,063
-509,014	20,208	-0,045	-0,026
-507,999	276,110	-0,021	0,027
-506,985	800,000	-0,074	-0,151
-505,970	166,589	0,093	-0,094
-504,956	-200,000	0,003	-0,017
-503,941	-33,115	0,124	-0,049
-502,926	180,395	0,081	0,085
-501,912	-200,000	0,041	0,137
-500,897	97,169	-0,062	0,051
-499,883	800,000	-0,048	-0,099
-498,868	-19,926	-0,183	-0,081
-497,853	87,689	0,047	0,037
-496,839	422,793	0,132	-0,204
-495,824	8,921	-0,074	0,040
-494,810	84,056	0,091	0,072
-493,795	800,000	0,029	-0,083
-492,781	128,211	-0,144	-0,132
-491,766	-200,000	0,005	-0,129
-490,751	221,754	-0,066	-0,076
-489,737	19,825	0,033	0,019
-488,722	-200,000	-0,017	0,063
-487,708	-144,459	0,148	-0,010
-486,693	-1,152	0,025	-0,013
-485,678	-200,000	0,008	-0,043
-484,664	-200,000	-0,030	-0,105
-483,649	800,000	-0,045	-0,109
-482,635	-157,588	0,067	-0,003
-481,620	555,248	-0,044	0,076
-480,605	108,385	-0,050	0,042
-479,591	115,352	0,058	0,051
-478,576	-200,000	0,000	0,040
-477,562	6,891	-0,122	-0,065
-476,547	-16,926	-0,066	-0,030
-475,532	29,953	0,025	0,015
-474,518	655,891	-0,051	-0,095
-473,503	800,000	0,030	0,078
-472,489	-46,385	-0,053	-0,019
-471,474	-83,619	0,073	0,017
-470,459	162,891	-0,006	-0,006
-469,445	231,978	-0,105	0,124
-468,430	752,064	0,025	0,048
-467,416	-70,636	0,090	-0,024
-466,401	-103,442	0,122	-0,020
-465,386	15,870	0,083	-0,047
-464,372	128,247	0,090	0,083
-463,357	276,956	-0,118	-0,151
-462,343	-101,443	-0,035	-0,006
-461,328	800,000	0,023	0,054
-460,313	84,665	0,042	-0,033
-459,299	-90,599	0,031	0,006
-458,284	800,000	-0,035	0,081
-457,270	251,801	0,061	0,074
-456,255	-200,000	0,034	-0,168
-455,241	-200,000	0,006	0,045
-454,226	281,657	-0,140	-0,180
-453,211	800,000	0,045	0,089
-452,197	800,000	0,046	0,146
-451,182	128,760	-0,063	-0,058
-450,168	472,898	-0,036	0,059
-449,153	3,325	-0,134	0,070
-448,138	245,222	0,092	-0,111
-447,124	-200,000	-0,013	-0,164
-446,109	39,909	0,064	-0,041
-445,095	800,000	0,047	0,102
-444,080	-44,758	0,096	0,034
-443,065	-122,635	0,042	0,005
-442,051	800,000	-0,075	-0,167
-441,036	-200,000	0,025	-0,160
-440,022	-200,000	-0,037	-0,123
-439,007	-83,561	0,094	0,021
-437,992	800,000	0,042	-0,109
-436,978	364,189	-0,069	-0,100
-435,963	-200,000	0,068	0,253
-434,949	800,000	0,053	0,135
-433,934	-200,000	0,008	0,147
-432,919	710,999	-0,091	-0,173
-431,905	-51,227	-0,021	-0,007
-430,890	800,000	-0,009	-0,019
-429,876	539,089	0,043	-0,074
-428,861	-187,425	0,203	-0,002
-427,846	800,000	-0,021	0,054
-426,832	235,821	-0,129	-0,153
-425,817	-80,988	0,031	-0,007
-424,803	314,028	-0,062	-0,083
-423,788	800,000	0,013	-0,029
-422,773	-152,218	0,132	0,007
-421,759	134,619	-0,047	0,044
-420,744	-127,463	-0,137	-0,014
-419,730	300,457	-0,038	-0,050
-418,715	-200,000	0,004	-0,033
-417,701	14,608	-0,150	-0,084
-416,686	-200,000	-0,022	-0,108
-415,671	-200,000	-0,065	0,246
-414,657	798,686	-0,015	0,029
-413,642	-81,444	-0,079	0,019
-412,628	-55,408	0,128	0,041
-411,613	-112,626	-0,085	-0,012
-410,598	202,473	-0,056	-0,062
-409,584	69,718	0,140	-0,103
-408,569	312,613	-0,024	-0,033
-407,555	21,816	0,061	-0,035
-406,540	634,997	-0,026	-0,048
-405,525	173,754	-0,060	-0,062
-404,511	-1,906	0,067	-0,034
-403,496	-55,838	-0,109	-0,034
-402,482	239,269	0,029	0,035
-401,467	68,242	0,045	-0,033
-400,452	341,729	-0,011	-0,015
-399,438	-130,957	-0,169	-0,016
-398,423	-200,000	0,057	-0,201
-397,409	321,942	-0,037	-0,050
-396,394	209,516	-0,046	-0,052
-395,379	-8,174	0,145	0,070
-394,365	-126,984	0,107	-0,011
-393,350	-200,000	0,005	0,038
-392,336	-4,906	-0,079	0,039
-391,321	126,652	-0,073	0,066
-390,306	-200,000	-0,009	-0,116
-389,292	-81,745	-0,094	-0,022
-388,277	702,569	-0,082	0,155
-387,263	34,504	0,017	0,011
-386,248	-200,000	0,015	0,075
-385,233	67,971	0,124	-0,091
-384,219	50,638	-0,063	-0,043
-383,204	-141,483	0,069	0,005
-382,190	-117,892	-0,217	0,027
-381,175	249,892	-0,034	-0,042
-380,160	347,059	-0,025	-0,035
-379,146	800,000	-0,007	-0,019
-378,131	244,421	0,058	0,069
-377,117	-200,000	0,017	0,134
-376,102	208,808	0,041	-0,046
-375,088	-200,000	0,051	-0,166
-374,073	-43,763	0,063	0,023
-373,058	-60,406	-0,039	0,012
-372,044	-27,361	-0,093	-0,038
-371,029	342,348	0,052	0,073
-370,015	-100,318	-0,187	-0,033
-369,000	153,464	0,109	-0,107
-367,985	-200,000	0,017	-0,157
-366,971	185,281	0,052	-0,055
-365,956	187,233	0,041	-0,044
-364,942	-19,548	-0,066	-0,029
-363,927	-200,000	0,005	0,028
-362,912	-200,000	0,005	-0,154
-361,898	65,613	-0,006	0,004
-360,883	-200,000	-0,001	-0,134
-359,869	62,848	-0,102	-0,073
-358,854	-113,666	0,228	0,031
-357,839	39,223	0,017	0,011
-356,825	-200,000	-0,011	0,121
-355,810	219,304	-0,075	0,086
-354,796	800,000	-0,047	-0,122
-353,781	77,489	-0,034	-0,025
-352,766	-83,466	0,105	0,024
-351,752	-64,654	0,062	0,018
-350,737	-200,000	-0,006	0,153
-349,723	800,000	-0,048	0,109
-348,708	-200,000	-0,014	0,052
-347,693	227,779	0,044	0,052
-346,679	-200,000	0,012	-0,141
-345,664	-0,418	-0,134	-0,068
-344,650	42,606	-0,071	0,046
-343,635	-5,043	0,038	-0,019
-342,620	237,317	0,053	0,063
-341,606	-67,893	-0,051	-0,014
-340,591	335,320	-0,055	0,077
-339,577	-12,521	0,237	0,110
-338,562	-53,788	-0,062	-0,020
-337,548	596,075	-0,027	0,048
-336,533	-200,000	0,010	0,110
-335,518	120,671	0,079	0,070
-334,504	-200,000	0,046	0,175
-333,489	5,237	0,064	0,033
-332,475	-200,000	0,020	-0,147
-331,460	-200,000	-0,039	-0,147
-330,445	-186,620	-0,003	0,000
-329,431	800,000	-0,013	-0,035
-328,416	800,000	-0,032	-0,075
-327,402	-87,868	0,102	-0,022
-326,387	69,443	0,102	-0,075
-325,372	303,824	-0,039	-0,051
-324,358	-145,244	-0,095	0,006
-323,343	113,790	-0,065	-0,057
-322,329	-200,000	-0,046	0,248
-321,314	800,000	-0,008	-0,024
-320,299	-200,000	-0,030	0,105
-319,285	-200,000	0,001	-0,020
-318,270	-68,028	-0,122	-0,034
-317,256	-150,125	0,049	0,003
-316,241	158,073	0,023	0,023
-315,226	442,937	-0,079	-0,124
-314,212	19,370	0,016	0,009
-313,197	-59,000	-0,089	0,027
-312,183	-78,633	-0,045	0,011
-311,168	-87,337	0,130	0,028
-310,153	-118,946	-0,069	-0,009
-309,139	-200,000	-0,008	-0,115
-308,124	-200,000	-0,004	0,036
-307,110	-200,000	-0,017	0,193
-306,095	73,786	0,151	0,112
-305,080	118,164	-0,072	0,063
-304,066	6,704	-0,053	-0,028
-303,051	-200,000	-0,003	-0,015
-302,037	800,000	0,038	0,085
-301,022	-200,000	0,001	0,063
-300,008	-59,229	0,048	-0,015
-298,993	-84,049	-0,077	-0,017
-297,978	-105,712	0,091	-0,015
-296,964	115,689	0,123	0,107
-295,949	597,905	-0,094	-0,167
-294,935	52,371	0,113	-0,077
-293,920	-59,253	0,098	-0,030
-292,905	292,787	0,068	0,089
-291,891	138,482	-0,056	-0,052
-290,876	289,914	0,158	0,205
-289,862	595,724	-0,015	-0,027
-288,847	634,102	-0,028	0,051
-287,832	128,442	0,065	-0,059
-286,818	-200,000	-0,044	-0,143
-285,803	-200,000	-0,013	0,061
-284,789	800,000	0,068	0,149
-283,774	139,503	0,119	0,112
-282,759	-141,489	-0,115	0,008
-281,745	616,757	0,035	0,063
-280,730	-79,361	0,130	0,031
-279,716	-200,000	-0,050	-0,171
-278,701	-80,505	0,134	-0,031
-277,686	587,663	0,036	0,063
-276,672	4,952	-0,021	-0,011
-275,657	-200,000	-0,007	-0,049
-274,643	800,000	-0,037	-0,101
-273,628	-200,000	0,007	-0,057
-272,613	-96,481	-0,124	-0,023
-271,599	133,273	0,066	-0,060
-270,584	-47,055	-0,169	0,058
-269,570	139,828	0,091	0,085
-268,555	-104,635	0,039	-0,006
-267,540	298,252	0,074	-0,098
-266,526	81,205	-0,127	-0,098
-265,511	302,765	-0,018	-0,023
-264,497	-200,000	0,027	-0,111
-263,482	48,598	-0,047	0,031
-262,467	-119,444	0,055	-0,007
-261,453	170,761	0,056	-0,057
-260,438	116,130	0,083	-0,072
-259,424	-136,898	0,049	0,004
-258,409	46,080	-0,176	0,116
-257,395	-200,000	-0,012	-0,114
-256,380	5,568	0,054	-0,028
-255,365	8,906	0,145	0,078
-254,351	-56,584	0,089	-0,028
-253,336	485,763	-0,014	-0,022
-252,322	-200,000	0,044	0,148
-251,307	-68,025	0,034	-0,009
-250,292	800,000	-0,034	0,076
-249,278	-61,126	0,148	0,044
-248,263	532,375	0,062	-0,105
-247,249	-90,036	-0,030	-0,006
-246,234	-200,000	-0,036	0,127
-245,219	-144,332	-0,191	-0,012
-244,205	800,000	-0,041	0,106
-243,190	385,604	-0,122	-0,180
-242,176	-180,411	-0,078	0,001
-241,161	61,328	0,083	0,058
-240,146	-200,000	0,008	0,037
-239,132	-200,000	0,002	0,008
-238,117	9,963	-0,085	-0,046
-237,103	88,157	-0,030	0,024
-236,088	-200,000	0,017	0,074
-235,073	-70,695	0,117	-0,031
-234,059	-90,947	-0,050	0,010
-233,044	244,129	-0,012	0,014
-232,030	-64,675	0,029	-0,008
-231,015	-34,299	-0,075	-0,029
-230,000	172,444	-0,105	-0,107
-228,986	727,210	-0,039	-0,074
-227,971	-200,000	0,001	-0,032
-226,957	329,361	-0,026	0,035
-225,942	45,740	0,059	0,039
-224,927	800,000	-0,034	-0,081
-223,913	53,924	0,084	-0,058
-222,898	-125,094	-0,105	0,011
-221,884	-145,370	-0,088	0,006
-220,869	-200,000	0,004	0,048
-219,855	659,355	-0,049	-0,089
-218,840	744,520	0,063	0,122
-217,825	29,085	-0,132	-0,079
-216,811	59,670	0,045	0,031
-215,796	64,821	0,041	0,030
-214,782	-200,000	-0,007	0,050
-213,767	443,303	0,010	-0,016
-212,752	-200,000	-0,016	0,165
-211,738	800,000	0,038	0,098
-210,723	-200,000	-0,009	0,126
-209,709	-200,000	0,039	-0,149
-208,694	-200,000	0,004	0,017
-207,679	800,000	-0,031	0,075
-206,665	-5,475	-0,068	0,033
-205,650	800,000	0,034	0,089
-204,636	-200,000	-0,003	-0,031
-203,621	-85,660	0,168	-0,037
-202,606	86,603	0,030	0,023
-201,592	-169,586	-0,024	-0,001
-200,577	30,754	-0,039	-0,024
-199,563	-101,190	0,076	-0,013
-198,548	800,000	0,069	0,160
-197,533	800,000	0,047	0,100
-196,519	800,000	0,017	0,046
-195,504	-1,120	-0,078	-0,039
-194,490	-50,452	-0,125	0,042
-193,475	-200,000	-0,003	0,032
-192,460	-44,040	0,042	-0,015
-191,446	237,362	-0,006	-0,007
-190,431	-200,000	0,026	0,150
-189,417	800,000	0,045	0,132
-188,402	25,155	-0,060	0,035
-187,387	800,000	0,015	-0,042
-186,373	69,219	-0,046	-0,033
-185,358	800,000	-0,028	0,077
-184,344	800,000	0,015	0,043
-183,329	-200,000	-0,002	0,184
-182,315	-54,451	0,169	0,054
-181,300	695,249	-0,011	-0,020
-180,285	800,000	-0,043	-0,110
-179,271	234,022	-0,060	-0,070
-178,256	430,387	0,013	0,019
-177,242	-200,000	0,005	-0,027
-176,227	-200,000	0,040	0,150
-175,212	102,427	-0,080	-0,067
-174,198	800,000	-0,035	0,090
-173,183	-125,336	0,024	0,003
-172,169	257,956	-0,054	-0,066
-171,154	15,986	0,026	0,015
-170,139	-200,000	-0,001	-0,039
-169,125	-194,317	-0,030	-0,000
-168,110	-0,967	-0,105	0,052
-167,096	-200,000	-0,004	0,056
-166,081	-79,011	0,102	0,024
-165,066	-123,898	0,087	-0,010
-164,052	125,455	-0,084	0,075
-163,037	-200,000	0,021	0,134
-162,023	36,177	0,023	0,014
-161,008	398,721	0,060	0,089
-159,993	247,522	-0,105	0,126
-158,979	-99,877	-0,071	0,012
-157,964	-132,812	-0,186	-0,017
-156,950	254,092	-0,061	0,074
-155,935	-60,221	0,087	0,026
-154,920	-120,049	0,120	0,014
-153,906	200,904	-0,041	0,045
-152,891	-200,000	-0,013	0,077
-151,877	24,991	0,041	0,024
-150,862	366,376	-0,025	-0,035
-149,847	165,044	-0,092	-0,092
-148,833	-73,484	-0,039	0,010
-147,818	45,156	-0,053	0,035
-146,804	-44,063	0,030	0,011
-145,789	800,000	0,064	0,176
-144,775	336,409	0,028	-0,038
-143,760	-200,000	0,006	-0,098
-142,745	800,000	0,016	-0,047
-141,731	-200,000	0,021	0,161
-140,716	-122,386	0,144	-0,016
-139,702	-200,000	-0,023	0,129
-138,687	70,064	0,026	0,019
-137,672	25,149	-0,095	0,056
-136,658	-23,274	-0,045	0,019
-135,643	-49,778	0,065	-0,022
-134,629	-54,192	0,063	0,020
-133,614	-200,000	0,016	0,059
-132,599	-96,949	-0,132	0,024
-131,585	800,000	0,036	0,080
-130,570	-45,207	0,078	-0,027
-129,556	301,000	0,038	-0,050
-128,541	189,149	0,021	-0,023
-127,526	-159,316	0,134	-0,005
-126,512	-200,000	-0,008	0,046
-125,497	-22,983	0,124	0,053
-124,483	-19,460	0,136	0,059
-123,468	181,754	-0,091	-0,095
-122,453	800,000	0,011	0,026
-121,439	800,000	-0,020	0,047
-120,424	170,635	0,109	0,110
-119,410	-200,000	0,021	0,145
-118,395	-200,000	0,011	0,139
-117,380	54,590	0,058	-0,040
-116,366	800,000	-0,042	-0,096
-115,351	-200,000	0,034	0,113
-114,337	-51,974	-0,049	0,016
-113,322	-94,249	-0,045	0,009
-112,307	-97,015	0,115	0,021
-111,293	451,685	0,063	0,099
-110,278	-200,000	-0,015	0,061
-109,264	236,867	-0,092	0,108
-108,249	-21,411	0,016	-0,007
-107,234	-54,971	0,026	-0,008
-106,220	-200,000	0,017	-0,075
-105,205	187,609	0,093	-0,098
-104,191	54,845	-0,042	-0,029
-103,176	-122,754	-0,005	-0,001
-102,162	-60,000	0,035	0,010
-101,147	78,123	0,062	0,047
-100,132	-138,457	-0,046	0,004
-99,118	-200,000	0,006	0,088
-98,103	-43,553	0,151	0,054
-97,089	-200,000	-0,026	-0,148
-96,074	159,695	-0,014	0,013
-95,059	216,058	0,078	0,088
-94,045	800,000	0,047	0,106
-93,030	161,812	-0,044	0,044
-92,016	-200,000	0,015	0,111
-91,001	13,994	-0,141	0,077
-89,986	-74,618	-0,091	-0,023
-88,972	34,226	0,051	0,031
-87,957	27,818	-0,092	0,055
-86,943	-55,391	0,124	0,039
-85,928	518,870	-0,085	-0,141
-84,913	-200,000	0,022	-0,179
-83,899	51,463	0,127	0,085
-82,884	19,532	0,047	-0,026
-81,870	-20,052	-0,039	0,017
-80,855	-135,966	0,029	-0,002
-79,840	800,000	-0,024	0,054
-78,826	-27,179	-0,121	0,050
-77,811	-200,000	0,028	-0,135
-76,797	-200,000	0,005	0,094
-75,782	345,195	-0,047	-0,065
-74,767	289,109	0,095	0,121
-73,753	194,056	0,118	0,126
-72,738	79,378	0,132	0,100
-71,724	-200,000	0,019	0,061
-70,709	-56,414	-0,135	-0,042
-69,694	268,183	0,037	-0,045
-68,680	800,000	-0,021	0,049
-67,665	800,000	0,028	0,061
-66,651	1,570	-0,073	0,037
-65,636	-55,151	-0,083	0,026
-64,622	-200,000	-0,008	0,116
-63,607	-200,000	0,015	0,141
-62,592	800,000	0,037	0,090
-61,578	-200,000	0,008	-0,086
-60,563	-200,000	0,039	0,133
-59,549	83,742	-0,059	0,045
-58,534	14,593	-1,942	-1,067
-57,519	529,158	-1,147	-1,918
-56,505	-200,000	-0,461	-4,418
-55,490	665,591	0,907	1,660
-54,476	800,000	4,998	11,242
-53,461	-200,000	20,918	333,222
-52,446	800,000	758,194	2328,213
-51,432	551,107	1662,753	2825,449
-50,417	73,366	1664,830	1227,401
-49,403	18,439	1538,236	864,512
-48,388	12,456	1461,043	792,167
-47,373	19,163	1451,942	819,414
-46,359	15,741	1441,252	797,060
-45,344	10,693	1437,109	770,684
-44,330	10,637	1435,147	769,337
-43,315	10,625	1433,308	768,263
-42,300	10,656	1431,248	767,273
-41,286	10,682	1430,109	766,757
-40,271	10,615	1428,960	765,791
-39,257	10,622	1427,697	765,120
-38,242	10,659	1426,729	764,747
-37,227	10,650	1425,530	764,030
-36,213	10,683	1424,231	763,459
-35,198	10,664	1423,066	762,716
-34,184	10,720	1422,195	762,483
-33,169	10,631	1420,867	761,322
-32,154	10,742	1419,688	761,179
-31,140	10,725	1418,388	760,376
-30,125	10,727	1417,508	759,883
-29,111	10,707	1416,341	759,130
-28,096	10,697	1415,196	758,441
-27,082	10,659	1413,869	757,522
-26,067	10,650	1412,828	756,892
-25,052	10,674	1411,832	756,441
-24,038	10,669	1410,822	755,844
-23,023	10,613	1409,976	755,101
-22,009	10,628	1408,871	754,547
-20,994	10,602	1407,841	753,847
-19,979	10,623	1406,982	753,453
-18,965	10,580	1406,101	752,752
-17,950	10,597	1405,003	752,214
-16,936	10,578	1404,314	751,728
-15,921	10,521	1403,357	750,918
-14,906	10,561	1402,377	750,552
-13,892	10,580	1401,234	749,997
-12,877	10,585	1400,530	749,614
-11,863	10,530	1399,844	748,963
-10,848	10,543	1398,773	748,419
-9,833	10,443	1398,144	747,588
-8,819	10,478	1397,195	747,215
-7,804	10,464	1396,255	746,615
-6,790	10,455	1395,185	745,974
-5,775	10,493	1394,051	745,511
-4,760	10,408	1393,465	744,777
-3,746	10,436	1392,433	744,326
-2,731	10,444	1391,462	743,811
-1,717	10,425	1390,736	743,310
-0,702	10,426	1388,954	742,332
0,313	14,556	1302,391	714,959
1,327	30,940	693,376	417,898
2,342	48,084	120,472	79,250
3,356	6,020	16,562	8,620
4,371	7,914	3,455	1,820
5,386	-1,733	1,049	0,519
6,400	-200,000	0,097	0,606
7,415	22,065	-0,147	-0,084
8,429	142,887	-0,231	-0,217
9,444	22,605	-0,306	-0,176
10,459	-76,513	-0,202	-0,050
11,473	-58,680	-0,279	-0,085
12,488	72,298	-0,223	-0,164
13,502	-16,866	-0,353	-0,156
14,517	-29,225	-0,374	-0,150
15,531	-17,532	-0,399	-0,176
16,546	0,215	-0,423	-0,211
17,561	111,263	-0,422	-0,358
18,575	-78,555	-0,150	-0,036
19,590	228,564	-0,251	-0,288
20,604	99,784	-0,247	-0,201
21,619	45,886	-0,386	-0,251
22,634	98,160	-0,415	-0,336
23,648	110,482	-0,440	-0,372
24,663	259,917	-0,243	-0,296
25,677	55,298	-0,420	-0,285
26,692	21,531	-0,351	-0,200
27,707	-28,928	-0,284	-0,114
28,721	80,344	-0,313	-0,237
29,736	73,321	-0,370	-0,272
30,750	333,755	-0,261	-0,356
31,765	168,169	-0,230	-0,230
32,780	10,409	-0,429	-0,229
33,794	-58,855	-0,368	-0,111
34,809	-9,449	-0,310	-0,145
35,823	47,858	-0,341	-0,223
36,838	118,242	-0,368	-0,319
37,853	126,582	-0,337	-0,300
38,867	11,982	-0,403	-0,217
39,882	76,911	-0,383	-0,285
40,896	39,036	-0,283	-0,178
41,911	22,557	-0,326	-0,187
42,926	12,715	-0,318	-0,172
43,940	63,041	-0,367	-0,258
44,955	144,372	-0,353	-0,331
45,969	75,039	-0,321	-0,237
46,984	-1,762	-0,310	-0,153
47,999	332,304	-0,181	-0,246
49,013	43,276	-0,376	-0,241
50,028	31,264	-0,235	-0,141
51,042	15,200	-0,563	-0,309
52,057	291,075	-0,250	-0,320
53,071	99,702	-0,382	-0,310
54,086	286,287	-0,272	-0,345
55,101	61,044	-0,297	-0,206
56,115	131,995	-0,392	-0,354
57,130	58,351	-0,359	-0,247
58,144	38,624	-0,355	-0,222
59,159	81,542	-0,395	-0,299
60,174	30,215	-0,380	-0,227
61,188	107,791	-0,326	-0,272
62,203	46,746	-0,352	-0,229
63,217	207,986	-0,234	-0,257
64,232	-43,885	-0,277	-0,097
65,247	35,583	-0,361	-0,222
66,261	40,656	-0,390	-0,246
67,276	151,462	-0,285	-0,272
68,290	96,153	-0,303	-0,242
69,305	234,750	-0,338	-0,391
70,320	557,444	-0,172	-0,292
71,334	3,526	-0,345	-0,176
72,349	-27,217	-0,376	-0,153
73,363	2,613	-0,338	-0,171
74,378	-11,349	-0,287	-0,132
75,393	17,519	-0,351	-0,195
76,407	30,499	-0,249	-0,149
77,422	-37,536	-0,194	-0,072
78,436	488,929	-0,181	-0,290
79,451	236,317	-0,245	-0,284
80,466	-13,581	-0,179	-0,081
81,480	110,902	-0,215	-0,181
82,495	20,369	-0,323	-0,182
83,509	-93,330	-0,384	-0,074
84,524	55,733	-0,329	-0,223
85,539	-14,926	-0,299	-0,134
86,553	-3,916	-0,356	-0,172
87,568	187,311	-0,353	-0,368
88,582	-4,364	-0,337	-0,163
89,597	-12,511	-0,266	-0,121
90,611	-52,314	-0,294	-0,095
91,626	55,628	-0,322	-0,218
92,641	-4,297	-0,368	-0,177
93,655	-57,730	-0,331	-0,101
94,670	44,733	-0,365	-0,234
95,684	430,198	-0,243	-0,370
96,699	415,411	-0,109	-0,163
97,714	-118,154	-0,273	-0,034
98,728	-121,833	-0,202	-0,023
99,743	-13,806	-0,281	-0,126
100,757	260,891	-0,248	-0,300
101,772	72,470	-0,276	-0,201
102,787	146,291	-0,334	-0,313
103,801	10,540	-0,329	-0,175
104,816	34,992	-0,267	-0,163
105,830	137,034	-0,178	-0,162
106,845	391,803	-0,176	-0,257
107,860	-56,904	-0,289	-0,089
108,874	130,007	-0,218	-0,195
109,889	-20,073	-0,262	-0,113
110,903	-53,222	-0,189	-0,060
111,918	-84,311	-0,315	-0,069
112,933	-30,932	-0,286	-0,112
113,947	6,659	-0,280	-0,145
114,962	349,047	-0,093	-0,128
115,976	-34,682	-0,226	-0,086
116,991	414,790	-0,083	-0,124
118,006	108,365	-0,213	-0,178
119,020	518,944	-0,140	-0,229
120,035	42,139	-0,201	-0,127
121,049	-102,220	-0,183	-0,030
122,064	16,839	-0,166	-0,091
123,079	88,953	-0,273	-0,212
124,093	97,567	-0,206	-0,165
125,108	359,880	-0,169	-0,236
126,122	800,000	-0,064	-0,148
127,137	800,000	-0,027	-0,076
128,151	257,249	-0,218	-0,262
129,166	-80,282	-0,409	-0,095
130,181	37,262	-0,269	-0,165
131,195	-17,972	-0,189	-0,082
132,210	-48,910	-0,379	-0,126
133,224	142,155	-0,208	-0,192
134,239	394,605	-0,187	-0,272
135,254	149,207	-0,185	-0,175
136,268	69,838	-0,180	-0,129
137,283	-109,925	-0,305	-0,044
138,297	380,628	-0,249	-0,357
139,312	-4,574	-0,274	-0,131
140,327	386,490	-0,205	-0,296
141,341	116,301	-0,167	-0,142
142,356	120,187	-0,194	-0,168
143,370	-33,374	-0,184	-0,071
144,385	28,352	-0,178	-0,104
145,400	-58,299	-0,244	-0,073
146,414	15,466	-0,234	-0,127
147,429	88,222	-0,201	-0,155
148,443	111,245	-0,201	-0,169
149,458	502,794	-0,077	-0,124
150,473	263,535	-0,090	-0,110
151,487	91,006	-0,195	-0,152
152,502	114,022	-0,326	-0,276
153,516	143,940	-0,186	-0,172
154,531	101,394	-0,271	-0,219
155,546	-26,111	-0,256	-0,104
156,560	271,226	-0,136	-0,167
157,575	254,802	-0,108	-0,129
158,589	82,345	-0,095	-0,072
159,604	-1,958	-0,192	-0,094
160,619	-40,977	-0,274	-0,098
161,633	-66,645	-0,297	-0,081
162,648	522,241	-0,175	-0,287
163,662	-12,754	-0,154	-0,069
164,677	120,133	-0,269	-0,232
165,692	-66,836	-0,163	-0,044
166,706	30,803	-0,343	-0,204
167,721	331,516	-0,210	-0,283
168,735	0,464	-0,368	-0,182
169,750	-8,567	-0,222	-0,103
170,764	-93,179	-0,290	-0,056
171,779	-42,943	-0,190	0,067
172,794	-187,306	-0,197	0,002
173,808	386,159	-0,113	-0,162
174,823	138,271	-0,218	-0,198
175,837	32,757	-0,187	-0,112
176,852	68,339	-0,212	-0,151
177,867	138,365	-0,176	-0,160
178,881	-106,755	-0,138	0,021
179,896	-120,559	-0,178	-0,021
180,910	771,243	-0,074	-0,141
181,925	45,529	-0,172	-0,110
182,940	476,523	-0,129	-0,203
183,954	-1,273	-0,247	-0,121
184,969	48,794	-0,149	-0,097
185,983	-28,091	-0,173	-0,069
186,998	472,664	-0,170	-0,267
188,013	84,514	-0,294	-0,223
189,027	46,988	-0,204	-0,131
190,042	800,000	-0,072	-0,187
191,056	763,082	-0,057	-0,107
192,071	34,507	-0,228	-0,138
193,086	-86,567	-0,333	-0,070
194,100	-9,201	-0,170	-0,079
195,115	-161,542	-0,228	0,008
196,129	144,565	-0,199	-0,185
197,144	214,672	-0,309	-0,340
198,159	116,817	-0,229	-0,195
199,173	19,498	-0,255	-0,141
200,188	434,530	-0,103	-0,155
201,202	142,518	-0,125	-0,115
202,217	208,214	-0,097	-0,105
203,232	23,605	-0,262	-0,149
204,246	213,175	-0,188	-0,205
205,261	114,262	-0,213	-0,179
206,275	-71,097	-0,090	-0,023
207,290	18,427	-0,281	-0,155
208,304	245,564	-0,061	-0,071
209,319	-55,722	-0,227	-0,070
210,334	29,634	-0,164	-0,096
211,348	113,626	-0,188	-0,158
212,363	-149,046	-0,252	-0,014
213,377	-9,707	-0,262	-0,120
214,392	35,563	-0,224	-0,136
215,407	373,909	-0,132	-0,186
216,421	195,183	-0,077	-0,081
217,436	-0,248	-0,088	-0,043
218,450	225,303	-0,133	-0,150
219,465	24,791	-0,137	-0,079
220,480	532,528	-0,136	-0,224
221,494	509,982	-0,081	-0,130
222,509	7,569	-0,203	-0,105
223,523	-8,504	-0,294	-0,136
224,538	235,597	-0,123	-0,141
225,553	241,234	-0,244	-0,282
226,567	-60,095	-0,171	-0,050
227,582	-4,826	-0,209	-0,099
228,596	110,990	-0,171	-0,142
229,611	-18,191	-0,186	-0,080
230,626	156,943	-0,159	-0,152
231,640	333,909	-0,162	-0,217
232,655	424,667	-0,151	-0,226
233,669	47,156	-0,182	-0,117
234,684	54,628	-0,169	-0,112
235,699	-124,324	-0,297	-0,032
236,713	800,000	-0,080	-0,230
237,728	83,994	-0,095	-0,071
238,742	-35,395	-0,106	-0,039
239,757	196,275	-0,123	-0,130
240,772	82,819	-0,153	-0,114
241,786	-18,388	-0,240	-0,103
242,801	161,156	-0,205	-0,198
243,815	-127,876	-0,098	0,010
244,830	60,714	-0,120	-0,082
245,844	-119,000	-0,224	-0,027
246,859	-11,646	-0,249	-0,112
247,874	-96,065	-0,139	-0,025
248,888	217,312	-0,239	-0,263
249,903	161,838	-0,259	-0,250
250,917	48,290	-0,047	-0,030
251,932	116,146	-0,079	-0,067
252,947	375,004	-0,101	-0,143
253,961	415,854	-0,109	-0,161
254,976	-200,000	-0,032	-0,107
255,990	308,075	-0,146	-0,188
257,005	756,172	-0,175	-0,328
258,020	-173,507	-0,151	-0,003
259,034	-68,979	-0,113	0,030
260,049	27,196	-0,242	-0,140
261,063	31,353	-0,151	-0,089
262,078	566,027	-0,065	-0,109
263,093	-31,197	-0,126	0,049
264,107	-88,532	-0,171	-0,035
265,122	60,096	-0,163	-0,111
266,136	-85,729	-0,328	0,070
267,151	155,419	-0,123	-0,116
268,166	82,941	-0,224	-0,168
269,180	-40,872	-0,230	-0,082
270,195	-97,587	-0,205	-0,036
271,209	800,000	-0,094	-0,246
272,224	-117,023	-0,186	0,023
273,239	-140,137	-0,215	-0,015
274,253	-200,000	-0,027	-0,098
275,268	233,416	0,063	-0,071
276,282	397,273	-0,129	-0,185
277,297	72,084	-0,230	-0,165
278,312	-18,403	-0,198	-0,085
279,326	-93,966	-0,159	-0,030
280,341	208,330	-0,119	-0,128
281,355	462,910	-0,162	-0,250
282,370	800,000	-0,093	-0,198
283,384	218,165	-0,110	-0,120
284,399	46,657	-0,167	-0,107
285,414	223,556	-0,114	-0,127
286,428	-4,498	-0,242	-0,114
287,443	350,891	-0,076	-0,104
288,457	-63,255	-0,155	-0,044
289,472	-200,000	-0,011	-0,132
290,487	122,942	-0,186	-0,160
291,501	31,448	-0,232	-0,137
292,516	-42,526	-0,169	-0,059
293,530	170,445	-0,069	-0,068
294,545	35,983	-0,150	-0,091
295,560	-3,938	-0,253	-0,120
296,574	156,546	-0,131	-0,125
297,589	248,534	-0,099	-0,116
298,603	195,114	-0,187	-0,196
299,618	800,000	-0,085	-0,195
300,633	212,291	-0,108	-0,117
301,647	512,442	-0,125	-0,201
302,662	-36,749	-0,098	-0,036
303,676	800,000	-0,054	-0,149
304,691	-122,477	-0,267	0,029
305,706	800,000	-0,086	-0,240
306,720	179,556	-0,147	-0,148
307,735	-200,000	-0,073	-0,241
308,749	-200,000	-0,088	-0,298
309,764	-91,856	-0,168	-0,032
310,779	-40,814	-0,204	-0,072
311,793	-139,141	-0,075	-0,005
312,808	50,813	-0,206	-0,133
313,822	113,297	-0,182	-0,151
314,837	186,874	-0,060	-0,062
315,852	730,012	-0,083	-0,152
316,866	-38,244	0,076	-0,027
317,881	57,544	-0,104	-0,070
318,895	-50,092	-0,111	-0,036
319,910	109,701	-0,199	-0,163
320,925	-26,160	-0,189	0,076
321,939	-129,800	-0,091	-0,008
322,954	25,671	-0,110	-0,063
323,968	-200,000	-0,024	-0,128
324,983	534,970	-0,030	-0,049
325,997	148,253	-0,056	0,052
327,012	-23,607	-0,173	-0,071
328,027	-200,000	-0,005	-0,066
329,041	-61,247	-0,154	-0,044
330,056	-200,000	-0,052	-0,167
331,070	521,234	-0,058	-0,093
332,085	-102,475	-0,243	-0,039
333,100	-58,104	-0,136	-0,040
334,114	18,387	-0,162	-0,088
335,129	678,841	-0,094	-0,168
336,143	317,538	-0,083	-0,108
337,158	79,463	-0,091	0,067
338,173	136,584	-0,043	-0,038
339,187	-56,275	-0,134	-0,041
340,202	111,981	-0,208	-0,172
341,216	133,678	-0,163	-0,144
342,231	6,219	-0,245	-0,124
343,246	590,520	-0,155	-0,262
344,260	332,212	-0,064	-0,084
345,275	264,211	-0,034	0,040
346,289	-200,000	-0,044	-0,153
347,304	700,205	-0,082	-0,148
348,319	283,996	-0,051	-0,063
349,333	153,969	-0,121	-0,114
350,348	-86,109	-0,314	-0,066
351,362	-42,650	-0,094	-0,033
352,377	68,667	-0,114	-0,080
353,392	-200,000	0,001	-0,058
354,406	-25,730	-0,126	-0,051
355,421	208,289	1313,092	1404,415
356,435	160,263	1473,594	1404,886
