DTS Sentinel unit serial number:	SN410029Multiplexer serial number:	ORYXHardware model number:	OX2-SRSoftware version number:	ORYX F/W v4,00 Oryx Data Collector v3.7.2.0data status	okinstallation	B3 Nyhavnadifferential loss correction	single-endedforward channel	channel 1reverse channel	N/Adate	2023/12/03time	05:17:30forward acquisition time	300,00reverse acquisition time	0,00gamma	499,1914k internal	0,3201k external	0,3201temperature offset calibration	1,0000default loss term (dB/km)	0,3820temperature slope calibration	1,0000multiplexer offset coefficient	1,0000multiplexer slope coefficient	1,0000fibre end	0,00T internal ref (°C)	13,28T ext. ref 1 (°C)	-1,74T ext. ref 2 (°C)	-1,74length (m)	temperature (°C)	Stokes	anti-Stokes-744,400	124,433	-0,191	-0,175
-743,385	707,344	0,174	0,336
-742,371	561,070	-0,105	-0,185
-741,356	-200,000	0,068	0,434
-740,342	349,311	-0,147	-0,212
-739,327	-200,000	-0,019	0,185
-738,312	501,249	-0,125	-0,210
-737,298	800,000	0,105	0,317
-736,283	158,115	-0,247	-0,250
-735,269	281,615	0,204	0,266
-734,254	12,754	-0,211	-0,118
-733,239	-38,112	-0,282	0,108
-732,225	800,000	-0,112	-0,242
-731,210	-101,737	0,156	-0,027
-730,196	-1,163	0,099	0,050
-729,181	695,545	-0,039	-0,074
-728,167	-57,776	0,082	-0,026
-727,152	-90,824	0,152	0,032
-726,137	393,541	-0,055	0,083
-725,123	301,269	0,015	0,021
-724,108	-16,761	-0,129	-0,059
-723,094	5,004	0,096	-0,051
-722,079	-200,000	0,027	-0,090
-721,064	-200,000	-0,007	-0,149
-720,050	-83,380	0,112	-0,026
-719,035	-200,000	0,013	0,056
-718,021	73,527	-0,047	-0,036
-717,006	-129,833	-0,187	0,018
-715,991	98,654	0,043	-0,036
-714,977	-200,000	0,000	0,066
-713,962	-61,487	-0,033	-0,010
-712,948	-188,393	0,102	0,001
-711,933	-200,000	0,004	0,090
-710,918	800,000	-0,025	-0,058
-709,904	-15,850	0,051	-0,023
-708,889	-63,805	-0,116	0,034
-707,875	217,032	0,020	-0,023
-706,860	-200,000	0,006	0,067
-705,845	581,514	0,098	0,174
-704,831	695,068	0,019	-0,036
-703,816	-49,661	0,106	-0,036
-702,802	-147,736	-0,153	-0,009
-701,787	78,128	0,020	-0,015
-700,772	-151,733	0,098	-0,005
-699,758	-200,000	0,009	-0,178
-698,743	-200,000	-0,002	-0,012
-697,729	463,895	0,038	0,062
-696,714	45,079	-0,045	-0,030
-695,699	443,782	-0,048	-0,076
-694,685	149,843	-0,045	0,044
-693,670	60,998	-0,089	-0,064
-692,656	-138,109	-0,108	0,009
-691,641	333,186	0,041	-0,058
-690,627	11,470	0,008	0,005
-689,612	-200,000	-0,022	0,125
-688,597	-24,394	-0,083	0,036
-687,583	58,898	-0,046	-0,033
-686,568	800,000	0,031	-0,063
-685,554	43,356	-0,042	-0,028
-684,539	-43,239	0,114	-0,042
-683,524	230,108	0,066	0,078
-682,510	-200,000	-0,031	0,147
-681,495	-200,000	-0,012	0,074
-680,481	-200,000	0,033	-0,118
-679,466	-200,000	0,022	-0,102
-678,451	23,394	-0,005	-0,003
-677,437	-63,305	0,072	-0,021
-676,422	800,000	0,049	-0,098
-675,408	601,015	0,083	0,150
-674,393	206,872	-0,077	0,087
-673,378	-132,704	-0,088	0,008
-672,364	385,544	0,035	-0,053
-671,349	48,345	-0,043	-0,029
-670,335	30,358	-0,093	-0,057
-669,320	-21,750	0,017	-0,007
-668,305	771,271	0,015	0,030
-667,291	3,012	-0,116	0,061
-666,276	-200,000	0,019	-0,113
-665,262	-10,533	0,027	-0,013
-664,247	175,148	-0,014	0,015
-663,232	-200,000	-0,008	-0,094
-662,218	-179,747	0,181	-0,003
-661,203	93,033	-0,067	-0,055
-660,189	748,004	-0,064	-0,125
-659,174	-1,350	0,038	-0,020
-658,159	-183,117	-0,038	0,000
-657,145	-200,000	0,001	-0,068
-656,130	-94,946	0,100	-0,020
-655,116	-15,945	0,106	-0,049
-654,101	-200,000	-0,004	0,025
-653,086	-114,675	0,064	0,009
-652,072	675,798	-0,070	-0,132
-651,057	26,101	0,073	-0,044
-650,043	-200,000	0,017	-0,153
-649,028	-131,645	0,035	-0,003
-648,014	800,000	-0,065	0,181
-646,999	800,000	0,031	-0,076
-645,984	12,199	0,083	0,046
-644,970	5,017	-0,087	-0,046
-643,955	103,905	0,054	-0,046
-642,941	-14,624	-0,087	0,040
-641,926	-200,000	0,002	0,049
-640,911	-200,000	-0,007	0,095
-639,897	-66,256	-0,080	-0,023
-638,882	-47,662	0,129	-0,045
-637,868	800,000	-0,086	-0,185
-636,853	-2,359	-0,080	-0,040
-635,838	375,135	-0,069	-0,102
-634,824	800,000	-0,113	-0,243
-633,809	-200,000	-0,003	-0,126
-632,795	657,860	-0,046	0,087
-631,780	380,905	0,086	-0,129
-630,765	800,000	0,025	0,058
-629,751	2,228	-0,053	-0,028
-628,736	678,054	-0,091	-0,172
-627,722	260,439	-0,030	-0,037
-626,707	-200,000	0,019	0,062
-625,692	-40,055	0,073	0,028
-624,678	-200,000	0,007	0,093
-623,663	-136,252	-0,143	-0,012
-622,649	800,000	-0,032	0,101
-621,634	-107,727	-0,021	-0,003
-620,619	603,841	0,032	-0,058
-619,605	169,300	0,083	0,086
-618,590	-83,132	0,141	0,033
-617,576	800,000	0,066	0,170
-616,561	-200,000	0,000	0,100
-615,546	575,714	-0,067	-0,120
-614,532	-9,139	-0,100	-0,048
-613,517	-76,985	-0,066	0,016
-612,503	214,236	-0,054	-0,063
-611,488	-200,000	0,015	0,159
-610,474	780,927	0,001	-0,002
-609,459	424,028	0,038	-0,059
-608,444	-200,000	-0,019	-0,155
-607,430	-107,315	-0,080	-0,013
-606,415	800,000	-0,051	-0,155
-605,401	234,566	-0,056	-0,067
-604,386	800,000	0,049	0,098
-603,371	535,535	0,023	-0,039
-602,357	-29,972	-0,104	0,043
-601,342	800,000	0,027	-0,074
-600,328	73,385	0,202	-0,153
-599,313	-200,000	-0,069	-0,226
-598,298	436,782	0,045	-0,071
-597,284	800,000	0,034	0,091
-596,269	35,591	0,109	-0,069
-595,255	800,000	-0,016	-0,050
-594,240	664,543	-0,036	-0,067
-593,225	-200,000	0,022	-0,142
-592,211	800,000	-0,030	-0,070
-591,196	800,000	0,010	-0,028
-590,182	-200,000	0,002	0,030
-589,167	409,497	0,006	0,009
-588,152	97,537	0,032	-0,026
-587,138	-108,064	-0,119	0,019
-586,123	51,701	0,066	-0,046
-585,109	-107,447	-0,107	-0,017
-584,094	-66,585	0,035	0,010
-583,079	-200,000	-0,002	-0,094
-582,065	685,219	0,065	0,122
-581,050	-200,000	0,002	0,115
-580,036	-44,522	-0,106	0,038
-579,021	0,244	-0,020	0,010
-578,006	71,288	0,006	-0,005
-576,992	43,016	-0,058	0,038
-575,977	91,126	0,017	-0,014
-574,963	-151,644	-0,032	0,002
-573,948	276,985	-0,163	0,210
-572,934	-13,083	-0,004	-0,002
-571,919	-134,632	-0,118	-0,010
-570,904	-106,196	-0,067	0,011
-569,890	-46,003	0,037	0,013
-568,875	608,714	-0,070	-0,126
-567,861	800,000	-0,054	0,125
-566,846	800,000	-0,023	-0,072
-565,831	-70,191	-0,174	-0,047
-564,817	305,313	0,102	-0,137
-563,802	800,000	-0,018	-0,056
-562,788	-8,166	-0,174	-0,084
-561,773	-35,151	0,145	0,057
-560,758	102,325	0,009	-0,008
-559,744	561,267	-0,032	-0,057
-558,729	-200,000	-0,019	0,081
-557,715	-200,000	-0,015	0,140
-556,700	733,114	-0,020	-0,039
-555,685	-154,504	0,016	0,001
-554,671	256,734	-0,083	0,103
-553,656	119,169	0,028	-0,025
-552,642	346,756	0,044	0,063
-551,627	333,747	-0,073	0,102
-550,612	-49,303	0,060	-0,021
-549,598	800,000	-0,061	0,129
-548,583	-200,000	0,008	-0,077
-547,569	27,348	-0,077	-0,046
-546,554	-79,675	0,121	0,029
-545,539	442,440	0,035	0,055
-544,525	80,973	0,094	-0,073
-543,510	-4,141	0,198	-0,099
-542,496	800,000	0,010	0,026
-541,481	131,002	-0,054	-0,050
-540,466	-92,923	-0,047	-0,009
-539,452	-200,000	0,019	0,070
-538,437	800,000	-0,015	0,038
-537,423	800,000	0,045	-0,105
-536,408	-163,799	-0,096	0,003
-535,393	-200,000	-0,005	-0,082
-534,379	800,000	-0,013	0,039
-533,364	-200,000	-0,007	-0,051
-532,350	-200,000	-0,024	-0,187
-531,335	629,388	0,097	0,177
-530,321	221,474	0,051	-0,060
-529,306	-5,945	0,070	-0,035
-528,291	53,310	-0,190	-0,131
-527,277	14,013	-0,100	-0,056
-526,262	146,355	-0,067	0,065
-525,248	800,000	-0,018	0,048
-524,233	-15,785	0,108	-0,050
-523,218	-165,237	0,049	0,002
-522,204	65,603	-0,008	-0,006
-521,189	-87,716	-0,146	0,031
-520,175	800,000	0,039	0,094
-519,160	135,817	0,013	0,012
-518,145	4,937	-0,112	-0,059
-517,131	-200,000	-0,001	0,057
-516,116	329,454	-0,033	-0,046
-515,102	6,350	-0,065	-0,034
-514,087	-200,000	0,030	-0,211
-513,072	-66,756	-0,077	-0,022
-512,058	180,069	0,040	-0,042
-511,043	800,000	0,021	0,052
-510,029	800,000	-0,009	0,026
-509,014	-200,000	-0,005	-0,050
-507,999	36,263	-0,072	-0,046
-506,985	-122,672	-0,101	0,012
-505,970	-200,000	-0,008	-0,048
-504,956	800,000	-0,099	-0,215
-503,941	-89,898	0,064	-0,013
-502,926	-200,000	-0,004	0,139
-501,912	119,127	0,055	0,049
-500,897	-200,000	-0,015	0,172
-499,883	583,693	0,054	0,095
-498,868	159,963	-0,078	-0,078
-497,853	-200,000	-0,001	0,062
-496,839	443,905	0,036	-0,057
-495,824	800,000	-0,038	-0,105
-494,810	-46,561	-0,081	0,028
-493,795	203,419	0,009	0,010
-492,781	-138,949	0,138	-0,011
-491,766	-59,938	0,074	-0,023
-490,751	-149,043	-0,100	-0,006
-489,737	138,046	0,157	0,148
-488,722	-75,938	0,043	-0,011
-487,708	-22,631	0,038	0,017
-486,693	-141,676	0,015	0,001
-485,678	-25,597	-0,071	-0,030
-484,664	173,974	0,014	-0,015
-483,649	-61,472	-0,114	-0,034
-482,635	-39,232	-0,108	-0,041
-481,620	-200,000	-0,012	-0,070
-480,605	779,594	0,018	0,036
-479,591	800,000	-0,058	0,124
-478,576	266,304	-0,029	-0,036
-477,562	240,180	-0,019	0,023
-476,547	129,020	0,105	-0,097
-475,532	-200,000	0,002	-0,014
-474,518	568,456	-0,019	0,033
-473,503	98,750	0,037	0,031
-472,489	800,000	-0,069	0,179
-471,474	800,000	-0,024	-0,048
-470,459	20,665	-0,081	-0,047
-469,445	800,000	-0,036	-0,076
-468,430	-200,000	0,004	-0,032
-467,416	-200,000	0,030	0,100
-466,401	800,000	0,016	0,045
-465,386	722,420	0,038	0,074
-464,372	3,063	0,087	0,045
-463,357	102,559	0,007	0,006
-462,343	-75,576	-0,045	0,011
-461,328	513,580	-0,030	0,051
-460,313	-200,000	-0,003	0,188
-459,299	32,801	0,086	-0,053
-458,284	164,148	-0,098	0,099
-457,270	-10,533	0,065	0,031
-456,255	800,000	-0,042	-0,098
-455,241	-35,061	0,145	-0,057
-454,226	104,883	-0,081	0,069
-453,211	-119,124	0,104	0,013
-452,197	249,641	-0,005	-0,007
-451,182	-200,000	-0,012	0,061
-450,168	51,629	0,089	-0,061
-449,153	12,541	0,120	-0,066
-448,138	-200,000	-0,013	-0,113
-447,124	-178,705	-0,145	-0,002
-446,109	800,000	0,014	0,031
-445,095	312,158	0,070	0,094
-444,080	-200,000	0,016	0,085
-443,065	-57,855	0,052	-0,016
-442,051	245,949	0,067	-0,081
-441,036	75,087	-0,037	0,028
-440,022	762,660	0,043	-0,085
-439,007	-200,000	-0,018	-0,069
-437,992	-117,748	0,057	-0,007
-436,978	-200,000	-0,013	0,065
-435,963	-200,000	-0,017	0,108
-434,949	-126,601	0,111	-0,012
-433,934	-68,528	-0,075	0,021
-432,919	388,415	0,042	-0,063
-431,905	800,000	0,036	-0,093
-430,890	418,260	-0,069	0,107
-429,876	85,719	0,115	0,091
-428,861	-200,000	0,009	0,126
-427,846	731,380	0,046	-0,089
-426,832	349,259	0,037	0,053
-425,817	-166,419	-0,113	-0,003
-424,803	-89,455	0,105	0,022
-423,788	591,386	-0,043	0,077
-422,773	-13,784	0,069	0,032
-421,759	-149,334	0,105	-0,006
-420,744	785,717	0,035	-0,070
-419,730	370,286	0,070	-0,103
-418,715	800,000	-0,044	0,122
-417,701	-63,428	-0,096	0,028
-416,686	-200,000	-0,001	0,028
-415,671	800,000	0,014	-0,041
-414,657	-200,000	0,034	-0,160
-413,642	97,830	-0,091	0,075
-412,628	-200,000	-0,018	0,082
-411,613	16,175	0,081	-0,046
-410,598	800,000	0,031	-0,094
-409,584	127,486	0,112	0,102
-408,569	476,775	-0,036	-0,059
-407,555	-200,000	-0,008	0,174
-406,540	800,000	0,020	0,044
-405,525	-74,510	0,098	0,025
-404,511	800,000	-0,045	-0,122
-403,496	-200,000	0,004	-0,092
-402,482	118,224	0,041	-0,036
-401,467	-134,639	0,029	0,003
-400,452	-106,983	0,064	0,010
-399,438	297,851	0,059	0,078
-398,423	39,834	0,156	0,100
-397,409	-200,000	0,009	-0,095
-396,394	89,387	0,033	-0,026
-395,379	-110,534	-0,058	-0,009
-394,365	125,845	0,085	-0,077
-393,350	55,682	0,095	-0,066
-392,336	233,048	-0,026	-0,031
-391,321	-113,167	-0,070	0,010
-390,306	373,760	-0,074	0,108
-389,292	-200,000	-0,033	-0,110
-388,277	1,364	0,062	-0,032
-387,263	800,000	0,034	-0,094
-386,248	123,289	-0,027	0,024
-385,233	800,000	0,033	0,068
-384,219	718,806	-0,055	0,106
-383,204	-21,983	-0,073	0,032
-382,190	484,998	-0,011	0,018
-381,175	15,509	-0,108	0,061
-380,160	2,725	0,091	-0,047
-379,146	-140,607	-0,067	0,005
-378,131	-126,417	0,067	-0,007
-377,117	127,238	0,140	-0,127
-376,102	415,528	-0,059	0,091
-375,088	-66,634	-0,113	0,032
-374,073	49,984	0,043	-0,029
-373,058	96,301	-0,065	0,054
-372,044	-200,000	0,021	-0,100
-371,029	278,637	0,049	0,063
-370,015	58,002	-0,074	-0,052
-369,000	800,000	-0,062	-0,140
-367,985	121,707	-0,098	-0,087
-366,971	140,563	0,047	0,045
-365,956	246,722	0,036	0,043
-364,942	-169,152	-0,045	-0,001
-363,927	76,302	0,026	0,020
-362,912	-134,079	-0,078	-0,007
-361,898	10,116	0,048	0,026
-360,883	-51,999	-0,059	0,020
-359,869	114,596	-0,023	-0,020
-358,854	-200,000	0,007	-0,047
-357,839	-47,489	0,067	0,023
-356,825	-200,000	-0,036	0,132
-355,810	207,298	0,008	-0,008
-354,796	591,331	0,085	-0,150
-353,781	-200,000	0,006	0,029
-352,766	800,000	-0,076	-0,172
-351,752	-200,000	-0,016	-0,100
-350,737	-148,223	0,071	0,004
-349,723	-200,000	0,018	0,184
-348,708	-200,000	0,016	0,190
-347,693	495,897	-0,085	0,140
-346,679	-200,000	0,019	-0,153
-345,664	299,908	-0,079	0,105
-344,650	800,000	-0,025	-0,062
-343,635	516,085	-0,032	0,054
-342,620	-200,000	-0,049	0,161
-341,606	455,155	-0,030	-0,047
-340,591	566,894	0,036	-0,062
-339,577	-200,000	0,008	-0,063
-338,562	-145,430	-0,056	-0,004
-337,548	170,912	-0,032	-0,032
-336,533	25,573	0,080	0,047
-335,518	-200,000	0,025	0,110
-334,504	357,225	0,017	0,025
-333,489	9,440	0,133	0,072
-332,475	800,000	0,018	-0,053
-331,460	125,878	0,162	-0,147
-330,445	-200,000	0,014	0,051
-329,431	-147,432	0,025	-0,001
-328,416	-79,747	0,093	0,022
-327,402	259,158	-0,082	0,101
-326,387	503,023	0,026	0,044
-325,372	-200,000	-0,006	0,050
-324,358	-200,000	0,010	0,095
-323,343	406,711	0,095	-0,143
-322,329	800,000	0,038	-0,097
-321,314	34,428	0,136	-0,085
-320,299	-72,499	-0,062	-0,016
-319,285	21,821	-0,062	0,036
-318,270	44,871	0,029	-0,019
-317,256	609,422	-0,058	-0,103
-316,241	244,262	-0,032	0,038
-315,226	-152,910	0,058	-0,003
-314,212	-116,224	0,131	-0,017
-313,197	526,310	-0,085	0,144
-312,183	-21,721	-0,012	0,005
-311,168	800,000	-0,014	0,038
-310,153	800,000	0,040	0,120
-309,139	-28,520	-0,056	0,023
-308,124	800,000	0,039	0,093
-307,110	426,385	-0,020	-0,031
-306,095	84,704	-0,005	-0,004
-305,080	40,819	-0,061	-0,039
-304,066	-97,101	-0,044	0,008
-303,051	181,039	-0,060	-0,064
-302,037	-84,746	-0,026	-0,006
-301,022	-73,443	-0,088	0,023
-300,008	230,214	0,122	-0,143
-298,993	800,000	0,020	0,039
-297,978	450,826	-0,016	0,025
-296,964	-129,781	-0,126	0,012
-295,949	-105,795	-0,077	0,012
-294,935	316,589	-0,066	-0,090
-293,920	800,000	0,034	0,085
-292,905	-200,000	-0,022	-0,084
-291,891	-118,031	-0,027	-0,003
-290,876	-50,969	0,242	-0,081
-289,862	800,000	0,036	-0,074
-288,847	-104,555	-0,082	0,013
-287,832	11,453	0,141	0,077
-286,818	800,000	0,026	0,059
-285,803	-44,338	-0,054	0,019
-284,789	-200,000	0,018	0,148
-283,774	133,008	-0,035	-0,032
-282,759	42,557	0,081	0,053
-281,745	800,000	-0,082	-0,195
-280,730	-200,000	0,010	0,048
-279,716	-86,523	-0,027	0,006
-278,701	-49,948	0,190	-0,064
-277,686	-200,000	-0,025	0,121
-276,672	306,651	-0,017	-0,022
-275,657	212,328	0,038	-0,043
-274,643	-200,000	0,013	-0,200
-273,628	-112,141	-0,171	0,024
-272,613	-36,063	0,081	0,031
-271,599	-52,490	-0,006	0,002
-270,584	791,968	-0,032	0,063
-269,570	771,957	0,043	-0,085
-268,555	800,000	-0,020	-0,047
-267,540	-113,889	0,143	0,020
-266,526	-200,000	-0,016	-0,051
-265,511	800,000	-0,050	0,149
-264,497	-15,282	0,058	0,026
-263,482	-14,898	0,107	-0,049
-262,467	351,659	0,074	0,105
-261,453	-200,000	-0,033	0,112
-260,438	800,000	0,045	-0,109
-259,424	73,366	-0,121	0,090
-258,409	800,000	0,034	0,105
-257,395	800,000	-0,023	0,057
-256,380	547,947	0,030	0,052
-255,365	231,934	0,078	0,092
-254,351	-200,000	0,022	0,111
-253,336	462,187	0,049	0,079
-252,322	-130,189	-0,147	0,014
-251,307	-79,227	0,112	-0,027
-250,292	-53,167	0,016	-0,005
-249,278	210,763	0,097	0,109
-248,263	-88,705	0,033	0,007
-247,249	46,200	0,202	0,133
-246,234	469,395	-0,031	-0,049
-245,219	-200,000	-0,019	-0,114
-244,205	15,378	-0,077	-0,043
-243,190	-200,000	0,013	-0,109
-242,176	468,798	0,036	0,058
-241,161	-200,000	-0,006	-0,083
-240,146	197,894	0,059	-0,064
-239,132	-200,000	0,030	-0,192
-238,117	-126,007	-0,098	0,010
-237,103	196,606	-0,084	-0,091
-236,088	800,000	-0,027	-0,058
-235,073	196,478	0,054	0,059
-234,059	526,753	0,095	0,160
-233,044	-200,000	-0,050	0,161
-232,030	120,967	-0,034	-0,030
-231,015	291,292	-0,051	-0,067
-230,000	-129,394	-0,055	-0,005
-228,986	-200,000	-0,001	-0,019
-227,971	136,781	0,113	0,105
-226,957	-200,000	-0,003	-0,065
-225,942	379,595	0,114	0,167
-224,927	-21,421	-0,145	-0,063
-223,913	-10,481	-0,007	0,003
-222,898	-200,000	0,025	-0,111
-221,884	-144,300	0,034	-0,002
-220,869	125,889	0,105	0,095
-219,855	-200,000	0,027	0,202
-218,840	293,527	0,042	-0,054
-217,825	-200,000	-0,003	0,044
-216,811	-146,676	-0,074	-0,005
-215,796	-200,000	0,053	-0,218
-214,782	-110,553	-0,043	-0,006
-213,767	-50,534	0,134	-0,045
-212,752	58,883	0,060	0,042
-211,738	-200,000	0,003	-0,103
-210,723	-156,438	0,111	-0,005
-209,709	-125,732	-0,059	-0,006
-208,694	-200,000	-0,026	0,110
-207,679	51,355	-0,032	0,022
-206,665	-200,000	0,000	0,108
-205,650	-52,317	0,113	0,037
-204,636	26,320	-0,081	-0,048
-203,621	800,000	0,029	0,065
-202,606	-200,000	0,011	-0,035
-201,592	22,706	-0,096	-0,056
-200,577	800,000	0,025	-0,074
-199,563	-200,000	-0,032	0,126
-198,548	22,655	0,094	0,055
-197,533	278,070	0,079	0,100
-196,519	-75,241	-0,065	-0,016
-195,504	80,137	-0,155	-0,119
-194,490	-54,560	-0,061	-0,020
-193,475	-95,217	-0,056	0,011
-192,460	-110,802	-0,054	0,008
-191,446	104,989	-0,107	0,090
-190,431	-100,059	0,068	0,012
-189,417	-200,000	-0,029	0,150
-188,402	-44,085	-0,047	0,017
-187,387	-200,000	-0,001	0,068
-186,373	-21,923	-0,097	-0,042
-185,358	143,200	0,034	-0,032
-184,344	-198,589	0,105	-0,000
-183,329	40,545	-0,070	0,045
-182,315	-105,158	0,119	0,019
-181,300	-200,000	0,004	-0,024
-180,285	-200,000	-0,035	0,113
-179,271	29,210	-0,048	-0,029
-178,256	496,955	-0,047	-0,077
-177,242	-54,332	-0,069	-0,022
-176,227	12,360	0,189	0,103
-175,212	-200,000	0,003	0,087
-174,198	5,544	0,066	-0,035
-173,183	-200,000	-0,028	0,162
-172,169	-200,000	-0,002	-0,014
-171,154	-200,000	0,016	-0,087
-170,139	-32,840	0,039	-0,015
-169,125	-200,000	0,002	-0,073
-168,110	-200,000	-0,002	-0,086
-167,096	-200,000	-0,003	0,264
-166,081	-200,000	-0,016	-0,125
-165,066	46,081	-0,143	-0,094
-164,052	517,324	-0,091	-0,151
-163,037	305,854	0,087	-0,115
-162,023	800,000	0,028	0,060
-161,008	209,391	0,017	0,019
-159,993	-200,000	-0,010	0,049
-158,979	363,390	-0,049	-0,070
-157,964	381,016	-0,157	-0,229
-156,950	-75,692	-0,109	0,027
-155,935	36,448	0,102	0,064
-154,920	-200,000	-0,133	-0,000
-153,906	800,000	0,069	0,180
-152,891	257,242	0,030	0,037
-151,877	-200,000	0,020	0,108
-150,862	146,366	-0,117	-0,111
-149,847	117,835	-0,034	-0,030
-148,833	505,559	0,091	0,150
-147,818	-92,214	0,115	-0,023
-146,804	-187,037	-0,118	0,001
-145,789	-200,000	-0,007	-0,052
-144,775	-72,627	0,075	-0,019
-143,760	4,046	-0,063	-0,033
-142,745	354,334	0,048	-0,067
-141,731	70,051	-0,107	0,078
-140,716	-145,452	0,073	-0,005
-139,702	-14,858	0,064	-0,029
-138,687	-174,976	0,052	0,001
-137,672	-200,000	0,014	-0,175
-136,658	30,293	-0,041	-0,025
-135,643	146,313	-0,065	-0,062
-134,629	-200,000	0,003	0,039
-133,614	-200,000	-0,007	-0,035
-132,599	42,090	0,077	-0,050
-131,585	10,513	0,066	0,035
-130,570	173,484	-0,050	0,051
-129,556	800,000	0,024	-0,050
-128,541	-129,717	-0,146	0,014
-127,526	70,571	0,020	-0,015
-126,512	53,544	-0,014	-0,010
-125,497	15,272	-0,067	-0,037
-124,483	800,000	0,013	-0,034
-123,468	-38,670	0,078	0,029
-122,453	-200,000	-0,021	-0,097
-121,439	-129,013	-0,105	-0,010
-120,424	-200,000	0,005	-0,073
-119,410	128,000	0,067	0,060
-118,395	-200,000	0,018	0,140
-117,380	800,000	-0,063	-0,155
-116,366	-139,913	0,103	0,008
-115,351	250,341	-0,073	0,088
-114,337	245,857	-0,070	-0,084
-113,322	-127,950	-0,029	0,003
-112,307	158,180	-0,073	0,072
-111,293	189,434	0,108	0,115
-110,278	73,036	-0,182	-0,135
-109,264	84,185	-0,126	-0,098
-108,249	26,211	-0,042	-0,025
-107,234	-4,175	-0,047	0,023
-106,220	-130,457	-0,112	0,011
-105,205	800,000	-0,010	-0,026
-104,191	-200,000	-0,013	0,130
-103,176	-200,000	-0,018	0,061
-102,162	200,118	-0,098	-0,106
-101,147	-13,587	0,155	-0,071
-100,132	-66,203	-0,196	0,055
-99,118	189,195	0,109	-0,116
-98,103	-51,616	-0,134	0,044
-97,089	145,413	0,065	0,062
-96,074	-16,176	-0,164	0,074
-95,059	457,067	0,080	0,127
-94,045	443,430	-0,057	0,090
-93,030	-125,225	0,074	0,008
-92,016	-167,247	-0,144	0,004
-91,001	-83,990	0,018	-0,004
-89,986	785,037	-0,032	0,063
-88,972	162,206	-0,053	-0,053
-87,957	142,521	0,025	-0,024
-86,943	-168,930	-0,061	-0,002
-85,928	263,133	0,031	-0,038
-84,913	61,836	-0,080	-0,056
-83,899	-40,026	-0,135	0,050
-82,884	-85,759	-0,057	0,012
-81,870	-87,624	0,118	0,025
-80,855	-65,675	-0,110	0,031
-79,840	-118,501	0,048	-0,006
-78,826	554,635	-0,099	-0,169
-77,811	680,694	-0,047	-0,087
-76,797	-200,000	0,056	-0,000
-75,782	-200,000	0,009	0,101
-74,767	67,528	0,032	-0,023
-73,753	-200,000	-0,004	0,107
-72,738	-200,000	0,015	0,080
-71,724	-63,360	-0,258	0,075
-70,709	-129,840	-0,063	0,006
-69,694	84,722	0,024	-0,019
-68,680	265,115	0,109	0,135
-67,665	222,757	-0,088	0,101
-66,651	772,929	0,068	0,132
-65,636	-200,000	-0,018	0,166
-64,622	92,063	-0,112	-0,089
-63,607	-162,462	-0,055	-0,002
-62,592	-19,973	-0,068	-0,030
-61,578	-200,000	0,000	0,013
-60,563	-134,567	-0,083	-0,007
-59,549	800,000	0,037	0,087
-58,534	-36,837	-1,647	-0,623
-57,519	345,643	-1,484	-2,071
-56,505	-200,000	-0,438	-4,669
-55,490	216,399	0,982	1,107
-54,476	800,000	5,038	11,337
-53,461	-200,000	19,214	321,757
-52,446	-200,000	741,195	2336,892
-51,432	573,118	1656,281	2869,630
-50,417	78,297	1672,043	1262,506
-49,403	21,290	1544,802	885,952
-48,388	15,158	1467,129	811,572
-47,373	18,069	1457,413	820,240
-46,359	16,748	1447,398	808,231
-45,344	13,417	1442,561	789,536
-44,330	13,314	1440,752	788,020
-43,315	13,315	1439,054	787,067
-42,300	13,358	1437,172	786,214
-41,286	13,396	1435,925	785,682
-40,271	13,310	1434,611	784,520
-39,257	13,310	1433,227	783,730
-38,242	13,351	1432,115	783,290
-37,227	13,362	1430,902	782,646
-36,213	13,410	1429,568	782,112
-35,198	13,372	1428,387	781,255
-34,184	13,416	1427,431	780,913
-33,169	13,355	1426,166	779,900
-32,154	13,383	1425,038	779,382
-31,140	13,396	1423,735	778,700
-30,125	13,411	1422,710	778,180
-29,111	13,432	1421,405	777,533
-28,096	13,390	1420,343	776,725
-27,082	13,341	1419,388	775,940
-26,067	13,323	1418,361	775,266
-25,052	13,318	1417,063	774,499
-24,038	13,270	1416,086	773,711
-23,023	13,308	1415,058	773,298
-22,009	13,294	1414,054	772,653
-20,994	13,267	1413,229	772,042
-19,979	13,260	1412,509	771,586
-18,965	13,263	1411,559	771,050
-17,950	13,269	1410,353	770,390
-16,936	13,282	1409,615	770,014
-15,921	13,236	1408,346	769,076
-14,906	13,227	1407,559	768,574
-13,892	13,271	1406,594	768,225
-12,877	13,252	1405,661	767,595
-11,863	13,199	1404,998	766,952
-10,848	13,247	1403,923	766,559
-9,833	13,150	1403,204	765,685
-8,819	13,147	1402,378	765,190
-7,804	13,107	1401,508	764,499
-6,790	13,070	1400,546	763,770
-5,775	13,123	1399,310	763,314
-4,760	13,138	1398,340	762,826
-3,746	13,092	1397,387	762,062
-2,731	13,074	1396,593	761,512
-1,717	13,028	1395,899	760,890
-0,702	13,061	1394,045	760,002
0,313	17,005	1310,375	732,634
1,327	33,221	704,191	431,212
2,342	51,531	123,166	82,672
3,356	2,206	16,863	8,593
4,371	3,271	3,312	1,700
5,386	-36,442	0,574	0,218
6,400	292,532	0,133	0,171
7,415	57,681	-0,171	-0,118
8,429	-31,973	-0,333	-0,131
9,444	19,694	-0,359	-0,204
10,459	223,452	-0,183	-0,209
11,473	42,430	-0,275	-0,176
12,488	-64,886	-0,224	-0,064
13,502	73,486	-0,289	-0,214
14,517	174,792	-0,225	-0,230
15,531	140,191	-0,324	-0,302
16,546	-13,056	-0,389	-0,178
17,561	171,399	-0,370	-0,375
18,575	64,651	-0,238	-0,169
19,590	68,610	-0,281	-0,204
20,604	-49,809	-0,204	-0,068
21,619	97,927	-0,513	-0,417
22,634	114,685	-0,446	-0,384
23,648	112,506	-0,340	-0,290
24,663	-19,123	-0,453	-0,198
25,677	-9,075	-0,317	-0,149
26,692	31,400	-0,320	-0,194
27,707	86,148	-0,307	-0,238
28,721	210,342	-0,340	-0,377
29,736	107,085	-0,484	-0,405
30,750	160,447	-0,320	-0,315
31,765	36,207	-0,412	-0,256
32,780	118,265	-0,376	-0,328
33,794	27,358	-0,361	-0,213
34,809	116,766	-0,356	-0,308
35,823	115,549	-0,329	-0,284
36,838	224,932	-0,365	-0,418
37,853	88,061	-0,385	-0,301
38,867	52,864	-0,420	-0,283
39,882	63,611	-0,274	-0,194
40,896	141,164	-0,390	-0,364
41,911	193,576	-0,240	-0,256
42,926	41,802	-0,508	-0,324
43,940	111,481	-0,368	-0,313
44,955	194,176	-0,300	-0,321
45,969	96,180	-0,310	-0,249
46,984	152,357	-0,298	-0,287
47,999	93,518	-0,408	-0,325
49,013	-13,625	-0,292	-0,133
50,028	115,056	-0,220	-0,189
51,042	3,367	-0,308	-0,158
52,057	154,329	-0,281	-0,272
53,071	-41,006	-0,492	-0,178
54,086	99,561	-0,243	-0,198
55,101	40,291	-0,271	-0,172
56,115	9,505	-0,410	-0,218
57,130	246,831	-0,233	-0,278
58,144	14,301	-0,308	-0,169
59,159	203,833	-0,227	-0,247
60,174	91,714	-0,425	-0,336
61,188	-59,180	-0,344	-0,104
62,203	214,158	-0,250	-0,279
63,217	-25,984	-0,338	-0,140
64,232	-109,042	-0,267	-0,040
65,247	62,904	-0,378	-0,266
66,261	-46,863	-0,387	-0,132
67,276	-71,866	-0,395	-0,103
68,290	-59,225	-0,344	-0,103
69,305	136,722	-0,212	-0,195
70,320	298,386	-0,285	-0,370
71,334	21,287	-0,308	-0,175
72,349	152,709	-0,263	-0,253
73,363	37,599	-0,433	-0,270
74,378	152,089	-0,239	-0,230
75,393	125,655	-0,309	-0,274
76,407	785,413	-0,131	-0,253
77,422	115,596	-0,298	-0,256
78,436	-100,603	-0,286	-0,049
79,451	55,185	-0,424	-0,288
80,466	-30,633	-0,431	-0,171
81,480	-16,836	-0,390	-0,173
82,495	97,935	-0,306	-0,247
83,509	107,980	-0,230	-0,193
84,524	-87,931	-0,230	-0,048
85,539	-61,085	-0,282	-0,083
86,553	-90,346	-0,198	-0,040
87,568	53,312	-0,311	-0,209
88,582	8,578	-0,462	-0,243
89,597	131,930	-0,230	-0,208
90,611	9,913	-0,317	-0,169
91,626	146,243	-0,263	-0,248
92,641	-63,741	-0,339	-0,097
93,655	-15,504	-0,430	-0,192
94,670	-21,695	-0,319	-0,136
95,684	41,671	-0,281	-0,178
96,699	98,351	-0,197	-0,159
97,714	116,384	-0,296	-0,255
98,728	-38,310	-0,269	-0,099
99,743	-96,138	-0,250	-0,046
100,757	-100,776	-0,267	-0,046
101,772	151,980	-0,289	-0,277
102,787	99,196	-0,240	-0,194
103,801	-20,333	-0,259	-0,111
104,816	139,784	-0,238	-0,220
105,830	8,712	-0,274	-0,144
106,845	129,146	-0,306	-0,273
107,860	-136,727	-0,230	-0,018
108,874	91,737	-0,203	-0,160
109,889	57,783	-0,341	-0,234
110,903	-9,184	-0,390	-0,182
111,918	-56,260	-0,322	-0,100
112,933	-90,805	-0,246	-0,049
113,947	343,626	-0,139	-0,192
114,962	30,945	-0,308	-0,184
115,976	4,509	-0,356	-0,182
116,991	33,828	-0,302	-0,183
118,006	143,490	-0,353	-0,329
119,020	2,985	-0,361	-0,183
120,035	-58,435	-0,239	-0,072
121,049	649,663	-0,157	-0,283
122,064	19,419	-0,228	-0,128
123,079	46,018	-0,279	-0,180
124,093	191,024	-0,219	-0,231
125,108	184,903	-0,287	-0,298
126,122	155,797	-0,117	-0,113
127,137	-116,314	-0,245	0,031
128,151	-16,185	-0,249	-0,110
129,166	-81,946	-0,179	0,041
130,181	39,831	-0,183	-0,115
131,195	85,962	-0,273	-0,210
132,210	78,324	-0,262	-0,196
133,224	192,428	-0,228	-0,240
134,239	-38,350	-0,337	-0,124
135,254	22,843	-0,270	-0,154
136,268	-59,360	-0,301	-0,090
137,283	-144,178	-0,337	-0,022
138,297	81,657	-0,148	-0,112
139,312	83,558	-0,243	-0,185
140,327	83,681	-0,200	-0,152
141,341	-102,577	-0,285	-0,047
142,356	-93,832	-0,114	-0,022
143,370	201,567	-0,185	-0,199
144,385	211,282	-0,258	-0,284
145,400	57,679	-0,365	-0,249
146,414	228,628	-0,251	-0,286
147,429	189,158	-0,185	-0,194
148,443	-79,437	-0,340	-0,080
149,458	181,814	-0,226	-0,233
150,473	-200,000	-0,048	-0,238
151,487	12,928	-0,108	-0,058
152,502	111,691	-0,303	-0,255
153,516	800,000	-0,120	-0,244
154,531	256,621	-0,280	-0,336
155,546	11,817	-0,334	-0,178
156,560	-94,442	-0,215	-0,040
157,575	-177,208	-0,194	0,003
158,589	0,323	-0,300	-0,149
159,604	-95,384	-0,305	-0,057
160,619	-20,883	-0,217	-0,093
161,633	-12,523	-0,264	-0,120
162,648	244,864	-0,160	-0,188
163,662	-31,804	-0,280	-0,109
164,677	134,901	-0,199	-0,180
165,692	105,631	-0,283	-0,233
166,706	154,858	-0,201	-0,192
167,721	628,419	-0,184	-0,326
168,735	-12,339	-0,276	-0,125
169,750	800,000	-0,095	-0,260
170,764	42,430	-0,187	-0,118
171,779	30,911	-0,330	-0,196
172,794	120,650	-0,280	-0,243
173,808	-57,942	-0,163	-0,049
174,823	12,734	-0,126	-0,067
175,837	181,437	-0,239	-0,245
176,852	76,321	-0,351	-0,259
177,867	386,020	-0,113	-0,163
178,881	800,000	-0,085	-0,222
179,896	222,394	-0,201	-0,225
180,910	-79,171	-0,122	0,029
181,925	-14,718	-0,301	-0,134
182,940	199,416	-0,211	-0,225
183,954	86,354	-0,197	-0,151
184,969	-1,606	-0,303	-0,148
185,983	140,249	-0,144	-0,132
186,998	79,651	-0,245	-0,183
188,013	-0,846	-0,108	-0,053
189,027	-21,749	-0,315	-0,133
190,042	189,999	-0,203	-0,213
191,056	137,714	-0,200	-0,182
192,071	57,226	-0,228	-0,155
193,086	-57,782	-0,124	-0,037
194,100	100,332	-0,191	-0,154
195,115	-63,951	-0,201	-0,057
196,129	29,549	-0,225	-0,133
197,144	800,000	-0,178	-0,346
198,159	158,323	-0,233	-0,225
199,173	274,346	-0,193	-0,238
200,188	214,854	-0,189	-0,208
201,202	9,024	-0,325	-0,170
202,217	-9,056	-0,154	-0,071
203,232	-200,000	-0,091	-0,348
204,246	100,410	-0,202	-0,163
205,261	-176,508	-0,350	-0,006
206,275	-120,971	-0,145	-0,017
207,290	-3,783	-0,201	-0,096
208,304	321,112	-0,205	-0,271
209,319	205,094	-0,204	-0,221
210,334	-39,250	-0,109	-0,039
211,348	-177,107	-0,218	0,004
212,363	-126,858	-0,297	-0,030
213,377	32,602	-0,176	-0,105
214,392	-33,997	-0,101	-0,039
215,407	182,774	-0,137	-0,141
216,421	73,250	-0,217	-0,158
217,436	450,675	-0,114	-0,175
218,450	-136,031	-0,214	-0,017
219,465	31,978	-0,211	-0,126
220,480	507,791	-0,112	-0,182
221,494	-76,898	-0,112	0,027
222,509	254,421	-0,148	-0,176
223,523	-115,843	-0,220	-0,028
224,538	17,324	-0,232	-0,128
225,553	180,077	-0,180	-0,183
226,567	115,082	-0,264	-0,223
227,582	456,513	-0,118	-0,182
228,596	363,162	-0,140	-0,195
229,611	-17,923	-0,192	-0,083
230,626	69,294	-0,183	-0,130
231,640	-32,036	-0,167	-0,064
232,655	12,123	-0,348	-0,185
233,669	101,669	-0,230	-0,186
234,684	1,222	-0,305	-0,151
235,699	100,264	-0,173	-0,139
236,713	800,000	-0,066	-0,156
237,728	-51,335	-0,236	-0,076
238,742	85,346	-0,192	-0,146
239,757	800,000	-0,118	-0,238
240,772	-200,000	0,009	-0,071
241,786	-49,710	-0,172	-0,056
242,801	263,969	-0,130	-0,157
243,815	20,791	-0,220	-0,123
244,830	505,911	-0,078	-0,126
245,844	-4,746	-0,285	-0,136
246,859	-2,369	-0,154	-0,074
247,874	92,430	-0,182	-0,142
248,888	176,378	-0,185	-0,186
249,903	176,634	-0,163	-0,164
250,917	124,049	-0,086	-0,074
251,932	-125,118	-0,277	-0,029
252,947	800,000	-0,049	-0,110
253,961	156,146	-0,235	-0,224
254,976	-36,843	-0,174	-0,064
255,990	-166,195	-0,176	-0,005
257,005	217,643	-0,139	-0,154
258,020	-200,000	-0,011	-0,079
259,034	-1,637	-0,098	-0,047
260,049	800,000	-0,045	-0,112
261,063	800,000	-0,110	-0,215
262,078	800,000	-0,142	-0,282
263,093	270,502	-0,143	-0,174
264,107	411,741	-0,073	-0,107
265,122	29,709	-0,166	-0,098
266,136	-104,213	-0,159	-0,025
267,151	-111,587	-0,211	0,029
268,166	-17,449	-0,128	-0,055
269,180	48,357	-0,181	-0,117
270,195	667,143	-0,154	-0,277
271,209	303,439	-0,123	-0,158
272,224	-41,628	-0,240	-0,085
273,239	-200,000	-0,015	-0,128
274,253	139,220	-0,116	-0,106
275,268	-200,000	-0,053	-0,162
276,282	800,000	0,045	-0,099
277,297	100,806	-0,277	-0,222
278,312	800,000	-0,098	-0,246
279,326	234,814	-0,087	-0,099
280,341	-200,000	-0,038	-0,157
281,355	170,775	-0,111	-0,109
282,370	86,927	-0,133	-0,101
283,384	-149,361	-0,127	0,007
284,399	472,987	-0,175	-0,274
285,414	66,771	-0,225	-0,158
286,428	800,000	-0,040	-0,113
287,443	800,000	-0,090	-0,202
288,457	800,000	-0,064	-0,195
289,472	-126,686	-0,120	0,012
290,487	739,838	-0,099	-0,185
291,501	-200,000	-0,059	-0,194
292,516	16,042	-0,136	-0,074
293,530	-1,914	-0,042	-0,020
294,545	-17,879	-0,213	-0,092
295,560	-136,650	-0,087	0,007
296,574	683,528	-0,116	-0,209
297,589	4,011	-0,222	-0,112
298,603	58,633	-0,263	-0,178
299,618	289,405	-0,155	-0,194
300,633	800,000	-0,067	-0,198
301,647	566,389	0,024	-0,040
302,662	-13,123	-0,058	-0,026
303,676	-97,086	-0,083	-0,015
304,691	208,331	-0,104	-0,112
305,706	-12,664	-0,177	-0,079
306,720	146,385	-0,188	-0,174
307,735	199,965	-0,067	-0,071
308,749	-41,158	-0,204	-0,072
309,764	-117,746	-0,155	-0,019
310,779	-24,082	-0,126	-0,052
311,793	391,404	-0,118	-0,170
312,808	18,676	-0,195	-0,107
313,822	552,396	-0,094	-0,155
314,837	480,395	-0,076	-0,119
315,852	800,000	-0,083	-0,211
316,866	94,173	-0,021	0,017
317,881	73,522	-0,136	-0,098
318,895	524,098	-0,146	-0,237
319,910	505,989	-0,063	-0,101
320,925	-50,174	-0,185	-0,060
321,939	-75,457	-0,099	0,024
322,954	116,754	-0,254	-0,214
323,968	-200,000	-0,035	-0,119
324,983	390,513	-0,105	-0,151
325,997	-4,828	-0,106	-0,050
327,012	-200,000	-0,060	-0,208
328,027	373,432	-0,183	-0,257
329,041	218,866	-0,164	-0,181
330,056	193,336	-0,180	-0,188
331,070	174,121	-0,204	-0,202
332,085	32,305	-0,073	-0,043
333,100	-61,474	-0,146	-0,042
334,114	-6,105	-0,250	-0,117
335,129	25,055	-0,166	-0,094
336,143	453,057	-0,031	-0,047
337,158	800,000	0,041	-0,100
338,173	-200,000	-0,004	-0,021
339,187	-57,105	-0,174	-0,052
340,202	800,000	-0,066	-0,135
341,216	296,768	-0,136	-0,172
342,231	-200,000	-0,044	-0,184
343,246	47,390	-0,050	-0,032
344,260	-1,195	-0,227	-0,110
345,275	9,427	-0,164	0,085
346,289	118,734	-0,112	-0,095
347,304	800,000	-0,039	-0,077
348,319	-180,235	-0,396	-0,006
349,333	-200,000	-0,039	-0,149
350,348	800,000	0,077	-0,185
351,362	114,927	-0,184	-0,154
352,377	150,902	0,070	0,065
353,392	97,583	-0,148	0,117
354,406	159,545	-0,107	0,102
355,421	208,744	1314,535	1412,499
356,435	160,629	1475,239	1412,988
