DTS Sentinel unit serial number:	SN410029Multiplexer serial number:	ORYXHardware model number:	OX2-SRSoftware version number:	ORYX F/W v4,00 Oryx Data Collector v3.7.2.0data status	okinstallation	B3 Nyhavnadifferential loss correction	single-endedforward channel	channel 1reverse channel	N/Adate	2023/11/30time	01:47:30forward acquisition time	300,00reverse acquisition time	0,00gamma	499,1914k internal	0,3210k external	0,3210temperature offset calibration	1,0000default loss term (dB/km)	0,3820temperature slope calibration	1,0000multiplexer offset coefficient	1,0000multiplexer slope coefficient	1,0000fibre end	0,00T internal ref (°C)	10,58T ext. ref 1 (°C)	-5,07T ext. ref 2 (°C)	-5,19length (m)	temperature (°C)	Stokes	anti-Stokes-744,400	165,269	-0,232	-0,238
-743,385	-200,000	0,064	0,295
-742,371	-200,000	-0,026	-0,201
-741,356	-200,000	-0,038	0,235
-740,342	150,014	-0,157	-0,154
-739,327	-200,000	0,009	0,255
-738,312	800,000	-0,139	-0,315
-737,298	-200,000	-0,017	0,237
-736,283	432,651	-0,163	-0,258
-735,269	-200,000	0,044	0,268
-734,254	-18,948	-0,175	-0,079
-733,239	97,055	-0,207	0,172
-732,225	800,000	-0,068	-0,150
-731,210	315,400	0,077	0,106
-730,196	-26,394	-0,015	-0,006
-729,181	-59,674	-0,175	0,054
-728,167	-200,000	0,000	0,055
-727,152	-55,946	0,063	-0,020
-726,137	145,111	-0,107	0,104
-725,123	-134,257	0,078	-0,007
-724,108	142,102	-0,166	-0,160
-723,094	800,000	-0,061	-0,136
-722,079	-200,000	-0,030	-0,252
-721,064	-200,000	-0,021	-0,098
-720,050	-186,776	-0,051	0,001
-719,035	116,796	0,089	-0,080
-718,021	-13,925	0,158	-0,074
-717,006	75,959	-0,129	-0,099
-715,991	366,783	-0,072	-0,105
-714,977	167,655	-0,112	-0,116
-713,962	-68,312	-0,051	-0,014
-712,948	108,710	-0,074	-0,064
-711,933	-200,000	-0,003	-0,179
-710,918	151,494	0,044	0,043
-709,904	-100,160	-0,092	-0,016
-708,889	-200,000	-0,003	-0,017
-707,875	81,666	-0,093	-0,072
-706,860	-48,192	0,166	-0,058
-705,845	156,041	0,115	-0,115
-704,831	-80,019	0,055	-0,013
-703,816	-200,000	0,026	-0,094
-702,802	-116,889	-0,042	0,006
-701,787	320,304	-0,096	0,132
-700,772	-168,859	-0,137	-0,004
-699,758	-200,000	0,030	0,096
-698,743	-44,726	0,025	-0,009
-697,729	-200,000	-0,004	-0,050
-696,714	182,544	0,051	-0,054
-695,699	10,027	-0,099	-0,054
-694,685	-200,000	-0,014	-0,044
-693,670	184,212	-0,132	-0,141
-692,656	-7,410	0,060	-0,029
-691,641	-200,000	0,002	-0,045
-690,627	211,046	0,050	0,057
-689,612	202,313	-0,079	0,088
-688,597	-110,740	-0,124	0,018
-687,583	-64,330	-0,075	-0,022
-686,568	-200,000	0,006	-0,049
-685,554	-200,000	-0,015	-0,119
-684,539	-35,563	0,030	0,012
-683,524	79,932	-0,113	0,088
-682,510	-200,000	0,002	0,054
-681,495	800,000	-0,072	-0,204
-680,481	-159,234	-0,117	0,005
-679,466	-200,000	0,022	0,078
-678,451	800,000	-0,017	-0,041
-677,437	2,228	0,037	-0,019
-676,422	109,502	0,053	-0,046
-675,408	714,553	0,017	-0,033
-674,393	-200,000	0,021	-0,135
-673,378	800,000	0,021	-0,061
-672,364	297,659	-0,057	-0,075
-671,349	-102,925	-0,151	-0,026
-670,335	562,690	0,017	-0,030
-669,320	-71,722	0,064	-0,017
-668,305	565,060	0,076	0,134
-667,291	-144,595	0,073	-0,005
-666,276	-52,800	-0,059	-0,020
-665,262	-200,000	0,000	0,023
-664,247	401,489	-0,069	-0,104
-663,232	-200,000	0,017	-0,104
-662,218	-200,000	-0,031	0,100
-661,203	-192,283	-0,054	-0,000
-660,189	-7,290	-0,153	0,075
-659,174	-200,000	0,002	-0,136
-658,159	165,450	-0,077	-0,078
-657,145	-9,540	-0,026	-0,013
-656,130	-4,514	0,047	0,024
-655,116	-28,324	0,118	0,049
-654,101	167,905	0,081	0,083
-653,086	-43,574	0,173	0,063
-652,072	344,638	0,023	-0,032
-651,057	-44,989	0,043	0,015
-650,043	455,271	0,065	-0,104
-649,028	117,748	-0,066	-0,059
-648,014	111,372	-0,059	0,051
-646,999	-117,783	0,098	-0,013
-645,984	-86,044	-0,146	-0,032
-644,970	121,916	-0,039	-0,035
-643,955	25,432	-0,071	-0,042
-642,941	573,660	-0,061	-0,108
-641,926	-92,688	0,055	-0,011
-640,911	-120,513	0,072	-0,009
-639,897	403,339	-0,036	-0,055
-638,882	-200,000	0,014	-0,084
-637,868	-66,749	-0,015	-0,004
-636,853	-200,000	0,018	0,060
-635,838	674,579	-0,073	-0,137
-634,824	57,086	0,063	-0,044
-633,809	-111,531	0,139	0,020
-632,795	184,989	-0,035	-0,037
-631,780	-200,000	-0,012	-0,065
-630,765	-200,000	-0,010	0,135
-629,751	202,334	-0,051	0,057
-628,736	-9,922	-0,193	0,093
-627,722	-85,088	-0,159	-0,036
-626,707	-7,249	-0,064	-0,031
-625,692	138,692	0,076	0,072
-624,678	148,686	-0,052	0,051
-623,663	-0,205	0,133	-0,068
-622,649	-200,000	0,011	-0,039
-621,634	-86,678	-0,196	0,043
-620,619	288,319	-0,047	-0,062
-619,605	-200,000	0,006	-0,055
-618,590	523,269	-0,025	-0,043
-617,576	-92,179	-0,036	-0,007
-616,561	51,380	-0,154	-0,105
-615,546	-156,085	0,078	0,003
-614,532	-68,485	0,052	0,014
-613,517	-200,000	0,020	0,223
-612,503	-20,574	-0,187	-0,083
-611,488	800,000	0,025	-0,071
-610,474	-200,000	-0,007	-0,029
-609,459	-200,000	0,020	-0,191
-608,444	45,553	-0,082	-0,054
-607,430	672,152	0,036	-0,068
-606,415	578,439	0,076	-0,135
-605,401	-103,994	-0,071	0,012
-604,386	800,000	0,033	-0,099
-603,371	-126,410	-0,123	-0,013
-602,357	800,000	-0,026	0,053
-601,342	536,578	0,024	0,042
-600,328	-200,000	-0,003	0,078
-599,313	-136,133	0,154	0,013
-598,298	23,965	0,067	0,040
-597,284	-97,939	-0,041	-0,008
-596,269	34,828	-0,050	-0,031
-595,255	-43,844	0,031	0,011
-594,240	-7,890	0,087	-0,042
-593,225	524,327	-0,051	-0,087
-592,211	22,242	-0,067	-0,039
-591,196	82,700	-0,017	0,013
-590,182	276,970	0,051	-0,065
-589,167	39,802	-0,066	-0,042
-588,152	800,000	-0,027	0,082
-587,138	-200,000	0,017	0,084
-586,123	50,497	-0,094	-0,064
-585,109	-200,000	-0,004	-0,024
-584,094	506,756	-0,027	0,046
-583,079	779,433	-0,019	-0,038
-582,065	800,000	0,030	-0,066
-581,050	160,244	0,101	-0,101
-580,036	-99,122	-0,193	-0,035
-579,021	800,000	0,015	-0,045
-578,006	-200,000	0,002	0,079
-576,992	91,362	-0,071	0,057
-575,977	47,370	0,052	0,035
-574,963	-200,000	-0,011	-0,073
-573,948	-200,000	0,032	0,119
-572,934	-97,219	0,077	0,014
-571,919	-63,119	-0,094	-0,028
-570,904	-200,000	0,001	-0,039
-569,890	631,344	-0,012	-0,022
-568,875	128,953	0,031	-0,029
-567,861	-23,140	-0,008	0,003
-566,846	38,240	0,133	0,085
-565,831	-63,860	-0,062	0,018
-564,817	800,000	0,064	0,136
-563,802	392,354	-0,082	0,123
-562,788	458,858	0,044	-0,070
-561,773	800,000	-0,026	-0,081
-560,758	97,054	-0,005	-0,005
-559,744	23,731	0,056	-0,033
-558,729	800,000	0,019	-0,048
-557,715	-31,184	0,128	-0,052
-556,700	206,982	-0,093	0,104
-555,685	-136,202	-0,202	0,017
-554,671	-200,000	-0,002	-0,044
-553,656	800,000	0,030	0,062
-552,642	136,385	0,002	0,002
-551,627	-200,000	0,005	0,025
-550,612	321,787	-0,032	-0,044
-549,598	326,907	-0,100	-0,138
-548,583	129,913	0,090	-0,083
-547,569	800,000	0,040	-0,081
-546,554	-136,573	0,103	0,008
-545,539	260,875	0,062	0,078
-544,525	133,258	0,107	0,100
-543,510	356,232	-0,060	0,086
-542,496	423,304	-0,029	0,045
-541,481	64,310	0,109	-0,079
-540,466	185,702	0,034	-0,037
-539,452	-200,000	0,027	0,117
-538,437	-13,520	-0,038	-0,018
-537,423	-200,000	0,022	-0,149
-536,408	800,000	0,024	0,053
-535,393	-200,000	0,025	-0,116
-534,379	-200,000	0,008	-0,096
-533,364	800,000	0,017	-0,047
-532,350	44,197	0,112	-0,074
-531,335	-200,000	-0,018	-0,119
-530,321	-60,746	0,022	0,007
-529,306	163,626	0,057	0,058
-528,291	-200,000	0,005	0,168
-527,277	-62,324	0,090	-0,027
-526,262	-200,000	-0,014	-0,097
-525,248	198,415	0,037	0,041
-524,233	57,450	0,090	0,063
-523,218	-90,712	0,140	0,029
-522,204	93,372	-0,090	0,073
-521,189	-2,152	0,025	0,012
-520,175	-200,000	-0,018	-0,071
-519,160	-200,000	-0,029	-0,119
-518,145	583,254	0,022	0,039
-517,131	-43,044	0,081	0,029
-516,116	48,918	0,034	-0,023
-515,102	800,000	-0,022	0,056
-514,087	198,387	-0,094	-0,104
-513,072	-200,000	-0,007	-0,102
-512,058	-200,000	0,024	-0,127
-511,043	-200,000	-0,022	0,105
-510,029	-200,000	0,005	0,182
-509,014	47,122	0,141	0,094
-507,999	-12,463	0,033	0,016
-506,985	-71,390	0,104	-0,028
-505,970	39,323	0,093	-0,060
-504,956	432,617	0,076	-0,120
-503,941	228,598	-0,073	-0,086
-502,926	-200,000	-0,003	0,096
-501,912	800,000	0,024	0,069
-500,897	-199,753	0,113	0,000
-499,883	514,047	-0,041	-0,070
-498,868	-200,000	0,024	-0,179
-497,853	-14,673	0,061	-0,028
-496,839	64,834	0,088	-0,063
-495,824	99,201	0,070	-0,058
-494,810	726,402	-0,081	0,156
-493,795	519,971	0,036	0,062
-492,781	5,566	-0,094	0,050
-491,766	59,779	0,042	-0,030
-490,751	-79,440	-0,069	-0,017
-489,737	800,000	0,023	0,059
-488,722	-49,003	0,088	0,030
-487,708	148,879	0,084	0,082
-486,693	-159,174	0,116	0,005
-485,678	-95,789	0,072	-0,014
-484,664	-200,000	-0,018	-0,076
-483,649	176,528	-0,028	0,029
-482,635	55,237	0,119	-0,083
-481,620	17,642	-0,026	0,015
-480,605	185,911	0,138	0,148
-479,591	-145,847	0,034	-0,002
-478,576	-200,000	-0,021	0,179
-477,562	-77,387	-0,074	0,018
-476,547	-126,050	-0,117	-0,012
-475,532	194,785	-0,045	0,049
-474,518	155,047	0,028	0,028
-473,503	-200,000	0,032	0,125
-472,489	-200,000	0,008	0,046
-471,474	-200,000	-0,020	-0,114
-470,459	20,973	0,025	-0,014
-469,445	-200,000	0,010	0,093
-468,430	-200,000	-0,026	-0,134
-467,416	156,655	0,086	-0,085
-466,401	-92,250	0,125	0,025
-465,386	-70,594	-0,141	-0,038
-464,372	-121,147	0,061	-0,007
-463,357	-62,574	-0,125	0,037
-462,343	800,000	-0,056	-0,165
-461,328	169,671	0,049	0,050
-460,313	-200,000	0,003	0,136
-459,299	745,039	-0,036	0,070
-458,284	800,000	-0,074	0,156
-457,270	155,131	0,035	0,035
-456,255	-157,408	-0,106	0,005
-455,241	599,084	0,035	0,062
-454,226	800,000	0,069	-0,181
-453,211	-200,000	0,012	0,133
-452,197	800,000	-0,085	0,177
-451,182	-200,000	0,006	0,155
-450,168	291,194	-0,067	0,087
-449,153	257,817	-0,048	-0,059
-448,138	-200,000	-0,023	-0,148
-447,124	-200,000	0,023	-0,126
-446,109	-200,000	-0,010	0,075
-445,095	-122,855	0,075	-0,009
-444,080	800,000	-0,023	0,056
-443,065	452,880	-0,013	-0,020
-442,051	-200,000	-0,011	-0,054
-441,036	-179,247	0,154	0,002
-440,022	-200,000	0,029	-0,107
-439,007	75,765	-0,092	-0,070
-437,992	-117,720	-0,018	-0,002
-436,978	-200,000	0,037	0,150
-435,963	-36,785	-0,084	-0,032
-434,949	172,265	0,098	0,101
-433,934	163,869	-0,096	0,097
-432,919	-117,185	-0,038	0,005
-431,905	-6,005	0,049	0,024
-430,890	-200,000	-0,012	0,085
-429,876	217,177	0,067	0,077
-428,861	174,790	-0,093	0,096
-427,846	-200,000	0,021	0,078
-426,832	800,000	-0,031	-0,068
-425,817	-200,000	0,001	-0,056
-424,803	-111,635	-0,075	0,011
-423,788	174,913	0,093	0,097
-422,773	777,115	-0,051	0,101
-421,759	78,391	0,044	-0,034
-420,744	74,936	0,052	-0,039
-419,730	-41,922	-0,180	-0,066
-418,715	-118,359	0,041	0,005
-417,701	-69,232	0,022	-0,006
-416,686	213,981	0,083	0,094
-415,671	800,000	-0,018	0,041
-414,657	800,000	0,032	0,091
-413,642	-200,000	-0,010	0,037
-412,628	699,850	-0,046	-0,087
-411,613	-139,584	-0,092	-0,007
-410,598	-200,000	0,002	0,056
-409,584	-33,483	0,043	0,017
-408,569	-73,606	0,079	0,020
-407,555	-60,503	-0,077	0,023
-406,540	231,824	0,071	-0,083
-405,525	-96,895	-0,060	-0,011
-404,511	-58,290	-0,147	0,045
-403,496	-200,000	-0,002	0,033
-402,482	-130,071	-0,060	-0,006
-401,467	21,926	0,087	0,051
-400,452	-77,843	-0,028	0,007
-399,438	-200,000	-0,020	0,078
-398,423	47,343	-0,061	-0,041
-397,409	7,211	0,081	-0,043
-396,394	-200,000	0,004	-0,042
-395,379	800,000	0,053	0,117
-394,365	139,928	0,100	-0,095
-393,350	0,262	0,209	0,106
-392,336	-200,000	0,024	0,106
-391,321	210,909	-0,092	0,104
-390,306	494,173	0,016	-0,027
-389,292	81,873	-0,089	-0,069
-388,277	800,000	0,011	0,025
-387,263	-48,343	0,114	0,039
-386,248	792,620	-0,062	0,122
-385,233	156,301	0,046	0,045
-384,219	598,889	-0,123	0,218
-383,204	56,172	0,044	-0,031
-382,190	-108,757	-0,072	0,011
-381,175	-200,000	0,025	-0,088
-380,160	-33,042	0,166	-0,066
-379,146	-200,000	-0,005	0,045
-378,131	180,818	-0,062	0,065
-377,117	-131,573	-0,065	-0,006
-376,102	-200,000	-0,013	-0,071
-375,088	-200,000	0,033	-0,123
-374,073	-21,571	-0,132	0,057
-373,058	547,951	-0,060	0,103
-372,044	79,247	0,069	0,053
-371,029	754,362	-0,041	-0,079
-370,015	800,000	0,031	0,074
-369,000	-75,995	-0,110	0,028
-367,985	800,000	0,027	-0,079
-366,971	-74,741	0,032	0,008
-365,956	-200,000	-0,042	-0,171
-364,942	-64,448	0,103	-0,030
-363,927	159,427	0,026	0,026
-362,912	176,642	-0,052	-0,054
-361,898	-200,000	-0,003	-0,145
-360,883	-99,087	-0,106	0,019
-359,869	78,399	-0,043	0,032
-358,854	800,000	-0,019	0,043
-357,839	-200,000	-0,014	0,079
-356,825	-96,402	-0,058	-0,011
-355,810	155,300	0,050	-0,050
-354,796	278,112	-0,038	-0,049
-353,781	186,018	-0,062	0,066
-352,766	-24,404	-0,068	0,029
-351,752	800,000	0,066	0,137
-350,737	-134,483	0,078	-0,007
-349,723	-200,000	-0,001	0,033
-348,708	-110,354	0,080	-0,012
-347,693	-80,257	0,064	0,015
-346,679	-200,000	0,033	-0,170
-345,664	-54,696	-0,099	-0,032
-344,650	108,069	0,072	0,061
-343,635	-200,000	0,006	0,082
-342,620	-29,212	0,084	0,034
-341,606	800,000	0,013	0,028
-340,591	285,905	-0,004	0,005
-339,577	226,544	0,035	0,041
-338,562	-143,599	-0,051	0,003
-337,548	9,357	0,115	-0,062
-336,533	155,987	-0,082	0,080
-335,518	-42,346	0,038	-0,014
-334,504	-15,040	0,027	0,012
-333,489	181,538	-0,072	-0,076
-332,475	281,725	-0,104	-0,134
-331,460	-200,000	-0,014	0,067
-330,445	91,145	-0,007	0,006
-329,431	-84,353	0,069	0,015
-328,416	6,701	0,045	-0,024
-327,402	-100,665	0,059	-0,010
-326,387	25,410	-0,077	0,046
-325,372	722,934	-0,080	-0,152
-324,358	-148,896	0,086	-0,005
-323,343	-74,452	-0,082	-0,021
-322,329	-200,000	0,015	-0,089
-321,314	725,621	-0,018	-0,034
-320,299	-38,418	-0,097	0,036
-319,285	-86,663	0,047	0,010
-318,270	-200,000	-0,031	0,105
-317,256	-148,416	0,069	-0,004
-316,241	-200,000	-0,005	-0,117
-315,226	-200,000	-0,011	-0,044
-314,212	-200,000	0,000	0,047
-313,197	-86,919	-0,065	0,014
-312,183	36,750	-0,055	0,035
-311,168	90,735	0,025	0,020
-310,153	-200,000	-0,009	-0,046
-309,139	486,775	-0,062	-0,101
-308,124	-200,000	-0,024	0,146
-307,110	326,520	0,041	-0,056
-306,095	510,602	-0,080	0,134
-305,080	269,843	-0,008	0,010
-304,066	800,000	0,001	-0,003
-303,051	586,626	-0,029	0,051
-302,037	-22,727	0,124	0,053
-301,022	-200,000	-0,004	0,018
-300,008	85,223	0,159	0,125
-298,993	10,592	0,085	0,046
-297,978	-129,669	-0,040	-0,004
-296,964	-200,000	0,001	0,100
-295,949	324,777	-0,085	-0,117
-294,935	-120,947	-0,064	0,008
-293,920	133,809	0,050	-0,046
-292,905	266,034	-0,020	0,025
-291,891	-128,062	0,131	-0,013
-290,876	654,316	0,088	0,162
-289,862	691,396	-0,037	0,069
-288,847	-137,738	0,022	0,002
-287,832	101,206	0,029	-0,024
-286,818	800,000	0,046	-0,102
-285,803	-200,000	0,000	-0,101
-284,789	45,051	0,155	0,101
-283,774	-200,000	-0,008	0,115
-282,759	332,708	-0,051	0,070
-281,745	116,440	-0,034	-0,030
-280,730	-155,672	-0,012	0,001
-279,716	-101,482	-0,142	-0,024
-278,701	172,580	0,101	-0,103
-277,686	-200,000	-0,011	0,191
-276,672	-60,319	0,084	0,025
-275,657	-34,648	0,128	0,050
-274,643	-66,181	-0,088	0,025
-273,628	800,000	-0,013	0,039
-272,613	543,630	-0,016	-0,027
-271,599	119,624	0,047	-0,042
-270,584	149,085	0,088	-0,085
-269,570	123,437	0,045	0,040
-268,555	800,000	-0,018	-0,047
-267,540	-22,395	0,082	-0,035
-266,526	40,750	-0,051	-0,033
-265,511	-137,608	-0,117	0,009
-264,497	-200,000	-0,031	-0,219
-263,482	-113,948	0,134	0,018
-262,467	321,320	-0,063	0,086
-261,453	-39,693	0,059	0,022
-260,438	106,589	-0,180	-0,152
-259,424	-200,000	0,011	-0,098
-258,409	78,692	0,065	-0,049
-257,395	108,677	0,084	-0,071
-256,380	800,000	-0,007	-0,015
-255,365	800,000	0,040	0,086
-254,351	478,923	0,061	0,098
-253,336	-193,177	-0,058	-0,000
-252,322	-200,000	0,031	-0,098
-251,307	-133,913	-0,023	-0,002
-250,292	800,000	0,007	-0,016
-249,278	598,730	0,041	-0,073
-248,263	356,514	0,027	0,039
-247,249	64,205	-0,078	-0,056
-246,234	-200,000	0,000	-0,115
-245,219	454,596	-0,079	-0,126
-244,205	223,353	-0,131	-0,151
-243,190	-200,000	0,001	0,027
-242,176	-39,057	-0,052	0,019
-241,161	-35,628	0,030	0,012
-240,146	317,072	0,023	0,030
-239,132	800,000	-0,046	-0,128
-238,117	-200,000	0,011	-0,042
-237,103	-200,000	-0,001	-0,133
-236,088	-200,000	-0,009	-0,031
-235,073	-200,000	0,021	0,091
-234,059	800,000	0,022	0,068
-233,044	-200,000	-0,015	0,116
-232,030	534,133	-0,076	0,129
-231,015	-86,375	-0,067	-0,015
-230,000	116,778	0,033	0,029
-228,986	13,767	0,026	-0,014
-227,971	-48,250	0,089	-0,030
-226,957	-200,000	0,118	0,000
-225,942	-200,000	-0,022	-0,075
-224,927	427,918	-0,072	0,111
-223,913	310,280	-0,067	-0,089
-222,898	-200,000	0,017	-0,137
-221,884	-200,000	0,002	-0,111
-220,869	800,000	0,026	-0,062
-219,855	39,261	-0,054	0,034
-218,840	-30,039	0,039	0,016
-217,825	-200,000	-0,007	0,140
-216,811	-85,730	-0,046	-0,010
-215,796	-97,497	0,071	-0,013
-214,782	44,148	-0,021	-0,013
-213,767	4,009	-0,041	0,021
-212,752	-36,199	0,132	0,050
-211,738	-200,000	-0,025	0,178
-210,723	-49,819	-0,178	-0,060
-209,709	75,215	-0,094	-0,070
-208,694	800,000	-0,023	-0,050
-207,679	800,000	0,061	-0,136
-206,665	-200,000	0,015	-0,055
-205,650	9,134	-0,188	0,100
-204,636	-20,313	-0,009	-0,004
-203,621	-106,356	0,073	0,011
-202,606	-200,000	-0,013	0,076
-201,592	-14,109	-0,129	0,059
-200,577	-52,186	-0,110	0,036
-199,563	333,460	0,048	-0,066
-198,548	31,786	0,158	0,096
-197,533	-200,000	0,020	0,077
-196,519	-7,038	-0,153	0,073
-195,504	539,579	-0,074	-0,125
-194,490	-48,917	0,194	-0,066
-193,475	-112,379	-0,048	0,007
-192,460	728,011	-0,077	-0,147
-191,446	-200,000	-0,033	-0,103
-190,431	-200,000	0,009	0,046
-189,417	224,237	0,019	0,022
-188,402	-142,458	0,078	0,005
-187,387	-53,145	-0,125	-0,041
-186,373	800,000	-0,031	-0,092
-185,358	-116,741	0,022	-0,003
-184,344	-200,000	0,009	0,063
-183,329	800,000	0,018	-0,048
-182,315	-47,107	-0,052	-0,018
-181,300	78,704	-0,063	-0,048
-180,285	800,000	-0,092	-0,188
-179,271	-200,000	-0,002	-0,171
-178,256	800,000	0,035	-0,087
-177,242	800,000	0,026	0,055
-176,227	800,000	-0,014	-0,037
-175,212	137,290	-0,021	-0,019
-174,198	321,556	-0,012	0,017
-173,183	300,874	-0,084	-0,110
-172,169	-89,295	-0,113	0,024
-171,154	102,696	0,050	-0,042
-170,139	-69,468	0,163	0,044
-169,125	-121,981	0,032	-0,004
-168,110	363,154	0,105	0,150
-167,096	224,760	0,054	0,062
-166,081	-200,000	-0,009	0,040
-165,066	80,840	0,029	-0,022
-164,052	800,000	-0,061	-0,128
-163,037	800,000	-0,051	0,141
-162,023	-200,000	0,002	0,155
-161,008	800,000	-0,042	0,132
-159,993	-200,000	-0,040	0,134
-158,979	224,529	-0,066	0,076
-157,964	199,579	0,058	0,063
-156,950	14,486	-0,035	-0,020
-155,935	-200,000	0,014	0,082
-154,920	-100,977	0,088	0,015
-153,906	15,629	0,035	-0,019
-152,891	-33,768	0,064	-0,025
-151,877	-106,920	-0,021	-0,003
-150,862	161,872	0,035	0,035
-149,847	-200,000	-0,010	-0,137
-148,833	161,605	0,066	-0,065
-147,818	-200,000	0,003	0,036
-146,804	-151,033	-0,090	-0,005
-145,789	-108,989	0,088	-0,013
-144,775	800,000	-0,054	0,109
-143,760	-200,000	-0,000	-0,148
-142,745	524,029	-0,059	0,098
-141,731	-32,434	0,075	-0,029
-140,716	62,708	-0,078	0,055
-139,702	-15,550	0,127	0,057
-138,687	127,566	0,057	0,052
-137,672	-37,930	0,075	-0,028
-136,658	-200,000	-0,039	-0,140
-135,643	215,805	0,115	-0,129
-134,629	800,000	0,054	-0,139
-133,614	-200,000	-0,008	0,050
-132,599	14,502	0,046	0,026
-131,585	98,724	0,019	0,016
-130,570	-162,155	0,055	-0,002
-129,556	129,006	-0,081	0,073
-128,541	-200,000	0,012	-0,072
-127,526	-200,000	0,022	-0,071
-126,512	-9,786	-0,091	-0,043
-125,497	-53,572	0,107	-0,034
-124,483	-71,623	-0,102	-0,027
-123,468	-5,787	0,088	-0,042
-122,453	549,235	-0,044	-0,075
-121,439	800,000	-0,029	-0,075
-120,424	-200,000	-0,004	0,039
-119,410	431,738	0,013	-0,021
-118,395	800,000	-0,070	0,164
-117,380	-106,732	0,153	0,024
-116,366	324,027	0,053	0,071
-115,351	800,000	0,025	-0,065
-114,337	-25,004	-0,099	-0,042
-113,322	221,528	0,079	0,090
-112,307	-105,791	0,146	0,023
-111,293	152,820	0,051	0,050
-110,278	55,173	0,054	-0,037
-109,264	130,078	0,049	-0,044
-108,249	-200,000	0,023	0,079
-107,234	-200,000	0,009	-0,086
-106,220	-108,581	-0,029	-0,004
-105,205	-177,765	0,050	0,001
-104,191	37,007	0,015	-0,009
-103,176	-78,799	-0,044	0,011
-102,162	-128,802	-0,114	-0,011
-101,147	-178,300	0,136	-0,002
-100,132	228,786	0,037	-0,043
-99,118	-35,293	-0,115	-0,044
-98,103	-200,000	0,009	-0,054
-97,089	-91,267	0,079	-0,016
-96,074	-200,000	-0,004	-0,078
-95,059	-63,991	-0,045	-0,013
-94,045	-159,056	-0,162	-0,006
-93,030	-121,380	0,138	-0,016
-92,016	344,261	-0,058	-0,081
-91,001	-43,272	-0,085	0,030
-89,986	800,000	0,121	0,262
-88,972	-200,000	-0,033	0,105
-87,957	564,070	0,070	0,120
-86,943	-125,711	0,147	0,016
-85,928	3,779	-0,069	0,036
-84,913	-200,000	0,001	-0,164
-83,899	-103,376	0,044	0,007
-82,884	32,318	0,084	0,051
-81,870	800,000	-0,060	0,168
-80,855	-200,000	0,014	0,174
-79,840	-132,091	-0,027	-0,002
-78,826	194,991	0,062	0,067
-77,811	-25,295	-0,050	-0,021
-76,797	800,000	0,021	0,056
-75,782	800,000	0,055	0,144
-74,767	-200,000	0,013	0,114
-73,753	50,297	0,073	0,048
-72,738	-98,171	-0,029	0,005
-71,724	-110,531	0,077	0,011
-70,709	14,138	-0,102	0,056
-69,694	-200,000	-0,032	-0,147
-68,680	92,683	0,058	0,046
-67,665	-200,000	-0,014	0,236
-66,651	800,000	0,048	-0,110
-65,636	-30,690	-0,035	0,014
-64,622	721,792	-0,022	0,041
-63,607	-107,196	-0,057	-0,009
-62,592	-24,246	0,116	-0,049
-61,578	19,044	-0,026	0,015
-60,563	189,490	0,100	0,106
-59,549	-200,000	0,007	-0,023
-58,534	25,870	-2,010	-1,181
-57,519	529,385	-1,251	-2,095
-56,505	-200,000	-0,459	-4,434
-55,490	436,500	0,976	1,506
-54,476	800,000	5,003	11,258
-53,461	-200,000	20,940	332,953
-52,446	800,000	758,069	2334,635
-51,432	552,270	1662,031	2829,687
-50,417	73,439	1662,870	1227,656
-49,403	18,427	1536,152	864,210
-48,388	12,435	1459,349	792,001
-47,373	19,142	1450,124	819,170
-46,359	15,664	1439,650	796,667
-45,344	10,694	1435,400	770,606
-44,330	10,636	1433,616	769,343
-43,315	10,632	1431,785	768,307
-42,300	10,636	1429,852	767,261
-41,286	10,637	1428,481	766,496
-40,271	10,609	1427,436	765,775
-39,257	10,629	1426,214	765,183
-38,242	10,628	1425,075	764,537
-37,227	10,661	1423,940	764,054
-36,213	10,646	1422,701	763,290
-35,198	10,682	1421,429	762,744
-34,184	10,695	1420,851	762,467
-33,169	10,567	1419,568	761,141
-32,154	10,671	1418,437	760,997
-31,140	10,695	1417,019	760,321
-30,125	10,754	1415,984	760,012
-29,111	10,676	1414,979	759,074
-28,096	10,673	1413,639	758,314
-27,082	10,636	1412,596	757,547
-26,067	10,602	1411,498	756,770
-25,052	10,613	1410,468	756,238
-24,038	10,632	1409,413	755,734
-23,023	10,636	1408,463	755,213
-22,009	10,595	1407,293	754,364
-20,994	10,586	1406,339	753,779
-19,979	10,585	1405,466	753,276
-18,965	10,584	1404,423	752,684
-17,950	10,532	1403,684	752,015
-16,936	10,557	1402,996	751,732
-15,921	10,460	1401,967	750,698
-14,906	10,527	1400,858	750,386
-13,892	10,548	1399,900	749,944
-12,877	10,580	1399,110	749,637
-11,863	10,492	1398,413	748,825
-10,848	10,469	1397,442	748,172
-9,833	10,440	1396,580	747,546
-8,819	10,436	1395,558	746,950
-7,804	10,413	1394,891	746,456
-6,790	10,429	1393,876	745,959
-5,775	10,464	1392,599	745,407
-4,760	10,437	1391,761	744,804
-3,746	10,425	1390,863	744,240
-2,731	10,430	1390,152	743,849
-1,717	10,382	1389,331	743,160
-0,702	10,390	1387,518	742,197
0,313	14,419	1300,577	714,145
1,327	30,549	691,806	416,521
2,342	47,342	119,900	78,675
3,356	5,192	16,424	8,512
4,371	9,073	3,464	1,840
5,386	-3,705	0,971	0,474
6,400	-200,000	0,083	0,467
7,415	-96,014	-0,273	-0,051
8,429	-28,837	-0,266	-0,107
9,444	-35,632	-0,209	-0,079
10,459	94,262	-0,211	-0,169
11,473	347,440	-0,188	-0,261
12,488	-19,287	-0,402	-0,175
13,502	-90,384	-0,289	-0,059
14,517	-13,459	-0,376	-0,171
15,531	48,483	-0,309	-0,204
16,546	90,060	-0,351	-0,276
17,561	148,767	-0,406	-0,387
18,575	347,235	-0,145	-0,201
19,590	99,872	-0,132	-0,107
20,604	109,055	-0,153	-0,129
21,619	-6,300	-0,503	-0,241
22,634	81,109	-0,494	-0,375
23,648	177,961	-0,427	-0,440
24,663	185,892	-0,354	-0,371
25,677	-32,370	-0,404	-0,158
26,692	800,000	-0,061	-0,142
27,707	-12,541	-0,393	-0,180
28,721	-18,294	-0,334	-0,146
29,736	285,475	-0,236	-0,301
30,750	218,124	-0,329	-0,370
31,765	80,517	-0,325	-0,246
32,780	24,973	-0,293	-0,170
33,794	126,462	-0,253	-0,226
34,809	46,846	-0,370	-0,242
35,823	-154,665	-0,338	-0,016
36,838	167,556	-0,406	-0,407
37,853	-37,229	-0,449	-0,168
38,867	456,198	-0,244	-0,382
39,882	94,994	-0,359	-0,287
40,896	199,602	-0,275	-0,297
41,911	9,358	-0,365	-0,193
42,926	241,660	-0,324	-0,382
43,940	22,124	-0,390	-0,223
44,955	29,822	-0,243	-0,145
45,969	198,035	-0,362	-0,390
46,984	111,545	-0,274	-0,232
47,999	315,711	-0,231	-0,306
49,013	28,108	-0,375	-0,222
50,028	191,472	-0,182	-0,193
51,042	105,578	-0,295	-0,245
52,057	247,213	-0,226	-0,268
53,071	58,589	-0,383	-0,264
54,086	336,068	-0,275	-0,375
55,101	-68,452	-0,373	-0,101
56,115	106,006	-0,285	-0,237
57,130	67,366	-0,371	-0,266
58,144	256,633	-0,276	-0,334
59,159	133,565	-0,337	-0,306
60,174	99,314	-0,337	-0,274
61,188	11,558	-0,386	-0,207
62,203	69,710	-0,316	-0,228
63,217	44,337	-0,272	-0,175
64,232	27,309	-0,295	-0,174
65,247	20,353	-0,390	-0,220
66,261	120,072	-0,354	-0,308
67,276	-4,702	-0,388	-0,187
68,290	-21,214	-0,385	-0,164
69,305	38,741	-0,207	-0,129
70,320	-39,870	-0,295	-0,108
71,334	-95,734	-0,228	-0,042
72,349	223,203	-0,247	-0,280
73,363	-19,626	-0,404	-0,174
74,378	137,941	-0,253	-0,232
75,393	-45,727	-0,337	-0,116
76,407	158,733	-0,267	-0,260
77,422	308,232	-0,142	-0,186
78,436	106,681	-0,238	-0,198
79,451	198,787	-0,219	-0,235
80,466	5,071	-0,391	-0,201
81,480	38,784	-0,318	-0,199
82,495	97,364	-0,357	-0,287
83,509	218,928	-0,175	-0,197
84,524	-42,859	-0,342	-0,121
85,539	11,348	-0,278	-0,149
86,553	-63,609	-0,278	-0,079
87,568	-43,722	-0,206	-0,072
88,582	22,911	-0,357	-0,205
89,597	116,664	-0,298	-0,256
90,611	12,668	-0,230	-0,124
91,626	-127,513	-0,095	-0,010
92,641	-58,123	-0,114	-0,035
93,655	52,918	-0,398	-0,266
94,670	53,027	-0,363	-0,243
95,684	460,723	-0,163	-0,256
96,699	60,415	-0,349	-0,241
97,714	263,670	-0,163	-0,199
98,728	216,148	-0,241	-0,269
99,743	159,038	-0,185	-0,180
100,757	-11,382	-0,427	-0,196
101,772	525,823	-0,189	-0,312
102,787	145,680	-0,239	-0,224
103,801	5,531	-0,194	-0,100
104,816	-154,949	-0,269	-0,012
105,830	-62,517	-0,196	0,057
106,845	9,312	-0,289	-0,152
107,860	23,702	-0,292	-0,168
108,874	-25,236	-0,237	-0,098
109,889	1,129	-0,267	-0,133
110,903	60,172	-0,394	-0,272
111,918	123,527	-0,292	-0,256
112,933	78,134	-0,264	-0,197
113,947	-37,756	-0,303	-0,112
114,962	-58,894	-0,353	-0,106
115,976	57,788	-0,170	-0,116
116,991	204,566	-0,303	-0,329
118,006	77,332	-0,286	-0,212
119,020	12,642	-0,201	-0,108
120,035	-44,166	-0,164	-0,057
121,049	369,662	-0,103	-0,147
122,064	-37,204	-0,297	-0,110
123,079	-11,212	-0,273	-0,125
124,093	180,539	-0,203	-0,208
125,108	28,464	-0,326	-0,192
126,122	1,699	-0,274	-0,138
127,137	25,040	-0,222	-0,128
128,151	257,187	-0,214	-0,257
129,166	-1,751	-0,300	-0,147
130,181	146,322	-0,136	-0,127
131,195	-50,205	-0,409	-0,134
132,210	204,708	-0,269	-0,291
133,224	41,002	-0,271	-0,170
134,239	146,924	-0,222	-0,208
135,254	275,758	-0,131	-0,162
136,268	7,048	-0,235	-0,122
137,283	-8,972	-0,323	-0,150
138,297	187,217	-0,222	-0,232
139,312	125,360	-0,246	-0,216
140,327	203,012	-0,256	-0,276
141,341	132,396	-0,166	-0,149
142,356	115,066	-0,278	-0,237
143,370	228,556	-0,284	-0,323
144,385	104,453	-0,214	-0,175
145,400	99,518	-0,231	-0,186
146,414	82,689	-0,273	-0,206
147,429	126,340	-0,285	-0,251
148,443	5,203	-0,303	-0,155
149,458	-200,000	-0,046	-0,187
150,473	374,500	-0,168	-0,239
151,487	-71,879	-0,221	-0,057
152,502	148,932	-0,240	-0,226
153,516	660,228	-0,165	-0,296
154,531	103,380	-0,245	-0,200
155,546	421,512	-0,094	-0,142
156,560	263,055	-0,079	-0,096
157,575	-8,268	-0,218	-0,102
158,589	127,124	-0,245	-0,216
159,604	800,000	-0,126	-0,257
160,619	-13,595	-0,321	-0,144
161,633	82,270	-0,203	-0,153
162,648	79,998	-0,182	-0,136
163,662	274,497	-0,175	-0,216
164,677	363,722	-0,104	-0,146
165,692	-0,298	-0,190	-0,094
166,706	800,000	-0,111	-0,259
167,721	68,338	-0,244	-0,174
168,735	-17,100	-0,438	-0,192
169,750	-26,986	-0,194	-0,078
170,764	-1,130	-0,287	-0,141
171,779	24,804	-0,252	-0,145
172,794	-80,229	-0,311	-0,072
173,808	-14,875	-0,182	-0,081
174,823	35,101	-0,265	-0,161
175,837	-176,630	-0,262	0,005
176,852	43,224	-0,325	-0,206
177,867	1,617	-0,171	-0,085
178,881	53,847	-0,182	-0,121
179,896	542,473	-0,155	-0,258
180,910	-200,000	-0,062	-0,255
181,925	1,712	-0,162	-0,081
182,940	240,766	-0,221	-0,256
183,954	800,000	-0,108	-0,304
184,969	227,193	-0,226	-0,256
185,983	-36,104	-0,189	-0,070
186,998	217,041	-0,195	-0,216
188,013	101,124	-0,154	-0,124
189,027	463,725	-0,130	-0,202
190,042	378,744	-0,092	-0,131
191,056	234,346	-0,229	-0,263
192,071	151,244	-0,175	-0,165
193,086	35,292	-0,246	-0,149
194,100	738,153	-0,120	-0,224
195,115	136,683	-0,194	-0,175
196,129	322,250	-0,102	-0,134
197,144	45,272	-0,273	-0,174
198,159	161,335	-0,203	-0,197
199,173	468,001	-0,107	-0,166
200,188	95,082	-0,171	-0,135
201,202	-26,400	-0,154	-0,062
202,217	-139,538	-0,135	0,010
203,232	136,033	-0,194	-0,175
204,246	11,168	-0,282	-0,149
205,261	800,000	-0,037	-0,083
206,275	125,982	-0,321	-0,281
207,290	800,000	-0,210	-0,461
208,304	186,949	-0,226	-0,234
209,319	95,523	-0,288	-0,227
210,334	-100,216	-0,172	-0,029
211,348	800,000	-0,114	-0,273
212,363	77,845	-0,213	-0,157
213,377	353,769	-0,080	-0,110
214,392	-9,438	-0,183	-0,084
215,407	35,833	-0,267	-0,162
216,421	56,576	-0,184	-0,124
217,436	626,942	-0,110	-0,193
218,450	154,794	-0,225	-0,214
219,465	106,192	-0,257	-0,210
220,480	90,399	-0,190	-0,147
221,494	171,344	-0,201	-0,200
222,509	-174,219	-0,147	-0,003
223,523	113,830	-0,210	-0,176
224,538	128,230	-0,278	-0,244
225,553	55,382	-0,333	-0,222
226,567	-200,000	-0,029	-0,330
227,582	17,435	-0,248	-0,136
228,596	140,042	-0,177	-0,162
229,611	501,696	-0,110	-0,176
230,626	-52,225	-0,192	-0,061
231,640	75,484	-0,168	-0,122
232,655	202,702	-0,244	-0,260
233,669	139,878	-0,151	-0,138
234,684	17,071	-0,176	-0,096
235,699	6,844	-0,168	-0,086
236,713	-67,454	-0,180	0,049
237,728	-54,955	-0,208	-0,065
238,742	800,000	-0,058	-0,129
239,757	102,349	-0,173	-0,140
240,772	800,000	-0,076	-0,200
241,786	417,888	-0,096	-0,142
242,801	95,112	-0,251	-0,198
243,815	-53,718	-0,166	0,052
244,830	545,658	-0,115	-0,190
245,844	-200,000	0,018	-0,166
246,859	-66,971	-0,145	0,039
247,874	800,000	-0,125	-0,336
248,888	79,191	-0,173	-0,128
249,903	242,887	-0,149	-0,172
250,917	-21,038	-0,114	-0,048
251,932	42,034	-0,208	-0,130
252,947	-3,049	-0,158	-0,076
253,961	98,365	-0,213	-0,170
254,976	-75,523	-0,323	-0,079
255,990	194,323	-0,239	-0,250
257,005	-17,353	-0,123	-0,053
258,020	146,028	-0,086	-0,080
259,034	-64,478	-0,094	-0,026
260,049	3,925	-0,204	-0,103
261,063	355,645	-0,151	-0,208
262,078	298,763	-0,173	-0,220
263,093	224,144	-0,090	-0,100
264,107	365,354	-0,114	-0,159
265,122	0,123	-0,138	-0,068
266,136	43,576	-0,191	-0,120
267,151	-41,719	-0,163	-0,057
268,166	-53,309	-0,194	-0,061
269,180	40,685	-0,282	-0,175
270,195	175,412	-0,110	-0,110
271,209	-149,207	-0,279	0,015
272,224	88,065	-0,240	-0,184
273,239	57,521	-0,295	-0,198
274,253	800,000	-0,038	-0,096
275,268	420,482	-0,103	-0,153
276,282	-5,960	-0,114	-0,053
277,297	-29,744	-0,322	-0,126
278,312	293,527	-0,140	-0,177
279,326	460,307	-0,118	-0,181
280,341	31,177	-0,144	-0,085
281,355	-52,015	-0,144	-0,046
282,370	-145,082	-0,221	-0,014
283,384	147,628	-0,150	-0,140
284,399	232,608	-0,105	-0,119
285,414	432,746	-0,156	-0,233
286,428	-200,000	-0,050	-0,212
287,443	56,440	-0,179	-0,120
288,457	-60,235	-0,095	-0,028
289,472	206,860	-0,171	-0,184
290,487	-15,128	-0,056	-0,025
291,501	216,093	-0,166	-0,182
292,516	73,742	-0,197	-0,142
293,530	282,231	-0,180	-0,222
294,545	95,693	-0,104	-0,082
295,560	220,889	-0,245	-0,271
296,574	46,818	-0,139	-0,089
297,589	82,869	-0,176	-0,131
298,603	151,217	-0,060	-0,056
299,618	36,563	-0,241	-0,146
300,633	800,000	-0,093	-0,190
301,647	415,035	-0,075	-0,110
302,662	800,000	-0,077	-0,154
303,676	236,580	-0,222	-0,253
304,691	102,075	-0,209	-0,167
305,706	76,737	-0,138	-0,101
306,720	426,119	-0,193	-0,286
307,735	-57,407	-0,136	-0,041
308,749	241,200	-0,051	-0,059
309,764	34,582	-0,053	-0,032
310,779	0,462	-0,133	-0,065
311,793	80,208	-0,205	-0,151
312,808	42,561	-0,265	-0,165
313,822	127,581	-0,198	-0,173
314,837	399,702	-0,113	-0,163
315,852	-75,358	0,077	0,019
316,866	-53,419	-0,169	-0,053
317,881	47,717	-0,090	-0,058
318,895	193,239	-0,109	-0,113
319,910	13,970	-0,179	-0,096
320,925	370,549	-0,119	-0,166
321,939	220,745	-0,090	-0,100
322,954	204,484	-0,162	-0,172
323,968	-106,654	-0,133	-0,020
324,983	-25,792	-0,045	-0,018
325,997	8,804	-0,052	0,027
327,012	123,186	-0,184	-0,158
328,027	41,523	-0,096	-0,060
329,041	134,760	-0,103	-0,092
330,056	-200,000	-0,037	-0,225
331,070	-200,000	-0,010	-0,149
332,085	800,000	0,015	-0,036
333,100	20,657	-0,096	-0,053
334,114	83,121	-0,134	-0,100
335,129	64,635	-0,237	-0,164
336,143	800,000	-0,130	-0,342
337,158	587,805	-0,077	-0,131
338,173	-61,540	-0,055	0,016
339,187	221,479	-0,084	-0,093
340,202	-131,145	-0,184	-0,017
341,216	-28,096	-0,080	-0,031
342,231	800,000	-0,071	-0,139
343,246	10,368	-0,172	-0,089
344,260	800,000	-0,073	-0,193
345,275	620,582	-0,112	-0,193
346,289	-200,000	-0,030	-0,162
347,304	448,339	-0,066	-0,100
348,319	382,517	-0,200	-0,282
349,333	459,585	-0,132	-0,203
350,348	-76,554	-0,115	0,027
351,362	30,139	-0,158	-0,092
352,377	-106,506	-0,175	0,026
353,392	503,497	-0,063	-0,099
354,406	800,000	-0,065	-0,146
355,421	207,416	1309,569	1399,519
356,435	159,561	1469,635	1400,006
