DTS Sentinel unit serial number:	SN410029Multiplexer serial number:	ORYXHardware model number:	OX2-SRSoftware version number:	ORYX F/W v4,00 Oryx Data Collector v3.7.2.0data status	okinstallation	B3 Nyhavnadifferential loss correction	single-endedforward channel	channel 1reverse channel	N/Adate	2023/11/29time	07:02:31forward acquisition time	300,00reverse acquisition time	0,00gamma	499,1914k internal	0,3212k external	0,3212temperature offset calibration	1,0000default loss term (dB/km)	0,3820temperature slope calibration	1,0000multiplexer offset coefficient	1,0000multiplexer slope coefficient	1,0000fibre end	0,00T internal ref (°C)	8,92T ext. ref 1 (°C)	-6,45T ext. ref 2 (°C)	-6,54length (m)	temperature (°C)	Stokes	anti-Stokes-744,400	-58,072	-0,245	-0,077
-743,385	-200,000	-0,026	0,268
-742,371	-200,000	0,013	-0,209
-741,356	565,752	0,121	0,213
-740,342	56,752	-0,247	-0,174
-739,327	-200,000	0,031	0,281
-738,312	771,748	-0,104	-0,207
-737,298	-200,000	0,003	0,272
-736,283	338,544	-0,158	-0,223
-735,269	-200,000	-0,113	0,363
-734,254	800,000	-0,085	-0,215
-733,239	215,754	-0,108	0,125
-732,225	-200,000	0,041	-0,245
-731,210	177,930	0,132	0,140
-730,196	-0,548	0,108	0,055
-729,181	42,061	-0,079	-0,052
-728,167	-6,932	-0,137	-0,067
-727,152	-50,890	-0,079	0,027
-726,137	449,585	-0,034	0,054
-725,123	-4,499	-0,207	-0,103
-724,108	417,347	-0,064	-0,099
-723,094	344,689	-0,070	-0,100
-722,079	-95,452	-0,128	-0,025
-721,064	31,165	-0,096	0,059
-720,050	800,000	0,072	0,193
-719,035	800,000	0,020	-0,054
-718,021	-200,000	-0,015	-0,114
-717,006	-60,326	-0,183	-0,056
-715,991	225,905	-0,069	-0,081
-714,977	-0,494	-0,028	0,015
-713,962	-200,000	-0,022	-0,116
-712,948	255,319	-0,047	-0,059
-711,933	-107,721	0,105	0,016
-710,918	280,599	-0,070	-0,091
-709,904	219,680	0,059	-0,068
-708,889	-159,399	-0,037	0,001
-707,875	-73,837	-0,124	0,032
-706,860	168,836	0,032	0,033
-705,845	-1,699	-0,193	0,098
-704,831	-20,389	-0,025	-0,011
-703,816	-200,000	-0,005	-0,084
-702,802	541,422	0,077	-0,133
-701,787	57,411	-0,140	-0,099
-700,772	800,000	-0,031	-0,097
-699,758	262,892	0,090	-0,113
-698,743	8,347	-0,108	0,058
-697,729	521,395	-0,063	0,107
-696,714	115,348	-0,027	-0,024
-695,699	800,000	-0,020	0,064
-694,685	800,000	0,012	0,034
-693,670	-200,000	0,020	-0,086
-692,656	800,000	0,036	-0,102
-691,641	-120,419	0,128	-0,016
-690,627	-200,000	0,009	0,031
-689,612	800,000	0,023	-0,054
-688,597	482,883	0,059	-0,098
-687,583	421,628	-0,101	-0,158
-686,568	800,000	-0,069	-0,177
-685,554	-200,000	0,008	-0,098
-684,539	-200,000	0,034	-0,112
-683,524	351,734	0,042	0,061
-682,510	44,146	0,057	-0,038
-681,495	23,913	-0,034	0,020
-680,481	800,000	-0,104	-0,268
-679,466	201,846	-0,124	-0,139
-678,451	-200,000	0,001	-0,034
-677,437	111,216	-0,112	-0,097
-676,422	-200,000	-0,003	-0,061
-675,408	-76,607	-0,036	0,009
-674,393	-35,262	-0,076	-0,030
-673,378	89,142	-0,107	0,086
-672,364	45,935	-0,125	-0,083
-671,349	-154,494	-0,128	-0,006
-670,335	800,000	-0,057	0,139
-669,320	-88,786	0,073	0,016
-668,305	-200,000	-0,002	-0,075
-667,291	125,093	-0,038	-0,035
-666,276	-200,000	-0,010	0,040
-665,262	38,249	-0,137	0,088
-664,247	399,481	0,084	0,128
-663,232	-62,739	-0,184	0,055
-662,218	36,584	0,090	-0,057
-661,203	279,602	0,065	0,084
-660,189	-109,108	0,009	0,001
-659,174	52,575	-0,151	-0,104
-658,159	800,000	0,049	-0,098
-657,145	-112,268	-0,112	-0,016
-656,130	13,890	-0,050	0,028
-655,116	60,810	-0,023	-0,017
-654,101	-200,000	-0,012	0,161
-653,086	-5,948	0,070	-0,035
-652,072	-132,729	0,063	0,006
-651,057	-200,000	-0,008	0,109
-650,043	52,335	-0,031	0,021
-649,028	800,000	-0,011	-0,028
-648,014	-101,873	-0,025	0,004
-646,999	-200,000	0,007	0,114
-645,984	302,606	-0,035	0,047
-644,970	800,000	-0,027	0,065
-643,955	-200,000	-0,023	-0,198
-642,941	66,961	-0,054	-0,040
-641,926	298,716	0,034	0,045
-640,911	-93,438	0,056	0,011
-639,897	321,520	-0,099	0,137
-638,882	365,863	0,030	0,044
-637,868	167,965	-0,090	-0,092
-636,853	-46,576	-0,082	0,029
-635,838	72,784	0,124	-0,093
-634,824	-39,845	-0,024	-0,009
-633,809	800,000	-0,029	0,075
-632,795	23,512	0,119	0,071
-631,780	800,000	-0,012	0,025
-630,765	800,000	-0,030	-0,091
-629,751	473,235	-0,037	-0,061
-628,736	-3,764	-0,111	-0,055
-627,722	12,450	0,082	0,046
-626,707	-200,000	-0,006	-0,109
-625,692	-84,841	0,127	-0,029
-624,678	60,116	0,121	-0,086
-623,663	-200,000	0,037	-0,152
-622,649	211,291	0,037	0,043
-621,634	263,020	-0,083	-0,104
-620,619	558,540	0,032	-0,057
-619,605	11,000	-0,099	0,055
-618,590	800,000	0,011	0,025
-617,576	800,000	-0,012	0,031
-616,561	-200,000	-0,012	-0,058
-615,546	267,368	-0,028	0,035
-614,532	171,551	-0,132	-0,137
-613,517	-200,000	-0,004	-0,037
-612,503	-56,421	-0,095	-0,030
-611,488	-200,000	-0,008	0,126
-610,474	33,307	0,053	0,033
-609,459	-72,878	-0,089	-0,023
-608,444	139,113	0,099	-0,094
-607,430	800,000	-0,038	0,101
-606,415	502,056	0,073	-0,122
-605,401	-200,000	-0,034	0,118
-604,386	-92,249	0,162	-0,033
-603,371	800,000	0,039	0,115
-602,357	-200,000	-0,006	0,058
-601,342	178,267	0,044	0,047
-600,328	34,006	-0,119	0,075
-599,313	417,493	-0,044	-0,068
-598,298	-200,000	0,016	-0,076
-597,284	24,879	0,116	0,069
-596,269	-200,000	-0,044	-0,000
-595,255	-49,435	-0,102	-0,035
-594,240	-200,000	-0,019	-0,099
-593,225	206,553	0,062	-0,070
-592,211	-47,572	-0,022	-0,008
-591,196	334,795	-0,091	0,128
-590,182	-45,018	0,078	0,028
-589,167	151,318	0,059	0,058
-588,152	92,318	-0,057	-0,046
-587,138	-77,201	-0,083	-0,021
-586,123	108,105	0,040	-0,034
-585,109	56,812	-0,084	-0,059
-584,094	-200,000	0,010	0,118
-583,079	107,781	-0,055	0,047
-582,065	598,629	-0,040	-0,071
-581,050	117,084	0,148	-0,131
-580,036	-200,000	-0,031	-0,119
-579,021	-106,072	-0,103	-0,017
-578,006	136,751	0,047	0,044
-576,992	671,014	-0,022	-0,041
-575,977	-200,000	-0,009	0,070
-574,963	22,907	-0,167	0,098
-573,948	-45,136	0,039	0,014
-572,934	54,199	0,056	0,039
-571,919	654,794	0,062	0,115
-570,904	85,557	-0,062	0,049
-569,890	49,100	-0,077	-0,052
-568,875	-93,786	0,069	-0,014
-567,861	37,240	0,093	-0,059
-566,846	-200,000	-0,002	0,117
-565,831	-96,922	-0,060	0,011
-564,817	-200,000	-0,008	-0,049
-563,802	74,881	0,081	-0,061
-562,788	389,573	-0,022	0,033
-561,773	-200,000	0,012	-0,049
-560,758	-200,000	-0,009	0,124
-559,744	-200,000	0,015	0,240
-558,729	155,122	0,077	-0,076
-557,715	-80,145	0,031	0,007
-556,700	-50,188	0,141	-0,048
-555,685	-54,777	-0,085	0,028
-554,671	-52,037	-0,095	0,032
-553,656	-11,110	0,125	-0,059
-552,642	800,000	-0,032	0,087
-551,627	800,000	0,005	0,014
-550,612	-200,000	0,019	-0,172
-549,598	800,000	-0,038	0,096
-548,583	-2,911	0,032	-0,016
-547,569	666,260	-0,023	-0,044
-546,554	132,688	0,126	-0,117
-545,539	10,418	0,060	-0,033
-544,525	-200,000	-0,005	-0,069
-543,510	-54,337	0,147	-0,048
-542,496	11,312	0,090	-0,049
-541,481	170,713	-0,106	-0,109
-540,466	90,922	0,117	-0,095
-539,452	-200,000	0,001	-0,010
-538,437	-10,098	0,120	-0,057
-537,423	33,294	0,151	0,094
-536,408	-200,000	-0,032	0,155
-535,393	237,143	-0,102	-0,122
-534,379	-200,000	-0,051	0,000
-533,364	66,577	-0,072	0,053
-532,350	800,000	0,036	0,072
-531,335	68,387	0,046	0,034
-530,321	-200,000	0,024	0,099
-529,306	-41,281	-0,082	0,030
-528,291	7,477	0,138	0,074
-527,277	-122,489	-0,059	-0,007
-526,262	98,514	-0,043	-0,035
-525,248	-134,196	0,191	0,017
-524,233	800,000	0,021	0,065
-523,218	446,390	0,063	-0,099
-522,204	800,000	-0,033	0,099
-521,189	-200,000	0,017	-0,118
-520,175	-77,040	-0,215	-0,054
-519,160	384,446	-0,026	-0,039
-518,145	120,393	0,067	0,060
-517,131	-200,000	0,002	0,107
-516,116	83,483	-0,084	0,066
-515,102	-20,062	0,112	-0,049
-514,087	4,536	-0,073	-0,038
-513,072	649,979	0,049	-0,091
-512,058	-132,526	-0,162	0,015
-511,043	127,545	-0,042	-0,039
-510,029	605,080	-0,050	0,090
-509,014	-200,000	-0,013	0,087
-507,999	70,152	-0,068	-0,051
-506,985	71,066	-0,106	-0,079
-505,970	192,001	-0,055	-0,060
-504,956	-200,000	0,030	-0,108
-503,941	-200,000	0,024	0,084
-502,926	-65,837	0,176	-0,050
-501,912	67,003	0,104	0,076
-500,897	102,287	-0,084	-0,070
-499,883	-20,537	-0,100	-0,044
-498,868	-200,000	0,010	-0,062
-497,853	-200,000	-0,001	-0,109
-496,839	800,000	-0,022	-0,055
-495,824	-98,635	0,117	-0,021
-494,810	-160,487	-0,012	-0,000
-493,795	478,586	-0,002	0,003
-492,781	389,608	-0,100	0,150
-491,766	800,000	0,075	-0,163
-490,751	221,164	-0,048	-0,055
-489,737	6,426	-0,171	0,091
-488,722	800,000	0,044	0,101
-487,708	36,761	0,069	0,044
-486,693	-145,852	0,136	-0,009
-485,678	295,900	-0,040	-0,053
-484,664	-54,646	-0,172	0,055
-483,649	-100,680	0,072	-0,013
-482,635	800,000	-0,021	-0,062
-481,620	-54,321	-0,088	0,028
-480,605	16,331	0,047	0,026
-479,591	27,472	0,065	0,039
-478,576	-105,274	0,057	0,009
-477,562	678,780	0,067	-0,126
-476,547	-154,917	-0,117	-0,005
-475,532	-200,000	0,033	0,127
-474,518	100,632	0,080	-0,067
-473,503	195,200	0,015	0,017
-472,489	207,983	0,044	-0,049
-471,474	-200,000	0,002	-0,187
-470,459	420,116	-0,078	-0,120
-469,445	-11,201	-0,090	-0,042
-468,430	-95,774	0,149	-0,028
-467,416	456,003	-0,020	-0,032
-466,401	-200,000	0,006	0,021
-465,386	187,083	0,137	0,146
-464,372	211,356	-0,090	-0,102
-463,357	590,989	-0,064	0,114
-462,343	800,000	0,083	-0,177
-461,328	-5,510	0,124	0,061
-460,313	18,591	0,127	0,073
-459,299	-200,000	0,004	0,063
-458,284	135,138	-0,079	0,074
-457,270	133,122	0,030	0,027
-456,255	122,872	-0,094	-0,084
-455,241	14,588	-0,030	-0,017
-454,226	212,871	0,122	-0,138
-453,211	271,586	0,118	0,149
-452,197	-23,648	0,022	0,009
-451,182	800,000	-0,026	-0,082
-450,168	-200,000	-0,021	0,078
-449,153	800,000	-0,057	-0,127
-448,138	-200,000	0,027	-0,086
-447,124	-17,368	-0,221	0,099
-446,109	130,238	0,128	0,118
-445,095	83,930	-0,067	0,053
-444,080	-60,525	-0,108	0,033
-443,065	-80,542	-0,087	-0,021
-442,051	-200,000	-0,006	0,118
-441,036	729,672	-0,071	-0,136
-440,022	4,021	0,134	-0,070
-439,007	-50,911	-0,205	0,069
-437,992	695,774	-0,103	-0,195
-436,978	400,884	0,038	-0,057
-435,963	190,488	0,051	0,055
-434,949	11,256	0,071	-0,039
-433,934	-9,483	-0,077	-0,037
-432,919	106,099	-0,054	0,046
-431,905	59,728	-0,051	-0,036
-430,890	742,233	-0,033	0,064
-429,876	130,645	0,107	0,098
-428,861	142,480	0,131	0,125
-427,846	245,409	-0,011	-0,013
-426,832	-200,000	0,005	-0,076
-425,817	800,000	-0,044	-0,108
-424,803	800,000	-0,070	0,151
-423,788	12,358	-0,060	0,033
-422,773	256,721	-0,063	0,078
-421,759	-200,000	-0,046	0,188
-420,744	39,960	0,086	-0,055
-419,730	91,714	-0,118	-0,095
-418,715	40,696	-0,152	-0,098
-417,701	37,131	0,057	-0,036
-416,686	-57,492	0,010	0,003
-415,671	318,008	0,050	0,069
-414,657	397,979	0,049	0,074
-413,642	-200,000	-0,024	0,078
-412,628	26,564	-0,051	0,031
-411,613	-200,000	-0,004	-0,018
-410,598	-90,155	-0,040	-0,008
-409,584	49,217	-0,053	0,035
-408,569	-13,291	0,092	0,042
-407,555	-22,909	-0,101	0,044
-406,540	416,455	0,056	-0,085
-405,525	-200,000	-0,016	-0,095
-404,511	621,442	0,009	-0,017
-403,496	-41,130	0,146	-0,054
-402,482	800,000	0,035	-0,107
-401,467	317,659	0,076	-0,103
-400,452	-131,720	0,109	-0,010
-399,438	-200,000	0,012	0,121
-398,423	800,000	-0,064	0,141
-397,409	-200,000	-0,003	-0,013
-396,394	-121,004	0,017	-0,002
-395,379	-5,723	-0,079	-0,038
-394,365	-39,958	0,103	-0,038
-393,350	471,234	-0,055	0,089
-392,336	-73,978	0,090	0,023
-391,321	-175,373	-0,083	0,002
-390,306	-11,943	-0,034	-0,016
-389,292	-82,821	0,131	0,030
-388,277	289,672	0,040	-0,053
-387,263	-200,000	0,010	0,071
-386,248	233,672	0,085	0,100
-385,233	-17,942	0,161	0,072
-384,219	228,513	-0,067	-0,079
-383,204	-200,000	-0,001	-0,013
-382,190	-27,676	-0,062	-0,026
-381,175	332,512	-0,052	0,072
-380,160	62,912	0,073	0,052
-379,146	800,000	-0,067	0,173
-378,131	-200,000	-0,043	0,154
-377,117	364,934	0,061	-0,088
-376,102	-0,876	-0,068	0,035
-375,088	-200,000	-0,006	-0,059
-374,073	-200,000	0,038	-0,121
-373,058	-200,000	-0,004	-0,025
-372,044	-40,076	0,093	-0,034
-371,029	237,308	0,069	0,081
-370,015	216,514	-0,056	0,064
-369,000	800,000	0,036	-0,086
-367,985	-200,000	-0,008	-0,083
-366,971	800,000	-0,046	-0,118
-365,956	-82,444	0,120	-0,028
-364,942	325,014	-0,039	-0,053
-363,927	-200,000	0,015	-0,065
-362,912	108,274	-0,083	0,071
-361,898	-158,312	0,018	0,001
-360,883	58,815	-0,051	-0,036
-359,869	-200,000	-0,011	-0,171
-358,854	464,730	0,051	0,082
-357,839	583,968	-0,027	-0,047
-356,825	-8,105	0,099	0,048
-355,810	384,847	-0,053	0,079
-354,796	33,335	-0,167	-0,103
-353,781	408,073	0,013	-0,019
-352,766	-71,696	-0,172	-0,045
-351,752	-19,498	-0,024	-0,011
-350,737	-156,474	-0,101	0,004
-349,723	-200,000	0,017	0,068
-348,708	-112,637	0,095	0,013
-347,693	113,013	0,053	-0,046
-346,679	64,691	-0,043	0,031
-345,664	-200,000	-0,021	-0,071
-344,650	-200,000	0,006	-0,066
-343,635	-41,485	0,094	0,034
-342,620	720,760	-0,035	0,067
-341,606	-73,681	-0,034	0,009
-340,591	209,819	-0,134	-0,150
-339,577	-77,620	0,141	0,035
-338,562	-105,314	-0,022	-0,004
-337,548	146,598	0,102	-0,098
-336,533	-104,667	0,096	-0,016
-335,518	-200,000	0,015	0,091
-334,504	-46,722	0,047	-0,016
-333,489	123,532	-0,062	-0,056
-332,475	-88,034	0,039	0,008
-331,460	433,660	0,057	-0,089
-330,445	-40,095	-0,031	-0,011
-329,431	12,991	0,195	-0,107
-328,416	76,955	0,072	-0,054
-327,402	-68,481	0,086	0,024
-326,387	-53,555	0,102	-0,033
-325,372	-80,119	-0,185	-0,044
-324,358	-200,000	-0,019	-0,107
-323,343	301,442	0,086	-0,113
-322,329	800,000	0,037	0,102
-321,314	102,518	0,053	0,044
-320,299	-200,000	0,000	-0,024
-319,285	800,000	-0,056	-0,145
-318,270	-37,740	0,097	0,036
-317,256	-16,377	0,167	0,075
-316,241	272,709	-0,178	-0,224
-315,226	745,891	0,074	0,143
-314,212	800,000	0,084	0,184
-313,197	25,313	0,057	-0,033
-312,183	-200,000	-0,007	0,037
-311,168	800,000	-0,047	-0,096
-310,153	189,594	-0,055	-0,059
-309,139	800,000	0,038	-0,091
-308,124	-200,000	-0,022	0,112
-307,110	-200,000	-0,017	0,094
-306,095	67,839	0,031	-0,022
-305,080	-16,696	0,120	-0,054
-304,066	-35,192	0,114	-0,044
-303,051	-143,415	-0,057	-0,004
-302,037	-61,767	-0,051	0,015
-301,022	-200,000	-0,024	-0,088
-300,008	-141,176	0,048	0,003
-298,993	-71,991	0,087	-0,023
-297,978	150,033	-0,123	0,119
-296,964	-165,207	-0,094	0,003
-295,949	38,086	-0,103	-0,065
-294,935	-200,000	-0,008	-0,101
-293,920	-39,699	-0,043	-0,016
-292,905	277,048	0,076	-0,096
-291,891	-200,000	-0,029	0,136
-290,876	41,276	-0,005	-0,003
-289,862	163,980	0,041	0,041
-288,847	109,003	0,042	0,036
-287,832	-200,000	-0,028	0,125
-286,818	-190,522	0,055	0,000
-285,803	196,845	0,051	-0,055
-284,789	800,000	0,006	0,013
-283,774	800,000	-0,024	0,048
-282,759	-200,000	0,009	0,109
-281,745	-200,000	0,039	-0,194
-280,730	800,000	-0,043	-0,087
-279,716	64,931	-0,092	-0,066
-278,701	40,382	0,083	-0,053
-277,686	-200,000	0,000	0,037
-276,672	238,495	0,042	0,050
-275,657	-200,000	0,014	0,086
-274,643	110,734	-0,126	0,108
-273,628	-200,000	-0,014	-0,093
-272,613	-96,569	-0,119	0,022
-271,599	-200,000	0,008	0,243
-270,584	44,863	0,125	0,082
-269,570	-200,000	0,007	0,093
-268,555	268,014	0,122	0,152
-267,540	-19,767	0,112	0,049
-266,526	208,655	-0,076	-0,085
-265,511	-5,934	-0,040	-0,019
-264,497	-200,000	0,001	0,171
-263,482	35,239	0,078	0,048
-262,467	-8,384	0,052	-0,025
-261,453	477,183	0,019	0,030
-260,438	233,040	-0,110	-0,129
-259,424	107,528	-0,134	-0,114
-258,409	-5,388	0,112	-0,055
-257,395	301,054	0,073	0,096
-256,380	-130,802	-0,040	-0,004
-255,365	-200,000	-0,014	0,066
-254,351	-200,000	-0,023	0,078
-253,336	-109,440	-0,099	-0,015
-252,322	800,000	-0,080	-0,183
-251,307	-200,000	0,019	0,111
-250,292	104,238	0,071	0,059
-249,278	551,023	-0,013	0,023
-248,263	339,629	-0,013	-0,018
-247,249	30,804	0,092	-0,056
-246,234	120,958	-0,039	0,034
-245,219	-119,499	-0,114	-0,014
-244,205	800,000	-0,021	-0,058
-243,190	-200,000	0,008	0,047
-242,176	-200,000	-0,031	-0,129
-241,161	800,000	0,015	0,032
-240,146	-200,000	-0,024	-0,128
-239,132	-165,694	-0,047	-0,001
-238,117	-63,032	-0,118	0,034
-237,103	-42,584	-0,105	-0,038
-236,088	-57,252	0,138	-0,043
-235,073	207,586	-0,028	-0,031
-234,059	439,397	0,026	0,041
-233,044	450,873	0,026	0,040
-232,030	135,686	-0,068	-0,063
-231,015	-200,000	0,030	-0,137
-230,000	-200,000	0,032	-0,105
-228,986	262,964	-0,069	0,085
-227,971	-200,000	0,005	0,083
-226,957	800,000	-0,077	0,159
-225,942	-200,000	0,008	-0,051
-224,927	-200,000	-0,021	0,100
-223,913	800,000	-0,048	-0,143
-222,898	83,220	-0,071	-0,055
-221,884	629,451	0,066	-0,119
-220,869	-12,914	0,126	-0,058
-219,855	561,453	0,037	-0,065
-218,840	-200,000	-0,003	0,041
-217,825	-200,000	0,005	0,043
-216,811	-200,000	0,016	-0,133
-215,796	174,756	-0,099	-0,102
-214,782	36,983	-0,092	0,058
-213,767	128,445	-0,052	0,047
-212,752	-1,434	0,065	0,032
-211,738	196,434	0,091	0,099
-210,723	97,482	0,082	0,066
-209,709	800,000	0,015	-0,041
-208,694	131,801	0,096	0,088
-207,679	28,049	-0,106	0,063
-206,665	-17,274	0,014	0,006
-205,650	92,266	0,121	0,097
-204,636	-200,000	0,015	-0,108
-203,621	-160,911	-0,227	-0,008
-202,606	74,220	-0,059	0,044
-201,592	-49,458	-0,102	-0,034
-200,577	445,108	0,056	0,088
-199,563	800,000	-0,037	-0,089
-198,548	-200,000	0,013	0,090
-197,533	-200,000	0,018	0,112
-196,519	-200,000	-0,045	0,146
-195,504	-109,811	0,039	-0,006
-194,490	268,178	-0,031	-0,039
-193,475	800,000	-0,037	0,076
-192,460	-200,000	-0,012	0,050
-191,446	-148,200	0,012	-0,001
-190,431	-200,000	0,008	0,081
-189,417	117,585	0,084	-0,073
-188,402	513,482	-0,041	-0,069
-187,387	-55,558	-0,141	0,045
-186,373	-85,145	-0,039	-0,009
-185,358	26,623	0,061	-0,036
-184,344	84,324	0,067	0,052
-183,329	800,000	0,029	0,076
-182,315	220,328	0,030	-0,034
-181,300	800,000	-0,048	0,094
-180,285	800,000	-0,047	-0,095
-179,271	-91,943	-0,076	-0,015
-178,256	415,679	0,085	0,129
-177,242	-200,000	0,025	0,125
-176,227	546,809	0,067	0,114
-175,212	190,151	-0,028	0,029
-174,198	-200,000	0,027	0,223
-173,183	-54,300	-0,146	0,047
-172,169	410,575	-0,058	-0,087
-171,154	21,733	-0,075	-0,043
-170,139	-200,000	0,008	0,044
-169,125	-23,565	0,113	-0,048
-168,110	800,000	-0,013	0,034
-167,096	41,783	0,095	-0,061
-166,081	37,861	-0,118	-0,074
-165,066	646,670	0,076	0,139
-164,052	-200,000	0,007	0,067
-163,037	73,141	-0,107	-0,079
-162,023	800,000	0,065	0,168
-161,008	-200,000	0,005	0,168
-159,993	89,898	-0,117	-0,093
-158,979	-89,157	-0,090	-0,019
-157,964	-140,476	-0,018	-0,001
-156,950	-200,000	0,001	-0,088
-155,935	-200,000	0,040	-0,139
-154,920	719,643	0,083	0,157
-153,906	6,654	-0,040	-0,021
-152,891	-200,000	0,001	0,049
-151,877	88,348	-0,109	-0,085
-150,862	-200,000	-0,005	0,132
-149,847	-14,161	0,015	-0,007
-148,833	155,090	0,018	0,017
-147,818	149,496	-0,119	-0,114
-146,804	-46,112	-0,067	0,023
-145,789	178,919	-0,027	0,028
-144,775	-75,715	-0,104	-0,026
-143,760	-200,000	0,017	-0,096
-142,745	-72,433	-0,136	0,035
-141,731	-200,000	0,022	-0,109
-140,716	-38,442	-0,110	-0,041
-139,702	165,355	-0,095	0,095
-138,687	9,570	0,086	-0,046
-137,672	800,000	-0,006	0,018
-136,658	160,514	0,101	-0,100
-135,643	-200,000	-0,011	0,055
-134,629	18,732	-0,162	-0,092
-133,614	-43,115	-0,034	-0,012
-132,599	412,648	-0,092	0,139
-131,585	-200,000	0,016	-0,136
-130,570	59,530	-0,084	0,058
-129,556	-74,773	-0,098	0,025
-128,541	465,215	-0,030	-0,048
-127,526	-61,050	-0,088	0,026
-126,512	12,419	-0,077	-0,042
-125,497	81,855	-0,012	0,009
-124,483	86,168	-0,025	0,019
-123,468	150,646	-0,085	0,081
-122,453	-50,873	-0,129	0,043
-121,439	-60,255	-0,184	0,055
-120,424	-142,930	0,084	0,006
-119,410	445,960	0,041	0,064
-118,395	7,703	-0,005	0,003
-117,380	800,000	0,040	0,102
-116,366	187,213	-0,100	0,105
-115,351	251,860	-0,047	-0,057
-114,337	-200,000	0,012	0,118
-113,322	-67,748	-0,173	-0,048
-112,307	-200,000	0,007	-0,051
-111,293	93,284	0,085	0,068
-110,278	399,471	0,057	0,085
-109,264	-200,000	0,019	-0,106
-108,249	385,353	-0,015	-0,023
-107,234	-88,127	-0,097	0,020
-106,220	297,199	-0,021	-0,027
-105,205	800,000	0,068	0,154
-104,191	-31,782	0,023	-0,009
-103,176	800,000	0,067	0,166
-102,162	800,000	-0,054	0,108
-101,147	-183,336	-0,132	0,002
-100,132	-38,506	-0,157	0,059
-99,118	800,000	0,055	-0,144
-98,103	-45,058	-0,085	-0,030
-97,089	676,992	0,050	-0,092
-96,074	734,656	-0,058	0,111
-95,059	-1,659	-0,058	0,029
-94,045	-12,316	-0,114	-0,052
-93,030	-200,000	0,004	-0,092
-92,016	-46,911	-0,073	-0,025
-91,001	94,999	0,047	-0,038
-89,986	193,724	-0,085	0,091
-88,972	32,264	-0,042	-0,025
-87,957	800,000	-0,036	0,098
-86,943	71,063	-0,016	-0,012
-85,928	800,000	0,072	0,155
-84,913	50,909	0,052	0,035
-83,899	-72,269	-0,107	0,028
-82,884	-122,808	0,021	-0,002
-81,870	-57,566	0,098	-0,030
-80,855	173,307	-0,062	0,063
-79,840	-66,652	0,029	-0,008
-78,826	800,000	-0,014	0,038
-77,811	-200,000	-0,032	-0,132
-76,797	244,929	-0,032	-0,038
-75,782	-155,912	0,081	-0,004
-74,767	-143,711	-0,070	0,005
-73,753	-45,090	0,091	0,032
-72,738	196,006	-0,144	0,155
-71,724	-200,000	-0,056	-0,238
-70,709	800,000	-0,061	-0,121
-69,694	800,000	0,067	-0,147
-68,680	-200,000	0,042	0,235
-67,665	174,841	-0,174	0,178
-66,651	-200,000	-0,016	0,153
-65,636	177,292	-0,070	0,072
-64,622	148,788	-0,132	-0,126
-63,607	-61,434	-0,049	0,015
-62,592	-200,000	-0,005	-0,062
-61,578	-74,170	0,145	0,037
-60,563	122,993	-0,078	0,069
-59,549	-45,548	-0,256	0,089
-58,534	51,823	-2,028	-1,360
-57,519	480,405	-1,219	-1,957
-56,505	-200,000	-0,372	-4,318
-55,490	684,347	0,932	1,724
-54,476	800,000	5,322	11,473
-53,461	-200,000	21,929	338,012
-52,446	800,000	758,956	2296,321
-51,432	533,012	1652,884	2771,917
-50,417	69,173	1650,573	1196,109
-49,403	16,589	1525,338	848,295
-48,388	10,785	1449,984	778,452
-47,373	19,125	1441,773	813,836
-46,359	14,135	1430,862	784,034
-45,344	9,055	1426,781	757,693
-44,330	9,009	1424,997	756,498
-43,315	8,958	1423,273	755,312
-42,300	9,002	1421,282	754,430
-41,286	9,068	1420,116	754,097
-40,271	9,003	1419,000	753,167
-39,257	8,976	1418,034	752,496
-38,242	9,049	1416,616	752,059
-37,227	9,043	1415,494	751,405
-36,213	8,985	1414,330	750,485
-35,198	9,026	1413,019	749,952
-34,184	9,115	1411,861	749,727
-33,169	8,952	1410,571	748,247
-32,154	9,023	1409,671	748,070
-31,140	8,964	1408,571	747,183
-30,125	9,039	1407,389	746,875
-29,111	8,979	1406,163	745,912
-28,096	8,950	1404,962	745,111
-27,082	8,955	1403,753	744,467
-26,067	8,940	1402,850	743,885
-25,052	8,918	1401,935	743,268
-24,038	8,953	1400,832	742,816
-23,023	8,988	1399,722	742,362
-22,009	8,964	1398,911	741,789
-20,994	8,967	1397,470	741,010
-19,979	8,964	1396,801	740,614
-18,965	8,912	1395,940	739,885
-17,950	8,909	1394,844	739,261
-16,936	8,865	1394,233	738,703
-15,921	8,870	1392,995	738,044
-14,906	8,866	1392,059	737,501
-13,892	8,885	1391,164	737,083
-12,877	8,905	1390,435	736,761
-11,863	8,901	1389,621	736,280
-10,848	8,843	1388,708	735,502
-9,833	8,813	1387,689	734,794
-8,819	8,757	1387,128	734,210
-7,804	8,755	1385,875	733,509
-6,790	8,777	1384,815	733,019
-5,775	8,775	1383,870	732,479
-4,760	8,812	1382,924	732,122
-3,746	8,819	1381,912	731,590
-2,731	8,822	1381,117	731,153
-1,717	8,820	1380,310	730,687
-0,702	8,798	1378,532	729,616
0,313	12,800	1289,961	700,925
1,327	28,789	682,074	406,477
2,342	44,364	117,541	75,959
3,356	-0,386	16,444	8,210
4,371	-1,809	3,797	1,878
5,386	-23,937	1,366	0,574
6,400	800,000	0,305	0,728
7,415	-90,415	-0,275	-0,056
8,429	52,206	-0,259	-0,174
9,444	107,461	-0,248	-0,208
10,459	220,322	-0,168	-0,190
11,473	214,096	-0,204	-0,228
12,488	-18,737	-0,262	-0,114
13,502	136,449	-0,215	-0,198
14,517	27,453	-0,418	-0,247
15,531	69,282	-0,428	-0,310
16,546	38,041	-0,360	-0,225
17,561	137,928	-0,314	-0,290
18,575	-73,110	-0,332	0,085
19,590	101,452	-0,253	-0,207
20,604	-120,098	-0,253	-0,030
21,619	66,272	-0,396	-0,283
22,634	77,797	-0,514	-0,385
23,648	112,704	-0,339	-0,289
24,663	23,081	-0,491	-0,283
25,677	79,776	-0,322	-0,243
26,692	210,321	-0,323	-0,357
27,707	248,640	-0,197	-0,235
28,721	119,817	-0,224	-0,196
29,736	108,683	-0,319	-0,268
30,750	124,054	-0,304	-0,268
31,765	72,551	-0,413	-0,302
32,780	92,706	-0,329	-0,261
33,794	119,703	-0,366	-0,319
34,809	81,045	-0,307	-0,233
35,823	116,639	-0,427	-0,368
36,838	2,012	-0,314	-0,159
37,853	95,560	-0,394	-0,316
38,867	177,368	-0,302	-0,310
39,882	179,646	-0,282	-0,290
40,896	79,122	-0,311	-0,234
41,911	261,171	-0,284	-0,346
42,926	-46,544	-0,412	-0,141
43,940	157,578	-0,289	-0,282
44,955	9,768	-0,375	-0,199
45,969	45,291	-0,343	-0,222
46,984	199,835	-0,227	-0,245
47,999	237,236	-0,226	-0,263
49,013	84,477	-0,257	-0,197
50,028	120,658	-0,275	-0,240
51,042	23,523	-0,346	-0,199
52,057	215,180	-0,262	-0,292
53,071	137,911	-0,346	-0,318
54,086	95,981	-0,290	-0,233
55,101	61,738	-0,358	-0,250
56,115	44,482	-0,314	-0,202
57,130	-11,899	-0,295	-0,135
58,144	62,173	-0,395	-0,276
59,159	103,279	-0,362	-0,298
60,174	261,330	-0,240	-0,292
61,188	-27,665	-0,372	-0,151
62,203	600,438	-0,171	-0,299
63,217	9,896	-0,426	-0,226
64,232	173,630	-0,349	-0,354
65,247	12,047	-0,262	-0,141
66,261	177,650	-0,280	-0,286
67,276	7,645	-0,335	-0,175
68,290	-39,318	-0,341	-0,125
69,305	-169,611	-0,395	-0,010
70,320	0,114	-0,314	-0,156
71,334	-55,705	-0,319	-0,099
72,349	60,666	-0,405	-0,281
73,363	-37,760	-0,353	-0,131
74,378	63,509	-0,315	-0,221
75,393	4,426	-0,259	-0,133
76,407	114,388	-0,277	-0,236
77,422	-1,408	-0,180	-0,088
78,436	-33,197	-0,243	-0,094
79,451	63,274	-0,394	-0,276
80,466	134,703	-0,292	-0,265
81,480	-82,478	-0,154	-0,035
82,495	56,711	-0,296	-0,202
83,509	-75,989	-0,367	-0,090
84,524	-38,525	-0,261	-0,096
85,539	-50,839	-0,366	-0,120
86,553	-43,398	-0,347	-0,122
87,568	-19,749	-0,290	-0,125
88,582	6,447	-0,344	-0,178
89,597	210,684	-0,227	-0,250
90,611	22,107	-0,276	-0,157
91,626	42,809	-0,228	-0,145
92,641	3,910	-0,183	-0,093
93,655	-60,700	-0,274	-0,081
94,670	220,859	-0,283	-0,318
95,684	124,590	-0,280	-0,246
96,699	120,714	-0,242	-0,210
97,714	66,679	-0,182	-0,129
98,728	55,792	-0,293	-0,198
99,743	-8,783	-0,274	-0,128
100,757	298,221	-0,179	-0,231
101,772	-50,887	-0,308	-0,101
102,787	52,326	-0,223	-0,148
103,801	54,514	-0,256	-0,172
104,816	-8,195	-0,274	-0,128
105,830	7,084	-0,259	-0,135
106,845	-29,613	-0,180	-0,072
107,860	-58,819	-0,225	-0,068
108,874	86,432	-0,242	-0,186
109,889	194,553	-0,310	-0,329
110,903	308,810	-0,219	-0,287
111,918	80,467	-0,357	-0,268
112,933	-34,222	-0,174	-0,067
113,947	17,072	-0,270	-0,149
114,962	325,417	-0,128	-0,171
115,976	-117,963	-0,378	-0,047
116,991	261,571	-0,211	-0,255
118,006	128,073	-0,241	-0,214
119,020	53,061	-0,214	-0,143
120,035	94,264	-0,191	-0,152
121,049	42,764	-0,184	-0,117
122,064	291,374	-0,131	-0,166
123,079	-147,318	-0,299	-0,017
124,093	33,431	-0,289	-0,175
125,108	-21,899	-0,237	-0,100
126,122	-9,022	-0,350	-0,163
127,137	18,403	-0,235	-0,130
128,151	-13,700	-0,159	-0,072
129,166	-82,324	-0,371	-0,083
130,181	-126,934	-0,328	-0,033
131,195	97,101	-0,357	-0,285
132,210	227,885	-0,263	-0,299
133,224	143,445	-0,331	-0,308
134,239	-49,925	-0,212	-0,070
135,254	-90,560	-0,213	-0,043
136,268	-16,651	-0,258	-0,114
137,283	-13,597	-0,185	-0,083
138,297	240,331	-0,127	-0,147
139,312	63,021	-0,267	-0,186
140,327	365,254	-0,174	-0,245
141,341	227,205	-0,258	-0,293
142,356	61,848	-0,195	-0,135
143,370	-102,593	-0,131	-0,022
144,385	800,000	-0,148	-0,294
145,400	224,856	-0,233	-0,262
146,414	125,534	-0,382	-0,335
147,429	618,646	-0,145	-0,254
148,443	-57,166	-0,244	-0,074
149,458	-129,754	-0,242	-0,023
150,473	153,170	-0,206	-0,197
151,487	98,935	-0,165	-0,132
152,502	69,402	-0,204	-0,146
153,516	150,882	-0,253	-0,240
154,531	-24,137	-0,290	-0,120
155,546	113,071	-0,235	-0,198
156,560	-42,126	-0,309	-0,110
157,575	3,226	-0,339	-0,171
158,589	-24,192	-0,223	-0,092
159,604	94,976	-0,234	-0,185
160,619	103,303	-0,256	-0,209
161,633	196,272	-0,194	-0,206
162,648	101,685	-0,254	-0,206
163,662	-60,693	-0,132	-0,039
164,677	101,593	-0,195	-0,158
165,692	51,100	-0,228	-0,150
166,706	-57,327	-0,158	-0,048
167,721	1,723	-0,296	-0,148
168,735	355,959	-0,146	-0,203
169,750	20,225	-0,208	-0,116
170,764	52,542	-0,215	-0,142
171,779	25,217	-0,143	-0,082
172,794	-54,693	-0,262	-0,082
173,808	-82,631	-0,270	-0,060
174,823	-10,644	-0,140	-0,064
175,837	-34,409	-0,319	-0,121
176,852	55,524	-0,250	-0,168
177,867	-200,000	0,003	-0,088
178,881	-139,572	-0,163	-0,012
179,896	36,662	-0,106	-0,065
180,910	45,352	-0,198	-0,126
181,925	203,719	-0,240	-0,258
182,940	-17,197	-0,253	-0,110
183,954	558,794	-0,108	-0,182
184,969	199,051	-0,168	-0,179
185,983	55,660	-0,137	-0,092
186,998	-21,652	-0,118	-0,050
188,013	-1,737	-0,272	-0,132
189,027	800,000	-0,092	-0,227
190,042	501,230	-0,212	-0,341
191,056	116,703	-0,276	-0,234
192,071	800,000	-0,122	-0,240
193,086	216,266	-0,217	-0,239
194,100	7,008	-0,183	-0,094
195,115	-92,809	-0,334	-0,064
196,129	210,039	-0,137	-0,149
197,144	124,857	-0,166	-0,145
198,159	202,119	-0,231	-0,247
199,173	-42,618	-0,303	-0,106
200,188	-67,875	-0,234	-0,063
201,202	-0,021	-0,159	-0,078
202,217	-43,177	-0,115	0,040
203,232	-34,673	-0,258	-0,097
204,246	-70,936	-0,308	-0,080
205,261	-200,000	-0,029	-0,165
206,275	589,684	-0,163	-0,279
207,290	78,012	-0,171	-0,126
208,304	-109,367	-0,159	-0,023
209,319	112,842	-0,194	-0,162
210,334	81,289	-0,187	-0,140
211,348	-33,635	-0,253	-0,096
212,363	82,926	-0,205	-0,154
213,377	-65,231	-0,183	-0,051
214,392	235,394	-0,160	-0,183
215,407	-200,000	0,013	-0,075
216,421	63,279	-0,133	-0,092
217,436	52,985	-0,252	-0,166
218,450	34,540	-0,274	-0,165
219,465	90,406	-0,284	-0,220
220,480	227,677	-0,067	-0,075
221,494	-62,993	-0,264	-0,075
222,509	94,769	-0,119	-0,093
223,523	-79,321	-0,085	0,020
224,538	52,583	-0,153	-0,101
225,553	-96,743	-0,261	-0,047
226,567	115,058	-0,323	-0,272
227,582	113,706	-0,125	-0,105
228,596	123,775	-0,138	-0,120
229,611	-14,477	-0,182	-0,081
230,626	206,653	-0,156	-0,168
231,640	198,789	-0,139	-0,148
232,655	-20,878	-0,207	-0,087
233,669	84,159	-0,190	-0,143
234,684	-14,151	-0,207	-0,092
235,699	800,000	-0,091	-0,253
236,713	-113,146	-0,209	-0,028
237,728	-63,187	-0,304	-0,086
238,742	800,000	-0,061	-0,158
239,757	174,832	-0,185	-0,185
240,772	146,752	-0,106	-0,099
241,786	403,975	-0,132	-0,192
242,801	-108,053	-0,303	-0,045
243,815	238,854	-0,166	-0,191
244,830	785,288	-0,062	-0,119
245,844	-178,990	-0,258	-0,004
246,859	-3,319	-0,225	-0,108
247,874	600,565	-0,110	-0,189
248,888	158,205	-0,181	-0,173
249,903	24,033	-0,249	-0,141
250,917	-41,139	-0,169	-0,060
251,932	247,049	-0,189	-0,220
252,947	233,369	-0,127	-0,144
253,961	-82,069	-0,225	-0,050
254,976	58,127	-0,195	-0,132
255,990	330,027	-0,106	-0,141
257,005	260,120	-0,120	-0,143
258,020	800,000	-0,042	0,086
259,034	-54,066	-0,174	0,054
260,049	-13,045	-0,152	-0,068
261,063	19,323	-0,214	-0,118
262,078	88,932	-0,240	-0,184
263,093	-17,294	-0,218	-0,094
264,107	-8,024	-0,253	-0,117
265,122	68,381	-0,195	-0,138
266,136	-25,110	-0,059	-0,024
267,151	186,559	-0,166	-0,170
268,166	198,913	-0,112	-0,118
269,180	-17,703	-0,130	-0,056
270,195	800,000	-0,089	-0,230
271,209	-5,159	-0,266	-0,126
272,224	108,292	-0,212	-0,174
273,239	102,619	-0,013	-0,010
274,253	-0,164	-0,190	-0,093
275,268	-72,018	-0,210	-0,053
276,282	28,564	-0,198	-0,115
277,297	33,110	-0,239	-0,142
278,312	115,123	-0,166	-0,139
279,326	400,474	-0,164	-0,238
280,341	-20,470	-0,192	-0,081
281,355	-200,000	-0,030	-0,200
282,370	-98,308	-0,205	-0,036
283,384	538,215	-0,136	-0,223
284,399	-88,119	-0,320	-0,065
285,414	98,390	-0,201	-0,159
286,428	-30,759	-0,278	-0,107
287,443	94,711	-0,169	-0,132
288,457	-118,402	-0,111	-0,013
289,472	-41,073	-0,158	-0,056
290,487	-126,959	-0,172	0,017
291,501	99,521	-0,215	-0,171
292,516	44,467	-0,216	-0,136
293,530	-63,963	-0,159	-0,044
294,545	-56,371	-0,132	-0,040
295,560	24,428	-0,181	-0,103
296,574	522,920	-0,069	-0,112
297,589	-135,950	-0,119	-0,010
298,603	786,613	-0,110	-0,208
299,618	32,995	-0,219	-0,130
300,633	199,178	-0,173	-0,182
301,647	-108,195	-0,128	-0,019
302,662	-200,000	-0,042	-0,160
303,676	161,489	-0,046	-0,044
304,691	194,113	-0,190	-0,198
305,706	258,811	-0,090	-0,107
306,720	800,000	-0,112	-0,218
307,735	-10,211	-0,117	0,053
308,749	299,782	-0,106	-0,134
309,764	-168,704	-0,128	-0,003
310,779	-39,201	-0,030	-0,011
311,793	-32,714	-0,150	0,057
312,808	-111,405	-0,262	-0,036
313,822	6,111	-0,167	-0,085
314,837	-7,888	-0,201	-0,093
315,852	38,146	-0,150	0,092
316,866	-200,000	-0,024	-0,091
317,881	212,587	-0,108	-0,117
318,895	-29,172	-0,198	-0,077
319,910	-200,000	-0,205	-0,000
320,925	161,904	-0,143	-0,138
321,939	-111,233	-0,107	-0,015
322,954	146,251	-0,139	-0,128
323,968	163,353	-0,146	-0,141
324,983	800,000	-0,073	-0,140
325,997	-99,998	-0,085	0,014
327,012	81,352	-0,186	-0,138
328,027	203,501	-0,062	0,065
329,041	88,975	-0,212	-0,162
330,056	-0,023	-0,059	-0,029
331,070	26,905	-0,182	-0,104
332,085	-89,496	-0,132	0,026
333,100	-19,996	-0,211	-0,089
334,114	181,849	-0,224	-0,226
335,129	800,000	-0,089	-0,189
336,143	800,000	-0,054	-0,134
337,158	-91,508	-0,105	-0,020
338,173	-200,000	0,016	-0,152
339,187	-200,000	-0,040	-0,171
340,202	312,145	-0,233	-0,300
341,216	-24,188	-0,182	-0,074
342,231	-200,000	-0,031	-0,140
343,246	800,000	-0,092	-0,189
344,260	519,416	-0,081	-0,131
345,275	-87,474	-0,070	-0,014
346,289	-161,338	-0,043	0,001
347,304	-176,939	-0,075	0,001
348,319	800,000	-0,051	-0,113
349,333	240,515	-0,140	-0,160
350,348	324,356	-0,207	-0,271
351,362	-88,578	-0,148	-0,030
352,377	-10,495	-0,132	0,059
353,392	-88,022	-0,166	-0,034
354,406	151,031	0,070	-0,065
355,421	207,981	1307,103	1397,664
356,435	160,023	1466,834	1398,134
