DTS Sentinel unit serial number:	SN410029Multiplexer serial number:	ORYXHardware model number:	OX2-SRSoftware version number:	ORYX F/W v4,00 Oryx Data Collector v3.7.2.0data status	okinstallation	B3 Nyhavnadifferential loss correction	single-endedforward channel	channel 1reverse channel	N/Adate	2023/11/30time	12:07:30forward acquisition time	300,00reverse acquisition time	0,00gamma	499,1914k internal	0,3212k external	0,3212temperature offset calibration	1,0000default loss term (dB/km)	0,3820temperature slope calibration	1,0000multiplexer offset coefficient	1,0000multiplexer slope coefficient	1,0000fibre end	0,00T internal ref (°C)	9,50T ext. ref 1 (°C)	-4,98T ext. ref 2 (°C)	-5,05length (m)	temperature (°C)	Stokes	anti-Stokes-744,400	80,924	-0,206	-0,161
-743,385	-200,000	0,024	0,243
-742,371	-83,721	-0,163	-0,037
-741,356	800,000	0,102	0,267
-740,342	26,724	-0,182	-0,110
-739,327	-200,000	-0,039	0,262
-738,312	800,000	-0,136	-0,287
-737,298	-200,000	-0,051	0,180
-736,283	549,576	-0,166	-0,290
-735,269	-200,000	0,063	0,234
-734,254	141,101	-0,306	-0,293
-733,239	-40,757	-0,284	0,106
-732,225	276,712	-0,137	-0,177
-731,210	800,000	0,088	0,228
-730,196	-71,263	-0,107	-0,029
-729,181	-91,400	0,190	0,039
-728,167	34,737	-0,060	-0,038
-727,152	119,084	0,104	-0,093
-726,137	-126,738	-0,220	0,023
-725,123	445,219	0,052	0,084
-724,108	-49,121	-0,165	-0,057
-723,094	-200,000	0,006	-0,078
-722,079	179,242	0,020	-0,022
-721,064	117,741	0,043	-0,039
-720,050	-200,000	0,011	0,154
-719,035	-130,029	-0,140	-0,014
-718,021	800,000	-0,041	-0,086
-717,006	312,383	-0,113	-0,154
-715,991	-55,523	-0,153	-0,049
-714,977	-200,000	0,005	0,057
-713,962	2,129	-0,080	0,042
-712,948	114,543	0,077	0,068
-711,933	55,554	0,117	0,082
-710,918	800,000	0,024	-0,078
-709,904	81,102	-0,135	-0,105
-708,889	-200,000	0,030	-0,125
-707,875	800,000	-0,034	-0,099
-706,860	-150,538	-0,072	0,004
-705,845	-33,895	0,061	-0,024
-704,831	65,335	0,077	-0,057
-703,816	-46,711	-0,120	0,042
-702,802	-200,000	0,029	-0,169
-701,787	-31,927	-0,095	-0,038
-700,772	-83,617	0,036	-0,008
-699,758	158,835	0,152	-0,153
-698,743	-200,000	-0,059	0,209
-697,729	254,041	-0,122	0,151
-696,714	-151,835	0,192	-0,010
-695,699	400,874	-0,077	0,118
-694,685	-118,278	0,010	0,001
-693,670	-200,000	-0,042	-0,145
-692,656	-200,000	-0,008	0,040
-691,641	-200,000	0,017	-0,078
-690,627	131,474	0,081	-0,075
-689,612	-200,000	0,002	0,066
-688,597	609,870	-0,036	0,066
-687,583	-200,000	0,011	0,078
-686,568	-46,727	-0,046	-0,016
-685,554	-200,000	0,026	-0,108
-684,539	800,000	0,015	0,043
-683,524	-75,467	-0,145	0,037
-682,510	287,572	-0,024	-0,031
-681,495	-5,153	0,045	-0,022
-680,481	72,939	-0,091	0,069
-679,466	46,712	-0,087	0,058
-678,451	-23,053	-0,118	-0,051
-677,437	472,760	-0,049	0,081
-676,422	-143,706	-0,090	0,006
-675,408	42,982	-0,025	0,016
-674,393	800,000	-0,068	-0,157
-673,378	-154,209	-0,209	-0,010
-672,364	800,000	-0,032	-0,070
-671,349	-200,000	-0,001	0,079
-670,335	-86,966	0,135	-0,030
-669,320	99,700	-0,056	-0,047
-668,305	-69,417	-0,130	0,036
-667,291	-118,249	0,066	0,008
-666,276	-200,000	-0,006	0,052
-665,262	-200,000	-0,040	-0,192
-664,247	-28,294	-0,088	0,037
-663,232	-200,000	0,009	0,042
-662,218	-38,701	-0,155	0,059
-661,203	131,040	-0,030	-0,027
-660,189	9,478	0,116	-0,063
-659,174	-60,138	-0,208	-0,064
-658,159	800,000	-0,044	-0,106
-657,145	-200,000	-0,026	-0,179
-656,130	-9,682	0,074	-0,035
-655,116	-200,000	0,017	-0,070
-654,101	377,697	0,025	0,036
-653,086	-200,000	-0,007	-0,061
-652,072	800,000	-0,066	-0,180
-651,057	4,850	-0,074	-0,039
-650,043	-174,354	-0,094	-0,002
-649,028	693,797	-0,033	-0,062
-648,014	800,000	-0,025	-0,056
-646,999	800,000	-0,048	-0,128
-645,984	28,224	-0,083	-0,051
-644,970	16,467	0,043	-0,025
-643,955	800,000	0,026	-0,057
-642,941	800,000	-0,030	-0,073
-641,926	-103,178	0,089	-0,015
-640,911	424,215	-0,034	0,053
-639,897	173,393	-0,037	0,038
-638,882	21,609	0,115	0,068
-637,868	800,000	0,024	-0,071
-636,853	150,048	0,077	-0,076
-635,838	-17,289	-0,209	-0,094
-634,824	135,751	0,094	0,089
-633,809	-200,000	0,012	0,078
-632,795	800,000	0,082	-0,201
-631,780	-108,694	0,065	0,010
-630,765	-69,579	-0,124	-0,034
-629,751	800,000	0,062	-0,163
-628,736	-200,000	0,010	-0,074
-627,722	800,000	-0,017	-0,046
-626,707	250,874	-0,084	-0,103
-625,692	482,126	0,014	0,023
-624,678	-200,000	0,048	-0,201
-623,663	-113,335	-0,197	-0,028
-622,649	-50,926	-0,148	-0,050
-621,634	165,341	0,061	-0,063
-620,619	-200,000	-0,009	-0,043
-619,605	-200,000	0,023	-0,093
-618,590	576,552	-0,047	0,084
-617,576	-200,000	0,008	0,147
-616,561	800,000	-0,045	0,135
-615,546	-100,320	-0,073	-0,013
-614,532	-121,971	-0,032	0,004
-613,517	-39,062	-0,166	-0,063
-612,503	-189,852	0,070	0,001
-611,488	-158,169	0,153	-0,006
-610,474	-57,153	-0,086	0,027
-609,459	-200,000	-0,013	0,113
-608,444	-66,426	-0,060	0,017
-607,430	-200,000	-0,012	-0,150
-606,415	-48,440	-0,039	0,013
-605,401	-65,510	-0,104	0,030
-604,386	48,854	0,019	0,013
-603,371	-9,326	0,140	0,067
-602,357	800,000	0,027	-0,061
-601,342	-96,897	-0,025	-0,005
-600,328	183,630	0,028	-0,030
-599,313	-200,000	0,011	-0,058
-598,298	-111,347	0,073	0,011
-597,284	-200,000	0,025	-0,206
-596,269	120,619	-0,047	-0,042
-595,255	-68,025	0,081	-0,023
-594,240	-124,982	-0,117	0,013
-593,225	369,488	-0,065	0,095
-592,211	25,930	-0,146	-0,087
-591,196	61,710	-0,083	0,060
-590,182	8,491	0,114	0,062
-589,167	-200,000	0,008	-0,067
-588,152	438,390	-0,055	0,087
-587,138	-200,000	-0,005	0,035
-586,123	-200,000	0,003	0,054
-585,109	-200,000	0,002	-0,034
-584,094	540,529	0,041	-0,070
-583,079	-119,938	0,072	0,009
-582,065	800,000	-0,027	0,059
-581,050	42,654	0,093	0,061
-580,036	-19,422	0,092	-0,041
-579,021	472,794	-0,046	0,075
-578,006	800,000	-0,030	0,076
-576,992	338,079	-0,059	-0,083
-575,977	-200,000	0,020	-0,149
-574,963	-124,500	0,024	0,003
-573,948	239,546	0,089	0,106
-572,934	-74,147	0,090	0,023
-571,919	49,556	-0,051	-0,034
-570,904	616,604	0,050	-0,091
-569,890	800,000	-0,033	-0,080
-568,875	-60,517	0,015	0,004
-567,861	201,804	-0,162	0,180
-566,846	80,569	0,050	0,039
-565,831	-112,292	-0,185	0,026
-564,817	-88,753	-0,118	0,025
-563,802	308,356	0,048	-0,065
-562,788	376,139	-0,101	-0,150
-561,773	800,000	0,041	-0,116
-560,758	-126,216	0,040	0,004
-559,744	-109,710	-0,016	0,002
-558,729	521,534	0,061	0,103
-557,715	6,180	-0,079	0,042
-556,700	-200,000	-0,029	-0,103
-555,685	800,000	-0,069	-0,164
-554,671	287,204	-0,060	-0,078
-553,656	76,918	0,135	-0,103
-552,642	-150,139	-0,042	0,002
-551,627	512,466	-0,021	-0,036
-550,612	-200,000	-0,003	-0,126
-549,598	-110,658	-0,146	-0,021
-548,583	5,578	-0,131	-0,070
-547,569	800,000	-0,035	0,079
-546,554	-200,000	0,003	0,058
-545,539	-200,000	0,001	0,148
-544,525	762,672	-0,028	-0,056
-543,510	93,160	-0,062	-0,051
-542,496	467,437	-0,063	0,102
-541,481	-81,683	0,058	0,014
-540,466	115,999	-0,082	-0,073
-539,452	-97,566	0,140	0,026
-538,437	461,762	0,009	0,015
-537,423	-80,670	-0,143	-0,034
-536,408	-117,516	0,114	-0,015
-535,393	-23,623	-0,136	-0,058
-534,379	180,155	0,067	-0,071
-533,364	9,618	-0,096	-0,052
-532,350	408,564	0,102	0,155
-531,335	-20,876	0,113	-0,050
-530,321	137,962	-0,022	0,020
-529,306	-200,000	-0,004	0,029
-528,291	-110,297	-0,068	-0,010
-527,277	-134,191	-0,129	0,011
-526,262	800,000	0,029	-0,060
-525,248	-105,351	0,029	0,005
-524,233	129,285	-0,053	0,049
-523,218	195,351	-0,066	-0,072
-522,204	-72,438	0,061	0,016
-521,189	-101,842	0,160	-0,028
-520,175	55,761	-0,108	-0,075
-519,160	30,897	-0,065	0,040
-518,145	-200,000	-0,016	0,072
-517,131	800,000	0,082	0,168
-516,116	89,215	0,074	-0,059
-515,102	-200,000	-0,035	-0,160
-514,087	-4,926	-0,113	0,056
-513,072	-12,449	-0,073	-0,034
-512,058	563,354	0,031	0,053
-511,043	-95,303	-0,043	0,008
-510,029	116,308	0,096	0,085
-509,014	82,312	0,133	0,104
-507,999	-200,000	-0,002	-0,067
-506,985	-200,000	0,001	0,074
-505,970	126,305	0,022	-0,020
-504,956	-200,000	0,025	-0,084
-503,941	14,418	-0,034	-0,019
-502,926	201,049	-0,014	0,015
-501,912	-200,000	-0,015	0,129
-500,897	19,324	0,075	0,043
-499,883	-55,225	-0,034	0,011
-498,868	-28,987	-0,034	-0,014
-497,853	-200,000	0,005	0,023
-496,839	-200,000	-0,010	-0,101
-495,824	344,380	0,119	0,168
-494,810	-200,000	0,002	0,037
-493,795	47,862	-0,043	-0,028
-492,781	-155,998	-0,210	0,009
-491,766	-200,000	0,013	0,088
-490,751	-17,248	-0,087	-0,039
-489,737	-5,710	-0,077	0,038
-488,722	-89,206	0,125	-0,026
-487,708	54,993	-0,034	0,024
-486,693	80,760	0,113	0,088
-485,678	97,720	0,072	-0,059
-484,664	176,061	-0,036	-0,037
-483,649	-200,000	-0,003	0,106
-482,635	404,468	0,033	0,050
-481,620	417,183	0,028	-0,043
-480,605	800,000	0,017	0,048
-479,591	117,831	-0,079	0,070
-478,576	122,089	0,019	-0,017
-477,562	-65,654	-0,168	0,048
-476,547	-200,000	-0,006	-0,120
-475,532	-200,000	-0,008	-0,105
-474,518	548,483	-0,042	0,073
-473,503	-200,000	0,007	0,073
-472,489	-91,051	0,006	0,001
-471,474	-130,727	0,088	-0,008
-470,459	43,577	-0,145	0,095
-469,445	-114,726	-0,094	-0,013
-468,430	73,548	-0,054	0,041
-467,416	-15,518	-0,049	-0,022
-466,401	29,252	0,066	-0,040
-465,386	-86,280	-0,073	-0,016
-464,372	160,887	-0,106	-0,106
-463,357	-200,000	-0,004	-0,038
-462,343	-200,000	0,001	-0,025
-461,328	164,157	0,006	-0,006
-460,313	-100,783	0,145	-0,025
-459,299	800,000	-0,024	0,049
-458,284	800,000	-0,009	0,025
-457,270	-48,014	-0,054	-0,019
-456,255	-200,000	-0,024	0,116
-455,241	-17,900	-0,064	-0,028
-454,226	-200,000	0,022	-0,143
-453,211	-200,000	-0,030	0,156
-452,197	-142,779	0,023	-0,002
-451,182	17,539	-0,118	-0,067
-450,168	44,788	-0,017	0,011
-449,153	58,192	0,121	-0,085
-448,138	-200,000	0,006	-0,094
-447,124	11,442	0,074	-0,041
-446,109	18,228	-0,052	0,030
-445,095	29,786	0,167	0,102
-444,080	-72,432	0,056	-0,015
-443,065	705,024	0,055	0,105
-442,051	-200,000	0,024	0,159
-441,036	189,564	-0,076	-0,081
-440,022	-194,426	0,022	0,000
-439,007	-134,454	0,082	-0,007
-437,992	214,561	-0,060	0,068
-436,978	-94,101	-0,089	0,017
-435,963	-200,000	-0,012	0,154
-434,949	-83,480	0,075	0,017
-433,934	-40,366	0,076	-0,028
-432,919	171,554	0,069	-0,071
-431,905	69,929	-0,039	0,029
-430,890	373,489	-0,026	0,038
-429,876	-200,000	-0,001	-0,093
-428,861	100,303	0,137	0,114
-427,846	53,779	-0,070	0,048
-426,832	-200,000	0,004	-0,111
-425,817	-200,000	0,052	-0,192
-424,803	800,000	0,021	-0,062
-423,788	-200,000	-0,001	-0,055
-422,773	-200,000	-0,000	-0,022
-421,759	616,307	0,038	0,068
-420,744	-35,078	-0,131	0,051
-419,730	-200,000	-0,014	-0,143
-418,715	3,637	-0,085	-0,044
-417,701	197,235	0,176	-0,193
-416,686	-159,132	0,097	-0,004
-415,671	265,099	0,073	0,091
-414,657	-200,000	-0,008	0,114
-413,642	800,000	-0,038	0,083
-412,628	-200,000	-0,013	-0,054
-411,613	800,000	-0,028	0,077
-410,598	-52,775	0,088	-0,029
-409,584	800,000	-0,022	-0,046
-408,569	105,215	0,120	0,101
-407,555	-114,230	0,155	-0,021
-406,540	-200,000	-0,017	0,090
-405,525	444,371	0,034	-0,053
-404,511	106,319	-0,021	-0,018
-403,496	-200,000	-0,003	0,144
-402,482	-168,003	-0,041	0,001
-401,467	-25,677	0,080	-0,034
-400,452	-200,000	-0,049	0,221
-399,438	467,240	0,071	-0,114
-398,423	44,303	0,083	0,054
-397,409	27,292	-0,089	0,053
-396,394	-148,254	-0,140	0,008
-395,379	-6,696	0,099	-0,048
-394,365	-120,211	-0,100	-0,012
-393,350	-122,129	0,213	-0,025
-392,336	800,000	0,036	0,106
-391,321	-200,000	-0,015	0,075
-390,306	-200,000	-0,011	-0,106
-389,292	9,575	-0,066	0,035
-388,277	-138,383	-0,058	-0,004
-387,263	800,000	-0,070	0,140
-386,248	-33,064	0,122	0,048
-385,233	-15,313	0,140	-0,064
-384,219	-78,240	-0,018	-0,004
-383,204	208,394	-0,105	-0,118
-382,190	31,589	-0,106	-0,065
-381,175	800,000	-0,040	-0,107
-380,160	555,526	0,046	0,079
-379,146	-4,535	0,102	0,050
-378,131	800,000	0,040	0,126
-377,117	-200,000	-0,018	-0,079
-376,102	676,872	-0,005	-0,009
-375,088	-200,000	0,014	0,095
-374,073	-200,000	0,037	0,164
-373,058	-200,000	0,015	0,102
-372,044	86,680	0,067	-0,053
-371,029	-200,000	-0,020	0,068
-370,015	800,000	0,022	0,068
-369,000	127,179	0,014	-0,013
-367,985	-200,000	0,026	-0,091
-366,971	800,000	-0,031	-0,072
-365,956	-63,695	0,037	0,011
-364,942	800,000	0,008	0,018
-363,927	-147,792	0,028	0,002
-362,912	-200,000	-0,002	0,068
-361,898	86,793	0,158	-0,124
-360,883	62,958	0,036	-0,026
-359,869	259,251	0,071	-0,088
-358,854	-16,205	0,112	0,051
-357,839	-32,424	0,168	0,067
-356,825	225,507	-0,100	0,116
-355,810	379,116	-0,039	-0,058
-354,796	342,759	-0,016	0,022
-353,781	-200,000	-0,025	-0,170
-352,766	-9,128	-0,025	0,012
-351,752	-200,000	0,091	0,000
-350,737	344,166	0,055	0,077
-349,723	-200,000	-0,014	0,088
-348,708	6,094	0,026	-0,014
-347,693	92,819	-0,024	0,019
-346,679	800,000	-0,055	-0,168
-345,664	273,943	-0,053	0,067
-344,650	395,422	-0,022	0,033
-343,635	-136,296	-0,041	0,003
-342,620	-144,066	-0,064	0,004
-341,606	-113,166	-0,047	0,007
-340,591	96,624	0,101	0,082
-339,577	-65,611	-0,046	-0,013
-338,562	-200,000	-0,004	-0,028
-337,548	39,756	0,059	-0,038
-336,533	-122,436	0,088	0,010
-335,518	-200,000	0,001	-0,015
-334,504	-40,174	0,048	0,018
-333,489	-200,000	0,006	0,047
-332,475	-200,000	-0,001	0,004
-331,460	290,066	-0,035	-0,046
-330,445	800,000	-0,033	0,087
-329,431	183,420	0,054	-0,057
-328,416	-58,669	-0,062	0,019
-327,402	240,627	0,070	0,083
-326,387	-13,737	-0,145	0,067
-325,372	-122,720	-0,033	-0,004
-324,358	324,650	0,039	-0,053
-323,343	800,000	-0,025	-0,072
-322,329	-200,000	-0,015	-0,099
-321,314	800,000	0,046	0,129
-320,299	-12,857	-0,098	-0,045
-319,285	-111,360	-0,128	0,018
-318,270	-0,808	0,077	0,039
-317,256	-159,820	-0,134	-0,005
-316,241	-200,000	-0,001	0,013
-315,226	77,747	0,050	-0,038
-314,212	-49,103	0,063	0,021
-313,197	701,575	0,036	0,067
-312,183	-156,584	0,107	0,005
-311,168	103,594	0,061	-0,051
-310,153	147,844	-0,052	-0,050
-309,139	-85,906	0,123	-0,027
-308,124	471,860	-0,023	0,037
-307,110	-65,210	0,187	0,053
-306,095	-200,000	-0,001	0,131
-305,080	213,888	0,137	0,154
-304,066	-74,050	-0,080	-0,021
-303,051	81,436	-0,128	0,099
-302,037	7,579	-0,054	0,029
-301,022	-170,177	0,068	-0,002
-300,008	-28,809	0,063	-0,026
-298,993	-200,000	-0,010	0,061
-297,978	-200,000	-0,006	0,121
-296,964	-45,207	0,077	0,027
-295,949	637,558	-0,064	-0,116
-294,935	800,000	-0,038	-0,106
-293,920	-200,000	-0,005	-0,037
-292,905	-14,004	0,178	-0,081
-291,891	-200,000	0,008	-0,026
-290,876	800,000	-0,025	0,076
-289,862	-200,000	0,016	-0,114
-288,847	208,564	-0,035	-0,039
-287,832	800,000	0,029	-0,084
-286,818	-122,096	0,117	-0,013
-285,803	-200,000	0,017	0,076
-284,789	191,310	0,093	0,100
-283,774	310,132	0,088	0,118
-282,759	163,740	-0,070	-0,070
-281,745	-200,000	-0,026	-0,105
-280,730	800,000	-0,048	0,149
-279,716	-200,000	0,028	-0,114
-278,701	5,868	0,084	-0,044
-277,686	-44,755	0,178	-0,063
-276,672	-200,000	0,019	0,170
-275,657	184,991	-0,073	0,077
-274,643	-72,785	-0,129	0,034
-273,628	258,191	0,043	0,053
-272,613	7,908	-0,067	0,036
-271,599	-100,638	-0,089	0,015
-270,584	800,000	0,030	0,063
-269,570	-200,000	0,015	0,057
-268,555	252,108	-0,116	-0,140
-267,540	107,239	0,027	-0,023
-266,526	-139,689	-0,144	0,011
-265,511	246,457	0,051	0,061
-264,497	-200,000	0,060	0,200
-263,482	-200,000	0,002	0,093
-262,467	-200,000	-0,044	-0,188
-261,453	49,626	-0,070	-0,047
-260,438	-106,439	-0,053	0,008
-259,424	-48,106	-0,034	-0,012
-258,409	283,783	-0,082	-0,106
-257,395	-25,224	0,054	0,022
-256,380	-200,000	-0,000	0,029
-255,365	-200,000	0,003	-0,031
-254,351	-46,271	-0,095	0,033
-253,336	-200,000	0,029	-0,131
-252,322	-200,000	0,015	0,067
-251,307	800,000	0,062	-0,158
-250,292	404,504	-0,075	0,113
-249,278	-40,858	0,122	0,045
-248,263	-200,000	0,011	-0,081
-247,249	-8,766	0,028	0,014
-246,234	-60,475	-0,043	-0,013
-245,219	81,471	-0,173	-0,133
-244,205	800,000	0,058	-0,135
-243,190	262,800	-0,050	0,061
-242,176	319,512	0,048	0,065
-241,161	298,493	-0,035	-0,045
-240,146	93,771	0,045	0,036
-239,132	-200,000	0,030	0,109
-238,117	0,366	-0,124	-0,063
-237,103	-65,833	-0,142	0,040
-236,088	181,727	0,093	-0,097
-235,073	-84,734	0,108	-0,024
-234,059	-65,735	0,050	0,014
-233,044	92,864	-0,062	0,050
-232,030	78,057	-0,014	-0,011
-231,015	800,000	0,030	0,061
-230,000	-137,280	-0,064	0,005
-228,986	54,721	0,095	0,065
-227,971	-68,261	0,142	-0,039
-226,957	800,000	-0,035	0,099
-225,942	-200,000	-0,001	-0,075
-224,927	107,757	0,009	0,007
-223,913	-200,000	-0,054	-0,230
-222,898	241,476	-0,068	-0,081
-221,884	-95,835	-0,020	0,004
-220,869	-164,913	0,077	0,002
-219,855	-200,000	-0,018	-0,062
-218,840	694,241	0,072	0,135
-217,825	195,901	-0,096	-0,104
-216,811	162,467	0,116	-0,116
-215,796	19,333	-0,079	-0,045
-214,782	602,768	-0,021	-0,037
-213,767	-35,134	0,110	-0,042
-212,752	-116,318	0,080	-0,010
-211,738	189,347	0,128	0,136
-210,723	-200,000	-0,035	0,149
-209,709	314,586	-0,096	-0,129
-208,694	800,000	-0,033	-0,070
-207,679	112,828	-0,097	-0,083
-206,665	86,781	0,026	0,021
-205,650	322,566	0,056	0,076
-204,636	-55,643	0,094	0,030
-203,621	374,614	-0,092	0,133
-202,606	-110,657	-0,062	0,009
-201,592	800,000	0,034	0,091
-200,577	-200,000	0,020	-0,137
-199,563	568,855	-0,047	-0,082
-198,548	-200,000	-0,009	0,242
-197,533	180,786	0,074	-0,077
-196,519	86,059	0,028	-0,022
-195,504	-200,000	-0,001	-0,082
-194,490	-74,477	-0,075	-0,019
-193,475	75,515	-0,114	-0,085
-192,460	-38,070	-0,115	0,043
-191,446	118,483	-0,124	-0,109
-190,431	195,386	-0,024	-0,025
-189,417	-200,000	0,000	-0,023
-188,402	132,496	-0,105	-0,096
-187,387	225,031	0,076	0,087
-186,373	40,749	0,029	-0,019
-185,358	638,520	-0,057	-0,103
-184,344	11,270	0,051	-0,028
-183,329	295,437	0,088	0,115
-182,315	800,000	0,014	0,035
-181,300	800,000	0,078	-0,158
-180,285	-7,736	-0,118	0,056
-179,271	-24,795	0,083	0,035
-178,256	-98,454	-0,111	-0,020
-177,242	-200,000	-0,002	-0,036
-176,227	34,401	0,045	0,028
-175,212	-117,157	-0,057	0,007
-174,198	785,248	-0,067	0,131
-173,183	-6,356	-0,038	-0,018
-172,169	341,756	0,042	0,058
-171,154	800,000	-0,054	0,128
-170,139	-200,000	0,018	0,093
-169,125	784,587	0,051	0,100
-168,110	-68,686	0,193	-0,053
-167,096	-200,000	0,020	-0,086
-166,081	22,725	0,150	0,087
-165,066	-200,000	0,006	0,074
-164,052	412,993	-0,051	-0,077
-163,037	-200,000	0,006	0,040
-162,023	-69,008	0,036	-0,010
-161,008	36,947	0,160	0,100
-159,993	800,000	-0,016	0,047
-158,979	59,247	-0,062	-0,043
-157,964	237,769	-0,067	0,079
-156,950	800,000	0,017	-0,042
-155,935	249,680	0,024	-0,028
-154,920	800,000	0,060	0,126
-153,906	-200,000	0,040	0,137
-152,891	89,077	-0,039	-0,031
-151,877	-200,000	-0,001	-0,041
-150,862	494,840	-0,036	-0,060
-149,847	800,000	-0,021	-0,061
-148,833	800,000	0,021	-0,063
-147,818	800,000	0,033	-0,069
-146,804	71,413	0,137	-0,101
-145,789	800,000	0,036	0,107
-144,775	-200,000	0,030	0,126
-143,760	105,592	-0,120	-0,101
-142,745	-200,000	0,004	-0,122
-141,731	-110,769	-0,014	-0,002
-140,716	71,530	-0,096	-0,071
-139,702	389,453	0,034	0,050
-138,687	-69,923	0,191	0,051
-137,672	-72,671	-0,091	-0,024
-136,658	649,108	-0,067	0,121
-135,643	-200,000	-0,011	-0,146
-134,629	-200,000	0,002	0,071
-133,614	-189,534	0,096	0,001
-132,599	305,921	0,030	-0,039
-131,585	-200,000	-0,024	0,142
-130,570	125,770	0,069	0,062
-129,556	-200,000	0,015	-0,114
-128,541	367,186	-0,088	0,126
-127,526	63,327	0,150	-0,106
-126,512	-200,000	0,056	0,178
-125,497	-200,000	-0,033	-0,142
-124,483	-5,903	0,054	0,026
-123,468	556,624	0,100	-0,171
-122,453	-51,601	-0,097	0,032
-121,439	800,000	-0,056	-0,126
-120,424	263,917	-0,025	-0,031
-119,410	-176,465	0,072	-0,001
-118,395	-200,000	-0,037	-0,125
-117,380	-200,000	0,002	-0,006
-116,366	680,861	0,079	0,147
-115,351	9,329	-0,153	0,082
-114,337	12,875	-0,054	-0,030
-113,322	204,057	0,091	-0,100
-112,307	-70,342	0,106	0,028
-111,293	-52,429	0,040	0,013
-110,278	516,236	0,021	-0,034
-109,264	64,374	0,054	0,038
-108,249	-49,342	-0,147	-0,049
-107,234	-29,659	-0,108	-0,043
-106,220	-124,359	-0,119	-0,013
-105,205	-6,105	0,035	0,017
-104,191	-107,210	-0,051	0,008
-103,176	-200,000	-0,010	0,103
-102,162	-200,000	0,014	-0,058
-101,147	335,265	0,039	0,053
-100,132	-106,033	-0,109	-0,017
-99,118	800,000	0,076	-0,162
-98,103	192,222	-0,097	-0,104
-97,089	270,769	0,070	0,087
-96,074	461,535	-0,023	0,037
-95,059	-200,000	0,011	-0,049
-94,045	-177,347	-0,129	0,002
-93,030	-78,351	-0,092	-0,022
-92,016	105,347	-0,040	-0,033
-91,001	-15,118	-0,041	0,018
-89,986	-75,903	0,120	-0,030
-88,972	308,660	0,068	0,090
-87,957	-138,544	-0,100	-0,008
-86,943	-200,000	-0,007	-0,155
-85,928	-200,000	0,007	-0,135
-84,913	-66,761	-0,095	0,026
-83,899	-200,000	0,012	0,078
-82,884	-54,726	-0,110	-0,035
-81,870	-105,609	0,033	0,005
-80,855	79,453	0,025	-0,019
-79,840	-155,324	-0,100	-0,004
-78,826	-129,810	0,034	0,003
-77,811	293,388	0,069	-0,089
-76,797	369,811	0,089	0,128
-75,782	-45,557	0,087	-0,030
-74,767	767,825	0,012	-0,023
-73,753	-200,000	0,004	0,100
-72,738	-200,000	-0,004	-0,079
-71,724	-20,286	-0,070	-0,030
-70,709	-152,916	0,119	0,006
-69,694	793,388	0,036	0,070
-68,680	-97,187	0,121	0,022
-67,665	-200,000	-0,004	0,063
-66,651	128,826	0,089	-0,080
-65,636	442,910	0,008	-0,013
-64,622	800,000	-0,036	-0,102
-63,607	-75,051	-0,122	0,031
-62,592	72,183	-0,068	0,050
-61,578	171,493	0,110	0,111
-60,563	10,443	0,100	0,054
-59,549	-200,000	0,003	0,180
-58,534	56,698	-2,094	-1,437
-57,519	589,390	-1,153	-2,014
-56,505	-200,000	-0,317	-4,494
-55,490	477,008	1,015	1,626
-54,476	800,000	5,081	11,207
-53,461	-200,000	21,673	343,354
-52,446	800,000	763,191	2342,905
-51,432	547,489	1662,717	2818,997
-50,417	71,625	1659,080	1214,794
-49,403	17,276	1532,522	855,761
-48,388	11,310	1456,395	784,426
-47,373	19,330	1448,074	818,358
-46,359	14,868	1436,870	790,808
-45,344	9,620	1432,769	763,559
-44,330	9,578	1430,851	762,303
-43,315	9,532	1429,173	761,160
-42,300	9,525	1427,465	760,187
-41,286	9,558	1426,196	759,638
-40,271	9,524	1425,033	758,831
-39,257	9,525	1423,772	758,133
-38,242	9,553	1422,576	757,596
-37,227	9,587	1421,630	757,225
-36,213	9,593	1420,162	756,440
-35,198	9,584	1418,995	755,748
-34,184	9,678	1418,066	755,665
-33,169	9,560	1416,719	754,363
-32,154	9,562	1415,807	753,857
-31,140	9,572	1414,454	753,153
-30,125	9,633	1413,243	752,764
-29,111	9,577	1412,121	751,871
-28,096	9,591	1410,966	751,293
-27,082	9,540	1409,852	750,431
-26,067	9,499	1408,915	749,714
-25,052	9,553	1407,717	749,297
-24,038	9,540	1406,677	748,654
-23,023	9,485	1405,808	747,905
-22,009	9,534	1404,820	747,579
-20,994	9,521	1403,826	746,957
-19,979	9,510	1403,042	746,461
-18,965	9,513	1401,912	745,844
-17,950	9,504	1400,924	745,244
-16,936	9,466	1400,043	744,572
-15,921	9,387	1399,283	743,772
-14,906	9,429	1398,392	743,463
-13,892	9,486	1397,224	743,074
-12,877	9,472	1396,478	742,584
-11,863	9,421	1395,880	742,002
-10,848	9,401	1394,823	741,315
-9,833	9,386	1393,891	740,725
-8,819	9,380	1392,974	740,177
-7,804	9,344	1392,089	739,513
-6,790	9,397	1390,938	739,116
-5,775	9,364	1389,810	738,338
-4,760	9,392	1389,017	738,014
-3,746	9,360	1387,952	737,272
-2,731	9,374	1387,149	736,881
-1,717	9,326	1386,475	736,273
-0,702	9,332	1384,685	735,319
0,313	13,443	1296,865	707,434
1,327	29,629	687,700	411,709
2,342	46,190	118,873	77,512
3,356	1,716	16,549	8,379
4,371	-0,054	3,680	1,841
5,386	8,109	1,102	0,581
6,400	-200,000	0,117	0,689
7,415	45,516	-0,167	-0,108
8,429	560,321	-0,151	-0,258
9,444	-22,571	-0,372	-0,158
10,459	-4,945	-0,326	-0,158
11,473	-58,378	-0,388	-0,118
12,488	-71,151	-0,338	-0,089
13,502	28,610	-0,297	-0,177
14,517	33,130	-0,293	-0,179
15,531	25,287	-0,448	-0,261
16,546	11,950	-0,334	-0,180
17,561	82,774	-0,169	-0,129
18,575	-200,000	-0,208	-0,001
19,590	138,027	-0,239	-0,220
20,604	-18,571	-0,201	-0,088
21,619	8,069	-0,420	-0,221
22,634	127,153	-0,490	-0,437
23,648	156,707	-0,334	-0,325
24,663	144,696	-0,327	-0,308
25,677	13,397	-0,508	-0,276
26,692	7,708	-0,284	-0,149
27,707	80,998	-0,295	-0,224
28,721	-31,892	-0,431	-0,169
29,736	76,387	-0,375	-0,279
30,750	280,320	-0,389	-0,490
31,765	27,525	-0,459	-0,271
32,780	-3,683	-0,320	-0,156
33,794	146,605	-0,265	-0,250
34,809	93,822	-0,288	-0,230
35,823	110,294	-0,271	-0,229
36,838	140,924	-0,402	-0,373
37,853	296,227	-0,228	-0,295
38,867	54,499	-0,358	-0,242
39,882	160,148	-0,252	-0,247
40,896	83,983	-0,295	-0,226
41,911	11,951	-0,378	-0,203
42,926	61,296	-0,308	-0,214
43,940	117,994	-0,264	-0,228
44,955	251,550	-0,270	-0,324
45,969	113,575	-0,241	-0,205
46,984	92,626	-0,379	-0,300
47,999	-36,036	-0,243	-0,092
49,013	124,283	-0,367	-0,324
50,028	96,327	-0,264	-0,212
51,042	131,031	-0,354	-0,319
52,057	168,963	-0,345	-0,346
53,071	159,350	-0,297	-0,290
54,086	116,682	-0,286	-0,246
55,101	62,107	-0,287	-0,201
56,115	63,703	-0,405	-0,285
57,130	15,873	-0,393	-0,216
58,144	62,410	-0,305	-0,214
59,159	105,896	-0,439	-0,365
60,174	150,179	-0,402	-0,383
61,188	111,669	-0,281	-0,238
62,203	77,841	-0,349	-0,261
63,217	3,779	-0,333	-0,170
64,232	276,784	-0,219	-0,274
65,247	208,246	-0,268	-0,294
66,261	24,558	-0,485	-0,281
67,276	99,282	-0,411	-0,333
68,290	156,535	-0,299	-0,289
69,305	-25,568	-0,258	-0,106
70,320	29,238	-0,310	-0,184
71,334	172,691	-0,162	-0,163
72,349	3,156	-0,373	-0,189
73,363	5,854	-0,375	-0,194
74,378	16,222	-0,259	-0,142
75,393	15,252	-0,250	-0,137
76,407	-10,238	-0,138	-0,064
77,422	23,651	-0,337	-0,194
78,436	-17,949	-0,281	-0,123
79,451	130,119	-0,267	-0,240
80,466	90,503	-0,281	-0,220
81,480	-8,347	-0,369	-0,173
82,495	24,177	-0,348	-0,200
83,509	-79,747	-0,264	-0,062
84,524	93,606	-0,223	-0,177
85,539	53,550	-0,330	-0,222
86,553	-37,580	-0,268	-0,100
87,568	-14,939	-0,317	-0,142
88,582	25,992	-0,321	-0,187
89,597	-8,681	-0,353	-0,165
90,611	1,034	-0,224	-0,112
91,626	54,848	-0,231	-0,156
92,641	226,271	-0,045	-0,051
93,655	56,479	-0,186	-0,126
94,670	83,064	-0,263	-0,200
95,684	75,085	-0,299	-0,220
96,699	114,296	-0,231	-0,196
97,714	70,306	-0,240	-0,174
98,728	18,784	-0,237	-0,132
99,743	226,461	-0,157	-0,178
100,757	-80,321	-0,219	-0,051
101,772	65,728	-0,290	-0,205
102,787	-7,573	-0,335	-0,158
103,801	-123,391	-0,330	-0,036
104,816	10,285	-0,275	-0,146
105,830	-43,031	-0,289	-0,102
106,845	-87,007	-0,205	-0,043
107,860	108,728	-0,212	-0,177
108,874	-2,414	-0,309	-0,151
109,889	-11,566	-0,138	-0,063
110,903	-4,078	-0,274	-0,132
111,918	39,614	-0,230	-0,144
112,933	800,000	-0,080	-0,193
113,947	388,303	-0,150	-0,217
114,962	83,732	-0,205	-0,156
115,976	57,691	-0,253	-0,173
116,991	5,328	-0,209	-0,108
118,006	62,618	-0,207	-0,144
119,020	47,384	-0,312	-0,202
120,035	39,102	-0,322	-0,201
121,049	-91,954	-0,219	-0,043
122,064	82,149	-0,088	-0,066
123,079	195,758	-0,245	-0,260
124,093	58,723	-0,359	-0,245
125,108	85,523	-0,278	-0,213
126,122	145,167	-0,304	-0,284
127,137	109,532	-0,239	-0,200
128,151	-35,554	-0,300	-0,113
129,166	56,221	-0,290	-0,196
130,181	114,114	-0,269	-0,228
131,195	181,805	-0,318	-0,327
132,210	-22,464	-0,318	-0,134
133,224	121,119	-0,190	-0,164
134,239	74,557	-0,288	-0,211
135,254	6,222	-0,176	-0,091
136,268	7,915	-0,251	-0,131
137,283	142,773	-0,284	-0,263
138,297	-7,077	-0,302	-0,142
139,312	69,829	-0,264	-0,189
140,327	-47,141	-0,170	-0,058
141,341	65,290	-0,145	-0,102
142,356	-100,428	-0,248	-0,042
143,370	14,503	-0,314	-0,170
144,385	91,461	-0,255	-0,200
145,400	107,183	-0,235	-0,194
146,414	100,311	-0,262	-0,212
147,429	-63,428	-0,211	-0,060
148,443	182,168	-0,217	-0,223
149,458	98,358	-0,260	-0,208
150,473	56,714	-0,241	-0,163
151,487	-14,001	-0,262	-0,117
152,502	100,021	-0,287	-0,231
153,516	220,629	-0,133	-0,149
154,531	175,328	-0,235	-0,237
155,546	25,234	-0,167	-0,096
156,560	-128,888	-0,196	-0,019
157,575	190,592	-0,193	-0,202
158,589	16,354	-0,223	-0,122
159,604	19,458	-0,239	-0,133
160,619	86,891	-0,342	-0,262
161,633	59,554	-0,291	-0,199
162,648	800,000	-0,178	-0,370
163,662	628,329	-0,063	-0,111
164,677	12,193	-0,250	-0,133
165,692	55,695	-0,165	-0,111
166,706	800,000	-0,113	-0,249
167,721	10,926	-0,144	-0,076
168,735	208,424	-0,380	-0,414
169,750	143,514	-0,217	-0,201
170,764	23,458	-0,194	-0,111
171,779	-67,036	-0,180	-0,049
172,794	142,312	-0,202	-0,186
173,808	-12,427	-0,274	-0,124
174,823	190,547	-0,140	-0,146
175,837	63,182	-0,318	-0,221
176,852	178,125	-0,222	-0,226
177,867	142,820	-0,183	-0,169
178,881	259,541	-0,187	-0,224
179,896	78,769	-0,238	-0,177
180,910	220,593	-0,151	-0,168
181,925	120,195	-0,330	-0,284
182,940	216,517	-0,258	-0,285
183,954	192,764	-0,160	-0,168
184,969	258,081	-0,189	-0,226
185,983	96,406	-0,217	-0,172
186,998	64,818	-0,211	-0,148
188,013	-186,779	-0,312	0,003
189,027	11,962	-0,262	-0,139
190,042	800,000	-0,086	-0,260
191,056	42,172	-0,191	-0,120
192,071	220,650	-0,139	-0,155
193,086	43,669	-0,120	-0,076
194,100	148,724	-0,185	-0,173
195,115	11,449	-0,317	-0,168
196,129	95,325	-0,278	-0,220
197,144	148,107	-0,236	-0,220
198,159	591,758	-0,144	-0,247
199,173	-72,427	-0,326	-0,083
200,188	800,000	-0,026	-0,067
201,202	110,353	-0,173	-0,144
202,217	73,498	-0,228	-0,165
203,232	460,177	-0,201	-0,311
204,246	80,399	-0,240	-0,179
205,261	8,546	-0,157	-0,082
206,275	116,872	-0,132	-0,112
207,290	-112,083	-0,144	-0,020
208,304	11,192	-0,190	-0,100
209,319	3,109	-0,144	-0,072
210,334	60,104	-0,187	-0,127
211,348	157,852	-0,169	-0,162
212,363	27,303	-0,256	-0,148
213,377	28,785	-0,167	-0,098
214,392	632,142	-0,120	-0,211
215,407	-26,718	-0,172	-0,069
216,421	105,122	-0,261	-0,213
217,436	33,428	-0,213	-0,128
218,450	48,011	-0,284	-0,184
219,465	227,097	-0,204	-0,229
220,480	-22,885	-0,175	-0,073
221,494	82,726	-0,110	-0,082
222,509	224,415	-0,125	-0,140
223,523	800,000	-0,090	-0,197
224,538	221,977	-0,059	-0,066
225,553	-178,705	-0,146	-0,002
226,567	193,040	-0,214	-0,224
227,582	-141,813	-0,185	-0,013
228,596	-18,964	-0,194	-0,083
229,611	7,540	-0,190	-0,098
230,626	-200,000	-0,072	-0,244
231,640	178,764	-0,138	-0,139
232,655	74,661	-0,053	0,038
233,669	800,000	-0,155	-0,296
234,684	304,377	-0,190	-0,244
235,699	146,102	-0,108	-0,101
236,713	167,669	-0,121	-0,119
237,728	1,140	-0,200	-0,099
238,742	25,756	-0,219	-0,125
239,757	-200,000	-0,059	-0,183
240,772	255,405	-0,221	-0,262
241,786	353,419	-0,097	-0,134
242,801	202,545	-0,100	-0,107
243,815	330,724	-0,169	-0,225
244,830	-61,115	-0,214	-0,062
245,844	47,611	-0,185	-0,119
246,859	33,794	-0,195	-0,117
247,874	465,453	-0,188	-0,292
248,888	136,215	-0,144	-0,130
249,903	-41,083	-0,189	-0,067
250,917	734,731	-0,070	-0,129
251,932	-89,748	-0,170	0,034
252,947	-44,301	-0,197	-0,068
253,961	84,129	-0,201	-0,151
254,976	85,128	-0,107	-0,081
255,990	202,219	-0,185	-0,197
257,005	0,406	-0,202	-0,099
258,020	-61,782	-0,107	0,031
259,034	110,434	-0,155	-0,129
260,049	800,000	-0,089	-0,183
261,063	282,559	-0,175	-0,217
262,078	62,228	-0,152	-0,105
263,093	416,704	-0,159	-0,235
264,107	53,962	-0,233	-0,154
265,122	15,897	-0,118	-0,064
266,136	-200,000	-0,057	-0,193
267,151	-141,271	-0,161	-0,011
268,166	33,800	-0,133	-0,080
269,180	-62,052	-0,249	-0,071
270,195	800,000	-0,066	-0,153
271,209	-14,721	-0,166	-0,073
272,224	40,954	-0,121	-0,075
273,239	-104,221	-0,108	-0,017
274,253	-135,571	-0,130	-0,010
275,268	-69,559	-0,211	0,055
276,282	20,064	-0,195	-0,108
277,297	78,263	-0,169	-0,124
278,312	49,385	-0,233	-0,151
279,326	9,797	-0,148	-0,077
280,341	-99,027	-0,231	0,040
281,355	-147,589	-0,136	-0,008
282,370	65,617	-0,199	-0,138
283,384	-32,059	-0,219	-0,084
284,399	150,368	-0,138	-0,129
285,414	100,319	-0,141	-0,112
286,428	-30,892	-0,200	-0,077
287,443	-98,942	-0,064	-0,011
288,457	800,000	-0,079	-0,158
289,472	212,796	-0,176	-0,192
290,487	-121,645	-0,176	-0,020
291,501	155,089	-0,220	-0,208
292,516	48,719	-0,074	-0,047
293,530	192,427	-0,115	-0,119
294,545	142,791	-0,133	-0,122
295,560	-200,000	0,020	-0,122
296,574	311,404	-0,056	0,072
297,589	299,105	-0,074	-0,094
298,603	251,765	-0,177	-0,207
299,618	410,743	-0,156	-0,228
300,633	-126,863	-0,182	0,018
301,647	-200,000	-0,011	-0,146
302,662	207,374	-0,052	-0,056
303,676	-100,305	-0,107	-0,018
304,691	8,597	-0,221	-0,114
305,706	208,916	-0,162	-0,174
306,720	419,379	-0,180	-0,265
307,735	687,274	-0,068	-0,122
308,749	-73,522	-0,070	-0,017
309,764	129,552	-0,075	-0,066
310,779	-69,121	-0,102	0,027
311,793	177,194	-0,129	-0,129
312,808	800,000	-0,083	-0,232
313,822	281,072	-0,194	-0,238
314,837	486,374	-0,085	-0,134
315,852	-200,000	-0,049	-0,170
316,866	-25,430	-0,071	-0,029
317,881	-9,356	-0,217	-0,099
318,895	-110,594	-0,143	0,020
319,910	645,515	-0,049	-0,086
320,925	800,000	-0,108	-0,225
321,939	-200,000	-0,001	-0,162
322,954	800,000	-0,094	-0,194
323,968	800,000	-0,046	-0,126
324,983	-200,000	0,011	-0,105
325,997	405,874	-0,158	-0,229
327,012	129,765	-0,198	-0,174
328,027	-54,223	-0,224	-0,069
329,041	56,861	-0,167	-0,112
330,056	-49,194	-0,169	-0,055
331,070	-13,437	-0,158	-0,070
332,085	-79,754	-0,254	-0,058
333,100	-200,000	-0,026	-0,124
334,114	172,508	-0,148	-0,146
335,129	743,803	-0,074	-0,136
336,143	-49,916	-0,125	0,040
337,158	150,625	-0,116	-0,108
338,173	34,807	-0,081	0,049
339,187	-82,700	-0,151	-0,033
340,202	80,233	-0,082	0,060
341,216	800,000	-0,059	-0,124
342,231	-114,314	-0,033	-0,004
343,246	566,556	-0,099	-0,165
344,260	-200,000	-0,029	-0,164
345,275	237,089	-0,070	-0,080
346,289	182,843	-0,100	-0,101
347,304	402,009	-0,114	-0,164
348,319	-200,000	-0,031	-0,104
349,333	-200,000	-0,049	-0,184
350,348	586,588	-0,070	-0,118
351,362	800,000	-0,043	-0,130
352,377	-200,000	-0,020	-0,063
353,392	-54,047	-0,178	-0,055
354,406	101,723	-0,087	-0,069
355,421	206,612	1310,632	1397,278
356,435	158,908	1470,817	1397,749
