DTS Sentinel unit serial number:	SN410029Multiplexer serial number:	ORYXHardware model number:	OX2-SRSoftware version number:	ORYX F/W v4,00 Oryx Data Collector v3.7.2.0data status	okinstallation	B3 Nyhavnadifferential loss correction	single-endedforward channel	channel 1reverse channel	N/Adate	2023/12/04time	18:37:30forward acquisition time	300,00reverse acquisition time	0,00gamma	499,1914k internal	0,3200k external	0,3200temperature offset calibration	1,0000default loss term (dB/km)	0,3820temperature slope calibration	1,0000multiplexer offset coefficient	1,0000multiplexer slope coefficient	1,0000fibre end	0,00T internal ref (°C)	14,92T ext. ref 1 (°C)	-0,31T ext. ref 2 (°C)	-0,32length (m)	temperature (°C)	Stokes	anti-Stokes-744,400	800,000	-0,126	-0,262
-743,385	-200,000	-0,012	0,210
-742,371	-200,000	-0,088	-0,301
-741,356	-200,000	-0,017	0,366
-740,342	158,482	-0,093	-0,094
-739,327	800,000	-0,078	0,189
-738,312	-200,000	-0,034	-0,286
-737,298	-200,000	0,013	0,226
-736,283	484,060	-0,135	-0,225
-735,269	-200,000	0,065	0,293
-734,254	38,736	-0,277	-0,179
-733,239	642,981	-0,103	0,192
-732,225	-200,000	0,004	-0,112
-731,210	-200,000	0,000	0,072
-730,196	83,396	-0,021	0,017
-729,181	11,214	0,084	-0,047
-728,167	144,189	-0,049	0,048
-727,152	-200,000	-0,035	-0,135
-726,137	-200,000	-0,025	-0,094
-725,123	-26,002	-0,159	-0,068
-724,108	-200,000	-0,071	-0,255
-723,094	224,974	-0,123	-0,145
-722,079	-70,935	-0,102	-0,028
-721,064	32,035	-0,064	-0,040
-720,050	53,429	-0,120	-0,084
-719,035	800,000	0,031	-0,073
-718,021	0,730	0,045	0,023
-717,006	283,916	0,042	0,055
-715,991	-2,238	-0,056	-0,028
-714,977	-35,980	-0,080	0,031
-713,962	98,429	0,036	-0,030
-712,948	130,984	0,089	-0,083
-711,933	-200,000	-0,003	0,021
-710,918	92,732	0,034	0,028
-709,904	284,225	-0,100	-0,131
-708,889	172,613	-0,054	-0,057
-707,875	-200,000	-0,012	-0,042
-706,860	800,000	0,066	-0,133
-705,845	800,000	-0,015	-0,043
-704,831	-55,585	0,037	0,012
-703,816	-200,000	-0,028	0,161
-702,802	138,246	0,150	0,143
-701,787	32,406	-0,117	-0,073
-700,772	-200,000	0,011	-0,086
-699,758	247,863	0,051	-0,063
-698,743	-200,000	0,017	0,073
-697,729	270,948	0,051	-0,065
-696,714	-31,501	0,085	-0,034
-695,699	74,987	-0,042	-0,032
-694,685	-200,000	-0,020	-0,073
-693,670	-74,284	-0,092	0,024
-692,656	800,000	0,024	-0,052
-691,641	-81,064	0,018	-0,004
-690,627	66,765	0,083	-0,061
-689,612	-200,000	-0,015	-0,091
-688,597	-145,074	0,048	-0,003
-687,583	532,588	-0,094	-0,162
-686,568	-47,322	-0,014	-0,005
-685,554	800,000	0,067	-0,140
-684,539	800,000	0,051	-0,122
-683,524	-25,792	0,144	0,061
-682,510	171,377	0,090	-0,094
-681,495	-43,174	-0,075	0,027
-680,481	-15,188	-0,036	-0,017
-679,466	-200,000	0,007	-0,047
-678,451	46,385	-0,088	0,059
-677,437	-200,000	-0,011	0,115
-676,422	632,622	0,038	0,070
-675,408	-200,000	0,004	0,126
-674,393	-200,000	0,012	0,104
-673,378	605,675	0,006	-0,010
-672,364	246,155	-0,034	0,042
-671,349	-125,450	0,110	-0,012
-670,335	800,000	0,011	0,025
-669,320	-200,000	-0,016	0,083
-668,305	381,656	0,049	0,074
-667,291	-7,443	-0,138	-0,068
-666,276	-200,000	0,030	-0,141
-665,262	48,387	-0,065	-0,044
-664,247	-14,742	-0,092	0,043
-663,232	102,644	0,088	-0,075
-662,218	278,011	-0,031	0,040
-661,203	79,621	0,037	0,029
-660,189	-200,000	-0,006	0,132
-659,174	76,824	-0,132	-0,101
-658,159	-200,000	0,009	-0,064
-657,145	-200,000	-0,017	-0,091
-656,130	800,000	0,010	-0,027
-655,116	-34,954	0,059	-0,023
-654,101	495,059	0,054	0,089
-653,086	-200,000	-0,019	-0,092
-652,072	-74,521	-0,195	0,051
-651,057	-200,000	0,019	-0,088
-650,043	4,004	-0,060	0,032
-649,028	800,000	-0,017	-0,040
-648,014	-76,814	0,080	-0,020
-646,999	52,329	-0,033	0,023
-645,984	-62,209	0,109	-0,033
-644,970	-66,165	-0,042	0,012
-643,955	-183,508	0,088	-0,001
-642,941	800,000	-0,026	-0,079
-641,926	-140,239	0,064	0,005
-640,911	-200,000	-0,008	0,055
-639,897	-181,663	0,047	-0,001
-638,882	-200,000	-0,001	-0,013
-637,868	50,091	-0,055	-0,038
-636,853	126,955	-0,135	-0,124
-635,838	-26,918	-0,037	0,016
-634,824	682,121	0,040	0,075
-633,809	-30,000	0,073	0,030
-632,795	178,083	-0,035	0,037
-631,780	-200,000	0,001	0,019
-630,765	597,551	-0,036	0,065
-629,751	-116,869	0,108	-0,014
-628,736	107,492	-0,077	-0,067
-627,722	145,463	-0,097	-0,094
-626,707	-47,517	0,158	0,055
-625,692	-200,000	0,025	-0,128
-624,678	-2,546	-0,106	-0,054
-623,663	-38,123	0,078	-0,030
-622,649	-200,000	-0,008	0,142
-621,634	-103,229	-0,093	-0,016
-620,619	-200,000	-0,001	0,071
-619,605	-56,609	0,037	-0,012
-618,590	-99,071	0,141	0,026
-617,576	-200,000	-0,011	-0,071
-616,561	81,348	-0,074	-0,058
-615,546	-59,591	0,078	-0,024
-614,532	-30,710	-0,080	0,032
-613,517	53,102	-0,085	0,059
-612,503	108,608	0,050	-0,043
-611,488	800,000	0,015	-0,046
-610,474	-64,790	-0,071	-0,021
-609,459	225,199	-0,056	0,066
-608,444	379,794	0,019	-0,028
-607,430	-101,899	-0,094	0,016
-606,415	-200,000	-0,046	-0,202
-605,401	279,600	-0,046	0,060
-604,386	-71,292	-0,036	0,010
-603,371	800,000	-0,019	0,057
-602,357	576,480	0,079	0,140
-601,342	800,000	0,014	-0,038
-600,328	295,113	-0,073	-0,097
-599,313	800,000	0,048	-0,122
-598,298	291,870	-0,016	0,021
-597,284	-200,000	0,011	-0,076
-596,269	172,726	0,013	0,014
-595,255	82,681	-0,044	0,035
-594,240	-200,000	-0,017	-0,135
-593,225	107,281	-0,057	-0,049
-592,211	-88,854	-0,075	0,016
-591,196	-200,000	-0,013	0,129
-590,182	-113,970	-0,046	-0,006
-589,167	-60,436	0,151	0,046
-588,152	-27,188	-0,108	-0,045
-587,138	163,884	-0,101	-0,103
-586,123	-99,735	-0,061	-0,011
-585,109	-97,044	-0,090	0,017
-584,094	-200,000	0,015	-0,052
-583,079	-28,354	0,071	0,029
-582,065	22,755	0,130	0,076
-581,050	17,954	0,085	0,049
-580,036	-200,000	-0,005	-0,050
-579,021	222,396	-0,084	-0,098
-578,006	800,000	-0,039	-0,086
-576,992	-200,000	-0,014	0,137
-575,977	-200,000	0,002	-0,019
-574,963	-30,722	0,054	-0,022
-573,948	3,154	0,090	-0,047
-572,934	800,000	-0,044	0,099
-571,919	77,700	-0,124	-0,095
-570,904	-59,194	-0,057	-0,018
-569,890	115,225	-0,051	-0,045
-568,875	-200,000	0,003	0,103
-567,861	81,533	-0,044	0,034
-566,846	125,712	0,070	0,064
-565,831	148,104	-0,044	-0,043
-564,817	6,253	0,078	-0,041
-563,802	-27,238	0,078	0,033
-562,788	691,247	-0,014	-0,027
-561,773	238,598	0,016	-0,019
-560,758	198,731	0,052	-0,057
-559,744	335,346	0,024	-0,034
-558,729	-59,453	0,061	0,019
-557,715	33,270	-0,054	-0,034
-556,700	-200,000	0,019	-0,091
-555,685	-200,000	0,002	-0,158
-554,671	-200,000	-0,026	0,085
-553,656	662,968	0,058	0,108
-552,642	800,000	0,031	0,084
-551,627	-200,000	0,002	-0,104
-550,612	800,000	0,036	-0,076
-549,598	-26,034	-0,083	-0,035
-548,583	-74,525	-0,030	-0,008
-547,569	516,444	-0,073	0,124
-546,554	302,063	0,099	0,132
-545,539	-142,287	0,053	0,004
-544,525	35,194	-0,079	0,050
-543,510	20,707	-0,080	0,047
-542,496	-200,000	0,005	-0,090
-541,481	-200,000	0,025	-0,089
-540,466	800,000	0,015	-0,042
-539,452	-200,000	0,003	-0,086
-538,437	-200,000	-0,001	0,017
-537,423	65,418	-0,075	-0,055
-536,408	28,564	-0,116	-0,071
-535,393	600,635	-0,031	0,056
-534,379	-113,062	-0,049	-0,007
-533,364	404,191	0,012	-0,019
-532,350	64,506	-0,089	-0,064
-531,335	-200,000	-0,023	-0,105
-530,321	800,000	0,021	0,049
-529,306	-102,520	-0,147	-0,025
-528,291	10,207	0,050	0,027
-527,277	356,712	0,055	-0,079
-526,262	-200,000	-0,006	-0,097
-525,248	530,401	0,048	0,082
-524,233	60,870	0,098	0,070
-523,218	227,223	0,085	0,100
-522,204	800,000	-0,018	0,043
-521,189	-46,039	-0,088	0,031
-520,175	-200,000	0,025	0,138
-519,160	-200,000	-0,005	-0,093
-518,145	24,432	-0,080	0,047
-517,131	-200,000	0,013	0,135
-516,116	735,631	-0,078	0,152
-515,102	-200,000	0,003	-0,025
-514,087	-200,000	-0,018	-0,088
-513,072	-200,000	-0,033	-0,164
-512,058	-92,827	-0,194	-0,039
-511,043	800,000	0,022	0,050
-510,029	-82,609	0,114	-0,026
-509,014	-200,000	-0,003	0,127
-507,999	497,187	0,005	0,008
-506,985	-200,000	0,027	0,088
-505,970	203,709	-0,089	-0,099
-504,956	-57,259	-0,189	0,060
-503,941	-200,000	0,012	-0,041
-502,926	-200,000	0,009	-0,086
-501,912	-105,751	-0,123	0,020
-500,897	-24,570	-0,020	-0,008
-499,883	800,000	-0,011	-0,024
-498,868	800,000	-0,065	-0,156
-497,853	-82,018	-0,077	-0,018
-496,839	264,225	0,073	-0,092
-495,824	800,000	0,042	0,119
-494,810	333,158	-0,049	0,068
-493,795	800,000	0,043	0,106
-492,781	96,255	-0,056	-0,046
-491,766	518,235	-0,041	-0,069
-490,751	95,060	-0,071	0,058
-489,737	-77,176	-0,084	0,021
-488,722	-144,054	0,035	0,002
-487,708	22,839	-0,031	0,018
-486,693	-200,000	-0,010	-0,077
-485,678	-124,023	-0,039	0,004
-484,664	15,033	0,116	-0,065
-483,649	-200,000	-0,006	-0,057
-482,635	180,259	0,095	-0,100
-481,620	800,000	-0,041	-0,091
-480,605	-93,581	0,157	-0,031
-479,591	-101,018	0,037	-0,006
-478,576	-200,000	0,006	0,042
-477,562	-94,187	-0,014	-0,003
-476,547	-200,000	0,001	-0,136
-475,532	-200,000	0,007	0,027
-474,518	-107,250	0,147	-0,023
-473,503	304,577	0,102	0,137
-472,489	585,926	0,014	0,024
-471,474	687,379	0,015	0,028
-470,459	262,383	0,081	-0,102
-469,445	-200,000	-0,030	-0,096
-468,430	800,000	0,074	-0,173
-467,416	127,263	0,113	-0,103
-466,401	800,000	0,054	0,127
-465,386	800,000	0,015	0,046
-464,372	109,671	0,095	0,082
-463,357	31,159	-0,073	0,045
-462,343	-21,066	-0,120	0,053
-461,328	-80,969	-0,034	0,008
-460,313	-87,316	-0,089	0,019
-459,299	458,601	-0,040	0,065
-458,284	-145,181	0,026	-0,002
-457,270	-136,401	-0,106	-0,009
-456,255	189,431	0,094	-0,102
-455,241	-90,763	-0,152	-0,031
-454,226	355,270	-0,010	0,014
-453,211	-200,000	0,005	-0,025
-452,197	-200,000	0,007	-0,023
-451,182	14,248	0,102	-0,057
-450,168	-131,515	0,066	0,006
-449,153	-173,145	-0,040	-0,001
-448,138	-200,000	-0,007	-0,080
-447,124	800,000	-0,042	-0,105
-446,109	-70,120	0,090	0,025
-445,095	432,343	-0,024	0,038
-444,080	-200,000	-0,015	0,047
-443,065	-200,000	-0,030	0,184
-442,051	19,699	-0,122	0,070
-441,036	124,812	0,113	-0,102
-440,022	19,156	-0,100	-0,058
-439,007	-0,516	0,042	0,021
-437,992	50,020	0,071	0,048
-436,978	593,671	0,021	-0,037
-435,963	130,818	-0,076	0,070
-434,949	207,631	0,054	0,060
-433,934	-200,000	-0,000	-0,024
-432,919	-200,000	0,005	0,056
-431,905	376,755	0,047	-0,069
-430,890	-173,627	0,011	0,000
-429,876	-163,879	0,129	0,004
-428,861	-178,226	-0,086	0,001
-427,846	254,424	0,076	-0,093
-426,832	74,837	0,160	-0,121
-425,817	179,815	0,021	-0,022
-424,803	-80,912	0,079	-0,019
-423,788	653,319	0,084	0,155
-422,773	-200,000	0,006	0,175
-421,759	9,205	0,084	0,046
-420,744	-140,978	-0,053	-0,004
-419,730	121,808	0,055	-0,049
-418,715	-144,443	-0,221	0,014
-417,701	-200,000	-0,016	-0,116
-416,686	492,997	0,048	0,079
-415,671	361,334	0,030	0,043
-414,657	49,427	-0,028	0,019
-413,642	800,000	0,061	-0,130
-412,628	-157,218	-0,103	-0,004
-411,613	800,000	-0,045	-0,116
-410,598	-200,000	0,001	-0,176
-409,584	305,759	-0,064	0,086
-408,569	-200,000	0,002	-0,085
-407,555	-200,000	0,025	-0,151
-406,540	65,335	0,096	0,070
-405,525	-200,000	0,015	0,082
-404,511	-200,000	0,008	-0,066
-403,496	35,261	-0,092	-0,058
-402,482	-108,529	-0,067	0,010
-401,467	-200,000	0,019	-0,162
-400,452	132,123	0,030	-0,027
-399,438	316,809	0,008	0,011
-398,423	94,475	-0,147	-0,120
-397,409	12,634	-0,051	0,028
-396,394	455,729	-0,053	-0,085
-395,379	800,000	0,027	0,071
-394,365	-132,781	0,093	0,008
-393,350	-25,547	-0,106	0,045
-392,336	-28,651	-0,168	-0,069
-391,321	-5,365	-0,079	0,039
-390,306	-200,000	-0,003	-0,014
-389,292	-113,203	-0,119	0,017
-388,277	-74,215	-0,081	0,021
-387,263	434,452	0,117	0,183
-386,248	-200,000	0,015	-0,049
-385,233	288,122	-0,069	0,089
-384,219	104,878	0,114	-0,097
-383,204	800,000	-0,045	-0,113
-382,190	1,062	0,010	-0,005
-381,175	-200,000	0,013	-0,063
-380,160	-29,528	0,109	0,044
-379,146	183,882	0,023	0,024
-378,131	-129,535	0,008	-0,001
-377,117	-68,300	-0,146	0,040
-376,102	800,000	-0,016	-0,050
-375,088	-55,171	-0,042	-0,013
-374,073	-114,947	0,015	0,002
-373,058	800,000	-0,034	0,074
-372,044	800,000	0,031	-0,078
-371,029	-114,039	0,145	0,020
-370,015	-200,000	-0,005	0,033
-369,000	685,793	0,053	0,101
-367,985	-200,000	-0,028	-0,186
-366,971	800,000	0,049	-0,134
-365,956	-107,003	-0,031	0,005
-364,942	-51,780	0,182	-0,061
-363,927	-21,192	-0,077	0,034
-362,912	-200,000	-0,006	0,052
-361,898	-200,000	0,017	-0,127
-360,883	-96,742	-0,049	0,009
-359,869	74,857	0,008	-0,006
-358,854	-22,494	-0,021	0,009
-357,839	13,903	0,012	0,007
-356,825	-200,000	0,001	-0,049
-355,810	-57,178	0,043	-0,014
-354,796	129,871	-0,046	-0,042
-353,781	-200,000	-0,002	0,049
-352,766	-200,000	0,000	-0,125
-351,752	-200,000	-0,029	0,102
-350,737	49,737	-0,036	-0,024
-349,723	-82,979	0,092	0,021
-348,708	103,380	0,173	0,146
-347,693	800,000	-0,074	0,187
-346,679	800,000	0,048	0,123
-345,664	-44,781	-0,038	-0,013
-344,650	104,613	-0,073	0,062
-343,635	140,514	-0,085	0,080
-342,620	-160,496	0,067	0,003
-341,606	800,000	0,012	-0,027
-340,591	57,437	0,088	0,061
-339,577	153,050	-0,079	-0,077
-338,562	800,000	-0,015	0,040
-337,548	-200,000	-0,051	0,165
-336,533	800,000	-0,029	0,059
-335,518	-20,903	-0,054	-0,023
-334,504	165,626	0,042	0,042
-333,489	456,101	-0,023	-0,037
-332,475	-85,187	0,061	0,014
-331,460	328,495	-0,051	0,071
-330,445	-200,000	0,011	0,211
-329,431	-200,000	0,035	0,152
-328,416	132,814	0,072	0,067
-327,402	51,400	-0,034	0,023
-326,387	775,309	0,056	0,109
-325,372	-200,000	0,009	-0,111
-324,358	549,425	-0,040	-0,068
-323,343	-97,805	0,176	0,032
-322,329	181,344	0,120	-0,127
-321,314	-7,875	-0,127	0,061
-320,299	-90,148	0,149	-0,031
-319,285	0,974	-0,113	0,058
-318,270	-200,000	-0,008	-0,145
-317,256	104,343	-0,138	-0,116
-316,241	-200,000	0,008	0,077
-315,226	-115,657	0,087	-0,012
-314,212	-200,000	-0,009	-0,085
-313,197	327,925	-0,022	0,030
-312,183	800,000	-0,020	-0,043
-311,168	-200,000	-0,030	-0,204
-310,153	117,437	0,027	0,024
-309,139	252,696	-0,090	-0,110
-308,124	-200,000	-0,009	0,184
-307,110	149,442	0,016	-0,016
-306,095	-142,371	0,035	0,002
-305,080	-200,000	0,022	0,153
-304,066	628,570	0,009	-0,016
-303,051	145,866	0,097	-0,093
-302,037	777,210	0,095	-0,187
-301,022	-84,345	0,123	-0,028
-300,008	4,260	-0,048	-0,025
-298,993	-200,000	-0,027	0,120
-297,978	-200,000	-0,027	-0,091
-296,964	800,000	-0,028	0,078
-295,949	79,816	0,051	-0,039
-294,935	800,000	-0,010	0,023
-293,920	16,661	0,083	-0,047
-292,905	119,832	0,051	0,045
-291,891	-119,902	0,115	0,014
-290,876	-2,347	0,131	0,065
-289,862	81,592	-0,075	-0,058
-288,847	-200,000	-0,024	-0,116
-287,832	60,749	0,011	-0,008
-286,818	-127,689	-0,052	-0,005
-285,803	485,170	0,060	0,097
-284,789	-61,743	0,076	0,022
-283,774	-108,003	0,140	-0,022
-282,759	-76,548	0,051	-0,013
-281,745	-180,203	-0,054	0,001
-280,730	104,239	0,075	-0,063
-279,716	-49,987	-0,135	-0,046
-278,701	-67,553	0,056	0,016
-277,686	28,478	0,092	-0,055
-276,672	451,404	-0,058	0,092
-275,657	-11,302	-0,091	0,043
-274,643	-106,644	0,046	0,007
-273,628	-200,000	-0,003	0,074
-272,613	-200,000	0,002	0,035
-271,599	717,082	0,074	0,140
-270,584	800,000	0,043	0,119
-269,570	210,551	-0,078	0,088
-268,555	465,690	-0,091	0,145
-267,540	46,620	-0,061	0,041
-266,526	190,315	-0,027	0,029
-265,511	-93,610	-0,118	-0,023
-264,497	-68,137	-0,096	-0,027
-263,482	-63,059	0,091	0,027
-262,467	-19,734	0,108	0,047
-261,453	444,307	0,092	0,144
-260,438	800,000	-0,019	-0,044
-259,424	20,102	-0,080	0,046
-258,409	321,775	-0,049	-0,067
-257,395	-50,419	0,143	0,048
-256,380	54,268	0,151	0,104
-255,365	-32,285	0,066	-0,026
-254,351	42,018	0,138	-0,089
-253,336	-200,000	-0,004	-0,038
-252,322	-200,000	-0,009	0,155
-251,307	380,673	-0,020	-0,030
-250,292	34,300	-0,033	-0,020
-249,278	-81,675	-0,031	-0,007
-248,263	27,445	0,060	-0,036
-247,249	-117,261	-0,079	-0,010
-246,234	-65,783	-0,063	0,018
-245,219	21,790	-0,082	-0,048
-244,205	-200,000	0,007	-0,104
-243,190	140,918	-0,054	-0,051
-242,176	-24,899	0,055	0,023
-241,161	-200,000	0,038	0,175
-240,146	196,746	-0,020	-0,022
-239,132	800,000	-0,022	0,044
-238,117	415,217	0,038	0,059
-237,103	-200,000	0,006	0,138
-236,088	-33,888	0,115	-0,045
-235,073	192,662	-0,055	-0,059
-234,059	57,759	0,089	-0,062
-233,044	143,425	0,142	0,135
-232,030	-23,079	0,015	0,006
-231,015	-200,000	0,000	-0,088
-230,000	-31,912	-0,047	-0,019
-228,986	800,000	-0,027	0,078
-227,971	80,769	0,059	0,046
-226,957	220,402	0,076	-0,087
-225,942	160,693	-0,118	0,117
-224,927	-52,446	-0,063	0,021
-223,913	-6,626	-0,045	-0,022
-222,898	479,787	-0,045	-0,073
-221,884	159,807	-0,089	0,089
-220,869	800,000	0,022	0,064
-219,855	-200,000	0,003	-0,049
-218,840	6,926	-0,151	0,080
-217,825	-200,000	-0,019	0,064
-216,811	310,596	0,031	-0,042
-215,796	-78,842	0,061	0,015
-214,782	800,000	0,033	-0,103
-213,767	576,932	0,062	-0,109
-212,752	-200,000	-0,024	0,198
-211,738	202,206	0,039	0,043
-210,723	-200,000	-0,005	-0,016
-209,709	427,528	0,080	-0,124
-208,694	368,195	0,024	-0,034
-207,679	-200,000	0,006	-0,060
-206,665	-200,000	-0,033	0,200
-205,650	800,000	0,012	-0,033
-204,636	-200,000	-0,002	-0,054
-203,621	68,465	0,079	0,057
-202,606	216,984	0,011	0,013
-201,592	-200,000	-0,001	-0,011
-200,577	194,715	-0,074	-0,080
-199,563	225,382	-0,028	-0,032
-198,548	800,000	-0,020	-0,047
-197,533	-200,000	0,002	-0,062
-196,519	-200,000	-0,024	-0,136
-195,504	-102,983	-0,058	-0,010
-194,490	-49,367	-0,146	-0,049
-193,475	531,197	0,065	-0,110
-192,460	642,281	0,021	-0,037
-191,446	775,709	0,032	-0,063
-190,431	85,450	0,123	0,096
-189,417	549,212	0,015	0,026
-188,402	-113,876	-0,085	0,012
-187,387	322,277	0,033	0,044
-186,373	220,168	0,052	-0,059
-185,358	-200,000	-0,023	-0,112
-184,344	-86,051	0,083	0,018
-183,329	-200,000	-0,018	0,089
-182,315	800,000	0,012	0,024
-181,300	-200,000	0,029	0,130
-180,285	-200,000	-0,001	-0,019
-179,271	800,000	-0,023	0,059
-178,256	-200,000	0,009	-0,059
-177,242	800,000	0,026	-0,061
-176,227	-80,444	0,106	0,025
-175,212	9,101	-0,156	0,084
-174,198	147,148	-0,101	0,096
-173,183	47,129	0,109	-0,072
-172,169	34,834	-0,054	0,034
-171,154	52,775	-0,096	-0,065
-170,139	-48,274	-0,094	0,032
-169,125	-135,016	0,192	0,016
-168,110	540,854	0,039	0,066
-167,096	-99,427	0,067	0,012
-166,081	300,570	-0,090	0,119
-165,066	-156,752	0,032	-0,001
-164,052	-200,000	0,003	0,043
-163,037	590,025	-0,040	-0,071
-162,023	800,000	0,023	0,063
-161,008	-200,000	-0,021	0,125
-159,993	-13,008	0,079	0,036
-158,979	800,000	0,058	-0,123
-157,964	180,113	-0,034	0,035
-156,950	152,236	-0,068	0,066
-155,935	178,624	-0,094	0,098
-154,920	696,009	-0,023	0,044
-153,906	167,448	-0,066	0,067
-152,891	659,041	0,019	0,034
-151,877	800,000	-0,075	-0,160
-150,862	146,528	-0,056	0,054
-149,847	-61,449	-0,061	0,018
-148,833	-55,305	0,136	-0,043
-147,818	-30,181	-0,055	0,022
-146,804	10,911	0,094	0,051
-145,789	-200,000	-0,004	0,033
-144,775	-200,000	-0,021	-0,206
-143,760	-200,000	-0,015	-0,073
-142,745	470,370	0,038	-0,061
-141,731	792,732	-0,051	0,101
-140,716	42,990	0,093	-0,060
-139,702	-200,000	0,018	0,091
-138,687	558,598	-0,039	-0,067
-137,672	-200,000	0,011	0,130
-136,658	249,758	-0,125	-0,151
-135,643	-200,000	0,016	-0,059
-134,629	111,793	0,077	0,066
-133,614	-200,000	0,008	-0,093
-132,599	-200,000	-0,020	-0,075
-131,585	800,000	0,017	0,053
-130,570	326,719	-0,063	0,086
-129,556	800,000	0,051	0,104
-128,541	-200,000	0,008	0,072
-127,526	-91,748	-0,121	-0,024
-126,512	143,465	0,081	0,076
-125,497	-102,536	0,044	-0,007
-124,483	-200,000	0,023	-0,074
-123,468	800,000	-0,047	-0,140
-122,453	43,256	0,047	-0,030
-121,439	223,085	-0,019	-0,022
-120,424	349,124	-0,086	-0,121
-119,410	15,317	0,042	-0,023
-118,395	288,921	-0,053	-0,068
-117,380	721,566	-0,035	-0,066
-116,366	-169,306	-0,097	-0,002
-115,351	138,456	-0,096	0,089
-114,337	-153,633	-0,016	0,001
-113,322	51,386	-0,144	-0,097
-112,307	-85,295	0,068	-0,015
-111,293	-200,000	0,000	0,086
-110,278	-200,000	-0,031	0,165
-109,264	-200,000	0,024	0,147
-108,249	58,994	-0,139	0,097
-107,234	-124,645	0,032	-0,004
-106,220	800,000	-0,023	0,047
-105,205	-35,006	-0,127	0,049
-104,191	91,103	0,086	-0,069
-103,176	194,955	0,028	0,030
-102,162	-117,984	-0,007	0,001
-101,147	-67,988	-0,050	0,014
-100,132	-181,504	-0,049	0,001
-99,118	-200,000	0,022	-0,143
-98,103	-200,000	0,036	0,138
-97,089	-2,523	0,066	-0,033
-96,074	22,910	-0,035	-0,020
-95,059	342,501	0,052	0,073
-94,045	29,612	-0,062	0,037
-93,030	449,136	-0,086	-0,134
-92,016	192,096	0,118	-0,126
-91,001	-153,271	-0,066	-0,003
-89,986	97,173	0,035	0,028
-88,972	-200,000	-0,046	0,169
-87,957	313,653	0,117	0,157
-86,943	-200,000	-0,006	0,051
-85,928	188,171	-0,051	0,054
-84,913	169,695	0,026	-0,027
-83,899	-42,008	-0,211	0,076
-82,884	178,089	0,105	-0,109
-81,870	-64,014	0,090	-0,026
-80,855	-138,995	0,110	0,008
-79,840	502,507	-0,071	0,117
-78,826	-200,000	-0,005	0,074
-77,811	-93,875	0,170	-0,033
-76,797	-187,088	-0,141	0,001
-75,782	88,327	0,117	0,092
-74,767	800,000	-0,022	0,057
-73,753	-200,000	0,005	0,135
-72,738	800,000	0,013	0,034
-71,724	800,000	-0,012	-0,037
-70,709	297,309	-0,049	-0,064
-69,694	-200,000	0,019	0,094
-68,680	80,247	-0,012	0,009
-67,665	773,748	0,033	0,064
-66,651	800,000	0,043	0,120
-65,636	800,000	-0,067	0,153
-64,622	313,426	0,085	-0,113
-63,607	15,068	-0,052	0,029
-62,592	-200,000	-0,017	-0,075
-61,578	-95,834	-0,031	0,006
-60,563	-87,499	0,091	-0,019
-59,549	29,957	0,081	0,048
-58,534	-57,135	-1,468	-0,455
-57,519	363,430	-1,436	-2,050
-56,505	-200,000	-0,668	-4,716
-55,490	140,899	0,968	0,907
-54,476	800,000	4,839	11,328
-53,461	-200,000	18,265	289,789
-52,446	800,000	727,971	2235,159
-51,432	556,215	1644,252	2815,526
-50,417	79,246	1666,075	1263,173
-49,403	22,802	1539,893	891,066
-48,388	16,788	1463,075	817,472
-47,373	17,814	1453,072	816,794
-46,359	17,217	1443,500	808,525
-45,344	15,080	1438,893	795,708
-44,330	14,937	1436,942	793,913
-43,315	14,969	1435,180	793,059
-42,300	14,997	1433,420	792,192
-41,286	15,004	1432,302	791,575
-40,271	14,986	1431,138	790,815
-39,257	14,976	1429,965	790,089
-38,242	15,013	1428,744	789,557
-37,227	15,007	1427,563	788,845
-36,213	15,034	1425,943	788,046
-35,198	15,037	1424,845	787,422
-34,184	15,059	1423,970	787,011
-33,169	14,967	1422,911	785,961
-32,154	14,996	1421,673	785,383
-31,140	15,039	1420,400	784,850
-30,125	15,035	1419,363	784,227
-29,111	15,014	1418,233	783,471
-28,096	15,051	1416,964	782,915
-27,082	14,998	1415,814	782,000
-26,067	14,963	1414,671	781,172
-25,052	14,957	1413,662	780,555
-24,038	14,944	1412,677	779,918
-23,023	14,923	1411,775	779,291
-22,009	14,947	1410,661	778,758
-20,994	14,889	1410,001	778,090
-19,979	14,919	1408,826	777,553
-18,965	14,905	1407,657	776,810
-17,950	14,890	1407,238	776,479
-16,936	14,869	1406,158	775,757
-15,921	14,866	1404,962	775,050
-14,906	14,900	1404,035	774,668
-13,892	14,854	1403,071	773,890
-12,877	14,865	1402,487	773,590
-11,863	14,841	1401,437	772,868
-10,848	14,853	1400,640	772,451
-9,833	14,829	1399,524	771,695
-8,819	14,765	1398,746	770,937
-7,804	14,712	1397,899	770,194
-6,790	14,771	1396,597	769,722
-5,775	14,794	1395,534	769,212
-4,760	14,732	1394,882	768,532
-3,746	14,747	1393,971	768,072
-2,731	14,763	1393,167	767,669
-1,717	14,756	1392,226	767,090
-0,702	14,734	1390,335	765,914
0,313	18,460	1309,340	738,570
1,327	34,617	706,779	436,128
2,342	53,704	124,516	84,460
3,356	3,413	16,637	8,548
4,371	14,838	3,149	1,738
5,386	-37,383	0,591	0,222
6,400	108,825	-0,062	0,053
7,415	173,092	-0,205	-0,210
8,429	202,575	-0,232	-0,254
9,444	48,284	-0,269	-0,178
10,459	-42,940	-0,221	-0,079
11,473	17,773	-0,287	-0,161
12,488	-76,117	-0,281	-0,070
13,502	84,619	-0,268	-0,207
14,517	-30,631	-0,407	-0,162
15,531	36,933	-0,360	-0,224
16,546	-9,957	-0,443	-0,208
17,561	46,467	-0,389	-0,255
18,575	-55,270	-0,241	-0,076
19,590	122,684	-0,386	-0,341
20,604	68,492	-0,219	-0,158
21,619	47,117	-0,485	-0,318
22,634	122,775	-0,447	-0,395
23,648	98,255	-0,470	-0,382
24,663	78,451	-0,379	-0,285
25,677	122,947	-0,261	-0,231
26,692	43,464	-0,361	-0,232
27,707	104,884	-0,365	-0,304
28,721	185,471	-0,296	-0,311
29,736	7,841	-0,435	-0,229
30,750	35,605	-0,460	-0,285
31,765	101,456	-0,335	-0,275
32,780	163,065	-0,325	-0,322
33,794	218,339	-0,274	-0,309
34,809	97,892	-0,377	-0,306
35,823	8,778	-0,418	-0,222
36,838	57,767	-0,430	-0,296
37,853	112,718	-0,397	-0,339
38,867	93,168	-0,396	-0,316
39,882	161,852	-0,310	-0,307
40,896	181,715	-0,312	-0,325
41,911	53,633	-0,334	-0,226
42,926	89,381	-0,355	-0,279
43,940	-47,748	-0,438	-0,149
44,955	56,885	-0,447	-0,307
45,969	-76,020	-0,398	-0,098
46,984	135,714	-0,311	-0,285
47,999	231,427	-0,219	-0,254
49,013	150,864	-0,304	-0,292
50,028	63,199	-0,298	-0,210
51,042	1,797	-0,433	-0,219
52,057	251,529	-0,301	-0,362
53,071	162,574	-0,316	-0,313
54,086	46,107	-0,345	-0,225
55,101	-24,873	-0,352	-0,146
56,115	-35,385	-0,401	-0,153
57,130	8,840	-0,283	-0,150
58,144	3,537	-0,456	-0,233
59,159	217,176	-0,321	-0,361
60,174	-35,352	-0,437	-0,167
61,188	-13,522	-0,359	-0,163
62,203	-5,138	-0,224	-0,108
63,217	-3,405	-0,233	-0,114
64,232	-106,738	-0,344	-0,053
65,247	136,565	-0,391	-0,359
66,261	241,012	-0,221	-0,260
67,276	42,693	-0,435	-0,278
68,290	99,537	-0,349	-0,284
69,305	109,197	-0,372	-0,313
70,320	53,772	-0,358	-0,242
71,334	113,612	-0,367	-0,313
72,349	57,244	-0,350	-0,240
73,363	119,570	-0,319	-0,278
74,378	68,409	-0,260	-0,187
75,393	49,010	-0,303	-0,200
76,407	-11,580	-0,244	-0,112
77,422	139,862	-0,212	-0,197
78,436	-27,492	-0,259	-0,105
79,451	-12,738	-0,295	-0,135
80,466	32,957	-0,196	-0,119
81,480	77,016	-0,189	-0,141
82,495	222,557	-0,262	-0,297
83,509	27,732	-0,253	-0,150
84,524	206,734	-0,209	-0,230
85,539	-61,859	-0,274	-0,080
86,553	119,932	-0,219	-0,191
87,568	177,607	-0,324	-0,332
88,582	11,789	-0,375	-0,202
89,597	129,856	-0,294	-0,265
90,611	100,829	-0,231	-0,188
91,626	-37,932	-0,293	-0,109
92,641	-90,063	-0,224	-0,045
93,655	-20,008	-0,243	-0,105
94,670	32,238	-0,294	-0,178
95,684	207,359	-0,229	-0,251
96,699	110,034	-0,230	-0,194
97,714	-24,008	-0,260	-0,109
98,728	11,079	-0,201	-0,107
99,743	-95,417	-0,279	-0,052
100,757	-40,184	-0,264	-0,096
101,772	-158,719	-0,360	-0,014
102,787	25,343	-0,300	-0,174
103,801	262,669	-0,255	-0,311
104,816	800,000	-0,141	-0,299
105,830	178,668	-0,202	-0,208
106,845	174,182	-0,189	-0,191
107,860	-47,253	-0,320	-0,109
108,874	86,300	-0,208	-0,160
109,889	-19,824	-0,136	-0,058
110,903	13,783	-0,278	-0,151
111,918	87,586	-0,299	-0,232
112,933	110,466	-0,212	-0,178
113,947	-79,987	-0,134	-0,031
114,962	33,076	-0,242	-0,146
115,976	-18,134	-0,390	-0,170
116,991	61,453	-0,264	-0,184
118,006	-51,311	-0,205	-0,067
119,020	-36,504	-0,390	-0,146
120,035	256,801	-0,209	-0,251
121,049	-36,570	-0,103	-0,039
122,064	-16,860	-0,273	-0,120
123,079	280,363	-0,238	-0,299
124,093	514,159	-0,174	-0,286
125,108	226,059	-0,283	-0,322
126,122	-5,932	-0,183	-0,087
127,137	40,415	-0,312	-0,196
128,151	193,355	-0,219	-0,232
129,166	73,209	-0,253	-0,185
130,181	145,394	-0,271	-0,254
131,195	38,508	-0,327	-0,203
132,210	305,525	-0,254	-0,331
133,224	160,815	-0,226	-0,221
134,239	-40,719	-0,292	-0,105
135,254	39,219	-0,258	-0,161
136,268	-6,352	-0,297	-0,141
137,283	225,404	-0,187	-0,212
138,297	198,344	-0,233	-0,250
139,312	37,451	-0,302	-0,187
140,327	113,579	-0,303	-0,257
141,341	73,630	-0,286	-0,209
142,356	-60,453	-0,242	-0,071
143,370	-3,734	-0,256	-0,124
144,385	68,551	-0,333	-0,238
145,400	54,238	-0,316	-0,212
146,414	89,170	-0,297	-0,231
147,429	196,830	-0,225	-0,240
148,443	-29,270	-0,341	-0,136
149,458	175,718	-0,206	-0,209
150,473	599,882	-0,087	-0,152
151,487	142,958	-0,223	-0,207
152,502	170,525	-0,295	-0,296
153,516	-16,082	-0,200	-0,089
154,531	32,603	-0,237	-0,143
155,546	-1,398	-0,286	-0,140
156,560	35,631	-0,245	-0,150
157,575	22,475	-0,197	-0,112
158,589	125,751	-0,176	-0,155
159,604	24,314	-0,264	-0,152
160,619	165,501	-0,248	-0,244
161,633	102,548	-0,301	-0,245
162,648	28,420	-0,319	-0,187
163,662	81,795	-0,084	-0,063
164,677	82,061	-0,113	-0,086
165,692	364,999	-0,100	-0,140
166,706	72,281	-0,249	-0,181
167,721	117,132	-0,172	-0,148
168,735	-48,122	-0,264	-0,089
169,750	54,999	-0,226	-0,152
170,764	215,813	-0,182	-0,202
171,779	75,244	-0,147	-0,108
172,794	204,791	-0,155	-0,168
173,808	-4,095	-0,338	-0,163
174,823	94,011	-0,225	-0,178
175,837	77,255	-0,249	-0,184
176,852	57,698	-0,257	-0,175
177,867	750,738	-0,135	-0,255
178,881	-30,238	-0,261	-0,103
179,896	288,703	-0,083	-0,105
180,910	-16,424	-0,226	-0,099
181,925	91,394	-0,258	-0,202
182,940	-62,608	-0,199	-0,057
183,954	383,497	-0,198	-0,284
184,969	-113,782	-0,113	-0,015
185,983	-107,730	-0,250	-0,038
186,998	26,906	-0,122	-0,071
188,013	29,421	-0,179	-0,106
189,027	71,783	-0,269	-0,194
190,042	401,155	-0,132	-0,193
191,056	-12,167	-0,206	-0,093
192,071	176,054	-0,231	-0,234
193,086	-75,439	-0,182	-0,045
194,100	800,000	-0,118	-0,251
195,115	437,158	-0,094	-0,143
196,129	632,255	-0,175	-0,309
197,144	290,042	-0,243	-0,308
198,159	800,000	-0,109	-0,286
199,173	125,496	-0,245	-0,215
200,188	428,599	-0,167	-0,252
201,202	7,416	-0,180	-0,093
202,217	137,696	-0,230	-0,209
203,232	-175,394	-0,147	0,003
204,246	800,000	-0,086	-0,182
205,261	26,956	-0,330	-0,192
206,275	-100,608	-0,202	-0,034
207,290	-200,000	-0,068	-0,277
208,304	-139,328	-0,154	0,011
209,319	-78,181	-0,216	-0,051
210,334	158,490	-0,244	-0,235
211,348	53,058	-0,280	-0,186
212,363	91,226	-0,195	-0,152
213,377	340,732	-0,146	-0,199
214,392	363,282	-0,148	-0,206
215,407	128,516	-0,162	-0,143
216,421	800,000	-0,104	-0,291
217,436	6,247	-0,216	-0,111
218,450	137,648	-0,278	-0,253
219,465	-19,905	-0,335	-0,143
220,480	37,669	-0,173	-0,106
221,494	-21,625	-0,220	-0,093
222,509	148,764	-0,105	-0,098
223,523	64,012	-0,089	-0,062
224,538	-47,702	-0,259	-0,087
225,553	-8,097	-0,269	-0,125
226,567	185,989	-0,140	-0,145
227,582	518,247	-0,148	-0,242
228,596	292,087	-0,166	-0,210
229,611	68,854	-0,140	-0,100
230,626	-115,490	-0,191	-0,025
231,640	13,675	-0,228	-0,122
232,655	25,996	-0,265	-0,153
233,669	164,060	-0,242	-0,236
234,684	-18,174	-0,146	-0,063
235,699	290,861	-0,187	-0,237
236,713	439,728	-0,093	-0,141
237,728	-200,000	-0,037	-0,196
238,742	800,000	-0,057	-0,115
239,757	170,741	-0,140	-0,139
240,772	27,254	-0,236	-0,137
241,786	352,391	-0,208	-0,286
242,801	-67,129	-0,233	-0,063
243,815	263,220	-0,157	-0,189
244,830	317,248	-0,162	-0,213
245,844	121,923	-0,124	-0,107
246,859	46,196	-0,267	-0,171
247,874	80,584	-0,275	-0,205
248,888	22,955	-0,143	-0,081
249,903	-172,181	-0,296	-0,006
250,917	800,000	-0,079	-0,155
251,932	18,960	-0,068	-0,038
252,947	616,248	-0,077	0,134
253,961	-143,552	-0,142	-0,009
254,976	-17,962	-0,219	-0,095
255,990	76,704	-0,139	-0,102
257,005	595,835	-0,117	-0,201
258,020	18,652	-0,223	-0,123
259,034	28,650	-0,189	-0,110
260,049	109,579	-0,159	-0,132
261,063	103,352	-0,060	-0,049
262,078	800,000	-0,121	-0,246
263,093	202,251	-0,122	-0,130
264,107	286,606	-0,104	-0,130
265,122	-55,648	-0,127	-0,039
266,136	-109,273	-0,171	-0,025
267,151	334,661	-0,066	-0,089
268,166	-41,590	-0,143	0,051
269,180	-106,587	-0,293	-0,045
270,195	39,428	-0,344	-0,213
271,209	800,000	-0,103	-0,212
272,224	111,507	-0,218	-0,182
273,239	-73,354	-0,173	-0,043
274,253	-178,697	-0,170	0,003
275,268	-87,368	-0,185	0,038
276,282	135,045	-0,200	-0,180
277,297	18,860	-0,293	-0,162
278,312	-2,074	-0,192	-0,093
279,326	-39,701	-0,115	-0,041
280,341	76,755	0,023	0,017
281,355	16,649	-0,176	-0,096
282,370	-79,420	-0,204	0,047
283,384	800,000	-0,134	-0,265
284,399	437,893	-0,202	-0,305
285,414	272,025	-0,174	-0,212
286,428	800,000	-0,121	-0,243
287,443	397,890	-0,084	-0,122
288,457	-16,661	-0,219	-0,095
289,472	-62,098	-0,181	0,052
290,487	-9,792	-0,190	-0,087
291,501	406,343	-0,091	-0,132
292,516	88,178	-0,275	-0,210
293,530	-107,570	-0,115	-0,017
294,545	7,334	-0,142	-0,073
295,560	-31,678	-0,156	-0,060
296,574	276,741	-0,125	-0,154
297,589	-67,367	-0,244	-0,066
298,603	-163,271	-0,222	-0,007
299,618	58,609	-0,193	-0,130
300,633	182,433	-0,027	-0,027
301,647	-200,000	0,012	-0,059
302,662	120,457	-0,102	-0,087
303,676	-17,871	-0,086	-0,037
304,691	121,323	-0,148	-0,127
305,706	368,053	-0,125	-0,174
306,720	98,745	-0,021	-0,016
307,735	265,630	-0,077	-0,093
308,749	-39,342	-0,108	-0,039
309,764	292,198	-0,085	-0,107
310,779	77,343	-0,087	0,064
311,793	344,550	-0,149	-0,202
312,808	113,065	-0,200	-0,167
313,822	-8,682	-0,117	-0,054
314,837	286,706	-0,071	-0,089
315,852	160,006	-0,097	-0,093
316,866	267,375	-0,116	-0,140
317,881	585,041	-0,023	-0,039
318,895	800,000	-0,144	-0,325
319,910	151,275	-0,134	-0,126
320,925	-37,181	-0,215	-0,079
321,939	87,995	-0,156	-0,119
322,954	300,216	-0,071	-0,091
323,968	250,445	-0,087	-0,102
324,983	52,405	-0,142	-0,093
325,997	274,939	-0,110	-0,134
327,012	577,318	-0,103	-0,175
328,027	-200,000	-0,052	-0,209
329,041	-45,833	-0,196	-0,066
330,056	-200,000	-0,026	-0,113
331,070	67,715	-0,074	-0,052
332,085	71,310	-0,143	-0,102
333,100	800,000	-0,100	-0,217
334,114	-63,418	-0,042	0,012
335,129	23,377	-0,211	-0,119
336,143	-18,327	-0,117	-0,050
337,158	800,000	-0,086	-0,179
338,173	-200,000	0,002	0,029
339,187	-31,116	-0,145	-0,056
340,202	800,000	-0,090	-0,181
341,216	137,594	-0,185	-0,167
342,231	71,673	-0,135	-0,096
343,246	625,089	-0,112	-0,195
344,260	47,795	-0,139	-0,089
345,275	-200,000	0,009	-0,267
346,289	527,430	-0,079	-0,129
347,304	-70,392	-0,154	-0,040
348,319	-97,408	0,040	-0,007
349,333	-54,752	-0,168	-0,052
350,348	-103,687	-0,205	-0,033
351,362	48,223	-0,256	-0,164
352,377	800,000	-0,064	-0,139
353,392	45,771	-0,055	-0,035
354,406	800,000	-0,043	-0,098
355,421	208,038	1317,332	1413,747
356,435	160,059	1478,393	1414,258
