DTS Sentinel unit serial number:	SN410029Multiplexer serial number:	ORYXHardware model number:	OX2-SRSoftware version number:	ORYX F/W v4,00 Oryx Data Collector v3.7.2.0data status	okinstallation	B3 Nyhavnadifferential loss correction	single-endedforward channel	channel 1reverse channel	N/Adate	2023/12/05time	01:17:30forward acquisition time	300,00reverse acquisition time	0,00gamma	499,1914k internal	0,3200k external	0,3200temperature offset calibration	1,0000default loss term (dB/km)	0,3820temperature slope calibration	1,0000multiplexer offset coefficient	1,0000multiplexer slope coefficient	1,0000fibre end	0,00T internal ref (°C)	13,80T ext. ref 1 (°C)	-1,00T ext. ref 2 (°C)	-1,03length (m)	temperature (°C)	Stokes	anti-Stokes-744,400	169,151	-0,178	-0,185
-743,385	800,000	0,062	0,190
-742,371	516,121	-0,123	-0,210
-741,356	-200,000	-0,092	0,350
-740,342	87,657	-0,171	-0,138
-739,327	246,623	-0,155	0,190
-738,312	62,773	-0,178	-0,129
-737,298	800,000	-0,135	0,304
-736,283	-40,577	-0,075	-0,028
-735,269	-200,000	0,024	0,376
-734,254	57,728	-0,337	-0,239
-733,239	371,467	-0,182	0,270
-732,225	118,823	-0,120	-0,108
-731,210	-10,865	0,135	0,064
-730,196	-85,661	0,045	0,010
-729,181	-200,000	-0,001	-0,020
-728,167	-112,223	0,075	0,011
-727,152	-62,128	-0,110	0,033
-726,137	570,670	-0,047	-0,083
-725,123	-58,592	-0,086	0,027
-724,108	-101,026	-0,068	0,012
-723,094	800,000	-0,090	-0,197
-722,079	800,000	-0,048	-0,099
-721,064	96,043	-0,032	-0,027
-720,050	476,703	0,032	0,052
-719,035	-200,000	0,013	-0,070
-718,021	-133,498	-0,082	0,007
-717,006	-155,669	-0,075	-0,003
-715,991	800,000	-0,027	-0,075
-714,977	-67,577	-0,156	0,044
-713,962	-185,981	-0,044	-0,000
-712,948	229,900	0,061	-0,072
-711,933	-174,702	0,074	0,001
-710,918	-55,974	0,074	0,024
-709,904	-200,000	0,042	-0,231
-708,889	153,559	-0,161	-0,160
-707,875	249,330	-0,090	-0,111
-706,860	-97,854	-0,096	-0,018
-705,845	-46,701	0,057	0,020
-704,831	800,000	-0,041	0,116
-703,816	-15,147	-0,068	0,032
-702,802	-200,000	-0,014	0,085
-701,787	75,048	-0,096	-0,074
-700,772	-98,926	-0,018	0,003
-699,758	-200,000	0,001	-0,116
-698,743	-149,011	-0,100	0,006
-697,729	540,086	-0,021	0,037
-696,714	-100,778	0,066	-0,012
-695,699	44,517	-0,069	-0,046
-694,685	213,342	-0,079	-0,091
-693,670	100,119	-0,051	-0,043
-692,656	-18,174	0,090	-0,041
-691,641	-128,449	0,121	-0,012
-690,627	-64,650	0,133	-0,039
-689,612	-43,662	-0,114	0,041
-688,597	-46,735	0,145	0,051
-687,583	239,479	0,075	-0,091
-686,568	686,111	0,035	0,067
-685,554	-127,360	-0,164	-0,017
-684,539	-159,642	-0,054	-0,002
-683,524	194,984	-0,090	-0,100
-682,510	-30,342	-0,100	0,041
-681,495	-100,339	0,039	0,007
-680,481	-16,117	-0,049	-0,022
-679,466	238,051	-0,082	-0,099
-678,451	-200,000	-0,021	0,213
-677,437	34,233	-0,091	0,057
-676,422	-72,399	0,077	0,021
-675,408	213,145	0,054	0,062
-674,393	-154,052	-0,115	-0,006
-673,378	-104,496	-0,145	-0,024
-672,364	199,456	0,054	-0,060
-671,349	226,560	-0,074	-0,087
-670,335	800,000	-0,009	-0,019
-669,320	-200,000	0,001	0,074
-668,305	501,839	-0,041	-0,068
-667,291	231,363	-0,032	-0,038
-666,276	-200,000	0,002	-0,073
-665,262	410,116	-0,059	-0,092
-664,247	800,000	-0,038	0,094
-663,232	-47,854	0,030	0,010
-662,218	194,307	0,029	-0,032
-661,203	89,450	0,061	-0,049
-660,189	-96,461	-0,026	-0,005
-659,174	-200,000	-0,018	-0,071
-658,159	-59,233	-0,151	0,047
-657,145	-33,906	-0,100	0,040
-656,130	800,000	0,020	0,064
-655,116	138,722	0,076	0,072
-654,101	-144,115	-0,183	0,012
-653,086	-200,000	-0,004	-0,053
-652,072	-154,501	-0,186	0,009
-651,057	-79,802	-0,035	0,008
-650,043	-200,000	0,001	-0,119
-649,028	-181,681	-0,089	-0,001
-648,014	-55,800	-0,068	0,022
-646,999	171,202	0,093	0,097
-645,984	-33,712	0,033	0,013
-644,970	676,536	0,045	-0,086
-643,955	355,558	0,049	-0,070
-642,941	-113,079	-0,168	0,024
-641,926	-200,000	-0,022	-0,078
-640,911	338,674	0,020	-0,029
-639,897	-64,185	0,054	-0,016
-638,882	-110,136	0,098	0,015
-637,868	-35,718	-0,139	0,054
-636,853	14,337	-0,110	-0,062
-635,838	-200,000	-0,030	-0,142
-634,824	-95,420	-0,137	-0,026
-633,809	-103,170	-0,066	0,011
-632,795	314,051	0,065	-0,089
-631,780	281,811	-0,070	0,091
-630,765	-138,746	0,019	0,001
-629,751	800,000	-0,058	-0,151
-628,736	173,383	-0,031	-0,033
-627,722	-61,998	-0,068	0,020
-626,707	89,470	-0,013	-0,010
-625,692	-200,000	0,006	-0,119
-624,678	221,011	0,009	0,011
-623,663	-77,225	-0,091	0,023
-622,649	-200,000	-0,009	-0,063
-621,634	97,615	-0,018	-0,015
-620,619	103,308	-0,047	0,040
-619,605	29,481	-0,060	0,037
-618,590	503,351	-0,046	0,078
-617,576	-114,291	-0,053	-0,007
-616,561	-200,000	-0,003	-0,056
-615,546	-53,195	-0,058	-0,019
-614,532	-200,000	0,005	-0,142
-613,517	167,429	0,031	0,032
-612,503	11,430	0,010	-0,005
-611,488	18,505	0,077	-0,044
-610,474	199,296	0,025	-0,027
-609,459	-200,000	0,006	-0,037
-608,444	-35,241	0,084	0,033
-607,430	800,000	0,042	-0,091
-606,415	-67,293	-0,011	-0,003
-605,401	181,755	0,075	-0,080
-604,386	-200,000	-0,006	0,051
-603,371	607,037	0,061	0,110
-602,357	-200,000	0,018	-0,084
-601,342	-200,000	-0,029	-0,116
-600,328	-146,987	-0,051	0,003
-599,313	-17,094	-0,066	-0,030
-598,298	-103,378	-0,139	0,023
-597,284	800,000	-0,057	0,147
-596,269	-49,122	0,057	-0,020
-595,255	27,234	0,075	-0,045
-594,240	-75,777	0,017	0,004
-593,225	-47,092	-0,127	-0,045
-592,211	800,000	-0,080	-0,164
-591,196	219,171	-0,032	0,037
-590,182	-200,000	-0,002	0,074
-589,167	189,820	-0,074	0,080
-588,152	800,000	-0,044	0,119
-587,138	-117,284	-0,173	-0,022
-586,123	-200,000	0,002	-0,133
-585,109	-81,989	-0,068	-0,016
-584,094	76,553	-0,036	-0,027
-583,079	-186,379	0,115	-0,001
-582,065	800,000	-0,024	-0,063
-581,050	44,895	0,042	0,028
-580,036	337,991	-0,032	-0,045
-579,021	137,361	0,094	-0,089
-578,006	-55,120	0,067	0,022
-576,992	133,464	-0,122	-0,114
-575,977	296,352	0,054	-0,072
-574,963	-200,000	-0,015	-0,176
-573,948	-200,000	0,002	-0,161
-572,934	-124,969	-0,115	-0,013
-571,919	-200,000	0,003	-0,095
-570,904	800,000	0,023	-0,062
-569,890	800,000	-0,029	-0,088
-568,875	-103,087	0,068	0,012
-567,861	646,688	0,043	0,080
-566,846	-83,934	0,083	0,019
-565,831	541,023	-0,043	0,074
-564,817	150,849	-0,069	0,068
-563,802	50,266	0,055	0,037
-562,788	800,000	0,043	-0,097
-561,773	366,871	0,073	0,107
-560,758	-89,849	0,160	-0,033
-559,744	-76,811	0,123	0,031
-558,729	-200,000	0,018	-0,081
-557,715	-61,867	0,138	0,041
-556,700	40,199	-0,074	-0,048
-555,685	800,000	-0,045	0,097
-554,671	348,045	-0,057	-0,082
-553,656	-200,000	-0,005	0,141
-552,642	218,239	0,020	0,023
-551,627	28,265	0,091	0,056
-550,612	-150,262	0,115	0,006
-549,598	-65,450	-0,087	0,025
-548,583	2,760	0,068	-0,036
-547,569	-47,193	0,054	-0,019
-546,554	10,867	-0,019	-0,010
-545,539	665,714	-0,004	-0,008
-544,525	54,786	-0,034	0,023
-543,510	136,705	-0,032	-0,030
-542,496	3,507	0,081	-0,043
-541,481	-6,654	0,023	0,011
-540,466	-200,000	0,015	-0,079
-539,452	638,177	-0,071	-0,131
-538,437	377,325	0,035	0,052
-537,423	-95,003	-0,009	-0,002
-536,408	144,699	-0,031	0,030
-535,393	-173,942	-0,102	0,002
-534,379	743,418	-0,068	-0,133
-533,364	157,125	-0,054	-0,054
-532,350	-85,086	0,216	0,049
-531,335	-200,000	0,020	0,118
-530,321	2,452	0,086	0,045
-529,306	-28,096	-0,088	0,036
-528,291	-191,752	-0,050	0,000
-527,277	63,589	-0,103	0,075
-526,262	-200,000	-0,012	-0,051
-525,248	800,000	-0,045	-0,129
-524,233	218,745	0,024	0,028
-523,218	94,909	0,043	0,036
-522,204	-200,000	0,000	-0,035
-521,189	223,005	-0,107	-0,124
-520,175	567,400	0,075	-0,131
-519,160	-200,000	-0,021	-0,076
-518,145	177,366	-0,055	0,057
-517,131	-200,000	-0,003	-0,014
-516,116	164,825	-0,011	0,011
-515,102	266,103	-0,026	-0,032
-514,087	428,206	-0,010	0,016
-513,072	-200,000	0,007	0,039
-512,058	-200,000	-0,005	0,178
-511,043	-200,000	-0,003	0,023
-510,029	800,000	0,017	0,052
-509,014	165,020	0,043	-0,044
-507,999	33,617	-0,063	0,040
-506,985	160,491	-0,104	-0,105
-505,970	800,000	0,065	-0,143
-504,956	112,770	-0,120	-0,104
-503,941	-200,000	0,041	-0,164
-502,926	214,565	0,057	0,065
-501,912	-200,000	-0,035	0,113
-500,897	38,806	0,087	-0,056
-499,883	-49,753	-0,106	-0,036
-498,868	162,619	0,062	0,063
-497,853	509,616	-0,034	-0,058
-496,839	147,317	0,026	0,026
-495,824	-135,292	0,222	0,019
-494,810	205,202	0,054	-0,061
-493,795	786,011	0,041	-0,081
-492,781	-134,298	0,098	-0,009
-491,766	800,000	0,069	0,187
-490,751	104,888	-0,049	0,042
-489,737	800,000	-0,066	0,135
-488,722	-200,000	0,012	-0,094
-487,708	509,024	-0,069	0,116
-486,693	800,000	0,013	-0,035
-485,678	151,232	-0,079	0,077
-484,664	800,000	0,004	0,009
-483,649	-34,277	0,089	-0,035
-482,635	243,059	-0,045	0,054
-481,620	185,272	0,050	-0,053
-480,605	-15,296	0,110	-0,051
-479,591	429,694	0,059	0,092
-478,576	-200,000	-0,006	0,083
-477,562	-200,000	-0,039	0,127
-476,547	196,296	-0,063	0,069
-475,532	-200,000	0,004	-0,136
-474,518	-200,000	0,009	0,039
-473,503	-200,000	0,004	0,075
-472,489	-200,000	-0,008	-0,025
-471,474	-200,000	-0,000	-0,146
-470,459	146,086	-0,014	0,013
-469,445	-200,000	-0,038	-0,144
-468,430	-200,000	-0,013	-0,112
-467,416	4,340	-0,023	0,012
-466,401	17,688	0,026	-0,015
-465,386	-200,000	-0,009	0,064
-464,372	-9,752	-0,136	0,065
-463,357	800,000	0,014	0,033
-462,343	800,000	-0,071	-0,198
-461,328	36,565	-0,023	0,015
-460,313	112,342	-0,068	0,059
-459,299	-14,303	0,059	-0,027
-458,284	-200,000	-0,009	0,071
-457,270	231,551	-0,046	0,054
-456,255	-200,000	0,008	0,051
-455,241	47,234	-0,129	0,086
-454,226	-200,000	0,015	-0,142
-453,211	-96,220	0,119	-0,023
-452,197	-200,000	-0,006	0,058
-451,182	-51,776	0,012	0,004
-450,168	-126,044	-0,082	-0,009
-449,153	-200,000	0,035	0,117
-448,138	-111,457	0,024	0,003
-447,124	30,842	0,059	0,036
-446,109	-93,525	-0,110	-0,022
-445,095	800,000	-0,046	0,142
-444,080	-200,000	0,003	0,069
-443,065	-123,521	0,040	0,005
-442,051	800,000	-0,022	0,047
-441,036	598,404	-0,064	0,115
-440,022	-200,000	0,016	0,098
-439,007	589,433	-0,043	-0,077
-437,992	46,351	0,097	0,065
-436,978	111,594	-0,035	0,030
-435,963	800,000	0,032	0,078
-434,949	-200,000	-0,012	-0,110
-433,934	-200,000	-0,016	-0,127
-432,919	130,090	-0,081	0,075
-431,905	-88,024	0,072	0,015
-430,890	54,581	0,109	0,076
-429,876	-7,494	0,194	0,094
-428,861	80,078	-0,122	0,094
-427,846	292,192	-0,044	-0,058
-426,832	100,184	0,041	-0,034
-425,817	-67,576	-0,106	-0,030
-424,803	-81,500	-0,118	0,028
-423,788	-142,698	0,112	0,008
-422,773	472,267	0,015	-0,024
-421,759	-50,609	0,179	0,060
-420,744	139,139	0,083	0,079
-419,730	408,422	-0,062	0,094
-418,715	-200,000	-0,004	-0,025
-417,701	578,280	0,022	-0,038
-416,686	13,036	0,103	0,057
-415,671	-112,012	0,219	0,031
-414,657	240,759	-0,074	0,089
-413,642	12,176	0,086	-0,047
-412,628	319,950	0,030	0,041
-411,613	-79,519	0,076	0,018
-410,598	-200,000	0,014	0,106
-409,584	800,000	-0,047	0,116
-408,569	-59,631	0,119	-0,036
-407,555	-200,000	-0,022	0,123
-406,540	226,001	0,072	0,084
-405,525	-200,000	-0,031	-0,103
-404,511	-66,587	0,095	0,027
-403,496	-169,961	-0,102	0,003
-402,482	-65,375	0,018	-0,005
-401,467	-63,767	0,131	0,038
-400,452	549,720	0,023	0,040
-399,438	73,100	-0,003	-0,002
-398,423	-152,922	-0,050	0,003
-397,409	60,797	-0,130	-0,092
-396,394	-3,401	0,080	-0,040
-395,379	-200,000	-0,012	0,052
-394,365	613,805	0,050	0,090
-393,350	800,000	-0,053	0,115
-392,336	-5,551	-0,039	0,019
-391,321	-111,614	0,087	0,013
-390,306	-200,000	0,017	0,079
-389,292	143,660	0,066	-0,063
-388,277	800,000	0,024	-0,065
-387,263	216,690	0,026	-0,030
-386,248	-73,813	0,079	0,021
-385,233	-200,000	-0,025	0,157
-384,219	800,000	-0,051	0,114
-383,204	550,385	0,062	-0,108
-382,190	293,253	-0,058	-0,076
-381,175	-200,000	0,012	0,125
-380,160	-28,093	-0,019	-0,008
-379,146	-22,556	0,111	0,048
-378,131	264,816	-0,033	0,042
-377,117	-200,000	-0,036	0,146
-376,102	41,419	0,064	0,041
-375,088	62,671	0,012	0,008
-374,073	800,000	0,022	0,052
-373,058	36,500	0,170	0,108
-372,044	703,077	0,059	0,111
-371,029	-200,000	0,030	0,100
-370,015	800,000	-0,096	0,204
-369,000	-84,602	-0,052	-0,012
-367,985	-97,246	-0,102	-0,019
-366,971	-200,000	-0,007	0,055
-365,956	174,090	0,052	0,054
-364,942	-170,513	-0,037	-0,001
-363,927	-138,392	-0,104	-0,008
-362,912	116,417	-0,022	-0,019
-361,898	-90,988	-0,065	0,013
-360,883	-45,187	-0,131	0,047
-359,869	308,990	0,088	-0,118
-358,854	361,846	-0,029	-0,042
-357,839	61,716	0,113	0,081
-356,825	-151,920	0,028	-0,001
-355,810	800,000	-0,024	-0,049
-354,796	-200,000	0,027	-0,124
-353,781	178,741	-0,028	-0,029
-352,766	800,000	0,067	-0,149
-351,752	287,798	0,034	0,044
-350,737	-200,000	-0,006	0,097
-349,723	118,003	0,129	0,114
-348,708	-122,805	-0,144	0,016
-347,693	279,408	-0,039	-0,050
-346,679	122,787	-0,089	0,080
-345,664	-70,387	-0,080	-0,021
-344,650	101,336	0,041	-0,034
-343,635	509,472	0,044	0,073
-342,620	-5,041	0,139	0,068
-341,606	-200,000	-0,017	0,094
-340,591	-136,369	0,051	0,004
-339,577	-200,000	0,010	-0,047
-338,562	83,606	0,081	-0,063
-337,548	35,181	-0,101	0,063
-336,533	438,308	0,062	0,098
-335,518	120,767	-0,075	-0,067
-334,504	167,829	0,067	0,068
-333,489	-200,000	0,033	0,127
-332,475	-200,000	-0,013	-0,068
-331,460	184,346	-0,054	0,058
-330,445	-200,000	-0,025	-0,087
-329,431	-200,000	0,020	-0,068
-328,416	190,648	-0,082	-0,088
-327,402	45,625	0,104	-0,068
-326,387	-37,334	0,090	-0,034
-325,372	-200,000	-0,009	-0,103
-324,358	25,586	-0,055	-0,033
-323,343	-108,605	-0,122	0,019
-322,329	38,545	0,064	0,041
-321,314	209,230	-0,078	0,088
-320,299	-25,974	0,094	0,039
-319,285	-200,000	0,025	0,158
-318,270	-200,000	-0,014	0,112
-317,256	-6,026	0,056	-0,027
-316,241	-125,362	-0,150	-0,016
-315,226	-200,000	-0,002	0,068
-314,212	800,000	-0,019	-0,058
-313,197	-59,218	0,019	-0,006
-312,183	-78,129	0,042	0,010
-311,168	800,000	-0,036	-0,089
-310,153	271,083	-0,070	-0,088
-309,139	-82,405	-0,015	0,003
-308,124	-131,954	0,090	-0,008
-307,110	-200,000	0,003	-0,044
-306,095	-109,121	0,087	0,013
-305,080	-176,947	-0,072	-0,001
-304,066	47,856	-0,039	0,026
-303,051	-100,082	-0,125	0,022
-302,037	800,000	-0,025	-0,066
-301,022	78,611	-0,091	0,069
-300,008	-93,301	-0,180	-0,035
-298,993	-167,516	0,107	-0,003
-297,978	-46,424	-0,087	0,030
-296,964	-147,926	0,029	-0,002
-295,949	-200,000	-0,001	-0,016
-294,935	-101,860	0,042	0,007
-293,920	412,099	0,036	0,056
-292,905	-200,000	-0,011	-0,068
-291,891	180,476	0,023	0,024
-290,876	564,070	0,076	0,132
-289,862	-200,000	-0,004	-0,056
-288,847	-138,944	0,061	0,005
-287,832	-200,000	-0,052	-0,191
-286,818	-200,000	-0,019	-0,119
-285,803	84,555	0,085	-0,067
-284,789	-81,662	0,066	-0,015
-283,774	67,789	-0,020	-0,014
-282,759	-200,000	0,001	-0,078
-281,745	-200,000	-0,012	0,046
-280,730	-57,084	0,124	0,039
-279,716	-11,168	-0,092	0,043
-278,701	89,175	-0,083	0,066
-277,686	258,345	0,071	0,087
-276,672	102,674	0,104	0,087
-275,657	-200,000	-0,022	0,106
-274,643	633,064	-0,023	0,042
-273,628	-94,138	-0,084	0,016
-272,613	-119,493	0,168	0,021
-271,599	37,858	0,093	-0,059
-270,584	800,000	-0,027	-0,075
-269,570	800,000	0,011	-0,028
-268,555	81,888	0,051	0,039
-267,540	478,190	0,097	-0,157
-266,526	-79,247	-0,109	0,026
-265,511	-0,894	-0,102	0,052
-264,497	155,955	0,039	0,039
-263,482	-200,000	0,011	-0,117
-262,467	-111,538	-0,044	0,006
-261,453	-200,000	0,004	-0,040
-260,438	141,046	-0,090	-0,085
-259,424	-29,036	-0,198	0,081
-258,409	800,000	-0,085	-0,191
-257,395	446,560	0,012	0,019
-256,380	-78,472	0,104	-0,025
-255,365	150,905	0,094	0,091
-254,351	293,700	0,039	-0,051
-253,336	-170,356	0,008	0,000
-252,322	-74,821	-0,056	-0,014
-251,307	-200,000	0,018	-0,135
-250,292	17,870	-0,086	0,049
-249,278	-107,690	0,103	0,016
-248,263	-200,000	0,013	0,109
-247,249	794,682	0,035	-0,070
-246,234	-200,000	0,024	-0,129
-245,219	-72,024	-0,128	-0,034
-244,205	800,000	-0,092	-0,205
-243,190	800,000	-0,054	0,132
-242,176	-25,114	0,085	-0,036
-241,161	70,603	-0,011	-0,008
-240,146	558,986	-0,084	0,146
-239,132	-95,943	-0,091	-0,017
-238,117	-110,651	-0,139	-0,020
-237,103	125,868	0,079	0,071
-236,088	296,253	-0,083	-0,108
-235,073	-105,384	0,089	0,014
-234,059	100,358	0,052	0,043
-233,044	96,553	0,104	0,085
-232,030	-118,370	0,086	0,011
-231,015	437,280	0,089	-0,139
-230,000	58,248	-0,133	-0,093
-228,986	-107,411	0,126	0,020
-227,971	51,583	0,058	0,039
-226,957	800,000	-0,081	0,164
-225,942	441,951	-0,022	0,035
-224,927	-152,487	0,049	0,002
-223,913	-200,000	0,012	0,068
-222,898	800,000	-0,011	0,028
-221,884	-200,000	0,005	0,045
-220,869	-126,633	-0,027	-0,003
-219,855	-200,000	0,015	0,082
-218,840	-18,314	0,153	0,068
-217,825	364,511	0,090	-0,130
-216,811	-95,305	-0,125	-0,024
-215,796	1,603	0,099	-0,051
-214,782	-20,259	-0,109	-0,048
-213,767	446,461	0,022	-0,035
-212,752	-31,978	0,089	0,035
-211,738	-200,000	0,020	-0,104
-210,723	-119,076	-0,096	-0,012
-209,709	292,017	-0,082	-0,106
-208,694	4,511	-0,068	-0,035
-207,679	-158,011	0,121	0,005
-206,665	800,000	-0,018	0,050
-205,650	-128,258	0,116	-0,012
-204,636	451,418	0,038	-0,060
-203,621	419,351	0,065	-0,100
-202,606	-109,731	-0,023	-0,003
-201,592	800,000	0,038	0,114
-200,577	-99,111	-0,174	0,031
-199,563	-200,000	-0,009	0,096
-198,548	800,000	-0,042	0,083
-197,533	130,283	-0,089	0,081
-196,519	-200,000	-0,011	0,064
-195,504	800,000	-0,034	-0,077
-194,490	-200,000	0,034	-0,145
-193,475	-50,336	-0,064	-0,022
-192,460	-200,000	-0,006	0,038
-191,446	-100,963	0,082	0,014
-190,431	-88,110	0,086	0,018
-189,417	81,936	-0,093	0,072
-188,402	19,259	0,108	-0,061
-187,387	324,916	0,071	-0,097
-186,373	100,804	-0,078	0,064
-185,358	800,000	0,055	-0,174
-184,344	-200,000	-0,012	-0,200
-183,329	138,871	0,073	-0,069
-182,315	800,000	0,017	0,044
-181,300	-200,000	-0,009	-0,043
-180,285	-200,000	-0,025	-0,109
-179,271	-120,896	-0,138	0,016
-178,256	404,064	0,047	-0,070
-177,242	-200,000	-0,000	-0,014
-176,227	-200,000	0,001	0,101
-175,212	522,721	0,049	-0,082
-174,198	800,000	-0,027	0,062
-173,183	89,777	-0,046	-0,036
-172,169	-200,000	-0,016	-0,137
-171,154	800,000	-0,078	-0,192
-170,139	-9,158	-0,178	0,084
-169,125	-110,149	0,161	-0,024
-168,110	-200,000	-0,055	0,178
-167,096	-200,000	0,014	-0,066
-166,081	-200,000	0,015	-0,081
-165,066	-200,000	0,001	-0,021
-164,052	165,752	0,037	-0,037
-163,037	5,174	-0,109	0,057
-162,023	-68,838	0,025	0,007
-161,008	130,292	0,031	-0,029
-159,993	-15,608	0,143	-0,065
-158,979	-118,469	-0,077	0,010
-157,964	-67,885	-0,066	0,018
-156,950	209,340	-0,077	0,085
-155,935	-86,266	0,074	0,016
-154,920	-200,000	0,011	0,047
-153,906	-200,000	-0,004	0,107
-152,891	-200,000	-0,005	0,099
-151,877	-104,385	-0,106	0,017
-150,862	800,000	-0,058	-0,116
-149,847	-101,894	-0,144	-0,025
-148,833	284,563	0,051	0,065
-147,818	-9,158	0,060	-0,028
-146,804	797,497	-0,034	-0,066
-145,789	-200,000	0,003	0,082
-144,775	800,000	0,053	-0,130
-143,760	471,583	-0,105	-0,169
-142,745	421,119	0,035	0,053
-141,731	-119,440	-0,116	0,014
-140,716	-62,157	0,237	-0,070
-139,702	-183,375	0,024	0,000
-138,687	260,709	-0,098	0,121
-137,672	-200,000	0,039	-0,158
-136,658	-147,032	0,051	0,003
-135,643	800,000	-0,052	0,108
-134,629	800,000	0,008	-0,024
-133,614	-150,286	-0,111	-0,006
-132,599	176,089	0,055	0,057
-131,585	-132,251	0,106	0,010
-130,570	0,097	-0,107	0,054
-129,556	146,865	-0,062	-0,060
-128,541	299,509	0,040	-0,052
-127,526	-200,000	0,006	0,039
-126,512	-200,000	-0,007	0,048
-125,497	-68,432	0,106	-0,029
-124,483	-200,000	0,019	0,067
-123,468	-180,671	0,078	-0,001
-122,453	-119,465	0,051	-0,006
-121,439	-128,565	-0,032	-0,003
-120,424	121,603	-0,125	-0,111
-119,410	586,798	0,069	0,121
-118,395	42,786	-0,082	-0,053
-117,380	-149,601	0,099	0,005
-116,366	642,982	0,109	0,198
-115,351	-98,682	-0,089	0,016
-114,337	772,294	0,047	-0,092
-113,322	-52,867	-0,109	-0,035
-112,307	800,000	0,027	0,056
-111,293	800,000	0,064	0,157
-110,278	188,348	0,044	0,047
-109,264	34,030	0,027	0,016
-108,249	773,171	-0,034	0,066
-107,234	-200,000	0,020	0,092
-106,220	23,139	0,072	-0,042
-105,205	598,413	-0,045	-0,079
-104,191	-200,000	-0,004	0,113
-103,176	216,025	0,127	0,143
-102,162	372,245	-0,089	0,129
-101,147	25,834	-0,082	0,048
-100,132	50,357	-0,024	-0,016
-99,118	587,343	0,062	-0,109
-98,103	114,004	0,080	0,069
-97,089	800,000	0,048	0,103
-96,074	-200,000	-0,001	0,093
-95,059	-31,838	0,071	0,028
-94,045	251,528	-0,087	-0,105
-93,030	-102,500	-0,118	-0,020
-92,016	-200,000	0,010	-0,099
-91,001	328,546	-0,077	-0,106
-89,986	-51,591	-0,090	-0,029
-88,972	-124,368	0,075	0,008
-87,957	-70,904	0,106	0,028
-86,943	5,639	-0,052	0,027
-85,928	243,287	0,107	-0,127
-84,913	-200,000	0,023	-0,141
-83,899	-153,842	-0,059	0,003
-82,884	-114,621	0,122	0,016
-81,870	146,047	0,063	0,060
-80,855	664,633	0,062	-0,113
-79,840	23,899	0,077	-0,045
-78,826	800,000	-0,027	-0,070
-77,811	800,000	0,078	-0,179
-76,797	178,932	0,049	0,051
-75,782	-200,000	0,019	0,075
-74,767	215,232	-0,098	0,111
-73,753	70,779	0,085	0,063
-72,738	-31,314	-0,041	0,016
-71,724	116,758	-0,101	-0,088
-70,709	1,646	-0,154	-0,078
-69,694	23,735	-0,137	-0,080
-68,680	20,599	0,051	0,029
-67,665	-44,760	0,110	-0,039
-66,651	69,485	0,053	0,039
-65,636	-200,000	-0,036	0,120
-64,622	199,936	-0,040	-0,044
-63,607	800,000	0,064	-0,181
-62,592	27,520	-0,073	0,043
-61,578	-200,000	-0,001	0,064
-60,563	800,000	-0,032	0,093
-59,549	800,000	-0,034	0,080
-58,534	-39,259	-1,707	-0,632
-57,519	466,237	-1,265	-2,014
-56,505	-200,000	-0,714	-4,663
-55,490	176,918	0,928	0,957
-54,476	800,000	4,936	11,532
-53,461	-200,000	18,958	313,442
-52,446	-200,000	739,090	2325,256
-51,432	575,425	1655,442	2873,546
-50,417	79,167	1671,857	1267,141
-49,403	21,788	1544,623	888,622
-48,388	15,649	1467,174	814,206
-47,373	17,825	1457,217	819,169
-46,359	16,817	1447,126	808,630
-45,344	13,916	1442,499	792,108
-44,330	13,817	1440,783	790,660
-43,315	13,855	1438,799	789,721
-42,300	13,863	1437,103	788,802
-41,286	13,896	1436,085	788,368
-40,271	13,842	1434,624	787,274
-39,257	13,851	1433,475	786,655
-38,242	13,894	1432,224	786,144
-37,227	13,926	1430,931	785,557
-36,213	13,931	1429,687	784,864
-35,198	13,932	1428,512	784,192
-34,184	13,951	1427,594	783,748
-33,169	13,868	1426,336	782,635
-32,154	13,943	1425,083	782,271
-31,140	13,908	1423,868	781,408
-30,125	13,920	1422,925	780,912
-29,111	13,947	1421,452	780,202
-28,096	13,875	1420,540	779,329
-27,082	13,823	1419,615	778,547
-26,067	13,817	1418,287	777,760
-25,052	13,849	1417,147	777,256
-24,038	13,809	1416,187	776,507
-23,023	13,788	1415,428	775,963
-22,009	13,819	1414,265	775,443
-20,994	13,790	1413,614	774,917
-19,979	13,770	1412,633	774,253
-18,965	13,755	1411,578	773,576
-17,950	13,758	1410,564	773,004
-16,936	13,756	1409,821	772,556
-15,921	13,710	1408,510	771,591
-14,906	13,734	1407,515	771,129
-13,892	13,750	1406,721	770,737
-12,877	13,754	1405,692	770,161
-11,863	13,710	1404,976	769,531
-10,848	13,715	1404,106	769,047
-9,833	13,760	1402,972	768,608
-8,819	13,670	1402,323	767,801
-7,804	13,661	1401,442	767,245
-6,790	13,660	1400,201	766,532
-5,775	13,640	1399,481	766,015
-4,760	13,625	1398,541	765,400
-3,746	13,674	1397,287	764,913
-2,731	13,643	1396,746	764,440
-1,717	13,626	1395,990	763,916
-0,702	13,604	1394,083	762,744
0,313	17,351	1311,523	734,974
1,327	33,362	705,801	432,638
2,342	51,552	123,920	83,208
3,356	5,043	16,507	8,571
4,371	-3,293	3,303	1,622
5,386	56,252	0,555	0,381
6,400	800,000	0,066	0,154
7,415	23,083	-0,255	-0,148
8,429	-64,441	-0,422	-0,120
9,444	-58,402	-0,346	-0,106
10,459	265,311	-0,256	-0,316
11,473	-82,307	-0,318	-0,073
12,488	-14,347	-0,280	-0,127
13,502	-64,201	-0,257	-0,074
14,517	-33,544	-0,254	-0,099
15,531	-11,297	-0,475	-0,220
16,546	36,284	-0,311	-0,194
17,561	168,630	-0,374	-0,377
18,575	-69,151	-0,338	-0,091
19,590	66,978	-0,124	-0,089
20,604	68,257	-0,181	-0,131
21,619	17,939	-0,462	-0,259
22,634	-36,900	-0,341	-0,128
23,648	11,589	-0,436	-0,235
24,663	75,186	-0,291	-0,217
25,677	68,441	-0,441	-0,319
26,692	-13,822	-0,339	-0,154
27,707	121,695	-0,341	-0,300
28,721	193,623	-0,319	-0,341
29,736	72,647	-0,380	-0,280
30,750	204,495	-0,380	-0,416
31,765	91,604	-0,363	-0,288
32,780	176,954	-0,292	-0,301
33,794	82,784	-0,462	-0,354
34,809	8,723	-0,365	-0,193
35,823	12,529	-0,307	-0,167
36,838	25,307	-0,468	-0,274
37,853	-13,690	-0,414	-0,188
38,867	182,523	-0,411	-0,428
39,882	-12,305	-0,429	-0,197
40,896	118,180	-0,352	-0,306
41,911	-3,170	-0,267	-0,131
42,926	79,700	-0,440	-0,333
43,940	99,003	-0,359	-0,292
44,955	107,872	-0,327	-0,275
45,969	-20,205	-0,447	-0,193
46,984	-115,377	-0,252	-0,033
47,999	34,072	-0,280	-0,172
49,013	64,622	-0,323	-0,229
50,028	87,971	-0,378	-0,296
51,042	98,370	-0,385	-0,313
52,057	171,512	-0,306	-0,310
53,071	165,755	-0,397	-0,395
54,086	223,161	-0,290	-0,330
55,101	26,038	-0,313	-0,183
56,115	38,117	-0,384	-0,240
57,130	207,194	-0,296	-0,325
58,144	49,466	-0,361	-0,239
59,159	30,766	-0,462	-0,278
60,174	-3,675	-0,318	-0,155
61,188	19,768	-0,321	-0,181
62,203	-9,737	-0,352	-0,164
63,217	63,401	-0,457	-0,322
64,232	52,838	-0,420	-0,282
65,247	49,133	-0,485	-0,320
66,261	249,700	-0,306	-0,366
67,276	310,255	-0,260	-0,343
68,290	130,701	-0,239	-0,216
69,305	-49,832	-0,423	-0,141
70,320	-73,496	-0,295	-0,075
71,334	35,113	-0,444	-0,273
72,349	-140,389	-0,300	-0,022
73,363	87,627	-0,337	-0,262
74,378	-53,090	-0,436	-0,140
75,393	82,225	-0,421	-0,321
76,407	211,301	-0,141	-0,156
77,422	-35,281	-0,339	-0,129
78,436	73,283	-0,249	-0,183
79,451	93,006	-0,366	-0,291
80,466	-30,766	-0,303	-0,120
81,480	88,384	-0,235	-0,183
82,495	92,806	-0,417	-0,331
83,509	202,140	-0,281	-0,305
84,524	-3,868	-0,274	-0,133
85,539	-13,066	-0,448	-0,204
86,553	99,239	-0,279	-0,227
87,568	-40,875	-0,265	-0,096
88,582	245,837	-0,215	-0,254
89,597	-48,064	-0,254	-0,086
90,611	73,772	-0,218	-0,160
91,626	83,745	-0,247	-0,189
92,641	62,927	-0,209	-0,147
93,655	14,771	-0,207	-0,113
94,670	581,578	-0,174	-0,301
95,684	86,393	-0,347	-0,268
96,699	3,756	-0,289	-0,148
97,714	-2,938	-0,303	-0,148
98,728	-114,193	-0,381	0,051
99,743	-7,219	-0,385	-0,182
100,757	-113,680	-0,299	-0,040
101,772	0,662	-0,436	-0,218
102,787	-14,929	-0,312	-0,140
103,801	71,516	-0,285	-0,208
104,816	81,920	-0,257	-0,195
105,830	88,485	-0,253	-0,197
106,845	89,844	-0,233	-0,182
107,860	302,128	-0,151	-0,197
108,874	-69,137	-0,273	-0,073
109,889	17,324	-0,307	-0,170
110,903	128,557	-0,300	-0,268
111,918	496,990	-0,205	-0,332
112,933	72,162	-0,248	-0,181
113,947	372,528	-0,199	-0,284
114,962	245,627	-0,083	-0,098
115,976	166,175	-0,242	-0,240
116,991	-11,842	-0,309	-0,142
118,006	141,351	-0,317	-0,294
119,020	13,377	-0,287	-0,155
120,035	76,258	-0,285	-0,211
121,049	-5,985	-0,326	-0,156
122,064	269,023	-0,203	-0,250
123,079	30,692	-0,194	-0,116
124,093	-34,494	-0,284	-0,108
125,108	113,786	-0,258	-0,219
126,122	90,983	-0,253	-0,199
127,137	549,110	-0,136	-0,228
128,151	800,000	-0,184	-0,408
129,166	34,407	-0,291	-0,177
130,181	10,153	-0,350	-0,186
131,195	479,045	-0,156	-0,248
132,210	81,777	-0,365	-0,276
133,224	59,015	-0,365	-0,251
134,239	250,330	-0,249	-0,296
135,254	80,733	-0,250	-0,188
136,268	103,190	-0,188	-0,154
137,283	-16,985	-0,263	-0,116
138,297	44,541	-0,286	-0,183
139,312	271,360	-0,153	-0,189
140,327	124,219	-0,289	-0,254
141,341	-2,743	-0,324	-0,158
142,356	-152,008	-0,301	0,015
143,370	-12,088	-0,197	-0,090
144,385	-57,829	-0,153	-0,046
145,400	150,061	-0,231	-0,219
146,414	382,247	-0,172	-0,248
147,429	-38,523	-0,438	-0,161
148,443	101,594	-0,307	-0,250
149,458	299,189	-0,166	-0,214
150,473	339,601	-0,108	-0,147
151,487	257,413	-0,153	-0,184
152,502	256,940	-0,317	-0,381
153,516	27,837	-0,416	-0,244
154,531	180,400	-0,219	-0,224
155,546	-79,500	-0,309	-0,072
156,560	800,000	-0,099	-0,222
157,575	141,323	-0,278	-0,257
158,589	172,768	-0,178	-0,179
159,604	22,836	-0,258	-0,147
160,619	72,533	-0,276	-0,201
161,633	45,430	-0,267	-0,172
162,648	-54,803	-0,322	-0,101
163,662	313,995	-0,117	-0,154
164,677	197,792	-0,214	-0,228
165,692	26,461	-0,177	-0,103
166,706	132,693	-0,256	-0,230
167,721	88,044	-0,177	-0,136
168,735	50,906	-0,328	-0,216
169,750	-43,540	-0,233	-0,082
170,764	172,677	-0,261	-0,262
171,779	46,378	-0,257	-0,166
172,794	76,458	-0,257	-0,190
173,808	-14,252	-0,286	-0,128
174,823	15,250	-0,256	-0,140
175,837	-49,354	-0,150	-0,050
176,852	-0,465	-0,160	-0,079
177,867	18,776	-0,216	-0,120
178,881	-28,989	-0,298	-0,119
179,896	89,685	-0,138	-0,107
180,910	459,032	-0,126	-0,196
181,925	175,371	-0,158	-0,159
182,940	44,643	-0,231	-0,147
183,954	800,000	-0,101	-0,228
184,969	-55,729	-0,328	-0,102
185,983	74,603	-0,133	-0,097
186,998	55,556	-0,259	-0,174
188,013	-200,000	-0,031	-0,108
189,027	59,490	-0,264	-0,181
190,042	396,987	-0,153	-0,224
191,056	-39,378	-0,203	-0,074
192,071	-120,487	-0,151	-0,018
193,086	-13,846	-0,092	-0,041
194,100	36,110	-0,186	-0,114
195,115	19,468	-0,166	-0,093
196,129	62,699	-0,233	-0,162
197,144	172,332	-0,247	-0,247
198,159	141,250	-0,232	-0,214
199,173	170,788	-0,127	-0,127
200,188	3,267	-0,189	-0,095
201,202	-163,114	-0,291	0,010
202,217	800,000	-0,061	-0,139
203,232	-84,738	-0,362	-0,079
204,246	138,259	-0,203	-0,185
205,261	106,770	-0,135	-0,112
206,275	365,944	-0,140	-0,196
207,290	128,059	-0,199	-0,176
208,304	232,318	-0,185	-0,211
209,319	-23,829	-0,250	-0,104
210,334	-102,490	-0,139	0,023
211,348	70,548	-0,177	-0,127
212,363	437,192	-0,118	-0,179
213,377	-200,000	-0,090	-0,365
214,392	-108,699	-0,249	-0,037
215,407	583,361	-0,143	-0,245
216,421	118,447	-0,304	-0,261
217,436	-40,586	-0,143	-0,051
218,450	800,000	-0,099	-0,285
219,465	231,039	-0,102	-0,117
220,480	320,155	-0,086	-0,114
221,494	-107,562	-0,131	-0,020
222,509	-134,243	-0,091	-0,008
223,523	-7,548	-0,175	-0,082
224,538	28,846	-0,169	-0,099
225,553	-98,588	-0,267	-0,047
226,567	25,067	-0,292	-0,168
227,582	56,587	-0,368	-0,248
228,596	56,967	-0,236	-0,159
229,611	-124,957	-0,220	-0,023
230,626	103,119	-0,198	-0,161
231,640	178,937	-0,202	-0,205
232,655	58,851	-0,144	-0,098
233,669	-8,849	-0,126	-0,058
234,684	-150,903	-0,131	-0,007
235,699	49,110	-0,235	-0,153
236,713	-19,621	-0,134	-0,057
237,728	156,787	-0,159	-0,152
238,742	71,761	-0,325	-0,234
239,757	190,478	-0,125	-0,130
240,772	208,285	-0,310	-0,337
241,786	-29,148	-0,166	-0,066
242,801	275,987	-0,177	-0,219
243,815	128,933	-0,126	-0,111
244,830	149,084	-0,164	-0,154
245,844	65,234	-0,279	-0,195
246,859	167,444	-0,095	-0,093
247,874	104,681	-0,286	-0,234
248,888	-8,609	-0,206	-0,095
249,903	259,403	-0,156	-0,186
250,917	133,255	-0,089	-0,080
251,932	-84,937	-0,106	-0,023
252,947	36,999	-0,087	-0,053
253,961	34,131	-0,224	-0,135
254,976	107,490	-0,196	-0,161
255,990	243,189	-0,121	-0,140
257,005	-62,086	-0,087	-0,025
258,020	-34,171	-0,258	-0,098
259,034	346,549	-0,055	-0,075
260,049	20,574	-0,190	-0,106
261,063	180,249	-0,187	-0,189
262,078	100,729	-0,165	-0,133
263,093	307,265	-0,180	-0,233
264,107	445,998	-0,103	-0,157
265,122	-4,307	-0,233	-0,111
266,136	3,900	-0,199	-0,100
267,151	-103,200	-0,058	0,009
268,166	56,146	-0,272	-0,182
269,180	409,667	-0,117	-0,172
270,195	67,840	-0,228	-0,161
271,209	517,821	-0,148	-0,240
272,224	92,730	-0,105	-0,082
273,239	800,000	-0,149	-0,288
274,253	136,997	-0,124	-0,112
275,268	226,934	-0,187	-0,210
276,282	228,456	-0,168	-0,189
277,297	-3,281	-0,223	-0,107
278,312	-32,735	-0,222	-0,085
279,326	63,489	-0,081	-0,056
280,341	-200,000	-0,009	-0,157
281,355	391,954	-0,117	-0,168
282,370	246,196	-0,130	-0,151
283,384	-89,023	-0,099	0,020
284,399	196,705	-0,163	-0,172
285,414	203,679	-0,177	-0,189
286,428	119,954	-0,089	-0,076
287,443	352,674	-0,099	-0,136
288,457	142,283	-0,162	-0,149
289,472	-96,764	-0,167	-0,030
290,487	-178,969	-0,197	0,003
291,501	-62,922	-0,208	-0,059
292,516	122,972	-0,172	-0,149
293,530	-112,621	-0,214	-0,029
294,545	55,172	-0,148	-0,098
295,560	-45,941	-0,221	-0,075
296,574	563,477	-0,136	-0,228
297,589	763,581	-0,077	-0,144
298,603	800,000	-0,106	-0,236
299,618	704,880	-0,128	-0,234
300,633	-64,874	-0,216	-0,060
301,647	800,000	-0,062	-0,161
302,662	409,256	-0,113	-0,165
303,676	256,020	-0,192	-0,227
304,691	-20,148	-0,267	-0,113
305,706	156,879	-0,192	-0,183
306,720	108,998	-0,157	-0,129
307,735	346,934	-0,170	-0,232
308,749	40,686	-0,174	-0,108
309,764	-33,230	-0,204	0,077
310,779	-98,614	-0,116	0,020
311,793	-19,073	-0,143	-0,061
312,808	106,078	-0,204	-0,166
313,822	39,749	-0,092	-0,057
314,837	137,134	-0,091	-0,082
315,852	-29,025	-0,123	-0,048
316,866	800,000	-0,059	-0,135
317,881	205,551	-0,221	-0,237
318,895	473,079	-0,141	-0,220
319,910	-81,039	-0,128	-0,029
320,925	190,852	-0,186	-0,192
321,939	67,226	-0,078	-0,054
322,954	483,599	-0,056	-0,088
323,968	24,487	-0,103	-0,058
324,983	-60,409	-0,116	-0,034
325,997	-166,206	-0,295	-0,008
327,012	393,349	-0,168	-0,241
328,027	140,281	-0,130	-0,118
329,041	-200,000	-0,051	-0,230
330,056	800,000	-0,125	-0,251
331,070	145,729	-0,077	0,071
332,085	254,560	-0,134	-0,158
333,100	578,783	-0,117	-0,198
334,114	-200,000	-0,053	-0,239
335,129	-200,000	-0,026	-0,140
336,143	20,221	-0,233	-0,129
337,158	800,000	-0,086	-0,166
338,173	-200,000	-0,009	-0,105
339,187	-200,000	0,016	-0,129
340,202	-200,000	-0,007	0,072
341,216	-200,000	-0,056	-0,184
342,231	415,201	-0,148	-0,218
343,246	-87,227	-0,097	0,020
344,260	95,250	-0,158	-0,124
345,275	-89,470	-0,279	-0,056
346,289	-40,965	-0,162	-0,057
347,304	-200,000	-0,014	-0,221
348,319	153,892	-0,150	-0,141
349,333	-29,645	-0,150	-0,059
350,348	-23,936	-0,139	-0,057
351,362	-200,000	0,027	-0,195
352,377	17,241	-0,081	-0,044
353,392	-200,000	-0,008	0,030
354,406	66,884	-0,177	-0,123
355,421	207,433	1314,425	1408,772
356,435	159,565	1475,126	1409,262
