DTS Sentinel unit serial number:	SN410029Multiplexer serial number:	ORYXHardware model number:	OX2-SRSoftware version number:	ORYX F/W v4,00 Oryx Data Collector v3.7.2.0data status	okinstallation	B3 Nyhavnadifferential loss correction	single-endedforward channel	channel 1reverse channel	N/Adate	2023/12/03time	02:32:30forward acquisition time	300,00reverse acquisition time	0,00gamma	499,1914k internal	0,3201k external	0,3201temperature offset calibration	1,0000default loss term (dB/km)	0,3820temperature slope calibration	1,0000multiplexer offset coefficient	1,0000multiplexer slope coefficient	1,0000fibre end	0,00T internal ref (°C)	13,32T ext. ref 1 (°C)	-1,74T ext. ref 2 (°C)	-1,76length (m)	temperature (°C)	Stokes	anti-Stokes-744,400	56,279	-0,247	-0,174
-743,385	-200,000	0,021	0,366
-742,371	113,599	-0,219	-0,194
-741,356	800,000	0,064	0,157
-740,342	159,664	-0,178	-0,180
-739,327	800,000	-0,098	0,302
-738,312	51,927	-0,245	-0,169
-737,298	800,000	0,094	0,297
-736,283	254,848	-0,155	-0,193
-735,269	-200,000	0,032	0,391
-734,254	185,769	-0,120	-0,130
-733,239	207,546	-0,160	0,182
-732,225	441,250	-0,073	-0,117
-731,210	539,891	0,078	0,136
-730,196	-72,497	-0,037	-0,010
-729,181	800,000	-0,042	-0,119
-728,167	463,280	-0,016	0,026
-727,152	800,000	0,075	0,188
-726,137	-148,214	-0,155	-0,009
-725,123	-200,000	-0,001	-0,111
-724,108	66,004	-0,110	0,081
-723,094	-89,142	-0,084	-0,018
-722,079	264,358	-0,067	-0,085
-721,064	-64,940	0,024	0,007
-720,050	23,670	0,076	-0,045
-719,035	-26,676	-0,065	-0,028
-718,021	800,000	-0,058	-0,132
-717,006	-80,929	0,076	0,018
-715,991	115,451	-0,182	-0,162
-714,977	-155,206	0,107	0,005
-713,962	-200,000	0,000	0,009
-712,948	-141,928	-0,126	0,009
-711,933	-15,475	0,070	-0,032
-710,918	658,905	-0,019	-0,036
-709,904	663,826	-0,070	-0,132
-708,889	154,586	-0,033	-0,033
-707,875	10,185	-0,137	-0,076
-706,860	188,480	0,068	0,074
-705,845	800,000	-0,035	-0,071
-704,831	54,451	-0,068	0,048
-703,816	-26,101	-0,108	0,046
-702,802	-81,007	0,083	0,020
-701,787	-153,580	-0,136	0,007
-700,772	-94,580	-0,118	0,023
-699,758	448,720	-0,080	-0,128
-698,743	282,855	-0,041	-0,054
-697,729	800,000	0,052	0,161
-696,714	800,000	-0,018	-0,050
-695,699	-147,258	0,112	0,007
-694,685	-200,000	0,013	-0,098
-693,670	718,834	0,047	-0,091
-692,656	46,462	0,047	-0,032
-691,641	188,613	0,078	0,085
-690,627	-37,176	0,037	-0,014
-689,612	-200,000	-0,019	-0,081
-688,597	800,000	-0,047	0,107
-687,583	-200,000	0,012	0,063
-686,568	800,000	-0,009	-0,026
-685,554	-200,000	0,034	-0,110
-684,539	-1,530	0,063	0,032
-683,524	-71,933	0,033	-0,009
-682,510	567,552	-0,036	0,064
-681,495	-200,000	-0,001	0,006
-680,481	127,892	-0,127	0,118
-679,466	-15,620	0,125	-0,058
-678,451	-200,000	-0,011	0,057
-677,437	129,754	0,109	-0,101
-676,422	-200,000	0,002	0,024
-675,408	102,784	-0,067	0,056
-674,393	-162,079	-0,079	0,003
-673,378	-171,535	-0,170	-0,004
-672,364	225,673	-0,038	0,044
-671,349	55,297	0,092	-0,064
-670,335	-200,000	-0,001	-0,159
-669,320	-200,000	0,049	0,164
-668,305	171,919	-0,100	0,104
-667,291	-200,000	-0,013	0,044
-666,276	800,000	-0,050	-0,110
-665,262	-67,121	-0,125	-0,036
-664,247	102,849	-0,063	0,053
-663,232	800,000	-0,037	-0,084
-662,218	179,283	0,027	0,029
-661,203	-61,084	0,135	-0,041
-660,189	-200,000	-0,016	0,000
-659,174	800,000	0,080	-0,219
-658,159	561,969	0,043	0,076
-657,145	126,174	-0,061	-0,056
-656,130	12,122	-0,128	0,071
-655,116	108,775	0,129	0,112
-654,101	235,800	0,079	-0,095
-653,086	364,357	-0,041	0,059
-652,072	288,513	-0,100	-0,132
-651,057	-100,374	-0,153	-0,027
-650,043	-14,129	0,066	-0,031
-649,028	-137,856	-0,162	0,013
-648,014	-57,109	-0,047	-0,015
-646,999	-187,845	0,058	0,001
-645,984	-200,000	0,012	0,192
-644,970	-162,429	0,110	0,004
-643,955	-200,000	-0,027	-0,121
-642,941	110,447	0,079	-0,069
-641,926	412,542	0,039	0,060
-640,911	83,489	-0,038	0,030
-639,897	-74,613	0,082	-0,021
-638,882	800,000	-0,039	0,109
-637,868	559,231	-0,047	0,082
-636,853	309,043	0,049	-0,067
-635,838	343,117	-0,048	-0,069
-634,824	281,555	-0,104	-0,135
-633,809	293,441	-0,060	-0,079
-632,795	-200,000	0,009	-0,051
-631,780	-67,834	0,095	0,027
-630,765	77,520	-0,076	0,059
-629,751	276,041	-0,039	0,051
-628,736	370,904	-0,058	-0,085
-627,722	405,492	-0,038	-0,058
-626,707	800,000	-0,023	-0,056
-625,692	-200,000	0,003	-0,106
-624,678	800,000	0,034	0,072
-623,663	110,547	-0,056	-0,049
-622,649	-92,032	-0,120	-0,024
-621,634	79,334	-0,110	-0,086
-620,619	110,669	0,093	-0,081
-619,605	211,699	-0,055	-0,062
-618,590	800,000	-0,047	-0,146
-617,576	246,598	0,011	-0,013
-616,561	800,000	0,019	0,047
-615,546	141,540	0,022	0,021
-614,532	0,276	0,077	0,039
-613,517	513,124	0,037	-0,062
-612,503	-200,000	-0,003	-0,071
-611,488	134,363	0,070	-0,066
-610,474	106,988	-0,085	-0,073
-609,459	-200,000	0,123	0,000
-608,444	-104,607	-0,112	-0,019
-607,430	-108,288	0,061	-0,009
-606,415	-200,000	0,004	0,014
-605,401	321,042	-0,028	0,039
-604,386	-42,161	0,065	-0,024
-603,371	242,673	-0,031	-0,037
-602,357	162,856	0,053	-0,054
-601,342	-146,570	-0,112	0,007
-600,328	16,071	-0,135	-0,077
-599,313	95,051	-0,070	-0,058
-598,298	-108,925	-0,253	-0,039
-597,284	-107,587	0,199	-0,031
-596,269	-200,000	-0,004	-0,039
-595,255	-94,138	0,032	-0,006
-594,240	-157,623	-0,145	0,006
-593,225	46,781	-0,141	-0,095
-592,211	800,000	-0,028	-0,080
-591,196	-175,288	0,023	0,000
-590,182	-200,000	0,005	-0,051
-589,167	18,857	0,063	0,036
-588,152	43,499	-0,085	0,056
-587,138	-200,000	-0,018	-0,115
-586,123	-74,463	-0,040	0,010
-585,109	226,342	-0,010	-0,012
-584,094	161,904	-0,016	0,016
-583,079	355,832	0,001	0,001
-582,065	24,709	0,184	-0,110
-581,050	-92,031	-0,070	-0,014
-580,036	-200,000	-0,004	-0,017
-579,021	481,521	-0,098	-0,162
-578,006	338,564	-0,055	-0,078
-576,992	-62,985	0,070	-0,021
-575,977	-200,000	0,012	0,178
-574,963	463,699	0,030	0,049
-573,948	83,461	0,072	-0,057
-572,934	-41,197	-0,036	0,013
-571,919	-9,693	-0,048	0,023
-570,904	800,000	-0,018	0,049
-569,890	-200,000	0,016	-0,062
-568,875	105,392	-0,012	-0,010
-567,861	800,000	-0,033	0,090
-566,846	460,174	0,019	0,030
-565,831	800,000	0,015	0,039
-564,817	-200,000	0,024	-0,160
-563,802	216,174	-0,056	-0,064
-562,788	-200,000	0,014	0,047
-561,773	663,195	-0,046	-0,086
-560,758	-200,000	-0,055	0,195
-559,744	389,267	0,074	0,112
-558,729	200,874	0,024	-0,027
-557,715	-66,442	-0,078	-0,022
-556,700	169,049	0,053	-0,055
-555,685	-200,000	-0,026	-0,107
-554,671	133,764	0,122	0,114
-553,656	227,334	0,024	0,028
-552,642	800,000	0,033	0,079
-551,627	-11,670	-0,090	0,043
-550,612	574,906	-0,050	0,089
-549,598	44,194	-0,071	-0,047
-548,583	35,065	-0,111	0,070
-547,569	-200,000	0,021	0,121
-546,554	222,785	0,025	0,029
-545,539	-200,000	-0,018	0,057
-544,525	800,000	0,048	0,118
-543,510	337,019	-0,031	0,043
-542,496	167,975	-0,049	-0,050
-541,481	-0,726	0,028	-0,014
-540,466	-62,590	-0,065	-0,019
-539,452	800,000	-0,038	-0,113
-538,437	-200,000	-0,002	-0,069
-537,423	-200,000	-0,005	-0,047
-536,408	-200,000	0,003	0,013
-535,393	800,000	0,027	-0,081
-534,379	702,278	0,031	0,060
-533,364	-200,000	0,016	-0,081
-532,350	127,545	-0,044	0,041
-531,335	-200,000	0,002	-0,016
-530,321	215,379	-0,057	0,066
-529,306	36,934	0,121	0,077
-528,291	-155,382	0,094	0,004
-527,277	-10,242	-0,065	-0,031
-526,262	269,593	-0,054	0,069
-525,248	-140,788	0,043	-0,003
-524,233	-200,000	0,014	0,091
-523,218	106,958	0,053	0,046
-522,204	-200,000	-0,011	-0,038
-521,189	387,204	0,032	0,047
-520,175	-40,373	-0,046	-0,017
-519,160	111,163	0,026	-0,023
-518,145	33,028	-0,078	-0,049
-517,131	316,827	0,066	-0,090
-516,116	92,603	-0,080	0,065
-515,102	-200,000	-0,096	-0,000
-514,087	235,341	-0,121	-0,144
-513,072	800,000	-0,042	-0,107
-512,058	749,778	0,057	-0,111
-511,043	311,189	0,082	-0,111
-510,029	-73,857	0,040	0,010
-509,014	257,139	0,030	-0,038
-507,999	-200,000	-0,024	0,079
-506,985	-200,000	-0,009	0,107
-505,970	171,780	0,025	-0,025
-504,956	-55,302	0,059	0,019
-503,941	298,657	-0,058	0,077
-502,926	-200,000	-0,019	-0,142
-501,912	14,650	0,069	0,039
-500,897	-200,000	-0,013	0,127
-499,883	-63,499	0,163	-0,048
-498,868	800,000	-0,037	-0,113
-497,853	127,701	0,123	-0,112
-496,839	262,440	-0,066	-0,083
-495,824	-18,475	0,088	0,039
-494,810	70,865	0,164	0,123
-493,795	-80,907	0,038	-0,009
-492,781	800,000	-0,048	-0,107
-491,766	800,000	-0,011	-0,033
-490,751	-200,000	0,026	0,125
-489,737	-200,000	0,034	-0,134
-488,722	800,000	0,005	-0,014
-487,708	-2,946	0,028	0,014
-486,693	299,548	0,018	-0,024
-485,678	166,651	0,090	-0,092
-484,664	352,936	0,068	-0,097
-483,649	800,000	0,011	-0,027
-482,635	-200,000	0,003	-0,089
-481,620	39,448	0,179	-0,115
-480,605	277,778	0,113	0,146
-479,591	800,000	0,020	0,044
-478,576	72,954	-0,082	-0,061
-477,562	-200,000	0,016	0,121
-476,547	-200,000	-0,019	0,063
-475,532	208,755	0,047	-0,053
-474,518	609,563	0,038	0,068
-473,503	67,954	0,092	0,067
-472,489	-158,894	0,134	0,005
-471,474	91,042	-0,104	0,084
-470,459	800,000	-0,036	0,105
-469,445	35,935	-0,075	0,047
-468,430	12,510	-0,113	0,063
-467,416	266,360	-0,136	-0,171
-466,401	147,771	0,029	0,028
-465,386	225,619	-0,040	0,046
-464,372	455,729	0,045	0,072
-463,357	18,895	-0,113	-0,065
-462,343	-0,103	-0,021	-0,011
-461,328	214,469	-0,130	-0,148
-460,313	-200,000	-0,007	0,136
-459,299	-162,441	-0,145	-0,005
-458,284	560,308	-0,048	-0,083
-457,270	-91,433	0,132	0,027
-456,255	-200,000	-0,006	-0,019
-455,241	800,000	0,007	0,018
-454,226	-42,726	-0,090	-0,033
-453,211	-18,759	0,045	0,020
-452,197	-82,024	0,103	-0,024
-451,182	800,000	0,021	-0,046
-450,168	-200,000	-0,024	0,098
-449,153	74,436	-0,109	0,082
-448,138	-83,630	-0,048	0,011
-447,124	397,248	0,062	-0,094
-446,109	60,000	0,021	-0,015
-445,095	-200,000	0,018	-0,092
-444,080	800,000	0,100	0,206
-443,065	-123,716	-0,137	0,015
-442,051	-200,000	-0,002	0,031
-441,036	-53,188	0,056	0,018
-440,022	-200,000	-0,025	-0,097
-439,007	-200,000	0,000	-0,104
-437,992	-200,000	0,001	-0,021
-436,978	-200,000	-0,022	0,153
-435,963	-200,000	0,008	0,057
-434,949	-7,506	-0,027	-0,013
-433,934	-193,778	-0,073	0,000
-432,919	-50,428	-0,100	0,034
-431,905	84,835	0,159	-0,125
-430,890	425,125	0,004	-0,006
-429,876	42,464	0,128	0,084
-428,861	-59,809	0,057	-0,017
-427,846	134,246	-0,032	0,029
-426,832	-200,000	0,025	-0,155
-425,817	800,000	-0,006	0,015
-424,803	92,513	-0,133	-0,108
-423,788	-200,000	0,017	0,141
-422,773	-200,000	-0,010	0,039
-421,759	-28,970	0,135	0,055
-420,744	-200,000	-0,007	0,144
-419,730	88,763	0,022	-0,018
-418,715	65,802	-0,132	-0,096
-417,701	34,120	-0,051	0,032
-416,686	-200,000	0,007	0,170
-415,671	-200,000	0,019	0,144
-414,657	-200,000	0,040	0,219
-413,642	298,690	0,028	0,037
-412,628	58,267	-0,047	-0,033
-411,613	-200,000	-0,063	-0,265
-410,598	770,469	-0,030	-0,059
-409,584	607,059	-0,024	0,043
-408,569	-122,060	0,088	-0,010
-407,555	135,147	0,063	-0,059
-406,540	-75,306	0,037	-0,009
-405,525	-200,000	0,000	0,003
-404,511	800,000	-0,016	0,033
-403,496	-0,803	-0,102	-0,052
-402,482	683,911	0,010	0,019
-401,467	-31,403	0,034	0,013
-400,452	118,622	0,048	0,042
-399,438	-200,000	-0,012	0,053
-398,423	800,000	-0,034	0,081
-397,409	-104,107	-0,056	0,009
-396,394	323,903	-0,035	0,048
-395,379	-200,000	0,000	-0,039
-394,365	-200,000	-0,037	0,236
-393,350	-128,112	-0,114	0,012
-392,336	-110,263	0,054	-0,008
-391,321	141,230	0,096	0,092
-390,306	511,817	0,075	-0,125
-389,292	210,338	-0,089	0,100
-388,277	-47,040	0,147	-0,051
-387,263	179,334	0,123	-0,130
-386,248	-26,698	0,090	0,038
-385,233	439,696	-0,037	-0,058
-384,219	-66,674	0,068	-0,019
-383,204	28,193	-0,052	-0,031
-382,190	559,724	-0,078	-0,136
-381,175	-200,000	0,006	-0,054
-380,160	23,861	0,081	-0,048
-379,146	800,000	0,035	0,087
-378,131	-200,000	-0,011	0,097
-377,117	-46,405	0,151	0,053
-376,102	-56,979	-0,111	0,035
-375,088	-200,000	0,036	-0,134
-374,073	-200,000	0,022	-0,070
-373,058	316,448	-0,043	-0,059
-372,044	-61,162	-0,033	0,010
-371,029	-200,000	-0,025	0,090
-370,015	800,000	-0,008	-0,026
-369,000	274,252	-0,037	0,048
-367,985	-200,000	0,009	-0,170
-366,971	24,648	-0,181	-0,107
-365,956	800,000	0,051	0,132
-364,942	-200,000	0,012	0,071
-363,927	130,988	0,054	-0,049
-362,912	-82,250	0,104	-0,024
-361,898	27,783	-0,030	-0,018
-360,883	-41,261	0,040	0,015
-359,869	305,271	-0,004	-0,005
-358,854	538,971	0,162	-0,277
-357,839	-177,856	0,149	0,002
-356,825	542,545	-0,047	0,081
-355,810	-84,391	0,039	0,009
-354,796	45,184	-0,049	-0,032
-353,781	12,383	0,040	-0,022
-352,766	-120,983	-0,104	-0,012
-351,752	-200,000	-0,045	-0,157
-350,737	233,136	0,130	0,153
-349,723	428,657	-0,030	0,046
-348,708	-200,000	0,010	0,085
-347,693	800,000	0,046	0,118
-346,679	28,910	-0,095	-0,058
-345,664	800,000	0,050	-0,129
-344,650	-97,981	0,091	-0,017
-343,635	-78,755	0,123	0,030
-342,620	-34,437	0,028	0,011
-341,606	756,292	-0,048	-0,094
-340,591	595,364	0,061	-0,109
-339,577	-200,000	0,014	-0,097
-338,562	800,000	-0,043	-0,110
-337,548	421,355	0,072	-0,111
-336,533	449,887	0,028	0,044
-335,518	-101,942	0,056	0,010
-334,504	-82,329	0,128	0,030
-333,489	397,289	0,044	-0,066
-332,475	-61,565	-0,088	0,026
-331,460	800,000	0,049	0,102
-330,445	-102,642	0,118	-0,020
-329,431	-111,307	0,181	0,026
-328,416	-189,083	0,104	-0,001
-327,402	-98,535	0,132	-0,024
-326,387	458,432	-0,051	-0,081
-325,372	377,956	-0,041	-0,060
-324,358	311,861	-0,026	-0,034
-323,343	85,891	0,062	-0,048
-322,329	-136,480	-0,071	0,006
-321,314	-46,517	0,070	0,025
-320,299	-32,430	0,021	-0,008
-319,285	-200,000	0,014	0,048
-318,270	-200,000	0,023	-0,097
-317,256	-43,554	-0,056	-0,020
-316,241	-200,000	0,008	0,040
-315,226	-200,000	-0,010	0,075
-314,212	355,711	0,079	0,113
-313,197	-200,000	-0,007	-0,034
-312,183	432,571	0,074	-0,116
-311,168	253,061	-0,023	0,028
-310,153	140,457	0,012	-0,011
-309,139	-116,727	-0,147	0,019
-308,124	-200,000	-0,021	0,121
-307,110	800,000	0,065	0,155
-306,095	94,109	0,034	0,027
-305,080	-200,000	0,032	-0,107
-304,066	-104,560	-0,055	-0,009
-303,051	-134,702	0,021	-0,002
-302,037	-117,791	-0,059	0,008
-301,022	60,073	-0,143	0,101
-300,008	-135,101	0,201	-0,017
-298,993	-200,000	0,014	0,060
-297,978	800,000	-0,072	0,176
-296,964	-57,860	0,115	-0,036
-295,949	800,000	-0,034	-0,069
-294,935	-7,952	-0,097	0,046
-293,920	-10,584	-0,057	0,027
-292,905	-57,382	0,051	0,016
-291,891	-200,000	-0,008	-0,058
-290,876	800,000	0,040	0,100
-289,862	197,248	-0,141	0,154
-288,847	-200,000	-0,021	-0,180
-287,832	800,000	-0,031	0,064
-286,818	-137,292	-0,187	-0,015
-285,803	-149,549	0,107	-0,006
-284,789	607,347	-0,044	0,079
-283,774	-77,678	-0,129	0,032
-282,759	71,539	0,115	-0,085
-281,745	-200,000	-0,011	-0,155
-280,730	52,058	-0,117	-0,080
-279,716	-200,000	0,009	0,050
-278,701	-31,838	-0,172	0,068
-277,686	-161,014	-0,035	-0,001
-276,672	-48,804	0,053	-0,018
-275,657	86,273	-0,158	-0,124
-274,643	-84,233	-0,133	-0,030
-273,628	-16,884	-0,099	-0,045
-272,613	179,808	0,035	-0,036
-271,599	-72,291	-0,094	0,025
-270,584	102,922	-0,034	0,028
-269,570	496,494	0,060	0,099
-268,555	405,403	0,043	0,064
-267,540	-75,527	-0,128	-0,032
-266,526	800,000	-0,010	0,026
-265,511	-46,707	0,040	-0,014
-264,497	-94,994	-0,091	0,017
-263,482	800,000	0,019	0,047
-262,467	-200,000	0,045	0,208
-261,453	137,108	0,079	0,074
-260,438	-6,983	-0,152	-0,073
-259,424	37,890	-0,100	-0,063
-258,409	-200,000	-0,000	0,011
-257,395	800,000	0,046	0,104
-256,380	2,564	0,051	0,026
-255,365	797,653	0,004	0,009
-254,351	-85,779	0,170	0,037
-253,336	800,000	0,022	-0,058
-252,322	800,000	-0,030	-0,079
-251,307	721,114	-0,043	0,082
-250,292	722,778	-0,027	-0,051
-249,278	800,000	-0,032	-0,067
-248,263	505,875	-0,053	0,088
-247,249	10,069	-0,105	-0,057
-246,234	-200,000	-0,001	0,124
-245,219	18,984	0,024	-0,014
-244,205	-40,061	-0,104	-0,039
-243,190	-146,097	0,042	-0,003
-242,176	-110,770	0,189	0,028
-241,161	108,288	0,092	0,078
-240,146	-200,000	-0,003	0,019
-239,132	-200,000	-0,003	0,099
-238,117	7,995	-0,063	0,034
-237,103	171,026	-0,009	0,009
-236,088	-200,000	0,003	-0,055
-235,073	431,750	0,069	-0,108
-234,059	380,390	0,037	0,054
-233,044	46,168	0,182	0,120
-232,030	355,285	-0,034	-0,049
-231,015	401,038	0,052	-0,078
-230,000	362,924	-0,092	-0,132
-228,986	-200,000	0,010	0,038
-227,971	98,795	0,020	0,017
-226,957	-1,445	0,132	0,066
-225,942	800,000	-0,067	-0,197
-224,927	26,089	-0,070	0,042
-223,913	28,635	-0,037	-0,022
-222,898	-101,136	-0,044	-0,008
-221,884	189,670	-0,078	-0,083
-220,869	417,373	-0,010	-0,015
-219,855	-26,664	0,172	-0,071
-218,840	87,837	-0,031	0,024
-217,825	-200,000	-0,014	0,044
-216,811	-67,625	0,161	0,045
-215,796	-200,000	0,002	0,076
-214,782	603,319	-0,039	-0,069
-213,767	800,000	0,079	0,185
-212,752	-138,333	0,141	0,011
-211,738	329,166	-0,083	0,114
-210,723	50,639	-0,106	-0,071
-209,709	-10,467	-0,192	-0,090
-208,694	-118,403	0,139	-0,017
-207,679	29,224	-0,117	0,071
-206,665	376,724	0,026	0,038
-205,650	800,000	-0,043	0,100
-204,636	800,000	-0,042	-0,084
-203,621	-200,000	0,006	0,052
-202,606	107,837	-0,030	0,025
-201,592	-199,092	0,149	0,001
-200,577	555,535	-0,019	-0,033
-199,563	273,765	-0,026	0,033
-198,548	800,000	-0,006	-0,014
-197,533	508,385	-0,028	0,047
-196,519	800,000	0,054	0,140
-195,504	4,172	-0,084	-0,043
-194,490	126,994	-0,063	0,057
-193,475	-200,000	-0,003	-0,087
-192,460	-16,787	-0,106	-0,047
-191,446	-184,729	-0,076	-0,001
-190,431	99,651	0,067	0,055
-189,417	-95,176	0,093	-0,018
-188,402	800,000	0,012	-0,028
-187,387	83,597	-0,019	-0,015
-186,373	-126,850	-0,098	0,010
-185,358	-200,000	0,024	0,078
-184,344	627,572	0,101	0,182
-183,329	762,569	0,058	0,113
-182,315	299,451	-0,052	0,069
-181,300	-54,639	-0,107	0,034
-180,285	-200,000	0,015	-0,160
-179,271	200,024	0,040	0,043
-178,256	342,598	0,060	0,084
-177,242	488,269	0,021	-0,034
-176,227	30,720	0,082	0,050
-175,212	644,806	-0,053	0,097
-174,198	-60,289	-0,072	0,022
-173,183	2,033	0,037	-0,019
-172,169	132,764	-0,069	0,063
-171,154	-93,651	-0,109	-0,021
-170,139	-200,000	0,012	0,052
-169,125	800,000	0,049	0,098
-168,110	-62,998	-0,082	-0,024
-167,096	83,037	0,037	0,029
-166,081	102,887	0,014	-0,012
-165,066	-37,334	-0,044	0,017
-164,052	186,891	0,046	-0,049
-163,037	72,264	0,103	0,076
-162,023	304,194	0,088	0,116
-161,008	-68,043	0,109	-0,030
-159,993	113,315	-0,045	-0,039
-158,979	-127,814	-0,167	-0,017
-157,964	-200,000	-0,017	-0,081
-156,950	555,701	0,072	-0,124
-155,935	800,000	0,044	0,103
-154,920	-79,820	0,122	0,029
-153,906	800,000	-0,030	0,065
-152,891	674,551	0,032	0,060
-151,877	800,000	-0,025	0,050
-150,862	219,255	0,058	-0,066
-149,847	-200,000	-0,011	-0,076
-148,833	-200,000	0,007	-0,100
-147,818	21,418	0,019	0,011
-146,804	-200,000	-0,052	0,168
-145,789	105,278	0,095	0,080
-144,775	800,000	-0,036	-0,091
-143,760	573,412	0,058	-0,102
-142,745	10,849	-0,127	-0,069
-141,731	299,396	-0,128	0,169
-140,716	-200,000	0,017	0,067
-139,702	800,000	-0,019	-0,039
-138,687	-200,000	0,032	0,133
-137,672	564,016	-0,027	0,047
-136,658	800,000	-0,015	0,046
-135,643	-67,117	0,076	-0,021
-134,629	-199,496	-0,155	0,001
-133,614	550,643	0,034	0,057
-132,599	-200,000	-0,019	0,117
-131,585	800,000	0,021	0,042
-130,570	-150,197	0,078	-0,004
-129,556	800,000	0,024	0,059
-128,541	-116,343	-0,149	-0,019
-127,526	-200,000	-0,006	-0,028
-126,512	-200,000	0,008	-0,029
-125,497	610,532	0,065	0,116
-124,483	-96,806	0,114	-0,021
-123,468	111,780	0,088	0,076
-122,453	-200,000	-0,010	0,068
-121,439	800,000	0,057	0,166
-120,424	307,661	0,045	-0,060
-119,410	-104,237	0,056	-0,009
-118,395	212,534	0,115	0,129
-117,380	-42,063	-0,136	-0,049
-116,366	800,000	0,037	0,082
-115,351	251,618	-0,043	0,052
-114,337	56,211	0,138	-0,095
-113,322	-69,219	0,093	-0,025
-112,307	-200,000	-0,005	0,053
-111,293	33,360	0,110	0,068
-110,278	-35,856	0,052	-0,020
-109,264	93,884	-0,037	-0,030
-108,249	752,997	-0,055	-0,106
-107,234	495,332	-0,101	-0,166
-106,220	-200,000	-0,003	-0,200
-105,205	-30,455	-0,126	0,051
-104,191	50,262	0,049	-0,032
-103,176	-193,305	0,125	0,001
-102,162	107,702	-0,060	0,051
-101,147	26,487	0,101	-0,060
-100,132	556,332	-0,113	-0,194
-99,118	-146,569	-0,091	0,006
-98,103	54,561	0,032	-0,022
-97,089	-200,000	-0,001	0,095
-96,074	-35,608	0,100	-0,038
-95,059	-67,101	-0,103	-0,029
-94,045	-200,000	-0,000	0,012
-93,030	-200,000	0,004	-0,039
-92,016	314,831	0,106	-0,142
-91,001	-108,574	0,060	0,009
-89,986	-200,000	0,013	0,171
-88,972	-33,621	0,068	0,026
-87,957	-200,000	0,032	0,140
-86,943	-158,323	-0,013	-0,001
-85,928	45,543	-0,091	0,060
-84,913	-200,000	-0,006	-0,102
-83,899	-73,486	0,180	-0,046
-82,884	-92,067	0,240	0,048
-81,870	800,000	-0,050	-0,110
-80,855	22,367	0,118	-0,068
-79,840	-56,291	0,157	-0,049
-78,826	45,711	-0,133	0,087
-77,811	2,584	0,030	0,015
-76,797	7,584	0,042	-0,022
-75,782	-200,000	-0,013	-0,065
-74,767	7,683	0,138	0,073
-73,753	230,910	-0,084	-0,097
-72,738	-81,950	0,114	-0,026
-71,724	-119,637	-0,049	0,006
-70,709	71,248	-0,078	-0,058
-69,694	82,640	-0,104	0,080
-68,680	-91,193	0,071	-0,014
-67,665	480,113	0,038	0,062
-66,651	-200,000	-0,004	0,041
-65,636	-200,000	-0,008	0,032
-64,622	277,247	-0,061	0,077
-63,607	-139,784	-0,105	-0,008
-62,592	-200,000	-0,003	0,107
-61,578	800,000	-0,041	0,121
-60,563	800,000	0,044	0,124
-59,549	-66,174	-0,094	0,026
-58,534	-31,248	-1,544	-0,613
-57,519	475,192	-1,376	-2,208
-56,505	-200,000	-0,496	-4,529
-55,490	210,259	0,899	1,000
-54,476	800,000	4,948	11,415
-53,461	-200,000	19,352	321,182
-52,446	-200,000	740,714	2336,660
-51,432	573,601	1655,853	2870,400
-50,417	78,319	1671,817	1262,691
-49,403	21,317	1544,570	886,121
-48,388	15,190	1466,857	811,730
-47,373	18,053	1457,112	820,151
-46,359	16,761	1447,063	808,263
-45,344	13,469	1442,315	789,805
-44,330	13,362	1440,316	788,167
-43,315	13,389	1438,670	787,364
-42,300	13,351	1437,010	786,238
-41,286	13,440	1435,667	785,899
-40,271	13,356	1434,511	784,836
-39,257	13,353	1433,073	784,004
-38,242	13,386	1431,862	783,465
-37,227	13,416	1430,564	782,867
-36,213	13,406	1429,293	782,094
-35,198	13,387	1428,142	781,344
-34,184	13,450	1427,092	781,037
-33,169	13,368	1426,055	780,047
-32,154	13,415	1424,730	779,515
-31,140	13,421	1423,476	778,828
-30,125	13,440	1422,544	778,374
-29,111	13,456	1421,198	777,682
-28,096	13,422	1420,101	776,893
-27,082	13,358	1419,116	776,018
-26,067	13,328	1417,848	775,153
-25,052	13,334	1416,830	774,596
-24,038	13,308	1416,046	774,015
-23,023	13,338	1414,771	773,426
-22,009	13,361	1413,793	772,968
-20,994	13,321	1412,971	772,304
-19,979	13,275	1412,309	771,694
-18,965	13,306	1411,272	771,242
-17,950	13,305	1410,350	770,703
-16,936	13,311	1409,270	770,110
-15,921	13,244	1408,260	769,216
-14,906	13,280	1407,361	768,863
-13,892	13,289	1406,201	768,239
-12,877	13,252	1405,384	767,589
-11,863	13,266	1404,741	767,274
-10,848	13,247	1403,770	766,624
-9,833	13,209	1403,094	766,047
-8,819	13,173	1402,002	765,250
-7,804	13,139	1401,189	764,621
-6,790	13,144	1400,060	763,995
-5,775	13,157	1398,856	763,371
-4,760	13,158	1398,192	762,982
-3,746	13,104	1397,152	762,132
-2,731	13,141	1396,466	761,902
-1,717	13,124	1395,518	761,276
-0,702	13,136	1393,699	760,308
0,313	17,010	1310,405	732,814
1,327	33,226	704,290	431,365
2,342	51,411	123,446	82,829
3,356	0,423	16,786	8,455
4,371	-3,606	3,291	1,613
5,386	4,190	0,641	0,331
6,400	-200,000	0,081	0,331
7,415	31,476	-0,270	-0,164
8,429	43,346	-0,355	-0,229
9,444	128,940	-0,303	-0,273
10,459	190,334	-0,265	-0,282
11,473	-24,784	-0,330	-0,138
12,488	75,963	-0,166	-0,124
13,502	-107,878	-0,280	-0,043
14,517	-65,238	-0,410	-0,116
15,531	134,294	-0,415	-0,380
16,546	217,422	-0,246	-0,277
17,561	103,359	-0,384	-0,318
18,575	-46,873	-0,238	-0,082
19,590	194,581	-0,268	-0,287
20,604	-109,320	-0,238	-0,035
21,619	51,476	-0,511	-0,342
22,634	169,952	-0,397	-0,401
23,648	55,449	-0,420	-0,287
24,663	62,543	-0,462	-0,326
25,677	135,326	-0,232	-0,213
26,692	150,887	-0,271	-0,260
27,707	398,295	-0,285	-0,422
28,721	131,540	-0,379	-0,344
29,736	204,664	-0,372	-0,408
30,750	123,283	-0,491	-0,434
31,765	154,816	-0,437	-0,424
32,780	75,986	-0,441	-0,329
33,794	153,464	-0,355	-0,343
34,809	-10,410	-0,356	-0,166
35,823	200,023	-0,347	-0,376
36,838	-2,064	-0,363	-0,179
37,853	271,030	-0,247	-0,308
38,867	71,713	-0,427	-0,313
39,882	54,899	-0,348	-0,237
40,896	69,907	-0,305	-0,222
41,911	43,256	-0,296	-0,190
42,926	27,205	-0,364	-0,215
43,940	67,174	-0,406	-0,291
44,955	209,409	-0,411	-0,455
45,969	7,367	-0,331	-0,174
46,984	11,382	-0,320	-0,172
47,999	-14,616	-0,480	-0,216
49,013	-17,186	-0,353	-0,156
50,028	123,816	-0,362	-0,320
51,042	187,999	-0,345	-0,364
52,057	216,564	-0,337	-0,378
53,071	224,156	-0,336	-0,383
54,086	311,477	-0,266	-0,352
55,101	12,268	-0,341	-0,184
56,115	110,604	-0,366	-0,310
57,130	60,648	-0,439	-0,306
58,144	68,710	-0,450	-0,325
59,159	7,851	-0,410	-0,216
60,174	125,869	-0,339	-0,302
61,188	176,331	-0,246	-0,252
62,203	104,539	-0,229	-0,190
63,217	-72,216	-0,481	-0,125
64,232	91,587	-0,281	-0,222
65,247	91,405	-0,405	-0,320
66,261	80,445	-0,427	-0,323
67,276	22,758	-0,306	-0,176
68,290	-72,740	-0,435	-0,112
69,305	-5,873	-0,340	-0,163
70,320	63,099	-0,325	-0,229
71,334	-16,255	-0,309	-0,137
72,349	-0,293	-0,319	-0,159
73,363	191,007	-0,264	-0,280
74,378	-5,150	-0,440	-0,212
75,393	61,696	-0,212	-0,148
76,407	47,703	-0,327	-0,214
77,422	380,769	-0,116	-0,168
78,436	172,674	-0,289	-0,293
79,451	1,934	-0,306	-0,155
80,466	395,016	-0,227	-0,333
81,480	86,998	-0,326	-0,253
82,495	271,120	-0,302	-0,375
83,509	18,119	-0,320	-0,179
84,524	-32,220	-0,279	-0,109
85,539	-11,572	-0,443	-0,204
86,553	66,054	-0,284	-0,202
87,568	277,924	-0,186	-0,232
88,582	102,374	-0,175	-0,144
89,597	39,221	-0,334	-0,209
90,611	-51,759	-0,349	-0,113
91,626	69,740	-0,152	-0,110
92,641	23,292	-0,307	-0,177
93,655	62,297	-0,281	-0,197
94,670	-87,830	-0,329	-0,069
95,684	197,809	-0,174	-0,187
96,699	243,444	-0,234	-0,276
97,714	200,880	-0,174	-0,188
98,728	-19,765	-0,353	-0,152
99,743	31,960	-0,296	-0,179
100,757	-23,414	-0,272	-0,114
101,772	63,117	-0,277	-0,194
102,787	25,222	-0,307	-0,178
103,801	248,539	-0,193	-0,230
104,816	187,354	-0,268	-0,281
105,830	546,825	-0,123	-0,206
106,845	9,753	-0,258	-0,137
107,860	2,708	-0,294	-0,149
108,874	186,935	-0,241	-0,252
109,889	107,073	-0,346	-0,288
110,903	19,492	-0,331	-0,186
111,918	125,688	-0,251	-0,222
112,933	14,878	-0,337	-0,184
113,947	-41,972	-0,200	-0,071
114,962	80,442	-0,219	-0,165
115,976	162,322	-0,237	-0,233
116,991	110,559	-0,168	-0,141
118,006	-23,377	-0,295	-0,123
119,020	120,684	-0,324	-0,282
120,035	800,000	-0,151	-0,313
121,049	-23,763	-0,232	-0,097
122,064	102,919	-0,138	-0,113
123,079	107,188	-0,153	-0,127
124,093	161,441	-0,226	-0,221
125,108	111,743	-0,283	-0,239
126,122	200,326	-0,182	-0,195
127,137	53,034	-0,213	-0,143
128,151	339,837	-0,148	-0,202
129,166	-39,060	-0,297	-0,109
130,181	-43,327	-0,314	-0,110
131,195	-12,061	-0,388	-0,177
132,210	38,630	-0,252	-0,157
133,224	-133,266	-0,195	-0,017
134,239	-25,738	-0,322	-0,132
135,254	72,431	-0,205	-0,150
136,268	204,286	-0,099	-0,107
137,283	565,242	-0,158	-0,268
138,297	224,717	-0,164	-0,186
139,312	236,439	-0,261	-0,302
140,327	74,252	-0,220	-0,161
141,341	50,424	-0,315	-0,208
142,356	-163,089	-0,232	-0,008
143,370	70,161	-0,199	-0,144
144,385	-12,428	-0,263	-0,120
145,400	226,656	-0,243	-0,276
146,414	213,818	-0,262	-0,290
147,429	109,620	-0,337	-0,282
148,443	158,157	-0,245	-0,237
149,458	-14,452	-0,267	-0,119
150,473	-33,171	-0,176	-0,068
151,487	-169,744	-0,211	0,005
152,502	109,970	-0,333	-0,279
153,516	40,416	-0,286	-0,179
154,531	166,891	-0,226	-0,224
155,546	-77,117	-0,273	-0,066
156,560	-70,253	-0,218	-0,057
157,575	-78,979	-0,243	-0,057
158,589	800,000	-0,071	-0,148
159,604	-25,645	-0,245	-0,100
160,619	98,176	-0,247	-0,198
161,633	71,096	-0,246	-0,178
162,648	-80,602	-0,252	-0,058
163,662	83,717	-0,298	-0,227
164,677	163,205	-0,158	-0,155
165,692	35,248	-0,293	-0,179
166,706	80,950	-0,333	-0,251
167,721	138,879	-0,158	-0,145
168,735	0,571	-0,308	-0,153
169,750	71,956	-0,247	-0,179
170,764	285,432	-0,163	-0,205
171,779	-77,024	-0,333	-0,080
172,794	800,000	-0,100	-0,225
173,808	116,122	-0,311	-0,265
174,823	202,311	-0,235	-0,253
175,837	-117,312	-0,343	-0,043
176,852	172,045	-0,150	-0,151
177,867	147,681	-0,161	-0,152
178,881	90,920	-0,214	-0,167
179,896	-150,472	-0,109	-0,006
180,910	-20,971	-0,154	-0,065
181,925	800,000	-0,118	-0,248
182,940	34,296	-0,297	-0,180
183,954	121,398	-0,227	-0,197
184,969	122,689	-0,255	-0,222
185,983	800,000	-0,040	-0,122
186,998	162,291	-0,105	-0,102
188,013	-149,430	-0,208	-0,011
189,027	435,873	-0,115	-0,174
190,042	7,012	-0,372	-0,192
191,056	-116,334	-0,243	-0,031
192,071	1,894	-0,109	-0,054
193,086	518,581	-0,102	-0,167
194,100	79,603	-0,203	-0,152
195,115	-13,226	-0,173	-0,078
196,129	800,000	-0,167	-0,345
197,144	49,270	-0,337	-0,220
198,159	443,391	-0,166	-0,254
199,173	-0,071	-0,228	-0,113
200,188	235,711	-0,169	-0,194
201,202	42,702	-0,279	-0,176
202,217	62,245	-0,268	-0,185
203,232	152,426	-0,161	-0,153
204,246	499,818	-0,148	-0,238
205,261	37,817	-0,220	-0,136
206,275	145,932	-0,188	-0,176
207,290	-24,506	-0,174	-0,072
208,304	195,269	-0,085	-0,090
209,319	-44,537	-0,304	-0,105
210,334	74,458	-0,299	-0,218
211,348	408,103	-0,125	-0,185
212,363	156,197	-0,227	-0,218
213,377	-36,203	-0,184	-0,068
214,392	-200,000	0,031	-0,193
215,407	-38,490	-0,180	-0,066
216,421	-167,224	-0,066	-0,002
217,436	800,000	-0,074	-0,172
218,450	346,032	-0,186	-0,255
219,465	-35,651	-0,304	-0,114
220,480	77,024	-0,156	-0,115
221,494	36,583	-0,206	-0,126
222,509	231,501	-0,120	-0,137
223,523	-116,045	-0,165	-0,021
224,538	-66,441	-0,277	-0,076
225,553	47,862	-0,179	-0,116
226,567	-50,777	-0,235	-0,076
227,582	459,717	-0,126	-0,195
228,596	-42,268	-0,187	-0,066
229,611	-65,183	-0,292	-0,081
230,626	332,117	-0,097	-0,131
231,640	38,291	-0,167	-0,103
232,655	159,061	-0,202	-0,195
233,669	218,153	-0,240	-0,266
234,684	182,882	-0,207	-0,212
235,699	376,609	-0,151	-0,214
236,713	800,000	-0,095	-0,209
237,728	267,621	-0,150	-0,183
238,742	169,542	-0,159	-0,157
239,757	88,076	-0,248	-0,191
240,772	94,111	-0,184	-0,145
241,786	416,311	-0,239	-0,355
242,801	210,641	-0,195	-0,212
243,815	50,532	-0,246	-0,161
244,830	548,822	-0,183	-0,305
245,844	264,984	-0,141	-0,170
246,859	-23,600	-0,290	-0,120
247,874	-25,877	-0,187	-0,076
248,888	341,926	-0,132	-0,179
249,903	77,040	-0,149	-0,109
250,917	-65,859	-0,109	-0,030
251,932	-155,039	-0,182	-0,008
252,947	6,415	-0,311	-0,160
253,961	-96,864	-0,330	-0,059
254,976	-31,248	-0,319	-0,124
255,990	91,884	-0,129	-0,101
257,005	89,213	-0,193	-0,149
258,020	-136,415	-0,094	-0,007
259,034	140,795	-0,167	-0,153
260,049	-99,366	-0,266	0,046
261,063	290,600	-0,141	-0,178
262,078	110,504	-0,210	-0,175
263,093	47,311	-0,199	-0,128
264,107	170,662	-0,168	-0,167
265,122	188,082	-0,107	0,111
266,136	800,000	-0,045	-0,104
267,151	405,435	-0,071	-0,103
268,166	-62,253	-0,166	-0,048
269,180	-142,554	-0,218	-0,015
270,195	178,705	-0,162	-0,163
271,209	95,226	-0,331	-0,260
272,224	-39,109	-0,235	-0,085
273,239	128,040	-0,154	-0,135
274,253	-67,395	-0,283	-0,076
275,268	142,125	-0,121	-0,111
276,282	396,514	-0,071	-0,103
277,297	385,684	-0,068	-0,097
278,312	98,430	-0,220	-0,175
279,326	4,579	-0,152	-0,077
280,341	-200,000	0,022	-0,107
281,355	-80,555	-0,192	-0,044
282,370	286,448	-0,149	-0,186
283,384	211,167	-0,199	-0,216
284,399	-200,000	-0,015	-0,307
285,414	268,252	-0,109	-0,131
286,428	431,410	-0,122	-0,183
287,443	69,503	-0,299	-0,212
288,457	81,017	-0,111	-0,083
289,472	466,712	-0,119	-0,184
290,487	800,000	-0,098	-0,224
291,501	140,257	-0,123	-0,112
292,516	185,758	-0,113	-0,116
293,530	150,465	-0,159	-0,149
294,545	-158,850	-0,078	-0,003
295,560	-61,518	-0,166	-0,048
296,574	-101,542	-0,137	0,023
297,589	320,877	-0,132	-0,173
298,603	-17,362	-0,149	-0,064
299,618	174,386	-0,174	-0,174
300,633	-2,377	-0,124	-0,060
301,647	-112,095	-0,092	-0,013
302,662	-23,314	-0,026	-0,011
303,676	62,374	-0,174	-0,120
304,691	18,695	-0,284	-0,156
305,706	800,000	-0,057	-0,122
306,720	-47,468	-0,116	0,039
307,735	596,548	-0,072	-0,124
308,749	66,161	-0,083	-0,058
309,764	176,300	-0,094	-0,094
310,779	56,390	-0,124	-0,083
311,793	-135,341	-0,123	-0,010
312,808	-92,152	-0,213	-0,041
313,822	-121,479	-0,156	-0,018
314,837	-153,235	-0,075	-0,004
315,852	623,487	-0,089	-0,155
316,866	344,660	-0,054	-0,073
317,881	650,457	-0,107	-0,190
318,895	336,704	-0,113	-0,152
319,910	137,173	-0,173	-0,156
320,925	-126,173	-0,213	-0,022
321,939	90,171	-0,087	-0,067
322,954	-122,391	-0,162	-0,018
323,968	303,835	-0,055	-0,070
324,983	-200,000	-0,017	-0,093
325,997	39,892	-0,278	-0,171
327,012	-128,207	-0,174	-0,017
328,027	-200,000	0,002	-0,059
329,041	-200,000	0,041	-0,134
330,056	421,006	-0,061	-0,090
331,070	800,000	-0,032	-0,071
332,085	404,902	-0,018	-0,027
333,100	358,865	-0,114	-0,157
334,114	71,160	-0,115	-0,082
335,129	40,162	-0,157	-0,097
336,143	570,648	-0,066	-0,111
337,158	38,753	-0,132	-0,081
338,173	-161,796	-0,154	-0,005
339,187	-56,456	-0,217	-0,066
340,202	-136,613	-0,150	-0,012
341,216	-19,082	-0,256	-0,109
342,231	-92,978	-0,109	-0,021
343,246	488,486	-0,131	-0,205
344,260	130,913	-0,205	-0,181
345,275	800,000	-0,013	-0,032
346,289	192,886	-0,108	-0,112
347,304	-125,251	-0,185	-0,019
348,319	-114,506	-0,193	-0,025
349,333	346,407	-0,137	-0,185
350,348	39,625	-0,043	-0,026
351,362	-75,820	-0,109	-0,026
352,377	800,000	-0,026	0,071
353,392	-200,000	-0,133	-0,000
354,406	-37,521	-0,152	-0,055
355,421	209,097	1313,919	1413,177
356,435	160,914	1474,548	1413,664
