DTS Sentinel unit serial number:	SN410029Multiplexer serial number:	ORYXHardware model number:	OX2-SRSoftware version number:	ORYX F/W v4,00 Oryx Data Collector v3.7.2.0data status	okinstallation	B3 Nyhavnadifferential loss correction	single-endedforward channel	channel 1reverse channel	N/Adate	2023/12/03time	21:22:30forward acquisition time	300,00reverse acquisition time	0,00gamma	499,1914k internal	0,3199k external	0,3199temperature offset calibration	1,0000default loss term (dB/km)	0,3820temperature slope calibration	1,0000multiplexer offset coefficient	1,0000multiplexer slope coefficient	1,0000fibre end	0,00T internal ref (°C)	13,62T ext. ref 1 (°C)	-1,88T ext. ref 2 (°C)	-1,90length (m)	temperature (°C)	Stokes	anti-Stokes-744,400	277,289	-0,130	-0,168
-743,385	-200,000	-0,007	0,387
-742,371	63,987	-0,220	-0,161
-741,356	800,000	-0,095	0,282
-740,342	130,260	-0,182	-0,170
-739,327	358,080	-0,137	0,199
-738,312	130,213	-0,340	-0,317
-737,298	-200,000	-0,047	0,278
-736,283	151,727	-0,160	-0,158
-735,269	-200,000	0,038	0,230
-734,254	185,806	-0,232	-0,251
-733,239	4,416	-0,238	0,126
-732,225	800,000	-0,052	-0,108
-731,210	17,857	0,313	0,181
-730,196	278,559	-0,007	0,009
-729,181	-98,969	-0,141	0,026
-728,167	123,962	-0,097	-0,089
-727,152	493,949	-0,049	0,082
-726,137	47,185	0,076	-0,051
-725,123	433,962	-0,077	-0,121
-724,108	-200,000	0,002	-0,093
-723,094	57,813	0,058	-0,041
-722,079	690,029	-0,086	-0,164
-721,064	-200,000	-0,015	-0,078
-720,050	-185,627	-0,046	-0,000
-719,035	173,863	-0,022	0,023
-718,021	800,000	0,030	0,070
-717,006	-200,000	-0,000	-0,082
-715,991	-200,000	0,016	0,121
-714,977	348,930	-0,025	-0,036
-713,962	-120,706	-0,151	-0,018
-712,948	-17,392	0,066	0,030
-711,933	-83,304	-0,040	0,009
-710,918	800,000	0,003	-0,007
-709,904	73,010	-0,044	-0,034
-708,889	-200,000	0,020	0,091
-707,875	249,027	-0,102	-0,126
-706,860	247,992	0,040	-0,050
-705,845	253,301	-0,071	-0,088
-704,831	-200,000	0,001	0,097
-703,816	10,947	0,024	0,014
-702,802	145,540	-0,047	0,046
-701,787	800,000	-0,027	0,055
-700,772	-200,000	-0,023	0,075
-699,758	148,511	-0,058	0,057
-698,743	366,861	-0,005	0,007
-697,729	34,151	-0,112	0,071
-696,714	-200,000	0,019	-0,114
-695,699	5,711	-0,146	-0,078
-694,685	-162,420	0,046	0,002
-693,670	425,981	-0,049	-0,076
-692,656	17,641	-0,071	-0,041
-691,641	800,000	-0,015	-0,045
-690,627	-87,035	0,183	0,040
-689,612	56,601	-0,035	-0,025
-688,597	105,722	0,045	-0,039
-687,583	-144,855	-0,057	-0,004
-686,568	-200,000	0,000	-0,088
-685,554	-42,482	-0,099	0,037
-684,539	-181,611	0,103	0,001
-683,524	81,302	0,126	-0,099
-682,510	-129,838	0,063	0,006
-681,495	86,598	0,058	0,046
-680,481	800,000	-0,034	0,068
-679,466	-37,098	-0,148	-0,057
-678,451	400,698	0,052	0,079
-677,437	-193,092	-0,112	-0,001
-676,422	239,566	0,038	-0,046
-675,408	800,000	-0,041	-0,086
-674,393	800,000	0,034	-0,094
-673,378	749,307	-0,039	0,077
-672,364	222,685	0,083	-0,097
-671,349	320,635	-0,019	0,027
-670,335	415,723	0,100	0,155
-669,320	-33,171	0,124	0,050
-668,305	-64,188	-0,078	0,023
-667,291	800,000	-0,034	-0,089
-666,276	-15,048	-0,094	0,044
-665,262	-16,515	-0,134	-0,061
-664,247	800,000	-0,003	-0,007
-663,232	115,605	-0,065	-0,057
-662,218	-200,000	0,029	0,098
-661,203	-142,530	-0,290	0,020
-660,189	-200,000	0,002	-0,064
-659,174	-43,317	-0,135	-0,049
-658,159	195,146	0,086	0,095
-657,145	312,224	-0,020	0,027
-656,130	-38,535	-0,070	-0,027
-655,116	337,739	-0,094	0,134
-654,101	-200,000	0,009	0,086
-653,086	-57,076	0,056	0,018
-652,072	-3,725	-0,041	0,021
-651,057	-200,000	-0,011	0,050
-650,043	726,271	0,038	-0,073
-649,028	171,330	-0,053	-0,055
-648,014	648,706	-0,017	0,032
-646,999	-200,000	-0,001	-0,028
-645,984	800,000	0,019	-0,041
-644,970	800,000	-0,037	-0,079
-643,955	800,000	0,061	-0,158
-642,941	-129,686	-0,037	0,004
-641,926	140,528	-0,042	-0,040
-640,911	523,086	-0,039	-0,067
-639,897	-200,000	0,043	-0,206
-638,882	-200,000	0,003	-0,042
-637,868	-174,481	0,149	-0,003
-636,853	-200,000	0,006	-0,042
-635,838	25,844	-0,095	-0,057
-634,824	-200,000	-0,001	0,139
-633,809	181,696	-0,092	0,098
-632,795	800,000	0,032	-0,064
-631,780	-73,317	-0,036	-0,009
-630,765	57,917	0,055	-0,039
-629,751	312,231	0,082	-0,111
-628,736	463,430	-0,037	0,061
-627,722	18,507	0,085	-0,049
-626,707	-33,307	0,067	0,027
-625,692	-17,198	0,221	0,100
-624,678	-66,968	-0,111	-0,031
-623,663	-158,721	-0,241	-0,010
-622,649	48,803	-0,101	-0,069
-621,634	306,278	-0,038	-0,051
-620,619	-200,000	0,040	0,135
-619,605	-200,000	-0,000	0,027
-618,590	-200,000	0,023	0,140
-617,576	800,000	-0,111	0,224
-616,561	-200,000	0,019	0,173
-615,546	-200,000	-0,004	0,101
-614,532	800,000	0,012	-0,028
-613,517	-22,613	-0,093	-0,041
-612,503	-154,623	0,104	0,005
-611,488	190,699	-0,078	0,085
-610,474	513,693	0,040	-0,068
-609,459	-193,334	-0,087	-0,001
-608,444	800,000	-0,048	0,101
-607,430	-200,000	0,012	0,072
-606,415	-200,000	-0,012	-0,085
-605,401	-200,000	0,014	0,053
-604,386	103,474	0,028	0,024
-603,371	-200,000	0,037	0,134
-602,357	-0,216	-0,057	-0,029
-601,342	-200,000	0,012	-0,075
-600,328	-21,882	0,076	0,033
-599,313	252,744	-0,086	-0,106
-598,298	-133,480	-0,137	-0,012
-597,284	362,662	-0,015	0,021
-596,269	-200,000	0,040	-0,195
-595,255	0,251	-0,098	0,051
-594,240	-200,000	-0,024	-0,087
-593,225	-200,000	0,020	-0,065
-592,211	-200,000	-0,008	-0,123
-591,196	800,000	0,063	-0,151
-590,182	164,003	0,077	0,078
-589,167	-119,425	0,019	0,002
-588,152	-55,240	0,177	-0,057
-587,138	-115,297	0,069	-0,009
-586,123	-200,000	0,003	-0,072
-585,109	83,724	-0,045	-0,036
-584,094	800,000	0,024	0,059
-583,079	-200,000	0,017	0,063
-582,065	-5,567	-0,087	-0,043
-581,050	28,080	0,085	-0,052
-580,036	158,946	0,017	-0,017
-579,021	478,963	0,057	-0,094
-578,006	-157,096	-0,086	-0,004
-576,992	311,545	-0,060	0,081
-575,977	33,913	-0,145	0,091
-574,963	123,441	0,081	0,074
-573,948	379,284	-0,018	-0,026
-572,934	-143,443	0,097	-0,007
-571,919	-200,000	-0,016	0,053
-570,904	800,000	-0,052	-0,125
-569,890	74,460	-0,063	-0,048
-568,875	-200,000	0,004	0,092
-567,861	800,000	-0,031	-0,069
-566,846	-58,749	-0,076	0,024
-565,831	177,182	0,052	0,055
-564,817	401,995	0,050	-0,077
-563,802	-28,053	-0,163	-0,068
-562,788	-32,305	-0,044	0,018
-561,773	465,845	0,050	-0,081
-560,758	-104,443	0,110	0,018
-559,744	-200,000	-0,008	-0,128
-558,729	-200,000	0,037	0,124
-557,715	19,536	-0,015	0,009
-556,700	-3,388	-0,101	-0,051
-555,685	-161,770	-0,058	-0,002
-554,671	-200,000	-0,018	-0,101
-553,656	-200,000	-0,007	-0,031
-552,642	-106,865	-0,163	0,026
-551,627	151,624	-0,097	0,096
-550,612	42,437	-0,052	0,034
-549,598	-64,965	0,029	0,008
-548,583	141,896	-0,116	-0,112
-547,569	-77,464	0,158	-0,039
-546,554	56,344	-0,047	0,033
-545,539	-200,000	-0,013	0,057
-544,525	62,453	-0,078	0,056
-543,510	-61,522	-0,093	0,028
-542,496	363,423	-0,074	-0,108
-541,481	800,000	-0,010	0,025
-540,466	191,444	-0,037	0,041
-539,452	-152,240	-0,089	0,005
-538,437	681,434	-0,037	-0,070
-537,423	800,000	-0,042	-0,106
-536,408	-109,550	-0,037	0,006
-535,393	-108,703	-0,043	-0,007
-534,379	-200,000	0,017	-0,188
-533,364	800,000	0,026	-0,070
-532,350	-200,000	-0,002	0,254
-531,335	178,740	0,102	0,108
-530,321	800,000	0,012	0,026
-529,306	191,135	-0,096	-0,104
-528,291	4,702	-0,158	-0,084
-527,277	214,624	0,074	0,085
-526,262	209,382	0,058	-0,065
-525,248	-200,000	-0,003	0,014
-524,233	105,086	-0,048	-0,040
-523,218	-200,000	0,010	0,038
-522,204	81,086	-0,119	-0,092
-521,189	-200,000	-0,004	-0,130
-520,175	-200,000	0,035	-0,116
-519,160	-200,000	0,005	-0,049
-518,145	325,835	-0,086	0,119
-517,131	800,000	-0,059	0,136
-516,116	170,314	-0,125	0,129
-515,102	97,913	0,062	0,052
-514,087	84,426	0,075	0,059
-513,072	-173,352	-0,098	0,002
-512,058	-200,000	-0,005	0,085
-511,043	-200,000	-0,003	-0,034
-510,029	-42,663	0,123	0,045
-509,014	41,523	0,143	0,093
-507,999	330,258	0,022	-0,031
-506,985	515,126	-0,017	0,028
-505,970	-62,839	-0,052	-0,016
-504,956	568,060	0,049	-0,086
-503,941	-200,000	0,019	0,109
-502,926	421,874	-0,004	0,006
-501,912	800,000	0,024	-0,055
-500,897	800,000	-0,038	-0,093
-499,883	-2,256	0,127	-0,064
-498,868	-150,325	-0,039	-0,002
-497,853	-69,573	0,068	0,019
-496,839	153,324	-0,040	-0,040
-495,824	697,854	0,110	0,209
-494,810	-50,818	-0,072	-0,024
-493,795	44,840	0,108	0,071
-492,781	-200,000	-0,006	0,091
-491,766	420,174	0,009	0,013
-490,751	80,383	-0,125	-0,097
-489,737	-200,000	-0,015	-0,080
-488,722	204,168	0,037	-0,042
-487,708	-200,000	0,023	0,147
-486,693	-200,000	-0,006	0,162
-485,678	225,077	-0,051	0,060
-484,664	7,083	-0,033	0,018
-483,649	263,540	0,040	0,050
-482,635	-44,847	0,060	0,021
-481,620	-9,909	-0,073	0,035
-480,605	-52,051	0,156	0,052
-479,591	277,137	-0,043	0,055
-478,576	-200,000	0,032	0,112
-477,562	173,432	-0,069	-0,072
-476,547	105,599	-0,133	-0,113
-475,532	-50,384	0,087	0,029
-474,518	336,939	0,044	0,062
-473,503	-200,000	-0,027	0,109
-472,489	800,000	0,013	0,027
-471,474	492,047	-0,022	-0,037
-470,459	-51,636	-0,144	0,048
-469,445	776,590	-0,125	-0,247
-468,430	-66,886	-0,106	0,030
-467,416	800,000	-0,020	-0,048
-466,401	800,000	0,053	-0,150
-465,386	-84,904	-0,171	0,038
-464,372	549,991	0,030	0,052
-463,357	-143,366	-0,065	0,004
-462,343	-80,618	-0,054	0,013
-461,328	236,114	0,028	-0,033
-460,313	775,845	0,058	-0,115
-459,299	14,441	0,104	0,058
-458,284	218,374	-0,050	0,058
-457,270	-119,870	0,060	-0,007
-456,255	502,892	-0,058	-0,097
-455,241	204,984	-0,098	-0,110
-454,226	-63,332	0,120	-0,035
-453,211	-200,000	0,010	0,068
-452,197	-200,000	-0,003	-0,088
-451,182	-64,011	0,102	0,030
-450,168	-79,844	0,027	0,006
-449,153	266,657	0,074	-0,093
-448,138	-75,844	-0,150	0,038
-447,124	-47,860	0,037	-0,013
-446,109	-11,025	-0,116	0,055
-445,095	800,000	0,013	0,029
-444,080	174,074	0,051	-0,053
-443,065	-200,000	0,001	0,013
-442,051	108,499	0,072	0,062
-441,036	-99,519	-0,086	-0,015
-440,022	280,175	0,089	-0,115
-439,007	783,568	0,058	-0,114
-437,992	402,762	-0,042	-0,063
-436,978	-111,914	0,092	-0,013
-435,963	301,379	-0,132	0,176
-434,949	800,000	0,051	0,121
-433,934	364,737	0,111	-0,161
-432,919	-116,799	-0,059	-0,008
-431,905	274,031	-0,054	0,069
-430,890	200,805	0,086	0,096
-429,876	59,632	0,153	0,108
-428,861	-103,166	0,138	0,023
-427,846	497,820	-0,037	-0,062
-426,832	800,000	-0,020	-0,050
-425,817	-200,000	0,003	0,057
-424,803	419,263	-0,098	0,152
-423,788	-200,000	0,013	-0,060
-422,773	-35,450	0,088	-0,034
-421,759	179,734	0,048	0,050
-420,744	800,000	-0,021	-0,053
-419,730	432,514	-0,130	0,203
-418,715	172,039	0,037	0,038
-417,701	800,000	-0,054	-0,111
-416,686	-200,000	-0,071	0,225
-415,671	486,135	-0,063	0,103
-414,657	-155,778	0,038	0,002
-413,642	396,784	-0,098	0,147
-412,628	333,893	-0,053	0,074
-411,613	13,703	0,091	-0,051
-410,598	265,448	0,051	0,064
-409,584	240,213	-0,127	-0,153
-408,569	80,087	-0,033	0,025
-407,555	650,665	0,108	0,200
-406,540	800,000	-0,014	-0,037
-405,525	800,000	-0,045	-0,134
-404,511	1,081	-0,029	-0,015
-403,496	-177,949	0,120	-0,002
-402,482	17,082	-0,085	-0,048
-401,467	-178,006	0,088	-0,001
-400,452	18,741	0,080	0,046
-399,438	-200,000	0,010	-0,073
-398,423	-31,196	0,113	0,045
-397,409	-200,000	-0,033	-0,127
-396,394	-78,254	-0,146	-0,036
-395,379	-200,000	0,026	-0,137
-394,365	-3,932	0,034	0,017
-393,350	133,841	0,117	0,109
-392,336	503,583	0,048	0,079
-391,321	-130,299	0,060	0,006
-390,306	-200,000	0,004	-0,026
-389,292	-130,175	-0,111	-0,011
-388,277	-70,916	-0,062	-0,017
-387,263	461,435	0,055	0,088
-386,248	10,209	-0,114	0,062
-385,233	70,347	0,138	0,102
-384,219	-49,103	0,053	0,018
-383,204	800,000	0,032	0,093
-382,190	-200,000	-0,033	-0,110
-381,175	800,000	0,011	0,030
-380,160	369,742	0,065	0,094
-379,146	10,280	0,043	-0,023
-378,131	79,190	-0,022	0,017
-377,117	800,000	0,067	0,140
-376,102	-200,000	-0,009	0,082
-375,088	-200,000	0,013	-0,127
-374,073	-59,167	-0,030	-0,009
-373,058	-82,948	-0,027	-0,006
-372,044	166,310	-0,022	-0,022
-371,029	-10,469	-0,064	0,030
-370,015	800,000	-0,054	-0,120
-369,000	-62,644	-0,164	0,048
-367,985	800,000	-0,029	0,072
-366,971	-200,000	-0,012	0,081
-365,956	-200,000	0,019	-0,084
-364,942	236,816	0,026	0,031
-363,927	1,739	0,064	0,033
-362,912	80,308	0,069	-0,054
-361,898	601,607	0,025	0,045
-360,883	132,603	-0,092	-0,085
-359,869	-200,000	-0,025	-0,117
-358,854	74,338	0,112	-0,084
-357,839	108,831	0,043	0,037
-356,825	-87,698	-0,030	0,006
-355,810	-200,000	0,006	-0,056
-354,796	-139,708	-0,101	0,008
-353,781	-200,000	0,011	0,056
-352,766	-62,656	-0,158	0,047
-351,752	-38,544	0,139	0,052
-350,737	-200,000	0,041	0,180
-349,723	800,000	0,010	-0,023
-348,708	-200,000	-0,007	0,033
-347,693	-200,000	0,005	-0,066
-346,679	-142,938	-0,007	0,000
-345,664	367,274	-0,022	-0,031
-344,650	-200,000	-0,006	0,041
-343,635	-137,033	0,124	0,010
-342,620	-200,000	-0,012	-0,043
-341,606	-200,000	-0,013	0,092
-340,591	134,729	0,048	-0,045
-339,577	-45,333	-0,100	-0,036
-338,562	44,422	0,021	0,014
-337,548	183,254	-0,039	-0,041
-336,533	561,757	-0,047	-0,082
-335,518	179,347	0,034	-0,036
-334,504	32,762	0,063	0,039
-333,489	-43,848	-0,068	-0,024
-332,475	587,859	-0,035	0,062
-331,460	-25,542	0,136	0,057
-330,445	-96,353	0,035	-0,007
-329,431	317,650	0,051	0,070
-328,416	800,000	0,027	0,062
-327,402	-200,000	-0,004	-0,015
-326,387	-1,887	-0,075	0,038
-325,372	-56,780	0,101	-0,032
-324,358	-60,266	0,070	-0,021
-323,343	2,501	0,050	0,026
-322,329	-82,078	0,065	0,015
-321,314	19,252	0,132	-0,075
-320,299	-200,000	-0,006	0,072
-319,285	800,000	0,043	0,126
-318,270	-155,403	-0,125	-0,006
-317,256	-197,692	-0,077	0,000
-316,241	-103,728	0,048	0,008
-315,226	202,184	0,033	-0,037
-314,212	96,759	0,085	0,070
-313,197	-200,000	0,005	0,091
-312,183	43,925	0,040	-0,026
-311,168	800,000	-0,015	-0,041
-310,153	-200,000	0,001	-0,064
-309,139	-177,054	-0,031	-0,001
-308,124	-15,398	0,077	0,035
-307,110	176,495	-0,081	0,084
-306,095	206,805	-0,014	0,016
-305,080	-200,000	-0,014	-0,070
-304,066	-200,000	-0,022	-0,100
-303,051	41,234	0,135	-0,087
-302,037	52,635	-0,110	0,075
-301,022	-10,505	0,089	0,042
-300,008	28,627	-0,141	0,085
-298,993	84,838	0,072	0,056
-297,978	-200,000	0,024	-0,097
-296,964	-200,000	0,005	0,130
-295,949	800,000	0,021	-0,043
-294,935	-200,000	-0,004	-0,023
-293,920	289,544	0,048	-0,062
-292,905	234,357	-0,036	0,042
-291,891	800,000	-0,031	-0,086
-290,876	-79,677	-0,088	0,021
-289,862	-35,915	0,044	-0,017
-288,847	344,442	0,079	-0,111
-287,832	800,000	-0,084	-0,176
-286,818	-200,000	0,003	-0,083
-285,803	40,390	0,020	-0,013
-284,789	669,286	0,023	0,042
-283,774	-200,000	0,015	0,085
-282,759	-138,247	0,062	0,005
-281,745	-100,077	0,064	-0,011
-280,730	-41,176	-0,109	-0,040
-279,716	31,246	0,132	-0,081
-278,701	800,000	0,015	0,031
-277,686	169,084	0,052	0,053
-276,672	331,298	-0,037	0,051
-275,657	800,000	0,003	0,007
-274,643	-200,000	-0,003	-0,078
-273,628	800,000	-0,046	-0,126
-272,613	-68,749	-0,023	0,006
-271,599	800,000	0,027	0,065
-270,584	800,000	0,037	0,084
-269,570	-200,000	-0,004	0,114
-268,555	-200,000	0,007	0,117
-267,540	-200,000	-0,006	-0,031
-266,526	-200,000	-0,006	-0,147
-265,511	209,548	0,048	-0,054
-264,497	-200,000	-0,010	0,141
-263,482	54,502	-0,043	0,030
-262,467	115,014	0,134	0,117
-261,453	243,112	0,053	0,063
-260,438	-79,001	-0,110	-0,027
-259,424	15,716	-0,028	-0,016
-258,409	800,000	0,024	-0,065
-257,395	-2,725	-0,102	0,051
-256,380	-182,035	0,057	-0,001
-255,365	21,455	0,023	0,014
-254,351	102,009	-0,048	0,040
-253,336	276,732	-0,052	-0,066
-252,322	48,010	0,047	0,032
-251,307	-119,775	0,030	-0,004
-250,292	212,329	0,069	-0,078
-249,278	280,501	0,047	0,060
-248,263	-140,958	-0,060	0,004
-247,249	146,463	0,011	0,011
-246,234	97,672	0,052	-0,043
-245,219	-102,012	-0,175	-0,030
-244,205	-200,000	-0,022	-0,086
-243,190	135,396	-0,087	-0,081
-242,176	5,570	0,041	-0,022
-241,161	-107,478	0,057	-0,009
-240,146	-200,000	0,012	-0,067
-239,132	-200,000	-0,019	-0,098
-238,117	293,206	-0,083	-0,109
-237,103	-200,000	-0,012	-0,040
-236,088	440,143	-0,053	-0,083
-235,073	800,000	0,013	-0,037
-234,059	-184,499	-0,096	0,001
-233,044	-136,037	0,054	-0,004
-232,030	180,760	0,041	-0,043
-231,015	-200,000	-0,033	-0,180
-230,000	92,907	0,078	-0,063
-228,986	477,565	-0,104	-0,169
-227,971	653,532	0,037	0,068
-226,957	-80,248	0,134	0,032
-225,942	299,574	-0,086	-0,114
-224,927	-200,000	0,013	0,067
-223,913	800,000	-0,028	-0,076
-222,898	-200,000	0,007	0,094
-221,884	577,628	0,028	-0,048
-220,869	800,000	-0,032	0,086
-219,855	-89,551	-0,101	0,021
-218,840	82,498	0,052	-0,040
-217,825	-5,621	-0,090	0,044
-216,811	481,493	0,021	0,035
-215,796	800,000	-0,038	0,086
-214,782	-42,897	0,056	0,020
-213,767	8,380	0,027	-0,015
-212,752	516,749	-0,041	0,068
-211,738	444,833	-0,059	-0,092
-210,723	137,623	0,051	0,047
-209,709	-200,000	0,006	0,176
-208,694	208,684	0,051	-0,057
-207,679	-24,817	0,026	0,011
-206,665	451,889	-0,041	0,065
-205,650	487,614	-0,053	-0,087
-204,636	-60,181	0,113	-0,034
-203,621	225,245	0,063	-0,073
-202,606	-200,000	0,014	0,148
-201,592	-24,037	-0,064	-0,027
-200,577	800,000	0,018	-0,053
-199,563	32,774	0,039	-0,024
-198,548	180,230	-0,026	0,027
-197,533	269,596	0,073	0,092
-196,519	531,111	-0,058	0,099
-195,504	-200,000	0,005	0,070
-194,490	118,656	-0,145	0,128
-193,475	703,225	0,067	-0,127
-192,460	-200,000	0,010	0,049
-191,446	559,849	-0,020	-0,034
-190,431	-88,366	0,027	0,006
-189,417	800,000	-0,032	0,084
-188,402	578,220	0,082	-0,144
-187,387	400,028	0,055	-0,082
-186,373	-200,000	-0,010	-0,038
-185,358	-102,051	-0,195	0,033
-184,344	-132,280	0,131	0,012
-183,329	255,781	-0,051	0,062
-182,315	800,000	-0,018	0,048
-181,300	17,311	0,028	-0,016
-180,285	-200,000	-0,014	-0,082
-179,271	229,773	0,060	-0,070
-178,256	-68,054	0,041	-0,011
-177,242	-139,384	0,135	0,010
-176,227	-124,296	0,071	0,008
-175,212	-42,696	0,123	0,044
-174,198	800,000	-0,032	0,090
-173,183	43,313	-0,122	-0,079
-172,169	-200,000	0,012	-0,164
-171,154	-200,000	0,009	-0,034
-170,139	-200,000	-0,042	0,164
-169,125	110,933	0,138	0,118
-168,110	350,324	-0,041	0,058
-167,096	-37,652	0,096	-0,036
-166,081	133,358	0,054	-0,050
-165,066	-48,646	-0,105	-0,036
-164,052	-200,000	-0,004	-0,013
-163,037	-19,189	-0,102	-0,045
-162,023	-63,642	0,125	0,036
-161,008	-200,000	-0,005	0,075
-159,993	-200,000	0,001	0,050
-158,979	-14,196	-0,051	-0,023
-157,964	75,723	0,169	-0,127
-156,950	419,559	-0,048	-0,073
-155,935	259,363	0,045	0,055
-154,920	4,853	0,161	-0,084
-153,906	8,158	0,092	0,049
-152,891	-200,000	0,006	-0,074
-151,877	235,358	0,083	-0,098
-150,862	73,460	-0,116	0,087
-149,847	75,364	-0,093	-0,069
-148,833	150,522	0,085	-0,082
-147,818	-200,000	0,012	-0,107
-146,804	-142,899	0,149	0,010
-145,789	-134,817	-0,064	-0,005
-144,775	61,409	-0,048	-0,034
-143,760	59,556	0,077	0,054
-142,745	-142,912	-0,079	-0,005
-141,731	-200,000	-0,007	0,150
-140,716	-81,464	0,064	-0,015
-139,702	-200,000	-0,005	0,034
-138,687	-200,000	0,035	-0,111
-137,672	-200,000	0,012	-0,073
-136,658	210,876	-0,026	-0,029
-135,643	692,003	0,074	-0,139
-134,629	-200,000	0,001	-0,165
-133,614	-200,000	0,012	0,062
-132,599	11,582	-0,062	0,033
-131,585	-200,000	-0,004	-0,040
-130,570	-101,444	0,099	0,017
-129,556	-86,967	-0,037	-0,008
-128,541	-48,365	-0,119	-0,040
-127,526	38,835	-0,082	-0,052
-126,512	800,000	0,050	-0,109
-125,497	-1,879	0,073	0,036
-124,483	-200,000	-0,020	0,087
-123,468	-200,000	0,002	-0,080
-122,453	-200,000	0,017	-0,067
-121,439	-70,917	-0,094	0,025
-120,424	-116,657	-0,207	-0,027
-119,410	46,250	0,066	-0,043
-118,395	-200,000	-0,002	0,095
-117,380	120,774	-0,085	0,075
-116,366	-200,000	0,016	0,116
-115,351	-200,000	-0,034	-0,119
-114,337	800,000	-0,025	-0,066
-113,322	-8,184	-0,106	0,051
-112,307	-74,684	0,061	0,015
-111,293	-150,790	-0,054	0,003
-110,278	-72,660	0,075	-0,019
-109,264	-84,141	-0,173	-0,039
-108,249	-14,551	-0,100	-0,045
-107,234	800,000	0,008	-0,019
-106,220	800,000	-0,037	-0,106
-105,205	12,811	-0,080	-0,044
-104,191	196,503	0,058	0,063
-103,176	-54,790	0,101	0,032
-102,162	-200,000	-0,024	-0,124
-101,147	-200,000	0,017	-0,109
-100,132	-145,564	0,109	-0,007
-99,118	-32,770	-0,163	-0,064
-98,103	333,691	0,055	-0,075
-97,089	-200,000	-0,012	0,166
-96,074	136,560	0,106	-0,098
-95,059	-25,399	-0,080	-0,033
-94,045	-200,000	0,036	-0,125
-93,030	-57,501	0,098	-0,030
-92,016	-200,000	0,035	0,110
-91,001	-112,564	-0,187	0,026
-89,986	62,986	0,035	-0,025
-88,972	-120,756	0,051	0,006
-87,957	-200,000	0,013	0,052
-86,943	800,000	0,040	-0,080
-85,928	237,535	-0,103	-0,122
-84,913	800,000	-0,050	-0,140
-83,899	-125,214	-0,078	0,008
-82,884	-200,000	0,011	0,043
-81,870	-144,885	0,083	0,005
-80,855	-200,000	-0,011	0,057
-79,840	-158,883	-0,060	0,002
-78,826	-17,320	-0,031	0,014
-77,811	75,259	0,013	-0,010
-76,797	177,289	0,051	0,053
-75,782	-200,000	0,002	0,050
-74,767	800,000	-0,036	0,081
-73,753	204,493	0,085	-0,094
-72,738	-200,000	-0,011	-0,059
-71,724	14,836	-0,120	-0,066
-70,709	-91,642	-0,079	0,016
-69,694	264,357	0,046	-0,057
-68,680	800,000	-0,023	0,049
-67,665	206,541	0,045	-0,049
-66,651	800,000	0,061	0,141
-65,636	601,722	0,009	0,016
-64,622	800,000	-0,044	-0,107
-63,607	-13,527	-0,132	0,061
-62,592	-200,000	-0,000	-0,063
-61,578	13,561	-0,097	0,053
-60,563	520,130	-0,050	0,083
-59,549	309,907	-0,072	0,095
-58,534	-39,856	-1,574	-0,579
-57,519	411,718	-1,376	-2,076
-56,505	-200,000	-0,535	-4,626
-55,490	183,571	1,106	1,159
-54,476	800,000	4,839	11,001
-53,461	-200,000	19,221	318,139
-52,446	-200,000	740,141	2335,894
-51,432	575,916	1655,719	2876,002
-50,417	78,774	1672,149	1265,796
-49,403	21,635	1544,799	888,252
-48,388	15,467	1467,332	813,689
-47,373	17,942	1457,334	820,087
-46,359	16,796	1447,271	808,889
-45,344	13,734	1442,750	791,650
-44,330	13,693	1440,588	790,235
-43,315	13,728	1438,876	789,432
-42,300	13,684	1437,374	788,365
-41,286	13,770	1435,982	787,980
-40,271	13,645	1434,876	786,744
-39,257	13,681	1433,350	786,049
-38,242	13,743	1432,122	785,641
-37,227	13,749	1431,043	785,046
-36,213	13,732	1429,646	784,167
-35,198	13,716	1428,540	783,456
-34,184	13,737	1427,716	783,072
-33,169	13,696	1426,198	782,011
-32,154	13,752	1425,167	781,680
-31,140	13,720	1423,961	780,839
-30,125	13,765	1422,824	780,397
-29,111	13,746	1421,645	779,630
-28,096	13,728	1420,551	778,913
-27,082	13,682	1419,252	777,952
-26,067	13,650	1418,275	777,234
-25,052	13,637	1417,335	776,628
-24,038	13,644	1416,102	775,955
-23,023	13,611	1415,303	775,330
-22,009	13,599	1414,379	774,739
-20,994	13,611	1413,406	774,228
-19,979	13,634	1412,372	773,743
-18,965	13,579	1411,617	773,040
-17,950	13,563	1410,556	772,352
-16,936	13,589	1409,704	771,974
-15,921	13,581	1408,322	771,151
-14,906	13,538	1407,789	770,627
-13,892	13,574	1406,596	770,114
-12,877	13,562	1405,788	769,584
-11,863	13,584	1404,884	769,160
-10,848	13,552	1404,123	768,564
-9,833	13,540	1403,054	767,893
-8,819	13,485	1402,176	767,123
-7,804	13,473	1401,399	766,614
-6,790	13,463	1400,194	765,879
-5,775	13,485	1399,382	765,507
-4,760	13,500	1398,301	764,954
-3,746	13,465	1397,530	764,340
-2,731	13,426	1396,785	763,720
-1,717	13,399	1395,941	763,101
-0,702	13,432	1394,171	762,260
0,313	17,205	1310,967	734,284
1,327	33,416	704,747	432,263
2,342	51,527	123,431	82,899
3,356	3,045	16,686	8,555
4,371	6,837	3,237	1,701
5,386	22,687	0,659	0,381
6,400	-200,000	-0,020	0,205
7,415	-58,579	-0,210	-0,064
8,429	-45,696	-0,328	-0,114
9,444	210,184	-0,268	-0,298
10,459	-144,978	-0,376	0,024
11,473	33,257	-0,262	-0,160
12,488	25,888	-0,385	-0,226
13,502	41,292	-0,328	-0,210
14,517	10,036	-0,325	-0,174
15,531	85,062	-0,344	-0,267
16,546	272,640	-0,240	-0,300
17,561	86,503	-0,355	-0,277
18,575	-96,494	-0,188	-0,035
19,590	471,270	-0,166	-0,265
20,604	138,808	-0,198	-0,184
21,619	61,460	-0,404	-0,284
22,634	81,269	-0,500	-0,381
23,648	24,251	-0,470	-0,274
24,663	195,087	-0,316	-0,339
25,677	29,998	-0,431	-0,259
26,692	-97,038	-0,401	-0,073
27,707	17,827	-0,311	-0,174
28,721	-19,382	-0,432	-0,189
29,736	60,972	-0,504	-0,353
30,750	59,042	-0,356	-0,247
31,765	92,195	-0,449	-0,357
32,780	83,881	-0,390	-0,300
33,794	-11,867	-0,398	-0,183
34,809	-76,718	-0,408	-0,100
35,823	21,662	-0,298	-0,171
36,838	24,513	-0,372	-0,216
37,853	62,831	-0,371	-0,261
38,867	340,489	-0,299	-0,413
39,882	196,085	-0,326	-0,350
40,896	39,919	-0,410	-0,259
41,911	127,377	-0,395	-0,354
42,926	45,401	-0,317	-0,206
43,940	-1,930	-0,482	-0,238
44,955	25,065	-0,446	-0,260
45,969	2,803	-0,427	-0,218
46,984	164,642	-0,299	-0,297
47,999	415,948	-0,168	-0,253
49,013	-53,058	-0,422	-0,136
50,028	80,526	-0,244	-0,185
51,042	48,231	-0,312	-0,205
52,057	72,054	-0,282	-0,207
53,071	93,477	-0,313	-0,249
54,086	89,120	-0,302	-0,237
55,101	18,821	-0,386	-0,217
56,115	-31,361	-0,400	-0,158
57,130	72,700	-0,350	-0,257
58,144	-55,825	-0,415	-0,130
59,159	27,800	-0,403	-0,239
60,174	-43,723	-0,477	-0,168
61,188	181,404	-0,307	-0,319
62,203	192,263	-0,291	-0,310
63,217	-5,249	-0,375	-0,181
64,232	-6,401	-0,451	-0,216
65,247	144,445	-0,277	-0,260
66,261	-18,988	-0,444	-0,193
67,276	60,787	-0,422	-0,294
68,290	-83,779	-0,350	-0,078
69,305	18,077	-0,148	-0,083
70,320	-15,130	-0,393	-0,176
71,334	101,126	-0,312	-0,255
72,349	24,803	-0,291	-0,169
73,363	-47,540	-0,346	-0,118
74,378	38,511	-0,394	-0,247
75,393	82,713	-0,411	-0,314
76,407	-53,252	-0,233	-0,075
77,422	94,458	-0,269	-0,215
78,436	516,877	-0,172	-0,283
79,451	61,596	-0,306	-0,214
80,466	115,544	-0,354	-0,305
81,480	108,383	-0,219	-0,184
82,495	37,317	-0,382	-0,238
83,509	-59,484	-0,387	-0,116
84,524	66,967	-0,403	-0,288
85,539	-42,736	-0,297	-0,105
86,553	-74,935	-0,330	-0,083
87,568	180,401	-0,246	-0,253
88,582	120,924	-0,279	-0,244
89,597	184,588	-0,236	-0,246
90,611	39,736	-0,303	-0,191
91,626	282,650	-0,264	-0,333
92,641	225,852	-0,204	-0,233
93,655	497,606	-0,185	-0,300
94,670	15,436	-0,375	-0,206
95,684	-38,439	-0,399	-0,147
96,699	7,168	-0,223	-0,116
97,714	37,204	-0,201	-0,125
98,728	-2,578	-0,185	-0,091
99,743	53,962	-0,289	-0,194
100,757	0,692	-0,284	-0,142
101,772	206,847	-0,176	-0,193
102,787	203,030	-0,261	-0,284
103,801	27,242	-0,281	-0,165
104,816	16,456	-0,304	-0,168
105,830	297,204	-0,201	-0,259
106,845	44,381	-0,238	-0,153
107,860	44,187	-0,266	-0,171
108,874	-11,824	-0,434	-0,199
109,889	128,900	-0,259	-0,231
110,903	-20,456	-0,392	-0,168
111,918	107,277	-0,261	-0,218
112,933	-47,570	-0,326	-0,110
113,947	25,314	-0,305	-0,177
114,962	-121,395	-0,197	0,023
115,976	-92,911	-0,336	-0,065
116,991	152,369	-0,255	-0,244
118,006	29,760	-0,456	-0,271
119,020	359,443	-0,166	-0,234
120,035	77,327	-0,208	-0,155
121,049	40,352	-0,255	-0,160
122,064	88,737	-0,246	-0,191
123,079	225,871	-0,183	-0,208
124,093	714,794	-0,072	-0,134
125,108	78,216	-0,277	-0,207
126,122	93,146	-0,246	-0,195
127,137	-5,206	-0,268	-0,128
128,151	230,489	-0,260	-0,298
129,166	-87,513	-0,180	0,038
130,181	56,027	-0,226	-0,153
131,195	-47,600	-0,281	-0,095
132,210	164,611	-0,219	-0,217
133,224	36,432	-0,310	-0,191
134,239	38,082	-0,215	-0,133
135,254	11,597	-0,298	-0,160
136,268	20,665	-0,251	-0,142
137,283	340,931	-0,125	-0,171
138,297	148,357	-0,402	-0,380
139,312	195,736	-0,198	-0,211
140,327	-26,451	-0,245	-0,100
141,341	-85,232	-0,164	-0,036
142,356	195,155	-0,161	-0,171
143,370	6,831	-0,207	-0,107
144,385	800,000	-0,114	-0,282
145,400	-27,041	-0,377	-0,153
146,414	-132,103	-0,213	-0,019
147,429	72,055	-0,226	-0,164
148,443	2,264	-0,156	-0,079
149,458	-118,942	-0,247	0,030
150,473	94,731	-0,226	-0,179
151,487	743,973	-0,142	-0,269
152,502	800,000	-0,161	-0,323
153,516	45,076	-0,246	-0,158
154,531	15,014	-0,328	-0,179
155,546	339,377	-0,182	-0,248
156,560	61,434	-0,254	-0,176
157,575	-56,788	-0,307	-0,094
158,589	-19,226	-0,241	-0,104
159,604	-45,911	-0,312	-0,107
160,619	64,234	-0,321	-0,225
161,633	35,201	-0,333	-0,204
162,648	38,704	-0,226	-0,140
163,662	154,299	-0,231	-0,221
164,677	-142,407	-0,098	0,007
165,692	79,991	-0,181	-0,136
166,706	-135,797	-0,192	-0,016
167,721	19,893	-0,244	-0,137
168,735	57,414	-0,254	-0,173
169,750	-18,024	-0,181	-0,079
170,764	46,452	-0,333	-0,215
171,779	800,000	-0,126	-0,289
172,794	-62,234	-0,167	-0,048
173,808	155,284	-0,185	-0,178
174,823	25,351	-0,204	-0,118
175,837	283,793	-0,244	-0,307
176,852	33,344	-0,228	-0,137
177,867	-20,999	-0,191	-0,081
178,881	557,344	-0,127	-0,214
179,896	-156,211	-0,180	-0,008
180,910	41,108	-0,201	-0,126
181,925	-23,448	-0,143	0,059
182,940	-30,176	-0,317	-0,125
183,954	109,058	-0,332	-0,276
184,969	294,157	-0,183	-0,234
185,983	139,491	-0,207	-0,190
186,998	-5,376	-0,202	-0,096
188,013	-79,808	-0,237	-0,055
189,027	-84,731	-0,136	0,030
190,042	182,732	-0,226	-0,232
191,056	395,054	-0,176	-0,256
192,071	-200,000	-0,015	-0,131
193,086	173,735	-0,087	-0,087
194,100	665,240	-0,095	-0,172
195,115	-70,478	-0,301	-0,079
196,129	323,768	-0,127	-0,169
197,144	188,030	-0,256	-0,266
198,159	634,248	-0,130	-0,230
199,173	99,369	-0,216	-0,174
200,188	105,780	-0,156	-0,129
201,202	-59,819	-0,284	-0,084
202,217	-9,637	-0,188	-0,087
203,232	278,378	-0,100	-0,125
204,246	75,849	-0,265	-0,195
205,261	97,996	-0,155	-0,124
206,275	-200,000	-0,079	-0,266
207,290	800,000	-0,080	-0,205
208,304	-200,000	0,012	-0,054
209,319	-24,718	-0,318	-0,131
210,334	-39,059	-0,256	-0,093
211,348	82,626	-0,301	-0,227
212,363	61,480	-0,257	-0,177
213,377	190,687	-0,108	-0,113
214,392	-65,157	-0,310	-0,086
215,407	136,149	-0,144	-0,131
216,421	31,547	-0,185	-0,110
217,436	137,565	-0,133	-0,121
218,450	-145,948	-0,194	-0,012
219,465	-100,276	-0,100	-0,017
220,480	43,179	-0,202	-0,128
221,494	163,604	-0,135	-0,132
222,509	-83,254	-0,236	-0,052
223,523	800,000	-0,058	-0,115
224,538	-59,408	-0,109	-0,032
225,553	41,950	-0,157	-0,099
226,567	-64,252	-0,281	-0,079
227,582	210,394	-0,153	-0,167
228,596	-200,000	0,002	-0,269
229,611	-200,000	-0,004	-0,116
230,626	92,377	-0,181	-0,141
231,640	90,474	-0,198	-0,154
232,655	-11,442	-0,278	-0,126
233,669	508,552	-0,142	-0,229
234,684	270,122	-0,159	-0,195
235,699	800,000	-0,066	-0,197
236,713	158,867	-0,114	-0,110
237,728	135,721	-0,196	-0,177
238,742	-122,834	-0,310	-0,034
239,757	318,164	-0,182	-0,240
240,772	100,561	-0,283	-0,228
241,786	5,462	-0,248	-0,127
242,801	108,558	-0,182	-0,151
243,815	-105,105	-0,119	0,019
244,830	446,432	-0,103	-0,158
245,844	585,034	-0,115	-0,196
246,859	-93,507	-0,269	-0,051
247,874	-69,253	-0,151	-0,040
248,888	223,325	-0,216	-0,242
249,903	621,840	-0,126	-0,220
250,917	247,747	-0,144	-0,169
251,932	-200,000	-0,010	-0,117
252,947	-153,203	-0,163	-0,008
253,961	437,664	-0,118	-0,178
254,976	159,035	-0,153	-0,148
255,990	800,000	-0,083	-0,223
257,005	68,883	-0,209	-0,148
258,020	-91,843	-0,171	-0,033
259,034	-34,585	-0,225	-0,085
260,049	81,268	-0,203	-0,152
261,063	-117,583	-0,222	0,027
262,078	800,000	-0,088	-0,212
263,093	-14,179	-0,223	-0,099
264,107	472,551	-0,223	-0,348
265,122	75,624	-0,204	-0,149
266,136	-81,069	-0,192	-0,044
267,151	-61,463	-0,080	0,023
268,166	-31,157	-0,347	-0,135
269,180	263,537	-0,176	-0,212
270,195	94,756	-0,266	-0,209
271,209	800,000	-0,075	-0,171
272,224	319,408	-0,151	-0,199
273,239	125,788	-0,205	-0,179
274,253	199,662	-0,086	-0,091
275,268	-49,575	-0,206	-0,067
276,282	-116,918	-0,212	-0,027
277,297	-29,143	-0,208	-0,082
278,312	-67,349	-0,150	-0,040
279,326	188,665	-0,165	-0,170
280,341	-17,725	-0,159	-0,069
281,355	-0,372	-0,204	-0,100
282,370	-31,949	-0,205	-0,079
283,384	301,153	-0,206	-0,263
284,399	727,415	-0,183	-0,338
285,414	213,800	-0,136	-0,148
286,428	-200,000	-0,026	-0,262
287,443	184,469	-0,101	-0,103
288,457	77,415	-0,133	-0,098
289,472	194,542	-0,148	-0,155
290,487	57,009	-0,185	-0,125
291,501	124,949	-0,188	-0,163
292,516	-200,000	-0,055	-0,257
293,530	-200,000	-0,061	-0,188
294,545	-155,191	-0,218	0,010
295,560	-182,880	-0,224	0,003
296,574	639,924	-0,112	-0,197
297,589	311,163	-0,111	-0,144
298,603	190,481	-0,143	-0,148
299,618	-20,680	-0,326	-0,137
300,633	199,458	-0,115	-0,122
301,647	123,883	-0,127	-0,110
302,662	32,150	-0,121	-0,072
303,676	-144,034	-0,193	0,012
304,691	-95,443	-0,159	0,029
305,706	-85,006	-0,152	0,033
306,720	-63,319	-0,265	-0,075
307,735	800,000	-0,046	-0,139
308,749	-56,233	-0,201	-0,061
309,764	-51,311	-0,234	0,075
310,779	-70,239	-0,104	-0,027
311,793	-149,888	-0,226	0,012
312,808	65,462	-0,224	-0,156
313,822	354,719	-0,079	-0,109
314,837	-200,000	-0,013	-0,059
315,852	87,476	-0,208	-0,158
316,866	-120,593	-0,134	0,015
317,881	-17,194	-0,163	-0,070
318,895	404,832	-0,203	-0,296
319,910	85,405	-0,217	-0,164
320,925	-91,069	-0,064	0,012
321,939	-63,063	-0,192	-0,054
322,954	191,452	-0,098	-0,101
323,968	69,503	-0,057	0,040
324,983	-95,332	-0,219	0,040
325,997	395,753	-0,106	-0,153
327,012	290,904	-0,096	-0,121
328,027	-7,987	-0,208	-0,096
329,041	258,012	-0,042	-0,050
330,056	800,000	-0,042	-0,081
331,070	243,340	-0,070	0,081
332,085	105,730	-0,105	-0,086
333,100	353,216	-0,145	-0,198
334,114	620,386	-0,115	-0,200
335,129	800,000	-0,094	-0,267
336,143	86,688	-0,140	-0,106
337,158	30,898	-0,209	-0,123
338,173	-200,000	0,006	-0,068
339,187	-120,914	0,032	-0,004
340,202	639,285	-0,076	-0,134
341,216	103,322	-0,166	-0,134
342,231	186,193	-0,140	-0,143
343,246	50,109	-0,146	-0,094
344,260	-50,495	-0,181	-0,058
345,275	426,069	-0,117	-0,174
346,289	-22,091	-0,038	-0,016
347,304	-200,000	-0,034	-0,192
348,319	-47,820	-0,091	-0,030
349,333	65,003	-0,124	-0,086
350,348	800,000	-0,035	-0,098
351,362	370,133	-0,081	-0,113
352,377	84,569	-0,148	-0,111
353,392	73,623	-0,118	-0,085
354,406	-117,036	-0,153	0,019
355,421	207,321	1316,444	1411,082
356,435	159,472	1477,392	1411,568
