DTS Sentinel unit serial number:	SN410029Multiplexer serial number:	ORYXHardware model number:	OX2-SRSoftware version number:	ORYX F/W v4,00 Oryx Data Collector v3.7.2.0data status	okinstallation	B3 Nyhavnadifferential loss correction	single-endedforward channel	channel 1reverse channel	N/Adate	2023/12/01time	11:32:30forward acquisition time	300,00reverse acquisition time	0,00gamma	499,1914k internal	0,3213k external	0,3213temperature offset calibration	1,0000default loss term (dB/km)	0,3820temperature slope calibration	1,0000multiplexer offset coefficient	1,0000multiplexer slope coefficient	1,0000fibre end	0,00T internal ref (°C)	8,46T ext. ref 1 (°C)	-5,51T ext. ref 2 (°C)	-5,61length (m)	temperature (°C)	Stokes	anti-Stokes-744,400	-200,000	-0,028	-0,286
-743,385	-200,000	-0,026	0,327
-742,371	169,681	-0,232	-0,241
-741,356	-200,000	0,024	0,317
-740,342	800,000	-0,108	-0,288
-739,327	135,915	-0,191	0,181
-738,312	171,645	-0,175	-0,182
-737,298	800,000	-0,076	0,168
-736,283	279,296	-0,138	-0,179
-735,269	-200,000	-0,026	0,291
-734,254	-34,637	-0,150	0,059
-733,239	-58,397	-0,367	0,115
-732,225	776,323	-0,022	-0,043
-731,210	144,504	0,042	0,040
-730,196	718,344	-0,075	-0,144
-729,181	800,000	-0,031	-0,062
-728,167	-40,411	-0,102	0,038
-727,152	5,939	0,073	-0,039
-726,137	800,000	-0,070	-0,189
-725,123	-173,323	-0,112	-0,002
-724,108	-200,000	0,022	0,157
-723,094	-58,492	-0,212	-0,066
-722,079	118,421	-0,043	-0,038
-721,064	-63,949	-0,105	0,031
-720,050	155,072	-0,075	0,075
-719,035	-200,000	-0,028	-0,097
-718,021	265,938	0,027	-0,034
-717,006	444,043	-0,069	-0,110
-715,991	800,000	-0,043	-0,102
-714,977	1,355	0,059	-0,031
-713,962	53,489	-0,043	-0,030
-712,948	-154,196	0,056	0,003
-711,933	20,145	0,064	-0,037
-710,918	-200,000	0,015	0,083
-709,904	-30,955	-0,087	0,035
-708,889	-200,000	0,000	0,031
-707,875	-85,125	-0,082	0,018
-706,860	-94,187	-0,125	0,025
-705,845	800,000	-0,042	0,122
-704,831	-87,033	-0,066	-0,014
-703,816	0,150	-0,118	-0,061
-702,802	800,000	-0,008	-0,023
-701,787	800,000	-0,069	0,153
-700,772	-174,799	0,047	0,001
-699,758	91,806	0,088	0,072
-698,743	-200,000	0,020	0,103
-697,729	513,077	0,049	0,083
-696,714	436,380	-0,044	-0,069
-695,699	-44,356	0,115	-0,041
-694,685	385,599	-0,049	0,073
-693,670	-6,614	0,029	0,014
-692,656	70,339	-0,141	-0,105
-691,641	800,000	0,058	0,133
-690,627	38,158	0,018	0,012
-689,612	800,000	0,012	-0,028
-688,597	592,339	-0,048	-0,086
-687,583	189,051	-0,100	-0,108
-686,568	-77,197	-0,144	-0,036
-685,554	-200,000	-0,021	-0,105
-684,539	-25,996	0,072	-0,030
-683,524	-119,456	-0,159	-0,020
-682,510	-200,000	0,013	0,065
-681,495	-200,000	-0,009	0,034
-680,481	800,000	-0,022	-0,060
-679,466	357,138	0,039	-0,056
-678,451	171,098	-0,065	-0,067
-677,437	-93,153	0,051	0,010
-676,422	-111,535	0,098	0,014
-675,408	800,000	-0,105	0,247
-674,393	62,588	0,154	0,111
-673,378	-143,089	-0,077	-0,005
-672,364	-66,556	-0,075	-0,021
-671,349	-44,382	-0,068	-0,025
-670,335	-200,000	0,022	0,072
-669,320	499,057	-0,019	0,032
-668,305	102,929	0,112	-0,095
-667,291	75,341	0,048	0,036
-666,276	303,998	0,123	-0,165
-665,262	800,000	-0,032	-0,072
-664,247	-70,329	-0,076	0,021
-663,232	66,517	0,042	0,031
-662,218	371,028	0,086	0,127
-661,203	-97,397	-0,079	0,015
-660,189	-87,697	0,033	0,007
-659,174	-200,000	-0,023	-0,225
-658,159	369,656	-0,057	-0,083
-657,145	-107,264	-0,086	0,013
-656,130	-200,000	0,049	0,161
-655,116	800,000	0,021	0,043
-654,101	-84,803	0,099	0,022
-653,086	181,926	0,079	0,084
-652,072	-58,040	-0,098	-0,031
-651,057	800,000	-0,030	-0,066
-650,043	421,835	-0,099	0,153
-649,028	-200,000	0,024	-0,104
-648,014	238,580	-0,035	0,042
-646,999	39,387	-0,056	0,036
-645,984	47,326	0,106	-0,071
-644,970	11,916	-0,130	-0,072
-643,955	800,000	0,036	-0,105
-642,941	339,003	-0,020	0,028
-641,926	-200,000	-0,061	0,000
-640,911	-200,000	0,001	-0,045
-639,897	800,000	0,088	0,220
-638,882	-140,243	0,097	0,007
-637,868	504,220	-0,067	0,112
-636,853	-107,548	-0,107	-0,017
-635,838	-200,000	-0,001	-0,033
-634,824	411,425	-0,047	0,072
-633,809	-130,310	0,178	-0,017
-632,795	800,000	0,025	-0,061
-631,780	-44,715	-0,029	0,011
-630,765	140,305	0,085	-0,081
-629,751	8,099	-0,052	-0,028
-628,736	155,103	0,021	-0,021
-627,722	-133,992	0,029	0,003
-626,707	-109,453	-0,110	-0,017
-625,692	29,998	0,032	0,020
-624,678	-200,000	-0,004	-0,134
-623,663	800,000	0,043	0,099
-622,649	800,000	-0,056	0,115
-621,634	546,871	0,014	0,024
-620,619	126,051	0,064	-0,058
-619,605	205,387	-0,049	0,055
-618,590	-200,000	0,002	0,060
-617,576	-200,000	0,007	0,065
-616,561	-200,000	-0,033	0,114
-615,546	-0,174	0,025	0,013
-614,532	274,124	0,032	-0,041
-613,517	19,597	-0,034	-0,020
-612,503	-200,000	0,007	0,025
-611,488	127,398	0,052	0,047
-610,474	54,680	0,155	0,107
-609,459	-88,466	-0,190	-0,041
-608,444	154,638	0,133	-0,131
-607,430	374,968	0,020	-0,029
-606,415	800,000	0,022	-0,060
-605,401	-0,942	-0,081	-0,041
-604,386	-200,000	-0,019	-0,120
-603,371	30,588	0,085	-0,052
-602,357	-73,220	0,073	0,019
-601,342	29,344	-0,092	0,056
-600,328	-200,000	0,025	-0,127
-599,313	385,612	0,042	0,063
-598,298	-103,991	-0,057	-0,010
-597,284	-78,635	0,078	0,019
-596,269	382,771	-0,014	-0,021
-595,255	158,978	-0,108	0,108
-594,240	800,000	0,037	0,091
-593,225	-200,000	-0,007	0,098
-592,211	-118,427	0,018	0,002
-591,196	-30,501	-0,077	0,031
-590,182	-47,255	0,097	0,034
-589,167	90,566	0,021	0,017
-588,152	-55,524	0,092	-0,029
-587,138	800,000	-0,047	0,141
-586,123	591,331	-0,031	0,055
-585,109	-200,000	0,013	-0,044
-584,094	800,000	0,025	-0,055
-583,079	-158,371	0,011	-0,000
-582,065	-7,956	-0,073	0,036
-581,050	800,000	-0,025	0,067
-580,036	-200,000	0,016	-0,062
-579,021	20,934	-0,143	-0,083
-578,006	155,721	-0,095	0,094
-576,992	-50,213	-0,111	0,037
-575,977	282,982	0,040	-0,052
-574,963	-140,626	0,179	0,013
-573,948	4,069	-0,028	-0,015
-572,934	-44,833	-0,012	-0,004
-571,919	-27,694	-0,014	-0,006
-570,904	305,483	0,035	0,047
-569,890	104,972	-0,078	-0,066
-568,875	800,000	0,011	-0,026
-567,861	800,000	-0,002	0,004
-566,846	-137,977	0,165	0,013
-565,831	-200,000	0,051	-0,165
-564,817	-200,000	-0,030	0,109
-563,802	713,693	0,053	0,101
-562,788	800,000	0,009	0,026
-561,773	-200,000	0,030	-0,119
-560,758	-200,000	-0,003	0,067
-559,744	-200,000	-0,018	0,089
-558,729	199,607	-0,029	0,032
-557,715	71,927	-0,088	0,065
-556,700	-24,198	-0,087	-0,037
-555,685	-126,695	0,043	0,005
-554,671	106,690	-0,067	0,057
-553,656	123,169	0,103	-0,093
-552,642	19,166	-0,094	-0,054
-551,627	-200,000	0,017	0,088
-550,612	-200,000	0,009	-0,039
-549,598	-131,705	-0,102	-0,010
-548,583	20,181	0,044	0,025
-547,569	257,893	-0,019	0,023
-546,554	-164,613	-0,099	-0,003
-545,539	116,720	0,123	0,108
-544,525	-200,000	-0,018	0,090
-543,510	-79,431	-0,051	-0,012
-542,496	-53,405	-0,187	-0,061
-541,481	-104,140	-0,206	-0,034
-540,466	125,029	0,106	-0,096
-539,452	800,000	-0,018	0,051
-538,437	-65,193	-0,108	0,031
-537,423	116,782	-0,150	0,132
-536,408	491,727	-0,043	0,070
-535,393	-200,000	-0,004	-0,125
-534,379	800,000	0,036	0,076
-533,364	188,158	-0,067	-0,072
-532,350	-46,941	0,176	-0,062
-531,335	-50,168	0,116	0,039
-530,321	-200,000	0,041	0,180
-529,306	408,889	-0,090	0,138
-528,291	800,000	-0,048	-0,107
-527,277	338,275	0,090	-0,126
-526,262	-200,000	0,011	-0,067
-525,248	582,039	-0,049	-0,087
-524,233	800,000	0,010	0,032
-523,218	22,237	0,095	-0,056
-522,204	162,895	0,024	-0,024
-521,189	-82,035	-0,154	-0,036
-520,175	123,672	-0,056	-0,051
-519,160	106,326	0,055	-0,047
-518,145	-137,266	0,068	0,005
-517,131	-200,000	0,021	0,078
-516,116	-131,472	-0,053	0,005
-515,102	-200,000	0,013	0,164
-514,087	-4,806	0,013	-0,007
-513,072	-18,845	-0,123	-0,055
-512,058	178,275	-0,054	-0,056
-511,043	8,474	0,106	0,057
-510,029	166,976	0,107	0,109
-509,014	365,571	-0,090	0,130
-507,999	-200,000	-0,025	0,167
-506,985	40,390	-0,073	-0,047
-505,970	-200,000	-0,051	-0,173
-504,956	-161,352	0,158	-0,006
-503,941	51,601	0,136	-0,093
-502,926	73,350	-0,052	-0,039
-501,912	-66,314	0,143	0,041
-500,897	800,000	-0,022	-0,053
-499,883	-200,000	0,001	-0,019
-498,868	21,972	-0,164	-0,096
-497,853	800,000	0,026	-0,057
-496,839	166,954	-0,067	-0,068
-495,824	285,292	0,043	0,056
-494,810	-145,498	0,133	-0,008
-493,795	-110,477	0,108	0,016
-492,781	100,303	0,129	-0,107
-491,766	490,670	-0,072	-0,118
-490,751	-109,888	-0,023	-0,003
-489,737	29,071	-0,030	0,018
-488,722	-17,155	0,092	-0,041
-487,708	-23,091	0,070	0,030
-486,693	-12,155	-0,040	0,019
-485,678	-114,907	-0,063	-0,009
-484,664	264,886	0,058	-0,072
-483,649	-176,863	-0,126	0,002
-482,635	-81,388	0,136	0,032
-481,620	183,324	-0,040	-0,042
-480,605	229,192	0,063	0,074
-479,591	-65,124	0,074	0,021
-478,576	800,000	-0,020	0,063
-477,562	450,735	0,023	-0,036
-476,547	-200,000	-0,022	-0,094
-475,532	-113,794	0,074	0,010
-474,518	800,000	-0,008	0,022
-473,503	61,027	-0,027	-0,019
-472,489	291,507	0,020	0,026
-471,474	-200,000	-0,002	0,084
-470,459	110,049	0,137	-0,118
-469,445	-15,157	-0,154	-0,070
-468,430	-108,696	-0,069	0,010
-467,416	800,000	0,029	0,072
-466,401	-98,890	0,108	0,019
-465,386	-141,151	-0,093	-0,007
-464,372	-40,748	0,114	0,042
-463,357	373,282	0,072	-0,105
-462,343	-36,034	-0,043	0,017
-461,328	340,688	-0,090	-0,126
-460,313	74,349	0,098	-0,074
-459,299	-55,521	0,054	-0,017
-458,284	211,644	0,035	-0,039
-457,270	559,338	0,068	0,118
-456,255	166,873	-0,077	0,079
-455,241	-200,000	-0,009	-0,056
-454,226	285,792	-0,070	-0,091
-453,211	-13,613	0,159	-0,074
-452,197	787,197	-0,035	0,069
-451,182	18,723	-0,097	0,055
-450,168	-200,000	-0,022	-0,093
-449,153	-200,000	-0,010	-0,049
-448,138	294,301	-0,124	0,163
-447,124	-200,000	0,022	0,070
-446,109	21,952	-0,082	-0,048
-445,095	-139,591	0,089	-0,007
-444,080	504,804	-0,026	0,043
-443,065	571,314	0,032	0,056
-442,051	272,362	-0,090	-0,114
-441,036	254,115	-0,060	-0,074
-440,022	24,531	-0,084	-0,050
-439,007	0,270	0,077	0,039
-437,992	46,727	0,085	-0,056
-436,978	-200,000	0,023	0,094
-435,963	800,000	0,012	0,032
-434,949	-81,142	0,114	-0,027
-433,934	800,000	-0,075	-0,174
-432,919	195,145	-0,080	-0,087
-431,905	-105,866	0,127	0,020
-430,890	161,073	-0,046	-0,046
-429,876	114,131	0,042	0,036
-428,861	-157,232	-0,110	-0,005
-427,846	203,407	0,098	0,108
-426,832	98,331	-0,161	-0,133
-425,817	237,645	0,064	-0,076
-424,803	125,189	0,062	-0,056
-423,788	-29,452	-0,051	-0,021
-422,773	85,322	-0,057	0,045
-421,759	800,000	0,062	0,165
-420,744	164,898	-0,039	0,039
-419,730	-100,838	-0,117	-0,020
-418,715	16,807	-0,155	-0,088
-417,701	45,786	-0,069	-0,045
-416,686	693,401	-0,032	0,060
-415,671	-97,028	0,131	-0,024
-414,657	57,204	-0,129	0,090
-413,642	81,546	0,148	0,114
-412,628	800,000	0,046	-0,099
-411,613	279,609	-0,067	-0,085
-410,598	31,725	-0,102	-0,063
-409,584	29,351	0,097	0,059
-408,569	-200,000	-0,025	0,179
-407,555	-200,000	0,003	0,067
-406,540	39,365	0,053	-0,034
-405,525	156,032	-0,090	-0,089
-404,511	53,945	0,055	0,038
-403,496	-200,000	0,017	0,108
-402,482	-200,000	0,012	0,110
-401,467	-200,000	-0,015	0,089
-400,452	-2,841	-0,063	0,031
-399,438	-200,000	-0,005	-0,066
-398,423	457,174	-0,073	-0,116
-397,409	-200,000	0,017	-0,070
-396,394	74,877	0,050	-0,037
-395,379	800,000	-0,078	-0,169
-394,365	-40,275	0,058	0,021
-393,350	84,673	-0,055	-0,043
-392,336	-28,748	-0,035	0,014
-391,321	-8,449	-0,103	0,049
-390,306	51,791	0,057	-0,039
-389,292	-44,533	-0,031	0,011
-388,277	-53,709	-0,177	-0,057
-387,263	800,000	0,025	-0,079
-386,248	122,461	0,172	0,154
-385,233	800,000	0,046	0,119
-384,219	20,011	-0,074	-0,043
-383,204	-60,272	-0,028	-0,008
-382,190	-147,750	-0,133	0,008
-381,175	-95,349	0,082	0,016
-380,160	123,916	0,080	0,072
-379,146	-200,000	0,007	-0,045
-378,131	-81,538	-0,041	-0,010
-377,117	557,279	-0,047	0,081
-376,102	-200,000	-0,005	0,077
-375,088	-200,000	0,057	-0,187
-374,073	-200,000	0,009	0,100
-373,058	-200,000	0,019	0,068
-372,044	800,000	0,061	0,130
-371,029	-200,000	-0,005	0,104
-370,015	-3,098	-0,052	0,026
-369,000	-200,000	0,035	-0,122
-367,985	800,000	0,031	-0,062
-366,971	29,111	-0,028	-0,017
-365,956	-8,160	0,046	0,022
-364,942	-200,000	0,008	-0,081
-363,927	-83,532	0,151	0,034
-362,912	-47,055	0,133	0,046
-361,898	729,132	0,077	-0,147
-360,883	-140,780	0,016	0,001
-359,869	581,747	-0,058	-0,101
-358,854	174,418	-0,065	-0,067
-357,839	800,000	-0,066	0,166
-356,825	24,067	0,154	0,091
-355,810	304,849	-0,039	0,051
-354,796	27,134	0,090	-0,054
-353,781	314,709	-0,076	-0,102
-352,766	283,405	0,036	0,047
-351,752	149,375	0,060	0,058
-350,737	-200,000	0,049	0,177
-349,723	78,008	0,015	-0,011
-348,708	-200,000	0,019	0,062
-347,693	-72,261	0,039	-0,010
-346,679	611,977	-0,026	-0,046
-345,664	-200,000	-0,006	-0,093
-344,650	211,310	-0,115	-0,129
-343,635	168,575	0,110	0,112
-342,620	-200,000	-0,006	0,108
-341,606	-200,000	-0,007	-0,053
-340,591	22,614	-0,184	-0,107
-339,577	800,000	0,025	-0,065
-338,562	-84,708	-0,138	0,031
-337,548	-200,000	0,013	-0,049
-336,533	-149,544	-0,025	0,001
-335,518	60,609	-0,057	0,040
-334,504	800,000	-0,061	0,165
-333,489	57,045	-0,144	-0,100
-332,475	-94,519	-0,174	0,033
-331,460	-77,788	-0,039	0,010
-330,445	793,553	0,034	-0,067
-329,431	-200,000	-0,012	0,059
-328,416	163,934	0,086	-0,086
-327,402	-25,705	-0,136	0,057
-326,387	173,100	-0,018	-0,019
-325,372	669,810	-0,070	-0,129
-324,358	283,219	-0,041	-0,052
-323,343	-87,587	-0,016	0,003
-322,329	-28,320	0,105	-0,043
-321,314	-115,818	0,127	-0,017
-320,299	800,000	0,020	0,060
-319,285	150,666	0,097	-0,094
-318,270	213,373	-0,051	-0,057
-317,256	-103,561	0,113	0,019
-316,241	-49,282	-0,081	-0,027
-315,226	277,579	0,038	-0,048
-314,212	176,693	-0,057	0,059
-313,197	168,847	0,010	0,010
-312,183	707,224	0,044	0,083
-311,168	141,073	-0,121	-0,114
-310,153	-200,000	0,041	-0,201
-309,139	618,727	-0,061	-0,109
-308,124	520,223	0,050	-0,084
-307,110	243,877	-0,057	0,069
-306,095	-50,047	0,137	0,046
-305,080	-104,542	-0,097	0,016
-304,066	-138,968	0,163	0,012
-303,051	263,852	0,048	-0,060
-302,037	-43,183	0,114	0,041
-301,022	-69,296	-0,097	0,026
-300,008	209,463	-0,085	-0,095
-298,993	-200,000	0,011	0,047
-297,978	-135,845	-0,082	0,007
-296,964	-62,524	-0,063	-0,018
-295,949	-65,806	-0,215	-0,061
-294,935	-200,000	0,017	-0,085
-293,920	-200,000	0,006	-0,069
-292,905	-72,944	0,124	0,032
-291,891	-200,000	-0,004	0,062
-290,876	148,488	0,088	-0,084
-289,862	141,859	0,039	-0,037
-288,847	-200,000	0,028	-0,099
-287,832	188,302	0,082	-0,087
-286,818	73,288	0,098	-0,073
-285,803	-200,000	0,017	0,111
-284,789	-200,000	-0,014	-0,088
-283,774	-200,000	0,039	0,140
-282,759	201,400	-0,093	-0,102
-281,745	597,662	-0,038	0,067
-280,730	800,000	0,023	-0,070
-279,716	-200,000	-0,012	-0,097
-278,701	800,000	-0,036	-0,110
-277,686	800,000	0,010	0,028
-276,672	800,000	0,027	0,082
-275,657	78,361	-0,121	0,092
-274,643	-200,000	0,018	0,103
-273,628	655,913	-0,103	-0,188
-272,613	-30,303	-0,018	-0,007
-271,599	152,417	0,030	0,029
-270,584	800,000	-0,025	0,059
-269,570	-200,000	0,014	0,069
-268,555	-200,000	-0,012	0,060
-267,540	800,000	0,049	-0,145
-266,526	708,290	0,050	-0,095
-265,511	-113,635	-0,005	0,001
-264,497	131,136	0,090	0,082
-263,482	13,306	0,151	0,083
-262,467	-200,000	-0,002	-0,066
-261,453	-120,960	0,028	0,003
-260,438	800,000	-0,035	0,075
-259,424	223,960	-0,120	0,138
-258,409	-200,000	-0,025	-0,084
-257,395	609,785	0,020	-0,036
-256,380	-44,166	0,029	0,010
-255,365	185,360	0,119	0,125
-254,351	677,097	0,041	-0,077
-253,336	496,362	-0,049	-0,080
-252,322	104,482	-0,050	-0,042
-251,307	800,000	-0,060	0,158
-250,292	-91,336	0,149	-0,030
-249,278	24,287	0,154	0,090
-248,263	303,232	0,096	0,127
-247,249	9,008	0,060	0,032
-246,234	102,439	0,072	-0,060
-245,219	-103,185	-0,177	-0,029
-244,205	257,756	-0,111	-0,136
-243,190	376,386	0,084	0,122
-242,176	-158,538	0,160	0,006
-241,161	-200,000	0,018	-0,078
-240,146	-200,000	0,013	0,055
-239,132	-200,000	-0,019	-0,076
-238,117	-200,000	0,010	-0,149
-237,103	60,530	-0,130	-0,091
-236,088	-142,197	0,121	0,008
-235,073	-200,000	0,015	0,087
-234,059	-42,437	0,035	0,012
-233,044	-0,846	-0,083	0,041
-232,030	328,803	-0,083	-0,113
-231,015	18,917	-0,073	-0,041
-230,000	484,207	-0,086	0,140
-228,986	-163,669	0,126	-0,004
-227,971	-74,935	-0,054	-0,014
-226,957	298,732	0,065	-0,085
-225,942	-59,019	-0,060	0,018
-224,927	-31,328	-0,069	0,027
-223,913	172,914	-0,043	-0,044
-222,898	-7,487	-0,163	-0,078
-221,884	-200,000	-0,018	-0,126
-220,869	-200,000	0,018	-0,101
-219,855	101,268	0,161	0,133
-218,840	545,774	-0,016	-0,028
-217,825	800,000	-0,038	0,098
-216,811	-200,000	-0,037	0,144
-215,796	-34,424	0,018	0,007
-214,782	-200,000	-0,017	0,119
-213,767	-137,900	0,029	-0,002
-212,752	158,303	0,094	0,092
-211,738	-200,000	0,007	-0,069
-210,723	135,983	-0,071	0,066
-209,709	-185,505	0,085	-0,001
-208,694	-70,723	0,031	0,008
-207,679	-200,000	-0,005	0,070
-206,665	-72,220	0,021	0,005
-205,650	-200,000	0,053	0,186
-204,636	567,388	-0,051	0,088
-203,621	-172,024	-0,059	-0,001
-202,606	105,001	0,029	-0,024
-201,592	463,486	-0,087	-0,138
-200,577	25,647	0,104	0,061
-199,563	149,347	-0,029	-0,028
-198,548	-200,000	0,012	0,076
-197,533	82,725	0,056	-0,043
-196,519	405,342	-0,052	0,078
-195,504	77,943	0,151	-0,114
-194,490	53,467	-0,054	0,036
-193,475	-200,000	0,009	0,064
-192,460	-108,717	-0,113	-0,017
-191,446	70,246	0,108	0,079
-190,431	-43,729	0,112	0,040
-189,417	218,496	-0,070	0,079
-188,402	-200,000	-0,011	-0,109
-187,387	-200,000	-0,036	-0,140
-186,373	-76,978	0,022	0,005
-185,358	-114,704	-0,101	0,014
-184,344	-18,792	0,124	-0,054
-183,329	-189,472	0,064	0,001
-182,315	-200,000	-0,015	0,206
-181,300	-200,000	-0,029	0,112
-180,285	-200,000	-0,006	-0,061
-179,271	40,737	0,094	0,060
-178,256	102,487	0,107	-0,088
-177,242	800,000	-0,055	-0,141
-176,227	800,000	-0,061	0,191
-175,212	800,000	0,037	0,105
-174,198	291,484	-0,055	-0,072
-173,183	-200,000	-0,015	0,056
-172,169	-174,377	-0,044	-0,001
-171,154	-200,000	-0,005	-0,027
-170,139	-200,000	0,001	-0,027
-169,125	142,077	0,084	-0,079
-168,110	-67,516	-0,055	0,015
-167,096	-121,224	-0,050	-0,006
-166,081	800,000	-0,098	0,194
-165,066	33,354	-0,089	-0,054
-164,052	-200,000	0,006	-0,053
-163,037	-123,846	0,101	-0,011
-162,023	62,168	0,064	0,045
-161,008	54,851	-0,109	-0,074
-159,993	-107,497	0,100	0,015
-158,979	-91,989	0,045	0,009
-157,964	800,000	0,052	-0,116
-156,950	800,000	0,022	0,057
-155,935	800,000	-0,053	0,144
-154,920	-34,930	0,058	0,022
-153,906	218,635	-0,044	0,050
-152,891	652,347	-0,062	0,112
-151,877	-200,000	-0,043	0,165
-150,862	-200,000	-0,010	-0,111
-149,847	-63,021	0,129	-0,037
-148,833	-17,376	0,097	0,043
-147,818	209,235	-0,066	0,073
-146,804	800,000	-0,045	0,136
-145,789	148,108	-0,054	-0,051
-144,775	-144,966	0,080	-0,005
-143,760	249,968	0,021	0,025
-142,745	-110,128	0,050	-0,007
-141,731	-75,926	0,054	-0,014
-140,716	-145,661	-0,067	0,004
-139,702	17,900	0,067	0,038
-138,687	-200,000	-0,017	-0,117
-137,672	97,405	0,111	-0,090
-136,658	-103,355	-0,050	-0,008
-135,643	-13,275	0,047	0,022
-134,629	271,325	-0,054	0,068
-133,614	-141,146	0,110	0,008
-132,599	-12,341	-0,024	-0,011
-131,585	80,515	-0,063	-0,048
-130,570	19,469	-0,082	-0,046
-129,556	-200,000	0,005	0,019
-128,541	84,014	-0,021	0,016
-127,526	205,132	0,072	0,079
-126,512	-200,000	0,006	0,129
-125,497	-200,000	-0,018	-0,103
-124,483	64,286	-0,057	0,040
-123,468	318,692	0,075	0,101
-122,453	800,000	-0,029	0,061
-121,439	256,758	-0,036	0,044
-120,424	663,711	0,064	-0,117
-119,410	767,320	0,069	-0,132
-118,395	12,833	0,056	0,030
-117,380	-4,022	-0,037	0,018
-116,366	90,846	0,142	0,113
-115,351	800,000	-0,010	-0,020
-114,337	-33,780	0,131	-0,051
-113,322	-33,700	-0,080	0,031
-112,307	282,310	-0,100	-0,126
-111,293	-79,348	0,081	0,019
-110,278	641,641	0,021	0,038
-109,264	186,407	-0,044	-0,047
-108,249	800,000	0,050	0,118
-107,234	800,000	-0,049	-0,101
-106,220	-200,000	0,015	-0,092
-105,205	-33,663	0,091	0,035
-104,191	114,605	0,066	-0,057
-103,176	-200,000	0,066	0,233
-102,162	37,835	-0,071	0,045
-101,147	714,896	-0,058	0,109
-100,132	-77,265	-0,035	-0,008
-99,118	-152,800	-0,028	0,001
-98,103	-48,188	0,054	-0,018
-97,089	-40,895	-0,036	-0,013
-96,074	273,584	-0,090	0,113
-95,059	220,342	-0,069	-0,078
-94,045	-200,000	-0,003	0,017
-93,030	-61,098	-0,108	-0,032
-92,016	-200,000	-0,026	0,121
-91,001	206,425	-0,074	0,082
-89,986	207,774	0,038	0,042
-88,972	800,000	-0,041	0,083
-87,957	128,441	-0,063	0,056
-86,943	154,556	0,023	-0,023
-85,928	-200,000	-0,001	0,052
-84,913	250,409	-0,089	0,107
-83,899	104,057	-0,075	0,062
-82,884	-200,000	0,014	0,126
-81,870	39,795	-0,115	0,073
-80,855	171,789	0,033	-0,033
-79,840	207,642	0,068	-0,075
-78,826	22,653	-0,081	0,047
-77,811	319,539	-0,060	-0,081
-76,797	-91,922	0,073	-0,014
-75,782	48,486	0,052	-0,035
-74,767	243,587	0,072	-0,086
-73,753	-56,517	-0,052	-0,016
-72,738	23,781	-0,076	0,044
-71,724	88,177	-0,084	-0,066
-70,709	682,608	-0,088	-0,163
-69,694	-200,000	0,003	-0,124
-68,680	-48,500	0,023	0,008
-67,665	-7,717	0,110	0,052
-66,651	800,000	-0,040	0,078
-65,636	800,000	-0,005	0,015
-64,622	81,231	0,056	-0,043
-63,607	198,565	-0,133	0,144
-62,592	800,000	-0,048	0,122
-61,578	-46,963	0,092	0,032
-60,563	86,910	0,041	0,032
-59,549	240,130	0,057	0,068
-58,534	58,866	-2,056	-1,424
-57,519	630,204	-1,073	-1,923
-56,505	-200,000	-0,472	-4,506
-55,490	506,696	0,993	1,630
-54,476	800,000	5,088	11,433
-53,461	-200,000	22,413	343,405
-52,446	800,000	758,793	2297,849
-51,432	533,124	1651,068	2767,886
-50,417	68,656	1649,493	1192,166
-49,403	16,119	1525,404	845,589
-48,388	10,280	1450,623	776,015
-47,373	19,228	1442,829	814,559
-46,359	13,760	1431,536	782,277
-45,344	8,595	1427,310	755,453
-44,330	8,595	1425,407	754,419
-43,315	8,516	1423,726	753,125
-42,300	8,538	1421,748	752,152
-41,286	8,559	1420,697	751,666
-40,271	8,554	1419,311	750,877
-39,257	8,541	1418,012	750,100
-38,242	8,539	1417,089	749,569
-37,227	8,556	1415,848	748,968
-36,213	8,593	1414,681	748,493
-35,198	8,574	1413,363	747,677
-34,184	8,553	1412,487	747,086
-33,169	8,491	1411,136	746,049
-32,154	8,562	1409,976	745,739
-31,140	8,534	1408,915	745,016
-30,125	8,573	1407,807	744,586
-29,111	8,519	1406,563	743,644
-28,096	8,514	1405,503	743,029
-27,082	8,464	1404,124	742,041
-26,067	8,473	1403,138	741,529
-25,052	8,495	1401,996	741,000
-24,038	8,510	1401,092	740,564
-23,023	8,487	1400,124	739,916
-22,009	8,464	1399,168	739,274
-20,994	8,493	1398,043	738,785
-19,979	8,447	1397,184	738,086
-18,965	8,445	1396,202	737,528
-17,950	8,430	1395,277	736,944
-16,936	8,393	1394,491	736,326
-15,921	8,341	1393,482	735,524
-14,906	8,391	1392,458	735,187
-13,892	8,475	1391,180	734,871
-12,877	8,453	1390,619	734,441
-11,863	8,405	1390,108	733,924
-10,848	8,417	1388,934	733,327
-9,833	8,363	1387,807	732,453
-8,819	8,319	1387,121	731,863
-7,804	8,341	1386,061	731,374
-6,790	8,296	1385,164	730,664
-5,775	8,303	1384,114	730,113
-4,760	8,341	1383,248	729,802
-3,746	8,336	1382,253	729,227
-2,731	8,358	1381,316	728,804
-1,717	8,311	1380,620	728,193
-0,702	8,296	1379,015	727,247
0,313	12,242	1290,039	698,269
1,327	28,025	681,427	404,212
2,342	43,660	117,344	75,533
3,356	-2,449	16,692	8,215
4,371	-3,016	3,885	1,904
5,386	-19,784	1,375	0,597
6,400	373,721	0,404	0,581
7,415	-50,522	-0,286	-0,094
8,429	-80,752	-0,290	-0,067
9,444	56,803	-0,279	-0,191
10,459	131,711	-0,201	-0,182
11,473	30,549	-0,370	-0,222
12,488	-32,527	-0,310	-0,121
13,502	-46,507	-0,413	-0,142
14,517	6,006	-0,241	-0,126
15,531	12,684	-0,331	-0,179
16,546	-25,340	-0,442	-0,183
17,561	183,897	-0,332	-0,346
18,575	-47,150	-0,295	-0,101
19,590	32,672	-0,402	-0,244
20,604	3,196	-0,307	-0,157
21,619	98,284	-0,464	-0,376
22,634	0,560	-0,362	-0,181
23,648	31,258	-0,446	-0,269
24,663	94,271	-0,437	-0,349
25,677	16,181	-0,372	-0,206
26,692	283,713	-0,216	-0,273
27,707	251,913	-0,247	-0,296
28,721	109,001	-0,374	-0,315
29,736	41,993	-0,347	-0,221
30,750	85,272	-0,448	-0,346
31,765	45,050	-0,412	-0,266
32,780	137,854	-0,384	-0,354
33,794	-41,563	-0,456	-0,164
34,809	43,882	-0,404	-0,260
35,823	-7,105	-0,294	-0,140
36,838	191,322	-0,308	-0,327
37,853	-6,272	-0,333	-0,159
38,867	55,493	-0,378	-0,257
39,882	63,260	-0,342	-0,241
40,896	26,381	-0,357	-0,209
41,911	122,128	-0,277	-0,243
42,926	-34,405	-0,304	-0,117
43,940	253,989	-0,316	-0,380
44,955	234,511	-0,376	-0,436
45,969	72,886	-0,376	-0,275
46,984	800,000	-0,201	-0,402
47,999	354,770	-0,198	-0,277
49,013	-57,897	-0,293	-0,089
50,028	-29,487	-0,382	-0,153
51,042	211,794	-0,301	-0,333
52,057	24,560	-0,523	-0,303
53,071	77,977	-0,439	-0,328
54,086	122,128	-0,302	-0,264
55,101	-64,055	-0,295	-0,084
56,115	26,565	-0,356	-0,209
57,130	123,396	-0,354	-0,311
58,144	33,554	-0,288	-0,175
59,159	165,700	-0,348	-0,346
60,174	59,927	-0,394	-0,272
61,188	29,603	-0,352	-0,210
62,203	-40,939	-0,295	-0,106
63,217	28,651	-0,276	-0,163
64,232	113,137	-0,253	-0,215
65,247	46,032	-0,271	-0,176
66,261	-46,236	-0,352	-0,121
67,276	113,379	-0,347	-0,296
68,290	-80,158	-0,331	-0,077
69,305	77,006	-0,310	-0,230
70,320	55,430	-0,231	-0,157
71,334	108,357	-0,256	-0,214
72,349	-27,494	-0,414	-0,168
73,363	56,300	-0,392	-0,267
74,378	109,263	-0,332	-0,278
75,393	101,034	-0,214	-0,174
76,407	171,536	-0,229	-0,230
77,422	64,862	-0,278	-0,196
78,436	112,347	-0,163	-0,138
79,451	-34,443	-0,395	-0,151
80,466	29,058	-0,281	-0,166
81,480	18,915	-0,306	-0,171
82,495	41,791	-0,318	-0,202
83,509	-61,458	-0,296	0,086
84,524	-101,781	-0,321	-0,054
85,539	-23,753	-0,348	-0,145
86,553	-49,980	-0,272	-0,090
87,568	143,159	-0,343	-0,319
88,582	-6,176	-0,365	-0,174
89,597	6,593	-0,523	-0,271
90,611	-93,336	-0,295	-0,057
91,626	-129,209	-0,322	-0,031
92,641	370,061	-0,159	-0,226
93,655	235,233	-0,302	-0,349
94,670	16,446	-0,390	-0,215
95,684	-5,063	-0,320	-0,154
96,699	27,463	-0,361	-0,212
97,714	-12,011	-0,230	-0,105
98,728	-106,338	-0,199	0,031
99,743	-55,690	-0,286	-0,089
100,757	321,527	-0,147	-0,196
101,772	18,557	-0,263	-0,147
102,787	77,732	-0,343	-0,255
103,801	-8,060	-0,251	-0,118
104,816	70,490	-0,370	-0,267
105,830	199,481	-0,170	-0,182
106,845	-0,819	-0,193	-0,095
107,860	16,358	-0,273	-0,150
108,874	-51,177	-0,263	-0,085
109,889	-45,868	-0,240	-0,082
110,903	8,165	-0,350	-0,183
111,918	-26,240	-0,331	-0,135
112,933	335,676	-0,173	-0,234
113,947	146,764	-0,146	-0,137
114,962	-103,414	-0,307	-0,050
115,976	81,152	-0,257	-0,194
116,991	31,693	-0,280	-0,168
118,006	15,433	-0,300	-0,164
119,020	26,956	-0,297	-0,173
120,035	22,883	-0,305	-0,174
121,049	-37,051	-0,238	-0,088
122,064	145,417	-0,238	-0,222
123,079	184,494	-0,166	-0,172
124,093	-200,000	-0,041	-0,152
125,108	191,959	-0,134	-0,141
126,122	-152,782	-0,304	0,015
127,137	-2,515	-0,195	-0,095
128,151	130,835	-0,158	-0,142
129,166	72,512	-0,260	-0,189
130,181	-2,403	-0,316	-0,154
131,195	70,228	-0,106	-0,076
132,210	36,760	-0,285	-0,175
133,224	-11,904	-0,209	-0,095
134,239	28,231	-0,263	-0,154
135,254	20,709	-0,182	-0,102
136,268	188,398	-0,139	-0,145
137,283	359,957	-0,237	-0,331
138,297	-153,871	-0,234	-0,011
139,312	3,987	-0,305	-0,155
140,327	-200,000	-0,075	-0,330
141,341	35,779	-0,185	-0,113
142,356	91,834	-0,144	-0,112
143,370	19,909	-0,223	-0,125
144,385	-35,994	-0,311	-0,116
145,400	30,528	-0,256	-0,152
146,414	107,092	-0,277	-0,229
147,429	-11,444	-0,309	-0,141
148,443	132,751	-0,115	-0,103
149,458	-143,579	-0,251	-0,016
150,473	12,058	-0,281	-0,150
151,487	6,737	-0,246	-0,127
152,502	-12,232	-0,286	-0,130
153,516	-10,247	-0,319	-0,147
154,531	6,006	-0,287	-0,147
155,546	543,958	-0,136	-0,227
156,560	136,098	-0,162	-0,147
157,575	800,000	-0,135	-0,280
158,589	183,107	-0,246	-0,252
159,604	800,000	-0,099	-0,212
160,619	104,958	-0,225	-0,185
161,633	-11,765	-0,289	-0,131
162,648	106,291	-0,104	-0,086
163,662	69,103	-0,163	-0,117
164,677	-35,720	-0,146	-0,055
165,692	-51,822	-0,320	-0,103
166,706	72,342	-0,284	-0,205
167,721	800,000	-0,119	-0,269
168,735	632,211	-0,167	-0,295
169,750	-53,103	-0,245	-0,078
170,764	669,368	-0,090	-0,163
171,779	-61,567	-0,127	-0,037
172,794	60,022	-0,149	-0,102
173,808	106,328	-0,228	-0,188
174,823	138,019	-0,349	-0,318
175,837	183,687	-0,277	-0,284
176,852	68,567	-0,210	-0,149
177,867	4,777	-0,202	-0,103
178,881	52,164	-0,234	-0,154
179,896	195,341	-0,192	-0,203
180,910	63,346	-0,192	-0,133
181,925	449,671	-0,105	-0,161
182,940	171,609	-0,264	-0,263
183,954	-87,232	-0,289	-0,060
184,969	61,509	-0,246	-0,169
185,983	-51,272	-0,253	-0,082
186,998	133,130	-0,184	-0,165
188,013	-63,576	-0,137	-0,039
189,027	2,413	-0,211	-0,105
190,042	139,447	-0,240	-0,219
191,056	250,015	-0,245	-0,289
192,071	450,287	-0,106	-0,163
193,086	314,713	-0,054	-0,071
194,100	448,870	-0,092	-0,141
195,115	-114,842	-0,258	-0,034
196,129	179,435	-0,242	-0,245
197,144	493,843	-0,126	-0,200
198,159	243,347	-0,155	-0,180
199,173	454,525	-0,135	-0,209
200,188	187,428	-0,203	-0,210
201,202	-20,809	-0,130	-0,055
202,217	0,356	-0,179	-0,088
203,232	62,925	-0,250	-0,173
204,246	1,018	-0,255	-0,126
205,261	118,048	-0,202	-0,172
206,275	58,157	-0,192	-0,130
207,290	-200,000	-0,002	-0,067
208,304	179,384	-0,189	-0,192
209,319	37,976	-0,131	-0,081
210,334	192,042	-0,170	-0,178
211,348	-64,348	-0,155	-0,043
212,363	25,609	-0,262	-0,150
213,377	-2,792	-0,189	-0,091
214,392	144,843	0,035	-0,032
215,407	528,450	-0,046	-0,076
216,421	-144,862	-0,121	0,008
217,436	100,422	-0,263	-0,211
218,450	175,480	-0,171	-0,172
219,465	286,835	-0,135	-0,169
220,480	-93,345	-0,253	-0,048
221,494	487,415	-0,111	-0,175
222,509	-196,186	-0,179	0,001
223,523	-23,898	-0,233	-0,096
224,538	-123,255	-0,161	-0,018
225,553	-20,625	-0,090	-0,038
226,567	45,448	-0,086	-0,055
227,582	-91,343	-0,102	-0,020
228,596	64,611	-0,214	-0,149
229,611	-200,000	0,002	-0,115
230,626	1,581	-0,206	-0,102
231,640	-41,446	-0,227	-0,080
232,655	131,726	-0,064	-0,057
233,669	523,184	-0,136	-0,221
234,684	16,334	-0,265	-0,144
235,699	133,533	-0,132	-0,118
236,713	306,743	-0,115	-0,149
237,728	54,388	-0,211	-0,140
238,742	26,353	-0,237	-0,137
239,757	227,502	-0,081	-0,091
240,772	49,889	-0,298	-0,193
241,786	110,089	-0,362	-0,300
242,801	224,132	-0,123	-0,137
243,815	-61,574	-0,117	0,034
244,830	229,616	-0,153	-0,173
245,844	260,761	-0,188	-0,224
246,859	-72,308	-0,290	-0,073
247,874	22,273	-0,279	-0,157
248,888	-6,724	-0,209	-0,098
249,903	263,861	-0,153	-0,184
250,917	287,895	-0,106	-0,133
251,932	-42,855	-0,199	-0,069
252,947	454,927	-0,115	-0,176
253,961	81,497	-0,198	-0,148
254,976	164,906	-0,204	-0,199
255,990	44,056	-0,140	-0,088
257,005	232,938	-0,146	-0,166
258,020	-69,353	-0,146	-0,038
259,034	-63,088	-0,122	-0,034
260,049	-35,483	-0,171	-0,064
261,063	75,627	-0,167	-0,122
262,078	30,101	-0,254	-0,149
263,093	800,000	-0,145	-0,294
264,107	210,694	-0,083	-0,090
265,122	4,872	-0,229	-0,115
266,136	-200,000	-0,039	-0,141
267,151	-155,972	-0,240	-0,010
268,166	-18,269	-0,229	-0,098
269,180	-200,000	-0,071	-0,319
270,195	244,030	-0,154	-0,179
271,209	800,000	-0,142	-0,373
272,224	84,020	-0,155	-0,116
273,239	-53,446	-0,106	0,033
274,253	131,587	-0,206	-0,183
275,268	62,840	-0,183	-0,126
276,282	230,015	-0,151	-0,170
277,297	44,171	-0,145	-0,092
278,312	84,856	-0,274	-0,206
279,326	182,528	-0,166	-0,169
280,341	104,465	-0,097	-0,078
281,355	113,559	-0,171	-0,143
282,370	53,967	-0,106	-0,070
283,384	475,089	-0,132	-0,205
284,399	89,914	-0,241	-0,185
285,414	476,067	-0,171	-0,266
286,428	795,684	-0,083	-0,157
287,443	34,925	-0,196	-0,117
288,457	331,686	-0,123	-0,163
289,472	-115,972	-0,205	0,026
290,487	348,061	-0,091	-0,124
291,501	-16,368	-0,204	-0,089
292,516	568,263	-0,125	-0,210
293,530	-36,226	-0,173	-0,064
294,545	272,826	-0,060	-0,073
295,560	206,116	-0,058	-0,062
296,574	87,726	-0,113	-0,086
297,589	577,129	-0,085	-0,143
298,603	51,488	-0,153	-0,100
299,618	-114,373	-0,108	-0,014
300,633	520,630	-0,069	-0,111
301,647	-200,000	-0,033	-0,192
302,662	-144,719	-0,049	-0,003
303,676	-107,860	-0,067	0,010
304,691	-200,000	-0,011	-0,104
305,706	-27,107	-0,166	-0,066
306,720	-0,168	-0,151	-0,073
307,735	65,810	-0,166	-0,115
308,749	288,114	-0,100	-0,124
309,764	239,206	-0,053	-0,060
310,779	800,000	-0,010	-0,023
311,793	-200,000	-0,051	-0,213
312,808	92,031	-0,080	-0,062
313,822	109,764	-0,200	-0,164
314,837	413,998	-0,059	-0,086
315,852	330,417	-0,030	-0,039
316,866	-123,360	-0,131	-0,014
317,881	-134,853	-0,351	-0,029
318,895	-16,721	-0,162	-0,070
319,910	41,778	-0,134	-0,083
320,925	800,000	-0,063	-0,188
321,939	37,170	-0,217	-0,131
322,954	16,256	-0,167	-0,090
323,968	-46,728	-0,085	-0,028
324,983	-200,000	-0,012	0,041
325,997	273,784	-0,097	-0,117
327,012	80,691	-0,297	-0,219
328,027	-200,000	-0,002	-0,078
329,041	-144,640	-0,125	0,008
330,056	-116,630	-0,168	-0,021
331,070	592,422	-0,049	-0,083
332,085	86,895	-0,074	-0,056
333,100	-93,778	-0,227	-0,042
334,114	224,373	-0,201	-0,223
335,129	-200,000	-0,027	-0,109
336,143	-37,478	-0,120	-0,044
337,158	-141,559	-0,117	0,008
338,173	-138,360	-0,115	-0,009
339,187	-78,383	-0,119	0,028
340,202	213,736	-0,123	-0,133
341,216	206,070	-0,138	-0,147
342,231	344,623	-0,138	-0,186
343,246	352,765	-0,100	-0,136
344,260	800,000	-0,028	-0,075
345,275	800,000	-0,022	-0,047
346,289	-200,000	0,006	-0,038
347,304	-62,184	-0,220	0,062
348,319	43,493	-0,174	-0,108
349,333	68,296	-0,231	-0,161
350,348	-200,000	-0,004	-0,059
351,362	-40,095	-0,182	-0,064
352,377	-59,438	-0,104	-0,030
353,392	-69,309	-0,117	0,030
354,406	352,387	-0,129	-0,175
355,421	207,774	1309,748	1399,248
356,435	159,847	1469,805	1399,690
