DTS Sentinel unit serial number:	SN410029Multiplexer serial number:	ORYXHardware model number:	OX2-SRSoftware version number:	ORYX F/W v4,00 Oryx Data Collector v3.7.2.0data status	okinstallation	B3 Nyhavnadifferential loss correction	single-endedforward channel	channel 1reverse channel	N/Adate	2023/12/02time	15:32:30forward acquisition time	300,00reverse acquisition time	0,00gamma	499,1914k internal	0,3197k external	0,3197temperature offset calibration	1,0000default loss term (dB/km)	0,3820temperature slope calibration	1,0000multiplexer offset coefficient	1,0000multiplexer slope coefficient	1,0000fibre end	0,00T internal ref (°C)	14,65T ext. ref 1 (°C)	-0,89T ext. ref 2 (°C)	-0,91length (m)	temperature (°C)	Stokes	anti-Stokes-744,400	113,566	-0,155	-0,137
-743,385	-200,000	-0,076	0,442
-742,371	93,891	-0,138	-0,114
-741,356	-200,000	-0,024	0,325
-740,342	800,000	-0,129	-0,303
-739,327	-200,000	0,035	0,203
-738,312	184,960	-0,322	-0,348
-737,298	-200,000	0,081	0,290
-736,283	115,099	-0,234	-0,208
-735,269	-200,000	-0,064	0,282
-734,254	63,063	-0,287	-0,209
-733,239	-20,771	-0,263	0,117
-732,225	800,000	-0,145	-0,407
-731,210	-16,842	0,154	0,070
-730,196	237,864	-0,037	-0,045
-729,181	-157,826	-0,115	-0,005
-728,167	-200,000	-0,019	-0,254
-727,152	800,000	0,010	0,024
-726,137	-49,962	-0,133	-0,046
-725,123	-128,282	-0,126	0,013
-724,108	-59,504	-0,168	-0,052
-723,094	273,323	-0,059	-0,076
-722,079	188,539	-0,096	-0,104
-721,064	-29,629	-0,149	-0,062
-720,050	110,438	-0,044	-0,039
-719,035	80,394	-0,086	0,067
-718,021	-200,000	-0,009	-0,081
-717,006	8,528	-0,075	-0,041
-715,991	-200,000	0,026	-0,110
-714,977	256,730	-0,056	-0,070
-713,962	-39,006	0,015	-0,006
-712,948	-182,586	-0,133	0,002
-711,933	-125,239	0,119	-0,013
-710,918	-19,559	-0,040	0,018
-709,904	-173,211	-0,112	-0,002
-708,889	424,947	0,065	-0,102
-707,875	686,556	-0,077	-0,148
-706,860	-79,596	-0,129	-0,031
-705,845	547,974	-0,011	0,020
-704,831	174,514	0,038	-0,040
-703,816	160,962	-0,154	0,156
-702,802	800,000	-0,033	-0,080
-701,787	-200,000	-0,049	-0,195
-700,772	14,805	-0,119	0,067
-699,758	-130,407	0,076	-0,007
-698,743	179,675	0,043	0,046
-697,729	42,288	-0,033	0,022
-696,714	-200,000	-0,011	0,072
-695,699	405,337	0,041	-0,063
-694,685	237,555	-0,171	0,207
-693,670	-200,000	-0,017	-0,146
-692,656	428,169	-0,044	-0,070
-691,641	588,989	-0,030	0,055
-690,627	602,791	0,054	0,099
-689,612	-52,712	-0,235	-0,078
-688,597	-200,000	0,002	-0,043
-687,583	800,000	-0,131	-0,306
-686,568	443,805	0,061	-0,098
-685,554	338,996	-0,040	-0,057
-684,539	79,706	0,109	-0,085
-683,524	62,930	-0,042	0,031
-682,510	800,000	-0,057	-0,157
-681,495	-110,770	-0,127	-0,019
-680,481	79,997	-0,077	-0,060
-679,466	665,798	-0,023	-0,044
-678,451	143,551	0,046	-0,044
-677,437	48,623	-0,137	-0,093
-676,422	800,000	0,020	-0,051
-675,408	13,525	-0,046	0,026
-674,393	-200,000	0,019	0,112
-673,378	-125,790	-0,132	-0,014
-672,364	-200,000	0,051	-0,185
-671,349	-13,567	-0,114	-0,053
-670,335	-55,344	-0,070	-0,023
-669,320	-200,000	0,007	0,122
-668,305	-7,245	0,099	-0,049
-667,291	-35,144	-0,166	-0,065
-666,276	-200,000	0,017	-0,132
-665,262	-200,000	-0,014	-0,121
-664,247	-200,000	-0,012	0,042
-663,232	222,870	0,075	-0,088
-662,218	92,361	-0,179	0,147
-661,203	-200,000	-0,006	-0,046
-660,189	-139,521	-0,086	0,007
-659,174	2,476	0,066	0,035
-658,159	-27,156	-0,051	-0,021
-657,145	-200,000	0,001	-0,240
-656,130	-200,000	-0,070	0,000
-655,116	-87,319	-0,051	0,011
-654,101	-200,000	0,008	0,051
-653,086	-25,298	-0,054	-0,023
-652,072	275,477	-0,052	0,067
-651,057	336,759	-0,051	-0,072
-650,043	-126,553	-0,045	0,005
-649,028	-56,768	0,063	-0,020
-648,014	375,882	0,083	0,123
-646,999	-12,813	-0,067	0,031
-645,984	112,265	0,010	-0,009
-644,970	788,264	-0,029	-0,059
-643,955	-200,000	0,017	-0,056
-642,941	-182,275	-0,111	0,001
-641,926	359,551	-0,039	0,057
-640,911	-140,240	-0,148	0,011
-639,897	-58,670	0,063	-0,020
-638,882	800,000	-0,030	-0,080
-637,868	800,000	-0,013	-0,026
-636,853	-8,074	-0,083	0,041
-635,838	178,844	-0,065	-0,069
-634,824	416,017	-0,038	-0,060
-633,809	39,371	-0,019	0,012
-632,795	139,017	-0,099	0,094
-631,780	329,153	-0,056	-0,079
-630,765	-132,593	0,039	0,004
-629,751	3,400	-0,116	0,061
-628,736	-200,000	-0,035	-0,218
-627,722	-200,000	-0,042	-0,138
-626,707	162,156	-0,041	0,042
-625,692	-98,994	-0,100	0,018
-624,678	-71,280	0,011	0,003
-623,663	-17,521	0,137	0,062
-622,649	35,435	0,061	-0,039
-621,634	-137,295	-0,140	0,011
-620,619	800,000	0,034	-0,072
-619,605	-200,000	-0,004	0,022
-618,590	198,815	0,015	0,017
-617,576	-29,645	0,039	0,016
-616,561	341,550	-0,047	0,067
-615,546	-200,000	-0,003	-0,120
-614,532	-121,919	-0,116	0,014
-613,517	296,043	0,102	-0,136
-612,503	-72,598	-0,121	-0,032
-611,488	-148,020	-0,026	-0,002
-610,474	323,657	-0,037	-0,051
-609,459	198,613	-0,038	0,042
-608,444	616,274	0,067	-0,123
-607,430	-38,936	-0,083	-0,031
-606,415	706,547	-0,031	-0,060
-605,401	-87,872	-0,079	-0,017
-604,386	63,845	0,112	-0,081
-603,371	-172,252	-0,047	0,001
-602,357	800,000	-0,016	0,048
-601,342	-200,000	0,003	0,151
-600,328	61,583	-0,053	-0,038
-599,313	-200,000	0,029	-0,199
-598,298	-48,792	-0,191	0,066
-597,284	449,806	0,023	-0,037
-596,269	800,000	0,019	-0,047
-595,255	-4,805	-0,088	-0,044
-594,240	-118,269	-0,069	0,009
-593,225	455,339	-0,050	-0,081
-592,211	527,077	-0,028	-0,048
-591,196	800,000	-0,077	-0,194
-590,182	113,444	-0,046	0,040
-589,167	90,101	0,121	0,098
-588,152	-200,000	0,003	0,119
-587,138	296,695	-0,014	-0,019
-586,123	52,569	0,049	-0,034
-585,109	-200,000	0,003	-0,037
-584,094	-200,000	-0,007	0,121
-583,079	-22,526	0,041	0,018
-582,065	-111,043	0,033	0,005
-581,050	258,061	0,010	0,013
-580,036	-23,039	0,103	0,045
-579,021	440,610	0,076	-0,121
-578,006	152,322	-0,078	-0,077
-576,992	-200,000	0,030	-0,138
-575,977	21,906	0,149	0,088
-574,963	-64,786	0,074	-0,021
-573,948	72,352	-0,069	-0,052
-572,934	-200,000	0,013	0,107
-571,919	72,402	-0,041	-0,031
-570,904	-82,105	-0,043	0,010
-569,890	-200,000	-0,010	0,034
-568,875	251,935	-0,041	-0,051
-567,861	-22,272	0,070	-0,030
-566,846	-200,000	-0,009	0,143
-565,831	800,000	0,026	0,062
-564,817	800,000	0,021	-0,064
-563,802	15,502	-0,057	-0,032
-562,788	385,171	-0,047	0,071
-561,773	283,456	-0,019	-0,025
-560,758	36,848	0,051	-0,033
-559,744	147,687	0,061	-0,060
-558,729	27,505	0,025	0,015
-557,715	-56,628	-0,156	-0,050
-556,700	-140,696	-0,060	-0,004
-555,685	-91,684	0,060	-0,012
-554,671	-200,000	-0,009	-0,075
-553,656	133,122	-0,110	-0,103
-552,642	460,757	-0,048	0,078
-551,627	218,849	-0,058	0,067
-550,612	108,144	-0,083	0,071
-549,598	19,322	0,021	0,012
-548,583	-200,000	-0,043	-0,207
-547,569	452,471	0,016	0,025
-546,554	800,000	0,074	0,216
-545,539	493,238	-0,042	0,069
-544,525	-200,000	0,018	0,067
-543,510	-200,000	0,009	-0,100
-542,496	92,394	-0,012	-0,010
-541,481	34,541	-0,073	0,046
-540,466	800,000	-0,029	0,068
-539,452	800,000	0,022	0,063
-538,437	-200,000	-0,019	0,102
-537,423	43,765	0,039	-0,026
-536,408	-48,887	0,080	-0,028
-535,393	242,282	-0,026	0,031
-534,379	173,675	0,066	-0,069
-533,364	-200,000	0,001	0,077
-532,350	-200,000	0,078	0,000
-531,335	42,674	0,115	0,076
-530,321	0,307	0,095	0,049
-529,306	-115,464	0,087	-0,012
-528,291	-200,000	0,006	0,038
-527,277	113,397	-0,143	-0,125
-526,262	-62,283	0,014	-0,004
-525,248	-47,097	-0,103	0,036
-524,233	177,138	0,082	0,086
-523,218	800,000	0,004	0,012
-522,204	334,925	-0,051	0,072
-521,189	-138,154	-0,153	-0,012
-520,175	-10,706	-0,038	-0,018
-519,160	800,000	0,055	-0,162
-518,145	329,112	0,114	0,159
-517,131	-200,000	-0,022	0,191
-516,116	781,160	0,066	0,131
-515,102	65,474	0,076	0,055
-514,087	359,204	-0,059	0,085
-513,072	-65,425	-0,034	-0,010
-512,058	-200,000	-0,020	0,119
-511,043	90,218	0,104	0,084
-510,029	4,554	-0,126	-0,066
-509,014	316,524	0,090	0,123
-507,999	-2,683	-0,068	-0,034
-506,985	202,230	0,052	-0,058
-505,970	14,012	0,155	-0,087
-504,956	11,723	0,074	-0,041
-503,941	245,734	-0,027	0,033
-502,926	-92,200	0,078	0,016
-501,912	716,536	0,024	0,047
-500,897	242,346	0,034	-0,041
-499,883	454,182	0,030	0,048
-498,868	-136,296	-0,097	-0,008
-497,853	-200,000	0,028	-0,166
-496,839	157,509	-0,066	-0,066
-495,824	800,000	0,040	0,111
-494,810	-200,000	-0,004	-0,014
-493,795	-75,447	0,053	-0,013
-492,781	800,000	0,025	-0,064
-491,766	183,490	0,076	0,081
-490,751	-200,000	0,046	-0,189
-489,737	-166,461	-0,007	-0,000
-488,722	35,688	0,039	-0,025
-487,708	-200,000	-0,012	0,093
-486,693	145,027	0,062	0,060
-485,678	-200,000	0,017	-0,075
-484,664	-185,549	-0,106	-0,001
-483,649	-96,322	-0,069	0,013
-482,635	-67,657	-0,005	0,001
-481,620	800,000	-0,071	-0,168
-480,605	478,874	0,024	0,039
-479,591	-200,000	0,005	0,050
-478,576	74,048	0,032	-0,024
-477,562	123,985	-0,054	-0,049
-476,547	291,098	-0,085	0,112
-475,532	-126,446	0,069	-0,007
-474,518	373,324	0,087	-0,127
-473,503	800,000	-0,017	-0,047
-472,489	0,111	-0,013	0,007
-471,474	388,631	0,070	0,105
-470,459	-200,000	-0,011	-0,066
-469,445	-33,819	0,149	-0,059
-468,430	350,362	-0,028	-0,040
-467,416	353,654	0,034	-0,049
-466,401	172,739	0,061	0,064
-465,386	710,355	0,072	0,138
-464,372	-200,000	-0,003	0,103
-463,357	582,029	0,049	0,087
-462,343	467,322	-0,054	0,087
-461,328	-200,000	-0,003	-0,113
-460,313	113,079	0,041	-0,036
-459,299	112,240	0,107	0,093
-458,284	-200,000	-0,042	0,140
-457,270	445,792	0,020	-0,031
-456,255	-88,794	-0,038	0,008
-455,241	-200,000	0,010	-0,069
-454,226	163,662	-0,074	-0,075
-453,211	30,786	-0,106	0,065
-452,197	-200,000	0,019	0,210
-451,182	333,159	0,094	0,131
-450,168	-138,941	-0,081	0,006
-449,153	56,124	0,051	0,036
-448,138	-200,000	-0,005	0,071
-447,124	-130,629	-0,113	0,011
-446,109	197,849	0,137	0,151
-445,095	-79,002	0,026	0,006
-444,080	318,015	0,090	0,123
-443,065	-200,000	0,007	-0,052
-442,051	-51,371	0,077	-0,026
-441,036	-119,736	-0,092	0,011
-440,022	-200,000	0,006	-0,060
-439,007	-178,111	-0,156	-0,003
-437,992	426,734	0,058	-0,090
-436,978	-34,260	0,059	-0,023
-435,963	-200,000	0,038	0,131
-434,949	343,010	0,056	0,079
-433,934	-91,605	0,144	-0,029
-432,919	151,879	-0,100	-0,098
-431,905	-19,618	-0,088	-0,039
-430,890	-144,034	0,140	0,009
-429,876	-200,000	-0,001	0,025
-428,861	-200,000	0,021	-0,190
-427,846	-200,000	0,005	0,072
-426,832	556,979	0,060	-0,104
-425,817	800,000	-0,031	-0,087
-424,803	800,000	0,023	-0,065
-423,788	-20,129	0,076	0,034
-422,773	86,225	0,109	0,086
-421,759	800,000	0,033	0,085
-420,744	431,346	-0,103	-0,161
-419,730	-53,689	-0,118	-0,039
-418,715	-4,061	0,072	-0,036
-417,701	245,542	-0,087	-0,105
-416,686	10,902	0,132	0,072
-415,671	29,758	-0,042	0,026
-414,657	100,597	0,085	0,071
-413,642	800,000	0,034	0,080
-412,628	227,063	0,022	0,025
-411,613	-128,509	-0,067	0,007
-410,598	-200,000	-0,025	0,143
-409,584	-200,000	0,006	0,051
-408,569	800,000	0,020	0,060
-407,555	175,102	0,033	0,034
-406,540	-200,000	-0,021	0,098
-405,525	-35,836	0,076	0,029
-404,511	97,690	0,052	-0,043
-403,496	620,428	0,067	0,121
-402,482	800,000	-0,008	0,017
-401,467	-77,370	0,142	0,035
-400,452	800,000	0,054	-0,161
-399,438	800,000	0,054	0,132
-398,423	58,116	-0,063	0,044
-397,409	95,260	-0,070	-0,058
-396,394	-100,677	-0,109	0,019
-395,379	176,503	0,088	0,092
-394,365	442,543	-0,049	-0,077
-393,350	420,237	0,018	0,027
-392,336	74,120	-0,101	0,076
-391,321	-200,000	-0,033	-0,207
-390,306	27,708	0,072	-0,044
-389,292	340,484	-0,057	-0,081
-388,277	800,000	0,059	0,151
-387,263	65,308	0,023	-0,016
-386,248	-200,000	-0,012	0,104
-385,233	531,890	0,051	0,086
-384,219	-101,703	-0,025	-0,004
-383,204	800,000	-0,053	-0,111
-382,190	152,268	-0,129	0,126
-381,175	-9,425	-0,199	-0,095
-380,160	-200,000	-0,001	-0,086
-379,146	-200,000	-0,002	0,045
-378,131	-133,840	0,025	-0,002
-377,117	102,599	0,011	-0,009
-376,102	61,131	-0,057	-0,041
-375,088	103,862	0,051	0,043
-374,073	158,724	0,111	-0,111
-373,058	364,116	0,065	0,093
-372,044	-67,578	0,205	0,057
-371,029	800,000	0,038	-0,091
-370,015	-200,000	0,014	0,091
-369,000	295,069	-0,010	-0,014
-367,985	-93,917	-0,089	0,017
-366,971	522,869	-0,035	-0,060
-365,956	-12,190	-0,036	0,017
-364,942	29,125	-0,064	-0,039
-363,927	-39,122	0,079	0,030
-362,912	-97,887	-0,076	0,014
-361,898	800,000	0,034	-0,076
-360,883	524,295	0,031	-0,053
-359,869	-200,000	0,033	-0,117
-358,854	-66,258	0,127	-0,036
-357,839	800,000	0,020	0,052
-356,825	-83,158	0,145	-0,033
-355,810	129,025	0,146	0,134
-354,796	-80,750	0,012	-0,003
-353,781	800,000	0,078	-0,158
-352,766	190,149	0,038	-0,041
-351,752	-200,000	-0,064	0,211
-350,737	26,076	-0,042	0,025
-349,723	-200,000	-0,013	0,085
-348,708	62,514	0,042	0,030
-347,693	77,668	-0,075	0,057
-346,679	-200,000	-0,000	-0,022
-345,664	-30,773	0,056	0,023
-344,650	-112,864	0,116	-0,016
-343,635	-27,256	0,110	-0,046
-342,620	-200,000	0,021	0,248
-341,606	226,259	-0,031	0,036
-340,591	-200,000	0,003	0,055
-339,577	418,349	0,025	-0,038
-338,562	198,382	-0,116	-0,128
-337,548	585,486	0,039	-0,068
-336,533	204,892	-0,059	-0,066
-335,518	24,089	0,087	0,051
-334,504	-41,653	-0,057	0,021
-333,489	800,000	0,018	0,046
-332,475	800,000	0,011	0,028
-331,460	239,725	-0,007	-0,008
-330,445	28,261	-0,110	0,066
-329,431	513,033	0,050	0,084
-328,416	178,765	-0,062	-0,065
-327,402	800,000	-0,022	0,055
-326,387	328,896	-0,084	-0,115
-325,372	51,841	0,042	0,029
-324,358	226,620	-0,027	-0,032
-323,343	800,000	-0,070	-0,156
-322,329	144,663	-0,126	0,121
-321,314	49,016	0,018	0,012
-320,299	-82,280	0,112	0,026
-319,285	15,155	-0,155	-0,087
-318,270	-9,421	0,032	0,015
-317,256	730,249	-0,061	-0,117
-316,241	471,292	-0,010	0,015
-315,226	673,624	-0,054	-0,100
-314,212	-200,000	0,034	-0,172
-313,197	-200,000	-0,014	0,182
-312,183	-200,000	0,000	0,138
-311,168	-50,286	-0,144	-0,049
-310,153	36,050	-0,083	-0,052
-309,139	-36,083	-0,005	-0,002
-308,124	169,332	0,046	0,047
-307,110	-107,388	0,024	0,004
-306,095	71,943	0,047	-0,035
-305,080	-136,473	0,105	0,009
-304,066	379,017	0,017	-0,025
-303,051	-200,000	0,016	-0,176
-302,037	-75,724	-0,271	-0,068
-301,022	-160,388	-0,083	-0,003
-300,008	-131,109	0,199	0,019
-298,993	800,000	0,007	-0,018
-297,978	745,322	0,057	-0,110
-296,964	699,105	0,019	-0,036
-295,949	-101,244	-0,122	-0,021
-294,935	294,363	0,067	0,088
-293,920	-200,000	0,013	0,062
-292,905	-200,000	0,047	0,155
-291,891	800,000	-0,049	0,131
-290,876	-200,000	-0,019	0,072
-289,862	-200,000	0,006	-0,077
-288,847	37,218	-0,059	-0,037
-287,832	8,318	-0,042	-0,022
-286,818	-99,628	-0,067	0,012
-285,803	301,526	0,013	0,017
-284,789	-200,000	0,009	0,093
-283,774	-200,000	0,037	0,123
-282,759	-129,586	-0,048	0,005
-281,745	170,195	-0,087	-0,089
-280,730	173,703	0,119	-0,123
-279,716	800,000	-0,071	-0,143
-278,701	-32,083	0,046	-0,018
-277,686	-200,000	-0,011	0,083
-276,672	-200,000	-0,007	-0,042
-275,657	-200,000	-0,013	0,072
-274,643	-200,000	-0,017	0,112
-273,628	800,000	0,040	-0,123
-272,613	108,112	-0,057	-0,049
-271,599	-125,419	0,062	-0,007
-270,584	800,000	-0,043	0,134
-269,570	800,000	0,049	0,134
-268,555	262,298	-0,058	0,072
-267,540	800,000	-0,013	0,027
-266,526	-78,359	-0,074	0,018
-265,511	800,000	-0,035	0,096
-264,497	41,298	0,095	-0,061
-263,482	-200,000	0,008	-0,029
-262,467	-61,090	0,084	0,025
-261,453	126,322	-0,080	0,072
-260,438	-200,000	-0,006	0,032
-259,424	-200,000	-0,033	-0,145
-258,409	-200,000	-0,037	-0,119
-257,395	21,247	0,025	-0,015
-256,380	336,208	0,081	-0,113
-255,365	88,527	-0,032	-0,026
-254,351	-200,000	-0,015	-0,072
-253,336	-80,120	0,069	-0,016
-252,322	-200,000	-0,021	-0,073
-251,307	-92,627	-0,083	-0,016
-250,292	800,000	-0,042	-0,117
-249,278	231,465	0,089	0,104
-248,263	186,036	-0,017	-0,018
-247,249	68,936	0,028	0,020
-246,234	800,000	0,002	-0,006
-245,219	-43,032	0,170	-0,061
-244,205	74,602	0,061	0,046
-243,190	-82,666	0,095	0,022
-242,176	-200,000	0,001	-0,016
-241,161	89,613	0,123	0,098
-240,146	-42,613	0,111	0,040
-239,132	619,346	0,022	-0,040
-238,117	67,274	-0,032	-0,023
-237,103	-200,000	0,030	-0,097
-236,088	5,409	-0,114	-0,060
-235,073	-159,311	-0,070	0,003
-234,059	-15,162	0,194	0,088
-233,044	4,360	-0,103	0,054
-232,030	-200,000	0,018	-0,087
-231,015	-127,030	-0,122	-0,013
-230,000	109,947	-0,124	-0,106
-228,986	-48,758	-0,096	-0,033
-227,971	-78,671	-0,075	0,018
-226,957	-169,876	0,093	-0,002
-225,942	116,813	-0,074	0,065
-224,927	-56,645	0,068	0,021
-223,913	429,833	-0,065	-0,100
-222,898	-200,000	-0,017	-0,070
-221,884	199,828	0,030	-0,032
-220,869	-20,662	-0,124	0,054
-219,855	800,000	-0,046	0,124
-218,840	38,766	0,045	-0,029
-217,825	-35,397	0,013	0,005
-216,811	800,000	0,043	-0,134
-215,796	112,634	-0,150	0,129
-214,782	163,549	-0,092	-0,092
-213,767	123,365	0,099	0,088
-212,752	-5,111	0,156	0,077
-211,738	-200,000	0,006	-0,158
-210,723	-106,277	0,084	-0,013
-209,709	74,022	0,042	-0,032
-208,694	-200,000	0,018	-0,143
-207,679	20,986	-0,076	-0,044
-206,665	-126,983	0,178	-0,018
-205,650	-21,857	-0,161	0,070
-204,636	800,000	-0,018	0,050
-203,621	-5,539	0,085	0,041
-202,606	215,973	-0,116	-0,132
-201,592	358,591	0,057	-0,082
-200,577	72,750	0,043	-0,032
-199,563	-148,964	-0,080	0,005
-198,548	-6,136	0,036	0,018
-197,533	299,621	-0,026	0,034
-196,519	-95,286	-0,106	-0,020
-195,504	49,163	-0,154	-0,103
-194,490	-200,000	0,041	-0,138
-193,475	800,000	-0,038	-0,114
-192,460	-200,000	0,020	-0,141
-191,446	-63,335	-0,067	-0,020
-190,431	196,014	-0,081	0,088
-189,417	-106,301	-0,057	-0,009
-188,402	-200,000	-0,018	-0,085
-187,387	-200,000	-0,003	0,086
-186,373	800,000	0,033	-0,070
-185,358	-63,281	0,050	-0,015
-184,344	-200,000	-0,001	0,119
-183,329	136,013	0,072	0,067
-182,315	-200,000	0,003	-0,024
-181,300	326,358	0,051	0,070
-180,285	-11,124	-0,110	0,051
-179,271	-96,221	-0,198	0,037
-178,256	314,312	0,079	0,106
-177,242	371,090	-0,040	-0,058
-176,227	547,090	0,084	0,144
-175,212	-145,232	-0,044	-0,003
-174,198	460,631	-0,058	0,092
-173,183	800,000	0,026	-0,051
-172,169	-200,000	0,019	-0,111
-171,154	19,673	-0,142	-0,081
-170,139	150,419	0,107	0,104
-169,125	-10,231	0,053	0,025
-168,110	220,941	0,024	0,028
-167,096	183,392	-0,032	-0,034
-166,081	-196,825	0,083	0,000
-165,066	115,098	-0,119	0,103
-164,052	0,722	0,098	-0,050
-163,037	103,705	0,077	-0,065
-162,023	-200,000	0,014	0,065
-161,008	-200,000	0,010	-0,100
-159,993	-200,000	-0,029	-0,129
-158,979	-170,631	0,108	-0,003
-157,964	-28,764	0,141	-0,058
-156,950	232,375	-0,064	-0,075
-155,935	-200,000	-0,027	0,148
-154,920	-11,992	0,009	0,004
-153,906	225,828	0,102	0,118
-152,891	440,950	-0,052	0,081
-151,877	-94,723	0,206	0,039
-150,862	-200,000	-0,008	0,114
-149,847	-81,949	-0,173	-0,040
-148,833	66,483	0,079	0,057
-147,818	-142,199	0,046	0,003
-146,804	76,216	0,079	-0,059
-145,789	323,467	0,068	0,093
-144,775	596,600	-0,009	-0,015
-143,760	800,000	0,051	-0,118
-142,745	-53,652	0,034	0,011
-141,731	27,470	-0,104	0,062
-140,716	-200,000	0,007	-0,043
-139,702	-200,000	0,005	0,122
-138,687	39,208	-0,065	0,041
-137,672	27,745	0,088	-0,052
-136,658	219,470	-0,051	0,058
-135,643	-113,272	-0,100	0,014
-134,629	-91,283	-0,119	0,024
-133,614	-200,000	-0,033	0,137
-132,599	-151,501	0,013	-0,001
-131,585	146,516	-0,093	0,089
-130,570	552,280	-0,040	0,069
-129,556	800,000	-0,035	-0,076
-128,541	-73,912	-0,102	0,026
-127,526	-200,000	-0,001	-0,050
-126,512	357,416	-0,086	0,122
-125,497	424,599	0,084	0,129
-124,483	223,963	-0,068	0,078
-123,468	321,920	0,025	-0,034
-122,453	498,801	-0,076	-0,126
-121,439	-200,000	-0,013	-0,096
-120,424	-80,416	0,005	-0,001
-119,410	-200,000	0,008	0,107
-118,395	800,000	0,023	0,058
-117,380	-200,000	-0,039	0,138
-116,366	800,000	0,008	0,022
-115,351	-200,000	-0,003	-0,030
-114,337	-200,000	-0,011	-0,160
-113,322	800,000	0,059	-0,164
-112,307	471,222	-0,030	0,048
-111,293	800,000	0,034	-0,081
-110,278	-200,000	0,021	0,175
-109,264	12,770	-0,072	0,039
-108,249	329,347	-0,048	-0,066
-107,234	-200,000	-0,005	-0,072
-106,220	-200,000	-0,015	-0,117
-105,205	800,000	0,021	0,042
-104,191	800,000	0,023	-0,052
-103,176	2,922	0,062	0,032
-102,162	7,267	-0,122	0,064
-101,147	54,153	0,030	0,020
-100,132	70,247	0,020	-0,015
-99,118	-200,000	0,025	-0,114
-98,103	509,804	-0,013	0,022
-97,089	663,135	-0,088	0,163
-96,074	-11,254	0,063	-0,029
-95,059	-68,881	-0,064	-0,018
-94,045	187,149	-0,056	-0,059
-93,030	111,244	-0,043	-0,037
-92,016	-200,000	-0,022	-0,085
-91,001	-80,579	-0,130	-0,030
-89,986	-200,000	-0,004	0,055
-88,972	-200,000	-0,002	0,167
-87,957	-200,000	-0,013	0,115
-86,943	-37,069	-0,097	-0,037
-85,928	29,968	-0,098	-0,059
-84,913	800,000	0,038	0,083
-83,899	65,355	0,115	-0,083
-82,884	-200,000	0,023	-0,075
-81,870	-200,000	-0,010	0,178
-80,855	101,226	-0,020	-0,017
-79,840	-62,132	-0,099	0,029
-78,826	-200,000	-0,010	-0,122
-77,811	576,574	0,032	0,055
-76,797	219,004	0,091	0,104
-75,782	-5,563	0,124	0,060
-74,767	800,000	-0,047	0,101
-73,753	800,000	0,033	0,085
-72,738	270,519	0,079	0,099
-71,724	800,000	-0,015	0,040
-70,709	-46,798	-0,133	-0,046
-69,694	-49,822	-0,058	0,019
-68,680	800,000	-0,019	0,044
-67,665	-200,000	0,006	0,046
-66,651	79,094	-0,078	0,059
-65,636	-11,077	0,127	0,059
-64,622	-76,662	-0,159	-0,039
-63,607	-33,219	-0,121	-0,047
-62,592	-19,614	-0,150	0,066
-61,578	800,000	0,038	0,088
-60,563	14,483	0,013	0,007
-59,549	264,024	-0,051	0,063
-58,534	-77,260	-1,554	-0,380
-57,519	319,688	-1,538	-2,073
-56,505	-200,000	-0,381	-4,509
-55,490	136,974	0,959	0,889
-54,476	800,000	4,809	11,350
-53,461	-200,000	18,549	294,622
-52,446	800,000	730,346	2249,845
-51,432	558,796	1646,232	2826,762
-50,417	78,894	1666,554	1262,897
-49,403	22,542	1539,883	890,549
-48,388	16,557	1462,851	816,970
-47,373	17,840	1452,936	817,591
-46,359	17,163	1443,293	808,888
-45,344	14,810	1438,491	794,917
-44,330	14,710	1436,624	793,375
-43,315	14,719	1434,876	792,422
-42,300	14,761	1433,026	791,569
-41,286	14,766	1432,087	791,046
-40,271	14,749	1430,896	790,276
-39,257	14,717	1429,700	789,428
-38,242	14,722	1428,213	788,602
-37,227	14,746	1427,233	788,141
-36,213	14,805	1425,721	787,556
-35,198	14,772	1424,575	786,734
-34,184	14,782	1423,647	786,237
-33,169	14,695	1422,478	785,149
-32,154	14,765	1421,396	784,854
-31,140	14,753	1419,936	783,959
-30,125	14,784	1418,928	783,517
-29,111	14,759	1417,812	782,751
-28,096	14,739	1416,641	781,982
-27,082	14,712	1415,627	781,264
-26,067	14,691	1414,539	780,531
-25,052	14,681	1413,456	779,856
-24,038	14,701	1412,420	779,348
-23,023	14,633	1411,547	778,517
-22,009	14,669	1410,510	778,081
-20,994	14,617	1409,716	777,369
-19,979	14,608	1408,800	776,794
-18,965	14,564	1407,783	775,996
-17,950	14,603	1406,900	775,659
-16,936	14,576	1406,047	775,034
-15,921	14,571	1404,840	774,313
-14,906	14,598	1403,719	773,792
-13,892	14,601	1402,954	773,349
-12,877	14,566	1402,054	772,664
-11,863	14,584	1401,058	772,164
-10,848	14,597	1400,206	771,727
-9,833	14,541	1399,381	770,981
-8,819	14,506	1398,469	770,284
-7,804	14,464	1397,600	769,583
-6,790	14,495	1396,755	769,229
-5,775	14,523	1395,295	768,524
-4,760	14,547	1394,407	768,115
-3,746	14,501	1393,585	767,421
-2,731	14,475	1392,907	766,896
-1,717	14,509	1391,966	766,502
-0,702	14,487	1390,136	765,362
0,313	18,220	1308,798	737,898
1,327	34,476	705,768	435,576
2,342	52,676	124,352	84,020
3,356	-2,006	16,710	8,288
4,371	-4,564	3,077	1,500
5,386	-54,244	0,622	0,199
6,400	-200,000	0,003	0,141
7,415	-154,441	-0,211	0,010
8,429	-101,918	-0,199	-0,034
9,444	-25,565	-0,359	-0,149
10,459	103,632	-0,190	-0,158
11,473	51,373	-0,256	-0,172
12,488	800,000	-0,131	-0,278
13,502	-42,828	-0,365	-0,130
14,517	-165,101	-0,430	-0,013
15,531	-5,163	-0,432	-0,209
16,546	34,548	-0,289	-0,178
17,561	42,355	-0,337	-0,217
18,575	-4,847	-0,278	-0,135
19,590	74,018	-0,231	-0,171
20,604	114,275	-0,271	-0,233
21,619	4,660	-0,474	-0,245
22,634	133,347	-0,330	-0,302
23,648	92,335	-0,426	-0,339
24,663	63,976	-0,324	-0,230
25,677	4,683	-0,342	-0,177
26,692	-83,895	-0,339	-0,076
27,707	88,856	-0,303	-0,238
28,721	126,068	-0,500	-0,446
29,736	100,807	-0,475	-0,390
30,750	112,650	-0,390	-0,333
31,765	-18,297	-0,494	-0,217
32,780	134,783	-0,331	-0,303
33,794	35,070	-0,328	-0,202
34,809	-101,949	-0,541	-0,091
35,823	-18,063	-0,394	-0,174
36,838	205,039	-0,324	-0,355
37,853	103,802	-0,354	-0,293
38,867	129,222	-0,351	-0,316
39,882	75,124	-0,299	-0,222
40,896	-3,141	-0,320	-0,157
41,911	59,338	-0,301	-0,209
42,926	115,294	-0,357	-0,307
43,940	139,157	-0,399	-0,371
44,955	99,914	-0,405	-0,331
45,969	122,973	-0,399	-0,352
46,984	-25,221	-0,330	-0,137
47,999	198,930	-0,289	-0,313
49,013	44,253	-0,421	-0,272
50,028	48,247	-0,380	-0,251
51,042	234,841	-0,241	-0,281
52,057	108,822	-0,355	-0,299
53,071	27,958	-0,381	-0,226
54,086	99,738	-0,228	-0,186
55,101	70,797	-0,316	-0,231
56,115	14,237	-0,344	-0,188
57,130	-16,066	-0,530	-0,237
58,144	-9,648	-0,431	-0,202
59,159	62,802	-0,448	-0,316
60,174	217,808	-0,288	-0,324
61,188	104,413	-0,373	-0,309
62,203	87,645	-0,317	-0,247
63,217	16,969	-0,240	-0,134
64,232	44,461	-0,301	-0,195
65,247	-0,773	-0,507	-0,252
66,261	-14,243	-0,500	-0,226
67,276	129,209	-0,358	-0,322
68,290	88,875	-0,410	-0,321
69,305	186,446	-0,246	-0,258
70,320	-183,242	-0,259	0,003
71,334	-71,121	-0,399	-0,105
72,349	155,810	-0,184	-0,179
73,363	37,232	-0,418	-0,260
74,378	65,810	-0,344	-0,245
75,393	32,230	-0,339	-0,205
76,407	-73,397	-0,190	-0,048
77,422	196,199	-0,232	-0,248
78,436	-146,945	-0,447	0,027
79,451	57,611	-0,277	-0,190
80,466	83,284	-0,360	-0,276
81,480	99,916	-0,329	-0,268
82,495	-62,851	-0,332	-0,096
83,509	130,720	-0,312	-0,282
84,524	-3,189	-0,370	-0,181
85,539	100,870	-0,254	-0,208
86,553	-35,074	-0,250	-0,095
87,568	-13,890	-0,390	-0,176
88,582	85,605	-0,287	-0,222
89,597	54,825	-0,380	-0,257
90,611	-66,641	-0,231	-0,064
91,626	-7,410	-0,390	-0,185
92,641	120,527	-0,266	-0,232
93,655	179,043	-0,192	-0,197
94,670	264,762	-0,298	-0,365
95,684	-173,720	-0,277	-0,006
96,699	76,554	-0,249	-0,185
97,714	449,869	-0,141	-0,219
98,728	-7,978	-0,308	-0,145
99,743	4,734	-0,249	-0,128
100,757	192,648	-0,209	-0,222
101,772	-95,883	-0,396	-0,073
102,787	76,900	-0,228	-0,170
103,801	84,524	-0,393	-0,302
104,816	60,154	-0,148	-0,103
105,830	196,697	-0,175	-0,188
106,845	-18,060	-0,168	-0,073
107,860	171,558	-0,201	-0,203
108,874	96,858	-0,288	-0,232
109,889	421,601	-0,174	-0,262
110,903	67,799	-0,306	-0,219
111,918	-84,297	-0,192	-0,042
112,933	77,775	-0,256	-0,191
113,947	-30,425	-0,153	-0,060
114,962	20,916	-0,214	-0,121
115,976	446,739	-0,138	-0,214
116,991	43,591	-0,344	-0,220
118,006	468,471	-0,173	-0,274
119,020	624,857	-0,170	-0,302
120,035	-20,478	-0,180	-0,077
121,049	800,000	-0,058	-0,166
122,064	-70,720	-0,224	-0,059
123,079	129,921	-0,252	-0,226
124,093	36,196	-0,257	-0,158
125,108	-33,409	-0,283	-0,109
126,122	-27,867	-0,340	-0,138
127,137	66,209	-0,275	-0,195
128,151	-135,817	-0,256	-0,021
129,166	109,012	-0,175	-0,147
130,181	84,323	-0,163	-0,124
131,195	86,698	-0,252	-0,195
132,210	9,888	-0,293	-0,155
133,224	-104,726	-0,333	-0,053
134,239	-101,663	-0,252	-0,042
135,254	21,593	-0,183	-0,104
136,268	304,795	-0,308	-0,402
137,283	81,268	-0,243	-0,184
138,297	32,782	-0,249	-0,151
139,312	-71,270	-0,300	-0,078
140,327	-28,016	-0,297	-0,120
141,341	247,863	-0,194	-0,230
142,356	84,520	-0,246	-0,188
143,370	187,753	-0,244	-0,255
144,385	-36,048	-0,213	-0,080
145,400	-45,975	-0,251	-0,086
146,414	165,422	-0,317	-0,313
147,429	664,876	-0,139	-0,252
148,443	314,118	-0,219	-0,290
149,458	16,724	-0,319	-0,176
150,473	91,964	-0,242	-0,190
151,487	52,288	-0,312	-0,208
152,502	104,637	-0,310	-0,255
153,516	11,939	-0,337	-0,180
154,531	-59,143	-0,306	-0,092
155,546	108,011	-0,246	-0,205
156,560	197,234	-0,205	-0,219
157,575	33,608	-0,190	-0,115
158,589	-129,134	-0,255	-0,025
159,604	166,260	-0,328	-0,325
160,619	-37,961	-0,260	-0,096
161,633	363,028	-0,239	-0,337
162,648	87,966	-0,207	-0,160
163,662	595,272	-0,167	-0,290
164,677	78,485	-0,219	-0,164
165,692	-32,380	-0,277	-0,107
166,706	-115,672	-0,345	-0,045
167,721	240,061	-0,218	-0,254
168,735	270,065	-0,256	-0,315
169,750	24,897	-0,221	-0,127
170,764	312,791	-0,128	-0,169
171,779	-72,997	-0,273	-0,069
172,794	70,714	-0,243	-0,175
173,808	222,275	-0,198	-0,223
174,823	28,246	-0,283	-0,166
175,837	37,665	-0,301	-0,186
176,852	59,148	-0,242	-0,166
177,867	-13,621	-0,204	-0,092
178,881	-31,853	-0,214	-0,083
179,896	102,393	-0,192	-0,156
180,910	186,535	-0,152	-0,158
181,925	89,561	-0,231	-0,180
182,940	276,217	-0,203	-0,252
183,954	97,270	-0,184	-0,147
184,969	288,811	-0,178	-0,225
185,983	-200,000	-0,050	-0,157
186,998	-45,745	-0,213	-0,073
188,013	187,272	-0,228	-0,237
189,027	87,966	-0,276	-0,213
190,042	216,917	-0,223	-0,248
191,056	170,216	-0,269	-0,269
192,071	-45,284	-0,308	-0,106
193,086	15,676	-0,121	-0,066
194,100	410,557	-0,140	-0,208
195,115	206,430	-0,238	-0,258
196,129	97,370	-0,253	-0,202
197,144	22,350	-0,295	-0,167
198,159	-11,752	-0,238	-0,109
199,173	173,775	-0,163	-0,164
200,188	84,788	-0,209	-0,159
201,202	4,894	-0,197	-0,101
202,217	761,733	-0,072	-0,137
203,232	84,451	-0,282	-0,215
204,246	245,259	-0,175	-0,205
205,261	-6,071	-0,269	-0,128
206,275	747,081	-0,150	-0,283
207,290	379,487	-0,125	-0,179
208,304	130,236	-0,160	-0,142
209,319	-29,704	-0,175	-0,069
210,334	91,659	-0,159	-0,125
211,348	431,127	-0,106	-0,160
212,363	297,942	-0,129	-0,165
213,377	-39,881	-0,301	-0,109
214,392	573,199	-0,067	-0,113
215,407	179,079	-0,145	-0,147
216,421	111,062	-0,244	-0,205
217,436	-82,963	-0,263	-0,058
218,450	583,329	-0,177	-0,303
219,465	94,385	-0,258	-0,204
220,480	121,343	-0,237	-0,205
221,494	65,514	-0,235	-0,165
222,509	175,235	-0,198	-0,200
223,523	713,708	-0,118	-0,219
224,538	51,144	-0,262	-0,173
225,553	188,213	-0,124	-0,129
226,567	40,081	-0,227	-0,141
227,582	-158,609	-0,139	0,005
228,596	-59,392	-0,126	-0,037
229,611	68,479	-0,247	-0,176
230,626	12,854	-0,255	-0,137
231,640	-66,259	-0,227	-0,062
232,655	728,511	-0,133	-0,248
233,669	28,882	-0,362	-0,212
234,684	-31,685	-0,131	-0,051
235,699	-28,627	-0,158	-0,063
236,713	-18,030	-0,194	-0,084
237,728	-11,516	-0,296	-0,135
238,742	8,165	-0,203	-0,105
239,757	0,411	-0,229	-0,113
240,772	294,437	-0,207	-0,263
241,786	100,730	-0,229	-0,185
242,801	192,707	-0,153	-0,161
243,815	-174,886	-0,128	-0,002
244,830	16,389	-0,238	-0,130
245,844	-81,290	-0,178	0,040
246,859	177,210	-0,212	-0,214
247,874	422,310	-0,151	-0,226
248,888	-20,633	-0,099	-0,042
249,903	-150,178	-0,249	-0,013
250,917	800,000	-0,103	-0,215
251,932	-10,119	-0,150	-0,069
252,947	-47,105	-0,181	-0,061
253,961	634,592	-0,071	-0,126
254,976	422,353	-0,173	-0,258
255,990	471,947	-0,179	-0,280
257,005	572,830	-0,136	-0,231
258,020	47,338	-0,190	-0,122
259,034	105,780	-0,048	-0,039
260,049	146,676	-0,175	-0,162
261,063	233,930	-0,171	-0,195
262,078	50,647	-0,166	-0,108
263,093	57,129	-0,248	-0,167
264,107	-107,590	-0,268	-0,040
265,122	-64,295	-0,210	-0,059
266,136	-57,787	-0,090	0,027
267,151	30,491	-0,283	-0,167
268,166	-2,181	-0,186	-0,090
269,180	-24,912	-0,115	-0,047
270,195	-91,791	-0,209	-0,041
271,209	53,701	-0,179	-0,119
272,224	-200,000	-0,101	-0,343
273,239	75,089	-0,049	-0,036
274,253	-31,459	-0,150	-0,058
275,268	1,395	-0,172	-0,085
276,282	5,729	-0,305	-0,156
277,297	87,040	-0,159	-0,122
278,312	19,697	-0,221	-0,123
279,326	14,251	-0,089	-0,048
280,341	96,477	-0,164	-0,129
281,355	-9,814	-0,231	-0,106
282,370	95,009	-0,204	-0,161
283,384	31,616	-0,204	-0,121
284,399	-23,371	-0,228	-0,094
285,414	-81,946	-0,176	-0,040
286,428	-37,096	-0,140	-0,051
287,443	187,163	-0,117	-0,121
288,457	68,207	-0,120	0,085
289,472	-14,993	-0,204	-0,090
290,487	545,966	-0,116	-0,193
291,501	510,695	-0,103	-0,166
292,516	192,332	-0,231	-0,241
293,530	-24,261	-0,273	-0,112
294,545	78,464	-0,098	-0,072
295,560	-99,038	-0,083	0,014
296,574	-63,110	-0,209	-0,059
297,589	75,989	-0,147	-0,107
298,603	653,029	-0,159	-0,283
299,618	384,368	-0,112	-0,159
300,633	-200,000	-0,015	-0,154
301,647	-147,698	-0,139	-0,008
302,662	42,985	-0,205	-0,128
303,676	414,852	-0,117	-0,172
304,691	-127,223	-0,151	0,015
305,706	55,776	-0,210	-0,140
306,720	800,000	-0,069	-0,188
307,735	-98,054	-0,073	-0,013
308,749	23,558	-0,080	-0,045
309,764	92,872	-0,079	0,061
310,779	-29,568	-0,180	0,071
311,793	-185,882	-0,174	-0,002
312,808	-63,377	-0,236	-0,067
313,822	22,997	-0,172	-0,097
314,837	37,349	-0,235	-0,143
315,852	800,000	-0,067	-0,153
316,866	7,030	-0,131	-0,067
317,881	-121,939	-0,144	0,016
318,895	-44,571	-0,211	-0,072
319,910	800,000	-0,069	-0,203
320,925	-92,786	-0,212	-0,040
321,939	223,497	-0,127	-0,141
322,954	-170,978	-0,158	0,004
323,968	261,808	-0,109	-0,131
324,983	315,661	-0,118	-0,153
325,997	-45,794	-0,064	0,021
327,012	99,057	-0,175	-0,139
328,027	657,642	-0,126	-0,224
329,041	472,902	-0,062	-0,096
330,056	233,453	-0,129	-0,146
331,070	214,549	-0,149	-0,163
332,085	55,634	-0,171	-0,114
333,100	356,144	-0,098	-0,134
334,114	787,648	-0,046	-0,087
335,129	88,945	-0,175	-0,134
336,143	-116,036	-0,130	-0,016
337,158	-76,243	-0,117	-0,028
338,173	-40,157	-0,066	-0,023
339,187	233,287	-0,139	-0,157
340,202	675,561	-0,095	-0,170
341,216	-139,660	-0,261	0,019
342,231	118,268	-0,222	-0,189
343,246	-6,379	-0,192	-0,090
344,260	-150,757	-0,198	0,010
345,275	123,943	-0,053	-0,046
346,289	800,000	-0,058	0,127
347,304	453,663	-0,087	-0,133
348,319	2,049	-0,168	-0,083
349,333	-162,003	-0,224	0,008
350,348	-91,534	-0,092	-0,018
351,362	699,685	-0,112	-0,203
352,377	383,046	-0,100	-0,142
353,392	185,236	-0,052	-0,053
354,406	-149,529	-0,142	-0,008
355,421	207,659	1313,449	1409,713
356,435	159,750	1474,041	1410,220
