DTS Sentinel unit serial number:	SN410029Multiplexer serial number:	ORYXHardware model number:	OX2-SRSoftware version number:	ORYX F/W v4,00 Oryx Data Collector v3.7.2.0data status	okinstallation	B3 Nyhavnadifferential loss correction	single-endedforward channel	channel 1reverse channel	N/Adate	2023/11/30time	00:42:30forward acquisition time	300,00reverse acquisition time	0,00gamma	499,1914k internal	0,3210k external	0,3210temperature offset calibration	1,0000default loss term (dB/km)	0,3820temperature slope calibration	1,0000multiplexer offset coefficient	1,0000multiplexer slope coefficient	1,0000fibre end	0,00T internal ref (°C)	10,80T ext. ref 1 (°C)	-4,59T ext. ref 2 (°C)	-4,70length (m)	temperature (°C)	Stokes	anti-Stokes-744,400	101,650	-0,239	-0,202
-743,385	-200,000	-0,070	0,258
-742,371	51,837	-0,091	-0,063
-741,356	-200,000	0,072	0,428
-740,342	-72,977	-0,102	-0,027
-739,327	800,000	-0,093	0,234
-738,312	-200,000	-0,102	-0,337
-737,298	-200,000	-0,038	0,277
-736,283	800,000	-0,139	-0,279
-735,269	-200,000	-0,027	0,347
-734,254	800,000	-0,091	-0,193
-733,239	-32,450	-0,194	-0,078
-732,225	357,501	-0,120	-0,175
-731,210	-200,000	0,028	0,176
-730,196	-0,708	-0,039	-0,020
-729,181	-47,008	0,061	-0,021
-728,167	-200,000	-0,028	-0,095
-727,152	213,308	-0,103	0,118
-726,137	-48,141	0,099	-0,035
-725,123	603,963	-0,035	-0,064
-724,108	468,414	-0,058	-0,094
-723,094	590,154	-0,052	-0,093
-722,079	-138,971	-0,129	-0,010
-721,064	800,000	0,018	-0,037
-720,050	-200,000	0,002	-0,131
-719,035	-200,000	-0,002	0,136
-718,021	-200,000	-0,023	0,100
-717,006	365,211	-0,106	-0,155
-715,991	207,928	-0,082	-0,093
-714,977	520,876	-0,110	-0,188
-713,962	-38,444	0,057	0,022
-712,948	289,355	-0,018	-0,024
-711,933	-93,750	-0,018	-0,004
-710,918	-200,000	-0,011	-0,130
-709,904	-183,060	-0,142	-0,002
-708,889	800,000	0,018	-0,042
-707,875	158,133	-0,050	-0,050
-706,860	-57,768	-0,062	0,020
-705,845	692,432	0,025	-0,047
-704,831	109,003	-0,106	0,092
-703,816	-31,240	-0,064	-0,026
-702,802	800,000	-0,015	0,041
-701,787	416,342	-0,031	0,048
-700,772	-66,472	-0,009	-0,003
-699,758	639,483	-0,057	0,105
-698,743	37,017	-0,051	-0,033
-697,729	626,857	0,041	-0,075
-696,714	229,589	0,008	0,009
-695,699	-19,834	0,060	0,027
-694,685	800,000	-0,051	-0,104
-693,670	-55,870	-0,148	-0,048
-692,656	800,000	-0,026	-0,082
-691,641	-74,154	-0,043	0,011
-690,627	-22,920	0,053	-0,023
-689,612	38,988	-0,072	0,046
-688,597	800,000	-0,011	0,025
-687,583	-10,921	-0,127	-0,061
-686,568	800,000	-0,050	-0,127
-685,554	-131,860	-0,091	0,008
-684,539	14,440	-0,089	-0,050
-683,524	-200,000	-0,003	-0,114
-682,510	113,249	-0,095	-0,084
-681,495	-41,276	-0,132	-0,049
-680,481	430,182	-0,020	-0,032
-679,466	19,164	-0,012	0,007
-678,451	-61,260	-0,052	-0,016
-677,437	-10,447	-0,073	0,035
-676,422	-14,740	0,117	0,054
-675,408	233,734	-0,056	0,066
-674,393	63,210	0,209	0,152
-673,378	-200,000	0,003	-0,046
-672,364	632,869	-0,022	-0,040
-671,349	168,780	-0,018	-0,019
-670,335	800,000	-0,039	0,085
-669,320	5,848	0,068	0,036
-668,305	392,129	-0,028	0,042
-667,291	-200,000	0,003	0,048
-666,276	46,361	0,008	0,006
-665,262	86,586	-0,096	-0,077
-664,247	-200,000	-0,003	0,044
-663,232	-200,000	-0,003	-0,098
-662,218	-151,854	-0,072	0,004
-661,203	-200,000	0,046	0,175
-660,189	800,000	0,040	-0,087
-659,174	-71,191	-0,112	0,030
-658,159	800,000	0,068	-0,149
-657,145	-25,421	-0,104	-0,044
-656,130	800,000	0,036	0,107
-655,116	-58,130	-0,094	0,029
-654,101	-55,313	0,097	0,031
-653,086	-200,000	-0,015	0,065
-652,072	521,604	-0,065	-0,111
-651,057	800,000	-0,032	0,067
-650,043	-16,006	0,056	-0,026
-649,028	800,000	0,048	-0,112
-648,014	-58,266	-0,070	0,022
-646,999	-23,962	0,105	0,045
-645,984	236,177	-0,088	-0,105
-644,970	525,123	-0,038	-0,065
-643,955	-135,767	-0,079	-0,007
-642,941	-200,000	-0,030	-0,110
-641,926	800,000	-0,022	-0,065
-640,911	663,606	0,004	0,007
-639,897	364,805	0,102	0,149
-638,882	-70,405	-0,106	-0,029
-637,868	800,000	0,025	-0,065
-636,853	800,000	-0,106	-0,220
-635,838	-200,000	0,012	-0,128
-634,824	103,645	-0,068	-0,058
-633,809	-200,000	-0,022	-0,078
-632,795	307,675	-0,024	-0,032
-631,780	-66,728	-0,032	0,009
-630,765	49,757	0,126	0,086
-629,751	625,297	-0,043	-0,078
-628,736	800,000	0,062	-0,170
-627,722	-65,448	0,090	-0,026
-626,707	79,607	0,082	-0,063
-625,692	-6,007	-0,035	0,017
-624,678	-30,221	0,105	-0,043
-623,663	254,973	0,053	0,066
-622,649	-48,502	-0,126	0,044
-621,634	400,012	-0,070	-0,106
-620,619	107,722	-0,039	-0,033
-619,605	82,073	-0,054	-0,042
-618,590	498,588	0,117	0,196
-617,576	648,361	0,072	0,134
-616,561	494,069	0,024	-0,040
-615,546	438,880	-0,026	-0,041
-614,532	-127,243	-0,073	-0,008
-613,517	-116,565	-0,106	-0,014
-612,503	800,000	0,008	-0,018
-611,488	800,000	-0,040	0,090
-610,474	-9,296	-0,077	0,037
-609,459	109,281	-0,080	-0,069
-608,444	-200,000	-0,036	-0,171
-607,430	-128,135	-0,043	-0,004
-606,415	163,789	0,071	-0,072
-605,401	142,586	-0,101	0,097
-604,386	-200,000	0,001	0,317
-603,371	800,000	-0,073	0,182
-602,357	55,896	-0,084	-0,058
-601,342	7,136	-0,059	0,032
-600,328	-11,271	-0,069	-0,033
-599,313	-200,000	-0,010	-0,219
-598,298	53,843	0,043	-0,029
-597,284	800,000	0,034	0,073
-596,269	800,000	0,048	0,102
-595,255	9,222	0,124	0,067
-594,240	800,000	-0,060	0,122
-593,225	147,192	-0,018	0,017
-592,211	-116,579	-0,172	0,023
-591,196	-200,000	0,020	0,158
-590,182	800,000	0,064	0,156
-589,167	800,000	0,042	0,101
-588,152	-200,000	-0,000	0,014
-587,138	82,531	-0,032	-0,025
-586,123	424,038	-0,039	-0,060
-585,109	246,348	-0,048	0,058
-584,094	-200,000	-0,003	-0,035
-583,079	261,971	0,008	-0,010
-582,065	-7,362	0,075	-0,037
-581,050	296,089	-0,083	0,110
-580,036	-7,887	0,140	-0,068
-579,021	-200,000	0,001	0,007
-578,006	-121,987	-0,140	0,016
-576,992	800,000	-0,022	-0,064
-575,977	-200,000	-0,016	-0,152
-574,963	341,047	0,158	-0,223
-573,948	418,275	0,042	-0,065
-572,934	-200,000	-0,008	0,036
-571,919	357,585	-0,014	-0,021
-570,904	-111,099	0,031	0,005
-569,890	100,344	-0,056	0,046
-568,875	177,530	-0,064	0,068
-567,861	94,362	0,157	0,128
-566,846	139,605	-0,057	0,054
-565,831	352,925	0,040	-0,057
-564,817	800,000	0,005	0,014
-563,802	326,202	-0,026	-0,035
-562,788	-11,586	-0,046	0,022
-561,773	75,469	0,067	-0,051
-560,758	290,246	-0,053	0,069
-559,744	186,600	0,027	0,029
-558,729	221,181	0,098	0,114
-557,715	500,627	0,041	0,068
-556,700	-200,000	-0,037	-0,139
-555,685	114,702	0,051	-0,044
-554,671	-200,000	0,001	-0,010
-553,656	-101,376	0,038	0,007
-552,642	-185,750	0,068	0,001
-551,627	-88,833	-0,079	0,017
-550,612	395,814	0,046	-0,070
-549,598	-119,987	0,046	-0,006
-548,583	16,580	0,087	-0,049
-547,569	143,325	0,053	-0,051
-546,554	-38,979	-0,109	-0,041
-545,539	129,167	0,040	0,037
-544,525	-51,041	-0,036	0,012
-543,510	-200,000	-0,025	-0,081
-542,496	-172,653	-0,120	0,003
-541,481	-154,529	-0,125	-0,006
-540,466	-200,000	0,002	0,061
-539,452	659,794	-0,055	0,102
-538,437	-3,625	0,013	0,007
-537,423	70,931	0,023	-0,017
-536,408	7,274	-0,075	-0,040
-535,393	120,472	-0,145	-0,129
-534,379	-200,000	-0,012	-0,129
-533,364	-101,614	0,055	0,009
-532,350	-200,000	0,002	0,061
-531,335	224,436	0,034	0,039
-530,321	-54,983	0,103	0,033
-529,306	-200,000	0,005	0,071
-528,291	800,000	-0,028	-0,083
-527,277	-57,846	-0,058	-0,018
-526,262	197,868	-0,026	0,029
-525,248	-105,076	-0,134	-0,022
-524,233	-200,000	0,006	-0,021
-523,218	-200,000	0,039	0,131
-522,204	-162,722	-0,161	-0,006
-521,189	-200,000	0,010	0,058
-520,175	-23,491	0,079	0,034
-519,160	-42,072	0,021	-0,008
-518,145	168,163	-0,068	0,070
-517,131	167,189	0,048	0,049
-516,116	190,599	-0,092	-0,100
-515,102	16,664	0,079	-0,045
-514,087	139,093	-0,046	-0,043
-513,072	-80,532	0,046	0,011
-512,058	488,974	-0,053	-0,087
-511,043	-200,000	-0,009	-0,045
-510,029	800,000	-0,016	0,049
-509,014	800,000	-0,064	-0,137
-507,999	16,189	0,095	-0,054
-506,985	-100,613	-0,136	-0,024
-505,970	14,787	0,009	0,005
-504,956	231,160	-0,033	-0,039
-503,941	168,260	-0,078	0,080
-502,926	26,259	-0,037	-0,022
-501,912	-129,458	0,125	0,012
-500,897	174,980	0,033	-0,034
-499,883	-200,000	-0,007	0,035
-498,868	188,642	-0,052	0,056
-497,853	-41,554	0,021	0,008
-496,839	6,987	0,104	0,056
-495,824	-17,850	0,072	-0,032
-494,810	71,470	0,051	0,038
-493,795	70,539	-0,090	-0,067
-492,781	447,539	-0,089	0,142
-491,766	196,187	-0,162	-0,177
-490,751	494,489	0,079	-0,130
-489,737	-7,125	-0,066	-0,032
-488,722	403,882	0,040	0,061
-487,708	12,529	0,074	0,041
-486,693	-200,000	-0,024	0,082
-485,678	-200,000	0,007	0,042
-484,664	-200,000	-0,017	-0,153
-483,649	142,767	0,008	-0,007
-482,635	-9,501	0,066	-0,032
-481,620	-46,820	-0,137	-0,048
-480,605	141,040	0,035	0,033
-479,591	-162,813	0,008	-0,000
-478,576	-200,000	0,009	0,036
-477,562	81,957	-0,150	0,117
-476,547	-95,695	0,051	0,010
-475,532	337,951	-0,048	-0,067
-474,518	252,806	-0,025	0,031
-473,503	-200,000	-0,014	-0,186
-472,489	35,723	-0,035	0,022
-471,474	129,680	0,105	-0,096
-470,459	51,005	-0,104	-0,070
-469,445	-200,000	-0,008	0,132
-468,430	-200,000	0,018	0,129
-467,416	92,120	0,069	0,056
-466,401	-71,753	0,132	0,035
-465,386	-200,000	0,024	0,086
-464,372	-200,000	0,044	0,146
-463,357	-200,000	0,000	0,030
-462,343	57,744	0,079	-0,055
-461,328	310,124	-0,022	-0,029
-460,313	800,000	0,076	0,169
-459,299	-200,000	0,009	-0,117
-458,284	800,000	0,050	-0,111
-457,270	12,759	-0,073	0,040
-456,255	206,353	-0,026	-0,029
-455,241	-200,000	-0,023	-0,088
-454,226	636,676	0,046	-0,085
-453,211	82,106	0,055	0,043
-452,197	330,906	-0,029	0,040
-451,182	502,336	0,064	0,106
-450,168	800,000	-0,041	0,099
-449,153	244,527	0,095	0,115
-448,138	-200,000	-0,018	-0,093
-447,124	30,091	0,087	0,053
-446,109	-134,959	-0,026	0,002
-445,095	800,000	0,016	0,047
-444,080	800,000	0,029	-0,072
-443,065	-200,000	-0,013	-0,091
-442,051	-101,621	-0,057	0,010
-441,036	63,022	-0,032	0,023
-440,022	111,422	-0,061	-0,053
-439,007	-200,000	0,004	-0,168
-437,992	-45,328	0,089	-0,032
-436,978	-200,000	0,040	0,170
-435,963	133,848	0,044	0,041
-434,949	43,218	-0,184	-0,120
-433,934	800,000	-0,046	-0,094
-432,919	-125,017	0,021	-0,002
-431,905	-4,425	-0,086	0,042
-430,890	800,000	0,082	0,229
-429,876	-83,538	0,083	0,019
-428,861	-67,543	0,117	-0,033
-427,846	168,098	-0,055	0,056
-426,832	-169,118	-0,180	-0,005
-425,817	509,886	0,064	0,107
-424,803	37,413	-0,037	-0,023
-423,788	-50,249	-0,075	-0,025
-422,773	-200,000	0,033	-0,105
-421,759	104,023	0,129	0,109
-420,744	-20,088	-0,084	0,037
-419,730	247,002	-0,083	-0,101
-418,715	-200,000	-0,003	-0,169
-417,701	158,476	0,027	0,027
-416,686	124,098	0,105	-0,094
-415,671	800,000	0,043	0,106
-414,657	-181,080	0,059	0,001
-413,642	-138,940	-0,147	-0,011
-412,628	41,864	-0,105	0,068
-411,613	56,180	-0,089	-0,062
-410,598	-174,619	0,068	0,001
-409,584	140,823	0,116	0,109
-408,569	-200,000	0,012	0,169
-407,555	449,691	0,017	0,027
-406,540	800,000	0,032	0,076
-405,525	49,090	-0,064	0,043
-404,511	-200,000	0,004	0,030
-403,496	-200,000	-0,006	-0,075
-402,482	372,378	-0,019	0,028
-401,467	-102,212	0,079	0,013
-400,452	67,659	0,105	-0,076
-399,438	-200,000	-0,009	0,062
-398,423	224,706	-0,030	-0,035
-397,409	-200,000	-0,021	-0,135
-396,394	800,000	0,041	-0,111
-395,379	549,522	0,022	-0,038
-394,365	40,337	0,068	0,044
-393,350	-200,000	-0,008	-0,113
-392,336	-136,793	0,016	-0,001
-391,321	-17,953	-0,097	-0,043
-390,306	-27,425	-0,046	0,019
-389,292	233,850	0,050	-0,059
-388,277	312,028	0,101	-0,136
-387,263	-180,220	0,136	-0,002
-386,248	549,931	-0,042	0,072
-385,233	338,650	0,015	0,021
-384,219	-0,610	0,068	-0,034
-383,204	390,216	0,034	-0,050
-382,190	-200,000	-0,005	-0,087
-381,175	70,700	-0,044	0,032
-380,160	-103,234	0,023	-0,004
-379,146	-71,115	0,110	0,029
-378,131	13,035	-0,061	-0,034
-377,117	172,897	-0,089	0,092
-376,102	46,623	-0,071	0,047
-375,088	-200,000	0,025	-0,149
-374,073	-12,744	-0,062	0,029
-373,058	39,762	0,113	0,073
-372,044	-200,000	0,014	-0,139
-371,029	800,000	0,071	0,212
-370,015	-200,000	0,009	-0,053
-369,000	-200,000	0,025	-0,111
-367,985	219,060	0,082	-0,094
-366,971	-120,304	-0,039	-0,005
-365,956	169,521	-0,081	0,083
-364,942	-93,763	0,100	0,020
-363,927	-200,000	0,014	0,111
-362,912	101,220	-0,068	0,056
-361,898	-160,475	-0,134	0,005
-360,883	-200,000	0,023	0,104
-359,869	-20,552	-0,047	0,020
-358,854	-200,000	-0,001	0,003
-357,839	125,542	0,061	-0,055
-356,825	0,316	0,092	0,047
-355,810	-200,000	-0,008	-0,028
-354,796	199,405	-0,074	-0,081
-353,781	310,537	-0,069	-0,092
-352,766	191,040	-0,114	-0,123
-351,752	800,000	-0,024	0,069
-350,737	-200,000	-0,002	0,054
-349,723	800,000	0,016	-0,032
-348,708	406,104	0,095	0,144
-347,693	-200,000	-0,011	-0,050
-346,679	-200,000	-0,023	0,085
-345,664	5,764	-0,124	0,065
-344,650	-200,000	0,004	0,049
-343,635	93,634	-0,066	0,053
-342,620	-22,738	0,050	-0,022
-341,606	800,000	0,053	0,160
-340,591	-150,734	-0,161	-0,009
-339,577	800,000	0,020	0,060
-338,562	148,444	0,108	-0,104
-337,548	29,304	-0,016	-0,010
-336,533	543,748	-0,081	0,138
-335,518	-50,016	0,095	0,032
-334,504	115,294	0,038	-0,033
-333,489	800,000	-0,102	0,237
-332,475	-68,949	-0,115	-0,031
-331,460	401,803	-0,048	-0,072
-330,445	-200,000	0,025	-0,207
-329,431	505,123	0,029	0,049
-328,416	-19,284	-0,081	-0,036
-327,402	56,553	0,054	-0,038
-326,387	264,472	-0,035	0,044
-325,372	-47,804	-0,074	0,025
-324,358	-200,000	-0,001	-0,086
-323,343	-200,000	0,002	0,153
-322,329	25,374	0,065	0,038
-321,314	58,046	0,063	0,044
-320,299	30,551	-0,027	-0,017
-319,285	-44,018	0,056	0,020
-318,270	195,732	-0,053	0,058
-317,256	248,775	0,069	-0,083
-316,241	353,536	-0,073	-0,104
-315,226	-167,885	0,054	0,001
-314,212	-177,188	-0,072	0,001
-313,197	-200,000	0,009	-0,113
-312,183	275,528	-0,075	-0,095
-311,168	-200,000	-0,005	-0,156
-310,153	90,952	-0,145	-0,116
-309,139	-105,992	0,156	-0,025
-308,124	649,366	0,033	0,061
-307,110	-80,233	0,155	-0,037
-306,095	-73,400	0,091	0,024
-305,080	251,529	0,046	0,056
-304,066	-200,000	-0,023	0,075
-303,051	-173,443	-0,065	0,001
-302,037	2,383	-0,140	-0,072
-301,022	-20,693	-0,197	0,086
-300,008	-58,826	-0,036	-0,011
-298,993	32,216	0,038	-0,023
-297,978	479,511	0,081	-0,131
-296,964	800,000	-0,027	0,058
-295,949	800,000	-0,062	0,138
-294,935	47,647	-0,058	-0,039
-293,920	-101,284	0,242	0,042
-292,905	-27,411	0,094	0,039
-291,891	-58,592	0,049	-0,015
-290,876	46,503	-0,043	0,028
-289,862	800,000	-0,033	0,070
-288,847	800,000	-0,035	-0,071
-287,832	-200,000	0,022	-0,205
-286,818	660,279	0,025	-0,045
-285,803	561,820	0,044	0,077
-284,789	337,385	0,086	0,119
-283,774	-71,509	0,141	0,037
-282,759	800,000	-0,078	-0,194
-281,745	-200,000	-0,029	-0,102
-280,730	-200,000	-0,001	-0,076
-279,716	13,158	-0,079	-0,043
-278,701	-61,291	0,031	0,009
-277,686	-30,938	0,103	0,041
-276,672	-94,358	0,046	0,009
-275,657	-10,557	0,123	0,058
-274,643	-200,000	-0,028	-0,121
-273,628	80,930	-0,066	-0,051
-272,613	800,000	-0,021	-0,046
-271,599	248,668	0,029	0,035
-270,584	-36,081	0,037	0,014
-269,570	-200,000	0,010	-0,060
-268,555	-54,475	0,073	0,023
-267,540	-138,111	-0,128	-0,010
-266,526	-75,927	-0,044	-0,011
-265,511	174,240	0,064	0,066
-264,497	-73,844	0,083	-0,021
-263,482	156,585	0,049	-0,048
-262,467	-200,000	-0,022	0,097
-261,453	51,629	-0,065	0,044
-260,438	213,114	0,054	-0,061
-259,424	92,902	-0,135	-0,108
-258,409	194,716	-0,073	-0,079
-257,395	800,000	0,047	-0,099
-256,380	368,211	0,016	0,023
-255,365	649,889	-0,020	0,037
-254,351	167,894	-0,085	0,086
-253,336	-127,511	-0,080	-0,008
-252,322	255,881	0,023	-0,028
-251,307	-41,054	-0,123	-0,045
-250,292	-7,895	0,137	-0,065
-249,278	-91,591	-0,079	-0,016
-248,263	-107,662	0,085	0,013
-247,249	-200,000	-0,019	0,077
-246,234	29,316	0,053	-0,032
-245,219	-29,125	-0,072	-0,029
-244,205	131,652	0,061	0,056
-243,190	-200,000	0,044	0,169
-242,176	-0,818	0,029	-0,015
-241,161	800,000	-0,017	0,050
-240,146	-97,709	0,138	-0,025
-239,132	-200,000	-0,017	-0,072
-238,117	-200,000	-0,014	-0,092
-237,103	109,094	-0,034	-0,029
-236,088	34,652	0,053	-0,033
-235,073	-200,000	0,001	-0,032
-234,059	18,879	0,168	0,095
-233,044	-183,992	0,014	-0,000
-232,030	800,000	0,025	0,060
-231,015	117,479	0,059	-0,051
-230,000	-152,529	-0,046	-0,002
-228,986	-117,109	0,111	-0,014
-227,971	800,000	-0,032	-0,088
-226,957	376,863	-0,016	0,024
-225,942	14,741	0,055	0,031
-224,927	12,178	-0,050	-0,027
-223,913	-200,000	0,029	-0,149
-222,898	800,000	0,027	-0,084
-221,884	-2,114	-0,076	-0,038
-220,869	-61,848	-0,103	-0,030
-219,855	-64,257	0,142	0,041
-218,840	564,018	-0,022	0,038
-217,825	331,003	-0,087	0,120
-216,811	-127,790	-0,071	-0,007
-215,796	-191,420	-0,149	0,001
-214,782	168,490	-0,011	0,012
-213,767	-158,052	0,041	0,002
-212,752	589,961	0,078	0,137
-211,738	59,855	0,016	-0,011
-210,723	383,359	0,033	0,048
-209,709	800,000	0,038	0,085
-208,694	800,000	-0,021	0,041
-207,679	800,000	0,045	-0,122
-206,665	51,635	0,089	-0,060
-205,650	-25,282	-0,073	-0,030
-204,636	-200,000	-0,031	0,133
-203,621	-97,618	-0,052	-0,010
-202,606	800,000	-0,038	0,080
-201,592	-200,000	-0,024	-0,122
-200,577	35,429	0,044	0,027
-199,563	800,000	-0,028	0,071
-198,548	-23,223	0,043	0,018
-197,533	757,264	0,067	0,129
-196,519	-21,697	0,078	-0,033
-195,504	27,272	-0,049	-0,029
-194,490	-25,069	-0,061	-0,026
-193,475	391,760	-0,019	-0,029
-192,460	418,559	-0,025	-0,038
-191,446	-200,000	0,037	0,198
-190,431	256,496	0,040	0,049
-189,417	-200,000	0,038	0,144
-188,402	-39,145	-0,034	-0,012
-187,387	151,252	-0,106	-0,103
-186,373	-34,815	0,079	0,031
-185,358	21,067	0,083	-0,048
-184,344	-108,784	0,090	-0,014
-183,329	677,164	-0,024	0,045
-182,315	118,207	-0,145	0,127
-181,300	-200,000	-0,028	0,122
-180,285	160,986	0,086	-0,086
-179,271	298,639	0,047	0,061
-178,256	-200,000	-0,017	0,066
-177,242	106,091	0,105	0,088
-176,227	-68,707	0,188	0,051
-175,212	-9,329	0,127	0,060
-174,198	153,177	-0,066	0,064
-173,183	-200,000	0,021	-0,074
-172,169	124,762	-0,068	-0,061
-171,154	-181,848	-0,077	-0,001
-170,139	-105,291	-0,106	-0,017
-169,125	261,649	0,104	0,128
-168,110	-48,333	0,097	0,033
-167,096	-33,329	-0,073	0,028
-166,081	737,872	-0,042	-0,081
-165,066	162,043	-0,037	-0,037
-164,052	27,469	-0,110	0,065
-163,037	-113,171	0,059	-0,008
-162,023	58,444	-0,026	0,018
-161,008	117,978	-0,015	-0,013
-159,993	-200,000	0,006	-0,053
-158,979	800,000	0,045	-0,112
-157,964	-147,004	-0,077	-0,005
-156,950	-200,000	0,021	0,112
-155,935	-200,000	-0,001	0,227
-154,920	800,000	0,007	0,018
-153,906	-196,880	0,204	-0,001
-152,891	412,433	0,040	-0,060
-151,877	-25,882	-0,103	0,043
-150,862	-84,541	0,075	-0,017
-149,847	800,000	0,074	0,165
-148,833	800,000	0,004	-0,010
-147,818	312,141	-0,036	0,048
-146,804	4,172	0,098	-0,051
-145,789	-115,738	0,148	0,019
-144,775	94,220	0,100	0,080
-143,760	-157,850	-0,106	0,004
-142,745	115,328	0,092	-0,080
-141,731	373,754	0,054	-0,079
-140,716	-200,000	-0,005	-0,038
-139,702	-200,000	-0,024	0,128
-138,687	-180,801	0,058	0,001
-137,672	399,318	-0,021	-0,031
-136,658	312,128	-0,025	-0,033
-135,643	-86,391	-0,091	-0,020
-134,629	-142,101	0,059	0,004
-133,614	100,893	-0,022	0,018
-132,599	800,000	-0,025	0,050
-131,585	-71,698	0,050	-0,013
-130,570	575,767	0,020	0,034
-129,556	-59,431	-0,139	-0,042
-128,541	174,799	0,008	-0,008
-127,526	-99,848	-0,078	-0,014
-126,512	-24,410	-0,029	0,012
-125,497	60,295	0,085	0,060
-124,483	-78,747	0,180	0,043
-123,468	14,392	-0,133	0,073
-122,453	682,457	-0,029	-0,054
-121,439	-140,065	-0,158	0,012
-120,424	427,645	0,047	0,071
-119,410	-200,000	-0,025	-0,105
-118,395	35,383	0,091	-0,057
-117,380	-200,000	0,014	0,125
-116,366	106,428	-0,058	0,049
-115,351	5,131	-0,063	-0,033
-114,337	-200,000	-0,024	-0,129
-113,322	800,000	-0,057	-0,118
-112,307	456,716	0,079	-0,125
-111,293	-137,181	0,074	0,006
-110,278	-200,000	-0,001	0,107
-109,264	99,750	0,154	-0,126
-108,249	76,794	-0,063	-0,047
-107,234	89,001	-0,064	-0,050
-106,220	-23,393	-0,055	0,023
-105,205	510,812	-0,083	0,137
-104,191	800,000	0,014	0,038
-103,176	460,591	0,030	-0,047
-102,162	582,888	0,042	0,073
-101,147	-102,445	-0,083	-0,014
-100,132	800,000	-0,023	-0,055
-99,118	100,370	-0,046	-0,038
-98,103	481,157	0,097	-0,156
-97,089	23,796	-0,105	0,061
-96,074	365,888	0,096	0,137
-95,059	371,620	-0,119	0,171
-94,045	-200,000	-0,016	-0,126
-93,030	-43,149	-0,082	-0,029
-92,016	191,945	-0,047	0,050
-91,001	800,000	0,036	-0,094
-89,986	738,456	-0,035	-0,066
-88,972	-200,000	-0,036	0,142
-87,957	-117,815	-0,066	0,008
-86,943	178,657	0,072	0,075
-85,928	509,100	-0,004	0,007
-84,913	-200,000	0,002	0,038
-83,899	-137,629	-0,119	-0,009
-82,884	13,157	-0,074	-0,040
-81,870	40,591	0,053	-0,034
-80,855	331,831	-0,029	0,039
-79,840	-200,000	-0,023	0,117
-78,826	-200,000	0,000	-0,107
-77,811	800,000	-0,018	0,045
-76,797	104,795	0,075	-0,062
-75,782	-66,314	-0,079	-0,022
-74,767	298,867	0,053	0,069
-73,753	-123,214	-0,100	-0,011
-72,738	800,000	0,063	0,150
-71,724	-18,235	-0,123	0,054
-70,709	-200,000	-0,024	0,098
-69,694	180,062	-0,109	0,113
-68,680	142,526	0,052	-0,048
-67,665	-62,576	0,082	0,024
-66,651	187,315	0,066	0,070
-65,636	-200,000	0,038	0,132
-64,622	800,000	0,031	0,084
-63,607	162,531	-0,153	-0,152
-62,592	800,000	-0,036	-0,080
-61,578	-48,118	-0,015	0,005
-60,563	-200,000	-0,005	0,173
-59,549	-137,454	-0,113	-0,009
-58,534	23,987	-1,992	-1,157
-57,519	524,279	-1,273	-2,121
-56,505	-200,000	-0,392	-4,370
-55,490	479,473	1,040	1,671
-54,476	800,000	5,075	11,169
-53,461	-200,000	20,901	330,071
-52,446	800,000	757,591	2326,189
-51,432	550,545	1662,553	2826,701
-50,417	73,479	1663,891	1228,483
-49,403	18,649	1537,141	865,802
-48,388	12,618	1460,272	793,310
-47,373	19,063	1450,927	819,159
-46,359	15,863	1440,064	797,762
-45,344	10,932	1436,082	772,026
-44,330	10,853	1434,116	770,566
-43,315	10,855	1432,078	769,447
-42,300	10,837	1430,468	768,467
-41,286	10,837	1429,355	767,837
-40,271	10,850	1427,904	767,089
-39,257	10,800	1426,975	766,326
-38,242	10,879	1425,600	765,928
-37,227	10,800	1424,842	765,116
-36,213	10,857	1423,275	764,517
-35,198	10,877	1422,306	764,057
-34,184	10,950	1421,237	763,799
-33,169	10,855	1420,090	762,706
-32,154	10,921	1418,945	762,370
-31,140	10,924	1417,553	761,605
-30,125	10,953	1416,660	761,233
-29,111	10,960	1415,385	760,551
-28,096	10,900	1414,484	759,753
-27,082	10,883	1413,049	758,872
-26,067	10,796	1412,194	757,974
-25,052	10,856	1411,118	757,652
-24,038	10,836	1410,027	756,941
-23,023	10,851	1408,932	756,391
-22,009	10,825	1408,050	755,766
-20,994	10,855	1406,888	755,255
-19,979	10,831	1406,074	754,677
-18,965	10,839	1405,120	754,170
-17,950	10,795	1404,141	753,411
-16,936	10,791	1403,460	752,997
-15,921	10,706	1402,607	752,110
-14,906	10,737	1401,523	751,643
-13,892	10,762	1400,497	751,182
-12,877	10,748	1399,740	750,681
-11,863	10,736	1398,975	750,185
-10,848	10,682	1397,982	749,371
-9,833	10,664	1397,013	748,740
-8,819	10,664	1396,206	748,278
-7,804	10,638	1395,386	747,689
-6,790	10,626	1394,374	747,060
-5,775	10,642	1393,254	746,503
-4,760	10,673	1392,138	746,019
-3,746	10,633	1391,478	745,454
-2,731	10,631	1390,674	744,984
-1,717	10,565	1389,949	744,258
-0,702	10,596	1387,909	743,280
0,313	14,616	1301,395	715,368
1,327	30,728	692,678	417,407
2,342	47,344	120,204	78,867
3,356	-0,122	16,516	8,265
4,371	6,646	3,448	1,803
5,386	-13,424	0,845	0,385
6,400	800,000	0,210	0,450
7,415	-178,623	-0,147	0,002
8,429	88,114	-0,378	-0,295
9,444	-9,377	-0,281	-0,132
10,459	54,185	-0,266	-0,180
11,473	312,256	-0,225	-0,298
12,488	1,928	-0,328	-0,166
13,502	33,557	-0,320	-0,196
14,517	-15,919	-0,292	-0,131
15,531	131,220	-0,405	-0,367
16,546	637,425	-0,193	-0,347
17,561	330,317	-0,256	-0,348
18,575	-46,224	-0,221	-0,076
19,590	366,591	-0,186	-0,265
20,604	-135,257	-0,242	0,020
21,619	181,569	-0,337	-0,350
22,634	64,270	-0,439	-0,311
23,648	164,326	-0,269	-0,268
24,663	45,098	-0,492	-0,319
25,677	194,748	-0,262	-0,280
26,692	-35,969	-0,236	-0,089
27,707	213,766	-0,222	-0,248
28,721	60,049	-0,303	-0,210
29,736	-18,754	-0,354	-0,154
30,750	73,191	-0,382	-0,281
31,765	70,252	-0,388	-0,281
32,780	34,782	-0,284	-0,174
33,794	41,705	-0,440	-0,280
34,809	-32,065	-0,364	-0,143
35,823	30,590	-0,432	-0,259
36,838	50,543	-0,451	-0,299
37,853	271,193	-0,315	-0,391
38,867	15,759	-0,376	-0,208
39,882	97,996	-0,291	-0,235
40,896	167,955	-0,318	-0,318
41,911	148,611	-0,331	-0,314
42,926	7,912	-0,391	-0,206
43,940	71,746	-0,310	-0,226
44,955	197,070	-0,327	-0,351
45,969	50,355	-0,396	-0,262
46,984	265,671	-0,251	-0,308
47,999	194,834	-0,124	-0,133
49,013	51,313	-0,195	-0,130
50,028	-47,306	-0,400	-0,136
51,042	80,492	-0,128	-0,097
52,057	119,328	-0,352	-0,306
53,071	117,260	-0,282	-0,244
54,086	-16,157	-0,348	-0,154
55,101	140,819	-0,335	-0,311
56,115	162,051	-0,235	-0,231
57,130	-39,714	-0,393	-0,143
58,144	81,536	-0,291	-0,221
59,159	64,800	-0,435	-0,308
60,174	107,069	-0,359	-0,300
61,188	87,608	-0,453	-0,351
62,203	5,738	-0,425	-0,220
63,217	34,875	-0,332	-0,203
64,232	-34,560	-0,334	-0,128
65,247	39,123	-0,352	-0,220
66,261	96,616	-0,311	-0,250
67,276	66,156	-0,335	-0,238
68,290	109,505	-0,286	-0,240
69,305	-77,666	-0,313	-0,075
70,320	-97,712	-0,321	-0,058
71,334	183,156	-0,243	-0,251
72,349	19,487	-0,312	-0,175
73,363	-66,275	-0,460	-0,127
74,378	105,251	-0,317	-0,262
75,393	156,428	-0,217	-0,210
76,407	99,106	-0,298	-0,241
77,422	800,000	-0,060	-0,156
78,436	-79,509	-0,212	-0,050
79,451	22,994	-0,249	-0,143
80,466	-54,521	-0,351	-0,111
81,480	37,588	-0,352	-0,219
82,495	-44,152	-0,232	-0,081
83,509	72,775	-0,347	-0,253
84,524	-50,832	-0,284	-0,093
85,539	-74,014	-0,250	-0,063
86,553	-44,215	-0,288	-0,101
87,568	31,324	-0,420	-0,252
88,582	106,658	-0,325	-0,270
89,597	18,345	-0,202	-0,112
90,611	101,814	-0,265	-0,216
91,626	-122,892	-0,206	-0,023
92,641	45,537	-0,266	-0,172
93,655	31,916	-0,271	-0,163
94,670	516,143	-0,107	-0,176
95,684	89,855	-0,221	-0,172
96,699	263,224	-0,272	-0,331
97,714	88,813	-0,302	-0,235
98,728	30,181	-0,319	-0,190
99,743	-49,592	-0,357	-0,118
100,757	800,000	-0,143	-0,278
101,772	90,770	-0,280	-0,219
102,787	137,376	-0,318	-0,291
103,801	291,954	-0,206	-0,263
104,816	107,665	-0,236	-0,197
105,830	46,136	-0,317	-0,205
106,845	-58,788	-0,191	0,057
107,860	-26,655	-0,226	-0,092
108,874	22,531	-0,294	-0,168
109,889	22,335	-0,238	-0,136
110,903	173,596	-0,221	-0,223
111,918	51,614	-0,293	-0,195
112,933	297,161	-0,185	-0,238
113,947	396,104	-0,218	-0,319
114,962	126,910	-0,265	-0,235
115,976	297,799	-0,178	-0,229
116,991	481,037	-0,235	-0,374
118,006	111,155	-0,305	-0,257
119,020	158,905	-0,174	-0,169
120,035	289,240	-0,108	-0,137
121,049	5,848	-0,250	-0,129
122,064	-74,749	-0,187	-0,046
123,079	101,559	-0,212	-0,172
124,093	275,236	-0,273	-0,339
125,108	53,359	-0,179	-0,120
126,122	8,479	-0,247	-0,129
127,137	-200,000	-0,020	-0,144
128,151	217,391	-0,146	-0,162
129,166	800,000	-0,108	-0,225
130,181	225,274	-0,211	-0,238
131,195	143,342	-0,194	-0,180
132,210	104,671	-0,350	-0,288
133,224	147,232	-0,308	-0,290
134,239	43,663	-0,165	-0,105
135,254	131,248	-0,208	-0,186
136,268	-16,226	-0,238	-0,105
137,283	1,843	-0,373	-0,187
138,297	402,908	-0,210	-0,308
139,312	72,083	-0,263	-0,191
140,327	86,445	-0,260	-0,200
141,341	74,405	-0,094	-0,069
142,356	-4,527	-0,215	-0,103
143,370	321,923	-0,123	-0,164
144,385	28,104	-0,220	-0,129
145,400	58,481	-0,143	-0,098
146,414	116,991	-0,180	-0,154
147,429	166,829	-0,176	-0,174
148,443	-70,143	-0,240	-0,063
149,458	-73,678	-0,284	-0,072
150,473	-105,858	-0,132	-0,020
151,487	219,082	-0,136	-0,152
152,502	-61,889	-0,403	-0,117
153,516	116,342	-0,207	-0,177
154,531	-89,200	-0,264	-0,054
155,546	-75,812	-0,252	-0,062
156,560	-81,137	-0,175	-0,040
157,575	118,433	-0,171	-0,147
158,589	40,617	-0,282	-0,177
159,604	302,575	-0,188	-0,243
160,619	-22,462	-0,298	-0,125
161,633	421,011	-0,243	-0,363
162,648	-0,068	-0,296	-0,146
163,662	112,990	-0,125	-0,105
164,677	483,936	-0,127	-0,202
165,692	41,705	-0,213	-0,134
166,706	23,224	-0,270	-0,154
167,721	129,806	-0,199	-0,177
168,735	-45,318	-0,362	-0,124
169,750	116,565	-0,244	-0,208
170,764	293,482	-0,135	-0,172
171,779	-186,373	-0,295	0,003
172,794	661,697	-0,070	-0,127
173,808	131,466	-0,210	-0,188
174,823	116,826	-0,258	-0,220
175,837	131,762	-0,192	-0,172
176,852	56,314	-0,302	-0,204
177,867	800,000	-0,152	-0,300
178,881	-72,604	-0,248	-0,063
179,896	20,732	-0,061	-0,034
180,910	-111,639	-0,261	-0,036
181,925	65,185	-0,262	-0,184
182,940	79,003	-0,232	-0,172
183,954	68,639	-0,193	-0,137
184,969	98,527	-0,241	-0,193
185,983	-34,402	-0,242	-0,092
186,998	120,023	-0,132	-0,114
188,013	69,905	-0,111	-0,079
189,027	164,282	-0,191	-0,187
190,042	-143,932	-0,294	-0,019
191,056	231,571	-0,171	-0,195
192,071	95,505	-0,121	-0,095
193,086	101,968	-0,126	-0,102
194,100	142,951	-0,213	-0,197
195,115	-12,822	-0,214	-0,096
196,129	271,722	-0,146	-0,178
197,144	319,309	-0,192	-0,253
198,159	139,328	-0,235	-0,215
199,173	403,700	-0,173	-0,254
200,188	142,547	-0,162	-0,149
201,202	27,061	-0,167	-0,097
202,217	-109,078	-0,175	0,026
203,232	316,059	-0,134	-0,176
204,246	-92,924	-0,222	-0,043
205,261	361,288	-0,107	-0,148
206,275	70,978	-0,243	-0,174
207,290	-30,721	-0,246	-0,096
208,304	-3,588	-0,115	-0,055
209,319	-42,350	-0,269	-0,095
210,334	-73,919	-0,200	-0,050
211,348	4,222	-0,282	-0,142
212,363	800,000	-0,064	-0,145
213,377	511,856	-0,178	-0,288
214,392	394,183	-0,189	-0,273
215,407	472,831	-0,148	-0,232
216,421	127,841	-0,193	-0,170
217,436	-123,740	-0,274	0,030
218,450	-63,934	-0,257	0,072
219,465	227,765	-0,188	-0,212
220,480	37,308	-0,227	-0,139
221,494	129,709	-0,070	-0,062
222,509	61,681	-0,177	-0,122
223,523	37,852	-0,188	-0,116
224,538	278,386	-0,113	-0,139
225,553	-54,405	-0,230	-0,072
226,567	75,080	-0,189	-0,138
227,582	84,740	-0,213	-0,161
228,596	646,919	-0,135	-0,239
229,611	-106,101	-0,207	0,032
230,626	800,000	-0,123	-0,238
231,640	15,767	-0,195	-0,106
232,655	800,000	-0,091	-0,175
233,669	-10,332	-0,237	-0,108
234,684	-132,944	-0,175	0,015
235,699	-56,863	-0,191	-0,058
236,713	-69,222	-0,240	-0,063
237,728	132,178	-0,141	-0,126
238,742	-10,786	-0,280	-0,127
239,757	-78,448	-0,250	-0,059
240,772	47,931	-0,223	-0,144
241,786	25,258	-0,308	-0,177
242,801	302,524	-0,168	-0,215
243,815	43,481	-0,209	-0,132
244,830	376,990	-0,121	-0,171
245,844	605,587	-0,101	-0,174
246,859	-38,886	-0,277	-0,100
247,874	-38,028	-0,277	-0,101
248,888	19,716	-0,227	-0,126
249,903	47,301	-0,130	0,083
250,917	134,188	-0,106	-0,095
251,932	190,103	-0,178	-0,184
252,947	-3,590	-0,129	-0,062
253,961	13,894	-0,147	-0,079
254,976	192,631	-0,095	-0,099
255,990	-64,487	-0,207	-0,058
257,005	-22,757	-0,256	-0,106
258,020	370,047	-0,168	-0,236
259,034	96,810	-0,065	-0,051
260,049	800,000	-0,131	-0,281
261,063	800,000	-0,073	-0,208
262,078	-80,356	-0,227	-0,052
263,093	126,039	-0,219	-0,191
264,107	-33,156	-0,159	-0,060
265,122	-200,000	-0,029	-0,124
266,136	-164,842	-0,119	-0,004
267,151	-94,363	-0,191	-0,036
268,166	88,006	-0,151	-0,115
269,180	69,534	-0,144	-0,102
270,195	270,234	-0,150	-0,182
271,209	-46,039	-0,057	0,019
272,224	-153,526	-0,114	0,005
273,239	-99,694	-0,160	0,027
274,253	-72,246	-0,152	-0,039
275,268	17,159	-0,203	-0,111
276,282	31,005	-0,251	-0,148
277,297	800,000	-0,037	-0,088
278,312	547,940	-0,142	-0,236
279,326	239,930	-0,090	-0,103
280,341	50,548	-0,121	-0,078
281,355	-166,392	-0,147	0,004
282,370	154,944	-0,108	-0,102
283,384	174,122	-0,213	-0,212
284,399	800,000	-0,097	-0,230
285,414	113,019	-0,065	-0,054
286,428	-68,709	-0,198	-0,052
287,443	-109,939	-0,218	-0,031
288,457	-25,644	-0,173	0,070
289,472	-119,896	-0,111	-0,013
290,487	253,487	-0,162	-0,190
291,501	-22,624	-0,201	-0,083
292,516	64,211	-0,260	-0,180
293,530	-200,000	-0,038	-0,191
294,545	679,577	-0,085	-0,153
295,560	-11,420	-0,113	-0,051
296,574	-78,429	-0,146	-0,034
297,589	800,000	-0,085	-0,216
298,603	331,054	-0,134	-0,178
299,618	18,471	-0,195	-0,107
300,633	681,162	-0,083	-0,149
301,647	-160,907	-0,190	-0,007
302,662	-116,431	-0,163	-0,020
303,676	-182,688	-0,110	-0,001
304,691	-95,925	-0,128	0,023
305,706	-60,384	-0,237	-0,069
306,720	-100,612	-0,243	-0,041
307,735	457,160	-0,148	-0,226
308,749	-100,807	-0,171	0,029
309,764	-38,569	-0,119	-0,043
310,779	-186,522	-0,199	0,002
311,793	476,631	-0,119	-0,186
312,808	442,740	-0,118	-0,177
313,822	800,000	-0,090	-0,272
314,837	-1,936	-0,142	0,069
315,852	477,730	0,025	0,039
316,866	72,023	-0,048	-0,034
317,881	-75,197	-0,159	0,039
318,895	99,087	-0,060	-0,048
319,910	783,451	-0,096	-0,181
320,925	8,989	-0,120	-0,062
321,939	542,747	0,045	-0,074
322,954	-40,411	-0,129	-0,046
323,968	800,000	-0,038	-0,095
324,983	279,364	-0,141	-0,173
325,997	44,966	-0,032	-0,020
327,012	800,000	-0,046	-0,099
328,027	-141,185	-0,186	0,013
329,041	3,421	-0,120	0,060
330,056	-150,001	-0,128	-0,007
331,070	-200,000	-0,004	-0,049
332,085	-148,348	-0,081	0,004
333,100	-181,925	-0,216	-0,003
334,114	202,852	-0,094	-0,099
335,129	101,913	-0,174	-0,139
336,143	64,599	-0,052	-0,036
337,158	800,000	-0,035	-0,105
338,173	54,141	-0,066	-0,043
339,187	70,816	-0,113	-0,080
340,202	-43,746	-0,117	0,040
341,216	309,794	-0,188	-0,241
342,231	278,208	-0,117	-0,143
343,246	113,219	-0,178	-0,148
344,260	510,659	-0,100	-0,160
345,275	800,000	-0,101	-0,206
346,289	-200,000	-0,008	-0,061
347,304	-108,671	-0,096	-0,014
348,319	496,597	-0,163	-0,258
349,333	59,639	-0,130	-0,087
350,348	255,035	-0,100	-0,118
351,362	-139,384	-0,223	-0,016
352,377	-41,415	-0,148	0,052
353,392	-200,000	0,003	-0,041
354,406	-74,295	-0,122	0,030
355,421	206,799	1312,850	1401,009
356,435	159,056	1473,327	1401,486
