DTS Sentinel unit serial number:	SN410029Multiplexer serial number:	ORYXHardware model number:	OX2-SRSoftware version number:	ORYX F/W v4,00 Oryx Data Collector v3.7.2.0data status	okinstallation	B3 Nyhavnadifferential loss correction	single-endedforward channel	channel 1reverse channel	N/Adate	2023/11/30time	23:52:30forward acquisition time	300,00reverse acquisition time	0,00gamma	499,1914k internal	0,3210k external	0,3210temperature offset calibration	1,0000default loss term (dB/km)	0,3820temperature slope calibration	1,0000multiplexer offset coefficient	1,0000multiplexer slope coefficient	1,0000fibre end	0,00T internal ref (°C)	9,43T ext. ref 1 (°C)	-5,56T ext. ref 2 (°C)	-5,70length (m)	temperature (°C)	Stokes	anti-Stokes-744,400	250,067	-0,147	-0,182
-743,385	800,000	0,137	0,281
-742,371	647,485	-0,067	-0,124
-741,356	-200,000	0,009	0,267
-740,342	320,643	-0,129	-0,178
-739,327	-200,000	-0,105	0,363
-738,312	162,068	-0,229	-0,233
-737,298	-200,000	-0,050	0,197
-736,283	115,211	-0,161	-0,142
-735,269	-200,000	0,060	0,271
-734,254	179,547	-0,213	-0,226
-733,239	60,877	-0,251	0,180
-732,225	800,000	-0,061	-0,186
-731,210	159,875	0,135	0,136
-730,196	-136,650	-0,243	-0,020
-729,181	-95,234	-0,035	-0,007
-728,167	317,501	-0,036	0,050
-727,152	800,000	-0,031	0,086
-726,137	-200,000	-0,020	-0,099
-725,123	-49,638	-0,152	-0,052
-724,108	130,002	0,050	-0,046
-723,094	60,883	-0,170	-0,122
-722,079	-66,500	-0,099	0,028
-721,064	-80,868	0,116	-0,028
-720,050	800,000	0,045	-0,115
-719,035	32,940	0,046	0,029
-718,021	800,000	-0,038	-0,117
-717,006	-8,029	-0,077	-0,037
-715,991	49,062	-0,189	-0,129
-714,977	-170,777	-0,080	-0,002
-713,962	-200,000	0,027	0,120
-712,948	-200,000	-0,002	-0,010
-711,933	800,000	0,053	0,126
-710,918	-200,000	-0,046	0,183
-709,904	172,846	-0,092	0,096
-708,889	74,236	0,094	-0,072
-707,875	-166,742	-0,085	-0,002
-706,860	-80,076	0,123	0,030
-705,845	-48,877	0,027	0,009
-704,831	800,000	0,068	0,213
-703,816	-200,000	-0,012	-0,120
-702,802	-200,000	-0,013	-0,041
-701,787	-148,092	0,119	-0,007
-700,772	-200,000	0,009	0,054
-699,758	-126,525	-0,061	-0,006
-698,743	42,756	0,017	-0,011
-697,729	236,914	0,103	0,124
-696,714	-53,866	-0,033	-0,011
-695,699	-200,000	-0,009	0,082
-694,685	800,000	0,021	-0,047
-693,670	-166,211	-0,111	-0,003
-692,656	-1,193	0,142	-0,072
-691,641	800,000	0,024	0,056
-690,627	343,007	0,032	-0,046
-689,612	-5,133	0,117	-0,058
-688,597	800,000	-0,028	-0,057
-687,583	-200,000	-0,008	-0,150
-686,568	-200,000	0,016	-0,111
-685,554	202,896	-0,151	0,169
-684,539	215,951	0,130	0,150
-683,524	-200,000	-0,027	0,128
-682,510	800,000	0,020	0,061
-681,495	-200,000	0,018	0,079
-680,481	205,052	-0,054	-0,060
-679,466	84,109	-0,082	-0,064
-678,451	126,247	-0,017	-0,015
-677,437	149,050	0,048	-0,047
-676,422	415,693	0,033	0,050
-675,408	-200,000	-0,001	-0,085
-674,393	800,000	0,031	-0,096
-673,378	-64,796	-0,081	0,024
-672,364	-200,000	-0,012	-0,074
-671,349	42,539	-0,082	-0,054
-670,335	-60,377	0,237	-0,072
-669,320	-200,000	-0,001	0,042
-668,305	-200,000	-0,033	0,108
-667,291	743,717	0,034	0,067
-666,276	-200,000	0,023	-0,134
-665,262	-144,186	-0,169	-0,011
-664,247	-127,573	-0,147	0,015
-663,232	97,682	0,013	-0,011
-662,218	-168,275	-0,067	0,002
-661,203	-200,000	0,024	0,144
-660,189	134,009	0,114	0,107
-659,174	-36,537	-0,175	-0,068
-658,159	8,570	-0,112	-0,061
-657,145	682,437	0,038	0,072
-656,130	-75,359	0,032	-0,008
-655,116	-67,911	-0,039	-0,011
-654,101	-200,000	-0,008	-0,037
-653,086	306,077	-0,031	0,042
-652,072	800,000	0,016	-0,036
-651,057	-59,550	-0,061	-0,019
-650,043	71,090	-0,077	-0,057
-649,028	-135,316	0,084	-0,007
-648,014	-200,000	0,009	0,060
-646,999	-104,154	-0,094	-0,016
-645,984	-54,058	0,105	-0,034
-644,970	800,000	-0,026	0,079
-643,955	167,309	-0,116	-0,120
-642,941	97,670	0,061	0,050
-641,926	219,060	0,040	-0,047
-640,911	-200,000	-0,035	0,121
-639,897	-186,042	0,116	-0,001
-638,882	266,248	-0,043	0,054
-637,868	800,000	0,015	0,034
-636,853	128,929	0,007	0,007
-635,838	9,788	-0,016	-0,009
-634,824	304,017	0,076	-0,103
-633,809	176,264	-0,006	0,006
-632,795	-84,158	-0,068	-0,016
-631,780	-12,522	0,034	0,016
-630,765	-200,000	-0,005	0,190
-629,751	-200,000	-0,030	-0,113
-628,736	110,376	-0,079	-0,068
-627,722	282,974	0,013	-0,017
-626,707	675,952	0,086	-0,162
-625,692	800,000	-0,037	0,105
-624,678	69,509	-0,053	0,039
-623,663	414,345	-0,041	-0,063
-622,649	-81,228	-0,067	0,016
-621,634	800,000	0,028	0,088
-620,619	42,218	-0,113	-0,074
-619,605	237,161	0,083	-0,100
-618,590	4,497	-0,117	-0,062
-617,576	-200,000	-0,012	-0,044
-616,561	800,000	-0,025	0,060
-615,546	-200,000	-0,003	0,019
-614,532	-110,358	-0,142	-0,021
-613,517	-170,715	-0,146	0,004
-612,503	127,283	-0,044	0,041
-611,488	57,118	0,075	0,053
-610,474	-48,889	-0,053	0,018
-609,459	-151,623	0,037	0,002
-608,444	800,000	-0,020	-0,042
-607,430	-118,709	0,047	-0,006
-606,415	-170,239	0,030	-0,001
-605,401	774,146	-0,044	-0,087
-604,386	-200,000	-0,024	-0,105
-603,371	266,701	-0,091	0,115
-602,357	588,145	0,046	0,082
-601,342	247,313	0,017	-0,021
-600,328	-132,691	-0,156	-0,014
-599,313	-200,000	0,004	0,025
-598,298	-167,079	-0,192	0,006
-597,284	-200,000	0,019	0,072
-596,269	-9,297	0,036	0,017
-595,255	800,000	0,036	0,082
-594,240	-200,000	-0,012	0,072
-593,225	-69,913	0,056	-0,015
-592,211	80,884	-0,134	-0,104
-591,196	124,956	0,110	-0,100
-590,182	1,234	0,053	-0,027
-589,167	-200,000	-0,022	-0,092
-588,152	36,849	0,041	-0,026
-587,138	-200,000	0,051	0,175
-586,123	661,038	0,025	-0,046
-585,109	-200,000	0,025	-0,110
-584,094	-200,000	-0,008	0,067
-583,079	22,092	-0,075	0,044
-582,065	800,000	0,029	0,073
-581,050	800,000	0,038	0,100
-580,036	-200,000	-0,014	-0,049
-579,021	208,645	-0,057	-0,064
-578,006	322,465	-0,097	-0,133
-576,992	-200,000	0,012	-0,044
-575,977	273,012	-0,064	-0,081
-574,963	17,913	0,048	0,027
-573,948	-200,000	-0,001	0,040
-572,934	76,866	-0,071	0,054
-571,919	-103,591	-0,094	-0,016
-570,904	197,295	-0,052	0,057
-569,890	-200,000	0,003	-0,091
-568,875	24,494	-0,046	-0,027
-567,861	-75,668	0,180	0,046
-566,846	196,760	0,080	0,088
-565,831	-200,000	0,003	-0,020
-564,817	17,032	-0,123	-0,070
-563,802	-200,000	-0,048	-0,225
-562,788	-200,000	0,024	0,088
-561,773	131,783	0,143	0,133
-560,758	650,308	0,070	0,130
-559,744	-200,000	0,007	0,207
-558,729	-200,000	0,030	-0,115
-557,715	800,000	-0,019	0,051
-556,700	-200,000	-0,017	-0,110
-555,685	-200,000	0,046	-0,181
-554,671	44,933	-0,078	0,052
-553,656	635,672	0,023	-0,042
-552,642	-122,287	0,194	-0,022
-551,627	-103,597	0,111	0,019
-550,612	-97,801	0,149	-0,028
-549,598	-107,592	-0,170	0,026
-548,583	-200,000	0,025	-0,137
-547,569	-18,852	0,103	0,046
-546,554	-35,656	-0,089	0,035
-545,539	-42,024	-0,069	0,025
-544,525	-200,000	0,019	-0,117
-543,510	100,110	-0,106	0,088
-542,496	-91,929	-0,035	-0,007
-541,481	93,879	0,045	0,037
-540,466	-200,000	-0,000	0,057
-539,452	-172,579	-0,044	-0,001
-538,437	-156,683	0,123	0,005
-537,423	-119,438	0,139	0,017
-536,408	99,902	-0,032	-0,026
-535,393	118,210	0,113	0,100
-534,379	332,235	-0,028	-0,039
-533,364	-32,997	-0,103	0,041
-532,350	65,971	0,026	-0,019
-531,335	-65,148	0,124	-0,036
-530,321	142,048	-0,090	0,086
-529,306	25,348	0,112	-0,067
-528,291	-200,000	0,017	-0,130
-527,277	-146,081	-0,048	-0,003
-526,262	-146,650	-0,011	-0,001
-525,248	42,309	-0,009	-0,006
-524,233	12,487	0,033	0,018
-523,218	515,918	0,053	0,089
-522,204	-45,320	0,066	-0,024
-521,189	540,517	-0,079	-0,135
-520,175	-31,424	-0,081	-0,033
-519,160	233,855	0,094	-0,111
-518,145	-129,529	0,013	-0,001
-517,131	4,133	-0,047	0,025
-516,116	757,578	0,037	-0,072
-515,102	82,863	0,118	0,092
-514,087	168,914	-0,033	-0,034
-513,072	24,313	-0,244	-0,144
-512,058	72,908	-0,064	0,048
-511,043	74,649	0,031	0,024
-510,029	-130,651	0,198	0,019
-509,014	-156,062	0,087	-0,004
-507,999	-171,991	0,133	-0,003
-506,985	630,185	0,033	0,061
-505,970	-47,709	-0,118	-0,041
-504,956	-45,140	0,057	0,020
-503,941	97,857	0,039	-0,032
-502,926	61,503	0,094	-0,067
-501,912	-151,102	-0,112	0,006
-500,897	-90,737	-0,097	0,020
-499,883	-200,000	0,021	-0,129
-498,868	-200,000	-0,001	-0,166
-497,853	35,898	0,045	-0,028
-496,839	-75,526	0,058	0,015
-495,824	-118,382	-0,074	0,009
-494,810	-73,630	0,156	-0,041
-493,795	76,331	0,033	0,025
-492,781	37,142	-0,037	-0,024
-491,766	574,922	0,067	-0,117
-490,751	414,946	-0,050	0,077
-489,737	-77,739	0,055	0,014
-488,722	73,739	0,012	-0,009
-487,708	-200,000	0,005	-0,048
-486,693	-200,000	0,005	-0,029
-485,678	800,000	0,028	-0,071
-484,664	-84,650	0,142	-0,032
-483,649	-93,434	-0,070	-0,014
-482,635	-200,000	0,008	0,094
-481,620	89,456	-0,068	-0,054
-480,605	-108,550	0,116	0,018
-479,591	-81,766	0,012	-0,003
-478,576	241,614	-0,032	0,039
-477,562	182,061	0,062	-0,065
-476,547	289,867	-0,045	-0,059
-475,532	800,000	-0,018	0,049
-474,518	-9,796	-0,125	0,060
-473,503	-200,000	0,009	0,052
-472,489	-14,583	0,023	0,011
-471,474	-91,901	0,097	0,020
-470,459	-200,000	0,017	0,056
-469,445	71,404	0,061	-0,045
-468,430	260,839	-0,078	0,097
-467,416	-29,277	-0,028	0,012
-466,401	-200,000	0,026	0,187
-465,386	-159,277	0,131	0,005
-464,372	-34,074	-0,043	0,017
-463,357	800,000	-0,022	0,062
-462,343	324,364	-0,078	-0,107
-461,328	-12,253	-0,135	-0,063
-460,313	-126,397	0,036	-0,004
-459,299	-26,754	0,077	0,032
-458,284	-117,234	0,068	-0,009
-457,270	12,746	0,114	-0,063
-456,255	-97,865	-0,099	0,018
-455,241	-63,795	-0,076	0,022
-454,226	-49,288	-0,148	-0,050
-453,211	-200,000	-0,002	0,114
-452,197	23,409	-0,057	0,034
-451,182	-134,108	0,111	0,010
-450,168	-87,582	0,049	0,011
-449,153	55,094	-0,030	-0,021
-448,138	31,317	0,051	-0,032
-447,124	-11,943	-0,081	-0,038
-446,109	800,000	0,009	-0,020
-445,095	-52,294	0,070	0,023
-444,080	800,000	0,086	-0,226
-443,065	-160,637	0,060	0,002
-442,051	-200,000	0,018	0,090
-441,036	-184,581	-0,133	0,001
-440,022	436,544	0,050	-0,078
-439,007	-3,761	-0,173	-0,086
-437,992	-116,896	-0,130	0,017
-436,978	127,359	0,049	0,044
-435,963	800,000	-0,028	-0,057
-434,949	-200,000	0,030	0,113
-433,934	19,845	0,119	0,068
-432,919	119,012	-0,047	-0,042
-431,905	519,966	-0,084	0,141
-430,890	-200,000	0,003	0,082
-429,876	800,000	0,036	0,076
-428,861	-200,000	-0,008	0,114
-427,846	387,017	-0,031	0,046
-426,832	458,876	-0,037	0,058
-425,817	517,518	0,038	-0,064
-424,803	107,368	0,035	-0,029
-423,788	482,733	-0,030	0,048
-422,773	800,000	0,087	0,181
-421,759	261,737	-0,047	-0,058
-420,744	251,511	0,062	0,075
-419,730	800,000	0,056	0,116
-418,715	743,477	-0,058	-0,113
-417,701	-200,000	0,022	-0,155
-416,686	-8,837	-0,163	-0,078
-415,671	800,000	0,065	0,156
-414,657	-200,000	-0,001	-0,092
-413,642	132,016	-0,105	-0,097
-412,628	-200,000	0,021	-0,183
-411,613	-94,564	-0,087	-0,017
-410,598	74,012	-0,056	0,042
-409,584	243,926	-0,101	0,122
-408,569	164,251	-0,045	-0,045
-407,555	379,506	-0,051	0,075
-406,540	800,000	-0,019	0,044
-405,525	-18,558	0,124	0,055
-404,511	-149,608	-0,031	0,002
-403,496	-200,000	-0,022	0,094
-402,482	140,715	0,073	0,069
-401,467	800,000	-0,034	-0,100
-400,452	12,633	0,063	0,035
-399,438	230,539	0,018	0,021
-398,423	-106,384	0,107	0,017
-397,409	76,901	-0,076	-0,057
-396,394	-47,197	-0,054	-0,019
-395,379	800,000	0,076	-0,153
-394,365	800,000	-0,060	-0,124
-393,350	293,568	0,019	0,025
-392,336	19,180	0,027	0,015
-391,321	-73,661	0,083	-0,021
-390,306	69,290	-0,091	0,067
-389,292	109,258	-0,072	0,062
-388,277	-200,000	-0,001	0,047
-387,263	-23,172	-0,101	0,043
-386,248	405,859	0,097	0,146
-385,233	89,955	0,153	0,122
-384,219	-123,084	-0,091	0,010
-383,204	54,000	-0,129	-0,088
-382,190	-200,000	0,018	0,057
-381,175	-200,000	0,021	-0,083
-380,160	-200,000	-0,056	0,196
-379,146	427,385	-0,076	0,117
-378,131	-31,247	0,123	0,049
-377,117	260,731	0,083	-0,103
-376,102	435,283	-0,074	0,115
-375,088	800,000	-0,015	-0,037
-374,073	800,000	-0,016	0,043
-373,058	57,829	0,104	-0,072
-372,044	800,000	0,068	-0,172
-371,029	-55,560	-0,123	-0,039
-370,015	-45,546	0,073	-0,026
-369,000	756,972	-0,083	0,160
-367,985	800,000	-0,046	-0,125
-366,971	800,000	-0,035	-0,103
-365,956	-200,000	-0,001	0,060
-364,942	700,336	-0,029	-0,054
-363,927	88,139	0,085	-0,067
-362,912	168,855	0,075	-0,076
-361,898	110,190	-0,041	-0,035
-360,883	800,000	-0,058	-0,153
-359,869	-200,000	-0,005	-0,044
-358,854	766,811	-0,036	-0,071
-357,839	179,568	-0,062	-0,065
-356,825	-200,000	-0,012	0,101
-355,810	60,865	-0,076	0,054
-354,796	-200,000	0,010	-0,181
-353,781	-200,000	-0,007	0,114
-352,766	172,500	0,138	0,142
-351,752	256,406	-0,021	-0,026
-350,737	800,000	0,052	-0,103
-349,723	89,529	-0,056	-0,044
-348,708	-55,207	-0,108	0,034
-347,693	-200,000	-0,025	-0,158
-346,679	-77,885	-0,057	0,014
-345,664	-200,000	0,015	-0,085
-344,650	652,449	0,046	0,085
-343,635	-200,000	0,013	0,135
-342,620	-200,000	-0,022	0,105
-341,606	-3,400	-0,057	-0,028
-340,591	248,530	-0,073	0,088
-339,577	136,896	-0,061	-0,057
-338,562	-200,000	0,026	0,130
-337,548	236,575	0,015	0,017
-336,533	165,929	0,066	0,067
-335,518	61,571	0,087	0,062
-334,504	227,734	0,041	0,048
-333,489	61,082	0,128	0,091
-332,475	143,530	0,060	0,057
-331,460	-5,077	-0,030	-0,015
-330,445	-38,013	-0,103	0,039
-329,431	91,850	0,092	0,074
-328,416	-200,000	0,049	0,202
-327,402	-125,913	-0,087	-0,009
-326,387	-5,394	0,093	0,045
-325,372	-200,000	-0,009	-0,053
-324,358	-200,000	0,006	-0,044
-323,343	800,000	-0,040	0,127
-322,329	-127,109	-0,050	-0,005
-321,314	4,003	0,108	0,056
-320,299	800,000	0,060	0,175
-319,285	28,637	0,075	0,045
-318,270	-200,000	-0,003	-0,049
-317,256	-114,371	0,056	-0,008
-316,241	73,454	-0,044	0,033
-315,226	414,216	-0,069	-0,106
-314,212	-200,000	0,037	-0,168
-313,197	800,000	-0,028	0,062
-312,183	-200,000	-0,001	-0,007
-311,168	400,652	-0,045	-0,068
-310,153	-200,000	-0,004	-0,037
-309,139	-200,000	0,012	-0,049
-308,124	-200,000	-0,000	-0,091
-307,110	-200,000	0,001	0,083
-306,095	800,000	0,048	0,100
-305,080	162,196	-0,084	-0,084
-304,066	216,504	0,030	0,034
-303,051	76,259	-0,157	-0,118
-302,037	800,000	-0,013	-0,032
-301,022	59,327	0,097	0,068
-300,008	-64,101	0,084	0,024
-298,993	-172,599	0,127	0,003
-297,978	-200,000	-0,009	-0,112
-296,964	-12,267	-0,110	-0,051
-295,949	-86,938	-0,047	0,010
-294,935	99,228	0,125	0,103
-293,920	170,850	0,062	0,064
-292,905	-200,000	-0,013	0,123
-291,891	-85,206	-0,081	0,018
-290,876	-43,866	-0,073	0,026
-289,862	-200,000	0,038	-0,152
-288,847	-123,100	-0,034	-0,004
-287,832	-200,000	-0,045	-0,145
-286,818	-28,659	-0,099	0,040
-285,803	-200,000	-0,034	-0,114
-284,789	-94,058	-0,113	0,022
-283,774	800,000	-0,031	-0,084
-282,759	52,001	0,121	-0,082
-281,745	-200,000	0,042	-0,244
-280,730	800,000	0,014	0,037
-279,716	-200,000	0,096	0,000
-278,701	800,000	-0,065	0,140
-277,686	87,290	-0,048	-0,038
-276,672	257,225	-0,055	0,068
-275,657	-57,933	-0,017	0,005
-274,643	36,546	-0,035	0,022
-273,628	-200,000	-0,001	-0,048
-272,613	531,945	0,015	0,025
-271,599	-200,000	-0,011	-0,082
-270,584	35,107	0,090	-0,056
-269,570	-172,806	-0,189	0,004
-268,555	-62,791	0,095	0,028
-267,540	-168,074	-0,080	0,002
-266,526	142,570	0,095	-0,090
-265,511	166,444	-0,061	-0,061
-264,497	-200,000	0,008	0,089
-263,482	83,317	0,084	-0,065
-262,467	-200,000	-0,019	-0,075
-261,453	-200,000	0,012	0,072
-260,438	-200,000	-0,011	-0,060
-259,424	24,556	0,047	-0,027
-258,409	-200,000	0,038	-0,211
-257,395	-4,853	0,055	-0,027
-256,380	-97,986	0,020	0,004
-255,365	64,189	0,095	0,068
-254,351	-156,777	0,082	0,004
-253,336	15,132	0,185	-0,103
-252,322	800,000	-0,028	-0,083
-251,307	800,000	0,061	-0,188
-250,292	-64,129	-0,130	-0,037
-249,278	-200,000	0,020	0,145
-248,263	190,226	0,074	-0,079
-247,249	-200,000	0,029	0,136
-246,234	800,000	-0,049	-0,153
-245,219	259,974	-0,032	-0,039
-244,205	-200,000	-0,004	-0,044
-243,190	-200,000	-0,029	-0,099
-242,176	800,000	-0,062	0,123
-241,161	800,000	-0,030	0,080
-240,146	-150,756	-0,075	0,004
-239,132	800,000	0,032	-0,092
-238,117	310,413	0,081	-0,108
-237,103	673,259	-0,066	-0,122
-236,088	105,912	-0,125	0,105
-235,073	-23,147	-0,014	-0,006
-234,059	-200,000	0,030	0,123
-233,044	52,431	0,092	0,062
-232,030	-77,566	-0,117	0,028
-231,015	39,844	-0,145	0,092
-230,000	-200,000	-0,036	-0,213
-228,986	165,616	-0,062	0,063
-227,971	564,633	-0,019	0,032
-226,957	174,304	-0,040	0,041
-225,942	-200,000	-0,023	0,127
-224,927	-200,000	0,008	-0,040
-223,913	-200,000	-0,031	-0,121
-222,898	-200,000	0,008	-0,123
-221,884	385,773	-0,046	0,068
-220,869	208,140	0,078	0,087
-219,855	-110,577	0,220	0,032
-218,840	95,358	0,039	0,031
-217,825	-28,045	-0,045	-0,018
-216,811	-122,656	-0,040	0,005
-215,796	800,000	0,030	-0,079
-214,782	-60,352	-0,110	0,033
-213,767	127,808	0,103	0,093
-212,752	109,674	0,052	0,044
-211,738	-200,000	-0,013	0,080
-210,723	304,107	0,071	0,094
-209,709	-11,706	0,161	-0,075
-208,694	-200,000	-0,002	-0,055
-207,679	233,947	0,039	-0,046
-206,665	211,849	0,143	0,160
-205,650	-4,025	-0,055	0,027
-204,636	381,126	0,039	0,058
-203,621	403,429	-0,102	0,153
-202,606	577,011	0,024	-0,041
-201,592	-74,104	-0,038	-0,010
-200,577	800,000	-0,060	0,138
-199,563	229,509	-0,028	-0,033
-198,548	-38,063	-0,097	0,036
-197,533	-200,000	-0,001	0,072
-196,519	-200,000	0,155	-0,000
-195,504	623,361	-0,074	-0,132
-194,490	409,752	-0,031	-0,047
-193,475	275,728	0,069	-0,088
-192,460	-200,000	-0,025	-0,089
-191,446	109,996	-0,029	0,024
-190,431	-54,746	-0,125	-0,040
-189,417	-37,026	-0,059	-0,022
-188,402	45,153	0,056	0,037
-187,387	12,627	-0,012	0,007
-186,373	294,923	-0,043	-0,056
-185,358	-26,641	0,072	0,030
-184,344	-184,251	-0,104	-0,001
-183,329	-26,440	0,030	0,013
-182,315	-200,000	0,018	0,121
-181,300	-200,000	-0,045	0,165
-180,285	272,507	0,101	-0,126
-179,271	274,026	-0,050	-0,063
-178,256	254,697	0,044	0,053
-177,242	75,101	0,059	0,044
-176,227	-200,000	0,029	0,094
-175,212	73,015	-0,032	0,024
-174,198	-77,200	0,045	0,011
-173,183	222,776	-0,086	0,098
-172,169	-178,434	-0,007	0,000
-171,154	33,289	-0,055	0,034
-170,139	225,110	-0,086	-0,099
-169,125	239,962	0,068	0,080
-168,110	120,891	0,076	0,067
-167,096	-35,235	0,025	-0,010
-166,081	630,066	0,052	-0,094
-165,066	800,000	-0,046	-0,123
-164,052	77,842	0,165	-0,125
-163,037	800,000	-0,035	-0,094
-162,023	13,291	0,081	-0,044
-161,008	800,000	-0,077	0,217
-159,993	-200,000	0,012	0,079
-158,979	-200,000	-0,005	-0,125
-157,964	-200,000	0,006	-0,033
-156,950	-82,228	-0,032	0,007
-155,935	800,000	0,091	0,183
-154,920	-200,000	-0,010	0,108
-153,906	-200,000	0,019	0,126
-152,891	-8,875	-0,065	0,031
-151,877	167,122	-0,070	0,071
-150,862	507,343	-0,021	0,035
-149,847	158,952	-0,027	-0,027
-148,833	800,000	-0,031	0,063
-147,818	22,401	0,117	0,068
-146,804	53,295	0,077	0,052
-145,789	160,493	0,034	-0,033
-144,775	-200,000	-0,026	-0,198
-143,760	-200,000	0,008	-0,064
-142,745	-56,851	-0,056	-0,018
-141,731	-11,118	0,116	-0,054
-140,716	615,751	0,033	0,059
-139,702	-85,139	0,061	0,013
-138,687	800,000	-0,015	0,042
-137,672	-200,000	0,007	-0,023
-136,658	-39,804	0,008	-0,003
-135,643	-106,626	-0,066	-0,010
-134,629	-85,595	0,078	-0,017
-133,614	-7,623	-0,020	0,010
-132,599	-200,000	0,042	0,160
-131,585	31,947	0,157	0,095
-130,570	-11,043	-0,140	-0,065
-129,556	-200,000	0,003	0,143
-128,541	-200,000	-0,006	0,057
-127,526	800,000	0,022	0,067
-126,512	-65,258	0,107	0,030
-125,497	574,384	-0,031	0,054
-124,483	-200,000	-0,019	0,078
-123,468	184,483	-0,018	-0,019
-122,453	152,982	-0,120	-0,116
-121,439	-29,730	-0,076	0,030
-120,424	-200,000	-0,021	0,080
-119,410	800,000	0,030	0,062
-118,395	-101,230	-0,062	0,011
-117,380	-177,925	0,085	-0,001
-116,366	-200,000	-0,004	-0,056
-115,351	-200,000	0,044	-0,138
-114,337	-200,000	-0,020	-0,154
-113,322	-200,000	-0,036	-0,113
-112,307	800,000	-0,022	-0,045
-111,293	800,000	0,035	-0,094
-110,278	56,143	0,028	0,019
-109,264	-200,000	0,011	-0,040
-108,249	-184,136	0,197	0,002
-107,234	-167,445	-0,113	0,003
-106,220	-87,313	-0,127	-0,027
-105,205	-200,000	-0,006	0,036
-104,191	-200,000	-0,021	0,067
-103,176	-59,709	-0,043	-0,013
-102,162	-200,000	0,005	-0,033
-101,147	-22,748	-0,128	-0,054
-100,132	-127,749	0,078	-0,008
-99,118	-120,690	0,133	-0,016
-98,103	-200,000	-0,011	0,074
-97,089	-50,383	0,034	0,011
-96,074	-39,722	0,060	-0,022
-95,059	-155,722	-0,058	-0,003
-94,045	-114,147	-0,017	0,002
-93,030	-200,000	-0,012	-0,130
-92,016	365,924	-0,043	-0,061
-91,001	-200,000	0,002	0,022
-89,986	56,182	0,023	-0,016
-88,972	-200,000	0,009	0,066
-87,957	73,734	-0,063	-0,046
-86,943	660,607	0,041	0,075
-85,928	-200,000	-0,003	-0,130
-84,913	120,062	0,055	0,049
-83,899	-147,491	0,095	0,006
-82,884	600,352	-0,033	0,059
-81,870	-200,000	0,007	-0,129
-80,855	-126,708	-0,064	-0,007
-79,840	-200,000	0,033	-0,133
-78,826	172,348	0,073	-0,074
-77,811	-200,000	-0,003	-0,081
-76,797	800,000	0,033	0,073
-75,782	-1,078	-0,094	0,047
-74,767	25,953	0,090	0,053
-73,753	-18,185	-0,127	0,056
-72,738	449,605	0,043	-0,068
-71,724	-50,285	-0,022	-0,007
-70,709	-34,427	-0,111	-0,043
-69,694	800,000	-0,016	0,040
-68,680	-1,999	0,148	-0,073
-67,665	-124,417	-0,109	-0,012
-66,651	335,970	-0,032	-0,044
-65,636	644,505	0,079	0,142
-64,622	800,000	-0,021	-0,046
-63,607	143,998	-0,088	0,083
-62,592	800,000	-0,037	0,073
-61,578	146,965	0,050	0,047
-60,563	800,000	-0,078	0,175
-59,549	800,000	-0,077	0,193
-58,534	34,096	-1,983	-1,218
-57,519	582,861	-1,185	-2,061
-56,505	-200,000	-0,492	-4,509
-55,490	344,631	0,942	1,308
-54,476	800,000	5,362	12,099
-53,461	-200,000	21,729	342,953
-52,446	800,000	763,190	2328,288
-51,432	541,360	1661,358	2804,902
-50,417	70,786	1658,066	1210,230
-49,403	17,153	1531,844	855,085
-48,388	11,265	1456,023	784,306
-47,373	19,280	1447,348	818,025
-46,359	14,705	1436,629	790,199
-45,344	9,523	1432,552	763,272
-44,330	9,509	1430,430	762,042
-43,315	9,460	1428,686	760,853
-42,300	9,532	1426,853	760,186
-41,286	9,497	1425,936	759,501
-40,271	9,466	1424,530	758,576
-39,257	9,479	1423,466	758,041
-38,242	9,534	1422,106	757,546
-37,227	9,511	1421,212	756,930
-36,213	9,512	1419,823	756,168
-35,198	9,534	1418,532	755,554
-34,184	9,549	1417,571	755,081
-33,169	9,447	1416,354	753,921
-32,154	9,555	1415,303	753,843
-31,140	9,516	1414,072	752,974
-30,125	9,561	1412,726	752,440
-29,111	9,496	1411,901	751,664
-28,096	9,497	1410,561	750,926
-27,082	9,426	1409,441	749,967
-26,067	9,465	1408,264	749,491
-25,052	9,497	1407,236	749,066
-24,038	9,511	1406,087	748,492
-23,023	9,458	1405,356	747,823
-22,009	9,501	1404,216	747,387
-20,994	9,460	1403,311	746,684
-19,979	9,486	1402,391	746,286
-18,965	9,419	1401,643	745,545
-17,950	9,440	1400,455	744,983
-16,936	9,382	1399,910	744,393
-15,921	9,359	1398,723	743,625
-14,906	9,389	1397,734	743,209
-13,892	9,406	1396,740	742,730
-12,877	9,409	1396,136	742,393
-11,863	9,353	1395,184	741,598
-10,848	9,362	1394,228	741,103
-9,833	9,325	1393,408	740,465
-8,819	9,247	1392,734	739,717
-7,804	9,272	1391,716	739,264
-6,790	9,254	1390,594	738,556
-5,775	9,292	1389,454	738,095
-4,760	9,285	1388,641	737,602
-3,746	9,279	1387,472	736,923
-2,731	9,288	1386,758	736,558
-1,717	9,240	1385,945	735,875
-0,702	9,243	1384,279	734,974
0,313	13,378	1296,083	706,998
1,327	29,502	686,373	410,787
2,342	46,105	118,431	77,221
3,356	0,832	16,543	8,330
4,371	9,722	3,656	1,949
5,386	22,994	1,110	0,640
6,400	800,000	0,282	0,670
7,415	-39,562	-0,216	-0,080
8,429	70,053	-0,252	-0,183
9,444	109,109	-0,207	-0,174
10,459	3,950	-0,230	-0,118
11,473	68,317	-0,202	-0,146
12,488	206,820	-0,204	-0,225
13,502	87,650	-0,223	-0,174
14,517	-54,843	-0,299	-0,094
15,531	-27,466	-0,377	-0,154
16,546	-28,683	-0,296	-0,120
17,561	240,636	-0,283	-0,333
18,575	-81,564	-0,307	-0,071
19,590	186,304	-0,267	-0,280
20,604	115,647	-0,165	-0,142
21,619	137,287	-0,445	-0,410
22,634	130,974	-0,339	-0,306
23,648	60,830	-0,486	-0,339
24,663	161,420	-0,336	-0,331
25,677	3,085	-0,242	-0,123
26,692	113,283	-0,322	-0,275
27,707	185,551	-0,243	-0,254
28,721	6,119	-0,445	-0,231
29,736	7,811	-0,378	-0,199
30,750	83,930	-0,427	-0,328
31,765	38,647	-0,413	-0,259
32,780	-78,075	-0,545	-0,131
33,794	138,524	-0,361	-0,333
34,809	181,924	-0,313	-0,325
35,823	26,973	-0,316	-0,186
36,838	39,640	-0,455	-0,286
37,853	-2,518	-0,408	-0,200
38,867	238,221	-0,270	-0,316
39,882	61,360	-0,418	-0,292
40,896	198,039	-0,181	-0,195
41,911	5,314	-0,325	-0,168
42,926	25,363	-0,432	-0,252
43,940	-78,148	-0,491	-0,118
44,955	102,583	-0,462	-0,379
45,969	235,174	-0,302	-0,350
46,984	126,005	-0,327	-0,291
47,999	101,851	-0,315	-0,258
49,013	344,026	-0,188	-0,260
50,028	15,459	-0,359	-0,198
51,042	76,212	-0,270	-0,200
52,057	433,549	-0,202	-0,309
53,071	60,513	-0,328	-0,227
54,086	89,692	-0,206	-0,161
55,101	9,415	-0,447	-0,237
56,115	35,532	-0,350	-0,215
57,130	175,926	-0,274	-0,279
58,144	89,156	-0,186	-0,145
59,159	50,367	-0,460	-0,305
60,174	17,133	-0,426	-0,236
61,188	-14,521	-0,357	-0,161
62,203	95,490	-0,362	-0,289
63,217	15,525	-0,340	-0,187
64,232	-5,434	-0,279	-0,134
65,247	190,430	-0,396	-0,418
66,261	72,407	-0,447	-0,326
67,276	-6,018	-0,482	-0,230
68,290	-10,695	-0,318	-0,147
69,305	136,001	-0,211	-0,193
70,320	48,708	-0,225	-0,148
71,334	-40,159	-0,250	-0,091
72,349	-5,779	-0,224	-0,107
73,363	367,324	-0,229	-0,325
74,378	116,862	-0,279	-0,240
75,393	-34,339	-0,359	-0,137
76,407	36,608	-0,264	-0,163
77,422	-16,794	-0,239	-0,106
78,436	-14,637	-0,303	-0,136
79,451	2,388	-0,367	-0,186
80,466	20,628	-0,317	-0,179
81,480	-40,802	-0,480	-0,173
82,495	49,231	-0,291	-0,191
83,509	-32,005	-0,208	-0,081
84,524	88,767	-0,216	-0,168
85,539	28,770	-0,147	-0,087
86,553	83,594	-0,291	-0,222
87,568	4,860	-0,290	-0,149
88,582	185,706	-0,296	-0,308
89,597	155,591	-0,260	-0,250
90,611	362,066	-0,175	-0,247
91,626	-40,361	-0,129	-0,047
92,641	-78,588	-0,303	-0,072
93,655	23,882	-0,241	-0,138
94,670	295,139	-0,096	-0,123
95,684	92,374	-0,313	-0,246
96,699	118,225	-0,149	-0,128
97,714	371,672	-0,126	-0,179
98,728	139,680	-0,169	-0,156
99,743	-29,232	-0,135	-0,054
100,757	33,782	-0,205	-0,124
101,772	20,749	-0,184	-0,104
102,787	374,693	-0,186	-0,266
103,801	-12,525	-0,309	-0,140
104,816	226,895	-0,294	-0,334
105,830	-103,240	-0,324	-0,053
106,845	44,087	-0,161	-0,103
107,860	291,421	-0,136	-0,174
108,874	47,600	-0,288	-0,187
109,889	104,436	-0,389	-0,320
110,903	-52,562	-0,178	-0,057
111,918	119,370	-0,161	-0,139
112,933	28,297	-0,291	-0,171
113,947	-17,692	-0,259	-0,113
114,962	25,476	-0,239	-0,139
115,976	73,525	-0,268	-0,196
116,991	-93,241	-0,376	-0,072
118,006	-9,483	-0,368	-0,171
119,020	202,827	-0,287	-0,310
120,035	-96,507	-0,195	-0,036
121,049	-200,000	-0,351	0,000
122,064	47,479	-0,284	-0,184
123,079	-13,789	-0,278	-0,125
124,093	-155,804	-0,298	-0,013
125,108	149,745	-0,155	-0,147
126,122	140,144	-0,296	-0,272
127,137	355,871	-0,192	-0,268
128,151	-91,963	-0,311	-0,061
129,166	-27,393	-0,324	-0,131
130,181	-46,192	-0,186	-0,064
131,195	-17,083	-0,366	-0,161
132,210	21,650	-0,229	-0,130
133,224	151,840	-0,192	-0,183
134,239	19,205	-0,169	-0,094
135,254	-70,747	-0,221	-0,058
136,268	-105,322	-0,326	-0,051
137,283	46,653	-0,224	-0,144
138,297	52,273	-0,264	-0,175
139,312	226,191	-0,216	-0,245
140,327	267,730	-0,281	-0,344
141,341	57,156	-0,302	-0,205
142,356	-6,433	-0,302	-0,143
143,370	-129,919	-0,282	-0,027
144,385	139,445	-0,200	-0,183
145,400	57,556	-0,328	-0,223
146,414	-17,052	-0,393	-0,172
147,429	184,868	-0,225	-0,233
148,443	87,198	-0,272	-0,210
149,458	235,228	-0,205	-0,236
150,473	-39,371	-0,328	-0,119
151,487	97,232	-0,198	-0,158
152,502	168,851	-0,269	-0,268
153,516	159,154	-0,234	-0,227
154,531	-200,000	-0,077	-0,257
155,546	286,133	-0,134	-0,168
156,560	-23,415	-0,269	-0,112
157,575	-91,838	-0,348	-0,068
158,589	-200,000	-0,053	-0,229
159,604	306,727	-0,258	-0,335
160,619	491,872	-0,190	-0,304
161,633	222,114	-0,176	-0,197
162,648	-3,660	-0,230	-0,111
163,662	346,547	-0,121	-0,166
164,677	129,985	-0,254	-0,226
165,692	-0,775	-0,257	-0,126
166,706	105,479	-0,213	-0,175
167,721	215,064	-0,172	-0,190
168,735	81,922	-0,252	-0,190
169,750	115,542	-0,114	-0,097
170,764	6,997	-0,072	-0,037
171,779	213,210	-0,181	-0,199
172,794	22,267	-0,211	-0,120
173,808	-68,118	-0,205	-0,055
174,823	-22,827	-0,327	-0,136
175,837	53,757	-0,204	-0,136
176,852	214,168	-0,315	-0,347
177,867	66,484	-0,241	-0,170
178,881	-113,816	-0,177	-0,024
179,896	-151,158	-0,171	-0,009
180,910	-99,058	-0,265	-0,046
181,925	482,365	-0,171	-0,271
182,940	129,592	-0,186	-0,165
183,954	335,804	-0,148	-0,199
184,969	70,096	-0,218	-0,156
185,983	9,666	-0,321	-0,168
186,998	329,373	-0,133	-0,178
188,013	17,835	-0,181	-0,099
189,027	519,234	-0,139	-0,226
190,042	257,502	-0,231	-0,277
191,056	800,000	-0,107	-0,290
192,071	-59,055	-0,167	-0,050
193,086	-200,000	-0,040	-0,217
194,100	50,510	-0,231	-0,151
195,115	378,037	-0,084	-0,120
196,129	431,548	-0,171	-0,257
197,144	-73,286	-0,207	-0,052
198,159	55,833	-0,192	-0,129
199,173	71,230	-0,125	-0,090
200,188	367,565	-0,157	-0,220
201,202	-79,840	-0,171	-0,040
202,217	58,251	-0,234	-0,158
203,232	55,534	-0,241	-0,161
204,246	191,216	-0,177	-0,185
205,261	14,379	-0,322	-0,173
206,275	-35,104	-0,320	-0,120
207,290	77,281	-0,128	-0,094
208,304	-109,284	-0,235	0,034
209,319	42,409	-0,106	-0,066
210,334	15,476	-0,287	-0,156
211,348	156,766	-0,121	-0,116
212,363	619,218	-0,099	-0,173
213,377	240,416	-0,124	-0,143
214,392	52,075	-0,225	-0,148
215,407	-200,000	0,016	-0,088
216,421	5,820	-0,138	-0,070
217,436	36,612	-0,211	-0,129
218,450	-20,527	-0,400	-0,169
219,465	181,196	-0,126	-0,128
220,480	-12,905	-0,265	-0,119
221,494	-200,000	-0,071	-0,303
222,509	70,061	-0,125	-0,089
223,523	595,081	-0,154	-0,265
224,538	86,491	-0,166	-0,127
225,553	229,709	-0,154	-0,174
226,567	-119,237	-0,282	0,034
227,582	619,647	-0,131	-0,229
228,596	437,965	-0,186	-0,281
229,611	382,926	-0,043	-0,062
230,626	-73,083	-0,125	-0,031
231,640	290,553	-0,096	-0,120
232,655	-128,066	-0,276	-0,027
233,669	225,620	-0,234	-0,262
234,684	-50,938	-0,154	0,050
235,699	298,650	-0,198	-0,252
236,713	104,325	-0,172	-0,140
237,728	568,052	-0,105	-0,176
238,742	63,168	-0,279	-0,193
239,757	285,572	-0,181	-0,226
240,772	38,046	-0,298	-0,183
241,786	42,036	-0,131	-0,082
242,801	800,000	-0,088	-0,205
243,815	126,604	-0,122	-0,106
244,830	-29,992	-0,194	-0,076
245,844	-59,121	-0,196	-0,058
246,859	28,141	-0,184	-0,107
247,874	-9,098	-0,209	-0,096
248,888	196,565	-0,128	-0,134
249,903	800,000	-0,105	-0,220
250,917	124,540	-0,176	-0,153
251,932	0,721	-0,238	-0,117
252,947	246,827	-0,073	-0,085
253,961	-25,172	-0,206	-0,084
254,976	-10,320	-0,195	-0,089
255,990	289,487	-0,208	-0,260
257,005	-200,000	0,013	-0,129
258,020	69,434	-0,154	-0,109
259,034	-45,514	-0,159	-0,054
260,049	-165,459	-0,201	-0,006
261,063	65,740	-0,100	-0,070
262,078	13,905	-0,177	-0,095
263,093	289,670	-0,142	-0,178
264,107	80,422	-0,107	-0,080
265,122	77,442	-0,240	-0,176
266,136	-39,882	-0,006	-0,002
267,151	-101,240	-0,139	0,023
268,166	454,705	-0,088	-0,135
269,180	389,941	-0,151	-0,217
270,195	800,000	-0,081	-0,236
271,209	32,655	-0,189	-0,113
272,224	58,401	-0,152	-0,102
273,239	-79,511	-0,212	0,049
274,253	54,754	-0,113	-0,075
275,268	-192,378	-0,169	0,001
276,282	668,969	-0,121	-0,217
277,297	287,812	-0,083	-0,103
278,312	66,200	-0,137	-0,095
279,326	111,023	-0,145	-0,120
280,341	152,165	-0,167	-0,157
281,355	117,372	-0,140	-0,119
282,370	-35,414	-0,144	-0,054
283,384	595,203	-0,110	-0,188
284,399	-38,938	-0,201	-0,073
285,414	-200,000	-0,008	-0,074
286,428	-143,895	-0,201	-0,013
287,443	-46,641	-0,207	-0,069
288,457	62,455	-0,135	-0,093
289,472	138,195	-0,076	-0,069
290,487	489,418	-0,071	-0,111
291,501	-18,790	-0,174	-0,074
292,516	-107,433	-0,267	-0,040
293,530	-0,713	-0,207	-0,100
294,545	-200,000	-0,028	-0,143
295,560	-66,409	-0,165	-0,045
296,574	133,933	-0,121	-0,108
297,589	118,650	-0,185	-0,157
298,603	800,000	-0,071	-0,149
299,618	-111,387	-0,214	-0,030
300,633	45,116	-0,099	-0,063
301,647	91,965	-0,099	-0,076
302,662	676,899	0,020	-0,035
303,676	168,967	-0,151	-0,148
304,691	185,440	-0,099	-0,101
305,706	-49,302	-0,213	-0,069
306,720	703,511	-0,103	-0,187
307,735	333,554	-0,054	-0,072
308,749	67,717	-0,135	-0,095
309,764	-123,686	-0,140	-0,015
310,779	296,008	-0,158	-0,199
311,793	-0,854	-0,081	-0,039
312,808	-9,046	-0,104	-0,048
313,822	50,981	-0,212	-0,138
314,837	43,811	-0,152	-0,095
315,852	298,459	-0,105	-0,133
316,866	195,360	-0,081	-0,085
317,881	-200,000	-0,091	-0,294
318,895	169,180	-0,194	-0,191
319,910	-200,000	-0,002	-0,085
320,925	74,818	-0,113	-0,081
321,939	800,000	-0,131	-0,261
322,954	121,362	-0,129	-0,110
323,968	-46,871	-0,079	0,026
324,983	800,000	-0,066	-0,135
325,997	12,763	-0,087	-0,046
327,012	241,592	-0,119	-0,137
328,027	86,809	-0,101	-0,077
329,041	146,384	-0,150	-0,138
330,056	271,167	-0,062	-0,075
331,070	52,933	-0,086	-0,056
332,085	46,621	-0,141	-0,089
333,100	-7,301	-0,099	-0,046
334,114	36,240	-0,186	-0,112
335,129	120,544	-0,110	-0,093
336,143	-200,000	-0,095	-0,334
337,158	727,736	0,020	-0,036
338,173	-76,516	-0,142	0,034
339,187	-143,896	-0,165	-0,010
340,202	246,706	-0,137	-0,159
341,216	800,000	-0,089	-0,200
342,231	96,373	-0,151	-0,118
343,246	800,000	-0,090	-0,245
344,260	-75,814	-0,098	-0,024
345,275	79,274	-0,240	-0,176
346,289	-98,725	-0,134	-0,023
347,304	-67,151	-0,136	-0,036
348,319	800,000	-0,055	-0,144
349,333	34,429	-0,206	-0,123
350,348	786,985	-0,118	-0,222
351,362	-200,000	-0,040	-0,134
352,377	-16,325	-0,098	0,042
353,392	28,417	0,064	0,037
354,406	-200,000	-0,032	0,109
355,421	208,037	1309,841	1401,280
356,435	160,061	1469,921	1401,735
