DTS Sentinel unit serial number:	SN410029Multiplexer serial number:	ORYXHardware model number:	OX2-SRSoftware version number:	ORYX F/W v4,00 Oryx Data Collector v3.7.2.0data status	okinstallation	B3 Nyhavnadifferential loss correction	single-endedforward channel	channel 1reverse channel	N/Adate	2023/11/29time	18:27:30forward acquisition time	300,00reverse acquisition time	0,00gamma	499,1914k internal	0,3209k external	0,3209temperature offset calibration	1,0000default loss term (dB/km)	0,3820temperature slope calibration	1,0000multiplexer offset coefficient	1,0000multiplexer slope coefficient	1,0000fibre end	0,00T internal ref (°C)	11,13T ext. ref 1 (°C)	-4,14T ext. ref 2 (°C)	-4,26length (m)	temperature (°C)	Stokes	anti-Stokes-744,400	151,076	-0,243	-0,240
-743,385	-200,000	-0,034	0,269
-742,371	148,976	-0,130	-0,128
-741,356	53,589	0,203	0,141
-740,342	-200,000	0,011	-0,234
-739,327	199,622	-0,120	0,133
-738,312	403,694	-0,253	-0,388
-737,298	800,000	-0,163	0,357
-736,283	5,300	-0,306	-0,163
-735,269	-200,000	0,002	0,295
-734,254	189,495	-0,134	-0,146
-733,239	-127,423	-0,307	0,032
-732,225	224,302	-0,175	-0,206
-731,210	77,121	0,085	0,066
-730,196	-137,234	0,078	0,006
-729,181	-49,116	0,039	0,013
-728,167	-95,425	-0,029	0,006
-727,152	248,521	-0,079	0,097
-726,137	20,812	0,065	0,038
-725,123	42,007	-0,105	-0,069
-724,108	800,000	0,019	-0,052
-723,094	-200,000	-0,058	-0,198
-722,079	800,000	-0,058	-0,133
-721,064	-20,274	0,138	-0,062
-720,050	692,215	0,082	-0,156
-719,035	-3,186	-0,067	-0,034
-718,021	50,889	0,048	-0,033
-717,006	25,586	-0,191	-0,115
-715,991	-200,000	-0,018	-0,109
-714,977	225,371	-0,021	-0,024
-713,962	-136,923	0,036	-0,003
-712,948	-75,423	0,146	-0,037
-711,933	599,069	0,007	0,013
-710,918	-200,000	-0,015	-0,117
-709,904	-92,550	-0,088	0,018
-708,889	-43,739	-0,085	-0,031
-707,875	-200,000	-0,001	-0,039
-706,860	207,923	0,032	-0,036
-705,845	69,771	0,059	0,044
-704,831	-124,793	-0,082	0,009
-703,816	-200,000	-0,023	0,139
-702,802	-200,000	0,002	0,076
-701,787	73,408	0,031	-0,024
-700,772	-34,657	-0,076	-0,030
-699,758	-200,000	-0,011	-0,042
-698,743	585,874	0,059	0,105
-697,729	38,530	0,105	0,068
-696,714	-200,000	0,003	0,012
-695,699	-94,860	-0,093	-0,018
-694,685	-29,115	-0,040	-0,017
-693,670	-31,710	0,032	-0,013
-692,656	341,101	0,009	0,013
-691,641	-200,000	0,000	0,058
-690,627	-200,000	-0,029	0,197
-689,612	412,487	0,059	0,091
-688,597	-108,050	-0,198	0,031
-687,583	283,641	0,066	0,086
-686,568	301,803	-0,034	0,046
-685,554	-4,058	-0,012	-0,006
-684,539	-200,000	-0,028	-0,106
-683,524	-85,221	0,117	0,026
-682,510	-200,000	-0,048	0,166
-681,495	220,998	-0,028	0,033
-680,481	213,621	-0,022	0,025
-679,466	-200,000	0,017	-0,109
-678,451	800,000	-0,049	-0,113
-677,437	126,208	0,037	0,034
-676,422	59,203	0,167	0,119
-675,408	800,000	-0,030	0,080
-674,393	-200,000	0,016	-0,112
-673,378	-67,134	-0,221	0,063
-672,364	-152,662	-0,083	-0,004
-671,349	-200,000	-0,027	-0,108
-670,335	-200,000	-0,002	0,052
-669,320	26,626	-0,063	-0,038
-668,305	-200,000	0,004	0,032
-667,291	170,995	0,054	0,056
-666,276	-146,031	-0,098	0,006
-665,262	-200,000	0,000	-0,011
-664,247	125,000	-0,059	0,054
-663,232	-112,610	0,152	-0,022
-662,218	-20,292	-0,041	0,018
-661,203	307,577	-0,045	-0,061
-660,189	-200,000	-0,017	-0,056
-659,174	74,758	-0,031	-0,024
-658,159	488,298	0,012	-0,019
-657,145	106,153	-0,110	-0,094
-656,130	100,792	0,040	-0,034
-655,116	-200,000	0,014	0,079
-654,101	1,798	-0,040	-0,021
-653,086	-200,000	-0,018	-0,156
-652,072	470,285	0,018	-0,029
-651,057	349,607	-0,137	-0,196
-650,043	159,691	-0,051	0,051
-649,028	-76,163	-0,126	0,032
-648,014	-146,812	0,042	-0,003
-646,999	-200,000	-0,008	0,047
-645,984	-114,766	-0,142	-0,019
-644,970	-121,295	-0,140	0,017
-643,955	115,177	-0,086	-0,076
-642,941	505,403	0,025	-0,042
-641,926	-11,123	-0,104	0,049
-640,911	-66,999	-0,122	0,035
-639,897	166,966	0,019	0,019
-638,882	-10,488	0,098	0,047
-637,868	111,033	-0,098	0,086
-636,853	-47,377	-0,066	0,023
-635,838	-154,221	-0,074	-0,004
-634,824	121,466	-0,033	-0,029
-633,809	-13,953	0,080	-0,037
-632,795	-200,000	0,000	-0,060
-631,780	473,848	-0,046	0,075
-630,765	218,745	0,020	-0,023
-629,751	-49,422	-0,191	-0,065
-628,736	-200,000	0,003	-0,017
-627,722	-58,219	-0,103	0,032
-626,707	-52,337	-0,083	-0,028
-625,692	94,394	-0,066	-0,054
-624,678	50,304	0,037	0,025
-623,663	147,329	0,183	-0,178
-622,649	-66,720	-0,044	-0,012
-621,634	191,111	-0,108	-0,117
-620,619	451,742	0,011	0,018
-619,605	-200,000	-0,006	0,038
-618,590	-55,259	0,132	-0,042
-617,576	38,086	0,025	0,016
-616,561	-200,000	0,002	-0,050
-615,546	-59,463	-0,015	-0,005
-614,532	-200,000	0,000	0,037
-613,517	505,765	0,023	-0,039
-612,503	251,724	-0,074	0,091
-611,488	-98,452	0,202	-0,037
-610,474	39,286	-0,038	0,025
-609,459	-119,849	-0,221	-0,027
-608,444	-200,000	0,023	0,099
-607,430	-125,795	-0,136	-0,015
-606,415	208,592	0,081	-0,092
-605,401	140,529	0,118	-0,113
-604,386	-121,191	-0,102	0,012
-603,371	377,156	0,033	0,049
-602,357	55,646	-0,119	0,083
-601,342	800,000	0,014	0,041
-600,328	225,942	-0,084	-0,098
-599,313	-56,139	-0,063	0,020
-598,298	-171,967	0,122	0,003
-597,284	87,883	-0,100	-0,080
-596,269	17,357	0,024	-0,014
-595,255	523,520	0,057	0,097
-594,240	-200,000	0,016	0,064
-593,225	55,379	-0,094	-0,066
-592,211	-97,678	0,034	-0,006
-591,196	-200,000	0,007	0,148
-590,182	615,810	0,074	0,135
-589,167	30,457	0,044	-0,027
-588,152	-134,440	-0,099	0,009
-587,138	800,000	-0,035	-0,098
-586,123	-28,970	-0,167	0,069
-585,109	119,738	-0,077	0,068
-584,094	-21,351	-0,181	-0,079
-583,079	351,597	-0,022	-0,031
-582,065	-62,160	0,096	0,029
-581,050	748,668	-0,058	0,112
-580,036	800,000	-0,030	-0,089
-579,021	9,181	0,041	0,022
-578,006	-200,000	0,019	-0,100
-576,992	800,000	-0,033	0,077
-575,977	-142,345	-0,164	-0,011
-574,963	282,639	0,056	-0,072
-573,948	-200,000	0,069	0,226
-572,934	-200,000	-0,028	0,101
-571,919	800,000	-0,006	-0,014
-570,904	-200,000	0,011	-0,185
-569,890	-200,000	0,028	-0,134
-568,875	800,000	-0,044	-0,090
-567,861	-200,000	-0,005	-0,034
-566,846	242,798	0,082	-0,099
-565,831	-200,000	-0,003	-0,097
-564,817	-27,396	-0,210	0,088
-563,802	-38,963	-0,159	-0,060
-562,788	800,000	0,043	-0,121
-561,773	800,000	0,024	-0,058
-560,758	19,119	-0,075	-0,043
-559,744	8,064	0,058	0,031
-558,729	55,388	-0,100	-0,069
-557,715	-35,797	-0,157	-0,061
-556,700	357,244	0,037	0,054
-555,685	-200,000	0,006	0,054
-554,671	-200,000	0,042	0,184
-553,656	1,448	-0,067	-0,034
-552,642	-200,000	-0,002	-0,120
-551,627	412,949	0,020	-0,031
-550,612	498,442	0,088	-0,147
-549,598	25,908	0,164	-0,098
-548,583	256,874	0,033	-0,041
-547,569	58,814	0,035	-0,024
-546,554	108,869	-0,055	-0,047
-545,539	200,175	-0,037	-0,041
-544,525	350,253	-0,036	-0,051
-543,510	-200,000	0,004	-0,026
-542,496	565,824	-0,066	-0,117
-541,481	-200,000	-0,056	-0,200
-540,466	800,000	-0,033	-0,097
-539,452	-200,000	-0,019	-0,085
-538,437	465,367	0,041	-0,066
-537,423	-200,000	-0,005	0,069
-536,408	-74,367	-0,118	-0,030
-535,393	73,805	0,097	0,073
-534,379	414,364	-0,046	0,070
-533,364	118,095	0,029	-0,026
-532,350	-200,000	0,006	-0,088
-531,335	-128,333	0,016	0,002
-530,321	-200,000	0,013	0,073
-529,306	800,000	-0,039	-0,116
-528,291	131,897	-0,039	-0,036
-527,277	22,743	0,019	-0,011
-526,262	4,169	-0,055	0,029
-525,248	169,428	0,081	-0,084
-524,233	741,050	-0,044	0,086
-523,218	33,714	0,055	-0,034
-522,204	-171,762	-0,089	-0,002
-521,189	-93,690	-0,090	-0,018
-520,175	182,982	0,023	-0,025
-519,160	-200,000	-0,003	-0,166
-518,145	-200,000	0,028	-0,090
-517,131	70,528	0,068	0,050
-516,116	292,113	-0,002	-0,003
-515,102	584,671	-0,016	-0,029
-514,087	599,723	-0,069	-0,124
-513,072	-4,865	-0,079	-0,039
-512,058	-139,154	0,054	0,004
-511,043	429,188	0,059	-0,093
-510,029	110,735	-0,101	0,087
-509,014	224,657	0,059	0,068
-507,999	592,861	0,085	0,152
-506,985	-67,326	0,079	-0,022
-505,970	-54,762	-0,067	0,021
-504,956	-200,000	0,007	-0,083
-503,941	136,386	-0,032	-0,030
-502,926	-200,000	-0,036	-0,122
-501,912	800,000	0,030	0,066
-500,897	122,739	-0,068	-0,061
-499,883	-200,000	-0,025	-0,087
-498,868	260,916	-0,035	-0,043
-497,853	27,431	0,046	-0,028
-496,839	361,945	0,053	-0,077
-495,824	139,671	-0,058	-0,055
-494,810	-76,481	0,085	0,021
-493,795	47,723	0,054	0,036
-492,781	800,000	-0,029	-0,075
-491,766	800,000	-0,036	-0,096
-490,751	-107,349	-0,093	-0,014
-489,737	-69,084	-0,030	0,008
-488,722	150,152	0,069	-0,067
-487,708	800,000	-0,033	0,076
-486,693	800,000	0,085	0,232
-485,678	38,078	-0,028	0,018
-484,664	327,285	0,044	0,061
-483,649	29,651	-0,044	0,027
-482,635	800,000	0,024	0,050
-481,620	-200,000	0,007	0,096
-480,605	31,897	0,062	0,038
-479,591	120,233	-0,105	0,093
-478,576	482,093	-0,018	0,029
-477,562	312,937	-0,056	0,075
-476,547	150,541	-0,063	0,061
-475,532	92,297	0,003	0,002
-474,518	31,825	-0,034	0,021
-473,503	87,272	-0,017	-0,014
-472,489	-200,000	0,010	0,089
-471,474	17,109	-0,061	-0,035
-470,459	225,047	0,091	-0,106
-469,445	-131,919	-0,053	0,005
-468,430	-200,000	0,008	-0,061
-467,416	-200,000	0,049	-0,219
-466,401	259,769	0,038	0,048
-465,386	132,495	0,091	0,084
-464,372	73,705	0,046	0,034
-463,357	139,525	0,013	-0,012
-462,343	-46,696	-0,026	0,009
-461,328	-200,000	-0,004	0,121
-460,313	-27,311	0,167	-0,070
-459,299	172,559	-0,040	0,041
-458,284	-200,000	-0,002	-0,112
-457,270	-122,770	0,140	0,016
-456,255	800,000	-0,056	-0,133
-455,241	-200,000	0,018	0,087
-454,226	171,081	-0,044	-0,045
-453,211	35,773	0,088	-0,056
-452,197	800,000	0,049	-0,116
-451,182	-101,590	-0,100	-0,017
-450,168	-18,952	0,113	0,050
-449,153	-69,475	-0,056	-0,015
-448,138	151,524	0,009	0,009
-447,124	-200,000	-0,008	-0,148
-446,109	-57,468	0,091	0,029
-445,095	-200,000	-0,015	0,098
-444,080	800,000	-0,076	0,187
-443,065	-29,328	0,144	-0,059
-442,051	-200,000	0,028	0,170
-441,036	83,514	-0,038	0,029
-440,022	283,670	-0,099	-0,128
-439,007	800,000	0,034	0,100
-437,992	-200,000	0,030	0,095
-436,978	0,181	-0,036	0,018
-435,963	170,021	0,096	0,098
-434,949	214,569	0,020	0,023
-433,934	509,671	-0,035	-0,059
-432,919	-200,000	-0,012	-0,071
-431,905	45,944	0,075	-0,049
-430,890	517,092	0,059	0,100
-429,876	134,498	0,023	-0,021
-428,861	-47,398	0,023	-0,008
-427,846	800,000	0,044	-0,113
-426,832	68,406	0,032	0,023
-425,817	754,401	0,042	-0,081
-424,803	-200,000	0,005	-0,046
-423,788	35,924	0,067	0,042
-422,773	-110,313	0,092	0,013
-421,759	-102,351	-0,164	0,028
-420,744	-21,854	0,107	-0,047
-419,730	800,000	-0,025	-0,077
-418,715	33,294	0,063	-0,039
-417,701	-200,000	-0,070	0,252
-416,686	243,053	0,087	0,104
-415,671	-1,225	0,062	0,031
-414,657	4,672	0,110	-0,058
-413,642	58,588	0,066	0,046
-412,628	800,000	0,030	0,071
-411,613	-61,500	-0,071	-0,021
-410,598	-2,848	0,016	-0,008
-409,584	800,000	-0,014	0,040
-408,569	-53,007	-0,052	0,017
-407,555	127,865	0,041	0,037
-406,540	-200,000	-0,000	0,031
-405,525	-22,200	-0,068	-0,029
-404,511	25,173	-0,027	0,016
-403,496	51,950	-0,022	0,015
-402,482	-29,895	0,058	0,023
-401,467	800,000	0,018	0,037
-400,452	571,373	-0,089	0,157
-399,438	249,475	0,102	-0,124
-398,423	445,256	0,064	-0,101
-397,409	-183,562	-0,108	-0,001
-396,394	-144,438	-0,071	0,005
-395,379	267,417	0,052	0,065
-394,365	800,000	0,040	-0,102
-393,350	-200,000	-0,019	-0,065
-392,336	-101,972	0,113	0,019
-391,321	29,167	-0,068	-0,041
-390,306	800,000	-0,052	-0,133
-389,292	54,209	0,119	0,082
-388,277	565,307	-0,088	0,153
-387,263	-200,000	0,029	0,095
-386,248	-200,000	0,007	0,067
-385,233	604,237	-0,020	0,036
-384,219	-200,000	0,011	-0,068
-383,204	-55,373	-0,096	-0,031
-382,190	107,216	0,025	-0,021
-381,175	95,054	0,004	-0,003
-380,160	348,112	0,064	0,090
-379,146	800,000	0,009	0,019
-378,131	-86,470	0,064	-0,014
-377,117	-67,113	-0,102	-0,029
-376,102	-200,000	0,016	-0,070
-375,088	-49,494	0,054	-0,018
-374,073	-129,760	0,072	-0,007
-373,058	-117,639	0,021	0,003
-372,044	-91,743	0,156	0,031
-371,029	-200,000	0,018	0,187
-370,015	-200,000	0,080	-0,279
-369,000	-23,873	-0,137	-0,058
-367,985	-106,087	-0,093	-0,015
-366,971	-60,325	0,123	-0,037
-365,956	85,109	0,129	0,101
-364,942	800,000	-0,033	0,079
-363,927	-146,257	0,087	0,005
-362,912	124,220	-0,052	0,047
-361,898	356,633	-0,052	-0,074
-360,883	800,000	-0,010	0,028
-359,869	-76,755	0,090	-0,022
-358,854	-71,017	0,045	-0,012
-357,839	531,822	0,021	-0,036
-356,825	-40,474	-0,101	0,037
-355,810	107,112	0,032	-0,028
-354,796	141,227	-0,068	0,064
-353,781	793,581	0,012	-0,025
-352,766	-200,000	0,002	0,096
-351,752	800,000	-0,015	-0,044
-350,737	-86,328	0,043	0,009
-349,723	-197,664	0,050	0,000
-348,708	37,678	0,129	0,082
-347,693	253,278	-0,038	-0,047
-346,679	372,417	-0,119	-0,173
-345,664	-76,307	0,031	-0,008
-344,650	-59,921	0,104	0,031
-343,635	-90,638	0,083	-0,017
-342,620	37,759	0,041	-0,026
-341,606	-200,000	0,023	0,089
-340,591	-116,554	-0,060	0,008
-339,577	238,601	0,071	-0,085
-338,562	800,000	0,012	-0,034
-337,548	-200,000	-0,014	0,090
-336,533	53,467	-0,071	0,049
-335,518	45,866	-0,079	0,052
-334,504	78,026	0,085	0,065
-333,489	145,253	0,006	-0,006
-332,475	27,704	-0,096	-0,058
-331,460	-200,000	0,001	-0,036
-330,445	183,448	-0,058	-0,061
-329,431	134,378	0,057	-0,053
-328,416	-112,579	-0,085	-0,012
-327,402	-200,000	-0,001	0,102
-326,387	212,029	0,016	0,018
-325,372	642,229	-0,057	0,104
-324,358	-25,578	0,031	-0,013
-323,343	-200,000	-0,027	0,153
-322,329	-200,000	0,020	0,115
-321,314	114,781	0,123	0,107
-320,299	-49,087	-0,052	0,017
-319,285	47,307	0,089	0,059
-318,270	-200,000	0,043	-0,226
-317,256	-72,127	0,143	0,038
-316,241	-0,048	-0,042	-0,021
-315,226	-113,721	0,022	0,003
-314,212	-200,000	0,017	0,135
-313,197	-20,996	0,077	-0,033
-312,183	79,301	-0,034	-0,026
-311,168	800,000	-0,046	-0,122
-310,153	800,000	-0,025	-0,053
-309,139	-200,000	0,003	-0,100
-308,124	800,000	0,021	-0,055
-307,110	800,000	0,028	-0,070
-306,095	549,402	0,052	-0,089
-305,080	116,791	0,046	0,040
-304,066	94,683	-0,025	-0,020
-303,051	800,000	-0,019	-0,046
-302,037	41,702	0,107	-0,069
-301,022	277,345	0,043	-0,055
-300,008	-100,534	0,070	0,012
-298,993	135,774	0,034	0,032
-297,978	-96,299	-0,106	0,020
-296,964	-78,472	-0,054	-0,013
-295,949	-92,975	-0,029	-0,006
-294,935	-200,000	0,014	-0,085
-293,920	157,084	-0,017	0,017
-292,905	800,000	0,047	0,103
-291,891	179,475	0,092	0,096
-290,876	128,589	-0,075	0,068
-289,862	800,000	-0,020	-0,047
-288,847	153,935	-0,085	-0,083
-287,832	13,041	0,051	0,028
-286,818	-86,265	-0,047	-0,010
-285,803	-55,688	0,093	-0,030
-284,789	-200,000	-0,036	0,172
-283,774	-143,580	0,108	0,007
-282,759	168,422	0,066	-0,067
-281,745	-200,000	0,016	-0,172
-280,730	-9,948	0,057	0,027
-279,716	27,613	-0,062	-0,037
-278,701	-110,520	0,136	0,020
-277,686	-59,636	0,174	-0,053
-276,672	-63,549	0,036	-0,010
-275,657	52,286	0,022	0,015
-274,643	355,100	0,071	-0,101
-273,628	-38,358	0,129	-0,048
-272,613	800,000	-0,028	-0,057
-271,599	507,352	-0,042	-0,070
-270,584	-200,000	0,008	0,049
-269,570	-200,000	-0,016	0,205
-268,555	800,000	0,036	0,092
-267,540	-62,196	-0,163	0,048
-266,526	-102,277	-0,043	0,007
-265,511	423,904	-0,079	-0,121
-264,497	-138,441	-0,063	-0,005
-263,482	-200,000	-0,014	0,111
-262,467	800,000	0,021	0,047
-261,453	800,000	-0,032	0,082
-260,438	297,209	0,058	0,076
-259,424	70,865	-0,045	0,033
-258,409	-111,344	-0,114	0,016
-257,395	686,654	0,024	-0,046
-256,380	-60,430	0,227	0,068
-255,365	377,752	-0,074	0,108
-254,351	-104,123	0,146	-0,024
-253,336	252,062	-0,041	-0,049
-252,322	-200,000	0,016	-0,159
-251,307	800,000	-0,021	-0,061
-250,292	43,747	0,098	-0,064
-249,278	203,235	0,065	-0,071
-248,263	348,209	0,009	0,013
-247,249	800,000	0,047	0,104
-246,234	-200,000	0,012	0,090
-245,219	-64,689	-0,081	-0,023
-244,205	184,150	-0,132	-0,139
-243,190	-127,869	0,063	-0,006
-242,176	800,000	-0,076	0,156
-241,161	-200,000	0,001	-0,013
-240,146	270,533	0,084	-0,105
-239,132	800,000	-0,025	0,061
-238,117	87,308	0,018	0,014
-237,103	-79,705	0,068	-0,016
-236,088	242,068	-0,017	-0,020
-235,073	105,362	0,040	0,033
-234,059	121,122	0,028	0,025
-233,044	16,584	-0,036	-0,020
-232,030	-2,917	0,101	-0,050
-231,015	-200,000	0,001	0,006
-230,000	-200,000	-0,125	-0,000
-228,986	112,069	0,042	0,036
-227,971	147,109	0,099	0,095
-226,957	572,954	0,093	0,163
-225,942	576,353	-0,041	-0,071
-224,927	420,110	0,010	-0,016
-223,913	-200,000	-0,004	-0,088
-222,898	672,450	0,026	0,048
-221,884	284,494	0,088	-0,113
-220,869	653,666	-0,052	-0,095
-219,855	-200,000	0,017	0,085
-218,840	-200,000	-0,001	0,056
-217,825	-33,723	0,024	0,009
-216,811	-200,000	-0,004	0,069
-215,796	151,701	-0,162	0,157
-214,782	135,728	0,107	-0,099
-213,767	516,040	-0,043	0,072
-212,752	227,761	0,039	0,045
-211,738	74,683	-0,128	0,096
-210,723	-75,981	-0,157	0,039
-209,709	600,955	-0,023	-0,041
-208,694	-200,000	-0,004	0,084
-207,679	-179,494	-0,121	0,002
-206,665	-200,000	0,003	-0,026
-205,650	-200,000	0,001	0,135
-204,636	127,897	-0,107	0,097
-203,621	-180,363	0,038	-0,001
-202,606	129,336	-0,120	-0,109
-201,592	-73,283	0,130	-0,034
-200,577	22,137	0,059	0,034
-199,563	15,026	0,038	-0,021
-198,548	-156,229	0,062	-0,003
-197,533	119,751	-0,078	-0,069
-196,519	-200,000	-0,020	0,110
-195,504	85,022	-0,045	0,035
-194,490	-109,500	-0,143	0,021
-193,475	-11,865	-0,086	0,040
-192,460	-49,358	0,084	-0,028
-191,446	-65,480	-0,053	0,015
-190,431	-200,000	-0,010	0,035
-189,417	100,039	0,081	0,067
-188,402	61,403	0,146	-0,103
-187,387	800,000	-0,044	-0,100
-186,373	-172,669	0,119	0,003
-185,358	-74,070	0,069	0,017
-184,344	-62,435	0,066	0,019
-183,329	69,592	-0,088	0,064
-182,315	-81,102	0,120	0,028
-181,300	-57,239	-0,090	0,028
-180,285	-137,886	-0,152	-0,012
-179,271	172,517	0,052	-0,053
-178,256	-200,000	-0,003	-0,028
-177,242	274,826	-0,105	-0,132
-176,227	-65,516	0,120	0,034
-175,212	800,000	-0,015	0,035
-174,198	-200,000	-0,019	0,083
-173,183	-200,000	0,003	-0,155
-172,169	800,000	0,029	-0,076
-171,154	-101,629	0,011	0,002
-170,139	-200,000	-0,006	-0,135
-169,125	-200,000	-0,009	0,160
-168,110	9,276	-0,124	0,066
-167,096	55,877	-0,071	0,049
-166,081	43,360	-0,077	0,050
-165,066	9,408	-0,062	-0,033
-164,052	173,400	-0,058	0,060
-163,037	204,240	0,053	0,059
-162,023	-200,000	0,022	0,087
-161,008	-200,000	0,006	0,086
-159,993	-200,000	0,009	0,066
-158,979	-200,000	-0,004	0,138
-157,964	800,000	0,004	-0,012
-156,950	130,368	-0,102	0,093
-155,935	218,998	0,082	0,093
-154,920	231,301	0,023	0,027
-153,906	800,000	-0,029	0,071
-152,891	37,763	0,142	0,089
-151,877	-200,000	-0,005	0,041
-150,862	137,869	-0,129	-0,120
-149,847	-200,000	0,007	0,026
-148,833	-140,046	0,106	0,008
-147,818	-183,913	0,056	-0,001
-146,804	-15,091	-0,092	0,042
-145,789	-200,000	0,017	0,089
-144,775	-200,000	-0,031	-0,114
-143,760	-200,000	0,010	0,057
-142,745	201,851	-0,072	-0,079
-141,731	-123,843	0,126	-0,014
-140,716	-200,000	-0,028	0,103
-139,702	514,468	0,029	0,049
-138,687	800,000	0,019	-0,047
-137,672	-28,583	-0,074	0,030
-136,658	-200,000	-0,036	-0,137
-135,643	-200,000	0,028	-0,098
-134,629	-200,000	-0,004	-0,055
-133,614	53,212	0,084	-0,057
-132,599	-200,000	0,026	0,083
-131,585	-92,879	0,112	0,022
-130,570	-125,870	-0,114	-0,012
-129,556	376,358	0,006	0,009
-128,541	800,000	0,032	-0,075
-127,526	-200,000	0,037	0,142
-126,512	-117,915	0,168	-0,021
-125,497	800,000	-0,041	-0,107
-124,483	-164,991	0,101	0,003
-123,468	-108,712	0,162	0,024
-122,453	-94,385	-0,078	0,015
-121,439	276,633	0,056	-0,071
-120,424	-200,000	-0,039	-0,207
-119,410	177,359	-0,084	0,086
-118,395	-29,463	0,110	-0,044
-117,380	-200,000	0,004	-0,154
-116,366	775,922	-0,034	0,066
-115,351	800,000	-0,051	0,119
-114,337	270,728	-0,058	0,072
-113,322	800,000	0,054	-0,109
-112,307	-124,405	-0,143	-0,016
-111,293	165,510	0,089	-0,090
-110,278	-41,296	-0,091	-0,033
-109,264	130,810	0,042	0,038
-108,249	-84,720	-0,294	-0,065
-107,234	-39,817	-0,092	-0,034
-106,220	-200,000	-0,000	-0,031
-105,205	800,000	0,015	0,038
-104,191	195,759	-0,061	-0,065
-103,176	319,793	0,089	0,119
-102,162	-200,000	0,022	-0,115
-101,147	800,000	-0,044	0,094
-100,132	-200,000	0,009	0,068
-99,118	-200,000	0,024	-0,129
-98,103	-24,166	-0,064	0,027
-97,089	0,052	0,159	0,080
-96,074	26,124	0,089	0,053
-95,059	-128,626	-0,132	0,013
-94,045	-200,000	0,009	0,036
-93,030	-128,603	-0,075	0,007
-92,016	-137,267	0,037	0,003
-91,001	153,562	0,035	0,034
-89,986	-33,148	0,085	0,033
-88,972	10,789	0,160	0,086
-87,957	800,000	0,046	0,141
-86,943	67,842	-0,037	-0,027
-85,928	-69,495	-0,067	0,018
-84,913	105,510	-0,026	-0,021
-83,899	-200,000	-0,004	-0,090
-82,884	45,275	0,075	-0,048
-81,870	-200,000	-0,025	0,099
-80,855	36,853	-0,111	0,069
-79,840	102,653	0,031	0,025
-78,826	-200,000	-0,014	0,178
-77,811	510,270	-0,054	0,090
-76,797	437,758	-0,036	-0,056
-75,782	800,000	-0,023	0,048
-74,767	-144,523	0,102	0,007
-73,753	105,729	0,073	-0,061
-72,738	-70,194	-0,058	0,015
-71,724	60,036	-0,066	-0,046
-70,709	-200,000	0,050	0,165
-69,694	-200,000	0,005	0,082
-68,680	331,505	0,044	0,060
-67,665	-200,000	-0,005	-0,043
-66,651	-8,181	0,091	-0,043
-65,636	147,203	-0,119	0,113
-64,622	-24,147	0,076	-0,032
-63,607	-152,811	-0,116	0,006
-62,592	132,699	-0,095	-0,087
-61,578	-200,000	-0,030	-0,170
-60,563	73,642	0,053	0,039
-59,549	159,730	-0,018	0,018
-58,534	13,319	-1,916	-1,046
-57,519	404,623	-1,372	-2,048
-56,505	-200,000	-0,398	-4,283
-55,490	430,000	0,899	1,378
-54,476	800,000	5,118	11,157
-53,461	-200,000	20,655	329,329
-52,446	800,000	755,693	2320,502
-51,432	550,554	1661,486	2825,535
-50,417	73,693	1664,573	1230,357
-49,403	18,958	1537,736	867,902
-48,388	12,931	1460,632	795,199
-47,373	19,014	1451,498	819,431
-46,359	16,041	1440,515	799,041
-45,344	11,237	1436,507	773,886
-44,330	11,175	1434,506	772,481
-43,315	11,207	1432,521	771,535
-42,300	11,162	1430,805	770,363
-41,286	11,170	1429,798	769,829
-40,271	11,190	1428,382	769,134
-39,257	11,140	1427,069	768,159
-38,242	11,175	1426,129	767,788
-37,227	11,212	1424,833	767,235
-36,213	11,172	1423,770	766,445
-35,198	11,207	1422,604	765,949
-34,184	11,275	1421,578	765,691
-33,169	11,225	1420,200	764,680
-32,154	11,229	1419,026	764,036
-31,140	11,299	1417,850	763,704
-30,125	11,235	1416,984	762,905
-29,111	11,249	1415,856	762,331
-28,096	11,244	1414,660	761,634
-27,082	11,193	1413,319	760,643
-26,067	11,160	1412,526	760,032
-25,052	11,177	1411,109	759,319
-24,038	11,178	1410,386	758,906
-23,023	11,159	1409,268	758,185
-22,009	11,149	1408,296	757,581
-20,994	11,116	1407,422	756,931
-19,979	11,160	1406,292	756,497
-18,965	11,092	1405,645	755,802
-17,950	11,075	1404,776	755,226
-16,936	11,094	1403,826	754,771
-15,921	11,048	1402,831	753,993
-14,906	11,075	1401,744	753,507
-13,892	11,130	1400,791	753,217
-12,877	11,077	1400,186	752,619
-11,863	11,069	1399,164	752,002
-10,848	11,029	1398,290	751,315
-9,833	11,028	1397,298	750,750
-8,819	10,999	1396,667	750,244
-7,804	10,958	1395,766	749,541
-6,790	10,970	1394,736	749,014
-5,775	11,011	1393,551	748,538
-4,760	11,013	1392,511	747,958
-3,746	10,954	1391,557	747,143
-2,731	10,979	1390,885	746,866
-1,717	10,932	1390,039	746,165
-0,702	10,938	1388,422	745,298
0,313	14,945	1302,297	717,445
1,327	31,029	693,851	418,887
2,342	48,064	120,475	79,339
3,356	-0,589	16,532	8,249
4,371	-7,551	3,410	1,621
5,386	-27,469	0,786	0,321
6,400	-200,000	0,123	0,398
7,415	266,518	-0,174	-0,215
8,429	11,472	-0,217	-0,117
9,444	-114,485	-0,339	-0,045
10,459	137,145	-0,212	-0,195
11,473	97,630	-0,220	-0,178
12,488	101,703	-0,205	-0,168
13,502	105,843	-0,245	-0,205
14,517	425,974	-0,201	-0,306
15,531	101,750	-0,217	-0,179
16,546	100,590	-0,268	-0,219
17,561	-13,734	-0,566	-0,257
18,575	-123,432	-0,170	0,019
19,590	295,183	-0,263	-0,340
20,604	120,945	-0,220	-0,193
21,619	-6,706	-0,497	-0,237
22,634	24,289	-0,347	-0,201
23,648	208,504	-0,406	-0,448
24,663	-34,887	-0,544	-0,208
25,677	-13,806	-0,258	-0,117
26,692	64,617	-0,372	-0,264
27,707	102,591	-0,298	-0,246
28,721	-11,421	-0,302	-0,139
29,736	-16,504	-0,395	-0,176
30,750	120,942	-0,492	-0,431
31,765	65,125	-0,444	-0,315
32,780	94,641	-0,401	-0,320
33,794	269,002	-0,302	-0,374
34,809	126,563	-0,323	-0,288
35,823	200,065	-0,304	-0,329
36,838	31,362	-0,442	-0,266
37,853	54,614	-0,442	-0,299
38,867	281,357	-0,271	-0,342
39,882	-6,863	-0,292	-0,139
40,896	164,325	-0,312	-0,310
41,911	94,258	-0,348	-0,278
42,926	285,572	-0,284	-0,361
43,940	275,496	-0,282	-0,353
44,955	100,124	-0,341	-0,278
45,969	123,570	-0,350	-0,308
46,984	33,669	-0,329	-0,200
47,999	83,038	-0,146	-0,111
49,013	353,616	-0,196	-0,274
50,028	-43,717	-0,505	-0,178
51,042	-20,815	-0,278	-0,119
52,057	-21,567	-0,472	-0,201
53,071	-39,416	-0,391	-0,143
54,086	199,872	-0,205	-0,221
55,101	96,442	-0,407	-0,327
56,115	21,235	-0,440	-0,250
57,130	6,899	-0,343	-0,179
58,144	75,307	-0,424	-0,314
59,159	-3,637	-0,382	-0,186
60,174	213,485	-0,409	-0,455
61,188	59,232	-0,358	-0,247
62,203	-34,065	-0,369	-0,142
63,217	13,534	-0,279	-0,152
64,232	142,260	-0,284	-0,264
65,247	59,769	-0,300	-0,208
66,261	-42,559	-0,450	-0,160
67,276	-49,008	-0,283	-0,095
68,290	41,905	-0,240	-0,152
69,305	14,317	-0,304	-0,166
70,320	-156,889	-0,199	0,008
71,334	-41,722	-0,292	-0,105
72,349	9,557	-0,371	-0,196
73,363	151,705	-0,256	-0,245
74,378	106,546	-0,292	-0,243
75,393	96,342	-0,332	-0,266
76,407	308,413	-0,203	-0,266
77,422	184,756	-0,168	-0,175
78,436	97,203	-0,274	-0,220
79,451	-70,130	-0,415	-0,110
80,466	152,304	-0,315	-0,302
81,480	121,442	-0,296	-0,259
82,495	-24,867	-0,339	-0,140
83,509	112,130	-0,225	-0,190
84,524	-22,023	-0,194	-0,082
85,539	109,499	-0,128	-0,107
86,553	-9,925	-0,345	-0,160
87,568	-169,370	-0,210	-0,005
88,582	148,633	-0,209	-0,198
89,597	-9,662	-0,399	-0,185
90,611	323,890	-0,143	-0,191
91,626	-1,609	-0,323	-0,159
92,641	388,269	-0,171	-0,249
93,655	307,277	-0,163	-0,213
94,670	280,302	-0,229	-0,287
95,684	-14,623	-0,341	-0,153
96,699	-7,779	-0,391	-0,184
97,714	51,780	-0,345	-0,229
98,728	95,275	-0,217	-0,173
99,743	-51,142	-0,276	-0,090
100,757	-42,739	-0,179	-0,063
101,772	-120,032	-0,338	-0,040
102,787	-72,370	-0,280	-0,072
103,801	63,649	-0,232	-0,163
104,816	-162,083	-0,451	-0,016
105,830	72,932	-0,281	-0,205
106,845	-42,672	-0,200	-0,071
107,860	221,540	-0,198	-0,223
108,874	-58,155	-0,270	-0,082
109,889	-43,938	-0,259	-0,090
110,903	38,258	-0,314	-0,195
111,918	76,673	-0,298	-0,221
112,933	199,932	-0,218	-0,234
113,947	-2,583	-0,315	-0,154
114,962	123,266	-0,174	-0,152
115,976	333,890	-0,142	-0,192
116,991	-2,787	-0,329	-0,160
118,006	57,057	-0,299	-0,203
119,020	-31,276	-0,319	-0,125
120,035	43,889	-0,202	-0,129
121,049	222,068	-0,209	-0,235
122,064	61,656	-0,269	-0,187
123,079	36,581	-0,315	-0,194
124,093	3,947	-0,294	-0,150
125,108	800,000	-0,154	-0,303
126,122	137,689	-0,315	-0,288
127,137	48,630	-0,185	-0,121
128,151	77,181	-0,200	-0,148
129,166	42,035	-0,270	-0,170
130,181	-140,002	-0,171	0,012
131,195	63,282	-0,270	-0,188
132,210	43,987	-0,203	-0,130
133,224	405,183	-0,135	-0,200
134,239	19,964	-0,057	0,032
135,254	77,790	-0,281	-0,209
136,268	88,655	-0,215	-0,167
137,283	-44,742	-0,179	-0,062
138,297	35,102	-0,293	-0,179
139,312	265,386	-0,218	-0,266
140,327	231,939	-0,206	-0,236
141,341	187,995	-0,203	-0,211
142,356	27,842	-0,208	-0,122
143,370	24,361	-0,278	-0,160
144,385	228,383	-0,117	-0,133
145,400	117,596	-0,287	-0,246
146,414	32,661	-0,300	-0,181
147,429	-24,304	-0,281	-0,116
148,443	14,611	-0,208	-0,113
149,458	163,473	-0,322	-0,315
150,473	141,236	-0,149	-0,137
151,487	224,618	-0,164	-0,185
152,502	261,936	-0,168	-0,204
153,516	-7,288	-0,320	-0,151
154,531	220,605	-0,178	-0,199
155,546	332,125	-0,192	-0,258
156,560	206,034	-0,218	-0,237
157,575	-54,274	-0,232	-0,073
158,589	416,515	-0,167	-0,248
159,604	-69,706	-0,258	-0,068
160,619	-13,067	-0,330	-0,149
161,633	42,639	-0,336	-0,212
162,648	-80,581	-0,197	-0,045
163,662	43,926	-0,173	-0,110
164,677	135,620	-0,208	-0,188
165,692	-200,000	-0,082	-0,290
166,706	140,499	-0,257	-0,236
167,721	260,133	-0,243	-0,293
168,735	-17,561	-0,311	-0,135
169,750	91,568	-0,213	-0,167
170,764	-7,015	-0,192	-0,091
171,779	-30,538	-0,310	-0,121
172,794	109,679	-0,142	-0,118
173,808	222,456	-0,156	-0,174
174,823	-80,699	-0,325	-0,075
175,837	459,442	-0,194	-0,301
176,852	184,597	-0,232	-0,239
177,867	51,799	-0,209	-0,138
178,881	107,770	-0,116	-0,096
179,896	56,801	-0,249	-0,168
180,910	185,270	-0,160	-0,165
181,925	168,909	-0,154	-0,152
182,940	208,539	-0,128	-0,139
183,954	111,142	-0,231	-0,193
184,969	114,465	-0,190	-0,161
185,983	10,458	-0,099	-0,052
186,998	32,998	-0,158	-0,095
188,013	62,297	-0,210	-0,146
189,027	-72,758	-0,305	-0,077
190,042	213,108	-0,156	-0,171
191,056	491,536	-0,182	-0,291
192,071	-50,977	-0,294	-0,095
193,086	142,935	-0,176	-0,162
194,100	141,112	-0,106	-0,097
195,115	167,628	-0,221	-0,218
196,129	-2,037	-0,180	-0,087
197,144	103,324	-0,271	-0,220
198,159	-26,338	-0,394	-0,160
199,173	-194,082	-0,176	-0,001
200,188	-40,504	-0,173	-0,062
201,202	52,608	-0,222	-0,147
202,217	168,627	-0,186	-0,184
203,232	160,893	-0,199	-0,193
204,246	92,407	-0,381	-0,298
205,261	92,771	-0,078	-0,061
206,275	-40,825	-0,266	-0,095
207,290	48,758	-0,137	-0,089
208,304	-8,769	-0,263	-0,122
209,319	387,252	-0,084	-0,120
210,334	243,503	-0,122	-0,142
211,348	208,646	-0,200	-0,217
212,363	197,900	-0,195	-0,207
213,377	16,959	-0,171	-0,094
214,392	419,177	-0,049	-0,073
215,407	-44,182	-0,112	0,039
216,421	12,545	-0,204	-0,109
217,436	79,077	-0,191	-0,141
218,450	99,677	-0,169	-0,135
219,465	235,168	-0,147	-0,168
220,480	59,814	-0,276	-0,189
221,494	14,359	-0,118	-0,063
222,509	-87,773	-0,127	0,026
223,523	-58,182	-0,156	-0,047
224,538	141,446	-0,279	-0,255
225,553	35,865	-0,305	-0,185
226,567	-30,375	-0,303	-0,118
227,582	7,595	-0,292	-0,151
228,596	372,008	-0,158	-0,222
229,611	49,531	-0,094	-0,061
230,626	241,416	-0,174	-0,201
231,640	-37,828	-0,167	0,061
232,655	24,971	-0,217	-0,124
233,669	364,182	-0,213	-0,298
234,684	185,188	-0,169	-0,173
235,699	25,119	-0,150	-0,086
236,713	-44,337	-0,238	-0,082
237,728	-154,001	-0,189	-0,009
238,742	-3,206	-0,145	-0,070
239,757	-58,247	-0,167	-0,050
240,772	-24,586	-0,210	-0,086
241,786	49,434	-0,176	-0,114
242,801	103,657	-0,212	-0,172
243,815	92,547	-0,097	-0,076
244,830	-85,308	-0,174	-0,037
245,844	69,156	-0,196	-0,139
246,859	180,531	-0,091	-0,092
247,874	310,819	-0,178	-0,231
248,888	800,000	-0,134	-0,257
249,903	95,388	-0,175	-0,138
250,917	-200,000	-0,024	-0,221
251,932	-63,815	-0,246	-0,069
252,947	-136,663	-0,199	0,016
253,961	-46,070	-0,221	-0,075
254,976	-92,843	-0,246	-0,047
255,990	425,904	-0,170	-0,253
257,005	164,892	-0,093	-0,090
258,020	486,430	-0,068	-0,107
259,034	531,161	-0,067	-0,110
260,049	55,886	-0,072	-0,048
261,063	505,117	-0,085	-0,136
262,078	-121,689	-0,226	0,025
263,093	800,000	-0,107	-0,275
264,107	-51,233	-0,234	-0,075
265,122	-6,878	-0,117	-0,055
266,136	40,689	-0,079	0,049
267,151	34,761	-0,161	-0,097
268,166	189,071	-0,200	-0,207
269,180	-200,000	-0,211	0,000
270,195	-47,165	-0,199	-0,066
271,209	101,329	-0,167	-0,134
272,224	646,603	-0,093	-0,164
273,239	-123,201	-0,184	-0,020
274,253	73,724	-0,086	-0,062
275,268	-141,131	-0,132	0,009
276,282	800,000	-0,083	-0,205
277,297	-121,832	-0,209	0,023
278,312	-168,378	-0,258	-0,007
279,326	-2,733	-0,088	-0,042
280,341	41,854	-0,223	-0,139
281,355	228,835	-0,063	-0,071
282,370	800,000	-0,053	-0,140
283,384	132,928	-0,232	-0,206
284,399	-98,431	-0,285	-0,050
285,414	-200,000	0,009	-0,128
286,428	3,095	-0,043	-0,021
287,443	57,248	-0,218	-0,146
288,457	-102,035	-0,158	0,026
289,472	-80,142	-0,248	-0,057
290,487	-144,127	-0,111	-0,007
291,501	-48,309	-0,185	-0,061
292,516	137,126	-0,133	-0,119
293,530	30,176	-0,194	-0,114
294,545	68,966	-0,198	-0,140
295,560	101,930	-0,122	-0,098
296,574	-20,853	-0,228	-0,096
297,589	67,150	-0,153	-0,107
298,603	314,153	-0,154	-0,199
299,618	349,854	-0,119	-0,162
300,633	-200,000	-0,006	-0,020
301,647	112,711	-0,172	-0,143
302,662	-53,148	-0,217	-0,068
303,676	97,723	-0,113	-0,089
304,691	39,007	-0,122	-0,075
305,706	-200,000	-0,069	-0,225
306,720	108,200	-0,142	-0,116
307,735	479,351	-0,111	-0,173
308,749	182,568	-0,114	-0,115
309,764	-200,000	0,010	-0,161
310,779	19,137	-0,198	-0,109
311,793	13,881	-0,183	-0,098
312,808	296,873	-0,099	-0,125
313,822	800,000	-0,086	-0,256
314,837	-165,268	-0,230	-0,007
315,852	-200,000	-0,055	-0,262
316,866	-75,019	-0,057	-0,014
317,881	-129,160	-0,213	0,020
318,895	31,328	-0,146	-0,086
319,910	-33,225	-0,149	-0,056
320,925	170,160	-0,137	-0,134
321,939	-91,487	-0,129	-0,025
322,954	-34,760	-0,175	0,065
323,968	800,000	-0,063	-0,188
324,983	172,325	-0,077	0,076
325,997	0,449	-0,054	-0,026
327,012	454,766	-0,108	-0,165
328,027	118,782	-0,155	-0,131
329,041	280,094	-0,138	-0,169
330,056	-200,000	0,020	-0,102
331,070	-200,000	0,005	0,059
332,085	-106,669	-0,086	0,013
333,100	-30,426	-0,131	-0,051
334,114	9,086	-0,222	-0,115
335,129	353,306	-0,124	-0,169
336,143	712,879	-0,068	-0,124
337,158	192,818	-0,153	-0,159
338,173	-200,000	-0,017	-0,092
339,187	-95,474	-0,188	-0,034
340,202	-80,530	-0,096	0,022
341,216	42,304	-0,206	-0,128
342,231	191,273	-0,232	-0,240
343,246	-200,000	-0,018	-0,072
344,260	163,167	-0,107	-0,103
345,275	-155,135	-0,155	-0,007
346,289	-200,000	-0,057	-0,176
347,304	-19,547	-0,093	0,039
348,319	214,077	-0,177	-0,191
349,333	135,511	-0,165	-0,147
350,348	50,925	-0,134	-0,087
351,362	-90,193	-0,153	-0,030
352,377	258,327	-0,097	0,114
353,392	396,122	-0,066	-0,095
354,406	557,521	-0,109	-0,181
355,421	207,023	1309,117	1398,015
356,435	159,239	1469,136	1398,496
