DTS Sentinel unit serial number:	SN410029Multiplexer serial number:	ORYXHardware model number:	OX2-SRSoftware version number:	ORYX F/W v4,00 Oryx Data Collector v3.7.2.0data status	okinstallation	B3 Nyhavnadifferential loss correction	single-endedforward channel	channel 1reverse channel	N/Adate	2023/12/04time	22:42:30forward acquisition time	300,00reverse acquisition time	0,00gamma	499,1914k internal	0,3200k external	0,3200temperature offset calibration	1,0000default loss term (dB/km)	0,3820temperature slope calibration	1,0000multiplexer offset coefficient	1,0000multiplexer slope coefficient	1,0000fibre end	0,00T internal ref (°C)	14,42T ext. ref 1 (°C)	-0,89T ext. ref 2 (°C)	-0,90length (m)	temperature (°C)	Stokes	anti-Stokes-744,400	46,526	-0,304	-0,205
-743,385	-200,000	0,063	0,237
-742,371	295,012	-0,200	-0,267
-741,356	-200,000	0,068	0,336
-740,342	195,101	-0,209	-0,231
-739,327	-200,000	-0,018	0,194
-738,312	29,931	-0,173	-0,107
-737,298	800,000	-0,107	0,234
-736,283	6,950	-0,279	-0,151
-735,269	385,875	0,134	0,202
-734,254	91,550	-0,255	-0,208
-733,239	188,149	-0,128	0,139
-732,225	-200,000	-0,024	-0,184
-731,210	281,934	0,164	0,214
-730,196	256,069	-0,102	-0,128
-729,181	-200,000	0,019	-0,074
-728,167	747,172	-0,059	-0,116
-727,152	800,000	-0,049	-0,129
-726,137	601,372	-0,096	-0,174
-725,123	-200,000	0,003	-0,240
-724,108	55,936	-0,105	-0,074
-723,094	-91,637	-0,088	-0,018
-722,079	-200,000	-0,013	-0,058
-721,064	534,585	0,112	-0,193
-720,050	800,000	-0,058	-0,122
-719,035	397,109	0,014	-0,022
-718,021	-200,000	-0,019	0,136
-717,006	-118,410	-0,029	-0,004
-715,991	-172,612	-0,124	-0,003
-714,977	-42,990	-0,099	0,036
-713,962	800,000	-0,021	-0,055
-712,948	-48,978	-0,070	0,024
-711,933	213,549	0,099	-0,113
-710,918	287,224	-0,053	0,070
-709,904	348,010	-0,116	-0,167
-708,889	38,824	-0,090	-0,058
-707,875	177,240	-0,050	-0,053
-706,860	-107,100	-0,071	-0,011
-705,845	-200,000	0,001	-0,004
-704,831	800,000	0,037	0,114
-703,816	581,669	-0,039	0,070
-702,802	-200,000	0,026	-0,120
-701,787	-200,000	-0,010	-0,033
-700,772	363,407	-0,030	-0,044
-699,758	800,000	-0,028	-0,083
-698,743	-200,000	-0,020	-0,141
-697,729	800,000	0,014	-0,036
-696,714	800,000	-0,040	-0,097
-695,699	-200,000	0,001	-0,006
-694,685	-200,000	-0,018	-0,070
-693,670	-3,597	0,052	-0,026
-692,656	596,770	0,036	0,064
-691,641	19,210	-0,085	0,049
-690,627	548,611	-0,062	0,109
-689,612	-45,008	0,008	-0,003
-688,597	-58,297	0,042	0,013
-687,583	-5,291	-0,134	-0,066
-686,568	22,008	-0,071	0,042
-685,554	800,000	0,040	-0,083
-684,539	225,102	0,055	-0,064
-683,524	471,974	-0,038	0,062
-682,510	120,007	-0,110	0,099
-681,495	57,259	-0,123	0,087
-680,481	-200,000	-0,046	-0,189
-679,466	405,955	0,123	-0,189
-678,451	-28,844	-0,105	-0,043
-677,437	-164,421	-0,064	0,002
-676,422	800,000	-0,028	-0,081
-675,408	57,949	0,044	0,031
-674,393	-2,773	0,109	0,055
-673,378	-200,000	0,025	-0,123
-672,364	14,882	0,126	-0,071
-671,349	619,543	-0,052	-0,095
-670,335	-200,000	0,008	-0,100
-669,320	185,290	-0,066	0,071
-668,305	800,000	-0,040	0,106
-667,291	119,607	-0,059	-0,053
-666,276	-123,913	-0,067	-0,008
-665,262	800,000	0,032	-0,074
-664,247	-135,504	0,041	0,003
-663,232	-200,000	-0,041	-0,151
-662,218	699,301	0,072	-0,137
-661,203	122,839	-0,091	-0,083
-660,189	43,850	-0,021	0,014
-659,174	-200,000	-0,006	-0,098
-658,159	-141,453	-0,192	-0,014
-657,145	-200,000	0,017	-0,091
-656,130	-200,000	-0,031	0,103
-655,116	-12,691	0,065	0,031
-654,101	-99,957	-0,040	-0,007
-653,086	-108,225	0,076	-0,012
-652,072	800,000	-0,040	-0,122
-651,057	-102,300	-0,245	-0,042
-650,043	78,598	0,089	-0,069
-649,028	544,298	-0,097	-0,168
-648,014	126,984	0,069	0,064
-646,999	800,000	-0,058	0,158
-645,984	108,308	0,031	-0,026
-644,970	-200,000	0,016	-0,077
-643,955	-200,000	0,005	0,058
-642,941	641,946	-0,047	-0,087
-641,926	39,585	0,021	0,014
-640,911	-125,087	-0,073	-0,008
-639,897	800,000	0,030	0,083
-638,882	-200,000	0,042	0,138
-637,868	58,120	0,113	-0,080
-636,853	154,793	0,051	-0,051
-635,838	420,801	-0,053	-0,082
-634,824	-187,037	0,142	-0,001
-633,809	699,731	0,079	-0,152
-632,795	33,960	-0,029	-0,018
-631,780	-63,204	0,054	-0,016
-630,765	-65,070	-0,021	-0,006
-629,751	166,741	-0,049	-0,051
-628,736	-151,098	-0,111	0,006
-627,722	800,000	-0,027	-0,058
-626,707	-200,000	-0,025	-0,111
-625,692	282,387	-0,057	0,075
-624,678	-200,000	0,034	0,109
-623,663	270,480	0,029	0,037
-622,649	57,552	0,085	0,060
-621,634	-200,000	-0,036	-0,158
-620,619	-57,734	-0,061	-0,019
-619,605	800,000	0,040	0,106
-618,590	161,607	0,025	-0,026
-617,576	-200,000	-0,030	0,175
-616,561	800,000	-0,046	0,131
-615,546	70,772	-0,012	-0,009
-614,532	207,453	0,018	0,020
-613,517	30,051	-0,045	0,028
-612,503	-200,000	0,000	0,023
-611,488	-200,000	0,006	0,045
-610,474	800,000	-0,073	0,208
-609,459	114,387	-0,063	0,055
-608,444	25,168	0,028	-0,017
-607,430	-200,000	0,022	-0,106
-606,415	-200,000	-0,026	0,110
-605,401	-138,681	0,023	-0,002
-604,386	83,598	-0,092	0,072
-603,371	-42,625	0,043	-0,016
-602,357	207,854	-0,093	0,106
-601,342	10,320	0,121	0,067
-600,328	26,113	-0,072	-0,043
-599,313	92,195	-0,089	-0,072
-598,298	74,932	-0,030	-0,023
-597,284	233,374	-0,101	0,120
-596,269	230,817	0,047	0,056
-595,255	674,336	-0,054	0,101
-594,240	268,477	0,012	0,016
-593,225	-200,000	-0,038	-0,162
-592,211	98,527	-0,125	-0,104
-591,196	-19,791	0,136	-0,060
-590,182	-157,408	0,070	-0,003
-589,167	-45,708	-0,054	0,019
-588,152	259,421	-0,026	-0,032
-587,138	130,950	-0,082	0,076
-586,123	704,927	-0,074	-0,142
-585,109	-200,000	0,055	-0,176
-584,094	79,127	0,134	-0,103
-583,079	98,921	0,117	0,098
-582,065	-25,409	-0,255	0,108
-581,050	149,043	0,095	0,093
-580,036	-116,742	-0,094	0,012
-579,021	16,371	0,142	-0,081
-578,006	-21,756	-0,079	-0,034
-576,992	379,432	0,050	-0,075
-575,977	-129,466	-0,065	-0,006
-574,963	21,056	0,096	0,056
-573,948	480,874	0,064	0,106
-572,934	-200,000	0,006	0,175
-571,919	17,529	-0,107	-0,062
-570,904	68,146	-0,047	0,034
-569,890	-200,000	0,029	-0,166
-568,875	59,062	-0,026	0,018
-567,861	9,396	0,023	0,012
-566,846	-27,234	0,050	0,021
-565,831	-200,000	-0,013	-0,083
-564,817	589,702	0,025	0,044
-563,802	-61,546	-0,083	-0,025
-562,788	-200,000	-0,023	-0,101
-561,773	261,527	0,052	-0,065
-560,758	-200,000	0,005	0,037
-559,744	416,685	-0,041	0,064
-558,729	161,909	-0,068	-0,069
-557,715	-200,000	-0,014	0,063
-556,700	-200,000	0,003	0,049
-555,685	15,013	-0,162	0,091
-554,671	-12,319	-0,083	0,039
-553,656	126,616	0,037	0,034
-552,642	220,879	0,031	-0,036
-551,627	800,000	0,035	0,094
-550,612	-20,342	0,029	0,013
-549,598	-78,714	0,007	-0,002
-548,583	189,064	0,078	-0,084
-547,569	281,475	-0,043	-0,056
-546,554	47,577	-0,063	0,042
-545,539	346,944	0,061	0,086
-544,525	-92,837	-0,083	0,017
-543,510	437,831	0,075	0,118
-542,496	800,000	0,011	0,028
-541,481	29,384	-0,071	0,043
-540,466	-22,799	-0,028	0,012
-539,452	-200,000	0,014	0,062
-538,437	-178,709	0,139	-0,002
-537,423	-55,583	0,086	0,028
-536,408	255,190	-0,030	0,038
-535,393	18,455	0,087	-0,050
-534,379	115,975	0,032	0,029
-533,364	-200,000	-0,006	0,050
-532,350	387,506	-0,082	-0,122
-531,335	425,077	-0,051	-0,079
-530,321	-200,000	-0,036	0,141
-529,306	41,989	-0,095	-0,062
-528,291	41,315	0,082	-0,053
-527,277	-200,000	-0,000	-0,046
-526,262	-17,259	-0,131	-0,059
-525,248	-200,000	-0,012	-0,067
-524,233	67,236	0,161	0,118
-523,218	-142,698	-0,096	-0,007
-522,204	177,661	0,024	-0,025
-521,189	246,211	-0,072	-0,088
-520,175	268,469	0,032	0,041
-519,160	-200,000	0,005	-0,030
-518,145	80,174	-0,044	0,034
-517,131	-200,000	-0,004	0,048
-516,116	-200,000	-0,010	0,069
-515,102	41,156	-0,036	0,024
-514,087	800,000	-0,067	-0,151
-513,072	344,651	0,041	0,059
-512,058	-16,289	0,015	-0,007
-511,043	594,274	0,028	-0,051
-510,029	398,440	-0,066	-0,100
-509,014	187,885	0,045	0,049
-507,999	-200,000	-0,006	0,126
-506,985	114,018	-0,103	0,090
-505,970	299,168	-0,079	-0,105
-504,956	67,266	0,170	-0,125
-503,941	800,000	-0,046	0,104
-502,926	2,776	0,145	0,075
-501,912	29,294	-0,088	0,054
-500,897	36,046	-0,032	0,020
-499,883	50,173	0,043	0,030
-498,868	329,848	-0,017	-0,024
-497,853	143,654	-0,044	-0,042
-496,839	50,358	0,060	-0,041
-495,824	800,000	0,037	0,083
-494,810	9,979	0,024	0,013
-493,795	-200,000	0,008	0,050
-492,781	-39,346	-0,099	0,037
-491,766	474,064	-0,051	-0,084
-490,751	673,813	0,153	-0,287
-489,737	14,839	-0,118	0,066
-488,722	132,287	0,059	0,055
-487,708	288,570	-0,028	0,037
-486,693	800,000	0,066	0,195
-485,678	-165,878	-0,095	-0,003
-484,664	800,000	0,042	-0,087
-483,649	502,672	-0,056	-0,094
-482,635	-200,000	0,030	-0,126
-481,620	330,611	0,042	0,058
-480,605	-163,286	0,084	0,003
-479,591	-38,262	0,123	0,047
-478,576	800,000	0,053	-0,138
-477,562	800,000	0,041	-0,085
-476,547	-200,000	0,014	-0,111
-475,532	289,657	-0,056	-0,074
-474,518	-200,000	0,006	0,115
-473,503	-56,490	-0,055	0,017
-472,489	401,182	0,114	0,172
-471,474	-104,353	-0,054	0,009
-470,459	364,331	-0,060	-0,087
-469,445	9,675	0,148	-0,080
-468,430	-23,361	-0,070	0,030
-467,416	800,000	-0,036	0,076
-466,401	233,734	0,084	0,100
-465,386	625,180	-0,056	-0,102
-464,372	406,566	-0,015	-0,024
-463,357	-139,410	-0,110	-0,008
-462,343	-200,000	0,001	-0,038
-461,328	-117,277	-0,025	0,003
-460,313	356,197	-0,040	-0,057
-459,299	-112,082	0,183	-0,026
-458,284	800,000	-0,016	0,047
-457,270	-200,000	-0,000	0,036
-456,255	84,119	0,050	0,040
-455,241	34,782	-0,045	-0,028
-454,226	107,279	0,105	0,090
-453,211	233,740	-0,051	0,061
-452,197	763,122	0,009	-0,018
-451,182	4,502	0,051	-0,027
-450,168	800,000	-0,013	0,038
-449,153	800,000	-0,025	-0,061
-448,138	263,281	0,117	-0,147
-447,124	800,000	-0,011	0,028
-446,109	-76,806	0,056	-0,014
-445,095	153,931	0,080	0,079
-444,080	-200,000	0,026	0,144
-443,065	-200,000	0,022	0,092
-442,051	223,092	-0,138	0,160
-441,036	-116,774	-0,182	0,024
-440,022	-102,999	0,056	0,009
-439,007	520,534	0,064	-0,108
-437,992	399,276	0,099	-0,150
-436,978	-200,000	-0,027	-0,097
-435,963	-68,320	0,083	-0,023
-434,949	-200,000	-0,027	-0,103
-433,934	-132,044	0,077	0,007
-432,919	271,959	-0,084	-0,107
-431,905	432,303	0,019	0,029
-430,890	-83,573	0,155	0,035
-429,876	22,369	-0,090	-0,053
-428,861	100,619	0,047	-0,039
-427,846	-200,000	-0,006	-0,047
-426,832	-200,000	0,012	-0,090
-425,817	169,194	-0,087	-0,089
-424,803	589,548	0,041	0,072
-423,788	800,000	-0,054	0,126
-422,773	41,171	-0,055	-0,036
-421,759	172,479	-0,033	0,034
-420,744	-70,793	-0,039	0,011
-419,730	92,235	-0,121	0,098
-418,715	174,538	0,064	-0,066
-417,701	82,668	0,037	0,029
-416,686	-124,814	-0,172	-0,019
-415,671	-111,455	0,066	-0,010
-414,657	-200,000	-0,011	-0,045
-413,642	-200,000	0,040	-0,149
-412,628	800,000	-0,041	-0,107
-411,613	-163,252	-0,125	0,004
-410,598	58,174	0,124	0,087
-409,584	800,000	-0,031	0,078
-408,569	80,006	0,061	0,047
-407,555	-53,942	0,239	-0,078
-406,540	277,770	-0,070	-0,089
-405,525	-34,897	-0,083	-0,032
-404,511	100,395	-0,154	-0,128
-403,496	-200,000	0,012	0,146
-402,482	-130,260	0,183	0,018
-401,467	800,000	0,037	0,089
-400,452	-119,269	-0,121	0,015
-399,438	380,311	0,055	0,082
-398,423	37,780	-0,084	-0,053
-397,409	-200,000	-0,021	-0,129
-396,394	800,000	-0,027	-0,077
-395,379	726,309	0,078	-0,149
-394,365	-150,215	-0,057	-0,003
-393,350	-26,995	0,122	-0,051
-392,336	-98,855	-0,110	-0,020
-391,321	800,000	0,022	0,066
-390,306	634,244	-0,005	0,010
-389,292	-200,000	-0,047	-0,173
-388,277	-173,510	-0,050	-0,001
-387,263	217,320	-0,042	0,048
-386,248	-186,376	0,110	0,001
-385,233	-200,000	0,007	0,076
-384,219	55,609	0,017	-0,012
-383,204	7,163	-0,069	-0,037
-382,190	-14,297	-0,005	0,002
-381,175	-168,100	0,094	-0,003
-380,160	-37,501	-0,021	0,008
-379,146	-40,566	-0,091	0,034
-378,131	51,355	0,248	0,169
-377,117	678,688	-0,027	-0,050
-376,102	-200,000	-0,006	-0,040
-375,088	-1,724	0,064	0,032
-374,073	800,000	0,044	0,099
-373,058	-200,000	0,004	-0,027
-372,044	-68,350	0,127	0,035
-371,029	-200,000	-0,065	-0,217
-370,015	3,686	-0,042	-0,022
-369,000	327,062	0,023	0,032
-367,985	800,000	0,045	-0,134
-366,971	653,254	-0,051	-0,094
-365,956	24,086	-0,035	-0,021
-364,942	-46,299	0,141	0,049
-363,927	-13,984	0,065	0,030
-362,912	2,548	0,058	-0,030
-361,898	800,000	-0,024	-0,060
-360,883	-44,366	-0,054	-0,019
-359,869	39,405	-0,045	0,029
-358,854	-200,000	-0,008	0,062
-357,839	800,000	0,055	0,118
-356,825	-19,818	0,078	-0,034
-355,810	-200,000	0,056	0,184
-354,796	800,000	0,058	-0,151
-353,781	800,000	0,031	0,082
-352,766	-121,690	0,070	0,008
-351,752	-178,941	-0,090	0,001
-350,737	-158,850	0,102	-0,004
-349,723	-152,097	-0,040	-0,002
-348,708	8,313	0,035	0,019
-347,693	-200,000	0,007	-0,063
-346,679	800,000	-0,087	-0,235
-345,664	65,959	-0,086	-0,063
-344,650	62,375	-0,169	-0,121
-343,635	395,695	-0,013	-0,020
-342,620	-200,000	-0,007	0,056
-341,606	-53,410	0,149	-0,049
-340,591	-200,000	0,003	0,144
-339,577	800,000	0,052	-0,110
-338,562	505,646	-0,078	-0,130
-337,548	207,621	0,096	-0,108
-336,533	-138,429	0,114	0,009
-335,518	495,112	0,050	0,082
-334,504	800,000	-0,051	-0,111
-333,489	-200,000	-0,018	0,070
-332,475	72,987	-0,055	-0,041
-331,460	800,000	-0,032	-0,074
-330,445	-87,320	0,138	-0,030
-329,431	592,062	0,053	0,094
-328,416	-200,000	-0,013	0,200
-327,402	286,192	0,023	-0,030
-326,387	94,396	0,089	0,072
-325,372	123,902	0,060	-0,054
-324,358	-200,000	0,017	0,059
-323,343	-200,000	-0,003	0,092
-322,329	800,000	-0,019	0,048
-321,314	275,568	-0,104	-0,132
-320,299	142,666	0,076	0,072
-319,285	800,000	0,005	0,012
-318,270	800,000	-0,070	-0,157
-317,256	-145,963	0,149	0,009
-316,241	-200,000	0,025	-0,091
-315,226	-31,059	-0,086	0,034
-314,212	-200,000	-0,010	0,083
-313,197	-39,430	-0,071	-0,026
-312,183	-142,278	0,090	-0,006
-311,168	-200,000	0,013	-0,056
-310,153	265,292	0,051	-0,064
-309,139	-200,000	-0,050	-0,175
-308,124	81,409	0,048	0,037
-307,110	-200,000	0,025	0,128
-306,095	34,806	0,046	-0,029
-305,080	726,765	0,096	0,184
-304,066	4,724	-0,079	0,041
-303,051	-54,772	-0,109	0,035
-302,037	-178,754	0,056	0,001
-301,022	342,191	-0,088	-0,124
-300,008	320,188	0,053	0,072
-298,993	692,709	0,015	-0,028
-297,978	-52,775	0,044	0,014
-296,964	228,975	0,020	0,023
-295,949	144,732	-0,134	-0,128
-294,935	-10,969	-0,084	0,040
-293,920	-200,000	0,009	0,097
-292,905	-200,000	0,002	0,027
-291,891	800,000	-0,058	-0,138
-290,876	90,146	0,025	-0,020
-289,862	176,318	-0,057	0,059
-288,847	57,032	-0,126	-0,088
-287,832	537,090	0,039	-0,067
-286,818	54,260	-0,079	-0,054
-285,803	-56,093	0,083	0,026
-284,789	742,806	0,056	0,108
-283,774	124,919	0,085	0,076
-282,759	-152,481	-0,101	0,005
-281,745	616,702	0,024	-0,043
-280,730	-80,753	-0,086	0,020
-279,716	231,388	-0,041	-0,048
-278,701	800,000	-0,061	-0,134
-277,686	-163,903	-0,011	0,000
-276,672	32,042	-0,142	0,087
-275,657	373,265	0,043	0,063
-274,643	-109,516	0,042	-0,006
-273,628	-10,196	-0,051	-0,024
-272,613	480,515	0,022	-0,036
-271,599	-200,000	-0,006	0,023
-270,584	-23,932	0,079	-0,034
-269,570	195,045	0,037	0,041
-268,555	419,230	0,072	-0,110
-267,540	-200,000	0,006	-0,056
-266,526	-200,000	-0,011	-0,158
-265,511	327,414	-0,084	-0,116
-264,497	800,000	-0,011	0,030
-263,482	49,149	-0,040	0,027
-262,467	-200,000	0,019	0,095
-261,453	409,765	0,058	0,088
-260,438	369,422	0,058	0,084
-259,424	-102,353	0,064	-0,011
-258,409	-200,000	0,032	-0,175
-257,395	759,020	-0,056	-0,108
-256,380	752,522	0,077	0,150
-255,365	800,000	-0,092	0,192
-254,351	-10,091	0,147	0,069
-253,336	-200,000	-0,010	-0,095
-252,322	-200,000	0,010	-0,201
-251,307	-200,000	-0,002	-0,129
-250,292	180,731	-0,163	0,171
-249,278	-59,539	0,147	0,045
-248,263	-57,624	-0,122	0,038
-247,249	-33,616	-0,136	-0,053
-246,234	800,000	0,006	-0,014
-245,219	-106,591	0,100	0,016
-244,205	800,000	0,034	0,083
-243,190	343,917	-0,058	0,081
-242,176	-200,000	0,022	0,156
-241,161	800,000	-0,084	0,169
-240,146	-158,152	0,023	-0,001
-239,132	320,234	0,021	-0,028
-238,117	800,000	0,037	-0,078
-237,103	-200,000	-0,042	-0,151
-236,088	-60,926	0,121	-0,036
-235,073	-200,000	-0,007	-0,062
-234,059	800,000	-0,020	0,059
-233,044	-137,797	-0,159	-0,013
-232,030	-54,949	-0,061	0,019
-231,015	378,044	-0,020	0,030
-230,000	-27,497	0,076	-0,032
-228,986	-4,417	0,031	-0,015
-227,971	6,061	-0,013	0,007
-226,957	-11,892	0,063	0,030
-225,942	-81,974	-0,075	0,017
-224,927	341,708	-0,064	-0,089
-223,913	-200,000	0,001	-0,009
-222,898	-200,000	0,021	0,143
-221,884	90,062	0,108	0,086
-220,869	800,000	0,024	-0,067
-219,855	-32,025	0,031	-0,012
-218,840	-24,456	-0,078	-0,033
-217,825	800,000	0,060	0,151
-216,811	277,957	-0,051	-0,065
-215,796	800,000	-0,017	-0,041
-214,782	-70,657	0,134	0,036
-213,767	53,235	0,106	-0,072
-212,752	692,540	-0,109	0,205
-211,738	241,841	-0,048	-0,058
-210,723	-124,521	0,075	0,008
-209,709	471,265	-0,067	-0,108
-208,694	-200,000	0,034	-0,110
-207,679	-32,975	-0,081	-0,032
-206,665	-52,035	-0,049	0,016
-205,650	581,623	0,105	0,184
-204,636	-200,000	0,021	0,084
-203,621	784,093	0,065	0,127
-202,606	565,560	-0,053	0,092
-201,592	-174,717	-0,086	-0,002
-200,577	-200,000	-0,019	0,061
-199,563	111,173	0,034	-0,029
-198,548	456,480	0,040	0,063
-197,533	16,816	-0,064	0,036
-196,519	-200,000	0,002	0,124
-195,504	505,553	-0,024	0,039
-194,490	4,375	-0,109	-0,057
-193,475	800,000	-0,043	-0,132
-192,460	-27,000	0,116	0,048
-191,446	-62,811	0,148	0,043
-190,431	23,960	0,018	-0,010
-189,417	800,000	0,087	-0,183
-188,402	138,499	0,059	-0,055
-187,387	-200,000	-0,023	0,113
-186,373	13,886	-0,109	0,060
-185,358	-200,000	-0,003	0,022
-184,344	-128,037	-0,088	-0,009
-183,329	207,984	0,126	0,140
-182,315	25,342	0,030	-0,018
-181,300	800,000	-0,032	-0,088
-180,285	111,243	-0,090	0,077
-179,271	-53,518	-0,057	0,018
-178,256	-64,692	-0,044	-0,013
-177,242	-154,974	-0,039	-0,002
-176,227	-200,000	0,036	0,177
-175,212	-4,258	-0,031	-0,015
-174,198	-200,000	0,015	0,077
-173,183	-129,998	0,026	-0,002
-172,169	800,000	-0,028	-0,062
-171,154	357,595	-0,080	-0,114
-170,139	-200,000	-0,022	-0,171
-169,125	-105,376	-0,027	0,004
-168,110	163,576	0,092	-0,092
-167,096	26,858	-0,079	-0,047
-166,081	-188,966	-0,101	-0,001
-165,066	111,823	-0,078	0,067
-164,052	509,708	-0,048	-0,080
-163,037	93,498	-0,024	-0,019
-162,023	-17,291	0,097	0,043
-161,008	130,960	-0,086	0,079
-159,993	800,000	-0,028	-0,086
-158,979	56,021	-0,090	0,062
-157,964	-200,000	0,007	0,091
-156,950	-27,295	0,090	-0,037
-155,935	60,106	0,059	0,041
-154,920	800,000	-0,028	0,065
-153,906	-200,000	-0,017	0,099
-152,891	-138,942	0,176	0,013
-151,877	-121,151	-0,187	-0,022
-150,862	449,899	-0,050	0,079
-149,847	-170,019	-0,066	0,002
-148,833	800,000	0,074	-0,148
-147,818	800,000	0,077	0,161
-146,804	192,887	0,017	0,019
-145,789	251,424	-0,044	-0,053
-144,775	-200,000	0,079	0,000
-143,760	-52,209	-0,020	-0,007
-142,745	800,000	0,015	-0,034
-141,731	63,036	-0,093	0,066
-140,716	9,365	0,061	-0,032
-139,702	-48,539	0,065	-0,022
-138,687	308,965	0,084	0,111
-137,672	-200,000	-0,010	0,065
-136,658	800,000	0,035	-0,085
-135,643	233,017	-0,107	-0,126
-134,629	-94,155	-0,094	0,018
-133,614	-63,377	0,031	-0,009
-132,599	101,358	0,046	-0,038
-131,585	-76,778	-0,091	0,022
-130,570	-34,657	0,026	-0,010
-129,556	-90,013	0,154	0,032
-128,541	-200,000	0,003	-0,018
-127,526	-113,478	-0,150	-0,021
-126,512	110,648	0,090	0,077
-125,497	800,000	-0,034	0,097
-124,483	-200,000	0,003	-0,035
-123,468	800,000	-0,033	0,084
-122,453	-79,585	0,098	-0,023
-121,439	-91,527	-0,077	0,015
-120,424	-20,539	-0,041	0,018
-119,410	-200,000	0,023	0,077
-118,395	-100,056	0,064	-0,011
-117,380	-200,000	0,019	0,162
-116,366	331,724	0,082	0,113
-115,351	-93,698	-0,123	-0,024
-114,337	36,547	-0,106	-0,066
-113,322	-47,415	0,021	-0,007
-112,307	32,324	-0,075	-0,046
-111,293	-28,182	0,082	-0,033
-110,278	260,197	0,069	0,085
-109,264	-200,000	0,003	-0,123
-108,249	63,437	-0,059	-0,042
-107,234	-200,000	0,000	-0,047
-106,220	-20,971	0,070	-0,030
-105,205	5,920	-0,021	-0,011
-104,191	37,513	0,128	-0,081
-103,176	749,093	0,021	-0,041
-102,162	713,276	-0,029	0,054
-101,147	-200,000	0,005	-0,120
-100,132	-38,421	-0,118	0,044
-99,118	202,194	-0,142	-0,156
-98,103	-60,638	-0,032	-0,010
-97,089	-27,742	0,011	0,005
-96,074	-93,998	-0,037	-0,007
-95,059	-114,659	-0,041	0,006
-94,045	8,656	-0,052	-0,028
-93,030	-200,000	-0,015	0,054
-92,016	-11,837	-0,109	-0,050
-91,001	-200,000	-0,004	0,021
-89,986	-27,268	-0,076	-0,031
-88,972	-200,000	0,008	0,050
-87,957	-200,000	-0,024	0,078
-86,943	-155,120	0,059	-0,003
-85,928	35,887	-0,066	-0,041
-84,913	-200,000	-0,011	-0,123
-83,899	-200,000	-0,001	0,041
-82,884	509,679	0,026	0,043
-81,870	-200,000	0,000	0,043
-80,855	285,326	0,030	0,038
-79,840	105,869	-0,055	-0,046
-78,826	-137,143	0,023	-0,002
-77,811	-130,410	-0,093	0,009
-76,797	-200,000	-0,044	-0,171
-75,782	-56,924	-0,024	-0,007
-74,767	-168,688	0,058	0,002
-73,753	329,977	-0,065	-0,088
-72,738	-4,189	-0,010	0,005
-71,724	-127,801	-0,023	-0,002
-70,709	-86,480	-0,069	-0,015
-69,694	32,380	0,044	0,027
-68,680	-200,000	0,009	0,039
-67,665	-200,000	-0,006	0,037
-66,651	-83,630	-0,121	0,027
-65,636	-200,000	-0,016	-0,201
-64,622	101,015	0,060	0,049
-63,607	-200,000	-0,041	0,141
-62,592	800,000	-0,028	0,080
-61,578	800,000	0,026	-0,072
-60,563	-29,438	-0,070	-0,028
-59,549	-152,821	-0,221	0,011
-58,534	-26,028	-1,582	-0,657
-57,519	381,056	-1,426	-2,080
-56,505	-200,000	-0,517	-4,544
-55,490	152,417	0,941	0,911
-54,476	800,000	4,877	11,407
-53,461	-200,000	18,532	299,014
-52,446	800,000	732,606	2265,272
-51,432	560,378	1649,103	2832,910
-50,417	78,838	1668,856	1263,463
-49,403	22,343	1541,640	889,921
-48,388	16,284	1464,936	816,231
-47,373	17,809	1454,484	817,730
-46,359	16,978	1444,968	808,366
-45,344	14,555	1440,353	794,163
-44,330	14,500	1438,372	792,777
-43,315	14,443	1436,802	791,604
-42,300	14,482	1435,008	790,773
-41,286	14,521	1433,765	790,244
-40,271	14,481	1432,429	789,282
-39,257	14,481	1431,370	788,669
-38,242	14,556	1429,852	788,159
-37,227	14,549	1428,879	787,559
-36,213	14,479	1427,564	786,469
-35,198	14,551	1426,400	786,138
-34,184	14,564	1425,431	785,635
-33,169	14,495	1424,010	784,492
-32,154	14,513	1423,132	784,063
-31,140	14,527	1421,633	783,272
-30,125	14,542	1420,731	782,814
-29,111	14,521	1419,494	782,005
-28,096	14,534	1418,293	781,371
-27,082	14,484	1417,281	780,547
-26,067	14,485	1416,230	779,941
-25,052	14,452	1415,104	779,136
-24,038	14,449	1414,270	778,630
-23,023	14,421	1413,166	777,864
-22,009	14,447	1412,035	777,331
-20,994	14,378	1411,436	776,648
-19,979	14,433	1410,469	776,340
-18,965	14,364	1409,248	775,318
-17,950	14,339	1408,500	774,758
-16,936	14,351	1407,450	774,205
-15,921	14,311	1406,700	773,575
-14,906	14,324	1405,815	773,117
-13,892	14,383	1404,531	772,655
-12,877	14,349	1403,771	772,048
-11,863	14,380	1402,667	771,555
-10,848	14,319	1401,917	770,827
-9,833	14,285	1401,131	770,206
-8,819	14,305	1399,993	769,644
-7,804	14,242	1399,431	769,011
-6,790	14,266	1398,115	768,368
-5,775	14,190	1397,188	767,476
-4,760	14,231	1396,438	767,223
-3,746	14,284	1395,313	766,820
-2,731	14,248	1394,653	766,261
-1,717	14,183	1393,986	765,563
-0,702	14,279	1391,903	764,834
0,313	18,041	1310,143	737,357
1,327	34,297	705,914	434,948
2,342	52,640	124,161	83,817
3,356	2,236	16,630	8,480
4,371	-0,032	3,117	1,566
5,386	-107,127	0,599	0,092
6,400	276,780	0,131	0,165
7,415	375,774	-0,103	-0,149
8,429	182,861	-0,295	-0,308
9,444	194,665	-0,272	-0,292
10,459	-62,299	-0,341	-0,100
11,473	41,066	-0,215	-0,137
12,488	-123,362	-0,216	-0,024
13,502	-45,450	-0,334	-0,116
14,517	34,943	-0,260	-0,161
15,531	78,514	-0,360	-0,272
16,546	31,445	-0,336	-0,204
17,561	32,974	-0,400	-0,244
18,575	-148,772	-0,202	0,011
19,590	363,699	-0,239	-0,341
20,604	356,232	-0,203	-0,287
21,619	12,247	-0,459	-0,249
22,634	46,392	-0,429	-0,280
23,648	30,571	-0,501	-0,302
24,663	19,353	-0,419	-0,237
25,677	82,394	-0,349	-0,268
26,692	5,821	-0,313	-0,163
27,707	17,090	-0,378	-0,211
28,721	31,595	-0,387	-0,235
29,736	-57,049	-0,425	-0,132
30,750	99,444	-0,402	-0,329
31,765	124,789	-0,320	-0,284
32,780	230,297	-0,266	-0,307
33,794	-39,123	-0,316	-0,117
34,809	139,624	-0,275	-0,256
35,823	132,624	-0,310	-0,282
36,838	181,962	-0,383	-0,398
37,853	0,147	-0,411	-0,206
38,867	-43,042	-0,522	-0,186
39,882	166,177	-0,237	-0,237
40,896	77,190	-0,287	-0,215
41,911	59,715	-0,442	-0,307
42,926	72,695	-0,284	-0,209
43,940	72,345	-0,319	-0,234
44,955	-15,787	-0,400	-0,179
45,969	118,586	-0,373	-0,324
46,984	-13,575	-0,454	-0,206
47,999	277,415	-0,183	-0,230
49,013	408,133	-0,232	-0,347
50,028	-31,437	-0,467	-0,184
51,042	35,933	-0,442	-0,273
52,057	51,888	-0,399	-0,267
53,071	59,638	-0,276	-0,192
54,086	75,445	-0,301	-0,223
55,101	28,980	-0,448	-0,267
56,115	-28,880	-0,416	-0,168
57,130	151,169	-0,301	-0,289
58,144	29,896	-0,278	-0,166
59,159	7,779	-0,431	-0,227
60,174	46,940	-0,263	-0,172
61,188	4,100	-0,351	-0,180
62,203	-58,161	-0,257	-0,078
63,217	226,104	-0,215	-0,246
64,232	-18,581	-0,309	-0,135
65,247	102,939	-0,367	-0,302
66,261	57,024	-0,371	-0,254
67,276	346,330	-0,302	-0,419
68,290	63,704	-0,295	-0,208
69,305	54,552	-0,221	-0,150
70,320	9,257	-0,328	-0,174
71,334	127,215	-0,286	-0,255
72,349	177,377	-0,237	-0,243
73,363	56,768	-0,478	-0,327
74,378	103,131	-0,343	-0,282
75,393	184,055	-0,293	-0,305
76,407	-34,127	-0,324	-0,125
77,422	-64,647	-0,373	-0,106
78,436	-46,706	-0,311	-0,107
79,451	-14,103	-0,239	-0,108
80,466	119,113	-0,303	-0,263
81,480	40,985	-0,364	-0,231
82,495	196,217	-0,224	-0,240
83,509	130,641	-0,275	-0,248
84,524	85,098	-0,243	-0,187
85,539	89,267	-0,280	-0,219
86,553	192,215	-0,295	-0,312
87,568	42,771	-0,255	-0,163
88,582	68,135	-0,187	-0,135
89,597	55,672	-0,322	-0,219
90,611	102,340	-0,286	-0,235
91,626	800,000	-0,159	-0,322
92,641	142,881	-0,320	-0,299
93,655	139,537	-0,217	-0,201
94,670	103,186	-0,399	-0,328
95,684	120,505	-0,265	-0,231
96,699	-25,674	-0,440	-0,181
97,714	-123,693	-0,172	0,019
98,728	52,361	-0,237	-0,159
99,743	313,125	-0,255	-0,338
100,757	-43,890	-0,350	-0,123
101,772	-8,697	-0,350	-0,164
102,787	177,747	-0,287	-0,294
103,801	32,569	-0,396	-0,239
104,816	92,409	-0,323	-0,255
105,830	146,260	-0,149	-0,140
106,845	4,742	-0,281	-0,144
107,860	-34,803	-0,343	-0,131
108,874	117,799	-0,132	-0,114
109,889	-42,828	-0,363	-0,128
110,903	73,689	-0,385	-0,283
111,918	-39,444	-0,359	-0,131
112,933	183,399	-0,164	-0,170
113,947	-102,319	-0,122	-0,020
114,962	-63,402	-0,245	-0,070
115,976	136,392	-0,244	-0,223
116,991	255,871	-0,128	-0,154
118,006	-62,673	-0,436	-0,126
119,020	367,278	-0,200	-0,283
120,035	-10,058	-0,329	-0,152
121,049	129,841	-0,172	-0,154
122,064	-145,302	-0,322	-0,020
123,079	62,985	-0,256	-0,179
124,093	192,029	-0,207	-0,219
125,108	-95,982	-0,286	-0,053
126,122	71,543	-0,281	-0,204
127,137	24,082	-0,258	-0,149
128,151	-51,139	-0,263	0,086
129,166	63,511	-0,157	-0,110
130,181	53,117	-0,293	-0,196
131,195	800,000	-0,132	-0,300
132,210	114,324	-0,284	-0,242
133,224	45,561	-0,313	-0,202
134,239	706,537	-0,106	-0,197
135,254	103,033	-0,212	-0,174
136,268	246,571	-0,149	-0,177
137,283	172,090	-0,257	-0,259
138,297	-60,162	-0,377	-0,112
139,312	68,077	-0,266	-0,190
140,327	-200,000	-0,059	-0,238
141,341	76,190	-0,236	-0,174
142,356	-110,158	-0,337	-0,049
143,370	682,033	-0,218	-0,400
144,385	-121,731	-0,300	-0,034
145,400	61,237	-0,258	-0,179
146,414	98,724	-0,268	-0,216
147,429	2,501	-0,158	-0,080
148,443	53,772	-0,229	-0,153
149,458	370,052	-0,164	-0,233
150,473	17,769	-0,242	-0,134
151,487	-169,423	-0,156	0,004
152,502	542,048	-0,161	-0,269
153,516	145,484	-0,273	-0,255
154,531	53,071	-0,245	-0,163
155,546	298,882	-0,271	-0,349
156,560	-34,830	-0,236	-0,090
157,575	157,457	-0,209	-0,202
158,589	-12,139	-0,184	-0,084
159,604	650,489	-0,101	-0,182
160,619	172,120	-0,200	-0,201
161,633	92,231	-0,177	-0,139
162,648	-20,432	-0,218	-0,093
163,662	96,081	-0,280	-0,223
164,677	-200,000	-0,100	-0,327
165,692	-200,000	-0,076	-0,237
166,706	259,463	-0,229	-0,276
167,721	4,112	-0,296	-0,151
168,735	-34,496	-0,321	-0,122
169,750	-105,098	-0,273	-0,043
170,764	4,843	-0,328	-0,168
171,779	108,198	-0,200	-0,166
172,794	-31,182	-0,301	-0,118
173,808	163,066	-0,225	-0,221
174,823	114,222	-0,323	-0,274
175,837	-159,375	-0,190	0,007
176,852	202,905	-0,159	-0,171
177,867	250,315	-0,176	-0,208
178,881	78,487	-0,224	-0,167
179,896	555,900	-0,109	-0,183
180,910	160,077	-0,304	-0,296
181,925	44,414	-0,367	-0,234
182,940	41,809	-0,288	-0,181
183,954	118,193	-0,184	-0,158
184,969	-3,666	-0,168	-0,081
185,983	90,801	-0,181	-0,141
186,998	114,810	-0,159	-0,135
188,013	-141,282	-0,300	-0,021
189,027	129,726	-0,280	-0,249
190,042	28,374	-0,264	-0,155
191,056	14,700	-0,267	-0,145
192,071	-49,174	-0,119	-0,039
193,086	-45,708	-0,296	-0,101
194,100	-7,352	-0,138	-0,065
195,115	17,515	-0,205	-0,113
196,129	184,624	-0,141	-0,145
197,144	259,892	-0,213	-0,256
198,159	800,000	-0,163	-0,349
199,173	221,814	-0,155	-0,173
200,188	102,424	-0,214	-0,174
201,202	800,000	-0,110	-0,219
202,217	-108,481	-0,201	-0,030
203,232	25,830	-0,233	-0,135
204,246	102,545	-0,287	-0,234
205,261	183,069	-0,222	-0,228
206,275	800,000	-0,112	-0,258
207,290	-6,924	-0,161	-0,076
208,304	58,540	-0,168	-0,114
209,319	99,425	-0,241	-0,194
210,334	38,188	-0,257	-0,159
211,348	-106,040	-0,181	-0,028
212,363	4,665	-0,203	-0,103
213,377	506,140	-0,151	-0,244
214,392	-40,275	-0,174	-0,063
215,407	2,836	-0,193	-0,097
216,421	800,000	-0,107	-0,242
217,436	1,894	-0,275	-0,137
218,450	800,000	-0,121	-0,245
219,465	226,948	-0,165	-0,187
220,480	208,668	-0,157	-0,170
221,494	383,080	-0,168	-0,241
222,509	-200,000	-0,062	-0,192
223,523	-18,193	-0,274	-0,118
224,538	504,425	-0,149	-0,241
225,553	87,326	-0,213	-0,164
226,567	-200,000	-0,064	-0,287
227,582	800,000	-0,074	-0,225
228,596	-29,047	-0,215	-0,085
229,611	-5,682	-0,207	-0,098
230,626	-137,741	-0,237	-0,018
231,640	97,691	-0,186	-0,149
232,655	-22,893	-0,294	-0,122
233,669	268,120	-0,162	-0,197
234,684	108,133	-0,218	-0,180
235,699	-40,014	-0,176	-0,063
236,713	485,576	-0,189	-0,300
237,728	111,685	-0,236	-0,197
238,742	-200,000	-0,074	-0,292
239,757	-63,602	-0,204	-0,058
240,772	-95,594	-0,272	-0,050
241,786	-40,199	-0,298	-0,107
242,801	512,936	-0,052	-0,085
243,815	79,476	-0,055	-0,041
244,830	49,542	-0,080	-0,052
245,844	-200,000	-0,079	-0,250
246,859	800,000	-0,100	-0,285
247,874	538,610	-0,085	-0,140
248,888	104,177	-0,188	-0,153
249,903	-0,034	-0,145	-0,071
250,917	213,321	-0,150	-0,164
251,932	421,479	-0,101	-0,150
252,947	-17,986	-0,137	-0,059
253,961	139,038	-0,165	-0,150
254,976	31,927	-0,214	-0,127
255,990	77,114	-0,150	-0,110
257,005	196,608	-0,158	-0,167
258,020	-103,838	-0,095	0,015
259,034	316,283	-0,127	-0,166
260,049	-26,219	-0,144	-0,058
261,063	38,911	-0,180	-0,111
262,078	-38,908	-0,205	-0,074
263,093	136,259	-0,214	-0,193
264,107	-60,475	-0,227	-0,066
265,122	458,876	-0,130	-0,201
266,136	-108,177	-0,216	-0,032
267,151	780,150	-0,114	-0,216
268,166	68,668	-0,215	-0,152
269,180	-89,972	-0,187	0,037
270,195	-39,104	-0,285	-0,103
271,209	800,000	-0,063	-0,173
272,224	61,394	-0,140	-0,096
273,239	281,594	-0,091	-0,113
274,253	-58,575	-0,120	-0,036
275,268	207,805	-0,097	-0,105
276,282	-12,970	-0,152	-0,068
277,297	164,379	-0,193	-0,188
278,312	800,000	-0,130	-0,258
279,326	41,474	-0,115	-0,072
280,341	-1,141	-0,108	-0,053
281,355	7,311	-0,167	-0,086
282,370	418,961	-0,132	-0,196
283,384	109,853	-0,137	-0,113
284,399	-86,242	-0,156	-0,033
285,414	595,298	-0,115	-0,197
286,428	130,447	-0,157	-0,139
287,443	250,117	-0,135	-0,159
288,457	4,683	-0,172	-0,087
289,472	174,425	-0,104	-0,104
290,487	-66,901	-0,216	-0,059
291,501	-91,859	-0,310	-0,060
292,516	-30,910	-0,244	-0,095
293,530	124,011	-0,178	-0,154
294,545	405,064	-0,088	-0,128
295,560	-162,167	-0,098	-0,003
296,574	172,772	-0,018	-0,018
297,589	229,971	-0,185	-0,208
298,603	800,000	-0,053	-0,158
299,618	136,665	-0,199	-0,179
300,633	73,991	-0,191	-0,138
301,647	237,217	-0,063	-0,072
302,662	-88,420	-0,144	-0,029
303,676	88,443	-0,153	-0,117
304,691	193,264	-0,189	-0,197
305,706	434,197	-0,102	-0,153
306,720	125,082	-0,095	-0,083
307,735	-44,497	-0,222	-0,076
308,749	-152,973	-0,283	0,014
309,764	21,402	-0,195	-0,109
310,779	155,160	-0,114	-0,108
311,793	800,000	-0,066	-0,149
312,808	-37,807	-0,086	-0,031
313,822	228,224	-0,111	-0,125
314,837	-67,856	-0,125	0,033
315,852	800,000	-0,085	-0,179
316,866	-49,929	-0,199	-0,065
317,881	-200,000	-0,039	-0,194
318,895	-182,921	-0,223	-0,003
319,910	-132,586	-0,048	-0,004
320,925	800,000	-0,103	-0,202
321,939	179,207	-0,077	-0,077
322,954	79,994	-0,047	-0,035
323,968	800,000	-0,013	-0,035
324,983	397,920	-0,112	-0,162
325,997	4,726	-0,161	-0,081
327,012	309,721	-0,181	-0,233
328,027	800,000	-0,122	-0,250
329,041	110,232	-0,211	-0,174
330,056	88,441	-0,125	-0,096
331,070	-200,000	-0,056	-0,175
332,085	-61,593	-0,144	0,041
333,100	30,304	-0,185	-0,108
334,114	75,931	-0,147	-0,107
335,129	356,817	-0,149	-0,205
336,143	65,129	-0,227	-0,158
337,158	-112,860	-0,171	-0,023
338,173	-104,582	-0,142	0,022
339,187	-19,055	-0,107	-0,045
340,202	-177,171	-0,047	0,001
341,216	55,400	-0,185	-0,123
342,231	686,406	-0,139	-0,250
343,246	55,513	-0,132	-0,088
344,260	-200,000	0,014	-0,153
345,275	-200,000	-0,043	-0,203
346,289	800,000	-0,048	-0,145
347,304	-200,000	-0,012	-0,146
348,319	16,066	-0,159	-0,086
349,333	800,000	-0,059	-0,116
350,348	128,430	-0,263	-0,230
351,362	235,257	-0,124	-0,141
352,377	341,413	-0,063	-0,084
353,392	277,640	-0,097	-0,119
354,406	1,190	-0,097	-0,048
355,421	208,034	1317,488	1414,188
356,435	160,050	1478,559	1414,670
