DTS Sentinel unit serial number:	SN410029Multiplexer serial number:	ORYXHardware model number:	OX2-SRSoftware version number:	ORYX F/W v4,00 Oryx Data Collector v3.7.2.0data status	okinstallation	B3 Nyhavnadifferential loss correction	single-endedforward channel	channel 1reverse channel	N/Adate	2023/12/05time	08:07:30forward acquisition time	300,00reverse acquisition time	0,00gamma	499,1914k internal	0,3200k external	0,3200temperature offset calibration	1,0000default loss term (dB/km)	0,3820temperature slope calibration	1,0000multiplexer offset coefficient	1,0000multiplexer slope coefficient	1,0000fibre end	0,00T internal ref (°C)	13,47T ext. ref 1 (°C)	-1,73T ext. ref 2 (°C)	-1,83length (m)	temperature (°C)	Stokes	anti-Stokes-744,400	800,000	-0,093	-0,216
-743,385	-200,000	0,084	0,277
-742,371	800,000	-0,048	-0,138
-741,356	-200,000	0,040	0,392
-740,342	-53,590	-0,297	-0,098
-739,327	537,953	-0,111	0,193
-738,312	320,448	-0,200	-0,278
-737,298	800,000	-0,119	0,311
-736,283	23,197	-0,274	-0,163
-735,269	-200,000	0,103	0,347
-734,254	3,760	-0,214	-0,113
-733,239	-57,959	-0,187	0,059
-732,225	390,259	-0,224	-0,339
-731,210	-86,596	0,183	0,040
-730,196	-200,000	0,002	-0,164
-729,181	244,440	-0,045	0,056
-728,167	111,774	-0,171	-0,150
-727,152	-200,000	-0,015	-0,093
-726,137	-28,851	-0,084	-0,035
-725,123	42,698	-0,104	-0,069
-724,108	75,559	-0,040	-0,031
-723,094	-0,390	-0,154	-0,079
-722,079	559,830	0,039	-0,069
-721,064	-200,000	0,006	-0,096
-720,050	5,239	0,034	-0,018
-719,035	-58,089	0,018	-0,006
-718,021	540,375	-0,014	-0,024
-717,006	-123,066	-0,079	0,009
-715,991	800,000	-0,030	-0,090
-714,977	-200,000	-0,023	-0,089
-713,962	6,354	0,153	-0,083
-712,948	-68,661	0,099	-0,028
-711,933	18,581	0,049	-0,029
-710,918	-104,399	-0,101	-0,017
-709,904	-155,650	-0,166	0,008
-708,889	-200,000	0,004	-0,087
-707,875	295,902	-0,068	0,091
-706,860	-200,000	-0,005	0,119
-705,845	239,840	0,036	-0,044
-704,831	93,691	0,041	0,034
-703,816	-200,000	-0,012	0,077
-702,802	57,506	-0,093	-0,066
-701,787	-85,466	-0,088	0,020
-700,772	-200,000	0,007	-0,028
-699,758	476,601	0,045	-0,073
-698,743	380,080	0,017	-0,026
-697,729	-200,000	0,039	-0,167
-696,714	-200,000	0,024	0,206
-695,699	31,963	-0,072	-0,045
-694,685	40,801	-0,114	-0,075
-693,670	-200,000	-0,014	-0,067
-692,656	-200,000	0,007	-0,098
-691,641	310,795	0,012	0,016
-690,627	-1,781	0,104	-0,053
-689,612	1,591	0,133	0,069
-688,597	-200,000	-0,004	-0,070
-687,583	800,000	-0,078	-0,185
-686,568	11,006	-0,136	-0,075
-685,554	-38,113	0,183	0,070
-684,539	-200,000	0,008	0,115
-683,524	-200,000	-0,140	0,000
-682,510	-17,301	-0,084	0,038
-681,495	-200,000	-0,007	0,108
-680,481	-200,000	0,027	0,100
-679,466	216,253	-0,051	-0,058
-678,451	54,417	0,022	-0,015
-677,437	-171,025	-0,078	-0,002
-676,422	53,678	-0,059	-0,041
-675,408	-200,000	-0,012	-0,093
-674,393	85,332	-0,094	-0,075
-673,378	-200,000	-0,028	-0,120
-672,364	761,724	-0,057	-0,113
-671,349	-200,000	-0,047	-0,180
-670,335	-84,291	0,033	-0,007
-669,320	367,730	-0,052	-0,076
-668,305	-200,000	-0,008	-0,131
-667,291	46,257	-0,132	-0,088
-666,276	396,717	-0,063	-0,095
-665,262	-59,348	0,020	0,006
-664,247	-114,184	-0,055	0,008
-663,232	25,859	-0,174	0,105
-662,218	412,716	0,055	0,086
-661,203	602,956	-0,045	0,082
-660,189	-200,000	-0,000	0,007
-659,174	-200,000	-0,006	0,040
-658,159	475,918	-0,075	-0,123
-657,145	-200,000	-0,004	-0,094
-656,130	800,000	-0,038	0,107
-655,116	-200,000	-0,012	0,048
-654,101	-200,000	0,039	-0,131
-653,086	401,587	-0,033	0,051
-652,072	-75,569	-0,249	-0,064
-651,057	800,000	0,041	-0,101
-650,043	23,567	-0,099	-0,059
-649,028	-72,357	-0,093	0,025
-648,014	-96,599	0,062	0,012
-646,999	-200,000	0,034	0,211
-645,984	800,000	0,043	-0,126
-644,970	1,806	-0,055	0,029
-643,955	-200,000	-0,019	-0,110
-642,941	464,268	-0,069	0,112
-641,926	376,166	-0,058	0,086
-640,911	-20,255	-0,065	-0,029
-639,897	188,824	-0,088	0,096
-638,882	773,314	-0,059	0,116
-637,868	206,410	0,086	0,097
-636,853	50,773	-0,043	0,030
-635,838	212,267	-0,047	0,053
-634,824	51,980	-0,084	-0,058
-633,809	-51,481	-0,079	0,027
-632,795	-52,681	0,071	0,024
-631,780	800,000	0,056	0,119
-630,765	162,716	-0,153	0,156
-629,751	21,281	0,037	0,022
-628,736	630,291	0,028	0,051
-627,722	-98,548	-0,103	-0,019
-626,707	-44,934	-0,014	-0,005
-625,692	32,272	0,106	0,066
-624,678	-96,670	-0,067	-0,013
-623,663	12,535	-0,053	0,029
-622,649	237,279	-0,078	-0,094
-621,634	273,185	-0,061	-0,078
-620,619	129,934	0,075	0,069
-619,605	370,193	0,046	-0,067
-618,590	-35,115	0,036	0,014
-617,576	790,650	0,036	0,072
-616,561	503,614	0,022	-0,037
-615,546	27,420	-0,117	-0,071
-614,532	663,773	0,024	-0,044
-613,517	-200,000	-0,016	-0,122
-612,503	121,049	-0,070	-0,063
-611,488	-158,035	0,134	-0,006
-610,474	677,422	-0,079	-0,150
-609,459	-200,000	0,028	0,118
-608,444	-200,000	-0,029	-0,191
-607,430	-200,000	-0,010	-0,088
-606,415	160,271	-0,031	0,031
-605,401	-75,454	0,204	0,052
-604,386	127,825	-0,022	-0,020
-603,371	90,244	0,072	0,058
-602,357	-13,095	-0,089	0,042
-601,342	-45,264	0,033	0,012
-600,328	-184,940	0,034	-0,000
-599,313	-200,000	0,036	-0,170
-598,298	50,908	-0,051	-0,035
-597,284	465,015	-0,067	-0,108
-596,269	-102,530	0,140	-0,024
-595,255	-62,506	-0,112	0,033
-594,240	-200,000	0,009	-0,066
-593,225	800,000	0,033	0,089
-592,211	479,610	-0,084	-0,138
-591,196	-200,000	-0,044	-0,146
-590,182	402,260	0,017	-0,026
-589,167	214,443	0,080	-0,092
-588,152	752,475	-0,051	0,101
-587,138	-7,790	0,085	-0,041
-586,123	-200,000	0,005	-0,018
-585,109	601,122	-0,075	-0,135
-584,094	-77,712	0,126	-0,031
-583,079	778,327	0,070	0,139
-582,065	150,032	0,028	0,028
-581,050	-200,000	-0,027	-0,125
-580,036	-71,867	-0,041	0,011
-579,021	-11,835	-0,065	0,031
-578,006	139,623	0,022	-0,021
-576,992	-33,495	-0,093	-0,037
-575,977	22,904	0,038	0,023
-574,963	800,000	-0,066	0,138
-573,948	-200,000	-0,028	0,117
-572,934	-52,735	-0,077	0,025
-571,919	800,000	-0,033	-0,068
-570,904	-200,000	-0,010	-0,038
-569,890	-125,503	-0,269	-0,029
-568,875	-0,181	0,152	-0,078
-567,861	-34,057	-0,119	0,047
-566,846	-200,000	-0,028	0,127
-565,831	50,484	-0,090	0,062
-564,817	-46,811	-0,066	-0,023
-563,802	688,628	0,042	-0,079
-562,788	21,246	-0,163	-0,096
-561,773	-200,000	0,026	0,088
-560,758	2,374	0,010	-0,005
-559,744	-57,431	-0,092	-0,029
-558,729	-31,527	0,091	-0,037
-557,715	-13,393	0,041	-0,019
-556,700	-86,137	0,075	-0,017
-555,685	-114,923	-0,070	0,010
-554,671	54,984	-0,040	-0,028
-553,656	800,000	0,032	-0,069
-552,642	800,000	0,032	-0,080
-551,627	168,429	-0,113	0,116
-550,612	-81,347	0,055	0,013
-549,598	5,704	-0,032	0,017
-548,583	718,530	-0,010	0,020
-547,569	26,601	0,145	-0,088
-546,554	43,429	0,083	0,054
-545,539	407,670	-0,011	-0,016
-544,525	800,000	0,035	-0,074
-543,510	-200,000	-0,007	-0,052
-542,496	-200,000	0,034	-0,110
-541,481	-200,000	0,034	-0,176
-540,466	448,253	-0,052	-0,083
-539,452	348,188	-0,050	-0,072
-538,437	-156,632	0,059	0,003
-537,423	-83,224	0,057	0,013
-536,408	786,143	-0,038	-0,075
-535,393	735,163	0,040	-0,077
-534,379	266,361	0,114	0,144
-533,364	800,000	-0,026	0,067
-532,350	800,000	-0,029	0,061
-531,335	-200,000	0,032	0,103
-530,321	-200,000	-0,017	0,136
-529,306	-147,576	0,055	-0,003
-528,291	309,689	0,018	0,024
-527,277	-200,000	0,033	-0,154
-526,262	47,224	-0,021	-0,014
-525,248	800,000	0,064	-0,183
-524,233	-86,020	0,081	-0,018
-523,218	-3,514	-0,160	0,080
-522,204	25,514	-0,083	0,049
-521,189	643,660	-0,056	-0,103
-520,175	398,969	0,078	-0,118
-519,160	-8,388	-0,125	-0,060
-518,145	-200,000	0,019	0,163
-517,131	307,262	0,026	-0,035
-516,116	557,932	0,020	0,034
-515,102	131,353	-0,074	0,069
-514,087	-95,297	-0,080	-0,015
-513,072	705,429	0,014	-0,026
-512,058	-200,000	0,016	-0,061
-511,043	800,000	0,063	0,149
-510,029	-105,286	0,025	0,004
-509,014	134,843	0,044	-0,041
-507,999	58,234	0,062	0,044
-506,985	-200,000	-0,003	-0,085
-505,970	-1,754	-0,093	0,047
-504,956	117,451	0,011	-0,010
-503,941	75,794	0,109	-0,083
-502,926	114,414	-0,043	-0,037
-501,912	6,547	0,128	0,068
-500,897	293,538	0,078	-0,103
-499,883	800,000	-0,032	-0,098
-498,868	607,500	-0,007	0,012
-497,853	-102,120	0,092	-0,016
-496,839	-10,081	0,034	-0,016
-495,824	-71,213	0,018	0,005
-494,810	8,161	0,099	0,054
-493,795	-200,000	0,003	-0,108
-492,781	800,000	-0,016	-0,051
-491,766	-200,000	-0,036	-0,147
-490,751	350,098	-0,019	-0,027
-489,737	172,586	0,031	0,032
-488,722	537,087	0,039	-0,066
-487,708	236,288	0,023	0,028
-486,693	-96,687	0,182	0,034
-485,678	-200,000	0,019	-0,089
-484,664	234,409	-0,064	0,076
-483,649	-123,014	-0,090	-0,010
-482,635	-74,415	0,074	-0,019
-481,620	-72,103	-0,103	-0,027
-480,605	49,562	-0,172	0,116
-479,591	509,798	-0,081	0,136
-478,576	-200,000	-0,016	0,096
-477,562	800,000	-0,031	-0,092
-476,547	350,495	0,044	0,063
-475,532	-76,538	-0,162	0,041
-474,518	-200,000	0,013	0,086
-473,503	457,724	-0,034	-0,055
-472,489	200,103	0,032	0,036
-471,474	-200,000	-0,030	0,173
-470,459	-200,000	-0,004	-0,018
-469,445	-200,000	-0,047	-0,207
-468,430	619,166	-0,050	-0,091
-467,416	-77,539	0,067	-0,017
-466,401	-156,501	0,085	-0,004
-465,386	-200,000	0,003	0,149
-464,372	-27,412	0,062	-0,026
-463,357	485,255	0,024	-0,039
-462,343	-30,435	0,050	0,020
-461,328	44,738	-0,012	0,008
-460,313	-200,000	0,029	-0,101
-459,299	451,224	-0,058	0,092
-458,284	-113,097	0,057	0,008
-457,270	-22,867	0,043	0,019
-456,255	678,211	0,031	0,058
-455,241	17,281	0,157	-0,089
-454,226	800,000	0,031	0,075
-453,211	38,883	0,055	0,035
-452,197	-10,794	0,077	-0,036
-451,182	-96,149	0,019	0,004
-450,168	-182,025	-0,053	-0,001
-449,153	138,529	-0,010	0,009
-448,138	-42,330	-0,078	0,028
-447,124	-56,922	0,081	-0,026
-446,109	-200,000	-0,029	-0,192
-445,095	19,874	-0,042	-0,024
-444,080	591,767	-0,012	0,021
-443,065	573,770	0,075	0,131
-442,051	105,639	-0,089	0,075
-441,036	-200,000	-0,020	-0,089
-440,022	-200,000	-0,003	-0,089
-439,007	-122,169	-0,146	-0,017
-437,992	-5,566	0,065	0,032
-436,978	63,194	0,056	-0,040
-435,963	106,645	-0,098	-0,083
-434,949	-80,634	0,063	0,015
-433,934	-67,105	0,157	0,044
-432,919	65,776	0,023	0,017
-431,905	800,000	-0,016	-0,035
-430,890	265,688	-0,095	0,120
-429,876	573,695	-0,061	0,107
-428,861	534,880	-0,034	-0,058
-427,846	-200,000	-0,003	0,041
-426,832	-47,998	-0,170	0,059
-425,817	157,241	0,120	-0,119
-424,803	513,310	-0,075	-0,127
-423,788	-200,000	-0,025	-0,145
-422,773	240,834	0,140	0,168
-421,759	-89,932	-0,040	0,008
-420,744	9,387	-0,006	0,003
-419,730	-55,205	0,085	0,027
-418,715	11,913	0,033	-0,018
-417,701	-140,993	0,106	-0,008
-416,686	-67,123	0,115	-0,032
-415,671	-37,996	-0,051	-0,019
-414,657	308,079	-0,127	0,171
-413,642	-38,467	-0,059	0,022
-412,628	800,000	0,036	-0,097
-411,613	800,000	-0,053	-0,108
-410,598	-34,558	-0,095	0,037
-409,584	42,153	-0,071	0,046
-408,569	247,363	0,014	-0,017
-407,555	-200,000	-0,001	-0,024
-406,540	-200,000	-0,006	-0,032
-405,525	800,000	-0,014	-0,036
-404,511	80,851	-0,067	-0,052
-403,496	-200,000	0,007	0,128
-402,482	67,394	0,047	0,034
-401,467	-27,943	0,109	-0,045
-400,452	-200,000	0,046	0,152
-399,438	800,000	-0,027	0,082
-398,423	290,982	-0,057	0,075
-397,409	229,578	-0,033	-0,039
-396,394	293,556	-0,036	0,047
-395,379	33,537	0,121	0,075
-394,365	-132,193	0,072	-0,007
-393,350	-200,000	-0,006	0,079
-392,336	-101,535	0,127	0,022
-391,321	-71,997	0,083	0,022
-390,306	375,911	-0,082	0,120
-389,292	465,502	0,036	-0,058
-388,277	335,105	-0,032	-0,044
-387,263	-200,000	0,043	0,136
-386,248	-73,773	0,100	0,026
-385,233	285,862	0,028	0,036
-384,219	458,527	0,014	-0,022
-383,204	-200,000	0,015	0,055
-382,190	-15,602	-0,067	0,031
-381,175	734,937	-0,032	0,062
-380,160	488,132	-0,039	-0,064
-379,146	497,310	-0,039	0,065
-378,131	137,403	-0,069	0,065
-377,117	-16,376	0,081	-0,037
-376,102	237,953	0,066	-0,078
-375,088	-0,096	0,058	0,030
-374,073	-41,600	-0,044	0,016
-373,058	-83,684	-0,028	-0,006
-372,044	-200,000	0,009	0,031
-371,029	800,000	-0,004	-0,009
-370,015	308,669	-0,161	-0,216
-369,000	-200,000	0,027	0,116
-367,985	74,950	-0,111	-0,084
-366,971	800,000	0,071	-0,196
-365,956	-200,000	-0,010	-0,076
-364,942	-200,000	-0,004	0,053
-363,927	91,472	-0,073	0,059
-362,912	-200,000	0,015	-0,069
-361,898	181,601	-0,099	-0,104
-360,883	-200,000	0,029	-0,113
-359,869	-65,700	0,019	0,005
-358,854	611,149	0,030	0,054
-357,839	-200,000	-0,021	0,128
-356,825	314,834	-0,068	0,092
-355,810	136,453	0,062	0,058
-354,796	89,153	-0,078	0,062
-353,781	800,000	-0,035	0,075
-352,766	-200,000	-0,009	-0,047
-351,752	324,356	0,050	0,068
-350,737	206,344	0,111	0,124
-349,723	57,990	-0,135	-0,095
-348,708	800,000	0,008	0,022
-347,693	2,046	-0,115	-0,059
-346,679	-14,577	0,059	-0,027
-345,664	-80,915	-0,089	0,021
-344,650	-200,000	0,013	-0,123
-343,635	519,100	0,084	-0,141
-342,620	-187,603	-0,064	0,001
-341,606	-200,000	-0,006	-0,026
-340,591	100,986	-0,012	0,010
-339,577	-127,833	0,049	-0,005
-338,562	70,368	0,066	-0,049
-337,548	10,875	-0,191	-0,104
-336,533	14,280	0,080	-0,044
-335,518	346,928	0,078	0,110
-334,504	-200,000	0,011	0,041
-333,489	-200,000	0,002	-0,105
-332,475	494,127	-0,053	-0,088
-331,460	52,065	0,033	-0,022
-330,445	-47,223	-0,053	-0,018
-329,431	-200,000	-0,007	0,186
-328,416	-64,533	0,070	-0,020
-327,402	288,907	-0,083	0,108
-326,387	286,242	0,053	0,069
-325,372	800,000	0,018	-0,042
-324,358	-200,000	-0,035	-0,112
-323,343	-200,000	0,014	-0,093
-322,329	207,802	0,114	-0,128
-321,314	-84,805	0,017	0,004
-320,299	-200,000	-0,030	0,103
-319,285	322,070	0,028	0,039
-318,270	35,183	0,032	0,020
-317,256	351,404	0,047	-0,067
-316,241	-200,000	-0,003	-0,028
-315,226	-73,073	0,056	-0,015
-314,212	-200,000	-0,011	-0,079
-313,197	-155,691	0,173	-0,008
-312,183	-97,959	-0,019	0,004
-311,168	-19,629	0,047	0,021
-310,153	-200,000	-0,055	-0,174
-309,139	800,000	0,030	-0,063
-308,124	-97,398	0,099	0,018
-307,110	-200,000	0,002	-0,052
-306,095	654,090	0,033	0,060
-305,080	800,000	-0,047	-0,120
-304,066	800,000	-0,021	-0,046
-303,051	-132,257	-0,057	0,005
-302,037	271,171	-0,031	0,039
-301,022	93,626	0,054	-0,044
-300,008	-200,000	-0,011	0,149
-298,993	-104,751	0,051	-0,008
-297,978	450,279	-0,075	0,119
-296,964	533,807	-0,092	0,156
-295,949	-28,148	-0,106	-0,044
-294,935	302,297	-0,045	-0,060
-293,920	-144,542	0,037	0,002
-292,905	192,040	-0,066	-0,071
-291,891	-38,656	0,029	-0,011
-290,876	800,000	-0,030	-0,062
-289,862	242,486	-0,071	0,085
-288,847	-99,197	-0,054	0,010
-287,832	800,000	-0,021	0,045
-286,818	54,243	0,053	-0,037
-285,803	-143,381	-0,033	-0,002
-284,789	-200,000	-0,040	0,135
-283,774	114,530	-0,060	0,052
-282,759	-74,417	0,062	0,016
-281,745	-200,000	0,008	0,036
-280,730	800,000	0,033	-0,066
-279,716	800,000	0,016	-0,044
-278,701	-42,912	-0,057	-0,020
-277,686	-200,000	0,003	0,124
-276,672	-43,620	0,058	-0,021
-275,657	0,064	0,056	-0,028
-274,643	155,163	0,065	-0,064
-273,628	595,778	0,035	0,063
-272,613	-7,933	-0,057	0,028
-271,599	8,075	0,111	0,059
-270,584	265,388	-0,026	0,033
-269,570	-200,000	0,003	-0,013
-268,555	-200,000	-0,032	0,129
-267,540	800,000	0,055	-0,125
-266,526	134,190	-0,154	0,143
-265,511	-9,920	-0,080	0,038
-264,497	-200,000	0,018	0,085
-263,482	-200,000	-0,031	0,113
-262,467	535,299	0,071	0,121
-261,453	264,664	0,040	0,050
-260,438	-200,000	0,014	0,045
-259,424	9,247	-0,145	0,078
-258,409	45,807	0,042	-0,028
-257,395	138,825	-0,025	0,023
-256,380	800,000	0,037	0,100
-255,365	800,000	0,040	0,118
-254,351	-200,000	0,001	0,098
-253,336	180,601	0,042	-0,044
-252,322	89,653	0,022	-0,017
-251,307	-77,820	-0,069	-0,017
-250,292	-62,436	-0,091	0,027
-249,278	251,577	0,041	-0,050
-248,263	465,171	-0,046	0,074
-247,249	-84,405	0,109	-0,024
-246,234	325,131	-0,082	-0,112
-245,219	-200,000	-0,002	0,050
-244,205	-200,000	0,009	-0,147
-243,190	-29,642	0,046	-0,019
-242,176	-78,764	0,044	-0,011
-241,161	-24,427	0,030	-0,013
-240,146	249,423	0,024	0,030
-239,132	-85,328	0,113	0,025
-238,117	38,018	0,145	0,092
-237,103	-200,000	-0,009	0,067
-236,088	436,553	0,026	-0,040
-235,073	-119,483	0,115	-0,014
-234,059	646,790	0,059	0,109
-233,044	-84,150	0,101	0,023
-232,030	-5,377	0,037	0,018
-231,015	-104,835	-0,044	0,007
-230,000	-41,286	-0,024	-0,009
-228,986	194,094	0,078	-0,085
-227,971	-111,189	0,056	0,008
-226,957	180,519	-0,027	0,028
-225,942	203,506	0,065	-0,072
-224,927	-147,927	0,121	0,007
-223,913	126,877	-0,086	0,078
-222,898	-143,014	-0,048	0,003
-221,884	-200,000	0,007	-0,129
-220,869	-200,000	0,010	0,080
-219,855	-200,000	0,024	0,154
-218,840	-90,293	0,058	0,012
-217,825	215,804	0,088	0,100
-216,811	-200,000	-0,018	-0,115
-215,796	-200,000	0,014	-0,139
-214,782	-11,835	-0,088	0,041
-213,767	543,335	-0,059	0,100
-212,752	-200,000	0,032	0,182
-211,738	-200,000	-0,042	-0,147
-210,723	-165,944	-0,107	-0,003
-209,709	381,527	0,025	-0,037
-208,694	58,844	-0,069	0,049
-207,679	-73,683	0,103	0,026
-206,665	415,941	-0,071	-0,108
-205,650	800,000	0,029	-0,081
-204,636	542,256	0,047	-0,081
-203,621	-200,000	-0,007	-0,057
-202,606	214,308	-0,015	0,017
-201,592	800,000	0,036	0,094
-200,577	142,605	-0,113	-0,107
-199,563	162,535	0,081	-0,081
-198,548	-166,909	-0,074	-0,002
-197,533	-200,000	0,009	0,055
-196,519	117,580	0,082	0,072
-195,504	-103,267	0,072	-0,012
-194,490	47,708	0,026	0,017
-193,475	-200,000	-0,008	-0,137
-192,460	-62,506	-0,041	0,012
-191,446	209,126	-0,082	0,092
-190,431	-5,168	0,101	-0,049
-189,417	721,647	-0,057	-0,108
-188,402	127,720	0,110	0,100
-187,387	75,010	-0,109	-0,082
-186,373	344,189	0,017	-0,024
-185,358	-84,680	0,204	0,045
-184,344	41,840	-0,074	-0,047
-183,329	-200,000	-0,023	0,154
-182,315	262,803	0,043	0,053
-181,300	800,000	-0,054	0,128
-180,285	800,000	0,036	-0,082
-179,271	48,025	-0,024	-0,016
-178,256	-20,266	0,007	-0,003
-177,242	-56,628	-0,122	-0,038
-176,227	-2,968	0,139	-0,069
-175,212	-200,000	-0,028	0,132
-174,198	306,812	-0,067	-0,089
-173,183	-13,264	0,122	-0,056
-172,169	203,793	-0,089	0,098
-171,154	370,330	-0,032	0,046
-170,139	184,819	0,052	-0,055
-169,125	-44,662	-0,049	-0,017
-168,110	-99,723	-0,148	-0,026
-167,096	367,207	-0,031	-0,045
-166,081	-126,050	-0,069	0,007
-165,066	-200,000	-0,005	-0,038
-164,052	63,972	-0,026	0,018
-163,037	288,232	0,066	-0,085
-162,023	407,793	0,063	-0,095
-161,008	519,531	-0,048	0,081
-159,993	9,696	-0,054	-0,029
-158,979	-200,000	0,016	0,078
-157,964	-74,027	-0,133	0,034
-156,950	194,386	0,078	-0,084
-155,935	117,317	0,081	0,071
-154,920	800,000	0,037	0,113
-153,906	-200,000	-0,002	-0,012
-152,891	268,109	-0,035	-0,044
-151,877	-31,880	0,043	-0,017
-150,862	355,851	-0,062	0,087
-149,847	-128,358	-0,075	0,008
-148,833	-75,289	0,147	0,037
-147,818	459,923	0,012	-0,018
-146,804	18,627	0,028	-0,016
-145,789	356,049	0,093	0,132
-144,775	43,930	0,043	-0,028
-143,760	800,000	-0,025	0,051
-142,745	-200,000	0,001	-0,026
-141,731	-200,000	0,020	0,073
-140,716	-27,169	0,074	-0,030
-139,702	-200,000	-0,005	0,027
-138,687	295,466	-0,082	-0,107
-137,672	-200,000	-0,037	-0,119
-136,658	-58,035	-0,070	0,022
-135,643	-200,000	-0,027	-0,188
-134,629	492,616	-0,016	-0,026
-133,614	-200,000	0,018	0,098
-132,599	87,395	0,096	0,076
-131,585	275,212	0,007	0,009
-130,570	32,614	0,044	0,027
-129,556	-59,397	0,136	-0,041
-128,541	-200,000	0,004	-0,049
-127,526	-200,000	-0,004	0,044
-126,512	265,725	0,038	0,047
-125,497	-200,000	-0,006	0,061
-124,483	29,238	-0,109	-0,066
-123,468	-121,592	0,019	-0,002
-122,453	68,358	0,072	-0,053
-121,439	-200,000	0,023	-0,090
-120,424	800,000	-0,058	-0,122
-119,410	109,930	0,124	-0,105
-118,395	231,398	-0,014	0,016
-117,380	-200,000	0,003	0,058
-116,366	800,000	-0,043	-0,116
-115,351	687,643	-0,021	0,040
-114,337	77,131	-0,036	0,027
-113,322	24,457	-0,091	-0,053
-112,307	-54,437	0,024	-0,008
-111,293	-6,544	-0,049	-0,024
-110,278	390,947	-0,095	0,140
-109,264	194,499	-0,072	0,078
-108,249	21,089	-0,081	-0,046
-107,234	127,501	-0,046	0,042
-106,220	-120,398	-0,137	-0,016
-105,205	33,480	-0,075	-0,046
-104,191	233,366	-0,079	-0,092
-103,176	-188,529	0,119	0,001
-102,162	521,738	-0,015	0,025
-101,147	27,735	0,014	-0,008
-100,132	33,072	-0,037	-0,023
-99,118	800,000	0,011	0,024
-98,103	-78,693	-0,039	-0,009
-97,089	695,132	0,046	0,086
-96,074	-200,000	0,006	-0,137
-95,059	77,767	-0,069	-0,052
-94,045	-140,370	-0,030	-0,002
-93,030	118,390	-0,060	-0,052
-92,016	-200,000	-0,017	-0,114
-91,001	0,888	0,046	0,023
-89,986	-200,000	-0,015	0,126
-88,972	484,970	0,051	0,083
-87,957	-200,000	-0,036	0,140
-86,943	393,569	-0,056	0,083
-85,928	-56,123	-0,101	-0,032
-84,913	40,847	0,008	0,005
-83,899	203,342	-0,100	-0,110
-82,884	-90,038	-0,013	-0,003
-81,870	-105,979	0,030	0,005
-80,855	-200,000	-0,008	0,100
-79,840	800,000	-0,028	0,076
-78,826	-69,558	0,110	-0,030
-77,811	488,549	-0,028	-0,046
-76,797	178,035	0,053	0,054
-75,782	535,062	0,053	-0,090
-74,767	-200,000	0,011	0,104
-73,753	79,925	-0,032	0,024
-72,738	304,663	-0,061	0,080
-71,724	322,054	0,054	-0,073
-70,709	800,000	-0,057	-0,130
-69,694	1,134	0,030	0,015
-68,680	-200,000	0,005	-0,034
-67,665	800,000	-0,029	0,077
-66,651	-90,155	0,097	0,020
-65,636	147,645	-0,077	-0,073
-64,622	-200,000	-0,040	-0,161
-63,607	-58,992	-0,053	-0,016
-62,592	-5,374	0,123	-0,059
-61,578	-200,000	0,004	0,015
-60,563	-92,096	-0,074	-0,015
-59,549	13,320	-0,080	-0,044
-58,534	-21,670	-1,628	-0,699
-57,519	410,054	-1,358	-2,045
-56,505	-200,000	-0,706	-4,652
-55,490	270,187	0,889	1,109
-54,476	800,000	5,001	11,530
-53,461	-200,000	19,166	320,167
-52,446	-200,000	740,679	2336,876
-51,432	574,822	1656,098	2874,050
-50,417	78,514	1672,363	1264,443
-49,403	21,479	1545,556	887,761
-48,388	15,341	1467,878	813,256
-47,373	17,932	1458,149	820,372
-46,359	16,723	1448,051	808,854
-45,344	13,634	1443,241	791,318
-44,330	13,520	1441,512	789,795
-43,315	13,525	1439,770	788,832
-42,300	13,525	1438,236	787,961
-41,286	13,589	1436,848	787,474
-40,271	13,529	1435,440	786,387
-39,257	13,505	1434,087	785,496
-38,242	13,576	1432,753	785,074
-37,227	13,548	1431,743	784,358
-36,213	13,602	1430,101	783,685
-35,198	13,612	1428,951	783,070
-34,184	13,608	1428,303	782,665
-33,169	13,553	1426,833	781,569
-32,154	13,600	1425,783	781,181
-31,140	13,632	1424,438	780,569
-30,125	13,604	1423,477	779,875
-29,111	13,613	1422,115	779,144
-28,096	13,536	1421,185	778,235
-27,082	13,485	1420,191	777,423
-26,067	13,486	1419,068	776,779
-25,052	13,501	1417,885	776,171
-24,038	13,454	1416,948	775,406
-23,023	13,477	1415,796	774,853
-22,009	13,474	1414,837	774,287
-20,994	13,491	1413,839	773,789
-19,979	13,472	1413,141	773,286
-18,965	13,461	1412,169	772,673
-17,950	13,445	1411,378	772,132
-16,936	13,480	1410,220	771,633
-15,921	13,431	1409,012	770,710
-14,906	13,388	1408,279	770,080
-13,892	13,426	1407,428	769,762
-12,877	13,425	1406,454	769,195
-11,863	13,403	1405,498	768,535
-10,848	13,372	1404,839	768,000
-9,833	13,398	1403,813	767,532
-8,819	13,330	1402,999	766,739
-7,804	13,327	1402,045	766,171
-6,790	13,277	1401,158	765,427
-5,775	13,302	1399,882	764,812
-4,760	13,318	1399,156	764,463
-3,746	13,315	1398,086	763,833
-2,731	13,286	1397,464	763,329
-1,717	13,295	1396,379	762,745
-0,702	13,251	1394,610	761,546
0,313	17,066	1311,181	733,691
1,327	33,159	704,063	431,192
2,342	51,300	123,393	82,772
3,356	2,761	16,629	8,509
4,371	10,296	3,206	1,721
5,386	13,429	0,573	0,314
6,400	-200,000	-0,042	0,275
7,415	88,943	-0,211	-0,166
8,429	-12,936	-0,333	-0,153
9,444	46,309	-0,323	-0,211
10,459	35,407	-0,287	-0,178
11,473	87,637	-0,403	-0,315
12,488	27,276	-0,270	-0,160
13,502	155,309	-0,278	-0,271
14,517	-49,177	-0,438	-0,147
15,531	123,567	-0,367	-0,325
16,546	25,012	-0,405	-0,237
17,561	144,402	-0,310	-0,293
18,575	268,874	-0,199	-0,248
19,590	72,659	-0,275	-0,203
20,604	-36,674	-0,178	-0,067
21,619	149,475	-0,330	-0,316
22,634	98,911	-0,372	-0,303
23,648	123,380	-0,304	-0,269
24,663	55,397	-0,374	-0,256
25,677	73,243	-0,460	-0,339
26,692	91,865	-0,292	-0,232
27,707	-83,456	-0,331	-0,074
28,721	64,605	-0,434	-0,309
29,736	207,620	-0,269	-0,297
30,750	45,931	-0,445	-0,290
31,765	95,895	-0,440	-0,355
32,780	229,914	-0,381	-0,441
33,794	51,047	-0,333	-0,222
34,809	128,589	-0,292	-0,262
35,823	284,624	-0,257	-0,327
36,838	-13,656	-0,476	-0,217
37,853	65,456	-0,437	-0,311
38,867	1,929	-0,431	-0,219
39,882	426,619	-0,172	-0,262
40,896	40,937	-0,380	-0,242
41,911	125,285	-0,333	-0,296
42,926	143,893	-0,311	-0,292
43,940	216,448	-0,341	-0,383
44,955	135,813	-0,234	-0,215
45,969	-32,767	-0,614	-0,239
46,984	44,836	-0,373	-0,241
47,999	242,993	-0,212	-0,251
49,013	-8,262	-0,296	-0,140
50,028	-94,435	-0,422	-0,080
51,042	-16,353	-0,349	-0,156
52,057	61,163	-0,357	-0,249
53,071	20,578	-0,281	-0,160
54,086	89,305	-0,333	-0,261
55,101	189,987	-0,319	-0,338
56,115	115,626	-0,261	-0,225
57,130	110,661	-0,291	-0,246
58,144	35,767	-0,413	-0,255
59,159	76,999	-0,359	-0,269
60,174	142,830	-0,427	-0,400
61,188	99,628	-0,275	-0,224
62,203	-107,932	-0,396	-0,060
63,217	200,895	-0,199	-0,216
64,232	-33,032	-0,333	-0,129
65,247	171,958	-0,325	-0,329
66,261	159,196	-0,318	-0,311
67,276	498,516	-0,200	-0,326
68,290	52,232	-0,346	-0,232
69,305	23,830	-0,324	-0,188
70,320	-4,584	-0,362	-0,175
71,334	-40,698	-0,323	-0,117
72,349	-58,250	-0,443	-0,135
73,363	119,753	-0,406	-0,354
74,378	10,974	-0,330	-0,177
75,393	78,095	-0,242	-0,181
76,407	273,784	-0,200	-0,250
77,422	401,974	-0,155	-0,230
78,436	-36,361	-0,362	-0,137
79,451	14,380	-0,364	-0,199
80,466	244,255	-0,252	-0,298
81,480	72,715	-0,279	-0,205
82,495	-14,597	-0,319	-0,144
83,509	98,975	-0,266	-0,216
84,524	161,729	-0,247	-0,243
85,539	34,255	-0,232	-0,142
86,553	27,088	-0,353	-0,208
87,568	116,302	-0,278	-0,239
88,582	197,508	-0,265	-0,284
89,597	95,947	-0,303	-0,243
90,611	70,588	-0,332	-0,241
91,626	101,380	-0,248	-0,203
92,641	0,964	-0,205	-0,103
93,655	56,554	-0,253	-0,172
94,670	-108,392	-0,434	-0,065
95,684	2,216	-0,352	-0,178
96,699	48,858	-0,325	-0,214
97,714	40,885	-0,252	-0,160
98,728	107,414	-0,272	-0,227
99,743	347,685	-0,159	-0,221
100,757	73,336	-0,204	-0,149
101,772	-15,224	-0,294	-0,131
102,787	99,229	-0,268	-0,217
103,801	116,909	-0,141	-0,122
104,816	50,727	-0,263	-0,174
105,830	185,213	-0,133	-0,138
106,845	80,219	-0,171	-0,129
107,860	7,577	-0,308	-0,161
108,874	-19,838	-0,403	-0,174
109,889	88,817	-0,360	-0,280
110,903	341,320	-0,289	-0,396
111,918	86,277	-0,213	-0,165
112,933	86,345	-0,330	-0,255
113,947	215,973	-0,176	-0,196
114,962	-7,629	-0,291	-0,137
115,976	80,273	-0,238	-0,179
116,991	-92,799	-0,224	-0,043
118,006	-20,175	-0,287	-0,124
119,020	365,549	-0,169	-0,239
120,035	-61,617	-0,283	-0,083
121,049	112,532	-0,180	-0,153
122,064	-60,699	-0,141	-0,042
123,079	12,069	-0,218	-0,117
124,093	-80,482	-0,236	-0,055
125,108	153,907	-0,275	-0,265
126,122	-111,037	-0,223	-0,032
127,137	61,561	-0,207	-0,144
128,151	20,517	-0,262	-0,148
129,166	-124,119	-0,140	-0,015
130,181	-35,092	-0,343	-0,130
131,195	40,520	-0,281	-0,177
132,210	413,789	-0,148	-0,221
133,224	741,263	-0,151	-0,285
134,239	-163,113	-0,296	-0,010
135,254	-12,741	-0,175	-0,079
136,268	-5,877	-0,247	-0,118
137,283	-0,933	-0,308	-0,152
138,297	347,810	-0,229	-0,317
139,312	164,709	-0,287	-0,283
140,327	16,861	-0,207	-0,114
141,341	96,144	-0,207	-0,165
142,356	-107,796	-0,177	-0,027
143,370	102,826	-0,221	-0,181
144,385	29,576	-0,207	-0,123
145,400	504,963	-0,243	-0,394
146,414	425,003	-0,177	-0,266
147,429	301,085	-0,272	-0,352
148,443	85,565	-0,222	-0,170
149,458	-97,601	-0,233	-0,042
150,473	126,892	-0,278	-0,246
151,487	85,674	-0,287	-0,220
152,502	323,420	-0,157	-0,209
153,516	-30,682	-0,307	-0,121
154,531	89,409	-0,153	-0,119
155,546	242,373	-0,205	-0,240
156,560	53,359	-0,275	-0,184
157,575	406,335	-0,164	-0,242
158,589	717,799	-0,126	-0,235
159,604	-54,199	-0,348	-0,110
160,619	-68,371	-0,324	-0,087
161,633	45,862	-0,314	-0,202
162,648	137,026	-0,284	-0,259
163,662	45,965	-0,237	-0,152
164,677	71,618	-0,220	-0,159
165,692	94,379	-0,207	-0,164
166,706	-55,968	-0,269	-0,083
167,721	87,918	-0,232	-0,179
168,735	82,741	-0,305	-0,231
169,750	139,968	-0,203	-0,187
170,764	-85,990	-0,226	-0,048
171,779	34,182	-0,315	-0,191
172,794	411,836	-0,176	-0,262
173,808	53,194	-0,267	-0,178
174,823	19,532	-0,258	-0,144
175,837	473,439	-0,202	-0,319
176,852	64,580	-0,244	-0,171
177,867	800,000	-0,074	-0,163
178,881	437,773	-0,196	-0,298
179,896	254,341	-0,212	-0,253
180,910	788,952	-0,129	-0,249
181,925	122,050	-0,264	-0,230
182,940	48,419	-0,291	-0,190
183,954	-107,299	-0,223	-0,034
184,969	14,144	-0,260	-0,141
185,983	29,603	-0,179	-0,106
186,998	204,886	-0,152	-0,165
188,013	800,000	-0,103	-0,211
189,027	11,663	-0,215	-0,114
190,042	-89,007	-0,302	-0,062
191,056	-26,204	-0,265	-0,108
192,071	-38,842	-0,232	-0,085
193,086	333,018	-0,180	-0,243
194,100	-134,798	-0,131	-0,011
195,115	211,849	-0,117	-0,129
196,129	128,638	-0,274	-0,243
197,144	-24,370	-0,270	-0,111
198,159	272,000	-0,186	-0,229
199,173	402,377	-0,154	-0,226
200,188	348,355	-0,138	-0,190
201,202	416,721	-0,081	-0,120
202,217	-51,040	-0,151	-0,049
203,232	78,851	-0,303	-0,225
204,246	209,143	-0,151	-0,165
205,261	55,288	-0,109	-0,073
206,275	90,633	-0,260	-0,202
207,290	-46,267	-0,216	-0,073
208,304	-200,000	-0,001	-0,004
209,319	114,235	-0,247	-0,209
210,334	81,571	-0,189	-0,142
211,348	797,748	-0,132	-0,253
212,363	208,498	-0,209	-0,227
213,377	-6,968	-0,356	-0,168
214,392	264,034	-0,134	-0,162
215,407	77,115	-0,228	-0,168
216,421	594,073	-0,073	-0,125
217,436	97,152	-0,191	-0,152
218,450	77,447	-0,290	-0,214
219,465	46,622	-0,294	-0,189
220,480	-52,500	-0,262	-0,084
221,494	60,742	-0,191	-0,131
222,509	-15,360	-0,269	-0,119
223,523	581,214	-0,046	-0,079
224,538	40,930	-0,240	-0,150
225,553	-55,585	-0,320	-0,099
226,567	273,817	-0,174	-0,214
227,582	297,633	-0,141	-0,181
228,596	31,164	-0,096	-0,057
229,611	-78,503	-0,141	-0,033
230,626	-12,419	-0,157	-0,071
231,640	157,148	-0,123	-0,118
232,655	333,576	-0,111	-0,150
233,669	246,615	-0,185	-0,216
234,684	129,225	-0,185	-0,164
235,699	-98,046	-0,164	0,029
236,713	-31,807	-0,134	-0,052
237,728	464,855	-0,106	-0,166
238,742	-41,686	-0,286	-0,101
239,757	800,000	-0,103	-0,212
240,772	394,687	-0,200	-0,289
241,786	-58,443	-0,255	-0,076
242,801	227,393	-0,174	-0,196
243,815	-58,714	-0,139	-0,042
244,830	800,000	-0,031	-0,078
245,844	208,375	-0,214	-0,232
246,859	219,424	-0,148	-0,164
247,874	172,078	-0,176	-0,175
248,888	-29,162	-0,208	-0,082
249,903	-168,559	-0,165	0,004
250,917	175,570	-0,046	-0,046
251,932	214,239	-0,104	-0,114
252,947	393,213	-0,099	-0,143
253,961	192,946	-0,154	-0,161
254,976	159,520	-0,082	-0,079
255,990	-16,697	-0,179	-0,078
257,005	-113,677	-0,184	-0,025
258,020	707,852	-0,114	-0,209
259,034	52,000	-0,236	-0,156
260,049	800,000	-0,062	-0,134
261,063	224,106	-0,113	-0,127
262,078	314,870	-0,166	-0,217
263,093	800,000	-0,075	-0,165
264,107	76,530	-0,124	-0,091
265,122	314,338	-0,094	-0,123
266,136	-44,369	-0,097	-0,033
267,151	-5,260	-0,213	-0,101
268,166	125,633	-0,163	-0,143
269,180	195,792	-0,257	-0,271
270,195	343,771	-0,125	-0,169
271,209	247,720	-0,148	-0,173
272,224	134,756	-0,251	-0,225
273,239	-83,646	-0,076	-0,017
274,253	-100,467	-0,220	-0,037
275,268	-168,622	-0,256	-0,007
276,282	139,180	-0,268	-0,243
277,297	-72,492	-0,157	0,040
278,312	222,906	-0,180	-0,200
279,326	70,536	-0,114	-0,082
280,341	-92,556	-0,190	0,037
281,355	-18,793	-0,117	-0,050
282,370	-200,000	-0,040	-0,133
283,384	240,695	-0,149	-0,172
284,399	682,328	-0,145	-0,262
285,414	179,751	-0,141	-0,143
286,428	427,718	-0,092	-0,138
287,443	191,155	-0,149	-0,155
288,457	-16,435	-0,171	-0,074
289,472	-12,696	-0,199	-0,089
290,487	-66,881	-0,204	-0,055
291,501	188,882	-0,142	-0,147
292,516	26,075	-0,294	-0,169
293,530	494,040	-0,049	-0,078
294,545	132,913	-0,211	-0,188
295,560	66,665	-0,163	-0,114
296,574	232,446	-0,062	-0,070
297,589	517,398	-0,054	-0,087
298,603	328,489	-0,151	-0,200
299,618	-31,783	-0,166	-0,064
300,633	-117,106	-0,161	0,020
301,647	266,454	-0,090	-0,108
302,662	79,122	-0,259	-0,191
303,676	73,505	-0,223	-0,161
304,691	101,025	-0,209	-0,168
305,706	50,031	-0,210	-0,137
306,720	-142,019	-0,233	-0,016
307,735	222,654	-0,126	-0,141
308,749	-147,309	-0,114	-0,007
309,764	-114,558	-0,233	-0,030
310,779	-162,279	-0,175	0,006
311,793	-88,936	-0,205	-0,041
312,808	-200,000	-0,070	-0,253
313,822	66,487	-0,205	-0,143
314,837	614,880	-0,088	-0,153
315,852	-71,294	-0,140	0,036
316,866	-62,915	-0,167	-0,047
317,881	-151,995	-0,125	0,006
318,895	332,014	-0,172	-0,229
319,910	474,944	-0,110	-0,172
320,925	529,434	-0,050	-0,082
321,939	525,532	-0,132	-0,214
322,954	800,000	-0,074	-0,203
323,968	-200,000	-0,025	-0,233
324,983	201,215	-0,136	-0,144
325,997	79,991	-0,099	-0,073
327,012	30,843	-0,182	-0,107
328,027	321,219	-0,181	-0,238
329,041	53,590	-0,173	-0,114
330,056	800,000	-0,047	-0,109
331,070	79,643	-0,133	-0,098
332,085	158,062	0,043	0,041
333,100	-200,000	-0,039	-0,196
334,114	208,319	-0,152	-0,163
335,129	271,479	-0,170	-0,207
336,143	303,631	-0,136	-0,174
337,158	382,498	-0,156	-0,221
338,173	58,421	-0,171	-0,115
339,187	-200,000	0,007	-0,065
340,202	5,880	-0,162	-0,082
341,216	-169,944	-0,101	-0,002
342,231	-83,066	-0,148	-0,032
343,246	99,778	-0,155	-0,123
344,260	800,000	-0,042	-0,089
345,275	0,597	-0,086	-0,042
346,289	-31,254	-0,164	-0,063
347,304	715,941	-0,118	-0,217
348,319	129,911	-0,155	-0,136
349,333	75,505	-0,172	-0,124
350,348	100,631	-0,159	-0,126
351,362	78,700	-0,046	0,034
352,377	107,227	-0,124	-0,101
353,392	-52,679	-0,026	0,008
354,406	387,203	-0,183	-0,260
355,421	210,527	1314,417	1418,434
356,435	162,069	1475,109	1418,912
