DTS Sentinel unit serial number:	SN410029Multiplexer serial number:	ORYXHardware model number:	OX2-SRSoftware version number:	ORYX F/W v4,00 Oryx Data Collector v3.7.2.0data status	okinstallation	B3 Nyhavnadifferential loss correction	single-endedforward channel	channel 1reverse channel	N/Adate	2023/11/29time	06:57:30forward acquisition time	300,00reverse acquisition time	0,00gamma	499,1914k internal	0,3212k external	0,3212temperature offset calibration	1,0000default loss term (dB/km)	0,3820temperature slope calibration	1,0000multiplexer offset coefficient	1,0000multiplexer slope coefficient	1,0000fibre end	0,00T internal ref (°C)	8,93T ext. ref 1 (°C)	-6,35T ext. ref 2 (°C)	-6,45length (m)	temperature (°C)	Stokes	anti-Stokes-744,400	347,898	-0,202	-0,290
-743,385	-200,000	-0,034	0,374
-742,371	268,722	-0,113	-0,144
-741,356	690,091	0,120	0,228
-740,342	-200,000	-0,036	-0,195
-739,327	-200,000	-0,056	0,285
-738,312	160,852	-0,218	-0,221
-737,298	165,026	-0,082	0,084
-736,283	478,950	-0,122	-0,202
-735,269	-200,000	-0,052	0,264
-734,254	-26,509	-0,234	-0,099
-733,239	800,000	-0,056	0,118
-732,225	800,000	-0,079	-0,178
-731,210	500,400	0,089	0,149
-730,196	800,000	0,040	-0,118
-729,181	275,355	0,081	-0,104
-728,167	-200,000	-0,020	0,073
-727,152	800,000	-0,040	-0,125
-726,137	442,625	-0,092	-0,146
-725,123	215,826	-0,083	-0,095
-724,108	-100,962	-0,145	-0,025
-723,094	-37,050	0,010	0,004
-722,079	-200,000	0,012	-0,081
-721,064	-200,000	-0,001	-0,065
-720,050	67,738	0,049	0,037
-719,035	-199,082	-0,135	0,001
-718,021	478,086	-0,011	0,019
-717,006	297,054	0,062	0,082
-715,991	-113,185	0,078	0,011
-714,977	-200,000	0,021	-0,072
-713,962	-38,135	0,026	0,010
-712,948	-200,000	-0,007	-0,059
-711,933	250,937	0,092	-0,113
-710,918	422,816	-0,056	0,087
-709,904	46,841	-0,156	0,105
-708,889	195,036	-0,079	0,087
-707,875	-69,999	-0,100	0,027
-706,860	85,243	-0,115	0,091
-705,845	208,355	-0,084	0,095
-704,831	165,216	-0,050	-0,051
-703,816	-151,270	-0,140	-0,007
-702,802	588,010	-0,011	0,020
-701,787	-71,608	-0,055	0,015
-700,772	-21,601	0,123	-0,054
-699,758	800,000	0,055	-0,116
-698,743	800,000	-0,020	-0,062
-697,729	-200,000	0,001	0,035
-696,714	73,793	0,053	0,040
-695,699	719,176	-0,036	-0,069
-694,685	-19,974	-0,163	-0,072
-693,670	16,552	0,139	-0,079
-692,656	-200,000	-0,012	0,093
-691,641	-200,000	0,037	-0,215
-690,627	127,675	-0,056	-0,052
-689,612	-200,000	-0,003	0,050
-688,597	260,601	0,152	-0,190
-687,583	-119,276	0,044	-0,006
-686,568	800,000	-0,018	0,057
-685,554	0,947	0,132	0,068
-684,539	31,734	0,092	0,057
-683,524	-200,000	0,026	0,127
-682,510	-44,837	-0,066	-0,024
-681,495	93,718	-0,077	-0,063
-680,481	-200,000	0,030	-0,122
-679,466	800,000	0,041	-0,085
-678,451	-200,000	-0,009	-0,101
-677,437	704,545	0,044	-0,085
-676,422	800,000	-0,037	-0,107
-675,408	-200,000	-0,009	0,070
-674,393	-28,098	-0,127	-0,053
-673,378	-89,959	-0,120	-0,025
-672,364	-200,000	0,006	-0,242
-671,349	43,528	-0,118	-0,078
-670,335	800,000	-0,026	-0,076
-669,320	278,222	-0,067	-0,086
-668,305	72,787	0,025	-0,019
-667,291	-166,866	-0,074	-0,002
-666,276	403,308	-0,023	0,036
-665,262	800,000	0,044	-0,119
-664,247	800,000	-0,056	-0,152
-663,232	77,553	0,143	0,110
-662,218	-200,000	0,032	0,204
-661,203	316,819	-0,013	-0,018
-660,189	446,244	0,042	-0,067
-659,174	155,836	0,005	0,005
-658,159	-200,000	0,012	-0,046
-657,145	-200,000	0,065	-0,209
-656,130	-200,000	0,031	-0,118
-655,116	-11,302	0,028	-0,013
-654,101	56,611	0,057	-0,040
-653,086	-48,677	0,100	-0,035
-652,072	800,000	-0,066	-0,182
-651,057	176,846	0,091	-0,096
-650,043	-29,411	-0,104	-0,043
-649,028	-120,126	0,226	0,028
-648,014	-200,000	-0,000	0,047
-646,999	118,270	0,075	-0,067
-645,984	800,000	-0,027	0,071
-644,970	800,000	0,041	-0,085
-643,955	16,802	-0,092	-0,052
-642,941	-78,435	-0,108	-0,027
-641,926	34,668	0,083	-0,052
-640,911	155,632	-0,061	0,060
-639,897	-200,000	0,056	0,190
-638,882	401,153	-0,090	0,136
-637,868	243,465	-0,093	0,113
-636,853	-200,000	0,007	-0,096
-635,838	-200,000	-0,043	-0,143
-634,824	290,923	-0,036	0,047
-633,809	155,179	0,038	-0,038
-632,795	-106,268	-0,109	-0,017
-631,780	-129,619	0,168	0,016
-630,765	-29,212	-0,161	-0,066
-629,751	-200,000	0,002	-0,098
-628,736	-200,000	-0,040	-0,129
-627,722	-67,023	-0,117	-0,033
-626,707	800,000	-0,016	0,043
-625,692	-54,117	0,147	0,048
-624,678	247,000	-0,045	-0,055
-623,663	223,387	-0,031	0,037
-622,649	-5,055	-0,092	0,046
-621,634	800,000	-0,009	-0,021
-620,619	404,682	-0,096	0,147
-619,605	800,000	-0,013	0,036
-618,590	-128,441	0,137	-0,014
-617,576	-30,618	-0,145	-0,059
-616,561	-30,236	-0,058	-0,024
-615,546	-78,728	-0,130	-0,032
-614,532	-53,997	-0,104	-0,034
-613,517	359,908	-0,118	-0,170
-612,503	-23,605	-0,088	-0,038
-611,488	800,000	0,023	0,069
-610,474	88,132	0,149	0,119
-609,459	-47,638	-0,107	0,037
-608,444	-200,000	-0,004	-0,105
-607,430	-78,464	-0,069	0,017
-606,415	-200,000	-0,013	-0,109
-605,401	-200,000	0,017	-0,088
-604,386	176,641	0,048	-0,050
-603,371	-200,000	-0,022	-0,168
-602,357	-180,280	0,029	-0,000
-601,342	-200,000	-0,012	0,064
-600,328	-6,354	-0,052	0,026
-599,313	-200,000	-0,005	-0,085
-598,298	-200,000	-0,028	-0,161
-597,284	-200,000	0,004	0,175
-596,269	800,000	-0,021	0,058
-595,255	800,000	0,033	0,088
-594,240	-200,000	-0,010	-0,042
-593,225	213,532	-0,102	-0,116
-592,211	-19,741	-0,160	-0,071
-591,196	26,175	0,060	-0,036
-590,182	-200,000	-0,018	-0,087
-589,167	-200,000	0,030	-0,189
-588,152	800,000	-0,028	-0,086
-587,138	-200,000	-0,002	-0,086
-586,123	800,000	0,053	-0,165
-585,109	-200,000	0,018	-0,161
-584,094	-200,000	0,040	-0,136
-583,079	-84,385	-0,115	-0,026
-582,065	-200,000	-0,017	0,062
-581,050	223,784	0,083	0,097
-580,036	20,697	0,053	0,031
-579,021	696,803	0,038	-0,072
-578,006	-200,000	-0,003	-0,031
-576,992	260,602	0,009	-0,011
-575,977	447,122	-0,039	0,062
-574,963	12,131	0,078	0,043
-573,948	-92,845	0,060	-0,012
-572,934	204,830	-0,077	0,086
-571,919	108,507	-0,042	0,036
-570,904	-3,272	0,040	-0,020
-569,890	-148,739	0,124	-0,007
-568,875	800,000	-0,031	0,098
-567,861	-153,201	0,033	-0,002
-566,846	800,000	-0,085	-0,176
-565,831	265,984	0,038	-0,048
-564,817	225,008	-0,091	-0,106
-563,802	586,085	-0,085	-0,152
-562,788	-200,000	0,009	-0,043
-561,773	-200,000	0,008	-0,149
-560,758	-46,570	-0,150	-0,053
-559,744	267,567	0,017	-0,022
-558,729	-8,200	-0,176	0,085
-557,715	-103,688	-0,054	-0,009
-556,700	-85,267	-0,078	-0,017
-555,685	800,000	0,095	-0,253
-554,671	-200,000	-0,002	-0,070
-553,656	-200,000	-0,002	-0,062
-552,642	92,522	0,047	0,038
-551,627	108,242	0,059	-0,050
-550,612	-47,053	-0,052	0,018
-549,598	149,519	-0,064	0,062
-548,583	800,000	0,089	-0,177
-547,569	95,008	0,076	0,062
-546,554	-55,753	0,141	-0,045
-545,539	466,785	0,108	0,174
-544,525	49,095	0,113	0,077
-543,510	203,661	-0,134	0,149
-542,496	-200,000	-0,003	-0,105
-541,481	-200,000	-0,002	0,035
-540,466	556,666	0,023	-0,040
-539,452	-133,663	-0,146	-0,013
-538,437	46,826	0,174	0,116
-537,423	-200,000	-0,023	0,122
-536,408	-166,099	0,053	0,002
-535,393	162,885	-0,075	-0,076
-534,379	-55,141	-0,010	0,003
-533,364	-165,282	-0,090	-0,003
-532,350	83,125	0,141	0,110
-531,335	34,403	0,019	-0,012
-530,321	-200,000	-0,010	0,077
-529,306	20,267	-0,111	-0,064
-528,291	94,506	-0,027	0,022
-527,277	-97,816	-0,047	-0,009
-526,262	527,974	0,018	0,030
-525,248	-27,374	0,067	0,028
-524,233	21,931	-0,073	0,043
-523,218	349,591	-0,101	0,144
-522,204	-125,102	-0,098	0,011
-521,189	800,000	0,007	-0,022
-520,175	-200,000	0,011	-0,052
-519,160	16,157	-0,132	0,074
-518,145	-18,856	0,083	-0,037
-517,131	-200,000	-0,017	0,110
-516,116	-200,000	0,007	0,069
-515,102	-97,942	0,021	0,004
-514,087	800,000	0,059	-0,120
-513,072	-50,986	-0,038	-0,013
-512,058	-161,740	0,151	-0,005
-511,043	-2,138	0,174	-0,088
-510,029	-54,101	-0,152	0,049
-509,014	667,792	0,086	0,161
-507,999	-200,000	-0,010	-0,040
-506,985	-35,798	-0,079	0,031
-505,970	800,000	-0,067	-0,154
-504,956	190,889	0,014	-0,015
-503,941	-200,000	0,010	0,165
-502,926	800,000	0,021	-0,056
-501,912	-109,226	-0,026	0,004
-500,897	34,428	0,121	-0,076
-499,883	800,000	-0,051	-0,113
-498,868	349,318	-0,044	-0,063
-497,853	-96,152	-0,040	0,008
-496,839	-71,921	0,048	0,013
-495,824	-200,000	0,031	0,100
-494,810	-128,528	-0,118	-0,012
-493,795	-200,000	-0,019	0,176
-492,781	-23,389	0,061	0,026
-491,766	-86,791	-0,154	-0,033
-490,751	-103,830	0,050	-0,008
-489,737	-26,396	0,087	-0,037
-488,722	47,120	0,192	-0,128
-487,708	-200,000	-0,002	0,016
-486,693	-121,395	0,113	0,013
-485,678	64,921	-0,131	0,095
-484,664	-134,221	0,144	0,013
-483,649	-200,000	-0,014	0,099
-482,635	-13,959	-0,104	-0,048
-481,620	800,000	0,017	-0,037
-480,605	100,729	-0,034	0,029
-479,591	100,663	0,018	-0,015
-478,576	800,000	0,010	-0,022
-477,562	-102,587	0,100	0,017
-476,547	-73,568	-0,131	-0,034
-475,532	800,000	0,037	0,103
-474,518	33,896	0,042	0,026
-473,503	-200,000	-0,021	-0,127
-472,489	1,751	-0,047	0,024
-471,474	800,000	-0,030	0,062
-470,459	-200,000	-0,029	0,130
-469,445	607,604	-0,046	-0,084
-468,430	122,154	0,025	-0,022
-467,416	800,000	0,063	0,165
-466,401	-200,000	0,009	0,148
-465,386	238,564	0,045	0,054
-464,372	307,021	-0,062	-0,082
-463,357	800,000	0,052	0,118
-462,343	-200,000	0,016	-0,103
-461,328	171,299	0,069	-0,071
-460,313	-200,000	0,002	-0,086
-459,299	800,000	0,030	0,084
-458,284	800,000	-0,041	0,095
-457,270	25,089	-0,089	0,053
-456,255	-174,088	-0,111	0,002
-455,241	800,000	-0,032	-0,097
-454,226	-200,000	0,007	0,024
-453,211	421,542	-0,022	0,034
-452,197	-62,021	-0,058	-0,017
-451,182	-200,000	-0,017	0,132
-450,168	-100,892	-0,119	0,021
-449,153	-143,195	-0,077	0,005
-448,138	472,829	0,071	-0,114
-447,124	-109,161	0,097	0,015
-446,109	154,405	0,077	-0,076
-445,095	350,859	0,033	0,047
-444,080	193,287	0,061	0,066
-443,065	114,257	0,034	-0,030
-442,051	-29,747	-0,051	-0,021
-441,036	147,034	0,048	0,046
-440,022	24,964	0,137	0,081
-439,007	-200,000	0,003	-0,036
-437,992	28,479	0,063	0,038
-436,978	584,036	0,023	-0,041
-435,963	-83,095	0,166	0,038
-434,949	93,586	-0,084	-0,068
-433,934	-27,688	0,125	-0,052
-432,919	-200,000	0,024	-0,076
-431,905	138,304	-0,068	-0,064
-430,890	786,903	-0,038	0,076
-429,876	-7,648	0,117	-0,056
-428,861	-130,316	0,149	-0,014
-427,846	-200,000	-0,029	0,126
-426,832	665,425	-0,065	-0,120
-425,817	-200,000	0,004	-0,028
-424,803	-15,880	0,096	0,044
-423,788	661,515	-0,057	0,105
-422,773	310,822	-0,086	0,116
-421,759	-41,141	0,072	-0,027
-420,744	-47,161	0,111	-0,038
-419,730	476,362	-0,055	0,089
-418,715	-126,535	-0,051	-0,005
-417,701	-200,000	0,001	-0,071
-416,686	-63,526	0,117	-0,034
-415,671	330,857	-0,109	0,150
-414,657	-200,000	-0,015	0,099
-413,642	-48,154	-0,060	-0,021
-412,628	800,000	-0,058	-0,128
-411,613	49,689	0,100	0,067
-410,598	-41,410	-0,059	0,022
-409,584	371,394	0,066	-0,096
-408,569	-200,000	0,018	0,080
-407,555	-38,250	-0,045	-0,017
-406,540	800,000	-0,024	0,050
-405,525	800,000	0,016	0,045
-404,511	-133,203	-0,134	0,012
-403,496	-200,000	-0,008	-0,149
-402,482	-200,000	0,040	-0,143
-401,467	413,128	-0,058	0,088
-400,452	209,286	-0,097	0,109
-399,438	-200,000	0,010	0,058
-398,423	745,639	0,047	0,090
-397,409	187,309	-0,061	0,065
-396,394	-133,353	-0,054	-0,005
-395,379	-153,243	-0,130	0,006
-394,365	159,747	0,193	-0,193
-393,350	-74,111	-0,040	0,010
-392,336	-4,898	0,060	0,030
-391,321	61,248	-0,047	0,033
-390,306	-23,482	-0,088	-0,038
-389,292	-95,468	-0,067	0,013
-388,277	800,000	0,030	0,082
-387,263	41,714	0,012	-0,008
-386,248	-46,091	0,090	-0,032
-385,233	195,129	-0,106	0,115
-384,219	-200,000	-0,023	0,079
-383,204	800,000	0,033	-0,103
-382,190	-200,000	0,006	-0,027
-381,175	50,349	0,026	-0,017
-380,160	11,845	-0,056	-0,031
-379,146	305,584	0,039	0,052
-378,131	-200,000	0,000	0,109
-377,117	469,847	-0,081	0,131
-376,102	10,785	-0,086	-0,047
-375,088	-200,000	-0,004	-0,089
-374,073	-200,000	0,050	-0,169
-373,058	373,203	0,050	-0,073
-372,044	-94,409	-0,022	0,004
-371,029	50,939	0,087	-0,059
-370,015	26,559	-0,188	0,112
-369,000	-200,000	0,001	0,101
-367,985	150,247	-0,138	-0,134
-366,971	800,000	-0,009	0,025
-365,956	-200,000	-0,004	-0,013
-364,942	-200,000	0,007	-0,068
-363,927	10,626	0,161	0,087
-362,912	55,552	-0,093	0,064
-361,898	113,099	-0,130	-0,112
-360,883	-173,922	-0,089	0,002
-359,869	-93,146	-0,069	0,014
-358,854	185,714	-0,068	0,072
-357,839	800,000	0,035	0,080
-356,825	-200,000	-0,044	0,171
-355,810	-184,689	-0,065	0,001
-354,796	-25,581	-0,119	-0,050
-353,781	-64,210	0,128	-0,037
-352,766	91,919	0,036	-0,029
-351,752	800,000	0,016	-0,036
-350,737	-200,000	-0,009	0,042
-349,723	533,142	-0,083	0,142
-348,708	459,212	0,017	-0,028
-347,693	-67,409	0,126	-0,035
-346,679	-200,000	0,009	0,036
-345,664	800,000	-0,027	0,056
-344,650	-200,000	0,002	0,133
-343,635	-200,000	0,005	-0,052
-342,620	-200,000	0,004	0,105
-341,606	211,456	0,043	0,048
-340,591	280,322	-0,044	0,056
-339,577	800,000	-0,020	0,046
-338,562	-200,000	0,030	-0,117
-337,548	268,976	-0,049	-0,061
-336,533	84,347	0,104	0,081
-335,518	-87,666	0,056	0,012
-334,504	800,000	0,103	0,252
-333,489	190,587	-0,025	0,027
-332,475	-58,276	0,147	0,045
-331,460	-122,384	-0,191	-0,022
-330,445	-200,000	0,030	0,305
-329,431	-200,000	-0,006	0,136
-328,416	-147,424	0,233	-0,014
-327,402	-146,480	-0,097	0,006
-326,387	54,890	-0,025	-0,017
-325,372	-200,000	0,004	0,024
-324,358	-200,000	0,003	-0,085
-323,343	-50,317	-0,089	-0,030
-322,329	-200,000	0,002	-0,057
-321,314	53,903	0,108	-0,074
-320,299	-58,860	0,127	0,039
-319,285	-200,000	-0,026	0,123
-318,270	-200,000	-0,008	0,128
-317,256	515,525	-0,057	-0,096
-316,241	63,904	-0,106	-0,076
-315,226	-108,080	0,080	-0,012
-314,212	-173,350	-0,046	0,001
-313,197	-200,000	0,005	0,067
-312,183	174,416	0,098	-0,102
-311,168	13,030	-0,123	0,068
-310,153	-148,653	-0,034	-0,002
-309,139	-27,781	-0,069	0,029
-308,124	-200,000	0,001	-0,127
-307,110	-16,770	0,084	0,038
-306,095	233,078	0,015	0,017
-305,080	-200,000	0,004	0,143
-304,066	-200,000	-0,001	-0,032
-303,051	-120,006	-0,217	-0,026
-302,037	42,149	-0,022	-0,014
-301,022	-11,605	-0,069	0,032
-300,008	-58,082	0,121	-0,037
-298,993	24,409	0,080	0,047
-297,978	-200,000	0,012	-0,116
-296,964	-200,000	-0,007	-0,033
-295,949	-44,409	-0,076	-0,027
-294,935	-107,943	-0,111	-0,017
-293,920	-200,000	0,001	0,074
-292,905	-196,156	0,151	0,001
-291,891	103,463	-0,011	0,009
-290,876	-69,156	-0,038	0,010
-289,862	-200,000	0,007	0,131
-288,847	517,697	-0,091	-0,151
-287,832	197,055	-0,194	-0,211
-286,818	-180,891	0,087	-0,001
-285,803	145,812	0,041	0,039
-284,789	-200,000	0,023	0,153
-283,774	-200,000	0,016	0,064
-282,759	348,755	-0,048	-0,068
-281,745	89,567	-0,042	-0,034
-280,730	800,000	0,048	-0,118
-279,716	-28,445	0,150	-0,061
-278,701	-121,805	0,101	-0,012
-277,686	800,000	0,026	-0,067
-276,672	-158,484	0,047	0,002
-275,657	-200,000	-0,017	-0,089
-274,643	-16,182	-0,092	-0,042
-273,628	113,763	-0,033	0,029
-272,613	17,806	-0,077	-0,044
-271,599	-200,000	-0,033	0,187
-270,584	717,280	0,048	0,091
-269,570	254,898	-0,092	-0,112
-268,555	-28,760	0,127	0,052
-267,540	800,000	-0,020	-0,050
-266,526	112,453	-0,086	-0,074
-265,511	28,526	0,063	-0,038
-264,497	-95,605	0,035	-0,007
-263,482	37,790	0,047	-0,029
-262,467	83,226	0,048	0,037
-261,453	800,000	0,016	-0,041
-260,438	800,000	-0,035	-0,100
-259,424	-6,544	0,038	0,018
-258,409	-200,000	-0,002	0,012
-257,395	405,759	-0,058	0,088
-256,380	-200,000	0,023	0,091
-255,365	-200,000	-0,004	-0,037
-254,351	800,000	-0,036	0,113
-253,336	-200,000	-0,001	-0,105
-252,322	9,836	-0,098	0,053
-251,307	800,000	0,054	0,133
-250,292	67,740	0,122	0,088
-249,278	-200,000	-0,003	0,055
-248,263	726,298	-0,079	-0,151
-247,249	-12,813	0,116	-0,054
-246,234	624,287	-0,044	-0,079
-245,219	-58,416	-0,019	-0,006
-244,205	681,144	-0,082	-0,153
-243,190	772,175	0,023	-0,045
-242,176	208,023	-0,036	-0,041
-241,161	-200,000	-0,018	-0,061
-240,146	98,450	0,080	-0,066
-239,132	629,096	-0,018	-0,033
-238,117	-57,559	-0,071	0,022
-237,103	-77,449	0,068	0,017
-236,088	800,000	0,032	0,066
-235,073	-54,003	0,053	-0,017
-234,059	-200,000	-0,042	0,203
-233,044	-200,000	0,012	0,057
-232,030	-200,000	-0,025	-0,169
-231,015	-177,307	-0,107	-0,002
-230,000	280,035	-0,093	-0,118
-228,986	-177,810	-0,084	-0,001
-227,971	359,806	0,026	0,037
-226,957	-43,738	0,136	-0,048
-225,942	-200,000	-0,008	-0,060
-224,927	7,697	-0,074	0,039
-223,913	-200,000	-0,012	0,071
-222,898	-200,000	-0,004	0,083
-221,884	386,754	-0,070	-0,103
-220,869	734,381	0,020	0,038
-219,855	800,000	0,009	0,020
-218,840	119,886	0,092	-0,081
-217,825	-114,042	0,042	0,006
-216,811	800,000	0,026	-0,073
-215,796	299,335	0,053	-0,070
-214,782	800,000	0,039	-0,082
-213,767	-2,212	0,096	-0,048
-212,752	417,737	-0,004	0,006
-211,738	800,000	-0,007	0,021
-210,723	351,583	0,086	0,121
-209,709	4,534	0,036	0,019
-208,694	207,271	-0,045	0,050
-207,679	-66,491	0,107	0,030
-206,665	-70,710	0,108	-0,029
-205,650	135,840	0,139	0,128
-204,636	-200,000	-0,007	0,195
-203,621	-6,011	0,218	0,105
-202,606	-29,700	0,057	-0,023
-201,592	-21,238	0,090	0,039
-200,577	176,859	0,058	-0,060
-199,563	320,039	0,008	0,011
-198,548	120,538	0,023	-0,020
-197,533	800,000	0,011	0,027
-196,519	-200,000	-0,002	0,231
-195,504	-200,000	0,000	0,044
-194,490	-77,495	-0,149	0,036
-193,475	-105,173	0,052	0,008
-192,460	26,725	-0,118	-0,070
-191,446	27,140	0,118	0,070
-190,431	-38,032	-0,005	0,002
-189,417	67,117	0,063	-0,045
-188,402	-80,070	0,032	-0,007
-187,387	-1,933	0,075	0,037
-186,373	-200,000	-0,017	-0,085
-185,358	-57,208	-0,072	0,022
-184,344	-154,986	0,130	0,006
-183,329	-141,342	0,122	-0,009
-182,315	108,086	-0,030	-0,025
-181,300	90,351	0,064	-0,051
-180,285	2,656	0,012	0,006
-179,271	-200,000	0,001	-0,046
-178,256	800,000	0,028	-0,057
-177,242	287,307	0,042	-0,053
-176,227	-35,869	0,113	0,043
-175,212	176,064	0,036	0,037
-174,198	-80,647	0,106	-0,025
-173,183	-200,000	-0,009	-0,032
-172,169	268,657	-0,031	-0,038
-171,154	5,743	0,038	-0,020
-170,139	-200,000	-0,003	-0,102
-169,125	23,041	0,053	0,031
-168,110	-92,378	0,062	-0,012
-167,096	-200,000	0,034	-0,178
-166,081	115,170	-0,028	0,024
-165,066	-200,000	0,005	-0,037
-164,052	-69,951	0,027	0,007
-163,037	6,775	-0,058	0,031
-162,023	-200,000	-0,001	0,081
-161,008	14,690	0,081	-0,045
-159,993	-104,608	-0,122	-0,020
-158,979	-137,653	0,161	-0,013
-157,964	159,178	-0,128	0,126
-156,950	193,814	-0,097	0,104
-155,935	502,327	-0,047	-0,078
-154,920	339,868	-0,028	-0,038
-153,906	108,876	0,035	0,030
-152,891	144,770	-0,010	0,009
-151,877	443,972	0,036	0,056
-150,862	178,461	-0,070	-0,072
-149,847	214,310	0,068	-0,077
-148,833	69,300	-0,077	-0,056
-147,818	65,743	0,120	0,086
-146,804	-79,769	0,106	-0,025
-145,789	80,961	-0,129	-0,098
-144,775	0,034	0,036	0,018
-143,760	-182,657	0,043	-0,001
-142,745	-200,000	0,035	-0,164
-141,731	88,908	0,051	0,040
-140,716	800,000	0,022	0,062
-139,702	15,657	0,124	0,069
-138,687	-75,032	0,078	-0,020
-137,672	-200,000	-0,001	0,036
-136,658	41,480	-0,127	-0,081
-135,643	-200,000	-0,006	-0,190
-134,629	-200,000	0,011	-0,087
-133,614	-73,894	0,177	0,045
-132,599	-200,000	-0,081	0,000
-131,585	566,726	-0,013	0,023
-130,570	117,426	0,090	-0,079
-129,556	800,000	-0,028	0,084
-128,541	-200,000	0,006	-0,169
-127,526	-51,974	-0,146	0,048
-126,512	-200,000	-0,029	-0,103
-125,497	170,991	0,105	0,106
-124,483	-120,355	-0,115	-0,014
-123,468	72,426	-0,098	0,072
-122,453	389,649	0,050	-0,074
-121,439	342,938	-0,087	-0,121
-120,424	-200,000	-0,010	0,139
-119,410	-100,526	0,113	-0,020
-118,395	72,504	0,061	0,045
-117,380	-200,000	0,020	0,177
-116,366	-4,075	0,066	0,032
-115,351	-89,601	-0,013	0,003
-114,337	800,000	-0,008	-0,019
-113,322	-200,000	-0,036	-0,236
-112,307	-68,232	-0,151	-0,041
-111,293	-55,046	0,200	0,063
-110,278	-200,000	0,000	-0,031
-109,264	-118,933	-0,100	0,012
-108,249	800,000	-0,018	0,054
-107,234	-200,000	-0,018	0,090
-106,220	-167,543	-0,179	0,005
-105,205	233,565	0,020	0,023
-104,191	800,000	0,024	0,057
-103,176	800,000	0,051	0,139
-102,162	-17,645	-0,113	-0,050
-101,147	-121,285	-0,049	0,006
-100,132	-99,600	0,072	0,013
-99,118	-200,000	-0,008	-0,065
-98,103	-101,211	0,116	0,020
-97,089	418,938	0,058	-0,088
-96,074	594,127	0,012	0,020
-95,059	226,473	0,036	-0,041
-94,045	44,904	-0,188	0,122
-93,030	-55,565	-0,097	0,031
-92,016	513,109	-0,042	-0,070
-91,001	45,050	0,046	-0,030
-89,986	-158,979	0,143	-0,006
-88,972	121,289	-0,040	0,035
-87,957	252,126	-0,065	0,078
-86,943	-200,000	0,018	0,057
-85,928	-200,000	-0,020	-0,083
-84,913	800,000	0,087	-0,183
-83,899	26,190	-0,049	-0,029
-82,884	-200,000	0,025	0,171
-81,870	175,563	0,095	0,097
-80,855	800,000	-0,054	-0,159
-79,840	203,246	-0,112	-0,122
-78,826	301,142	0,061	-0,080
-77,811	714,627	-0,082	-0,155
-76,797	100,941	0,047	0,038
-75,782	-45,872	0,007	0,002
-74,767	39,211	0,068	-0,043
-73,753	314,191	0,053	0,070
-72,738	800,000	-0,053	0,157
-71,724	23,328	-0,092	-0,053
-70,709	-21,452	0,117	-0,050
-69,694	800,000	0,022	-0,061
-68,680	-126,928	0,110	-0,011
-67,665	-25,497	0,128	0,053
-66,651	-57,390	0,144	-0,044
-65,636	-62,397	-0,174	-0,051
-64,622	-92,573	0,086	-0,017
-63,607	-200,000	-0,011	0,102
-62,592	800,000	0,047	-0,107
-61,578	-200,000	0,002	0,092
-60,563	-73,572	0,079	0,020
-59,549	85,787	-0,099	0,077
-58,534	45,247	-2,075	-1,348
-57,519	800,000	-1,007	-2,006
-56,505	-200,000	-0,232	-4,467
-55,490	674,103	0,826	1,519
-54,476	800,000	5,243	11,495
-53,461	-200,000	21,900	336,946
-52,446	800,000	759,014	2295,045
-51,432	532,843	1652,702	2771,173
-50,417	69,043	1650,272	1195,194
-49,403	16,602	1524,969	848,131
-48,388	10,764	1449,574	778,109
-47,373	19,011	1441,497	813,112
-46,359	14,118	1430,408	783,685
-45,344	9,063	1426,410	757,511
-44,330	9,057	1424,325	756,347
-43,315	8,998	1422,837	755,247
-42,300	9,030	1420,841	754,310
-41,286	9,007	1419,718	753,573
-40,271	8,940	1418,719	752,700
-39,257	8,994	1417,347	752,195
-38,242	9,018	1416,357	751,752
-37,227	8,993	1415,225	751,004
-36,213	9,022	1413,781	750,347
-35,198	9,058	1412,621	749,868
-34,184	9,025	1411,782	749,239
-33,169	8,931	1410,530	748,104
-32,154	8,980	1409,455	747,732
-31,140	9,040	1408,024	747,225
-30,125	9,063	1406,791	746,650
-29,111	8,997	1405,760	745,762
-28,096	9,008	1404,570	745,153
-27,082	8,949	1403,392	744,225
-26,067	8,924	1402,524	743,619
-25,052	8,941	1401,480	743,114
-24,038	8,991	1400,452	742,770
-23,023	8,981	1399,385	742,130
-22,009	8,965	1398,270	741,436
-20,994	9,006	1397,299	741,079
-19,979	8,947	1396,356	740,280
-18,965	8,903	1395,510	739,594
-17,950	8,920	1394,446	739,079
-16,936	8,904	1393,771	738,622
-15,921	8,824	1392,796	737,703
-14,906	8,856	1391,792	737,290
-13,892	8,880	1391,006	736,955
-12,877	8,846	1390,211	736,347
-11,863	8,856	1389,277	735,869
-10,848	8,854	1388,448	735,391
-9,833	8,843	1387,265	734,686
-8,819	8,783	1386,483	733,967
-7,804	8,790	1385,550	733,478
-6,790	8,835	1384,266	732,974
-5,775	8,763	1383,503	732,210
-4,760	8,779	1382,577	731,764
-3,746	8,817	1381,558	731,368
-2,731	8,845	1380,896	731,121
-1,717	8,805	1379,955	730,409
-0,702	8,780	1378,407	729,446
0,313	12,861	1289,744	701,046
1,327	28,803	681,578	406,201
2,342	44,995	117,303	76,039
3,356	0,225	16,338	8,190
4,371	5,537	3,677	1,908
5,386	-0,718	1,133	0,564
6,400	800,000	0,261	0,631
7,415	308,808	-0,120	-0,159
8,429	46,935	-0,150	-0,098
9,444	-90,893	-0,309	-0,062
10,459	32,687	-0,370	-0,225
11,473	94,966	-0,287	-0,230
12,488	98,887	-0,271	-0,221
13,502	7,800	-0,343	-0,181
14,517	61,544	-0,392	-0,274
15,531	97,764	-0,427	-0,345
16,546	71,511	-0,384	-0,280
17,561	213,861	-0,264	-0,294
18,575	192,374	-0,183	-0,195
19,590	139,343	-0,234	-0,217
20,604	-175,141	-0,283	0,005
21,619	32,187	-0,489	-0,296
22,634	162,718	-0,353	-0,349
23,648	60,040	-0,491	-0,341
24,663	108,357	-0,373	-0,313
25,677	-30,940	-0,336	-0,133
26,692	20,366	-0,315	-0,179
27,707	30,498	-0,388	-0,233
28,721	231,263	-0,285	-0,329
29,736	53,669	-0,438	-0,295
30,750	61,865	-0,398	-0,279
31,765	117,643	-0,352	-0,305
32,780	109,622	-0,353	-0,297
33,794	-66,870	-0,314	-0,087
34,809	-13,588	-0,330	-0,150
35,823	-5,064	-0,382	-0,184
36,838	98,312	-0,321	-0,260
37,853	68,337	-0,429	-0,308
38,867	81,562	-0,472	-0,359
39,882	375,059	-0,275	-0,395
40,896	129,532	-0,245	-0,220
41,911	37,943	-0,374	-0,233
42,926	34,252	-0,407	-0,249
43,940	-101,523	-0,352	-0,060
44,955	69,452	-0,492	-0,356
45,969	42,951	-0,393	-0,251
46,984	102,039	-0,353	-0,290
47,999	159,475	-0,242	-0,236
49,013	-4,689	-0,467	-0,225
50,028	32,107	-0,364	-0,220
51,042	224,484	-0,244	-0,277
52,057	43,641	-0,331	-0,212
53,071	19,371	-0,182	-0,102
54,086	62,246	-0,334	-0,233
55,101	51,724	-0,270	-0,180
56,115	98,537	-0,217	-0,176
57,130	-96,958	-0,297	-0,054
58,144	-19,433	-0,301	-0,130
59,159	-70,329	-0,418	-0,111
60,174	173,707	-0,365	-0,370
61,188	83,924	-0,264	-0,202
62,203	514,909	-0,154	-0,253
63,217	-74,681	-0,323	-0,081
64,232	-4,420	-0,327	-0,158
65,247	15,818	-0,259	-0,142
66,261	155,494	-0,333	-0,322
67,276	181,164	-0,325	-0,336
68,290	56,788	-0,222	-0,151
69,305	55,888	-0,356	-0,241
70,320	-33,745	-0,270	-0,104
71,334	17,328	-0,259	-0,144
72,349	59,404	-0,244	-0,168
73,363	386,363	-0,204	-0,296
74,378	-18,933	-0,513	-0,223
75,393	262,343	-0,262	-0,319
76,407	-2,200	-0,216	-0,106
77,422	64,398	-0,276	-0,194
78,436	-87,877	-0,417	-0,087
79,451	-1,234	-0,327	-0,161
80,466	328,392	-0,177	-0,239
81,480	26,664	-0,244	-0,143
82,495	66,516	-0,249	-0,177
83,509	153,440	-0,267	-0,256
84,524	800,000	-0,113	-0,266
85,539	-90,719	-0,313	-0,063
86,553	-1,613	-0,267	-0,131
87,568	98,441	-0,334	-0,269
88,582	55,726	-0,342	-0,232
89,597	337,618	-0,198	-0,270
90,611	-33,522	-0,259	-0,100
91,626	124,413	-0,335	-0,294
92,641	71,166	-0,114	-0,083
93,655	14,116	-0,265	-0,144
94,670	-23,727	-0,404	-0,169
95,684	96,872	-0,226	-0,181
96,699	-53,892	-0,242	-0,077
97,714	108,451	-0,251	-0,210
98,728	398,535	-0,145	-0,213
99,743	119,636	-0,188	-0,163
100,757	10,915	-0,215	-0,115
101,772	24,975	-0,363	-0,210
102,787	2,702	-0,264	-0,134
103,801	168,545	-0,189	-0,189
104,816	-12,279	-0,308	-0,140
105,830	10,504	-0,218	-0,116
106,845	-28,001	-0,196	-0,079
107,860	42,425	-0,202	-0,128
108,874	96,197	-0,250	-0,200
109,889	84,536	-0,280	-0,213
110,903	-51,047	-0,196	-0,064
111,918	42,372	-0,288	-0,182
112,933	297,075	-0,243	-0,312
113,947	-2,592	-0,182	-0,088
114,962	22,260	-0,324	-0,184
115,976	148,196	-0,227	-0,214
116,991	162,021	-0,230	-0,225
118,006	161,256	-0,274	-0,268
119,020	64,616	-0,253	-0,178
120,035	25,844	-0,270	-0,157
121,049	-45,084	-0,195	-0,067
122,064	-22,359	-0,178	-0,075
123,079	511,401	-0,223	-0,363
124,093	137,578	-0,198	-0,181
125,108	145,486	-0,226	-0,211
126,122	29,497	-0,320	-0,190
127,137	30,681	-0,317	-0,189
128,151	56,441	-0,277	-0,188
129,166	188,027	-0,147	-0,153
130,181	192,524	-0,238	-0,250
131,195	112,996	-0,337	-0,285
132,210	109,137	-0,253	-0,211
133,224	-24,508	-0,300	-0,124
134,239	106,961	-0,153	-0,127
135,254	9,150	-0,106	-0,056
136,268	68,193	-0,327	-0,233
137,283	-97,380	-0,220	-0,040
138,297	52,495	-0,327	-0,217
139,312	-30,835	-0,198	-0,078
140,327	280,915	-0,183	-0,229
141,341	28,179	-0,125	-0,074
142,356	27,241	-0,166	-0,097
143,370	-61,992	-0,240	-0,069
144,385	243,736	-0,278	-0,325
145,400	150,861	-0,203	-0,193
146,414	106,907	-0,199	-0,164
147,429	77,359	-0,199	-0,147
148,443	-66,955	-0,203	-0,056
149,458	-63,508	-0,247	-0,070
150,473	-65,486	-0,323	-0,090
151,487	-69,594	-0,278	-0,074
152,502	598,496	-0,157	-0,271
153,516	82,515	-0,131	-0,099
154,531	67,274	-0,180	-0,128
155,546	174,037	-0,183	-0,184
156,560	251,452	-0,175	-0,208
157,575	-161,367	-0,284	0,010
158,589	15,323	-0,246	-0,134
159,604	64,048	-0,246	-0,172
160,619	15,457	-0,328	-0,179
161,633	156,287	-0,154	-0,148
162,648	471,358	-0,144	-0,226
163,662	132,769	-0,113	-0,101
164,677	-48,198	-0,198	-0,066
165,692	180,868	-0,193	-0,198
166,706	-38,142	-0,320	-0,117
167,721	275,871	-0,172	-0,212
168,735	352,956	-0,186	-0,257
169,750	115,391	-0,211	-0,180
170,764	-34,542	-0,181	-0,068
171,779	141,161	-0,205	-0,188
172,794	-104,460	-0,243	-0,039
173,808	14,567	-0,117	-0,064
174,823	307,633	-0,228	-0,296
175,837	99,402	-0,208	-0,167
176,852	52,442	-0,272	-0,180
177,867	88,288	-0,110	-0,085
178,881	-140,080	-0,179	0,013
179,896	-179,001	-0,260	0,004
180,910	46,626	-0,316	-0,203
181,925	-3,080	-0,279	-0,135
182,940	116,030	-0,257	-0,218
183,954	19,132	-0,254	-0,141
184,969	261,959	-0,063	-0,076
185,983	19,952	-0,226	-0,126
186,998	219,739	-0,154	-0,171
188,013	-58,923	-0,246	-0,073
189,027	1,212	-0,262	-0,130
190,042	75,330	-0,309	-0,226
191,056	5,806	-0,306	-0,156
192,071	-1,195	-0,221	-0,108
193,086	-46,691	-0,188	0,063
194,100	112,709	-0,159	-0,133
195,115	97,579	-0,179	-0,143
196,129	151,027	-0,200	-0,189
197,144	77,634	-0,111	-0,082
198,159	-61,255	-0,268	-0,078
199,173	90,122	-0,215	-0,167
200,188	144,410	-0,200	-0,185
201,202	-145,800	-0,078	-0,005
202,217	12,212	-0,162	-0,086
203,232	800,000	-0,114	-0,267
204,246	-74,487	-0,333	-0,083
205,261	65,983	-0,247	-0,173
206,275	-26,199	-0,196	-0,079
207,290	-124,580	-0,116	0,012
208,304	800,000	-0,117	-0,248
209,319	13,223	-0,273	-0,146
210,334	-49,500	-0,073	-0,024
211,348	-9,181	-0,160	-0,074
212,363	232,801	-0,186	-0,212
213,377	119,162	-0,149	-0,127
214,392	30,157	-0,179	-0,105
215,407	57,708	-0,242	-0,164
216,421	-174,744	-0,193	-0,004
217,436	-120,587	-0,065	-0,008
218,450	352,653	-0,163	-0,224
219,465	48,660	-0,161	-0,104
220,480	225,785	-0,113	-0,127
221,494	-15,000	-0,157	-0,069
222,509	-119,084	-0,363	-0,043
223,523	-15,650	-0,125	-0,055
224,538	218,206	-0,119	-0,132
225,553	528,342	-0,083	-0,136
226,567	276,977	-0,167	-0,206
227,582	-45,707	-0,230	-0,078
228,596	329,655	-0,120	-0,160
229,611	50,432	-0,139	-0,091
230,626	-123,394	-0,141	0,015
231,640	387,256	-0,090	-0,129
232,655	-34,753	-0,258	-0,097
233,669	800,000	-0,127	-0,247
234,684	143,522	-0,195	-0,179
235,699	49,448	-0,169	-0,109
236,713	70,745	-0,144	-0,103
237,728	-0,440	-0,262	-0,128
238,742	137,391	-0,160	-0,144
239,757	95,428	-0,189	-0,149
240,772	-26,183	-0,268	-0,108
241,786	155,445	-0,134	-0,127
242,801	-45,837	-0,163	-0,055
243,815	716,988	-0,059	-0,109
244,830	-27,512	-0,185	-0,074
245,844	690,237	-0,103	-0,186
246,859	296,488	-0,185	-0,234
247,874	8,924	-0,243	-0,126
248,888	506,700	-0,100	-0,161
249,903	191,994	-0,167	-0,174
250,917	39,271	-0,305	-0,188
251,932	152,461	-0,131	-0,123
252,947	-127,614	-0,206	0,020
253,961	387,071	-0,177	-0,253
254,976	240,601	-0,155	-0,178
255,990	69,614	-0,226	-0,160
257,005	440,666	-0,107	-0,162
258,020	159,531	-0,142	-0,136
259,034	-102,893	-0,232	0,038
260,049	186,327	-0,098	-0,100
261,063	141,123	-0,175	-0,160
262,078	380,542	-0,200	-0,283
263,093	800,000	-0,085	-0,174
264,107	34,859	-0,209	-0,126
265,122	35,674	-0,199	-0,120
266,136	451,722	-0,120	-0,184
267,151	-127,366	-0,194	-0,019
268,166	439,483	-0,067	-0,101
269,180	181,220	-0,271	-0,274
270,195	24,093	-0,150	-0,085
271,209	-178,712	-0,117	0,002
272,224	156,195	-0,064	-0,061
273,239	-77,444	-0,201	-0,048
274,253	-200,000	-0,012	-0,081
275,268	255,730	-0,176	-0,209
276,282	226,173	-0,168	-0,188
277,297	245,111	-0,189	-0,219
278,312	-109,759	-0,180	-0,026
279,326	550,389	-0,123	-0,204
280,341	-34,105	-0,180	-0,068
281,355	158,347	-0,109	-0,104
282,370	42,703	-0,195	-0,122
283,384	-138,172	-0,286	-0,022
284,399	800,000	-0,094	-0,195
285,414	169,266	-0,268	-0,264
286,428	448,499	-0,151	-0,229
287,443	-200,000	-0,021	-0,143
288,457	356,732	-0,103	-0,141
289,472	95,415	-0,180	-0,141
290,487	167,023	-0,172	-0,168
291,501	101,526	-0,242	-0,194
292,516	152,612	-0,162	-0,152
293,530	-58,320	-0,174	0,052
294,545	84,695	-0,268	-0,202
295,560	88,644	-0,123	-0,094
296,574	-128,109	-0,180	-0,017
297,589	-200,000	-0,044	-0,208
298,603	197,423	-0,261	-0,274
299,618	723,995	-0,024	-0,045
300,633	800,000	-0,035	-0,068
301,647	265,658	-0,058	-0,070
302,662	486,407	-0,156	-0,246
303,676	303,995	-0,081	-0,103
304,691	292,675	-0,149	-0,187
305,706	-200,000	-0,080	-0,250
306,720	16,422	-0,266	-0,144
307,735	125,124	-0,099	0,085
308,749	-121,707	-0,180	-0,020
309,764	-77,361	-0,191	-0,045
310,779	174,143	-0,032	-0,032
311,793	236,834	-0,012	-0,014
312,808	20,556	-0,338	-0,187
313,822	-61,928	-0,206	-0,059
314,837	442,093	-0,183	-0,276
315,852	-15,582	-0,073	-0,032
316,866	2,589	-0,169	-0,084
317,881	53,095	-0,134	-0,088
318,895	222,549	-0,102	-0,113
319,910	205,886	-0,159	-0,170
320,925	154,341	-0,192	-0,181
321,939	20,539	-0,202	-0,112
322,954	-72,352	-0,095	-0,024
323,968	800,000	-0,068	0,140
324,983	800,000	-0,053	-0,120
325,997	800,000	-0,064	-0,141
327,012	174,875	-0,164	-0,163
328,027	206,138	-0,059	-0,063
329,041	-200,000	-0,001	-0,222
330,056	-33,740	-0,157	0,059
331,070	-200,000	-0,003	-0,053
332,085	-137,196	-0,116	0,009
333,100	37,123	-0,191	-0,115
334,114	29,099	-0,135	-0,078
335,129	800,000	-0,068	-0,151
336,143	225,000	-0,108	-0,120
337,158	214,759	-0,139	-0,151
338,173	-23,476	-0,071	-0,029
339,187	99,589	-0,116	-0,092
340,202	-10,714	-0,210	-0,095
341,216	54,310	-0,126	-0,083
342,231	-4,174	-0,118	-0,056
343,246	73,895	-0,206	-0,148
344,260	36,326	-0,074	-0,045
345,275	292,984	-0,057	0,072
346,289	800,000	0,048	-0,118
347,304	19,697	-0,156	-0,086
348,319	480,067	-0,052	0,081
349,333	371,197	0,026	-0,036
350,348	83,965	-0,091	-0,068
351,362	-56,881	-0,184	-0,055
352,377	78,807	-0,120	-0,088
353,392	158,678	-0,112	-0,106
354,406	541,791	-0,111	-0,181
355,421	208,801	1307,129	1400,124
356,435	160,684	1466,882	1400,595
