DTS Sentinel unit serial number:	SN410029Multiplexer serial number:	ORYXHardware model number:	OX2-SRSoftware version number:	ORYX F/W v4,00 Oryx Data Collector v3.7.2.0data status	okinstallation	B3 Nyhavnadifferential loss correction	single-endedforward channel	channel 1reverse channel	N/Adate	2023/12/05time	08:52:30forward acquisition time	300,00reverse acquisition time	0,00gamma	499,1914k internal	0,3191k external	0,3191temperature offset calibration	1,0000default loss term (dB/km)	0,3820temperature slope calibration	1,0000multiplexer offset coefficient	1,0000multiplexer slope coefficient	1,0000fibre end	0,00T internal ref (°C)	12,39T ext. ref 1 (°C)	-3,63T ext. ref 2 (°C)	-3,90length (m)	temperature (°C)	Stokes	anti-Stokes-744,400	800,000	-0,050	-0,122
-743,385	276,929	-0,148	0,193
-742,371	534,175	-0,053	-0,091
-741,356	-76,760	-0,170	0,043
-740,342	-200,000	-0,002	-0,128
-739,327	132,737	-0,115	0,108
-738,312	-11,416	-0,073	0,035
-737,298	-200,000	0,003	0,074
-736,283	-200,000	-0,041	-0,139
-735,269	335,593	-0,162	0,229
-734,254	-105,480	-0,052	-0,009
-733,239	-120,932	-0,349	0,042
-732,225	-62,175	0,127	-0,038
-731,210	-19,819	0,167	0,075
-730,196	64,796	-0,157	0,116
-729,181	159,933	-0,031	-0,032
-728,167	-62,939	0,195	-0,058
-727,152	800,000	0,033	-0,089
-726,137	128,481	-0,176	-0,164
-725,123	-45,088	-0,188	-0,068
-724,108	110,029	-0,129	-0,112
-723,094	-200,000	-0,004	-0,084
-722,079	-200,000	-0,024	0,084
-721,064	-35,770	-0,008	0,003
-720,050	800,000	0,008	0,021
-719,035	378,190	0,025	-0,037
-718,021	-84,830	-0,159	0,036
-717,006	-151,922	-0,164	0,009
-715,991	-155,907	-0,098	-0,004
-714,977	-105,844	-0,139	-0,023
-713,962	-26,078	-0,063	0,027
-712,948	-200,000	0,013	-0,051
-711,933	454,543	0,018	0,030
-710,918	133,952	0,036	-0,034
-709,904	-10,369	-0,086	-0,041
-708,889	38,673	-0,074	-0,048
-707,875	-157,367	-0,096	-0,004
-706,860	-95,985	0,052	0,010
-705,845	99,549	0,140	0,118
-704,831	800,000	0,022	-0,047
-703,816	-200,000	-0,016	0,122
-702,802	-200,000	0,015	0,101
-701,787	52,101	-0,082	-0,057
-700,772	-189,655	-0,113	0,001
-699,758	-9,063	-0,063	-0,030
-698,743	20,464	0,021	0,013
-697,729	-82,690	-0,014	0,003
-696,714	-200,000	-0,019	0,100
-695,699	585,755	-0,028	-0,051
-694,685	74,163	-0,061	-0,046
-693,670	-44,505	-0,133	-0,048
-692,656	-168,296	0,104	0,003
-691,641	29,651	-0,066	-0,041
-690,627	-166,711	0,221	-0,007
-689,612	-8,031	0,041	0,020
-688,597	800,000	-0,047	0,130
-687,583	-200,000	-0,003	-0,035
-686,568	-125,660	-0,072	0,008
-685,554	9,424	-0,104	0,057
-684,539	-107,680	0,076	0,012
-683,524	65,447	0,087	0,064
-682,510	232,691	-0,012	0,015
-681,495	-26,589	0,064	0,027
-680,481	-200,000	0,014	0,095
-679,466	86,174	-0,148	-0,118
-678,451	-112,138	0,110	-0,016
-677,437	-89,909	0,033	0,007
-676,422	-135,392	-0,088	-0,008
-675,408	-12,569	0,017	0,008
-674,393	-200,000	0,000	0,021
-673,378	123,010	-0,153	-0,140
-672,364	99,037	0,145	0,122
-671,349	-144,808	-0,169	0,011
-670,335	-200,000	0,059	0,000
-669,320	-200,000	-0,013	0,123
-668,305	-7,862	0,042	-0,021
-667,291	615,138	-0,035	0,065
-666,276	128,286	0,030	-0,028
-665,262	-88,829	-0,097	-0,021
-664,247	-200,000	-0,006	-0,039
-663,232	-200,000	0,014	-0,127
-662,218	-200,000	-0,031	0,138
-661,203	800,000	-0,040	0,081
-660,189	-200,000	-0,031	0,119
-659,174	800,000	0,014	-0,030
-658,159	59,935	-0,033	0,024
-657,145	800,000	-0,042	-0,104
-656,130	569,987	0,039	-0,069
-655,116	43,700	0,106	0,070
-654,101	-92,564	-0,018	0,004
-653,086	-200,000	0,006	-0,125
-652,072	329,185	0,048	-0,068
-651,057	-141,568	-0,102	0,007
-650,043	14,679	-0,022	-0,013
-649,028	-200,000	-0,034	-0,193
-648,014	-200,000	-0,002	0,037
-646,999	800,000	0,020	0,043
-645,984	346,494	0,041	-0,059
-644,970	12,541	-0,134	-0,075
-643,955	-74,174	-0,059	-0,015
-642,941	113,150	-0,058	-0,051
-641,926	-42,212	-0,024	0,009
-640,911	53,333	-0,029	0,020
-639,897	800,000	-0,014	0,043
-638,882	800,000	-0,008	0,020
-637,868	-14,587	-0,063	0,029
-636,853	-52,609	-0,164	0,055
-635,838	247,386	-0,023	-0,028
-634,824	-9,318	-0,051	-0,025
-633,809	-200,000	0,016	0,076
-632,795	335,325	-0,048	0,068
-631,780	26,219	-0,068	0,041
-630,765	191,519	-0,015	-0,016
-629,751	91,395	-0,043	-0,035
-628,736	-200,000	-0,003	-0,108
-627,722	726,704	-0,048	0,093
-626,707	227,055	0,020	-0,023
-625,692	113,039	-0,080	0,071
-624,678	23,552	0,009	0,006
-623,663	480,296	-0,064	-0,106
-622,649	-200,000	-0,023	0,083
-621,634	23,705	-0,034	-0,020
-620,619	-107,967	-0,178	0,028
-619,605	-24,437	-0,082	-0,035
-618,590	-200,000	0,000	-0,039
-617,576	510,651	0,071	0,120
-616,561	8,401	-0,087	-0,047
-615,546	157,139	0,097	-0,097
-614,532	-200,000	-0,001	0,047
-613,517	800,000	0,024	-0,053
-612,503	43,256	0,053	-0,035
-611,488	-200,000	-0,015	-0,090
-610,474	-200,000	-0,003	0,051
-609,459	68,684	0,080	0,060
-608,444	172,859	-0,054	-0,056
-607,430	-18,779	0,021	0,009
-606,415	-200,000	0,005	-0,082
-605,401	316,477	0,054	-0,074
-604,386	578,704	0,030	-0,054
-603,371	-5,891	-0,100	-0,050
-602,357	134,697	-0,056	0,053
-601,342	455,524	0,036	-0,058
-600,328	388,366	0,076	-0,115
-599,313	119,189	-0,032	0,028
-598,298	-49,960	0,152	0,052
-597,284	-53,409	0,118	-0,039
-596,269	47,619	-0,043	0,029
-595,255	-200,000	0,004	0,028
-594,240	-200,000	0,007	-0,139
-593,225	-200,000	-0,015	-0,108
-592,211	274,359	-0,053	-0,068
-591,196	-200,000	-0,009	-0,105
-590,182	-5,027	-0,035	-0,018
-589,167	248,482	0,061	0,075
-588,152	-200,000	-0,003	0,151
-587,138	14,641	-0,074	0,042
-586,123	-200,000	0,010	-0,049
-585,109	-200,000	0,006	-0,105
-584,094	81,900	-0,086	-0,067
-583,079	-200,000	0,001	-0,027
-582,065	-185,144	0,044	0,000
-581,050	-24,392	-0,042	0,018
-580,036	43,929	0,024	-0,016
-579,021	633,621	-0,053	-0,098
-578,006	-70,899	-0,114	0,031
-576,992	-200,000	0,000	0,070
-575,977	41,043	0,064	-0,042
-574,963	-83,743	0,069	0,016
-573,948	124,224	0,023	-0,021
-572,934	800,000	-0,018	0,052
-571,919	-200,000	0,010	-0,082
-570,904	68,189	-0,073	-0,054
-569,890	209,161	-0,061	-0,069
-568,875	112,440	0,054	-0,047
-567,861	-110,894	-0,068	-0,010
-566,846	-65,747	-0,075	-0,022
-565,831	800,000	-0,047	-0,104
-564,817	-200,000	0,009	-0,073
-563,802	-200,000	0,027	-0,128
-562,788	-200,000	0,003	-0,126
-561,773	165,857	-0,108	0,111
-560,758	636,118	0,035	0,065
-559,744	-15,119	-0,045	-0,021
-558,729	68,656	0,166	0,123
-557,715	800,000	0,052	0,137
-556,700	482,684	-0,041	-0,068
-555,685	-7,038	0,066	0,033
-554,671	323,135	0,074	0,103
-553,656	-149,662	0,126	-0,007
-552,642	293,975	-0,048	-0,064
-551,627	-64,713	-0,128	-0,037
-550,612	800,000	-0,013	0,040
-549,598	-150,450	-0,110	0,006
-548,583	-38,199	0,029	-0,011
-547,569	582,564	0,014	-0,025
-546,554	360,327	-0,086	-0,125
-545,539	513,960	0,061	0,104
-544,525	293,425	0,028	0,037
-543,510	-99,744	0,098	-0,018
-542,496	-200,000	0,011	-0,127
-541,481	-200,000	-0,010	-0,086
-540,466	-63,169	0,119	0,035
-539,452	69,946	0,028	0,021
-538,437	-74,446	0,135	-0,035
-537,423	800,000	0,013	0,034
-536,408	35,591	-0,114	-0,073
-535,393	97,155	0,102	-0,084
-534,379	96,469	-0,078	-0,065
-533,364	147,000	-0,078	-0,076
-532,350	9,115	0,111	0,061
-531,335	-172,515	0,104	0,002
-530,321	-71,909	0,043	0,012
-529,306	-113,706	-0,085	-0,012
-528,291	-55,748	-0,137	0,044
-527,277	800,000	0,025	0,072
-526,262	91,702	-0,023	0,019
-525,248	-25,247	0,091	-0,039
-524,233	-200,000	-0,002	0,068
-523,218	-51,267	-0,107	-0,036
-522,204	-59,224	-0,172	-0,053
-521,189	800,000	-0,069	0,155
-520,175	-200,000	-0,007	-0,114
-519,160	-45,680	-0,072	-0,026
-518,145	-200,000	-0,044	0,181
-517,131	36,544	0,122	0,077
-516,116	194,472	-0,074	0,081
-515,102	549,995	0,030	-0,053
-514,087	70,762	0,071	0,053
-513,072	800,000	-0,009	-0,028
-512,058	32,025	-0,043	0,027
-511,043	14,569	0,137	0,077
-510,029	274,944	0,062	0,080
-509,014	45,667	-0,100	0,067
-507,999	-200,000	0,013	0,100
-506,985	316,111	-0,067	0,092
-505,970	-63,938	0,111	-0,033
-504,956	-135,730	-0,085	-0,007
-503,941	-112,844	0,097	-0,014
-502,926	-200,000	0,005	-0,023
-501,912	768,657	0,060	0,118
-500,897	-200,000	-0,016	0,112
-499,883	-200,000	-0,023	-0,112
-498,868	-200,000	0,004	-0,035
-497,853	84,796	-0,072	0,057
-496,839	324,976	-0,016	-0,023
-495,824	124,662	0,058	-0,053
-494,810	262,326	0,115	-0,144
-493,795	800,000	-0,043	-0,090
-492,781	-200,000	0,036	-0,168
-491,766	-46,391	-0,044	0,015
-490,751	135,313	-0,077	-0,072
-489,737	-26,782	-0,007	-0,003
-488,722	-27,495	0,090	0,038
-487,708	29,440	0,071	-0,043
-486,693	800,000	0,033	0,066
-485,678	800,000	-0,034	-0,082
-484,664	-200,000	-0,039	0,000
-483,649	800,000	-0,006	-0,019
-482,635	-200,000	0,005	-0,056
-481,620	-200,000	0,025	0,100
-480,605	6,545	0,067	0,036
-479,591	-92,025	0,069	0,014
-478,576	-143,567	0,146	-0,010
-477,562	49,099	0,078	-0,053
-476,547	469,041	0,038	0,061
-475,532	114,714	-0,066	0,058
-474,518	-151,637	0,178	0,009
-473,503	-83,533	0,048	0,011
-472,489	-95,638	0,136	0,026
-471,474	755,061	-0,038	-0,075
-470,459	-200,000	-0,021	-0,090
-469,445	116,498	0,023	-0,021
-468,430	30,784	-0,018	-0,011
-467,416	-200,000	-0,009	-0,128
-466,401	800,000	0,030	0,060
-465,386	-200,000	-0,003	0,036
-464,372	337,452	0,040	0,056
-463,357	800,000	0,053	-0,140
-462,343	-95,117	-0,077	-0,015
-461,328	-200,000	0,038	-0,139
-460,313	800,000	0,051	-0,132
-459,299	800,000	0,043	0,105
-458,284	-200,000	-0,001	0,003
-457,270	93,212	-0,011	0,009
-456,255	9,628	0,146	-0,079
-455,241	-200,000	0,005	-0,162
-454,226	-200,000	0,024	-0,119
-453,211	-119,173	0,008	0,001
-452,197	-111,046	0,053	0,008
-451,182	706,662	-0,036	0,069
-450,168	-200,000	0,012	0,047
-449,153	9,316	-0,051	0,028
-448,138	-200,000	0,025	0,094
-447,124	-64,730	-0,106	0,031
-446,109	21,005	0,058	0,034
-445,095	-18,140	0,080	-0,036
-444,080	800,000	-0,055	0,114
-443,065	-88,802	-0,160	0,034
-442,051	292,773	-0,025	-0,033
-441,036	601,000	0,112	-0,201
-440,022	243,771	-0,070	0,085
-439,007	-200,000	0,019	-0,097
-437,992	17,331	0,075	0,043
-436,978	54,931	0,086	-0,060
-435,963	119,760	-0,066	0,059
-434,949	-200,000	-0,001	0,059
-433,934	800,000	-0,011	-0,023
-432,919	800,000	-0,037	0,091
-431,905	-89,851	-0,050	-0,011
-430,890	227,168	0,056	0,066
-429,876	-91,090	0,136	-0,028
-428,861	202,307	-0,056	-0,062
-427,846	-200,000	0,005	-0,062
-426,832	-90,364	0,069	-0,014
-425,817	-60,448	-0,045	-0,014
-424,803	-92,536	0,120	0,024
-423,788	-200,000	-0,002	0,008
-422,773	-200,000	-0,004	0,037
-421,759	137,909	0,012	-0,011
-420,744	-200,000	0,010	-0,097
-419,730	302,138	-0,052	-0,070
-418,715	262,396	-0,084	0,105
-417,701	-200,000	0,013	-0,085
-416,686	800,000	-0,029	0,081
-415,671	-200,000	0,013	-0,070
-414,657	10,728	-0,026	-0,014
-413,642	-2,789	-0,075	0,038
-412,628	800,000	-0,039	0,091
-411,613	-20,210	-0,032	-0,014
-410,598	-123,348	-0,108	-0,012
-409,584	81,417	-0,153	0,119
-408,569	-42,276	0,067	-0,024
-407,555	87,212	0,079	0,063
-406,540	-200,000	0,012	0,047
-405,525	-200,000	-0,035	-0,145
-404,511	-200,000	0,001	-0,103
-403,496	-200,000	-0,022	-0,079
-402,482	170,675	0,014	-0,014
-401,467	750,131	-0,037	0,072
-400,452	-12,166	0,032	0,015
-399,438	35,585	-0,080	-0,051
-398,423	800,000	0,026	-0,058
-397,409	99,993	-0,013	0,011
-396,394	64,856	-0,116	0,084
-395,379	800,000	-0,046	0,128
-394,365	-191,754	-0,023	-0,000
-393,350	800,000	-0,030	-0,077
-392,336	738,378	0,047	0,091
-391,321	322,417	-0,055	0,076
-390,306	-200,000	0,022	0,175
-389,292	478,258	-0,037	-0,060
-388,277	335,563	-0,062	0,087
-387,263	-102,627	0,084	0,014
-386,248	640,471	-0,079	0,146
-385,233	42,599	-0,128	0,084
-384,219	800,000	-0,062	0,168
-383,204	57,867	0,051	0,036
-382,190	165,338	-0,068	-0,069
-381,175	194,456	0,034	-0,037
-380,160	-26,374	0,095	-0,040
-379,146	166,955	0,046	0,047
-378,131	60,599	0,059	-0,042
-377,117	-179,679	0,160	0,002
-376,102	-200,000	0,005	-0,047
-375,088	800,000	0,025	0,052
-374,073	322,288	0,090	-0,124
-373,058	82,215	-0,075	0,059
-372,044	-162,274	0,158	-0,006
-371,029	-31,275	0,175	0,071
-370,015	-200,000	0,022	-0,100
-369,000	-200,000	-0,037	-0,170
-367,985	752,684	-0,090	-0,176
-366,971	800,000	-0,060	-0,127
-365,956	150,724	0,076	-0,075
-364,942	-153,198	0,040	-0,002
-363,927	186,580	-0,060	-0,065
-362,912	-47,420	-0,053	0,018
-361,898	405,601	0,015	-0,023
-360,883	50,496	-0,118	-0,080
-359,869	-200,000	0,004	-0,095
-358,854	-122,359	0,038	-0,004
-357,839	-200,000	-0,002	0,146
-356,825	473,256	-0,030	0,049
-355,810	-39,517	0,088	0,033
-354,796	-87,733	-0,052	-0,011
-353,781	-200,000	-0,007	-0,067
-352,766	96,523	-0,038	-0,031
-351,752	354,880	0,055	-0,079
-350,737	-187,630	0,134	-0,001
-349,723	468,444	-0,045	-0,073
-348,708	-200,000	-0,009	-0,046
-347,693	-11,354	-0,061	0,029
-346,679	54,918	0,115	-0,080
-345,664	-120,475	-0,051	0,006
-344,650	645,351	0,042	0,077
-343,635	-15,946	-0,068	0,031
-342,620	-200,000	0,008	0,095
-341,606	-63,011	0,046	0,013
-340,591	-126,842	0,154	-0,016
-339,577	82,224	0,028	0,022
-338,562	-29,236	0,078	-0,032
-337,548	3,052	-0,060	-0,031
-336,533	128,297	0,161	0,147
-335,518	-200,000	0,007	-0,119
-334,504	-42,688	-0,052	0,019
-333,489	-200,000	-0,025	0,235
-332,475	-115,194	0,098	0,013
-331,460	80,973	-0,075	-0,058
-330,445	61,951	0,086	0,062
-329,431	360,513	0,064	0,092
-328,416	301,427	0,040	-0,053
-327,402	305,568	0,093	-0,125
-326,387	-200,000	-0,011	-0,056
-325,372	-73,245	-0,071	0,018
-324,358	294,681	-0,090	0,118
-323,343	-200,000	0,041	0,133
-322,329	-200,000	-0,004	0,022
-321,314	-41,961	0,054	0,020
-320,299	46,382	0,064	0,043
-319,285	-63,966	0,062	0,018
-318,270	-136,038	-0,007	0,001
-317,256	9,033	0,086	0,046
-316,241	-148,356	-0,129	0,008
-315,226	-200,000	-0,012	0,076
-314,212	92,882	-0,007	-0,006
-313,197	105,170	-0,013	0,011
-312,183	6,935	0,058	-0,031
-311,168	-109,229	-0,149	0,023
-310,153	-200,000	0,001	-0,041
-309,139	54,469	0,092	0,063
-308,124	295,550	-0,010	-0,013
-307,110	714,863	0,058	0,111
-306,095	-200,000	0,023	0,089
-305,080	151,133	0,091	0,088
-304,066	-200,000	0,026	0,145
-303,051	243,692	-0,019	-0,023
-302,037	204,903	-0,008	0,009
-301,022	-105,675	0,055	-0,009
-300,008	-53,360	0,172	0,056
-298,993	667,713	-0,028	-0,052
-297,978	28,490	-0,042	-0,026
-296,964	-200,000	-0,048	-0,217
-295,949	-200,000	0,003	-0,084
-294,935	-200,000	0,030	0,163
-293,920	-41,021	0,083	0,031
-292,905	133,634	0,197	0,183
-291,891	-200,000	-0,026	0,091
-290,876	800,000	-0,021	0,064
-289,862	-200,000	0,009	0,059
-288,847	-64,007	-0,097	0,028
-287,832	70,132	0,120	-0,089
-286,818	452,502	0,059	-0,094
-285,803	-93,389	-0,078	-0,015
-284,789	52,763	-0,096	0,066
-283,774	-106,164	0,135	0,022
-282,759	-156,905	-0,091	0,004
-281,745	207,697	-0,048	-0,054
-280,730	-163,908	-0,081	0,003
-279,716	330,252	-0,041	-0,057
-278,701	65,528	-0,033	0,024
-277,686	-48,545	0,058	0,020
-276,672	800,000	0,015	0,036
-275,657	465,333	0,052	0,084
-274,643	346,665	0,023	0,032
-273,628	591,172	0,021	-0,038
-272,613	297,935	-0,042	-0,055
-271,599	-174,269	0,029	0,001
-270,584	-69,111	-0,070	0,019
-269,570	800,000	0,063	0,161
-268,555	800,000	-0,065	0,152
-267,540	-200,000	-0,025	-0,096
-266,526	-200,000	-0,029	-0,113
-265,511	171,433	-0,079	0,081
-264,497	-200,000	-0,023	0,088
-263,482	-200,000	0,002	0,102
-262,467	111,723	0,072	0,062
-261,453	-200,000	-0,021	0,106
-260,438	34,969	-0,116	-0,073
-259,424	395,108	0,028	0,041
-258,409	27,241	-0,058	0,035
-257,395	800,000	0,033	0,072
-256,380	-18,809	0,073	0,032
-255,365	-120,351	-0,052	0,006
-254,351	-28,515	0,133	0,055
-253,336	-60,062	-0,172	-0,052
-252,322	-75,029	0,085	0,022
-251,307	135,077	-0,096	0,089
-250,292	800,000	0,097	0,198
-249,278	218,511	0,123	0,141
-248,263	-200,000	-0,007	0,122
-247,249	4,672	0,087	0,046
-246,234	711,121	0,082	0,156
-245,219	800,000	-0,027	-0,074
-244,205	-102,585	-0,080	0,014
-243,190	800,000	0,050	-0,129
-242,176	343,013	0,066	-0,093
-241,161	-200,000	0,002	0,062
-240,146	-62,771	-0,162	0,048
-239,132	-33,962	-0,162	-0,064
-238,117	-200,000	0,065	-0,283
-237,103	800,000	0,019	-0,061
-236,088	-200,000	-0,035	-0,157
-235,073	-200,000	-0,003	0,061
-234,059	-109,924	0,150	-0,022
-233,044	800,000	-0,027	0,070
-232,030	-95,331	-0,088	0,017
-231,015	187,726	-0,011	-0,012
-230,000	-200,000	-0,007	0,047
-228,986	-200,000	0,004	-0,026
-227,971	-59,675	-0,062	-0,019
-226,957	-60,409	0,036	0,011
-225,942	131,203	-0,096	-0,088
-224,927	-90,364	0,043	0,009
-223,913	188,919	-0,063	0,068
-222,898	182,475	-0,070	-0,074
-221,884	280,924	-0,034	-0,043
-220,869	452,090	0,087	-0,139
-219,855	-200,000	-0,004	0,126
-218,840	800,000	-0,042	0,119
-217,825	273,332	-0,054	-0,069
-216,811	-200,000	0,003	-0,032
-215,796	21,600	-0,138	-0,080
-214,782	-133,822	-0,057	0,005
-213,767	-86,686	-0,029	-0,006
-212,752	450,572	0,073	0,115
-211,738	-150,301	0,093	-0,005
-210,723	-200,000	0,003	-0,037
-209,709	109,232	-0,125	0,107
-208,694	-37,084	-0,065	-0,025
-207,679	-23,615	0,136	-0,058
-206,665	682,079	0,032	-0,060
-205,650	545,214	-0,004	-0,007
-204,636	800,000	-0,032	0,086
-203,621	55,169	0,052	0,036
-202,606	92,413	-0,114	-0,092
-201,592	-200,000	-0,006	-0,087
-200,577	-200,000	0,009	-0,092
-199,563	53,666	-0,119	-0,082
-198,548	800,000	0,036	0,084
-197,533	-79,765	0,110	0,026
-196,519	-200,000	-0,013	0,073
-195,504	-61,430	0,092	-0,028
-194,490	190,249	-0,094	-0,101
-193,475	-7,813	0,089	0,043
-192,460	-200,000	-0,002	0,053
-191,446	-9,558	0,125	-0,059
-190,431	-79,911	0,074	-0,018
-189,417	-51,936	-0,045	-0,015
-188,402	-200,000	-0,012	-0,153
-187,387	254,422	-0,049	-0,060
-186,373	89,517	-0,070	-0,056
-185,358	215,766	0,090	0,103
-184,344	126,022	-0,053	-0,048
-183,329	118,332	0,130	0,114
-182,315	-78,825	-0,027	0,006
-181,300	457,946	-0,058	-0,092
-180,285	305,786	-0,034	-0,045
-179,271	-185,830	-0,141	-0,001
-178,256	800,000	0,054	0,166
-177,242	800,000	0,079	0,191
-176,227	-200,000	0,035	0,162
-175,212	800,000	0,014	0,037
-174,198	13,379	0,123	0,068
-173,183	800,000	-0,034	-0,076
-172,169	198,024	-0,102	0,112
-171,154	-120,109	-0,071	-0,009
-170,139	117,549	-0,103	-0,090
-169,125	-193,370	0,080	-0,000
-168,110	800,000	-0,065	-0,137
-167,096	649,896	0,039	-0,072
-166,081	-88,237	-0,094	0,020
-165,066	-200,000	0,017	-0,116
-164,052	-154,426	-0,139	-0,007
-163,037	277,164	-0,089	-0,113
-162,023	-200,000	0,023	-0,111
-161,008	800,000	-0,021	0,054
-159,993	-95,902	0,041	-0,008
-158,979	59,177	-0,038	-0,027
-157,964	231,791	-0,023	-0,027
-156,950	39,343	-0,049	0,031
-155,935	-200,000	-0,019	0,231
-154,920	-107,709	-0,061	0,009
-153,906	-15,274	0,068	-0,031
-152,891	-200,000	0,015	0,108
-151,877	639,175	-0,034	0,061
-150,862	625,538	-0,054	-0,097
-149,847	-93,109	-0,058	0,011
-148,833	-200,000	0,009	-0,088
-147,818	-131,803	0,029	0,003
-146,804	351,488	-0,033	0,047
-145,789	-60,883	-0,112	0,034
-144,775	177,596	0,044	-0,046
-143,760	-156,908	-0,067	-0,003
-142,745	-70,573	0,135	-0,036
-141,731	150,757	0,104	0,101
-140,716	697,374	-0,031	0,058
-139,702	-61,358	-0,085	0,025
-138,687	13,860	0,185	0,102
-137,672	-97,376	0,036	-0,007
-136,658	290,656	-0,062	0,080
-135,643	90,586	-0,056	-0,045
-134,629	-200,000	0,016	-0,067
-133,614	-52,723	0,059	0,019
-132,599	319,827	-0,066	-0,089
-131,585	154,287	-0,050	-0,049
-130,570	-200,000	-0,011	0,063
-129,556	-96,255	-0,097	-0,018
-128,541	-200,000	0,033	-0,116
-127,526	-160,637	0,089	0,003
-126,512	-200,000	-0,012	0,058
-125,497	371,539	0,041	-0,060
-124,483	800,000	-0,058	0,127
-123,468	-200,000	0,029	-0,116
-122,453	-143,904	-0,223	-0,015
-121,439	800,000	0,021	0,058
-120,424	76,442	-0,022	0,017
-119,410	20,251	0,111	-0,063
-118,395	-54,408	0,075	-0,024
-117,380	191,811	-0,092	-0,098
-116,366	479,048	-0,034	-0,055
-115,351	426,375	-0,051	-0,078
-114,337	800,000	0,053	-0,120
-113,322	-28,504	0,109	0,045
-112,307	460,457	0,038	0,061
-111,293	-62,016	-0,152	0,045
-110,278	-200,000	0,027	0,209
-109,264	-200,000	-0,002	0,032
-108,249	202,062	0,056	-0,061
-107,234	-137,271	-0,081	0,006
-106,220	85,886	-0,121	-0,094
-105,205	-116,823	-0,121	-0,016
-104,191	-200,000	-0,014	-0,054
-103,176	-200,000	0,001	-0,011
-102,162	196,643	-0,036	0,040
-101,147	3,412	-0,092	-0,048
-100,132	-200,000	0,021	0,113
-99,118	92,705	-0,029	0,023
-98,103	-200,000	0,004	0,164
-97,089	-200,000	0,012	-0,050
-96,074	-30,233	0,186	-0,075
-95,059	-200,000	-0,015	0,129
-94,045	-200,000	0,025	0,170
-93,030	-200,000	0,013	-0,142
-92,016	-102,068	-0,055	-0,009
-91,001	-200,000	-0,019	-0,134
-89,986	-200,000	0,008	-0,036
-88,972	236,868	0,054	0,063
-87,957	786,687	0,006	-0,012
-86,943	-200,000	0,017	0,155
-85,928	800,000	0,047	-0,113
-84,913	449,988	-0,090	-0,142
-83,899	-200,000	0,000	-0,029
-82,884	800,000	-0,039	0,097
-81,870	-89,396	0,171	-0,035
-80,855	169,661	-0,091	0,092
-79,840	-200,000	0,009	-0,042
-78,826	-62,045	-0,063	0,019
-77,811	800,000	0,080	0,212
-76,797	747,491	0,068	0,130
-75,782	800,000	-0,026	0,078
-74,767	27,905	0,141	0,084
-73,753	-27,150	-0,040	0,017
-72,738	110,911	0,034	0,029
-71,724	-200,000	-0,021	0,120
-70,709	-0,386	0,075	-0,038
-69,694	-200,000	0,028	0,169
-68,680	179,548	0,117	0,122
-67,665	800,000	0,044	0,100
-66,651	415,270	0,061	0,093
-65,636	-200,000	0,004	-0,125
-64,622	212,838	-0,149	-0,168
-63,607	34,168	0,042	-0,026
-62,592	129,759	-0,119	-0,108
-61,578	294,248	0,104	-0,135
-60,563	-99,044	0,068	0,012
-59,549	81,403	-0,069	0,053
-58,534	40,462	-1,930	-1,232
-57,519	698,242	-0,645	-1,209
-56,505	-200,000	-0,950	-4,748
-55,490	149,970	0,996	0,960
-54,476	800,000	5,235	11,753
-53,461	-200,000	20,096	329,600
-52,446	800,000	753,648	2328,337
-51,432	548,667	1663,767	2841,433
-50,417	75,107	1672,445	1250,439
-49,403	20,212	1545,502	883,640
-48,388	14,164	1468,239	809,898
-47,373	18,208	1458,095	823,902
-46,359	16,256	1447,884	808,697
-45,344	12,527	1443,338	788,180
-44,330	12,434	1441,603	786,751
-43,315	12,457	1439,678	785,782
-42,300	12,514	1437,953	785,082
-41,286	12,462	1436,781	784,162
-40,271	12,425	1435,344	783,172
-39,257	12,413	1434,154	782,430
-38,242	12,509	1432,703	782,069
-37,227	12,457	1431,836	781,313
-36,213	12,457	1430,570	780,595
-35,198	12,470	1429,178	779,866
-34,184	12,511	1428,191	779,489
-33,169	12,485	1426,781	778,565
-32,154	12,535	1425,589	778,123
-31,140	12,522	1424,316	777,335
-30,125	12,483	1423,475	776,661
-29,111	12,495	1422,262	776,027
-28,096	12,488	1421,071	775,310
-27,082	12,420	1420,162	774,462
-26,067	12,426	1419,006	773,829
-25,052	12,440	1417,935	773,281
-24,038	12,459	1416,958	772,808
-23,023	12,427	1416,037	772,125
-22,009	12,395	1414,851	771,295
-20,994	12,419	1413,891	770,852
-19,979	12,383	1413,054	770,198
-18,965	12,389	1412,208	769,732
-17,950	12,364	1411,146	769,007
-16,936	12,341	1410,393	768,456
-15,921	12,326	1409,155	767,681
-14,906	12,353	1408,431	767,383
-13,892	12,342	1407,460	766,774
-12,877	12,294	1406,732	766,119
-11,863	12,360	1405,557	765,760
-10,848	12,320	1404,717	765,084
-9,833	12,212	1404,254	764,297
-8,819	12,210	1403,416	763,799
-7,804	12,209	1402,361	763,192
-6,790	12,223	1401,154	762,567
-5,775	12,288	1400,080	762,256
-4,760	12,260	1399,173	761,603
-3,746	12,203	1398,184	760,768
-2,731	12,182	1397,458	760,245
-1,717	12,148	1396,684	759,637
-0,702	12,183	1394,841	758,768
0,313	16,205	1309,481	730,969
1,327	32,538	699,702	428,260
2,342	50,263	121,795	81,518
3,356	2,168	16,432	8,398
4,371	-3,350	3,228	1,589
5,386	19,305	0,533	0,303
6,400	-200,000	0,004	0,323
7,415	179,194	-0,136	-0,141
8,429	86,281	-0,374	-0,292
9,444	151,516	-0,302	-0,292
10,459	128,854	-0,315	-0,285
11,473	106,865	-0,206	-0,173
12,488	-95,035	-0,422	-0,080
13,502	56,870	-0,248	-0,171
14,517	109,623	-0,260	-0,221
15,531	101,985	-0,184	-0,152
16,546	-57,016	-0,305	-0,095
17,561	203,582	-0,306	-0,336
18,575	-80,613	-0,199	0,047
19,590	138,215	-0,193	-0,179
20,604	-7,615	-0,331	-0,158
21,619	129,044	-0,363	-0,328
22,634	41,068	-0,484	-0,309
23,648	208,403	-0,388	-0,431
24,663	27,921	-0,397	-0,236
25,677	296,143	-0,243	-0,317
26,692	679,267	-0,235	-0,435
27,707	102,572	-0,273	-0,226
28,721	108,806	-0,351	-0,297
29,736	19,916	-0,418	-0,238
30,750	83,267	-0,462	-0,356
31,765	83,136	-0,324	-0,250
32,780	135,994	-0,426	-0,393
33,794	112,116	-0,329	-0,282
34,809	-15,186	-0,488	-0,220
35,823	25,504	-0,463	-0,272
36,838	33,803	-0,341	-0,210
37,853	113,479	-0,283	-0,243
38,867	15,356	-0,394	-0,218
39,882	105,534	-0,297	-0,248
40,896	-18,426	-0,352	-0,155
41,911	-96,600	-0,300	-0,055
42,926	363,340	-0,267	-0,380
43,940	-27,473	-0,423	-0,173
44,955	103,392	-0,383	-0,317
45,969	78,491	-0,387	-0,292
46,984	194,549	-0,303	-0,325
47,999	105,479	-0,289	-0,241
49,013	247,022	-0,209	-0,250
50,028	102,295	-0,297	-0,246
51,042	-9,994	-0,480	-0,225
52,057	115,401	-0,365	-0,315
53,071	136,485	-0,230	-0,212
54,086	-36,721	-0,353	-0,133
55,101	83,878	-0,349	-0,269
56,115	369,378	-0,227	-0,326
57,130	-22,137	-0,422	-0,180
58,144	-28,490	-0,421	-0,171
59,159	362,981	-0,336	-0,477
60,174	4,662	-0,304	-0,157
61,188	28,750	-0,311	-0,186
62,203	-52,065	-0,329	-0,107
63,217	22,834	-0,346	-0,199
64,232	65,320	-0,284	-0,202
65,247	82,912	-0,325	-0,249
66,261	104,433	-0,403	-0,335
67,276	128,592	-0,330	-0,297
68,290	183,736	-0,324	-0,339
69,305	-3,567	-0,243	-0,119
70,320	10,079	-0,302	-0,161
71,334	87,200	-0,306	-0,239
72,349	314,465	-0,222	-0,296
73,363	189,449	-0,263	-0,278
74,378	94,527	-0,337	-0,270
75,393	112,811	-0,400	-0,342
76,407	58,758	-0,236	-0,163
77,422	55,904	-0,264	-0,180
78,436	-46,121	-0,252	-0,087
79,451	507,728	-0,077	-0,127
80,466	61,476	-0,256	-0,179
81,480	45,968	-0,374	-0,243
82,495	-77,193	-0,370	-0,090
83,509	60,139	-0,193	-0,135
84,524	-67,314	-0,260	-0,071
85,539	-33,545	-0,325	-0,126
86,553	-18,680	-0,288	-0,126
87,568	105,168	-0,362	-0,301
88,582	86,871	-0,219	-0,170
89,597	-14,729	-0,319	-0,144
90,611	81,339	-0,286	-0,218
91,626	214,468	-0,212	-0,237
92,641	24,613	-0,400	-0,233
93,655	20,511	-0,308	-0,175
94,670	421,401	-0,259	-0,392
95,684	117,528	-0,291	-0,252
96,699	77,282	-0,324	-0,242
97,714	20,492	-0,204	-0,116
98,728	169,615	-0,194	-0,196
99,743	-101,289	-0,340	-0,058
100,757	536,900	-0,217	-0,363
101,772	204,718	-0,237	-0,258
102,787	58,632	-0,415	-0,286
103,801	25,263	-0,328	-0,191
104,816	-10,551	-0,353	-0,164
105,830	128,923	-0,294	-0,263
106,845	-5,719	-0,373	-0,179
107,860	463,919	-0,172	-0,271
108,874	-45,734	-0,251	-0,087
109,889	-34,572	-0,317	-0,121
110,903	64,966	-0,379	-0,269
111,918	133,079	-0,282	-0,256
112,933	127,761	-0,239	-0,213
113,947	61,015	-0,365	-0,254
114,962	-11,498	-0,332	-0,153
115,976	166,281	-0,260	-0,259
116,991	72,925	-0,286	-0,210
118,006	258,197	-0,303	-0,367
119,020	86,933	-0,209	-0,162
120,035	-24,262	-0,355	-0,148
121,049	-32,615	-0,282	-0,110
122,064	149,509	-0,185	-0,176
123,079	194,547	-0,194	-0,207
124,093	177,341	-0,267	-0,273
125,108	-20,223	-0,229	-0,099
126,122	13,047	-0,205	-0,111
127,137	-9,622	-0,335	-0,156
128,151	169,015	-0,247	-0,248
129,166	387,393	-0,185	-0,269
130,181	5,872	-0,259	-0,134
131,195	96,477	-0,247	-0,198
132,210	116,686	-0,248	-0,213
133,224	-200,000	-0,054	-0,180
134,239	9,656	-0,295	-0,157
135,254	353,379	-0,158	-0,221
136,268	15,100	-0,241	-0,132
137,283	-37,591	-0,298	-0,111
138,297	242,129	-0,274	-0,322
139,312	128,159	-0,168	-0,150
140,327	-164,406	-0,322	0,010
141,341	42,500	-0,228	-0,145
142,356	15,315	-0,200	-0,109
143,370	90,805	-0,102	-0,080
144,385	188,311	-0,241	-0,252
145,400	63,305	-0,226	-0,159
146,414	-90,890	-0,262	-0,052
147,429	277,867	-0,188	-0,235
148,443	-11,519	-0,245	-0,112
149,458	-44,385	-0,316	-0,110
150,473	-53,221	-0,300	-0,096
151,487	146,164	-0,250	-0,235
152,502	276,007	-0,324	-0,403
153,516	8,677	-0,214	-0,113
154,531	-21,013	-0,336	-0,143
155,546	126,943	-0,261	-0,231
156,560	-39,384	-0,305	-0,111
157,575	131,611	-0,253	-0,228
158,589	267,953	-0,176	-0,216
159,604	-20,604	-0,294	-0,126
160,619	280,622	-0,166	-0,208
161,633	-6,652	-0,322	-0,153
162,648	-200,000	-0,071	-0,308
163,662	220,257	-0,154	-0,173
164,677	-28,450	-0,101	-0,040
165,692	-109,952	-0,142	-0,021
166,706	104,752	-0,278	-0,229
167,721	124,164	-0,216	-0,190
168,735	125,431	-0,353	-0,311
169,750	6,922	-0,244	-0,127
170,764	1,057	-0,097	-0,049
171,779	60,247	-0,111	-0,076
172,794	89,099	-0,142	-0,110
173,808	14,416	-0,266	-0,144
174,823	146,883	-0,273	-0,257
175,837	421,374	-0,151	-0,227
176,852	25,437	-0,348	-0,202
177,867	125,638	-0,168	-0,148
178,881	92,370	-0,234	-0,184
179,896	84,493	-0,113	-0,086
180,910	-77,490	-0,239	-0,057
181,925	63,841	-0,201	-0,141
182,940	128,380	-0,196	-0,174
183,954	151,013	-0,238	-0,226
184,969	211,905	-0,201	-0,222
185,983	220,575	-0,128	-0,144
186,998	10,122	-0,203	-0,108
188,013	-37,329	-0,333	-0,123
189,027	-53,930	-0,219	-0,069
190,042	5,982	-0,275	-0,142
191,056	-164,345	-0,188	-0,006
192,071	-109,492	-0,308	-0,045
193,086	-11,063	-0,199	-0,091
194,100	-164,878	-0,185	0,006
195,115	800,000	-0,133	-0,294
196,129	-130,741	-0,257	0,024
197,144	129,042	-0,182	-0,162
198,159	213,865	-0,176	-0,194
199,173	-84,597	-0,248	-0,054
200,188	-162,942	-0,242	-0,008
201,202	349,815	-0,092	-0,127
202,217	135,353	-0,209	-0,190
203,232	60,281	-0,341	-0,235
204,246	11,378	-0,247	-0,131
205,261	-56,326	-0,176	-0,054
206,275	-200,000	-0,071	-0,279
207,290	81,749	-0,191	-0,144
208,304	772,745	-0,099	-0,188
209,319	358,951	-0,120	-0,167
210,334	136,881	-0,217	-0,198
211,348	-31,018	-0,321	-0,126
212,363	169,886	-0,188	-0,188
213,377	-7,996	-0,173	-0,081
214,392	-98,309	-0,240	-0,042
215,407	47,061	-0,141	-0,091
216,421	199,696	-0,051	-0,055
217,436	800,000	-0,076	-0,230
218,450	202,861	-0,227	-0,245
219,465	-112,194	-0,178	-0,025
220,480	48,186	-0,173	-0,112
221,494	-86,727	-0,285	-0,060
222,509	-22,494	-0,197	-0,083
223,523	800,000	-0,067	-0,142
224,538	47,916	-0,192	-0,125
225,553	800,000	-0,099	-0,251
226,567	214,478	-0,141	-0,156
227,582	800,000	-0,085	-0,231
228,596	-52,854	-0,226	-0,072
229,611	-67,956	-0,252	-0,068
230,626	-31,034	-0,215	-0,084
231,640	336,900	-0,214	-0,290
232,655	200,315	-0,141	-0,151
233,669	29,684	-0,208	-0,123
234,684	70,183	-0,129	-0,092
235,699	-9,636	-0,185	-0,086
236,713	72,602	-0,073	0,053
237,728	15,924	-0,193	-0,105
238,742	-28,596	-0,218	-0,087
239,757	0,885	-0,226	-0,112
240,772	175,193	-0,125	-0,126
241,786	461,701	-0,179	-0,279
242,801	57,653	-0,267	-0,181
243,815	211,832	-0,190	-0,208
244,830	228,285	-0,152	-0,172
245,844	-118,314	-0,111	-0,014
246,859	123,951	-0,267	-0,233
247,874	21,860	-0,291	-0,164
248,888	-200,000	-0,063	-0,238
249,903	400,702	-0,110	-0,161
250,917	42,816	-0,240	-0,152
251,932	800,000	-0,090	-0,226
252,947	61,429	-0,198	-0,137
253,961	147,938	-0,130	-0,122
254,976	43,859	-0,145	-0,092
255,990	-135,036	-0,316	-0,026
257,005	-200,000	-0,010	-0,179
258,020	-18,950	-0,122	-0,052
259,034	-182,713	-0,233	-0,003
260,049	31,298	-0,139	-0,082
261,063	-67,101	-0,086	0,023
262,078	-23,569	-0,196	-0,081
263,093	44,584	-0,190	-0,121
264,107	682,256	-0,098	-0,178
265,122	-71,252	-0,225	-0,058
266,136	382,566	-0,106	-0,151
267,151	20,009	-0,215	-0,120
268,166	105,807	-0,292	-0,240
269,180	22,286	-0,189	-0,107
270,195	272,470	-0,254	-0,311
271,209	-47,119	-0,197	-0,066
272,224	800,000	-0,039	-0,115
273,239	-200,000	-0,011	-0,087
274,253	217,947	-0,121	0,134
275,268	312,636	-0,104	-0,135
276,282	242,198	-0,253	-0,294
277,297	-41,307	-0,168	-0,060
278,312	-200,000	-0,059	-0,190
279,326	210,411	-0,140	-0,153
280,341	542,670	-0,039	-0,065
281,355	182,105	-0,214	-0,219
282,370	-98,775	-0,288	-0,050
283,384	-63,086	-0,151	-0,043
284,399	124,672	-0,183	-0,159
285,414	2,748	-0,236	-0,118
286,428	800,000	-0,080	-0,188
287,443	-141,271	-0,211	-0,015
288,457	94,746	-0,179	-0,141
289,472	233,566	-0,198	-0,226
290,487	15,907	-0,128	-0,069
291,501	29,105	-0,187	-0,109
292,516	45,347	-0,212	-0,135
293,530	-10,409	-0,268	-0,122
294,545	312,970	-0,148	-0,192
295,560	-11,331	-0,115	0,052
296,574	-81,593	-0,142	-0,032
297,589	800,000	-0,113	-0,255
298,603	30,357	-0,238	-0,140
299,618	-45,119	-0,211	-0,072
300,633	800,000	-0,119	-0,235
301,647	-200,000	-0,034	-0,185
302,662	694,999	-0,070	-0,127
303,676	18,283	-0,185	0,102
304,691	221,465	-0,172	-0,191
305,706	629,467	-0,054	-0,095
306,720	272,284	-0,105	-0,128
307,735	-54,760	-0,140	-0,044
308,749	-45,654	-0,042	-0,014
309,764	263,717	-0,074	-0,089
310,779	-200,000	-0,034	-0,174
311,793	-200,000	-0,058	-0,178
312,808	-99,250	-0,199	-0,034
313,822	146,023	-0,242	-0,224
314,837	438,018	-0,110	-0,166
315,852	-96,255	-0,176	-0,032
316,866	-134,576	-0,179	-0,015
317,881	-200,000	-0,022	-0,216
318,895	-1,244	-0,169	-0,082
319,910	800,000	-0,116	-0,333
320,925	78,117	-0,176	-0,130
321,939	214,162	-0,136	-0,149
322,954	37,404	-0,147	-0,090
323,968	66,641	-0,106	-0,074
324,983	-145,826	-0,142	0,009
325,997	-95,287	-0,167	0,031
327,012	-200,000	-0,014	0,092
328,027	-60,900	-0,241	-0,070
329,041	221,855	-0,071	-0,079
330,056	0,215	-0,160	-0,078
331,070	11,891	-0,195	-0,103
332,085	91,182	-0,085	-0,066
333,100	25,101	-0,126	-0,072
334,114	92,353	-0,175	-0,136
335,129	277,006	-0,157	-0,193
336,143	102,904	-0,067	-0,054
337,158	-200,000	-0,024	-0,083
338,173	-30,126	-0,118	0,046
339,187	186,356	0,041	0,042
340,202	187,878	-0,075	-0,077
341,216	206,237	-0,145	-0,156
342,231	544,318	-0,155	-0,255
343,246	113,612	-0,094	0,079
344,260	0,423	-0,046	0,022
345,275	-114,544	-0,062	0,008
346,289	68,118	-0,134	-0,095
347,304	-61,610	-0,205	0,059
348,319	312,583	-0,191	-0,247
349,333	-13,193	-0,192	-0,086
350,348	189,943	-0,170	-0,176
351,362	-174,488	-0,137	-0,003
352,377	172,498	-0,099	-0,098
353,392	429,261	-0,132	-0,197
354,406	403,373	-0,076	-0,110
355,421	208,622	1314,660	1416,741
356,435	160,529	1475,124	1416,981
