DTS Sentinel unit serial number:	SN410029Multiplexer serial number:	ORYXHardware model number:	OX2-SRSoftware version number:	ORYX F/W v4,00 Oryx Data Collector v3.7.2.0data status	okinstallation	B3 Nyhavnadifferential loss correction	single-endedforward channel	channel 1reverse channel	N/Adate	2023/12/01time	04:42:30forward acquisition time	300,00reverse acquisition time	0,00gamma	499,1914k internal	0,3212k external	0,3212temperature offset calibration	1,0000default loss term (dB/km)	0,3820temperature slope calibration	1,0000multiplexer offset coefficient	1,0000multiplexer slope coefficient	1,0000fibre end	0,00T internal ref (°C)	8,01T ext. ref 1 (°C)	-7,20T ext. ref 2 (°C)	-7,34length (m)	temperature (°C)	Stokes	anti-Stokes-744,400	-200,000	-0,066	-0,355
-743,385	800,000	-0,142	0,423
-742,371	367,836	-0,075	-0,110
-741,356	-200,000	0,002	0,142
-740,342	66,147	-0,144	-0,106
-739,327	800,000	-0,119	0,251
-738,312	153,996	-0,201	-0,200
-737,298	-200,000	-0,087	0,302
-736,283	-200,000	-0,038	-0,246
-735,269	-200,000	-0,044	0,158
-734,254	-200,000	-0,051	-0,186
-733,239	41,193	-0,307	0,200
-732,225	-200,000	-0,052	-0,192
-731,210	30,598	0,074	0,046
-730,196	139,974	-0,038	-0,036
-729,181	-200,000	-0,003	-0,046
-728,167	-179,011	-0,105	0,002
-727,152	583,343	0,041	0,073
-726,137	-80,065	-0,142	0,034
-725,123	800,000	0,002	0,006
-724,108	280,170	-0,131	-0,169
-723,094	-200,000	0,021	-0,097
-722,079	-200,000	0,014	-0,161
-721,064	-200,000	-0,000	0,006
-720,050	-200,000	0,001	-0,083
-719,035	800,000	0,028	0,082
-718,021	-31,691	-0,099	-0,040
-717,006	800,000	-0,025	-0,056
-715,991	-73,159	-0,028	-0,007
-714,977	-124,690	-0,073	0,008
-713,962	-124,027	-0,174	0,020
-712,948	-165,757	0,040	0,001
-711,933	-3,591	-0,065	-0,032
-710,918	-75,272	-0,104	0,027
-709,904	52,189	-0,039	-0,027
-708,889	-30,454	-0,073	-0,030
-707,875	-200,000	-0,019	-0,062
-706,860	21,719	-0,058	0,034
-705,845	-200,000	-0,014	0,158
-704,831	800,000	-0,015	0,041
-703,816	136,961	0,057	0,054
-702,802	46,389	-0,055	-0,037
-701,787	-135,358	-0,069	-0,006
-700,772	800,000	0,029	0,062
-699,758	-28,306	-0,128	-0,053
-698,743	-200,000	0,023	0,087
-697,729	112,294	-0,066	-0,058
-696,714	619,582	-0,110	-0,201
-695,699	800,000	-0,040	-0,091
-694,685	800,000	-0,079	0,160
-693,670	-200,000	0,001	-0,052
-692,656	-30,538	-0,210	-0,086
-691,641	-154,294	0,182	-0,009
-690,627	-173,003	-0,071	0,002
-689,612	800,000	0,026	-0,082
-688,597	-200,000	-0,014	-0,246
-687,583	-20,151	-0,130	-0,058
-686,568	800,000	-0,061	0,158
-685,554	364,509	-0,045	0,065
-684,539	303,984	0,038	-0,051
-683,524	-25,600	0,099	0,042
-682,510	-200,000	-0,025	0,089
-681,495	-200,000	-0,020	-0,075
-680,481	-200,000	-0,002	0,107
-679,466	-92,230	-0,133	-0,027
-678,451	389,058	0,084	-0,126
-677,437	-103,272	-0,067	0,011
-676,422	-200,000	-0,047	0,177
-675,408	800,000	0,032	0,067
-674,393	-140,971	-0,075	0,005
-673,378	-46,576	-0,078	-0,027
-672,364	-12,255	-0,140	0,066
-671,349	48,668	0,084	0,057
-670,335	-196,065	-0,119	0,001
-669,320	-200,000	-0,011	-0,081
-668,305	196,857	-0,023	-0,025
-667,291	9,123	-0,084	-0,046
-666,276	251,170	-0,077	-0,095
-665,262	-55,182	-0,169	-0,055
-664,247	-200,000	-0,022	-0,159
-663,232	315,978	0,075	0,102
-662,218	800,000	-0,040	0,112
-661,203	6,835	-0,052	-0,028
-660,189	23,727	-0,100	0,059
-659,174	225,900	-0,074	-0,087
-658,159	-119,306	-0,084	-0,010
-657,145	-158,622	-0,205	-0,008
-656,130	800,000	-0,025	0,075
-655,116	162,116	0,048	-0,049
-654,101	288,704	0,063	0,082
-653,086	800,000	0,014	0,030
-652,072	-79,694	-0,017	0,004
-651,057	95,908	-0,089	0,073
-650,043	-200,000	-0,045	-0,154
-649,028	800,000	-0,028	-0,086
-648,014	244,452	0,064	-0,078
-646,999	-95,241	-0,102	-0,020
-645,984	271,812	-0,019	-0,024
-644,970	211,638	-0,088	-0,100
-643,955	-49,587	-0,059	-0,020
-642,941	-94,079	0,163	0,032
-641,926	800,000	0,009	-0,019
-640,911	249,579	-0,081	-0,100
-639,897	-17,855	-0,075	0,034
-638,882	800,000	-0,040	0,088
-637,868	-74,117	-0,038	-0,010
-636,853	800,000	-0,092	-0,191
-635,838	-129,857	0,098	0,010
-634,824	800,000	-0,021	-0,054
-633,809	-182,976	0,098	0,001
-632,795	465,420	-0,071	-0,115
-631,780	-48,887	-0,089	0,031
-630,765	136,594	-0,059	-0,056
-629,751	-200,000	0,001	-0,014
-628,736	-200,000	-0,019	0,065
-627,722	800,000	-0,013	0,033
-626,707	-22,843	0,040	0,017
-625,692	180,753	-0,056	-0,060
-624,678	365,959	0,047	-0,069
-623,663	-200,000	-0,003	-0,034
-622,649	99,816	-0,040	-0,034
-621,634	-144,000	0,058	-0,004
-620,619	-200,000	0,002	-0,189
-619,605	-172,096	-0,064	-0,001
-618,590	508,048	0,080	0,135
-617,576	-200,000	-0,013	0,174
-616,561	-200,000	-0,015	0,144
-615,546	-54,832	-0,067	-0,022
-614,532	-59,006	-0,078	-0,024
-613,517	-200,000	-0,011	-0,054
-612,503	-115,147	0,200	-0,027
-611,488	61,931	-0,075	-0,054
-610,474	162,637	-0,175	0,177
-609,459	-200,000	0,016	0,070
-608,444	35,469	0,066	0,042
-607,430	-200,000	0,020	-0,228
-606,415	-200,000	-0,034	-0,156
-605,401	21,686	0,126	-0,074
-604,386	683,834	0,042	0,079
-603,371	800,000	-0,010	0,021
-602,357	354,490	-0,051	0,073
-601,342	4,286	0,041	0,021
-600,328	-200,000	0,005	0,033
-599,313	-94,071	-0,079	0,015
-598,298	-79,095	-0,092	-0,022
-597,284	-200,000	0,006	0,088
-596,269	800,000	0,029	0,073
-595,255	163,430	-0,081	0,082
-594,240	-80,403	-0,055	-0,013
-593,225	-200,000	0,010	-0,180
-592,211	37,567	0,084	-0,054
-591,196	-200,000	-0,011	0,103
-590,182	-200,000	0,005	0,097
-589,167	800,000	-0,002	-0,005
-588,152	30,872	0,057	0,035
-587,138	800,000	0,034	0,091
-586,123	-96,429	-0,052	-0,010
-585,109	92,231	0,108	-0,087
-584,094	-42,654	-0,080	-0,029
-583,079	411,758	-0,034	-0,052
-582,065	-112,423	0,036	-0,005
-581,050	800,000	0,056	0,172
-580,036	-46,148	-0,163	-0,058
-579,021	99,063	-0,073	-0,061
-578,006	-90,328	0,153	0,032
-576,992	-200,000	-0,020	-0,090
-575,977	2,894	0,149	0,077
-574,963	372,255	0,026	-0,038
-573,948	767,465	0,050	0,099
-572,934	-65,240	-0,151	0,043
-571,919	-200,000	-0,009	-0,040
-570,904	-200,000	-0,001	-0,064
-569,890	-33,200	-0,026	-0,010
-568,875	116,421	0,108	-0,095
-567,861	159,818	-0,041	0,042
-566,846	-200,000	0,019	0,063
-565,831	800,000	-0,014	0,031
-564,817	-92,548	-0,068	-0,014
-563,802	-200,000	-0,013	-0,054
-562,788	353,404	-0,018	0,026
-561,773	-156,103	-0,045	-0,002
-560,758	-12,655	0,085	0,040
-559,744	800,000	-0,025	0,051
-558,729	800,000	0,041	0,088
-557,715	340,975	-0,012	0,016
-556,700	800,000	-0,005	-0,014
-555,685	-89,815	-0,085	0,018
-554,671	532,811	0,037	0,063
-553,656	-92,212	0,102	-0,020
-552,642	-200,000	-0,004	0,050
-551,627	-200,000	0,005	0,087
-550,612	-109,166	0,132	-0,020
-549,598	82,566	-0,087	0,068
-548,583	800,000	0,042	-0,090
-547,569	81,019	-0,106	-0,082
-546,554	-83,603	0,066	-0,015
-545,539	800,000	0,042	0,089
-544,525	254,863	-0,007	-0,009
-543,510	115,583	-0,027	0,024
-542,496	-200,000	-0,003	-0,014
-541,481	800,000	0,036	-0,091
-540,466	-200,000	0,003	-0,028
-539,452	-200,000	-0,004	0,059
-538,437	20,920	0,015	0,009
-537,423	-110,061	-0,026	0,004
-536,408	-44,531	-0,065	-0,023
-535,393	76,900	-0,052	0,040
-534,379	502,699	0,045	-0,075
-533,364	-200,000	-0,036	-0,249
-532,350	-200,000	-0,009	-0,073
-531,335	-107,621	-0,057	0,009
-530,321	199,109	0,042	0,047
-529,306	141,736	0,074	0,070
-528,291	50,621	-0,011	-0,008
-527,277	96,188	-0,052	-0,043
-526,262	-200,000	0,001	-0,050
-525,248	-51,318	0,030	-0,010
-524,233	-200,000	0,059	0,206
-523,218	-71,381	0,058	0,015
-522,204	-50,583	0,108	0,036
-521,189	-74,071	-0,220	0,057
-520,175	461,978	-0,049	-0,079
-519,160	374,930	-0,044	0,064
-518,145	208,320	-0,047	0,053
-517,131	49,674	0,056	-0,038
-516,116	800,000	-0,024	0,069
-515,102	-187,022	-0,072	0,001
-514,087	-200,000	-0,013	0,050
-513,072	-74,771	-0,025	0,006
-512,058	-200,000	-0,030	-0,116
-511,043	-158,652	0,161	-0,007
-510,029	76,034	0,022	0,017
-509,014	446,538	-0,049	-0,077
-507,999	-200,000	-0,008	0,051
-506,985	42,018	-0,068	-0,045
-505,970	-200,000	0,028	-0,098
-504,956	800,000	0,062	-0,128
-503,941	-200,000	0,021	0,068
-502,926	-98,838	-0,084	0,015
-501,912	-7,061	0,075	-0,036
-500,897	425,358	-0,018	-0,029
-499,883	5,036	-0,061	-0,032
-498,868	800,000	-0,088	-0,205
-497,853	-64,719	0,042	0,012
-496,839	747,546	-0,065	-0,125
-495,824	123,470	0,046	0,042
-494,810	-142,213	-0,064	0,004
-493,795	-200,000	0,002	-0,030
-492,781	-65,156	-0,212	0,061
-491,766	-200,000	-0,003	-0,055
-490,751	98,621	-0,055	0,045
-489,737	-141,935	0,037	0,003
-488,722	326,440	0,057	-0,078
-487,708	295,279	0,032	0,042
-486,693	604,040	0,027	-0,049
-485,678	-200,000	-0,005	-0,037
-484,664	129,215	-0,070	0,065
-483,649	23,839	-0,097	0,057
-482,635	118,987	0,060	0,054
-481,620	58,818	0,087	0,061
-480,605	117,518	0,105	-0,093
-479,591	139,827	-0,120	0,114
-478,576	-200,000	-0,006	-0,072
-477,562	800,000	-0,027	-0,060
-476,547	173,553	-0,155	-0,160
-475,532	-82,401	-0,031	-0,007
-474,518	-93,557	-0,022	-0,004
-473,503	-200,000	0,012	0,084
-472,489	-35,361	0,002	0,001
-471,474	-10,907	-0,076	-0,036
-470,459	60,273	-0,098	-0,069
-469,445	-200,000	-0,026	0,153
-468,430	-200,000	0,001	-0,056
-467,416	-147,060	0,085	0,005
-466,401	-81,686	-0,023	0,005
-465,386	800,000	0,032	-0,094
-464,372	138,054	0,094	0,089
-463,357	-76,702	-0,149	-0,037
-462,343	63,725	-0,104	-0,075
-461,328	74,746	-0,073	0,055
-460,313	203,447	0,058	0,065
-459,299	47,508	0,049	-0,032
-458,284	-72,321	0,053	-0,014
-457,270	-159,601	0,148	-0,006
-456,255	-10,136	-0,080	-0,038
-455,241	-21,138	-0,123	-0,054
-454,226	70,985	0,050	-0,037
-453,211	51,070	0,013	0,009
-452,197	-74,667	0,093	0,024
-451,182	29,306	-0,140	0,085
-450,168	425,382	-0,085	-0,131
-449,153	-32,685	0,109	-0,043
-448,138	79,643	-0,124	-0,095
-447,124	316,571	-0,050	0,068
-446,109	-80,021	0,086	-0,021
-445,095	16,287	0,126	0,071
-444,080	-200,000	-0,015	0,158
-443,065	800,000	0,022	0,044
-442,051	800,000	0,040	0,108
-441,036	-59,165	-0,040	-0,012
-440,022	70,556	-0,133	-0,099
-439,007	-200,000	0,026	0,179
-437,992	-131,142	-0,090	-0,008
-436,978	216,582	-0,075	0,086
-435,963	6,556	0,015	-0,008
-434,949	221,810	0,088	-0,101
-433,934	-67,961	-0,103	-0,029
-432,919	-200,000	0,039	-0,154
-431,905	-10,829	0,052	-0,025
-430,890	67,241	0,130	0,095
-429,876	-35,877	-0,104	-0,040
-428,861	800,000	0,050	0,124
-427,846	-200,000	0,001	-0,009
-426,832	712,248	0,027	-0,051
-425,817	-200,000	0,006	-0,088
-424,803	252,717	-0,040	-0,048
-423,788	-200,000	0,039	0,139
-422,773	410,265	-0,095	0,145
-421,759	90,601	0,164	0,131
-420,744	-20,954	0,029	-0,013
-419,730	800,000	0,051	-0,119
-418,715	186,556	0,085	-0,091
-417,701	-79,679	0,056	0,013
-416,686	800,000	0,020	0,052
-415,671	387,676	0,035	-0,053
-414,657	-39,111	0,166	-0,062
-413,642	234,859	0,041	0,049
-412,628	-200,000	-0,009	-0,103
-411,613	29,040	0,118	0,072
-410,598	285,397	-0,056	0,072
-409,584	161,854	0,032	-0,032
-408,569	800,000	0,008	0,023
-407,555	-131,606	-0,095	-0,009
-406,540	-87,448	0,175	-0,038
-405,525	45,305	0,184	0,121
-404,511	800,000	0,021	0,050
-403,496	800,000	0,025	0,076
-402,482	-6,378	-0,030	-0,015
-401,467	-200,000	0,009	0,033
-400,452	240,108	-0,120	0,143
-399,438	197,079	0,063	0,069
-398,423	-200,000	0,033	-0,155
-397,409	800,000	0,065	-0,179
-396,394	-78,331	-0,093	-0,023
-395,379	137,291	0,012	0,011
-394,365	-200,000	-0,004	-0,016
-393,350	-200,000	0,007	-0,039
-392,336	484,367	-0,015	0,025
-391,321	-130,869	0,118	0,011
-390,306	149,243	0,069	-0,067
-389,292	25,083	0,069	0,041
-388,277	-18,031	0,090	0,040
-387,263	109,727	0,024	0,021
-386,248	191,732	-0,052	0,056
-385,233	84,830	0,048	0,037
-384,219	-200,000	-0,022	0,153
-383,204	800,000	-0,037	-0,075
-382,190	-200,000	-0,007	0,039
-381,175	-99,535	0,073	-0,013
-380,160	250,026	0,109	-0,132
-379,146	79,140	0,100	-0,076
-378,131	-200,000	0,024	-0,136
-377,117	23,767	0,011	-0,007
-376,102	-200,000	0,023	-0,085
-375,088	800,000	-0,024	-0,047
-374,073	-200,000	0,012	0,172
-373,058	59,362	-0,097	0,068
-372,044	-142,374	0,194	0,013
-371,029	-200,000	0,003	0,087
-370,015	187,360	0,051	-0,054
-369,000	-200,000	0,002	-0,086
-367,985	284,450	-0,036	-0,046
-366,971	787,661	0,008	0,015
-365,956	-69,470	0,076	-0,021
-364,942	13,652	0,097	0,054
-363,927	-27,880	0,038	0,016
-362,912	-200,000	0,014	0,156
-361,898	800,000	0,014	-0,040
-360,883	88,597	0,058	-0,046
-359,869	-72,730	-0,059	-0,015
-358,854	-200,000	0,017	0,144
-357,839	800,000	-0,027	0,085
-356,825	800,000	-0,044	0,112
-355,810	420,500	-0,033	-0,051
-354,796	800,000	-0,032	0,073
-353,781	-65,247	-0,100	-0,028
-352,766	97,514	-0,078	0,064
-351,752	345,154	0,030	0,042
-350,737	-200,000	-0,023	-0,075
-349,723	94,539	-0,114	0,093
-348,708	50,113	-0,116	-0,078
-347,693	-200,000	-0,078	-0,259
-346,679	2,646	-0,076	-0,039
-345,664	-33,078	0,067	0,026
-344,650	-76,206	0,118	0,029
-343,635	-125,563	-0,072	-0,008
-342,620	-71,271	-0,021	-0,005
-341,606	225,323	0,077	-0,089
-340,591	-3,581	-0,107	-0,053
-339,577	-52,699	-0,039	0,013
-338,562	586,404	-0,061	0,108
-337,548	163,293	-0,046	0,046
-336,533	336,205	0,057	0,079
-335,518	800,000	0,019	0,043
-334,504	800,000	0,030	0,091
-333,489	81,867	-0,065	-0,050
-332,475	-47,934	-0,026	0,009
-331,460	-57,869	0,107	0,033
-330,445	-3,809	-0,107	-0,053
-329,431	160,736	0,014	-0,014
-328,416	42,112	0,073	0,047
-327,402	-200,000	-0,053	0,180
-326,387	-200,000	-0,014	0,185
-325,372	-61,015	-0,045	-0,013
-324,358	-200,000	0,009	-0,139
-323,343	286,754	-0,077	0,100
-322,329	423,448	0,015	-0,024
-321,314	-113,055	0,099	0,014
-320,299	292,338	0,030	0,039
-319,285	345,354	-0,070	0,099
-318,270	-200,000	-0,041	-0,133
-317,256	800,000	-0,054	-0,148
-316,241	133,383	0,096	-0,088
-315,226	72,542	-0,077	0,057
-314,212	800,000	0,071	0,169
-313,197	-96,971	-0,097	0,018
-312,183	800,000	0,077	0,153
-311,168	-87,897	-0,095	0,020
-310,153	-200,000	0,006	-0,077
-309,139	200,250	-0,087	-0,096
-308,124	-92,949	0,041	0,008
-307,110	-38,989	0,093	0,035
-306,095	653,503	-0,031	0,057
-305,080	485,701	-0,048	0,078
-304,066	334,651	0,049	0,068
-303,051	-61,657	-0,187	-0,055
-302,037	800,000	-0,068	-0,151
-301,022	-137,604	-0,185	0,015
-300,008	800,000	0,062	-0,136
-298,993	670,269	0,057	-0,105
-297,978	-88,656	-0,086	0,018
-296,964	-200,000	-0,029	0,097
-295,949	-8,342	0,054	-0,026
-294,935	-200,000	0,008	-0,051
-293,920	-200,000	-0,038	-0,144
-292,905	800,000	0,034	0,071
-291,891	-200,000	0,018	0,063
-290,876	-200,000	-0,032	0,176
-289,862	-200,000	0,010	0,038
-288,847	-34,240	-0,085	-0,033
-287,832	-200,000	0,004	0,071
-286,818	407,901	-0,028	-0,042
-285,803	800,000	0,046	-0,094
-284,789	195,594	0,063	0,068
-283,774	141,628	0,132	0,125
-282,759	69,602	0,083	-0,061
-281,745	738,294	0,056	0,107
-280,730	93,883	0,045	-0,037
-279,716	-8,126	-0,054	0,026
-278,701	-55,704	-0,145	-0,046
-277,686	800,000	0,040	0,104
-276,672	-82,459	0,042	0,010
-275,657	-84,464	0,108	0,024
-274,643	-200,000	-0,015	-0,113
-273,628	765,130	0,036	0,070
-272,613	-200,000	0,005	-0,110
-271,599	-54,685	0,030	-0,009
-270,584	548,788	-0,054	0,093
-269,570	709,066	-0,069	0,131
-268,555	-30,055	0,103	0,041
-267,540	-69,499	-0,047	-0,013
-266,526	450,825	-0,072	-0,113
-265,511	-131,195	-0,082	-0,008
-264,497	0,996	0,091	-0,046
-263,482	-113,592	0,082	0,011
-262,467	791,257	-0,004	-0,008
-261,453	-200,000	-0,001	-0,037
-260,438	21,173	-0,077	0,044
-259,424	-200,000	-0,017	-0,079
-258,409	-78,152	0,162	-0,039
-257,395	-200,000	0,011	-0,056
-256,380	800,000	0,012	0,028
-255,365	-7,702	0,109	0,052
-254,351	81,087	-0,075	-0,058
-253,336	237,954	-0,019	-0,022
-252,322	-98,870	-0,123	-0,022
-251,307	-200,000	0,007	-0,038
-250,292	655,420	-0,011	-0,021
-249,278	-200,000	0,037	0,162
-248,263	554,275	0,114	0,196
-247,249	-35,162	0,064	-0,025
-246,234	800,000	0,053	0,130
-245,219	-200,000	-0,028	-0,106
-244,205	-94,958	-0,172	-0,033
-243,190	5,577	0,076	0,040
-242,176	-107,686	0,221	-0,034
-241,161	-200,000	-0,003	0,106
-240,146	92,520	-0,006	0,005
-239,132	-200,000	-0,004	-0,100
-238,117	306,084	0,037	-0,050
-237,103	800,000	0,089	-0,243
-236,088	211,167	-0,094	-0,105
-235,073	-200,000	-0,004	-0,099
-234,059	-200,000	-0,057	-0,181
-233,044	-200,000	0,001	0,051
-232,030	-200,000	0,006	-0,051
-231,015	-140,076	-0,156	-0,012
-230,000	-75,508	-0,052	0,013
-228,986	26,509	-0,009	-0,005
-227,971	-200,000	0,014	-0,064
-226,957	58,573	-0,087	0,061
-225,942	-200,000	-0,025	-0,078
-224,927	-82,678	0,237	-0,054
-223,913	547,030	-0,044	0,074
-222,898	33,258	0,081	-0,050
-221,884	728,213	0,019	-0,036
-220,869	159,317	0,050	0,049
-219,855	672,605	-0,050	0,092
-218,840	-200,000	-0,015	0,099
-217,825	169,189	-0,080	0,081
-216,811	517,662	-0,069	0,115
-215,796	-200,000	-0,019	-0,098
-214,782	69,038	-0,049	0,036
-213,767	262,250	-0,064	-0,078
-212,752	-152,593	0,042	-0,002
-211,738	-29,334	0,072	0,029
-210,723	800,000	0,042	-0,107
-209,709	-200,000	-0,054	-0,184
-208,694	-200,000	0,029	-0,167
-207,679	-135,171	0,047	0,004
-206,665	434,876	-0,090	0,139
-205,650	258,925	-0,023	0,028
-204,636	-72,361	0,069	-0,018
-203,621	-160,579	0,051	-0,002
-202,606	329,182	-0,033	-0,046
-201,592	800,000	-0,038	-0,083
-200,577	-160,907	0,104	0,004
-199,563	-200,000	-0,005	0,203
-198,548	-27,747	0,182	0,075
-197,533	800,000	0,049	-0,106
-196,519	800,000	-0,030	0,080
-195,504	82,740	-0,063	-0,049
-194,490	115,787	0,095	0,082
-193,475	376,816	-0,028	-0,041
-192,460	61,140	-0,087	-0,061
-191,446	800,000	0,039	0,090
-190,431	-200,000	0,023	0,096
-189,417	-98,555	-0,060	0,011
-188,402	-200,000	-0,014	0,115
-187,387	316,628	-0,015	-0,020
-186,373	72,601	-0,062	-0,046
-185,358	11,560	-0,092	-0,050
-184,344	222,358	-0,034	0,039
-183,329	774,195	0,049	0,096
-182,315	-41,840	0,041	0,015
-181,300	-200,000	-0,004	-0,104
-180,285	800,000	0,024	-0,064
-179,271	-45,898	-0,083	-0,029
-178,256	-200,000	0,026	-0,100
-177,242	17,164	-0,026	0,014
-176,227	-200,000	0,018	0,057
-175,212	61,543	0,131	0,092
-174,198	42,304	-0,040	0,025
-173,183	-154,204	0,075	-0,004
-172,169	76,639	0,011	0,009
-171,154	6,962	0,173	-0,091
-170,139	800,000	-0,048	0,130
-169,125	46,385	0,037	0,024
-168,110	-121,508	-0,041	0,005
-167,096	-200,000	0,005	0,156
-166,081	-200,000	0,040	-0,140
-165,066	-82,614	-0,100	-0,023
-164,052	-120,946	-0,103	0,012
-163,037	-99,519	0,197	0,035
-162,023	-200,000	0,000	-0,018
-161,008	129,264	0,085	0,077
-159,993	64,663	-0,049	-0,035
-158,979	361,267	-0,051	0,073
-157,964	-200,000	-0,042	-0,141
-156,950	78,096	0,103	-0,078
-155,935	-36,996	0,097	0,037
-154,920	457,178	-0,044	0,069
-153,906	170,563	-0,095	0,096
-152,891	-90,524	-0,060	-0,012
-151,877	53,381	0,112	0,076
-150,862	5,484	0,017	0,009
-149,847	800,000	-0,023	-0,053
-148,833	-47,144	-0,055	0,019
-147,818	-200,000	-0,015	0,168
-146,804	21,610	0,096	-0,055
-145,789	100,475	0,030	0,025
-144,775	147,291	-0,052	-0,050
-143,760	57,891	-0,057	-0,040
-142,745	174,834	-0,061	0,063
-141,731	191,449	0,025	-0,027
-140,716	800,000	0,019	0,054
-139,702	672,411	-0,031	-0,057
-138,687	-42,823	0,072	-0,026
-137,672	246,553	-0,170	-0,203
-136,658	-9,403	0,131	-0,062
-135,643	-192,562	0,143	0,001
-134,629	-200,000	-0,014	-0,075
-133,614	-61,921	0,018	0,005
-132,599	27,210	0,122	-0,072
-131,585	592,724	0,001	0,002
-130,570	57,463	0,048	0,033
-129,556	-17,577	0,071	-0,031
-128,541	336,596	0,041	-0,057
-127,526	-200,000	0,019	-0,121
-126,512	800,000	0,050	0,121
-125,497	-23,740	-0,117	0,050
-124,483	-187,551	0,087	0,001
-123,468	222,596	0,052	0,059
-122,453	341,391	-0,085	0,118
-121,439	800,000	-0,030	-0,070
-120,424	190,950	0,060	0,064
-119,410	-94,582	0,117	-0,022
-118,395	104,964	0,091	0,076
-117,380	21,365	-0,078	0,045
-116,366	-107,645	-0,078	-0,012
-115,351	-200,000	0,010	-0,067
-114,337	-101,726	-0,097	-0,016
-113,322	-12,825	-0,092	-0,042
-112,307	800,000	0,060	0,141
-111,293	-119,199	-0,082	0,010
-110,278	-47,701	0,071	0,024
-109,264	-16,405	-0,112	0,050
-108,249	-200,000	0,005	-0,092
-107,234	800,000	-0,061	-0,148
-106,220	-200,000	0,011	-0,057
-105,205	399,101	-0,020	-0,030
-104,191	-200,000	0,000	0,069
-103,176	-99,521	-0,142	-0,025
-102,162	-200,000	0,047	0,158
-101,147	-12,800	-0,050	-0,023
-100,132	-63,644	-0,061	0,018
-99,118	550,291	-0,007	-0,012
-98,103	-99,092	0,087	0,015
-97,089	352,343	0,050	0,070
-96,074	33,707	0,135	0,083
-95,059	247,761	-0,049	0,059
-94,045	90,586	0,047	0,037
-93,030	146,945	0,007	0,007
-92,016	800,000	-0,037	0,102
-91,001	-30,968	-0,133	0,053
-89,986	-200,000	-0,018	0,086
-88,972	107,208	0,031	0,026
-87,957	-109,243	-0,225	-0,033
-86,943	-83,753	-0,165	0,037
-85,928	-98,508	0,120	-0,021
-84,913	800,000	-0,052	-0,106
-83,899	-7,942	-0,008	-0,004
-82,884	-73,186	0,088	-0,023
-81,870	-200,000	0,001	0,034
-80,855	-200,000	0,070	0,263
-79,840	6,755	-0,109	-0,057
-78,826	376,352	0,055	-0,079
-77,811	-12,296	-0,095	-0,044
-76,797	800,000	0,030	0,088
-75,782	-39,536	0,088	0,032
-74,767	145,258	0,024	-0,023
-73,753	367,765	-0,075	0,108
-72,738	-70,839	-0,045	-0,012
-71,724	-174,606	-0,058	-0,001
-70,709	-9,344	-0,045	0,021
-69,694	5,551	-0,104	0,054
-68,680	119,843	0,037	0,033
-67,665	-200,000	0,009	-0,033
-66,651	97,366	-0,091	0,074
-65,636	-39,398	-0,091	-0,033
-64,622	5,814	-0,113	-0,059
-63,607	-49,773	0,058	0,019
-62,592	-66,854	-0,106	0,029
-61,578	-31,261	0,064	0,025
-60,563	-77,323	-0,054	-0,013
-59,549	122,729	0,026	-0,023
-58,534	83,543	-2,068	-1,589
-57,519	580,455	-1,035	-1,797
-56,505	-200,000	-0,362	-4,445
-55,490	424,055	1,068	1,626
-54,476	800,000	5,359	11,777
-53,461	-200,000	22,473	347,352
-52,446	800,000	757,392	2291,729
-51,432	532,875	1642,898	2754,327
-50,417	67,830	1641,447	1182,446
-49,403	15,675	1519,260	840,153
-48,388	9,897	1445,319	771,523
-47,373	19,317	1437,945	812,421
-46,359	13,394	1426,384	777,920
-45,344	8,242	1422,399	751,363
-44,330	8,133	1420,470	749,802
-43,315	8,105	1418,820	748,767
-42,300	8,105	1417,102	747,830
-41,286	8,138	1415,622	747,176
-40,271	8,080	1414,480	746,270
-39,257	8,064	1413,397	745,593
-38,242	8,096	1412,278	745,124
-37,227	8,114	1411,116	744,566
-36,213	8,094	1409,846	743,772
-35,198	8,093	1408,602	743,081
-34,184	8,124	1407,648	742,695
-33,169	8,080	1406,391	741,798
-32,154	8,099	1405,462	741,366
-31,140	8,055	1404,294	740,516
-30,125	8,097	1402,885	739,936
-29,111	8,099	1401,840	739,366
-28,096	8,053	1400,783	738,567
-27,082	8,032	1399,539	737,782
-26,067	8,002	1398,492	737,061
-25,052	8,036	1397,334	736,581
-24,038	8,062	1396,453	736,209
-23,023	8,051	1395,534	735,643
-22,009	8,013	1394,480	734,880
-20,994	8,031	1393,527	734,434
-19,979	8,008	1392,589	733,803
-18,965	7,983	1391,646	733,163
-17,950	8,014	1390,555	732,700
-16,936	7,929	1390,001	731,986
-15,921	7,939	1388,692	731,316
-14,906	7,973	1387,769	730,959
-13,892	8,023	1386,550	730,517
-12,877	7,953	1386,222	729,991
-11,863	7,964	1385,256	729,504
-10,848	7,927	1384,537	728,924
-9,833	7,945	1383,409	728,387
-8,819	7,923	1382,377	727,715
-7,804	7,854	1381,835	727,080
-6,790	7,864	1380,656	726,479
-5,775	7,868	1379,789	726,013
-4,760	7,875	1378,564	725,369
-3,746	7,887	1377,663	724,924
-2,731	7,921	1376,753	724,570
-1,717	7,875	1376,010	723,941
-0,702	7,833	1374,449	722,900
0,313	11,763	1284,327	693,303
1,327	27,412	676,333	399,934
2,342	42,303	116,272	74,355
3,356	1,689	16,559	8,380
4,371	6,505	3,748	1,957
5,386	-9,750	1,278	0,598
6,400	750,940	0,354	0,677
7,415	13,859	-0,098	-0,053
8,429	215,850	-0,179	-0,200
9,444	17,105	-0,418	-0,233
10,459	-3,712	-0,347	-0,169
11,473	-99,971	-0,193	0,034
12,488	21,962	-0,320	-0,183
13,502	-42,597	-0,342	-0,122
14,517	92,952	-0,369	-0,294
15,531	109,350	-0,368	-0,310
16,546	37,972	-0,400	-0,250
17,561	370,166	-0,190	-0,272
18,575	-106,402	-0,286	-0,045
19,590	88,214	-0,168	-0,131
20,604	223,333	-0,148	-0,169
21,619	73,958	-0,419	-0,309
22,634	-3,603	-0,582	-0,284
23,648	222,652	-0,348	-0,395
24,663	9,148	-0,316	-0,168
25,677	23,960	-0,400	-0,232
26,692	-4,676	-0,283	-0,137
27,707	30,438	-0,403	-0,241
28,721	609,976	-0,227	-0,400
29,736	87,028	-0,393	-0,305
30,750	121,015	-0,318	-0,278
31,765	13,466	-0,341	-0,185
32,780	175,991	-0,317	-0,324
33,794	82,116	-0,321	-0,245
34,809	37,377	-0,378	-0,235
35,823	-39,093	-0,450	-0,166
36,838	459,732	-0,267	-0,419
37,853	73,830	-0,392	-0,288
38,867	222,444	-0,264	-0,299
39,882	39,810	-0,287	-0,181
40,896	-25,547	-0,281	-0,116
41,911	3,415	-0,311	-0,159
42,926	-64,948	-0,372	-0,105
43,940	45,481	-0,323	-0,209
44,955	-38,290	-0,406	-0,150
45,969	134,030	-0,323	-0,294
46,984	35,329	-0,319	-0,196
47,999	544,545	-0,118	-0,199
49,013	-11,157	-0,273	-0,126
50,028	71,849	-0,235	-0,171
51,042	77,885	-0,305	-0,228
52,057	14,171	-0,313	-0,171
53,071	141,707	-0,334	-0,311
54,086	30,787	-0,260	-0,156
55,101	-14,750	-0,297	-0,133
56,115	146,025	-0,297	-0,280
57,130	30,832	-0,449	-0,269
58,144	-35,307	-0,329	-0,125
59,159	246,900	-0,217	-0,257
60,174	141,579	-0,324	-0,301
61,188	-17,903	-0,482	-0,211
62,203	-61,825	-0,331	-0,097
63,217	-12,332	-0,329	-0,150
64,232	23,608	-0,334	-0,192
65,247	268,738	-0,293	-0,361
66,261	143,761	-0,306	-0,286
67,276	49,840	-0,319	-0,210
68,290	259,198	-0,269	-0,326
69,305	-89,693	-0,325	-0,066
70,320	59,600	-0,263	-0,182
71,334	-59,604	-0,345	-0,103
72,349	162,395	-0,210	-0,206
73,363	218,303	-0,323	-0,362
74,378	608,076	-0,192	-0,338
75,393	-20,905	-0,247	-0,105
76,407	-140,236	-0,291	-0,021
77,422	125,555	-0,191	-0,169
78,436	-21,747	-0,224	-0,095
79,451	-36,409	-0,270	-0,101
80,466	-31,553	-0,368	-0,144
81,480	11,016	-0,369	-0,197
82,495	23,624	-0,429	-0,246
83,509	131,335	-0,291	-0,262
84,524	19,771	-0,293	-0,165
85,539	-96,738	-0,160	0,029
86,553	32,949	-0,311	-0,188
87,568	-34,909	-0,375	-0,142
88,582	33,312	-0,230	-0,139
89,597	514,245	-0,075	-0,123
90,611	85,972	-0,155	-0,119
91,626	-113,022	-0,263	-0,036
92,641	19,962	-0,310	-0,175
93,655	-61,876	-0,286	-0,083
94,670	-6,138	-0,216	-0,103
95,684	293,432	-0,242	-0,310
96,699	-21,941	-0,225	-0,095
97,714	69,356	-0,218	-0,156
98,728	-28,829	-0,282	-0,113
99,743	-97,931	-0,260	-0,046
100,757	85,792	-0,264	-0,202
101,772	160,861	-0,275	-0,269
102,787	65,687	-0,323	-0,228
103,801	63,534	-0,268	-0,187
104,816	82,392	-0,346	-0,262
105,830	298,559	-0,119	-0,153
106,845	-47,086	-0,320	-0,109
107,860	-8,845	-0,222	-0,103
108,874	96,539	-0,244	-0,195
109,889	133,483	-0,331	-0,299
110,903	266,155	-0,190	-0,232
111,918	-102,838	-0,300	-0,049
112,933	78,311	-0,291	-0,217
113,947	134,771	-0,156	-0,142
114,962	47,529	-0,292	-0,190
115,976	100,100	-0,237	-0,191
116,991	18,352	-0,181	-0,100
118,006	-42,402	-0,301	-0,106
119,020	-166,534	-0,255	0,007
120,035	40,180	-0,246	-0,154
121,049	402,541	-0,128	-0,189
122,064	91,001	-0,241	-0,188
123,079	-12,216	-0,204	-0,093
124,093	0,227	-0,308	-0,153
125,108	800,000	-0,131	-0,254
126,122	108,792	-0,307	-0,256
127,137	223,709	-0,225	-0,254
128,151	-198,807	-0,216	0,001
129,166	27,914	-0,237	-0,139
130,181	-46,717	-0,357	-0,121
131,195	149,669	-0,093	-0,088
132,210	12,676	-0,193	-0,103
133,224	26,828	-0,186	-0,108
134,239	167,923	-0,205	-0,203
135,254	-60,762	-0,246	-0,072
136,268	-15,100	-0,233	-0,104
137,283	-114,031	-0,274	-0,037
138,297	-27,373	-0,307	-0,124
139,312	-99,851	-0,241	-0,042
140,327	13,699	-0,321	-0,173
141,341	-104,342	-0,265	-0,042
142,356	603,213	-0,122	-0,212
143,370	114,798	-0,183	-0,155
144,385	-79,509	-0,287	-0,067
145,400	168,439	-0,229	-0,227
146,414	148,967	-0,256	-0,241
147,429	109,715	-0,249	-0,208
148,443	178,110	-0,181	-0,184
149,458	86,070	-0,277	-0,212
150,473	23,646	-0,172	-0,098
151,487	-11,938	-0,349	-0,159
152,502	165,324	-0,174	-0,171
153,516	141,048	-0,274	-0,252
154,531	-63,416	-0,240	-0,068
155,546	106,699	-0,260	-0,215
156,560	56,540	-0,254	-0,172
157,575	674,754	-0,129	-0,234
158,589	-0,513	-0,317	-0,156
159,604	161,591	-0,154	-0,150
160,619	-7,454	-0,350	-0,164
161,633	101,158	-0,240	-0,194
162,648	251,175	-0,128	-0,152
163,662	5,136	-0,184	-0,094
164,677	418,112	-0,122	-0,181
165,692	12,333	-0,271	-0,144
166,706	164,030	-0,208	-0,204
167,721	220,105	-0,216	-0,240
168,735	242,622	-0,193	-0,224
169,750	124,176	-0,242	-0,211
170,764	272,123	-0,141	-0,173
171,779	6,155	-0,149	-0,077
172,794	389,826	-0,110	-0,159
173,808	-109,385	-0,203	-0,030
174,823	243,368	-0,299	-0,348
175,837	56,362	-0,224	-0,151
176,852	167,384	-0,218	-0,215
177,867	13,707	-0,299	-0,161
178,881	134,367	-0,206	-0,186
179,896	-16,939	-0,219	-0,095
180,910	74,665	-0,267	-0,195
181,925	-52,961	-0,171	-0,054
182,940	800,000	-0,109	-0,298
183,954	163,750	-0,229	-0,224
184,969	39,510	-0,218	-0,135
185,983	13,412	-0,155	-0,083
186,998	-200,000	-0,046	-0,157
188,013	42,572	-0,176	-0,111
189,027	215,902	-0,207	-0,229
190,042	800,000	-0,103	-0,240
191,056	-14,152	-0,317	-0,141
192,071	204,845	-0,124	-0,134
193,086	-14,352	-0,168	-0,075
194,100	50,586	-0,154	-0,101
195,115	28,169	-0,144	-0,084
196,129	113,960	-0,218	-0,184
197,144	480,891	-0,192	-0,303
198,159	-1,347	-0,184	-0,090
199,173	56,854	-0,190	-0,128
200,188	-131,061	-0,245	-0,022
201,202	118,685	-0,140	-0,120
202,217	106,452	-0,143	-0,118
203,232	15,551	-0,227	-0,123
204,246	124,021	-0,188	-0,164
205,261	-54,152	-0,227	-0,071
206,275	92,639	-0,259	-0,202
207,290	9,732	-0,235	-0,123
208,304	800,000	-0,114	-0,226
209,319	-200,000	-0,016	-0,252
210,334	-89,034	-0,335	-0,068
211,348	-52,509	-0,220	-0,070
212,363	140,627	-0,179	-0,163
213,377	17,043	-0,272	-0,149
214,392	346,262	-0,084	-0,114
215,407	57,376	-0,071	-0,048
216,421	-110,388	-0,144	-0,020
217,436	800,000	-0,068	-0,154
218,450	67,377	-0,183	-0,129
219,465	93,198	-0,179	-0,140
220,480	111,967	-0,355	-0,297
221,494	-39,884	-0,106	0,038
222,509	-133,572	-0,147	-0,013
223,523	-128,088	-0,265	0,026
224,538	-81,801	-0,106	0,024
225,553	-5,803	-0,218	-0,103
226,567	331,376	-0,229	-0,306
227,582	55,877	-0,205	-0,137
228,596	236,193	-0,104	-0,119
229,611	109,215	-0,174	-0,144
230,626	25,182	-0,191	-0,109
231,640	800,000	-0,071	-0,174
232,655	25,518	-0,211	-0,121
233,669	205,168	-0,187	-0,201
234,684	72,327	-0,238	-0,171
235,699	800,000	-0,077	-0,207
236,713	465,272	-0,101	-0,157
237,728	-103,577	-0,109	-0,018
238,742	-99,809	-0,185	-0,032
239,757	800,000	-0,080	-0,236
240,772	89,586	-0,259	-0,199
241,786	25,064	-0,327	-0,187
242,801	-120,126	-0,238	0,028
243,815	-200,000	-0,003	-0,067
244,830	446,968	-0,066	-0,100
245,844	112,387	-0,181	-0,151
246,859	0,453	-0,231	-0,114
247,874	-127,108	-0,190	-0,019
248,888	57,108	-0,187	-0,126
249,903	210,967	-0,104	-0,113
250,917	-58,115	-0,279	-0,083
251,932	214,771	-0,076	-0,083
252,947	-22,742	-0,270	-0,112
253,961	-4,051	-0,202	-0,096
254,976	-97,770	-0,242	-0,043
255,990	188,943	-0,181	-0,187
257,005	185,967	-0,207	-0,212
258,020	-56,121	-0,270	-0,082
259,034	-18,711	-0,164	-0,070
260,049	147,040	-0,111	-0,103
261,063	72,037	-0,167	-0,119
262,078	44,982	-0,250	-0,159
263,093	-80,215	-0,301	-0,069
264,107	-29,783	-0,197	-0,077
265,122	-99,605	-0,128	0,022
266,136	-16,772	-0,212	-0,092
267,151	59,470	-0,144	-0,097
268,166	56,010	-0,107	-0,072
269,180	19,591	-0,265	-0,146
270,195	131,532	-0,161	-0,142
271,209	16,490	-0,296	-0,160
272,224	795,515	-0,167	-0,318
273,239	-7,371	-0,105	0,049
274,253	-200,000	-0,012	-0,147
275,268	-48,347	-0,199	-0,066
276,282	243,103	-0,276	-0,318
277,297	-135,682	-0,326	-0,026
278,312	152,856	-0,190	-0,178
279,326	-125,075	-0,077	-0,008
280,341	57,978	-0,179	-0,120
281,355	-100,444	-0,160	0,027
282,370	71,873	-0,135	-0,096
283,384	222,332	-0,221	-0,244
284,399	181,691	-0,183	-0,186
285,414	-159,244	-0,235	-0,009
286,428	-15,692	-0,069	-0,030
287,443	512,303	-0,125	-0,201
288,457	49,898	-0,098	0,063
289,472	-26,117	-0,188	-0,075
290,487	-109,304	-0,200	-0,029
291,501	338,519	-0,144	-0,193
292,516	-75,042	-0,106	-0,026
293,530	-200,000	-0,020	-0,125
294,545	800,000	-0,054	-0,161
295,560	-157,532	-0,225	0,009
296,574	-200,000	-0,023	-0,125
297,589	-84,484	-0,149	-0,032
298,603	3,306	-0,181	-0,090
299,618	42,242	-0,186	-0,116
300,633	472,975	-0,087	-0,135
301,647	35,380	-0,172	0,103
302,662	133,891	-0,088	-0,078
303,676	46,831	-0,131	-0,083
304,691	118,169	-0,160	-0,136
305,706	-19,281	-0,217	-0,092
306,720	-152,913	-0,158	-0,008
307,735	638,553	-0,096	-0,168
308,749	800,000	-0,049	-0,144
309,764	-143,429	-0,080	-0,005
310,779	-86,889	-0,271	-0,056
311,793	286,054	-0,186	-0,231
312,808	629,851	-0,100	-0,175
313,822	34,869	-0,288	-0,173
314,837	190,438	-0,214	-0,221
315,852	-33,853	-0,161	-0,060
316,866	-73,837	-0,216	-0,054
317,881	346,223	0,026	-0,035
318,895	800,000	-0,051	-0,120
319,910	-120,467	-0,207	-0,024
320,925	122,869	-0,053	-0,046
321,939	-16,910	-0,149	-0,064
322,954	-85,686	-0,169	-0,036
323,968	-124,341	-0,106	0,011
324,983	-41,509	-0,233	-0,082
325,997	-100,988	-0,173	0,029
327,012	-172,457	-0,099	0,002
328,027	14,666	-0,249	-0,133
329,041	312,889	-0,110	-0,142
330,056	-11,631	-0,206	-0,092
331,070	-76,230	-0,091	-0,022
332,085	800,000	-0,066	0,154
333,100	-200,000	-0,026	-0,081
334,114	-168,840	-0,195	-0,005
335,129	-46,210	-0,075	-0,025
336,143	95,862	-0,150	-0,117
337,158	-147,157	-0,172	-0,010
338,173	-200,000	0,005	-0,068
339,187	-27,454	-0,146	-0,058
340,202	-148,864	-0,202	-0,011
341,216	-114,453	-0,153	-0,020
342,231	32,857	-0,219	-0,130
343,246	125,462	-0,079	-0,068
344,260	-9,924	-0,091	0,041
345,275	3,573	-0,069	-0,035
346,289	24,679	-0,046	0,026
347,304	-130,678	-0,096	-0,009
348,319	-128,081	-0,146	-0,014
349,333	-33,701	-0,116	-0,044
350,348	-200,000	-0,015	-0,228
351,362	800,000	-0,046	-0,114
352,377	-200,000	0,037	0,145
353,392	-172,358	-0,190	0,004
354,406	-68,449	-0,159	0,042
355,421	205,569	1312,221	1395,542
356,435	158,060	1472,579	1395,983
