DTS Sentinel unit serial number:	SN410029Multiplexer serial number:	ORYXHardware model number:	OX2-SRSoftware version number:	ORYX F/W v4,00 Oryx Data Collector v3.7.2.0data status	okinstallation	B3 Nyhavnadifferential loss correction	single-endedforward channel	channel 1reverse channel	N/Adate	2023/12/04time	19:27:30forward acquisition time	300,00reverse acquisition time	0,00gamma	499,1914k internal	0,3200k external	0,3200temperature offset calibration	1,0000default loss term (dB/km)	0,3820temperature slope calibration	1,0000multiplexer offset coefficient	1,0000multiplexer slope coefficient	1,0000fibre end	0,00T internal ref (°C)	14,66T ext. ref 1 (°C)	-0,68T ext. ref 2 (°C)	-0,68length (m)	temperature (°C)	Stokes	anti-Stokes-744,400	3,971	-0,247	-0,131
-743,385	-200,000	0,065	0,231
-742,371	800,000	-0,154	-0,318
-741,356	-200,000	0,044	0,302
-740,342	800,000	-0,050	-0,117
-739,327	389,540	0,106	0,160
-738,312	298,460	-0,239	-0,321
-737,298	800,000	-0,140	0,379
-736,283	26,237	-0,290	-0,176
-735,269	-200,000	0,039	0,378
-734,254	144,628	-0,260	-0,252
-733,239	50,608	-0,148	0,101
-732,225	-200,000	-0,034	-0,216
-731,210	-40,833	0,023	0,009
-730,196	-94,119	0,137	0,027
-729,181	-200,000	0,021	-0,099
-728,167	718,222	0,033	-0,064
-727,152	-200,000	-0,019	0,123
-726,137	177,237	-0,060	-0,063
-725,123	-103,414	-0,088	0,015
-724,108	-51,011	-0,101	0,034
-723,094	-13,512	0,085	0,040
-722,079	800,000	-0,024	0,050
-721,064	397,780	0,034	-0,053
-720,050	227,517	0,079	0,094
-719,035	177,686	-0,056	-0,059
-718,021	-126,154	0,117	-0,013
-717,006	10,411	-0,083	0,046
-715,991	-200,000	-0,033	-0,192
-714,977	18,404	0,041	0,024
-713,962	-200,000	-0,041	-0,151
-712,948	-112,697	0,018	0,003
-711,933	-112,146	-0,020	0,003
-710,918	800,000	-0,065	0,150
-709,904	77,249	-0,053	-0,041
-708,889	85,171	-0,076	-0,060
-707,875	25,163	-0,088	-0,053
-706,860	-200,000	-0,051	-0,166
-705,845	94,751	-0,047	0,038
-704,831	800,000	0,036	-0,093
-703,816	169,495	-0,036	0,038
-702,802	5,665	-0,161	0,086
-701,787	108,880	-0,101	0,088
-700,772	-51,063	0,079	-0,027
-699,758	92,122	-0,053	-0,043
-698,743	-200,000	0,005	-0,037
-697,729	249,619	-0,097	0,119
-696,714	-72,727	-0,045	-0,012
-695,699	-200,000	0,002	-0,131
-694,685	73,564	0,034	0,026
-693,670	-200,000	0,045	-0,193
-692,656	-22,711	-0,156	0,068
-691,641	550,706	-0,005	-0,009
-690,627	800,000	-0,023	-0,058
-689,612	-75,586	-0,044	0,011
-688,597	800,000	-0,015	-0,030
-687,583	800,000	0,074	-0,153
-686,568	-105,005	-0,021	-0,003
-685,554	173,155	-0,153	-0,160
-684,539	357,950	0,058	-0,084
-683,524	386,471	-0,025	-0,037
-682,510	166,268	0,044	0,045
-681,495	91,156	0,049	-0,040
-680,481	57,469	-0,076	0,054
-679,466	-200,000	0,001	0,054
-678,451	800,000	-0,016	0,040
-677,437	-118,648	-0,096	0,012
-676,422	274,270	-0,067	0,086
-675,408	113,429	-0,006	0,005
-674,393	245,059	-0,077	0,094
-673,378	-200,000	0,008	0,082
-672,364	695,905	-0,073	-0,139
-671,349	761,793	0,016	-0,032
-670,335	310,277	0,069	-0,093
-669,320	67,548	0,067	0,050
-668,305	-4,170	-0,035	-0,017
-667,291	179,871	-0,073	-0,077
-666,276	117,843	-0,126	-0,113
-665,262	234,608	-0,061	-0,073
-664,247	155,379	0,061	-0,061
-663,232	-73,118	0,044	0,012
-662,218	-200,000	0,018	0,164
-661,203	-200,000	0,018	0,130
-660,189	-43,890	-0,045	-0,016
-659,174	800,000	0,017	-0,045
-658,159	698,641	-0,079	-0,152
-657,145	192,860	-0,054	0,060
-656,130	-54,796	-0,065	-0,021
-655,116	654,019	0,040	0,075
-654,101	275,091	-0,054	0,070
-653,086	370,625	0,037	0,054
-652,072	359,296	-0,087	-0,127
-651,057	451,529	0,048	-0,077
-650,043	111,710	-0,061	-0,053
-649,028	-11,014	0,130	-0,062
-648,014	99,376	0,068	-0,057
-646,999	576,132	-0,016	-0,029
-645,984	-200,000	0,070	-0,246
-644,970	-54,366	0,018	0,006
-643,955	272,695	0,038	-0,048
-642,941	-55,256	0,032	-0,010
-641,926	-200,000	-0,004	-0,175
-640,911	171,686	-0,055	-0,057
-639,897	118,881	0,093	-0,083
-638,882	174,255	-0,072	-0,075
-637,868	-200,000	0,024	-0,159
-636,853	28,692	-0,092	0,056
-635,838	427,070	0,016	0,025
-634,824	352,896	-0,047	-0,068
-633,809	800,000	-0,041	0,087
-632,795	-200,000	0,015	0,137
-631,780	186,140	0,042	-0,045
-630,765	800,000	-0,023	0,053
-629,751	800,000	-0,059	-0,130
-628,736	800,000	-0,051	-0,147
-627,722	-144,415	-0,027	-0,002
-626,707	62,289	0,164	-0,118
-625,692	37,789	0,108	0,069
-624,678	256,240	-0,058	0,073
-623,663	-200,000	0,016	0,055
-622,649	321,133	0,022	0,031
-621,634	-200,000	0,003	0,090
-620,619	-200,000	-0,004	-0,051
-619,605	-112,822	0,075	-0,011
-618,590	800,000	-0,014	0,034
-617,576	-200,000	0,029	0,118
-616,561	-2,004	-0,093	0,047
-615,546	800,000	-0,028	-0,088
-614,532	12,212	-0,099	-0,055
-613,517	-51,100	-0,112	0,038
-612,503	-106,987	0,034	-0,005
-611,488	80,702	-0,048	-0,037
-610,474	227,169	0,059	-0,070
-609,459	153,112	-0,091	-0,091
-608,444	137,942	-0,108	0,102
-607,430	-101,820	-0,028	-0,005
-606,415	-125,780	-0,081	-0,009
-605,401	-63,010	0,126	-0,037
-604,386	-113,513	0,112	-0,016
-603,371	800,000	0,012	-0,035
-602,357	800,000	-0,025	-0,054
-601,342	-200,000	0,012	-0,175
-600,328	398,105	0,064	-0,096
-599,313	-20,687	-0,137	0,061
-598,298	2,185	0,065	0,034
-597,284	77,260	-0,020	-0,015
-596,269	192,562	0,132	0,144
-595,255	-60,114	-0,116	0,036
-594,240	-200,000	-0,004	-0,133
-593,225	397,629	-0,037	0,057
-592,211	76,788	-0,043	-0,033
-591,196	-200,000	0,019	-0,080
-590,182	-13,633	-0,038	0,018
-589,167	-78,621	0,131	-0,032
-588,152	569,521	0,059	0,104
-587,138	-200,000	-0,031	-0,103
-586,123	28,892	-0,088	-0,054
-585,109	-26,177	0,029	-0,012
-584,094	800,000	-0,062	-0,182
-583,079	-106,375	0,069	0,011
-582,065	425,693	0,050	0,079
-581,050	-8,123	-0,205	-0,099
-580,036	800,000	-0,035	-0,107
-579,021	58,637	-0,083	0,059
-578,006	800,000	-0,045	0,096
-576,992	0,723	-0,022	0,011
-575,977	800,000	-0,026	-0,081
-574,963	800,000	-0,076	-0,154
-573,948	-200,000	-0,023	-0,169
-572,934	207,230	0,028	0,032
-571,919	-200,000	-0,001	0,004
-570,904	-104,943	-0,044	-0,007
-569,890	800,000	-0,050	-0,139
-568,875	800,000	-0,011	-0,029
-567,861	-200,000	0,003	0,099
-566,846	10,917	0,152	0,084
-565,831	609,909	-0,062	0,112
-564,817	-104,959	-0,117	-0,019
-563,802	-200,000	-0,026	-0,109
-562,788	115,815	-0,057	0,051
-561,773	-92,486	-0,010	-0,002
-560,758	657,709	-0,033	0,061
-559,744	-200,000	0,013	0,059
-558,729	800,000	0,031	0,093
-557,715	212,056	0,022	0,025
-556,700	-200,000	0,007	0,044
-555,685	-200,000	-0,006	-0,060
-554,671	500,885	0,072	0,120
-553,656	-200,000	-0,003	0,041
-552,642	25,463	0,054	0,032
-551,627	228,004	-0,066	-0,078
-550,612	-83,920	0,023	-0,005
-549,598	45,813	-0,063	-0,042
-548,583	800,000	0,056	-0,120
-547,569	56,767	0,020	-0,014
-546,554	267,122	-0,046	-0,059
-545,539	373,436	-0,035	-0,051
-544,525	345,200	0,028	-0,040
-543,510	800,000	-0,023	-0,069
-542,496	173,888	0,002	0,002
-541,481	-120,195	0,207	-0,025
-540,466	211,079	0,095	0,108
-539,452	305,907	0,078	-0,105
-538,437	-200,000	0,005	0,034
-537,423	320,306	0,077	0,106
-536,408	-200,000	-0,015	0,070
-535,393	-152,257	-0,117	-0,006
-534,379	185,578	-0,091	0,097
-533,364	-118,536	0,039	-0,005
-532,350	-200,000	0,015	-0,089
-531,335	-104,086	0,157	0,026
-530,321	-200,000	-0,004	0,075
-529,306	-68,970	-0,048	0,013
-528,291	97,756	-0,105	-0,087
-527,277	-200,000	0,001	-0,007
-526,262	800,000	-0,039	-0,122
-525,248	-59,064	-0,104	0,032
-524,233	-61,527	0,077	0,023
-523,218	665,094	-0,009	0,017
-522,204	74,918	0,137	0,104
-521,189	37,164	0,052	-0,033
-520,175	800,000	-0,035	-0,109
-519,160	-190,313	0,033	0,000
-518,145	508,369	0,047	-0,078
-517,131	147,611	-0,105	0,102
-516,116	531,105	0,075	-0,128
-515,102	-200,000	0,006	0,055
-514,087	-154,651	0,040	-0,002
-513,072	800,000	-0,003	-0,008
-512,058	6,379	0,015	0,008
-511,043	800,000	0,024	-0,061
-510,029	262,090	-0,063	0,078
-509,014	-106,898	0,081	-0,013
-507,999	800,000	-0,016	-0,039
-506,985	-25,630	0,040	-0,017
-505,970	177,183	-0,090	-0,095
-504,956	800,000	0,014	0,034
-503,941	465,236	-0,063	-0,102
-502,926	800,000	0,043	-0,098
-501,912	520,970	0,092	0,156
-500,897	83,479	-0,077	0,061
-499,883	725,785	-0,065	-0,126
-498,868	800,000	0,064	-0,197
-497,853	-200,000	0,008	-0,036
-496,839	-200,000	0,008	-0,035
-495,824	-165,202	0,269	0,008
-494,810	-200,000	0,012	0,063
-493,795	-131,066	0,052	-0,005
-492,781	-67,173	-0,111	-0,031
-491,766	-72,827	-0,078	-0,020
-490,751	800,000	0,065	-0,178
-489,737	735,839	-0,055	-0,107
-488,722	-155,846	0,114	-0,005
-487,708	-37,344	0,034	0,013
-486,693	-200,000	-0,005	-0,065
-485,678	-65,358	-0,064	-0,018
-484,664	800,000	-0,053	0,120
-483,649	-200,000	0,018	-0,060
-482,635	236,642	-0,004	-0,005
-481,620	-32,787	-0,112	0,044
-480,605	-200,000	0,004	0,040
-479,591	369,157	0,069	0,101
-478,576	-39,596	-0,132	-0,050
-477,562	-58,473	-0,045	0,014
-476,547	-39,539	-0,026	-0,010
-475,532	-92,564	-0,085	-0,017
-474,518	800,000	0,046	0,113
-473,503	58,290	0,060	0,042
-472,489	21,167	-0,091	0,053
-471,474	-200,000	0,012	-0,095
-470,459	-132,403	-0,090	-0,008
-469,445	242,992	0,051	0,062
-468,430	210,547	-0,108	0,123
-467,416	233,518	0,047	-0,056
-466,401	42,008	0,042	-0,027
-465,386	-200,000	0,004	0,054
-464,372	16,627	-0,052	0,030
-463,357	-63,052	-0,142	0,042
-462,343	-196,150	-0,036	-0,000
-461,328	83,949	0,132	0,103
-460,313	800,000	0,065	0,139
-459,299	345,937	0,153	0,217
-458,284	40,231	-0,063	-0,041
-457,270	-200,000	0,026	0,150
-456,255	-59,339	-0,089	-0,027
-455,241	-200,000	-0,005	-0,099
-454,226	-200,000	0,007	0,090
-453,211	-122,379	-0,112	-0,013
-452,197	-200,000	-0,011	-0,063
-451,182	-200,000	-0,011	-0,097
-450,168	-137,375	0,076	0,006
-449,153	800,000	-0,042	0,130
-448,138	-200,000	-0,033	0,192
-447,124	81,599	0,090	0,070
-446,109	-43,856	-0,044	-0,016
-445,095	686,342	0,062	0,117
-444,080	407,036	0,032	0,049
-443,065	17,385	-0,038	0,022
-442,051	-200,000	0,036	0,116
-441,036	184,028	-0,064	0,068
-440,022	44,383	0,090	-0,059
-439,007	274,027	-0,071	-0,091
-437,992	-161,397	0,073	-0,003
-436,978	313,808	0,067	-0,091
-435,963	-61,978	0,143	0,043
-434,949	-0,015	0,040	-0,021
-433,934	8,921	0,069	-0,037
-432,919	478,978	0,023	-0,037
-431,905	-200,000	0,008	0,049
-430,890	157,836	-0,027	-0,027
-429,876	3,511	0,096	-0,050
-428,861	800,000	0,013	-0,037
-427,846	-33,673	-0,076	-0,030
-426,832	-200,000	0,021	-0,162
-425,817	-200,000	-0,009	-0,198
-424,803	-200,000	-0,007	0,094
-423,788	-155,645	-0,087	0,004
-422,773	800,000	-0,064	0,129
-421,759	-80,906	0,050	-0,012
-420,744	-200,000	-0,008	-0,083
-419,730	-200,000	-0,001	-0,043
-418,715	-119,422	-0,240	-0,030
-417,701	800,000	-0,044	0,102
-416,686	26,412	0,055	-0,033
-415,671	-102,418	0,233	-0,040
-414,657	-51,292	0,091	0,030
-413,642	-134,934	-0,055	0,005
-412,628	-200,000	-0,012	-0,050
-411,613	-69,532	-0,048	-0,013
-410,598	800,000	0,037	-0,074
-409,584	98,270	0,035	-0,029
-408,569	-200,000	-0,023	0,113
-407,555	-93,532	0,167	-0,033
-406,540	800,000	0,058	0,138
-405,525	221,203	-0,026	-0,030
-404,511	390,374	-0,026	-0,038
-403,496	97,642	0,063	-0,052
-402,482	-200,000	0,000	0,068
-401,467	616,209	0,028	0,050
-400,452	103,080	-0,029	0,025
-399,438	205,257	-0,094	0,104
-398,423	-143,740	-0,033	-0,002
-397,409	60,328	0,022	-0,016
-396,394	196,452	-0,046	-0,050
-395,379	256,646	-0,051	0,063
-394,365	-26,537	-0,059	-0,025
-393,350	-136,256	0,182	-0,015
-392,336	-17,437	-0,135	0,061
-391,321	476,449	-0,038	0,063
-390,306	-127,654	-0,171	-0,018
-389,292	800,000	-0,057	-0,145
-388,277	-200,000	0,026	0,087
-387,263	-108,360	0,050	0,008
-386,248	-200,000	0,036	0,151
-385,233	-105,659	0,118	0,019
-384,219	68,127	-0,068	-0,050
-383,204	-200,000	-0,005	-0,038
-382,190	-99,121	-0,106	-0,019
-381,175	159,244	-0,075	0,075
-380,160	-162,314	0,090	-0,003
-379,146	-101,647	0,120	-0,021
-378,131	149,522	0,043	0,042
-377,117	228,953	0,060	0,071
-376,102	-200,000	-0,011	-0,109
-375,088	-72,267	0,131	0,034
-374,073	800,000	0,015	0,030
-373,058	800,000	0,011	-0,031
-372,044	800,000	-0,017	-0,046
-371,029	800,000	0,043	0,110
-370,015	-200,000	-0,041	0,136
-369,000	-200,000	0,023	0,075
-367,985	385,801	0,071	-0,105
-366,971	-200,000	-0,011	0,041
-365,956	103,042	0,061	-0,051
-364,942	-200,000	0,036	0,209
-363,927	-116,235	0,031	0,004
-362,912	78,845	-0,127	0,097
-361,898	-112,807	-0,036	-0,005
-360,883	800,000	-0,070	-0,170
-359,869	-200,000	0,005	0,082
-358,854	22,028	-0,086	0,050
-357,839	800,000	0,023	0,062
-356,825	800,000	0,029	0,070
-355,810	-200,000	-0,010	-0,067
-354,796	-46,494	0,095	-0,033
-353,781	-200,000	0,018	-0,100
-352,766	177,963	0,152	0,159
-351,752	-200,000	0,010	0,073
-350,737	-28,096	0,058	0,024
-349,723	-200,000	-0,031	0,156
-348,708	-40,010	-0,068	0,025
-347,693	800,000	-0,061	0,146
-346,679	-200,000	-0,003	-0,108
-345,664	-66,101	0,005	-0,001
-344,650	-49,632	-0,042	0,014
-343,635	621,511	0,032	0,058
-342,620	-82,901	0,131	0,030
-341,606	23,612	-0,078	0,046
-340,591	190,892	-0,076	0,081
-339,577	-17,519	-0,048	0,022
-338,562	-54,236	-0,027	0,009
-337,548	800,000	0,027	-0,068
-336,533	-1,225	0,022	-0,011
-335,518	196,346	0,110	0,121
-334,504	-130,981	0,098	0,009
-333,489	-42,357	-0,028	-0,010
-332,475	800,000	0,045	-0,119
-331,460	-90,018	-0,115	-0,024
-330,445	165,786	-0,096	-0,097
-329,431	-11,143	0,075	-0,035
-328,416	-123,743	-0,032	-0,004
-327,402	800,000	0,030	-0,091
-326,387	-197,383	-0,065	-0,000
-325,372	800,000	-0,026	-0,070
-324,358	-200,000	-0,012	-0,216
-323,343	-64,028	0,120	-0,035
-322,329	-105,562	0,016	0,003
-321,314	358,098	0,041	0,059
-320,299	501,792	-0,018	-0,030
-319,285	131,649	0,079	0,073
-318,270	85,911	-0,059	0,046
-317,256	683,689	-0,014	-0,026
-316,241	142,767	-0,035	-0,034
-315,226	-99,587	0,055	-0,010
-314,212	6,218	0,088	0,046
-313,197	-140,164	0,111	-0,008
-312,183	65,907	-0,009	-0,006
-311,168	-127,248	-0,231	0,024
-310,153	-53,903	-0,071	0,023
-309,139	-200,000	-0,002	0,068
-308,124	46,891	-0,027	-0,018
-307,110	171,820	-0,107	-0,110
-306,095	-130,573	0,066	-0,006
-305,080	28,201	-0,009	-0,005
-304,066	-200,000	0,019	0,086
-303,051	-80,179	-0,124	-0,030
-302,037	-30,954	0,067	-0,027
-301,022	-200,000	0,035	-0,162
-300,008	127,783	0,095	-0,086
-298,993	264,594	0,028	0,035
-297,978	-75,977	0,052	-0,013
-296,964	385,874	-0,075	-0,112
-295,949	63,742	-0,072	0,052
-294,935	800,000	-0,025	-0,056
-293,920	-200,000	0,001	0,150
-292,905	-16,638	0,056	0,025
-291,891	5,356	-0,036	0,019
-290,876	-22,643	-0,069	0,030
-289,862	336,801	-0,081	-0,113
-288,847	-117,959	0,085	-0,011
-287,832	308,812	-0,073	0,097
-286,818	-150,519	0,055	-0,003
-285,803	320,602	-0,079	0,107
-284,789	-32,096	0,022	-0,009
-283,774	800,000	0,019	0,048
-282,759	-200,000	-0,007	0,147
-281,745	-75,776	-0,017	-0,004
-280,730	-200,000	-0,007	-0,100
-279,716	-200,000	-0,015	-0,102
-278,701	-125,964	0,100	-0,011
-277,686	-200,000	0,017	0,080
-276,672	-75,223	0,074	0,019
-275,657	320,839	0,032	-0,044
-274,643	314,850	-0,101	-0,136
-273,628	-132,967	0,118	-0,011
-272,613	68,965	-0,180	-0,132
-271,599	74,573	0,118	-0,089
-270,584	800,000	-0,025	0,071
-269,570	7,156	-0,060	-0,032
-268,555	252,239	-0,062	-0,076
-267,540	-200,000	0,035	-0,218
-266,526	757,319	0,011	0,022
-265,511	800,000	0,005	0,014
-264,497	165,637	-0,036	0,036
-263,482	-200,000	-0,027	0,106
-262,467	-200,000	0,037	0,178
-261,453	800,000	-0,049	0,125
-260,438	-97,645	0,054	-0,010
-259,424	800,000	0,018	-0,054
-258,409	-200,000	0,013	-0,093
-257,395	-200,000	0,018	0,096
-256,380	-26,480	-0,092	0,038
-255,365	800,000	0,035	0,105
-254,351	211,452	0,146	-0,164
-253,336	800,000	-0,049	-0,125
-252,322	5,014	-0,048	0,025
-251,307	-137,705	0,128	-0,010
-250,292	80,861	0,102	0,078
-249,278	-200,000	-0,004	0,068
-248,263	336,086	-0,003	0,004
-247,249	537,039	-0,049	-0,083
-246,234	415,176	-0,085	0,129
-245,219	-108,361	-0,125	-0,019
-244,205	309,736	0,052	-0,069
-243,190	773,034	-0,040	0,078
-242,176	-16,595	0,119	0,054
-241,161	800,000	-0,017	-0,052
-240,146	-200,000	0,011	0,122
-239,132	-116,272	-0,046	-0,006
-238,117	210,862	0,050	0,056
-237,103	641,731	-0,086	-0,157
-236,088	-200,000	0,024	0,122
-235,073	141,656	0,015	-0,015
-234,059	434,515	-0,038	0,059
-233,044	261,594	0,110	0,136
-232,030	216,562	-0,008	0,009
-231,015	-13,942	0,168	0,077
-230,000	-9,727	-0,052	-0,024
-228,986	-200,000	0,008	0,026
-227,971	800,000	0,087	0,175
-226,957	-200,000	-0,032	0,167
-225,942	-200,000	-0,031	0,141
-224,927	-116,308	-0,179	0,023
-223,913	435,939	-0,068	-0,105
-222,898	-42,390	-0,142	-0,051
-221,884	92,399	-0,090	-0,072
-220,869	-200,000	-0,005	-0,048
-219,855	70,961	0,155	-0,114
-218,840	-160,032	-0,237	-0,009
-217,825	-42,826	-0,048	-0,017
-216,811	-55,777	-0,104	0,033
-215,796	-124,755	-0,115	-0,013
-214,782	-200,000	0,030	-0,186
-213,767	-200,000	0,005	0,102
-212,752	800,000	-0,049	-0,143
-211,738	114,907	0,110	0,096
-210,723	800,000	0,015	0,043
-209,709	-133,598	0,062	-0,005
-208,694	339,198	-0,046	-0,064
-207,679	166,689	0,111	-0,112
-206,665	800,000	-0,018	-0,045
-205,650	-48,276	-0,086	0,029
-204,636	-141,254	0,090	-0,006
-203,621	-9,705	-0,061	0,029
-202,606	-86,936	-0,124	-0,027
-201,592	-129,942	-0,112	-0,011
-200,577	283,770	0,019	-0,024
-199,563	464,596	0,033	-0,053
-198,548	139,949	0,142	0,134
-197,533	800,000	-0,016	0,038
-196,519	-110,443	-0,049	-0,007
-195,504	115,818	-0,046	-0,040
-194,490	-17,039	0,101	-0,045
-193,475	322,791	-0,019	-0,026
-192,460	-27,137	0,158	0,065
-191,446	629,155	0,134	0,242
-190,431	-200,000	-0,007	0,034
-189,417	629,655	-0,034	0,062
-188,402	633,769	0,050	-0,091
-187,387	1,840	-0,011	-0,006
-186,373	171,157	0,054	0,055
-185,358	668,147	-0,042	-0,077
-184,344	-81,662	0,091	0,021
-183,329	233,039	-0,057	-0,067
-182,315	381,625	0,018	-0,026
-181,300	800,000	0,079	-0,176
-180,285	92,493	-0,085	-0,068
-179,271	-200,000	-0,033	0,117
-178,256	135,001	0,078	0,072
-177,242	800,000	0,014	0,039
-176,227	-200,000	0,011	0,062
-175,212	800,000	0,035	0,069
-174,198	-12,951	0,122	0,056
-173,183	159,366	-0,067	-0,067
-172,169	-200,000	-0,013	-0,094
-171,154	47,284	-0,024	-0,016
-170,139	-42,820	-0,093	0,033
-169,125	-80,451	0,221	-0,052
-168,110	13,440	0,043	-0,023
-167,096	-200,000	0,000	0,042
-166,081	-200,000	-0,011	0,040
-165,066	-200,000	0,019	-0,098
-164,052	-146,074	-0,023	0,001
-163,037	277,687	-0,152	0,193
-162,023	-130,792	-0,109	0,010
-161,008	-200,000	0,031	0,132
-159,993	12,574	-0,186	0,102
-158,979	342,639	0,075	-0,104
-157,964	215,762	-0,050	-0,057
-156,950	-48,935	0,066	-0,022
-155,935	-51,961	-0,133	0,044
-154,920	-200,000	0,119	0,000
-153,906	-200,000	-0,015	0,193
-152,891	-200,000	-0,012	0,061
-151,877	-200,000	0,006	0,096
-150,862	140,630	0,039	0,037
-149,847	-31,341	-0,127	0,050
-148,833	800,000	-0,019	0,042
-147,818	-200,000	0,030	0,129
-146,804	-108,252	0,059	-0,009
-145,789	218,689	-0,074	0,084
-144,775	154,465	-0,048	0,047
-143,760	31,449	-0,075	-0,046
-142,745	103,069	-0,062	-0,052
-141,731	-200,000	-0,018	-0,059
-140,716	184,906	-0,066	0,069
-139,702	-200,000	-0,007	0,039
-138,687	-31,865	-0,099	-0,039
-137,672	207,772	-0,141	-0,157
-136,658	-200,000	-0,028	-0,102
-135,643	304,645	0,052	-0,068
-134,629	-200,000	0,054	-0,187
-133,614	56,546	0,173	0,119
-132,599	574,580	-0,079	0,137
-131,585	56,064	0,101	0,069
-130,570	740,560	-0,038	-0,072
-129,556	102,402	-0,038	-0,032
-128,541	800,000	-0,066	-0,140
-127,526	243,750	-0,049	-0,059
-126,512	426,743	-0,060	0,093
-125,497	56,239	-0,041	0,028
-124,483	82,266	0,058	-0,045
-123,468	800,000	-0,020	0,049
-122,453	800,000	-0,021	-0,050
-121,439	-15,924	0,122	-0,055
-120,424	112,717	-0,041	-0,036
-119,410	53,080	0,019	0,013
-118,395	-169,139	0,108	0,003
-117,380	-4,227	0,046	0,023
-116,366	800,000	-0,014	0,042
-115,351	800,000	-0,045	-0,098
-114,337	9,170	-0,069	0,037
-113,322	-145,868	0,055	-0,003
-112,307	-112,117	-0,011	0,002
-111,293	800,000	0,045	-0,137
-110,278	105,009	0,062	0,052
-109,264	101,396	0,071	0,059
-108,249	800,000	-0,080	0,162
-107,234	-65,581	0,052	-0,015
-106,220	800,000	-0,030	-0,069
-105,205	651,959	0,023	-0,041
-104,191	286,719	0,059	0,076
-103,176	-43,438	-0,069	-0,024
-102,162	-42,779	0,115	0,041
-101,147	-95,097	-0,124	0,024
-100,132	-200,000	0,011	0,038
-99,118	-66,031	0,047	-0,013
-98,103	800,000	-0,038	-0,080
-97,089	800,000	0,038	0,099
-96,074	457,780	0,046	0,073
-95,059	2,359	0,041	-0,021
-94,045	-59,910	-0,028	0,008
-93,030	67,324	0,109	0,079
-92,016	31,601	-0,040	-0,024
-91,001	-200,000	-0,014	-0,206
-89,986	-75,448	-0,026	0,007
-88,972	534,256	0,027	0,046
-87,957	-80,432	0,087	-0,020
-86,943	55,722	-0,051	-0,035
-85,928	-14,434	-0,041	-0,019
-84,913	196,262	0,017	0,019
-83,899	-142,736	-0,126	0,009
-82,884	448,836	0,020	0,032
-81,870	800,000	0,051	0,137
-80,855	-200,000	-0,010	0,183
-79,840	-84,354	0,086	0,019
-78,826	190,415	-0,052	-0,056
-77,811	-200,000	0,008	-0,067
-76,797	-11,229	-0,057	-0,026
-75,782	314,022	0,069	0,092
-74,767	-71,834	0,178	0,047
-73,753	-124,736	0,109	0,012
-72,738	398,124	-0,012	0,018
-71,724	-85,736	-0,121	-0,026
-70,709	224,785	-0,036	0,042
-69,694	598,873	-0,041	-0,073
-68,680	42,109	0,103	-0,066
-67,665	-169,357	-0,033	0,001
-66,651	-200,000	-0,012	0,098
-65,636	144,979	-0,060	-0,057
-64,622	-122,125	0,256	0,029
-63,607	-46,093	-0,065	0,023
-62,592	564,161	-0,056	-0,096
-61,578	238,459	0,094	-0,111
-60,563	-200,000	-0,030	0,133
-59,549	-59,760	-0,049	0,015
-58,534	-67,101	-1,554	-0,431
-57,519	374,314	-1,516	-2,192
-56,505	-200,000	-0,566	-4,557
-55,490	161,580	0,954	0,947
-54,476	800,000	4,872	11,390
-53,461	-200,000	18,345	294,761
-52,446	800,000	730,235	2250,776
-51,432	558,050	1646,441	2823,490
-50,417	79,018	1667,387	1263,218
-49,403	22,550	1540,897	890,510
-48,388	16,526	1464,030	816,870
-47,373	17,774	1453,957	817,237
-46,359	17,060	1444,384	808,403
-45,344	14,757	1439,811	794,797
-44,330	14,701	1437,677	793,325
-43,315	14,717	1435,774	792,318
-42,300	14,733	1434,222	791,505
-41,286	14,720	1433,342	790,925
-40,271	14,718	1431,990	790,142
-39,257	14,724	1430,611	789,375
-38,242	14,790	1429,253	788,908
-37,227	14,737	1428,005	787,937
-36,213	14,765	1426,834	787,391
-35,198	14,746	1425,716	786,655
-34,184	14,822	1424,641	786,388
-33,169	14,726	1423,491	785,270
-32,154	14,759	1422,567	784,884
-31,140	14,787	1420,974	784,106
-30,125	14,797	1420,090	783,637
-29,111	14,816	1418,589	782,864
-28,096	14,711	1417,732	781,868
-27,082	14,692	1416,895	781,285
-26,067	14,705	1415,613	780,608
-25,052	14,689	1414,532	779,908
-24,038	14,617	1413,651	779,050
-23,023	14,647	1412,602	778,584
-22,009	14,666	1411,590	778,082
-20,994	14,665	1410,483	777,436
-19,979	14,665	1409,593	776,914
-18,965	14,614	1408,697	776,153
-17,950	14,622	1407,744	775,634
-16,936	14,639	1406,867	775,199
-15,921	14,518	1406,012	774,134
-14,906	14,592	1404,943	773,860
-13,892	14,597	1403,890	773,272
-12,877	14,572	1403,155	772,721
-11,863	14,563	1402,299	772,178
-10,848	14,573	1401,400	771,696
-9,833	14,541	1400,438	770,989
-8,819	14,540	1399,568	770,474
-7,804	14,525	1398,594	769,838
-6,790	14,492	1397,612	769,111
-5,775	14,543	1396,447	768,675
-4,760	14,480	1395,658	767,919
-3,746	14,502	1394,749	767,491
-2,731	14,501	1394,024	767,058
-1,717	14,476	1393,151	766,429
-0,702	14,493	1391,171	765,391
0,313	18,311	1309,523	738,150
1,327	34,644	705,907	435,724
2,342	53,356	124,276	84,174
3,356	7,043	16,484	8,671
4,371	-8,038	3,380	1,607
5,386	-73,354	0,529	0,136
6,400	800,000	0,104	0,272
7,415	82,701	-0,228	-0,175
8,429	-29,067	-0,296	-0,119
9,444	294,223	-0,275	-0,356
10,459	606,706	-0,180	-0,319
11,473	219,405	-0,235	-0,267
12,488	-57,396	-0,182	-0,056
13,502	-37,460	-0,258	-0,097
14,517	28,804	-0,302	-0,180
15,531	102,052	-0,320	-0,264
16,546	13,686	-0,345	-0,189
17,561	73,568	-0,390	-0,288
18,575	-44,781	-0,174	-0,061
19,590	196,071	-0,165	-0,178
20,604	-57,532	-0,288	-0,089
21,619	54,033	-0,516	-0,350
22,634	517,173	-0,323	-0,536
23,648	61,424	-0,438	-0,307
24,663	225,961	-0,338	-0,388
25,677	34,407	-0,364	-0,224
26,692	-45,664	-0,567	-0,197
27,707	-60,759	-0,366	-0,109
28,721	95,749	-0,341	-0,275
29,736	193,004	-0,298	-0,318
30,750	82,145	-0,288	-0,220
31,765	134,762	-0,356	-0,327
32,780	5,173	-0,347	-0,180
33,794	8,955	-0,407	-0,216
34,809	46,377	-0,283	-0,185
35,823	85,963	-0,399	-0,310
36,838	57,267	-0,434	-0,298
37,853	421,031	-0,226	-0,343
38,867	238,539	-0,344	-0,404
39,882	125,777	-0,290	-0,258
40,896	357,114	-0,186	-0,262
41,911	2,509	-0,346	-0,176
42,926	409,657	-0,169	-0,253
43,940	142,387	-0,334	-0,312
44,955	82,652	-0,462	-0,354
45,969	160,052	-0,314	-0,309
46,984	163,163	-0,283	-0,280
47,999	164,623	-0,244	-0,243
49,013	17,059	-0,314	-0,175
50,028	85,807	-0,307	-0,238
51,042	21,287	-0,372	-0,212
52,057	58,346	-0,337	-0,233
53,071	125,935	-0,383	-0,341
54,086	52,839	-0,275	-0,185
55,101	-6,660	-0,383	-0,183
56,115	9,675	-0,349	-0,186
57,130	-24,634	-0,404	-0,169
58,144	67,702	-0,346	-0,249
59,159	80,746	-0,433	-0,329
60,174	-30,569	-0,412	-0,163
61,188	252,591	-0,328	-0,395
62,203	52,988	-0,357	-0,240
63,217	-102,832	-0,312	-0,052
64,232	-26,570	-0,386	-0,158
65,247	18,178	-0,296	-0,166
66,261	122,731	-0,311	-0,274
67,276	-9,500	-0,426	-0,199
68,290	39,559	-0,324	-0,204
69,305	51,629	-0,304	-0,203
70,320	60,578	-0,206	-0,143
71,334	35,491	-0,360	-0,222
72,349	54,174	-0,266	-0,180
73,363	-22,057	-0,275	-0,117
74,378	-90,082	-0,386	-0,078
75,393	189,260	-0,303	-0,320
76,407	68,270	-0,262	-0,188
77,422	70,132	-0,275	-0,199
78,436	46,745	-0,383	-0,249
79,451	45,905	-0,315	-0,205
80,466	335,717	-0,331	-0,453
81,480	-27,727	-0,451	-0,183
82,495	137,105	-0,261	-0,240
83,509	-181,453	-0,279	-0,004
84,524	59,918	-0,242	-0,168
85,539	-21,144	-0,320	-0,137
86,553	21,274	-0,352	-0,200
87,568	357,995	-0,236	-0,332
88,582	69,208	-0,253	-0,182
89,597	69,138	-0,275	-0,198
90,611	242,004	-0,222	-0,261
91,626	15,386	-0,284	-0,156
92,641	101,774	-0,177	-0,145
93,655	77,595	-0,242	-0,181
94,670	-158,831	-0,451	-0,018
95,684	-55,738	-0,423	-0,132
96,699	91,024	-0,333	-0,262
97,714	3,154	-0,203	-0,103
98,728	-73,245	-0,404	-0,103
99,743	210,970	-0,139	-0,154
100,757	90,377	-0,198	-0,155
101,772	37,104	-0,314	-0,194
102,787	71,326	-0,260	-0,189
103,801	234,879	-0,183	-0,212
104,816	-152,494	-0,267	-0,013
105,830	-117,643	-0,221	-0,028
106,845	264,489	-0,053	-0,064
107,860	-37,630	-0,299	-0,111
108,874	-11,125	-0,321	-0,148
109,889	519,717	-0,185	-0,305
110,903	199,314	-0,291	-0,313
111,918	-74,428	-0,339	-0,085
112,933	800,000	-0,114	-0,290
113,947	156,085	-0,169	-0,164
114,962	236,690	-0,267	-0,310
115,976	-1,435	-0,255	-0,126
116,991	225,179	-0,134	-0,152
118,006	-77,434	-0,324	-0,078
119,020	34,263	-0,230	-0,140
120,035	69,798	-0,212	-0,153
121,049	325,793	-0,131	-0,176
122,064	69,179	-0,192	-0,138
123,079	93,536	-0,264	-0,209
124,093	1,306	-0,394	-0,197
125,108	691,796	-0,084	-0,155
126,122	-52,288	-0,313	-0,101
127,137	63,073	-0,297	-0,208
128,151	-3,042	-0,141	-0,069
129,166	42,177	-0,182	-0,115
130,181	-27,653	-0,213	-0,086
131,195	-5,061	-0,210	-0,101
132,210	368,749	-0,210	-0,298
133,224	35,471	-0,172	-0,106
134,239	320,750	-0,133	-0,177
135,254	-24,691	-0,214	-0,089
136,268	155,413	-0,119	-0,115
137,283	-103,407	-0,278	-0,045
138,297	-14,177	-0,289	-0,130
139,312	-36,964	-0,289	-0,108
140,327	268,785	-0,200	-0,246
141,341	84,148	-0,185	-0,141
142,356	-141,542	-0,206	-0,014
143,370	247,072	-0,164	-0,194
144,385	53,409	-0,265	-0,177
145,400	185,719	-0,232	-0,241
146,414	-9,798	-0,262	-0,122
147,429	217,413	-0,177	-0,197
148,443	178,303	-0,242	-0,247
149,458	-13,280	-0,225	-0,102
150,473	128,584	-0,216	-0,192
151,487	14,868	-0,315	-0,172
152,502	-95,701	-0,198	-0,037
153,516	85,224	-0,128	-0,098
154,531	17,068	-0,354	-0,196
155,546	334,725	-0,198	-0,269
156,560	-129,647	-0,188	-0,018
157,575	42,985	-0,143	-0,091
158,589	-40,357	-0,353	-0,128
159,604	-33,333	-0,294	-0,113
160,619	144,938	-0,189	-0,176
161,633	-30,496	-0,390	-0,154
162,648	98,191	-0,207	-0,166
163,662	127,370	-0,139	-0,123
164,677	-58,545	-0,241	-0,073
165,692	-19,081	-0,263	-0,114
166,706	247,714	-0,165	-0,195
167,721	200,396	-0,273	-0,293
168,735	317,837	-0,182	-0,241
169,750	-38,035	-0,241	-0,089
170,764	18,357	-0,197	-0,110
171,779	67,936	-0,225	-0,160
172,794	122,481	-0,189	-0,165
173,808	100,760	-0,112	-0,090
174,823	-57,577	-0,243	-0,074
175,837	117,262	-0,226	-0,193
176,852	270,412	-0,162	-0,198
177,867	-124,697	-0,340	-0,036
178,881	217,846	-0,119	-0,132
179,896	254,608	-0,160	-0,191
180,910	-82,177	-0,232	-0,052
181,925	-98,875	-0,235	-0,041
182,940	86,360	-0,192	-0,147
183,954	146,641	-0,387	-0,363
184,969	270,113	-0,137	-0,168
185,983	43,395	-0,218	-0,138
186,998	535,734	-0,115	-0,192
188,013	-136,627	-0,309	-0,025
189,027	-69,520	-0,376	-0,100
190,042	32,643	-0,339	-0,204
191,056	399,504	-0,176	-0,257
192,071	387,895	-0,136	-0,197
193,086	230,823	-0,148	-0,168
194,100	-57,487	-0,268	-0,081
195,115	-41,585	-0,207	-0,074
196,129	280,153	-0,154	-0,192
197,144	61,984	-0,289	-0,200
198,159	102,410	-0,231	-0,188
199,173	193,394	-0,189	-0,199
200,188	412,112	-0,078	-0,116
201,202	-1,409	-0,184	-0,090
202,217	67,818	-0,325	-0,231
203,232	43,273	-0,131	-0,083
204,246	-10,140	-0,255	-0,117
205,261	708,811	-0,118	-0,218
206,275	-44,316	-0,157	-0,054
207,290	709,779	-0,076	-0,140
208,304	-3,058	-0,214	-0,104
209,319	151,305	-0,211	-0,200
210,334	68,231	-0,200	-0,142
211,348	-36,628	-0,180	-0,067
212,363	-200,000	-0,111	-0,350
213,377	-63,997	-0,176	-0,050
214,392	491,060	-0,099	-0,158
215,407	-1,160	-0,301	-0,147
216,421	34,380	-0,077	-0,047
217,436	296,125	-0,171	-0,218
218,450	-97,304	-0,213	-0,038
219,465	0,756	-0,267	-0,132
220,480	-159,994	-0,198	-0,007
221,494	-1,972	-0,189	-0,092
222,509	465,053	-0,097	-0,151
223,523	39,614	-0,133	-0,082
224,538	35,039	-0,156	-0,095
225,553	225,412	-0,275	-0,309
226,567	105,090	-0,203	-0,167
227,582	129,368	-0,185	-0,164
228,596	-54,624	-0,260	-0,081
229,611	32,266	-0,163	-0,097
230,626	-16,637	-0,150	-0,066
231,640	-90,246	-0,315	-0,063
232,655	-6,951	-0,281	-0,132
233,669	239,627	-0,171	-0,197
234,684	363,583	-0,091	-0,127
235,699	90,550	-0,044	-0,034
236,713	-78,259	-0,174	-0,041
237,728	129,631	-0,153	-0,136
238,742	308,841	-0,158	-0,205
239,757	9,263	-0,257	-0,134
240,772	-76,862	-0,292	-0,070
241,786	390,130	-0,133	-0,192
242,801	-36,277	-0,201	-0,075
243,815	147,114	-0,112	-0,104
244,830	33,415	-0,105	-0,063
245,844	53,839	-0,126	-0,084
246,859	122,986	-0,236	-0,204
247,874	461,212	-0,208	-0,322
248,888	-52,213	-0,271	-0,087
249,903	-200,000	0,001	-0,023
250,917	-172,007	-0,228	-0,005
251,932	800,000	-0,045	-0,096
252,947	75,637	-0,111	-0,081
253,961	49,522	-0,214	-0,139
254,976	-5,539	-0,198	-0,094
255,990	255,692	-0,099	-0,117
257,005	493,406	-0,094	-0,150
258,020	-11,972	-0,125	-0,057
259,034	84,092	-0,089	0,068
260,049	233,211	-0,132	-0,151
261,063	355,298	-0,154	-0,213
262,078	138,005	-0,068	-0,062
263,093	23,987	-0,216	-0,123
264,107	-168,257	-0,225	-0,006
265,122	302,372	-0,109	-0,140
266,136	70,550	-0,182	-0,130
267,151	-200,000	-0,021	-0,088
268,166	-152,555	-0,161	-0,008
269,180	10,635	-0,312	-0,164
270,195	135,488	-0,149	-0,134
271,209	359,342	-0,165	-0,229
272,224	-8,945	-0,153	-0,071
273,239	109,598	-0,066	0,055
274,253	110,036	-0,145	-0,120
275,268	101,383	-0,197	-0,158
276,282	-167,276	-0,163	0,004
277,297	107,842	-0,170	-0,140
278,312	255,080	-0,130	-0,154
279,326	-20,265	-0,179	-0,076
280,341	36,170	-0,116	-0,071
281,355	11,239	-0,160	-0,084
282,370	509,273	-0,082	-0,132
283,384	-15,083	-0,233	-0,103
284,399	9,481	-0,223	-0,116
285,414	-66,653	-0,172	0,047
286,428	-41,503	-0,127	0,045
287,443	60,803	-0,233	-0,160
288,457	37,022	-0,057	-0,035
289,472	462,219	-0,115	-0,178
290,487	75,369	-0,129	-0,094
291,501	93,150	-0,221	-0,173
292,516	94,903	-0,193	-0,152
293,530	-78,356	-0,068	-0,016
294,545	-96,166	-0,148	-0,027
295,560	156,847	-0,207	-0,197
296,574	-200,000	-0,035	-0,197
297,589	-121,473	-0,188	-0,021
298,603	412,420	-0,148	-0,218
299,618	-200,000	-0,027	-0,118
300,633	-12,628	-0,196	-0,088
301,647	247,509	-0,050	-0,058
302,662	-200,000	-0,064	-0,209
303,676	165,762	-0,068	-0,066
304,691	431,972	-0,112	-0,168
305,706	73,018	-0,086	-0,062
306,720	330,889	-0,081	-0,108
307,735	-144,421	-0,168	0,011
308,749	800,000	-0,034	-0,096
309,764	728,043	-0,070	-0,130
310,779	50,514	-0,087	0,057
311,793	274,900	-0,107	-0,131
312,808	-200,000	-0,057	-0,195
313,822	364,567	-0,080	-0,112
314,837	-25,743	-0,231	-0,093
315,852	68,775	-0,146	-0,103
316,866	-200,000	0,007	-0,163
317,881	57,122	-0,127	-0,085
318,895	-32,638	-0,096	-0,037
319,910	617,545	-0,063	-0,110
320,925	569,793	-0,084	-0,141
321,939	-200,000	-0,038	-0,141
322,954	30,645	0,014	0,008
323,968	-79,405	-0,120	-0,028
324,983	-113,299	-0,260	-0,035
325,997	-85,507	-0,139	0,030
327,012	800,000	-0,100	-0,214
328,027	38,848	-0,128	-0,078
329,041	441,207	-0,125	-0,189
330,056	-99,281	-0,120	-0,021
331,070	76,330	-0,095	-0,069
332,085	13,085	-0,090	-0,048
333,100	-136,861	-0,178	-0,014
334,114	226,147	-0,094	-0,105
335,129	-178,650	-0,165	-0,003
336,143	406,191	-0,071	-0,103
337,158	-200,000	0,003	0,110
338,173	-66,549	-0,201	0,055
339,187	-3,560	-0,124	-0,059
340,202	-200,000	-0,037	-0,200
341,216	18,587	-0,250	-0,137
342,231	135,618	-0,122	-0,109
343,246	-24,697	-0,172	-0,070
344,260	57,735	-0,141	-0,095
345,275	367,764	-0,057	-0,080
346,289	20,908	-0,079	-0,044
347,304	10,640	-0,207	-0,108
348,319	293,791	-0,113	-0,142
349,333	228,946	-0,190	-0,213
350,348	138,040	-0,134	-0,120
351,362	340,387	-0,064	-0,086
352,377	-200,000	0,000	-0,144
353,392	45,031	-0,137	-0,086
354,406	-138,211	-0,113	-0,008
355,421	207,456	1317,389	1412,268
356,435	159,584	1478,447	1412,758
