DTS Sentinel unit serial number:	SN410029Multiplexer serial number:	ORYXHardware model number:	OX2-SRSoftware version number:	ORYX F/W v4,00 Oryx Data Collector v3.7.2.0data status	okinstallation	B3 Nyhavnadifferential loss correction	single-endedforward channel	channel 1reverse channel	N/Adate	2023/12/02time	13:22:30forward acquisition time	300,00reverse acquisition time	0,00gamma	499,1914k internal	0,3199k external	0,3199temperature offset calibration	1,0000default loss term (dB/km)	0,3820temperature slope calibration	1,0000multiplexer offset coefficient	1,0000multiplexer slope coefficient	1,0000fibre end	0,00T internal ref (°C)	14,45T ext. ref 1 (°C)	0,13T ext. ref 2 (°C)	0,13length (m)	temperature (°C)	Stokes	anti-Stokes-744,400	61,698	-0,203	-0,147
-743,385	-200,000	0,089	0,370
-742,371	-200,000	0,025	-0,233
-741,356	-200,000	-0,037	0,476
-740,342	61,330	-0,268	-0,194
-739,327	-200,000	-0,084	0,425
-738,312	-108,790	-0,251	-0,039
-737,298	-200,000	-0,005	0,292
-736,283	24,349	-0,340	-0,204
-735,269	-200,000	0,060	0,218
-734,254	70,650	-0,238	-0,179
-733,239	-34,071	-0,225	0,090
-732,225	81,666	-0,175	-0,137
-731,210	698,958	0,128	0,246
-730,196	-200,000	-0,012	-0,097
-729,181	-104,959	-0,029	-0,005
-728,167	-200,000	0,000	0,104
-727,152	-200,000	0,001	-0,081
-726,137	28,978	0,020	0,012
-725,123	330,457	-0,090	-0,126
-724,108	-28,893	-0,012	0,005
-723,094	216,616	-0,091	-0,105
-722,079	-181,241	-0,029	-0,000
-721,064	-200,000	0,014	0,074
-720,050	800,000	-0,036	-0,105
-719,035	800,000	-0,029	-0,089
-718,021	-6,627	-0,074	0,036
-717,006	-200,000	0,005	-0,025
-715,991	64,554	-0,102	0,075
-714,977	265,231	-0,112	-0,142
-713,962	170,986	0,098	-0,103
-712,948	2,768	0,100	-0,052
-711,933	800,000	-0,008	-0,018
-710,918	325,687	0,014	-0,019
-709,904	-48,620	-0,011	0,004
-708,889	-104,995	-0,199	0,033
-707,875	83,522	-0,091	0,072
-706,860	-200,000	0,019	-0,128
-705,845	800,000	0,045	-0,095
-704,831	113,488	0,104	-0,092
-703,816	206,418	-0,110	-0,124
-702,802	800,000	-0,045	-0,111
-701,787	393,454	-0,037	0,056
-700,772	42,187	0,075	0,050
-699,758	256,724	-0,050	0,062
-698,743	-200,000	0,010	0,034
-697,729	50,165	0,050	-0,034
-696,714	-200,000	-0,001	0,237
-695,699	13,839	-0,062	0,035
-694,685	-143,299	-0,082	0,006
-693,670	27,935	0,028	-0,017
-692,656	-200,000	-0,042	0,141
-691,641	800,000	0,052	-0,118
-690,627	234,407	0,027	-0,032
-689,612	-155,624	0,134	-0,006
-688,597	305,062	0,067	-0,091
-687,583	-86,576	-0,138	0,030
-686,568	-22,348	0,017	0,007
-685,554	-69,897	-0,051	0,014
-684,539	800,000	0,024	0,069
-683,524	-200,000	-0,005	0,036
-682,510	137,592	-0,043	-0,041
-681,495	-119,623	-0,055	-0,007
-680,481	-200,000	0,022	-0,135
-679,466	165,820	-0,047	-0,048
-678,451	-200,000	-0,001	0,080
-677,437	-82,093	-0,158	0,037
-676,422	139,998	0,042	0,040
-675,408	800,000	-0,028	0,064
-674,393	290,774	-0,068	0,090
-673,378	800,000	-0,053	-0,163
-672,364	254,913	-0,132	0,165
-671,349	800,000	-0,049	0,132
-670,335	248,403	-0,068	0,084
-669,320	800,000	0,034	0,091
-668,305	-128,103	-0,057	0,006
-667,291	800,000	-0,075	-0,173
-666,276	-200,000	0,039	-0,134
-665,262	533,821	-0,108	-0,186
-664,247	-127,072	-0,097	0,010
-663,232	-200,000	-0,008	0,094
-662,218	-57,992	-0,027	0,009
-661,203	-4,713	0,138	-0,069
-660,189	190,088	-0,041	0,045
-659,174	-200,000	0,014	-0,071
-658,159	131,485	0,042	0,040
-657,145	512,933	-0,022	-0,037
-656,130	800,000	0,040	0,084
-655,116	-93,965	-0,081	0,016
-654,101	277,324	0,112	-0,145
-653,086	24,739	-0,085	0,051
-652,072	270,797	-0,082	-0,105
-651,057	24,419	-0,043	0,026
-650,043	-200,000	-0,005	0,043
-649,028	-123,905	-0,058	0,007
-648,014	-152,767	-0,110	-0,006
-646,999	107,110	0,080	0,069
-645,984	704,502	-0,056	-0,108
-644,970	100,020	-0,033	-0,028
-643,955	365,077	-0,094	-0,138
-642,941	-200,000	0,012	-0,069
-641,926	-200,000	-0,013	-0,113
-640,911	58,890	0,060	-0,043
-639,897	-26,570	0,117	0,050
-638,882	-200,000	0,006	0,158
-637,868	-200,000	0,005	0,027
-636,853	92,671	-0,045	0,037
-635,838	109,359	-0,094	0,081
-634,824	19,014	-0,039	0,022
-633,809	-53,986	0,093	0,030
-632,795	52,695	-0,016	-0,011
-631,780	29,874	0,076	0,047
-630,765	-200,000	0,023	-0,076
-629,751	800,000	0,055	0,138
-628,736	-200,000	0,004	-0,074
-627,722	119,851	0,014	0,013
-626,707	-200,000	0,005	0,147
-625,692	-200,000	0,013	0,054
-624,678	-200,000	0,019	0,165
-623,663	-126,866	0,036	-0,004
-622,649	372,940	-0,027	-0,039
-621,634	60,374	-0,137	-0,098
-620,619	-193,305	0,083	-0,001
-619,605	-75,524	-0,072	0,018
-618,590	42,199	0,138	0,091
-617,576	652,346	-0,029	0,054
-616,561	-62,142	0,069	0,021
-615,546	-200,000	0,006	-0,080
-614,532	-200,000	0,025	-0,224
-613,517	-200,000	0,029	-0,125
-612,503	-153,444	0,076	-0,004
-611,488	38,351	0,104	-0,067
-610,474	-70,786	0,119	0,032
-609,459	-174,089	0,081	-0,002
-608,444	132,856	-0,149	-0,139
-607,430	-46,296	-0,031	-0,011
-606,415	2,523	-0,119	-0,062
-605,401	25,680	0,039	0,023
-604,386	-134,757	0,158	0,014
-603,371	-200,000	0,015	0,054
-602,357	-12,935	-0,032	0,015
-601,342	-114,754	0,028	0,004
-600,328	-30,550	-0,110	0,045
-599,313	800,000	0,006	0,014
-598,298	-200,000	-0,035	0,126
-597,284	-200,000	0,009	0,045
-596,269	-17,449	0,059	-0,027
-595,255	43,124	-0,078	0,052
-594,240	68,990	-0,003	-0,002
-593,225	271,864	-0,081	-0,104
-592,211	-200,000	-0,055	-0,187
-591,196	77,264	0,042	0,032
-590,182	112,679	-0,039	-0,034
-589,167	111,468	-0,084	0,074
-588,152	800,000	0,031	0,091
-587,138	417,065	-0,025	0,039
-586,123	-87,643	-0,066	0,014
-585,109	-19,006	0,092	0,041
-584,094	102,539	0,035	-0,030
-583,079	-200,000	-0,021	0,113
-582,065	156,664	0,054	0,054
-581,050	-200,000	0,031	-0,103
-580,036	14,113	-0,126	-0,071
-579,021	-19,896	-0,058	-0,026
-578,006	142,580	0,092	0,088
-576,992	89,212	-0,060	-0,048
-575,977	109,833	-0,009	-0,008
-574,963	558,324	-0,056	-0,099
-573,948	157,955	0,108	0,108
-572,934	-200,000	-0,038	0,140
-571,919	41,615	-0,143	-0,094
-570,904	139,372	0,043	-0,041
-569,890	776,834	-0,037	-0,073
-568,875	-105,460	-0,057	0,009
-567,861	199,556	-0,058	0,065
-566,846	699,032	-0,040	0,076
-565,831	-6,578	-0,052	-0,026
-564,817	-58,387	-0,059	-0,018
-563,802	800,000	0,026	-0,052
-562,788	-33,814	0,105	-0,041
-561,773	271,906	-0,118	0,151
-560,758	155,346	0,032	0,032
-559,744	-115,548	0,058	-0,008
-558,729	33,489	0,086	-0,054
-557,715	343,820	-0,030	-0,043
-556,700	368,247	-0,076	-0,111
-555,685	21,957	-0,069	0,041
-554,671	3,541	0,126	-0,066
-553,656	-52,933	0,068	-0,023
-552,642	800,000	0,033	-0,079
-551,627	-200,000	0,005	-0,197
-550,612	796,469	0,036	-0,072
-549,598	-200,000	-0,020	-0,110
-548,583	-200,000	0,023	-0,106
-547,569	192,048	-0,060	0,066
-546,554	16,637	0,086	0,049
-545,539	800,000	-0,065	-0,158
-544,525	800,000	0,011	-0,032
-543,510	681,060	-0,052	-0,099
-542,496	196,329	0,045	-0,049
-541,481	-2,814	0,037	0,019
-540,466	-65,275	-0,039	-0,011
-539,452	-200,000	0,011	0,048
-538,437	-11,322	0,133	-0,063
-537,423	-101,178	-0,008	-0,001
-536,408	-200,000	-0,014	-0,049
-535,393	-109,148	-0,083	-0,013
-534,379	800,000	0,042	0,104
-533,364	339,944	0,048	0,067
-532,350	-200,000	-0,032	-0,110
-531,335	800,000	-0,019	0,049
-530,321	56,880	-0,071	-0,050
-529,306	477,494	0,099	0,162
-528,291	-200,000	0,001	0,061
-527,277	800,000	0,060	-0,189
-526,262	-200,000	-0,002	-0,144
-525,248	272,654	-0,061	0,078
-524,233	800,000	0,050	0,134
-523,218	800,000	-0,047	-0,137
-522,204	14,911	-0,081	-0,046
-521,189	-107,674	-0,064	-0,010
-520,175	470,759	0,057	0,093
-519,160	28,334	0,086	0,053
-518,145	800,000	0,034	0,072
-517,131	485,346	0,025	-0,041
-516,116	-200,000	-0,008	0,138
-515,102	-200,000	0,008	-0,089
-514,087	23,034	0,028	-0,016
-513,072	-200,000	0,012	0,099
-512,058	-107,388	-0,051	0,008
-511,043	-77,065	-0,053	0,013
-510,029	-140,104	0,114	-0,008
-509,014	219,100	-0,024	0,028
-507,999	317,755	0,019	-0,026
-506,985	-105,503	-0,067	0,011
-505,970	-200,000	0,018	0,071
-504,956	800,000	0,048	-0,111
-503,941	-49,199	-0,083	-0,029
-502,926	-61,466	0,154	-0,047
-501,912	-200,000	0,005	-0,039
-500,897	800,000	0,054	0,132
-499,883	-97,951	0,063	0,012
-498,868	45,992	-0,121	-0,081
-497,853	120,100	-0,115	-0,103
-496,839	800,000	0,027	-0,081
-495,824	-81,724	0,155	-0,036
-494,810	79,607	-0,106	0,082
-493,795	266,624	0,043	-0,054
-492,781	800,000	0,030	-0,065
-491,766	83,060	-0,072	-0,057
-490,751	-200,000	0,014	-0,089
-489,737	200,952	-0,034	-0,037
-488,722	-200,000	0,040	0,136
-487,708	800,000	0,076	0,177
-486,693	800,000	0,054	0,167
-485,678	-9,498	0,039	0,019
-484,664	20,526	-0,058	-0,034
-483,649	-124,905	-0,090	-0,010
-482,635	178,874	0,030	0,031
-481,620	263,627	-0,045	-0,057
-480,605	800,000	-0,020	0,058
-479,591	800,000	0,078	0,181
-478,576	-8,901	0,025	0,012
-477,562	-142,961	-0,019	0,001
-476,547	53,314	-0,166	-0,114
-475,532	-144,678	-0,069	-0,004
-474,518	800,000	0,033	-0,098
-473,503	-62,319	-0,093	0,028
-472,489	15,954	0,055	0,031
-471,474	101,612	0,014	-0,012
-470,459	126,196	-0,048	0,043
-469,445	-200,000	-0,014	-0,059
-468,430	800,000	-0,051	-0,140
-467,416	-160,564	0,068	-0,003
-466,401	-11,339	0,230	-0,109
-465,386	24,146	0,057	0,034
-464,372	-85,075	-0,086	0,019
-463,357	800,000	-0,083	-0,228
-462,343	-97,193	-0,107	0,020
-461,328	-120,654	-0,156	-0,019
-460,313	-38,983	0,072	0,027
-459,299	-58,885	-0,063	-0,020
-458,284	-0,868	0,114	0,058
-457,270	-23,006	-0,087	0,038
-456,255	352,433	-0,073	-0,104
-455,241	-167,802	-0,080	-0,002
-454,226	-200,000	-0,000	-0,062
-453,211	-42,920	0,090	0,033
-452,197	-2,991	0,084	-0,042
-451,182	-200,000	0,003	0,073
-450,168	69,486	0,118	-0,087
-449,153	69,719	-0,039	-0,029
-448,138	-74,745	-0,030	-0,008
-447,124	-104,413	-0,055	-0,009
-446,109	78,878	-0,046	0,036
-445,095	-200,000	0,001	0,006
-444,080	-200,000	-0,012	0,041
-443,065	800,000	-0,092	-0,239
-442,051	-88,365	0,232	0,049
-441,036	-53,729	-0,063	0,021
-440,022	140,663	-0,087	-0,083
-439,007	-68,606	0,080	0,022
-437,992	800,000	-0,025	0,055
-436,978	145,473	0,159	0,153
-435,963	-200,000	0,011	0,081
-434,949	-200,000	-0,005	-0,027
-433,934	-200,000	-0,027	0,098
-432,919	-200,000	-0,015	-0,055
-431,905	12,686	0,030	0,017
-430,890	40,417	0,089	-0,057
-429,876	40,327	-0,058	-0,038
-428,861	57,406	0,088	0,062
-427,846	-38,218	-0,101	-0,038
-426,832	232,208	0,092	0,109
-425,817	800,000	0,033	-0,071
-424,803	14,725	0,093	0,052
-423,788	7,885	0,031	0,016
-422,773	79,550	0,091	-0,070
-421,759	-17,728	-0,095	-0,043
-420,744	800,000	-0,023	0,064
-419,730	376,614	-0,083	0,122
-418,715	208,766	-0,048	0,054
-417,701	390,893	0,053	-0,079
-416,686	66,633	-0,057	0,042
-415,671	-127,022	0,077	-0,008
-414,657	-38,235	-0,136	-0,051
-413,642	-200,000	0,036	-0,149
-412,628	212,332	-0,044	0,050
-411,613	-63,280	-0,073	-0,021
-410,598	-200,000	-0,018	-0,066
-409,584	-33,690	0,082	-0,032
-408,569	-200,000	-0,052	0,206
-407,555	800,000	-0,033	0,096
-406,540	597,259	0,060	0,107
-405,525	-200,000	-0,027	-0,128
-404,511	-89,010	-0,136	-0,029
-403,496	86,206	-0,086	-0,068
-402,482	-200,000	-0,012	-0,057
-401,467	518,823	-0,105	0,177
-400,452	-200,000	0,024	0,135
-399,438	-8,956	0,093	-0,045
-398,423	-149,065	0,016	0,001
-397,409	-200,000	-0,005	0,018
-396,394	-200,000	-0,018	-0,062
-395,379	-109,038	0,105	-0,016
-394,365	800,000	-0,024	0,067
-393,350	512,562	-0,088	0,148
-392,336	506,101	0,018	-0,030
-391,321	800,000	0,056	0,133
-390,306	800,000	0,014	0,030
-389,292	45,528	-0,080	-0,053
-388,277	205,076	-0,081	0,091
-387,263	92,180	0,071	-0,058
-386,248	-160,362	-0,070	-0,003
-385,233	548,501	0,057	0,099
-384,219	-34,286	-0,055	0,022
-383,204	219,500	0,096	0,111
-382,190	306,035	-0,015	-0,020
-381,175	-200,000	0,004	-0,067
-380,160	800,000	0,020	-0,060
-379,146	-200,000	-0,022	-0,192
-378,131	800,000	0,053	0,110
-377,117	-113,100	-0,160	-0,022
-376,102	800,000	-0,047	-0,107
-375,088	-200,000	-0,027	-0,099
-374,073	382,000	0,043	-0,064
-373,058	-200,000	0,019	0,116
-372,044	-58,988	0,036	0,011
-371,029	-136,681	0,057	-0,005
-370,015	-146,239	0,081	-0,005
-369,000	780,929	-0,039	0,076
-367,985	-68,932	-0,135	0,037
-366,971	-14,240	-0,048	-0,022
-365,956	800,000	0,044	0,091
-364,942	-146,939	0,060	-0,004
-363,927	135,143	-0,043	0,040
-362,912	83,440	0,076	0,059
-361,898	602,671	0,019	-0,033
-360,883	145,938	-0,031	-0,030
-359,869	800,000	0,088	-0,188
-358,854	-108,244	-0,081	-0,012
-357,839	-8,060	0,158	0,076
-356,825	66,960	0,080	-0,059
-355,810	515,762	0,015	0,026
-354,796	-81,075	-0,053	-0,012
-353,781	-200,000	0,010	-0,137
-352,766	791,454	-0,019	-0,037
-351,752	-85,824	-0,024	-0,005
-350,737	-114,026	0,055	0,008
-349,723	102,036	-0,041	0,035
-348,708	64,955	0,027	-0,020
-347,693	205,257	-0,081	0,091
-346,679	800,000	-0,055	-0,136
-345,664	-27,988	-0,073	-0,030
-344,650	194,583	-0,091	-0,099
-343,635	-50,584	0,091	0,031
-342,620	-200,000	0,024	0,109
-341,606	199,411	0,037	0,041
-340,591	-200,000	0,012	0,076
-339,577	281,780	-0,057	-0,073
-338,562	-200,000	-0,004	0,142
-337,548	18,505	-0,129	0,073
-336,533	-173,054	0,094	-0,002
-335,518	-200,000	-0,007	0,080
-334,504	-124,851	-0,070	0,008
-333,489	-112,470	0,081	0,011
-332,475	118,411	0,009	0,008
-331,460	65,590	-0,113	-0,082
-330,445	-200,000	0,021	0,075
-329,431	-9,075	0,089	0,042
-328,416	124,109	0,035	0,031
-327,402	-42,840	0,040	0,014
-326,387	118,777	-0,057	0,051
-325,372	537,433	-0,055	-0,094
-324,358	98,968	-0,089	-0,074
-323,343	-111,776	-0,218	-0,031
-322,329	-200,000	-0,020	0,153
-321,314	-200,000	-0,045	0,176
-320,299	223,065	0,099	0,114
-319,285	-200,000	0,027	-0,085
-318,270	-72,159	0,119	0,031
-317,256	241,611	-0,084	0,101
-316,241	30,590	0,154	0,094
-315,226	-26,019	-0,051	0,021
-314,212	-200,000	0,007	0,087
-313,197	105,948	-0,068	0,058
-312,183	445,709	-0,043	0,069
-311,168	79,800	0,139	-0,107
-310,153	135,707	0,088	0,082
-309,139	-200,000	0,007	0,056
-308,124	11,631	0,011	0,006
-307,110	98,676	0,100	0,083
-306,095	-86,391	-0,100	0,022
-305,080	-200,000	0,001	-0,044
-304,066	-200,000	0,003	-0,012
-303,051	95,141	-0,074	-0,060
-302,037	205,477	-0,124	-0,138
-301,022	9,823	0,081	-0,044
-300,008	387,671	-0,048	0,071
-298,993	800,000	0,032	-0,093
-297,978	-200,000	-0,025	0,120
-296,964	800,000	0,036	0,073
-295,949	72,916	-0,205	-0,153
-294,935	-200,000	0,037	-0,121
-293,920	-112,108	0,086	-0,012
-292,905	-113,148	-0,065	0,009
-291,891	684,420	0,046	0,087
-290,876	428,271	0,058	0,090
-289,862	-200,000	0,005	0,054
-288,847	800,000	-0,022	-0,044
-287,832	-178,368	-0,104	-0,002
-286,818	-200,000	0,036	0,129
-285,803	-200,000	0,009	-0,138
-284,789	438,686	0,039	0,061
-283,774	129,072	0,058	0,053
-282,759	-200,000	-0,017	0,056
-281,745	221,683	0,064	0,074
-280,730	-75,675	0,094	0,024
-279,716	-200,000	0,039	-0,145
-278,701	-200,000	0,015	-0,140
-277,686	90,593	-0,050	0,040
-276,672	19,594	-0,167	0,095
-275,657	257,323	-0,036	-0,044
-274,643	-22,887	-0,066	0,028
-273,628	-200,000	0,011	-0,145
-272,613	800,000	0,072	-0,202
-271,599	-200,000	0,002	0,088
-270,584	800,000	0,098	0,194
-269,570	543,072	-0,064	0,110
-268,555	116,429	-0,073	0,064
-267,540	800,000	0,017	0,040
-266,526	764,587	0,033	0,064
-265,511	-29,293	-0,172	-0,070
-264,497	800,000	-0,017	0,049
-263,482	-200,000	0,001	-0,068
-262,467	730,176	-0,048	-0,092
-261,453	-200,000	-0,001	-0,050
-260,438	384,215	0,040	-0,060
-259,424	800,000	-0,088	-0,180
-258,409	-139,282	-0,037	-0,003
-257,395	195,429	0,081	-0,089
-256,380	-200,000	0,012	-0,057
-255,365	-140,271	0,101	-0,007
-254,351	-200,000	0,059	0,283
-253,336	-200,000	-0,017	0,059
-252,322	6,569	-0,060	0,032
-251,307	333,463	-0,105	0,145
-250,292	37,530	0,121	0,077
-249,278	-24,210	0,088	-0,037
-248,263	-81,573	0,065	0,015
-247,249	800,000	-0,040	0,084
-246,234	-200,000	0,021	-0,233
-245,219	-143,156	-0,065	-0,004
-244,205	800,000	0,034	0,104
-243,190	39,438	-0,095	0,061
-242,176	-123,310	0,117	-0,013
-241,161	-200,000	0,002	0,159
-240,146	-200,000	0,008	0,038
-239,132	334,349	0,059	-0,082
-238,117	-116,332	0,100	0,013
-237,103	-63,084	-0,064	0,019
-236,088	-115,328	0,077	0,010
-235,073	800,000	0,038	0,081
-234,059	-89,580	-0,042	-0,009
-233,044	43,411	0,107	0,070
-232,030	612,370	0,062	0,111
-231,015	90,542	-0,100	-0,079
-230,000	-200,000	0,013	-0,172
-228,986	12,224	-0,068	-0,037
-227,971	-32,627	0,112	0,044
-226,957	134,764	0,054	-0,050
-225,942	800,000	0,062	0,174
-224,927	-189,840	-0,072	0,001
-223,913	-114,369	-0,099	0,013
-222,898	-200,000	-0,025	-0,117
-221,884	-200,000	0,021	-0,075
-220,869	-200,000	0,004	-0,043
-219,855	79,234	0,022	0,017
-218,840	800,000	0,034	-0,091
-217,825	-99,675	0,141	-0,025
-216,811	99,972	-0,085	0,070
-215,796	3,738	-0,122	0,063
-214,782	30,318	0,051	0,031
-213,767	142,058	-0,103	0,098
-212,752	-200,000	-0,013	0,184
-211,738	-97,050	-0,094	-0,017
-210,723	106,773	0,151	-0,128
-209,709	125,563	-0,064	-0,058
-208,694	105,003	-0,097	-0,082
-207,679	-200,000	-0,005	-0,102
-206,665	162,006	0,023	0,023
-205,650	711,690	0,065	-0,123
-204,636	20,311	0,166	0,095
-203,621	-200,000	0,003	0,043
-202,606	-105,101	-0,142	0,023
-201,592	800,000	0,042	-0,109
-200,577	-182,674	-0,036	0,000
-199,563	-200,000	0,009	-0,035
-198,548	-35,548	0,056	-0,021
-197,533	-200,000	-0,027	-0,127
-196,519	715,309	-0,050	-0,096
-195,504	644,270	0,035	-0,063
-194,490	-97,122	0,166	0,031
-193,475	-68,518	0,081	0,022
-192,460	-26,281	0,197	-0,082
-191,446	-77,113	0,124	-0,031
-190,431	-200,000	0,003	0,073
-189,417	48,459	-0,179	0,119
-188,402	-200,000	0,043	0,187
-187,387	235,251	-0,059	0,069
-186,373	800,000	-0,022	-0,053
-185,358	-79,975	-0,150	-0,036
-184,344	-65,565	0,134	0,038
-183,329	167,746	0,071	-0,072
-182,315	-149,459	0,087	-0,005
-181,300	122,625	-0,049	0,044
-180,285	197,751	-0,046	-0,050
-179,271	-5,225	0,075	0,037
-178,256	-162,028	0,070	-0,002
-177,242	-124,409	0,026	-0,003
-176,227	-200,000	0,004	0,024
-175,212	151,906	0,095	0,092
-174,198	-93,372	-0,137	-0,027
-173,183	-119,335	-0,091	-0,011
-172,169	588,537	-0,022	-0,039
-171,154	569,991	0,031	-0,053
-170,139	30,591	0,129	-0,078
-169,125	-75,078	-0,082	0,021
-168,110	800,000	-0,019	0,049
-167,096	-200,000	-0,047	-0,156
-166,081	172,438	-0,092	-0,094
-165,066	800,000	-0,056	-0,119
-164,052	-74,784	-0,165	-0,042
-163,037	-98,400	0,014	-0,003
-162,023	69,022	-0,045	0,033
-161,008	-122,876	-0,146	0,017
-159,993	35,093	0,097	0,061
-158,979	-200,000	-0,032	0,000
-157,964	168,243	-0,025	-0,025
-156,950	56,890	-0,134	0,093
-155,935	-200,000	0,013	0,101
-154,920	26,427	0,164	-0,097
-153,906	-124,421	0,166	-0,018
-152,891	224,046	0,062	-0,071
-151,877	-200,000	0,001	0,108
-150,862	800,000	0,022	-0,056
-149,847	-200,000	-0,019	0,147
-148,833	59,065	-0,124	0,087
-147,818	41,375	-0,118	0,076
-146,804	216,377	-0,072	0,081
-145,789	-200,000	0,000	-0,044
-144,775	-125,791	-0,021	0,002
-143,760	282,362	-0,093	0,119
-142,745	-89,543	-0,030	0,006
-141,731	-200,000	-0,006	0,018
-140,716	-37,914	-0,088	-0,033
-139,702	-200,000	-0,043	0,188
-138,687	-117,839	0,072	-0,009
-137,672	-200,000	0,019	-0,092
-136,658	-200,000	0,008	-0,134
-135,643	214,023	-0,130	-0,147
-134,629	-0,672	-0,036	0,018
-133,614	121,711	-0,044	0,039
-132,599	-4,899	0,036	0,018
-131,585	-165,120	-0,146	-0,005
-130,570	-19,588	0,047	-0,020
-129,556	35,836	0,021	-0,013
-128,541	244,562	-0,051	-0,062
-127,526	-200,000	-0,013	0,048
-126,512	75,373	0,075	0,057
-125,497	3,885	0,117	0,061
-124,483	-200,000	-0,038	0,129
-123,468	59,141	0,179	0,125
-122,453	599,246	-0,031	-0,055
-121,439	-125,065	-0,039	-0,004
-120,424	328,355	-0,107	0,147
-119,410	-200,000	-0,010	-0,085
-118,395	-98,209	0,111	-0,020
-117,380	506,399	0,082	0,136
-116,366	-200,000	-0,004	0,030
-115,351	-52,409	-0,065	0,021
-114,337	-200,000	-0,017	0,088
-113,322	-200,000	-0,013	-0,058
-112,307	-156,330	-0,019	-0,001
-111,293	476,398	0,053	-0,086
-110,278	214,385	-0,014	-0,016
-109,264	-200,000	0,015	-0,054
-108,249	-200,000	-0,005	-0,024
-107,234	27,377	0,075	0,045
-106,220	800,000	0,024	-0,051
-105,205	386,233	0,045	0,066
-104,191	198,287	0,060	0,065
-103,176	-200,000	0,023	0,087
-102,162	101,495	-0,013	0,011
-101,147	314,536	0,024	-0,032
-100,132	800,000	-0,064	0,144
-99,118	-96,230	0,015	0,003
-98,103	49,667	0,053	-0,035
-97,089	213,235	0,028	-0,032
-96,074	16,203	0,113	0,063
-95,059	-200,000	-0,024	0,190
-94,045	-200,000	0,008	0,028
-93,030	197,660	-0,033	0,035
-92,016	-200,000	-0,021	-0,080
-91,001	-200,000	0,013	0,050
-89,986	800,000	0,090	0,223
-88,972	-120,473	-0,084	0,010
-87,957	-94,558	0,050	0,010
-86,943	-200,000	-0,018	0,059
-85,928	256,114	-0,053	-0,064
-84,913	800,000	-0,045	-0,119
-83,899	452,182	-0,039	0,061
-82,884	-200,000	0,019	-0,059
-81,870	800,000	0,019	-0,043
-80,855	-200,000	0,005	-0,071
-79,840	595,092	0,038	-0,066
-78,826	303,012	-0,020	-0,026
-77,811	174,471	0,081	-0,083
-76,797	800,000	0,049	0,098
-75,782	-3,204	0,078	-0,038
-74,767	180,502	0,103	0,107
-73,753	311,873	0,112	0,150
-72,738	800,000	-0,035	-0,103
-71,724	67,821	0,078	-0,056
-70,709	-200,000	-0,007	-0,044
-69,694	-199,399	-0,018	0,000
-68,680	800,000	0,040	0,122
-67,665	-96,274	0,028	-0,005
-66,651	68,902	0,043	-0,031
-65,636	-19,716	0,111	0,048
-64,622	113,712	0,026	-0,023
-63,607	-200,000	0,009	0,035
-62,592	-90,169	-0,134	0,027
-61,578	-200,000	-0,013	0,093
-60,563	800,000	-0,016	0,041
-59,549	800,000	-0,047	0,135
-58,534	-65,082	-1,577	-0,448
-57,519	422,328	-1,447	-2,208
-56,505	-200,000	-0,540	-4,483
-55,490	104,435	0,996	0,831
-54,476	800,000	4,895	11,421
-53,461	-200,000	18,564	296,156
-52,446	800,000	731,274	2256,114
-51,432	560,445	1647,457	2831,247
-50,417	78,838	1667,113	1262,601
-49,403	22,387	1540,183	889,630
-48,388	16,347	1463,016	815,759
-47,373	17,826	1453,052	817,304
-46,359	17,049	1443,421	808,135
-45,344	14,533	1438,889	793,539
-44,330	14,492	1436,605	792,048
-43,315	14,512	1435,054	791,260
-42,300	14,487	1433,504	790,253
-41,286	14,576	1432,266	789,966
-40,271	14,522	1430,857	788,900
-39,257	14,525	1429,797	788,297
-38,242	14,546	1428,470	787,635
-37,227	14,562	1427,131	786,939
-36,213	14,576	1425,636	786,149
-35,198	14,541	1424,635	785,400
-34,184	14,588	1423,846	785,160
-33,169	14,532	1422,383	784,057
-32,154	14,589	1421,180	783,629
-31,140	14,524	1420,240	782,773
-30,125	14,573	1418,996	782,291
-29,111	14,571	1417,832	781,606
-28,096	14,504	1416,933	780,763
-27,082	14,492	1415,765	780,035
-26,067	14,486	1414,644	779,357
-25,052	14,473	1413,746	778,768
-24,038	14,513	1412,586	778,289
-23,023	14,473	1411,488	777,463
-22,009	14,473	1410,582	776,935
-20,994	14,462	1409,890	776,473
-19,979	14,386	1408,937	775,558
-18,965	14,398	1407,788	774,955
-17,950	14,422	1406,997	774,599
-16,936	14,425	1406,018	774,042
-15,921	14,364	1404,876	773,100
-14,906	14,328	1404,098	772,472
-13,892	14,394	1403,141	772,222
-12,877	14,364	1402,221	771,543
-11,863	14,357	1401,302	770,976
-10,848	14,401	1400,329	770,615
-9,833	14,324	1399,500	769,772
-8,819	14,307	1398,565	769,148
-7,804	14,238	1397,576	768,251
-6,790	14,356	1396,442	768,144
-5,775	14,265	1395,635	767,252
-4,760	14,287	1394,584	766,742
-3,746	14,268	1393,831	766,209
-2,731	14,287	1393,054	765,841
-1,717	14,301	1392,062	765,332
-0,702	14,244	1390,374	764,107
0,313	18,199	1308,912	737,615
1,327	34,679	705,880	435,963
2,342	53,099	124,365	84,167
3,356	4,485	16,438	8,509
4,371	14,806	3,140	1,734
5,386	45,550	0,628	0,410
6,400	800,000	0,046	0,111
7,415	193,446	-0,179	-0,192
8,429	316,234	-0,233	-0,312
9,444	131,163	-0,364	-0,331
10,459	131,137	-0,238	-0,216
11,473	109,922	-0,280	-0,238
12,488	37,008	-0,246	-0,154
13,502	-75,173	-0,379	-0,095
14,517	65,819	-0,258	-0,185
15,531	67,293	-0,406	-0,293
16,546	100,108	-0,345	-0,283
17,561	214,794	-0,342	-0,384
18,575	17,821	-0,254	-0,143
19,590	239,891	-0,184	-0,217
20,604	-173,618	-0,325	0,007
21,619	70,513	-0,380	-0,277
22,634	19,762	-0,590	-0,335
23,648	79,802	-0,463	-0,351
24,663	60,971	-0,442	-0,309
25,677	129,950	-0,384	-0,347
26,692	165,349	-0,314	-0,314
27,707	-34,025	-0,492	-0,190
28,721	-96,746	-0,533	-0,098
29,736	-27,662	-0,509	-0,208
30,750	107,936	-0,436	-0,367
31,765	25,917	-0,333	-0,196
32,780	32,197	-0,332	-0,202
33,794	165,844	-0,286	-0,286
34,809	40,981	-0,403	-0,257
35,823	-6,185	-0,259	-0,124
36,838	89,362	-0,471	-0,370
37,853	168,008	-0,354	-0,356
38,867	151,961	-0,325	-0,313
39,882	34,434	-0,425	-0,261
40,896	100,187	-0,244	-0,199
41,911	68,653	-0,278	-0,201
42,926	28,764	-0,400	-0,239
43,940	291,622	-0,226	-0,291
44,955	305,875	-0,271	-0,357
45,969	196,608	-0,309	-0,333
46,984	9,282	-0,295	-0,157
47,999	-144,765	-0,419	-0,027
49,013	-70,322	-0,390	-0,104
50,028	7,809	-0,330	-0,174
51,042	-18,685	-0,311	-0,136
52,057	113,277	-0,393	-0,336
53,071	99,336	-0,269	-0,219
54,086	53,870	-0,269	-0,182
55,101	15,548	-0,283	-0,156
56,115	-82,610	-0,351	-0,079
57,130	-96,438	-0,309	-0,057
58,144	80,869	-0,370	-0,281
59,159	9,526	-0,398	-0,212
60,174	64,623	-0,429	-0,304
61,188	118,776	-0,296	-0,257
62,203	12,609	-0,374	-0,203
63,217	56,970	-0,343	-0,235
64,232	132,634	-0,322	-0,292
65,247	12,453	-0,373	-0,202
66,261	45,354	-0,232	-0,150
67,276	-13,932	-0,317	-0,144
68,290	137,463	-0,225	-0,207
69,305	1,169	-0,279	-0,140
70,320	180,273	-0,314	-0,325
71,334	-112,460	-0,314	-0,044
72,349	-3,749	-0,281	-0,137
73,363	25,604	-0,311	-0,182
74,378	51,855	-0,401	-0,268
75,393	-119,023	-0,406	-0,049
76,407	54,199	-0,337	-0,228
77,422	86,051	-0,240	-0,186
78,436	82,715	-0,196	-0,149
79,451	-2,845	-0,327	-0,160
80,466	37,500	-0,311	-0,193
81,480	15,209	-0,306	-0,168
82,495	-20,770	-0,294	-0,126
83,509	243,910	-0,183	-0,217
84,524	-28,438	-0,253	-0,102
85,539	66,671	-0,348	-0,249
86,553	27,538	-0,352	-0,208
87,568	105,102	-0,295	-0,244
88,582	87,009	-0,344	-0,267
89,597	-19,359	-0,378	-0,164
90,611	72,820	-0,185	-0,135
91,626	38,702	-0,260	-0,162
92,641	40,558	-0,443	-0,280
93,655	47,456	-0,247	-0,161
94,670	800,000	-0,130	-0,256
95,684	127,566	-0,234	-0,209
96,699	124,674	-0,354	-0,313
97,714	96,898	-0,272	-0,219
98,728	-59,233	-0,390	-0,117
99,743	84,128	-0,241	-0,185
100,757	580,927	-0,161	-0,277
101,772	65,780	-0,309	-0,220
102,787	30,904	-0,247	-0,148
103,801	68,011	-0,397	-0,285
104,816	135,042	-0,257	-0,234
105,830	37,035	-0,236	-0,146
106,845	-12,363	-0,206	-0,094
107,860	83,791	-0,124	-0,095
108,874	-26,821	-0,335	-0,137
109,889	372,192	-0,171	-0,244
110,903	212,206	-0,191	-0,211
111,918	98,834	-0,241	-0,195
112,933	-37,976	-0,276	-0,102
113,947	30,746	-0,247	-0,148
114,962	-1,128	-0,310	-0,153
115,976	141,573	-0,261	-0,243
116,991	59,364	-0,285	-0,196
118,006	-17,338	-0,335	-0,147
119,020	48,460	-0,292	-0,191
120,035	154,519	-0,214	-0,206
121,049	757,974	-0,121	-0,230
122,064	0,099	-0,277	-0,138
123,079	124,008	-0,258	-0,227
124,093	208,238	-0,209	-0,229
125,108	133,886	-0,246	-0,224
126,122	213,448	-0,233	-0,258
127,137	37,526	-0,275	-0,171
128,151	-80,653	-0,219	0,051
129,166	-30,132	-0,255	-0,101
130,181	-111,443	-0,276	-0,039
131,195	320,334	-0,219	-0,291
132,210	136,164	-0,360	-0,328
133,224	-46,556	-0,325	-0,111
134,239	-3,123	-0,384	-0,187
135,254	3,710	-0,298	-0,152
136,268	126,476	-0,286	-0,253
137,283	69,811	-0,172	-0,124
138,297	-5,703	-0,355	-0,170
139,312	12,026	-0,380	-0,204
140,327	350,287	-0,207	-0,287
141,341	83,840	-0,255	-0,194
142,356	108,336	-0,318	-0,265
143,370	6,437	-0,254	-0,132
144,385	25,529	-0,204	-0,119
145,400	-36,056	-0,209	-0,079
146,414	12,413	-0,210	-0,113
147,429	220,476	-0,173	-0,194
148,443	481,061	-0,138	-0,220
149,458	-1,571	-0,341	-0,168
150,473	-98,978	-0,311	-0,055
151,487	186,233	-0,193	-0,200
152,502	334,172	-0,202	-0,274
153,516	303,527	-0,149	-0,193
154,531	129,217	-0,167	-0,149
155,546	441,984	-0,146	-0,224
156,560	-42,577	-0,196	-0,069
157,575	28,237	-0,230	-0,135
158,589	89,625	-0,213	-0,166
159,604	362,403	-0,086	-0,120
160,619	206,563	-0,097	-0,105
161,633	84,136	-0,207	-0,158
162,648	101,756	-0,254	-0,207
163,662	-13,199	-0,356	-0,161
164,677	-16,499	-0,206	-0,091
165,692	172,965	-0,177	-0,178
166,706	83,115	-0,292	-0,221
167,721	4,112	-0,325	-0,165
168,735	-59,808	-0,239	-0,071
169,750	6,270	-0,262	-0,135
170,764	263,940	-0,216	-0,262
171,779	-141,672	-0,310	-0,021
172,794	-59,651	-0,278	-0,083
173,808	225,655	-0,159	-0,180
174,823	226,534	-0,235	-0,266
175,837	-42,942	-0,256	-0,090
176,852	-120,513	-0,306	-0,036
177,867	642,726	-0,145	-0,258
178,881	-24,456	-0,257	-0,106
179,896	-112,634	-0,214	-0,029
180,910	-180,957	-0,223	0,003
181,925	-9,465	-0,265	-0,123
182,940	-96,993	-0,190	-0,034
183,954	60,144	-0,259	-0,178
184,969	189,490	-0,216	-0,225
185,983	-7,473	-0,205	-0,096
186,998	-133,661	-0,237	0,020
188,013	44,011	-0,232	-0,148
189,027	130,470	-0,220	-0,196
190,042	800,000	-0,104	-0,264
191,056	181,500	-0,267	-0,273
192,071	144,686	-0,214	-0,199
193,086	-134,754	-0,188	0,016
194,100	8,800	-0,197	-0,103
195,115	171,340	-0,113	-0,113
196,129	-37,141	-0,135	-0,050
197,144	148,966	-0,250	-0,236
198,159	157,928	-0,201	-0,194
199,173	-30,258	-0,246	-0,097
200,188	-2,049	-0,194	-0,095
201,202	27,935	-0,194	-0,114
202,217	-32,513	-0,196	-0,075
203,232	800,000	-0,109	-0,233
204,246	133,227	-0,253	-0,227
205,261	385,115	-0,157	-0,226
206,275	800,000	-0,132	-0,284
207,290	-182,639	-0,098	0,001
208,304	-92,282	-0,135	-0,026
209,319	-96,204	-0,276	-0,051
210,334	247,724	-0,166	-0,195
211,348	690,457	-0,123	-0,225
212,363	50,747	-0,246	-0,162
213,377	197,308	-0,229	-0,243
214,392	-15,793	-0,244	-0,108
215,407	619,643	-0,053	-0,093
216,421	422,454	-0,140	-0,210
217,436	148,307	-0,254	-0,238
218,450	-35,986	-0,261	-0,097
219,465	160,572	-0,252	-0,245
220,480	321,616	-0,133	-0,176
221,494	-158,910	-0,169	-0,007
222,509	144,084	-0,116	-0,107
223,523	-74,940	-0,247	-0,061
224,538	160,729	-0,187	-0,182
225,553	72,217	-0,288	-0,208
226,567	18,214	-0,275	-0,152
227,582	128,970	-0,218	-0,193
228,596	800,000	-0,087	-0,226
229,611	-36,681	-0,188	-0,070
230,626	800,000	-0,116	-0,240
231,640	9,437	-0,156	-0,082
232,655	800,000	-0,117	-0,255
233,669	166,537	-0,193	-0,190
234,684	225,738	-0,194	-0,219
235,699	-200,000	-0,024	-0,111
236,713	-60,953	-0,229	-0,067
237,728	95,212	-0,186	-0,147
238,742	457,188	-0,146	-0,225
239,757	-15,035	-0,246	-0,109
240,772	111,426	-0,175	-0,147
241,786	-2,604	-0,299	-0,145
242,801	303,191	-0,111	-0,142
243,815	-47,590	-0,367	-0,123
244,830	-85,657	-0,203	-0,043
245,844	-79,074	-0,279	-0,065
246,859	-65,480	-0,269	-0,074
247,874	-200,000	-0,026	-0,130
248,888	200,014	-0,159	-0,169
249,903	204,201	-0,183	-0,197
250,917	201,246	-0,087	-0,093
251,932	480,851	-0,073	-0,115
252,947	-138,314	-0,127	0,010
253,961	-71,878	-0,239	-0,061
254,976	-92,074	-0,227	-0,044
255,990	185,617	-0,213	-0,220
257,005	800,000	-0,109	-0,214
258,020	483,748	-0,090	-0,142
259,034	-102,034	-0,141	-0,023
260,049	212,602	-0,196	-0,215
261,063	-85,425	-0,110	-0,023
262,078	15,353	-0,277	-0,150
263,093	180,993	-0,201	-0,205
264,107	147,949	-0,205	-0,192
265,122	260,289	-0,107	-0,128
266,136	55,983	-0,076	-0,051
267,151	271,482	-0,117	-0,143
268,166	-9,656	-0,218	-0,100
269,180	49,534	-0,235	-0,153
270,195	123,610	-0,144	-0,125
271,209	282,313	-0,080	-0,099
272,224	-83,219	-0,194	-0,043
273,239	-200,000	-0,010	-0,247
274,253	54,505	-0,184	-0,123
275,268	59,830	-0,135	-0,092
276,282	-94,306	-0,229	-0,043
277,297	-200,000	-0,059	-0,186
278,312	800,000	-0,107	-0,267
279,326	328,907	-0,092	-0,123
280,341	83,746	-0,104	-0,079
281,355	409,867	-0,086	-0,126
282,370	800,000	-0,114	-0,233
283,384	-200,000	-0,020	-0,184
284,399	-5,193	-0,194	-0,092
285,414	525,204	-0,066	-0,108
286,428	19,108	-0,179	-0,099
287,443	-136,271	-0,208	0,017
288,457	114,818	-0,185	-0,156
289,472	-60,023	-0,173	-0,051
290,487	-26,127	-0,150	-0,061
291,501	291,251	-0,209	-0,263
292,516	800,000	-0,071	-0,174
293,530	-200,000	-0,178	0,000
294,545	7,060	-0,200	-0,102
295,560	0,134	-0,127	-0,062
296,574	81,724	-0,131	-0,097
297,589	690,376	-0,056	-0,102
298,603	-47,665	-0,238	-0,079
299,618	152,080	-0,155	-0,146
300,633	23,554	-0,063	-0,035
301,647	-145,395	-0,121	-0,007
302,662	-45,414	-0,107	-0,036
303,676	1,384	-0,114	-0,056
304,691	122,764	-0,120	-0,104
305,706	493,340	-0,109	-0,173
306,720	141,128	-0,226	-0,206
307,735	89,508	-0,122	-0,094
308,749	-5,774	-0,130	-0,061
309,764	-151,353	-0,189	0,010
310,779	118,672	-0,134	-0,114
311,793	-9,880	-0,188	-0,086
312,808	21,971	-0,230	-0,129
313,822	59,766	-0,105	-0,071
314,837	159,514	-0,159	-0,152
315,852	463,737	-0,053	-0,082
316,866	-161,440	-0,109	0,004
317,881	-103,325	-0,196	0,031
318,895	-2,502	-0,156	-0,075
319,910	-68,702	-0,128	-0,034
320,925	209,014	-0,195	-0,210
321,939	219,769	-0,174	-0,192
322,954	-105,929	-0,080	-0,012
323,968	117,530	-0,091	-0,077
324,983	-45,094	-0,048	-0,016
325,997	-60,119	-0,205	-0,060
327,012	273,041	-0,127	-0,155
328,027	234,881	-0,134	-0,152
329,041	-96,093	-0,235	-0,043
330,056	29,082	-0,151	-0,088
331,070	169,209	-0,123	-0,121
332,085	-200,000	0,002	-0,023
333,100	93,425	-0,124	-0,096
334,114	365,851	-0,188	-0,262
335,129	-11,072	-0,200	-0,090
336,143	160,622	-0,095	-0,091
337,158	33,001	-0,128	-0,076
338,173	171,088	-0,142	-0,140
339,187	-141,255	-0,149	0,010
340,202	-75,410	-0,081	-0,020
341,216	-69,143	-0,122	0,032
342,231	-173,214	-0,233	0,005
343,246	47,678	-0,124	-0,079
344,260	43,503	-0,216	-0,136
345,275	304,153	-0,162	-0,206
346,289	55,094	-0,135	-0,089
347,304	345,889	-0,097	-0,131
348,319	-2,192	-0,179	-0,086
349,333	248,456	-0,108	-0,126
350,348	527,432	-0,084	-0,136
351,362	741,932	-0,093	-0,172
352,377	-53,957	-0,121	-0,038
353,392	-87,246	-0,161	0,033
354,406	-166,890	-0,119	0,003
355,421	208,980	1312,124	1411,814
356,435	160,816	1472,558	1412,310
