DTS Sentinel unit serial number:	SN410029Multiplexer serial number:	ORYXHardware model number:	OX2-SRSoftware version number:	ORYX F/W v4,00 Oryx Data Collector v3.7.2.0data status	okinstallation	B3 Nyhavnadifferential loss correction	single-endedforward channel	channel 1reverse channel	N/Adate	2023/12/03time	12:22:30forward acquisition time	300,00reverse acquisition time	0,00gamma	499,1914k internal	0,3200k external	0,3200temperature offset calibration	1,0000default loss term (dB/km)	0,3820temperature slope calibration	1,0000multiplexer offset coefficient	1,0000multiplexer slope coefficient	1,0000fibre end	0,00T internal ref (°C)	13,99T ext. ref 1 (°C)	0,02T ext. ref 2 (°C)	-0,00length (m)	temperature (°C)	Stokes	anti-Stokes-744,400	138,784	-0,228	-0,218
-743,385	-200,000	-0,096	0,325
-742,371	800,000	-0,106	-0,242
-741,356	-200,000	0,071	0,290
-740,342	265,640	-0,158	-0,201
-739,327	-200,000	0,037	0,337
-738,312	129,803	-0,237	-0,220
-737,298	800,000	-0,136	0,293
-736,283	2,732	-0,227	-0,119
-735,269	-200,000	-0,066	0,523
-734,254	94,764	-0,194	-0,160
-733,239	266,746	-0,146	0,186
-732,225	469,739	-0,199	-0,327
-731,210	-200,000	0,022	0,131
-730,196	-42,072	0,113	-0,042
-729,181	438,055	-0,080	0,127
-728,167	-93,157	0,108	-0,022
-727,152	-71,703	-0,175	0,047
-726,137	-94,111	0,049	0,010
-725,123	-0,053	-0,108	-0,055
-724,108	112,690	-0,113	-0,100
-723,094	193,431	-0,067	-0,073
-722,079	76,456	0,024	0,018
-721,064	-97,351	0,053	0,010
-720,050	800,000	0,016	0,039
-719,035	275,745	0,073	0,094
-718,021	82,529	-0,058	0,045
-717,006	800,000	-0,098	-0,208
-715,991	-200,000	0,014	-0,086
-714,977	438,219	-0,018	-0,029
-713,962	567,455	-0,037	-0,066
-712,948	-108,306	-0,091	0,014
-711,933	189,062	-0,063	0,069
-710,918	33,004	-0,058	-0,036
-709,904	-200,000	0,020	-0,214
-708,889	440,181	-0,009	-0,015
-707,875	551,738	-0,083	-0,146
-706,860	-153,791	-0,195	-0,010
-705,845	800,000	-0,013	-0,035
-704,831	548,476	-0,045	0,078
-703,816	-200,000	-0,028	-0,129
-702,802	-70,272	-0,152	-0,042
-701,787	218,691	0,027	-0,031
-700,772	-50,043	-0,158	0,054
-699,758	325,506	0,044	-0,061
-698,743	573,253	0,121	-0,216
-697,729	416,175	0,078	-0,121
-696,714	732,675	0,073	-0,143
-695,699	-144,119	-0,148	0,010
-694,685	9,660	-0,055	0,030
-693,670	-200,000	-0,023	-0,225
-692,656	176,916	-0,008	-0,008
-691,641	800,000	0,017	-0,040
-690,627	-200,000	0,025	0,113
-689,612	459,997	0,008	-0,013
-688,597	-200,000	0,021	-0,156
-687,583	637,282	-0,096	-0,178
-686,568	427,929	0,071	-0,112
-685,554	441,848	-0,061	-0,097
-684,539	-200,000	-0,001	0,078
-683,524	-200,000	0,040	-0,222
-682,510	-34,435	-0,214	-0,085
-681,495	432,266	-0,048	-0,076
-680,481	369,829	0,019	0,028
-679,466	-200,000	0,005	-0,125
-678,451	-158,763	0,057	0,002
-677,437	-192,029	0,112	-0,001
-676,422	-200,000	-0,017	0,081
-675,408	132,788	-0,027	0,025
-674,393	-87,310	-0,129	0,028
-673,378	800,000	-0,055	-0,117
-672,364	800,000	-0,034	-0,100
-671,349	-200,000	-0,001	-0,022
-670,335	-200,000	0,020	-0,072
-669,320	92,633	0,060	0,049
-668,305	800,000	0,023	-0,049
-667,291	485,021	-0,056	-0,092
-666,276	128,412	-0,085	-0,078
-665,262	-200,000	0,018	0,064
-664,247	71,331	-0,108	0,081
-663,232	148,088	0,133	-0,130
-662,218	-200,000	-0,015	0,051
-661,203	-42,064	-0,071	-0,026
-660,189	-45,109	-0,057	0,020
-659,174	-92,036	-0,081	-0,016
-658,159	-69,449	-0,148	0,041
-657,145	-200,000	0,003	0,037
-656,130	-200,000	-0,015	-0,071
-655,116	47,225	-0,104	-0,070
-654,101	243,208	0,061	0,074
-653,086	228,070	0,020	-0,024
-652,072	298,195	-0,047	-0,063
-651,057	-200,000	-0,037	-0,132
-650,043	327,454	0,059	-0,083
-649,028	-121,975	0,101	0,012
-648,014	-186,171	0,057	0,001
-646,999	-123,116	0,116	0,013
-645,984	127,853	-0,051	-0,047
-644,970	-124,591	-0,113	-0,013
-643,955	179,476	-0,124	0,132
-642,941	29,721	-0,079	0,049
-641,926	278,610	0,066	-0,085
-640,911	172,292	-0,065	0,068
-639,897	190,284	0,041	-0,045
-638,882	210,763	-0,047	0,054
-637,868	-50,083	-0,024	-0,008
-636,853	36,834	0,140	-0,089
-635,838	-200,000	0,008	0,037
-634,824	-8,083	-0,110	-0,053
-633,809	-200,000	0,003	-0,041
-632,795	-113,939	0,079	-0,011
-631,780	-200,000	0,027	0,130
-630,765	-162,274	0,009	-0,000
-629,751	206,842	0,065	-0,074
-628,736	467,528	0,062	-0,101
-627,722	-157,178	-0,036	-0,002
-626,707	-86,544	0,119	0,026
-625,692	-50,444	-0,046	-0,016
-624,678	678,132	0,080	0,152
-623,663	800,000	0,023	0,050
-622,649	-200,000	0,022	-0,118
-621,634	739,129	-0,052	-0,102
-620,619	108,398	0,031	-0,027
-619,605	-169,902	0,083	-0,002
-618,590	-19,213	-0,057	0,025
-617,576	-200,000	0,011	0,069
-616,561	311,072	0,010	0,013
-615,546	-16,490	-0,087	0,040
-614,532	443,637	-0,032	-0,052
-613,517	800,000	-0,005	0,016
-612,503	-11,533	-0,056	0,027
-611,488	-37,713	0,113	0,043
-610,474	-200,000	-0,010	0,059
-609,459	-200,000	0,024	0,087
-608,444	-200,000	0,003	0,140
-607,430	-200,000	-0,003	-0,041
-606,415	800,000	0,011	0,031
-605,401	-42,388	-0,063	0,023
-604,386	-55,597	0,106	0,034
-603,371	-19,014	-0,037	0,016
-602,357	15,588	0,080	0,045
-601,342	75,002	-0,144	0,110
-600,328	22,673	-0,224	-0,132
-599,313	487,422	-0,051	-0,085
-598,298	-200,000	-0,002	0,065
-597,284	-200,000	0,006	0,136
-596,269	221,394	0,036	-0,041
-595,255	-81,440	0,049	0,011
-594,240	-200,000	-0,013	-0,068
-593,225	-150,061	0,081	0,004
-592,211	359,541	-0,035	0,050
-591,196	20,674	-0,073	0,043
-590,182	-141,137	0,130	0,009
-589,167	233,212	-0,028	-0,033
-588,152	-140,890	0,030	-0,002
-587,138	5,256	-0,072	-0,038
-586,123	-128,183	-0,180	0,018
-585,109	-200,000	0,013	-0,056
-584,094	800,000	0,027	-0,058
-583,079	800,000	-0,067	0,163
-582,065	593,276	0,120	0,215
-581,050	-200,000	-0,024	0,131
-580,036	-22,229	-0,115	0,050
-579,021	-71,828	-0,206	0,055
-578,006	86,897	-0,090	-0,072
-576,992	78,023	0,028	-0,022
-575,977	-200,000	-0,017	0,089
-574,963	729,123	-0,020	0,038
-573,948	13,456	0,127	-0,071
-572,934	122,766	0,101	-0,091
-571,919	214,179	-0,071	0,081
-570,904	-30,541	0,009	0,004
-569,890	137,921	-0,073	-0,069
-568,875	800,000	-0,016	-0,032
-567,861	-44,679	0,117	-0,042
-566,846	328,653	-0,079	0,110
-565,831	-200,000	0,027	-0,106
-564,817	800,000	-0,082	-0,204
-563,802	-200,000	-0,008	0,038
-562,788	-6,499	-0,093	-0,045
-561,773	-200,000	0,016	0,114
-560,758	-30,957	0,134	0,054
-559,744	-102,253	-0,034	-0,006
-558,729	-200,000	0,010	-0,040
-557,715	-64,741	0,107	0,031
-556,700	-200,000	-0,007	-0,038
-555,685	208,681	0,066	-0,074
-554,671	-132,902	-0,114	0,010
-553,656	-200,000	0,009	0,043
-552,642	106,395	0,039	0,033
-551,627	507,911	-0,075	0,126
-550,612	5,792	0,044	-0,023
-549,598	-200,000	0,016	0,243
-548,583	-27,199	-0,158	0,066
-547,569	-145,281	-0,144	0,009
-546,554	196,286	-0,071	0,078
-545,539	359,016	0,121	0,175
-544,525	517,319	-0,030	0,052
-543,510	-22,344	0,016	-0,007
-542,496	800,000	-0,025	0,058
-541,481	-200,000	-0,009	-0,036
-540,466	97,801	0,012	0,010
-539,452	-200,000	0,109	0,000
-538,437	-89,036	0,116	-0,025
-537,423	-129,716	0,117	-0,011
-536,408	-200,000	-0,015	-0,085
-535,393	157,944	-0,039	-0,039
-534,379	584,375	-0,050	-0,088
-533,364	114,106	0,055	0,048
-532,350	47,214	0,168	-0,113
-531,335	440,912	0,084	-0,132
-530,321	800,000	0,011	0,029
-529,306	-200,000	0,001	-0,155
-528,291	98,343	0,023	-0,019
-527,277	-200,000	-0,004	-0,098
-526,262	-200,000	0,003	-0,074
-525,248	738,559	0,082	-0,159
-524,233	618,502	-0,063	0,115
-523,218	-131,841	0,231	-0,022
-522,204	-101,740	-0,090	-0,016
-521,189	83,531	-0,132	0,104
-520,175	-22,033	0,135	0,059
-519,160	577,856	-0,045	0,080
-518,145	184,863	0,128	-0,138
-517,131	-200,000	-0,066	0,229
-516,116	212,192	0,035	-0,040
-515,102	-200,000	-0,020	-0,081
-514,087	800,000	-0,034	-0,096
-513,072	130,941	-0,147	-0,136
-512,058	43,164	-0,092	-0,060
-511,043	-200,000	0,033	-0,166
-510,029	800,000	-0,049	-0,124
-509,014	150,411	-0,104	0,102
-507,999	252,760	0,038	0,046
-506,985	800,000	0,016	-0,048
-505,970	-36,762	0,140	-0,054
-504,956	428,406	0,038	-0,059
-503,941	550,570	0,043	-0,074
-502,926	-132,759	0,051	-0,005
-501,912	-107,196	0,203	-0,032
-500,897	28,549	-0,071	0,043
-499,883	-171,975	0,021	-0,000
-498,868	800,000	-0,049	-0,121
-497,853	-120,984	-0,072	0,009
-496,839	119,385	0,068	-0,061
-495,824	-106,366	0,029	-0,005
-494,810	800,000	-0,013	-0,032
-493,795	14,968	0,035	0,020
-492,781	800,000	0,031	0,095
-491,766	270,212	-0,132	0,168
-490,751	200,201	-0,110	-0,121
-489,737	-200,000	0,023	-0,099
-488,722	-21,757	0,099	-0,043
-487,708	-42,030	0,071	0,026
-486,693	-5,577	-0,081	-0,040
-485,678	-200,000	-0,011	-0,036
-484,664	196,955	0,058	0,064
-483,649	-6,126	-0,196	0,096
-482,635	48,206	-0,097	-0,065
-481,620	111,653	0,104	0,090
-480,605	-200,000	0,005	0,163
-479,591	98,569	0,066	0,055
-478,576	-25,510	-0,048	-0,020
-477,562	800,000	0,030	-0,090
-476,547	265,745	-0,094	-0,118
-475,532	-200,000	-0,023	0,214
-474,518	-4,495	0,142	0,071
-473,503	329,652	-0,106	0,147
-472,489	-200,000	0,003	0,123
-471,474	-199,186	0,101	0,000
-470,459	275,167	-0,103	-0,132
-469,445	-200,000	0,037	0,160
-468,430	800,000	-0,033	0,074
-467,416	-120,135	-0,049	-0,006
-466,401	-200,000	0,022	0,199
-465,386	800,000	0,045	-0,119
-464,372	271,959	0,019	0,024
-463,357	224,855	-0,096	-0,112
-462,343	13,482	-0,092	-0,051
-461,328	800,000	-0,045	0,093
-460,313	-34,053	-0,094	-0,037
-459,299	800,000	0,055	0,141
-458,284	-200,000	0,048	-0,184
-457,270	139,179	0,051	-0,048
-456,255	199,451	0,102	-0,113
-455,241	-29,575	0,119	0,049
-454,226	225,403	-0,140	-0,163
-453,211	-189,461	0,099	0,001
-452,197	-82,374	0,065	0,015
-451,182	-149,443	0,049	-0,003
-450,168	-135,484	-0,069	0,006
-449,153	304,296	-0,061	0,081
-448,138	-40,354	-0,062	0,023
-447,124	-108,749	-0,080	-0,012
-446,109	66,297	0,038	0,028
-445,095	-80,272	0,129	-0,031
-444,080	800,000	0,015	-0,047
-443,065	800,000	-0,039	-0,082
-442,051	800,000	0,025	0,062
-441,036	304,011	-0,037	-0,049
-440,022	-200,000	-0,012	-0,130
-439,007	151,415	-0,125	-0,122
-437,992	77,805	0,067	0,052
-436,978	-3,110	-0,050	-0,025
-435,963	-71,446	-0,150	0,040
-434,949	-200,000	-0,013	0,098
-433,934	3,707	-0,108	0,057
-432,919	-200,000	-0,001	0,058
-431,905	6,526	-0,125	-0,067
-430,890	-163,347	0,316	-0,011
-429,876	-47,377	-0,114	-0,040
-428,861	272,112	0,055	0,069
-427,846	800,000	-0,048	0,105
-426,832	-200,000	0,012	-0,123
-425,817	-200,000	0,009	-0,076
-424,803	-200,000	-0,012	-0,069
-423,788	-200,000	0,030	-0,163
-422,773	800,000	-0,020	0,054
-421,759	-126,364	0,073	-0,008
-420,744	152,687	-0,078	0,076
-419,730	-42,243	-0,088	-0,032
-418,715	434,992	-0,042	-0,066
-417,701	-2,364	0,087	-0,043
-416,686	-18,189	-0,044	-0,019
-415,671	346,456	-0,010	-0,014
-414,657	77,517	0,144	-0,110
-413,642	-200,000	0,030	-0,096
-412,628	800,000	-0,057	0,135
-411,613	432,625	-0,030	-0,047
-410,598	85,097	-0,151	-0,119
-409,584	3,708	0,111	-0,058
-408,569	-200,000	0,000	-0,001
-407,555	0,624	0,044	0,022
-406,540	-55,650	-0,069	-0,022
-405,525	-200,000	-0,006	-0,064
-404,511	359,717	-0,089	-0,129
-403,496	85,637	0,051	-0,040
-402,482	644,582	-0,024	0,044
-401,467	-200,000	0,017	0,098
-400,452	19,822	0,024	-0,014
-399,438	264,610	-0,039	0,049
-398,423	-76,083	0,073	-0,018
-397,409	-128,018	0,013	0,001
-396,394	666,664	-0,060	0,112
-395,379	-200,000	0,000	-0,129
-394,365	2,820	0,108	0,056
-393,350	-101,415	-0,130	-0,022
-392,336	-117,553	0,062	0,008
-391,321	112,022	-0,058	0,051
-390,306	139,786	-0,020	0,019
-389,292	-200,000	0,018	-0,124
-388,277	-200,000	0,010	0,063
-387,263	-200,000	-0,042	-0,136
-386,248	-200,000	0,016	0,190
-385,233	-200,000	0,001	0,031
-384,219	798,322	0,007	-0,014
-383,204	-200,000	0,007	-0,026
-382,190	186,669	-0,066	-0,070
-381,175	-127,665	0,088	-0,009
-380,160	768,556	-0,020	-0,039
-379,146	800,000	-0,025	0,056
-378,131	195,999	0,010	-0,011
-377,117	-200,000	-0,002	0,207
-376,102	-200,000	0,010	0,071
-375,088	305,199	-0,117	-0,157
-374,073	118,963	-0,166	-0,147
-373,058	-16,556	0,167	-0,076
-372,044	115,959	0,064	0,056
-371,029	24,037	0,050	-0,030
-370,015	383,319	0,061	0,091
-369,000	800,000	0,044	-0,091
-367,985	-81,586	-0,049	0,011
-366,971	94,138	0,043	-0,035
-365,956	-200,000	0,028	0,103
-364,942	800,000	-0,050	0,155
-363,927	787,293	-0,033	0,065
-362,912	-200,000	0,014	0,140
-361,898	-200,000	-0,038	0,126
-360,883	-128,456	-0,123	-0,012
-359,869	-134,956	0,004	0,000
-358,854	-24,778	0,043	-0,018
-357,839	800,000	-0,036	0,098
-356,825	-200,000	0,022	0,095
-355,810	-126,866	-0,083	-0,009
-354,796	-47,580	0,074	-0,026
-353,781	-75,074	-0,125	0,032
-352,766	-77,824	0,017	-0,004
-351,752	210,486	0,052	0,058
-350,737	655,834	0,040	-0,074
-349,723	649,125	-0,023	0,041
-348,708	-6,504	0,117	0,057
-347,693	4,788	-0,100	-0,052
-346,679	-200,000	0,072	-0,000
-345,664	-200,000	-0,011	-0,086
-344,650	800,000	0,043	0,096
-343,635	5,452	-0,057	-0,030
-342,620	800,000	-0,015	0,041
-341,606	166,097	-0,053	-0,054
-340,591	237,283	-0,026	-0,031
-339,577	-168,175	-0,117	0,003
-338,562	37,693	-0,046	0,029
-337,548	-87,763	0,094	0,020
-336,533	3,301	-0,094	0,049
-335,518	-200,000	0,037	-0,292
-334,504	-98,474	0,081	-0,015
-333,489	-80,404	-0,058	0,014
-332,475	-200,000	-0,017	0,091
-331,460	-200,000	-0,011	0,046
-330,445	800,000	-0,059	0,164
-329,431	-122,455	0,170	0,020
-328,416	11,339	0,097	0,053
-327,402	-200,000	0,026	-0,143
-326,387	49,729	-0,049	0,033
-325,372	-200,000	0,006	0,037
-324,358	-79,483	-0,125	0,030
-323,343	800,000	0,034	-0,081
-322,329	184,415	-0,013	0,013
-321,314	133,598	0,184	0,170
-320,299	63,206	-0,010	0,007
-319,285	135,993	0,085	-0,079
-318,270	800,000	-0,049	0,101
-317,256	373,557	-0,062	-0,090
-316,241	328,469	-0,052	0,072
-315,226	-200,000	-0,008	0,083
-314,212	212,780	0,040	0,046
-313,197	-200,000	0,007	0,045
-312,183	800,000	-0,061	0,138
-311,168	255,576	0,051	-0,062
-310,153	800,000	0,008	-0,017
-309,139	-200,000	0,002	0,064
-308,124	72,355	0,172	0,128
-307,110	39,421	-0,054	-0,035
-306,095	-200,000	-0,001	0,160
-305,080	181,385	0,139	0,146
-304,066	-30,153	-0,023	0,009
-303,051	800,000	-0,054	-0,116
-302,037	-200,000	-0,018	-0,081
-301,022	-200,000	-0,001	-0,020
-300,008	-46,841	0,068	-0,024
-298,993	800,000	0,035	-0,110
-297,978	60,779	0,075	-0,053
-296,964	321,780	0,062	0,085
-295,949	27,666	0,048	-0,029
-294,935	-200,000	0,001	0,122
-293,920	385,965	-0,057	-0,084
-292,905	800,000	0,054	-0,165
-291,891	-95,058	0,089	0,017
-290,876	581,775	-0,040	0,071
-289,862	310,777	-0,078	-0,105
-288,847	-32,229	0,192	-0,076
-287,832	800,000	-0,060	0,157
-286,818	-96,249	-0,149	-0,028
-285,803	-128,026	0,091	0,009
-284,789	-51,422	0,063	0,021
-283,774	-200,000	-0,037	0,132
-282,759	-2,466	0,030	-0,015
-281,745	730,022	-0,093	-0,178
-280,730	290,779	-0,104	0,135
-279,716	6,293	-0,091	0,048
-278,701	-148,708	0,069	0,004
-277,686	185,965	-0,096	-0,102
-276,672	-140,982	0,088	-0,006
-275,657	800,000	0,010	0,030
-274,643	86,087	-0,131	-0,103
-273,628	-200,000	-0,045	-0,169
-272,613	-200,000	0,009	-0,213
-271,599	362,826	0,109	0,157
-270,584	-200,000	0,020	0,064
-269,570	-111,678	-0,102	0,015
-268,555	9,193	0,080	-0,043
-267,540	800,000	0,010	0,030
-266,526	800,000	-0,033	0,075
-265,511	83,171	-0,112	-0,087
-264,497	-63,840	-0,036	0,010
-263,482	-110,168	-0,030	-0,004
-262,467	4,527	0,135	0,070
-261,453	684,558	-0,033	-0,062
-260,438	199,364	-0,024	-0,026
-259,424	64,417	-0,063	0,045
-258,409	-200,000	-0,021	-0,107
-257,395	74,810	-0,037	-0,028
-256,380	29,074	0,059	0,036
-255,365	800,000	0,023	0,069
-254,351	-200,000	-0,014	-0,057
-253,336	685,011	-0,036	-0,067
-252,322	-81,361	-0,165	0,038
-251,307	-200,000	-0,003	0,063
-250,292	506,569	-0,056	-0,093
-249,278	36,265	0,095	0,060
-248,263	86,868	0,064	0,050
-247,249	-200,000	-0,025	0,125
-246,234	-152,010	-0,020	-0,001
-245,219	82,675	-0,025	-0,020
-244,205	-200,000	0,018	-0,086
-243,190	800,000	-0,046	-0,112
-242,176	-35,395	-0,105	-0,041
-241,161	575,500	0,037	0,065
-240,146	-200,000	-0,019	0,080
-239,132	-109,716	0,022	0,003
-238,117	-200,000	-0,006	-0,112
-237,103	-21,541	-0,091	-0,039
-236,088	800,000	-0,057	-0,129
-235,073	-146,296	0,102	0,006
-234,059	171,842	-0,043	-0,044
-233,044	48,320	0,169	0,113
-232,030	-94,407	-0,174	0,034
-231,015	-9,634	-0,091	-0,043
-230,000	388,086	0,037	0,055
-228,986	682,412	0,021	0,039
-227,971	170,597	0,024	0,024
-226,957	30,433	0,027	0,017
-225,942	-16,339	-0,108	-0,049
-224,927	160,939	0,103	0,102
-223,913	-200,000	-0,023	0,120
-222,898	-200,000	-0,040	-0,152
-221,884	-134,876	0,126	0,011
-220,869	208,102	0,056	0,062
-219,855	388,687	0,057	0,085
-218,840	19,202	-0,045	-0,026
-217,825	-200,000	-0,026	0,146
-216,811	315,427	0,013	0,017
-215,796	530,475	-0,038	-0,064
-214,782	28,006	0,063	-0,038
-213,767	-162,809	0,065	-0,002
-212,752	-200,000	0,014	0,055
-211,738	800,000	0,047	0,144
-210,723	549,092	0,054	0,092
-209,709	-200,000	0,005	0,073
-208,694	9,403	-0,078	0,042
-207,679	-200,000	0,005	-0,025
-206,665	-108,137	-0,078	0,012
-205,650	-167,833	0,088	0,002
-204,636	800,000	0,063	-0,161
-203,621	564,032	-0,044	-0,077
-202,606	-172,493	0,064	-0,001
-201,592	415,671	-0,074	-0,113
-200,577	-30,169	-0,122	-0,049
-199,563	800,000	0,060	-0,120
-198,548	92,431	0,092	0,074
-197,533	449,786	-0,050	-0,078
-196,519	-52,767	-0,101	-0,033
-195,504	-109,807	0,127	-0,019
-194,490	-3,994	-0,085	-0,042
-193,475	212,803	-0,079	0,088
-192,460	785,050	0,017	-0,034
-191,446	225,212	-0,050	0,058
-190,431	-103,945	0,006	0,001
-189,417	0,046	0,051	0,026
-188,402	-11,627	-0,125	-0,058
-187,387	-5,012	-0,187	-0,092
-186,373	41,102	0,075	-0,048
-185,358	283,814	-0,052	-0,067
-184,344	-200,000	0,013	-0,180
-183,329	-84,628	0,070	-0,016
-182,315	429,669	0,053	-0,082
-181,300	595,111	-0,010	0,017
-180,285	-200,000	0,006	-0,058
-179,271	113,300	0,006	0,005
-178,256	-200,000	0,001	0,132
-177,242	80,308	0,202	0,155
-176,227	-200,000	-0,003	-0,016
-175,212	-139,207	0,131	-0,010
-174,198	642,392	0,079	0,143
-173,183	-42,348	0,046	0,017
-172,169	800,000	-0,020	0,062
-171,154	-113,913	0,135	0,018
-170,139	114,889	-0,063	0,054
-169,125	13,902	-0,105	0,058
-168,110	-200,000	0,024	-0,120
-167,096	-200,000	0,005	-0,064
-166,081	683,531	0,096	-0,179
-165,066	-200,000	-0,018	-0,133
-164,052	-50,528	0,023	-0,008
-163,037	565,890	-0,035	0,060
-162,023	-21,819	0,049	-0,021
-161,008	-200,000	-0,003	0,041
-159,993	779,938	0,034	0,067
-158,979	259,695	0,076	-0,094
-157,964	-200,000	-0,003	-0,136
-156,950	50,338	0,072	-0,048
-155,935	-200,000	0,013	0,071
-154,920	1,803	-0,143	-0,073
-153,906	82,147	0,039	0,030
-152,891	334,070	0,083	-0,114
-151,877	118,066	-0,076	-0,066
-150,862	255,034	-0,114	-0,139
-149,847	-200,000	0,012	-0,061
-148,833	-134,979	0,059	-0,005
-147,818	800,000	-0,041	-0,090
-146,804	800,000	-0,020	0,054
-145,789	800,000	0,009	-0,020
-144,775	14,206	0,143	-0,079
-143,760	600,807	-0,058	-0,103
-142,745	-200,000	-0,025	-0,173
-141,731	-200,000	-0,007	-0,153
-140,716	-200,000	0,009	0,120
-139,702	376,169	-0,004	0,006
-138,687	-39,620	-0,175	-0,065
-137,672	-200,000	-0,037	-0,154
-136,658	800,000	0,027	0,064
-135,643	-200,000	0,024	-0,186
-134,629	30,698	-0,037	0,023
-133,614	-95,497	0,123	0,023
-132,599	-55,795	-0,050	0,016
-131,585	-147,737	-0,008	-0,000
-130,570	800,000	-0,045	0,089
-129,556	-40,341	0,059	0,022
-128,541	-200,000	0,035	-0,123
-127,526	-200,000	-0,028	0,102
-126,512	223,175	0,109	-0,125
-125,497	16,863	0,063	-0,035
-124,483	800,000	-0,013	-0,037
-123,468	-162,421	0,028	-0,001
-122,453	-94,475	-0,092	0,018
-121,439	377,705	-0,081	-0,118
-120,424	-191,880	-0,137	-0,001
-119,410	-200,000	0,039	0,181
-118,395	-2,909	0,035	0,017
-117,380	-200,000	0,026	0,170
-116,366	74,114	-0,081	-0,060
-115,351	206,130	0,058	-0,064
-114,337	256,446	-0,050	0,061
-113,322	-15,498	-0,016	-0,007
-112,307	30,062	-0,046	0,027
-111,293	469,124	0,058	0,093
-110,278	785,265	0,026	-0,051
-109,264	177,315	0,115	0,119
-108,249	86,289	-0,122	-0,095
-107,234	800,000	0,016	0,049
-106,220	-22,116	-0,150	-0,064
-105,205	-200,000	0,000	-0,038
-104,191	-200,000	0,011	-0,050
-103,176	38,601	0,029	0,019
-102,162	-137,487	-0,102	0,008
-101,147	-2,951	0,137	-0,068
-100,132	-146,280	-0,165	-0,010
-99,118	800,000	0,018	-0,052
-98,103	-108,605	-0,048	-0,007
-97,089	-200,000	-0,014	0,066
-96,074	-25,203	-0,065	0,027
-95,059	2,962	-0,096	0,049
-94,045	-183,516	-0,104	-0,001
-93,030	422,540	0,087	-0,133
-92,016	98,249	-0,016	0,013
-91,001	326,591	0,028	0,038
-89,986	-175,887	0,055	0,001
-88,972	1,922	-0,073	-0,037
-87,957	4,255	0,056	-0,029
-86,943	-200,000	-0,008	0,028
-85,928	109,401	-0,050	0,042
-84,913	-131,409	-0,176	-0,016
-83,899	800,000	0,046	0,096
-82,884	-77,782	0,137	-0,033
-81,870	-200,000	0,005	-0,032
-80,855	73,121	0,176	-0,130
-79,840	-108,449	-0,058	0,009
-78,826	-96,775	0,044	0,008
-77,811	-200,000	-0,013	-0,093
-76,797	149,907	0,124	-0,119
-75,782	-67,773	0,106	-0,029
-74,767	-57,823	0,056	0,017
-73,753	-200,000	0,009	0,052
-72,738	391,173	-0,139	0,206
-71,724	11,128	-0,141	0,076
-70,709	231,050	-0,047	-0,054
-69,694	-127,713	-0,100	-0,010
-68,680	53,946	-0,105	-0,071
-67,665	41,940	0,202	-0,129
-66,651	800,000	0,048	0,107
-65,636	346,817	0,058	-0,081
-64,622	-137,249	-0,101	-0,008
-63,607	-65,828	-0,119	0,033
-62,592	28,283	0,043	-0,026
-61,578	14,555	0,031	0,017
-60,563	800,000	0,036	0,085
-59,549	-12,668	0,056	0,026
-58,534	-31,408	-1,579	-0,626
-57,519	347,398	-1,500	-2,098
-56,505	-200,000	-0,588	-4,448
-55,490	251,814	0,973	1,176
-54,476	800,000	4,794	10,967
-53,461	-200,000	18,659	304,346
-52,446	800,000	736,405	2291,602
-51,432	567,841	1652,271	2852,865
-50,417	78,766	1668,753	1262,746
-49,403	21,905	1541,958	887,688
-48,388	15,841	1464,475	813,641
-47,373	17,740	1454,401	817,175
-46,359	16,769	1444,912	807,163
-45,344	14,104	1440,084	791,683
-44,330	14,072	1437,953	790,328
-43,315	14,062	1436,362	789,376
-42,300	14,032	1434,885	788,390
-41,286	14,072	1433,466	787,769
-40,271	14,042	1432,307	786,957
-39,257	14,055	1430,992	786,264
-38,242	14,069	1429,756	785,622
-37,227	14,075	1428,693	785,035
-36,213	14,094	1427,301	784,326
-35,198	14,096	1426,221	783,714
-34,184	14,158	1425,057	783,336
-33,169	14,078	1423,756	782,212
-32,154	14,120	1422,644	781,768
-31,140	14,116	1421,470	781,072
-30,125	14,093	1420,463	780,378
-29,111	14,063	1419,302	779,571
-28,096	14,063	1418,318	778,999
-27,082	14,050	1417,033	778,201
-26,067	14,008	1416,093	777,456
-25,052	14,015	1414,911	776,810
-24,038	13,991	1413,993	776,162
-23,023	14,009	1413,040	775,690
-22,009	14,005	1412,014	775,077
-20,994	13,966	1410,927	774,267
-19,979	13,927	1410,358	773,742
-18,965	13,891	1409,345	772,988
-17,950	13,967	1408,373	772,779
-16,936	13,946	1407,472	772,156
-15,921	13,896	1406,421	771,317
-14,906	13,964	1405,392	771,039
-13,892	13,992	1404,233	770,502
-12,877	13,921	1403,539	769,761
-11,863	13,926	1402,750	769,321
-10,848	13,936	1401,830	768,833
-9,833	13,880	1401,149	768,167
-8,819	13,857	1400,123	767,466
-7,804	13,843	1399,070	766,792
-6,790	13,829	1398,026	766,128
-5,775	13,823	1397,037	765,527
-4,760	13,828	1395,996	764,951
-3,746	13,824	1395,071	764,391
-2,731	13,826	1394,418	764,012
-1,717	13,810	1393,481	763,398
-0,702	13,800	1391,791	762,396
0,313	17,693	1309,993	735,601
1,327	34,275	705,220	434,377
2,342	52,657	124,092	83,759
3,356	0,282	16,679	8,394
4,371	-1,722	3,198	1,588
5,386	-33,963	0,601	0,233
6,400	79,487	0,115	0,087
7,415	182,684	-0,239	-0,249
8,429	199,262	-0,350	-0,380
9,444	-18,402	-0,349	-0,153
10,459	-66,194	-0,342	-0,096
11,473	0,745	-0,425	-0,214
12,488	48,607	-0,205	-0,136
13,502	168,940	-0,293	-0,296
14,517	53,818	-0,282	-0,191
15,531	-61,247	-0,464	-0,137
16,546	37,531	-0,535	-0,335
17,561	211,029	-0,297	-0,331
18,575	-71,824	-0,174	-0,046
19,590	420,414	-0,194	-0,295
20,604	-51,396	-0,268	-0,088
21,619	15,891	-0,468	-0,260
22,634	-8,109	-0,412	-0,196
23,648	12,976	-0,466	-0,254
24,663	182,570	-0,387	-0,403
25,677	148,110	-0,450	-0,429
26,692	53,802	-0,348	-0,236
27,707	44,997	-0,424	-0,275
28,721	86,243	-0,337	-0,262
29,736	86,682	-0,404	-0,315
30,750	164,566	-0,383	-0,381
31,765	46,283	-0,365	-0,239
32,780	0,197	-0,425	-0,213
33,794	155,190	-0,258	-0,251
34,809	-43,582	-0,311	-0,110
35,823	219,423	-0,224	-0,253
36,838	90,321	-0,347	-0,274
37,853	128,870	-0,381	-0,343
38,867	41,997	-0,384	-0,246
39,882	424,538	-0,253	-0,386
40,896	97,089	-0,438	-0,354
41,911	184,617	-0,315	-0,329
42,926	120,722	-0,473	-0,414
43,940	121,903	-0,386	-0,340
44,955	148,904	-0,258	-0,246
45,969	80,396	-0,345	-0,262
46,984	71,832	-0,284	-0,208
47,999	162,690	-0,346	-0,342
49,013	87,805	-0,274	-0,214
50,028	179,629	-0,233	-0,240
51,042	212,184	-0,176	-0,196
52,057	63,249	-0,321	-0,226
53,071	150,868	-0,304	-0,291
54,086	184,130	-0,208	-0,218
55,101	-16,284	-0,378	-0,168
56,115	283,197	-0,329	-0,417
57,130	92,052	-0,235	-0,186
58,144	42,819	-0,370	-0,237
59,159	59,867	-0,564	-0,391
60,174	21,010	-0,436	-0,248
61,188	171,553	-0,468	-0,473
62,203	-35,382	-0,343	-0,131
63,217	167,042	-0,348	-0,348
64,232	115,383	-0,362	-0,311
65,247	26,581	-0,310	-0,182
66,261	20,992	-0,392	-0,223
67,276	86,881	-0,331	-0,257
68,290	45,382	-0,397	-0,257
69,305	20,327	-0,351	-0,199
70,320	107,835	-0,165	-0,139
71,334	39,475	-0,300	-0,189
72,349	-5,505	-0,369	-0,177
73,363	218,289	-0,272	-0,305
74,378	63,208	-0,286	-0,201
75,393	109,264	-0,196	-0,165
76,407	-42,019	-0,261	-0,093
77,422	-127,704	-0,250	0,025
78,436	-108,700	-0,299	-0,045
79,451	79,754	-0,350	-0,264
80,466	23,315	-0,333	-0,192
81,480	131,484	-0,304	-0,274
82,495	-43,207	-0,373	-0,132
83,509	46,409	-0,280	-0,182
84,524	-57,491	-0,307	-0,094
85,539	69,700	-0,176	-0,127
86,553	34,793	-0,253	-0,155
87,568	122,263	-0,214	-0,188
88,582	43,509	-0,386	-0,247
89,597	93,583	-0,344	-0,273
90,611	-10,933	-0,341	-0,158
91,626	122,970	-0,293	-0,258
92,641	54,859	-0,343	-0,232
93,655	4,654	-0,285	-0,147
94,670	91,911	-0,314	-0,248
95,684	-5,108	-0,382	-0,184
96,699	-8,653	-0,294	-0,138
97,714	-82,909	-0,205	-0,046
98,728	-2,519	-0,179	-0,088
99,743	212,819	-0,215	-0,239
100,757	31,289	-0,258	-0,155
101,772	180,150	-0,314	-0,323
102,787	66,986	-0,447	-0,319
103,801	163,562	-0,319	-0,315
104,816	261,152	-0,249	-0,303
105,830	151,129	-0,221	-0,211
106,845	-40,403	-0,274	-0,099
107,860	269,464	-0,217	-0,268
108,874	41,016	-0,308	-0,195
109,889	-4,455	-0,284	-0,137
110,903	55,972	-0,346	-0,235
111,918	111,725	-0,205	-0,173
112,933	109,981	-0,174	-0,147
113,947	141,338	-0,247	-0,229
114,962	73,298	-0,343	-0,251
115,976	180,389	-0,149	-0,153
116,991	-22,430	-0,370	-0,156
118,006	253,953	-0,208	-0,249
119,020	24,291	-0,277	-0,160
120,035	-146,636	-0,192	-0,011
121,049	-23,724	-0,317	-0,132
122,064	708,603	-0,087	-0,161
123,079	-21,113	-0,301	-0,129
124,093	131,695	-0,169	-0,152
125,108	-34,522	-0,354	-0,135
126,122	25,518	-0,163	-0,095
127,137	71,649	-0,263	-0,191
128,151	59,360	-0,232	-0,160
129,166	-119,948	-0,291	-0,035
130,181	406,318	-0,145	-0,215
131,195	118,870	-0,324	-0,280
132,210	240,528	-0,274	-0,320
133,224	76,731	-0,172	-0,128
134,239	-42,603	-0,286	-0,101
135,254	800,000	-0,105	-0,226
136,268	172,958	-0,263	-0,265
137,283	27,623	-0,262	-0,154
138,297	298,037	-0,146	-0,188
139,312	118,792	-0,247	-0,214
140,327	114,997	-0,213	-0,182
141,341	323,553	-0,177	-0,237
142,356	149,233	-0,135	-0,128
143,370	66,588	-0,280	-0,198
144,385	44,243	-0,238	-0,153
145,400	-7,568	-0,329	-0,155
146,414	44,397	-0,289	-0,185
147,429	208,199	-0,251	-0,274
148,443	-49,672	-0,312	-0,103
149,458	-20,880	-0,275	-0,117
150,473	164,911	-0,141	-0,139
151,487	140,122	-0,163	-0,150
152,502	226,303	-0,326	-0,370
153,516	85,359	-0,277	-0,213
154,531	3,389	-0,140	-0,071
155,546	20,630	-0,370	-0,208
156,560	132,781	-0,125	-0,112
157,575	-151,552	-0,267	0,014
158,589	16,246	-0,281	-0,154
159,604	361,690	-0,182	-0,256
160,619	60,405	-0,355	-0,245
161,633	64,461	-0,381	-0,267
162,648	134,901	-0,245	-0,222
163,662	-28,632	-0,123	-0,049
164,677	43,105	-0,202	-0,128
165,692	93,768	-0,260	-0,206
166,706	207,361	-0,211	-0,230
167,721	72,561	-0,271	-0,197
168,735	135,280	-0,239	-0,216
169,750	800,000	-0,136	-0,292
170,764	16,142	-0,294	-0,161
171,779	41,994	-0,135	-0,085
172,794	115,070	-0,156	-0,133
173,808	-65,062	-0,352	-0,098
174,823	63,211	-0,274	-0,191
175,837	50,834	-0,200	-0,132
176,852	102,863	-0,290	-0,236
177,867	21,122	-0,224	-0,126
178,881	17,274	-0,148	-0,082
179,896	-102,340	-0,299	-0,050
180,910	128,788	-0,270	-0,240
181,925	4,268	-0,385	-0,196
182,940	-29,047	-0,280	-0,111
183,954	14,113	-0,323	-0,175
184,969	53,603	-0,200	-0,134
185,983	-74,796	-0,106	-0,026
186,998	227,568	-0,172	-0,195
188,013	-14,294	-0,228	-0,102
189,027	26,778	-0,203	-0,118
190,042	131,995	-0,224	-0,201
191,056	78,555	-0,284	-0,211
192,071	46,020	-0,192	-0,123
193,086	-90,940	-0,272	-0,054
194,100	251,126	-0,170	-0,201
195,115	800,000	-0,119	-0,276
196,129	39,263	-0,279	-0,173
197,144	495,203	-0,231	-0,370
198,159	337,794	-0,227	-0,308
199,173	285,430	-0,173	-0,217
200,188	410,302	-0,164	-0,242
201,202	-200,000	0,010	-0,132
202,217	-18,054	-0,209	-0,091
203,232	-97,509	-0,181	-0,032
204,246	228,724	-0,221	-0,251
205,261	10,101	-0,302	-0,159
206,275	188,183	-0,328	-0,342
207,290	192,945	-0,146	-0,153
208,304	147,711	-0,115	-0,107
209,319	67,061	-0,231	-0,163
210,334	-61,282	-0,282	-0,082
211,348	131,430	-0,192	-0,172
212,363	72,577	-0,246	-0,178
213,377	7,372	-0,173	-0,089
214,392	79,340	-0,265	-0,197
215,407	-14,035	-0,158	-0,071
216,421	-120,162	-0,231	-0,027
217,436	41,744	-0,278	-0,174
218,450	330,388	-0,165	-0,221
219,465	127,598	-0,288	-0,254
220,480	237,326	-0,190	-0,219
221,494	4,389	-0,167	-0,085
222,509	-52,601	-0,279	-0,089
223,523	528,649	-0,040	-0,066
224,538	55,998	-0,233	-0,156
225,553	-69,747	-0,272	-0,072
226,567	-88,815	-0,312	-0,064
227,582	71,626	-0,258	-0,185
228,596	-144,373	-0,265	0,017
229,611	-56,247	-0,078	-0,024
230,626	-157,251	-0,282	-0,012
231,640	131,333	-0,181	-0,161
232,655	800,000	-0,097	-0,210
233,669	243,568	-0,171	-0,199
234,684	31,952	-0,231	-0,138
235,699	130,332	-0,153	-0,135
236,713	157,914	-0,188	-0,181
237,728	132,901	-0,247	-0,221
238,742	-8,039	-0,130	-0,060
239,757	273,312	-0,174	-0,214
240,772	72,603	-0,240	-0,173
241,786	109,435	-0,238	-0,197
242,801	277,732	-0,104	-0,128
243,815	31,187	-0,156	-0,092
244,830	128,046	-0,174	-0,153
245,844	800,000	-0,107	-0,220
246,859	100,289	-0,156	-0,125
247,874	-13,763	-0,161	-0,072
248,888	-11,007	-0,199	-0,091
249,903	123,279	-0,157	-0,136
250,917	587,938	-0,116	-0,199
251,932	-117,516	-0,077	-0,010
252,947	89,407	-0,227	-0,175
253,961	85,380	-0,147	-0,111
254,976	-29,655	-0,280	-0,110
255,990	465,767	-0,118	-0,183
257,005	62,704	-0,224	-0,155
258,020	368,401	-0,055	-0,077
259,034	-33,757	-0,225	-0,085
260,049	42,577	-0,255	-0,160
261,063	34,500	-0,241	-0,145
262,078	85,824	-0,223	-0,170
263,093	86,392	-0,243	-0,185
264,107	342,452	-0,152	-0,207
265,122	150,225	-0,225	-0,211
266,136	24,153	-0,187	-0,106
267,151	48,367	-0,163	-0,105
268,166	-200,000	-0,048	-0,150
269,180	224,223	-0,116	-0,130
270,195	272,767	-0,147	-0,179
271,209	109,605	-0,215	-0,178
272,224	161,727	-0,130	-0,126
273,239	-147,135	-0,273	-0,016
274,253	-12,736	-0,132	-0,059
275,268	233,222	-0,184	-0,209
276,282	352,826	-0,121	-0,167
277,297	552,010	-0,146	-0,243
278,312	-200,000	-0,080	-0,259
279,326	-143,794	-0,117	0,008
280,341	-99,516	-0,077	0,013
281,355	-151,421	-0,142	0,007
282,370	56,449	-0,227	-0,152
283,384	42,859	-0,119	-0,075
284,399	363,094	-0,143	-0,199
285,414	290,777	-0,115	-0,145
286,428	560,416	-0,091	-0,152
287,443	137,258	-0,146	-0,132
288,457	344,086	-0,087	-0,118
289,472	56,429	-0,164	-0,110
290,487	94,787	-0,110	-0,087
291,501	9,865	-0,204	-0,106
292,516	30,429	-0,205	-0,120
293,530	472,778	-0,151	-0,236
294,545	75,277	-0,122	-0,089
295,560	-72,394	-0,184	-0,047
296,574	-64,771	-0,185	0,051
297,589	-200,000	-0,048	-0,196
298,603	81,342	-0,242	-0,180
299,618	196,084	-0,171	-0,180
300,633	784,186	-0,124	-0,236
301,647	173,470	-0,126	-0,125
302,662	124,484	-0,111	0,096
303,676	-28,090	-0,060	0,024
304,691	184,683	-0,042	-0,043
305,706	130,113	-0,170	-0,150
306,720	-31,799	-0,142	-0,054
307,735	19,359	-0,143	-0,079
308,749	41,133	-0,229	-0,142
309,764	-200,000	-0,040	-0,148
310,779	22,482	-0,143	-0,080
311,793	329,436	-0,087	-0,115
312,808	567,795	-0,127	-0,212
313,822	129,279	-0,188	-0,165
314,837	457,912	-0,106	-0,163
315,852	-99,078	-0,103	0,018
316,866	168,255	-0,086	0,085
317,881	130,350	-0,142	-0,126
318,895	-2,150	-0,185	-0,089
319,910	157,975	-0,117	-0,112
320,925	81,063	-0,219	-0,163
321,939	596,987	-0,097	-0,167
322,954	-200,000	-0,080	0,000
323,968	-106,135	-0,291	-0,044
324,983	-200,000	0,006	0,149
325,997	-99,822	0,062	-0,011
327,012	20,627	-0,123	-0,068
328,027	460,206	-0,136	-0,209
329,041	-16,652	-0,235	-0,102
330,056	-200,000	0,030	-0,196
331,070	782,153	-0,096	-0,181
332,085	620,324	-0,114	-0,198
333,100	-112,692	-0,187	-0,025
334,114	353,389	-0,072	-0,099
335,129	800,000	-0,079	-0,165
336,143	247,062	-0,118	-0,138
337,158	-200,000	-0,039	-0,151
338,173	-187,517	-0,139	0,001
339,187	347,992	-0,069	-0,094
340,202	-14,238	-0,101	-0,044
341,216	-40,540	-0,165	-0,059
342,231	-111,948	-0,187	-0,026
343,246	271,571	-0,104	-0,126
344,260	-103,511	-0,066	0,011
345,275	-69,293	-0,052	-0,014
346,289	-124,214	-0,104	0,011
347,304	800,000	-0,087	-0,229
348,319	-63,228	-0,214	-0,060
349,333	-200,000	-0,080	-0,249
350,348	800,000	-0,060	-0,179
351,362	209,087	-0,169	-0,182
352,377	-76,401	-0,067	-0,016
353,392	-125,241	-0,220	-0,023
354,406	-7,090	-0,100	0,046
355,421	209,412	1313,828	1414,143
356,435	161,176	1474,432	1414,640
