DTS Sentinel unit serial number:	SN410029Multiplexer serial number:	ORYXHardware model number:	OX2-SRSoftware version number:	ORYX F/W v4,00 Oryx Data Collector v3.7.2.0data status	okinstallation	B3 Nyhavnadifferential loss correction	single-endedforward channel	channel 1reverse channel	N/Adate	2023/12/03time	19:12:30forward acquisition time	300,00reverse acquisition time	0,00gamma	499,1914k internal	0,3198k external	0,3198temperature offset calibration	1,0000default loss term (dB/km)	0,3820temperature slope calibration	1,0000multiplexer offset coefficient	1,0000multiplexer slope coefficient	1,0000fibre end	0,00T internal ref (°C)	14,34T ext. ref 1 (°C)	-1,00T ext. ref 2 (°C)	-1,01length (m)	temperature (°C)	Stokes	anti-Stokes-744,400	-200,000	-0,060	-0,217
-743,385	-200,000	-0,093	0,351
-742,371	75,928	-0,173	-0,133
-741,356	-200,000	0,037	0,381
-740,342	78,711	-0,150	-0,116
-739,327	800,000	-0,106	0,279
-738,312	800,000	-0,134	-0,299
-737,298	-200,000	0,014	0,339
-736,283	-17,818	-0,269	-0,122
-735,269	-200,000	0,030	0,341
-734,254	235,820	-0,228	-0,274
-733,239	-118,529	-0,210	-0,027
-732,225	773,938	-0,095	-0,190
-731,210	-133,063	0,132	0,012
-730,196	-200,000	0,005	0,027
-729,181	800,000	0,021	0,059
-728,167	-66,165	-0,133	-0,038
-727,152	-200,000	-0,022	0,092
-726,137	-109,080	-0,068	-0,010
-725,123	-200,000	-0,004	-0,037
-724,108	-200,000	-0,016	-0,102
-723,094	78,145	-0,106	-0,082
-722,079	77,544	-0,061	-0,047
-721,064	-58,640	-0,024	-0,007
-720,050	-172,046	-0,037	-0,001
-719,035	800,000	-0,039	0,092
-718,021	-200,000	-0,036	0,176
-717,006	478,210	0,034	0,056
-715,991	-37,153	-0,149	-0,058
-714,977	176,997	-0,067	-0,071
-713,962	-200,000	0,011	-0,061
-712,948	114,971	-0,015	0,014
-711,933	298,701	-0,062	-0,083
-710,918	-200,000	0,023	0,107
-709,904	-24,743	-0,126	0,054
-708,889	326,892	-0,077	-0,108
-707,875	254,954	-0,020	-0,025
-706,860	68,072	0,054	0,040
-705,845	109,469	-0,091	0,079
-704,831	120,431	0,131	0,118
-703,816	-200,000	-0,018	0,105
-702,802	-17,684	-0,088	-0,040
-701,787	-101,647	-0,080	0,014
-700,772	-113,829	0,134	-0,019
-699,758	800,000	-0,032	0,089
-698,743	420,362	-0,046	0,072
-697,729	145,268	0,068	-0,067
-696,714	-160,864	0,006	0,000
-695,699	-200,000	-0,021	-0,195
-694,685	800,000	0,026	-0,067
-693,670	171,662	-0,120	-0,125
-692,656	-200,000	0,008	-0,030
-691,641	48,797	-0,061	0,042
-690,627	-14,493	0,097	-0,045
-689,612	186,722	0,065	-0,070
-688,597	-150,040	-0,095	-0,005
-687,583	-37,806	0,011	0,004
-686,568	-15,632	-0,055	0,025
-685,554	-200,000	-0,006	0,019
-684,539	-128,284	0,018	0,002
-683,524	171,181	0,063	-0,066
-682,510	-200,000	-0,006	0,059
-681,495	67,211	-0,041	0,030
-680,481	-40,389	0,077	0,029
-679,466	132,698	-0,063	0,059
-678,451	30,852	-0,087	-0,054
-677,437	65,550	0,113	0,083
-676,422	316,516	0,085	0,117
-675,408	139,025	0,048	0,045
-674,393	-105,207	-0,052	0,009
-673,378	-200,000	0,013	-0,088
-672,364	359,957	-0,028	-0,040
-671,349	30,956	-0,067	0,042
-670,335	-126,948	0,047	0,005
-669,320	-200,000	-0,000	0,013
-668,305	-200,000	-0,038	0,127
-667,291	800,000	-0,085	0,178
-666,276	243,651	-0,086	-0,104
-665,262	230,887	0,099	-0,118
-664,247	50,130	0,039	-0,027
-663,232	615,224	-0,096	0,175
-662,218	462,703	0,052	0,085
-661,203	-62,807	-0,088	0,026
-660,189	-7,925	0,054	-0,026
-659,174	371,237	-0,036	-0,054
-658,159	93,209	-0,092	-0,076
-657,145	23,986	-0,080	-0,048
-656,130	264,882	-0,083	-0,105
-655,116	800,000	0,006	0,018
-654,101	800,000	-0,096	-0,198
-653,086	129,397	0,091	0,085
-652,072	0,373	0,023	-0,012
-651,057	-200,000	-0,002	-0,120
-650,043	800,000	0,019	-0,054
-649,028	-200,000	-0,029	-0,111
-648,014	73,218	-0,008	0,006
-646,999	-200,000	0,002	-0,023
-645,984	-0,831	0,049	-0,025
-644,970	588,277	-0,040	-0,071
-643,955	-200,000	0,019	-0,107
-642,941	800,000	0,010	-0,020
-641,926	-35,731	0,054	-0,021
-640,911	-7,953	-0,060	-0,029
-639,897	-200,000	0,000	0,180
-638,882	800,000	0,065	0,134
-637,868	-38,242	-0,010	-0,004
-636,853	-157,015	-0,062	-0,003
-635,838	-200,000	-0,004	0,044
-634,824	800,000	-0,037	-0,097
-633,809	774,434	0,066	0,132
-632,795	800,000	-0,033	0,069
-631,780	254,656	0,038	-0,048
-630,765	-200,000	-0,031	0,100
-629,751	-200,000	-0,028	-0,103
-628,736	-108,328	-0,089	-0,014
-627,722	428,390	-0,025	0,039
-626,707	800,000	0,015	-0,048
-625,692	153,306	-0,027	0,027
-624,678	24,787	0,166	-0,100
-623,663	-3,229	0,035	0,018
-622,649	156,139	-0,057	-0,057
-621,634	326,519	-0,061	-0,084
-620,619	182,114	-0,063	-0,067
-619,605	12,965	-0,145	-0,081
-618,590	7,327	0,082	0,044
-617,576	531,389	-0,013	0,022
-616,561	126,006	0,049	0,044
-615,546	-32,529	-0,134	0,054
-614,532	189,845	-0,119	-0,130
-613,517	556,592	-0,063	-0,111
-612,503	-200,000	-0,016	-0,108
-611,488	800,000	-0,063	0,148
-610,474	-143,096	-0,047	0,003
-609,459	-60,728	0,131	-0,040
-608,444	530,137	-0,081	-0,139
-607,430	-80,791	0,075	0,018
-606,415	112,581	0,073	-0,064
-605,401	800,000	-0,028	0,071
-604,386	-200,000	0,001	0,271
-603,371	64,828	-0,128	0,093
-602,357	377,731	-0,006	0,009
-601,342	219,561	-0,090	-0,105
-600,328	329,761	-0,091	-0,127
-599,313	-25,165	0,126	0,054
-598,298	800,000	0,045	0,098
-597,284	-46,866	-0,145	0,051
-596,269	691,249	0,048	0,092
-595,255	-34,326	-0,117	-0,046
-594,240	-200,000	-0,026	-0,105
-593,225	-21,508	-0,091	-0,040
-592,211	-200,000	0,129	0,000
-591,196	289,214	-0,116	0,152
-590,182	800,000	-0,002	0,007
-589,167	-25,526	0,093	-0,040
-588,152	800,000	-0,051	0,107
-587,138	-141,120	-0,033	0,002
-586,123	68,811	-0,078	-0,058
-585,109	93,021	-0,016	-0,013
-584,094	188,918	0,006	-0,007
-583,079	-114,755	0,113	0,015
-582,065	423,909	-0,068	0,106
-581,050	-200,000	0,019	0,078
-580,036	90,700	0,058	-0,047
-579,021	-200,000	0,017	0,108
-578,006	800,000	0,057	0,122
-576,992	800,000	0,100	0,209
-575,977	800,000	0,008	0,025
-574,963	-115,354	0,193	0,026
-573,948	-79,551	0,017	0,004
-572,934	-200,000	-0,078	-0,000
-571,919	-200,000	-0,008	-0,051
-570,904	-200,000	0,005	-0,122
-569,890	-200,000	-0,014	-0,059
-568,875	100,315	-0,005	-0,005
-567,861	80,871	0,034	-0,026
-566,846	800,000	-0,021	0,060
-565,831	-60,455	0,101	0,031
-564,817	-84,635	-0,089	0,020
-563,802	-200,000	0,021	-0,071
-562,788	-21,872	-0,126	-0,055
-561,773	-162,729	0,090	-0,003
-560,758	545,419	-0,010	0,017
-559,744	-197,545	0,048	-0,000
-558,729	35,996	0,174	0,110
-557,715	641,032	-0,055	-0,101
-556,700	-200,000	-0,003	-0,026
-555,685	-200,000	-0,042	0,135
-554,671	-200,000	0,035	-0,118
-553,656	-134,203	-0,165	0,014
-552,642	-106,314	0,015	-0,002
-551,627	-200,000	-0,024	-0,094
-550,612	147,949	0,052	-0,050
-549,598	25,093	-0,051	-0,030
-548,583	134,621	0,041	0,039
-547,569	-55,576	-0,059	-0,019
-546,554	412,155	-0,047	0,072
-545,539	50,637	-0,136	-0,093
-544,525	-34,787	0,114	-0,045
-543,510	-200,000	0,010	0,050
-542,496	-2,853	-0,052	-0,026
-541,481	236,882	-0,101	0,121
-540,466	-120,764	0,139	-0,017
-539,452	95,861	0,118	-0,097
-538,437	-200,000	0,029	0,110
-537,423	28,420	0,161	0,098
-536,408	-38,996	0,158	0,060
-535,393	800,000	0,036	-0,085
-534,379	47,013	0,041	0,027
-533,364	-98,406	-0,228	0,042
-532,350	144,503	0,125	0,121
-531,335	549,270	0,010	0,018
-530,321	800,000	0,025	-0,069
-529,306	601,230	-0,081	0,145
-528,291	-27,066	-0,040	-0,017
-527,277	44,699	0,074	-0,049
-526,262	213,146	0,056	-0,064
-525,248	-200,000	0,028	0,154
-524,233	800,000	0,060	0,177
-523,218	-200,000	-0,006	0,129
-522,204	800,000	0,073	-0,151
-521,189	-200,000	0,011	-0,048
-520,175	747,232	0,026	-0,050
-519,160	71,544	0,086	-0,065
-518,145	800,000	0,021	0,045
-517,131	356,638	0,046	0,067
-516,116	678,574	-0,031	0,058
-515,102	181,151	-0,058	0,062
-514,087	-200,000	0,011	-0,054
-513,072	171,538	-0,148	-0,153
-512,058	309,095	-0,073	0,098
-511,043	127,415	0,159	0,146
-510,029	800,000	0,039	0,086
-509,014	257,151	0,021	0,025
-507,999	154,951	-0,055	0,054
-506,985	-120,292	0,064	0,008
-505,970	18,855	-0,093	-0,053
-504,956	-200,000	0,005	-0,077
-503,941	800,000	0,049	-0,108
-502,926	-83,405	0,056	-0,013
-501,912	-92,379	0,024	0,005
-500,897	116,689	-0,109	0,096
-499,883	-104,899	0,034	-0,006
-498,868	800,000	-0,042	-0,127
-497,853	388,637	0,092	0,137
-496,839	-200,000	-0,009	-0,058
-495,824	-31,995	0,084	0,034
-494,810	-157,884	0,067	-0,003
-493,795	800,000	0,022	0,059
-492,781	-46,500	-0,054	-0,019
-491,766	215,453	-0,125	-0,144
-490,751	-19,788	-0,018	0,008
-489,737	34,783	-0,115	-0,072
-488,722	99,375	0,078	0,065
-487,708	-200,000	-0,002	0,170
-486,693	639,215	0,038	0,070
-485,678	34,045	0,121	-0,076
-484,664	-69,746	-0,058	0,016
-483,649	-155,745	-0,014	0,001
-482,635	800,000	-0,054	0,143
-481,620	463,605	-0,046	0,075
-480,605	444,639	0,050	-0,080
-479,591	360,775	-0,045	0,065
-478,576	-134,386	-0,140	-0,012
-477,562	613,204	-0,090	-0,163
-476,547	-200,000	0,026	-0,114
-475,532	800,000	-0,089	-0,192
-474,518	-84,925	-0,071	0,016
-473,503	-200,000	0,010	-0,059
-472,489	73,300	-0,024	0,018
-471,474	-200,000	0,001	0,100
-470,459	26,411	-0,081	-0,049
-469,445	516,981	0,069	-0,117
-468,430	73,078	-0,089	0,067
-467,416	22,850	0,143	0,084
-466,401	-50,309	-0,077	-0,026
-465,386	130,678	0,035	0,033
-464,372	143,338	0,071	0,068
-463,357	-10,308	-0,134	-0,064
-462,343	-90,497	-0,047	0,010
-461,328	-169,230	-0,041	-0,001
-460,313	-200,000	-0,024	-0,116
-459,299	800,000	-0,023	0,049
-458,284	-200,000	0,004	0,066
-457,270	-78,060	0,072	0,018
-456,255	800,000	0,014	0,039
-455,241	-200,000	0,007	-0,105
-454,226	-49,257	-0,067	-0,023
-453,211	-41,437	-0,143	-0,053
-452,197	800,000	0,029	-0,075
-451,182	453,964	0,071	0,113
-450,168	-200,000	-0,005	0,031
-449,153	-200,000	0,012	-0,119
-448,138	788,561	-0,088	-0,174
-447,124	176,130	-0,092	0,096
-446,109	480,808	-0,068	0,112
-445,095	-2,586	0,078	-0,039
-444,080	324,003	0,080	-0,110
-443,065	-107,412	0,058	0,009
-442,051	75,269	-0,092	0,070
-441,036	-200,000	-0,192	0,000
-440,022	415,525	-0,044	0,068
-439,007	-141,685	0,127	-0,009
-437,992	108,286	-0,052	0,044
-436,978	800,000	0,029	0,058
-435,963	-200,000	0,011	0,072
-434,949	-81,351	0,013	-0,003
-433,934	279,151	-0,043	-0,056
-432,919	-169,019	-0,041	0,001
-431,905	97,762	0,083	0,069
-430,890	468,491	0,075	0,122
-429,876	34,917	0,132	0,083
-428,861	159,018	-0,100	0,100
-427,846	-200,000	-0,021	0,117
-426,832	-200,000	0,001	0,018
-425,817	-39,354	-0,124	-0,047
-424,803	492,763	0,075	-0,124
-423,788	-200,000	-0,017	-0,055
-422,773	153,925	-0,031	0,030
-421,759	144,086	-0,109	0,104
-420,744	-200,000	-0,027	0,168
-419,730	-94,277	-0,056	0,011
-418,715	-66,294	-0,043	-0,012
-417,701	5,646	-0,039	0,021
-416,686	275,903	0,028	0,036
-415,671	195,704	0,078	0,085
-414,657	-110,639	0,065	0,010
-413,642	-200,000	-0,018	-0,062
-412,628	800,000	-0,019	-0,042
-411,613	96,889	-0,045	0,037
-410,598	309,948	-0,033	0,045
-409,584	136,074	0,082	0,077
-408,569	203,010	0,078	0,087
-407,555	-200,000	-0,005	-0,051
-406,540	343,529	0,023	-0,033
-405,525	355,592	0,045	-0,065
-404,511	-200,000	0,021	-0,150
-403,496	-200,000	0,020	-0,163
-402,482	-167,689	-0,038	-0,001
-401,467	-150,231	0,089	0,005
-400,452	154,326	-0,039	0,039
-399,438	185,687	0,153	0,164
-398,423	359,003	0,077	-0,111
-397,409	-135,189	-0,057	0,005
-396,394	-200,000	0,019	0,066
-395,379	784,134	-0,080	0,158
-394,365	-200,000	-0,010	-0,063
-393,350	340,670	-0,071	0,100
-392,336	394,713	-0,038	-0,057
-391,321	62,224	-0,096	-0,069
-390,306	-200,000	-0,070	0,225
-389,292	-200,000	0,032	-0,219
-388,277	138,609	-0,019	0,018
-387,263	54,461	-0,120	-0,083
-386,248	-63,102	0,126	0,037
-385,233	-200,000	0,003	-0,014
-384,219	1,186	0,162	-0,083
-383,204	1,100	-0,117	-0,060
-382,190	-200,000	-0,001	0,044
-381,175	-200,000	-0,003	0,012
-380,160	24,783	0,049	-0,029
-379,146	187,905	0,027	0,029
-378,131	800,000	-0,010	0,027
-377,117	-200,000	-0,038	0,126
-376,102	467,764	0,089	-0,143
-375,088	-200,000	-0,029	-0,114
-374,073	800,000	0,041	-0,124
-373,058	394,274	-0,063	0,095
-372,044	-30,042	0,075	0,031
-371,029	91,810	-0,086	0,070
-370,015	-140,019	0,038	-0,003
-369,000	-157,734	-0,116	-0,005
-367,985	277,133	0,058	0,074
-366,971	800,000	0,019	-0,042
-365,956	-124,733	0,045	-0,005
-364,942	21,937	0,142	-0,083
-363,927	-84,361	-0,088	0,020
-362,912	-200,000	0,007	0,065
-361,898	2,345	-0,075	-0,039
-360,883	-200,000	0,001	-0,052
-359,869	6,971	-0,069	-0,037
-358,854	-200,000	-0,011	-0,082
-357,839	-5,672	-0,115	0,056
-356,825	-0,595	-0,053	-0,027
-355,810	-81,967	-0,071	-0,017
-354,796	257,683	0,018	-0,023
-353,781	56,010	0,050	-0,035
-352,766	800,000	-0,043	-0,106
-351,752	127,186	-0,067	-0,061
-350,737	163,390	0,113	0,114
-349,723	800,000	0,021	0,044
-348,708	441,053	0,028	-0,044
-347,693	-200,000	-0,005	-0,102
-346,679	429,653	-0,100	-0,155
-345,664	800,000	-0,022	-0,054
-344,650	-200,000	0,028	-0,170
-343,635	108,458	-0,063	-0,054
-342,620	-141,168	-0,112	-0,008
-341,606	199,751	-0,038	-0,042
-340,591	20,017	0,032	-0,019
-339,577	-140,922	-0,062	-0,005
-338,562	-200,000	-0,003	0,065
-337,548	428,727	-0,077	-0,119
-336,533	408,345	0,055	0,084
-335,518	80,864	0,122	0,094
-334,504	800,000	0,025	-0,068
-333,489	800,000	0,022	0,049
-332,475	-48,137	0,137	-0,047
-331,460	-75,227	0,043	0,011
-330,445	482,463	-0,014	-0,023
-329,431	-87,717	0,119	0,025
-328,416	112,273	0,055	-0,048
-327,402	648,179	-0,044	0,080
-326,387	430,632	0,093	0,145
-325,372	-200,000	0,018	-0,128
-324,358	37,526	-0,056	-0,036
-323,343	284,988	-0,104	-0,135
-322,329	-120,924	-0,044	-0,005
-321,314	500,247	0,048	0,079
-320,299	-200,000	0,006	-0,023
-319,285	31,075	-0,076	0,046
-318,270	-200,000	0,000	0,015
-317,256	-200,000	-0,023	-0,089
-316,241	142,739	0,116	-0,111
-315,226	-94,744	0,152	-0,029
-314,212	-157,387	0,174	0,007
-313,197	123,681	-0,035	-0,032
-312,183	800,000	0,040	-0,113
-311,168	-32,195	-0,048	-0,019
-310,153	416,467	0,023	-0,035
-309,139	-7,748	0,103	0,050
-308,124	800,000	-0,036	-0,079
-307,110	800,000	0,046	-0,117
-306,095	-2,579	0,065	0,033
-305,080	-19,532	-0,090	0,040
-304,066	-57,106	0,134	-0,042
-303,051	34,633	-0,099	-0,062
-302,037	-200,000	0,007	-0,042
-301,022	495,486	0,030	0,049
-300,008	239,528	0,091	0,109
-298,993	15,627	-0,057	-0,032
-297,978	800,000	-0,033	-0,068
-296,964	646,812	-0,020	-0,037
-295,949	-200,000	-0,004	-0,102
-294,935	-72,385	0,066	0,017
-293,920	53,332	-0,044	-0,030
-292,905	207,420	-0,035	0,039
-291,891	-200,000	0,006	0,034
-290,876	167,866	0,036	0,037
-289,862	-172,118	0,038	-0,001
-288,847	-166,068	-0,065	-0,002
-287,832	-103,915	0,098	-0,016
-286,818	-176,966	-0,122	-0,002
-285,803	-128,043	0,141	0,014
-284,789	31,001	0,037	-0,022
-283,774	-200,000	-0,003	-0,097
-282,759	-200,000	-0,004	0,045
-281,745	-118,421	-0,068	0,009
-280,730	-200,000	0,005	-0,120
-279,716	-200,000	0,010	0,062
-278,701	-152,817	0,108	-0,005
-277,686	800,000	-0,010	-0,021
-276,672	800,000	-0,045	0,139
-275,657	-200,000	0,001	-0,100
-274,643	-200,000	0,045	-0,167
-273,628	-170,194	-0,144	-0,004
-272,613	63,162	0,098	0,070
-271,599	-200,000	-0,039	0,158
-270,584	-200,000	-0,027	0,141
-269,570	-13,804	0,196	0,090
-268,555	-84,019	-0,082	0,018
-267,540	142,299	0,044	0,042
-266,526	-200,000	-0,029	-0,096
-265,511	-200,000	0,008	0,042
-264,497	-104,268	0,068	0,011
-263,482	-75,549	0,131	-0,033
-262,467	800,000	0,029	0,089
-261,453	-98,946	-0,048	-0,009
-260,438	-200,000	0,043	-0,139
-259,424	-200,000	0,005	-0,034
-258,409	-143,807	-0,076	-0,005
-257,395	-200,000	0,008	0,175
-256,380	-126,341	0,030	-0,003
-255,365	546,367	0,079	0,135
-254,351	800,000	0,040	-0,092
-253,336	-200,000	-0,006	-0,071
-252,322	414,714	0,062	-0,095
-251,307	20,753	-0,048	-0,028
-250,292	437,878	-0,049	-0,077
-249,278	86,796	0,031	0,024
-248,263	-98,387	0,080	0,014
-247,249	397,596	0,064	0,097
-246,234	41,900	0,129	-0,084
-245,219	-200,000	0,027	-0,103
-244,205	262,688	-0,058	-0,072
-243,190	-23,736	-0,065	0,028
-242,176	-200,000	-0,023	0,190
-241,161	800,000	-0,018	0,037
-240,146	62,620	0,110	-0,078
-239,132	537,219	-0,025	0,042
-238,117	-109,727	0,042	-0,006
-237,103	-129,683	-0,046	0,004
-236,088	-28,947	0,077	0,031
-235,073	384,588	-0,065	-0,096
-234,059	-200,000	-0,025	0,096
-233,044	-200,000	0,026	0,139
-232,030	800,000	-0,026	0,080
-231,015	-200,000	-0,017	-0,192
-230,000	335,790	-0,126	-0,175
-228,986	800,000	0,017	0,033
-227,971	-200,000	0,013	0,045
-226,957	-95,792	0,141	0,027
-225,942	-104,374	-0,026	-0,004
-224,927	-91,229	-0,074	-0,015
-223,913	76,495	-0,049	-0,037
-222,898	412,927	0,043	-0,065
-221,884	-200,000	-0,019	0,093
-220,869	-133,833	-0,054	-0,005
-219,855	13,376	-0,127	-0,070
-218,840	785,418	0,028	0,054
-217,825	140,748	-0,073	-0,069
-216,811	279,514	-0,021	-0,026
-215,796	-17,551	-0,127	-0,057
-214,782	-11,560	-0,075	-0,035
-213,767	800,000	-0,069	0,154
-212,752	203,698	0,070	0,077
-211,738	738,504	-0,062	0,119
-210,723	-200,000	0,000	-0,020
-209,709	-145,869	-0,043	-0,003
-208,694	513,253	0,037	-0,061
-207,679	-200,000	-0,000	-0,060
-206,665	106,788	0,147	-0,125
-205,650	-109,111	0,052	-0,008
-204,636	800,000	0,031	0,076
-203,621	-145,512	-0,026	-0,002
-202,606	34,374	-0,136	-0,084
-201,592	-200,000	-0,046	-0,147
-200,577	-107,113	-0,056	-0,009
-199,563	-92,577	0,069	0,014
-198,548	-151,090	-0,070	-0,004
-197,533	193,129	-0,070	0,076
-196,519	-67,020	0,156	0,044
-195,504	255,994	-0,092	-0,112
-194,490	35,782	0,077	0,048
-193,475	-132,307	-0,055	0,005
-192,460	-110,245	0,110	0,016
-191,446	-200,000	-0,025	0,102
-190,431	-142,086	0,046	-0,003
-189,417	104,548	0,055	0,046
-188,402	65,073	-0,156	0,112
-187,387	800,000	-0,032	-0,087
-186,373	800,000	-0,040	0,082
-185,358	-11,747	0,049	0,023
-184,344	-200,000	0,000	0,050
-183,329	309,830	0,037	0,050
-182,315	278,467	-0,043	-0,055
-181,300	800,000	0,038	-0,117
-180,285	171,503	0,056	-0,057
-179,271	-79,980	-0,049	-0,012
-178,256	-17,589	0,111	-0,049
-177,242	800,000	0,065	-0,153
-176,227	72,701	0,079	0,059
-175,212	-24,705	0,088	0,037
-174,198	-200,000	0,015	0,101
-173,183	-92,765	0,088	-0,017
-172,169	-200,000	-0,008	0,056
-171,154	113,952	-0,108	-0,094
-170,139	-87,234	0,067	-0,014
-169,125	49,076	-0,180	0,120
-168,110	-67,878	0,028	0,008
-167,096	12,930	0,043	0,024
-166,081	236,642	0,038	-0,044
-165,066	-200,000	-0,014	-0,083
-164,052	800,000	0,020	-0,059
-163,037	371,360	0,035	0,051
-162,023	-200,000	-0,029	0,146
-161,008	-200,000	0,013	0,071
-159,993	-200,000	0,023	-0,092
-158,979	-89,177	-0,082	-0,017
-157,964	-19,762	-0,119	-0,052
-156,950	800,000	0,060	-0,120
-155,935	221,059	0,051	0,058
-154,920	800,000	0,033	0,102
-153,906	-200,000	0,021	0,224
-152,891	800,000	-0,026	0,073
-151,877	-200,000	0,001	0,050
-150,862	513,459	-0,041	-0,069
-149,847	164,171	-0,043	0,043
-148,833	195,784	0,042	-0,045
-147,818	-200,000	-0,007	0,065
-146,804	414,041	0,009	0,014
-145,789	100,244	0,051	0,042
-144,775	619,672	-0,057	0,103
-143,760	800,000	0,020	-0,050
-142,745	-200,000	-0,033	0,112
-141,731	-200,000	-0,005	0,094
-140,716	-158,369	0,128	-0,005
-139,702	-65,561	0,091	-0,026
-138,687	50,283	-0,020	0,014
-137,672	-68,143	0,088	0,024
-136,658	-16,923	0,073	-0,033
-135,643	-6,209	-0,036	0,017
-134,629	119,390	-0,097	0,085
-133,614	-81,470	0,107	-0,025
-132,599	173,926	0,083	0,085
-131,585	-47,266	-0,047	0,016
-130,570	239,321	0,035	0,041
-129,556	339,091	-0,051	0,070
-128,541	-79,585	-0,125	0,030
-127,526	20,231	0,061	-0,035
-126,512	108,320	-0,017	-0,014
-125,497	-26,205	0,034	0,014
-124,483	-117,538	0,077	0,010
-123,468	297,002	0,027	0,035
-122,453	209,241	-0,034	-0,038
-121,439	800,000	0,010	0,025
-120,424	-200,000	0,015	0,058
-119,410	-31,637	0,162	0,064
-118,395	602,165	0,037	0,065
-117,380	-15,148	0,121	-0,055
-116,366	800,000	-0,023	0,071
-115,351	107,127	0,076	0,064
-114,337	163,861	0,013	0,013
-113,322	-15,937	-0,082	-0,037
-112,307	404,128	0,020	0,030
-111,293	-9,502	0,031	0,014
-110,278	-87,759	-0,031	0,006
-109,264	800,000	0,038	0,082
-108,249	-138,797	0,040	-0,003
-107,234	-42,634	-0,053	0,019
-106,220	67,981	-0,102	-0,074
-105,205	451,170	0,127	-0,200
-104,191	-141,054	0,087	-0,006
-103,176	-134,138	-0,015	-0,001
-102,162	-200,000	0,022	-0,078
-101,147	-200,000	0,033	-0,119
-100,132	-1,988	-0,096	0,048
-99,118	263,428	0,071	0,088
-98,103	-75,307	0,095	-0,024
-97,089	404,924	0,073	0,110
-96,074	800,000	0,073	0,147
-95,059	-95,456	0,072	-0,014
-94,045	2,024	0,021	0,011
-93,030	-33,647	-0,104	-0,040
-92,016	162,048	-0,041	0,041
-91,001	-102,199	-0,051	0,009
-89,986	-113,941	0,178	0,024
-88,972	281,582	0,060	0,077
-87,957	540,084	-0,046	0,079
-86,943	40,629	-0,049	0,031
-85,928	156,940	-0,058	-0,057
-84,913	-200,000	0,025	-0,103
-83,899	78,546	-0,013	-0,010
-82,884	-46,864	0,049	-0,017
-81,870	-200,000	0,002	0,140
-80,855	-34,009	-0,175	-0,068
-79,840	211,839	0,114	-0,127
-78,826	410,513	0,042	-0,063
-77,811	-124,935	-0,128	0,014
-76,797	-200,000	-0,002	-0,068
-75,782	800,000	0,025	0,058
-74,767	-59,559	0,045	-0,013
-73,753	-200,000	0,013	0,107
-72,738	-200,000	0,031	0,099
-71,724	-200,000	0,025	-0,090
-70,709	-119,430	0,166	-0,020
-69,694	800,000	-0,037	-0,084
-68,680	-101,923	-0,083	0,014
-67,665	-76,042	0,097	0,024
-66,651	-167,968	-0,039	-0,001
-65,636	800,000	-0,033	0,075
-64,622	283,636	0,057	0,072
-63,607	-60,899	-0,032	0,010
-62,592	452,685	0,047	0,073
-61,578	-44,417	0,081	0,029
-60,563	-8,902	0,061	-0,029
-59,549	800,000	-0,052	0,106
-58,534	-52,440	-1,541	-0,502
-57,519	383,618	-1,356	-1,985
-56,505	-200,000	-0,445	-4,470
-55,490	200,589	1,006	1,097
-54,476	800,000	4,733	11,034
-53,461	-200,000	18,770	301,091
-52,446	800,000	734,203	2272,838
-51,432	562,230	1650,340	2840,010
-50,417	78,787	1668,532	1263,494
-49,403	22,318	1541,404	890,036
-48,388	16,225	1464,496	816,044
-47,373	17,776	1454,752	818,071
-46,359	16,970	1444,840	808,602
-45,344	14,502	1440,107	794,110
-44,330	14,404	1438,123	792,514
-43,315	14,427	1436,621	791,767
-42,300	14,431	1434,706	790,699
-41,286	14,472	1433,594	790,251
-40,271	14,394	1432,479	789,233
-39,257	14,405	1431,125	788,510
-38,242	14,444	1429,950	788,014
-37,227	14,428	1428,560	787,142
-36,213	14,447	1427,169	786,435
-35,198	14,478	1426,102	785,961
-34,184	14,493	1425,270	785,545
-33,169	14,395	1424,045	784,372
-32,154	14,406	1422,946	783,788
-31,140	14,468	1421,329	783,161
-30,125	14,475	1420,325	782,608
-29,111	14,449	1419,223	781,849
-28,096	14,411	1418,299	781,126
-27,082	14,409	1417,190	780,476
-26,067	14,356	1416,120	779,607
-25,052	14,405	1414,853	779,109
-24,038	14,338	1414,020	778,306
-23,023	14,354	1412,882	777,724
-22,009	14,306	1412,251	777,121
-20,994	14,337	1411,027	776,560
-19,979	14,343	1410,277	776,146
-18,965	14,334	1409,209	775,483
-17,950	14,337	1408,247	774,937
-16,936	14,326	1407,207	774,282
-15,921	14,306	1406,194	773,600
-14,906	14,281	1405,342	772,984
-13,892	14,244	1404,603	772,376
-12,877	14,294	1403,411	771,922
-11,863	14,257	1402,641	771,298
-10,848	14,293	1401,652	770,890
-9,833	14,269	1400,827	770,292
-8,819	14,212	1399,927	769,503
-7,804	14,184	1399,127	768,900
-6,790	14,194	1397,937	768,262
-5,775	14,152	1397,038	767,545
-4,760	14,199	1396,055	767,190
-3,746	14,149	1395,278	766,502
-2,731	14,178	1394,454	766,156
-1,717	14,169	1393,476	765,546
-0,702	14,140	1391,906	764,516
0,313	18,027	1309,845	737,440
1,327	34,371	705,555	435,082
2,342	53,086	123,833	83,807
3,356	1,741	16,609	8,446
4,371	17,600	3,086	1,732
5,386	-4,157	0,551	0,269
6,400	-200,000	0,029	0,112
7,415	-28,177	-0,334	-0,136
8,429	-8,511	-0,332	-0,157
9,444	-4,787	-0,321	-0,156
10,459	4,306	-0,420	-0,217
11,473	309,633	-0,252	-0,334
12,488	61,457	-0,296	-0,208
13,502	180,097	-0,228	-0,237
14,517	224,927	-0,233	-0,268
15,531	-3,234	-0,258	-0,127
16,546	-61,219	-0,505	-0,150
17,561	185,792	-0,400	-0,420
18,575	-177,823	-0,240	-0,004
19,590	186,142	-0,238	-0,250
20,604	92,117	-0,238	-0,189
21,619	-6,297	-0,572	-0,275
22,634	16,181	-0,434	-0,241
23,648	49,918	-0,502	-0,334
24,663	369,042	-0,346	-0,497
25,677	61,659	-0,247	-0,173
26,692	96,034	-0,283	-0,228
27,707	48,741	-0,332	-0,219
28,721	-22,416	-0,407	-0,173
29,736	110,055	-0,351	-0,298
30,750	42,742	-0,342	-0,220
31,765	143,626	-0,272	-0,256
32,780	11,378	-0,331	-0,178
33,794	28,912	-0,286	-0,171
34,809	94,584	-0,302	-0,242
35,823	70,141	-0,292	-0,213
36,838	27,331	-0,425	-0,252
37,853	19,469	-0,415	-0,235
38,867	166,043	-0,371	-0,370
39,882	179,132	-0,277	-0,286
40,896	60,799	-0,392	-0,274
41,911	32,742	-0,268	-0,163
42,926	134,851	-0,300	-0,275
43,940	43,605	-0,435	-0,280
44,955	397,193	-0,314	-0,464
45,969	124,350	-0,253	-0,224
46,984	150,674	-0,245	-0,235
47,999	145,134	-0,273	-0,258
49,013	68,817	-0,341	-0,247
50,028	251,450	-0,289	-0,347
51,042	96,117	-0,370	-0,298
52,057	89,248	-0,428	-0,336
53,071	66,642	-0,382	-0,274
54,086	117,392	-0,338	-0,293
55,101	168,098	-0,257	-0,258
56,115	31,680	-0,356	-0,215
57,130	6,101	-0,336	-0,175
58,144	114,797	-0,248	-0,213
59,159	-12,677	-0,589	-0,270
60,174	255,797	-0,267	-0,323
61,188	244,304	-0,288	-0,341
62,203	177,678	-0,254	-0,261
63,217	67,239	-0,511	-0,367
64,232	39,054	-0,376	-0,236
65,247	94,374	-0,352	-0,282
66,261	633,671	-0,181	-0,325
67,276	69,450	-0,430	-0,311
68,290	91,444	-0,338	-0,267
69,305	186,880	-0,223	-0,234
70,320	-3,966	-0,295	-0,144
71,334	53,056	-0,356	-0,239
72,349	12,295	-0,229	-0,124
73,363	-81,615	-0,369	-0,085
74,378	104,813	-0,261	-0,216
75,393	-37,349	-0,453	-0,169
76,407	290,403	-0,117	-0,150
77,422	-10,763	-0,344	-0,159
78,436	149,872	-0,247	-0,236
79,451	112,998	-0,336	-0,286
80,466	72,100	-0,191	-0,140
81,480	163,474	-0,318	-0,314
82,495	68,478	-0,350	-0,252
83,509	800,000	-0,103	-0,267
84,524	-97,684	-0,227	-0,041
85,539	31,791	-0,202	-0,122
86,553	53,988	-0,302	-0,204
87,568	9,361	-0,263	-0,140
88,582	-46,395	-0,346	-0,119
89,597	113,732	-0,247	-0,211
90,611	54,600	-0,227	-0,153
91,626	54,071	-0,238	-0,160
92,641	-115,873	-0,250	-0,032
93,655	22,008	-0,349	-0,199
94,670	280,729	-0,237	-0,298
95,684	210,327	-0,238	-0,262
96,699	-55,737	-0,459	-0,143
97,714	210,127	-0,270	-0,298
98,728	32,781	-0,203	-0,123
99,743	-18,000	-0,328	-0,144
100,757	-114,342	-0,282	-0,038
101,772	83,985	-0,371	-0,284
102,787	-2,796	-0,283	-0,138
103,801	126,712	-0,286	-0,254
104,816	-60,265	-0,332	-0,099
105,830	112,680	-0,232	-0,197
106,845	-95,685	-0,273	-0,051
107,860	-107,111	-0,334	-0,051
108,874	220,191	-0,197	-0,222
109,889	183,260	-0,216	-0,224
110,903	-79,403	-0,311	-0,073
111,918	16,391	-0,194	-0,107
112,933	-42,374	-0,241	-0,086
113,947	43,366	-0,287	-0,184
114,962	-13,659	-0,257	-0,116
115,976	128,638	-0,211	-0,189
116,991	-41,281	-0,273	-0,098
118,006	235,323	-0,314	-0,364
119,020	29,025	-0,172	-0,102
120,035	-10,502	-0,207	-0,096
121,049	47,772	-0,271	-0,177
122,064	61,731	-0,237	-0,165
123,079	-7,448	-0,259	-0,122
124,093	57,877	-0,249	-0,170
125,108	-9,792	-0,289	-0,134
126,122	9,601	-0,347	-0,184
127,137	-54,684	-0,235	-0,074
128,151	142,617	-0,195	-0,181
129,166	-33,168	-0,232	-0,090
130,181	81,820	-0,209	-0,158
131,195	355,257	-0,217	-0,304
132,210	395,713	-0,221	-0,323
133,224	79,834	-0,331	-0,249
134,239	160,311	-0,238	-0,232
135,254	7,901	-0,271	-0,142
136,268	-14,912	-0,230	-0,103
137,283	30,360	-0,357	-0,213
138,297	4,902	-0,304	-0,156
139,312	-9,404	-0,367	-0,171
140,327	222,313	-0,197	-0,223
141,341	-91,800	-0,136	-0,027
142,356	351,648	-0,136	-0,189
143,370	44,154	-0,263	-0,168
144,385	36,366	-0,249	-0,153
145,400	202,917	-0,203	-0,220
146,414	-20,037	-0,169	-0,073
147,429	65,838	-0,291	-0,206
148,443	48,673	-0,325	-0,213
149,458	-174,898	-0,259	-0,005
150,473	203,277	-0,126	-0,136
151,487	219,365	-0,156	-0,175
152,502	-16,077	-0,267	-0,118
153,516	-105,020	-0,393	-0,062
154,531	-146,164	-0,245	0,015
155,546	43,385	-0,349	-0,222
156,560	237,831	-0,116	-0,135
157,575	43,398	-0,285	-0,181
158,589	-0,251	-0,247	-0,122
159,604	294,050	-0,218	-0,279
160,619	15,839	-0,385	-0,211
161,633	-79,196	-0,314	-0,074
162,648	171,241	-0,159	-0,159
163,662	174,813	-0,166	-0,168
164,677	18,028	-0,209	-0,116
165,692	-129,169	-0,185	-0,018
166,706	100,001	-0,167	-0,135
167,721	122,450	-0,241	-0,210
168,735	211,661	-0,199	-0,219
169,750	302,454	-0,135	-0,174
170,764	-70,826	-0,281	-0,074
171,779	800,000	-0,130	-0,322
172,794	-10,818	-0,250	-0,115
173,808	-80,157	-0,218	-0,051
174,823	800,000	-0,156	-0,314
175,837	342,979	-0,165	-0,226
176,852	-35,107	-0,302	-0,114
177,867	-105,814	-0,218	-0,034
178,881	-5,841	-0,193	-0,092
179,896	693,464	-0,145	-0,267
180,910	251,532	-0,255	-0,303
181,925	94,876	-0,309	-0,245
182,940	157,113	-0,281	-0,271
183,954	155,662	-0,206	-0,198
184,969	-120,984	-0,133	-0,015
185,983	-9,659	-0,194	-0,090
186,998	-81,629	-0,188	0,043
188,013	191,615	-0,170	-0,178
189,027	20,106	-0,285	-0,159
190,042	-62,631	-0,141	-0,040
191,056	199,414	-0,274	-0,293
192,071	110,784	-0,152	-0,128
193,086	-12,023	-0,285	-0,129
194,100	-58,648	-0,191	-0,057
195,115	-67,002	-0,251	-0,068
196,129	-104,838	-0,228	-0,036
197,144	-61,544	-0,263	0,076
198,159	116,489	-0,248	-0,212
199,173	174,529	-0,116	-0,117
200,188	-84,556	-0,193	-0,042
201,202	188,750	-0,169	-0,176
202,217	66,514	-0,209	-0,148
203,232	73,349	-0,276	-0,201
204,246	135,935	-0,153	-0,139
205,261	23,250	-0,328	-0,187
206,275	81,558	-0,202	-0,152
207,290	222,123	-0,135	-0,152
208,304	-20,192	-0,277	-0,118
209,319	100,762	-0,216	-0,174
210,334	-52,667	-0,200	-0,064
211,348	-65,563	-0,333	-0,092
212,363	144,206	-0,177	-0,164
213,377	244,259	-0,197	-0,231
214,392	-28,178	-0,185	-0,074
215,407	-56,965	-0,154	-0,047
216,421	-40,012	-0,125	0,045
217,436	449,155	-0,161	-0,247
218,450	84,463	-0,268	-0,203
219,465	-108,783	-0,204	-0,030
220,480	-84,411	-0,077	-0,017
221,494	25,948	-0,230	-0,133
222,509	-200,000	-0,041	-0,213
223,523	331,480	-0,128	-0,172
224,538	11,906	-0,276	-0,147
225,553	279,175	-0,187	-0,233
226,567	-9,301	-0,308	-0,142
227,582	-49,446	-0,210	0,069
228,596	-70,496	-0,109	-0,029
229,611	116,656	-0,093	-0,079
230,626	-6,692	-0,160	-0,075
231,640	-5,540	-0,261	-0,124
232,655	720,161	-0,108	-0,201
233,669	115,595	-0,191	-0,162
234,684	271,002	-0,148	-0,181
235,699	249,294	-0,141	-0,166
236,713	217,298	-0,160	-0,178
237,728	-23,926	-0,203	-0,084
238,742	-57,123	-0,232	-0,071
239,757	-55,227	-0,311	-0,096
240,772	238,330	-0,078	-0,090
241,786	150,778	-0,210	-0,198
242,801	58,105	-0,284	-0,192
243,815	800,000	-0,052	-0,139
244,830	-69,229	-0,213	-0,056
245,844	-150,582	-0,232	-0,012
246,859	82,014	-0,221	-0,166
247,874	75,851	-0,280	-0,205
248,888	301,373	-0,212	-0,272
249,903	6,747	-0,239	-0,123
250,917	800,000	-0,054	-0,113
251,932	478,456	-0,089	-0,140
252,947	64,033	-0,171	-0,119
253,961	-87,440	-0,151	-0,031
254,976	-20,829	-0,243	-0,103
255,990	152,526	-0,195	-0,185
257,005	800,000	-0,102	-0,221
258,020	-172,697	-0,162	-0,003
259,034	-38,008	-0,200	-0,073
260,049	-116,647	-0,190	-0,024
261,063	29,995	-0,309	-0,182
262,078	143,818	-0,243	-0,225
263,093	179,916	-0,165	-0,167
264,107	-75,961	-0,239	-0,058
265,122	85,255	-0,099	-0,075
266,136	-83,067	-0,228	-0,050
267,151	800,000	-0,069	-0,144
268,166	800,000	-0,086	-0,179
269,180	304,373	-0,142	-0,182
270,195	57,996	-0,256	-0,173
271,209	-15,905	-0,210	-0,092
272,224	-121,992	-0,249	-0,028
273,239	-173,760	-0,188	0,004
274,253	-5,424	-0,148	-0,070
275,268	800,000	-0,126	-0,305
276,282	114,715	-0,258	-0,217
277,297	154,034	-0,188	-0,178
278,312	-116,955	-0,116	-0,014
279,326	108,399	-0,064	-0,053
280,341	-200,000	-0,167	-0,000
281,355	-61,165	-0,154	0,044
282,370	-30,956	-0,156	-0,060
283,384	-29,728	-0,239	-0,094
284,399	710,701	-0,114	-0,209
285,414	51,869	-0,124	-0,082
286,428	582,839	-0,144	-0,246
287,443	629,007	-0,091	-0,159
288,457	288,949	-0,132	-0,165
289,472	800,000	-0,067	-0,150
290,487	10,005	-0,209	-0,109
291,501	54,325	-0,229	-0,152
292,516	-200,000	-0,001	0,028
293,530	-178,950	-0,184	-0,003
294,545	258,535	-0,180	-0,215
295,560	259,755	-0,089	-0,106
296,574	-136,368	-0,247	0,020
297,589	-109,160	-0,109	-0,016
298,603	-90,854	-0,301	-0,059
299,618	-33,577	-0,112	-0,042
300,633	-200,000	-0,022	-0,139
301,647	27,604	-0,120	-0,069
302,662	-47,381	-0,167	-0,056
303,676	-64,682	-0,120	-0,033
304,691	-9,126	-0,110	-0,051
305,706	56,794	-0,215	-0,144
306,720	347,315	-0,165	-0,225
307,735	364,207	-0,152	-0,212
308,749	40,783	-0,120	-0,075
309,764	347,453	-0,124	-0,168
310,779	14,070	-0,283	0,151
311,793	1,757	-0,178	-0,088
312,808	259,769	-0,157	-0,187
313,822	800,000	-0,055	-0,136
314,837	165,691	-0,119	-0,116
315,852	430,197	-0,107	-0,160
316,866	193,742	-0,165	-0,172
317,881	387,617	-0,108	-0,155
318,895	-162,148	-0,048	0,002
319,910	-5,024	-0,186	-0,088
320,925	-129,521	-0,223	-0,021
321,939	56,590	-0,129	-0,086
322,954	-67,671	-0,138	-0,037
323,968	-200,000	0,019	-0,066
324,983	-124,021	-0,122	0,013
325,997	6,044	-0,169	-0,086
327,012	115,250	-0,227	-0,191
328,027	-150,167	-0,122	0,006
329,041	800,000	-0,055	-0,116
330,056	-64,448	-0,105	-0,029
331,070	800,000	-0,043	0,097
332,085	244,176	-0,070	-0,081
333,100	-91,766	-0,125	-0,024
334,114	694,207	-0,074	-0,134
335,129	57,667	-0,127	-0,085
336,143	283,083	-0,064	-0,079
337,158	142,922	-0,186	-0,170
338,173	-129,666	-0,195	-0,018
339,187	-164,149	-0,191	0,006
340,202	617,010	-0,093	-0,161
341,216	287,639	-0,157	-0,195
342,231	353,490	-0,096	-0,132
343,246	24,217	-0,041	-0,023
344,260	-160,180	-0,189	-0,007
345,275	94,407	-0,263	-0,205
346,289	29,790	-0,138	-0,081
347,304	279,729	-0,145	-0,178
348,319	-16,474	-0,124	-0,054
349,333	52,889	-0,271	-0,178
350,348	-121,414	-0,178	-0,020
351,362	129,466	-0,087	-0,076
352,377	-200,000	0,003	-0,204
353,392	245,682	-0,174	-0,201
354,406	-193,334	-0,128	-0,001
355,421	208,957	1315,801	1415,790
356,435	160,801	1476,676	1416,293
