DTS Sentinel unit serial number:	SN410029Multiplexer serial number:	ORYXHardware model number:	OX2-SRSoftware version number:	ORYX F/W v4,00 Oryx Data Collector v3.7.2.0data status	okinstallation	B3 Nyhavnadifferential loss correction	single-endedforward channel	channel 1reverse channel	N/Adate	2023/11/28time	23:07:30forward acquisition time	300,00reverse acquisition time	0,00gamma	499,1914k internal	0,3212k external	0,3212temperature offset calibration	1,0000default loss term (dB/km)	0,3820temperature slope calibration	1,0000multiplexer offset coefficient	1,0000multiplexer slope coefficient	1,0000fibre end	0,00T internal ref (°C)	8,70T ext. ref 1 (°C)	-5,86T ext. ref 2 (°C)	-6,00length (m)	temperature (°C)	Stokes	anti-Stokes-744,400	500,393	-0,182	-0,306
-743,385	297,668	0,190	0,254
-742,371	256,217	-0,136	-0,170
-741,356	800,000	0,149	0,320
-740,342	120,450	-0,199	-0,179
-739,327	-200,000	-0,007	0,313
-738,312	104,380	-0,216	-0,185
-737,298	-200,000	-0,001	0,361
-736,283	147,749	-0,204	-0,199
-735,269	800,000	0,128	0,319
-734,254	756,730	-0,119	-0,235
-733,239	-64,317	-0,180	-0,053
-732,225	800,000	-0,085	-0,174
-731,210	32,063	0,126	0,079
-730,196	-200,000	-0,025	-0,092
-729,181	33,852	-0,066	-0,042
-728,167	170,890	-0,039	0,040
-727,152	-200,000	0,004	-0,020
-726,137	800,000	0,015	-0,033
-725,123	-80,671	-0,005	0,001
-724,108	99,379	-0,066	-0,056
-723,094	-103,732	-0,128	-0,022
-722,079	-96,635	-0,132	-0,025
-721,064	-107,329	0,067	-0,011
-720,050	-80,131	-0,056	0,013
-719,035	800,000	-0,024	0,052
-718,021	64,139	-0,117	-0,085
-717,006	2,493	0,048	0,025
-715,991	213,271	0,035	0,041
-714,977	-97,028	-0,056	0,011
-713,962	124,556	0,093	-0,084
-712,948	-200,000	-0,009	0,185
-711,933	665,351	-0,031	-0,058
-710,918	800,000	0,038	0,084
-709,904	-111,900	-0,136	-0,020
-708,889	36,292	-0,057	-0,036
-707,875	329,887	-0,097	-0,135
-706,860	62,611	-0,138	0,100
-705,845	565,897	-0,045	-0,079
-704,831	-39,216	-0,109	-0,041
-703,816	-26,196	-0,148	-0,063
-702,802	-200,000	-0,007	-0,047
-701,787	263,127	-0,154	-0,193
-700,772	-200,000	-0,008	-0,233
-699,758	87,385	0,081	-0,065
-698,743	-200,000	-0,011	-0,156
-697,729	800,000	-0,046	0,105
-696,714	35,397	-0,082	-0,052
-695,699	233,760	-0,057	-0,068
-694,685	-113,819	-0,222	-0,031
-693,670	143,461	-0,047	-0,045
-692,656	-29,775	0,090	-0,037
-691,641	-200,000	0,014	0,052
-690,627	800,000	0,041	0,100
-689,612	800,000	0,030	0,065
-688,597	800,000	-0,064	-0,131
-687,583	56,636	-0,093	0,065
-686,568	-200,000	0,023	-0,085
-685,554	800,000	0,032	0,067
-684,539	27,245	-0,084	0,051
-683,524	-200,000	-0,020	0,146
-682,510	271,636	-0,026	-0,033
-681,495	-87,326	0,071	-0,016
-680,481	-200,000	-0,013	-0,106
-679,466	352,526	-0,090	-0,130
-678,451	483,503	0,035	0,057
-677,437	-200,000	0,033	-0,181
-676,422	108,044	0,084	-0,073
-675,408	-200,000	-0,012	-0,084
-674,393	-200,000	-0,012	-0,047
-673,378	800,000	-0,018	-0,046
-672,364	70,340	-0,127	-0,095
-671,349	-5,665	-0,153	-0,076
-670,335	-154,848	0,057	-0,003
-669,320	1,377	0,087	0,045
-668,305	800,000	0,042	0,119
-667,291	167,170	0,127	0,131
-666,276	800,000	0,035	-0,110
-665,262	-53,410	-0,141	-0,047
-664,247	-200,000	0,005	-0,101
-663,232	-18,946	-0,047	-0,021
-662,218	800,000	-0,049	0,111
-661,203	263,822	0,071	0,089
-660,189	-102,463	0,132	0,023
-659,174	-200,000	0,004	-0,069
-658,159	446,339	-0,051	-0,081
-657,145	-200,000	-0,011	-0,135
-656,130	21,891	0,109	-0,064
-655,116	1,665	-0,137	-0,071
-654,101	167,512	0,098	0,101
-653,086	-200,000	-0,013	0,077
-652,072	-200,000	-0,013	-0,044
-651,057	-200,000	-0,013	-0,082
-650,043	21,299	-0,057	-0,034
-649,028	-200,000	0,001	0,011
-648,014	23,175	-0,131	0,078
-646,999	-200,000	-0,029	-0,123
-645,984	136,803	0,048	-0,045
-644,970	260,437	-0,047	0,058
-643,955	800,000	0,075	-0,235
-642,941	132,315	-0,123	-0,114
-641,926	5,964	-0,132	-0,070
-640,911	161,511	-0,042	-0,042
-639,897	60,123	0,118	-0,084
-638,882	611,160	-0,037	0,067
-637,868	-200,000	0,011	0,058
-636,853	-101,773	-0,112	-0,019
-635,838	-200,000	0,016	-0,118
-634,824	-200,000	0,007	0,031
-633,809	-2,115	-0,050	-0,025
-632,795	-200,000	0,011	0,093
-631,780	574,888	0,042	0,075
-630,765	-94,220	-0,079	-0,016
-629,751	-70,416	-0,118	-0,032
-628,736	-31,817	-0,093	-0,037
-627,722	-200,000	-0,011	0,051
-626,707	-200,000	-0,011	0,139
-625,692	-200,000	-0,013	-0,120
-624,678	800,000	-0,026	0,079
-623,663	-200,000	0,020	-0,064
-622,649	489,439	-0,073	-0,121
-621,634	-31,020	0,081	-0,033
-620,619	-45,424	-0,053	-0,019
-619,605	326,786	-0,020	0,028
-618,590	-200,000	-0,009	0,083
-617,576	92,955	-0,070	-0,057
-616,561	-200,000	0,161	0,000
-615,546	-165,628	-0,256	-0,008
-614,532	-200,000	0,056	-0,195
-613,517	696,633	-0,094	-0,179
-612,503	93,264	-0,083	-0,068
-611,488	225,436	0,051	0,060
-610,474	243,789	0,020	-0,024
-609,459	-107,658	-0,068	-0,011
-608,444	9,696	0,066	-0,036
-607,430	-100,023	-0,160	0,029
-606,415	800,000	0,031	-0,077
-605,401	-200,000	0,015	-0,109
-604,386	45,462	0,117	0,078
-603,371	236,316	0,056	0,067
-602,357	82,706	-0,056	0,044
-601,342	-200,000	-0,019	-0,108
-600,328	226,442	-0,079	-0,092
-599,313	-200,000	0,024	0,109
-598,298	-200,000	-0,002	0,076
-597,284	89,110	0,045	0,036
-596,269	800,000	0,029	0,067
-595,255	-200,000	-0,009	0,127
-594,240	74,953	0,092	-0,070
-593,225	-15,582	0,088	-0,040
-592,211	28,995	-0,179	-0,109
-591,196	-145,619	0,146	-0,009
-590,182	-35,370	-0,088	-0,034
-589,167	-200,000	0,008	0,057
-588,152	-68,954	-0,043	0,012
-587,138	800,000	0,022	-0,046
-586,123	7,079	-0,064	0,034
-585,109	-95,954	-0,128	0,024
-584,094	-200,000	-0,006	-0,151
-583,079	-200,000	-0,010	0,080
-582,065	-200,000	-0,006	0,144
-581,050	-200,000	-0,080	-0,000
-580,036	-2,281	-0,077	0,039
-579,021	800,000	-0,038	0,076
-578,006	-200,000	-0,012	-0,077
-576,992	-114,294	0,073	-0,010
-575,977	-200,000	0,007	-0,038
-574,963	59,845	0,039	-0,027
-573,948	-17,985	0,074	0,033
-572,934	-64,097	0,030	-0,009
-571,919	800,000	-0,027	-0,064
-570,904	24,511	0,055	-0,033
-569,890	-200,000	0,009	-0,072
-568,875	375,974	0,029	-0,043
-567,861	-200,000	0,010	0,105
-566,846	-97,806	0,128	0,024
-565,831	800,000	0,022	0,049
-564,817	22,447	0,055	0,032
-563,802	75,441	-0,110	-0,083
-562,788	-100,073	-0,212	-0,038
-561,773	85,957	0,083	0,066
-560,758	800,000	0,033	0,074
-559,744	-200,000	-0,003	0,085
-558,729	13,033	-0,034	0,019
-557,715	194,368	-0,074	0,081
-556,700	-200,000	-0,010	0,179
-555,685	-111,892	-0,110	-0,016
-554,671	-200,000	0,038	-0,155
-553,656	-200,000	0,009	-0,032
-552,642	-98,713	0,186	0,034
-551,627	69,719	0,098	0,073
-550,612	135,346	-0,107	-0,101
-549,598	800,000	-0,042	-0,086
-548,583	111,998	0,013	0,012
-547,569	-200,000	0,001	0,034
-546,554	54,492	-0,041	0,029
-545,539	122,599	-0,049	0,044
-544,525	-200,000	-0,000	0,071
-543,510	41,342	-0,045	0,029
-542,496	-163,601	0,053	0,002
-541,481	800,000	0,003	-0,007
-540,466	50,525	-0,056	0,038
-539,452	59,146	0,100	0,071
-538,437	20,637	0,081	0,047
-537,423	172,231	0,055	0,057
-536,408	112,832	-0,020	0,018
-535,393	-6,944	-0,199	-0,097
-534,379	-24,109	-0,017	-0,007
-533,364	-137,893	0,056	0,004
-532,350	-200,000	0,002	0,034
-531,335	79,783	0,025	-0,019
-530,321	-72,361	0,089	-0,024
-529,306	147,060	-0,096	0,093
-528,291	445,823	-0,077	-0,122
-527,277	-200,000	-0,010	-0,155
-526,262	99,395	0,089	0,074
-525,248	-200,000	0,014	0,125
-524,233	800,000	0,010	0,026
-523,218	-40,638	-0,102	-0,038
-522,204	185,560	-0,126	0,134
-521,189	350,279	-0,014	0,020
-520,175	-200,000	-0,024	-0,102
-519,160	-200,000	0,026	0,100
-518,145	-138,918	0,082	-0,006
-517,131	-103,066	-0,047	0,008
-516,116	800,000	-0,074	-0,163
-515,102	-104,964	-0,123	-0,020
-514,087	272,913	0,010	-0,012
-513,072	134,224	0,102	-0,095
-512,058	-11,442	-0,161	0,076
-511,043	130,010	0,134	-0,123
-510,029	-38,874	-0,039	-0,015
-509,014	-159,526	0,066	-0,003
-507,999	-200,000	0,007	-0,043
-506,985	-200,000	-0,006	-0,084
-505,970	674,954	-0,009	0,017
-504,956	38,267	-0,064	-0,041
-503,941	-12,802	0,091	-0,043
-502,926	-24,483	0,128	-0,055
-501,912	800,000	0,054	0,169
-500,897	-200,000	0,000	0,009
-499,883	-2,967	-0,106	0,053
-498,868	211,049	0,046	0,052
-497,853	-66,605	0,093	-0,026
-496,839	-72,283	0,084	0,022
-495,824	-200,000	-0,008	-0,030
-494,810	-66,496	-0,155	-0,044
-493,795	189,708	-0,082	0,088
-492,781	45,774	-0,109	-0,072
-491,766	-200,000	0,011	-0,128
-490,751	565,763	0,050	-0,088
-489,737	157,614	0,043	0,043
-488,722	-200,000	-0,006	-0,110
-487,708	-200,000	0,035	0,111
-486,693	308,173	0,064	0,085
-485,678	179,923	0,047	-0,050
-484,664	-85,944	-0,154	-0,034
-483,649	-155,225	-0,157	-0,007
-482,635	441,545	-0,057	0,090
-481,620	-200,000	0,007	-0,037
-480,605	800,000	0,022	-0,055
-479,591	-200,000	-0,006	0,033
-478,576	384,934	-0,096	-0,143
-477,562	800,000	0,060	-0,125
-476,547	-200,000	0,024	-0,101
-475,532	92,024	0,131	-0,106
-474,518	601,126	-0,025	-0,045
-473,503	218,394	0,111	0,127
-472,489	223,349	0,084	0,098
-471,474	19,326	0,012	0,007
-470,459	800,000	-0,004	0,008
-469,445	-188,287	-0,188	0,002
-468,430	-12,289	0,077	-0,036
-467,416	-200,000	-0,012	0,187
-466,401	800,000	0,050	-0,124
-465,386	205,999	-0,033	0,037
-464,372	16,464	0,105	0,059
-463,357	368,365	0,055	0,080
-462,343	-102,830	-0,141	-0,024
-461,328	-90,369	-0,151	0,031
-460,313	-2,075	0,049	0,025
-459,299	653,505	-0,020	-0,037
-458,284	800,000	0,026	-0,056
-457,270	298,937	0,018	-0,024
-456,255	423,168	-0,071	0,110
-455,241	90,719	0,039	-0,032
-454,226	-200,000	-0,022	0,100
-453,211	770,974	0,030	-0,058
-452,197	800,000	-0,044	0,092
-451,182	800,000	0,050	0,154
-450,168	-151,829	0,098	-0,005
-449,153	-67,684	-0,047	-0,013
-448,138	-182,554	-0,152	-0,002
-447,124	-200,000	-0,015	-0,048
-446,109	167,138	-0,049	-0,050
-445,095	-200,000	-0,008	-0,060
-444,080	-162,713	0,107	-0,004
-443,065	-200,000	0,032	-0,104
-442,051	89,013	-0,053	-0,042
-441,036	-200,000	-0,011	-0,070
-440,022	-200,000	0,002	-0,111
-439,007	58,275	0,048	0,034
-437,992	52,084	-0,040	-0,027
-436,978	80,731	-0,111	-0,086
-435,963	-43,145	0,105	0,038
-434,949	-1,764	0,101	-0,051
-433,934	129,784	0,035	-0,032
-432,919	-200,000	-0,047	-0,268
-431,905	-106,166	-0,076	0,012
-430,890	800,000	-0,063	-0,128
-429,876	-200,000	0,027	-0,136
-428,861	356,753	0,053	0,075
-427,846	107,675	0,089	0,076
-426,832	-200,000	0,001	0,090
-425,817	747,317	-0,052	-0,100
-424,803	338,779	-0,034	0,048
-423,788	-126,280	0,072	-0,008
-422,773	5,320	-0,105	0,055
-421,759	-183,793	0,173	0,002
-420,744	-4,317	0,094	-0,047
-419,730	-49,345	-0,074	0,025
-418,715	-57,699	-0,081	0,025
-417,701	-200,000	0,023	-0,107
-416,686	-200,000	0,005	-0,021
-415,671	428,800	-0,063	-0,098
-414,657	153,463	0,050	-0,049
-413,642	-47,470	-0,104	-0,036
-412,628	360,284	-0,008	-0,011
-411,613	10,244	-0,190	-0,103
-410,598	11,838	-0,107	0,059
-409,584	52,314	0,090	-0,061
-408,569	-182,515	0,088	0,001
-407,555	800,000	-0,019	-0,053
-406,540	-200,000	0,008	-0,035
-405,525	460,254	-0,117	0,187
-404,511	-80,052	-0,065	0,016
-403,496	-98,860	0,075	-0,014
-402,482	40,983	0,108	0,069
-401,467	-200,000	-0,009	0,045
-400,452	-164,964	0,053	0,002
-399,438	454,217	0,039	0,062
-398,423	-46,130	0,069	-0,024
-397,409	-128,597	0,163	0,016
-396,394	-200,000	-0,002	-0,027
-395,379	-200,000	-0,014	0,151
-394,365	-131,304	0,123	0,011
-393,350	-89,363	0,004	0,001
-392,336	-200,000	0,010	-0,112
-391,321	-22,101	0,095	0,041
-390,306	-179,993	-0,201	-0,003
-389,292	201,685	0,016	-0,017
-388,277	-13,367	0,027	-0,013
-387,263	-14,319	-0,055	0,025
-386,248	-17,196	0,130	-0,058
-385,233	-200,000	-0,001	0,005
-384,219	72,802	-0,059	0,044
-383,204	-200,000	0,021	-0,121
-382,190	-49,358	-0,140	-0,047
-381,175	-29,672	0,055	0,022
-380,160	328,534	0,038	0,052
-379,146	34,157	-0,034	0,021
-378,131	-132,807	0,123	0,011
-377,117	316,899	0,046	0,062
-376,102	73,693	-0,094	-0,070
-375,088	-1,035	0,127	-0,064
-374,073	800,000	0,055	-0,135
-373,058	452,299	-0,042	0,067
-372,044	761,984	0,061	0,119
-371,029	748,698	-0,016	-0,031
-370,015	-200,000	-0,006	-0,113
-369,000	183,942	-0,065	-0,069
-367,985	331,433	0,052	-0,071
-366,971	425,074	0,035	0,053
-365,956	71,388	0,115	-0,085
-364,942	800,000	-0,028	-0,079
-363,927	533,678	-0,054	0,092
-362,912	800,000	0,075	0,199
-361,898	198,260	-0,024	-0,027
-360,883	-22,313	0,050	-0,022
-359,869	-200,000	0,013	-0,096
-358,854	-93,559	-0,150	0,029
-357,839	27,129	0,083	0,050
-356,825	-200,000	-0,007	0,094
-355,810	192,700	0,112	0,121
-354,796	-14,114	-0,073	-0,034
-353,781	800,000	0,065	0,142
-352,766	11,689	0,129	0,071
-351,752	800,000	-0,070	-0,148
-350,737	-114,152	0,058	-0,008
-349,723	383,742	0,041	0,061
-348,708	-200,000	-0,009	0,059
-347,693	-10,297	-0,137	0,065
-346,679	800,000	-0,033	0,100
-345,664	-24,051	0,125	0,053
-344,650	-200,000	-0,018	0,091
-343,635	67,445	0,075	0,055
-342,620	-24,413	-0,126	0,053
-341,606	118,947	0,115	-0,102
-340,591	106,986	0,137	0,116
-339,577	145,119	-0,115	-0,110
-338,562	319,551	-0,058	-0,078
-337,548	68,269	0,027	0,020
-336,533	-200,000	0,011	-0,091
-335,518	318,442	0,039	0,052
-334,504	127,912	-0,047	-0,043
-333,489	-68,122	0,056	0,015
-332,475	-133,885	0,052	0,005
-331,460	135,340	0,076	-0,071
-330,445	-200,000	-0,021	-0,106
-329,431	55,054	0,161	-0,111
-328,416	113,448	0,075	0,065
-327,402	59,648	0,181	0,127
-326,387	575,236	0,064	0,113
-325,372	-30,564	0,049	-0,020
-324,358	-123,226	0,104	-0,012
-323,343	-200,000	0,021	0,066
-322,329	309,785	0,089	0,119
-321,314	185,440	0,028	0,030
-320,299	-200,000	-0,008	0,027
-319,285	-200,000	-0,026	-0,109
-318,270	800,000	-0,028	-0,083
-317,256	-27,672	-0,060	0,025
-316,241	-200,000	0,006	-0,042
-315,226	-200,000	-0,012	-0,039
-314,212	-47,161	-0,045	-0,015
-313,197	-200,000	-0,061	0,193
-312,183	-108,166	-0,118	-0,018
-311,168	-79,933	0,111	0,026
-310,153	300,976	0,042	-0,055
-309,139	713,506	-0,065	-0,124
-308,124	123,996	-0,070	0,063
-307,110	-29,809	-0,102	-0,041
-306,095	77,372	0,043	-0,032
-305,080	-90,384	0,164	0,034
-304,066	294,666	-0,019	-0,025
-303,051	1,328	-0,176	-0,090
-302,037	593,851	0,040	-0,071
-301,022	800,000	0,028	-0,057
-300,008	32,592	0,085	-0,052
-298,993	800,000	0,035	-0,074
-297,978	-94,762	-0,053	-0,010
-296,964	382,025	0,059	0,087
-295,949	-200,000	0,007	0,038
-294,935	-99,924	0,058	0,010
-293,920	278,408	0,088	0,112
-292,905	94,080	0,121	-0,098
-291,891	-200,000	-0,005	-0,136
-290,876	800,000	-0,009	-0,027
-289,862	452,532	0,041	0,065
-288,847	-42,315	0,050	0,018
-287,832	3,472	-0,132	-0,068
-286,818	-175,970	0,131	0,002
-285,803	800,000	-0,022	0,068
-284,789	6,660	0,222	0,117
-283,774	487,828	0,024	-0,039
-282,759	800,000	0,041	0,120
-281,745	-200,000	0,015	-0,064
-280,730	-200,000	-0,019	-0,073
-279,716	800,000	0,025	0,069
-278,701	-113,310	-0,136	0,019
-277,686	-25,186	0,016	-0,007
-276,672	-19,332	0,083	-0,036
-275,657	-200,000	0,007	-0,090
-274,643	-26,923	-0,064	0,027
-273,628	650,049	0,051	0,093
-272,613	255,155	0,027	0,033
-271,599	388,317	-0,065	0,097
-270,584	113,945	0,123	0,106
-269,570	112,994	0,059	-0,051
-268,555	-184,924	-0,144	-0,002
-267,540	-52,005	-0,054	0,018
-266,526	289,906	0,018	-0,023
-265,511	-200,000	-0,014	-0,097
-264,497	8,825	-0,028	-0,015
-263,482	800,000	-0,010	-0,021
-262,467	330,569	-0,103	0,142
-261,453	-80,928	0,049	-0,011
-260,438	492,412	0,025	-0,041
-259,424	-200,000	0,031	-0,102
-258,409	294,710	-0,119	-0,155
-257,395	800,000	0,008	0,018
-256,380	-101,479	-0,046	-0,008
-255,365	-200,000	0,030	0,117
-254,351	800,000	-0,028	-0,060
-253,336	-200,000	0,008	-0,184
-252,322	8,907	-0,079	-0,042
-251,307	338,395	0,009	-0,012
-250,292	10,540	0,045	-0,024
-249,278	-120,582	0,138	0,016
-248,263	103,584	-0,074	0,062
-247,249	800,000	0,050	0,105
-246,234	800,000	0,037	0,106
-245,219	19,717	-0,130	-0,074
-244,205	-200,000	0,001	-0,028
-243,190	800,000	0,035	0,101
-242,176	-139,496	0,110	-0,008
-241,161	19,411	-0,028	-0,016
-240,146	800,000	0,066	0,135
-239,132	-71,609	-0,066	0,017
-238,117	-11,907	-0,068	-0,032
-237,103	-200,000	-0,015	0,056
-236,088	800,000	0,016	-0,037
-235,073	-23,567	-0,124	-0,053
-234,059	-200,000	0,010	0,084
-233,044	-16,163	-0,042	0,019
-232,030	-17,608	-0,099	-0,044
-231,015	-4,268	-0,059	0,029
-230,000	-200,000	0,004	-0,078
-228,986	-200,000	-0,001	0,042
-227,971	176,959	0,037	0,038
-226,957	-55,842	0,165	0,052
-225,942	254,500	-0,078	0,095
-224,927	-200,000	0,004	0,065
-223,913	-131,495	-0,161	-0,015
-222,898	368,987	-0,098	-0,141
-221,884	8,185	-0,062	-0,033
-220,869	800,000	-0,013	0,030
-219,855	413,784	0,071	0,107
-218,840	-200,000	0,021	0,156
-217,825	-109,818	-0,063	0,009
-216,811	-200,000	0,021	-0,101
-215,796	737,567	-0,045	-0,086
-214,782	-200,000	-0,011	-0,078
-213,767	-200,000	-0,015	-0,060
-212,752	299,196	-0,010	0,013
-211,738	-200,000	0,001	0,147
-210,723	-200,000	0,003	-0,071
-209,709	619,481	-0,020	-0,036
-208,694	-14,788	0,108	-0,049
-207,679	800,000	-0,036	-0,073
-206,665	-200,000	0,013	-0,142
-205,650	-54,622	0,088	-0,028
-204,636	-200,000	-0,009	0,073
-203,621	170,669	-0,110	0,112
-202,606	128,389	0,138	-0,125
-201,592	-101,447	-0,045	-0,008
-200,577	800,000	0,033	0,097
-199,563	-13,478	-0,122	0,056
-198,548	-72,059	0,137	0,036
-197,533	500,895	0,072	0,118
-196,519	-200,000	0,041	0,185
-195,504	298,735	0,073	0,096
-194,490	-200,000	0,020	0,063
-193,475	96,557	-0,077	0,062
-192,460	289,020	-0,113	0,146
-191,446	-200,000	-0,006	0,056
-190,431	127,503	0,064	-0,058
-189,417	-180,900	-0,018	0,000
-188,402	457,444	-0,063	0,099
-187,387	800,000	0,042	-0,111
-186,373	-0,061	0,079	-0,040
-185,358	-200,000	0,031	-0,157
-184,344	251,247	0,073	-0,088
-183,329	-200,000	-0,009	0,079
-182,315	15,558	-0,126	0,070
-181,300	12,671	-0,051	0,028
-180,285	800,000	0,067	0,136
-179,271	-200,000	-0,017	-0,149
-178,256	-144,881	0,074	-0,005
-177,242	-200,000	0,014	0,063
-176,227	-200,000	0,009	0,136
-175,212	-87,168	-0,051	-0,011
-174,198	565,663	-0,087	-0,150
-173,183	800,000	-0,065	-0,157
-172,169	800,000	-0,067	-0,189
-171,154	-69,041	0,052	-0,014
-170,139	191,321	0,038	-0,040
-169,125	-200,000	0,010	0,103
-168,110	-200,000	-0,010	0,104
-167,096	-105,156	0,031	-0,005
-166,081	-87,024	-0,041	0,009
-165,066	-200,000	0,007	0,059
-164,052	90,338	0,072	-0,057
-163,037	135,049	-0,183	0,169
-162,023	-200,000	0,007	0,082
-161,008	149,694	-0,105	0,101
-159,993	800,000	0,082	0,175
-158,979	347,741	0,055	0,077
-157,964	-103,951	-0,042	0,007
-156,950	-190,779	-0,009	0,000
-155,935	-10,768	0,130	-0,060
-154,920	-73,067	0,097	0,025
-153,906	-200,000	0,080	0,257
-152,891	57,117	-0,179	0,123
-151,877	255,881	-0,059	0,071
-150,862	-200,000	-0,003	-0,086
-149,847	-200,000	-0,015	0,058
-148,833	138,959	0,035	0,032
-147,818	800,000	-0,024	-0,061
-146,804	-131,354	0,124	-0,012
-145,789	800,000	0,024	0,067
-144,775	-102,156	-0,125	-0,021
-143,760	800,000	-0,036	-0,084
-142,745	-200,000	0,007	-0,115
-141,731	-20,209	0,060	-0,026
-140,716	225,514	0,046	-0,053
-139,702	800,000	-0,024	-0,048
-138,687	329,705	-0,051	-0,070
-137,672	-200,000	0,003	-0,032
-136,658	-200,000	0,008	-0,033
-135,643	154,727	-0,112	0,109
-134,629	800,000	0,021	-0,059
-133,614	18,679	0,115	0,065
-132,599	-18,052	-0,055	-0,024
-131,585	-86,203	0,086	-0,019
-130,570	4,174	-0,135	0,070
-129,556	-37,674	-0,138	-0,052
-128,541	296,327	-0,124	-0,162
-127,526	-200,000	-0,005	0,019
-126,512	800,000	0,020	0,061
-125,497	345,265	0,072	0,101
-124,483	315,569	0,051	-0,068
-123,468	-200,000	-0,002	-0,136
-122,453	800,000	-0,043	-0,104
-121,439	-69,899	-0,127	-0,034
-120,424	511,015	-0,074	0,122
-119,410	-72,023	0,049	-0,013
-118,395	-200,000	0,003	0,107
-117,380	800,000	0,059	0,118
-116,366	-200,000	-0,035	0,142
-115,351	-112,898	0,048	0,007
-114,337	800,000	0,030	-0,091
-113,322	-200,000	0,006	-0,026
-112,307	392,177	-0,016	0,023
-111,293	-126,415	0,031	0,003
-110,278	609,745	-0,089	0,158
-109,264	248,086	0,060	0,072
-108,249	-14,902	-0,219	-0,099
-107,234	-10,017	0,211	-0,099
-106,220	-200,000	0,011	-0,079
-105,205	-48,463	0,070	-0,024
-104,191	-200,000	0,011	0,086
-103,176	-200,000	-0,028	0,126
-102,162	800,000	-0,043	0,100
-101,147	-2,266	-0,084	0,042
-100,132	-200,000	0,003	-0,020
-99,118	771,659	0,034	-0,066
-98,103	15,653	0,077	0,043
-97,089	-200,000	0,017	0,116
-96,074	-200,000	-0,057	-0,192
-95,059	-200,000	-0,003	-0,093
-94,045	139,236	0,023	-0,021
-93,030	-56,572	-0,093	0,029
-92,016	-109,972	0,131	0,019
-91,001	-200,000	-0,006	-0,030
-89,986	800,000	0,023	0,048
-88,972	239,087	0,142	0,168
-87,957	-142,738	0,076	-0,005
-86,943	-200,000	-0,008	-0,038
-85,928	800,000	-0,017	0,044
-84,913	-178,758	-0,096	0,002
-83,899	-102,141	0,082	0,014
-82,884	-125,593	0,019	0,002
-81,870	22,527	-0,065	0,037
-80,855	-200,000	-0,003	0,082
-79,840	41,602	-0,082	-0,052
-78,826	800,000	0,036	0,083
-77,811	-165,656	0,035	-0,001
-76,797	155,827	0,050	0,049
-75,782	-200,000	0,000	0,039
-74,767	-53,957	0,051	0,016
-73,753	247,474	-0,024	-0,029
-72,738	-86,470	0,063	0,013
-71,724	54,587	0,074	-0,050
-70,709	304,072	0,068	-0,089
-69,694	230,502	0,057	0,066
-68,680	37,062	-0,052	0,032
-67,665	800,000	0,048	-0,108
-66,651	-30,044	0,098	0,039
-65,636	233,725	-0,054	0,063
-64,622	-2,018	0,041	0,020
-63,607	-14,455	-0,074	-0,034
-62,592	800,000	-0,031	0,064
-61,578	-91,801	0,175	0,035
-60,563	202,234	0,113	0,124
-59,549	435,448	0,073	0,113
-58,534	44,411	-2,105	-1,362
-57,519	657,123	-1,108	-2,019
-56,505	-200,000	-0,335	-4,268
-55,490	610,193	0,932	1,650
-54,476	800,000	5,146	11,131
-53,461	-200,000	21,942	339,472
-52,446	800,000	757,340	2294,505
-51,432	532,873	1649,924	2766,643
-50,417	68,930	1648,259	1193,191
-49,403	16,382	1523,349	846,141
-48,388	10,566	1447,959	776,305
-47,373	19,150	1440,015	812,954
-46,359	14,018	1428,726	782,305
-45,344	8,833	1424,969	755,674
-44,330	8,825	1422,693	754,399
-43,315	8,787	1420,890	753,232
-42,300	8,794	1419,126	752,300
-41,286	8,797	1417,997	751,688
-40,271	8,781	1416,738	750,916
-39,257	8,760	1415,597	750,183
-38,242	8,776	1414,380	749,583
-37,227	8,786	1413,450	749,107
-36,213	8,804	1411,996	748,391
-35,198	8,795	1410,904	747,737
-34,184	8,862	1409,898	747,492
-33,169	8,727	1408,608	746,145
-32,154	8,796	1407,536	745,872
-31,140	8,821	1406,183	745,243
-30,125	8,801	1405,309	744,653
-29,111	8,785	1404,121	743,919
-28,096	8,778	1402,918	743,219
-27,082	8,731	1401,694	742,323
-26,067	8,694	1400,694	741,593
-25,052	8,734	1399,697	741,220
-24,038	8,728	1398,743	740,657
-23,023	8,738	1397,669	740,107
-22,009	8,722	1396,682	739,483
-20,994	8,725	1395,553	738,869
-19,979	8,727	1394,604	738,347
-18,965	8,653	1393,711	737,499
-17,950	8,671	1392,752	737,049
-16,936	8,649	1391,925	736,480
-15,921	8,637	1390,885	735,842
-14,906	8,597	1390,299	735,320
-13,892	8,720	1388,939	735,138
-12,877	8,679	1388,109	734,479
-11,863	8,577	1387,736	733,785
-10,848	8,628	1386,626	733,402
-9,833	8,619	1385,607	732,791
-8,819	8,543	1384,780	731,978
-7,804	8,541	1383,761	731,400
-6,790	8,574	1382,719	730,970
-5,775	8,554	1381,987	730,462
-4,760	8,575	1380,764	729,886
-3,746	8,590	1379,830	729,429
-2,731	8,604	1378,863	728,957
-1,717	8,619	1377,931	728,501
-0,702	8,568	1376,518	727,493
0,313	12,584	1288,043	698,957
1,327	28,370	680,894	404,840
2,342	43,535	117,272	75,473
3,356	0,887	16,458	8,287
4,371	3,244	3,585	1,833
5,386	35,362	1,169	0,722
6,400	-200,000	0,143	0,634
7,415	800,000	-0,091	-0,276
8,429	43,219	-0,380	-0,244
9,444	100,608	-0,290	-0,237
10,459	-120,028	-0,315	-0,038
11,473	-4,361	-0,257	-0,125
12,488	-48,066	-0,402	-0,136
13,502	-1,251	-0,287	-0,142
14,517	13,302	-0,230	-0,125
15,531	-20,054	-0,436	-0,188
16,546	62,022	-0,255	-0,179
17,561	140,117	-0,327	-0,304
18,575	-151,236	-0,213	0,011
19,590	46,015	-0,267	-0,173
20,604	105,154	-0,107	-0,089
21,619	65,752	-0,385	-0,274
22,634	114,436	-0,451	-0,386
23,648	180,323	-0,352	-0,364
24,663	61,243	-0,277	-0,194
25,677	-51,326	-0,326	-0,107
26,692	5,528	-0,232	-0,120
27,707	71,466	-0,404	-0,295
28,721	-5,943	-0,359	-0,172
29,736	26,536	-0,310	-0,182
30,750	2,969	-0,559	-0,285
31,765	103,662	-0,376	-0,310
32,780	182,967	-0,292	-0,304
33,794	90,372	-0,268	-0,211
34,809	84,262	-0,354	-0,272
35,823	95,030	-0,334	-0,267
36,838	-64,923	-0,410	-0,116
37,853	192,035	-0,355	-0,377
38,867	-2,285	-0,395	-0,194
39,882	172,424	-0,183	-0,185
40,896	130,427	-0,243	-0,219
41,911	261,246	-0,242	-0,295
42,926	236,616	-0,347	-0,404
43,940	148,819	-0,345	-0,328
44,955	72,165	-0,335	-0,245
45,969	80,312	-0,326	-0,246
46,984	290,093	-0,273	-0,349
47,999	-34,416	-0,365	-0,140
49,013	-53,288	-0,382	-0,122
50,028	224,971	-0,281	-0,319
51,042	47,354	-0,416	-0,271
52,057	238,584	-0,284	-0,332
53,071	163,713	-0,339	-0,335
54,086	24,624	-0,321	-0,186
55,101	-36,599	-0,444	-0,167
56,115	82,507	-0,290	-0,221
57,130	193,056	-0,288	-0,306
58,144	117,457	-0,290	-0,250
59,159	-47,986	-0,458	-0,155
60,174	-28,643	-0,458	-0,184
61,188	233,801	-0,273	-0,316
62,203	206,561	-0,251	-0,275
63,217	232,879	-0,208	-0,240
64,232	106,811	-0,364	-0,303
65,247	8,332	-0,305	-0,160
66,261	406,644	-0,189	-0,281
67,276	157,212	-0,216	-0,210
68,290	93,508	-0,327	-0,260
69,305	168,725	-0,375	-0,375
70,320	151,436	-0,243	-0,232
71,334	-40,044	-0,310	-0,113
72,349	-22,793	-0,286	-0,120
73,363	85,815	-0,342	-0,264
74,378	28,706	-0,291	-0,172
75,393	74,855	-0,346	-0,255
76,407	97,637	-0,163	-0,131
77,422	30,706	-0,422	-0,253
78,436	-19,384	-0,395	-0,171
79,451	-34,589	-0,357	-0,136
80,466	-54,835	-0,401	-0,126
81,480	103,309	-0,289	-0,237
82,495	13,373	-0,313	-0,169
83,509	93,674	-0,285	-0,226
84,524	-43,882	-0,338	-0,119
85,539	-170,777	-0,399	-0,009
86,553	62,540	-0,194	-0,135
87,568	5,139	-0,291	-0,150
88,582	-8,475	-0,390	-0,183
89,597	62,196	-0,222	-0,155
90,611	-58,116	-0,179	-0,054
91,626	254,278	-0,131	-0,157
92,641	162,512	-0,126	-0,123
93,655	-28,273	-0,245	-0,098
94,670	-20,744	-0,349	-0,149
95,684	391,266	-0,307	-0,447
96,699	279,163	-0,223	-0,279
97,714	9,441	-0,313	-0,165
98,728	21,565	-0,185	-0,105
99,743	118,918	-0,201	-0,174
100,757	-4,024	-0,222	-0,107
101,772	36,360	-0,293	-0,180
102,787	133,214	-0,296	-0,267
103,801	302,885	-0,279	-0,361
104,816	4,499	-0,317	-0,162
105,830	-30,492	-0,396	-0,156
106,845	33,113	-0,159	-0,096
107,860	99,305	-0,260	-0,210
108,874	569,507	-0,183	-0,312
109,889	-1,617	-0,309	-0,152
110,903	-39,679	-0,247	-0,090
111,918	-40,895	-0,267	-0,096
112,933	74,165	-0,199	-0,146
113,947	76,654	-0,256	-0,189
114,962	49,252	-0,268	-0,176
115,976	101,284	-0,231	-0,187
116,991	-15,197	-0,262	-0,117
118,006	354,038	-0,203	-0,282
119,020	-35,203	-0,217	-0,082
120,035	43,895	-0,241	-0,154
121,049	-7,916	-0,137	-0,064
122,064	-70,111	-0,217	-0,057
123,079	493,787	-0,174	-0,280
124,093	115,630	-0,289	-0,246
125,108	78,783	-0,350	-0,261
126,122	8,466	-0,383	-0,200
127,137	800,000	-0,098	-0,245
128,151	3,781	-0,206	-0,105
129,166	112,995	-0,271	-0,229
130,181	-44,055	-0,251	-0,087
131,195	168,052	-0,202	-0,201
132,210	-4,612	-0,154	-0,074
133,224	-2,374	-0,205	-0,100
134,239	-9,230	-0,398	-0,185
135,254	-113,370	-0,242	-0,033
136,268	135,769	-0,162	-0,147
137,283	-171,124	-0,265	-0,006
138,297	-47,744	-0,334	-0,112
139,312	-18,335	-0,301	-0,131
140,327	-44,076	-0,259	-0,090
141,341	169,883	-0,238	-0,237
142,356	800,000	-0,117	-0,267
143,370	-56,704	-0,250	-0,077
144,385	89,259	-0,331	-0,257
145,400	-3,132	-0,274	-0,133
146,414	107,590	-0,170	-0,140
147,429	1,018	-0,123	-0,061
148,443	-95,280	-0,258	-0,048
149,458	137,480	-0,219	-0,200
150,473	190,955	-0,218	-0,229
151,487	92,138	-0,249	-0,195
152,502	-5,172	-0,260	-0,124
153,516	518,631	-0,155	-0,254
154,531	243,764	-0,221	-0,259
155,546	-58,520	-0,331	-0,099
156,560	-137,285	-0,308	-0,024
157,575	20,477	-0,328	-0,184
158,589	157,440	-0,245	-0,236
159,604	-0,122	-0,324	-0,160
160,619	-19,544	-0,315	-0,135
161,633	11,698	-0,220	-0,117
162,648	288,872	-0,185	-0,234
163,662	19,195	-0,183	-0,102
164,677	772,776	-0,069	-0,131
165,692	208,717	-0,305	-0,332
166,706	324,905	-0,147	-0,196
167,721	-99,673	-0,284	-0,049
168,735	59,053	-0,268	-0,183
169,750	159,934	-0,214	-0,207
170,764	289,776	-0,206	-0,261
171,779	-27,071	-0,215	-0,087
172,794	-17,735	-0,115	-0,050
173,808	234,833	-0,116	-0,133
174,823	4,351	-0,279	-0,141
175,837	-36,095	-0,302	-0,113
176,852	46,922	-0,219	-0,141
177,867	111,528	-0,278	-0,233
178,881	-97,109	-0,168	0,030
179,896	173,043	-0,190	-0,190
180,910	58,267	-0,209	-0,142
181,925	22,473	-0,258	-0,146
182,940	112,642	-0,295	-0,248
183,954	52,198	-0,261	-0,172
184,969	188,950	-0,197	-0,205
185,983	-97,544	-0,175	-0,031
186,998	20,752	-0,151	-0,084
188,013	125,708	-0,152	-0,133
189,027	12,518	-0,291	-0,155
190,042	122,167	-0,217	-0,188
191,056	122,188	-0,129	-0,112
192,071	266,629	-0,133	-0,161
193,086	49,936	-0,184	-0,120
194,100	-112,411	-0,180	-0,025
195,115	-51,242	-0,186	-0,060
196,129	288,181	-0,132	-0,166
197,144	153,988	-0,228	-0,216
198,159	36,332	-0,164	-0,100
199,173	41,261	-0,180	-0,113
200,188	-200,000	0,004	-0,122
201,202	109,501	-0,264	-0,219
202,217	181,559	-0,202	-0,206
203,232	367,135	-0,201	-0,281
204,246	-112,180	-0,153	-0,021
205,261	11,800	-0,247	-0,131
206,275	758,811	-0,082	-0,154
207,290	370,448	-0,143	-0,201
208,304	7,935	-0,172	-0,089
209,319	72,454	-0,233	-0,168
210,334	23,707	-0,164	-0,093
211,348	111,141	-0,270	-0,225
212,363	-4,259	-0,155	-0,074
213,377	147,384	-0,261	-0,243
214,392	47,458	-0,214	-0,138
215,407	28,698	-0,136	-0,079
216,421	27,194	-0,135	-0,078
217,436	-4,131	-0,208	-0,099
218,450	146,632	-0,199	-0,185
219,465	601,556	-0,127	-0,220
220,480	623,829	-0,100	-0,175
221,494	5,380	-0,191	-0,097
222,509	362,904	-0,122	-0,169
223,523	246,770	-0,180	-0,211
224,538	132,229	-0,198	-0,176
225,553	-109,747	-0,261	-0,038
226,567	800,000	-0,114	-0,253
227,582	359,956	-0,132	-0,183
228,596	37,822	-0,333	-0,204
229,611	93,411	-0,204	-0,160
230,626	377,012	-0,045	-0,064
231,640	313,743	-0,177	-0,230
232,655	65,215	-0,219	-0,153
233,669	48,787	-0,194	-0,126
234,684	158,872	-0,221	-0,212
235,699	-59,436	-0,211	-0,062
236,713	96,944	-0,197	-0,156
237,728	-101,422	-0,264	-0,044
238,742	448,184	-0,128	-0,196
239,757	182,713	-0,165	-0,168
240,772	508,185	-0,179	-0,288
241,786	118,335	-0,206	-0,175
242,801	-122,843	-0,192	0,021
243,815	56,243	-0,195	-0,130
244,830	351,151	-0,117	-0,161
245,844	-125,040	-0,274	-0,029
246,859	33,850	-0,204	-0,122
247,874	102,703	-0,215	-0,173
248,888	-134,202	-0,106	0,009
249,903	-133,486	-0,068	-0,006
250,917	84,776	-0,149	-0,112
251,932	264,096	-0,074	-0,089
252,947	800,000	-0,098	-0,200
253,961	-34,074	-0,225	-0,085
254,976	747,407	-0,136	-0,254
255,990	-33,046	-0,203	-0,077
257,005	-97,006	-0,168	-0,030
258,020	731,973	-0,128	-0,238
259,034	-5,659	-0,155	-0,073
260,049	240,692	-0,119	-0,137
261,063	-174,826	-0,265	-0,005
262,078	110,297	-0,165	-0,137
263,093	-4,625	-0,192	-0,091
264,107	800,000	-0,063	-0,134
265,122	6,338	-0,068	0,035
266,136	-147,498	-0,128	0,007
267,151	-50,705	-0,184	-0,059
268,166	238,034	-0,097	-0,111
269,180	470,995	-0,145	-0,225
270,195	-12,985	-0,279	-0,125
271,209	220,562	-0,223	-0,247
272,224	503,291	-0,084	-0,134
273,239	800,000	0,084	-0,223
274,253	-68,355	-0,110	-0,029
275,268	-33,426	-0,134	-0,051
276,282	-129,144	-0,235	0,022
277,297	-145,419	-0,284	0,017
278,312	24,250	-0,140	-0,079
279,326	-200,000	0,007	-0,340
280,341	-115,298	-0,250	-0,032
281,355	800,000	-0,106	-0,222
282,370	435,724	-0,100	-0,149
283,384	-37,619	-0,210	-0,077
284,399	51,488	-0,145	-0,095
285,414	800,000	-0,063	-0,128
286,428	-139,793	-0,176	-0,013
287,443	108,110	0,026	-0,022
288,457	-21,807	-0,272	-0,113
289,472	-36,171	-0,194	0,072
290,487	213,663	-0,187	-0,204
291,501	167,260	-0,217	-0,212
292,516	16,343	-0,141	-0,076
293,530	255,373	-0,126	-0,149
294,545	-0,682	-0,181	-0,088
295,560	-30,583	-0,255	-0,099
296,574	-193,711	-0,172	-0,001
297,589	395,029	-0,098	-0,140
298,603	95,233	-0,230	-0,180
299,618	-108,627	-0,168	0,024
300,633	309,464	-0,155	-0,199
301,647	151,165	-0,053	-0,050
302,662	239,286	-0,183	-0,209
303,676	-111,757	-0,193	0,027
304,691	41,937	-0,167	-0,104
305,706	242,885	-0,221	-0,255
306,720	488,039	-0,099	-0,155
307,735	-167,693	-0,197	-0,005
308,749	-111,617	-0,186	-0,026
309,764	-61,957	-0,210	-0,060
310,779	303,316	-0,131	-0,167
311,793	-34,085	-0,262	-0,098
312,808	-100,676	-0,204	0,034
313,822	142,028	-0,171	-0,155
314,837	589,853	-0,169	-0,287
315,852	178,449	-0,094	-0,094
316,866	50,507	0,045	-0,029
317,881	160,975	-0,062	-0,060
318,895	-153,025	-0,050	0,002
319,910	800,000	-0,068	-0,133
320,925	278,278	-0,102	-0,125
321,939	-200,000	-0,035	-0,257
322,954	412,048	-0,110	-0,161
323,968	336,035	-0,116	-0,154
324,983	80,357	-0,084	-0,062
325,997	169,336	-0,133	-0,131
327,012	-200,000	-0,000	-0,198
328,027	-149,747	-0,144	-0,008
329,041	800,000	-0,077	-0,197
330,056	-200,000	-0,037	-0,184
331,070	-29,321	-0,167	-0,065
332,085	-183,854	-0,111	-0,001
333,100	-142,194	-0,276	-0,018
334,114	223,850	-0,049	0,054
335,129	-100,668	-0,174	-0,029
336,143	-11,600	-0,129	-0,058
337,158	39,619	-0,069	-0,042
338,173	800,000	-0,102	-0,250
339,187	-200,000	-0,059	-0,194
340,202	-87,221	-0,074	-0,015
341,216	-27,424	-0,136	-0,054
342,231	800,000	-0,099	-0,215
343,246	167,090	-0,155	-0,151
344,260	-75,761	-0,084	-0,020
345,275	5,928	-0,089	-0,045
346,289	-200,000	-0,030	-0,144
347,304	159,982	-0,146	-0,140
348,319	800,000	-0,068	-0,153
349,333	-5,010	-0,158	-0,074
350,348	109,898	-0,163	-0,133
351,362	484,755	-0,157	-0,245
352,377	68,802	-0,192	-0,135
353,392	-14,027	-0,117	-0,052
354,406	13,722	-0,100	0,053
355,421	206,299	1305,791	1391,181
356,435	158,654	1465,389	1391,654
