DTS Sentinel unit serial number:	SN410029Multiplexer serial number:	ORYXHardware model number:	OX2-SRSoftware version number:	ORYX F/W v4,00 Oryx Data Collector v3.7.2.0data status	okinstallation	B3 Nyhavnadifferential loss correction	single-endedforward channel	channel 1reverse channel	N/Adate	2023/11/29time	00:32:30forward acquisition time	300,00reverse acquisition time	0,00gamma	499,1914k internal	0,3212k external	0,3212temperature offset calibration	1,0000default loss term (dB/km)	0,3820temperature slope calibration	1,0000multiplexer offset coefficient	1,0000multiplexer slope coefficient	1,0000fibre end	0,00T internal ref (°C)	9,14T ext. ref 1 (°C)	-5,08T ext. ref 2 (°C)	-5,23length (m)	temperature (°C)	Stokes	anti-Stokes-744,400	153,473	-0,178	-0,177
-743,385	-200,000	0,032	0,241
-742,371	426,998	-0,146	-0,228
-741,356	-200,000	0,025	0,257
-740,342	126,011	-0,167	-0,153
-739,327	800,000	-0,152	0,313
-738,312	594,020	-0,172	-0,309
-737,298	-200,000	0,007	0,301
-736,283	85,053	-0,233	-0,185
-735,269	-200,000	0,011	0,286
-734,254	135,304	-0,139	-0,131
-733,239	-33,248	-0,344	0,137
-732,225	-200,000	-0,025	-0,091
-731,210	194,965	0,099	0,109
-730,196	11,545	-0,104	-0,058
-729,181	-79,986	-0,087	-0,021
-728,167	800,000	0,080	-0,175
-727,152	265,692	-0,079	-0,101
-726,137	-200,000	-0,025	0,108
-725,123	13,249	0,054	-0,030
-724,108	794,457	0,051	0,102
-723,094	88,495	-0,106	-0,085
-722,079	356,279	-0,033	-0,048
-721,064	800,000	0,047	0,129
-720,050	-200,000	-0,023	0,168
-719,035	-200,000	-0,039	0,131
-718,021	-24,572	0,133	-0,057
-717,006	511,365	-0,056	-0,095
-715,991	-145,316	-0,148	-0,010
-714,977	-39,777	-0,104	-0,039
-713,962	-55,414	-0,116	-0,037
-712,948	-200,000	0,035	0,145
-711,933	-4,275	-0,072	-0,036
-710,918	800,000	0,067	0,165
-709,904	-118,547	0,072	-0,009
-708,889	-21,638	-0,154	-0,068
-707,875	253,721	0,039	-0,049
-706,860	-149,901	0,032	0,002
-705,845	-200,000	-0,015	0,048
-704,831	-61,871	-0,051	0,015
-703,816	-139,166	-0,172	0,013
-702,802	34,648	0,066	0,041
-701,787	166,162	-0,088	-0,090
-700,772	-200,000	0,019	-0,097
-699,758	-19,961	0,030	-0,014
-698,743	163,391	-0,051	0,052
-697,729	-1,074	-0,011	0,006
-696,714	-200,000	0,008	-0,131
-695,699	-200,000	0,006	0,030
-694,685	800,000	0,051	-0,156
-693,670	147,447	0,025	0,024
-692,656	800,000	0,016	-0,044
-691,641	144,908	0,006	0,006
-690,627	800,000	-0,065	0,132
-689,612	-93,410	0,134	-0,027
-688,597	123,241	-0,052	0,047
-687,583	525,409	0,088	-0,151
-686,568	111,036	-0,049	0,042
-685,554	21,275	0,096	-0,056
-684,539	800,000	-0,024	0,051
-683,524	-200,000	0,008	-0,155
-682,510	-200,000	-0,034	0,114
-681,495	283,397	-0,015	0,020
-680,481	86,679	0,079	-0,063
-679,466	-104,065	-0,066	0,011
-678,451	701,989	-0,046	-0,087
-677,437	424,106	-0,055	0,086
-676,422	94,862	-0,078	0,064
-675,408	-200,000	0,003	0,010
-674,393	-200,000	-0,013	-0,097
-673,378	-200,000	-0,006	0,079
-672,364	454,571	-0,087	-0,139
-671,349	-56,431	0,089	-0,028
-670,335	129,886	-0,100	-0,093
-669,320	800,000	-0,037	-0,090
-668,305	252,697	0,068	-0,084
-667,291	-28,148	-0,160	0,066
-666,276	800,000	0,062	0,132
-665,262	-200,000	0,063	-0,255
-664,247	264,942	-0,004	0,006
-663,232	800,000	-0,051	0,120
-662,218	167,434	0,053	-0,054
-661,203	-44,676	0,086	0,031
-660,189	657,549	-0,021	-0,040
-659,174	800,000	0,019	0,039
-658,159	501,975	-0,075	0,125
-657,145	509,372	0,030	0,051
-656,130	-55,906	0,079	-0,025
-655,116	-200,000	0,007	-0,135
-654,101	800,000	0,033	-0,103
-653,086	-200,000	-0,007	0,087
-652,072	526,309	-0,037	-0,064
-651,057	-97,518	-0,173	-0,032
-650,043	800,000	-0,009	0,023
-649,028	800,000	-0,042	-0,120
-648,014	-109,295	0,151	0,023
-646,999	800,000	-0,029	0,062
-645,984	-3,855	-0,128	-0,064
-644,970	49,486	0,057	-0,038
-643,955	271,272	-0,024	-0,030
-642,941	-200,000	0,006	-0,101
-641,926	-187,241	-0,087	-0,001
-640,911	-200,000	0,028	0,114
-639,897	651,843	0,038	0,070
-638,882	-65,252	0,121	0,035
-637,868	-200,000	0,005	0,021
-636,853	459,286	-0,066	-0,106
-635,838	-200,000	-0,005	-0,136
-634,824	129,780	-0,057	-0,052
-633,809	277,929	0,030	0,038
-632,795	-200,000	0,037	0,128
-631,780	800,000	-0,050	0,117
-630,765	-200,000	0,022	-0,111
-629,751	-92,616	-0,170	0,034
-628,736	800,000	-0,045	-0,111
-627,722	372,868	0,021	0,031
-626,707	-4,158	-0,108	-0,054
-625,692	-124,861	0,117	-0,013
-624,678	800,000	-0,057	0,132
-623,663	-85,187	-0,028	0,006
-622,649	40,650	-0,033	-0,021
-621,634	-139,843	0,044	-0,003
-620,619	800,000	0,088	-0,177
-619,605	263,022	0,144	-0,180
-618,590	78,350	-0,028	0,022
-617,576	642,368	-0,056	-0,103
-616,561	-120,536	-0,098	-0,012
-615,546	-146,785	0,036	-0,002
-614,532	-18,996	-0,027	0,012
-613,517	800,000	-0,012	0,027
-612,503	800,000	0,033	0,095
-611,488	572,237	-0,026	0,046
-610,474	-200,000	0,016	0,055
-609,459	0,629	0,070	0,036
-608,444	-200,000	-0,012	-0,074
-607,430	-200,000	0,025	-0,086
-606,415	-5,561	-0,075	-0,037
-605,401	-122,235	0,017	0,002
-604,386	112,319	0,033	0,028
-603,371	-200,000	-0,008	0,048
-602,357	59,941	0,094	0,067
-601,342	594,466	0,056	-0,100
-600,328	0,401	-0,173	-0,089
-599,313	542,496	-0,044	-0,077
-598,298	-166,382	-0,247	0,007
-597,284	-200,000	-0,012	0,090
-596,269	-200,000	0,014	0,101
-595,255	-200,000	-0,010	-0,102
-594,240	-186,502	0,105	0,001
-593,225	-200,000	0,008	-0,185
-592,211	800,000	-0,051	-0,115
-591,196	-90,929	0,118	-0,024
-590,182	-121,706	0,089	0,010
-589,167	-47,383	0,056	0,019
-588,152	-200,000	-0,035	0,165
-587,138	-38,619	-0,096	-0,036
-586,123	725,090	0,024	-0,047
-585,109	-103,403	-0,084	0,014
-584,094	-200,000	0,012	-0,188
-583,079	52,422	0,214	0,147
-582,065	800,000	-0,050	0,103
-581,050	800,000	-0,019	0,047
-580,036	-144,278	0,012	-0,001
-579,021	-200,000	0,035	-0,117
-578,006	730,117	-0,022	-0,043
-576,992	182,223	0,130	-0,139
-575,977	146,789	-0,049	-0,047
-574,963	-128,545	0,210	0,021
-573,948	800,000	0,039	0,085
-572,934	777,753	-0,052	0,102
-571,919	-68,818	-0,205	-0,057
-570,904	404,438	-0,048	-0,073
-569,890	10,303	-0,061	-0,033
-568,875	140,069	0,088	0,084
-567,861	-145,990	0,142	-0,009
-566,846	-200,000	0,007	0,095
-565,831	-200,000	0,014	0,147
-564,817	-200,000	-0,021	-0,129
-563,802	-89,654	0,061	0,013
-562,788	176,356	-0,089	0,094
-561,773	-200,000	0,020	0,113
-560,758	156,098	0,105	-0,104
-559,744	587,920	0,042	0,075
-558,729	800,000	-0,049	-0,108
-557,715	-200,000	-0,010	-0,045
-556,700	800,000	0,046	-0,118
-555,685	255,237	0,049	-0,060
-554,671	-200,000	0,008	-0,037
-553,656	44,033	0,012	0,008
-552,642	-200,000	-0,031	0,145
-551,627	-200,000	-0,018	0,129
-550,612	151,658	-0,067	-0,066
-549,598	60,946	0,037	0,026
-548,583	800,000	-0,010	0,029
-547,569	-82,541	0,114	-0,026
-546,554	-200,000	-0,027	-0,123
-545,539	-53,618	-0,106	0,035
-544,525	-42,141	0,110	-0,040
-543,510	102,396	0,062	-0,053
-542,496	183,502	-0,104	-0,111
-541,481	532,521	-0,079	-0,135
-540,466	199,385	0,102	-0,113
-539,452	-51,091	-0,070	0,024
-538,437	-200,000	-0,005	0,076
-537,423	518,414	-0,040	-0,067
-536,408	354,318	0,032	-0,046
-535,393	34,589	0,045	-0,028
-534,379	-200,000	-0,012	-0,107
-533,364	-83,672	-0,026	0,006
-532,350	167,939	0,075	-0,077
-531,335	564,523	-0,078	0,137
-530,321	509,213	0,012	0,020
-529,306	4,687	0,045	-0,024
-528,291	-200,000	-0,058	-0,191
-527,277	-200,000	-0,012	-0,171
-526,262	-125,065	-0,135	-0,015
-525,248	-55,838	-0,111	0,036
-524,233	53,035	0,101	-0,069
-523,218	285,544	0,058	0,075
-522,204	-106,797	-0,079	0,012
-521,189	-148,784	-0,219	-0,013
-520,175	-200,000	0,004	-0,123
-519,160	800,000	0,033	-0,089
-518,145	-81,029	0,055	-0,013
-517,131	363,802	-0,003	0,004
-516,116	-153,837	0,077	-0,004
-515,102	-156,609	0,049	0,002
-514,087	-55,772	-0,068	-0,022
-513,072	188,059	-0,069	-0,074
-512,058	56,626	-0,059	-0,041
-511,043	800,000	0,021	0,047
-510,029	-8,114	0,033	-0,016
-509,014	-25,289	-0,051	-0,021
-507,999	-93,277	-0,037	0,007
-506,985	-200,000	0,058	-0,185
-505,970	202,559	-0,052	-0,058
-504,956	-68,063	-0,067	0,019
-503,941	-200,000	-0,026	0,088
-502,926	-94,875	-0,014	0,003
-501,912	-122,515	-0,086	0,010
-500,897	-85,349	0,057	0,013
-499,883	102,482	-0,026	-0,022
-498,868	85,728	-0,119	0,094
-497,853	800,000	-0,021	-0,062
-496,839	2,710	-0,111	-0,058
-495,824	631,370	-0,006	0,010
-494,810	-200,000	0,015	-0,078
-493,795	-118,105	-0,038	-0,005
-492,781	259,046	-0,023	0,029
-491,766	-200,000	-0,021	-0,082
-490,751	-200,000	0,012	-0,058
-489,737	-77,002	0,053	-0,013
-488,722	113,474	-0,022	-0,019
-487,708	-47,021	-0,149	0,052
-486,693	-70,811	-0,057	0,015
-485,678	183,937	-0,127	-0,135
-484,664	127,836	-0,037	0,033
-483,649	-200,000	-0,032	-0,120
-482,635	-82,505	0,046	0,011
-481,620	-134,284	0,178	0,015
-480,605	-200,000	0,014	-0,051
-479,591	19,023	0,034	0,019
-478,576	-116,025	0,092	0,012
-477,562	-28,784	-0,059	0,024
-476,547	173,376	0,013	0,013
-475,532	375,259	0,040	-0,058
-474,518	587,169	0,020	-0,036
-473,503	-176,176	0,066	0,001
-472,489	800,000	0,036	-0,109
-471,474	248,671	-0,049	0,060
-470,459	800,000	0,050	0,116
-469,445	598,123	-0,045	-0,081
-468,430	55,162	0,080	-0,055
-467,416	800,000	-0,013	0,040
-466,401	1,794	0,050	0,026
-465,386	-35,122	-0,076	0,030
-464,372	247,079	0,063	0,076
-463,357	-82,377	-0,041	0,009
-462,343	800,000	-0,052	-0,141
-461,328	400,601	-0,020	-0,031
-460,313	-200,000	0,015	0,113
-459,299	33,537	0,106	-0,066
-458,284	-127,808	0,154	-0,016
-457,270	-67,089	-0,046	0,013
-456,255	-70,240	0,034	0,009
-455,241	800,000	0,008	-0,018
-454,226	-200,000	-0,013	-0,083
-453,211	-200,000	-0,011	-0,087
-452,197	-45,154	0,074	-0,026
-451,182	283,869	-0,043	-0,056
-450,168	196,163	0,075	-0,082
-449,153	-112,229	-0,096	-0,014
-448,138	384,409	0,076	-0,113
-447,124	261,079	0,045	0,056
-446,109	-200,000	-0,022	0,086
-445,095	129,066	-0,029	0,027
-444,080	412,078	0,055	0,083
-443,065	-41,355	-0,002	0,001
-442,051	-200,000	0,003	-0,038
-441,036	145,117	-0,040	0,039
-440,022	-36,644	-0,036	0,014
-439,007	-99,340	0,038	0,007
-437,992	27,106	0,150	0,090
-436,978	-1,806	0,146	0,073
-435,963	390,359	0,023	-0,034
-434,949	241,290	-0,104	-0,124
-433,934	159,307	0,095	0,094
-432,919	72,316	-0,037	-0,028
-431,905	-200,000	-0,023	0,103
-430,890	-96,083	0,074	-0,014
-429,876	-198,732	-0,063	-0,000
-428,861	136,108	0,065	0,061
-427,846	-43,294	0,078	-0,028
-426,832	-200,000	0,016	0,168
-425,817	88,590	-0,057	-0,045
-424,803	-200,000	0,016	-0,147
-423,788	-5,911	0,132	-0,064
-422,773	125,194	-0,057	-0,051
-421,759	-200,000	-0,031	-0,143
-420,744	-145,884	-0,077	0,005
-419,730	43,656	-0,021	0,014
-418,715	800,000	0,007	0,021
-417,701	800,000	0,040	0,120
-416,686	462,228	-0,058	-0,092
-415,671	117,491	0,104	0,092
-414,657	174,635	0,015	0,015
-413,642	-93,947	0,096	0,019
-412,628	191,010	-0,139	0,149
-411,613	-77,698	-0,077	0,019
-410,598	-200,000	-0,010	-0,076
-409,584	-42,802	0,048	-0,018
-408,569	348,469	0,106	0,150
-407,555	800,000	-0,029	0,080
-406,540	800,000	0,026	0,062
-405,525	-200,000	-0,003	-0,010
-404,511	800,000	-0,046	0,109
-403,496	-200,000	-0,004	0,015
-402,482	127,977	-0,038	-0,035
-401,467	219,651	0,060	0,069
-400,452	-49,513	0,182	0,062
-399,438	290,334	-0,071	0,092
-398,423	-65,167	-0,090	0,026
-397,409	310,764	-0,087	-0,117
-396,394	-200,000	-0,022	-0,088
-395,379	-200,000	-0,026	-0,098
-394,365	-5,505	0,120	0,059
-393,350	-200,000	-0,007	0,102
-392,336	434,244	0,068	0,106
-391,321	-200,000	-0,039	0,133
-390,306	91,817	-0,135	0,108
-389,292	-111,023	0,091	0,013
-388,277	123,287	-0,147	0,131
-387,263	-138,881	0,111	0,009
-386,248	-200,000	-0,015	-0,095
-385,233	800,000	-0,009	0,025
-384,219	208,096	0,090	0,101
-383,204	-30,186	-0,094	0,038
-382,190	11,184	0,022	-0,012
-381,175	-200,000	-0,006	-0,070
-380,160	281,568	-0,081	0,104
-379,146	184,113	0,092	0,097
-378,131	800,000	-0,011	-0,029
-377,117	605,104	-0,064	-0,115
-376,102	-200,000	0,016	-0,052
-375,088	800,000	-0,011	0,028
-374,073	-200,000	0,033	0,120
-373,058	-132,637	0,130	0,012
-372,044	-71,068	-0,022	0,006
-371,029	43,024	0,078	-0,051
-370,015	286,073	-0,070	0,090
-369,000	-200,000	0,022	-0,075
-367,985	-132,615	-0,082	-0,007
-366,971	-200,000	-0,008	-0,066
-365,956	29,787	-0,139	0,085
-364,942	-200,000	-0,013	0,174
-363,927	-200,000	-0,019	-0,107
-362,912	-200,000	0,037	0,132
-361,898	800,000	0,022	0,069
-360,883	274,044	-0,111	-0,141
-359,869	-150,877	-0,112	0,006
-358,854	47,957	-0,092	0,061
-357,839	64,672	0,081	-0,058
-356,825	-200,000	0,005	0,068
-355,810	-200,000	-0,013	0,158
-354,796	-200,000	-0,013	0,046
-353,781	-90,340	-0,095	0,020
-352,766	310,179	0,027	-0,036
-351,752	-142,724	0,133	-0,009
-350,737	59,599	0,049	0,034
-349,723	-52,251	-0,062	-0,020
-348,708	310,393	0,035	0,047
-347,693	36,647	-0,031	0,019
-346,679	171,373	-0,010	0,010
-345,664	374,626	-0,025	0,036
-344,650	299,211	0,070	-0,092
-343,635	-8,798	-0,047	0,022
-342,620	-65,741	0,165	0,047
-341,606	-200,000	0,030	0,109
-340,591	-145,193	-0,065	-0,004
-339,577	229,666	-0,103	-0,121
-338,562	800,000	0,062	-0,184
-337,548	-186,444	-0,069	0,001
-336,533	-123,115	0,102	-0,012
-335,518	54,040	-0,127	0,087
-334,504	510,280	-0,026	0,044
-333,489	-89,843	0,049	0,010
-332,475	204,929	-0,138	-0,153
-331,460	800,000	0,040	-0,093
-330,445	-200,000	0,092	0,000
-329,431	-200,000	-0,009	0,034
-328,416	-173,650	0,082	0,002
-327,402	-40,865	0,063	-0,023
-326,387	-200,000	0,001	-0,054
-325,372	-70,092	-0,061	0,016
-324,358	-200,000	0,000	0,102
-323,343	31,567	-0,043	-0,026
-322,329	40,413	0,104	-0,067
-321,314	800,000	0,012	-0,030
-320,299	146,947	0,037	0,035
-319,285	-200,000	-0,020	-0,116
-318,270	-200,000	0,013	-0,067
-317,256	109,582	0,089	0,076
-316,241	304,262	-0,057	-0,076
-315,226	-31,955	0,071	0,028
-314,212	-200,000	-0,022	0,093
-313,197	-59,602	0,054	0,016
-312,183	250,265	-0,114	-0,138
-311,168	304,166	0,073	0,097
-310,153	347,131	-0,060	0,085
-309,139	331,173	-0,078	-0,107
-308,124	405,458	0,041	-0,061
-307,110	-56,487	0,027	0,008
-306,095	636,351	-0,012	-0,021
-305,080	-123,905	-0,128	0,014
-304,066	116,098	-0,049	-0,043
-303,051	-108,558	-0,177	0,027
-302,037	297,424	0,033	0,043
-301,022	112,481	0,046	0,040
-300,008	-15,462	0,031	-0,014
-298,993	-200,000	-0,012	0,158
-297,978	214,034	-0,061	0,068
-296,964	-126,412	-0,024	0,003
-295,949	-83,371	0,039	-0,009
-294,935	400,354	-0,100	-0,150
-293,920	-200,000	0,015	0,054
-292,905	-200,000	0,004	0,040
-291,891	-87,369	0,121	-0,026
-290,876	-200,000	-0,002	-0,084
-289,862	-200,000	-0,015	-0,070
-288,847	421,643	-0,045	-0,069
-287,832	13,547	-0,133	-0,073
-286,818	477,193	0,036	0,058
-285,803	276,668	0,083	0,105
-284,789	-66,637	0,152	0,042
-283,774	-8,284	-0,124	-0,059
-282,759	60,085	-0,088	-0,062
-281,745	40,397	-0,044	-0,028
-280,730	473,483	-0,064	-0,103
-279,716	-200,000	0,007	-0,074
-278,701	-76,958	-0,086	0,021
-277,686	-12,642	-0,020	0,009
-276,672	-54,803	0,143	0,046
-275,657	508,216	0,070	0,117
-274,643	-200,000	-0,023	-0,099
-273,628	-70,996	-0,070	-0,019
-272,613	386,842	0,041	0,061
-271,599	800,000	-0,031	-0,078
-270,584	-200,000	-0,003	0,044
-269,570	760,709	-0,119	0,231
-268,555	469,477	0,017	0,027
-267,540	429,340	-0,072	-0,112
-266,526	-200,000	-0,010	-0,076
-265,511	118,611	0,024	-0,021
-264,497	-8,042	-0,022	0,011
-263,482	-54,006	-0,042	0,013
-262,467	114,593	0,173	0,150
-261,453	-200,000	-0,006	0,041
-260,438	-60,058	0,021	0,006
-259,424	333,352	-0,036	0,050
-258,409	137,657	0,099	-0,092
-257,395	38,732	0,090	0,057
-256,380	-200,000	0,023	0,101
-255,365	-149,190	0,030	0,002
-254,351	28,943	0,053	0,032
-253,336	800,000	-0,011	-0,030
-252,322	201,074	-0,038	0,042
-251,307	-89,151	-0,023	-0,005
-250,292	249,223	0,052	-0,063
-249,278	-200,000	-0,007	-0,050
-248,263	228,132	-0,090	0,105
-247,249	440,353	0,014	-0,022
-246,234	577,991	0,023	-0,041
-245,219	23,081	-0,045	0,026
-244,205	54,577	-0,081	-0,056
-243,190	-77,650	-0,146	0,036
-242,176	-6,281	0,142	0,069
-241,161	144,623	0,129	0,123
-240,146	-59,008	0,064	0,019
-239,132	-200,000	-0,007	-0,107
-238,117	75,517	-0,046	0,035
-237,103	800,000	0,025	0,063
-236,088	77,069	-0,017	-0,013
-235,073	-120,435	0,109	0,013
-234,059	111,170	0,020	0,017
-233,044	34,676	0,049	-0,030
-232,030	22,566	-0,176	-0,102
-231,015	-200,000	-0,034	-0,146
-230,000	800,000	0,043	-0,112
-228,986	-200,000	-0,026	-0,161
-227,971	-135,507	-0,035	-0,003
-226,957	-200,000	0,020	0,155
-225,942	534,509	-0,040	0,068
-224,927	10,728	0,079	0,043
-223,913	293,721	-0,070	0,091
-222,898	55,604	-0,023	-0,016
-221,884	-56,090	0,102	-0,032
-220,869	-57,504	-0,131	0,041
-219,855	-110,254	0,110	0,016
-218,840	6,245	0,051	0,027
-217,825	800,000	-0,014	0,032
-216,811	-200,000	0,000	0,063
-215,796	-200,000	-0,006	-0,066
-214,782	-200,000	0,018	0,107
-213,767	80,094	0,099	0,076
-212,752	344,344	0,032	0,045
-211,738	-170,762	-0,084	-0,002
-210,723	-200,000	0,008	-0,079
-209,709	800,000	0,049	0,105
-208,694	-200,000	0,016	-0,111
-207,679	-200,000	0,021	-0,114
-206,665	-44,938	0,041	0,014
-205,650	82,414	0,107	0,083
-204,636	-200,000	-0,022	0,219
-203,621	-200,000	-0,004	0,076
-202,606	6,187	0,059	0,031
-201,592	671,618	-0,032	0,059
-200,577	-154,623	-0,146	0,007
-199,563	-31,604	0,111	-0,044
-198,548	236,797	0,112	-0,132
-197,533	79,013	-0,051	0,039
-196,519	-200,000	0,048	0,165
-195,504	-200,000	0,003	-0,053
-194,490	-200,000	-0,016	-0,071
-193,475	437,801	0,039	-0,060
-192,460	33,111	-0,095	-0,058
-191,446	-102,486	0,136	0,023
-190,431	-95,767	0,084	-0,016
-189,417	188,916	0,031	0,033
-188,402	800,000	0,027	-0,063
-187,387	-200,000	0,006	0,051
-186,373	449,767	-0,033	0,051
-185,358	800,000	0,034	0,097
-184,344	706,501	-0,093	-0,175
-183,329	67,499	0,063	-0,045
-182,315	-66,497	-0,024	0,007
-181,300	724,720	0,038	0,071
-180,285	800,000	-0,013	0,041
-179,271	800,000	0,026	0,073
-178,256	-200,000	-0,002	0,171
-177,242	-200,000	-0,110	-0,000
-176,227	66,314	0,085	0,061
-175,212	-37,692	-0,069	-0,026
-174,198	184,349	0,102	0,107
-173,183	438,749	-0,034	-0,053
-172,169	-95,572	-0,140	-0,026
-171,154	21,631	0,046	0,026
-170,139	800,000	-0,054	0,124
-169,125	-200,000	-0,023	0,075
-168,110	-88,226	-0,103	-0,022
-167,096	183,763	0,105	0,110
-166,081	-128,457	-0,064	-0,006
-165,066	-194,307	0,149	-0,001
-164,052	-83,262	-0,037	0,008
-163,037	500,668	-0,037	0,061
-162,023	18,376	0,061	-0,034
-161,008	4,099	-0,041	-0,021
-159,993	-200,000	-0,011	0,057
-158,979	800,000	0,027	-0,066
-157,964	800,000	0,027	-0,055
-156,950	-200,000	0,003	-0,021
-155,935	-131,948	-0,122	-0,011
-154,920	350,254	0,106	0,148
-153,906	190,090	0,015	-0,015
-152,891	224,068	-0,112	0,129
-151,877	800,000	0,045	-0,089
-150,862	22,858	-0,073	-0,042
-149,847	345,444	-0,035	-0,049
-148,833	180,448	-0,045	0,046
-147,818	-54,805	0,150	-0,048
-146,804	-96,125	0,112	0,021
-145,789	-200,000	-0,004	-0,045
-144,775	298,323	-0,019	-0,024
-143,760	262,418	-0,002	-0,002
-142,745	25,389	-0,045	0,026
-141,731	-47,220	-0,132	0,045
-140,716	-12,082	0,071	-0,033
-139,702	-200,000	0,022	0,092
-138,687	476,411	0,136	0,218
-137,672	-200,000	0,004	0,141
-136,658	-105,300	-0,164	-0,026
-135,643	-200,000	-0,037	-0,119
-134,629	-200,000	-0,017	0,087
-133,614	165,325	0,025	0,025
-132,599	37,127	-0,045	-0,028
-131,585	661,309	0,042	0,078
-130,570	98,370	-0,060	0,049
-129,556	35,686	-0,052	-0,033
-128,541	-200,000	0,032	0,131
-127,526	445,507	-0,022	0,034
-126,512	604,946	0,040	-0,070
-125,497	-60,644	-0,065	-0,019
-124,483	-186,717	0,104	0,001
-123,468	-200,000	-0,012	0,117
-122,453	129,660	0,064	-0,058
-121,439	-200,000	0,029	-0,144
-120,424	17,509	-0,046	-0,026
-119,410	42,965	0,051	-0,033
-118,395	458,216	0,023	0,036
-117,380	-200,000	-0,024	0,255
-116,366	-16,528	-0,106	0,047
-115,351	787,686	0,109	-0,212
-114,337	354,068	-0,081	0,114
-113,322	800,000	-0,028	0,080
-112,307	800,000	0,041	-0,086
-111,293	111,568	0,050	-0,043
-110,278	105,238	-0,066	-0,055
-109,264	800,000	-0,037	0,074
-108,249	37,775	0,006	-0,004
-107,234	614,807	-0,057	0,102
-106,220	-60,948	-0,058	-0,017
-105,205	-175,756	-0,034	0,001
-104,191	2,165	0,108	0,055
-103,176	-200,000	-0,003	0,170
-102,162	20,404	0,137	0,078
-101,147	-30,730	-0,046	0,018
-100,132	-121,516	-0,043	-0,005
-99,118	-200,000	0,010	0,036
-98,103	89,920	0,065	-0,051
-97,089	87,770	0,065	0,051
-96,074	169,025	-0,096	-0,097
-95,059	-200,000	0,021	-0,094
-94,045	-200,000	0,003	-0,061
-93,030	-16,551	-0,159	-0,071
-92,016	-200,000	-0,028	0,097
-91,001	-38,443	0,103	-0,038
-89,986	189,758	-0,049	0,052
-88,972	-200,000	0,032	0,124
-87,957	-105,032	-0,065	-0,010
-86,943	800,000	-0,026	-0,059
-85,928	373,541	0,059	-0,084
-84,913	-200,000	0,015	0,099
-83,899	292,770	-0,040	-0,052
-82,884	523,666	-0,016	0,026
-81,870	-200,000	-0,013	0,091
-80,855	-90,502	0,057	0,012
-79,840	72,591	0,056	-0,041
-78,826	148,185	-0,057	0,055
-77,811	800,000	0,014	0,032
-76,797	-186,649	-0,086	0,001
-75,782	65,781	0,020	0,015
-74,767	528,025	-0,069	0,115
-73,753	499,516	-0,051	-0,083
-72,738	34,216	-0,082	0,050
-71,724	-200,000	0,017	0,082
-70,709	-10,980	-0,094	-0,044
-69,694	449,725	0,082	0,128
-68,680	44,354	0,126	0,082
-67,665	-200,000	-0,019	0,061
-66,651	-55,250	-0,049	-0,016
-65,636	25,643	0,070	0,041
-64,622	-200,000	-0,030	-0,147
-63,607	61,510	-0,212	-0,149
-62,592	130,284	-0,053	-0,048
-61,578	-78,384	-0,059	0,014
-60,563	-68,704	0,063	0,017
-59,549	376,050	0,053	0,076
-58,534	32,303	-2,199	-1,337
-57,519	484,442	-1,176	-1,896
-56,505	-200,000	-0,242	-4,278
-55,490	642,974	0,907	1,639
-54,476	800,000	5,118	11,090
-53,461	-200,000	21,753	338,577
-52,446	800,000	760,285	2311,116
-51,432	537,950	1655,763	2786,991
-50,417	69,981	1652,882	1201,798
-49,403	16,843	1526,597	850,206
-48,388	10,971	1450,899	779,771
-47,373	19,016	1442,832	813,840
-46,359	14,369	1431,777	785,579
-45,344	9,250	1427,631	759,005
-44,330	9,154	1425,758	757,523
-43,315	9,218	1423,983	756,852
-42,300	9,180	1422,537	755,873
-41,286	9,237	1420,942	755,270
-40,271	9,214	1419,861	754,553
-39,257	9,166	1418,614	753,634
-38,242	9,225	1417,290	753,179
-37,227	9,234	1416,427	752,735
-36,213	9,235	1414,912	751,902
-35,198	9,237	1413,935	751,363
-34,184	9,241	1413,029	750,870
-33,169	9,147	1411,660	749,672
-32,154	9,245	1410,556	749,519
-31,140	9,208	1409,148	748,567
-30,125	9,265	1408,016	748,200
-29,111	9,237	1406,903	747,449
-28,096	9,265	1405,556	746,835
-27,082	9,144	1404,612	745,740
-26,067	9,142	1403,733	745,231
-25,052	9,135	1402,680	744,609
-24,038	9,178	1401,693	744,256
-23,023	9,175	1400,475	743,570
-22,009	9,140	1399,504	742,860
-20,994	9,161	1398,600	742,450
-19,979	9,146	1397,780	741,914
-18,965	9,185	1396,522	741,399
-17,950	9,146	1395,861	740,834
-16,936	9,100	1395,123	740,203
-15,921	9,071	1393,950	739,415
-14,906	9,093	1393,101	739,041
-13,892	9,124	1391,911	738,522
-12,877	9,115	1391,264	738,105
-11,863	9,102	1390,621	737,676
-10,848	9,091	1389,426	736,963
-9,833	9,021	1388,679	736,213
-8,819	8,963	1387,636	735,366
-7,804	8,989	1386,762	734,993
-6,790	8,993	1385,709	734,423
-5,775	9,006	1384,748	733,945
-4,760	9,016	1383,784	733,448
-3,746	9,017	1382,855	732,934
-2,731	8,994	1382,310	732,512
-1,717	8,974	1381,131	731,765
-0,702	8,981	1379,442	730,874
0,313	12,943	1291,721	702,434
1,327	28,948	683,724	407,780
2,342	44,702	117,960	76,350
3,356	-1,163	16,531	8,209
4,371	10,027	3,616	1,930
5,386	11,951	1,098	0,593
6,400	800,000	0,261	0,644
7,415	-105,857	-0,136	0,021
8,429	-16,987	-0,389	-0,172
9,444	-200,000	-0,004	-0,200
10,459	-56,928	-0,327	-0,101
11,473	293,535	-0,209	-0,269
12,488	24,233	-0,141	-0,082
13,502	-34,741	-0,245	-0,094
14,517	-26,879	-0,355	-0,145
15,531	175,787	-0,282	-0,288
16,546	23,236	-0,391	-0,226
17,561	222,210	-0,313	-0,355
18,575	24,087	-0,196	-0,114
19,590	37,123	-0,319	-0,199
20,604	-68,154	-0,373	-0,102
21,619	121,833	-0,403	-0,354
22,634	194,920	-0,388	-0,415
23,648	19,037	-0,442	-0,249
24,663	184,103	-0,232	-0,242
25,677	58,618	-0,370	-0,255
26,692	-23,650	-0,275	-0,116
27,707	-3,324	-0,357	-0,174
28,721	215,202	-0,284	-0,317
29,736	78,927	-0,338	-0,254
30,750	48,618	-0,391	-0,258
31,765	13,872	-0,498	-0,271
32,780	176,079	-0,296	-0,303
33,794	15,939	-0,386	-0,213
34,809	26,546	-0,279	-0,164
35,823	70,085	-0,426	-0,309
36,838	14,745	-0,375	-0,206
37,853	59,928	-0,464	-0,322
38,867	189,015	-0,261	-0,275
39,882	37,646	-0,331	-0,206
40,896	34,353	-0,345	-0,211
41,911	-74,721	-0,448	-0,112
42,926	90,289	-0,295	-0,232
43,940	-1,949	-0,423	-0,208
44,955	19,117	-0,367	-0,206
45,969	43,690	-0,442	-0,284
46,984	146,416	-0,359	-0,338
47,999	18,081	-0,349	-0,195
49,013	136,134	-0,265	-0,243
50,028	-48,792	-0,369	-0,124
51,042	85,584	-0,373	-0,287
52,057	7,428	-0,381	-0,199
53,071	17,240	-0,366	-0,203
54,086	202,753	-0,261	-0,283
55,101	217,793	-0,316	-0,354
56,115	-3,772	-0,277	-0,134
57,130	-73,010	-0,400	-0,102
58,144	53,392	-0,456	-0,306
59,159	71,215	-0,438	-0,318
60,174	58,088	-0,350	-0,240
61,188	112,562	-0,348	-0,295
62,203	66,291	-0,329	-0,234
63,217	4,165	-0,332	-0,170
64,232	77,068	-0,296	-0,221
65,247	111,558	-0,365	-0,309
66,261	54,693	-0,376	-0,254
67,276	82,041	-0,246	-0,187
68,290	6,517	-0,448	-0,233
69,305	71,973	-0,175	-0,128
70,320	-20,912	-0,264	-0,113
71,334	-8,287	-0,304	-0,143
72,349	-101,530	-0,452	-0,076
73,363	-46,911	-0,383	-0,131
74,378	6,721	-0,298	-0,155
75,393	-97,269	-0,424	-0,077
76,407	88,318	-0,231	-0,180
77,422	-42,556	-0,348	-0,123
78,436	-47,052	-0,359	-0,122
79,451	518,985	-0,231	-0,380
80,466	10,173	-0,372	-0,197
81,480	197,299	-0,272	-0,291
82,495	191,615	-0,199	-0,210
83,509	240,369	-0,210	-0,246
84,524	94,002	-0,283	-0,225
85,539	80,976	-0,262	-0,198
86,553	28,282	-0,329	-0,194
87,568	95,524	-0,397	-0,317
88,582	36,823	-0,349	-0,215
89,597	254,454	-0,249	-0,298
90,611	48,856	-0,207	-0,136
91,626	-23,626	-0,372	-0,155
92,641	-28,479	-0,310	-0,124
93,655	27,918	-0,214	-0,126
94,670	89,591	-0,224	-0,175
95,684	-29,244	-0,317	-0,126
96,699	187,734	-0,203	-0,212
97,714	97,407	-0,163	-0,131
98,728	94,265	-0,225	-0,179
99,743	49,945	-0,302	-0,199
100,757	-1,886	-0,237	-0,116
101,772	37,041	-0,358	-0,221
102,787	-152,685	-0,319	-0,016
103,801	-33,555	-0,254	-0,097
104,816	524,414	-0,130	-0,215
105,830	-186,515	-0,287	0,003
106,845	197,862	-0,156	-0,167
107,860	7,002	-0,284	-0,147
108,874	-5,085	-0,454	-0,218
109,889	55,965	-0,285	-0,193
110,903	188,080	-0,195	-0,204
111,918	52,396	-0,281	-0,187
112,933	125,681	-0,209	-0,184
113,947	216,508	-0,144	-0,160
114,962	-48,317	-0,221	0,074
115,976	-12,667	-0,266	-0,121
116,991	-117,136	-0,197	-0,025
118,006	268,276	-0,189	-0,231
119,020	633,416	-0,095	-0,168
120,035	331,411	-0,208	-0,280
121,049	630,124	-0,094	-0,167
122,064	10,728	-0,275	-0,146
123,079	84,965	-0,246	-0,188
124,093	139,521	-0,200	-0,183
125,108	58,700	-0,244	-0,167
126,122	-68,097	-0,210	-0,057
127,137	-5,264	-0,216	-0,103
128,151	-191,798	-0,280	-0,002
129,166	-84,449	-0,183	-0,040
130,181	142,183	-0,191	-0,177
131,195	86,268	-0,234	-0,179
132,210	93,757	-0,262	-0,207
133,224	75,600	-0,210	-0,154
134,239	122,759	-0,139	-0,122
135,254	-129,833	-0,117	-0,011
136,268	389,754	-0,207	-0,300
137,283	-37,039	-0,252	-0,093
138,297	156,915	-0,276	-0,266
139,312	-32,472	-0,358	-0,138
140,327	224,012	-0,199	-0,225
141,341	-82,738	-0,291	-0,065
142,356	58,563	-0,203	-0,139
143,370	49,815	-0,290	-0,190
144,385	85,855	-0,247	-0,189
145,400	-30,395	-0,245	-0,096
146,414	387,463	-0,181	-0,261
147,429	133,557	-0,333	-0,300
148,443	169,077	-0,214	-0,212
149,458	123,456	-0,207	-0,181
150,473	30,686	-0,274	-0,163
151,487	-10,645	-0,276	-0,126
152,502	326,517	-0,122	-0,163
153,516	800,000	-0,149	-0,295
154,531	126,789	-0,203	-0,179
155,546	-144,154	-0,259	-0,017
156,560	-44,346	-0,239	-0,083
157,575	181,639	-0,029	-0,030
158,589	-131,684	-0,348	-0,031
159,604	238,662	-0,160	-0,185
160,619	188,672	-0,171	-0,178
161,633	-119,741	-0,203	-0,024
162,648	-103,751	-0,280	-0,045
163,662	-42,277	-0,226	-0,080
164,677	43,213	-0,143	-0,091
165,692	-160,588	-0,328	-0,012
166,706	94,603	-0,177	-0,139
167,721	370,027	-0,191	-0,269
168,735	31,269	-0,245	-0,146
169,750	100,731	-0,243	-0,196
170,764	299,876	-0,064	-0,082
171,779	-44,310	-0,170	-0,059
172,794	163,979	-0,219	-0,215
173,808	37,385	-0,326	-0,201
174,823	131,022	-0,305	-0,272
175,837	303,723	-0,223	-0,288
176,852	131,619	-0,185	-0,165
177,867	71,902	-0,209	-0,151
178,881	-54,580	-0,282	-0,088
179,896	-104,257	-0,234	0,037
180,910	233,173	-0,200	-0,228
181,925	95,827	-0,225	-0,178
182,940	-116,232	-0,319	-0,041
183,954	287,849	-0,145	-0,182
184,969	93,707	-0,214	-0,168
185,983	327,679	-0,079	-0,106
186,998	82,555	-0,295	-0,222
188,013	-95,102	-0,225	-0,042
189,027	13,698	-0,193	-0,104
190,042	-52,266	-0,245	-0,078
191,056	-47,039	-0,213	-0,072
192,071	437,143	-0,106	-0,161
193,086	578,429	-0,122	-0,208
194,100	800,000	-0,115	-0,240
195,115	52,672	-0,221	-0,146
196,129	46,919	-0,187	-0,121
197,144	800,000	-0,140	-0,295
198,159	85,597	-0,217	-0,165
199,173	30,256	-0,272	-0,161
200,188	-63,577	-0,221	-0,062
201,202	63,603	-0,188	-0,131
202,217	152,830	-0,165	-0,156
203,232	-21,729	-0,324	-0,136
204,246	147,266	-0,157	-0,146
205,261	422,302	-0,211	-0,314
206,275	182,308	-0,204	-0,208
207,290	300,583	-0,185	-0,237
208,304	-200,000	-0,062	-0,251
209,319	333,781	-0,166	-0,223
210,334	242,282	-0,187	-0,217
211,348	204,116	-0,217	-0,233
212,363	-32,197	-0,107	-0,041
213,377	202,405	-0,150	-0,160
214,392	33,965	-0,121	-0,073
215,407	206,965	-0,107	-0,116
216,421	95,098	-0,223	-0,175
217,436	-117,829	-0,254	-0,031
218,450	-17,735	-0,146	-0,063
219,465	19,850	-0,210	-0,117
220,480	-200,000	-0,099	-0,322
221,494	-119,313	-0,213	-0,025
222,509	-161,057	-0,147	0,005
223,523	-84,397	-0,163	-0,035
224,538	-132,344	-0,237	-0,021
225,553	-94,505	-0,221	0,041
226,567	164,336	-0,227	-0,221
227,582	274,101	-0,114	-0,140
228,596	297,492	-0,087	-0,111
229,611	214,799	-0,128	-0,140
230,626	166,938	-0,128	-0,126
231,640	-59,854	-0,239	-0,070
232,655	-90,608	-0,153	-0,030
233,669	-57,211	-0,175	-0,053
234,684	59,359	-0,191	-0,130
235,699	181,813	-0,159	-0,162
236,713	73,236	-0,070	-0,051
237,728	-13,280	-0,135	0,060
238,742	-12,919	-0,058	-0,026
239,757	111,338	-0,199	-0,166
240,772	179,634	-0,155	-0,157
241,786	22,509	-0,122	-0,069
242,801	-3,979	-0,221	-0,105
243,815	88,125	-0,172	-0,131
244,830	97,444	-0,102	-0,081
245,844	-186,767	-0,186	-0,002
246,859	68,261	-0,231	-0,163
247,874	370,879	-0,136	-0,190
248,888	19,860	-0,176	-0,098
249,903	444,935	-0,096	-0,146
250,917	18,854	-0,264	-0,146
251,932	76,619	-0,110	-0,081
252,947	252,192	-0,120	-0,142
253,961	-56,716	-0,193	-0,058
254,976	-23,665	-0,187	-0,077
255,990	156,570	-0,189	-0,180
257,005	-135,372	-0,215	-0,017
258,020	224,953	-0,137	-0,153
259,034	496,982	-0,144	-0,229
260,049	283,779	-0,209	-0,259
261,063	728,848	-0,059	-0,110
262,078	800,000	-0,131	-0,268
263,093	-45,266	-0,237	-0,081
264,107	-55,990	-0,175	-0,053
265,122	5,718	-0,021	0,011
266,136	50,145	-0,234	-0,152
267,151	100,131	-0,152	-0,121
268,166	29,318	-0,125	-0,073
269,180	-98,566	-0,196	-0,034
270,195	-47,539	-0,297	-0,099
271,209	-136,605	-0,168	0,013
272,224	-200,000	-0,031	-0,220
273,239	237,493	-0,039	-0,045
274,253	21,435	-0,117	-0,065
275,268	13,415	-0,249	-0,133
276,282	87,140	-0,158	-0,120
277,297	174,608	-0,217	-0,216
278,312	800,000	-0,094	-0,199
279,326	-62,030	-0,176	-0,050
280,341	-89,844	-0,178	0,036
281,355	-111,126	-0,099	0,014
282,370	194,473	-0,134	-0,140
283,384	-48,279	-0,239	-0,079
284,399	221,386	-0,109	-0,121
285,414	73,793	-0,179	-0,129
286,428	-72,451	-0,240	-0,061
287,443	-57,355	-0,135	0,041
288,457	141,434	-0,101	-0,092
289,472	-118,705	-0,165	-0,020
290,487	800,000	-0,142	-0,284
291,501	800,000	-0,083	-0,251
292,516	67,213	-0,145	-0,102
293,530	110,820	-0,239	-0,198
294,545	27,731	-0,171	-0,099
295,560	800,000	-0,031	-0,089
296,574	12,149	-0,190	-0,100
297,589	550,247	-0,110	-0,182
298,603	4,303	-0,305	-0,153
299,618	124,040	-0,176	-0,152
300,633	168,253	-0,135	-0,133
301,647	800,000	-0,099	-0,220
302,662	800,000	-0,056	-0,108
303,676	-48,295	-0,068	-0,022
304,691	448,010	-0,167	-0,254
305,706	-125,717	-0,180	-0,018
306,720	52,217	-0,116	-0,076
307,735	800,000	-0,064	-0,133
308,749	800,000	-0,097	-0,190
309,764	86,477	-0,144	-0,109
310,779	412,595	-0,043	-0,063
311,793	164,947	-0,267	-0,259
312,808	22,692	-0,287	-0,161
313,822	63,212	-0,236	-0,162
314,837	26,495	-0,224	-0,128
315,852	800,000	0,003	-0,008
316,866	-200,000	-0,034	-0,204
317,881	-35,225	-0,022	-0,008
318,895	10,038	-0,213	-0,110
319,910	800,000	-0,074	-0,154
320,925	5,152	-0,187	-0,094
321,939	-182,396	-0,134	0,002
322,954	-109,279	-0,276	-0,040
323,968	544,092	0,038	-0,063
324,983	461,026	-0,046	-0,071
325,997	20,647	-0,116	-0,064
327,012	26,952	-0,137	-0,078
328,027	36,596	-0,176	-0,106
329,041	28,977	-0,145	-0,084
330,056	-0,206	-0,154	-0,075
331,070	53,602	-0,183	-0,120
332,085	-7,583	-0,119	-0,055
333,100	-80,571	-0,115	0,026
334,114	155,543	-0,083	-0,078
335,129	312,323	-0,112	-0,145
336,143	103,477	-0,128	-0,103
337,158	30,763	-0,134	-0,078
338,173	-44,324	-0,169	-0,058
339,187	173,778	-0,128	-0,126
340,202	-141,505	-0,091	-0,006
341,216	15,397	-0,078	-0,042
342,231	64,035	-0,163	-0,112
343,246	-45,386	-0,166	-0,056
344,260	-107,728	-0,155	-0,023
345,275	-200,000	-0,030	-0,172
346,289	83,056	-0,221	-0,164
347,304	122,334	-0,102	-0,087
348,319	-200,000	-0,028	-0,223
349,333	277,573	-0,139	-0,170
350,348	143,560	-0,156	-0,142
351,362	800,000	-0,041	-0,079
352,377	-67,877	-0,116	-0,031
353,392	697,267	-0,061	-0,110
354,406	-95,352	-0,217	-0,039
355,421	206,717	1306,153	1392,718
356,435	158,991	1465,812	1393,197
