DTS Sentinel unit serial number:	SN410029Multiplexer serial number:	ORYXHardware model number:	OX2-SRSoftware version number:	ORYX F/W v4,00 Oryx Data Collector v3.7.2.0data status	okinstallation	B3 Nyhavnadifferential loss correction	single-endedforward channel	channel 1reverse channel	N/Adate	2023/11/30time	07:17:30forward acquisition time	300,00reverse acquisition time	0,00gamma	499,1914k internal	0,3210k external	0,3210temperature offset calibration	1,0000default loss term (dB/km)	0,3820temperature slope calibration	1,0000multiplexer offset coefficient	1,0000multiplexer slope coefficient	1,0000fibre end	0,00T internal ref (°C)	10,06T ext. ref 1 (°C)	-5,78T ext. ref 2 (°C)	-5,91length (m)	temperature (°C)	Stokes	anti-Stokes-744,400	607,636	-0,118	-0,214
-743,385	-200,000	0,116	0,376
-742,371	-78,750	-0,149	-0,036
-741,356	-200,000	0,075	0,251
-740,342	119,515	-0,147	-0,132
-739,327	-200,000	-0,107	0,401
-738,312	539,235	-0,105	-0,181
-737,298	629,862	-0,093	0,171
-736,283	309,371	-0,088	-0,120
-735,269	-200,000	0,055	0,362
-734,254	800,000	-0,079	-0,226
-733,239	-48,820	-0,342	0,118
-732,225	122,409	-0,172	-0,156
-731,210	-200,000	0,032	0,192
-730,196	16,111	-0,123	0,070
-729,181	315,571	-0,073	0,099
-728,167	-200,000	-0,006	0,044
-727,152	60,314	-0,157	0,113
-726,137	173,545	0,039	0,040
-725,123	-60,181	-0,155	0,048
-724,108	800,000	-0,045	0,098
-723,094	800,000	-0,016	0,033
-722,079	-200,000	-0,040	-0,151
-721,064	366,204	-0,066	-0,097
-720,050	-157,360	0,125	-0,005
-719,035	-200,000	0,021	0,138
-718,021	-200,000	0,005	-0,026
-717,006	-200,000	-0,002	-0,086
-715,991	-90,240	-0,134	-0,028
-714,977	440,304	-0,049	-0,078
-713,962	677,866	-0,061	-0,115
-712,948	-49,560	0,047	-0,016
-711,933	-136,326	-0,058	-0,005
-710,918	19,212	0,129	0,075
-709,904	108,466	-0,145	-0,125
-708,889	108,440	-0,063	-0,055
-707,875	26,542	-0,066	-0,040
-706,860	206,620	0,034	0,038
-705,845	1,455	0,036	-0,019
-704,831	179,010	-0,055	-0,059
-703,816	568,218	-0,023	-0,040
-702,802	337,593	-0,014	-0,020
-701,787	496,807	-0,046	0,076
-700,772	-136,933	-0,148	-0,012
-699,758	-59,046	-0,018	0,006
-698,743	251,294	-0,006	0,008
-697,729	-91,901	0,125	-0,025
-696,714	-200,000	0,005	0,051
-695,699	550,838	0,007	0,012
-694,685	-60,323	-0,215	0,066
-693,670	4,899	-0,132	0,070
-692,656	373,644	0,013	0,018
-691,641	171,326	0,068	0,070
-690,627	-40,299	0,078	-0,029
-689,612	242,613	-0,087	0,105
-688,597	-200,000	0,024	0,093
-687,583	800,000	-0,081	-0,175
-686,568	-86,864	0,074	-0,016
-685,554	-170,828	-0,101	-0,002
-684,539	-200,000	0,014	-0,061
-683,524	-144,954	-0,019	-0,001
-682,510	243,999	-0,082	0,100
-681,495	-106,684	-0,133	-0,021
-680,481	172,939	-0,060	0,063
-679,466	-166,531	-0,132	0,004
-678,451	-9,439	-0,135	-0,065
-677,437	-155,800	-0,080	-0,004
-676,422	471,709	0,060	-0,098
-675,408	29,686	-0,067	0,041
-674,393	-59,068	-0,176	0,055
-673,378	382,833	-0,003	0,005
-672,364	-27,531	-0,073	-0,031
-671,349	171,648	-0,066	0,068
-670,335	150,128	0,057	0,056
-669,320	169,432	-0,093	0,097
-668,305	16,102	0,122	0,069
-667,291	-0,771	0,030	0,015
-666,276	12,829	-0,044	0,024
-665,262	-153,119	-0,085	0,004
-664,247	-200,000	0,039	-0,145
-663,232	105,983	0,056	0,048
-662,218	-67,575	0,076	-0,021
-661,203	-133,528	-0,163	-0,015
-660,189	186,598	-0,078	-0,084
-659,174	-200,000	-0,025	0,118
-658,159	-10,610	-0,027	0,013
-657,145	800,000	-0,064	-0,157
-656,130	-200,000	0,003	0,032
-655,116	-93,903	0,059	0,012
-654,101	-200,000	0,005	0,076
-653,086	-200,000	0,008	0,063
-652,072	-200,000	0,009	-0,150
-651,057	-78,191	-0,142	-0,035
-650,043	800,000	-0,027	-0,080
-649,028	19,600	0,090	-0,052
-648,014	-70,157	0,027	0,007
-646,999	659,908	0,052	0,098
-645,984	-91,948	0,099	-0,020
-644,970	-99,794	-0,140	-0,025
-643,955	800,000	-0,016	0,051
-642,941	-26,864	0,059	0,025
-641,926	408,317	0,062	0,095
-640,911	19,664	-0,106	0,062
-639,897	127,164	-0,036	0,033
-638,882	38,827	-0,069	0,044
-637,868	-200,000	0,046	0,149
-636,853	-113,215	0,080	-0,011
-635,838	-100,015	-0,109	-0,019
-634,824	-200,000	-0,018	0,066
-633,809	-200,000	0,009	-0,033
-632,795	-200,000	0,003	0,140
-631,780	-63,910	0,039	0,011
-630,765	226,139	-0,066	-0,078
-629,751	-200,000	0,003	-0,062
-628,736	192,579	-0,103	-0,113
-627,722	49,617	0,008	0,005
-626,707	-39,251	0,037	-0,014
-625,692	-200,000	-0,015	0,119
-624,678	-63,437	-0,095	0,028
-623,663	152,556	0,024	-0,024
-622,649	-25,656	-0,091	-0,039
-621,634	-79,431	-0,200	-0,048
-620,619	-200,000	0,000	0,022
-619,605	-200,000	-0,010	0,050
-618,590	-92,532	0,186	0,037
-617,576	27,997	0,064	-0,039
-616,561	243,525	-0,130	-0,158
-615,546	800,000	-0,014	-0,040
-614,532	-97,073	-0,187	0,035
-613,517	-23,488	-0,016	0,007
-612,503	-44,289	-0,127	0,045
-611,488	449,233	0,094	0,150
-610,474	800,000	-0,069	0,173
-609,459	83,919	-0,047	-0,037
-608,444	-200,000	0,004	0,121
-607,430	-200,000	-0,017	-0,158
-606,415	-168,310	-0,189	-0,005
-605,401	-200,000	-0,003	-0,057
-604,386	626,098	0,042	-0,078
-603,371	61,148	0,021	-0,015
-602,357	-200,000	-0,044	-0,183
-601,342	409,525	-0,095	-0,146
-600,328	-200,000	-0,031	0,119
-599,313	396,568	-0,040	0,060
-598,298	-68,347	-0,129	0,036
-597,284	617,403	-0,073	0,132
-596,269	800,000	-0,037	0,095
-595,255	567,916	0,059	-0,103
-594,240	-200,000	-0,043	-0,144
-593,225	-62,347	-0,080	-0,024
-592,211	-158,860	-0,072	-0,003
-591,196	79,470	0,046	0,036
-590,182	-127,010	0,128	0,013
-589,167	-57,686	0,048	-0,015
-588,152	77,447	0,113	0,087
-587,138	-200,000	0,035	-0,136
-586,123	39,632	-0,184	-0,119
-585,109	-7,528	-0,116	-0,056
-584,094	122,620	0,050	-0,045
-583,079	-180,297	-0,097	0,001
-582,065	253,372	-0,090	0,111
-581,050	800,000	0,030	0,063
-580,036	-28,012	0,043	0,018
-579,021	-23,643	-0,108	-0,046
-578,006	800,000	-0,011	-0,026
-576,992	17,637	-0,114	-0,065
-575,977	-200,000	0,011	0,048
-574,963	-33,936	0,016	0,006
-573,948	-200,000	-0,006	0,025
-572,934	62,633	0,103	0,074
-571,919	-166,332	-0,144	-0,004
-570,904	-43,284	-0,045	-0,016
-569,890	-200,000	0,005	-0,015
-568,875	307,587	-0,039	0,053
-567,861	-33,044	0,100	0,040
-566,846	88,734	0,012	0,009
-565,831	59,091	0,068	-0,048
-564,817	97,240	-0,096	-0,079
-563,802	242,370	-0,079	-0,096
-562,788	140,514	0,079	0,075
-561,773	-4,495	0,132	-0,066
-560,758	88,282	-0,153	-0,122
-559,744	-81,647	-0,081	0,019
-558,729	-4,618	0,076	0,038
-557,715	-200,000	-0,017	-0,070
-556,700	800,000	-0,039	-0,113
-555,685	-12,011	-0,102	0,048
-554,671	800,000	0,043	-0,112
-553,656	800,000	-0,010	0,022
-552,642	-200,000	0,030	0,109
-551,627	-35,937	-0,120	-0,047
-550,612	0,722	0,127	-0,065
-549,598	-78,959	0,119	0,029
-548,583	-38,014	-0,009	-0,003
-547,569	-64,648	0,168	-0,049
-546,554	89,206	0,093	0,075
-545,539	-50,369	0,086	0,029
-544,525	-200,000	-0,010	0,124
-543,510	16,150	-0,045	0,025
-542,496	146,731	-0,113	0,109
-541,481	800,000	0,037	-0,096
-540,466	-8,146	0,080	-0,038
-539,452	290,950	-0,012	0,016
-538,437	-95,534	0,117	0,022
-537,423	-19,497	-0,052	-0,023
-536,408	-200,000	0,018	0,080
-535,393	-65,802	-0,081	0,023
-534,379	-200,000	0,023	0,075
-533,364	711,952	0,032	-0,061
-532,350	-200,000	-0,008	-0,133
-531,335	404,422	0,091	0,138
-530,321	-83,327	-0,114	-0,026
-529,306	708,210	0,019	-0,035
-528,291	417,171	-0,007	-0,011
-527,277	78,467	-0,107	0,082
-526,262	151,010	0,156	-0,153
-525,248	800,000	-0,035	0,088
-524,233	-200,000	0,020	0,068
-523,218	770,013	-0,021	0,041
-522,204	37,673	-0,031	0,020
-521,189	214,358	-0,123	0,141
-520,175	169,837	-0,082	-0,085
-519,160	800,000	0,038	0,114
-518,145	-116,130	0,042	-0,005
-517,131	-5,766	0,087	0,043
-516,116	50,446	-0,125	0,085
-515,102	-22,595	-0,095	0,041
-514,087	283,654	-0,094	-0,121
-513,072	200,055	-0,064	0,070
-512,058	-132,854	0,051	-0,005
-511,043	132,754	0,021	0,020
-510,029	800,000	0,043	0,105
-509,014	-7,547	0,149	-0,072
-507,999	144,578	-0,084	0,081
-506,985	41,399	-0,089	0,057
-505,970	96,151	-0,022	-0,018
-504,956	-200,000	-0,013	0,050
-503,941	-24,340	-0,103	-0,044
-502,926	43,809	0,052	0,034
-501,912	-192,052	-0,046	-0,000
-500,897	-122,963	-0,097	0,011
-499,883	-166,659	0,081	-0,002
-498,868	-200,000	0,022	-0,100
-497,853	360,940	-0,063	-0,091
-496,839	-200,000	0,010	0,075
-495,824	800,000	0,071	0,149
-494,810	-200,000	0,035	0,167
-493,795	-200,000	-0,024	0,078
-492,781	-87,006	0,066	-0,014
-491,766	-71,187	0,110	-0,030
-490,751	-60,353	-0,091	-0,028
-489,737	52,094	0,030	-0,021
-488,722	203,052	0,205	0,227
-487,708	-200,000	-0,000	0,058
-486,693	800,000	0,081	0,181
-485,678	-60,444	0,093	-0,028
-484,664	39,116	0,125	0,080
-483,649	-50,644	0,069	0,023
-482,635	160,437	0,079	0,079
-481,620	35,140	-0,026	-0,017
-480,605	-200,000	0,000	-0,074
-479,591	261,152	0,015	0,019
-478,576	555,624	0,055	0,096
-477,562	562,008	-0,112	-0,196
-476,547	280,412	-0,084	-0,108
-475,532	-200,000	0,004	-0,088
-474,518	298,890	0,021	-0,027
-473,503	407,636	0,051	0,078
-472,489	-84,445	0,174	-0,039
-471,474	23,363	-0,049	0,029
-470,459	-165,091	-0,117	-0,004
-469,445	800,000	-0,011	-0,022
-468,430	800,000	-0,031	0,084
-467,416	128,686	0,029	0,026
-466,401	155,803	0,094	0,093
-465,386	42,980	0,048	-0,031
-464,372	454,914	-0,061	-0,098
-463,357	-114,101	-0,050	-0,007
-462,343	-200,000	0,017	-0,122
-461,328	8,766	0,028	0,015
-460,313	-200,000	0,005	-0,077
-459,299	-200,000	0,001	0,133
-458,284	800,000	-0,029	0,073
-457,270	800,000	0,045	0,137
-456,255	39,426	0,137	0,088
-455,241	-104,470	0,028	-0,005
-454,226	-82,268	-0,046	0,011
-453,211	128,772	0,059	0,054
-452,197	-3,195	0,120	0,060
-451,182	-200,000	-0,051	0,169
-450,168	-38,556	0,236	-0,089
-449,153	402,901	-0,092	-0,139
-448,138	46,349	-0,163	-0,108
-447,124	346,330	-0,062	-0,087
-446,109	-200,000	0,013	0,047
-445,095	800,000	0,024	-0,057
-444,080	-200,000	-0,027	0,129
-443,065	56,605	0,029	0,020
-442,051	-23,545	-0,143	-0,061
-441,036	31,767	-0,062	-0,038
-440,022	248,720	-0,088	-0,107
-439,007	-200,000	-0,018	-0,069
-437,992	199,376	-0,061	0,068
-436,978	-200,000	-0,026	0,178
-435,963	1,647	0,045	0,023
-434,949	303,687	-0,054	-0,072
-433,934	-200,000	-0,020	-0,079
-432,919	800,000	-0,060	-0,176
-431,905	56,492	0,055	0,038
-430,890	-14,807	-0,089	-0,041
-429,876	800,000	-0,029	0,081
-428,861	-74,714	-0,084	-0,021
-427,846	108,679	0,114	-0,098
-426,832	55,847	-0,118	-0,082
-425,817	-200,000	0,040	-0,129
-424,803	-200,000	-0,014	-0,049
-423,788	-200,000	-0,014	0,145
-422,773	24,433	0,175	0,103
-421,759	800,000	-0,010	0,023
-420,744	258,823	-0,054	0,067
-419,730	800,000	0,023	-0,046
-418,715	-200,000	-0,010	-0,144
-417,701	614,536	0,054	-0,098
-416,686	-200,000	-0,000	0,079
-415,671	450,785	0,035	-0,056
-414,657	72,153	0,177	0,132
-413,642	-92,233	0,107	-0,021
-412,628	-75,042	-0,109	0,028
-411,613	103,538	0,025	-0,021
-410,598	-180,536	-0,106	0,002
-409,584	87,738	-0,068	-0,054
-408,569	-200,000	0,036	0,124
-407,555	-200,000	0,016	0,053
-406,540	-200,000	0,018	-0,059
-405,525	-51,569	-0,090	-0,030
-404,511	237,381	-0,096	-0,114
-403,496	-127,091	0,032	-0,003
-402,482	-125,551	0,036	-0,004
-401,467	800,000	-0,033	-0,067
-400,452	-157,696	0,077	-0,003
-399,438	56,310	-0,024	0,016
-398,423	106,857	0,120	-0,102
-397,409	248,658	0,049	-0,060
-396,394	-92,846	-0,059	-0,012
-395,379	15,133	-0,040	0,023
-394,365	-151,755	0,277	-0,014
-393,350	800,000	0,011	0,026
-392,336	-88,200	-0,109	0,023
-391,321	-200,000	-0,013	-0,090
-390,306	560,218	0,116	0,202
-389,292	110,826	-0,051	-0,044
-388,277	32,036	-0,062	0,038
-387,263	-148,282	0,148	0,009
-386,248	550,277	-0,090	0,155
-385,233	800,000	-0,014	0,043
-384,219	-200,000	0,028	-0,109
-383,204	-200,000	-0,008	-0,065
-382,190	800,000	-0,064	-0,142
-381,175	-65,712	-0,085	-0,024
-380,160	-200,000	-0,001	0,010
-379,146	-200,000	0,018	0,094
-378,131	504,292	0,055	0,092
-377,117	66,599	-0,034	0,025
-376,102	800,000	-0,045	0,106
-375,088	800,000	0,043	-0,097
-374,073	-184,812	0,183	-0,002
-373,058	266,288	0,057	0,071
-372,044	394,782	0,039	-0,059
-371,029	-90,105	0,073	0,015
-370,015	-74,982	-0,049	0,013
-369,000	294,515	0,064	-0,084
-367,985	-78,950	0,123	-0,030
-366,971	800,000	0,022	0,055
-365,956	-164,822	0,069	0,002
-364,942	647,796	-0,041	0,075
-363,927	-130,685	-0,109	-0,010
-362,912	18,034	0,085	-0,048
-361,898	72,213	-0,067	0,050
-360,883	800,000	-0,009	-0,027
-359,869	-200,000	-0,027	-0,234
-358,854	70,309	0,074	0,055
-357,839	161,997	0,072	-0,072
-356,825	61,116	0,117	-0,083
-355,810	-118,112	0,050	-0,006
-354,796	-200,000	-0,048	-0,164
-353,781	368,465	-0,047	-0,068
-352,766	-76,448	-0,084	-0,021
-351,752	324,209	0,049	0,067
-350,737	73,089	0,043	0,032
-349,723	116,720	-0,011	-0,009
-348,708	-122,257	0,142	-0,016
-347,693	260,235	0,056	0,069
-346,679	800,000	-0,013	-0,030
-345,664	-200,000	0,000	-0,031
-344,650	-200,000	0,008	-0,094
-343,635	228,596	-0,104	0,121
-342,620	-200,000	0,001	0,202
-341,606	-200,000	-0,007	0,134
-340,591	181,538	-0,104	-0,109
-339,577	32,654	0,012	0,008
-338,562	-124,953	0,062	0,007
-337,548	-63,902	0,080	0,023
-336,533	182,411	0,090	0,095
-335,518	132,316	0,068	0,063
-334,504	159,733	0,067	0,067
-333,489	382,637	-0,015	-0,021
-332,475	-44,434	0,081	-0,029
-331,460	255,384	-0,050	-0,062
-330,445	-51,283	-0,072	0,024
-329,431	-90,617	-0,034	-0,007
-328,416	44,375	0,021	0,014
-327,402	800,000	-0,056	-0,143
-326,387	-200,000	-0,044	0,140
-325,372	800,000	-0,060	0,178
-324,358	-200,000	-0,007	-0,061
-323,343	-200,000	0,002	-0,016
-322,329	-26,855	0,013	-0,006
-321,314	145,009	0,075	0,072
-320,299	294,142	-0,048	-0,063
-319,285	90,430	-0,134	0,107
-318,270	-200,000	0,005	-0,087
-317,256	800,000	0,050	-0,123
-316,241	-17,953	-0,153	-0,068
-315,226	-200,000	0,029	-0,143
-314,212	-131,275	0,131	0,012
-313,197	37,148	0,091	-0,057
-312,183	-107,073	0,038	0,006
-311,168	-200,000	0,016	-0,082
-310,153	-169,206	0,011	-0,000
-309,139	13,712	-0,027	0,015
-308,124	21,284	0,051	-0,029
-307,110	-200,000	-0,014	-0,064
-306,095	107,464	0,034	0,029
-305,080	-77,657	0,098	-0,024
-304,066	78,957	0,076	0,058
-303,051	-200,000	-0,009	-0,036
-302,037	-200,000	-0,019	-0,095
-301,022	-200,000	-0,008	0,070
-300,008	-200,000	0,005	0,031
-298,993	-200,000	-0,008	0,170
-297,978	-200,000	0,007	0,030
-296,964	-119,633	0,095	0,012
-295,949	-174,393	-0,069	-0,001
-294,935	-200,000	-0,000	0,036
-293,920	800,000	0,043	-0,122
-292,905	25,046	0,062	-0,037
-291,891	-32,627	-0,130	0,051
-290,876	3,914	0,090	-0,047
-289,862	159,262	-0,046	-0,046
-288,847	-200,000	0,085	0,000
-287,832	42,859	-0,038	0,025
-286,818	-200,000	-0,043	-0,177
-285,803	-13,871	0,127	-0,058
-284,789	-68,452	-0,079	-0,022
-283,774	-66,903	0,123	-0,034
-282,759	800,000	0,024	-0,059
-281,745	-200,000	-0,069	-0,267
-280,730	-10,601	-0,038	-0,018
-279,716	123,459	-0,077	-0,069
-278,701	-22,155	-0,089	0,038
-277,686	-200,000	0,025	0,102
-276,672	800,000	0,032	0,084
-275,657	-200,000	0,001	-0,130
-274,643	72,410	-0,097	-0,072
-273,628	-200,000	0,000	0,003
-272,613	-200,000	0,023	-0,170
-271,599	-200,000	-0,028	0,133
-270,584	321,566	0,024	-0,032
-269,570	-35,057	0,134	0,052
-268,555	23,352	-0,041	-0,024
-267,540	521,323	-0,041	0,068
-266,526	444,925	-0,057	-0,089
-265,511	800,000	0,042	-0,103
-264,497	800,000	0,032	-0,090
-263,482	-100,988	0,137	0,024
-262,467	-38,452	-0,030	0,011
-261,453	-200,000	0,016	0,085
-260,438	112,003	-0,046	-0,039
-259,424	-200,000	-0,008	-0,055
-258,409	-92,297	0,056	0,011
-257,395	-20,196	0,170	-0,074
-256,380	590,752	-0,053	0,094
-255,365	800,000	0,050	0,115
-254,351	-117,862	-0,053	-0,007
-253,336	-200,000	0,006	-0,125
-252,322	-42,845	-0,060	-0,021
-251,307	199,918	0,028	0,031
-250,292	-200,000	0,008	-0,074
-249,278	-125,150	0,025	0,003
-248,263	151,027	-0,121	0,117
-247,249	329,357	0,103	0,141
-246,234	16,334	-0,053	0,030
-245,219	800,000	-0,029	-0,072
-244,205	136,471	-0,033	-0,031
-243,190	800,000	0,018	0,045
-242,176	57,425	0,152	0,106
-241,161	-18,119	0,036	0,016
-240,146	-113,518	0,053	-0,007
-239,132	548,002	-0,024	-0,041
-238,117	48,008	-0,117	0,078
-237,103	800,000	0,046	-0,102
-236,088	800,000	-0,015	-0,034
-235,073	-200,000	-0,015	-0,056
-234,059	613,396	0,032	-0,057
-233,044	-188,034	-0,021	-0,000
-232,030	-200,000	0,008	-0,028
-231,015	-60,231	0,062	-0,019
-230,000	-126,958	-0,072	0,007
-228,986	-200,000	-0,003	-0,022
-227,971	25,774	-0,045	0,027
-226,957	-17,850	-0,053	-0,024
-225,942	32,337	-0,073	0,045
-224,927	800,000	0,019	-0,059
-223,913	695,365	-0,064	-0,119
-222,898	84,940	-0,057	-0,045
-221,884	800,000	-0,023	0,062
-220,869	-112,681	-0,072	-0,010
-219,855	33,399	0,136	0,084
-218,840	-200,000	0,005	0,130
-217,825	-38,500	-0,080	-0,030
-216,811	45,518	-0,105	-0,069
-215,796	-15,408	-0,075	-0,034
-214,782	116,545	0,054	0,047
-213,767	800,000	0,055	0,171
-212,752	-200,000	-0,042	0,165
-211,738	-106,137	0,104	0,016
-210,723	244,600	0,041	-0,050
-209,709	232,481	0,063	0,074
-208,694	-200,000	-0,002	-0,037
-207,679	538,632	0,053	0,090
-206,665	-68,702	0,111	0,030
-205,650	588,164	0,086	0,151
-204,636	-200,000	-0,037	0,175
-203,621	31,270	0,059	-0,036
-202,606	126,182	0,024	0,021
-201,592	84,977	-0,030	-0,024
-200,577	386,194	0,071	-0,105
-199,563	381,961	-0,080	0,117
-198,548	-49,175	-0,136	0,046
-197,533	-83,049	0,195	-0,044
-196,519	361,570	-0,094	0,134
-195,504	193,503	0,052	-0,055
-194,490	198,854	0,064	-0,069
-193,475	306,095	0,071	0,094
-192,460	-4,520	-0,142	-0,069
-191,446	800,000	0,026	0,065
-190,431	37,425	-0,098	0,061
-189,417	17,604	-0,063	0,035
-188,402	-117,056	0,020	0,003
-187,387	-74,870	-0,073	-0,019
-186,373	57,220	-0,082	-0,057
-185,358	120,298	0,034	-0,030
-184,344	799,259	0,029	0,058
-183,329	-142,827	0,114	-0,008
-182,315	800,000	-0,053	0,106
-181,300	166,725	0,141	-0,142
-180,285	-180,627	-0,150	-0,002
-179,271	-200,000	0,010	-0,088
-178,256	-200,000	-0,026	-0,132
-177,242	367,835	0,030	0,044
-176,227	4,570	0,057	0,029
-175,212	-200,000	0,001	0,057
-174,198	-99,330	-0,127	0,022
-173,183	-18,227	-0,106	0,047
-172,169	183,101	0,054	-0,056
-171,154	217,778	0,108	0,122
-170,139	41,750	-0,074	0,048
-169,125	158,438	-0,037	-0,037
-168,110	-200,000	0,005	-0,172
-167,096	596,155	0,015	-0,026
-166,081	351,735	0,028	0,040
-165,066	-200,000	0,019	0,101
-164,052	-200,000	0,012	-0,065
-163,037	-21,459	0,076	0,033
-162,023	705,837	0,029	-0,055
-161,008	-200,000	0,008	0,073
-159,993	82,108	-0,078	0,060
-158,979	198,676	-0,118	-0,129
-157,964	450,457	-0,106	-0,167
-156,950	-200,000	-0,045	-0,261
-155,935	557,806	0,123	-0,210
-154,920	132,791	0,047	-0,043
-153,906	-115,374	-0,056	0,007
-152,891	590,990	-0,074	0,130
-151,877	275,119	-0,042	0,053
-150,862	-43,677	-0,047	0,017
-149,847	705,647	0,085	-0,160
-148,833	-54,048	0,169	-0,054
-147,818	49,414	-0,184	0,122
-146,804	-45,042	0,243	0,085
-145,789	0,131	0,046	0,023
-144,775	-200,000	-0,000	-0,045
-143,760	-200,000	0,009	-0,061
-142,745	-200,000	-0,000	-0,065
-141,731	6,529	0,010	-0,005
-140,716	-200,000	-0,003	0,031
-139,702	70,593	0,100	0,073
-138,687	-76,189	-0,037	-0,009
-137,672	-68,958	0,106	-0,029
-136,658	-76,379	-0,191	-0,047
-135,643	-200,000	-0,005	-0,144
-134,629	800,000	0,022	-0,051
-133,614	15,055	-0,073	-0,041
-132,599	-16,072	0,072	0,032
-131,585	800,000	0,038	0,094
-130,570	-95,360	-0,020	0,004
-129,556	133,042	-0,028	0,026
-128,541	443,166	-0,043	-0,067
-127,526	-200,000	-0,005	-0,027
-126,512	-128,464	0,125	0,012
-125,497	800,000	0,039	0,104
-124,483	303,060	0,097	0,128
-123,468	7,976	-0,118	-0,063
-122,453	800,000	-0,029	-0,073
-121,439	800,000	0,011	0,026
-120,424	-45,684	-0,008	-0,003
-119,410	-52,784	0,039	0,013
-118,395	800,000	-0,042	0,094
-117,380	-1,020	0,165	0,082
-116,366	518,595	-0,030	0,051
-115,351	800,000	-0,054	-0,165
-114,337	800,000	-0,031	-0,065
-113,322	-200,000	0,051	-0,163
-112,307	474,589	0,055	0,088
-111,293	-122,284	0,104	0,012
-110,278	323,526	0,048	0,064
-109,264	800,000	0,025	-0,077
-108,249	220,481	-0,052	-0,059
-107,234	800,000	0,025	-0,066
-106,220	-163,854	0,040	0,001
-105,205	39,295	-0,111	-0,070
-104,191	-163,238	0,097	-0,003
-103,176	800,000	-0,039	-0,082
-102,162	39,764	-0,072	0,046
-101,147	656,183	-0,028	-0,051
-100,132	188,668	-0,116	-0,123
-99,118	-200,000	0,031	-0,119
-98,103	800,000	-0,006	-0,019
-97,089	212,616	0,052	-0,058
-96,074	158,764	0,092	0,091
-95,059	-126,770	0,024	0,003
-94,045	-108,625	-0,014	-0,002
-93,030	262,244	-0,068	-0,083
-92,016	800,000	0,013	-0,037
-91,001	-106,097	-0,076	0,012
-89,986	-200,000	-0,010	0,142
-88,972	-56,318	0,059	-0,018
-87,957	-99,980	-0,076	-0,013
-86,943	-61,953	0,139	-0,041
-85,928	216,541	0,118	-0,133
-84,913	800,000	-0,029	-0,079
-83,899	666,272	0,032	-0,060
-82,884	693,259	0,052	0,097
-81,870	800,000	-0,009	0,019
-80,855	800,000	0,025	0,058
-79,840	221,581	0,001	-0,001
-78,826	800,000	0,025	-0,056
-77,811	174,888	-0,082	0,084
-76,797	-200,000	0,019	0,111
-75,782	-113,787	-0,102	0,014
-74,767	434,614	0,046	0,071
-73,753	800,000	0,020	0,055
-72,738	52,192	0,049	-0,033
-71,724	42,626	0,051	0,033
-70,709	-200,000	-0,003	0,080
-69,694	41,230	-0,106	0,068
-68,680	-200,000	0,018	0,148
-67,665	-104,879	0,187	-0,030
-66,651	800,000	-0,018	0,042
-65,636	-51,181	-0,054	-0,018
-64,622	147,564	-0,123	0,117
-63,607	-200,000	-0,001	-0,127
-62,592	-36,661	-0,266	0,100
-61,578	800,000	0,055	-0,133
-60,563	-65,033	0,076	0,022
-59,549	-200,000	-0,013	0,090
-58,534	36,726	-1,990	-1,239
-57,519	512,279	-1,310	-2,163
-56,505	-200,000	-0,401	-4,438
-55,490	475,204	0,964	1,543
-54,476	800,000	5,181	11,092
-53,461	-200,000	21,523	341,988
-52,446	800,000	761,301	2365,020
-51,432	559,818	1663,569	2847,056
-50,417	73,505	1661,242	1226,441
-49,403	17,945	1534,746	860,728
-48,388	11,893	1458,435	788,654
-47,373	19,440	1449,959	820,269
-46,359	15,409	1438,919	794,819
-45,344	10,158	1435,009	767,616
-44,330	10,086	1433,029	766,185
-43,315	10,113	1430,977	765,185
-42,300	10,127	1429,176	764,257
-41,286	10,126	1428,017	763,605
-40,271	10,048	1426,782	762,544
-39,257	10,079	1425,783	762,126
-38,242	10,161	1424,499	761,799
-37,227	10,103	1423,454	760,936
-36,213	10,130	1422,044	760,277
-35,198	10,153	1421,102	759,850
-34,184	10,154	1420,035	759,255
-33,169	10,106	1418,631	758,247
-32,154	10,179	1417,577	758,002
-31,140	10,169	1416,450	757,319
-30,125	10,192	1415,331	756,800
-29,111	10,144	1414,298	755,991
-28,096	10,135	1412,889	755,167
-27,082	10,038	1412,089	754,252
-26,067	10,074	1410,711	753,656
-25,052	10,106	1409,910	753,347
-24,038	10,102	1408,885	752,751
-23,023	10,110	1407,765	752,159
-22,009	10,099	1406,938	751,639
-20,994	10,069	1405,855	750,892
-19,979	10,087	1404,926	750,448
-18,965	10,033	1403,951	749,647
-17,950	10,086	1402,991	749,351
-16,936	10,034	1402,176	748,642
-15,921	9,987	1401,255	747,901
-14,906	10,039	1400,226	747,564
-13,892	10,022	1399,333	746,980
-12,877	10,024	1398,370	746,447
-11,863	9,981	1397,721	745,869
-10,848	9,926	1396,839	745,114
-9,833	9,927	1395,949	744,613
-8,819	9,896	1394,979	743,924
-7,804	9,916	1394,151	743,546
-6,790	9,876	1393,145	742,794
-5,775	9,909	1392,096	742,359
-4,760	9,876	1391,023	741,602
-3,746	9,866	1390,142	741,061
-2,731	9,911	1389,278	740,778
-1,717	9,910	1388,455	740,302
-0,702	9,900	1386,722	739,306
0,313	13,904	1299,424	711,089
1,327	30,168	689,738	414,301
2,342	46,575	119,355	78,003
3,356	2,941	16,455	8,402
4,371	8,589	3,524	1,866
5,386	28,666	0,989	0,589
6,400	800,000	0,173	0,469
7,415	58,755	-0,216	-0,149
8,429	-89,397	-0,200	-0,041
9,444	31,184	-0,348	-0,210
10,459	-84,640	-0,353	-0,078
11,473	-66,905	-0,320	-0,088
12,488	-5,515	-0,214	-0,103
13,502	236,105	-0,242	-0,283
14,517	-25,305	-0,368	-0,153
15,531	14,789	-0,377	-0,207
16,546	120,120	-0,273	-0,239
17,561	218,512	-0,369	-0,416
18,575	-50,485	-0,092	0,030
19,590	183,606	-0,242	-0,252
20,604	9,354	-0,293	-0,155
21,619	101,514	-0,387	-0,318
22,634	-22,307	-0,437	-0,186
23,648	314,210	-0,236	-0,313
24,663	123,188	-0,441	-0,389
25,677	7,987	-0,383	-0,202
26,692	-0,188	-0,384	-0,192
27,707	81,357	-0,356	-0,271
28,721	46,486	-0,322	-0,210
29,736	57,517	-0,395	-0,272
30,750	141,783	-0,378	-0,353
31,765	206,002	-0,346	-0,379
32,780	238,762	-0,304	-0,356
33,794	114,560	-0,322	-0,276
34,809	-53,071	-0,422	-0,136
35,823	-74,230	-0,382	-0,097
36,838	67,702	-0,410	-0,294
37,853	48,597	-0,356	-0,234
38,867	84,561	-0,412	-0,317
39,882	-31,058	-0,488	-0,193
40,896	16,370	-0,281	-0,155
41,911	178,743	-0,224	-0,230
42,926	104,771	-0,337	-0,279
43,940	88,089	-0,346	-0,269
44,955	125,552	-0,357	-0,317
45,969	22,534	-0,372	-0,214
46,984	-9,897	-0,413	-0,193
47,999	10,452	-0,325	-0,173
49,013	61,881	-0,257	-0,180
50,028	-116,881	-0,365	-0,046
51,042	443,913	-0,187	-0,289
52,057	-59,607	-0,342	-0,102
53,071	161,391	-0,308	-0,303
54,086	117,668	-0,326	-0,281
55,101	374,645	-0,260	-0,373
56,115	266,371	-0,204	-0,251
57,130	24,003	-0,342	-0,198
58,144	57,725	-0,409	-0,281
59,159	482,839	-0,242	-0,388
60,174	-49,353	-0,390	-0,130
61,188	-12,872	-0,392	-0,178
62,203	80,862	-0,272	-0,206
63,217	-84,601	-0,482	-0,106
64,232	4,457	-0,372	-0,191
65,247	162,068	-0,265	-0,261
66,261	42,358	-0,355	-0,226
67,276	41,971	-0,346	-0,220
68,290	0,045	-0,264	-0,132
69,305	-62,816	-0,351	-0,101
70,320	-80,674	-0,234	-0,054
71,334	-78,066	-0,359	-0,086
72,349	171,123	-0,218	-0,220
73,363	48,635	-0,268	-0,176
74,378	1,672	-0,312	-0,157
75,393	270,037	-0,299	-0,369
76,407	-17,607	-0,187	-0,082
77,422	-46,094	-0,267	-0,092
78,436	56,943	-0,264	-0,180
79,451	-11,976	-0,344	-0,158
80,466	102,045	-0,289	-0,236
81,480	190,709	-0,226	-0,238
82,495	57,757	-0,306	-0,209
83,509	13,571	-0,314	-0,170
84,524	25,460	-0,184	-0,107
85,539	-113,539	-0,343	-0,047
86,553	9,441	-0,301	-0,159
87,568	-3,142	-0,326	-0,159
88,582	62,765	-0,331	-0,231
89,597	22,963	-0,319	-0,183
90,611	103,615	-0,213	-0,175
91,626	800,000	-0,055	-0,122
92,641	-40,117	-0,256	-0,093
93,655	1,633	-0,356	-0,179
94,670	73,815	-0,346	-0,253
95,684	42,254	-0,287	-0,182
96,699	166,218	-0,356	-0,353
97,714	168,091	-0,252	-0,252
98,728	-49,005	-0,153	-0,051
99,743	3,340	-0,165	-0,084
100,757	800,000	-0,118	-0,245
101,772	-2,128	-0,272	-0,133
102,787	246,706	-0,251	-0,297
103,801	287,279	-0,155	-0,196
104,816	120,639	-0,277	-0,240
105,830	275,187	-0,172	-0,214
106,845	37,571	-0,223	-0,138
107,860	-48,534	-0,269	-0,090
108,874	148,644	-0,248	-0,234
109,889	104,300	-0,356	-0,293
110,903	-16,950	-0,392	-0,172
111,918	452,565	-0,153	-0,237
112,933	-81,027	-0,285	-0,065
113,947	137,515	-0,278	-0,254
114,962	-151,282	-0,246	-0,013
115,976	86,770	-0,169	-0,130
116,991	800,000	-0,149	-0,337
118,006	27,357	-0,305	-0,179
119,020	33,491	-0,201	-0,122
120,035	57,587	-0,209	-0,142
121,049	354,401	-0,150	-0,209
122,064	70,211	-0,230	-0,166
123,079	94,688	-0,243	-0,193
124,093	-14,781	-0,376	-0,168
125,108	-48,648	-0,349	-0,116
126,122	130,291	-0,273	-0,244
127,137	-63,395	-0,320	-0,091
128,151	-64,256	-0,330	-0,093
129,166	-55,460	-0,315	-0,098
130,181	106,604	-0,265	-0,219
131,195	31,680	-0,179	-0,107
132,210	16,033	-0,225	-0,123
133,224	9,204	-0,193	-0,101
134,239	253,702	-0,146	-0,174
135,254	61,813	-0,203	-0,141
136,268	-90,636	-0,331	-0,066
137,283	-8,342	-0,305	-0,143
138,297	-8,866	-0,256	-0,119
139,312	224,773	-0,226	-0,255
140,327	6,911	-0,240	-0,124
141,341	675,362	-0,077	-0,140
142,356	104,038	-0,201	-0,165
143,370	19,909	-0,169	-0,094
144,385	89,952	-0,217	-0,169
145,400	800,000	-0,142	-0,297
146,414	20,516	-0,295	-0,166
147,429	106,733	-0,096	-0,079
148,443	112,977	-0,257	-0,217
149,458	320,788	-0,153	-0,203
150,473	-129,250	-0,154	-0,015
151,487	499,269	-0,163	-0,262
152,502	66,085	-0,274	-0,193
153,516	428,511	-0,118	-0,178
154,531	63,542	-0,120	-0,084
155,546	122,804	-0,213	-0,186
156,560	178,272	-0,056	-0,057
157,575	161,850	-0,123	-0,120
158,589	197,501	-0,223	-0,237
159,604	-3,170	-0,315	-0,152
160,619	245,125	-0,197	-0,231
161,633	-59,572	-0,243	-0,072
162,648	-6,193	-0,233	-0,110
163,662	220,065	-0,259	-0,289
164,677	10,375	-0,321	-0,169
165,692	46,721	-0,185	-0,119
166,706	238,344	-0,243	-0,282
167,721	19,497	-0,258	-0,144
168,735	178,296	-0,245	-0,249
169,750	554,996	-0,086	-0,144
170,764	-67,147	-0,274	-0,075
171,779	409,921	-0,121	-0,179
172,794	102,874	-0,322	-0,262
173,808	19,065	-0,229	-0,127
174,823	270,709	-0,140	-0,171
175,837	471,443	-0,101	-0,158
176,852	-39,113	-0,253	-0,092
177,867	-2,454	-0,261	-0,127
178,881	13,501	-0,195	-0,105
179,896	258,496	-0,225	-0,270
180,910	-72,263	-0,331	-0,084
181,925	-35,688	-0,241	-0,090
182,940	151,517	-0,150	-0,142
183,954	-61,704	-0,279	-0,081
184,969	98,010	-0,197	-0,157
185,983	169,330	-0,166	-0,165
186,998	245,321	-0,227	-0,265
188,013	97,354	-0,140	-0,111
189,027	219,935	-0,125	-0,140
190,042	463,499	-0,140	-0,218
191,056	136,192	-0,239	-0,216
192,071	-5,940	-0,196	-0,093
193,086	250,744	-0,187	-0,221
194,100	109,201	-0,204	-0,169
195,115	-200,000	-0,001	-0,098
196,129	28,368	-0,327	-0,191
197,144	220,349	-0,213	-0,237
198,159	503,268	-0,160	-0,258
199,173	-51,827	-0,257	-0,083
200,188	-20,882	-0,189	-0,080
201,202	260,472	-0,169	-0,203
202,217	800,000	-0,063	-0,122
203,232	137,699	-0,221	-0,201
204,246	800,000	-0,182	-0,426
205,261	159,135	-0,177	-0,171
206,275	-48,007	-0,174	-0,058
207,290	124,233	-0,109	-0,095
208,304	63,173	-0,194	-0,135
209,319	800,000	-0,071	-0,151
210,334	-200,000	-0,086	-0,312
211,348	800,000	-0,099	-0,289
212,363	-17,110	-0,327	-0,142
213,377	232,019	-0,123	-0,140
214,392	-122,540	-0,239	0,027
215,407	45,054	-0,266	-0,170
216,421	7,236	-0,163	-0,084
217,436	-57,586	-0,237	-0,072
218,450	72,591	-0,277	-0,200
219,465	-144,928	-0,216	-0,013
220,480	195,732	-0,186	-0,195
221,494	-39,932	-0,201	-0,072
222,509	66,699	-0,042	0,029
223,523	800,000	-0,039	-0,077
224,538	244,682	-0,160	-0,186
225,553	288,349	-0,100	-0,125
226,567	52,261	-0,115	-0,076
227,582	63,774	-0,158	-0,109
228,596	-64,186	-0,197	-0,055
229,611	-52,680	-0,119	-0,038
230,626	800,000	-0,072	-0,168
231,640	-33,471	-0,278	-0,106
232,655	-33,193	-0,323	-0,123
233,669	29,377	-0,210	-0,123
234,684	16,622	-0,219	-0,119
235,699	511,679	-0,133	-0,215
236,713	-6,746	-0,130	-0,061
237,728	105,260	-0,303	-0,247
238,742	-55,919	-0,180	-0,055
239,757	98,464	-0,191	-0,152
240,772	80,014	-0,157	-0,117
241,786	397,122	-0,126	-0,182
242,801	-120,104	-0,205	0,024
243,815	-124,905	-0,193	-0,020
244,830	89,205	-0,164	-0,126
245,844	115,439	-0,161	-0,136
246,859	-37,123	-0,124	0,046
247,874	554,159	-0,114	-0,189
248,888	-38,544	-0,227	-0,082
249,903	-200,000	-0,051	-0,181
250,917	-30,558	-0,114	-0,044
251,932	50,584	-0,118	-0,077
252,947	66,385	-0,040	0,028
253,961	-143,222	-0,228	-0,015
254,976	510,204	-0,111	-0,179
255,990	617,795	-0,138	-0,240
257,005	-200,000	-0,007	-0,183
258,020	15,091	-0,217	-0,117
259,034	57,671	-0,140	-0,095
260,049	-29,599	-0,123	-0,048
261,063	522,633	-0,095	-0,155
262,078	57,509	-0,217	-0,146
263,093	323,558	-0,157	-0,206
264,107	-33,643	-0,205	-0,078
265,122	-34,384	-0,142	-0,053
266,136	-21,518	-0,159	0,066
267,151	-116,066	-0,139	0,018
268,166	21,880	-0,159	-0,089
269,180	29,062	-0,182	-0,106
270,195	226,533	-0,109	-0,122
271,209	58,927	-0,157	-0,106
272,224	319,816	-0,157	-0,205
273,239	441,529	-0,062	-0,093
274,253	-83,487	-0,074	-0,016
275,268	4,037	-0,190	-0,095
276,282	800,000	-0,067	-0,165
277,297	-200,000	-0,068	-0,236
278,312	18,251	-0,190	-0,104
279,326	-16,040	-0,203	-0,089
280,341	189,388	-0,094	-0,097
281,355	326,822	-0,124	-0,164
282,370	-75,073	-0,203	-0,050
283,384	-24,768	-0,129	-0,052
284,399	243,319	-0,166	-0,191
285,414	407,012	-0,099	-0,145
286,428	97,887	-0,168	-0,133
287,443	-70,698	-0,108	-0,028
288,457	14,793	-0,221	-0,118
289,472	241,296	-0,091	-0,105
290,487	-87,121	-0,204	-0,042
291,501	-120,817	-0,163	-0,019
292,516	66,716	-0,235	-0,164
293,530	93,939	-0,162	-0,126
294,545	103,956	-0,036	0,029
295,560	800,000	-0,052	-0,106
296,574	158,022	-0,071	0,068
297,589	-200,000	-0,223	0,000
298,603	514,511	-0,138	-0,222
299,618	-200,000	-0,036	-0,177
300,633	134,772	-0,217	-0,194
301,647	43,249	-0,096	-0,060
302,662	800,000	-0,051	-0,111
303,676	9,098	-0,185	-0,096
304,691	184,832	-0,141	-0,144
305,706	41,872	-0,112	-0,070
306,720	46,921	-0,119	-0,076
307,735	737,262	-0,134	-0,248
308,749	-157,220	-0,146	0,006
309,764	-123,902	-0,120	0,013
310,779	385,320	-0,141	-0,200
311,793	-39,160	-0,201	-0,072
312,808	162,408	-0,104	-0,100
313,822	219,807	-0,204	-0,225
314,837	-31,557	-0,186	-0,071
315,852	-117,728	-0,113	-0,014
316,866	253,079	-0,125	-0,146
317,881	-108,327	-0,131	-0,019
318,895	56,299	-0,168	-0,112
319,910	396,560	-0,111	-0,160
320,925	736,802	-0,130	-0,241
321,939	112,168	-0,138	-0,114
322,954	-42,505	-0,188	-0,065
323,968	738,105	-0,050	-0,092
324,983	-4,722	-0,209	-0,099
325,997	2,497	-0,111	-0,055
327,012	-111,905	-0,211	-0,029
328,027	130,599	-0,167	-0,147
329,041	130,500	-0,084	-0,074
330,056	-51,751	-0,161	-0,051
331,070	-200,000	0,022	-0,102
332,085	-103,835	-0,157	0,025
333,100	59,923	-0,190	-0,129
334,114	123,794	-0,181	-0,156
335,129	-82,083	-0,181	-0,040
336,143	93,648	-0,242	-0,188
337,158	-95,471	-0,153	-0,028
338,173	153,360	-0,047	0,044
339,187	-68,053	-0,148	-0,039
340,202	-94,470	-0,022	0,004
341,216	24,465	-0,125	0,071
342,231	92,812	-0,179	-0,138
343,246	-12,585	-0,089	-0,040
344,260	747,128	-0,045	-0,084
345,275	113,417	-0,097	-0,081
346,289	-27,306	-0,108	0,043
347,304	89,054	-0,127	-0,097
348,319	-8,556	-0,252	-0,115
349,333	-148,085	-0,198	0,011
350,348	28,686	-0,304	-0,176
351,362	19,295	-0,208	-0,114
352,377	-79,030	-0,084	-0,019
353,392	-75,028	-0,133	-0,032
354,406	-87,311	-0,183	0,038
355,421	208,176	1310,316	1402,216
356,435	160,170	1470,487	1402,691
