DTS Sentinel unit serial number:	SN410029Multiplexer serial number:	ORYXHardware model number:	OX2-SRSoftware version number:	ORYX F/W v4,00 Oryx Data Collector v3.7.2.0data status	okinstallation	B3 Nyhavnadifferential loss correction	single-endedforward channel	channel 1reverse channel	N/Adate	2023/12/05time	03:42:30forward acquisition time	300,00reverse acquisition time	0,00gamma	499,1914k internal	0,3201k external	0,3201temperature offset calibration	1,0000default loss term (dB/km)	0,3820temperature slope calibration	1,0000multiplexer offset coefficient	1,0000multiplexer slope coefficient	1,0000fibre end	0,00T internal ref (°C)	14,13T ext. ref 1 (°C)	-0,61T ext. ref 2 (°C)	-0,64length (m)	temperature (°C)	Stokes	anti-Stokes-744,400	128,008	-0,299	-0,277
-743,385	800,000	-0,150	0,334
-742,371	-95,268	-0,175	0,034
-741,356	417,725	0,170	0,265
-740,342	-61,489	-0,285	-0,087
-739,327	-200,000	-0,079	0,300
-738,312	101,227	-0,239	-0,202
-737,298	-200,000	-0,013	0,288
-736,283	87,391	-0,119	-0,095
-735,269	800,000	0,125	0,259
-734,254	120,016	-0,141	-0,127
-733,239	-17,503	-0,279	0,127
-732,225	367,443	-0,110	-0,161
-731,210	286,202	0,040	0,052
-730,196	215,875	0,081	-0,094
-729,181	261,960	-0,076	-0,096
-728,167	800,000	-0,026	-0,068
-727,152	19,224	-0,064	0,037
-726,137	103,308	-0,057	0,049
-725,123	94,894	-0,080	-0,066
-724,108	192,780	-0,101	-0,111
-723,094	216,844	-0,080	-0,092
-722,079	-19,713	-0,060	-0,027
-721,064	-117,472	-0,073	-0,009
-720,050	195,393	-0,088	0,097
-719,035	22,611	-0,094	-0,056
-718,021	800,000	0,029	-0,070
-717,006	-200,000	-0,047	-0,168
-715,991	-46,719	-0,075	-0,027
-714,977	483,675	0,017	-0,029
-713,962	-85,027	0,112	0,025
-712,948	136,746	-0,099	-0,094
-711,933	-64,647	0,124	0,036
-710,918	-60,140	-0,139	0,043
-709,904	103,288	-0,079	-0,067
-708,889	-200,000	0,003	-0,205
-707,875	-85,177	-0,162	-0,036
-706,860	127,311	0,068	-0,063
-705,845	259,286	0,060	0,075
-704,831	-26,464	0,053	0,022
-703,816	-88,207	-0,045	-0,010
-702,802	-200,000	-0,023	-0,123
-701,787	158,980	0,014	-0,014
-700,772	63,978	-0,113	-0,083
-699,758	116,253	0,073	-0,065
-698,743	-125,305	-0,073	-0,008
-697,729	-200,000	-0,031	0,105
-696,714	63,846	0,148	-0,108
-695,699	657,610	-0,106	0,200
-694,685	-179,378	-0,181	0,003
-693,670	10,853	-0,123	-0,068
-692,656	-200,000	-0,023	-0,162
-691,641	800,000	0,039	0,122
-690,627	431,471	0,108	0,170
-689,612	-200,000	0,004	0,085
-688,597	-99,155	-0,059	-0,011
-687,583	-200,000	0,010	-0,068
-686,568	-163,660	-0,091	0,003
-685,554	-145,326	0,126	0,008
-684,539	-22,564	-0,042	0,018
-683,524	800,000	-0,037	0,104
-682,510	800,000	0,010	-0,021
-681,495	-200,000	-0,037	-0,174
-680,481	364,960	0,074	-0,109
-679,466	800,000	-0,061	0,150
-678,451	527,409	-0,033	-0,056
-677,437	731,884	0,058	0,113
-676,422	-71,041	-0,035	-0,010
-675,408	-122,541	0,070	-0,008
-674,393	-11,381	0,091	0,043
-673,378	800,000	-0,069	-0,152
-672,364	595,515	0,048	-0,086
-671,349	800,000	-0,043	-0,134
-670,335	112,868	0,024	-0,021
-669,320	-200,000	0,007	0,046
-668,305	230,730	0,026	0,031
-667,291	800,000	0,032	-0,073
-666,276	-61,622	-0,078	-0,024
-665,262	0,627	-0,050	-0,026
-664,247	47,598	-0,152	-0,103
-663,232	546,226	0,041	-0,071
-662,218	-93,943	0,020	-0,004
-661,203	-34,529	-0,127	-0,050
-660,189	-200,000	-0,030	-0,102
-659,174	-73,399	-0,110	-0,029
-658,159	-114,636	-0,232	-0,032
-657,145	-55,291	-0,090	-0,029
-656,130	-77,235	0,181	0,045
-655,116	609,084	0,036	0,065
-654,101	-200,000	-0,017	0,104
-653,086	-200,000	0,004	0,064
-652,072	309,957	0,043	-0,059
-651,057	26,230	0,033	0,020
-650,043	510,632	-0,044	-0,075
-649,028	-47,068	-0,099	-0,035
-648,014	-153,264	0,024	0,001
-646,999	-63,336	-0,094	-0,028
-645,984	-156,873	0,092	0,004
-644,970	3,536	-0,091	-0,048
-643,955	55,286	0,060	-0,042
-642,941	-200,000	-0,060	-0,207
-641,926	-95,352	-0,157	-0,030
-640,911	-200,000	-0,002	0,145
-639,897	800,000	-0,026	0,062
-638,882	-133,310	-0,049	0,004
-637,868	-12,363	-0,067	0,032
-636,853	211,959	-0,061	-0,070
-635,838	-200,000	-0,013	-0,113
-634,824	-84,063	-0,063	0,014
-633,809	-114,678	-0,093	-0,013
-632,795	-200,000	0,010	0,046
-631,780	47,496	-0,088	-0,059
-630,765	644,065	0,057	0,106
-629,751	-200,000	-0,009	-0,106
-628,736	800,000	-0,029	0,074
-627,722	-39,358	0,058	-0,022
-626,707	533,650	0,011	0,020
-625,692	173,488	0,026	0,027
-624,678	-200,000	0,015	0,151
-623,663	-119,456	-0,101	0,013
-622,649	-19,985	0,058	0,026
-621,634	-106,666	-0,150	-0,024
-620,619	-106,682	-0,128	-0,020
-619,605	315,541	0,028	0,038
-618,590	447,378	0,009	-0,015
-617,576	180,994	0,058	-0,062
-616,561	-3,956	0,067	-0,034
-615,546	12,348	0,082	0,046
-614,532	-53,954	0,049	-0,016
-613,517	111,226	-0,037	0,032
-612,503	-200,000	0,010	-0,069
-611,488	109,909	0,103	-0,090
-610,474	-200,000	0,024	0,087
-609,459	120,278	0,043	-0,039
-608,444	450,832	-0,048	-0,077
-607,430	800,000	-0,069	-0,192
-606,415	-200,000	-0,014	-0,055
-605,401	-200,000	-0,000	-0,017
-604,386	-200,000	0,004	-0,065
-603,371	360,001	0,097	0,140
-602,357	429,960	-0,049	0,076
-601,342	800,000	0,064	-0,198
-600,328	-9,969	-0,060	-0,029
-599,313	37,081	-0,105	-0,067
-598,298	-127,798	0,045	0,005
-597,284	133,340	-0,076	-0,071
-596,269	275,503	-0,024	0,031
-595,255	16,706	-0,053	-0,030
-594,240	-200,000	-0,011	0,081
-593,225	-83,260	-0,101	-0,023
-592,211	-200,000	0,009	-0,065
-591,196	-200,000	0,013	-0,057
-590,182	-104,921	0,151	0,025
-589,167	-32,369	-0,139	0,056
-588,152	-200,000	-0,003	-0,027
-587,138	104,491	-0,012	-0,010
-586,123	-200,000	0,006	-0,039
-585,109	59,999	-0,063	0,045
-584,094	45,564	0,061	-0,041
-583,079	387,292	-0,024	-0,037
-582,065	-200,000	0,022	-0,109
-581,050	-30,233	-0,016	-0,007
-580,036	-93,659	0,073	0,014
-579,021	-44,127	0,074	-0,027
-578,006	203,832	0,053	-0,060
-576,992	126,396	-0,090	0,083
-575,977	-126,664	0,041	0,004
-574,963	549,693	0,019	-0,033
-573,948	-103,113	-0,126	0,021
-572,934	-34,310	-0,136	0,054
-571,919	-200,000	-0,032	-0,142
-570,904	-82,356	-0,055	-0,013
-569,890	-41,514	-0,042	0,016
-568,875	-139,703	-0,007	0,001
-567,861	-200,000	-0,015	0,059
-566,846	487,804	-0,009	0,016
-565,831	-200,000	0,014	-0,089
-564,817	21,602	-0,196	-0,115
-563,802	-200,000	-0,176	-0,000
-562,788	-111,419	0,115	-0,017
-561,773	470,900	-0,022	0,036
-560,758	-200,000	0,060	0,213
-559,744	-144,969	0,145	0,009
-558,729	-200,000	-0,002	0,017
-557,715	-200,000	-0,003	-0,074
-556,700	-200,000	-0,015	-0,049
-555,685	-20,625	-0,030	-0,013
-554,671	-110,730	0,108	0,016
-553,656	123,610	0,087	-0,079
-552,642	800,000	0,066	0,160
-551,627	-200,000	0,012	-0,092
-550,612	-36,006	-0,031	-0,012
-549,598	329,155	0,015	-0,021
-548,583	51,353	-0,110	-0,075
-547,569	169,123	0,180	-0,186
-546,554	6,627	0,139	0,074
-545,539	-27,531	-0,081	-0,034
-544,525	-200,000	-0,014	0,053
-543,510	-85,708	0,069	0,015
-542,496	800,000	-0,072	-0,166
-541,481	-144,584	0,081	-0,005
-540,466	227,610	0,100	-0,117
-539,452	475,799	-0,041	-0,068
-538,437	800,000	0,027	0,063
-537,423	161,912	0,051	-0,051
-536,408	81,201	-0,092	0,072
-535,393	178,376	-0,069	-0,073
-534,379	488,994	-0,078	-0,129
-533,364	370,098	-0,044	-0,064
-532,350	122,408	0,107	-0,096
-531,335	-200,000	0,005	0,129
-530,321	146,333	0,043	-0,042
-529,306	243,576	0,027	-0,032
-528,291	722,518	0,043	0,083
-527,277	-106,038	0,070	0,011
-526,262	-200,000	0,023	0,096
-525,248	11,309	-0,052	-0,029
-524,233	-200,000	0,001	0,038
-523,218	-14,301	0,039	0,018
-522,204	322,731	-0,034	-0,047
-521,189	172,804	-0,043	-0,045
-520,175	-19,221	-0,044	0,020
-519,160	-94,627	0,067	-0,013
-518,145	-86,898	-0,047	0,010
-517,131	-81,101	0,209	-0,049
-516,116	800,000	0,022	0,047
-515,102	84,825	-0,022	0,017
-514,087	213,543	0,058	0,066
-513,072	199,336	-0,045	0,050
-512,058	690,797	0,013	-0,025
-511,043	-200,000	0,027	0,139
-510,029	-51,960	0,097	0,032
-509,014	-142,413	-0,091	0,006
-507,999	800,000	0,012	0,030
-506,985	60,884	-0,096	-0,068
-505,970	800,000	0,022	0,049
-504,956	800,000	-0,013	0,032
-503,941	-149,952	-0,162	-0,009
-502,926	102,663	0,161	0,136
-501,912	-200,000	-0,016	-0,079
-500,897	-200,000	0,014	0,046
-499,883	-117,974	-0,087	0,011
-498,868	190,561	-0,069	0,075
-497,853	234,680	0,067	-0,079
-496,839	21,380	0,057	0,033
-495,824	190,528	0,028	0,031
-494,810	-200,000	-0,015	0,094
-493,795	21,647	0,156	0,091
-492,781	-200,000	-0,021	-0,114
-491,766	146,734	-0,174	-0,169
-490,751	800,000	-0,033	-0,094
-489,737	800,000	0,029	-0,059
-488,722	412,765	-0,075	-0,114
-487,708	-200,000	0,030	0,112
-486,693	44,739	-0,082	0,054
-485,678	66,109	0,115	-0,084
-484,664	-200,000	0,000	-0,021
-483,649	-200,000	-0,031	-0,149
-482,635	-200,000	0,007	-0,033
-481,620	-200,000	0,030	0,286
-480,605	-187,191	0,113	0,001
-479,591	173,702	0,084	0,087
-478,576	350,206	0,099	0,141
-477,562	-46,967	-0,085	-0,030
-476,547	-45,606	-0,132	-0,047
-475,532	136,488	-0,012	-0,012
-474,518	87,350	0,099	-0,078
-473,503	-153,309	0,033	0,002
-472,489	-16,671	0,077	0,035
-471,474	-170,195	0,012	-0,000
-470,459	-23,673	-0,081	0,035
-469,445	-70,490	-0,142	-0,039
-468,430	-24,337	-0,080	-0,034
-467,416	-1,873	0,087	0,044
-466,401	-200,000	0,032	0,102
-465,386	-200,000	0,008	0,053
-464,372	251,409	-0,051	-0,062
-463,357	128,678	0,116	-0,107
-462,343	-200,000	-0,049	-0,228
-461,328	6,909	0,053	-0,028
-460,313	800,000	-0,025	-0,051
-459,299	34,429	-0,058	0,037
-458,284	-200,000	0,037	0,119
-457,270	-133,723	-0,083	0,007
-456,255	-200,000	-0,014	-0,046
-455,241	214,223	-0,030	-0,034
-454,226	197,425	0,009	0,010
-453,211	-200,000	-0,017	0,066
-452,197	-200,000	-0,049	0,178
-451,182	-144,814	0,083	0,005
-450,168	677,619	-0,027	0,051
-449,153	480,529	-0,074	0,121
-448,138	800,000	0,029	0,085
-447,124	261,590	0,033	0,041
-446,109	-200,000	0,009	0,034
-445,095	-59,320	-0,049	-0,015
-444,080	-50,455	0,039	0,013
-443,065	39,066	-0,033	0,021
-442,051	-200,000	-0,016	-0,134
-441,036	103,259	-0,144	0,122
-440,022	-200,000	-0,005	-0,189
-439,007	-51,556	0,062	0,021
-437,992	800,000	-0,033	0,071
-436,978	-33,887	0,136	0,053
-435,963	-115,037	0,137	-0,018
-434,949	131,961	-0,007	0,006
-433,934	181,625	-0,110	-0,117
-432,919	-200,000	-0,023	-0,074
-431,905	455,666	-0,066	-0,105
-430,890	-21,319	0,055	-0,024
-429,876	-54,492	0,006	-0,002
-428,861	154,431	0,058	0,058
-427,846	800,000	-0,055	0,142
-426,832	-140,327	-0,155	0,011
-425,817	-200,000	0,019	-0,123
-424,803	645,596	-0,080	-0,148
-423,788	-200,000	0,014	-0,056
-422,773	414,899	0,063	0,096
-421,759	-200,000	0,001	0,089
-420,744	-200,000	0,018	0,218
-419,730	-126,605	-0,115	0,012
-418,715	205,044	-0,046	-0,051
-417,701	49,314	-0,144	-0,097
-416,686	18,080	0,110	-0,063
-415,671	-200,000	0,005	0,026
-414,657	118,437	0,101	0,090
-413,642	320,914	-0,052	-0,071
-412,628	-122,066	0,069	0,008
-411,613	673,236	0,035	0,065
-410,598	26,784	0,068	-0,041
-409,584	-200,000	0,018	0,112
-408,569	307,391	-0,075	0,100
-407,555	112,888	0,071	0,062
-406,540	-108,659	0,127	-0,019
-405,525	374,769	-0,055	0,080
-404,511	-175,717	-0,035	0,001
-403,496	-200,000	-0,007	-0,113
-402,482	273,853	0,049	-0,062
-401,467	-200,000	-0,002	0,121
-400,452	-138,885	0,047	-0,004
-399,438	10,141	0,066	0,036
-398,423	-119,722	-0,070	-0,009
-397,409	-63,559	0,039	-0,011
-396,394	94,919	-0,031	0,025
-395,379	255,995	-0,049	0,060
-394,365	79,982	-0,057	0,044
-393,350	-181,332	0,063	0,001
-392,336	-112,073	-0,123	0,018
-391,321	-30,506	-0,097	0,039
-390,306	172,201	0,082	-0,084
-389,292	213,443	-0,099	-0,112
-388,277	336,846	-0,069	-0,096
-387,263	-200,000	0,021	-0,116
-386,248	-200,000	0,008	-0,039
-385,233	-25,501	0,053	0,022
-384,219	575,601	-0,019	-0,034
-383,204	288,886	-0,067	-0,087
-382,190	130,644	-0,067	-0,062
-381,175	568,857	0,012	-0,021
-380,160	-116,833	0,062	0,008
-379,146	800,000	-0,059	0,161
-378,131	-200,000	-0,010	0,102
-377,117	-116,193	0,142	-0,019
-376,102	-7,096	-0,086	0,042
-375,088	-200,000	0,000	-0,004
-374,073	-36,834	0,072	0,028
-373,058	-115,597	0,022	-0,003
-372,044	-99,631	0,083	0,015
-371,029	10,034	-0,035	-0,019
-370,015	123,882	0,101	0,091
-369,000	800,000	-0,002	0,007
-367,985	800,000	-0,023	0,050
-366,971	314,975	-0,007	-0,009
-365,956	-9,081	0,056	0,027
-364,942	-200,000	-0,025	0,118
-363,927	-29,759	0,105	0,043
-362,912	141,389	-0,056	0,053
-361,898	800,000	-0,016	0,048
-360,883	76,767	0,050	0,038
-359,869	3,259	0,028	-0,015
-358,854	10,639	-0,067	-0,037
-357,839	-200,000	-0,009	-0,095
-356,825	295,997	-0,054	0,071
-355,810	-200,000	0,004	-0,033
-354,796	174,787	0,044	0,045
-353,781	251,394	-0,084	-0,102
-352,766	800,000	0,024	-0,047
-351,752	-68,441	-0,046	-0,013
-350,737	-132,577	-0,067	0,006
-349,723	800,000	0,014	0,037
-348,708	-200,000	-0,025	-0,136
-347,693	123,044	0,036	-0,032
-346,679	-200,000	0,016	-0,089
-345,664	513,760	0,027	0,045
-344,650	-200,000	0,005	0,125
-343,635	-153,521	0,122	0,006
-342,620	184,715	0,066	-0,070
-341,606	141,021	0,098	0,093
-340,591	800,000	-0,059	-0,118
-339,577	19,498	0,112	-0,065
-338,562	3,735	-0,038	0,020
-337,548	10,119	-0,068	0,037
-336,533	493,249	-0,010	0,017
-335,518	800,000	0,051	0,115
-334,504	-38,406	0,071	-0,027
-333,489	-200,000	-0,028	0,139
-332,475	-200,000	0,011	-0,144
-331,460	142,758	0,022	0,021
-330,445	491,352	-0,027	-0,044
-329,431	110,929	0,022	-0,019
-328,416	420,005	0,099	0,152
-327,402	-31,019	0,016	-0,006
-326,387	-200,000	-0,011	0,080
-325,372	-65,605	0,052	0,015
-324,358	800,000	0,041	-0,122
-323,343	-4,277	0,055	-0,027
-322,329	-162,795	-0,019	0,001
-321,314	-200,000	0,008	0,036
-320,299	800,000	0,075	0,223
-319,285	800,000	-0,024	-0,054
-318,270	-92,331	0,057	0,011
-317,256	800,000	0,020	-0,042
-316,241	800,000	-0,012	0,037
-315,226	-200,000	-0,009	-0,137
-314,212	800,000	0,011	0,023
-313,197	248,193	0,056	0,068
-312,183	194,303	0,067	0,073
-311,168	-200,000	0,007	-0,133
-310,153	-98,465	0,156	0,028
-309,139	-13,926	-0,088	-0,041
-308,124	800,000	0,033	-0,077
-307,110	800,000	0,051	-0,122
-306,095	-200,000	-0,005	0,064
-305,080	11,408	0,089	0,049
-304,066	159,492	0,092	-0,092
-303,051	226,235	-0,044	-0,051
-302,037	-124,822	-0,077	-0,008
-301,022	350,635	0,067	0,095
-300,008	161,370	0,070	0,070
-298,993	-73,801	0,164	0,042
-297,978	-8,673	-0,150	0,072
-296,964	-141,014	-0,128	-0,009
-295,949	-200,000	-0,028	-0,095
-294,935	-56,380	-0,043	0,013
-293,920	293,242	0,058	-0,076
-292,905	255,193	0,089	0,109
-291,891	444,035	0,053	-0,084
-290,876	-149,840	0,116	0,006
-289,862	800,000	-0,040	0,120
-288,847	-200,000	-0,049	-0,170
-287,832	55,552	0,063	0,044
-286,818	676,339	-0,037	-0,069
-285,803	800,000	-0,067	-0,135
-284,789	80,896	-0,117	-0,090
-283,774	46,120	-0,015	0,010
-282,759	40,228	-0,028	0,018
-281,745	-99,928	-0,078	-0,014
-280,730	800,000	-0,036	-0,081
-279,716	552,794	0,027	-0,047
-278,701	-1,218	-0,049	0,025
-277,686	-200,000	0,018	0,067
-276,672	-200,000	0,007	0,039
-275,657	800,000	-0,012	-0,027
-274,643	-75,123	-0,024	0,006
-273,628	-200,000	-0,008	-0,135
-272,613	800,000	-0,007	-0,015
-271,599	-27,225	0,041	-0,017
-270,584	228,475	-0,019	-0,022
-269,570	-125,845	0,151	0,016
-268,555	245,247	0,055	0,066
-267,540	-200,000	0,036	0,155
-266,526	-200,000	0,002	-0,010
-265,511	152,372	-0,071	-0,069
-264,497	-59,991	0,065	-0,020
-263,482	333,977	0,145	0,200
-262,467	-200,000	-0,020	0,098
-261,453	-200,000	0,029	0,158
-260,438	-156,166	-0,140	0,006
-259,424	-49,817	-0,036	-0,012
-258,409	-125,138	-0,106	0,011
-257,395	293,344	0,059	0,077
-256,380	-200,000	0,015	0,107
-255,365	225,420	-0,020	0,023
-254,351	-67,000	-0,062	0,017
-253,336	-134,649	-0,105	-0,009
-252,322	-200,000	-0,015	0,073
-251,307	800,000	-0,039	0,101
-250,292	438,486	-0,072	-0,112
-249,278	-96,024	-0,051	0,010
-248,263	527,177	0,033	0,055
-247,249	763,379	-0,027	-0,053
-246,234	-52,769	-0,053	-0,017
-245,219	-136,880	-0,082	0,007
-244,205	26,015	0,036	0,022
-243,190	-55,651	-0,090	-0,029
-242,176	-200,000	-0,004	0,018
-241,161	-26,863	0,047	-0,020
-240,146	-56,464	-0,071	-0,022
-239,132	-200,000	0,013	0,077
-238,117	31,558	-0,146	-0,089
-237,103	274,414	0,054	-0,069
-236,088	-200,000	0,006	-0,059
-235,073	693,536	0,034	-0,064
-234,059	800,000	0,039	-0,117
-233,044	246,919	-0,097	0,117
-232,030	-54,964	0,131	0,042
-231,015	-149,721	-0,090	0,005
-230,000	402,622	-0,051	-0,076
-228,986	-64,146	0,191	-0,055
-227,971	-200,000	-0,000	0,121
-226,957	498,821	0,074	0,122
-225,942	-200,000	0,028	0,117
-224,927	58,170	-0,072	0,050
-223,913	-111,495	-0,098	-0,014
-222,898	-41,736	0,039	-0,014
-221,884	-200,000	-0,046	-0,156
-220,869	800,000	-0,013	0,030
-219,855	-193,462	0,177	-0,001
-218,840	800,000	0,033	0,071
-217,825	496,701	0,042	0,070
-216,811	800,000	0,007	0,016
-215,796	-137,599	-0,157	-0,012
-214,782	13,998	0,057	0,032
-213,767	-84,041	-0,061	-0,014
-212,752	800,000	0,054	0,163
-211,738	-200,000	-0,005	0,121
-210,723	126,223	-0,113	0,102
-209,709	-175,526	0,064	0,001
-208,694	-39,849	-0,138	-0,051
-207,679	-200,000	-0,001	-0,112
-206,665	-0,090	-0,017	-0,009
-205,650	89,153	0,009	-0,007
-204,636	-117,261	-0,041	-0,005
-203,621	-200,000	-0,003	-0,073
-202,606	-19,036	-0,051	-0,023
-201,592	30,103	-0,024	-0,014
-200,577	574,812	-0,048	-0,084
-199,563	-60,301	0,056	0,017
-198,548	116,273	0,148	0,129
-197,533	-200,000	-0,009	0,079
-196,519	-200,000	-0,008	-0,030
-195,504	800,000	0,056	-0,127
-194,490	-63,971	0,059	0,017
-193,475	3,049	-0,037	0,019
-192,460	8,849	0,151	-0,081
-191,446	800,000	-0,042	0,112
-190,431	-200,000	-0,004	-0,105
-189,417	60,002	0,063	0,044
-188,402	123,341	0,045	-0,040
-187,387	32,934	-0,061	0,038
-186,373	-123,724	-0,143	0,016
-185,358	686,115	0,057	0,107
-184,344	-70,004	0,053	-0,014
-183,329	118,926	-0,034	-0,030
-182,315	-200,000	0,010	-0,054
-181,300	42,447	0,080	0,051
-180,285	-43,724	-0,058	0,021
-179,271	-71,354	-0,161	-0,043
-178,256	-200,000	-0,006	-0,018
-177,242	148,271	0,052	0,050
-176,227	-121,754	0,108	0,013
-175,212	155,411	0,038	0,037
-174,198	233,539	0,083	-0,097
-173,183	-200,000	-0,006	-0,074
-172,169	800,000	-0,064	-0,146
-171,154	207,178	0,049	0,054
-170,139	-200,000	-0,015	0,124
-169,125	800,000	0,007	-0,017
-168,110	-200,000	0,011	0,145
-167,096	800,000	-0,033	-0,076
-166,081	23,493	-0,055	-0,032
-165,066	171,200	0,062	0,063
-164,052	25,574	0,036	-0,021
-163,037	219,661	-0,023	-0,026
-162,023	800,000	-0,077	0,201
-161,008	-112,934	0,142	-0,020
-159,993	-70,660	-0,064	-0,017
-158,979	-139,148	-0,088	-0,007
-157,964	179,968	0,096	0,100
-156,950	800,000	-0,020	-0,041
-155,935	-200,000	-0,005	-0,224
-154,920	-29,474	0,145	0,059
-153,906	-200,000	0,007	0,092
-152,891	20,645	-0,024	-0,014
-151,877	-200,000	-0,004	0,039
-150,862	-200,000	0,006	-0,179
-149,847	36,956	0,073	-0,046
-148,833	209,945	0,118	-0,132
-147,818	-200,000	0,019	-0,066
-146,804	-26,155	-0,021	0,009
-145,789	800,000	0,048	0,101
-144,775	-76,369	-0,118	0,029
-143,760	-200,000	-0,025	0,089
-142,745	521,790	-0,053	-0,089
-141,731	-200,000	0,006	-0,102
-140,716	-63,652	0,016	0,005
-139,702	-163,693	0,030	0,001
-138,687	301,949	0,006	-0,007
-137,672	220,460	0,098	-0,111
-136,658	-150,020	-0,091	-0,005
-135,643	-70,140	-0,060	-0,016
-134,629	774,235	-0,026	-0,050
-133,614	449,715	0,056	0,087
-132,599	800,000	0,006	0,017
-131,585	-33,704	0,117	0,046
-130,570	-200,000	0,001	-0,027
-129,556	-100,603	-0,150	0,026
-128,541	-127,100	-0,099	0,010
-127,526	-5,290	0,034	-0,017
-126,512	-21,465	-0,085	0,037
-125,497	-200,000	-0,013	0,208
-124,483	-200,000	0,020	-0,063
-123,468	-46,947	0,088	0,030
-122,453	301,941	-0,054	-0,071
-121,439	123,491	0,046	-0,041
-120,424	800,000	-0,054	-0,135
-119,410	180,535	0,104	0,109
-118,395	-200,000	0,046	0,182
-117,380	357,155	0,113	0,161
-116,366	86,301	0,023	0,018
-115,351	702,817	0,048	-0,091
-114,337	247,705	-0,077	-0,092
-113,322	-92,577	0,039	0,008
-112,307	800,000	0,039	0,096
-111,293	-200,000	-0,009	0,038
-110,278	-165,758	-0,066	0,002
-109,264	-13,458	-0,152	0,069
-108,249	32,677	-0,070	-0,043
-107,234	-127,739	-0,007	0,001
-106,220	-200,000	-0,011	-0,039
-105,205	-120,377	0,138	-0,016
-104,191	-15,790	0,192	-0,086
-103,176	137,969	-0,121	0,112
-102,162	101,409	0,023	-0,019
-101,147	800,000	-0,027	-0,061
-100,132	189,387	-0,064	-0,068
-99,118	800,000	0,007	-0,022
-98,103	800,000	0,028	0,073
-97,089	-200,000	0,033	0,105
-96,074	1,845	0,040	0,020
-95,059	-200,000	-0,019	0,076
-94,045	128,334	-0,016	0,015
-93,030	-25,555	0,110	0,046
-92,016	532,783	-0,016	0,026
-91,001	502,527	-0,097	-0,160
-89,986	17,012	0,020	-0,011
-88,972	18,349	0,064	0,036
-87,957	800,000	-0,084	0,187
-86,943	-61,915	-0,095	0,028
-85,928	-155,438	-0,089	0,004
-84,913	92,231	-0,039	-0,031
-83,899	-200,000	0,004	-0,112
-82,884	-200,000	0,055	0,179
-81,870	-115,792	0,148	0,019
-80,855	800,000	0,049	0,108
-79,840	-200,000	-0,005	-0,100
-78,826	556,929	-0,016	-0,028
-77,811	39,766	-0,071	-0,045
-76,797	800,000	0,054	-0,108
-75,782	-200,000	-0,014	0,058
-74,767	-86,166	0,155	-0,034
-73,753	-200,000	-0,054	0,192
-72,738	-13,229	-0,030	0,014
-71,724	40,517	0,052	-0,033
-70,709	800,000	-0,039	-0,097
-69,694	-200,000	-0,001	-0,063
-68,680	-12,861	-0,084	0,039
-67,665	15,482	0,143	-0,080
-66,651	142,791	0,040	0,038
-65,636	-45,500	-0,163	0,057
-64,622	78,459	0,017	-0,013
-63,607	52,217	-0,104	-0,070
-62,592	-200,000	0,006	-0,101
-61,578	-117,017	-0,143	-0,018
-60,563	23,644	0,081	0,047
-59,549	-31,909	-0,102	-0,040
-58,534	-24,094	-1,480	-0,623
-57,519	418,938	-1,346	-2,046
-56,505	-200,000	-0,454	-4,623
-55,490	183,183	0,926	0,969
-54,476	800,000	4,829	11,568
-53,461	-200,000	18,790	304,695
-52,446	800,000	736,161	2289,925
-51,432	566,486	1652,292	2849,640
-50,417	78,896	1669,870	1264,021
-49,403	22,111	1542,762	889,032
-48,388	15,990	1465,675	814,882
-47,373	17,735	1455,445	817,589
-46,359	16,802	1445,940	807,742
-45,344	14,234	1441,361	792,860
-44,330	14,163	1439,402	791,414
-43,315	14,172	1437,600	790,435
-42,300	14,190	1435,994	789,606
-41,286	14,262	1434,548	789,124
-40,271	14,202	1433,304	788,119
-39,257	14,203	1432,076	787,420
-38,242	14,230	1430,877	786,854
-37,227	14,251	1429,698	786,278
-36,213	14,238	1428,268	785,397
-35,198	14,246	1427,108	784,767
-34,184	14,248	1426,280	784,288
-33,169	14,181	1425,031	783,255
-32,154	14,261	1423,947	783,005
-31,140	14,209	1422,713	782,052
-30,125	14,279	1421,622	781,749
-29,111	14,272	1420,112	780,854
-28,096	14,205	1419,528	780,189
-27,082	14,168	1418,009	779,149
-26,067	14,141	1417,312	778,604
-25,052	14,177	1416,057	778,056
-24,038	14,149	1415,073	777,350
-23,023	14,096	1414,182	776,581
-22,009	14,117	1412,993	775,995
-20,994	14,096	1412,247	775,458
-19,979	14,098	1411,625	775,097
-18,965	14,056	1410,324	774,155
-17,950	14,089	1409,475	773,812
-16,936	14,118	1408,516	773,391
-15,921	14,074	1407,320	772,496
-14,906	14,021	1406,572	771,810
-13,892	14,074	1405,586	771,484
-12,877	14,064	1404,704	770,920
-11,863	14,062	1403,719	770,341
-10,848	14,075	1402,962	769,958
-9,833	14,062	1402,016	769,345
-8,819	14,000	1401,112	768,532
-7,804	13,996	1400,220	767,993
-6,790	13,963	1399,304	767,305
-5,775	13,989	1398,255	766,820
-4,760	13,992	1397,315	766,288
-3,746	13,969	1396,454	765,680
-2,731	13,951	1395,566	765,079
-1,717	13,973	1394,701	764,675
-0,702	13,937	1392,996	763,543
0,313	17,761	1310,883	736,261
1,327	34,008	705,875	434,086
2,342	52,443	124,096	83,662
3,356	3,244	16,571	8,503
4,371	6,685	3,185	1,671
5,386	19,018	0,553	0,313
6,400	800,000	-0,092	0,189
7,415	28,811	-0,246	-0,147
8,429	-25,866	-0,377	-0,156
9,444	94,804	-0,308	-0,247
10,459	-63,519	-0,246	-0,071
11,473	64,536	-0,309	-0,220
12,488	19,124	-0,294	-0,166
13,502	280,013	-0,229	-0,290
14,517	-54,595	-0,320	-0,102
15,531	-55,491	-0,366	-0,115
16,546	115,090	-0,349	-0,301
17,561	151,185	-0,335	-0,323
18,575	-17,249	-0,205	-0,091
19,590	493,170	-0,157	-0,255
20,604	-78,595	-0,254	-0,061
21,619	23,052	-0,471	-0,272
22,634	27,449	-0,511	-0,303
23,648	90,831	-0,516	-0,408
24,663	234,461	-0,268	-0,312
25,677	20,032	-0,366	-0,208
26,692	-12,679	-0,329	-0,151
27,707	266,728	-0,280	-0,347
28,721	49,003	-0,203	-0,134
29,736	359,288	-0,261	-0,370
30,750	139,198	-0,271	-0,252
31,765	62,709	-0,429	-0,302
32,780	58,123	-0,262	-0,181
33,794	139,257	-0,325	-0,302
34,809	41,400	-0,427	-0,272
35,823	118,725	-0,391	-0,341
36,838	124,349	-0,319	-0,283
37,853	45,785	-0,399	-0,260
38,867	7,319	-0,329	-0,173
39,882	172,690	-0,335	-0,340
40,896	156,369	-0,303	-0,295
41,911	18,709	-0,347	-0,196
42,926	-20,285	-0,413	-0,179
43,940	59,850	-0,375	-0,261
44,955	-17,004	-0,465	-0,206
45,969	82,935	-0,362	-0,277
46,984	102,422	-0,297	-0,244
47,999	104,373	-0,286	-0,237
49,013	-123,338	-0,287	-0,032
50,028	231,076	-0,233	-0,269
51,042	126,226	-0,224	-0,200
52,057	192,686	-0,326	-0,347
53,071	223,822	-0,154	-0,175
54,086	-52,378	-0,295	-0,096
55,101	189,968	-0,341	-0,361
56,115	421,620	-0,260	-0,394
57,130	132,910	-0,333	-0,303
58,144	-10,094	-0,395	-0,184
59,159	-28,855	-0,376	-0,152
60,174	-12,340	-0,429	-0,196
61,188	-25,993	-0,405	-0,167
62,203	-3,232	-0,399	-0,195
63,217	50,720	-0,270	-0,180
64,232	-27,396	-0,280	-0,114
65,247	238,066	-0,144	-0,169
66,261	-109,168	-0,496	-0,073
67,276	253,637	-0,280	-0,337
68,290	86,681	-0,296	-0,229
69,305	31,750	-0,335	-0,202
70,320	-59,783	-0,411	-0,123
71,334	111,891	-0,167	-0,142
72,349	32,661	-0,336	-0,204
73,363	97,121	-0,193	-0,156
74,378	-11,235	-0,322	-0,149
75,393	-20,990	-0,299	-0,128
76,407	-124,737	-0,326	-0,035
77,422	82,351	-0,352	-0,268
78,436	159,102	-0,288	-0,282
79,451	110,769	-0,295	-0,250
80,466	9,574	-0,366	-0,194
81,480	11,694	-0,365	-0,196
82,495	26,255	-0,367	-0,215
83,509	54,493	-0,283	-0,191
84,524	135,190	-0,214	-0,196
85,539	41,594	-0,277	-0,176
86,553	53,461	-0,349	-0,235
87,568	10,753	-0,306	-0,164
88,582	59,140	-0,387	-0,267
89,597	36,007	-0,279	-0,172
90,611	213,241	-0,235	-0,261
91,626	100,741	-0,160	-0,131
92,641	163,434	-0,356	-0,352
93,655	217,683	-0,205	-0,230
94,670	4,672	-0,349	-0,180
95,684	202,403	-0,235	-0,255
96,699	14,478	-0,392	-0,214
97,714	437,689	-0,190	-0,291
98,728	25,947	-0,231	-0,135
99,743	-174,226	-0,222	-0,004
100,757	69,022	-0,330	-0,238
101,772	10,743	-0,302	-0,161
102,787	48,656	-0,320	-0,210
103,801	138,322	-0,260	-0,239
104,816	27,787	-0,292	-0,172
105,830	251,155	-0,188	-0,224
106,845	33,366	-0,375	-0,228
107,860	482,173	-0,181	-0,290
108,874	2,690	-0,335	-0,170
109,889	56,842	-0,252	-0,172
110,903	45,046	-0,280	-0,181
111,918	-133,471	-0,300	-0,026
112,933	110,511	-0,274	-0,231
113,947	-52,857	-0,204	-0,065
114,962	-15,734	-0,222	-0,099
115,976	90,187	-0,201	-0,157
116,991	3,288	-0,361	-0,184
118,006	24,661	-0,358	-0,207
119,020	208,436	-0,190	-0,208
120,035	202,747	-0,126	-0,136
121,049	115,720	-0,143	-0,123
122,064	5,525	-0,206	-0,106
123,079	-42,092	-0,268	-0,096
124,093	62,397	-0,296	-0,207
125,108	175,542	-0,260	-0,264
126,122	60,567	-0,263	-0,182
127,137	101,436	-0,149	-0,121
128,151	24,059	-0,381	-0,220
129,166	84,860	-0,244	-0,187
130,181	102,219	-0,288	-0,235
131,195	157,787	-0,249	-0,241
132,210	164,216	-0,294	-0,290
133,224	19,100	-0,318	-0,178
134,239	87,096	-0,286	-0,221
135,254	72,461	-0,224	-0,163
136,268	92,048	-0,163	-0,129
137,283	-58,695	-0,276	-0,083
138,297	-49,681	-0,296	-0,098
139,312	311,975	-0,204	-0,268
140,327	118,681	-0,212	-0,183
141,341	-28,721	-0,322	-0,129
142,356	128,961	-0,190	-0,169
143,370	-200,000	-0,055	-0,233
144,385	165,061	-0,151	-0,149
145,400	31,532	-0,313	-0,188
146,414	149,491	-0,329	-0,311
147,429	72,146	-0,296	-0,215
148,443	67,774	-0,326	-0,232
149,458	800,000	-0,089	-0,218
150,473	-24,830	-0,256	-0,106
151,487	-200,000	-0,264	-0,001
152,502	-42,019	-0,274	-0,098
153,516	230,168	-0,249	-0,285
154,531	106,465	-0,307	-0,254
155,546	82,346	-0,307	-0,232
156,560	218,258	-0,240	-0,268
157,575	148,141	-0,180	-0,170
158,589	81,596	-0,214	-0,162
159,604	-6,321	-0,209	-0,099
160,619	92,921	-0,335	-0,264
161,633	-121,432	-0,263	-0,030
162,648	-23,634	-0,284	-0,118
163,662	679,288	-0,138	-0,252
164,677	20,762	-0,219	-0,123
165,692	-131,129	-0,047	0,004
166,706	178,761	-0,165	-0,168
167,721	291,694	-0,143	-0,182
168,735	212,690	-0,202	-0,223
169,750	107,167	-0,177	-0,146
170,764	18,271	-0,195	-0,108
171,779	800,000	-0,103	-0,250
172,794	297,736	-0,210	-0,270
173,808	198,332	-0,169	-0,180
174,823	373,494	-0,167	-0,237
175,837	-54,785	-0,245	-0,077
176,852	153,010	-0,155	-0,147
177,867	-47,059	-0,233	-0,079
178,881	-200,000	-0,057	-0,217
179,896	-7,730	-0,177	-0,083
180,910	326,888	-0,119	-0,159
181,925	137,575	-0,258	-0,235
182,940	156,391	-0,149	-0,143
183,954	192,701	-0,139	-0,146
184,969	17,784	-0,198	-0,109
185,983	89,086	-0,168	-0,130
186,998	-25,562	-0,232	-0,095
188,013	-67,796	-0,258	-0,070
189,027	-23,937	-0,252	-0,105
190,042	87,567	-0,273	-0,210
191,056	-78,736	-0,274	-0,065
192,071	172,722	-0,179	-0,179
193,086	798,327	-0,097	-0,188
194,100	-20,447	-0,096	-0,041
195,115	-176,359	-0,263	0,005
196,129	-113,043	-0,237	-0,032
197,144	397,054	-0,187	-0,273
198,159	325,518	-0,142	-0,190
199,173	449,631	-0,154	-0,237
200,188	-141,973	-0,258	0,018
201,202	207,104	-0,019	0,020
202,217	434,787	-0,137	-0,208
203,232	213,324	-0,212	-0,233
204,246	274,824	-0,165	-0,204
205,261	539,956	-0,168	-0,278
206,275	-200,000	-0,009	-0,170
207,290	-91,769	-0,191	0,037
208,304	-117,949	-0,181	-0,022
209,319	800,000	-0,108	-0,253
210,334	466,761	-0,161	-0,252
211,348	48,031	-0,283	-0,184
212,363	139,119	-0,210	-0,192
213,377	-30,931	-0,186	-0,073
214,392	64,704	-0,198	-0,138
215,407	564,607	-0,094	-0,159
216,421	56,732	-0,106	-0,072
217,436	45,152	-0,205	-0,131
218,450	200,913	-0,168	-0,180
219,465	273,018	-0,136	-0,167
220,480	44,691	-0,222	-0,141
221,494	268,112	-0,190	-0,232
222,509	629,736	-0,094	-0,166
223,523	-86,300	-0,174	-0,037
224,538	-65,322	-0,201	-0,056
225,553	302,485	-0,194	-0,250
226,567	191,775	-0,284	-0,297
227,582	800,000	-0,129	-0,331
228,596	22,666	-0,179	-0,101
229,611	-101,746	-0,232	-0,039
230,626	106,535	-0,056	-0,046
231,640	17,621	-0,118	-0,065
232,655	-20,266	-0,193	-0,082
233,669	291,280	-0,230	-0,290
234,684	274,824	-0,116	-0,143
235,699	44,568	-0,144	-0,091
236,713	194,424	-0,159	-0,167
237,728	143,901	-0,143	-0,132
238,742	-3,717	-0,223	-0,107
239,757	264,364	-0,180	-0,217
240,772	217,874	-0,213	-0,236
241,786	339,935	-0,177	-0,240
242,801	134,206	-0,181	-0,163
243,815	-9,263	-0,101	-0,047
244,830	71,415	-0,144	-0,103
245,844	92,283	-0,130	-0,102
246,859	406,354	-0,180	-0,264
247,874	-175,781	-0,167	-0,003
248,888	-75,337	-0,253	-0,062
249,903	116,934	-0,143	-0,122
250,917	-55,079	-0,086	-0,027
251,932	1,824	-0,187	-0,093
252,947	0,788	-0,203	-0,100
253,961	-60,989	-0,274	-0,079
254,976	222,764	-0,218	-0,243
255,990	-106,207	-0,189	-0,029
257,005	71,187	-0,175	-0,126
258,020	85,131	-0,174	-0,132
259,034	374,395	-0,124	-0,175
260,049	-61,752	-0,103	-0,030
261,063	547,103	-0,086	-0,142
262,078	87,761	-0,152	-0,116
263,093	-200,000	-0,050	-0,164
264,107	800,000	-0,033	-0,075
265,122	-57,926	-0,154	-0,046
266,136	-91,375	-0,166	-0,032
267,151	760,812	-0,070	-0,131
268,166	676,143	-0,073	-0,132
269,180	185,916	-0,206	-0,212
270,195	519,150	-0,160	-0,259
271,209	-14,388	-0,271	-0,120
272,224	-40,667	-0,252	-0,090
273,239	80,939	-0,181	0,135
274,253	113,987	-0,132	-0,111
275,268	386,669	-0,116	-0,166
276,282	765,945	-0,124	-0,234
277,297	82,391	-0,243	-0,182
278,312	239,605	-0,135	-0,156
279,326	82,516	-0,193	-0,144
280,341	245,639	-0,153	-0,178
281,355	192,826	-0,149	-0,155
282,370	21,838	-0,105	0,059
283,384	142,827	-0,158	-0,145
284,399	266,849	-0,169	-0,204
285,414	-20,268	-0,259	-0,110
286,428	79,700	-0,152	-0,113
287,443	66,172	-0,132	-0,093
288,457	7,588	-0,105	0,054
289,472	211,185	-0,220	-0,239
290,487	205,192	-0,139	-0,149
291,501	-46,586	-0,225	-0,076
292,516	-16,844	-0,066	-0,029
293,530	123,705	-0,188	-0,163
294,545	-67,154	-0,205	-0,055
295,560	105,822	-0,119	-0,097
296,574	800,000	-0,076	-0,170
297,589	-36,540	-0,217	-0,080
298,603	8,521	-0,144	-0,074
299,618	230,505	-0,150	-0,169
300,633	-92,419	-0,162	-0,031
301,647	-112,472	-0,227	-0,031
302,662	268,691	-0,101	-0,122
303,676	107,884	-0,091	-0,075
304,691	162,758	-0,083	-0,080
305,706	-105,319	-0,138	-0,021
306,720	-140,991	-0,116	-0,008
307,735	150,900	-0,143	-0,134
308,749	-177,353	-0,098	0,002
309,764	-45,607	-0,165	-0,056
310,779	-176,321	-0,111	0,002
311,793	-43,444	-0,189	-0,065
312,808	33,274	-0,193	-0,115
313,822	33,334	-0,177	-0,105
314,837	-70,348	-0,193	-0,050
315,852	-98,053	-0,262	0,046
316,866	-94,816	-0,088	0,016
317,881	5,869	-0,105	-0,053
318,895	76,821	-0,239	-0,175
319,910	68,994	-0,167	-0,118
320,925	-139,798	-0,171	-0,012
321,939	17,737	-0,184	-0,100
322,954	-31,557	-0,188	-0,072
323,968	68,699	-0,110	-0,078
324,983	-136,932	-0,150	-0,012
325,997	-91,700	-0,189	0,037
327,012	-24,824	-0,139	-0,056
328,027	54,758	-0,146	-0,096
329,041	232,329	-0,160	-0,181
330,056	102,211	-0,147	-0,118
331,070	800,000	-0,054	-0,145
332,085	48,101	-0,181	-0,116
333,100	-36,586	-0,058	-0,021
334,114	169,490	-0,143	-0,141
335,129	311,677	-0,114	-0,147
336,143	-16,610	-0,124	-0,054
337,158	270,432	-0,105	-0,127
338,173	797,190	-0,111	-0,210
339,187	104,421	-0,167	-0,135
340,202	-136,025	-0,088	-0,007
341,216	-71,859	-0,199	-0,051
342,231	-18,379	-0,168	-0,072
343,246	-200,000	-0,053	-0,202
344,260	274,187	-0,096	-0,116
345,275	68,453	-0,114	-0,080
346,289	364,937	-0,033	-0,045
347,304	-12,275	-0,062	0,028
348,319	84,582	-0,080	-0,060
349,333	800,000	-0,060	-0,171
350,348	-136,404	-0,088	-0,007
351,362	-9,535	-0,101	-0,046
352,377	129,817	-0,141	0,124
353,392	125,359	-0,092	-0,080
354,406	-1,474	-0,171	0,083
355,421	209,406	1314,859	1414,969
356,435	161,161	1475,603	1415,443
