DTS Sentinel unit serial number:	SN410029Multiplexer serial number:	ORYXHardware model number:	OX2-SRSoftware version number:	ORYX F/W v4,00 Oryx Data Collector v3.7.2.0data status	okinstallation	B3 Nyhavnadifferential loss correction	single-endedforward channel	channel 1reverse channel	N/Adate	2023/12/02time	02:12:30forward acquisition time	300,00reverse acquisition time	0,00gamma	499,1914k internal	0,3194k external	0,3194temperature offset calibration	1,0000default loss term (dB/km)	0,3820temperature slope calibration	1,0000multiplexer offset coefficient	1,0000multiplexer slope coefficient	1,0000fibre end	0,00T internal ref (°C)	16,62T ext. ref 1 (°C)	1,92T ext. ref 2 (°C)	1,92length (m)	temperature (°C)	Stokes	anti-Stokes-744,400	136,624	-0,258	-0,246
-743,385	-200,000	-0,054	0,377
-742,371	211,155	-0,133	-0,152
-741,356	-200,000	0,135	0,448
-740,342	50,211	-0,247	-0,169
-739,327	661,666	0,158	0,298
-738,312	128,928	-0,303	-0,281
-737,298	800,000	-0,118	0,285
-736,283	245,550	-0,224	-0,275
-735,269	-200,000	0,092	0,384
-734,254	178,584	-0,141	-0,151
-733,239	273,781	-0,129	0,166
-732,225	800,000	-0,079	-0,236
-731,210	-95,114	0,182	0,035
-730,196	-139,297	0,092	0,007
-729,181	-200,000	0,024	-0,090
-728,167	62,621	-0,130	-0,095
-727,152	-200,000	0,001	-0,083
-726,137	392,743	-0,034	-0,052
-725,123	-200,000	0,013	-0,099
-724,108	86,680	0,013	-0,010
-723,094	372,204	-0,087	-0,129
-722,079	522,856	0,074	-0,127
-721,064	800,000	-0,034	0,095
-720,050	-87,591	-0,066	-0,015
-719,035	-200,000	0,002	0,021
-718,021	-200,000	-0,005	-0,026
-717,006	675,887	-0,073	-0,138
-715,991	149,443	-0,051	-0,050
-714,977	40,329	-0,119	-0,078
-713,962	-200,000	-0,055	-0,212
-712,948	800,000	-0,019	0,051
-711,933	59,274	0,040	-0,029
-710,918	-200,000	-0,024	0,084
-709,904	109,265	-0,113	-0,099
-708,889	800,000	-0,039	-0,087
-707,875	80,492	0,073	-0,057
-706,860	-200,000	0,001	-0,122
-705,845	-200,000	0,004	0,040
-704,831	-84,366	-0,042	-0,010
-703,816	-47,278	0,156	-0,055
-702,802	65,524	-0,023	-0,017
-701,787	444,932	0,104	-0,167
-700,772	-200,000	-0,009	-0,047
-699,758	-67,634	-0,053	0,015
-698,743	10,009	0,026	0,014
-697,729	-22,683	0,018	0,008
-696,714	-200,000	-0,009	-0,042
-695,699	-118,365	-0,096	-0,012
-694,685	204,072	0,045	0,051
-693,670	800,000	0,067	-0,148
-692,656	15,720	0,018	-0,010
-691,641	196,317	0,018	-0,020
-690,627	130,692	0,067	-0,063
-689,612	354,974	0,058	-0,084
-688,597	30,080	-0,128	-0,079
-687,583	281,554	-0,109	-0,142
-686,568	-106,178	0,036	0,006
-685,554	292,427	-0,084	-0,112
-684,539	520,614	-0,029	0,049
-683,524	-129,895	-0,189	0,019
-682,510	800,000	0,025	0,056
-681,495	272,672	-0,048	-0,062
-680,481	-46,984	0,050	-0,018
-679,466	5,455	-0,128	-0,069
-678,451	581,809	0,056	-0,100
-677,437	-200,000	-0,024	0,109
-676,422	159,122	-0,093	0,094
-675,408	-200,000	-0,016	0,066
-674,393	94,517	-0,077	-0,063
-673,378	69,411	0,054	-0,040
-672,364	-200,000	0,002	0,041
-671,349	-200,000	-0,008	-0,107
-670,335	-130,047	-0,131	0,013
-669,320	-114,885	0,075	0,010
-668,305	120,050	-0,108	0,097
-667,291	42,195	0,099	-0,065
-666,276	590,739	0,102	-0,184
-665,262	-200,000	-0,011	-0,151
-664,247	-200,000	0,020	0,141
-663,232	229,017	-0,095	-0,113
-662,218	-13,677	0,052	-0,024
-661,203	27,637	-0,058	0,035
-660,189	190,372	-0,053	-0,057
-659,174	83,614	0,133	-0,105
-658,159	-12,536	-0,099	0,047
-657,145	-126,607	0,152	0,016
-656,130	-200,000	0,014	-0,078
-655,116	-200,000	0,006	0,039
-654,101	34,172	-0,077	0,048
-653,086	343,896	0,130	0,185
-652,072	-28,067	-0,121	0,051
-651,057	-18,238	0,011	-0,005
-650,043	335,914	-0,027	0,038
-649,028	140,016	-0,036	0,035
-648,014	105,154	0,040	-0,034
-646,999	144,771	-0,068	-0,066
-645,984	787,534	-0,055	0,111
-644,970	-200,000	-0,002	0,023
-643,955	800,000	0,025	-0,063
-642,941	-117,732	0,045	-0,006
-641,926	-200,000	0,037	0,121
-640,911	160,750	0,038	-0,039
-639,897	354,173	-0,079	0,115
-638,882	-137,377	-0,222	0,018
-637,868	-200,000	-0,004	0,060
-636,853	800,000	-0,009	-0,027
-635,838	30,808	-0,044	-0,027
-634,824	-200,000	-0,012	0,041
-633,809	-200,000	0,019	0,065
-632,795	-200,000	-0,047	0,180
-631,780	-17,195	-0,120	0,055
-630,765	74,986	-0,119	-0,091
-629,751	371,632	-0,017	0,025
-628,736	800,000	0,085	-0,216
-627,722	800,000	-0,045	-0,109
-626,707	72,264	-0,023	0,018
-625,692	-84,471	0,141	0,032
-624,678	-112,805	-0,207	0,029
-623,663	-133,178	-0,064	0,006
-622,649	33,466	0,126	-0,079
-621,634	-11,693	-0,124	-0,059
-620,619	-200,000	-0,040	0,170
-619,605	59,095	-0,106	0,076
-618,590	-122,443	-0,068	-0,008
-617,576	800,000	0,024	0,049
-616,561	-97,379	0,049	-0,009
-615,546	779,045	-0,106	-0,211
-614,532	10,441	0,057	-0,031
-613,517	-74,650	-0,042	0,011
-612,503	800,000	-0,023	-0,071
-611,488	93,064	-0,028	0,023
-610,474	88,962	-0,014	0,011
-609,459	-200,000	0,019	0,068
-608,444	-200,000	0,017	-0,090
-607,430	-200,000	-0,002	0,131
-606,415	-63,545	-0,063	0,019
-605,401	-61,022	0,092	-0,028
-604,386	555,613	0,057	0,099
-603,371	-200,000	-0,009	0,111
-602,357	-200,000	0,005	0,262
-601,342	800,000	-0,032	0,093
-600,328	48,148	0,034	-0,023
-599,313	113,577	0,104	-0,092
-598,298	-0,941	-0,019	-0,010
-597,284	225,734	0,070	0,082
-596,269	35,149	-0,013	-0,008
-595,255	-200,000	0,018	0,121
-594,240	-200,000	0,008	-0,060
-593,225	-200,000	-0,004	-0,065
-592,211	100,444	-0,063	-0,053
-591,196	-200,000	0,006	-0,071
-590,182	469,895	-0,098	-0,161
-589,167	-200,000	-0,016	0,092
-588,152	330,286	0,050	0,070
-587,138	19,034	-0,063	0,036
-586,123	580,359	-0,061	-0,109
-585,109	87,017	0,114	-0,091
-584,094	-200,000	-0,005	0,112
-583,079	-69,245	0,052	-0,014
-582,065	-131,962	-0,080	0,007
-581,050	-64,334	0,043	0,013
-580,036	-21,340	-0,054	0,024
-579,021	63,277	-0,057	0,041
-578,006	6,328	-0,025	0,013
-576,992	39,901	0,066	0,043
-575,977	-200,000	-0,010	-0,078
-574,963	-174,986	0,051	0,001
-573,948	-162,993	0,051	-0,002
-572,934	800,000	0,015	0,047
-571,919	-31,958	-0,051	-0,021
-570,904	-200,000	0,044	-0,174
-569,890	-79,584	0,114	-0,028
-568,875	800,000	0,025	-0,064
-567,861	-200,000	0,022	0,141
-566,846	436,090	0,095	0,150
-565,831	800,000	-0,011	0,029
-564,817	265,280	0,061	0,077
-563,802	-200,000	0,004	0,022
-562,788	-117,581	-0,093	0,012
-561,773	433,001	0,061	0,096
-560,758	800,000	-0,043	0,123
-559,744	2,774	-0,133	0,070
-558,729	800,000	0,033	0,076
-557,715	25,496	-0,118	-0,071
-556,700	-200,000	-0,053	-0,247
-555,685	-62,498	0,051	-0,015
-554,671	-200,000	-0,036	-0,119
-553,656	-200,000	0,006	-0,051
-552,642	582,100	0,052	0,092
-551,627	-200,000	0,007	0,084
-550,612	98,748	-0,085	-0,071
-549,598	241,674	0,053	-0,065
-548,583	-33,284	0,029	0,011
-547,569	800,000	-0,064	0,183
-546,554	108,971	-0,075	0,065
-545,539	800,000	0,027	-0,065
-544,525	-85,829	-0,030	0,007
-543,510	110,674	-0,053	0,046
-542,496	228,398	0,084	0,099
-541,481	155,704	-0,149	-0,149
-540,466	800,000	-0,066	0,150
-539,452	13,661	0,095	0,053
-538,437	53,362	0,090	-0,062
-537,423	258,400	-0,056	0,070
-536,408	-17,851	-0,215	-0,097
-535,393	800,000	0,034	0,101
-534,379	481,309	-0,075	-0,123
-533,364	-200,000	0,001	0,094
-532,350	-48,136	0,067	0,023
-531,335	-200,000	-0,020	0,116
-530,321	695,470	-0,021	-0,041
-529,306	-102,648	0,048	-0,008
-528,291	-96,038	0,053	0,010
-527,277	-200,000	0,001	0,012
-526,262	-10,992	-0,115	0,055
-525,248	23,035	0,053	-0,031
-524,233	-124,030	0,026	-0,003
-523,218	-100,067	0,041	-0,007
-522,204	-97,021	0,066	0,012
-521,189	-77,021	-0,083	0,021
-520,175	-200,000	0,002	-0,073
-519,160	159,690	0,055	0,055
-518,145	117,457	0,064	-0,057
-517,131	-82,925	-0,003	0,001
-516,116	-200,000	0,006	0,153
-515,102	2,955	-0,075	-0,039
-514,087	-0,888	-0,037	-0,019
-513,072	167,907	0,039	-0,040
-512,058	-200,000	-0,007	-0,093
-511,043	-200,000	-0,013	-0,063
-510,029	178,946	0,063	-0,067
-509,014	-125,321	0,044	-0,005
-507,999	-141,653	0,124	0,009
-506,985	647,262	-0,027	-0,051
-505,970	301,458	-0,013	-0,018
-504,956	228,534	0,112	-0,132
-503,941	800,000	-0,053	0,116
-502,926	-130,411	0,111	-0,011
-501,912	-200,000	0,003	-0,077
-500,897	800,000	0,095	0,223
-499,883	-145,301	-0,059	0,004
-498,868	23,236	-0,220	-0,130
-497,853	-117,930	-0,030	0,004
-496,839	-200,000	0,018	0,069
-495,824	96,848	0,105	0,087
-494,810	155,703	0,062	-0,062
-493,795	-200,000	-0,024	0,103
-492,781	-200,000	0,004	0,142
-491,766	800,000	0,067	0,167
-490,751	-30,810	-0,097	0,040
-489,737	-163,194	0,062	-0,002
-488,722	328,458	0,064	-0,089
-487,708	800,000	0,031	0,092
-486,693	42,996	0,009	0,006
-485,678	235,298	0,060	-0,071
-484,664	718,497	0,032	-0,062
-483,649	-22,218	0,079	0,034
-482,635	9,027	-0,201	0,109
-481,620	106,378	0,053	-0,046
-480,605	536,728	-0,040	0,068
-479,591	336,423	-0,046	-0,065
-478,576	-200,000	-0,025	0,148
-477,562	-88,932	-0,039	-0,008
-476,547	12,072	-0,026	0,014
-475,532	800,000	0,015	-0,033
-474,518	-93,072	0,049	0,010
-473,503	41,746	0,072	0,047
-472,489	-98,800	-0,120	-0,022
-471,474	-200,000	-0,013	-0,080
-470,459	-200,000	-0,003	0,038
-469,445	-171,062	-0,021	-0,001
-468,430	800,000	0,026	0,076
-467,416	-200,000	0,036	0,196
-466,401	-96,866	-0,041	0,008
-465,386	113,946	0,018	0,016
-464,372	800,000	-0,029	-0,058
-463,357	131,953	-0,126	-0,117
-462,343	-169,131	-0,089	0,002
-461,328	800,000	0,048	0,107
-460,313	-50,773	0,082	0,027
-459,299	-200,000	-0,013	0,091
-458,284	-200,000	0,031	0,120
-457,270	402,550	0,090	0,137
-456,255	800,000	-0,057	-0,119
-455,241	-200,000	0,065	-0,218
-454,226	77,238	-0,136	-0,104
-453,211	-200,000	-0,005	0,057
-452,197	-79,578	-0,132	-0,032
-451,182	35,736	0,065	0,041
-450,168	-200,000	0,026	0,110
-449,153	-200,000	0,003	-0,034
-448,138	-200,000	0,013	-0,068
-447,124	117,056	-0,130	-0,115
-446,109	152,795	-0,037	0,037
-445,095	-200,000	-0,008	0,026
-444,080	30,955	-0,073	0,045
-443,065	-200,000	0,004	-0,038
-442,051	800,000	0,016	-0,036
-441,036	-92,649	-0,085	-0,017
-440,022	661,995	0,019	-0,036
-439,007	567,536	0,030	0,053
-437,992	225,747	0,070	0,082
-436,978	-200,000	-0,002	-0,055
-435,963	111,976	-0,037	0,032
-434,949	24,785	0,042	0,025
-433,934	-200,000	-0,050	-0,170
-432,919	0,999	-0,165	-0,085
-431,905	471,144	-0,035	0,057
-430,890	-200,000	0,002	-0,069
-429,876	163,851	-0,037	0,038
-428,861	129,151	0,104	-0,095
-427,846	800,000	0,044	-0,109
-426,832	-66,472	-0,075	0,021
-425,817	-137,508	-0,141	0,011
-424,803	-68,758	-0,036	0,010
-423,788	185,843	0,055	-0,059
-422,773	-200,000	0,009	-0,086
-421,759	800,000	0,065	0,190
-420,744	-108,481	-0,134	-0,021
-419,730	-73,764	-0,101	0,026
-418,715	-200,000	0,007	0,049
-417,701	216,376	0,098	0,112
-416,686	786,054	0,039	-0,078
-415,671	-52,535	-0,009	-0,003
-414,657	-161,618	-0,040	0,001
-413,642	800,000	0,027	-0,064
-412,628	-200,000	-0,024	-0,111
-411,613	153,160	-0,029	0,029
-410,598	-200,000	-0,003	-0,113
-409,584	53,666	0,114	-0,079
-408,569	663,653	-0,039	-0,073
-407,555	-67,643	0,174	-0,049
-406,540	362,026	0,079	0,115
-405,525	-45,543	0,094	0,033
-404,511	800,000	0,050	-0,139
-403,496	416,246	0,088	-0,135
-402,482	-200,000	-0,008	-0,049
-401,467	35,864	0,121	0,077
-400,452	-40,116	-0,094	-0,035
-399,438	-51,591	0,111	-0,037
-398,423	800,000	0,048	-0,113
-397,409	-200,000	-0,005	-0,056
-396,394	800,000	-0,045	-0,100
-395,379	43,504	0,084	0,055
-394,365	-200,000	0,024	-0,080
-393,350	-158,473	0,141	-0,006
-392,336	-99,721	-0,065	0,012
-391,321	-200,000	-0,028	-0,097
-390,306	800,000	-0,037	-0,101
-389,292	230,778	0,165	-0,194
-388,277	-200,000	0,011	-0,204
-387,263	-200,000	-0,009	0,032
-386,248	69,008	0,043	-0,032
-385,233	-51,646	0,063	-0,021
-384,219	-159,222	-0,194	0,008
-383,204	-200,000	-0,027	-0,095
-382,190	-59,331	0,093	0,029
-381,175	494,079	-0,024	-0,040
-380,160	-200,000	-0,012	0,047
-379,146	-110,200	-0,126	0,019
-378,131	407,003	0,042	0,064
-377,117	-200,000	0,013	-0,141
-376,102	-187,243	0,095	0,001
-375,088	-111,781	-0,109	0,016
-374,073	-200,000	0,009	0,055
-373,058	800,000	-0,031	0,069
-372,044	800,000	-0,019	0,041
-371,029	800,000	0,033	0,071
-370,015	-12,384	0,078	0,036
-369,000	-95,059	-0,047	-0,009
-367,985	129,132	-0,051	0,047
-366,971	800,000	0,038	-0,111
-365,956	800,000	0,039	-0,113
-364,942	59,327	0,070	0,050
-363,927	800,000	-0,016	0,044
-362,912	-33,183	0,207	-0,082
-361,898	-200,000	-0,004	-0,076
-360,883	32,428	-0,163	-0,101
-359,869	-144,792	-0,201	-0,013
-358,854	-152,449	0,148	-0,007
-357,839	-200,000	-0,009	0,043
-356,825	17,302	-0,067	-0,038
-355,810	358,366	-0,034	-0,049
-354,796	39,324	0,110	-0,071
-353,781	-60,976	-0,075	0,023
-352,766	92,819	-0,130	-0,105
-351,752	-187,984	0,020	-0,000
-350,737	239,498	-0,048	0,058
-349,723	800,000	0,068	0,148
-348,708	-157,527	-0,099	0,004
-347,693	-91,160	-0,093	0,019
-346,679	-154,712	-0,154	0,007
-345,664	-200,000	-0,000	-0,030
-344,650	-79,977	0,152	0,036
-343,635	-200,000	-0,004	-0,100
-342,620	800,000	0,016	0,048
-341,606	319,733	0,026	-0,035
-340,591	-200,000	-0,016	-0,070
-339,577	-200,000	-0,065	-0,206
-338,562	105,258	-0,043	-0,037
-337,548	-200,000	-0,012	-0,057
-336,533	327,063	0,049	-0,067
-335,518	-200,000	0,004	0,088
-334,504	-200,000	-0,017	0,123
-333,489	322,753	-0,092	0,127
-332,475	198,638	-0,088	-0,096
-331,460	-45,261	0,068	-0,024
-330,445	-1,497	-0,034	0,017
-329,431	-6,870	0,072	-0,035
-328,416	800,000	-0,047	0,144
-327,402	411,351	-0,066	0,101
-326,387	121,134	0,137	0,123
-325,372	800,000	0,038	0,082
-324,358	-65,922	-0,057	-0,016
-323,343	51,218	0,054	-0,037
-322,329	718,564	0,031	-0,060
-321,314	-200,000	0,016	0,060
-320,299	175,781	0,040	-0,041
-319,285	800,000	-0,027	0,079
-318,270	-200,000	-0,013	-0,081
-317,256	-122,597	-0,072	0,008
-316,241	136,764	-0,050	-0,047
-315,226	326,156	0,101	-0,139
-314,212	-200,000	0,022	-0,085
-313,197	-46,560	0,108	0,038
-312,183	-65,460	0,151	-0,043
-311,168	10,899	-0,082	0,045
-310,153	-34,236	-0,084	-0,033
-309,139	800,000	0,068	-0,179
-308,124	240,089	-0,018	0,022
-307,110	16,308	0,106	-0,060
-306,095	-47,590	0,173	0,060
-305,080	171,635	0,018	0,019
-304,066	662,148	0,071	0,132
-303,051	-200,000	-0,009	-0,066
-302,037	800,000	-0,023	0,052
-301,022	-80,688	0,097	0,023
-300,008	-200,000	0,026	-0,127
-298,993	90,349	0,074	0,060
-297,978	-199,525	-0,101	-0,000
-296,964	-151,588	0,075	0,004
-295,949	69,992	-0,039	-0,028
-294,935	162,393	-0,086	-0,087
-293,920	-200,000	-0,011	0,085
-292,905	288,010	0,017	-0,023
-291,891	-65,291	0,098	0,028
-290,876	-18,537	0,103	-0,046
-289,862	717,045	0,068	-0,130
-288,847	225,869	-0,106	-0,123
-287,832	44,624	-0,147	-0,097
-286,818	120,436	0,090	0,080
-285,803	75,946	-0,064	-0,048
-284,789	689,377	0,043	-0,081
-283,774	800,000	-0,002	0,005
-282,759	-10,611	0,091	-0,043
-281,745	-200,000	-0,007	-0,079
-280,730	417,388	-0,030	-0,045
-279,716	53,826	-0,108	-0,074
-278,701	-200,000	0,001	0,064
-277,686	254,543	0,059	0,073
-276,672	-45,667	0,047	-0,017
-275,657	-200,000	0,009	0,122
-274,643	343,046	0,033	0,046
-273,628	419,589	0,023	0,035
-272,613	-116,010	-0,022	0,003
-271,599	77,933	0,140	0,106
-270,584	670,190	-0,040	0,075
-269,570	-200,000	0,007	-0,071
-268,555	176,185	0,036	-0,037
-267,540	-200,000	-0,036	-0,117
-266,526	-200,000	0,012	-0,090
-265,511	-200,000	0,019	-0,101
-264,497	541,885	0,043	0,074
-263,482	-200,000	0,022	0,187
-262,467	-200,000	-0,015	0,107
-261,453	-200,000	0,007	0,031
-260,438	27,755	0,107	-0,065
-259,424	284,956	-0,047	-0,060
-258,409	99,188	-0,052	0,043
-257,395	158,495	-0,070	-0,070
-256,380	137,089	0,021	-0,020
-255,365	-143,943	0,167	-0,011
-254,351	800,000	0,030	0,085
-253,336	-200,000	-0,001	0,169
-252,322	92,946	0,040	-0,032
-251,307	39,654	-0,018	-0,012
-250,292	343,730	-0,128	-0,180
-249,278	59,982	-0,159	0,112
-248,263	-149,794	-0,016	0,001
-247,249	-86,996	0,081	0,017
-246,234	42,228	-0,012	-0,008
-245,219	-200,000	-0,011	-0,129
-244,205	77,313	-0,094	-0,071
-243,190	382,869	0,022	0,032
-242,176	-44,884	0,117	0,041
-241,161	35,873	-0,043	0,027
-240,146	800,000	-0,016	0,040
-239,132	-200,000	-0,001	-0,224
-238,117	-55,610	-0,152	-0,048
-237,103	32,341	0,019	0,012
-236,088	-200,000	0,020	0,086
-235,073	56,801	-0,052	0,036
-234,059	800,000	0,046	0,127
-233,044	-200,000	-0,001	0,020
-232,030	-200,000	0,011	0,086
-231,015	-6,722	-0,036	0,017
-230,000	-9,171	0,083	-0,040
-228,986	540,276	-0,078	-0,134
-227,971	-141,281	0,189	0,014
-226,957	-38,105	0,061	0,023
-225,942	204,881	-0,016	0,018
-224,927	-86,186	0,071	0,015
-223,913	-102,187	-0,117	-0,020
-222,898	800,000	0,075	-0,153
-221,884	-155,128	-0,060	0,003
-220,869	152,611	0,108	-0,105
-219,855	153,661	0,077	0,075
-218,840	-200,000	0,015	0,193
-217,825	55,181	0,075	-0,052
-216,811	800,000	-0,035	-0,080
-215,796	-200,000	-0,015	0,080
-214,782	665,358	-0,047	0,086
-213,767	413,657	0,018	-0,028
-212,752	7,933	-0,083	0,044
-211,738	800,000	0,005	-0,014
-210,723	-200,000	-0,024	0,135
-209,709	800,000	0,033	0,094
-208,694	-33,387	0,061	0,024
-207,679	-200,000	-0,008	-0,044
-206,665	-93,145	0,183	0,036
-205,650	-43,806	-0,065	0,023
-204,636	-5,616	-0,120	0,058
-203,621	208,232	-0,096	-0,107
-202,606	789,652	0,025	-0,050
-201,592	472,652	-0,024	-0,038
-200,577	547,982	0,025	-0,043
-199,563	140,785	-0,040	0,038
-198,548	35,211	-0,029	-0,018
-197,533	-200,000	-0,027	0,161
-196,519	-200,000	0,029	0,104
-195,504	17,473	0,078	-0,044
-194,490	96,705	0,141	0,115
-193,475	84,852	-0,112	0,088
-192,460	-6,463	0,075	-0,036
-191,446	598,390	-0,066	-0,117
-190,431	147,502	-0,042	0,040
-189,417	69,952	0,044	-0,033
-188,402	-200,000	0,015	-0,128
-187,387	512,344	-0,072	0,121
-186,373	127,274	0,050	0,045
-185,358	-200,000	-0,006	-0,056
-184,344	94,685	0,107	0,087
-183,329	800,000	0,039	0,115
-182,315	-200,000	0,001	-0,118
-181,300	527,809	0,044	-0,074
-180,285	800,000	0,058	-0,163
-179,271	-150,247	-0,142	0,008
-178,256	-121,923	0,052	-0,006
-177,242	462,697	-0,022	0,035
-176,227	42,176	-0,064	0,042
-175,212	172,293	-0,065	0,067
-174,198	-200,000	-0,031	0,116
-173,183	140,491	0,117	-0,111
-172,169	-200,000	-0,020	-0,073
-171,154	102,736	0,043	0,036
-170,139	-8,033	0,063	0,030
-169,125	55,510	0,099	-0,068
-168,110	-179,034	0,120	-0,002
-167,096	-122,732	-0,107	0,012
-166,081	-4,335	0,086	0,042
-165,066	-200,000	0,008	0,088
-164,052	242,257	0,031	0,037
-163,037	-200,000	-0,001	-0,075
-162,023	21,687	-0,091	-0,053
-161,008	209,940	-0,078	0,087
-159,993	-200,000	0,004	0,121
-158,979	607,411	-0,044	0,079
-157,964	2,273	-0,079	0,040
-156,950	-61,120	-0,050	-0,015
-155,935	291,815	0,026	-0,033
-154,920	37,050	0,057	-0,036
-153,906	-42,250	-0,115	0,042
-152,891	490,793	-0,036	0,059
-151,877	-111,352	0,090	-0,013
-150,862	193,813	0,023	0,025
-149,847	126,555	-0,152	-0,137
-148,833	16,001	0,064	0,036
-147,818	-152,389	0,069	-0,003
-146,804	115,860	0,178	0,155
-145,789	213,738	0,035	-0,039
-144,775	-110,062	0,071	0,010
-143,760	-200,000	0,001	-0,029
-142,745	-200,000	-0,002	-0,013
-141,731	-136,591	0,078	-0,006
-140,716	-62,948	0,131	0,038
-139,702	169,201	0,028	0,029
-138,687	-200,000	-0,012	-0,088
-137,672	-200,000	0,055	-0,197
-136,658	-57,033	0,023	-0,007
-135,643	165,064	-0,035	0,035
-134,629	301,901	-0,023	0,031
-133,614	42,218	0,104	0,067
-132,599	-140,802	0,111	-0,008
-131,585	650,118	0,018	0,033
-130,570	800,000	-0,038	0,085
-129,556	71,414	-0,042	-0,031
-128,541	-200,000	-0,002	-0,032
-127,526	-200,000	-0,007	-0,035
-126,512	120,497	0,108	0,095
-125,497	415,458	-0,056	0,085
-124,483	51,840	0,190	0,128
-123,468	648,189	0,059	0,107
-122,453	-200,000	0,000	-0,112
-121,439	-200,000	0,005	-0,023
-120,424	-85,839	0,038	0,008
-119,410	265,160	0,091	-0,112
-118,395	-26,895	0,151	0,062
-117,380	-200,000	0,016	0,061
-116,366	-68,352	-0,043	-0,012
-115,351	199,454	0,085	0,093
-114,337	29,138	-0,112	0,067
-113,322	194,770	0,018	-0,019
-112,307	-200,000	-0,007	0,106
-111,293	50,723	-0,037	-0,025
-110,278	-115,702	0,039	0,005
-109,264	-200,000	0,001	-0,080
-108,249	133,962	0,040	0,037
-107,234	-51,265	0,078	0,026
-106,220	-74,779	-0,133	0,034
-105,205	48,424	0,077	-0,051
-104,191	130,676	0,027	-0,024
-103,176	263,471	-0,032	-0,040
-102,162	-200,000	0,021	-0,136
-101,147	-200,000	0,000	-0,057
-100,132	485,677	-0,047	0,076
-99,118	130,917	-0,043	0,039
-98,103	-115,013	-0,073	0,010
-97,089	-36,426	0,085	-0,033
-96,074	-98,776	0,196	-0,035
-95,059	-200,000	0,000	-0,054
-94,045	-66,561	-0,058	-0,016
-93,030	-123,467	-0,086	-0,010
-92,016	-172,264	0,076	-0,002
-91,001	-158,682	0,096	0,004
-89,986	-128,791	-0,144	-0,014
-88,972	-14,238	0,132	-0,060
-87,957	92,270	0,048	0,038
-86,943	410,747	0,075	-0,113
-85,928	-200,000	-0,026	0,173
-84,913	-119,038	0,087	-0,011
-83,899	131,715	0,054	-0,049
-82,884	-200,000	-0,022	0,154
-81,870	-200,000	0,003	0,073
-80,855	-200,000	0,030	-0,105
-79,840	106,679	0,130	0,109
-78,826	34,213	-0,110	0,068
-77,811	-140,644	-0,071	0,005
-76,797	800,000	0,033	-0,067
-75,782	-200,000	-0,009	0,094
-74,767	800,000	-0,028	-0,075
-73,753	250,253	-0,092	0,112
-72,738	-163,902	0,059	0,002
-71,724	482,116	-0,064	-0,103
-70,709	-108,058	-0,119	-0,018
-69,694	-200,000	-0,014	-0,093
-68,680	-200,000	0,031	0,128
-67,665	9,264	0,067	0,036
-66,651	-200,000	0,023	0,084
-65,636	6,830	0,069	0,036
-64,622	315,685	0,068	-0,092
-63,607	-92,715	0,105	0,021
-62,592	-200,000	0,005	-0,182
-61,578	112,872	0,031	0,026
-60,563	800,000	0,032	-0,076
-59,549	-28,526	0,085	0,035
-58,534	-101,828	-1,297	-0,220
-57,519	346,030	-1,593	-2,229
-56,505	-200,000	-0,398	-4,418
-55,490	119,068	0,859	0,753
-54,476	800,000	4,883	11,218
-53,461	-200,000	17,202	268,240
-52,446	800,000	714,380	2178,255
-51,432	551,592	1629,195	2785,564
-50,417	81,416	1655,238	1268,260
-49,403	24,426	1529,578	894,960
-48,388	18,436	1452,863	821,242
-47,373	18,589	1442,280	815,959
-46,359	18,309	1433,124	809,415
-45,344	16,764	1428,724	799,567
-44,330	16,688	1426,697	798,044
-43,315	16,690	1425,098	797,125
-42,300	16,759	1423,336	796,437
-41,286	16,767	1422,142	795,771
-40,271	16,742	1420,920	794,940
-39,257	16,714	1419,523	793,993
-38,242	16,745	1418,305	793,425
-37,227	16,779	1417,063	792,862
-36,213	16,711	1415,892	791,856
-35,198	16,706	1414,696	791,133
-34,184	16,728	1413,703	790,648
-33,169	16,626	1412,577	789,508
-32,154	16,734	1411,596	789,433
-31,140	16,759	1410,167	788,722
-30,125	16,756	1408,987	788,017
-29,111	16,698	1408,082	787,206
-28,096	16,746	1406,801	786,684
-27,082	16,697	1405,665	785,790
-26,067	16,702	1404,306	785,020
-25,052	16,687	1403,437	784,432
-24,038	16,681	1402,362	783,777
-23,023	16,643	1401,540	783,109
-22,009	16,655	1400,367	782,474
-20,994	16,594	1399,573	781,716
-19,979	16,605	1398,657	781,226
-18,965	16,609	1397,731	780,699
-17,950	16,534	1396,903	779,857
-16,936	16,566	1395,781	779,347
-15,921	16,555	1394,527	778,563
-14,906	16,532	1393,834	778,040
-13,892	16,563	1392,880	777,620
-12,877	16,569	1391,929	777,088
-11,863	16,545	1390,968	776,409
-10,848	16,578	1390,067	776,024
-9,833	16,538	1389,035	775,234
-8,819	16,490	1388,292	774,569
-7,804	16,463	1387,174	773,787
-6,790	16,456	1386,186	773,175
-5,775	16,440	1385,267	772,557
-4,760	16,467	1384,474	772,211
-3,746	16,429	1383,632	771,534
-2,731	16,422	1382,822	771,023
-1,717	16,413	1381,751	770,352
-0,702	16,455	1379,812	769,433
0,313	20,220	1301,815	743,298
1,327	36,592	707,866	442,166
2,342	56,666	125,796	86,669
3,356	4,347	16,543	8,567
4,371	-10,229	3,132	1,468
5,386	16,065	0,543	0,302
6,400	800,000	0,092	0,196
7,415	126,396	-0,262	-0,235
8,429	-56,905	-0,509	-0,158
9,444	41,197	-0,389	-0,249
10,459	53,182	-0,343	-0,232
11,473	221,977	-0,189	-0,215
12,488	44,036	-0,292	-0,189
13,502	349,629	-0,254	-0,356
14,517	12,991	-0,319	-0,174
15,531	-14,963	-0,382	-0,173
16,546	50,790	-0,366	-0,245
17,561	61,880	-0,421	-0,297
18,575	-18,495	-0,135	0,059
19,590	31,167	-0,176	-0,107
20,604	-44,831	-0,309	-0,108
21,619	59,317	-0,447	-0,311
22,634	82,288	-0,329	-0,252
23,648	55,062	-0,448	-0,306
24,663	32,970	-0,504	-0,308
25,677	125,361	-0,399	-0,356
26,692	17,136	-0,394	-0,220
27,707	-56,795	-0,272	-0,085
28,721	9,908	-0,485	-0,260
29,736	113,928	-0,437	-0,375
30,750	188,522	-0,346	-0,367
31,765	800,000	-0,140	-0,305
32,780	7,923	-0,534	-0,282
33,794	149,269	-0,335	-0,321
34,809	53,572	-0,394	-0,267
35,823	31,385	-0,381	-0,231
36,838	300,117	-0,289	-0,378
37,853	357,890	-0,361	-0,510
38,867	369,017	-0,259	-0,371
39,882	30,474	-0,315	-0,190
40,896	14,782	-0,368	-0,203
41,911	-31,026	-0,281	-0,112
42,926	99,396	-0,363	-0,296
43,940	211,985	-0,358	-0,399
44,955	234,220	-0,429	-0,500
45,969	460,311	-0,261	-0,413
46,984	45,726	-0,409	-0,266
47,999	-94,126	-0,292	-0,056
49,013	-30,006	-0,334	-0,134
50,028	78,586	-0,254	-0,191
51,042	41,466	-0,343	-0,219
52,057	-15,788	-0,331	-0,148
53,071	59,288	-0,358	-0,249
54,086	276,261	-0,258	-0,324
55,101	25,266	-0,238	-0,139
56,115	88,703	-0,338	-0,265
57,130	25,462	-0,368	-0,216
58,144	3,382	-0,361	-0,185
59,159	228,231	-0,368	-0,424
60,174	123,023	-0,431	-0,381
61,188	35,498	-0,316	-0,195
62,203	35,728	-0,271	-0,168
63,217	69,372	-0,343	-0,249
64,232	-15,021	-0,413	-0,186
65,247	87,813	-0,297	-0,232
66,261	130,947	-0,318	-0,288
67,276	-32,989	-0,452	-0,176
68,290	120,383	-0,327	-0,286
69,305	-4,155	-0,378	-0,184
70,320	159,959	-0,223	-0,219
71,334	68,264	-0,221	-0,160
72,349	177,337	-0,170	-0,175
73,363	175,308	-0,248	-0,254
74,378	-2,418	-0,343	-0,169
75,393	124,371	-0,266	-0,235
76,407	-93,818	-0,369	-0,071
77,422	66,304	-0,338	-0,242
78,436	186,180	-0,252	-0,265
79,451	225,444	-0,267	-0,305
80,466	21,233	-0,362	-0,206
81,480	-41,377	-0,367	-0,133
82,495	-67,690	-0,452	-0,124
83,509	57,226	-0,376	-0,258
84,524	26,827	-0,302	-0,178
85,539	-49,319	-0,226	-0,076
86,553	-39,497	-0,390	-0,143
87,568	106,859	-0,274	-0,228
88,582	93,900	-0,235	-0,187
89,597	125,076	-0,388	-0,344
90,611	137,813	-0,264	-0,243
91,626	-31,525	-0,351	-0,138
92,641	-13,751	-0,324	-0,147
93,655	297,349	-0,184	-0,238
94,670	175,303	-0,265	-0,271
95,684	134,286	-0,294	-0,268
96,699	122,602	-0,326	-0,286
97,714	3,800	-0,264	-0,135
98,728	81,956	-0,257	-0,196
99,743	134,543	-0,294	-0,269
100,757	800,000	-0,042	-0,128
101,772	182,587	-0,279	-0,289
102,787	70,270	-0,272	-0,197
103,801	213,318	-0,214	-0,238
104,816	128,536	-0,197	-0,176
105,830	194,354	-0,193	-0,206
106,845	433,176	-0,159	-0,243
107,860	-65,327	-0,296	-0,083
108,874	-67,076	-0,260	-0,072
109,889	210,290	-0,172	-0,189
110,903	85,267	-0,157	-0,121
111,918	54,528	-0,180	-0,121
112,933	573,242	-0,183	-0,314
113,947	126,784	-0,195	-0,173
114,962	-164,676	-0,308	-0,010
115,976	59,185	-0,167	-0,115
116,991	2,193	-0,282	-0,142
118,006	-73,007	-0,151	-0,039
119,020	259,285	-0,255	-0,309
120,035	79,339	-0,250	-0,188
121,049	81,370	-0,108	-0,082
122,064	174,649	-0,275	-0,280
123,079	496,874	-0,197	-0,319
124,093	-16,076	-0,345	-0,153
125,108	-17,815	-0,310	-0,136
126,122	72,878	-0,241	-0,176
127,137	63,819	-0,318	-0,224
128,151	-26,803	-0,197	-0,080
129,166	23,857	-0,218	-0,126
130,181	416,126	-0,172	-0,258
131,195	45,686	-0,364	-0,235
132,210	199,736	-0,265	-0,285
133,224	165,797	-0,161	-0,159
134,239	69,720	-0,205	-0,148
135,254	-15,307	-0,339	-0,151
136,268	740,462	-0,118	-0,223
137,283	-19,227	-0,238	-0,103
138,297	-175,503	-0,224	0,004
139,312	280,203	-0,279	-0,350
140,327	233,100	-0,230	-0,265
141,341	-49,055	-0,312	-0,104
142,356	-174,175	-0,193	0,004
143,370	323,671	-0,142	-0,190
144,385	457,904	-0,162	-0,253
145,400	112,093	-0,307	-0,260
146,414	100,315	-0,241	-0,196
147,429	-45,397	-0,227	-0,078
148,443	449,954	-0,198	-0,307
149,458	322,768	-0,208	-0,278
150,473	105,877	-0,261	-0,216
151,487	-91,287	-0,291	0,058
152,502	401,615	-0,181	-0,266
153,516	169,235	-0,341	-0,340
154,531	800,000	-0,091	-0,268
155,546	546,018	-0,095	-0,159
156,560	152,384	-0,243	-0,233
157,575	84,994	-0,156	-0,119
158,589	56,820	-0,151	-0,103
159,604	-33,243	-0,282	-0,109
160,619	-11,058	-0,275	-0,126
161,633	6,868	-0,222	-0,115
162,648	550,409	-0,183	-0,308
163,662	126,980	-0,203	-0,180
164,677	40,296	-0,257	-0,162
165,692	136,987	-0,237	-0,217
166,706	282,420	-0,129	-0,162
167,721	196,946	-0,159	-0,170
168,735	124,599	-0,219	-0,193
169,750	144,219	-0,200	-0,187
170,764	197,499	-0,147	-0,157
171,779	-200,000	-0,002	-0,174
172,794	177,678	-0,222	-0,226
173,808	-120,589	-0,222	-0,026
174,823	58,892	-0,396	-0,271
175,837	507,115	-0,098	-0,160
176,852	85,348	-0,151	-0,115
177,867	77,742	-0,269	-0,200
178,881	85,793	-0,167	-0,128
179,896	75,496	-0,183	-0,135
180,910	-23,044	-0,237	-0,099
181,925	200,018	-0,262	-0,281
182,940	36,158	-0,210	-0,129
183,954	107,063	-0,279	-0,232
184,969	-82,453	-0,194	-0,044
185,983	237,334	-0,182	-0,211
186,998	103,989	-0,184	-0,151
188,013	155,702	-0,226	-0,217
189,027	107,883	-0,209	-0,174
190,042	63,620	-0,309	-0,216
191,056	93,123	-0,258	-0,203
192,071	-200,000	-0,041	-0,228
193,086	-37,883	-0,225	-0,083
194,100	147,730	-0,198	-0,186
195,115	265,043	-0,215	-0,262
196,129	117,983	-0,232	-0,199
197,144	800,000	-0,138	-0,302
198,159	165,200	-0,191	-0,188
199,173	210,968	-0,097	-0,107
200,188	-103,830	-0,195	-0,031
201,202	-18,604	-0,248	-0,107
202,217	-118,287	-0,204	0,025
203,232	174,505	-0,215	-0,217
204,246	165,219	-0,202	-0,199
205,261	24,240	-0,215	-0,123
206,275	-122,923	-0,310	-0,034
207,290	67,825	-0,258	-0,183
208,304	-20,024	-0,123	0,053
209,319	181,773	-0,177	-0,182
210,334	-95,713	-0,245	0,045
211,348	342,790	-0,118	-0,162
212,363	-134,905	-0,179	0,015
213,377	-159,900	-0,197	-0,007
214,392	-27,357	-0,201	-0,081
215,407	428,976	-0,077	-0,116
216,421	158,414	-0,158	-0,152
217,436	133,689	-0,198	-0,178
218,450	14,625	-0,259	-0,140
219,465	-25,772	-0,168	-0,069
220,480	203,825	-0,148	-0,159
221,494	-90,886	-0,110	-0,022
222,509	800,000	-0,042	-0,096
223,523	154,504	-0,152	-0,145
224,538	356,643	-0,149	-0,207
225,553	43,787	-0,324	-0,206
226,567	139,499	-0,278	-0,254
227,582	348,370	-0,243	-0,334
228,596	769,006	-0,064	-0,123
229,611	187,260	-0,074	-0,077
230,626	-140,121	-0,280	0,020
231,640	171,373	-0,198	-0,198
232,655	63,295	-0,287	-0,200
233,669	-28,061	-0,220	-0,088
234,684	-99,010	-0,235	0,041
235,699	-52,104	-0,138	-0,044
236,713	28,352	-0,203	-0,119
237,728	11,135	-0,253	-0,134
238,742	119,314	-0,191	-0,164
239,757	-26,096	-0,280	-0,114
240,772	800,000	-0,066	-0,165
241,786	-27,101	-0,200	-0,081
242,801	-104,222	-0,179	0,029
243,815	-72,990	-0,208	-0,053
244,830	-63,831	-0,163	0,046
245,844	-157,503	-0,299	-0,012
246,859	-117,686	-0,250	0,031
247,874	193,554	-0,228	-0,239
248,888	231,061	-0,166	-0,189
249,903	120,960	-0,120	-0,104
250,917	-51,555	-0,149	-0,048
251,932	-26,156	-0,117	-0,048
252,947	-90,798	-0,244	-0,048
253,961	274,604	-0,190	-0,233
254,976	395,840	-0,192	-0,279
255,990	134,450	-0,179	-0,161
257,005	211,037	-0,198	-0,216
258,020	188,367	-0,085	-0,088
259,034	83,797	-0,304	-0,230
260,049	64,042	-0,144	0,100
261,063	53,068	-0,228	-0,151
262,078	65,939	-0,083	-0,059
263,093	-73,114	-0,255	-0,064
264,107	14,630	-0,207	-0,112
265,122	-168,906	-0,095	0,002
266,136	-24,327	-0,139	-0,057
267,151	295,434	-0,123	-0,156
268,166	22,411	-0,259	-0,146
269,180	86,786	-0,224	-0,171
270,195	485,445	-0,092	-0,145
271,209	-90,366	-0,103	0,021
272,224	329,414	-0,123	-0,164
273,239	698,281	-0,030	-0,055
274,253	800,000	-0,038	-0,107
275,268	293,746	-0,152	-0,193
276,282	105,266	-0,256	-0,209
277,297	-6,103	-0,222	-0,104
278,312	-0,773	-0,184	-0,090
279,326	-144,986	-0,156	-0,010
280,341	-161,848	-0,164	-0,006
281,355	106,394	-0,104	-0,085
282,370	-42,267	-0,123	-0,043
283,384	493,551	-0,118	-0,187
284,399	-31,717	-0,259	-0,100
285,414	239,315	-0,079	-0,091
286,428	-11,324	-0,156	-0,071
287,443	-200,000	-0,030	-0,097
288,457	50,155	-0,147	-0,096
289,472	193,176	-0,205	-0,214
290,487	111,666	-0,160	-0,134
291,501	582,258	-0,100	-0,170
292,516	129,831	-0,217	-0,192
293,530	154,029	-0,109	-0,103
294,545	-11,275	-0,119	0,054
295,560	-85,311	-0,120	-0,026
296,574	59,866	-0,184	-0,125
297,589	-200,000	-0,029	-0,153
298,603	126,332	-0,184	-0,161
299,618	-78,294	-0,116	-0,027
300,633	220,111	-0,046	0,050
301,647	-138,606	-0,192	-0,014
302,662	256,754	-0,159	-0,189
303,676	800,000	-0,095	-0,187
304,691	1,294	-0,162	-0,080
305,706	-200,000	-0,039	-0,145
306,720	-99,773	-0,174	-0,030
307,735	78,480	-0,196	-0,144
308,749	800,000	-0,016	-0,032
309,764	-74,458	-0,096	-0,024
310,779	-24,618	-0,157	0,064
311,793	-200,000	-0,044	-0,140
312,808	140,179	-0,214	-0,194
313,822	461,957	-0,158	-0,244
314,837	107,139	-0,191	-0,157
315,852	-96,701	-0,122	0,022
316,866	800,000	-0,111	-0,213
317,881	47,718	-0,131	-0,084
318,895	153,111	-0,105	-0,099
319,910	97,831	-0,066	-0,052
320,925	131,819	-0,153	-0,136
321,939	800,000	-0,125	-0,258
322,954	-91,634	-0,187	0,036
323,968	800,000	-0,047	-0,123
324,983	353,949	-0,100	-0,137
325,997	-157,568	-0,206	0,008
327,012	-144,791	-0,279	0,017
328,027	800,000	-0,081	-0,198
329,041	800,000	-0,076	-0,146
330,056	7,015	-0,204	-0,105
331,070	85,687	-0,187	-0,141
332,085	-106,270	-0,130	0,020
333,100	-83,508	-0,226	-0,049
334,114	-45,529	-0,159	-0,054
335,129	-117,853	-0,192	-0,023
336,143	341,186	-0,062	-0,084
337,158	77,294	-0,168	-0,123
338,173	-64,878	-0,166	0,046
339,187	-200,000	-0,001	-0,198
340,202	-168,697	-0,041	-0,001
341,216	319,116	-0,073	-0,095
342,231	146,674	-0,144	-0,133
343,246	438,918	-0,089	-0,134
344,260	800,000	-0,079	-0,178
345,275	-200,000	-0,031	-0,122
346,289	-200,000	0,026	-0,111
347,304	-200,000	0,002	-0,229
348,319	100,737	-0,166	-0,132
349,333	800,000	-0,133	-0,300
350,348	-2,927	-0,176	-0,084
351,362	233,914	-0,150	-0,171
352,377	133,839	-0,128	-0,114
353,392	-200,000	-0,032	-0,119
354,406	4,254	-0,101	-0,050
355,421	210,472	1314,545	1420,802
356,435	162,028	1475,298	1421,335
