DTS Sentinel unit serial number:	SN410029Multiplexer serial number:	ORYXHardware model number:	OX2-SRSoftware version number:	ORYX F/W v4,00 Oryx Data Collector v3.7.2.0data status	okinstallation	B3 Nyhavnadifferential loss correction	single-endedforward channel	channel 1reverse channel	N/Adate	2023/11/29time	02:17:31forward acquisition time	300,00reverse acquisition time	0,00gamma	499,1914k internal	0,3211k external	0,3211temperature offset calibration	1,0000default loss term (dB/km)	0,3820temperature slope calibration	1,0000multiplexer offset coefficient	1,0000multiplexer slope coefficient	1,0000fibre end	0,00T internal ref (°C)	9,60T ext. ref 1 (°C)	-5,58T ext. ref 2 (°C)	-5,70length (m)	temperature (°C)	Stokes	anti-Stokes-744,400	30,555	-0,394	-0,244
-743,385	-200,000	0,013	0,220
-742,371	582,728	-0,095	-0,170
-741,356	382,003	0,109	0,164
-740,342	-180,097	-0,193	0,003
-739,327	-200,000	-0,068	0,276
-738,312	184,332	-0,183	-0,197
-737,298	800,000	-0,056	0,141
-736,283	103,703	-0,201	-0,171
-735,269	-200,000	0,017	0,270
-734,254	373,975	-0,177	-0,263
-733,239	-50,327	-0,193	0,066
-732,225	-200,000	-0,043	-0,264
-731,210	-31,657	0,227	0,092
-730,196	-22,358	-0,056	-0,024
-729,181	800,000	-0,072	-0,159
-728,167	138,570	0,078	0,074
-727,152	-200,000	-0,023	0,090
-726,137	-200,000	-0,004	0,083
-725,123	-113,226	0,034	-0,005
-724,108	214,815	-0,104	-0,119
-723,094	227,240	0,056	0,066
-722,079	-90,031	-0,039	-0,008
-721,064	-137,457	-0,026	-0,002
-720,050	-18,207	0,097	0,044
-719,035	-200,000	-0,020	-0,164
-718,021	-200,000	0,019	-0,110
-717,006	34,835	-0,224	-0,142
-715,991	-33,062	-0,142	-0,057
-714,977	122,798	0,074	-0,067
-713,962	-200,000	-0,009	-0,078
-712,948	-200,000	0,015	-0,063
-711,933	-200,000	-0,015	-0,089
-710,918	345,986	-0,078	-0,112
-709,904	155,119	-0,015	0,015
-708,889	-58,187	0,074	-0,023
-707,875	158,301	0,116	-0,116
-706,860	-120,374	-0,066	0,008
-705,845	94,066	0,148	-0,122
-704,831	670,772	-0,075	0,140
-703,816	-77,569	0,045	0,011
-702,802	-200,000	-0,003	-0,092
-701,787	-200,000	0,018	0,058
-700,772	240,348	-0,025	0,031
-699,758	154,951	-0,113	0,112
-698,743	598,187	-0,060	0,107
-697,729	-64,301	0,077	-0,023
-696,714	101,366	0,106	-0,090
-695,699	800,000	-0,073	-0,184
-694,685	-200,000	0,004	-0,063
-693,670	-6,489	0,040	-0,019
-692,656	-3,832	-0,029	0,015
-691,641	-27,243	0,097	0,041
-690,627	-104,341	0,043	0,007
-689,612	295,478	0,050	0,066
-688,597	-54,818	0,027	-0,009
-687,583	800,000	-0,014	0,043
-686,568	-142,505	-0,119	0,008
-685,554	-164,747	-0,045	-0,001
-684,539	278,562	-0,033	0,042
-683,524	100,980	-0,102	0,085
-682,510	-200,000	-0,004	-0,041
-681,495	-27,270	-0,154	0,064
-680,481	-200,000	-0,001	0,021
-679,466	-200,000	-0,001	-0,009
-678,451	-124,609	0,075	-0,008
-677,437	-100,097	0,121	-0,022
-676,422	380,282	-0,053	0,078
-675,408	-200,000	0,001	0,114
-674,393	17,555	-0,099	0,057
-673,378	-127,382	-0,126	-0,013
-672,364	-46,355	-0,129	-0,046
-671,349	800,000	-0,048	0,126
-670,335	-149,415	-0,112	-0,006
-669,320	-200,000	-0,022	0,085
-668,305	800,000	0,034	0,070
-667,291	103,651	0,052	0,044
-666,276	-145,972	-0,083	0,005
-665,262	145,512	-0,057	0,055
-664,247	95,310	-0,018	0,015
-663,232	-200,000	0,004	-0,092
-662,218	-16,793	0,045	-0,020
-661,203	800,000	0,039	0,099
-660,189	254,335	0,060	0,074
-659,174	-200,000	-0,020	0,072
-658,159	42,568	-0,108	-0,071
-657,145	22,850	0,091	-0,054
-656,130	800,000	0,024	0,056
-655,116	-200,000	0,014	0,121
-654,101	-157,465	0,082	0,003
-653,086	-3,811	0,084	0,042
-652,072	-112,923	-0,199	-0,028
-651,057	-200,000	-0,011	-0,035
-650,043	-200,000	0,008	-0,087
-649,028	72,697	0,042	0,032
-648,014	800,000	0,069	0,142
-646,999	-200,000	-0,001	0,054
-645,984	-119,463	-0,056	0,007
-644,970	-54,191	0,061	-0,020
-643,955	96,511	-0,081	0,067
-642,941	-94,964	0,043	-0,008
-641,926	0,279	-0,041	0,021
-640,911	800,000	0,039	0,097
-639,897	191,947	0,042	-0,046
-638,882	28,098	-0,085	0,051
-637,868	-182,089	0,019	0,000
-636,853	-171,800	-0,116	0,003
-635,838	17,174	-0,109	0,062
-634,824	202,417	-0,074	-0,082
-633,809	-200,000	0,003	0,037
-632,795	-200,000	-0,010	0,070
-631,780	556,904	0,032	0,056
-630,765	259,227	0,086	-0,107
-629,751	688,753	0,013	0,026
-628,736	-33,965	-0,098	-0,039
-627,722	-57,375	-0,086	0,027
-626,707	-79,922	-0,081	0,020
-625,692	-200,000	-0,015	0,079
-624,678	542,696	0,094	-0,162
-623,663	-68,140	-0,112	-0,031
-622,649	-200,000	0,043	-0,140
-621,634	-14,509	-0,099	-0,046
-620,619	-200,000	-0,007	0,176
-619,605	15,684	-0,076	-0,043
-618,590	-144,385	-0,008	0,001
-617,576	-125,678	-0,087	0,009
-616,561	-54,687	-0,041	-0,013
-615,546	-200,000	0,004	-0,114
-614,532	-200,000	-0,041	-0,158
-613,517	-200,000	-0,003	-0,111
-612,503	197,358	0,020	0,022
-611,488	-134,954	0,152	0,013
-610,474	486,941	0,024	-0,039
-609,459	800,000	-0,043	0,120
-608,444	14,608	-0,034	-0,019
-607,430	-50,511	0,113	-0,038
-606,415	800,000	0,034	-0,081
-605,401	-86,413	0,104	-0,023
-604,386	-100,828	0,105	0,018
-603,371	340,359	-0,118	-0,167
-602,357	552,370	0,020	0,035
-601,342	-200,000	-0,002	-0,139
-600,328	330,707	-0,034	-0,047
-599,313	201,912	0,076	0,085
-598,298	95,054	-0,015	-0,012
-597,284	800,000	0,038	0,102
-596,269	-127,597	-0,056	-0,006
-595,255	25,254	0,079	-0,047
-594,240	-92,530	0,035	0,007
-593,225	725,446	-0,044	0,085
-592,211	-30,671	-0,037	0,015
-591,196	-151,045	-0,040	-0,002
-590,182	-200,000	-0,022	0,106
-589,167	-200,000	-0,013	0,081
-588,152	440,084	0,080	0,126
-587,138	-158,745	-0,167	-0,007
-586,123	120,135	-0,127	-0,114
-585,109	-200,000	0,006	-0,044
-584,094	29,658	-0,079	-0,049
-583,079	800,000	0,042	-0,106
-582,065	107,005	0,062	0,053
-581,050	800,000	-0,085	0,224
-580,036	458,942	-0,031	0,050
-579,021	-200,000	-0,003	0,022
-578,006	-29,407	-0,161	0,066
-576,992	800,000	0,031	-0,079
-575,977	129,605	-0,040	-0,036
-574,963	-200,000	-0,011	0,052
-573,948	-200,000	0,020	0,092
-572,934	-200,000	-0,012	-0,042
-571,919	325,400	-0,057	-0,079
-570,904	35,310	-0,088	-0,055
-569,890	-141,534	0,091	-0,007
-568,875	-200,000	0,017	0,062
-567,861	-200,000	-0,007	-0,068
-566,846	800,000	0,031	0,091
-565,831	-16,160	-0,036	0,016
-564,817	174,441	-0,034	-0,035
-563,802	753,847	-0,018	0,036
-562,788	333,346	-0,081	-0,113
-561,773	-8,709	0,113	0,054
-560,758	-124,532	0,092	0,010
-559,744	-30,446	-0,100	0,040
-558,729	800,000	0,035	-0,104
-557,715	325,460	0,055	0,076
-556,700	566,941	-0,045	-0,079
-555,685	-8,304	-0,077	-0,037
-554,671	-73,067	0,099	0,026
-553,656	-92,149	0,115	0,023
-552,642	1,900	0,137	0,071
-551,627	36,203	-0,052	0,033
-550,612	-131,582	0,056	-0,005
-549,598	-103,534	-0,102	0,017
-548,583	2,456	0,065	0,034
-547,569	258,364	-0,031	-0,038
-546,554	-200,000	0,003	0,125
-545,539	-200,000	0,010	0,044
-544,525	800,000	-0,024	-0,073
-543,510	176,360	0,017	-0,018
-542,496	55,463	-0,025	-0,018
-541,481	103,572	-0,043	0,036
-540,466	88,036	-0,026	-0,021
-539,452	-115,698	0,084	-0,011
-538,437	-55,759	0,043	-0,014
-537,423	-57,047	-0,095	0,030
-536,408	762,098	-0,023	0,045
-535,393	-200,000	-0,020	-0,111
-534,379	128,310	-0,099	-0,091
-533,364	373,023	0,043	0,063
-532,350	123,312	-0,058	-0,052
-531,335	32,153	0,103	0,063
-530,321	-71,943	0,050	-0,013
-529,306	800,000	0,039	-0,118
-528,291	248,051	-0,021	-0,026
-527,277	-124,741	-0,173	-0,019
-526,262	-125,559	0,141	0,015
-525,248	-200,000	-0,021	0,142
-524,233	-151,979	-0,064	0,003
-523,218	-110,179	0,185	-0,027
-522,204	800,000	0,039	0,101
-521,189	-200,000	-0,006	-0,042
-520,175	167,212	-0,092	-0,094
-519,160	0,970	0,150	-0,077
-518,145	-200,000	0,008	0,086
-517,131	-200,000	0,015	0,084
-516,116	-200,000	0,011	-0,084
-515,102	-93,826	-0,122	-0,024
-514,087	-113,635	-0,033	-0,005
-513,072	-64,003	-0,173	-0,050
-512,058	-40,931	0,150	-0,055
-511,043	9,665	-0,095	-0,051
-510,029	-93,229	-0,057	0,011
-509,014	-74,730	0,113	0,029
-507,999	800,000	0,056	0,132
-506,985	-128,166	-0,180	-0,018
-505,970	-170,723	-0,119	-0,003
-504,956	-134,633	-0,038	-0,003
-503,941	-200,000	0,004	-0,079
-502,926	-200,000	0,005	-0,046
-501,912	-2,246	0,161	-0,081
-500,897	207,633	0,035	-0,039
-499,883	-147,257	-0,099	0,006
-498,868	195,924	-0,069	-0,076
-497,853	234,908	-0,053	-0,063
-496,839	-6,334	0,115	0,056
-495,824	147,620	-0,013	-0,012
-494,810	539,522	0,040	0,068
-493,795	800,000	0,031	-0,070
-492,781	296,636	-0,057	-0,075
-491,766	-139,079	0,140	0,011
-490,751	-175,486	-0,106	0,002
-489,737	143,570	0,115	0,110
-488,722	-200,000	0,012	-0,062
-487,708	37,641	-0,095	-0,060
-486,693	-106,724	0,115	0,018
-485,678	800,000	0,075	-0,160
-484,664	157,676	-0,163	-0,162
-483,649	293,182	-0,056	0,073
-482,635	-162,834	-0,072	0,002
-481,620	211,484	-0,035	-0,039
-480,605	-200,000	-0,017	0,054
-479,591	-53,817	0,093	0,030
-478,576	-151,927	-0,122	-0,006
-477,562	-200,000	-0,015	0,058
-476,547	-181,961	-0,140	-0,002
-475,532	-200,000	-0,007	-0,027
-474,518	-150,800	0,029	-0,002
-473,503	-200,000	-0,008	0,120
-472,489	800,000	-0,014	0,039
-471,474	800,000	-0,054	0,112
-470,459	262,245	-0,072	0,090
-469,445	-13,865	-0,029	0,014
-468,430	400,627	-0,061	0,092
-467,416	-13,499	0,021	-0,010
-466,401	800,000	0,033	0,083
-465,386	-44,788	-0,134	0,048
-464,372	800,000	-0,037	0,084
-463,357	328,766	-0,071	0,099
-462,343	-79,110	-0,124	-0,030
-461,328	-200,000	-0,003	-0,097
-460,313	403,975	0,023	-0,034
-459,299	-200,000	-0,012	-0,085
-458,284	-110,571	-0,020	0,003
-457,270	297,744	0,057	0,075
-456,255	371,857	0,041	0,060
-455,241	153,307	-0,117	-0,115
-454,226	-200,000	-0,007	-0,084
-453,211	232,853	0,067	-0,079
-452,197	309,551	-0,026	0,034
-451,182	-13,341	0,134	0,062
-450,168	139,724	0,113	0,107
-449,153	-177,655	0,112	-0,002
-448,138	-102,841	-0,054	0,009
-447,124	-200,000	0,018	0,081
-446,109	45,465	-0,030	0,020
-445,095	-35,975	-0,022	-0,008
-444,080	800,000	0,024	0,054
-443,065	-180,505	0,057	-0,001
-442,051	63,815	0,131	-0,094
-441,036	-138,880	-0,075	-0,006
-440,022	116,708	0,084	-0,073
-439,007	800,000	0,058	-0,143
-437,992	502,091	0,041	-0,068
-436,978	800,000	-0,087	0,218
-435,963	180,790	-0,044	0,046
-434,949	-41,113	-0,025	-0,009
-433,934	41,054	0,040	0,026
-432,919	-24,596	-0,055	0,023
-431,905	-8,393	0,103	-0,049
-430,890	-200,000	0,020	0,076
-429,876	800,000	0,037	0,109
-428,861	-200,000	-0,008	0,037
-427,846	-83,975	-0,005	0,001
-426,832	800,000	0,080	-0,235
-425,817	174,957	-0,090	0,094
-424,803	-45,427	-0,072	0,026
-423,788	16,559	0,108	0,061
-422,773	-200,000	-0,030	-0,157
-421,759	93,226	-0,045	-0,036
-420,744	-46,410	0,186	-0,065
-419,730	58,556	0,008	0,006
-418,715	63,418	-0,152	-0,109
-417,701	304,369	0,028	-0,037
-416,686	-200,000	0,002	-0,109
-415,671	800,000	0,044	-0,107
-414,657	-200,000	0,026	0,124
-413,642	675,403	0,051	-0,096
-412,628	-121,203	0,101	-0,012
-411,613	-123,737	-0,142	-0,016
-410,598	-140,109	-0,053	-0,004
-409,584	87,108	0,057	0,045
-408,569	800,000	-0,017	-0,043
-407,555	-144,819	-0,055	0,004
-406,540	800,000	-0,049	0,106
-405,525	773,051	-0,059	0,116
-404,511	716,843	-0,111	-0,213
-403,496	-200,000	0,034	-0,143
-402,482	20,386	0,056	0,032
-401,467	-200,000	0,005	0,136
-400,452	800,000	0,046	0,107
-399,438	-76,099	0,149	-0,037
-398,423	66,502	0,123	-0,090
-397,409	181,739	-0,050	-0,053
-396,394	-13,405	0,143	-0,066
-395,379	41,485	-0,061	-0,039
-394,365	-200,000	-0,019	-0,154
-393,350	138,225	0,007	0,007
-392,336	800,000	0,037	0,080
-391,321	-60,215	-0,056	-0,017
-390,306	-200,000	0,036	-0,139
-389,292	-200,000	-0,003	0,011
-388,277	-91,367	-0,111	0,022
-387,263	800,000	-0,020	-0,054
-386,248	-200,000	0,004	-0,095
-385,233	-25,153	0,090	0,038
-384,219	266,786	-0,058	-0,073
-383,204	143,443	0,080	-0,077
-382,190	5,242	-0,143	-0,075
-381,175	41,948	-0,088	0,057
-380,160	-140,500	-0,138	0,010
-379,146	27,599	0,086	0,051
-378,131	156,026	-0,076	-0,075
-377,117	580,711	0,046	-0,080
-376,102	-200,000	0,006	0,104
-375,088	324,561	0,027	-0,037
-374,073	512,450	0,069	-0,116
-373,058	-200,000	-0,005	-0,058
-372,044	435,086	0,069	0,108
-371,029	800,000	0,054	0,111
-370,015	98,056	-0,085	-0,070
-369,000	-41,931	0,009	-0,003
-367,985	-4,377	-0,090	0,044
-366,971	165,130	-0,050	0,050
-365,956	-93,677	0,077	-0,015
-364,942	456,083	0,067	0,107
-363,927	-57,320	0,089	0,028
-362,912	-200,000	0,002	0,017
-361,898	-126,237	-0,156	0,016
-360,883	800,000	-0,045	-0,095
-359,869	123,809	0,062	0,056
-358,854	323,122	-0,046	-0,063
-357,839	-30,111	0,133	0,054
-356,825	56,922	0,107	0,074
-355,810	-200,000	0,001	0,076
-354,796	-200,000	-0,003	-0,041
-353,781	-84,176	-0,112	0,025
-352,766	58,334	0,073	-0,051
-351,752	800,000	0,022	-0,064
-350,737	-93,616	-0,043	-0,008
-349,723	374,628	-0,070	0,102
-348,708	205,008	0,138	0,153
-347,693	106,287	-0,136	-0,115
-346,679	-200,000	-0,013	0,095
-345,664	7,042	-0,085	0,045
-344,650	277,490	-0,108	0,138
-343,635	-32,617	0,038	-0,015
-342,620	-44,108	0,195	-0,069
-341,606	105,574	-0,032	-0,027
-340,591	800,000	0,102	0,212
-339,577	800,000	-0,052	-0,122
-338,562	-147,864	-0,100	-0,006
-337,548	270,541	-0,060	-0,076
-336,533	631,001	0,061	0,110
-335,518	-200,000	0,002	0,116
-334,504	-119,447	0,077	0,009
-333,489	800,000	-0,069	-0,165
-332,475	41,076	0,129	-0,083
-331,460	199,481	-0,118	-0,129
-330,445	800,000	0,022	-0,051
-329,431	-92,652	0,060	0,012
-328,416	-200,000	0,017	0,068
-327,402	-64,115	-0,043	0,013
-326,387	-81,503	0,056	0,013
-325,372	800,000	0,071	0,173
-324,358	-200,000	-0,021	-0,121
-323,343	629,088	-0,042	0,077
-322,329	-200,000	0,003	-0,086
-321,314	-200,000	-0,023	-0,078
-320,299	800,000	-0,020	0,062
-319,285	-200,000	-0,015	0,063
-318,270	-63,603	0,052	0,015
-317,256	285,683	-0,082	-0,105
-316,241	396,899	-0,031	0,046
-315,226	154,566	0,027	-0,026
-314,212	-10,891	-0,091	-0,043
-313,197	800,000	-0,022	-0,046
-312,183	146,859	-0,080	0,077
-311,168	289,446	0,015	0,019
-310,153	800,000	0,039	-0,107
-309,139	182,452	-0,127	-0,134
-308,124	235,786	0,013	-0,016
-307,110	800,000	-0,027	-0,060
-306,095	137,208	0,077	-0,072
-305,080	-200,000	0,001	-0,119
-304,066	181,167	0,119	-0,124
-303,051	371,470	0,056	-0,081
-302,037	-200,000	-0,029	-0,144
-301,022	-34,200	0,086	-0,034
-300,008	324,527	-0,008	0,012
-298,993	-149,816	0,064	0,003
-297,978	800,000	0,049	0,112
-296,964	-25,627	-0,018	-0,008
-295,949	-200,000	-0,027	0,125
-294,935	-200,000	0,027	-0,088
-293,920	-200,000	0,001	0,055
-292,905	-119,756	0,111	-0,013
-291,891	302,136	-0,039	0,051
-290,876	-43,062	-0,056	-0,020
-289,862	34,857	-0,105	0,065
-288,847	-200,000	0,012	-0,045
-287,832	-101,398	0,099	0,017
-286,818	86,127	-0,087	0,068
-285,803	800,000	0,081	-0,162
-284,789	800,000	-0,077	0,157
-283,774	-129,250	-0,083	-0,008
-282,759	-200,000	-0,019	0,079
-281,745	-141,163	-0,047	-0,003
-280,730	-200,000	-0,025	0,087
-279,716	-200,000	-0,004	0,041
-278,701	160,039	-0,016	0,016
-277,686	-118,375	0,116	0,015
-276,672	243,999	-0,027	0,033
-275,657	-7,147	0,090	0,043
-274,643	115,708	-0,061	0,053
-273,628	-64,964	-0,161	-0,046
-272,613	-65,178	0,102	-0,029
-271,599	-133,056	0,082	-0,007
-270,584	800,000	0,048	0,119
-269,570	-36,259	-0,093	-0,035
-268,555	-54,108	0,052	-0,017
-267,540	47,176	-0,126	-0,083
-266,526	-200,000	0,017	0,085
-265,511	800,000	0,047	0,111
-264,497	34,208	0,058	0,036
-263,482	-118,201	0,059	0,007
-262,467	97,406	0,124	0,102
-261,453	800,000	-0,036	-0,110
-260,438	-99,886	-0,056	-0,010
-259,424	-200,000	0,005	0,034
-258,409	-126,553	-0,071	0,007
-257,395	-200,000	-0,022	-0,082
-256,380	74,466	0,169	0,126
-255,365	-88,911	-0,044	0,009
-254,351	800,000	-0,012	0,024
-253,336	-48,182	0,078	0,027
-252,322	-200,000	-0,008	0,028
-251,307	-200,000	-0,007	-0,039
-250,292	-43,701	0,022	-0,008
-249,278	-200,000	-0,021	0,212
-248,263	800,000	0,027	0,084
-247,249	-200,000	0,034	0,108
-246,234	-200,000	-0,070	0,271
-245,219	-200,000	-0,001	-0,104
-244,205	-109,388	0,030	0,004
-243,190	-11,885	-0,041	0,019
-242,176	262,570	0,076	0,094
-241,161	112,209	0,110	0,094
-240,146	-200,000	0,013	0,161
-239,132	345,287	-0,029	0,041
-238,117	-200,000	-0,038	-0,131
-237,103	379,309	-0,022	0,032
-236,088	538,623	-0,030	0,051
-235,073	226,477	0,056	-0,065
-234,059	-200,000	-0,008	0,027
-233,044	63,886	0,084	0,060
-232,030	-200,000	-0,005	0,063
-231,015	421,873	-0,037	-0,057
-230,000	-95,532	-0,122	-0,023
-228,986	-200,000	0,021	0,079
-227,971	-161,112	0,026	-0,001
-226,957	-1,998	0,149	-0,074
-225,942	-56,572	0,065	0,020
-224,927	64,942	-0,097	0,069
-223,913	-49,421	-0,129	0,043
-222,898	128,218	-0,071	-0,064
-221,884	-152,979	0,084	0,004
-220,869	-200,000	0,028	0,088
-219,855	-200,000	-0,006	-0,025
-218,840	-200,000	0,002	0,218
-217,825	275,080	0,127	0,160
-216,811	800,000	-0,016	-0,046
-215,796	-200,000	-0,001	-0,195
-214,782	12,251	-0,098	-0,053
-213,767	-54,026	0,059	0,019
-212,752	-200,000	0,022	-0,089
-211,738	63,880	-0,027	0,020
-210,723	-24,373	-0,086	0,036
-209,709	-200,000	-0,015	-0,065
-208,694	-200,000	0,009	0,041
-207,679	-41,802	0,113	-0,041
-206,665	-24,929	0,055	0,023
-205,650	-200,000	-0,007	0,075
-204,636	-200,000	-0,010	-0,067
-203,621	-200,000	0,029	0,103
-202,606	-200,000	-0,073	-0,230
-201,592	-200,000	-0,027	-0,086
-200,577	15,261	0,024	0,013
-199,563	-115,052	0,197	-0,026
-198,548	34,624	-0,087	-0,054
-197,533	-33,289	0,098	-0,038
-196,519	800,000	0,034	-0,090
-195,504	167,314	0,062	-0,063
-194,490	-200,000	-0,015	-0,050
-193,475	36,403	-0,155	-0,097
-192,460	-137,653	-0,173	0,014
-191,446	-119,045	0,214	-0,026
-190,431	-142,098	0,056	-0,004
-189,417	800,000	0,052	0,123
-188,402	-93,301	0,112	0,022
-187,387	-200,000	0,008	-0,040
-186,373	-116,230	-0,060	-0,008
-185,358	-77,067	0,044	0,011
-184,344	-200,000	0,029	0,138
-183,329	207,645	0,063	0,070
-182,315	353,722	0,133	0,188
-181,300	-84,345	0,096	0,021
-180,285	181,045	-0,107	-0,112
-179,271	-200,000	0,000	0,087
-178,256	-200,000	-0,018	-0,139
-177,242	-200,000	-0,003	0,009
-176,227	-49,552	-0,059	0,020
-175,212	-200,000	0,013	0,160
-174,198	204,778	-0,033	-0,036
-173,183	-2,768	-0,092	-0,045
-172,169	800,000	0,073	-0,161
-171,154	569,103	-0,064	-0,110
-170,139	95,176	0,046	-0,037
-169,125	3,823	0,109	-0,056
-168,110	800,000	-0,017	0,034
-167,096	-86,870	-0,023	-0,005
-166,081	-170,327	0,083	0,002
-165,066	-48,833	-0,172	-0,058
-164,052	-200,000	-0,010	-0,267
-163,037	587,191	-0,044	0,077
-162,023	98,577	0,060	0,049
-161,008	-112,837	0,149	0,021
-159,993	-161,691	0,024	0,001
-158,979	33,095	-0,109	0,067
-157,964	-94,619	-0,042	0,008
-156,950	207,448	-0,033	0,037
-155,935	-46,604	0,039	-0,013
-154,920	14,483	0,129	-0,071
-153,906	43,342	0,079	0,051
-152,891	-86,897	0,020	-0,004
-151,877	-200,000	0,003	-0,022
-150,862	-69,628	-0,140	-0,038
-149,847	-136,073	0,037	0,003
-148,833	-38,482	0,211	0,079
-147,818	-200,000	-0,000	0,018
-146,804	733,504	0,078	0,148
-145,789	-80,576	-0,089	-0,021
-144,775	13,049	0,041	-0,023
-143,760	800,000	0,051	-0,101
-142,745	-116,989	-0,081	0,010
-141,731	-114,250	-0,097	-0,013
-140,716	800,000	0,045	0,099
-139,702	322,642	0,025	0,034
-138,687	-200,000	-0,010	0,118
-137,672	133,648	-0,053	-0,049
-136,658	-200,000	0,033	-0,109
-135,643	197,618	-0,079	0,086
-134,629	61,912	0,026	0,019
-133,614	-126,858	0,064	0,007
-132,599	8,904	0,137	0,073
-131,585	340,136	-0,107	-0,149
-130,570	-200,000	0,009	-0,061
-129,556	-200,000	0,019	-0,088
-128,541	-200,000	0,012	0,090
-127,526	272,310	0,066	0,083
-126,512	221,302	-0,049	0,056
-125,497	-75,681	0,038	-0,010
-124,483	-22,376	0,066	0,028
-123,468	-42,360	0,075	-0,027
-122,453	800,000	-0,046	-0,127
-121,439	-134,159	-0,026	0,002
-120,424	33,466	-0,061	0,038
-119,410	-89,680	0,063	-0,013
-118,395	800,000	0,045	0,122
-117,380	-200,000	0,023	0,159
-116,366	298,938	-0,077	0,101
-115,351	-200,000	-0,016	-0,077
-114,337	182,156	0,087	-0,091
-113,322	783,413	0,043	-0,085
-112,307	397,971	-0,081	0,120
-111,293	689,114	0,013	0,024
-110,278	-84,115	-0,035	0,008
-109,264	190,250	-0,053	-0,056
-108,249	48,987	-0,086	-0,057
-107,234	55,786	-0,026	0,018
-106,220	800,000	0,068	-0,171
-105,205	180,185	-0,096	-0,100
-104,191	359,919	-0,060	0,086
-103,176	-29,069	0,154	0,062
-102,162	251,646	0,033	0,040
-101,147	-200,000	-0,035	0,146
-100,132	390,424	0,057	-0,084
-99,118	800,000	-0,024	-0,060
-98,103	128,110	0,129	0,116
-97,089	-135,557	-0,054	-0,004
-96,074	163,377	0,025	0,025
-95,059	74,920	-0,037	0,028
-94,045	-200,000	-0,015	-0,074
-93,030	536,438	0,050	-0,085
-92,016	-86,340	-0,063	-0,014
-91,001	-127,980	0,091	-0,009
-89,986	-113,772	0,046	0,006
-88,972	331,106	-0,099	0,135
-87,957	709,348	-0,034	-0,065
-86,943	-97,220	-0,063	0,012
-85,928	-200,000	-0,019	0,129
-84,913	-200,000	0,003	0,066
-83,899	-200,000	0,001	0,109
-82,884	-56,472	-0,134	0,042
-81,870	800,000	-0,008	0,019
-80,855	-151,560	0,163	0,008
-79,840	13,907	-0,100	-0,055
-78,826	-200,000	-0,021	-0,112
-77,811	-200,000	0,006	-0,035
-76,797	-200,000	0,028	-0,132
-75,782	-124,834	-0,086	0,009
-74,767	-200,000	-0,008	0,054
-73,753	362,854	0,044	-0,063
-72,738	14,426	-0,124	-0,068
-71,724	-200,000	0,003	0,039
-70,709	519,317	-0,093	-0,155
-69,694	15,257	-0,055	-0,030
-68,680	30,709	-0,124	-0,075
-67,665	36,743	0,044	-0,028
-66,651	330,027	0,085	0,116
-65,636	-96,278	0,131	0,024
-64,622	-112,226	0,097	-0,014
-63,607	214,697	-0,022	0,025
-62,592	-200,000	0,105	-0,000
-61,578	-47,364	0,119	-0,041
-60,563	-68,627	0,022	0,006
-59,549	800,000	0,007	0,021
-58,534	51,281	-1,940	-1,298
-57,519	487,425	-1,315	-2,127
-56,505	-200,000	-0,213	-4,185
-55,490	726,218	0,899	1,699
-54,476	800,000	5,061	11,157
-53,461	-200,000	21,648	343,961
-52,446	800,000	762,923	2354,664
-51,432	551,587	1662,586	2827,809
-50,417	72,072	1658,800	1217,083
-49,403	17,441	1532,159	856,547
-48,388	11,406	1456,014	784,825
-47,373	19,439	1447,786	818,861
-46,359	14,982	1436,668	791,378
-45,344	9,704	1432,696	764,055
-44,330	9,640	1430,638	762,621
-43,315	9,599	1428,820	761,427
-42,300	9,638	1427,175	760,704
-41,286	9,683	1425,840	760,176
-40,271	9,646	1424,783	759,407
-39,257	9,627	1423,452	758,579
-38,242	9,689	1422,346	758,254
-37,227	9,710	1421,376	757,803
-36,213	9,696	1419,803	756,868
-35,198	9,704	1418,861	756,375
-34,184	9,706	1417,925	755,856
-33,169	9,623	1416,565	754,710
-32,154	9,673	1415,423	754,309
-31,140	9,684	1414,175	753,663
-30,125	9,738	1412,936	753,229
-29,111	9,688	1411,964	752,443
-28,096	9,678	1410,666	751,677
-27,082	9,639	1409,506	750,847
-26,067	9,591	1408,538	750,076
-25,052	9,650	1407,475	749,753
-24,038	9,639	1406,570	749,194
-23,023	9,642	1405,479	748,595
-22,009	9,624	1404,629	748,027
-20,994	9,568	1403,587	747,183
-19,979	9,601	1402,815	746,895
-18,965	9,624	1401,569	746,308
-17,950	9,617	1400,622	745,745
-16,936	9,555	1400,130	745,164
-15,921	9,520	1398,971	744,353
-14,906	9,513	1398,204	743,882
-13,892	9,578	1397,056	743,544
-12,877	9,557	1396,345	743,042
-11,863	9,565	1395,470	742,582
-10,848	9,516	1394,454	741,787
-9,833	9,490	1393,782	741,276
-8,819	9,476	1392,710	740,611
-7,804	9,437	1392,005	740,028
-6,790	9,416	1391,095	739,419
-5,775	9,400	1389,879	738,670
-4,760	9,402	1389,062	738,216
-3,746	9,446	1387,800	737,716
-2,731	9,464	1387,043	737,369
-1,717	9,425	1386,047	736,630
-0,702	9,437	1384,408	735,786
0,313	13,421	1296,733	707,392
1,327	29,354	687,536	411,066
2,342	45,906	118,803	77,372
3,356	0,077	16,425	8,227
4,371	-2,761	3,620	1,779
5,386	37,564	1,062	0,663
6,400	-200,000	0,174	0,681
7,415	-116,945	-0,234	0,030
8,429	59,476	-0,282	-0,196
9,444	-2,671	-0,318	-0,156
10,459	-52,222	-0,393	-0,128
11,473	132,948	-0,260	-0,236
12,488	23,389	-0,180	-0,104
13,502	-16,998	-0,291	-0,129
14,517	7,783	-0,276	-0,145
15,531	93,691	-0,446	-0,356
16,546	25,312	-0,279	-0,163
17,561	3,424	-0,455	-0,233
18,575	-149,984	-0,322	-0,017
19,590	328,979	-0,163	-0,221
20,604	231,767	-0,077	-0,089
21,619	70,225	-0,466	-0,339
22,634	300,745	-0,308	-0,401
23,648	1,587	-0,513	-0,259
24,663	50,218	-0,354	-0,235
25,677	-35,239	-0,297	-0,113
26,692	299,828	-0,202	-0,263
27,707	-120,772	-0,257	-0,030
28,721	214,088	-0,260	-0,290
29,736	63,647	-0,410	-0,289
30,750	78,975	-0,457	-0,344
31,765	19,717	-0,331	-0,187
32,780	52,772	-0,331	-0,222
33,794	107,768	-0,284	-0,237
34,809	138,105	-0,337	-0,311
35,823	47,934	-0,442	-0,290
36,838	-32,313	-0,414	-0,162
37,853	113,748	-0,403	-0,344
38,867	68,631	-0,372	-0,268
39,882	66,269	-0,340	-0,242
40,896	16,193	-0,231	-0,128
41,911	13,160	-0,285	-0,155
42,926	-29,093	-0,410	-0,165
43,940	129,907	-0,252	-0,226
44,955	65,055	-0,360	-0,255
45,969	28,556	-0,397	-0,235
46,984	27,923	-0,286	-0,169
47,999	-60,891	-0,337	-0,100
49,013	31,490	-0,307	-0,185
50,028	4,700	-0,352	-0,181
51,042	51,773	-0,492	-0,329
52,057	-1,755	-0,423	-0,208
53,071	102,481	-0,301	-0,247
54,086	-7,431	-0,338	-0,160
55,101	-23,380	-0,259	-0,109
56,115	229,109	-0,242	-0,277
57,130	65,079	-0,361	-0,256
58,144	-9,484	-0,380	-0,177
59,159	0,780	-0,489	-0,245
60,174	19,046	-0,420	-0,236
61,188	174,644	-0,212	-0,215
62,203	-41,061	-0,426	-0,154
63,217	28,434	-0,340	-0,201
64,232	99,316	-0,378	-0,307
65,247	82,040	-0,371	-0,282
66,261	312,549	-0,291	-0,384
67,276	83,328	-0,377	-0,287
68,290	22,657	-0,349	-0,200
69,305	14,685	-0,284	-0,155
70,320	-144,643	-0,322	-0,020
71,334	-8,163	-0,383	-0,180
72,349	-40,163	-0,330	-0,120
73,363	67,554	-0,327	-0,234
74,378	25,660	-0,390	-0,227
75,393	44,390	-0,254	-0,163
76,407	124,280	-0,202	-0,178
77,422	310,486	-0,270	-0,355
78,436	67,150	-0,204	-0,145
79,451	-71,966	-0,356	-0,092
80,466	-43,902	-0,323	-0,113
81,480	125,467	-0,323	-0,286
82,495	136,287	-0,258	-0,235
83,509	85,595	-0,194	-0,149
84,524	-129,238	-0,332	0,032
85,539	-177,485	-0,256	0,004
86,553	-143,472	-0,406	-0,027
87,568	13,427	-0,293	-0,158
88,582	-51,343	-0,444	-0,145
89,597	-18,329	-0,272	-0,119
90,611	49,518	-0,154	-0,101
91,626	78,680	-0,250	-0,187
92,641	-51,064	-0,357	-0,117
93,655	-27,783	-0,310	-0,125
94,670	-33,629	-0,338	-0,130
95,684	238,074	-0,213	-0,248
96,699	229,223	-0,278	-0,317
97,714	-36,600	-0,164	-0,061
98,728	-82,568	-0,204	-0,046
99,743	45,363	-0,182	-0,117
100,757	208,079	-0,204	-0,223
101,772	800,000	-0,154	-0,322
102,787	148,147	-0,281	-0,266
103,801	204,684	-0,281	-0,305
104,816	171,772	-0,203	-0,204
105,830	-120,957	-0,331	-0,038
106,845	93,591	-0,184	-0,145
107,860	-14,950	-0,258	-0,115
108,874	179,685	-0,302	-0,309
109,889	362,103	-0,195	-0,274
110,903	315,339	-0,175	-0,231
111,918	800,000	-0,067	-0,152
112,933	79,105	-0,227	-0,170
113,947	-52,060	-0,220	-0,071
114,962	652,836	-0,153	-0,276
115,976	120,211	-0,178	-0,155
116,991	-8,893	-0,318	-0,148
118,006	61,728	-0,419	-0,290
119,020	75,231	-0,182	-0,134
120,035	-192,569	-0,193	-0,001
121,049	-3,507	-0,265	-0,128
122,064	53,304	-0,213	-0,142
123,079	-103,982	-0,285	-0,046
124,093	53,425	-0,269	-0,179
125,108	-43,557	-0,301	-0,105
126,122	-63,289	-0,304	-0,087
127,137	240,657	-0,197	-0,229
128,151	144,869	-0,149	-0,139
129,166	26,004	-0,296	-0,172
130,181	97,473	-0,212	-0,170
131,195	-50,216	-0,351	-0,115
132,210	235,766	-0,192	-0,222
133,224	62,706	-0,255	-0,178
134,239	370,534	-0,256	-0,363
135,254	105,257	-0,308	-0,253
136,268	137,434	-0,240	-0,219
137,283	54,916	-0,292	-0,196
138,297	199,758	-0,186	-0,199
139,312	375,066	-0,190	-0,271
140,327	13,863	-0,272	-0,147
141,341	-117,560	-0,136	0,017
142,356	68,373	-0,166	-0,118
143,370	102,032	-0,209	-0,170
144,385	5,180	-0,215	-0,110
145,400	75,458	-0,291	-0,214
146,414	185,859	-0,317	-0,329
147,429	157,156	-0,250	-0,241
148,443	-177,844	-0,289	0,005
149,458	47,059	-0,189	-0,122
150,473	-67,703	-0,182	-0,049
151,487	-41,547	-0,132	-0,047
152,502	321,444	-0,148	-0,196
153,516	-96,328	-0,335	-0,061
154,531	19,537	-0,176	-0,098
155,546	800,000	-0,130	-0,352
156,560	668,885	-0,208	-0,376
157,575	-27,124	-0,182	-0,073
158,589	162,936	-0,193	-0,188
159,604	-82,898	-0,322	-0,072
160,619	425,102	-0,165	-0,248
161,633	72,750	-0,261	-0,189
162,648	-200,000	-0,023	-0,342
163,662	35,628	-0,220	-0,134
164,677	75,645	-0,163	-0,120
165,692	-35,772	-0,256	-0,096
166,706	-84,908	-0,333	-0,072
167,721	268,977	-0,205	-0,251
168,735	146,604	-0,237	-0,222
169,750	54,715	-0,145	-0,097
170,764	500,715	-0,150	-0,242
171,779	-200,000	-0,058	-0,212
172,794	238,302	-0,239	-0,276
173,808	-26,467	-0,319	-0,129
174,823	208,130	-0,293	-0,319
175,837	115,187	-0,227	-0,193
176,852	800,000	-0,148	-0,308
177,867	19,277	-0,139	-0,077
178,881	-68,821	-0,350	-0,093
179,896	-126,142	-0,264	-0,027
180,910	62,542	-0,167	-0,115
181,925	253,865	-0,201	-0,239
182,940	70,736	-0,177	-0,127
183,954	36,363	-0,276	-0,169
184,969	753,876	-0,088	-0,165
185,983	33,539	-0,275	-0,166
186,998	42,416	-0,167	-0,105
188,013	72,137	-0,215	-0,155
189,027	141,230	-0,225	-0,207
190,042	51,521	-0,181	-0,119
191,056	67,490	-0,210	-0,148
192,071	-37,053	-0,256	-0,095
193,086	-63,194	-0,314	-0,089
194,100	467,317	-0,036	-0,057
195,115	-9,407	-0,190	-0,088
196,129	800,000	-0,105	-0,267
197,144	-26,606	-0,262	-0,106
198,159	131,274	-0,240	-0,214
199,173	18,784	-0,268	-0,148
200,188	284,116	-0,222	-0,278
201,202	55,207	-0,211	0,141
202,217	-105,463	-0,113	-0,018
203,232	11,824	-0,266	-0,141
204,246	151,392	-0,268	-0,253
205,261	11,081	-0,373	-0,197
206,275	124,185	-0,158	-0,138
207,290	13,367	-0,234	-0,125
208,304	800,000	-0,048	-0,139
209,319	-89,903	-0,126	-0,025
210,334	490,857	-0,064	-0,101
211,348	155,593	-0,205	-0,196
212,363	328,599	-0,107	-0,143
213,377	54,663	-0,162	-0,108
214,392	-152,259	-0,368	-0,018
215,407	-50,650	-0,281	-0,091
216,421	-14,014	-0,162	-0,072
217,436	270,188	-0,142	-0,173
218,450	-200,000	-0,097	-0,329
219,465	195,449	-0,113	-0,119
220,480	431,895	-0,100	-0,150
221,494	-20,822	-0,038	-0,016
222,509	145,788	-0,158	-0,147
223,523	-1,987	-0,190	-0,092
224,538	-200,000	-0,071	-0,218
225,553	112,262	-0,117	-0,098
226,567	-19,725	-0,229	-0,097
227,582	263,659	-0,104	-0,126
228,596	51,642	-0,119	-0,078
229,611	-19,031	-0,333	-0,143
230,626	184,082	-0,175	-0,179
231,640	234,913	-0,197	-0,226
232,655	-50,324	-0,307	-0,100
233,669	-31,699	-0,146	-0,056
234,684	60,220	-0,304	-0,208
235,699	800,000	-0,087	-0,193
236,713	-200,000	-0,021	-0,083
237,728	-200,000	-0,114	0,000
238,742	-76,730	-0,199	-0,048
239,757	4,286	-0,282	-0,142
240,772	196,888	-0,168	-0,177
241,786	410,356	-0,086	-0,126
242,801	41,945	-0,192	-0,120
243,815	-17,207	-0,167	-0,072
244,830	128,278	-0,174	-0,153
245,844	174,964	-0,183	-0,183
246,859	-92,519	-0,218	-0,042
247,874	142,455	-0,138	-0,127
248,888	-71,088	-0,075	-0,019
249,903	-80,789	-0,217	-0,049
250,917	-124,865	-0,132	-0,014
251,932	144,260	-0,152	-0,140
252,947	-77,212	-0,249	-0,059
253,961	203,417	-0,202	-0,216
254,976	48,043	-0,093	-0,060
255,990	-42,181	-0,194	0,068
257,005	6,457	-0,260	-0,133
258,020	357,178	-0,147	-0,203
259,034	107,148	-0,129	-0,106
260,049	-83,456	-0,148	-0,032
261,063	173,522	-0,161	-0,161
262,078	-32,648	-0,265	-0,101
263,093	78,256	-0,183	-0,135
264,107	-95,877	-0,260	-0,047
265,122	174,469	-0,147	-0,147
266,136	73,793	-0,082	-0,059
267,151	-21,361	-0,116	-0,048
268,166	523,376	-0,180	-0,292
269,180	-147,811	-0,126	0,007
270,195	99,048	-0,190	-0,151
271,209	55,567	-0,134	-0,089
272,224	6,311	-0,099	-0,050
273,239	8,671	-0,090	-0,047
274,253	103,047	-0,078	-0,063
275,268	214,511	-0,121	-0,132
276,282	29,065	-0,136	-0,079
277,297	90,913	-0,161	0,124
278,312	-200,000	-0,036	-0,152
279,326	100,341	-0,145	-0,116
280,341	428,515	-0,053	-0,079
281,355	-10,925	-0,102	-0,046
282,370	-34,126	-0,203	-0,076
283,384	158,277	-0,127	-0,121
284,399	149,479	-0,250	-0,233
285,414	187,129	-0,155	-0,159
286,428	-6,649	-0,187	-0,087
287,443	168,016	-0,042	0,041
288,457	-136,553	-0,117	-0,009
289,472	176,325	-0,134	-0,134
290,487	-89,336	-0,242	-0,049
291,501	-170,469	-0,127	-0,003
292,516	222,760	-0,118	-0,131
293,530	108,550	-0,150	-0,123
294,545	-200,000	-0,020	-0,068
295,560	-200,000	-0,007	-0,085
296,574	736,797	-0,132	-0,244
297,589	-169,373	-0,147	-0,004
298,603	229,986	-0,101	-0,114
299,618	68,683	-0,149	-0,105
300,633	176,080	-0,166	-0,166
301,647	-89,342	-0,273	0,055
302,662	417,233	-0,100	-0,147
303,676	158,705	-0,152	-0,145
304,691	149,010	-0,243	-0,226
305,706	71,470	-0,173	-0,123
306,720	167,635	-0,042	-0,041
307,735	88,903	-0,213	-0,162
308,749	135,531	-0,104	-0,093
309,764	800,000	-0,024	-0,052
310,779	-200,000	0,000	-0,090
311,793	101,819	-0,138	-0,111
312,808	91,467	-0,206	-0,159
313,822	75,450	-0,115	-0,083
314,837	-200,000	-0,043	-0,175
315,852	209,441	-0,090	-0,097
316,866	-72,777	-0,121	0,030
317,881	219,459	-0,097	-0,106
318,895	-94,264	-0,203	0,038
319,910	-41,830	-0,129	-0,045
320,925	-200,000	-0,038	-0,158
321,939	410,674	-0,119	-0,174
322,954	150,176	-0,115	-0,107
323,968	-200,000	0,007	-0,037
324,983	800,000	-0,018	-0,047
325,997	11,813	-0,196	-0,103
327,012	200,843	-0,140	-0,148
328,027	374,424	-0,207	-0,289
329,041	356,784	-0,072	-0,099
330,056	140,401	-0,120	-0,109
331,070	607,847	-0,112	-0,192
332,085	-31,073	-0,185	-0,071
333,100	800,000	-0,099	-0,230
334,114	-24,928	-0,251	-0,101
335,129	-200,000	-0,047	-0,227
336,143	299,358	-0,113	-0,143
337,158	178,128	-0,020	-0,020
338,173	70,373	-0,126	-0,089
339,187	-200,000	-0,055	-0,201
340,202	98,644	-0,158	-0,124
341,216	10,862	-0,087	-0,045
342,231	267,088	-0,104	-0,124
343,246	131,911	-0,179	-0,158
344,260	662,392	-0,041	-0,072
345,275	-200,000	0,022	-0,152
346,289	88,312	-0,146	-0,111
347,304	-19,549	-0,104	-0,044
348,319	-161,420	-0,177	-0,006
349,333	106,095	-0,129	-0,104
350,348	-200,000	-0,066	-0,207
351,362	72,304	-0,132	-0,094
352,377	299,607	-0,039	0,049
353,392	-97,609	-0,128	-0,022
354,406	259,984	-0,130	-0,153
355,421	207,041	1306,855	1394,793
356,435	159,254	1466,589	1395,267
