DTS Sentinel unit serial number:	SN410029Multiplexer serial number:	ORYXHardware model number:	OX2-SRSoftware version number:	ORYX F/W v4,00 Oryx Data Collector v3.7.2.0data status	okinstallation	B3 Nyhavnadifferential loss correction	single-endedforward channel	channel 1reverse channel	N/Adate	2023/12/04time	06:57:30forward acquisition time	300,00reverse acquisition time	0,00gamma	499,1914k internal	0,3206k external	0,3206temperature offset calibration	1,0000default loss term (dB/km)	0,3820temperature slope calibration	1,0000multiplexer offset coefficient	1,0000multiplexer slope coefficient	1,0000fibre end	0,00T internal ref (°C)	12,12T ext. ref 1 (°C)	-2,57T ext. ref 2 (°C)	-2,60length (m)	temperature (°C)	Stokes	anti-Stokes-744,400	378,041	-0,175	-0,261
-743,385	-200,000	-0,067	0,387
-742,371	548,273	-0,162	-0,282
-741,356	-200,000	0,007	0,349
-740,342	800,000	-0,101	-0,268
-739,327	-200,000	-0,024	0,199
-738,312	800,000	-0,155	-0,322
-737,298	800,000	-0,114	0,308
-736,283	681,748	-0,156	-0,297
-735,269	-200,000	0,017	0,365
-734,254	130,014	-0,072	-0,067
-733,239	144,299	-0,070	0,068
-732,225	314,850	-0,039	-0,054
-731,210	464,747	0,068	0,111
-730,196	91,852	0,057	-0,046
-729,181	-22,762	-0,117	-0,051
-728,167	213,749	0,025	-0,028
-727,152	268,927	-0,048	0,062
-726,137	-104,285	0,100	-0,017
-725,123	-200,000	-0,014	-0,077
-724,108	408,586	-0,070	-0,108
-723,094	-200,000	-0,011	-0,148
-722,079	-141,632	0,046	0,003
-721,064	-22,058	-0,196	0,086
-720,050	49,468	-0,023	-0,016
-719,035	34,537	-0,044	-0,028
-718,021	429,978	-0,026	-0,040
-717,006	-103,926	-0,082	0,014
-715,991	119,987	-0,082	0,074
-714,977	800,000	-0,016	0,042
-713,962	-200,000	0,015	-0,077
-712,948	-95,697	0,195	0,037
-711,933	-129,212	-0,057	-0,006
-710,918	-126,455	-0,031	-0,003
-709,904	608,166	-0,034	0,062
-708,889	-200,000	0,003	-0,103
-707,875	-200,000	-0,039	-0,142
-706,860	-104,351	0,090	-0,015
-705,845	-43,020	-0,037	-0,014
-704,831	-200,000	-0,000	-0,024
-703,816	225,430	-0,067	0,078
-702,802	169,586	-0,089	0,092
-701,787	-75,706	-0,143	-0,037
-700,772	-11,394	-0,152	-0,072
-699,758	-200,000	-0,008	0,034
-698,743	-12,119	0,180	-0,085
-697,729	-109,266	0,063	0,010
-696,714	284,679	0,122	-0,159
-695,699	-118,456	-0,212	0,027
-694,685	-193,411	0,079	0,000
-693,670	33,571	-0,088	0,056
-692,656	171,163	-0,048	0,050
-691,641	800,000	-0,015	-0,033
-690,627	-108,949	0,109	-0,017
-689,612	-60,236	-0,055	0,017
-688,597	71,741	0,077	0,058
-687,583	-200,000	0,004	-0,039
-686,568	620,064	-0,102	-0,187
-685,554	-123,805	0,209	0,024
-684,539	-200,000	0,008	0,031
-683,524	-200,000	-0,004	0,135
-682,510	800,000	0,039	0,120
-681,495	-116,623	-0,078	-0,010
-680,481	-200,000	-0,020	-0,078
-679,466	325,086	-0,002	0,003
-678,451	-132,170	-0,051	-0,005
-677,437	-200,000	-0,010	-0,091
-676,422	-36,157	-0,018	-0,007
-675,408	274,355	-0,064	0,082
-674,393	712,392	0,071	0,136
-673,378	-101,859	-0,258	0,045
-672,364	-200,000	-0,013	-0,067
-671,349	-200,000	-0,002	0,094
-670,335	181,489	0,023	0,024
-669,320	124,853	0,033	0,030
-668,305	149,271	0,034	0,034
-667,291	-200,000	0,000	0,199
-666,276	-140,999	-0,098	-0,007
-665,262	-7,631	-0,152	0,074
-664,247	800,000	0,043	-0,136
-663,232	-94,713	0,139	0,027
-662,218	-72,084	-0,133	0,036
-661,203	-53,903	0,114	-0,037
-660,189	576,773	0,053	-0,094
-659,174	-200,000	-0,005	-0,094
-658,159	-82,955	-0,088	-0,020
-657,145	-79,770	0,052	0,013
-656,130	-200,000	0,002	-0,057
-655,116	6,088	-0,089	-0,047
-654,101	800,000	0,038	0,081
-653,086	74,126	-0,028	-0,022
-652,072	258,565	-0,094	0,118
-651,057	682,173	-0,049	-0,093
-650,043	800,000	-0,046	0,097
-649,028	6,782	-0,078	0,042
-648,014	-54,865	0,127	-0,041
-646,999	-35,128	0,104	0,041
-645,984	-21,272	-0,051	0,022
-644,970	-89,301	-0,144	-0,030
-643,955	-162,391	-0,078	0,003
-642,941	-29,561	-0,084	-0,035
-641,926	124,305	-0,023	-0,020
-640,911	-200,000	0,009	-0,063
-639,897	179,119	0,029	0,031
-638,882	-21,102	-0,102	0,045
-637,868	27,695	0,108	-0,065
-636,853	132,013	-0,139	-0,129
-635,838	775,886	-0,035	-0,069
-634,824	568,754	0,051	-0,090
-633,809	-200,000	0,025	-0,142
-632,795	-200,000	0,017	-0,107
-631,780	1,979	0,103	-0,054
-630,765	-200,000	-0,011	0,038
-629,751	-113,304	-0,045	-0,006
-628,736	-200,000	-0,014	0,045
-627,722	800,000	0,045	0,091
-626,707	137,491	-0,103	0,097
-625,692	-200,000	-0,001	0,005
-624,678	-8,049	0,019	0,009
-623,663	800,000	-0,035	0,102
-622,649	451,026	-0,054	0,086
-621,634	800,000	0,019	-0,055
-620,619	-60,320	-0,045	0,014
-619,605	-84,717	-0,161	0,036
-618,590	337,712	-0,033	0,046
-617,576	-200,000	0,017	-0,061
-616,561	-200,000	-0,053	-0,214
-615,546	-23,510	-0,219	-0,095
-614,532	-193,976	0,100	-0,001
-613,517	-93,559	-0,041	-0,008
-612,503	240,003	0,012	-0,015
-611,488	-200,000	0,002	-0,079
-610,474	762,172	-0,028	0,055
-609,459	-99,218	0,036	-0,007
-608,444	302,741	0,091	-0,122
-607,430	7,964	-0,079	0,043
-606,415	42,144	-0,067	-0,044
-605,401	237,056	0,022	-0,027
-604,386	-143,512	-0,022	0,001
-603,371	-200,000	0,013	0,116
-602,357	137,407	0,104	-0,099
-601,342	-86,503	-0,110	-0,024
-600,328	129,992	-0,078	-0,072
-599,313	489,500	-0,012	0,020
-598,298	800,000	-0,023	-0,066
-597,284	-200,000	-0,008	0,161
-596,269	62,102	-0,044	-0,032
-595,255	-38,627	0,152	-0,058
-594,240	109,485	-0,133	-0,115
-593,225	800,000	0,024	-0,059
-592,211	-200,000	-0,017	-0,094
-591,196	51,149	-0,090	-0,062
-590,182	-84,221	0,056	-0,013
-589,167	54,551	0,184	0,128
-588,152	-33,517	0,101	-0,040
-587,138	706,570	-0,043	-0,083
-586,123	-114,351	-0,066	-0,009
-585,109	-68,423	0,086	-0,024
-584,094	-38,197	-0,073	-0,028
-583,079	48,560	0,082	0,055
-582,065	800,000	-0,014	0,037
-581,050	-109,540	0,202	0,030
-580,036	-117,088	-0,097	-0,013
-579,021	-200,000	-0,002	-0,143
-578,006	800,000	-0,044	-0,135
-576,992	-200,000	0,008	-0,168
-575,977	-70,897	-0,077	-0,021
-574,963	-79,229	0,047	-0,011
-573,948	-200,000	0,026	0,106
-572,934	112,828	-0,008	0,007
-571,919	773,590	-0,079	0,155
-570,904	-44,458	-0,127	-0,045
-569,890	-200,000	0,010	-0,039
-568,875	362,807	0,044	0,064
-567,861	61,734	0,037	0,026
-566,846	-116,760	0,049	0,006
-565,831	-158,046	-0,071	-0,003
-564,817	-200,000	0,002	0,019
-563,802	800,000	-0,067	-0,147
-562,788	-115,489	-0,048	-0,006
-561,773	800,000	0,030	-0,061
-560,758	-200,000	0,005	-0,067
-559,744	800,000	0,026	-0,068
-558,729	-200,000	0,003	0,055
-557,715	-133,943	-0,100	-0,009
-556,700	-200,000	-0,033	-0,122
-555,685	285,510	0,118	-0,153
-554,671	329,927	0,062	-0,086
-553,656	-65,900	0,171	0,049
-552,642	62,704	0,020	-0,015
-551,627	-48,845	-0,094	0,032
-550,612	-35,037	-0,109	-0,043
-549,598	-200,000	0,010	0,059
-548,583	-98,448	0,045	0,008
-547,569	538,092	0,013	-0,022
-546,554	537,596	0,066	-0,114
-545,539	328,715	-0,026	-0,036
-544,525	-200,000	-0,035	0,210
-543,510	-200,000	-0,014	0,074
-542,496	56,413	-0,068	-0,047
-541,481	800,000	-0,053	-0,140
-540,466	-200,000	0,011	0,093
-539,452	-200,000	-0,001	-0,036
-538,437	800,000	0,034	0,084
-537,423	-200,000	0,063	-0,204
-536,408	206,729	-0,038	-0,042
-535,393	800,000	0,075	-0,160
-534,379	-200,000	-0,016	-0,056
-533,364	-73,018	0,169	0,044
-532,350	-200,000	-0,008	-0,103
-531,335	-96,260	-0,053	-0,010
-530,321	-175,858	-0,060	-0,001
-529,306	-137,693	-0,132	-0,011
-528,291	-200,000	0,027	0,131
-527,277	-200,000	0,005	0,057
-526,262	-200,000	-0,050	-0,200
-525,248	-200,000	0,000	-0,031
-524,233	-50,743	0,080	-0,027
-523,218	-61,508	0,061	-0,018
-522,204	-200,000	0,005	0,039
-521,189	800,000	-0,042	0,121
-520,175	95,896	0,114	-0,094
-519,160	135,266	0,073	-0,068
-518,145	-137,086	-0,022	0,002
-517,131	-200,000	-0,035	0,121
-516,116	-67,558	-0,118	0,033
-515,102	-115,321	0,070	0,009
-514,087	800,000	0,011	0,025
-513,072	800,000	-0,064	-0,198
-512,058	-200,000	-0,036	-0,136
-511,043	555,016	0,108	-0,188
-510,029	-37,079	-0,088	0,034
-509,014	800,000	0,028	0,060
-507,999	-18,153	0,078	0,035
-506,985	-77,705	-0,084	0,021
-505,970	-13,387	-0,053	-0,025
-504,956	-36,212	-0,113	0,044
-503,941	324,010	0,064	0,089
-502,926	-37,982	0,080	0,031
-501,912	800,000	0,047	0,098
-500,897	-104,033	-0,076	0,013
-499,883	-200,000	-0,019	0,065
-498,868	-200,000	-0,012	-0,059
-497,853	-101,522	-0,037	0,006
-496,839	494,851	-0,040	0,066
-495,824	-82,764	0,036	-0,008
-494,810	433,620	-0,101	0,158
-493,795	-87,055	0,187	0,041
-492,781	-147,879	-0,085	-0,005
-491,766	800,000	-0,011	0,033
-490,751	800,000	-0,012	0,030
-489,737	144,938	0,105	-0,101
-488,722	-200,000	-0,021	-0,093
-487,708	709,015	-0,023	-0,044
-486,693	-136,002	0,045	0,004
-485,678	800,000	0,035	0,092
-484,664	-200,000	0,011	-0,094
-483,649	43,577	0,145	-0,095
-482,635	224,304	-0,055	-0,064
-481,620	-71,235	0,091	0,024
-480,605	-200,000	-0,008	0,087
-479,591	313,023	0,180	0,243
-478,576	454,776	-0,065	-0,103
-477,562	-151,774	-0,105	0,005
-476,547	800,000	0,027	-0,058
-475,532	-89,216	0,098	0,021
-474,518	102,252	0,067	0,056
-473,503	-115,214	0,154	0,021
-472,489	800,000	0,044	0,135
-471,474	-200,000	-0,001	0,045
-470,459	800,000	-0,029	0,058
-469,445	-24,204	-0,087	-0,037
-468,430	658,146	0,034	-0,063
-467,416	-200,000	0,020	-0,068
-466,401	356,337	-0,143	0,205
-465,386	800,000	0,044	0,103
-464,372	-47,980	0,162	-0,056
-463,357	560,510	-0,035	0,061
-462,343	175,547	0,067	0,070
-461,328	86,129	0,080	0,064
-460,313	-200,000	-0,006	-0,082
-459,299	-110,468	0,074	-0,011
-458,284	252,650	0,034	0,042
-457,270	151,811	0,080	0,078
-456,255	800,000	-0,030	0,069
-455,241	-200,000	-0,005	-0,149
-454,226	800,000	-0,050	-0,128
-453,211	492,470	0,059	0,098
-452,197	57,544	0,075	0,052
-451,182	179,197	-0,046	0,049
-450,168	800,000	0,031	0,089
-449,153	-138,722	-0,041	0,003
-448,138	-29,789	-0,056	0,023
-447,124	800,000	-0,016	-0,047
-446,109	-34,920	-0,133	-0,052
-445,095	-2,948	0,081	0,041
-444,080	800,000	0,039	0,117
-443,065	202,219	-0,119	0,132
-442,051	-62,899	-0,120	0,035
-441,036	-72,831	0,140	0,037
-440,022	56,607	-0,047	0,033
-439,007	800,000	-0,014	-0,039
-437,992	508,511	-0,082	0,138
-436,978	-200,000	-0,007	-0,121
-435,963	542,047	-0,083	-0,142
-434,949	648,461	-0,022	0,041
-433,934	53,035	-0,090	-0,062
-432,919	379,594	-0,049	-0,072
-431,905	800,000	-0,036	0,098
-430,890	-64,321	0,089	-0,026
-429,876	-200,000	0,012	0,071
-428,861	-200,000	-0,011	0,069
-427,846	28,535	0,113	-0,068
-426,832	180,258	-0,082	0,086
-425,817	346,483	0,012	0,017
-424,803	-83,704	-0,090	0,020
-423,788	-124,983	0,180	-0,020
-422,773	278,988	0,056	0,072
-421,759	-15,043	0,103	0,047
-420,744	800,000	0,031	0,084
-419,730	51,531	-0,044	-0,030
-418,715	-55,183	-0,157	-0,050
-417,701	-138,754	0,100	-0,008
-416,686	-104,907	-0,073	-0,012
-415,671	-114,510	0,098	0,013
-414,657	172,504	0,105	0,109
-413,642	160,904	0,118	0,118
-412,628	-128,101	-0,160	-0,016
-411,613	-200,000	-0,009	-0,077
-410,598	-200,000	0,010	-0,051
-409,584	45,930	0,073	-0,048
-408,569	800,000	-0,055	0,109
-407,555	56,243	-0,095	0,066
-406,540	-7,670	0,095	-0,046
-405,525	117,652	0,042	0,037
-404,511	-200,000	-0,000	-0,102
-403,496	-200,000	0,032	-0,111
-402,482	403,698	-0,057	-0,086
-401,467	162,957	-0,089	0,090
-400,452	-80,477	0,148	0,035
-399,438	477,455	0,057	-0,093
-398,423	480,921	-0,045	0,073
-397,409	-146,331	0,076	0,005
-396,394	108,160	0,028	0,024
-395,379	159,294	-0,042	0,042
-394,365	-70,031	-0,166	0,045
-393,350	-47,665	0,126	-0,043
-392,336	-200,000	-0,005	0,065
-391,321	460,472	-0,123	-0,197
-390,306	29,802	-0,103	-0,063
-389,292	-200,000	0,001	0,032
-388,277	117,859	0,045	-0,040
-387,263	-200,000	0,026	0,099
-386,248	137,645	0,082	-0,077
-385,233	32,765	0,027	0,017
-384,219	-192,966	-0,060	0,000
-383,204	-96,411	0,065	0,012
-382,190	-200,000	-0,010	-0,088
-381,175	250,422	-0,129	0,157
-380,160	403,161	-0,058	0,088
-379,146	-159,997	-0,066	-0,003
-378,131	800,000	0,037	-0,086
-377,117	96,820	0,120	-0,098
-376,102	-200,000	0,037	-0,183
-375,088	82,568	-0,089	-0,069
-374,073	198,395	-0,042	-0,046
-373,058	-200,000	0,003	-0,041
-372,044	-200,000	0,031	0,117
-371,029	-200,000	0,016	-0,059
-370,015	-27,496	-0,073	-0,030
-369,000	-200,000	-0,006	-0,057
-367,985	-125,653	-0,062	-0,007
-366,971	-200,000	-0,037	0,000
-365,956	800,000	-0,049	-0,110
-364,942	92,512	0,090	-0,073
-363,927	-11,515	0,049	-0,023
-362,912	-87,737	0,030	-0,007
-361,898	-200,000	-0,002	-0,120
-360,883	-181,781	-0,005	0,000
-359,869	19,055	-0,137	0,079
-358,854	-200,000	-0,010	0,033
-357,839	392,060	0,079	-0,118
-356,825	800,000	0,068	0,150
-355,810	-101,089	-0,073	-0,013
-354,796	-35,620	-0,272	0,105
-353,781	-9,535	-0,082	-0,039
-352,766	77,758	-0,048	0,037
-351,752	-46,115	-0,066	-0,023
-350,737	-200,000	0,041	0,131
-349,723	9,884	0,147	-0,080
-348,708	72,573	-0,064	-0,048
-347,693	64,364	0,065	-0,047
-346,679	156,470	-0,091	-0,090
-345,664	238,918	0,091	0,108
-344,650	-200,000	0,019	-0,135
-343,635	-200,000	-0,010	0,066
-342,620	9,794	0,066	0,036
-341,606	-200,000	0,052	0,169
-340,591	800,000	0,039	0,093
-339,577	337,128	0,078	-0,109
-338,562	597,946	0,049	-0,086
-337,548	-59,592	-0,054	0,016
-336,533	185,219	0,058	-0,061
-335,518	-24,416	0,070	-0,030
-334,504	93,916	0,087	-0,070
-333,489	-80,705	-0,050	0,012
-332,475	-200,000	-0,011	0,108
-331,460	101,088	0,043	-0,036
-330,445	217,694	0,047	-0,053
-329,431	800,000	0,036	0,084
-328,416	-141,395	0,090	0,006
-327,402	64,131	-0,072	0,052
-326,387	-200,000	-0,019	0,139
-325,372	236,755	-0,046	-0,054
-324,358	104,826	0,040	0,034
-323,343	-200,000	-0,007	0,025
-322,329	-115,619	0,150	-0,020
-321,314	-40,877	0,284	0,104
-320,299	800,000	-0,022	0,059
-319,285	-35,189	-0,112	0,043
-318,270	-147,752	-0,087	0,005
-317,256	-200,000	-0,027	-0,098
-316,241	-59,864	-0,038	-0,012
-315,226	800,000	-0,070	0,153
-314,212	16,095	-0,104	0,059
-313,197	-200,000	-0,033	0,142
-312,183	2,593	0,051	0,026
-311,168	-80,460	0,088	0,021
-310,153	-120,089	-0,100	-0,012
-309,139	-5,605	-0,108	-0,053
-308,124	-200,000	-0,023	-0,115
-307,110	319,688	-0,026	0,036
-306,095	800,000	0,041	0,093
-305,080	90,791	-0,106	0,084
-304,066	89,891	0,082	0,066
-303,051	800,000	0,043	-0,116
-302,037	-200,000	-0,012	0,103
-301,022	108,771	0,019	0,016
-300,008	800,000	0,030	0,089
-298,993	-101,364	-0,122	0,021
-297,978	-200,000	0,012	0,213
-296,964	-47,402	-0,113	-0,039
-295,949	-18,973	-0,162	-0,072
-294,935	565,438	-0,018	0,032
-293,920	-148,779	-0,054	0,003
-292,905	622,671	0,024	-0,043
-291,891	-72,760	0,095	0,025
-290,876	-200,000	-0,022	-0,120
-289,862	-200,000	-0,031	0,160
-288,847	75,028	-0,055	-0,041
-287,832	7,445	-0,142	-0,075
-286,818	-87,872	0,119	-0,025
-285,803	343,447	-0,025	-0,035
-284,789	800,000	-0,035	0,091
-283,774	-200,000	-0,016	0,055
-282,759	359,044	-0,092	0,131
-281,745	800,000	0,022	0,051
-280,730	28,799	-0,027	-0,016
-279,716	-200,000	0,023	0,128
-278,701	300,638	0,061	0,080
-277,686	-87,617	0,214	0,046
-276,672	-200,000	-0,004	-0,041
-275,657	520,308	-0,070	0,117
-274,643	-200,000	0,023	-0,095
-273,628	297,848	0,056	0,074
-272,613	679,134	-0,038	-0,071
-271,599	-119,352	0,140	-0,017
-270,584	64,063	0,010	0,007
-269,570	-47,174	0,055	-0,019
-268,555	-3,787	-0,115	0,057
-267,540	-200,000	0,005	-0,065
-266,526	471,050	0,049	-0,078
-265,511	471,742	-0,028	0,046
-264,497	-91,512	-0,087	0,017
-263,482	72,230	-0,034	0,025
-262,467	800,000	0,042	0,107
-261,453	-200,000	0,012	0,160
-260,438	85,420	0,084	-0,066
-259,424	-131,349	-0,203	0,019
-258,409	414,709	0,079	-0,120
-257,395	549,250	0,036	-0,062
-256,380	800,000	0,056	0,166
-255,365	-17,090	-0,103	-0,046
-254,351	-188,565	0,119	0,001
-253,336	800,000	0,053	0,126
-252,322	117,995	-0,088	0,077
-251,307	42,366	-0,108	0,070
-250,292	-19,483	0,046	-0,020
-249,278	-200,000	0,040	0,149
-248,263	-16,241	0,097	-0,044
-247,249	-200,000	0,001	0,049
-246,234	800,000	0,027	-0,067
-245,219	-100,423	0,068	0,012
-244,205	-200,000	-0,021	-0,118
-243,190	800,000	0,042	-0,089
-242,176	210,009	0,110	0,123
-241,161	55,010	0,088	0,061
-240,146	-184,197	0,080	0,001
-239,132	-112,927	0,092	-0,013
-238,117	0,542	-0,063	0,032
-237,103	800,000	0,031	-0,064
-236,088	-68,724	-0,140	0,038
-235,073	-25,853	0,126	-0,053
-234,059	800,000	-0,068	-0,211
-233,044	79,077	0,105	0,080
-232,030	93,584	-0,126	-0,102
-231,015	562,584	-0,023	0,040
-230,000	-129,753	-0,099	-0,010
-228,986	78,769	0,088	-0,067
-227,971	-126,144	0,052	-0,005
-226,957	19,033	0,060	0,034
-225,942	800,000	0,031	0,086
-224,927	-88,778	0,074	0,016
-223,913	-50,090	-0,159	0,053
-222,898	-164,231	0,130	0,004
-221,884	-6,760	-0,025	-0,012
-220,869	-200,000	0,004	0,070
-219,855	800,000	0,029	-0,070
-218,840	-200,000	0,020	0,221
-217,825	-48,035	-0,034	0,012
-216,811	-179,190	-0,079	-0,001
-215,796	-200,000	-0,037	-0,123
-214,782	371,523	0,105	-0,152
-213,767	324,231	-0,071	-0,097
-212,752	-71,792	0,117	0,031
-211,738	193,139	0,077	0,083
-210,723	556,350	-0,041	-0,071
-209,709	-138,189	-0,076	-0,006
-208,694	33,377	-0,048	0,030
-207,679	-120,172	0,085	-0,010
-206,665	-31,931	0,010	-0,004
-205,650	-200,000	0,029	0,118
-204,636	0,608	0,164	0,083
-203,621	215,147	0,151	0,170
-202,606	-200,000	0,005	0,077
-201,592	800,000	-0,062	-0,137
-200,577	120,625	0,035	-0,031
-199,563	93,488	-0,030	-0,024
-198,548	186,884	-0,061	0,064
-197,533	-200,000	0,015	-0,096
-196,519	-200,000	-0,005	0,052
-195,504	261,068	0,086	-0,106
-194,490	192,545	-0,036	-0,038
-193,475	-3,838	-0,041	-0,020
-192,460	-200,000	-0,016	0,083
-191,446	-120,185	0,127	0,015
-190,431	-36,143	-0,035	0,013
-189,417	800,000	-0,080	0,227
-188,402	-18,829	0,059	0,026
-187,387	-186,482	-0,104	0,001
-186,373	194,228	0,055	-0,060
-185,358	239,219	-0,088	0,104
-184,344	-200,000	-0,022	-0,079
-183,329	641,973	-0,039	0,070
-182,315	-131,100	0,141	0,013
-181,300	316,919	-0,009	-0,012
-180,285	-200,000	-0,031	-0,115
-179,271	301,531	0,080	0,105
-178,256	139,261	-0,113	0,105
-177,242	199,664	-0,055	0,060
-176,227	-90,147	0,111	-0,023
-175,212	-200,000	-0,012	0,171
-174,198	83,898	0,084	-0,065
-173,183	800,000	-0,033	-0,094
-172,169	-200,000	-0,004	-0,054
-171,154	-200,000	-0,002	-0,023
-170,139	-200,000	-0,006	0,101
-169,125	-21,258	-0,007	-0,003
-168,110	-200,000	-0,001	-0,078
-167,096	-200,000	-0,001	0,044
-166,081	-114,374	-0,135	0,018
-165,066	-188,754	-0,109	-0,001
-164,052	24,649	-0,097	-0,057
-163,037	278,943	0,059	0,075
-162,023	-200,000	-0,006	-0,168
-161,008	-158,729	-0,085	0,003
-159,993	-118,750	0,070	0,009
-158,979	128,672	0,057	0,051
-157,964	800,000	-0,058	-0,141
-156,950	-200,000	-0,029	-0,126
-155,935	800,000	-0,082	-0,196
-154,920	-32,717	0,078	-0,031
-153,906	170,213	-0,031	-0,031
-152,891	-17,334	-0,089	-0,040
-151,877	241,924	0,033	0,040
-150,862	239,376	-0,034	0,040
-149,847	-200,000	0,017	0,108
-148,833	-200,000	0,012	0,049
-147,818	73,939	0,101	0,075
-146,804	596,232	0,016	0,029
-145,789	70,216	-0,141	0,104
-144,775	13,837	0,065	0,036
-143,760	710,604	-0,025	-0,046
-142,745	-200,000	-0,014	-0,054
-141,731	-200,000	-0,003	-0,097
-140,716	-128,165	-0,181	-0,018
-139,702	673,286	0,097	0,180
-138,687	38,198	0,036	0,023
-137,672	360,467	-0,094	0,134
-136,658	800,000	-0,028	-0,058
-135,643	-75,207	-0,184	-0,046
-134,629	-200,000	-0,025	-0,136
-133,614	106,885	0,062	-0,052
-132,599	141,358	0,073	-0,068
-131,585	353,862	0,095	-0,134
-130,570	-177,178	0,166	-0,003
-129,556	547,661	0,017	-0,029
-128,541	-200,000	0,022	-0,111
-127,526	-54,458	-0,094	-0,030
-126,512	-84,628	0,036	0,008
-125,497	20,184	0,127	0,073
-124,483	213,260	0,091	0,102
-123,468	205,926	-0,063	-0,070
-122,453	-2,351	0,076	-0,038
-121,439	-200,000	0,027	-0,109
-120,424	-15,982	-0,051	-0,023
-119,410	-17,404	0,060	-0,027
-118,395	-96,262	0,081	-0,015
-117,380	468,642	0,048	-0,076
-116,366	-115,235	0,044	-0,006
-115,351	615,234	-0,035	0,062
-114,337	-189,463	0,114	0,001
-113,322	55,122	0,084	-0,057
-112,307	-200,000	0,008	-0,084
-111,293	57,191	0,069	0,048
-110,278	125,856	0,138	0,124
-109,264	-200,000	-0,095	-0,000
-108,249	-99,919	-0,108	-0,019
-107,234	41,360	-0,145	-0,093
-106,220	-200,000	-0,010	-0,095
-105,205	222,661	-0,071	-0,081
-104,191	-104,926	0,166	-0,027
-103,176	171,646	0,074	0,076
-102,162	-115,212	0,024	-0,003
-101,147	800,000	-0,051	-0,113
-100,132	-200,000	-0,015	-0,126
-99,118	800,000	-0,023	0,054
-98,103	800,000	0,043	-0,121
-97,089	7,689	0,007	0,004
-96,074	-57,424	-0,056	-0,017
-95,059	481,326	-0,053	-0,086
-94,045	89,561	-0,065	-0,051
-93,030	-8,424	0,121	-0,057
-92,016	156,761	-0,106	0,104
-91,001	-91,509	-0,029	-0,006
-89,986	401,193	0,070	0,104
-88,972	800,000	0,032	0,096
-87,957	-200,000	-0,021	-0,095
-86,943	342,063	-0,081	0,112
-85,928	609,139	-0,031	-0,055
-84,913	152,124	-0,043	-0,041
-83,899	-200,000	-0,002	0,007
-82,884	-68,908	0,124	0,034
-81,870	50,402	0,066	-0,044
-80,855	-150,168	0,031	-0,002
-79,840	-200,000	-0,027	0,153
-78,826	25,929	-0,019	0,011
-77,811	-200,000	-0,012	-0,044
-76,797	-200,000	0,023	-0,207
-75,782	800,000	0,041	0,115
-74,767	531,306	0,035	0,059
-73,753	-200,000	-0,023	0,074
-72,738	364,479	0,110	-0,157
-71,724	-70,937	-0,139	0,037
-70,709	-70,538	0,086	-0,023
-69,694	-66,991	-0,096	-0,027
-68,680	61,024	0,012	0,008
-67,665	-94,605	0,060	-0,012
-66,651	-200,000	-0,017	0,071
-65,636	-0,090	0,070	0,035
-64,622	5,751	0,078	0,041
-63,607	-200,000	0,017	-0,076
-62,592	800,000	-0,020	-0,061
-61,578	99,028	0,085	0,070
-60,563	495,676	0,024	-0,040
-59,549	176,959	-0,008	0,008
-58,534	-2,588	-1,821	-0,898
-57,519	449,280	-1,303	-2,038
-56,505	-200,000	-0,618	-4,555
-55,490	324,051	1,052	1,423
-54,476	800,000	4,847	11,123
-53,461	-200,000	20,288	324,412
-52,446	800,000	752,828	2311,585
-51,432	548,479	1663,527	2827,556
-50,417	74,908	1671,544	1242,998
-49,403	19,941	1544,594	877,674
-48,388	13,913	1467,183	804,366
-47,373	18,377	1457,372	820,516
-46,359	16,308	1446,899	804,678
-45,344	12,223	1442,323	782,543
-44,330	12,177	1440,383	781,241
-43,315	12,140	1438,929	780,240
-42,300	12,142	1436,920	779,133
-41,286	12,162	1435,885	778,634
-40,271	12,185	1434,347	777,879
-39,257	12,166	1433,112	777,087
-38,242	12,203	1432,019	776,640
-37,227	12,177	1430,824	775,837
-36,213	12,199	1429,522	775,208
-35,198	12,188	1428,426	774,527
-34,184	12,272	1427,270	774,269
-33,169	12,196	1425,858	773,114
-32,154	12,224	1424,846	772,668
-31,140	12,222	1423,685	771,997
-30,125	12,244	1422,637	771,502
-29,111	12,207	1421,336	770,589
-28,096	12,240	1420,260	770,130
-27,082	12,150	1419,311	769,163
-26,067	12,124	1418,171	768,394
-25,052	12,232	1416,912	768,188
-24,038	12,149	1416,071	767,311
-23,023	12,130	1415,166	766,702
-22,009	12,111	1413,987	765,941
-20,994	12,110	1412,960	765,351
-19,979	12,125	1412,148	764,953
-18,965	12,102	1411,219	764,310
-17,950	12,120	1410,147	763,785
-16,936	12,097	1409,623	763,360
-15,921	12,041	1408,324	762,367
-14,906	12,017	1407,612	761,837
-13,892	12,057	1406,520	761,404
-12,877	12,080	1405,651	761,011
-11,863	12,006	1404,900	760,226
-10,848	12,047	1403,882	759,836
-9,833	12,029	1403,015	759,256
-8,819	11,958	1402,303	758,508
-7,804	11,937	1401,373	757,876
-6,790	11,983	1400,221	757,436
-5,775	11,936	1399,299	756,694
-4,760	11,999	1398,173	756,345
-3,746	11,895	1397,411	755,418
-2,731	11,928	1396,420	755,009
-1,717	11,928	1395,793	754,638
-0,702	11,949	1393,965	753,716
0,313	16,097	1308,653	726,679
1,327	32,851	699,517	426,888
2,342	51,156	121,958	81,597
3,356	3,492	16,338	8,384
4,371	19,487	3,275	1,855
5,386	1,187	0,584	0,295
6,400	-200,000	0,020	0,373
7,415	64,471	-0,147	-0,104
8,429	207,708	-0,361	-0,399
9,444	156,270	-0,170	-0,166
10,459	-123,947	-0,317	-0,035
11,473	155,704	-0,129	-0,126
12,488	-59,717	-0,184	-0,055
13,502	115,913	-0,280	-0,242
14,517	24,867	-0,313	-0,183
15,531	98,668	-0,397	-0,323
16,546	61,858	-0,431	-0,303
17,561	107,710	-0,368	-0,309
18,575	-22,626	-0,164	0,070
19,590	273,390	-0,203	-0,254
20,604	124,169	-0,260	-0,230
21,619	97,525	-0,439	-0,356
22,634	32,756	-0,579	-0,353
23,648	108,534	-0,367	-0,309
24,663	34,432	-0,425	-0,261
25,677	8,476	-0,261	-0,138
26,692	-54,396	-0,356	-0,113
27,707	391,741	-0,267	-0,393
28,721	37,448	-0,444	-0,277
29,736	-39,574	-0,451	-0,166
30,750	88,263	-0,435	-0,340
31,765	125,029	-0,399	-0,355
32,780	77,539	-0,423	-0,317
33,794	-41,196	-0,334	-0,121
34,809	-20,813	-0,322	-0,139
35,823	656,412	-0,163	-0,296
36,838	-14,294	-0,524	-0,237
37,853	388,614	-0,290	-0,424
38,867	12,277	-0,346	-0,187
39,882	168,372	-0,219	-0,220
40,896	204,608	-0,346	-0,378
41,911	25,731	-0,395	-0,231
42,926	27,591	-0,354	-0,209
43,940	86,020	-0,209	-0,162
44,955	123,278	-0,379	-0,334
45,969	75,428	-0,341	-0,253
46,984	26,231	-0,408	-0,239
47,999	79,028	-0,385	-0,290
49,013	-116,768	-0,243	0,031
50,028	211,616	-0,262	-0,290
51,042	501,374	-0,222	-0,361
52,057	128,751	-0,309	-0,277
53,071	152,635	-0,351	-0,337
54,086	-64,504	-0,306	-0,087
55,101	2,912	-0,259	-0,132
56,115	-9,750	-0,313	-0,146
57,130	110,355	-0,362	-0,306
58,144	93,082	-0,289	-0,229
59,159	204,946	-0,281	-0,307
60,174	-21,803	-0,517	-0,220
61,188	252,801	-0,253	-0,304
62,203	20,685	-0,316	-0,179
63,217	-18,977	-0,387	-0,169
64,232	-45,864	-0,374	-0,129
65,247	109,381	-0,352	-0,296
66,261	70,053	-0,380	-0,275
67,276	75,019	-0,348	-0,257
68,290	-71,454	-0,437	-0,114
69,305	104,314	-0,222	-0,183
70,320	-112,499	-0,250	-0,035
71,334	155,464	-0,255	-0,246
72,349	27,463	-0,298	-0,175
73,363	98,035	-0,347	-0,280
74,378	15,189	-0,391	-0,214
75,393	222,470	-0,283	-0,320
76,407	-12,002	-0,269	-0,123
77,422	9,442	-0,264	-0,140
78,436	-60,621	-0,282	-0,084
79,451	88,239	-0,320	-0,249
80,466	-17,695	-0,345	-0,151
81,480	207,165	-0,243	-0,266
82,495	-26,505	-0,384	-0,157
83,509	70,611	-0,402	-0,291
84,524	-111,902	-0,321	-0,045
85,539	39,217	-0,223	-0,139
86,553	-3,223	-0,244	-0,119
87,568	37,751	-0,314	-0,195
88,582	155,147	-0,250	-0,241
89,597	93,510	-0,178	-0,141
90,611	64,911	-0,184	-0,130
91,626	305,618	-0,152	-0,198
92,641	132,252	-0,272	-0,246
93,655	29,470	-0,270	-0,161
94,670	209,740	-0,211	-0,232
95,684	-24,222	-0,348	-0,145
96,699	-87,470	-0,385	-0,081
97,714	39,840	-0,257	-0,161
98,728	-75,988	-0,268	-0,066
99,743	-76,092	-0,366	-0,090
100,757	-59,864	-0,170	-0,050
101,772	345,314	-0,218	-0,300
102,787	118,690	-0,119	-0,103
103,801	-1,286	-0,272	-0,134
104,816	1,842	-0,134	-0,067
105,830	-24,296	-0,395	-0,164
106,845	8,175	-0,249	-0,130
107,860	-37,287	-0,331	-0,123
108,874	71,217	-0,176	-0,128
109,889	348,828	-0,254	-0,351
110,903	213,431	-0,237	-0,263
111,918	-64,553	-0,259	-0,073
112,933	87,850	-0,277	-0,215
113,947	130,603	-0,190	-0,170
114,962	-200,000	-0,043	-0,239
115,976	4,465	-0,366	-0,187
116,991	194,219	-0,182	-0,193
118,006	11,860	-0,337	-0,181
119,020	-4,825	-0,265	-0,128
120,035	39,242	-0,147	-0,092
121,049	-40,760	-0,302	-0,109
122,064	-23,326	-0,281	-0,117
123,079	300,710	-0,182	-0,236
124,093	-3,992	-0,292	-0,141
125,108	37,916	-0,225	-0,140
126,122	84,567	-0,215	-0,164
127,137	-117,536	-0,310	-0,039
128,151	218,685	-0,166	-0,186
129,166	800,000	-0,135	-0,311
130,181	111,903	-0,301	-0,254
131,195	173,128	-0,171	-0,172
132,210	7,987	-0,286	-0,149
133,224	-14,810	-0,287	-0,128
134,239	714,912	-0,112	-0,209
135,254	56,345	-0,212	-0,144
136,268	207,218	-0,147	-0,161
137,283	-103,545	-0,294	-0,048
138,297	222,511	-0,236	-0,266
139,312	508,603	-0,186	-0,303
140,327	-69,609	-0,292	-0,077
141,341	-150,084	-0,193	0,010
142,356	-61,365	-0,203	-0,059
143,370	31,867	-0,254	-0,152
144,385	170,758	-0,355	-0,355
145,400	800,000	-0,134	-0,297
146,414	702,654	-0,190	-0,351
147,429	112,503	-0,244	-0,205
148,443	0,677	-0,235	-0,117
149,458	-45,418	-0,241	-0,083
150,473	-96,530	-0,179	-0,033
151,487	-97,027	-0,165	-0,030
152,502	-92,050	-0,260	-0,051
153,516	51,081	-0,247	-0,163
154,531	54,576	-0,235	-0,158
155,546	471,178	-0,136	-0,214
156,560	-79,387	-0,134	-0,031
157,575	-54,475	-0,169	-0,053
158,589	-67,030	-0,201	-0,055
159,604	-54,600	-0,183	-0,057
160,619	101,710	-0,215	-0,175
161,633	42,407	-0,245	-0,155
162,648	55,242	-0,134	-0,090
163,662	185,632	-0,198	-0,205
164,677	69,882	-0,228	-0,163
165,692	-1,851	-0,228	-0,112
166,706	-9,365	-0,214	-0,099
167,721	65,725	-0,259	-0,182
168,735	46,802	-0,236	-0,152
169,750	81,489	-0,177	-0,133
170,764	101,242	-0,214	-0,173
171,779	-63,723	-0,198	-0,056
172,794	14,676	-0,153	-0,083
173,808	-165,234	-0,156	-0,005
174,823	299,299	-0,204	-0,262
175,837	129,247	-0,295	-0,262
176,852	56,486	-0,320	-0,216
177,867	-97,085	-0,226	-0,041
178,881	6,845	-0,319	-0,165
179,896	176,391	-0,172	-0,174
180,910	8,747	-0,230	-0,120
181,925	-42,303	-0,320	-0,113
182,940	52,302	-0,218	-0,144
183,954	160,330	-0,228	-0,221
184,969	30,164	-0,262	-0,155
185,983	49,585	-0,135	-0,089
186,998	1,149	-0,247	-0,123
188,013	30,785	-0,175	-0,104
189,027	209,626	-0,219	-0,239
190,042	-18,472	-0,318	-0,137
191,056	87,670	-0,210	-0,161
192,071	-90,167	-0,182	-0,036
193,086	38,733	-0,199	-0,123
194,100	105,221	-0,202	-0,165
195,115	197,785	-0,185	-0,197
196,129	800,000	-0,122	-0,269
197,144	800,000	-0,117	-0,227
198,159	179,682	-0,211	-0,214
199,173	-40,699	-0,162	-0,058
200,188	155,435	-0,250	-0,239
201,202	260,502	-0,201	-0,242
202,217	-200,000	-0,046	-0,240
203,232	5,769	-0,176	-0,090
204,246	222,457	-0,186	-0,208
205,261	305,718	-0,198	-0,256
206,275	101,742	-0,089	-0,072
207,290	-200,000	-0,210	0,000
208,304	296,105	-0,104	-0,133
209,319	304,371	-0,160	-0,206
210,334	6,537	-0,177	-0,091
211,348	80,868	-0,130	-0,097
212,363	-35,302	-0,233	-0,087
213,377	298,555	-0,129	-0,165
214,392	107,224	-0,183	-0,151
215,407	237,251	-0,210	-0,242
216,421	224,930	-0,128	-0,144
217,436	25,831	-0,204	-0,117
218,450	21,614	-0,253	-0,143
219,465	74,533	-0,175	-0,128
220,480	-29,446	-0,184	-0,072
221,494	45,412	-0,185	-0,118
222,509	-21,008	-0,205	-0,087
223,523	41,425	-0,166	-0,104
224,538	342,735	-0,111	-0,151
225,553	800,000	-0,089	-0,196
226,567	428,542	-0,156	-0,234
227,582	-112,094	-0,193	-0,027
228,596	-21,843	-0,194	-0,081
229,611	-30,069	-0,194	-0,076
230,626	-38,125	-0,197	-0,072
231,640	-100,701	-0,219	-0,037
232,655	579,032	-0,115	-0,196
233,669	223,504	-0,178	-0,199
234,684	-163,082	-0,302	-0,010
235,699	58,622	-0,194	-0,131
236,713	3,527	-0,253	-0,127
237,728	800,000	-0,055	-0,140
238,742	520,553	-0,097	-0,157
239,757	-113,572	-0,286	0,038
240,772	-61,843	-0,215	-0,062
241,786	-175,590	-0,191	-0,003
242,801	391,551	-0,152	-0,219
243,815	392,199	-0,130	-0,187
244,830	-13,274	-0,159	-0,071
245,844	235,419	-0,149	-0,170
246,859	-110,783	-0,253	0,036
247,874	258,717	-0,112	-0,134
248,888	191,158	-0,153	-0,160
249,903	290,984	-0,135	-0,170
250,917	-26,806	-0,206	-0,083
251,932	276,297	-0,148	-0,182
252,947	220,319	-0,089	-0,099
253,961	14,664	-0,242	-0,130
254,976	360,755	-0,133	-0,184
255,990	0,830	-0,153	-0,075
257,005	-78,728	-0,174	-0,041
258,020	319,778	-0,108	-0,143
259,034	-82,174	-0,072	-0,016
260,049	-175,691	-0,200	0,004
261,063	111,461	-0,168	-0,140
262,078	-148,740	-0,236	0,013
263,093	-57,261	-0,219	-0,066
264,107	-94,612	-0,186	-0,035
265,122	800,000	-0,022	-0,052
266,136	209,189	-0,141	-0,152
267,151	248,006	-0,219	-0,256
268,166	240,683	-0,251	-0,289
269,180	393,192	-0,137	-0,197
270,195	235,131	-0,180	-0,206
271,209	355,294	-0,147	-0,202
272,224	171,957	-0,124	-0,123
273,239	96,335	-0,147	-0,116
274,253	272,992	-0,121	-0,147
275,268	455,221	-0,127	-0,194
276,282	16,771	-0,253	-0,137
277,297	800,000	-0,124	-0,278
278,312	92,486	-0,239	-0,186
279,326	58,456	-0,263	-0,178
280,341	57,246	-0,249	-0,167
281,355	276,485	-0,096	-0,118
282,370	62,113	-0,214	-0,147
283,384	800,000	-0,092	-0,229
284,399	145,060	-0,192	-0,177
285,414	800,000	-0,093	-0,280
286,428	216,649	-0,027	-0,030
287,443	800,000	-0,060	-0,160
288,457	-64,402	-0,120	-0,033
289,472	80,522	-0,149	-0,110
290,487	371,348	-0,154	-0,215
291,501	108,934	-0,185	-0,152
292,516	211,607	-0,106	-0,115
293,530	21,171	-0,091	-0,051
294,545	54,145	-0,081	-0,054
295,560	-151,122	-0,109	0,006
296,574	-200,000	-0,009	-0,072
297,589	245,893	-0,184	-0,214
298,603	-151,779	-0,221	0,011
299,618	-49,791	-0,132	-0,043
300,633	-200,000	0,012	-0,254
301,647	113,736	-0,114	-0,095
302,662	-7,540	-0,069	-0,032
303,676	800,000	-0,096	-0,185
304,691	84,685	-0,133	-0,100
305,706	47,583	-0,177	-0,113
306,720	200,358	-0,151	-0,160
307,735	528,297	-0,125	-0,203
308,749	800,000	0,089	-0,235
309,764	214,777	-0,070	-0,077
310,779	800,000	-0,071	-0,158
311,793	-200,000	0,020	-0,082
312,808	303,841	-0,159	-0,203
313,822	-21,914	-0,232	-0,097
314,837	83,837	-0,152	-0,114
315,852	252,268	-0,152	-0,178
316,866	-200,000	-0,038	-0,117
317,881	368,719	-0,141	-0,197
318,895	238,404	-0,066	-0,075
319,910	-104,135	-0,172	-0,027
320,925	800,000	-0,044	-0,129
321,939	-43,329	-0,088	0,030
322,954	40,733	-0,181	-0,112
323,968	183,062	-0,125	-0,127
324,983	6,152	-0,038	-0,019
325,997	-27,639	-0,185	-0,073
327,012	153,231	-0,266	-0,250
328,027	-200,000	-0,071	-0,243
329,041	10,886	-0,133	-0,070
330,056	800,000	-0,074	-0,157
331,070	-200,000	-0,037	-0,177
332,085	-121,813	-0,211	0,024
333,100	115,872	-0,085	-0,071
334,114	396,599	-0,130	-0,187
335,129	237,745	-0,153	-0,174
336,143	51,921	-0,140	-0,092
337,158	134,969	-0,184	-0,164
338,173	-51,015	-0,099	-0,032
339,187	-200,000	-0,000	-0,135
340,202	-69,929	-0,172	0,045
341,216	225,400	-0,123	-0,136
342,231	489,446	-0,101	-0,159
343,246	-111,467	-0,034	-0,005
344,260	800,000	-0,033	0,063
345,275	154,264	-0,086	-0,081
346,289	-200,000	-0,019	-0,087
347,304	619,787	-0,186	-0,321
348,319	-200,000	-0,066	-0,265
349,333	-93,471	-0,267	-0,050
350,348	-13,850	-0,146	-0,064
351,362	125,726	-0,192	-0,166
352,377	-47,635	-0,198	-0,066
353,392	-1,531	-0,157	-0,075
354,406	0,784	-0,176	-0,086
355,421	209,187	1314,444	1411,703
356,435	160,987	1475,126	1412,176
