DTS Sentinel unit serial number:	SN410029Multiplexer serial number:	ORYXHardware model number:	OX2-SRSoftware version number:	ORYX F/W v4,00 Oryx Data Collector v3.7.2.0data status	okinstallation	B3 Nyhavnadifferential loss correction	single-endedforward channel	channel 1reverse channel	N/Adate	2023/11/30time	20:42:30forward acquisition time	300,00reverse acquisition time	0,00gamma	499,1914k internal	0,3208k external	0,3208temperature offset calibration	1,0000default loss term (dB/km)	0,3820temperature slope calibration	1,0000multiplexer offset coefficient	1,0000multiplexer slope coefficient	1,0000fibre end	0,00T internal ref (°C)	11,10T ext. ref 1 (°C)	-4,28T ext. ref 2 (°C)	-4,41length (m)	temperature (°C)	Stokes	anti-Stokes-744,400	331,324	-0,102	-0,143
-743,385	800,000	-0,099	0,312
-742,371	207,604	-0,211	-0,240
-741,356	-200,000	-0,066	0,614
-740,342	56,928	-0,192	-0,136
-739,327	-200,000	-0,021	0,187
-738,312	245,693	-0,271	-0,332
-737,298	-200,000	0,005	0,199
-736,283	304,030	-0,184	-0,248
-735,269	-200,000	-0,001	0,413
-734,254	26,492	-0,216	-0,131
-733,239	-41,866	-0,288	0,106
-732,225	615,194	-0,148	-0,270
-731,210	-89,203	0,102	-0,022
-730,196	-200,000	-0,016	-0,114
-729,181	-24,349	0,129	-0,056
-728,167	16,110	-0,082	0,047
-727,152	-108,826	0,048	0,007
-726,137	125,451	-0,102	-0,093
-725,123	800,000	-0,060	-0,127
-724,108	-127,099	-0,084	-0,009
-723,094	-200,000	0,008	-0,051
-722,079	-200,000	-0,032	-0,168
-721,064	-200,000	-0,020	-0,095
-720,050	-72,428	0,078	0,021
-719,035	779,914	-0,059	-0,118
-718,021	-24,239	-0,059	0,025
-717,006	-200,000	-0,007	0,094
-715,991	800,000	-0,107	-0,266
-714,977	-115,335	0,072	0,010
-713,962	278,855	0,071	-0,092
-712,948	-200,000	-0,010	-0,059
-711,933	-80,164	0,081	0,019
-710,918	-100,308	0,099	-0,018
-709,904	68,291	0,048	-0,036
-708,889	-200,000	0,004	-0,064
-707,875	-39,764	-0,052	-0,020
-706,860	282,731	-0,125	0,163
-705,845	-200,000	0,022	0,089
-704,831	119,751	-0,065	0,058
-703,816	-76,535	-0,140	0,035
-702,802	-200,000	0,003	-0,012
-701,787	20,585	-0,044	-0,026
-700,772	800,000	0,059	-0,119
-699,758	-136,260	-0,033	0,003
-698,743	-200,000	-0,058	-0,202
-697,729	-200,000	0,033	0,163
-696,714	800,000	-0,046	-0,108
-695,699	-200,000	-0,035	-0,133
-694,685	48,497	-0,130	-0,088
-693,670	405,746	0,044	0,068
-692,656	-121,299	-0,109	0,013
-691,641	-79,335	-0,068	0,016
-690,627	98,848	0,087	0,073
-689,612	-200,000	0,016	-0,066
-688,597	800,000	0,020	-0,059
-687,583	386,610	-0,029	-0,044
-686,568	450,358	-0,061	-0,098
-685,554	-30,223	0,045	-0,018
-684,539	37,224	0,052	-0,033
-683,524	145,130	-0,039	0,038
-682,510	43,972	0,045	0,030
-681,495	-42,473	0,113	-0,042
-680,481	-71,304	-0,100	-0,027
-679,466	-200,000	-0,011	0,163
-678,451	291,383	-0,053	-0,070
-677,437	-200,000	0,002	0,139
-676,422	800,000	-0,010	-0,023
-675,408	83,302	0,009	-0,007
-674,393	7,233	-0,138	0,075
-673,378	-54,314	-0,095	-0,031
-672,364	-200,000	-0,001	0,049
-671,349	-200,000	-0,009	0,040
-670,335	-122,228	-0,059	-0,007
-669,320	800,000	0,013	-0,037
-668,305	216,454	-0,034	0,039
-667,291	-117,850	0,091	-0,012
-666,276	274,089	-0,059	-0,076
-665,262	-200,000	0,023	-0,126
-664,247	-200,000	0,003	-0,194
-663,232	405,821	-0,024	0,037
-662,218	800,000	-0,016	0,040
-661,203	402,412	-0,098	0,150
-660,189	-200,000	0,011	0,093
-659,174	-78,359	-0,132	-0,033
-658,159	-200,000	0,009	-0,058
-657,145	480,353	0,020	-0,033
-656,130	-7,378	0,055	-0,027
-655,116	15,317	0,074	0,042
-654,101	-200,000	0,013	0,067
-653,086	170,608	-0,085	0,088
-652,072	-46,020	0,021	-0,007
-651,057	800,000	0,028	-0,083
-650,043	-200,000	-0,014	-0,050
-649,028	194,439	0,013	0,015
-648,014	-200,000	-0,024	-0,116
-646,999	-200,000	0,001	-0,044
-645,984	-118,874	-0,038	-0,005
-644,970	-145,282	-0,041	0,003
-643,955	-29,902	-0,122	-0,050
-642,941	444,102	-0,031	-0,049
-641,926	252,547	-0,059	0,073
-640,911	68,144	0,154	0,114
-639,897	-167,925	0,073	0,002
-638,882	-200,000	0,015	0,056
-637,868	-54,173	-0,069	-0,023
-636,853	800,000	0,021	-0,067
-635,838	800,000	-0,038	-0,092
-634,824	-109,924	0,175	-0,026
-633,809	-200,000	-0,019	-0,090
-632,795	-115,797	0,104	-0,014
-631,780	178,469	-0,043	0,046
-630,765	-200,000	0,005	-0,069
-629,751	800,000	-0,046	-0,126
-628,736	-71,567	0,122	0,033
-627,722	83,669	0,045	-0,035
-626,707	21,768	0,079	-0,046
-625,692	-130,922	0,129	0,012
-624,678	-2,263	-0,004	-0,002
-623,663	800,000	-0,006	-0,016
-622,649	-200,000	0,013	0,080
-621,634	-2,732	0,030	-0,015
-620,619	41,581	-0,085	-0,055
-619,605	482,678	0,055	0,091
-618,590	-200,000	-0,028	-0,091
-617,576	-200,000	-0,016	-0,235
-616,561	-167,845	0,080	-0,002
-615,546	-200,000	0,003	-0,162
-614,532	800,000	-0,058	-0,153
-613,517	-152,644	0,078	-0,004
-612,503	-137,519	0,044	0,004
-611,488	529,978	0,006	-0,011
-610,474	-160,183	-0,097	-0,004
-609,459	-200,000	-0,024	-0,088
-608,444	159,772	-0,087	0,087
-607,430	-170,990	-0,097	0,002
-606,415	-99,108	-0,106	-0,019
-605,401	-200,000	0,018	0,104
-604,386	-75,277	-0,144	0,037
-603,371	267,089	0,098	0,124
-602,357	-200,000	-0,000	-0,007
-601,342	800,000	0,023	0,065
-600,328	215,373	-0,096	-0,110
-599,313	-200,000	-0,004	-0,069
-598,298	617,423	0,083	0,151
-597,284	-200,000	-0,024	0,084
-596,269	93,017	-0,155	0,126
-595,255	-200,000	-0,009	0,075
-594,240	193,891	-0,076	0,083
-593,225	800,000	-0,044	0,132
-592,211	800,000	0,056	-0,128
-591,196	-200,000	0,007	0,079
-590,182	112,909	-0,061	-0,053
-589,167	-200,000	-0,018	0,151
-588,152	83,116	0,133	0,104
-587,138	-13,442	-0,165	-0,077
-586,123	-200,000	-0,000	0,054
-585,109	18,123	-0,045	0,026
-584,094	355,049	-0,065	-0,093
-583,079	443,528	0,062	-0,098
-582,065	411,695	0,006	0,009
-581,050	-19,492	-0,033	-0,015
-580,036	-200,000	0,019	0,073
-579,021	-200,000	0,017	-0,185
-578,006	800,000	0,036	0,103
-576,992	-200,000	-0,003	0,016
-575,977	-200,000	-0,018	0,120
-574,963	764,018	-0,045	0,089
-573,948	144,309	0,081	-0,078
-572,934	769,298	-0,031	-0,061
-571,919	306,824	-0,066	-0,089
-570,904	800,000	-0,040	-0,107
-569,890	133,678	-0,076	-0,071
-568,875	-200,000	0,002	-0,091
-567,861	-127,017	-0,082	0,009
-566,846	-36,796	0,128	-0,049
-565,831	308,610	0,106	-0,143
-564,817	-153,984	-0,166	-0,008
-563,802	-200,000	0,019	-0,109
-562,788	60,426	-0,070	-0,050
-561,773	800,000	0,012	0,032
-560,758	88,061	0,114	0,091
-559,744	-200,000	0,002	0,056
-558,729	94,508	-0,043	0,035
-557,715	257,453	-0,051	-0,064
-556,700	800,000	0,040	-0,092
-555,685	-61,716	-0,138	-0,042
-554,671	233,642	0,026	-0,031
-553,656	-200,000	-0,013	-0,060
-552,642	209,108	0,065	-0,073
-551,627	800,000	0,025	0,059
-550,612	-46,710	-0,117	-0,041
-549,598	-66,825	-0,114	0,032
-548,583	15,121	-0,040	-0,022
-547,569	-162,457	-0,113	-0,004
-546,554	800,000	-0,032	-0,071
-545,539	468,971	0,074	-0,121
-544,525	-73,036	0,128	0,034
-543,510	74,125	-0,027	-0,020
-542,496	57,025	-0,048	0,034
-541,481	-200,000	0,035	-0,129
-540,466	-100,807	-0,164	-0,029
-539,452	-200,000	0,002	0,007
-538,437	40,506	0,099	0,064
-537,423	800,000	-0,027	0,067
-536,408	-124,667	0,050	0,005
-535,393	72,051	-0,148	-0,111
-534,379	-14,719	-0,241	-0,111
-533,364	-28,276	-0,013	-0,005
-532,350	41,732	-0,054	0,035
-531,335	-200,000	-0,029	0,193
-530,321	451,449	0,037	0,060
-529,306	-200,000	0,002	-0,080
-528,291	-200,000	-0,023	0,133
-527,277	470,616	-0,038	0,061
-526,262	-200,000	0,008	0,027
-525,248	-39,471	-0,089	-0,034
-524,233	96,830	-0,065	0,053
-523,218	222,361	0,097	0,113
-522,204	442,201	0,038	0,060
-521,189	-70,785	-0,108	-0,029
-520,175	-29,105	-0,041	-0,017
-519,160	270,061	-0,143	-0,181
-518,145	-25,251	0,134	-0,057
-517,131	800,000	-0,047	0,107
-516,116	578,742	0,061	0,107
-515,102	-74,338	-0,022	-0,006
-514,087	-154,074	0,112	0,005
-513,072	-112,182	0,101	0,014
-512,058	-200,000	0,001	-0,113
-511,043	-75,170	-0,039	-0,010
-510,029	-80,651	0,050	-0,012
-509,014	-70,616	-0,015	-0,004
-507,999	800,000	-0,019	-0,059
-506,985	800,000	0,074	-0,172
-505,970	800,000	0,040	-0,086
-504,956	150,529	-0,057	-0,056
-503,941	-93,640	-0,163	-0,032
-502,926	170,797	-0,128	0,132
-501,912	-200,000	0,005	0,038
-500,897	-200,000	0,018	0,103
-499,883	-143,544	-0,025	0,002
-498,868	-200,000	-0,031	-0,126
-497,853	800,000	-0,080	0,161
-496,839	91,661	0,043	-0,034
-495,824	16,928	-0,067	0,038
-494,810	229,599	0,108	0,127
-493,795	377,345	0,037	-0,055
-492,781	369,427	-0,025	0,036
-491,766	800,000	-0,019	0,048
-490,751	-200,000	-0,003	-0,124
-489,737	-17,575	0,092	0,041
-488,722	-119,346	0,041	0,005
-487,708	142,094	0,146	0,139
-486,693	61,507	-0,122	0,087
-485,678	800,000	-0,026	-0,076
-484,664	-179,405	0,164	-0,003
-483,649	287,720	-0,125	-0,163
-482,635	-200,000	-0,027	0,110
-481,620	174,656	0,102	0,106
-480,605	-181,434	0,098	-0,001
-479,591	-200,000	0,007	0,120
-478,576	-200,000	-0,041	0,139
-477,562	-175,151	-0,091	-0,002
-476,547	-147,742	0,118	-0,007
-475,532	-200,000	0,043	-0,158
-474,518	211,881	-0,096	0,109
-473,503	-200,000	0,007	0,148
-472,489	181,484	0,057	0,060
-471,474	-163,913	0,081	0,003
-470,459	44,692	-0,075	-0,050
-469,445	800,000	-0,038	0,081
-468,430	-200,000	0,064	0,209
-467,416	800,000	-0,006	0,017
-466,401	91,905	0,122	0,099
-465,386	-130,296	0,070	-0,007
-464,372	800,000	-0,046	-0,099
-463,357	202,177	-0,123	0,136
-462,343	800,000	0,027	0,071
-461,328	-200,000	-0,015	-0,116
-460,313	-55,894	0,135	0,043
-459,299	-119,980	0,050	-0,006
-458,284	800,000	-0,053	-0,122
-457,270	-105,700	0,118	0,019
-456,255	-101,243	-0,089	-0,015
-455,241	341,434	0,082	-0,115
-454,226	194,740	0,084	0,092
-453,211	500,100	-0,033	-0,054
-452,197	-150,362	-0,122	0,007
-451,182	169,976	0,120	0,124
-450,168	-17,314	0,053	-0,024
-449,153	-60,732	-0,068	0,021
-448,138	-200,000	-0,004	-0,019
-447,124	451,541	0,068	-0,109
-446,109	167,882	0,052	0,053
-445,095	800,000	0,058	0,116
-444,080	38,805	0,110	0,071
-443,065	-10,198	-0,029	0,014
-442,051	31,660	-0,087	-0,053
-441,036	-37,677	0,041	-0,016
-440,022	306,755	0,054	-0,073
-439,007	800,000	-0,034	0,108
-437,992	56,385	0,026	-0,018
-436,978	800,000	0,011	-0,030
-435,963	29,068	0,158	0,096
-434,949	214,855	0,022	-0,025
-433,934	-200,000	-0,004	0,062
-432,919	-66,355	-0,102	0,029
-431,905	800,000	-0,044	0,124
-430,890	-200,000	0,005	0,204
-429,876	48,766	0,084	0,056
-428,861	-67,714	-0,130	0,036
-427,846	437,199	-0,112	0,175
-426,832	800,000	-0,019	-0,045
-425,817	-141,276	-0,085	-0,006
-424,803	-91,293	0,111	-0,022
-423,788	-155,510	-0,115	-0,005
-422,773	-91,983	0,175	0,035
-421,759	800,000	0,023	0,046
-420,744	-135,342	-0,059	-0,005
-419,730	432,185	-0,052	-0,082
-418,715	43,348	0,050	-0,033
-417,701	262,170	-0,017	-0,021
-416,686	241,606	0,051	0,062
-415,671	6,854	-0,029	0,016
-414,657	153,734	0,106	-0,104
-413,642	-200,000	0,006	-0,064
-412,628	-200,000	-0,013	-0,061
-411,613	-147,760	0,032	0,002
-410,598	-35,468	-0,047	-0,018
-409,584	-50,644	-0,031	-0,011
-408,569	786,982	-0,067	0,133
-407,555	800,000	0,027	-0,078
-406,540	-56,705	0,090	0,028
-405,525	800,000	-0,009	-0,024
-404,511	-158,844	0,068	-0,003
-403,496	800,000	-0,048	-0,106
-402,482	584,201	-0,034	0,059
-401,467	-200,000	0,014	-0,081
-400,452	-200,000	-0,029	-0,102
-399,438	-200,000	-0,027	-0,216
-398,423	800,000	-0,040	-0,112
-397,409	-123,121	0,032	-0,004
-396,394	137,621	0,150	-0,140
-395,379	300,678	-0,052	-0,068
-394,365	-17,254	-0,062	0,028
-393,350	800,000	0,039	0,103
-392,336	349,066	0,069	0,098
-391,321	261,612	-0,065	-0,081
-390,306	800,000	-0,018	-0,057
-389,292	-200,000	0,006	-0,102
-388,277	451,019	-0,077	-0,122
-387,263	42,262	0,050	-0,032
-386,248	35,738	0,047	0,029
-385,233	175,086	0,044	-0,045
-384,219	-20,751	-0,199	-0,087
-383,204	128,590	0,043	-0,039
-382,190	740,838	-0,041	-0,079
-381,175	702,542	0,003	0,006
-380,160	159,289	0,106	0,106
-379,146	508,813	0,040	-0,067
-378,131	33,269	0,092	-0,057
-377,117	-200,000	-0,007	-0,049
-376,102	639,808	-0,066	0,120
-375,088	-61,315	0,100	0,030
-374,073	-144,572	-0,072	-0,005
-373,058	-200,000	-0,011	-0,051
-372,044	-136,557	0,071	0,006
-371,029	800,000	-0,038	0,111
-370,015	-67,531	-0,093	0,026
-369,000	83,884	-0,149	0,116
-367,985	-200,000	0,020	0,075
-366,971	-27,760	-0,052	-0,022
-365,956	800,000	0,039	-0,090
-364,942	-200,000	0,001	0,190
-363,927	-32,218	0,074	0,029
-362,912	576,114	-0,078	-0,137
-361,898	-150,438	0,061	-0,003
-360,883	-80,007	-0,235	0,056
-359,869	-200,000	0,006	0,035
-358,854	-19,087	-0,036	0,016
-357,839	47,353	0,051	0,034
-356,825	800,000	0,027	0,057
-355,810	-200,000	0,027	-0,132
-354,796	207,039	0,025	-0,028
-353,781	234,233	-0,038	-0,045
-352,766	553,386	0,054	0,094
-351,752	-200,000	-0,018	0,056
-350,737	376,233	0,039	0,057
-349,723	29,319	0,070	-0,042
-348,708	-200,000	-0,002	0,102
-347,693	163,286	-0,072	0,073
-346,679	53,257	0,025	-0,017
-345,664	-108,202	-0,197	0,030
-344,650	48,779	0,056	0,038
-343,635	-200,000	-0,005	-0,052
-342,620	-200,000	0,001	-0,107
-341,606	-31,232	-0,067	0,027
-340,591	-200,000	-0,002	0,047
-339,577	800,000	-0,016	-0,045
-338,562	418,480	-0,079	-0,121
-337,548	-157,281	0,152	0,006
-336,533	-92,898	0,083	-0,016
-335,518	404,958	0,100	0,151
-334,504	360,181	0,024	-0,035
-333,489	800,000	-0,030	-0,076
-332,475	800,000	-0,027	-0,079
-331,460	180,805	-0,014	0,015
-330,445	166,469	-0,007	-0,007
-329,431	-200,000	0,008	0,081
-328,416	3,476	-0,030	0,015
-327,402	-17,965	0,076	-0,034
-326,387	-93,121	0,162	-0,032
-325,372	31,982	0,021	-0,013
-324,358	-200,000	0,023	-0,207
-323,343	29,444	0,073	-0,044
-322,329	29,785	-0,038	-0,023
-321,314	-200,000	0,014	0,146
-320,299	132,528	0,109	0,100
-319,285	-78,827	0,077	-0,019
-318,270	486,233	0,034	0,056
-317,256	-89,008	-0,104	-0,022
-316,241	333,291	-0,027	0,038
-315,226	-31,415	-0,104	0,041
-314,212	470,300	0,001	-0,002
-313,197	-5,254	0,108	0,053
-312,183	250,409	0,071	0,086
-311,168	-25,206	-0,067	-0,028
-310,153	66,480	0,015	-0,011
-309,139	-151,137	-0,060	-0,003
-308,124	596,588	-0,003	0,005
-307,110	-72,140	0,125	-0,033
-306,095	800,000	0,065	-0,151
-305,080	800,000	-0,044	-0,102
-304,066	-200,000	0,012	-0,155
-303,051	-200,000	0,029	-0,119
-302,037	-150,394	-0,149	-0,008
-301,022	37,656	0,077	0,049
-300,008	135,777	0,067	0,062
-298,993	-45,577	0,083	0,029
-297,978	76,625	-0,063	0,047
-296,964	190,414	-0,060	0,065
-295,949	-12,208	0,085	0,039
-294,935	-160,275	-0,027	-0,001
-293,920	-177,815	-0,081	-0,001
-292,905	109,108	-0,032	-0,027
-291,891	-200,000	-0,005	0,064
-290,876	-54,571	0,177	0,057
-289,862	-200,000	-0,009	-0,033
-288,847	-22,528	0,022	0,009
-287,832	755,710	0,004	-0,007
-286,818	-27,274	0,149	-0,061
-285,803	800,000	0,052	-0,129
-284,789	-200,000	0,021	0,090
-283,774	-200,000	-0,004	-0,049
-282,759	-200,000	0,009	-0,069
-281,745	-55,426	-0,019	0,006
-280,730	-200,000	0,003	-0,044
-279,716	-64,957	-0,096	-0,027
-278,701	-27,172	0,101	0,042
-277,686	-74,515	0,053	0,014
-276,672	800,000	-0,029	-0,082
-275,657	412,280	-0,003	0,005
-274,643	-22,862	-0,129	0,055
-273,628	-172,035	0,179	-0,004
-272,613	-200,000	0,022	0,071
-271,599	800,000	0,030	0,088
-270,584	-48,140	0,103	0,035
-269,570	800,000	-0,006	0,016
-268,555	-1,483	0,040	0,020
-267,540	-200,000	-0,025	-0,079
-266,526	-200,000	-0,004	0,028
-265,511	90,940	-0,073	0,059
-264,497	-127,371	-0,010	-0,001
-263,482	-53,780	0,073	0,024
-262,467	-200,000	0,013	-0,061
-261,453	-29,626	-0,078	-0,031
-260,438	281,697	-0,034	0,043
-259,424	-10,956	-0,051	-0,024
-258,409	125,989	0,073	0,065
-257,395	50,584	0,035	-0,024
-256,380	-35,734	0,115	-0,044
-255,365	-41,739	-0,096	-0,035
-254,351	-73,682	0,032	-0,008
-253,336	82,256	0,042	0,033
-252,322	123,741	-0,164	-0,147
-251,307	800,000	0,046	-0,097
-250,292	100,933	0,065	0,053
-249,278	800,000	0,032	-0,088
-248,263	-67,804	0,035	0,010
-247,249	-200,000	-0,013	0,163
-246,234	-33,022	0,052	-0,020
-245,219	35,679	-0,131	-0,082
-244,205	88,730	-0,113	0,089
-243,190	-150,480	-0,096	0,005
-242,176	120,674	-0,107	-0,095
-241,161	-93,864	-0,044	0,009
-240,146	23,620	0,064	-0,037
-239,132	-200,000	-0,023	-0,123
-238,117	-200,000	-0,042	-0,161
-237,103	-72,037	0,077	-0,020
-236,088	-26,541	-0,041	-0,017
-235,073	-200,000	0,017	0,153
-234,059	60,396	0,045	0,031
-233,044	426,854	-0,073	-0,112
-232,030	660,762	-0,088	0,163
-231,015	-73,854	-0,129	-0,033
-230,000	-14,331	-0,111	-0,051
-228,986	-200,000	0,000	0,053
-227,971	-74,126	0,099	-0,025
-226,957	-54,768	-0,029	0,009
-225,942	-34,849	-0,068	-0,026
-224,927	-113,543	-0,024	0,003
-223,913	75,598	0,106	-0,079
-222,898	74,250	-0,110	0,082
-221,884	67,737	0,093	-0,067
-220,869	57,321	0,196	0,136
-219,855	-76,717	-0,016	0,004
-218,840	361,570	0,045	-0,065
-217,825	312,122	-0,068	0,091
-216,811	-105,217	0,144	-0,023
-215,796	-200,000	-0,018	-0,099
-214,782	23,236	0,034	-0,020
-213,767	-200,000	0,001	0,016
-212,752	-152,761	0,064	-0,003
-211,738	-133,017	0,021	-0,002
-210,723	-200,000	-0,041	0,160
-209,709	800,000	-0,063	0,124
-208,694	7,942	0,086	-0,046
-207,679	707,025	-0,023	0,044
-206,665	800,000	0,013	-0,039
-205,650	800,000	0,025	0,074
-204,636	127,351	0,100	0,090
-203,621	-72,395	-0,119	0,031
-202,606	-200,000	0,018	0,085
-201,592	-200,000	-0,013	-0,041
-200,577	-200,000	0,018	0,063
-199,563	130,639	-0,015	0,014
-198,548	800,000	0,052	0,127
-197,533	139,367	-0,081	-0,076
-196,519	800,000	0,053	0,136
-195,504	-0,332	0,026	0,013
-194,490	12,615	-0,130	-0,071
-193,475	140,707	0,041	0,038
-192,460	84,964	0,085	-0,066
-191,446	-200,000	-0,005	0,029
-190,431	368,327	-0,023	0,034
-189,417	-131,577	-0,026	-0,002
-188,402	367,741	0,049	-0,070
-187,387	-37,952	0,103	0,039
-186,373	-200,000	-0,008	-0,086
-185,358	800,000	-0,040	0,117
-184,344	-200,000	0,007	-0,063
-183,329	61,593	0,100	-0,070
-182,315	-10,470	0,069	0,033
-181,300	776,029	-0,035	0,067
-180,285	468,677	0,054	-0,087
-179,271	24,521	-0,133	0,078
-178,256	800,000	0,037	-0,087
-177,242	673,182	-0,059	-0,109
-176,227	-18,862	0,201	0,089
-175,212	800,000	0,038	0,096
-174,198	800,000	0,010	0,021
-173,183	369,169	0,006	-0,009
-172,169	800,000	0,033	-0,073
-171,154	-85,321	-0,129	0,028
-170,139	-28,782	0,235	-0,096
-169,125	-200,000	-0,031	0,120
-168,110	363,861	-0,043	-0,061
-167,096	181,020	0,103	-0,107
-166,081	38,927	-0,107	0,068
-165,066	66,606	-0,174	-0,125
-164,052	-105,393	-0,096	-0,015
-163,037	-139,532	-0,107	-0,008
-162,023	424,460	-0,045	0,069
-161,008	-98,568	-0,024	-0,004
-159,993	-200,000	0,031	0,131
-158,979	-200,000	-0,007	0,042
-157,964	306,613	-0,101	0,134
-156,950	-15,092	0,082	-0,037
-155,935	-200,000	0,027	-0,087
-154,920	88,536	-0,070	0,055
-153,906	800,000	-0,051	0,107
-152,891	211,789	0,046	0,052
-151,877	-200,000	-0,001	-0,017
-150,862	553,494	-0,028	-0,048
-149,847	-144,111	-0,113	-0,007
-148,833	800,000	-0,044	-0,097
-147,818	232,754	-0,045	-0,052
-146,804	-200,000	-0,006	-0,024
-145,789	-200,000	-0,003	-0,052
-144,775	-200,000	-0,016	0,051
-143,760	-13,790	-0,076	-0,035
-142,745	49,591	-0,199	-0,133
-141,731	-157,648	0,043	-0,002
-140,716	800,000	0,019	0,055
-139,702	92,750	0,064	-0,051
-138,687	346,169	-0,028	0,039
-137,672	800,000	-0,039	0,088
-136,658	50,554	-0,022	-0,014
-135,643	800,000	-0,062	-0,165
-134,629	149,754	-0,073	0,071
-133,614	42,628	-0,127	0,082
-132,599	-98,474	0,094	-0,017
-131,585	-24,438	0,067	-0,028
-130,570	284,146	0,032	0,040
-129,556	8,775	-0,054	0,029
-128,541	-200,000	-0,009	-0,081
-127,526	363,219	0,065	-0,093
-126,512	339,100	0,086	0,119
-125,497	-200,000	0,019	0,131
-124,483	-141,048	0,120	0,009
-123,468	-200,000	0,023	0,105
-122,453	156,536	-0,150	-0,147
-121,439	-49,005	-0,101	0,034
-120,424	753,192	0,071	-0,137
-119,410	38,218	-0,092	-0,058
-118,395	-48,924	0,081	0,027
-117,380	54,060	-0,028	-0,019
-116,366	-200,000	-0,011	-0,041
-115,351	800,000	-0,023	0,071
-114,337	-200,000	-0,017	-0,142
-113,322	143,737	-0,035	0,033
-112,307	-171,362	-0,031	0,001
-111,293	50,007	0,115	-0,077
-110,278	404,279	0,040	0,059
-109,264	-200,000	-0,003	-0,069
-108,249	-200,000	-0,010	-0,068
-107,234	2,520	-0,134	-0,069
-106,220	-200,000	-0,003	-0,136
-105,205	-200,000	0,001	-0,046
-104,191	-200,000	-0,023	0,091
-103,176	-200,000	-0,025	0,085
-102,162	-103,562	-0,045	-0,007
-101,147	-126,381	0,057	-0,006
-100,132	800,000	-0,049	-0,136
-99,118	-158,070	0,075	-0,003
-98,103	330,855	-0,034	0,047
-97,089	-116,236	0,093	0,012
-96,074	-30,214	0,182	0,073
-95,059	800,000	0,092	0,223
-94,045	-100,418	-0,119	-0,021
-93,030	-200,000	-0,040	-0,150
-92,016	-200,000	0,045	-0,142
-91,001	151,703	-0,058	0,056
-89,986	-36,617	0,121	0,046
-88,972	-200,000	0,007	0,079
-87,957	150,646	0,041	-0,039
-86,943	-94,278	0,170	0,033
-85,928	-85,699	-0,157	0,034
-84,913	-78,968	-0,052	0,012
-83,899	77,494	0,193	-0,145
-82,884	-200,000	0,009	-0,057
-81,870	-200,000	0,002	0,191
-80,855	-40,726	0,071	0,026
-79,840	-58,052	-0,141	0,043
-78,826	479,125	-0,024	-0,038
-77,811	-86,244	-0,095	-0,021
-76,797	800,000	-0,015	0,038
-75,782	-200,000	-0,034	0,113
-74,767	-200,000	-0,013	0,139
-73,753	670,795	0,041	0,075
-72,738	800,000	-0,015	0,030
-71,724	-65,045	0,070	-0,020
-70,709	-115,471	0,064	0,008
-69,694	-130,532	-0,177	-0,017
-68,680	-200,000	0,014	0,156
-67,665	87,938	-0,019	-0,015
-66,651	626,413	0,079	0,142
-65,636	4,097	0,042	-0,021
-64,622	-200,000	0,014	-0,059
-63,607	79,333	0,151	-0,115
-62,592	800,000	-0,029	-0,089
-61,578	-165,953	-0,046	0,001
-60,563	-200,000	0,001	0,099
-59,549	-200,000	0,013	-0,067
-58,534	23,146	-1,868	-1,081
-57,519	423,440	-1,285	-1,958
-56,505	-200,000	-0,350	-4,355
-55,490	262,650	0,950	1,168
-54,476	800,000	5,092	11,480
-53,461	-200,000	20,847	331,800
-52,446	800,000	757,373	2327,688
-51,432	550,824	1664,541	2832,093
-50,417	73,846	1667,320	1233,519
-49,403	18,968	1540,425	869,713
-48,388	12,923	1463,281	796,826
-47,373	19,241	1454,080	822,210
-46,359	16,151	1443,372	801,376
-45,344	11,211	1439,180	775,423
-44,330	11,132	1437,409	774,059
-43,315	11,096	1435,163	772,644
-42,300	11,136	1433,650	771,989
-41,286	11,182	1432,164	771,381
-40,271	11,143	1431,165	770,627
-39,257	11,121	1429,963	769,842
-38,242	11,117	1428,956	769,253
-37,227	11,197	1427,609	768,875
-36,213	11,183	1426,391	768,123
-35,198	11,136	1425,404	767,336
-34,184	11,211	1424,403	767,125
-33,169	11,155	1422,953	766,049
-32,154	11,219	1421,886	765,747
-31,140	11,197	1420,624	764,930
-30,125	11,302	1419,416	764,745
-29,111	11,184	1418,528	763,681
-28,096	11,174	1417,436	763,014
-27,082	11,106	1416,399	762,108
-26,067	11,089	1415,153	761,326
-25,052	11,153	1414,038	760,998
-24,038	11,155	1413,072	760,456
-23,023	11,105	1412,237	759,741
-22,009	11,120	1411,004	759,119
-20,994	11,127	1409,885	758,521
-19,979	11,104	1409,116	757,968
-18,965	11,082	1408,307	757,400
-17,950	11,078	1407,298	756,808
-16,936	11,099	1406,405	756,397
-15,921	11,054	1405,429	755,631
-14,906	11,031	1404,507	755,000
-13,892	11,084	1403,398	754,619
-12,877	11,031	1402,853	754,049
-11,863	11,074	1401,687	753,593
-10,848	11,003	1401,190	752,967
-9,833	10,969	1400,323	752,309
-8,819	10,952	1399,448	751,734
-7,804	10,943	1398,405	751,099
-6,790	10,963	1397,265	750,550
-5,775	10,918	1396,269	749,776
-4,760	10,982	1395,268	749,509
-3,746	10,935	1394,331	748,756
-2,731	10,965	1393,465	748,398
-1,717	10,890	1392,884	747,709
-0,702	10,900	1390,832	746,627
0,313	14,832	1304,354	718,292
1,327	30,909	694,965	419,407
2,342	47,758	120,868	79,503
3,356	1,248	16,543	8,359
4,371	16,627	3,346	1,862
5,386	8,404	0,908	0,480
6,400	-200,000	0,034	0,447
7,415	6,693	-0,269	-0,141
8,429	-53,641	-0,262	-0,084
9,444	477,370	-0,161	-0,257
10,459	42,685	-0,315	-0,202
11,473	115,859	-0,219	-0,189
12,488	-165,840	-0,285	0,008
13,502	39,286	-0,234	-0,148
14,517	19,453	-0,215	-0,122
15,531	141,763	-0,351	-0,328
16,546	224,388	-0,284	-0,325
17,561	66,593	-0,296	-0,212
18,575	28,451	-0,171	0,101
19,590	109,236	-0,317	-0,267
20,604	-115,111	-0,217	0,029
21,619	163,035	-0,387	-0,383
22,634	7,301	-0,422	-0,222
23,648	171,363	-0,450	-0,455
24,663	665,760	-0,157	-0,287
25,677	15,538	-0,362	-0,200
26,692	27,033	-0,231	-0,136
27,707	-15,672	-0,224	-0,100
28,721	-135,598	-0,427	-0,035
29,736	49,842	-0,388	-0,257
30,750	39,263	-0,349	-0,219
31,765	51,344	-0,417	-0,278
32,780	87,499	-0,322	-0,250
33,794	40,935	-0,365	-0,231
34,809	161,332	-0,341	-0,336
35,823	-12,429	-0,388	-0,178
36,838	5,403	-0,421	-0,218
37,853	13,448	-0,400	-0,218
38,867	76,926	-0,348	-0,260
39,882	159,208	-0,329	-0,322
40,896	457,866	-0,180	-0,282
41,911	233,780	-0,361	-0,418
42,926	14,318	-0,442	-0,242
43,940	239,869	-0,305	-0,357
44,955	146,616	-0,237	-0,224
45,969	192,002	-0,274	-0,291
46,984	330,074	-0,244	-0,331
47,999	30,768	-0,319	-0,192
49,013	95,680	-0,193	-0,155
50,028	6,593	-0,336	-0,175
51,042	-25,338	-0,397	-0,164
52,057	-11,082	-0,307	-0,142
53,071	6,001	-0,524	-0,272
54,086	162,491	-0,316	-0,311
55,101	-1,797	-0,286	-0,141
56,115	128,372	-0,272	-0,243
57,130	209,270	-0,293	-0,323
58,144	79,443	-0,371	-0,279
59,159	-5,980	-0,582	-0,279
60,174	53,962	-0,274	-0,184
61,188	87,782	-0,386	-0,300
62,203	33,720	-0,293	-0,179
63,217	-43,740	-0,377	-0,133
64,232	169,125	-0,208	-0,208
65,247	118,044	-0,259	-0,224
66,261	93,447	-0,355	-0,282
67,276	-9,961	-0,397	-0,185
68,290	115,706	-0,305	-0,261
69,305	-51,270	-0,369	-0,120
70,320	2,578	-0,322	-0,163
71,334	128,403	-0,224	-0,200
72,349	-36,688	-0,389	-0,146
73,363	119,359	-0,280	-0,243
74,378	29,738	-0,254	-0,151
75,393	44,115	-0,314	-0,202
76,407	74,098	-0,272	-0,200
77,422	-1,944	-0,255	-0,125
78,436	-81,244	-0,264	-0,061
79,451	41,538	-0,277	-0,175
80,466	-76,605	-0,431	-0,105
81,480	92,633	-0,286	-0,226
82,495	168,415	-0,245	-0,245
83,509	158,580	-0,211	-0,205
84,524	-43,806	-0,117	-0,041
85,539	-42,557	-0,175	-0,062
86,553	-53,242	-0,247	-0,079
87,568	4,569	-0,271	-0,139
88,582	171,922	-0,281	-0,283
89,597	219,346	-0,253	-0,284
90,611	190,786	-0,277	-0,292
91,626	491,113	-0,192	-0,308
92,641	-142,998	-0,272	-0,018
93,655	109,280	-0,266	-0,223
94,670	-61,273	-0,314	-0,092
95,684	51,813	-0,355	-0,236
96,699	381,376	-0,148	-0,213
97,714	-53,447	-0,281	-0,090
98,728	48,839	-0,248	-0,162
99,743	-26,626	-0,180	-0,073
100,757	64,026	-0,264	-0,186
101,772	65,137	-0,393	-0,277
102,787	-61,464	-0,278	-0,081
103,801	13,709	-0,300	-0,163
104,816	-128,618	-0,306	-0,030
105,830	73,173	-0,233	-0,170
106,845	-96,113	-0,288	-0,053
107,860	82,723	-0,379	-0,288
108,874	53,461	-0,311	-0,208
109,889	-58,194	-0,317	-0,096
110,903	161,630	-0,252	-0,247
111,918	82,229	-0,313	-0,237
112,933	237,125	-0,203	-0,235
113,947	-44,700	-0,225	-0,078
114,962	-85,687	-0,267	-0,057
115,976	9,885	-0,308	-0,163
116,991	86,098	-0,381	-0,293
118,006	-19,227	-0,213	-0,092
119,020	-46,152	-0,264	-0,090
120,035	-148,799	-0,261	0,015
121,049	-28,968	-0,126	-0,050
122,064	112,208	-0,316	-0,267
123,079	-31,191	-0,245	-0,096
124,093	-91,260	-0,289	-0,057
125,108	648,984	-0,144	-0,258
126,122	-33,260	-0,416	-0,160
127,137	123,208	-0,268	-0,234
128,151	61,971	-0,144	-0,100
129,166	-42,603	-0,261	-0,092
130,181	21,596	-0,358	-0,203
131,195	145,312	-0,144	-0,135
132,210	-41,312	-0,202	-0,072
133,224	-39,788	-0,171	-0,062
134,239	150,859	-0,097	-0,092
135,254	353,527	-0,212	-0,295
136,268	800,000	-0,060	-0,164
137,283	337,206	-0,172	-0,234
138,297	9,445	-0,292	-0,154
139,312	91,571	-0,233	-0,182
140,327	-30,249	-0,277	-0,109
141,341	71,320	-0,162	-0,117
142,356	-76,903	-0,224	-0,054
143,370	166,339	-0,308	-0,305
144,385	153,811	-0,247	-0,236
145,400	193,093	-0,194	-0,204
146,414	-17,884	-0,288	-0,125
147,429	34,217	-0,354	-0,215
148,443	76,392	-0,279	-0,205
149,458	-80,939	-0,193	-0,044
150,473	-136,077	-0,269	0,022
151,487	167,737	-0,178	-0,177
152,502	519,547	-0,204	-0,334
153,516	52,858	-0,360	-0,240
154,531	-11,157	-0,310	-0,142
155,546	-54,873	-0,211	-0,066
156,560	178,789	-0,162	-0,165
157,575	159,869	-0,217	-0,211
158,589	125,076	-0,109	-0,096
159,604	172,605	-0,263	-0,264
160,619	-200,000	-0,041	-0,142
161,633	56,369	-0,333	-0,225
162,648	190,871	-0,277	-0,291
163,662	356,760	-0,187	-0,259
164,677	373,459	-0,222	-0,315
165,692	222,129	-0,161	-0,181
166,706	51,737	-0,317	-0,209
167,721	46,174	-0,277	-0,178
168,735	179,926	-0,244	-0,249
169,750	-30,692	-0,252	-0,099
170,764	23,248	-0,219	-0,125
171,779	-101,284	-0,233	-0,039
172,794	11,018	-0,221	-0,117
173,808	370,639	-0,120	-0,169
174,823	-26,176	-0,304	-0,124
175,837	119,271	-0,207	-0,178
176,852	-87,776	-0,222	-0,046
177,867	-75,771	-0,192	-0,047
178,881	48,220	-0,225	-0,146
179,896	-145,315	-0,280	-0,017
180,910	115,312	-0,280	-0,237
181,925	176,831	-0,183	-0,185
182,940	275,066	-0,210	-0,259
183,954	83,294	-0,307	-0,232
184,969	99,610	-0,305	-0,245
185,983	225,282	-0,169	-0,190
186,998	366,837	-0,144	-0,202
188,013	33,319	-0,143	-0,086
189,027	11,017	-0,225	-0,119
190,042	266,288	-0,273	-0,331
191,056	455,629	-0,172	-0,265
192,071	322,517	-0,192	-0,255
193,086	170,439	-0,169	-0,168
194,100	165,285	-0,172	-0,169
195,115	123,175	-0,122	-0,106
196,129	800,000	-0,100	-0,209
197,144	42,254	-0,238	-0,150
198,159	340,673	-0,128	-0,173
199,173	-200,000	-0,056	-0,208
200,188	-106,012	-0,149	-0,023
201,202	134,944	-0,154	-0,139
202,217	59,011	-0,125	-0,085
203,232	49,983	-0,146	-0,095
204,246	201,629	-0,236	-0,252
205,261	54,742	-0,238	-0,159
206,275	-200,000	-0,041	-0,299
207,290	800,000	-0,053	-0,150
208,304	-21,337	-0,142	-0,060
209,319	-64,613	-0,258	-0,072
210,334	800,000	-0,069	-0,158
211,348	24,197	-0,157	-0,090
212,363	283,727	-0,183	-0,228
213,377	144,879	-0,171	-0,158
214,392	477,439	-0,104	-0,164
215,407	800,000	-0,070	-0,199
216,421	343,131	-0,083	-0,113
217,436	48,585	-0,285	-0,185
218,450	800,000	-0,129	-0,293
219,465	64,846	-0,173	-0,121
220,480	218,775	-0,211	-0,234
221,494	-200,000	-0,023	-0,136
222,509	158,071	-0,160	-0,153
223,523	2,793	-0,138	-0,069
224,538	7,873	-0,276	-0,143
225,553	495,473	-0,211	-0,337
226,567	93,672	-0,267	-0,209
227,582	-20,602	-0,208	-0,088
228,596	199,567	-0,215	-0,229
229,611	57,256	-0,126	-0,085
230,626	-82,272	-0,123	-0,028
231,640	297,800	-0,138	-0,176
232,655	138,371	-0,189	-0,172
233,669	47,485	-0,337	-0,217
234,684	80,881	-0,174	-0,130
235,699	-78,838	-0,181	-0,042
236,713	-149,663	-0,055	-0,003
237,728	332,251	-0,107	-0,143
238,742	644,758	-0,120	-0,213
239,757	84,298	-0,188	-0,142
240,772	800,000	-0,096	-0,228
241,786	167,597	-0,233	-0,230
242,801	-135,596	-0,192	-0,016
243,815	42,886	-0,042	0,027
244,830	800,000	-0,053	-0,158
245,844	-103,153	-0,150	-0,024
246,859	15,103	-0,239	-0,129
247,874	111,575	-0,189	-0,157
248,888	272,356	-0,107	-0,130
249,903	130,224	-0,163	-0,144
250,917	-80,392	-0,071	0,016
251,932	117,654	-0,095	-0,081
252,947	260,725	-0,156	-0,186
253,961	-200,000	-0,030	-0,135
254,976	44,558	-0,187	-0,118
255,990	-15,846	-0,200	-0,087
257,005	154,788	-0,215	-0,204
258,020	123,993	-0,141	-0,122
259,034	46,720	-0,259	-0,166
260,049	-143,346	-0,074	-0,005
261,063	-68,867	-0,219	-0,058
262,078	255,080	-0,163	-0,193
263,093	143,120	-0,198	-0,182
264,107	92,773	-0,139	-0,108
265,122	-182,661	-0,270	0,003
266,136	280,408	-0,160	-0,198
267,151	-11,403	-0,047	0,021
268,166	-100,236	-0,072	0,012
269,180	246,846	-0,188	-0,219
270,195	464,432	-0,190	-0,294
271,209	-200,000	-0,014	-0,128
272,224	-106,149	-0,218	-0,033
273,239	800,000	-0,052	-0,101
274,253	-126,778	-0,226	-0,023
275,268	246,021	-0,169	-0,196
276,282	54,549	-0,185	-0,123
277,297	-63,462	-0,303	-0,085
278,312	-57,019	-0,136	-0,041
279,326	-23,946	-0,150	-0,062
280,341	602,968	-0,091	-0,156
281,355	-82,379	-0,158	-0,035
282,370	-21,529	-0,101	-0,042
283,384	199,825	-0,088	-0,093
284,399	-125,700	-0,223	-0,023
285,414	191,772	-0,152	-0,158
286,428	80,856	-0,217	-0,161
287,443	532,760	-0,062	0,101
288,457	-200,000	-0,027	0,098
289,472	13,382	-0,264	-0,140
290,487	206,153	-0,173	-0,186
291,501	800,000	-0,103	-0,222
292,516	312,137	-0,134	-0,173
293,530	800,000	-0,087	-0,228
294,545	615,080	-0,025	0,043
295,560	-54,876	-0,176	-0,054
296,574	-25,197	-0,233	-0,095
297,589	-118,628	-0,200	-0,024
298,603	141,600	-0,134	-0,122
299,618	502,769	-0,068	-0,108
300,633	516,355	-0,108	-0,174
301,647	140,171	-0,244	-0,222
302,662	-139,570	-0,162	-0,012
303,676	-106,760	-0,156	0,024
304,691	64,126	-0,094	-0,065
305,706	59,550	-0,243	-0,164
306,720	62,653	-0,118	-0,081
307,735	27,883	-0,232	-0,134
308,749	800,000	-0,049	-0,120
309,764	-37,918	-0,098	-0,035
310,779	800,000	-0,064	-0,143
311,793	-15,766	-0,241	-0,105
312,808	-59,996	-0,231	-0,067
313,822	638,876	-0,130	-0,227
314,837	-200,000	0,006	-0,144
315,852	-49,233	-0,155	-0,050
316,866	54,970	-0,073	0,048
317,881	306,366	-0,066	-0,084
318,895	800,000	-0,025	-0,063
319,910	260,315	-0,109	-0,130
320,925	800,000	-0,082	-0,215
321,939	35,380	-0,188	-0,113
322,954	19,000	-0,097	-0,053
323,968	292,323	-0,129	-0,162
324,983	93,011	-0,133	-0,103
325,997	72,815	-0,206	-0,147
327,012	-66,169	-0,228	-0,062
328,027	52,810	-0,097	-0,063
329,041	-200,000	-0,041	-0,135
330,056	385,938	-0,072	-0,102
331,070	78,017	-0,206	-0,150
332,085	205,298	-0,093	-0,100
333,100	-20,811	-0,149	-0,062
334,114	800,000	-0,022	-0,048
335,129	137,461	-0,107	-0,096
336,143	-39,987	-0,048	-0,017
337,158	-38,278	-0,117	-0,042
338,173	-117,912	-0,127	-0,015
339,187	154,997	-0,094	-0,089
340,202	239,564	-0,169	-0,193
341,216	23,581	-0,128	-0,072
342,231	-200,000	-0,009	-0,030
343,246	-200,000	-0,038	-0,117
344,260	-32,655	-0,190	-0,072
345,275	-1,124	-0,107	0,051
346,289	-200,000	-0,024	0,116
347,304	-42,773	-0,176	0,061
348,319	639,358	-0,052	-0,091
349,333	555,134	-0,137	-0,227
350,348	-200,000	0,024	-0,109
351,362	33,710	-0,027	-0,016
352,377	-200,000	-0,002	-0,157
353,392	327,949	-0,104	-0,137
354,406	-92,125	-0,132	-0,025
355,421	208,260	1310,856	1404,012
356,435	160,237	1471,095	1404,484
