DTS Sentinel unit serial number:	SN410029Multiplexer serial number:	ORYXHardware model number:	OX2-SRSoftware version number:	ORYX F/W v4,00 Oryx Data Collector v3.7.2.0data status	okinstallation	B3 Nyhavnadifferential loss correction	single-endedforward channel	channel 1reverse channel	N/Adate	2023/12/04time	14:02:30forward acquisition time	300,00reverse acquisition time	0,00gamma	499,1914k internal	0,3201k external	0,3201temperature offset calibration	1,0000default loss term (dB/km)	0,3820temperature slope calibration	1,0000multiplexer offset coefficient	1,0000multiplexer slope coefficient	1,0000fibre end	0,00T internal ref (°C)	14,99T ext. ref 1 (°C)	0,22T ext. ref 2 (°C)	0,21length (m)	temperature (°C)	Stokes	anti-Stokes-744,400	173,758	-0,230	-0,241
-743,385	-200,000	0,088	0,367
-742,371	800,000	-0,063	-0,156
-741,356	-200,000	0,041	0,251
-740,342	800,000	-0,090	-0,221
-739,327	655,314	0,146	0,274
-738,312	206,814	-0,304	-0,345
-737,298	800,000	0,078	0,183
-736,283	126,375	-0,189	-0,174
-735,269	-200,000	0,072	0,284
-734,254	296,569	-0,203	-0,272
-733,239	-200,000	-0,010	0,096
-732,225	120,194	-0,130	-0,117
-731,210	278,666	-0,026	-0,033
-730,196	-111,858	-0,025	0,004
-729,181	72,209	-0,123	-0,093
-728,167	-53,678	0,129	-0,042
-727,152	-91,991	-0,133	-0,027
-726,137	6,778	-0,046	-0,025
-725,123	-200,000	-0,010	-0,120
-724,108	-15,748	-0,186	-0,086
-723,094	-200,000	-0,020	-0,122
-722,079	-8,820	-0,156	-0,076
-721,064	94,060	0,066	-0,054
-720,050	-200,000	0,043	-0,145
-719,035	311,597	-0,071	0,097
-718,021	-200,000	-0,021	-0,208
-717,006	-200,000	-0,040	-0,185
-715,991	-200,000	-0,047	-0,179
-714,977	132,655	-0,018	-0,017
-713,962	-73,847	-0,073	-0,019
-712,948	128,521	0,043	0,040
-711,933	323,486	-0,077	0,107
-710,918	69,690	-0,041	-0,031
-709,904	-94,319	-0,130	-0,026
-708,889	-104,411	-0,164	0,027
-707,875	-200,000	0,005	-0,019
-706,860	139,642	0,067	0,064
-705,845	148,284	0,109	0,107
-704,831	399,556	0,061	0,093
-703,816	800,000	-0,067	-0,166
-702,802	-158,248	-0,077	-0,003
-701,787	80,616	-0,078	-0,061
-700,772	115,057	0,079	-0,070
-699,758	-84,441	-0,141	-0,032
-698,743	-200,000	-0,002	0,064
-697,729	-24,113	0,155	0,067
-696,714	-2,386	0,064	0,033
-695,699	127,534	-0,088	-0,081
-694,685	-200,000	0,003	-0,095
-693,670	800,000	-0,040	-0,089
-692,656	800,000	0,032	0,073
-691,641	-60,431	-0,060	-0,019
-690,627	775,402	-0,060	0,120
-689,612	-76,247	0,129	-0,033
-688,597	-89,886	-0,077	-0,016
-687,583	106,446	-0,024	-0,020
-686,568	-27,433	-0,027	-0,012
-685,554	-200,000	0,007	0,046
-684,539	3,185	0,088	0,046
-683,524	-132,303	-0,127	0,012
-682,510	44,854	0,012	0,008
-681,495	-200,000	-0,001	0,040
-680,481	-200,000	0,011	0,079
-679,466	-200,000	-0,014	-0,067
-678,451	215,060	0,070	0,080
-677,437	327,027	0,103	-0,143
-676,422	414,052	0,043	0,067
-675,408	475,718	0,050	0,083
-674,393	-200,000	0,022	0,072
-673,378	800,000	-0,029	0,079
-672,364	-200,000	0,010	-0,125
-671,349	-200,000	0,012	-0,152
-670,335	-11,424	-0,094	0,045
-669,320	800,000	0,033	-0,089
-668,305	-76,725	0,030	-0,008
-667,291	-200,000	0,022	-0,119
-666,276	800,000	0,046	0,100
-665,262	723,996	-0,034	-0,066
-664,247	-48,422	-0,127	-0,044
-663,232	168,144	-0,038	0,039
-662,218	30,909	-0,056	0,035
-661,203	149,903	0,017	-0,016
-660,189	599,202	-0,065	-0,117
-659,174	-81,858	0,038	0,009
-658,159	800,000	-0,034	-0,107
-657,145	28,486	-0,087	-0,053
-656,130	-200,000	0,010	-0,058
-655,116	-200,000	0,013	-0,165
-654,101	11,838	-0,056	-0,031
-653,086	53,655	-0,083	-0,057
-652,072	344,420	0,036	-0,052
-651,057	184,068	0,067	-0,071
-650,043	-43,360	-0,110	-0,040
-649,028	119,856	-0,110	-0,099
-648,014	-7,708	-0,084	0,041
-646,999	-200,000	-0,003	0,031
-645,984	59,678	-0,063	0,045
-644,970	694,638	-0,038	-0,072
-643,955	800,000	0,018	-0,037
-642,941	109,710	-0,083	-0,072
-641,926	-1,651	0,116	0,059
-640,911	37,847	0,027	0,017
-639,897	90,994	0,009	-0,007
-638,882	-26,040	0,021	-0,009
-637,868	-200,000	-0,001	0,011
-636,853	-60,976	-0,058	-0,018
-635,838	-96,562	-0,140	-0,026
-634,824	197,346	-0,043	-0,047
-633,809	54,240	0,037	0,026
-632,795	-75,813	0,092	0,023
-631,780	166,993	0,055	0,056
-630,765	88,129	0,052	0,042
-629,751	800,000	0,018	-0,037
-628,736	800,000	-0,025	-0,055
-627,722	-200,000	-0,004	-0,027
-626,707	-28,043	-0,137	-0,057
-625,692	800,000	-0,048	0,118
-624,678	-49,898	0,062	-0,021
-623,663	-200,000	-0,006	-0,189
-622,649	174,152	-0,024	0,025
-621,634	-43,504	-0,102	-0,037
-620,619	-163,393	-0,088	0,003
-619,605	242,869	-0,087	0,106
-618,590	3,446	0,023	-0,012
-617,576	505,090	-0,067	-0,112
-616,561	-200,000	-0,017	-0,100
-615,546	-82,007	-0,065	0,015
-614,532	70,123	-0,179	-0,134
-613,517	45,368	0,002	0,001
-612,503	-200,000	0,013	-0,057
-611,488	-200,000	-0,008	-0,042
-610,474	38,866	-0,059	0,038
-609,459	137,591	-0,109	0,103
-608,444	-27,563	-0,061	-0,026
-607,430	132,050	-0,092	-0,086
-606,415	-200,000	0,009	-0,037
-605,401	-42,885	0,052	-0,019
-604,386	-200,000	-0,000	0,031
-603,371	28,198	0,138	-0,084
-602,357	-97,956	0,073	0,013
-601,342	-107,986	-0,092	-0,014
-600,328	-200,000	0,036	-0,151
-599,313	800,000	-0,010	0,031
-598,298	800,000	0,044	0,092
-597,284	-163,953	0,102	0,003
-596,269	-78,347	-0,038	-0,009
-595,255	-200,000	0,011	-0,091
-594,240	-200,000	-0,009	0,046
-593,225	-92,489	-0,027	0,006
-592,211	4,732	0,066	-0,035
-591,196	-1,124	0,146	0,074
-590,182	164,145	-0,087	0,089
-589,167	-200,000	-0,000	-0,039
-588,152	800,000	0,006	0,012
-587,138	-200,000	0,022	0,116
-586,123	800,000	-0,029	0,082
-585,109	-85,610	-0,087	0,019
-584,094	39,027	-0,025	-0,016
-583,079	235,477	-0,038	0,045
-582,065	800,000	-0,026	0,058
-581,050	-99,444	0,089	0,016
-580,036	253,693	-0,021	0,026
-579,021	-2,634	-0,046	-0,023
-578,006	17,619	-0,089	0,051
-576,992	202,002	0,010	0,011
-575,977	-187,129	0,016	-0,000
-574,963	448,610	-0,073	-0,117
-573,948	-169,917	-0,032	-0,001
-572,934	142,347	-0,054	-0,052
-571,919	137,209	0,046	-0,044
-570,904	109,281	-0,153	-0,132
-569,890	-200,000	-0,008	-0,029
-568,875	74,008	0,138	-0,104
-567,861	-28,378	-0,095	0,039
-566,846	775,240	0,070	0,139
-565,831	102,329	0,061	0,052
-564,817	78,571	-0,112	-0,086
-563,802	31,911	-0,131	0,081
-562,788	-200,000	0,006	0,030
-561,773	-114,090	-0,077	-0,011
-560,758	-49,640	-0,053	-0,018
-559,744	-92,648	-0,002	-0,000
-558,729	-200,000	-0,010	0,117
-557,715	-200,000	-0,005	-0,084
-556,700	654,182	-0,059	-0,109
-555,685	-91,464	-0,085	0,017
-554,671	-127,353	0,109	0,011
-553,656	800,000	-0,052	-0,111
-552,642	420,313	-0,058	0,091
-551,627	-11,980	-0,073	0,035
-550,612	-200,000	0,008	-0,059
-549,598	-200,000	-0,030	-0,199
-548,583	-200,000	0,018	-0,067
-547,569	281,663	-0,013	0,017
-546,554	10,625	0,079	0,044
-545,539	-200,000	0,006	0,138
-544,525	-200,000	-0,020	-0,106
-543,510	-200,000	0,028	-0,093
-542,496	40,337	-0,081	0,053
-541,481	118,451	-0,094	-0,084
-540,466	110,539	0,081	-0,071
-539,452	-200,000	0,016	0,114
-538,437	800,000	0,076	0,179
-537,423	-200,000	0,039	0,167
-536,408	425,875	0,055	0,086
-535,393	-200,000	0,016	-0,205
-534,379	-21,590	-0,078	0,034
-533,364	178,652	-0,017	0,018
-532,350	-200,000	0,006	0,267
-531,335	-163,459	0,072	-0,002
-530,321	-200,000	0,000	-0,007
-529,306	-25,375	-0,040	0,017
-528,291	-200,000	0,003	-0,055
-527,277	800,000	0,030	-0,080
-526,262	17,522	-0,112	0,064
-525,248	-97,000	0,101	-0,019
-524,233	-17,097	0,191	0,086
-523,218	141,584	-0,117	0,112
-522,204	800,000	0,003	-0,006
-521,189	235,728	-0,136	-0,162
-520,175	525,902	0,061	-0,103
-519,160	137,942	0,048	-0,046
-518,145	-200,000	0,016	0,057
-517,131	-117,479	0,124	-0,016
-516,116	-2,775	-0,080	-0,040
-515,102	182,539	-0,056	0,060
-514,087	-55,760	0,160	0,051
-513,072	-200,000	-0,008	-0,045
-512,058	800,000	0,036	0,084
-511,043	-44,831	-0,100	-0,036
-510,029	95,658	0,116	0,095
-509,014	388,202	-0,081	-0,121
-507,999	651,777	0,026	0,047
-506,985	-200,000	0,021	0,082
-505,970	-116,221	-0,195	0,026
-504,956	-84,238	0,039	-0,009
-503,941	-125,068	0,122	-0,013
-502,926	246,580	0,058	0,071
-501,912	233,428	-0,112	0,133
-500,897	-40,334	-0,010	-0,004
-499,883	201,678	0,043	0,048
-498,868	-200,000	0,007	-0,087
-497,853	-200,000	0,007	-0,044
-496,839	193,419	0,037	-0,041
-495,824	-6,440	0,088	0,043
-494,810	-200,000	0,027	0,157
-493,795	1,347	0,094	-0,048
-492,781	14,007	0,083	-0,046
-491,766	-153,461	-0,186	-0,009
-490,751	626,590	0,056	-0,102
-489,737	-200,000	-0,000	0,002
-488,722	-200,000	-0,022	0,257
-487,708	-200,000	0,005	0,073
-486,693	800,000	-0,025	0,070
-485,678	800,000	-0,048	-0,136
-484,664	50,567	0,118	0,080
-483,649	-140,327	-0,130	0,010
-482,635	800,000	0,043	-0,098
-481,620	-73,416	0,080	0,021
-480,605	-200,000	0,020	0,167
-479,591	450,095	-0,047	0,075
-478,576	228,688	-0,038	-0,044
-477,562	162,087	0,046	-0,047
-476,547	494,997	0,111	0,184
-475,532	-151,133	0,023	0,001
-474,518	-22,385	0,051	-0,022
-473,503	673,094	0,060	-0,113
-472,489	-108,180	0,017	0,003
-471,474	348,207	0,041	-0,059
-470,459	-118,263	0,098	-0,012
-469,445	-200,000	-0,012	-0,073
-468,430	-67,829	0,038	-0,011
-467,416	-95,674	-0,168	0,032
-466,401	800,000	0,042	-0,085
-465,386	-86,123	-0,083	-0,018
-464,372	-90,945	0,114	-0,023
-463,357	473,097	-0,046	-0,075
-462,343	-93,148	0,067	0,013
-461,328	-142,290	-0,060	-0,004
-460,313	428,216	0,037	-0,057
-459,299	89,933	0,126	-0,101
-458,284	-200,000	0,013	0,052
-457,270	-41,245	-0,027	0,010
-456,255	219,889	0,072	-0,083
-455,241	-200,000	0,009	-0,061
-454,226	-37,970	-0,096	-0,036
-453,211	176,300	-0,054	0,057
-452,197	-11,847	0,131	-0,062
-451,182	21,412	0,166	0,097
-450,168	139,466	-0,163	0,155
-449,153	-200,000	0,009	0,103
-448,138	-200,000	-0,013	0,044
-447,124	-200,000	-0,028	-0,112
-446,109	21,270	0,090	0,052
-445,095	435,246	0,007	-0,011
-444,080	37,321	-0,033	0,021
-443,065	-200,000	0,012	-0,075
-442,051	-200,000	-0,003	0,029
-441,036	321,212	0,104	0,142
-440,022	-34,264	0,043	-0,017
-439,007	800,000	-0,018	0,039
-437,992	-69,946	0,130	0,035
-436,978	-200,000	0,027	0,115
-435,963	-200,000	0,039	0,179
-434,949	-13,347	-0,080	-0,037
-433,934	60,545	-0,080	0,057
-432,919	63,627	-0,053	0,038
-431,905	800,000	-0,031	0,083
-430,890	11,931	0,018	0,010
-429,876	31,885	-0,112	0,069
-428,861	-200,000	-0,006	0,095
-427,846	287,286	0,027	-0,035
-426,832	800,000	0,016	-0,047
-425,817	182,277	-0,046	-0,049
-424,803	-133,319	0,140	-0,013
-423,788	-126,609	0,100	0,011
-422,773	266,226	-0,066	0,083
-421,759	-200,000	0,016	-0,080
-420,744	-5,919	-0,029	-0,014
-419,730	-96,339	-0,067	-0,013
-418,715	-111,811	0,089	-0,013
-417,701	20,522	-0,056	-0,033
-416,686	-200,000	0,024	0,098
-415,671	-123,722	-0,043	0,005
-414,657	-200,000	0,000	-0,043
-413,642	-200,000	-0,033	0,165
-412,628	-144,892	0,101	0,007
-411,613	-123,031	-0,021	0,002
-410,598	800,000	-0,046	-0,107
-409,584	-90,811	0,055	-0,011
-408,569	57,933	-0,029	0,020
-407,555	113,242	-0,078	0,068
-406,540	800,000	0,017	0,043
-405,525	245,255	0,049	0,059
-404,511	-200,000	0,005	-0,083
-403,496	-93,556	0,090	-0,018
-402,482	242,531	-0,078	0,094
-401,467	131,281	0,071	0,066
-400,452	800,000	0,037	0,084
-399,438	-200,000	0,003	0,075
-398,423	-47,706	0,050	0,017
-397,409	22,852	-0,176	-0,103
-396,394	-200,000	0,033	0,110
-395,379	-118,211	-0,115	-0,015
-394,365	-88,941	0,044	-0,009
-393,350	711,446	0,027	0,052
-392,336	11,304	-0,059	-0,032
-391,321	268,971	0,166	-0,210
-390,306	-53,758	-0,091	-0,029
-389,292	125,566	-0,034	0,031
-388,277	6,982	0,052	-0,028
-387,263	-6,268	-0,085	-0,042
-386,248	-200,000	0,013	-0,047
-385,233	-200,000	0,010	0,040
-384,219	800,000	-0,055	0,171
-383,204	800,000	0,024	-0,053
-382,190	-172,193	0,082	0,002
-381,175	392,145	0,022	-0,032
-380,160	435,301	-0,101	0,157
-379,146	280,653	0,096	0,123
-378,131	575,088	-0,079	-0,140
-377,117	800,000	-0,032	-0,083
-376,102	8,102	-0,163	0,087
-375,088	-200,000	0,009	-0,119
-374,073	621,893	0,032	0,058
-373,058	-74,299	0,047	0,012
-372,044	489,800	-0,019	-0,032
-371,029	239,898	0,082	0,099
-370,015	-15,184	-0,045	0,021
-369,000	-99,831	-0,045	-0,008
-367,985	-200,000	0,034	-0,165
-366,971	591,717	-0,021	-0,037
-365,956	-158,007	0,139	0,006
-364,942	800,000	0,060	-0,158
-363,927	-54,696	-0,049	0,016
-362,912	800,000	0,017	0,038
-361,898	-200,000	0,043	-0,139
-360,883	38,160	-0,149	-0,095
-359,869	213,323	-0,052	-0,059
-358,854	343,043	0,048	-0,067
-357,839	-4,728	-0,033	-0,016
-356,825	800,000	0,034	-0,078
-355,810	-200,000	-0,014	-0,051
-354,796	-177,411	0,173	0,003
-353,781	-10,843	-0,115	0,054
-352,766	358,445	0,081	-0,116
-351,752	405,305	-0,060	-0,092
-350,737	10,116	0,124	0,067
-349,723	-65,057	0,032	-0,009
-348,708	88,472	0,021	-0,017
-347,693	800,000	-0,021	-0,065
-346,679	-82,517	-0,114	-0,026
-345,664	94,793	-0,022	-0,018
-344,650	-200,000	-0,007	-0,037
-343,635	0,285	-0,059	0,030
-342,620	-200,000	0,036	0,206
-341,606	-200,000	-0,030	0,118
-340,591	30,781	-0,096	0,059
-339,577	529,118	-0,055	-0,093
-338,562	399,091	-0,061	-0,092
-337,548	-200,000	-0,041	-0,174
-336,533	-200,000	-0,009	0,093
-335,518	-200,000	0,017	0,157
-334,504	102,508	-0,074	0,062
-333,489	-200,000	0,006	0,092
-332,475	-110,335	-0,150	0,022
-331,460	-125,513	0,123	-0,013
-330,445	-200,000	0,009	-0,141
-329,431	-200,000	0,005	-0,040
-328,416	-200,000	0,014	0,192
-327,402	-60,704	0,075	-0,023
-326,387	-135,736	-0,046	-0,004
-325,372	-200,000	-0,005	-0,060
-324,358	93,561	-0,024	-0,020
-323,343	123,505	-0,130	-0,116
-322,329	385,528	0,049	0,072
-321,314	-64,622	0,095	-0,028
-320,299	315,807	0,041	0,056
-319,285	23,582	-0,069	-0,040
-318,270	800,000	0,049	-0,127
-317,256	164,322	-0,080	-0,081
-316,241	-65,042	0,042	-0,012
-315,226	-15,304	-0,045	-0,020
-314,212	57,223	0,065	0,046
-313,197	12,879	0,074	0,041
-312,183	800,000	-0,011	0,023
-311,168	183,606	0,033	-0,035
-310,153	132,144	-0,093	-0,085
-309,139	800,000	-0,035	0,073
-308,124	228,807	-0,098	0,114
-307,110	17,777	0,129	0,073
-306,095	-200,000	0,004	0,157
-305,080	256,113	0,002	-0,003
-304,066	175,806	-0,072	0,075
-303,051	800,000	-0,010	-0,026
-302,037	800,000	-0,044	0,107
-301,022	-200,000	0,010	-0,202
-300,008	398,152	0,052	0,078
-298,993	154,302	0,047	-0,046
-297,978	35,110	-0,080	0,050
-296,964	-139,607	-0,063	-0,005
-295,949	-200,000	-0,005	-0,045
-294,935	-36,080	0,073	-0,028
-293,920	56,002	-0,073	-0,050
-292,905	-200,000	0,001	-0,047
-291,891	75,343	-0,129	0,097
-290,876	-200,000	-0,000	0,006
-289,862	162,583	-0,178	-0,179
-288,847	163,813	0,040	0,040
-287,832	-200,000	0,023	-0,077
-286,818	-128,644	0,097	-0,010
-285,803	-87,149	0,215	0,046
-284,789	388,706	-0,089	-0,132
-283,774	-12,997	0,094	0,044
-282,759	-101,006	-0,124	-0,022
-281,745	-106,956	-0,113	-0,018
-280,730	-200,000	-0,031	0,128
-279,716	30,063	-0,101	0,061
-278,701	-200,000	-0,010	0,089
-277,686	-200,000	0,009	0,044
-276,672	155,609	0,079	0,078
-275,657	-200,000	-0,008	0,033
-274,643	254,298	0,011	-0,014
-273,628	800,000	-0,055	-0,127
-272,613	800,000	0,024	-0,066
-271,599	-66,253	0,073	-0,021
-270,584	-145,864	0,100	-0,006
-269,570	264,359	-0,020	-0,025
-268,555	-3,441	0,126	-0,062
-267,540	371,603	0,048	-0,070
-266,526	-200,000	-0,007	-0,090
-265,511	-200,000	0,005	-0,118
-264,497	-200,000	-0,021	0,084
-263,482	-200,000	-0,006	0,106
-262,467	-136,800	0,260	0,021
-261,453	71,117	-0,054	0,040
-260,438	141,619	0,074	-0,070
-259,424	800,000	-0,052	-0,122
-258,409	-108,967	-0,203	-0,031
-257,395	287,208	0,043	0,055
-256,380	364,643	0,013	-0,018
-255,365	-200,000	0,007	-0,034
-254,351	-200,000	0,008	-0,064
-253,336	-200,000	0,022	0,082
-252,322	336,156	-0,090	-0,125
-251,307	-200,000	-0,019	0,070
-250,292	-44,405	0,113	-0,040
-249,278	14,234	0,141	0,078
-248,263	800,000	-0,045	0,101
-247,249	800,000	-0,041	-0,105
-246,234	-200,000	-0,004	0,143
-245,219	335,016	0,108	0,150
-244,205	426,369	-0,047	-0,072
-243,190	-39,485	-0,160	0,060
-242,176	-123,748	0,014	-0,002
-241,161	146,921	0,078	0,075
-240,146	337,813	0,041	-0,058
-239,132	-14,534	0,095	0,043
-238,117	117,707	-0,062	-0,055
-237,103	-28,809	-0,095	0,039
-236,088	-176,800	-0,041	-0,001
-235,073	-200,000	-0,008	-0,155
-234,059	800,000	0,069	0,165
-233,044	800,000	0,035	0,103
-232,030	128,501	-0,068	0,062
-231,015	-31,782	0,010	0,004
-230,000	800,000	0,060	-0,121
-228,986	247,266	0,019	0,023
-227,971	26,959	-0,110	0,066
-226,957	-200,000	0,006	-0,060
-225,942	442,545	0,078	0,122
-224,927	98,532	0,043	-0,035
-223,913	19,406	-0,084	-0,048
-222,898	180,676	-0,074	-0,077
-221,884	800,000	0,051	-0,130
-220,869	-200,000	0,012	-0,088
-219,855	130,975	0,092	0,084
-218,840	121,941	0,073	-0,065
-217,825	-25,486	0,129	-0,054
-216,811	800,000	-0,059	-0,121
-215,796	-43,414	0,081	-0,029
-214,782	531,440	-0,031	-0,052
-213,767	123,123	-0,114	-0,102
-212,752	-5,059	0,066	0,032
-211,738	-46,944	-0,074	0,026
-210,723	-200,000	0,114	-0,000
-209,709	-21,267	-0,172	-0,075
-208,694	442,442	0,047	-0,074
-207,679	-119,226	-0,161	0,020
-206,665	389,151	0,018	0,027
-205,650	-129,239	0,063	-0,006
-204,636	776,733	0,041	0,080
-203,621	287,828	-0,079	0,102
-202,606	-200,000	-0,003	-0,092
-201,592	-200,000	-0,002	-0,088
-200,577	-200,000	0,001	-0,011
-199,563	76,289	0,054	-0,041
-198,548	-134,152	0,098	0,008
-197,533	-1,185	-0,044	0,022
-196,519	-69,859	0,126	0,034
-195,504	312,319	0,013	0,018
-194,490	-200,000	-0,000	-0,181
-193,475	-57,900	0,076	-0,024
-192,460	-200,000	0,010	-0,084
-191,446	76,788	0,120	-0,091
-190,431	102,486	-0,050	-0,042
-189,417	-82,807	0,035	0,008
-188,402	-200,000	0,018	-0,100
-187,387	800,000	-0,018	-0,041
-186,373	226,002	-0,029	-0,034
-185,358	-37,690	0,013	-0,005
-184,344	133,346	0,075	-0,069
-183,329	24,840	0,025	0,015
-182,315	-89,783	0,104	-0,022
-181,300	542,019	0,098	0,167
-180,285	81,054	-0,032	-0,024
-179,271	-200,000	-0,028	-0,181
-178,256	194,424	0,089	0,096
-177,242	-200,000	-0,037	0,119
-176,227	173,283	0,055	0,057
-175,212	269,163	-0,051	0,064
-174,198	-200,000	0,019	0,157
-173,183	800,000	0,031	-0,094
-172,169	800,000	-0,029	0,080
-171,154	364,435	-0,080	0,115
-170,139	150,644	0,070	0,067
-169,125	800,000	0,056	0,129
-168,110	-200,000	0,001	0,015
-167,096	-172,608	0,098	-0,002
-166,081	42,575	-0,067	0,043
-165,066	-45,038	0,057	-0,020
-164,052	71,597	-0,064	0,047
-163,037	483,903	0,024	0,040
-162,023	196,768	-0,060	0,065
-161,008	-200,000	-0,002	0,074
-159,993	110,173	0,024	-0,020
-158,979	-117,463	0,074	-0,009
-157,964	-200,000	0,004	-0,019
-156,950	537,795	-0,039	-0,066
-155,935	800,000	0,030	-0,091
-154,920	120,383	0,034	0,030
-153,906	-200,000	0,004	-0,019
-152,891	-200,000	-0,022	0,076
-151,877	9,493	-0,055	0,029
-150,862	-200,000	0,005	-0,035
-149,847	-200,000	0,003	-0,075
-148,833	-200,000	-0,004	0,036
-147,818	81,568	0,095	0,073
-146,804	-200,000	0,008	-0,051
-145,789	338,517	-0,097	-0,134
-144,775	-200,000	0,002	0,040
-143,760	-148,284	0,050	-0,003
-142,745	561,801	0,064	-0,111
-141,731	388,075	0,064	0,095
-140,716	443,941	0,055	0,086
-139,702	24,235	0,146	0,085
-138,687	49,738	-0,089	-0,060
-137,672	14,316	-0,087	-0,048
-136,658	141,935	0,064	0,061
-135,643	303,465	-0,123	-0,163
-134,629	131,242	-0,046	-0,042
-133,614	-200,000	0,001	0,058
-132,599	37,796	0,049	0,031
-131,585	-200,000	0,003	0,105
-130,570	750,468	-0,022	-0,043
-129,556	-118,715	-0,133	-0,016
-128,541	-200,000	-0,007	-0,191
-127,526	-43,743	0,122	-0,044
-126,512	-33,270	-0,109	0,043
-125,497	-200,000	0,010	-0,097
-124,483	800,000	0,069	0,216
-123,468	-200,000	0,063	-0,238
-122,453	119,743	-0,107	-0,094
-121,439	-91,795	-0,153	0,031
-120,424	-100,839	-0,006	0,001
-119,410	16,447	0,134	-0,075
-118,395	-200,000	0,031	0,217
-117,380	17,808	-0,104	0,058
-116,366	565,060	-0,037	-0,064
-115,351	-200,000	-0,030	-0,173
-114,337	-48,124	-0,059	-0,020
-113,322	194,194	-0,175	-0,189
-112,307	-85,689	0,315	0,069
-111,293	-200,000	-0,030	0,149
-110,278	-200,000	0,001	-0,008
-109,264	85,164	-0,086	0,067
-108,249	800,000	0,010	0,025
-107,234	-200,000	0,018	-0,074
-106,220	800,000	-0,072	-0,145
-105,205	-114,964	0,110	0,015
-104,191	-50,353	0,132	-0,044
-103,176	-52,341	0,081	0,026
-102,162	604,172	0,094	0,166
-101,147	800,000	-0,022	-0,056
-100,132	800,000	-0,056	-0,153
-99,118	-58,935	-0,020	0,006
-98,103	-99,750	0,252	0,044
-97,089	262,185	0,024	0,029
-96,074	148,185	0,085	0,082
-95,059	-150,532	-0,132	-0,007
-94,045	-29,089	0,072	0,029
-93,030	74,724	0,054	-0,040
-92,016	72,576	-0,064	0,048
-91,001	618,983	0,055	-0,098
-89,986	-200,000	-0,010	0,047
-88,972	78,783	0,190	0,144
-87,957	-9,653	0,097	0,045
-86,943	52,846	-0,100	-0,068
-85,928	800,000	0,023	-0,068
-84,913	-200,000	-0,009	-0,066
-83,899	471,855	0,027	-0,044
-82,884	260,198	-0,037	0,045
-81,870	-200,000	0,010	0,123
-80,855	-129,349	-0,021	0,002
-79,840	724,774	-0,007	-0,013
-78,826	-200,000	-0,043	-0,156
-77,811	-127,801	-0,059	0,006
-76,797	407,619	-0,034	-0,051
-75,782	175,521	0,092	-0,094
-74,767	-200,000	-0,007	0,124
-73,753	-69,498	0,153	-0,041
-72,738	637,407	-0,035	-0,063
-71,724	337,193	0,018	-0,025
-70,709	800,000	-0,060	-0,138
-69,694	-74,423	0,073	0,019
-68,680	-200,000	-0,006	0,048
-67,665	103,224	0,084	0,070
-66,651	183,198	0,056	0,059
-65,636	-200,000	0,007	-0,080
-64,622	800,000	-0,066	-0,139
-63,607	-200,000	-0,009	0,060
-62,592	-200,000	-0,002	-0,032
-61,578	-200,000	-0,039	-0,134
-60,563	5,104	0,190	0,099
-59,549	-200,000	-0,005	-0,043
-58,534	-37,973	-1,454	-0,544
-57,519	308,416	-1,563	-2,071
-56,505	-200,000	-0,743	-4,545
-55,490	153,489	0,989	0,959
-54,476	800,000	4,774	11,019
-53,461	-200,000	18,234	287,716
-52,446	800,000	727,488	2228,652
-51,432	554,550	1643,500	2810,267
-50,417	79,247	1665,282	1262,321
-49,403	22,837	1539,116	890,616
-48,388	16,862	1462,335	817,255
-47,373	17,889	1452,310	816,564
-46,359	17,282	1442,680	808,217
-45,344	15,108	1438,052	795,213
-44,330	15,037	1436,215	793,827
-43,315	15,005	1434,595	792,752
-42,300	15,038	1432,802	791,885
-41,286	15,106	1431,570	791,493
-40,271	15,054	1430,435	790,588
-39,257	15,040	1429,244	789,832
-38,242	15,083	1427,818	789,220
-37,227	15,084	1426,614	788,526
-36,213	15,094	1425,409	787,876
-35,198	15,068	1424,267	787,092
-34,184	15,119	1423,237	786,734
-33,169	15,067	1422,007	785,774
-32,154	15,101	1420,985	785,340
-31,140	15,129	1419,693	784,725
-30,125	15,158	1418,410	784,124
-29,111	15,106	1417,407	783,293
-28,096	15,068	1416,392	782,523
-27,082	15,044	1415,295	781,772
-26,067	15,036	1414,197	781,095
-25,052	15,021	1412,990	780,327
-24,038	15,008	1412,105	779,746
-23,023	14,973	1411,110	779,004
-22,009	15,029	1409,911	778,571
-20,994	14,969	1409,224	777,880
-19,979	14,984	1408,192	777,352
-18,965	14,988	1407,234	776,808
-17,950	14,908	1406,465	775,983
-16,936	14,952	1405,505	775,628
-15,921	14,903	1404,369	774,741
-14,906	14,906	1403,330	774,149
-13,892	14,942	1402,298	773,719
-12,877	14,933	1401,370	773,133
-11,863	14,895	1400,714	772,562
-10,848	14,931	1399,658	772,118
-9,833	14,922	1398,808	771,575
-8,819	14,842	1398,010	770,733
-7,804	14,805	1397,254	770,117
-6,790	14,830	1395,796	769,399
-5,775	14,783	1395,177	768,806
-4,760	14,824	1394,257	768,459
-3,746	14,815	1393,359	767,895
-2,731	14,810	1392,601	767,420
-1,717	14,808	1391,441	766,744
-0,702	14,821	1389,773	765,854
0,313	18,579	1308,744	738,601
1,327	34,696	706,689	436,165
2,342	53,078	124,730	84,341
3,356	-0,280	16,621	8,332
4,371	-1,989	3,213	1,592
5,386	-54,324	0,454	0,145
6,400	-200,000	-0,009	0,093
7,415	240,760	-0,256	-0,303
8,429	200,275	-0,173	-0,188
9,444	-88,146	-0,300	-0,063
10,459	25,908	-0,323	-0,190
11,473	-11,574	-0,337	-0,156
12,488	18,579	-0,311	-0,176
13,502	110,337	-0,273	-0,232
14,517	-41,673	-0,393	-0,142
15,531	109,383	-0,326	-0,275
16,546	15,251	-0,376	-0,208
17,561	118,683	-0,347	-0,303
18,575	174,914	-0,110	-0,113
19,590	636,265	-0,158	-0,285
20,604	-10,894	-0,255	-0,119
21,619	57,144	-0,389	-0,267
22,634	51,583	-0,376	-0,252
23,648	38,282	-0,491	-0,308
24,663	24,477	-0,425	-0,247
25,677	-36,686	-0,389	-0,147
26,692	31,964	-0,367	-0,223
27,707	-7,975	-0,423	-0,201
28,721	155,555	-0,254	-0,247
29,736	137,557	-0,386	-0,357
30,750	319,157	-0,256	-0,344
31,765	133,483	-0,395	-0,361
32,780	110,104	-0,386	-0,327
33,794	20,516	-0,290	-0,165
34,809	95,436	-0,369	-0,297
35,823	8,787	-0,339	-0,180
36,838	116,607	-0,399	-0,345
37,853	241,538	-0,275	-0,325
38,867	28,113	-0,383	-0,228
39,882	57,553	-0,343	-0,236
40,896	277,051	-0,292	-0,366
41,911	175,549	-0,236	-0,242
42,926	181,917	-0,262	-0,272
43,940	109,297	-0,351	-0,296
44,955	76,501	-0,383	-0,286
45,969	451,911	-0,178	-0,278
46,984	42,201	-0,356	-0,228
47,999	-33,670	-0,362	-0,140
49,013	-33,953	-0,255	-0,098
50,028	97,304	-0,349	-0,282
51,042	102,906	-0,390	-0,322
52,057	-19,628	-0,366	-0,159
53,071	-53,610	-0,432	-0,138
54,086	-30,828	-0,318	-0,126
55,101	-21,290	-0,378	-0,162
56,115	494,977	-0,219	-0,355
57,130	114,818	-0,260	-0,223
58,144	26,317	-0,350	-0,205
59,159	49,561	-0,343	-0,227
60,174	38,560	-0,360	-0,226
61,188	5,844	-0,525	-0,273
62,203	-28,203	-0,361	-0,146
63,217	136,808	-0,246	-0,226
64,232	-72,360	-0,408	-0,106
65,247	148,736	-0,346	-0,329
66,261	56,342	-0,492	-0,336
67,276	138,876	-0,316	-0,292
68,290	39,980	-0,322	-0,203
69,305	52,770	-0,377	-0,253
70,320	85,673	-0,372	-0,287
71,334	19,902	-0,350	-0,198
72,349	43,998	-0,246	-0,158
73,363	118,697	-0,334	-0,290
74,378	12,920	-0,485	-0,263
75,393	200,776	-0,289	-0,313
76,407	116,685	-0,281	-0,243
77,422	-79,101	-0,341	-0,081
78,436	-22,856	-0,284	-0,120
79,451	-17,392	-0,286	-0,126
80,466	12,254	-0,319	-0,172
81,480	-83,061	-0,307	-0,069
82,495	26,848	-0,306	-0,180
83,509	64,617	-0,365	-0,258
84,524	102,165	-0,219	-0,179
85,539	-9,858	-0,306	-0,142
86,553	-22,512	-0,296	-0,125
87,568	88,992	-0,379	-0,296
88,582	-1,070	-0,250	-0,124
89,597	29,453	-0,293	-0,175
90,611	21,308	-0,251	-0,143
91,626	-92,004	-0,255	-0,050
92,641	113,967	-0,235	-0,200
93,655	258,620	-0,221	-0,268
94,670	-17,460	-0,344	-0,151
95,684	13,998	-0,323	-0,176
96,699	281,915	-0,201	-0,253
97,714	9,381	-0,253	-0,134
98,728	-71,748	-0,249	-0,065
99,743	124,002	-0,232	-0,204
100,757	-26,923	-0,262	-0,107
101,772	97,662	-0,164	-0,132
102,787	32,393	-0,286	-0,173
103,801	273,738	-0,278	-0,346
104,816	91,389	-0,307	-0,242
105,830	16,817	-0,305	-0,169
106,845	-15,115	-0,121	-0,054
107,860	23,980	-0,197	-0,114
108,874	-19,430	-0,257	-0,111
109,889	13,266	-0,164	-0,089
110,903	-43,829	-0,280	-0,098
111,918	204,553	-0,193	-0,210
112,933	59,438	-0,261	-0,180
113,947	-8,446	-0,191	-0,090
114,962	18,360	-0,220	-0,123
115,976	113,077	-0,207	-0,176
116,991	89,728	-0,277	-0,216
118,006	58,896	-0,261	-0,179
119,020	115,658	-0,234	-0,200
120,035	56,131	-0,248	-0,168
121,049	43,834	-0,194	-0,124
122,064	176,117	-0,255	-0,259
123,079	40,263	-0,353	-0,222
124,093	-74,505	-0,242	-0,061
125,108	-60,666	-0,391	-0,115
126,122	-37,794	-0,322	-0,119
127,137	116,255	-0,299	-0,256
128,151	277,311	-0,153	-0,191
129,166	125,942	-0,224	-0,198
130,181	362,260	-0,140	-0,197
131,195	132,739	-0,211	-0,190
132,210	-20,107	-0,199	-0,085
133,224	122,447	-0,145	-0,127
134,239	800,000	-0,143	-0,293
135,254	72,408	-0,106	-0,078
136,268	51,238	-0,200	-0,132
137,283	164,101	-0,267	-0,263
138,297	-70,470	-0,236	-0,062
139,312	12,040	-0,295	-0,158
140,327	45,300	-0,283	-0,182
141,341	-83,953	-0,203	-0,045
142,356	239,252	-0,076	-0,089
143,370	5,438	-0,421	-0,217
144,385	-51,097	-0,311	-0,101
145,400	175,328	-0,242	-0,245
146,414	92,993	-0,231	-0,183
147,429	263,253	-0,192	-0,233
148,443	149,037	-0,170	-0,161
149,458	-128,894	-0,168	-0,016
150,473	-65,791	-0,251	-0,070
151,487	-51,235	-0,176	-0,057
152,502	91,156	-0,226	-0,177
153,516	0,128	-0,330	-0,164
154,531	35,682	-0,290	-0,177
155,546	5,106	-0,261	-0,134
156,560	-29,690	-0,286	-0,113
157,575	106,067	-0,162	-0,134
158,589	94,316	-0,258	-0,204
159,604	372,644	-0,225	-0,320
160,619	-85,823	-0,264	-0,057
161,633	98,827	-0,192	-0,154
162,648	114,339	-0,225	-0,191
163,662	94,664	-0,242	-0,192
164,677	-55,574	-0,218	-0,068
165,692	-36,418	-0,133	-0,050
166,706	106,883	-0,240	-0,199
167,721	18,748	-0,196	-0,109
168,735	300,546	-0,185	-0,238
169,750	-126,240	-0,216	0,022
170,764	-11,527	-0,239	-0,109
171,779	52,817	-0,282	-0,187
172,794	92,690	-0,210	-0,165
173,808	105,722	-0,275	-0,226
174,823	0,468	-0,288	-0,143
175,837	14,574	-0,234	-0,127
176,852	43,404	-0,144	-0,092
177,867	138,932	-0,098	-0,090
178,881	63,708	-0,151	-0,105
179,896	-46,357	-0,130	0,044
180,910	614,514	-0,112	-0,195
181,925	306,371	-0,125	-0,162
182,940	408,831	-0,203	-0,300
183,954	389,714	-0,103	-0,149
184,969	-46,784	-0,238	-0,080
185,983	-36,066	-0,145	-0,054
186,998	353,534	-0,107	-0,148
188,013	242,804	-0,127	-0,149
189,027	33,656	-0,172	-0,104
190,042	-144,003	-0,076	0,005
191,056	-80,846	-0,275	-0,063
192,071	159,446	-0,086	-0,083
193,086	8,282	-0,126	0,066
194,100	-60,564	-0,292	-0,086
195,115	-66,861	-0,185	-0,050
196,129	16,690	-0,225	-0,123
197,144	88,623	-0,341	-0,263
198,159	-200,000	-0,030	-0,149
199,173	29,540	-0,142	-0,084
200,188	136,076	-0,213	-0,193
201,202	-18,875	-0,162	-0,070
202,217	165,259	-0,106	-0,104
203,232	-78,109	-0,146	-0,035
204,246	-82,757	-0,288	0,064
205,261	122,841	-0,214	-0,187
206,275	-55,603	-0,133	-0,041
207,290	273,157	-0,183	-0,225
208,304	110,607	-0,199	-0,166
209,319	327,681	-0,136	-0,182
210,334	348,891	-0,159	-0,218
211,348	800,000	-0,083	-0,165
212,363	71,223	-0,191	-0,138
213,377	635,342	-0,090	-0,160
214,392	279,241	-0,134	-0,167
215,407	-48,710	-0,178	-0,059
216,421	-47,289	-0,270	-0,091
217,436	7,848	-0,127	-0,066
218,450	118,643	-0,142	-0,122
219,465	-16,550	-0,233	-0,102
220,480	128,008	-0,142	-0,125
221,494	-200,000	-0,065	-0,217
222,509	350,623	-0,066	-0,091
223,523	-150,673	-0,086	0,004
224,538	84,263	-0,177	-0,134
225,553	-12,735	-0,073	-0,033
226,567	38,923	-0,289	-0,179
227,582	370,785	-0,179	-0,253
228,596	39,143	-0,227	-0,140
229,611	-71,240	-0,196	0,051
230,626	192,992	-0,117	-0,123
231,640	95,921	-0,192	-0,152
232,655	407,924	-0,125	-0,183
233,669	113,434	-0,247	-0,208
234,684	348,433	-0,213	-0,292
235,699	-26,392	-0,248	-0,100
236,713	800,000	-0,081	-0,162
237,728	59,160	-0,183	-0,125
238,742	-115,676	-0,160	-0,021
239,757	25,966	-0,197	-0,113
240,772	264,547	-0,209	-0,252
241,786	123,870	-0,177	-0,154
242,801	16,312	-0,195	-0,107
243,815	183,384	-0,124	-0,127
244,830	-127,071	-0,105	-0,011
245,844	30,201	-0,194	-0,115
246,859	-106,644	-0,280	-0,043
247,874	116,286	-0,212	-0,180
248,888	800,000	-0,073	-0,217
249,903	105,714	-0,189	-0,155
250,917	54,132	-0,167	-0,111
251,932	-200,000	-0,061	-0,223
252,947	-66,366	-0,089	-0,024
253,961	47,148	-0,205	-0,132
254,976	202,617	-0,208	-0,223
255,990	-132,904	-0,172	-0,015
257,005	275,276	-0,107	-0,132
258,020	800,000	-0,064	-0,142
259,034	-141,010	-0,160	-0,011
260,049	-98,294	-0,229	-0,040
261,063	104,325	-0,078	-0,063
262,078	-95,095	-0,282	-0,052
263,093	143,551	-0,116	-0,107
264,107	-88,123	-0,229	-0,047
265,122	-115,834	-0,192	0,025
266,136	800,000	-0,051	-0,116
267,151	-120,265	-0,152	-0,018
268,166	-155,421	-0,262	0,012
269,180	20,216	-0,174	-0,097
270,195	450,388	-0,107	-0,164
271,209	78,297	-0,130	-0,096
272,224	-129,261	-0,114	-0,011
273,239	-43,663	-0,098	-0,034
274,253	4,602	-0,247	-0,125
275,268	694,213	-0,116	-0,212
276,282	87,524	-0,285	-0,218
277,297	52,475	-0,192	-0,126
278,312	9,905	-0,316	-0,165
279,326	97,483	-0,234	-0,185
280,341	-33,492	-0,202	-0,077
281,355	-94,266	-0,148	-0,028
282,370	617,778	-0,111	-0,192
283,384	155,399	-0,140	-0,133
284,399	-33,980	-0,378	-0,143
285,414	-81,421	-0,216	-0,049
286,428	286,666	-0,111	-0,139
287,443	38,160	-0,103	-0,063
288,457	-127,886	-0,154	-0,015
289,472	453,113	-0,091	-0,139
290,487	89,791	-0,216	-0,166
291,501	73,381	-0,265	-0,191
292,516	-200,000	-0,006	-0,044
293,530	0,705	-0,148	-0,073
294,545	-200,000	-0,228	-0,000
295,560	25,202	-0,181	-0,103
296,574	42,734	-0,092	-0,057
297,589	183,312	-0,121	-0,123
298,603	-176,544	-0,197	0,003
299,618	188,659	-0,218	-0,225
300,633	-133,272	-0,125	0,011
301,647	-134,646	-0,090	-0,007
302,662	-157,059	-0,145	0,006
303,676	59,557	-0,219	-0,149
304,691	-16,680	-0,112	0,048
305,706	231,451	-0,160	-0,181
306,720	-32,647	-0,106	-0,040
307,735	-41,076	-0,028	-0,010
308,749	-115,111	-0,114	-0,015
309,764	739,947	-0,043	-0,080
310,779	-200,000	0,020	-0,074
311,793	157,018	-0,203	-0,194
312,808	21,218	-0,222	-0,124
313,822	25,513	-0,194	-0,111
314,837	21,506	-0,163	0,091
315,852	305,457	-0,100	-0,128
316,866	-126,493	-0,131	-0,013
317,881	671,281	-0,095	-0,170
318,895	72,671	-0,123	-0,088
319,910	40,146	-0,218	-0,134
320,925	261,996	-0,109	-0,130
321,939	800,000	-0,085	-0,251
322,954	380,879	-0,053	-0,075
323,968	56,262	-0,053	-0,035
324,983	140,725	-0,157	-0,143
325,997	-148,894	-0,093	0,005
327,012	58,357	-0,205	-0,138
328,027	-34,988	-0,151	-0,056
329,041	55,090	-0,166	-0,110
330,056	87,825	-0,079	0,060
331,070	54,562	-0,170	-0,112
332,085	276,214	-0,076	-0,092
333,100	-189,886	-0,051	0,000
334,114	-200,000	-0,048	-0,164
335,129	62,984	-0,153	-0,105
336,143	-127,806	-0,155	0,015
337,158	-147,395	-0,127	-0,007
338,173	-39,493	-0,083	-0,030
339,187	104,606	-0,144	-0,116
340,202	99,611	-0,197	-0,157
341,216	800,000	-0,018	-0,046
342,231	-62,140	-0,191	-0,054
343,246	246,087	-0,184	-0,213
344,260	-200,000	-0,034	-0,139
345,275	-24,564	-0,144	-0,059
346,289	86,910	0,023	0,017
347,304	800,000	-0,035	-0,093
348,319	-27,112	-0,128	-0,051
349,333	800,000	-0,089	-0,169
350,348	185,073	-0,201	-0,205
351,362	-168,089	-0,242	0,006
352,377	-168,573	-0,050	-0,001
353,392	4,870	-0,103	-0,052
354,406	652,276	-0,106	-0,186
355,421	208,300	1316,660	1413,540
356,435	160,269	1477,641	1414,044
