DTS Sentinel unit serial number:	SN410029Multiplexer serial number:	ORYXHardware model number:	OX2-SRSoftware version number:	ORYX F/W v4,00 Oryx Data Collector v3.7.2.0data status	okinstallation	B3 Nyhavnadifferential loss correction	single-endedforward channel	channel 1reverse channel	N/Adate	2023/12/03time	19:22:30forward acquisition time	300,00reverse acquisition time	0,00gamma	499,1914k internal	0,3198k external	0,3198temperature offset calibration	1,0000default loss term (dB/km)	0,3820temperature slope calibration	1,0000multiplexer offset coefficient	1,0000multiplexer slope coefficient	1,0000fibre end	0,00T internal ref (°C)	14,29T ext. ref 1 (°C)	-1,06T ext. ref 2 (°C)	-1,09length (m)	temperature (°C)	Stokes	anti-Stokes-744,400	92,315	-0,194	-0,159
-743,385	-200,000	0,059	0,318
-742,371	-7,242	-0,219	-0,108
-741,356	732,601	0,109	0,213
-740,342	-6,084	-0,171	-0,085
-739,327	-200,000	0,051	0,413
-738,312	118,100	-0,294	-0,264
-737,298	729,429	-0,123	0,241
-736,283	466,596	-0,179	-0,293
-735,269	800,000	0,139	0,415
-734,254	51,203	-0,310	-0,214
-733,239	800,000	-0,055	0,114
-732,225	217,334	-0,243	-0,282
-731,210	167,061	0,096	0,099
-730,196	748,229	-0,023	0,045
-729,181	262,912	-0,133	-0,169
-728,167	-113,662	-0,056	-0,008
-727,152	158,168	0,019	-0,019
-726,137	800,000	0,020	-0,059
-725,123	-77,310	-0,045	-0,011
-724,108	-61,480	-0,063	0,019
-723,094	-200,000	0,009	-0,064
-722,079	-137,841	-0,022	0,002
-721,064	-157,839	-0,093	0,004
-720,050	-130,024	0,073	0,007
-719,035	635,615	0,005	-0,008
-718,021	-115,896	0,061	0,008
-717,006	230,730	-0,104	-0,123
-715,991	-200,000	-0,026	0,000
-714,977	-112,623	-0,089	-0,013
-713,962	800,000	0,031	-0,082
-712,948	-62,517	0,182	-0,055
-711,933	1,104	0,045	0,023
-710,918	133,589	0,062	-0,059
-709,904	-200,000	-0,024	0,101
-708,889	-200,000	0,033	-0,142
-707,875	435,179	0,030	0,047
-706,860	-200,000	-0,008	-0,062
-705,845	800,000	0,049	0,146
-704,831	-200,000	-0,033	0,137
-703,816	-200,000	0,005	0,087
-702,802	800,000	-0,030	0,065
-701,787	87,651	0,085	0,069
-700,772	50,550	-0,046	-0,031
-699,758	12,838	-0,128	-0,072
-698,743	-11,213	0,105	0,050
-697,729	-200,000	0,033	0,134
-696,714	800,000	0,021	-0,065
-695,699	-3,946	-0,130	-0,065
-694,685	-48,526	-0,026	0,009
-693,670	146,420	0,013	-0,013
-692,656	61,337	-0,050	-0,036
-691,641	-97,138	0,165	-0,031
-690,627	800,000	-0,035	0,105
-689,612	-200,000	-0,007	0,037
-688,597	771,351	-0,084	-0,167
-687,583	-66,392	-0,132	-0,038
-686,568	-200,000	0,036	-0,140
-685,554	8,336	0,043	0,024
-684,539	-107,973	0,118	-0,018
-683,524	-51,667	0,071	-0,024
-682,510	299,172	0,033	-0,044
-681,495	-146,596	0,159	0,010
-680,481	609,327	-0,039	0,071
-679,466	-200,000	-0,005	-0,048
-678,451	27,208	0,039	-0,024
-677,437	-92,428	-0,052	0,011
-676,422	-143,741	0,162	-0,011
-675,408	-200,000	-0,008	0,110
-674,393	800,000	-0,081	-0,189
-673,378	456,655	0,055	-0,089
-672,364	82,861	-0,135	-0,107
-671,349	-171,255	0,028	0,001
-670,335	26,586	0,023	0,014
-669,320	291,880	0,055	0,072
-668,305	800,000	0,061	-0,155
-667,291	-200,000	0,016	-0,056
-666,276	36,346	-0,069	-0,044
-665,262	800,000	-0,031	-0,087
-664,247	800,000	0,040	-0,100
-663,232	331,249	-0,099	-0,139
-662,218	-126,330	0,091	0,010
-661,203	699,168	-0,046	0,088
-660,189	-26,812	0,141	-0,059
-659,174	-139,780	0,061	-0,005
-658,159	800,000	0,030	-0,089
-657,145	128,531	-0,127	0,117
-656,130	364,030	-0,032	-0,046
-655,116	-200,000	0,003	0,056
-654,101	800,000	0,016	0,048
-653,086	800,000	-0,022	-0,051
-652,072	-19,923	-0,057	-0,026
-651,057	-41,216	-0,116	-0,043
-650,043	135,099	-0,060	-0,056
-649,028	-80,964	0,093	0,022
-648,014	267,384	0,031	-0,040
-646,999	230,436	-0,137	0,163
-645,984	800,000	0,023	-0,065
-644,970	-200,000	0,017	0,122
-643,955	132,733	0,101	-0,095
-642,941	-5,231	0,136	-0,067
-641,926	35,545	-0,087	-0,055
-640,911	-87,533	0,074	0,016
-639,897	119,334	-0,064	0,057
-638,882	129,801	-0,053	0,050
-637,868	143,564	-0,069	0,066
-636,853	-200,000	-0,008	0,044
-635,838	-104,606	0,073	0,012
-634,824	800,000	-0,049	0,130
-633,809	-200,000	0,026	0,089
-632,795	28,585	0,103	-0,063
-631,780	800,000	-0,004	0,010
-630,765	480,184	0,041	-0,067
-629,751	515,534	0,031	-0,052
-628,736	797,244	-0,114	-0,229
-627,722	53,019	-0,072	0,050
-626,707	800,000	-0,055	0,157
-625,692	800,000	0,030	-0,067
-624,678	-154,954	0,193	-0,009
-623,663	394,505	0,040	0,060
-622,649	-113,332	-0,173	0,024
-621,634	50,385	0,068	0,046
-620,619	42,493	-0,060	0,039
-619,605	41,949	-0,162	-0,106
-618,590	145,154	-0,085	0,083
-617,576	-69,985	-0,116	0,032
-616,561	-33,468	0,033	0,013
-615,546	-151,811	-0,065	-0,003
-614,532	-200,000	0,005	-0,020
-613,517	-15,246	-0,121	-0,056
-612,503	434,068	-0,067	-0,106
-611,488	-6,242	0,042	0,021
-610,474	123,491	-0,064	0,058
-609,459	-200,000	-0,001	0,059
-608,444	40,814	-0,057	-0,037
-607,430	-200,000	-0,004	-0,013
-606,415	-29,325	-0,109	-0,045
-605,401	-200,000	-0,008	-0,035
-604,386	46,419	0,068	-0,045
-603,371	-200,000	0,002	0,024
-602,357	800,000	-0,032	-0,079
-601,342	111,210	-0,100	-0,087
-600,328	-200,000	0,012	-0,095
-599,313	-200,000	-0,036	-0,141
-598,298	-200,000	-0,041	-0,143
-597,284	-200,000	0,000	0,138
-596,269	-86,848	-0,121	-0,027
-595,255	-6,422	0,019	-0,009
-594,240	800,000	-0,063	-0,128
-593,225	-200,000	-0,002	0,098
-592,211	281,127	-0,076	-0,099
-591,196	-128,580	-0,203	0,021
-590,182	16,962	0,039	0,022
-589,167	300,672	0,074	0,099
-588,152	316,994	0,028	0,039
-587,138	-40,317	-0,056	-0,021
-586,123	282,215	0,095	-0,124
-585,109	-24,126	0,072	-0,031
-584,094	39,879	-0,078	-0,051
-583,079	-200,000	0,011	-0,051
-582,065	-31,976	0,132	0,053
-581,050	42,440	-0,035	0,023
-580,036	-141,272	-0,122	0,009
-579,021	784,819	-0,026	-0,053
-578,006	-139,008	-0,065	0,005
-576,992	-200,000	0,002	-0,080
-575,977	144,339	-0,041	0,040
-574,963	-3,348	0,065	0,032
-573,948	65,633	-0,118	0,086
-572,934	-200,000	-0,015	0,124
-571,919	-200,000	-0,003	-0,055
-570,904	-200,000	-0,009	0,049
-569,890	-200,000	-0,018	-0,061
-568,875	206,174	0,071	0,080
-567,861	440,911	0,094	0,149
-566,846	-200,000	0,009	-0,065
-565,831	-174,955	-0,018	0,000
-564,817	-200,000	-0,003	0,034
-563,802	444,592	-0,085	-0,135
-562,788	602,490	-0,065	-0,117
-561,773	-139,502	-0,047	0,004
-560,758	-53,300	0,188	0,062
-559,744	80,223	0,090	0,070
-558,729	-200,000	0,003	-0,047
-557,715	-171,298	0,240	-0,006
-556,700	800,000	0,012	0,035
-555,685	-200,000	-0,013	-0,139
-554,671	800,000	-0,026	0,055
-553,656	154,293	0,063	0,062
-552,642	91,663	0,066	-0,053
-551,627	800,000	-0,037	-0,080
-550,612	-200,000	0,015	0,127
-549,598	-200,000	0,002	-0,092
-548,583	-200,000	-0,011	-0,048
-547,569	452,192	-0,069	-0,110
-546,554	800,000	0,039	0,092
-545,539	-33,559	0,111	0,044
-544,525	-11,856	0,121	0,057
-543,510	-200,000	0,007	-0,052
-542,496	738,660	-0,053	-0,103
-541,481	44,780	0,030	0,020
-540,466	-55,534	-0,063	0,020
-539,452	-126,103	0,098	-0,010
-538,437	-137,250	-0,071	0,006
-537,423	86,811	-0,068	0,055
-536,408	466,596	-0,139	0,226
-535,393	-154,816	0,111	0,005
-534,379	-200,000	0,013	-0,166
-533,364	122,156	0,106	-0,096
-532,350	-200,000	-0,016	0,180
-531,335	259,464	-0,074	0,092
-530,321	-200,000	0,032	0,126
-529,306	228,543	-0,096	0,113
-528,291	-5,335	0,071	0,035
-527,277	-200,000	0,020	0,116
-526,262	800,000	-0,051	-0,106
-525,248	-11,821	0,113	0,053
-524,233	57,117	0,101	0,071
-523,218	6,871	-0,021	0,011
-522,204	-200,000	0,023	0,083
-521,189	468,021	0,082	-0,133
-520,175	-200,000	-0,033	-0,176
-519,160	139,078	-0,085	0,080
-518,145	184,181	-0,070	-0,075
-517,131	-137,649	0,038	0,003
-516,116	-24,445	-0,146	-0,062
-515,102	100,479	0,040	-0,033
-514,087	717,185	-0,042	0,082
-513,072	-200,000	0,001	-0,032
-512,058	15,882	-0,115	-0,065
-511,043	210,934	-0,037	0,042
-510,029	649,433	-0,041	0,077
-509,014	429,005	0,063	-0,099
-507,999	-200,000	0,028	-0,105
-506,985	-200,000	0,006	-0,054
-505,970	-53,034	-0,135	-0,045
-504,956	-200,000	0,016	-0,107
-503,941	800,000	0,014	-0,029
-502,926	-154,177	-0,128	-0,006
-501,912	115,291	0,110	0,097
-500,897	-19,325	-0,112	0,050
-499,883	-200,000	0,010	0,043
-498,868	185,848	0,062	-0,067
-497,853	52,708	-0,053	0,036
-496,839	-90,643	0,058	0,012
-495,824	603,182	-0,017	-0,031
-494,810	441,389	-0,055	-0,087
-493,795	-200,000	0,005	-0,023
-492,781	-200,000	0,008	-0,028
-491,766	471,528	0,040	-0,066
-490,751	33,509	0,126	-0,079
-489,737	-59,403	0,144	-0,044
-488,722	-200,000	0,024	0,148
-487,708	682,820	0,049	0,092
-486,693	-80,943	-0,011	0,003
-485,678	76,407	0,045	-0,034
-484,664	327,909	-0,056	-0,077
-483,649	15,737	-0,151	-0,085
-482,635	201,379	0,064	0,071
-481,620	800,000	0,040	-0,096
-480,605	-74,609	0,100	-0,026
-479,591	-80,703	0,061	0,014
-478,576	11,783	-0,092	-0,051
-477,562	-118,034	-0,073	-0,009
-476,547	13,438	0,038	0,021
-475,532	283,084	0,066	-0,085
-474,518	800,000	0,052	-0,125
-473,503	107,308	0,052	0,045
-472,489	44,701	-0,012	0,008
-471,474	126,356	-0,024	0,022
-470,459	-200,000	-0,010	-0,072
-469,445	-107,301	0,056	-0,009
-468,430	37,639	-0,174	-0,111
-467,416	-200,000	-0,016	-0,121
-466,401	21,735	0,069	0,040
-465,386	800,000	-0,029	0,069
-464,372	-39,006	-0,077	-0,029
-463,357	287,192	0,078	-0,101
-462,343	42,003	-0,075	-0,049
-461,328	-200,000	0,111	0,000
-460,313	289,086	0,028	0,036
-459,299	77,788	-0,063	-0,048
-458,284	243,020	0,035	-0,042
-457,270	75,327	-0,082	-0,062
-456,255	-107,887	-0,040	0,006
-455,241	139,531	-0,113	0,107
-454,226	-38,614	0,162	0,061
-453,211	19,495	-0,129	-0,074
-452,197	-200,000	-0,021	0,106
-451,182	-67,139	0,128	0,036
-450,168	-70,548	0,108	-0,029
-449,153	236,991	-0,044	-0,052
-448,138	-200,000	0,032	-0,117
-447,124	800,000	0,054	0,122
-446,109	-50,581	-0,144	0,048
-445,095	-122,007	0,114	-0,013
-444,080	46,568	0,073	-0,049
-443,065	-62,900	-0,008	0,002
-442,051	20,791	-0,113	-0,065
-441,036	43,756	-0,085	-0,056
-440,022	33,309	-0,132	0,082
-439,007	-124,530	-0,079	0,009
-437,992	800,000	0,084	0,191
-436,978	113,476	0,073	0,064
-435,963	800,000	-0,053	-0,135
-434,949	-200,000	-0,010	0,115
-433,934	-200,000	0,005	-0,106
-432,919	-109,610	0,087	-0,013
-431,905	728,673	0,013	0,024
-430,890	489,796	0,058	0,095
-429,876	-5,368	-0,074	0,036
-428,861	105,047	0,092	0,078
-427,846	-200,000	-0,001	-0,191
-426,832	312,583	-0,056	-0,076
-425,817	-200,000	-0,005	-0,046
-424,803	-19,833	-0,081	0,036
-423,788	78,189	0,091	0,070
-422,773	608,959	-0,058	0,104
-421,759	-200,000	-0,024	0,157
-420,744	240,952	0,023	0,027
-419,730	7,942	-0,079	-0,042
-418,715	-53,628	-0,088	0,029
-417,701	-200,000	0,005	0,056
-416,686	-44,132	0,154	-0,055
-415,671	-200,000	-0,006	-0,039
-414,657	800,000	-0,021	0,046
-413,642	-15,320	0,068	0,031
-412,628	800,000	0,039	-0,118
-411,613	451,318	0,054	-0,086
-410,598	66,192	-0,038	0,028
-409,584	-200,000	0,007	0,096
-408,569	243,797	-0,065	-0,079
-407,555	-141,165	-0,077	0,006
-406,540	-200,000	0,002	0,033
-405,525	-200,000	0,003	-0,065
-404,511	-200,000	0,009	0,042
-403,496	203,993	0,085	-0,095
-402,482	376,038	0,049	-0,072
-401,467	-14,600	-0,064	0,030
-400,452	131,977	-0,021	0,019
-399,438	333,612	0,072	0,100
-398,423	12,031	0,166	-0,092
-397,409	-200,000	-0,023	-0,142
-396,394	-113,679	-0,010	-0,001
-395,379	-69,250	-0,131	0,036
-394,365	30,186	0,130	-0,079
-393,350	-18,711	0,068	-0,030
-392,336	800,000	0,020	0,057
-391,321	-137,642	-0,155	0,012
-390,306	-92,972	0,045	0,009
-389,292	374,822	0,019	-0,028
-388,277	-71,571	0,076	-0,020
-387,263	-9,217	0,025	-0,012
-386,248	-12,975	0,063	0,029
-385,233	282,174	0,032	-0,041
-384,219	-200,000	-0,008	-0,080
-383,204	-98,354	-0,145	-0,026
-382,190	-200,000	-0,009	-0,136
-381,175	68,285	-0,106	-0,078
-380,160	610,358	0,043	0,077
-379,146	10,871	-0,063	0,034
-378,131	-200,000	-0,028	0,094
-377,117	-112,549	-0,089	0,013
-376,102	800,000	0,053	-0,144
-375,088	-67,875	-0,040	0,011
-374,073	450,512	-0,024	-0,039
-373,058	101,741	0,108	0,090
-372,044	-128,478	-0,175	0,018
-371,029	61,382	0,056	-0,040
-370,015	516,444	0,080	0,135
-369,000	-200,000	-0,035	-0,156
-367,985	-200,000	0,020	-0,066
-366,971	374,821	-0,077	-0,113
-365,956	705,787	0,081	-0,155
-364,942	159,952	0,028	-0,028
-363,927	47,241	-0,031	-0,021
-362,912	-27,196	-0,060	0,025
-361,898	637,672	0,015	0,027
-360,883	215,429	0,013	-0,015
-359,869	169,082	-0,119	-0,121
-358,854	-141,453	0,047	0,003
-357,839	-200,000	-0,005	0,112
-356,825	92,094	0,024	-0,019
-355,810	291,466	0,019	-0,025
-354,796	-200,000	0,003	-0,025
-353,781	-9,939	-0,055	-0,026
-352,766	-3,286	0,102	-0,051
-351,752	-23,120	0,074	-0,032
-350,737	65,223	0,090	0,065
-349,723	73,144	-0,075	-0,056
-348,708	-33,065	0,066	0,026
-347,693	1,154	0,043	-0,022
-346,679	-13,862	-0,059	0,027
-345,664	95,409	-0,106	-0,086
-344,650	120,226	-0,068	0,061
-343,635	87,786	0,189	0,150
-342,620	800,000	-0,060	0,177
-341,606	800,000	0,032	-0,088
-340,591	-53,685	-0,065	0,021
-339,577	-78,040	-0,106	0,026
-338,562	40,059	0,035	-0,022
-337,548	-200,000	-0,011	-0,048
-336,533	-200,000	-0,009	0,041
-335,518	141,687	0,026	-0,025
-334,504	525,811	-0,016	-0,028
-333,489	561,018	-0,029	-0,051
-332,475	800,000	0,039	0,083
-331,460	256,795	0,017	-0,022
-330,445	-95,153	0,146	-0,028
-329,431	10,768	0,083	0,045
-328,416	126,444	0,024	-0,022
-327,402	-55,425	0,104	-0,033
-326,387	437,942	-0,014	-0,023
-325,372	-155,948	-0,107	-0,005
-324,358	620,684	-0,027	-0,049
-323,343	113,742	0,086	-0,075
-322,329	162,271	0,083	0,083
-321,314	161,191	0,049	0,050
-320,299	93,276	0,103	0,084
-319,285	206,147	-0,021	0,023
-318,270	-7,998	0,032	0,015
-317,256	145,916	-0,032	-0,031
-316,241	-26,814	-0,114	0,048
-315,226	289,927	-0,079	-0,103
-314,212	85,777	0,046	0,036
-313,197	800,000	-0,031	0,077
-312,183	-200,000	-0,007	0,086
-311,168	800,000	-0,058	-0,123
-310,153	163,629	0,049	0,049
-309,139	-95,979	-0,094	0,018
-308,124	-73,707	-0,122	0,031
-307,110	12,065	0,036	-0,019
-306,095	229,940	-0,101	0,118
-305,080	122,814	0,107	0,096
-304,066	-58,757	-0,054	0,017
-303,051	38,800	-0,058	0,037
-302,037	14,562	-0,036	0,020
-301,022	179,999	0,043	-0,045
-300,008	-200,000	0,012	0,139
-298,993	-200,000	0,004	0,021
-297,978	423,787	0,070	0,109
-296,964	-90,185	-0,145	0,030
-295,949	-196,002	0,049	0,000
-294,935	-200,000	0,018	0,066
-293,920	74,356	0,057	0,042
-292,905	65,582	-0,058	-0,042
-291,891	187,168	0,097	0,103
-290,876	800,000	-0,053	0,150
-289,862	306,613	-0,020	0,027
-288,847	-56,469	-0,090	-0,028
-287,832	4,674	-0,138	0,072
-286,818	206,463	-0,048	-0,054
-285,803	-21,818	-0,087	0,038
-284,789	301,430	0,045	0,059
-283,774	-200,000	-0,015	0,164
-282,759	-200,000	0,012	-0,050
-281,745	-79,219	-0,081	-0,019
-280,730	-6,574	-0,106	0,051
-279,716	-35,333	-0,104	-0,040
-278,701	-20,289	0,052	-0,023
-277,686	617,506	-0,072	-0,130
-276,672	-32,068	-0,060	0,024
-275,657	270,952	-0,047	0,060
-274,643	319,784	0,067	-0,092
-273,628	800,000	0,048	-0,109
-272,613	-20,167	0,068	0,030
-271,599	-168,567	0,108	-0,003
-270,584	78,701	0,049	0,038
-269,570	-37,725	0,140	0,053
-268,555	123,309	0,024	0,022
-267,540	265,947	0,052	-0,065
-266,526	108,456	-0,102	0,087
-265,511	-162,178	0,090	0,003
-264,497	-45,487	0,084	-0,030
-263,482	-123,255	-0,019	0,002
-262,467	-59,782	0,071	0,022
-261,453	13,408	-0,035	-0,020
-260,438	-86,812	0,118	0,026
-259,424	-200,000	0,018	-0,074
-258,409	3,367	-0,096	0,050
-257,395	265,288	0,093	0,116
-256,380	-24,273	0,054	-0,023
-255,365	-200,000	0,005	-0,039
-254,351	-12,719	-0,060	0,028
-253,336	33,161	0,072	0,045
-252,322	-36,286	-0,028	-0,011
-251,307	17,728	-0,089	-0,051
-250,292	-200,000	0,024	0,130
-249,278	135,134	0,050	0,047
-248,263	208,512	0,025	0,028
-247,249	800,000	-0,033	0,073
-246,234	27,922	0,060	0,036
-245,219	87,736	-0,027	-0,021
-244,205	325,761	0,063	-0,086
-243,190	70,808	0,091	0,067
-242,176	-131,396	0,046	-0,004
-241,161	-200,000	0,050	0,193
-240,146	699,218	-0,023	0,043
-239,132	77,559	-0,171	-0,130
-238,117	-200,000	-0,014	-0,051
-237,103	-200,000	0,000	-0,046
-236,088	-64,830	0,089	-0,025
-235,073	800,000	0,039	0,086
-234,059	-200,000	0,022	0,080
-233,044	-200,000	0,002	0,134
-232,030	15,809	-0,041	0,023
-231,015	385,803	-0,061	0,090
-230,000	800,000	0,056	0,135
-228,986	13,749	0,119	0,066
-227,971	-57,974	-0,072	0,022
-226,957	-200,000	-0,006	0,153
-225,942	-27,373	0,133	0,055
-224,927	800,000	-0,036	0,092
-223,913	-133,819	-0,108	-0,009
-222,898	-54,444	-0,015	-0,005
-221,884	800,000	0,020	-0,061
-220,869	174,369	0,035	0,036
-219,855	-25,298	0,174	-0,073
-218,840	245,373	0,060	-0,073
-217,825	-200,000	-0,018	-0,070
-216,811	-200,000	-0,016	-0,055
-215,796	-200,000	-0,003	-0,028
-214,782	256,488	-0,053	-0,065
-213,767	-84,934	-0,119	-0,027
-212,752	642,418	0,006	0,012
-211,738	143,694	0,036	-0,034
-210,723	-30,748	0,005	-0,002
-209,709	800,000	-0,021	0,047
-208,694	182,706	-0,067	-0,070
-207,679	-200,000	0,013	0,084
-206,665	113,235	0,029	-0,025
-205,650	101,644	-0,155	0,129
-204,636	800,000	0,029	-0,066
-203,621	800,000	-0,026	-0,071
-202,606	-200,000	0,078	-0,248
-201,592	-111,687	-0,018	-0,003
-200,577	-200,000	0,006	-0,062
-199,563	800,000	0,009	-0,024
-198,548	-183,154	0,125	0,002
-197,533	-82,272	-0,083	-0,019
-196,519	800,000	0,046	0,094
-195,504	191,159	-0,059	-0,064
-194,490	-77,332	-0,007	-0,002
-193,475	162,710	-0,057	0,057
-192,460	445,545	0,057	-0,089
-191,446	-200,000	0,035	-0,164
-190,431	-30,715	0,042	-0,017
-189,417	369,863	0,029	-0,042
-188,402	-200,000	-0,006	-0,083
-187,387	-200,000	0,011	-0,061
-186,373	-200,000	0,004	-0,022
-185,358	473,178	0,030	-0,048
-184,344	-200,000	0,003	0,111
-183,329	-111,207	0,066	-0,010
-182,315	107,309	-0,158	0,134
-181,300	-200,000	-0,005	-0,073
-180,285	-200,000	0,001	-0,015
-179,271	-200,000	0,012	0,044
-178,256	800,000	0,023	0,059
-177,242	119,884	0,086	0,076
-176,227	-72,596	0,065	0,017
-175,212	244,249	0,104	0,124
-174,198	-200,000	0,018	-0,084
-173,183	-155,030	-0,091	0,004
-172,169	-200,000	-0,008	0,043
-171,154	164,502	0,091	0,091
-170,139	593,477	-0,065	-0,114
-169,125	117,129	0,048	-0,042
-168,110	-200,000	0,011	-0,062
-167,096	-118,241	-0,119	0,015
-166,081	-200,000	0,009	-0,170
-165,066	411,025	-0,038	-0,058
-164,052	800,000	-0,029	0,059
-163,037	-101,804	0,037	-0,006
-162,023	1,123	0,095	-0,048
-161,008	-96,321	-0,042	-0,008
-159,993	-200,000	-0,042	0,184
-158,979	-74,038	-0,094	0,024
-157,964	-87,787	0,038	-0,008
-156,950	-20,862	0,087	-0,038
-155,935	-77,725	0,123	-0,030
-154,920	-200,000	0,021	0,069
-153,906	-200,000	-0,048	0,157
-152,891	-200,000	0,000	0,095
-151,877	-200,000	-0,002	0,016
-150,862	-139,570	-0,056	-0,004
-149,847	-200,000	0,019	-0,078
-148,833	-200,000	-0,008	-0,026
-147,818	-84,792	0,123	-0,027
-146,804	-56,443	0,085	0,027
-145,789	38,259	-0,118	0,075
-144,775	-200,000	-0,017	0,070
-143,760	-183,346	0,007	0,000
-142,745	800,000	-0,015	-0,047
-141,731	800,000	-0,038	-0,101
-140,716	-49,511	-0,108	0,036
-139,702	-61,344	0,148	0,044
-138,687	-28,653	-0,047	0,019
-137,672	75,406	-0,038	0,028
-136,658	-200,000	0,010	-0,046
-135,643	800,000	0,025	0,074
-134,629	12,947	-0,186	-0,102
-133,614	-200,000	-0,050	0,174
-132,599	-13,268	0,034	0,016
-131,585	237,453	0,058	0,068
-130,570	305,032	0,038	0,050
-129,556	171,473	0,119	-0,121
-128,541	-200,000	-0,024	-0,118
-127,526	-69,578	0,136	0,037
-126,512	200,001	0,077	-0,084
-125,497	66,134	0,066	0,047
-124,483	106,552	0,097	0,082
-123,468	-60,677	0,041	-0,012
-122,453	362,075	-0,011	0,016
-121,439	800,000	0,073	-0,150
-120,424	-200,000	-0,020	-0,082
-119,410	85,637	0,034	-0,026
-118,395	85,578	-0,061	-0,047
-117,380	-200,000	-0,019	0,136
-116,366	-200,000	-0,002	-0,037
-115,351	-200,000	-0,001	0,029
-114,337	-80,640	0,050	0,012
-113,322	-200,000	-0,006	0,044
-112,307	-200,000	0,003	0,131
-111,293	250,359	0,067	0,081
-110,278	376,431	-0,055	-0,079
-109,264	-200,000	0,002	-0,057
-108,249	27,660	-0,120	-0,072
-107,234	98,957	0,069	0,056
-106,220	358,549	0,045	0,064
-105,205	-18,991	0,071	0,031
-104,191	305,989	0,006	0,008
-103,176	-98,093	-0,084	0,015
-102,162	-200,000	-0,002	0,096
-101,147	800,000	-0,010	0,027
-100,132	147,490	-0,064	0,061
-99,118	360,096	0,005	-0,007
-98,103	770,632	-0,047	-0,091
-97,089	-55,889	-0,153	0,048
-96,074	-200,000	0,011	0,192
-95,059	71,003	0,102	0,075
-94,045	-144,460	-0,141	0,009
-93,030	340,101	-0,088	0,123
-92,016	41,235	0,052	-0,033
-91,001	-200,000	-0,013	0,069
-89,986	680,084	0,029	-0,054
-88,972	800,000	0,010	0,023
-87,957	800,000	0,027	0,075
-86,943	-200,000	0,008	0,035
-85,928	289,018	-0,037	-0,047
-84,913	-117,667	-0,071	-0,009
-83,899	192,546	0,098	-0,105
-82,884	800,000	0,021	-0,057
-81,870	-200,000	0,003	0,047
-80,855	800,000	0,037	-0,103
-79,840	468,327	0,074	0,118
-78,826	112,788	-0,010	0,009
-77,811	800,000	0,042	0,105
-76,797	94,929	0,048	-0,039
-75,782	81,358	-0,105	-0,080
-74,767	-200,000	0,021	0,082
-73,753	180,476	0,059	-0,061
-72,738	64,486	-0,073	-0,052
-71,724	24,789	-0,024	-0,014
-70,709	15,792	0,106	-0,059
-69,694	51,734	0,074	-0,050
-68,680	-57,948	-0,013	0,004
-67,665	8,118	0,092	-0,049
-66,651	78,631	0,081	0,061
-65,636	103,336	0,049	-0,041
-64,622	527,362	-0,047	-0,079
-63,607	-20,199	0,075	-0,033
-62,592	-129,425	-0,139	0,014
-61,578	-86,747	-0,101	-0,022
-60,563	10,941	0,063	-0,034
-59,549	81,936	0,042	-0,032
-58,534	-29,048	-1,551	-0,628
-57,519	407,458	-1,376	-2,068
-56,505	-200,000	-0,662	-4,427
-55,490	247,092	0,994	1,191
-54,476	800,000	4,711	11,007
-53,461	-200,000	18,690	301,425
-52,446	800,000	734,787	2277,044
-51,432	563,643	1650,866	2843,694
-50,417	78,812	1668,925	1263,879
-49,403	22,250	1541,843	889,918
-48,388	16,139	1464,860	815,803
-47,373	17,788	1454,809	818,137
-46,359	16,943	1445,069	808,573
-45,344	14,443	1440,322	793,921
-44,330	14,371	1438,452	792,516
-43,315	14,368	1436,648	791,476
-42,300	14,378	1435,155	790,670
-41,286	14,400	1434,087	790,153
-40,271	14,298	1432,757	788,904
-39,257	14,312	1431,571	788,284
-38,242	14,419	1430,017	787,908
-37,227	14,399	1429,003	787,222
-36,213	14,398	1427,567	786,396
-35,198	14,424	1426,283	785,782
-34,184	14,440	1425,489	785,386
-33,169	14,343	1424,290	784,234
-32,154	14,443	1422,980	783,959
-31,140	14,420	1421,701	783,110
-30,125	14,411	1420,775	782,529
-29,111	14,418	1419,494	781,827
-28,096	14,425	1418,305	781,170
-27,082	14,351	1417,403	780,293
-26,067	14,305	1416,303	779,444
-25,052	14,318	1415,164	778,845
-24,038	14,301	1414,354	778,291
-23,023	14,294	1413,324	777,657
-22,009	14,273	1412,345	776,991
-20,994	14,248	1411,610	776,440
-19,979	14,259	1410,594	775,901
-18,965	14,270	1409,414	775,271
-17,950	14,272	1408,490	774,742
-16,936	14,273	1407,520	774,184
-15,921	14,224	1406,543	773,387
-14,906	14,220	1405,577	772,805
-13,892	14,242	1404,722	772,408
-12,877	14,196	1403,780	771,644
-11,863	14,236	1402,775	771,247
-10,848	14,200	1402,137	770,697
-9,833	14,216	1401,063	770,151
-8,819	14,149	1400,146	769,307
-7,804	14,119	1399,337	768,691
-6,790	14,150	1398,178	768,165
-5,775	14,160	1397,259	767,679
-4,760	14,143	1396,171	766,972
-3,746	14,146	1395,530	766,602
-2,731	14,110	1394,718	765,961
-1,717	14,073	1393,916	765,318
-0,702	14,110	1392,086	764,452
0,313	17,967	1310,251	737,384
1,327	34,355	705,800	435,182
2,342	52,796	124,042	83,832
3,356	2,290	16,486	8,413
4,371	4,901	3,159	1,639
5,386	-8,629	0,590	0,279
6,400	-200,000	-0,009	0,185
7,415	-81,380	-0,303	-0,070
8,429	-129,363	-0,255	-0,025
9,444	246,890	-0,232	-0,277
10,459	-3,667	-0,294	-0,144
11,473	86,059	-0,308	-0,239
12,488	-87,680	-0,303	-0,064
13,502	-92,819	-0,326	-0,064
14,517	301,639	-0,215	-0,281
15,531	26,044	-0,465	-0,273
16,546	-18,451	-0,366	-0,161
17,561	14,744	-0,465	-0,256
18,575	-166,788	-0,146	-0,004
19,590	25,421	-0,309	-0,181
20,604	-125,910	-0,228	-0,024
21,619	104,715	-0,530	-0,441
22,634	294,203	-0,330	-0,427
23,648	53,194	-0,379	-0,256
24,663	40,760	-0,456	-0,290
25,677	170,010	-0,398	-0,402
26,692	125,237	-0,406	-0,361
27,707	-37,551	-0,237	-0,089
28,721	113,125	-0,343	-0,294
29,736	186,219	-0,390	-0,410
30,750	157,596	-0,317	-0,310
31,765	155,707	-0,425	-0,414
32,780	236,530	-0,178	-0,209
33,794	181,277	-0,329	-0,342
34,809	102,595	-0,319	-0,263
35,823	159,563	-0,370	-0,364
36,838	119,594	-0,494	-0,432
37,853	107,113	-0,358	-0,300
38,867	142,896	-0,372	-0,349
39,882	61,293	-0,342	-0,239
40,896	55,508	-0,194	-0,132
41,911	-22,645	-0,303	-0,129
42,926	141,079	-0,242	-0,225
43,940	183,804	-0,336	-0,351
44,955	72,545	-0,391	-0,287
45,969	180,326	-0,326	-0,338
46,984	20,934	-0,346	-0,197
47,999	170,494	-0,222	-0,225
49,013	163,025	-0,274	-0,271
50,028	-56,172	-0,383	-0,120
51,042	95,795	-0,338	-0,272
52,057	122,344	-0,329	-0,290
53,071	-68,816	-0,302	-0,082
54,086	115,279	-0,310	-0,267
55,101	59,512	-0,426	-0,295
56,115	237,939	-0,266	-0,311
57,130	86,248	-0,373	-0,289
58,144	38,708	-0,408	-0,256
59,159	7,830	-0,380	-0,200
60,174	33,861	-0,333	-0,204
61,188	-23,782	-0,485	-0,204
62,203	80,537	-0,353	-0,268
63,217	58,904	-0,346	-0,239
64,232	42,928	-0,255	-0,163
65,247	112,478	-0,362	-0,309
66,261	145,966	-0,219	-0,207
67,276	34,571	-0,465	-0,286
68,290	3,986	-0,321	-0,165
69,305	199,400	-0,313	-0,339
70,320	117,877	-0,175	-0,152
71,334	-34,347	-0,347	-0,133
72,349	-3,191	-0,335	-0,164
73,363	-17,676	-0,390	-0,172
74,378	29,376	-0,420	-0,250
75,393	41,895	-0,395	-0,252
76,407	-84,581	-0,382	-0,084
77,422	171,467	-0,205	-0,207
78,436	138,585	-0,209	-0,193
79,451	7,424	-0,369	-0,193
80,466	-15,648	-0,405	-0,181
81,480	-42,297	-0,391	-0,140
82,495	125,474	-0,268	-0,238
83,509	-17,414	-0,296	-0,131
84,524	65,366	-0,282	-0,200
85,539	-11,147	-0,294	-0,136
86,553	-20,401	-0,318	-0,137
87,568	1,873	-0,350	-0,177
88,582	128,383	-0,293	-0,262
89,597	52,792	-0,363	-0,243
90,611	68,021	-0,414	-0,297
91,626	69,758	-0,303	-0,219
92,641	-76,279	-0,257	-0,063
93,655	390,002	-0,131	-0,192
94,670	367,257	-0,219	-0,312
95,684	438,844	-0,159	-0,245
96,699	212,913	-0,238	-0,264
97,714	34,203	-0,259	-0,158
98,728	-85,064	-0,308	-0,067
99,743	-100,912	-0,261	-0,045
100,757	21,334	-0,276	-0,157
101,772	205,620	-0,276	-0,302
102,787	157,964	-0,269	-0,262
103,801	466,221	-0,212	-0,335
104,816	55,415	-0,158	-0,107
105,830	14,246	-0,247	-0,135
106,845	-200,000	-0,043	-0,170
107,860	1,137	-0,296	-0,149
108,874	25,449	-0,301	-0,175
109,889	284,723	-0,224	-0,283
110,903	169,853	-0,171	-0,171
111,918	97,972	-0,194	-0,156
112,933	84,791	-0,197	-0,151
113,947	252,596	-0,138	-0,165
114,962	91,799	-0,218	-0,172
115,976	-50,272	-0,293	-0,097
116,991	63,087	-0,298	-0,209
118,006	193,173	-0,229	-0,243
119,020	72,071	-0,217	-0,158
120,035	182,222	-0,174	-0,180
121,049	85,615	-0,243	-0,187
122,064	79,393	-0,209	-0,157
123,079	4,533	-0,349	-0,179
124,093	40,930	-0,351	-0,222
125,108	179,300	-0,242	-0,248
126,122	153,587	-0,235	-0,225
127,137	44,889	-0,238	-0,153
128,151	-9,834	-0,236	-0,110
129,166	109,638	-0,253	-0,212
130,181	32,540	-0,342	-0,206
131,195	-46,029	-0,191	-0,066
132,210	36,255	-0,284	-0,175
133,224	-26,092	-0,290	-0,119
134,239	92,745	-0,240	-0,189
135,254	153,125	-0,278	-0,267
136,268	107,066	-0,207	-0,172
137,283	-80,366	-0,195	-0,045
138,297	-21,211	-0,317	-0,135
139,312	29,008	-0,283	-0,167
140,327	452,963	-0,212	-0,328
141,341	171,334	-0,228	-0,229
142,356	-3,190	-0,294	-0,143
143,370	163,215	-0,118	-0,116
144,385	-69,767	-0,263	-0,070
145,400	156,918	-0,202	-0,195
146,414	43,928	-0,272	-0,174
147,429	9,374	-0,289	-0,152
148,443	147,086	-0,256	-0,241
149,458	-39,374	-0,334	-0,122
150,473	124,666	-0,221	-0,194
151,487	217,237	-0,185	-0,207
152,502	43,588	-0,127	-0,081
153,516	103,946	-0,196	-0,161
154,531	253,281	-0,183	-0,219
155,546	-6,267	-0,386	-0,184
156,560	451,493	-0,108	-0,168
157,575	9,184	-0,320	-0,168
158,589	83,609	-0,319	-0,243
159,604	-46,719	-0,334	-0,114
160,619	21,138	-0,257	-0,145
161,633	20,941	-0,361	-0,204
162,648	-32,623	-0,307	-0,119
163,662	-47,520	-0,174	-0,059
164,677	59,844	-0,338	-0,233
165,692	141,523	-0,231	-0,213
166,706	35,576	-0,311	-0,190
167,721	-73,245	-0,212	-0,054
168,735	107,866	-0,267	-0,222
169,750	326,465	-0,173	-0,232
170,764	348,463	-0,206	-0,285
171,779	76,176	-0,214	-0,158
172,794	41,673	-0,220	-0,139
173,808	-8,023	-0,254	-0,119
174,823	493,634	-0,127	-0,203
175,837	149,683	-0,176	-0,166
176,852	194,069	-0,155	-0,164
177,867	251,334	-0,173	-0,205
178,881	74,087	-0,227	-0,166
179,896	205,522	-0,087	-0,094
180,910	-111,036	-0,239	-0,034
181,925	92,825	-0,290	-0,228
182,940	106,893	-0,255	-0,211
183,954	83,063	-0,145	-0,110
184,969	-200,000	-0,072	-0,269
185,983	219,702	-0,111	-0,124
186,998	-3,161	-0,110	-0,053
188,013	201,693	-0,205	-0,221
189,027	268,519	-0,152	-0,186
190,042	-40,201	-0,147	-0,053
191,056	800,000	-0,124	-0,327
192,071	75,361	-0,217	-0,159
193,086	170,453	-0,173	-0,173
194,100	175,822	-0,168	-0,170
195,115	-23,627	-0,215	0,089
196,129	800,000	-0,073	-0,197
197,144	32,343	-0,230	-0,138
198,159	224,246	-0,161	-0,182
199,173	182,339	-0,141	-0,145
200,188	22,022	-0,180	-0,102
201,202	205,226	-0,232	-0,250
202,217	306,040	-0,214	-0,278
203,232	91,973	-0,187	-0,146
204,246	111,678	-0,179	-0,150
205,261	-118,934	-0,211	0,025
206,275	509,470	-0,157	-0,255
207,290	800,000	-0,138	-0,316
208,304	30,567	-0,106	-0,063
209,319	-200,000	-0,056	-0,253
210,334	-68,239	-0,323	-0,087
211,348	17,189	-0,311	-0,171
212,363	208,572	-0,126	-0,137
213,377	92,426	-0,173	-0,135
214,392	320,239	-0,155	-0,206
215,407	243,667	-0,063	-0,074
216,421	45,045	-0,347	-0,222
217,436	312,136	-0,167	-0,219
218,450	215,956	-0,208	-0,230
219,465	-110,007	-0,100	-0,014
220,480	107,238	-0,202	-0,167
221,494	-64,947	-0,035	0,010
222,509	-67,547	-0,221	-0,060
223,523	-21,044	-0,168	-0,071
224,538	-83,339	-0,216	-0,048
225,553	675,125	-0,135	-0,245
226,567	-5,804	-0,239	-0,113
227,582	407,845	-0,177	-0,261
228,596	289,900	-0,103	-0,130
229,611	-57,668	-0,192	-0,058
230,626	461,314	-0,073	-0,113
231,640	300,205	-0,061	-0,078
232,655	91,718	-0,199	-0,155
233,669	-9,593	-0,278	-0,128
234,684	-200,000	-0,038	-0,152
235,699	646,596	-0,072	-0,128
236,713	92,037	-0,152	-0,119
237,728	-63,133	-0,207	-0,059
238,742	153,336	-0,156	-0,148
239,757	65,804	-0,130	-0,091
240,772	13,676	-0,151	-0,081
241,786	800,000	-0,031	-0,076
242,801	26,808	-0,205	-0,119
243,815	186,018	-0,156	-0,161
244,830	-99,381	-0,152	-0,026
245,844	-200,000	-0,033	-0,158
246,859	227,777	-0,152	-0,172
247,874	383,700	-0,157	-0,225
248,888	117,205	-0,192	-0,164
249,903	394,789	-0,149	-0,216
250,917	306,438	-0,180	-0,233
251,932	-78,700	-0,185	-0,043
252,947	77,560	-0,234	-0,172
253,961	442,220	-0,212	-0,323
254,976	611,465	-0,096	-0,167
255,990	243,764	-0,162	-0,188
257,005	40,804	-0,184	-0,115
258,020	-7,607	-0,128	-0,059
259,034	33,154	-0,175	-0,105
260,049	-62,922	-0,267	-0,076
261,063	54,297	-0,177	-0,117
262,078	144,785	-0,217	-0,200
263,093	505,523	-0,174	-0,279
264,107	-200,000	-0,051	-0,163
265,122	-102,747	-0,094	-0,015
266,136	431,385	-0,085	-0,128
267,151	-155,307	-0,260	0,012
268,166	311,155	-0,089	-0,116
269,180	262,176	-0,135	-0,162
270,195	30,260	-0,211	-0,124
271,209	61,672	-0,175	-0,120
272,224	12,146	-0,204	-0,108
273,239	-26,704	-0,190	-0,076
274,253	776,157	-0,110	-0,208
275,268	156,402	-0,231	-0,221
276,282	619,167	-0,202	-0,353
277,297	179,794	-0,204	-0,207
278,312	406,525	-0,142	-0,208
279,326	-200,000	-0,066	-0,231
280,341	44,779	-0,137	-0,087
281,355	800,000	-0,015	-0,039
282,370	38,574	-0,181	-0,111
283,384	-144,512	-0,152	-0,010
284,399	245,684	-0,133	-0,155
285,414	800,000	-0,118	-0,227
286,428	-114,172	-0,184	-0,024
287,443	454,398	-0,118	-0,181
288,457	-181,635	-0,068	0,001
289,472	-41,685	-0,090	-0,032
290,487	268,106	-0,228	-0,276
291,501	338,131	-0,106	-0,142
292,516	100,003	-0,107	-0,085
293,530	77,542	-0,215	-0,158
294,545	-47,826	-0,062	-0,021
295,560	-84,790	-0,057	-0,012
296,574	150,487	-0,120	-0,113
297,589	93,805	-0,222	-0,173
298,603	444,961	-0,120	-0,182
299,618	-97,861	-0,129	-0,023
300,633	-200,000	-0,028	-0,098
301,647	-19,346	-0,167	-0,071
302,662	16,726	-0,222	-0,121
303,676	79,427	-0,158	-0,116
304,691	646,975	-0,084	-0,149
305,706	327,896	-0,135	-0,180
306,720	800,000	-0,081	-0,206
307,735	27,749	-0,141	-0,081
308,749	-172,050	-0,095	0,002
309,764	-200,000	0,010	-0,149
310,779	180,039	-0,116	-0,118
311,793	63,689	-0,099	-0,069
312,808	51,852	-0,060	-0,039
313,822	129,849	-0,133	-0,117
314,837	59,732	-0,088	-0,060
315,852	-128,845	-0,173	-0,017
316,866	-200,000	-0,025	-0,218
317,881	100,188	-0,116	-0,092
318,895	99,797	-0,132	-0,105
319,910	118,792	-0,191	-0,163
320,925	-77,387	-0,113	-0,027
321,939	782,309	-0,076	-0,144
322,954	365,981	-0,057	-0,080
323,968	-200,000	-0,002	-0,194
324,983	-200,000	-0,011	-0,077
325,997	-103,746	-0,107	-0,017
327,012	42,966	-0,086	-0,054
328,027	-146,488	-0,129	0,008
329,041	-34,688	-0,154	-0,058
330,056	-98,020	-0,188	-0,033
331,070	359,181	-0,049	-0,068
332,085	-25,545	-0,127	-0,051
333,100	800,000	-0,084	-0,180
334,114	-15,836	-0,207	-0,090
335,129	134,155	-0,191	-0,170
336,143	-14,692	-0,265	-0,117
337,158	-68,773	-0,248	-0,066
338,173	209,036	-0,109	-0,118
339,187	45,128	-0,144	-0,091
340,202	344,103	-0,162	-0,219
341,216	64,259	-0,187	-0,129
342,231	-43,237	-0,187	-0,065
343,246	-200,000	-0,045	-0,193
344,260	643,075	-0,074	-0,130
345,275	-200,000	0,046	-0,164
346,289	84,598	-0,091	0,068
347,304	800,000	-0,091	-0,242
348,319	456,915	-0,155	-0,237
349,333	205,461	-0,157	-0,167
350,348	76,229	-0,101	-0,073
351,362	-200,000	-0,005	-0,132
352,377	-122,625	-0,102	-0,011
353,392	-83,406	-0,030	-0,006
354,406	-200,000	-0,003	-0,063
355,421	209,250	1314,657	1415,402
356,435	161,044	1475,361	1415,899
