DTS Sentinel unit serial number:	SN410029Multiplexer serial number:	ORYXHardware model number:	OX2-SRSoftware version number:	ORYX F/W v4,00 Oryx Data Collector v3.7.2.0data status	okinstallation	B3 Nyhavnadifferential loss correction	single-endedforward channel	channel 1reverse channel	N/Adate	2023/12/04time	20:02:30forward acquisition time	300,00reverse acquisition time	0,00gamma	499,1914k internal	0,3200k external	0,3200temperature offset calibration	1,0000default loss term (dB/km)	0,3820temperature slope calibration	1,0000multiplexer offset coefficient	1,0000multiplexer slope coefficient	1,0000fibre end	0,00T internal ref (°C)	14,50T ext. ref 1 (°C)	-0,66T ext. ref 2 (°C)	-0,68length (m)	temperature (°C)	Stokes	anti-Stokes-744,400	565,005	-0,183	-0,323
-743,385	-200,000	0,056	0,277
-742,371	140,859	-0,206	-0,198
-741,356	800,000	0,118	0,329
-740,342	101,481	-0,203	-0,172
-739,327	-200,000	-0,069	0,242
-738,312	40,193	-0,292	-0,191
-737,298	-200,000	-0,068	0,342
-736,283	95,493	-0,282	-0,233
-735,269	756,131	0,196	0,387
-734,254	111,235	-0,241	-0,212
-733,239	-54,791	-0,210	0,069
-732,225	-200,000	-0,028	-0,188
-731,210	231,032	0,124	0,148
-730,196	-200,000	0,004	0,044
-729,181	-75,377	-0,052	0,013
-728,167	-134,314	-0,086	-0,008
-727,152	-144,039	-0,186	-0,012
-726,137	800,000	-0,050	0,145
-725,123	721,074	-0,027	-0,052
-724,108	-159,220	-0,111	-0,004
-723,094	-187,075	-0,095	-0,001
-722,079	-200,000	-0,015	-0,153
-721,064	800,000	0,015	0,032
-720,050	-200,000	0,002	0,069
-719,035	1,131	0,073	-0,038
-718,021	150,153	0,017	0,017
-717,006	295,931	-0,082	0,110
-715,991	800,000	0,051	-0,112
-714,977	50,322	0,086	0,059
-713,962	800,000	0,022	0,051
-712,948	41,872	-0,069	-0,045
-711,933	800,000	-0,017	0,040
-710,918	-22,508	0,028	-0,012
-709,904	-200,000	-0,010	-0,052
-708,889	-200,000	0,015	-0,121
-707,875	800,000	-0,094	-0,245
-706,860	800,000	0,026	-0,059
-705,845	36,652	-0,050	0,032
-704,831	-200,000	0,019	-0,075
-703,816	471,939	0,048	0,078
-702,802	-100,571	-0,113	-0,020
-701,787	-55,930	-0,104	-0,034
-700,772	78,997	0,057	0,045
-699,758	800,000	-0,015	-0,036
-698,743	-145,794	0,142	0,009
-697,729	800,000	-0,048	0,099
-696,714	41,038	-0,081	0,053
-695,699	-19,695	-0,142	-0,064
-694,685	61,320	0,124	-0,089
-693,670	800,000	-0,060	-0,167
-692,656	421,222	-0,058	-0,091
-691,641	800,000	0,023	0,055
-690,627	-200,000	-0,001	0,050
-689,612	800,000	0,012	-0,031
-688,597	-33,685	-0,073	-0,029
-687,583	-76,973	-0,169	0,043
-686,568	-8,705	-0,054	-0,026
-685,554	29,305	-0,107	-0,066
-684,539	-91,405	0,127	-0,026
-683,524	-200,000	-0,006	0,132
-682,510	48,425	0,041	-0,028
-681,495	-200,000	-0,013	0,060
-680,481	99,244	-0,111	-0,093
-679,466	165,552	-0,011	0,011
-678,451	-56,825	-0,129	-0,041
-677,437	722,482	-0,040	-0,077
-676,422	-29,810	0,073	0,030
-675,408	79,663	0,073	-0,057
-674,393	-200,000	-0,008	0,046
-673,378	-97,074	-0,123	-0,023
-672,364	102,374	-0,136	-0,115
-671,349	-117,998	-0,158	-0,020
-670,335	-200,000	-0,002	0,139
-669,320	800,000	0,020	-0,044
-668,305	-66,881	0,129	0,037
-667,291	-200,000	-0,027	0,149
-666,276	349,652	0,078	-0,112
-665,262	226,695	-0,072	-0,085
-664,247	-200,000	-0,006	-0,142
-663,232	-200,000	0,014	0,046
-662,218	565,569	0,010	0,018
-661,203	-200,000	-0,014	0,192
-660,189	-200,000	-0,021	0,122
-659,174	-53,617	-0,091	0,030
-658,159	17,821	0,023	0,013
-657,145	-65,774	0,040	0,011
-656,130	-25,032	-0,047	0,020
-655,116	-200,000	0,023	0,121
-654,101	-200,000	-0,013	-0,119
-653,086	130,794	-0,022	0,021
-652,072	-78,563	0,075	-0,018
-651,057	800,000	0,043	-0,127
-650,043	182,544	-0,092	-0,098
-649,028	-122,406	-0,209	0,024
-648,014	-200,000	-0,024	-0,143
-646,999	311,568	0,059	-0,081
-645,984	-200,000	-0,005	0,055
-644,970	142,901	0,051	0,049
-643,955	-137,582	-0,085	0,007
-642,941	-200,000	-0,043	0,140
-641,926	-200,000	0,016	-0,151
-640,911	58,985	0,012	0,008
-639,897	-91,551	0,008	-0,002
-638,882	51,249	0,058	-0,040
-637,868	70,211	-0,045	-0,034
-636,853	116,316	-0,073	0,065
-635,838	437,567	0,029	0,046
-634,824	-200,000	0,008	-0,140
-633,809	207,482	0,123	0,139
-632,795	-52,316	0,075	0,025
-631,780	235,816	-0,038	-0,046
-630,765	-8,453	-0,082	-0,040
-629,751	-58,713	-0,149	-0,046
-628,736	233,171	-0,125	0,149
-627,722	-41,429	0,087	0,032
-626,707	800,000	0,064	0,169
-625,692	800,000	-0,031	0,089
-624,678	-200,000	0,028	-0,155
-623,663	-163,966	-0,047	0,002
-622,649	1,461	-0,066	0,034
-621,634	-4,013	-0,065	-0,033
-620,619	-200,000	-0,032	-0,151
-619,605	800,000	-0,034	-0,081
-618,590	800,000	0,034	0,083
-617,576	-90,590	0,068	-0,014
-616,561	31,737	-0,157	0,098
-615,546	570,207	0,036	-0,064
-614,532	551,651	-0,076	-0,132
-613,517	20,319	-0,111	0,065
-612,503	161,997	0,039	-0,040
-611,488	800,000	-0,046	-0,104
-610,474	-200,000	0,004	-0,069
-609,459	61,809	-0,101	-0,073
-608,444	-200,000	0,021	-0,133
-607,430	-104,192	0,044	0,007
-606,415	-166,712	0,115	-0,003
-605,401	-23,918	0,047	0,020
-604,386	13,320	-0,076	0,043
-603,371	-120,333	0,113	0,014
-602,357	91,069	0,030	-0,024
-601,342	-92,248	-0,038	-0,008
-600,328	-200,000	-0,020	-0,093
-599,313	800,000	0,044	-0,117
-598,298	-164,684	0,013	0,000
-597,284	319,346	-0,135	0,185
-596,269	800,000	0,028	0,081
-595,255	-16,515	0,022	-0,010
-594,240	-7,068	-0,113	-0,055
-593,225	-128,720	0,037	-0,004
-592,211	800,000	-0,079	-0,197
-591,196	109,003	0,060	-0,051
-590,182	502,935	0,063	0,106
-589,167	-200,000	-0,019	0,073
-588,152	800,000	0,008	0,020
-587,138	201,917	-0,088	-0,098
-586,123	67,811	-0,093	0,069
-585,109	91,255	-0,163	-0,132
-584,094	562,242	0,044	-0,077
-583,079	-168,477	0,046	0,001
-582,065	800,000	0,082	0,196
-581,050	-98,625	0,071	0,013
-580,036	-200,000	-0,012	-0,142
-579,021	-2,981	0,069	0,035
-578,006	77,160	-0,024	0,019
-576,992	-200,000	-0,003	-0,040
-575,977	66,214	0,063	-0,046
-574,963	81,505	0,153	0,120
-573,948	61,917	-0,094	-0,068
-572,934	-104,710	0,116	0,019
-571,919	168,954	-0,085	0,087
-570,904	142,957	-0,095	-0,092
-569,890	-130,877	-0,088	-0,008
-568,875	55,879	-0,054	0,038
-567,861	-56,449	0,060	0,019
-566,846	25,189	-0,064	0,038
-565,831	187,133	-0,014	-0,015
-564,817	317,050	-0,040	0,055
-563,802	800,000	-0,024	-0,049
-562,788	-88,837	-0,104	0,022
-561,773	210,659	0,043	0,048
-560,758	-200,000	-0,001	0,078
-559,744	296,683	0,039	-0,052
-558,729	93,818	0,006	-0,005
-557,715	515,725	-0,032	0,054
-556,700	-200,000	0,017	-0,099
-555,685	-65,377	-0,040	0,012
-554,671	502,541	0,076	-0,128
-553,656	800,000	-0,058	0,133
-552,642	-200,000	0,002	-0,020
-551,627	-105,889	-0,054	0,009
-550,612	23,835	-0,156	0,093
-549,598	800,000	-0,041	-0,098
-548,583	-200,000	0,006	-0,059
-547,569	43,874	-0,014	-0,009
-546,554	-200,000	-0,002	0,102
-545,539	101,232	-0,131	0,110
-544,525	-61,198	0,129	-0,039
-543,510	-31,424	-0,142	-0,057
-542,496	-200,000	-0,009	-0,072
-541,481	-200,000	-0,005	0,050
-540,466	11,412	0,114	-0,063
-539,452	-3,366	-0,028	0,014
-538,437	735,011	-0,034	0,066
-537,423	7,972	-0,037	-0,020
-536,408	-120,606	0,069	-0,008
-535,393	126,622	-0,112	0,102
-534,379	27,733	-0,095	0,058
-533,364	511,374	0,058	0,097
-532,350	-60,483	0,072	0,022
-531,335	-27,520	-0,047	0,020
-530,321	66,749	-0,047	0,034
-529,306	98,514	0,035	0,029
-528,291	182,664	-0,107	0,114
-527,277	20,793	-0,107	-0,062
-526,262	-10,143	0,036	-0,017
-525,248	-106,372	0,071	-0,011
-524,233	-200,000	0,020	0,092
-523,218	42,137	0,096	0,063
-522,204	360,532	0,059	0,086
-521,189	-90,230	-0,095	0,020
-520,175	-200,000	0,000	-0,066
-519,160	76,431	-0,059	-0,045
-518,145	-35,929	-0,075	-0,029
-517,131	12,828	-0,040	0,022
-516,116	-56,486	0,107	0,034
-515,102	19,107	0,074	0,042
-514,087	-173,339	-0,108	0,002
-513,072	692,386	-0,033	-0,062
-512,058	377,670	0,082	-0,121
-511,043	800,000	-0,039	-0,097
-510,029	800,000	0,097	0,211
-509,014	45,389	0,114	0,076
-507,999	-117,810	-0,053	-0,007
-506,985	199,126	-0,048	-0,053
-505,970	-200,000	-0,027	-0,121
-504,956	220,442	0,018	0,021
-503,941	-128,908	0,111	0,011
-502,926	-0,825	-0,094	0,048
-501,912	-47,127	0,052	-0,018
-500,897	-76,798	-0,146	-0,037
-499,883	60,450	0,055	0,039
-498,868	144,256	0,147	-0,141
-497,853	143,710	0,032	-0,030
-496,839	47,902	-0,079	-0,053
-495,824	-77,326	0,111	-0,028
-494,810	-117,076	0,120	0,016
-493,795	-18,857	-0,052	-0,023
-492,781	95,911	0,072	0,059
-491,766	92,480	-0,091	-0,074
-490,751	800,000	0,017	-0,045
-489,737	-200,000	-0,004	-0,107
-488,722	391,628	0,059	-0,088
-487,708	180,262	0,102	0,108
-486,693	180,966	0,015	-0,016
-485,678	532,619	-0,028	-0,047
-484,664	-200,000	-0,001	0,081
-483,649	-200,000	0,002	0,052
-482,635	66,592	0,071	-0,052
-481,620	-119,013	0,069	0,009
-480,605	-200,000	0,003	0,135
-479,591	-29,756	-0,083	-0,034
-478,576	433,275	-0,072	0,113
-477,562	-102,479	-0,063	0,011
-476,547	26,876	0,058	-0,035
-475,532	-146,340	0,102	-0,006
-474,518	-200,000	-0,009	-0,033
-473,503	-200,000	-0,042	0,176
-472,489	113,665	0,020	0,017
-471,474	-2,488	-0,151	0,076
-470,459	-200,000	-0,003	-0,077
-469,445	206,702	0,047	-0,053
-468,430	-51,617	0,116	0,039
-467,416	-200,000	0,009	-0,057
-466,401	66,927	0,042	-0,031
-465,386	697,248	0,111	0,212
-464,372	-61,815	0,072	-0,022
-463,357	23,536	-0,139	-0,082
-462,343	16,908	-0,064	0,036
-461,328	800,000	-0,061	-0,137
-460,313	-84,771	-0,053	0,012
-459,299	-200,000	-0,004	-0,061
-458,284	-200,000	-0,013	0,057
-457,270	-200,000	-0,032	0,106
-456,255	-127,805	0,029	-0,003
-455,241	-200,000	-0,029	-0,124
-454,226	452,137	0,059	-0,094
-453,211	-200,000	-0,005	-0,040
-452,197	327,287	0,092	0,127
-451,182	129,676	-0,064	0,059
-450,168	110,795	0,102	0,088
-449,153	286,138	-0,084	0,109
-448,138	-200,000	-0,006	-0,036
-447,124	750,869	0,079	-0,154
-446,109	-70,638	-0,041	0,011
-445,095	121,125	0,053	-0,047
-444,080	191,198	0,044	-0,048
-443,065	-10,986	0,010	-0,005
-442,051	105,714	0,088	-0,074
-441,036	-200,000	-0,021	-0,107
-440,022	88,175	-0,011	-0,008
-439,007	84,638	0,128	-0,101
-437,992	6,161	0,075	-0,040
-436,978	33,021	-0,050	0,031
-435,963	800,000	0,014	-0,027
-434,949	-30,125	-0,038	-0,016
-433,934	294,068	0,092	0,121
-432,919	316,722	-0,026	0,035
-431,905	112,061	-0,066	-0,058
-430,890	-172,804	0,125	0,003
-429,876	195,425	0,040	0,044
-428,861	89,314	0,038	0,031
-427,846	-200,000	0,010	-0,177
-426,832	-200,000	-0,004	-0,022
-425,817	9,369	0,127	-0,069
-424,803	-99,770	0,063	-0,011
-423,788	471,991	-0,033	0,053
-422,773	69,976	0,036	0,026
-421,759	800,000	-0,058	0,134
-420,744	-106,911	0,060	-0,009
-419,730	-200,000	-0,015	0,161
-418,715	17,182	-0,151	-0,086
-417,701	72,884	-0,011	0,008
-416,686	-26,554	0,015	0,006
-415,671	-200,000	-0,019	0,104
-414,657	800,000	0,010	0,023
-413,642	251,021	-0,050	0,061
-412,628	-92,005	0,024	-0,005
-411,613	-94,323	0,077	-0,015
-410,598	-101,628	-0,083	-0,014
-409,584	-26,817	0,112	-0,047
-408,569	-88,811	0,061	0,013
-407,555	52,074	0,121	-0,083
-406,540	44,327	-0,043	0,028
-405,525	112,762	0,027	0,023
-404,511	-125,283	-0,104	0,011
-403,496	687,834	-0,056	-0,107
-402,482	-74,233	-0,121	-0,031
-401,467	389,401	0,080	0,120
-400,452	-32,315	-0,087	-0,035
-399,438	-53,156	0,027	-0,009
-398,423	515,490	-0,014	-0,024
-397,409	-27,261	0,048	0,020
-396,394	800,000	-0,030	0,084
-395,379	-63,343	0,109	-0,032
-394,365	-200,000	0,020	0,096
-393,350	-200,000	0,025	0,105
-392,336	-200,000	0,019	0,111
-391,321	-200,000	-0,003	0,039
-390,306	-200,000	0,010	-0,080
-389,292	-129,304	0,086	-0,008
-388,277	-200,000	0,001	0,100
-387,263	-35,283	0,113	0,044
-386,248	-2,978	0,211	0,105
-385,233	459,563	-0,037	-0,059
-384,219	7,579	0,027	0,015
-383,204	158,041	-0,117	0,116
-382,190	-128,982	-0,156	0,015
-381,175	21,952	-0,107	0,063
-380,160	800,000	-0,036	0,095
-379,146	-200,000	0,048	0,187
-378,131	-18,920	-0,157	-0,070
-377,117	-200,000	0,003	0,010
-376,102	337,758	-0,071	-0,099
-375,088	123,956	-0,062	0,056
-374,073	-87,800	-0,221	0,047
-373,058	-106,254	0,164	-0,026
-372,044	800,000	0,018	-0,049
-371,029	172,650	-0,100	0,104
-370,015	284,040	0,112	0,145
-369,000	33,871	0,120	-0,074
-367,985	-200,000	0,009	0,070
-366,971	-200,000	0,014	-0,095
-365,956	-159,017	0,156	-0,006
-364,942	9,283	-0,057	0,031
-363,927	-39,735	-0,155	0,058
-362,912	-128,416	-0,032	0,003
-361,898	-11,269	0,095	-0,045
-360,883	42,133	-0,088	0,057
-359,869	443,976	-0,062	0,097
-358,854	-35,454	-0,091	-0,035
-357,839	-40,029	0,041	-0,015
-356,825	-179,996	0,042	0,001
-355,810	95,054	0,064	-0,052
-354,796	800,000	-0,038	-0,078
-353,781	629,559	-0,039	0,071
-352,766	3,476	-0,017	0,009
-351,752	11,631	0,049	0,027
-350,737	-200,000	0,021	0,108
-349,723	90,792	0,042	0,034
-348,708	14,323	-0,051	-0,029
-347,693	-200,000	-0,009	-0,056
-346,679	-200,000	0,015	-0,077
-345,664	-113,735	-0,099	0,014
-344,650	76,790	0,076	-0,057
-343,635	208,567	0,112	0,126
-342,620	144,717	0,097	0,093
-341,606	-39,293	0,148	0,055
-340,591	-200,000	0,003	0,093
-339,577	-200,000	0,007	-0,040
-338,562	-72,434	0,034	0,009
-337,548	-200,000	0,005	-0,031
-336,533	634,645	0,035	-0,064
-335,518	64,971	0,071	-0,051
-334,504	-93,818	0,037	0,007
-333,489	-128,924	-0,118	0,012
-332,475	-31,336	-0,138	-0,056
-331,460	-139,413	0,112	0,008
-330,445	-129,517	-0,090	0,009
-329,431	-200,000	0,003	-0,074
-328,416	5,829	0,073	0,038
-327,402	155,119	-0,075	-0,073
-326,387	147,228	0,097	-0,094
-325,372	-200,000	0,016	0,157
-324,358	-200,000	-0,026	-0,195
-323,343	62,429	-0,138	-0,099
-322,329	800,000	-0,047	-0,119
-321,314	43,658	-0,014	-0,009
-320,299	93,674	0,063	0,051
-319,285	-53,175	-0,076	-0,025
-318,270	304,955	-0,132	-0,176
-317,256	-200,000	-0,020	-0,082
-316,241	-9,554	-0,157	0,075
-315,226	-200,000	0,028	0,090
-314,212	568,098	0,022	-0,039
-313,197	-107,556	0,062	0,010
-312,183	-200,000	0,001	-0,032
-311,168	800,000	-0,081	-0,197
-310,153	412,337	-0,027	0,041
-309,139	-100,223	-0,208	0,037
-308,124	223,108	0,090	0,104
-307,110	291,488	-0,101	0,131
-306,095	151,534	-0,052	0,051
-305,080	-17,344	0,037	-0,016
-304,066	265,481	-0,038	0,047
-303,051	-200,000	-0,003	0,023
-302,037	-39,786	0,169	-0,063
-301,022	-70,873	-0,087	-0,023
-300,008	-200,000	0,016	-0,096
-298,993	727,582	-0,052	0,100
-297,978	82,830	0,031	-0,024
-296,964	800,000	0,026	-0,054
-295,949	-70,705	-0,183	-0,049
-294,935	-82,916	0,076	0,017
-293,920	-200,000	0,004	0,018
-292,905	-154,298	0,101	0,005
-291,891	265,666	0,015	0,019
-290,876	-200,000	0,004	0,106
-289,862	-53,778	0,057	0,019
-288,847	-200,000	-0,002	-0,103
-287,832	800,000	-0,044	0,102
-286,818	-86,896	0,087	-0,019
-285,803	-65,007	0,122	0,035
-284,789	800,000	0,071	0,148
-283,774	-200,000	0,001	0,018
-282,759	362,340	-0,075	-0,108
-281,745	333,359	0,022	-0,030
-280,730	-200,000	-0,009	0,046
-279,716	-165,721	0,021	0,001
-278,701	-90,956	0,059	0,012
-277,686	439,166	0,027	0,042
-276,672	57,835	0,113	0,079
-275,657	-162,243	0,106	-0,004
-274,643	-200,000	-0,009	0,119
-273,628	-71,617	-0,129	-0,034
-272,613	499,130	0,049	-0,081
-271,599	-31,443	0,057	-0,023
-270,584	800,000	0,023	0,052
-269,570	379,467	-0,034	-0,051
-268,555	181,919	0,040	-0,042
-267,540	-200,000	-0,010	-0,034
-266,526	70,445	-0,127	-0,093
-265,511	-77,213	0,090	-0,022
-264,497	13,817	-0,055	0,031
-263,482	105,442	-0,007	-0,006
-262,467	0,212	0,114	-0,058
-261,453	-106,114	-0,068	-0,011
-260,438	800,000	0,012	-0,026
-259,424	94,619	-0,078	-0,063
-258,409	-200,000	-0,012	-0,036
-257,395	36,175	0,149	0,094
-256,380	800,000	0,024	0,074
-255,365	-45,655	-0,074	-0,026
-254,351	-200,000	-0,010	-0,116
-253,336	-200,000	0,005	-0,023
-252,322	-161,189	-0,055	-0,002
-251,307	321,783	-0,154	-0,210
-250,292	-200,000	-0,002	-0,046
-249,278	438,864	-0,024	-0,038
-248,263	-190,918	0,081	0,001
-247,249	-200,000	-0,009	0,062
-246,234	219,110	0,065	-0,075
-245,219	-200,000	-0,009	0,108
-244,205	171,813	0,014	-0,015
-243,190	-200,000	-0,021	0,103
-242,176	-200,000	-0,013	0,047
-241,161	800,000	0,063	0,135
-240,146	319,567	0,018	0,025
-239,132	-200,000	-0,013	-0,046
-238,117	507,411	0,033	-0,054
-237,103	800,000	-0,020	-0,058
-236,088	101,374	-0,047	0,039
-235,073	128,449	0,090	-0,082
-234,059	-79,578	-0,038	-0,009
-233,044	39,404	0,084	0,054
-232,030	495,952	-0,075	0,123
-231,015	192,737	-0,074	0,080
-230,000	76,717	0,140	-0,106
-228,986	752,458	0,009	-0,018
-227,971	51,294	-0,066	0,044
-226,957	-77,123	0,062	0,015
-225,942	-200,000	-0,014	0,066
-224,927	-200,000	0,017	-0,102
-223,913	-200,000	-0,013	0,061
-222,898	-135,084	-0,133	-0,011
-221,884	-7,542	0,088	-0,043
-220,869	-200,000	-0,005	0,026
-219,855	800,000	0,019	0,051
-218,840	-2,986	0,083	0,041
-217,825	-113,780	0,113	0,015
-216,811	-194,845	0,005	0,000
-215,796	800,000	-0,030	-0,080
-214,782	-200,000	0,039	-0,126
-213,767	-13,786	-0,043	-0,020
-212,752	800,000	-0,028	0,076
-211,738	663,048	-0,054	-0,100
-210,723	681,598	-0,026	-0,049
-209,709	-9,288	0,093	0,044
-208,694	-200,000	-0,024	-0,197
-207,679	800,000	0,044	-0,114
-206,665	-67,929	0,082	0,023
-205,650	-9,164	0,054	0,026
-204,636	112,390	0,053	0,046
-203,621	146,342	0,059	0,057
-202,606	-61,670	-0,144	-0,043
-201,592	-73,280	-0,075	-0,019
-200,577	-22,388	-0,086	-0,037
-199,563	126,647	0,058	0,052
-198,548	-27,261	0,093	0,038
-197,533	-200,000	0,000	-0,038
-196,519	-9,810	0,049	0,023
-195,504	-57,895	-0,075	-0,023
-194,490	15,592	-0,032	0,018
-193,475	-200,000	-0,026	-0,093
-192,460	26,796	-0,051	0,030
-191,446	5,986	0,040	-0,021
-190,431	-200,000	0,010	0,071
-189,417	-200,000	0,023	0,077
-188,402	86,707	-0,037	0,029
-187,387	-142,695	-0,107	-0,007
-186,373	52,399	-0,113	0,077
-185,358	-200,000	0,010	0,097
-184,344	-136,022	0,110	0,009
-183,329	217,345	-0,040	0,046
-182,315	227,932	0,030	0,034
-181,300	257,951	-0,072	0,089
-180,285	-67,904	-0,015	-0,004
-179,271	-200,000	-0,004	-0,094
-178,256	51,918	-0,145	-0,098
-177,242	-200,000	0,008	0,117
-176,227	-68,726	0,070	-0,019
-175,212	61,722	0,085	-0,060
-174,198	-154,822	0,084	0,004
-173,183	-188,729	-0,134	-0,001
-172,169	312,208	0,014	-0,019
-171,154	35,910	0,091	-0,057
-170,139	-200,000	-0,002	-0,071
-169,125	-200,000	-0,017	0,157
-168,110	129,217	-0,039	0,036
-167,096	-20,057	0,131	-0,057
-166,081	-98,633	0,058	-0,010
-165,066	58,560	-0,055	-0,039
-164,052	-88,996	0,168	-0,035
-163,037	-52,397	-0,118	-0,039
-162,023	-107,000	0,081	-0,013
-161,008	-169,739	0,045	-0,001
-159,993	-200,000	0,015	0,072
-158,979	95,217	0,077	-0,062
-157,964	53,415	-0,161	-0,109
-156,950	109,554	0,088	-0,075
-155,935	26,625	0,040	-0,023
-154,920	-200,000	0,027	0,090
-153,906	-84,139	-0,117	-0,026
-152,891	349,227	0,086	-0,121
-151,877	436,925	-0,024	-0,038
-150,862	4,140	0,148	-0,077
-149,847	117,137	0,019	-0,017
-148,833	-200,000	-0,007	0,108
-147,818	15,264	0,155	0,086
-146,804	800,000	-0,025	0,052
-145,789	495,302	0,073	0,120
-144,775	-150,301	-0,133	0,007
-143,760	-200,000	-0,031	-0,124
-142,745	800,000	0,041	-0,107
-141,731	-22,816	-0,090	-0,038
-140,716	224,849	0,123	0,142
-139,702	-200,000	-0,040	0,211
-138,687	-200,000	0,017	0,137
-137,672	-61,825	0,132	0,039
-136,658	41,158	-0,082	0,053
-135,643	-200,000	0,018	-0,064
-134,629	-200,000	0,012	-0,043
-133,614	-25,367	0,141	0,059
-132,599	-200,000	0,020	0,095
-131,585	269,395	0,082	0,102
-130,570	394,487	-0,041	0,061
-129,556	-5,847	-0,065	-0,031
-128,541	-57,360	0,014	0,004
-127,526	118,158	-0,038	0,033
-126,512	-200,000	0,004	-0,062
-125,497	-200,000	-0,006	0,076
-124,483	173,258	-0,033	0,034
-123,468	-38,785	0,090	0,034
-122,453	-4,058	-0,107	0,052
-121,439	-115,583	-0,170	0,022
-120,424	776,992	-0,093	-0,181
-119,410	-41,584	0,111	0,040
-118,395	-78,089	0,063	0,015
-117,380	762,960	-0,009	0,018
-116,366	27,456	0,073	0,044
-115,351	-200,000	0,002	0,075
-114,337	-200,000	-0,002	0,071
-113,322	42,689	0,034	0,022
-112,307	-151,319	0,109	0,006
-111,293	800,000	0,006	0,014
-110,278	-117,050	0,146	0,019
-109,264	330,981	-0,094	0,129
-108,249	95,092	-0,078	0,063
-107,234	430,874	-0,035	0,054
-106,220	-14,846	-0,093	0,042
-105,205	467,290	-0,063	-0,100
-104,191	800,000	0,033	-0,083
-103,176	494,372	-0,042	0,068
-102,162	800,000	0,034	0,077
-101,147	283,087	-0,166	-0,212
-100,132	71,789	0,063	-0,047
-99,118	94,891	-0,091	0,073
-98,103	-200,000	0,001	0,019
-97,089	6,229	-0,003	-0,002
-96,074	-84,286	-0,118	-0,026
-95,059	355,255	0,079	-0,112
-94,045	342,968	0,062	-0,086
-93,030	-97,461	0,121	0,022
-92,016	189,369	-0,063	0,067
-91,001	-200,000	-0,003	0,020
-89,986	-184,053	0,071	-0,001
-88,972	35,497	0,073	-0,045
-87,957	-200,000	-0,009	0,055
-86,943	-30,681	0,105	-0,042
-85,928	-200,000	-0,007	-0,037
-84,913	-155,646	-0,042	-0,002
-83,899	-200,000	-0,002	-0,197
-82,884	313,766	-0,028	0,037
-81,870	288,083	-0,018	0,024
-80,855	57,536	0,039	-0,027
-79,840	800,000	0,046	0,117
-78,826	142,706	0,013	0,013
-77,811	-200,000	-0,015	-0,118
-76,797	800,000	0,064	-0,171
-75,782	-200,000	0,008	-0,137
-74,767	-200,000	-0,013	0,087
-73,753	69,459	0,060	-0,044
-72,738	800,000	0,039	-0,084
-71,724	800,000	-0,036	0,098
-70,709	800,000	0,036	0,110
-69,694	-200,000	-0,021	-0,104
-68,680	258,672	-0,059	0,072
-67,665	-200,000	-0,014	0,156
-66,651	-139,353	-0,034	0,003
-65,636	-200,000	0,008	0,055
-64,622	59,912	0,070	0,049
-63,607	105,609	-0,052	-0,043
-62,592	-200,000	0,026	-0,148
-61,578	31,058	-0,126	-0,076
-60,563	483,643	0,137	0,221
-59,549	-200,000	-0,003	0,118
-58,534	-56,284	-1,703	-0,533
-57,519	408,384	-1,362	-2,047
-56,505	-200,000	-0,601	-4,595
-55,490	161,485	1,003	0,995
-54,476	800,000	4,843	11,299
-53,461	-200,000	18,550	297,711
-52,446	800,000	731,987	2259,794
-51,432	559,209	1648,469	2828,848
-50,417	78,894	1668,485	1263,200
-49,403	22,419	1541,563	890,076
-48,388	16,392	1464,508	816,346
-47,373	17,772	1454,605	817,452
-46,359	17,058	1444,784	808,479
-45,344	14,660	1440,418	794,534
-44,330	14,585	1438,116	792,873
-43,315	14,550	1436,670	791,879
-42,300	14,593	1434,953	791,106
-41,286	14,612	1433,828	790,546
-40,271	14,591	1432,400	789,628
-39,257	14,557	1431,272	788,813
-38,242	14,646	1429,531	788,241
-37,227	14,628	1428,712	787,674
-36,213	14,664	1427,248	787,006
-35,198	14,614	1426,397	786,268
-34,184	14,658	1425,345	785,868
-33,169	14,571	1424,037	784,702
-32,154	14,580	1423,106	784,202
-31,140	14,574	1421,686	783,360
-30,125	14,637	1420,421	782,929
-29,111	14,594	1419,515	782,195
-28,096	14,623	1418,272	781,615
-27,082	14,559	1417,273	780,736
-26,067	14,538	1416,197	780,013
-25,052	14,583	1415,161	779,621
-24,038	14,519	1414,149	778,732
-23,023	14,485	1413,151	777,992
-22,009	14,472	1412,370	777,472
-20,994	14,442	1411,325	776,723
-19,979	14,502	1410,358	776,442
-18,965	14,432	1409,328	775,517
-17,950	14,445	1408,365	775,015
-16,936	14,501	1407,267	774,641
-15,921	14,416	1406,375	773,723
-14,906	14,411	1405,536	773,208
-13,892	14,420	1404,732	772,776
-12,877	14,436	1403,746	772,281
-11,863	14,402	1402,927	771,638
-10,848	14,450	1401,796	771,208
-9,833	14,410	1401,006	770,559
-8,819	14,362	1400,026	769,763
-7,804	14,349	1398,942	769,077
-6,790	14,316	1398,201	768,486
-5,775	14,356	1396,967	767,966
-4,760	14,357	1396,160	767,494
-3,746	14,321	1395,534	766,954
-2,731	14,322	1394,696	766,467
-1,717	14,376	1393,613	766,090
-0,702	14,349	1391,645	764,857
0,313	18,134	1309,961	737,504
1,327	34,473	705,911	435,260
2,342	52,991	124,092	83,891
3,356	0,640	16,588	8,368
4,371	2,771	3,112	1,592
5,386	-65,127	0,587	0,166
6,400	-79,840	-0,017	-0,004
7,415	172,885	-0,215	-0,219
8,429	89,430	-0,298	-0,235
9,444	3,030	-0,363	-0,186
10,459	85,095	-0,206	-0,159
11,473	52,053	-0,386	-0,260
12,488	-1,899	-0,363	-0,180
13,502	-32,974	-0,221	-0,086
14,517	-83,567	-0,329	-0,074
15,531	79,796	-0,388	-0,294
16,546	34,976	-0,345	-0,213
17,561	72,567	-0,509	-0,375
18,575	-182,744	-0,227	-0,003
19,590	93,473	-0,268	-0,215
20,604	11,079	-0,322	-0,173
21,619	23,130	-0,421	-0,244
22,634	45,119	-0,423	-0,275
23,648	401,331	-0,358	-0,533
24,663	84,382	-0,478	-0,369
25,677	15,272	-0,378	-0,209
26,692	475,317	-0,235	-0,376
27,707	-41,269	-0,366	-0,132
28,721	48,669	-0,356	-0,235
29,736	15,946	-0,550	-0,305
30,750	162,699	-0,349	-0,346
31,765	7,855	-0,385	-0,203
32,780	168,566	-0,357	-0,360
33,794	64,542	-0,418	-0,297
34,809	85,023	-0,369	-0,285
35,823	33,550	-0,473	-0,289
36,838	50,170	-0,437	-0,291
37,853	102,417	-0,507	-0,418
38,867	17,612	-0,485	-0,271
39,882	123,064	-0,311	-0,274
40,896	67,778	-0,393	-0,283
41,911	36,764	-0,347	-0,216
42,926	456,919	-0,249	-0,391
43,940	63,076	-0,250	-0,177
44,955	-8,333	-0,384	-0,182
45,969	13,320	-0,456	-0,248
46,984	70,336	-0,272	-0,198
47,999	145,665	-0,241	-0,227
49,013	116,571	-0,270	-0,233
50,028	154,669	-0,359	-0,347
51,042	185,623	-0,295	-0,309
52,057	113,274	-0,314	-0,268
53,071	444,924	-0,237	-0,367
54,086	80,699	-0,319	-0,242
55,101	181,090	-0,217	-0,224
56,115	-12,210	-0,283	-0,130
57,130	85,958	-0,369	-0,286
58,144	111,977	-0,292	-0,248
59,159	170,870	-0,270	-0,273
60,174	176,933	-0,257	-0,264
61,188	187,512	-0,238	-0,250
62,203	233,593	-0,289	-0,336
63,217	101,073	-0,443	-0,363
64,232	10,971	-0,368	-0,197
65,247	30,033	-0,319	-0,191
66,261	24,381	-0,419	-0,243
67,276	108,071	-0,320	-0,268
68,290	-22,963	-0,407	-0,172
69,305	-70,082	-0,351	-0,093
70,320	-43,733	-0,419	-0,148
71,334	4,518	-0,381	-0,196
72,349	29,960	-0,409	-0,245
73,363	91,927	-0,376	-0,297
74,378	109,243	-0,334	-0,281
75,393	151,890	-0,379	-0,364
76,407	158,740	-0,291	-0,284
77,422	103,866	-0,248	-0,205
78,436	-14,775	-0,227	-0,102
79,451	156,056	-0,190	-0,184
80,466	41,921	-0,327	-0,208
81,480	-19,488	-0,317	-0,137
82,495	-35,799	-0,393	-0,149
83,509	28,459	-0,235	-0,139
84,524	-45,897	-0,358	-0,124
85,539	53,579	-0,362	-0,243
86,553	119,468	-0,322	-0,280
87,568	40,619	-0,328	-0,207
88,582	800,000	-0,160	-0,374
89,597	215,276	-0,257	-0,287
90,611	-26,276	-0,324	-0,133
91,626	107,809	-0,271	-0,227
92,641	491,458	-0,104	-0,168
93,655	-2,940	-0,230	-0,112
94,670	27,543	-0,227	-0,134
95,684	-25,373	-0,320	-0,132
96,699	280,693	-0,268	-0,337
97,714	-27,785	-0,333	-0,135
98,728	20,924	-0,272	-0,154
99,743	17,908	-0,086	-0,048
100,757	353,080	-0,239	-0,333
101,772	-38,347	-0,301	-0,111
102,787	153,939	-0,208	-0,200
103,801	43,111	-0,374	-0,239
104,816	82,919	-0,279	-0,212
105,830	34,878	-0,258	-0,158
106,845	88,522	-0,268	-0,208
107,860	-116,441	-0,358	-0,046
108,874	38,455	-0,222	-0,138
109,889	96,648	-0,234	-0,188
110,903	37,748	-0,301	-0,187
111,918	266,994	-0,190	-0,233
112,933	100,957	-0,181	-0,147
113,947	-49,004	-0,220	-0,073
114,962	168,914	-0,276	-0,276
115,976	91,509	-0,254	-0,200
116,991	88,481	-0,265	-0,206
118,006	83,613	-0,225	-0,172
119,020	104,334	-0,214	-0,176
120,035	151,802	-0,221	-0,211
121,049	27,673	-0,169	-0,099
122,064	4,648	-0,345	-0,177
123,079	62,422	-0,324	-0,226
124,093	-38,530	-0,359	-0,132
125,108	210,197	-0,200	-0,220
126,122	6,814	-0,250	-0,130
127,137	-99,425	-0,243	-0,042
128,151	447,142	-0,081	-0,126
129,166	37,966	-0,247	-0,153
130,181	37,791	-0,204	-0,126
131,195	68,050	-0,261	-0,186
132,210	-101,452	-0,249	-0,042
133,224	178,003	-0,196	-0,200
134,239	-65,878	-0,140	-0,039
135,254	174,620	-0,149	-0,150
136,268	266,840	-0,180	-0,220
137,283	155,086	-0,258	-0,249
138,297	189,078	-0,247	-0,259
139,312	131,813	-0,279	-0,251
140,327	148,131	-0,226	-0,213
141,341	4,841	-0,365	-0,187
142,356	800,000	-0,109	-0,239
143,370	42,151	-0,152	-0,096
144,385	73,164	-0,214	-0,156
145,400	36,238	-0,144	-0,089
146,414	123,951	-0,181	-0,159
147,429	153,455	-0,318	-0,304
148,443	-6,354	-0,260	-0,123
149,458	-50,641	-0,251	-0,082
150,473	313,468	-0,146	-0,192
151,487	-54,099	-0,312	-0,098
152,502	62,470	-0,248	-0,173
153,516	27,721	-0,343	-0,201
154,531	56,394	-0,241	-0,164
155,546	108,044	-0,315	-0,262
156,560	-42,627	-0,198	-0,070
157,575	-35,959	-0,318	-0,120
158,589	56,925	-0,241	-0,164
159,604	28,610	-0,274	-0,162
160,619	132,119	-0,220	-0,198
161,633	120,158	-0,343	-0,297
162,648	16,371	-0,269	-0,148
163,662	52,240	-0,303	-0,201
164,677	-0,615	-0,321	-0,158
165,692	186,533	-0,329	-0,342
166,706	150,741	-0,241	-0,229
167,721	62,199	-0,308	-0,214
168,735	-1,052	-0,410	-0,202
169,750	368,403	-0,208	-0,294
170,764	-52,806	-0,127	0,041
171,779	-117,856	-0,203	0,025
172,794	800,000	-0,126	-0,351
173,808	48,330	-0,173	-0,113
174,823	113,336	-0,292	-0,247
175,837	245,825	-0,262	-0,308
176,852	378,038	-0,195	-0,278
177,867	-24,036	-0,268	-0,111
178,881	50,716	-0,213	-0,140
179,896	27,547	-0,240	-0,140
180,910	148,144	-0,212	-0,199
181,925	97,555	-0,319	-0,255
182,940	199,652	-0,266	-0,284
183,954	176,748	-0,166	-0,168
184,969	101,323	-0,234	-0,190
185,983	284,867	-0,107	-0,135
186,998	6,543	-0,186	-0,096
188,013	-12,763	-0,233	-0,105
189,027	20,223	-0,246	-0,138
190,042	188,491	-0,174	-0,181
191,056	235,926	-0,238	-0,274
192,071	77,976	-0,140	-0,104
193,086	43,417	-0,277	-0,176
194,100	570,134	-0,042	-0,072
195,115	27,740	-0,203	-0,119
196,129	64,137	-0,354	-0,247
197,144	137,254	-0,189	-0,172
198,159	53,881	-0,220	-0,147
199,173	248,280	-0,141	-0,166
200,188	353,184	-0,142	-0,196
201,202	34,366	-0,158	-0,096
202,217	29,395	-0,115	-0,068
203,232	-23,952	-0,151	-0,062
204,246	67,623	-0,248	-0,176
205,261	272,890	-0,184	-0,227
206,275	150,772	-0,179	-0,170
207,290	100,815	-0,102	-0,082
208,304	22,742	-0,124	-0,070
209,319	-84,099	-0,253	-0,055
210,334	356,880	-0,154	-0,214
211,348	10,157	-0,292	-0,154
212,363	156,417	-0,148	-0,142
213,377	184,038	-0,169	-0,174
214,392	-200,000	-0,069	-0,224
215,407	72,263	-0,211	-0,153
216,421	452,699	-0,151	-0,233
217,436	379,339	-0,184	-0,263
218,450	262,343	-0,192	-0,232
219,465	192,884	-0,121	-0,127
220,480	21,826	-0,226	-0,127
221,494	23,728	-0,121	0,069
222,509	167,493	-0,094	-0,093
223,523	-21,268	-0,248	-0,105
224,538	796,804	-0,078	-0,150
225,553	250,813	-0,128	-0,151
226,567	69,418	-0,212	-0,151
227,582	800,000	-0,142	-0,275
228,596	80,556	-0,193	-0,144
229,611	61,829	-0,210	-0,145
230,626	-35,430	-0,299	-0,112
231,640	239,470	-0,063	-0,072
232,655	343,192	-0,208	-0,284
233,669	363,548	-0,125	-0,174
234,684	-7,451	-0,323	-0,151
235,699	-132,960	-0,278	-0,024
236,713	179,308	-0,133	-0,135
237,728	65,580	-0,190	-0,133
238,742	259,937	-0,178	-0,213
239,757	-104,990	-0,250	-0,039
240,772	-61,809	-0,155	-0,045
241,786	37,279	-0,135	-0,083
242,801	-65,221	-0,176	-0,049
243,815	-22,790	-0,101	-0,042
244,830	-71,917	-0,177	-0,045
245,844	-75,858	-0,136	-0,033
246,859	-10,431	-0,113	-0,051
247,874	35,492	-0,245	-0,149
248,888	-23,904	-0,124	-0,051
249,903	-146,521	-0,188	-0,011
250,917	118,693	-0,132	-0,113
251,932	-9,692	-0,152	-0,070
252,947	203,660	-0,129	0,138
253,961	-48,900	-0,176	-0,058
254,976	12,538	-0,236	-0,126
255,990	42,880	-0,152	-0,096
257,005	-59,420	-0,166	-0,049
258,020	184,739	-0,163	-0,168
259,034	-13,425	-0,143	-0,064
260,049	-138,672	-0,212	-0,016
261,063	223,198	-0,094	-0,105
262,078	17,728	-0,178	-0,098
263,093	-200,000	-0,051	-0,168
264,107	800,000	-0,057	-0,124
265,122	-7,188	-0,219	-0,102
266,136	-9,119	-0,265	-0,122
267,151	10,452	-0,077	-0,040
268,166	323,985	-0,130	-0,172
269,180	800,000	-0,146	-0,282
270,195	263,920	-0,085	-0,103
271,209	10,944	-0,219	-0,115
272,224	800,000	-0,109	-0,221
273,239	258,035	-0,071	-0,085
274,253	-200,000	-0,060	-0,195
275,268	800,000	-0,102	-0,195
276,282	25,248	-0,242	-0,139
277,297	-143,018	-0,222	0,015
278,312	312,111	-0,099	-0,129
279,326	383,516	-0,077	-0,110
280,341	-70,400	-0,211	-0,055
281,355	-151,370	-0,182	0,009
282,370	181,370	-0,191	-0,195
283,384	63,168	-0,199	-0,137
284,399	18,445	-0,285	-0,157
285,414	71,821	-0,183	-0,131
286,428	28,985	-0,161	-0,094
287,443	7,470	-0,117	-0,060
288,457	800,000	-0,047	-0,137
289,472	92,558	-0,115	-0,089
290,487	-167,373	-0,267	-0,007
291,501	-66,562	-0,135	-0,037
292,516	-68,560	-0,094	-0,025
293,530	-61,105	-0,157	-0,046
294,545	-126,796	-0,218	0,022
295,560	800,000	-0,049	-0,120
296,574	255,499	-0,185	-0,219
297,589	800,000	-0,104	-0,200
298,603	24,330	-0,200	-0,114
299,618	599,579	-0,076	-0,131
300,633	711,051	-0,128	-0,235
301,647	160,335	-0,162	-0,156
302,662	198,744	-0,098	-0,103
303,676	-2,910	-0,220	-0,105
304,691	-192,856	-0,192	0,001
305,706	22,427	-0,321	-0,181
306,720	74,826	-0,198	-0,143
307,735	-20,904	-0,214	-0,090
308,749	398,053	-0,136	-0,197
309,764	-9,839	-0,070	-0,032
310,779	25,750	-0,259	-0,148
311,793	800,000	-0,059	-0,140
312,808	129,461	-0,123	-0,108
313,822	102,680	-0,173	-0,139
314,837	43,750	-0,155	-0,098
315,852	164,253	-0,133	-0,129
316,866	261,046	-0,109	-0,130
317,881	84,201	-0,198	-0,148
318,895	800,000	-0,061	-0,127
319,910	800,000	-0,143	-0,278
320,925	201,905	-0,170	-0,181
321,939	209,661	-0,052	-0,057
322,954	-22,426	-0,228	-0,094
323,968	-9,126	-0,233	-0,107
324,983	-200,000	-0,054	-0,167
325,997	34,527	-0,211	-0,126
327,012	800,000	-0,054	-0,142
328,027	800,000	-0,077	-0,204
329,041	143,337	-0,161	-0,147
330,056	420,448	-0,090	-0,132
331,070	-66,824	-0,157	-0,042
332,085	-49,797	-0,131	-0,043
333,100	74,064	-0,136	-0,098
334,114	172,674	-0,069	0,069
335,129	274,067	-0,055	-0,067
336,143	69,079	0,111	-0,078
337,158	109,750	-0,083	0,068
338,173	57,977	-0,076	-0,051
339,187	167,566	-0,161	-0,157
340,202	-27,417	-0,182	0,072
341,216	197,062	-0,090	-0,094
342,231	-25,608	-0,205	-0,083
343,246	11,788	-0,191	-0,100
344,260	53,441	-0,157	-0,103
345,275	22,168	-0,027	0,015
346,289	521,877	-0,096	-0,156
347,304	-83,118	-0,151	-0,033
348,319	-110,515	-0,150	0,021
349,333	-48,575	-0,159	-0,052
350,348	289,234	-0,103	-0,128
351,362	-55,576	-0,104	-0,032
352,377	258,173	-0,020	0,023
353,392	800,000	0,046	-0,103
354,406	26,878	-0,153	-0,088
355,421	208,068	1317,082	1413,561
356,435	160,077	1478,113	1414,052
