DTS Sentinel unit serial number:	SN410029Multiplexer serial number:	ORYXHardware model number:	OX2-SRSoftware version number:	ORYX F/W v4,00 Oryx Data Collector v3.7.2.0data status	okinstallation	B3 Nyhavnadifferential loss correction	single-endedforward channel	channel 1reverse channel	N/Adate	2023/12/01time	19:57:30forward acquisition time	300,00reverse acquisition time	0,00gamma	499,1914k internal	0,3198k external	0,3198temperature offset calibration	1,0000default loss term (dB/km)	0,3820temperature slope calibration	1,0000multiplexer offset coefficient	1,0000multiplexer slope coefficient	1,0000fibre end	0,00T internal ref (°C)	15,68T ext. ref 1 (°C)	1,45T ext. ref 2 (°C)	1,46length (m)	temperature (°C)	Stokes	anti-Stokes-744,400	97,911	-0,270	-0,226
-743,385	800,000	0,157	0,335
-742,371	406,531	-0,148	-0,228
-741,356	-200,000	0,072	0,271
-740,342	238,367	-0,103	-0,124
-739,327	800,000	-0,091	0,285
-738,312	-200,000	-0,103	-0,367
-737,298	800,000	-0,062	0,182
-736,283	516,078	-0,163	-0,279
-735,269	-200,000	0,058	0,434
-734,254	36,881	-0,258	-0,165
-733,239	-166,876	-0,231	-0,007
-732,225	-200,000	-0,046	-0,283
-731,210	373,182	0,133	0,197
-730,196	-200,000	0,014	-0,103
-729,181	-200,000	-0,001	0,110
-728,167	-4,897	-0,094	-0,047
-727,152	-40,048	0,042	-0,016
-726,137	36,203	0,047	0,030
-725,123	61,941	-0,047	-0,034
-724,108	-163,372	-0,167	-0,006
-723,094	388,939	0,039	0,059
-722,079	800,000	0,069	-0,150
-721,064	-200,000	0,013	-0,129
-720,050	-200,000	-0,001	0,018
-719,035	251,934	-0,055	-0,068
-718,021	14,849	-0,140	0,079
-717,006	-25,639	0,028	-0,012
-715,991	800,000	-0,073	-0,183
-714,977	800,000	0,017	-0,045
-713,962	800,000	-0,010	-0,031
-712,948	239,063	0,063	-0,077
-711,933	227,415	-0,111	-0,132
-710,918	-43,155	-0,215	-0,079
-709,904	20,960	0,035	0,021
-708,889	-130,432	-0,100	0,010
-707,875	-40,590	-0,101	-0,038
-706,860	-200,000	0,002	0,176
-705,845	-43,033	0,044	-0,016
-704,831	87,554	0,076	0,061
-703,816	44,434	-0,049	0,033
-702,802	-0,491	0,071	0,036
-701,787	494,197	0,043	-0,072
-700,772	84,272	-0,120	-0,096
-699,758	-99,175	-0,116	0,021
-698,743	534,478	0,048	-0,084
-697,729	340,699	-0,036	0,051
-696,714	241,550	0,024	0,029
-695,699	64,772	0,050	0,037
-694,685	-17,376	-0,055	-0,025
-693,670	-17,647	-0,046	0,021
-692,656	45,548	-0,008	-0,005
-691,641	-200,000	-0,017	-0,115
-690,627	800,000	0,014	0,037
-689,612	-200,000	0,003	0,058
-688,597	-200,000	0,014	0,059
-687,583	-200,000	-0,001	0,005
-686,568	291,596	-0,082	-0,108
-685,554	27,574	-0,148	-0,090
-684,539	-200,000	-0,025	0,092
-683,524	8,775	0,071	0,039
-682,510	-15,944	-0,034	-0,016
-681,495	663,848	-0,025	0,048
-680,481	-63,673	-0,102	-0,030
-679,466	168,343	0,098	-0,101
-678,451	-127,224	-0,124	-0,013
-677,437	800,000	-0,009	0,027
-676,422	-47,700	0,071	0,025
-675,408	-92,853	0,102	0,020
-674,393	34,486	-0,018	0,011
-673,378	-68,355	0,006	0,002
-672,364	293,559	0,064	-0,085
-671,349	-200,000	0,010	-0,081
-670,335	-200,000	0,001	0,075
-669,320	800,000	0,012	0,025
-668,305	51,377	-0,038	0,026
-667,291	7,571	-0,032	0,017
-666,276	62,246	-0,126	-0,091
-665,262	273,629	0,011	-0,014
-664,247	800,000	-0,056	-0,131
-663,232	115,352	0,069	0,061
-662,218	-34,051	0,085	0,034
-661,203	800,000	-0,055	-0,115
-660,189	330,424	0,114	0,160
-659,174	-54,862	0,013	-0,004
-658,159	-200,000	0,013	0,120
-657,145	28,222	-0,121	0,074
-656,130	800,000	-0,016	-0,046
-655,116	-200,000	0,000	-0,006
-654,101	-42,926	-0,149	0,055
-653,086	374,902	-0,055	-0,081
-652,072	297,841	-0,056	-0,074
-651,057	386,249	-0,055	-0,082
-650,043	-110,087	-0,118	-0,018
-649,028	800,000	0,038	-0,113
-648,014	582,851	-0,010	-0,018
-646,999	-36,964	-0,138	0,053
-645,984	-55,356	0,055	0,018
-644,970	-37,870	0,021	0,008
-643,955	277,980	-0,136	-0,176
-642,941	288,098	0,054	-0,071
-641,926	-21,469	-0,209	-0,092
-640,911	4,493	0,085	0,045
-639,897	800,000	0,051	0,105
-638,882	94,050	0,081	0,066
-637,868	-71,741	0,110	-0,030
-636,853	-200,000	0,006	-0,186
-635,838	800,000	-0,082	-0,208
-634,824	596,307	0,039	-0,070
-633,809	412,506	-0,081	0,126
-632,795	-200,000	0,007	-0,080
-631,780	40,193	0,049	0,032
-630,765	30,510	0,027	-0,016
-629,751	-200,000	0,009	-0,140
-628,736	-56,795	-0,102	0,033
-627,722	800,000	0,033	-0,078
-626,707	-200,000	-0,017	0,067
-625,692	800,000	-0,066	0,156
-624,678	-67,522	0,197	0,056
-623,663	-200,000	0,010	-0,034
-622,649	-99,375	-0,088	0,016
-621,634	-67,429	0,067	-0,019
-620,619	32,836	0,005	0,003
-619,605	294,924	0,058	-0,077
-618,590	800,000	0,013	-0,032
-617,576	67,114	0,018	0,013
-616,561	-200,000	-0,030	-0,125
-615,546	-200,000	0,008	-0,120
-614,532	-200,000	-0,022	-0,073
-613,517	-102,978	-0,101	-0,017
-612,503	-200,000	-0,004	-0,056
-611,488	-36,703	-0,176	-0,068
-610,474	-0,422	0,116	-0,059
-609,459	8,858	0,108	-0,059
-608,444	-154,705	-0,131	0,006
-607,430	-200,000	0,015	-0,052
-606,415	-149,011	-0,152	-0,009
-605,401	49,537	-0,069	0,047
-604,386	-200,000	-0,011	-0,054
-603,371	181,876	0,002	0,003
-602,357	-68,522	0,073	-0,020
-601,342	140,444	-0,049	0,046
-600,328	-200,000	-0,006	-0,021
-599,313	800,000	0,070	-0,153
-598,298	-200,000	0,003	0,020
-597,284	-64,299	-0,014	-0,004
-596,269	126,109	0,036	-0,033
-595,255	146,504	0,065	0,064
-594,240	-200,000	-0,013	-0,087
-593,225	800,000	-0,076	-0,195
-592,211	-9,203	0,059	-0,028
-591,196	119,325	-0,093	0,083
-590,182	32,744	0,103	-0,064
-589,167	166,506	0,034	0,035
-588,152	800,000	0,042	-0,094
-587,138	419,195	0,019	0,030
-586,123	800,000	-0,051	-0,155
-585,109	800,000	-0,070	-0,158
-584,094	58,702	-0,147	-0,104
-583,079	78,995	0,076	0,059
-582,065	-0,893	-0,043	-0,022
-581,050	635,711	0,058	-0,106
-580,036	-200,000	0,027	0,193
-579,021	-7,593	-0,085	-0,042
-578,006	-15,416	-0,109	-0,050
-576,992	-200,000	-0,002	-0,011
-575,977	60,731	0,028	-0,020
-574,963	211,723	0,114	-0,130
-573,948	800,000	-0,002	0,007
-572,934	23,456	-0,050	0,030
-571,919	-200,000	-0,010	-0,066
-570,904	-124,032	-0,078	-0,009
-569,890	-200,000	0,002	0,070
-568,875	-39,511	-0,139	0,052
-567,861	143,478	0,058	0,056
-566,846	-83,189	0,069	-0,016
-565,831	-79,130	-0,043	-0,010
-564,817	152,823	-0,121	-0,120
-563,802	-200,000	-0,018	-0,080
-562,788	65,324	-0,147	-0,107
-561,773	-200,000	-0,009	0,098
-560,758	30,433	0,124	0,076
-559,744	-200,000	0,011	0,148
-558,729	-200,000	-0,013	-0,111
-557,715	108,958	-0,099	-0,085
-556,700	-200,000	-0,004	0,102
-555,685	-136,182	0,059	0,005
-554,671	-67,441	0,101	0,028
-553,656	146,454	0,170	0,165
-552,642	48,056	0,113	0,076
-551,627	800,000	0,021	-0,046
-550,612	3,293	-0,075	0,039
-549,598	-53,754	0,110	-0,036
-548,583	455,259	-0,069	-0,111
-547,569	-111,387	0,059	0,009
-546,554	800,000	0,022	-0,050
-545,539	148,740	0,111	0,109
-544,525	-104,632	-0,060	0,010
-543,510	-14,725	0,102	0,047
-542,496	-39,880	-0,040	-0,015
-541,481	238,528	-0,021	0,026
-540,466	-0,705	0,038	-0,020
-539,452	27,796	0,033	-0,020
-538,437	-200,000	0,008	0,080
-537,423	364,576	0,030	0,043
-536,408	-53,572	-0,150	0,049
-535,393	800,000	-0,060	-0,147
-534,379	-200,000	0,008	0,123
-533,364	-84,717	0,032	-0,007
-532,350	-200,000	0,019	0,112
-531,335	800,000	-0,040	0,106
-530,321	-45,392	-0,098	-0,035
-529,306	800,000	-0,028	-0,079
-528,291	800,000	-0,024	0,062
-527,277	52,983	-0,018	0,013
-526,262	504,715	0,073	-0,123
-525,248	-40,431	-0,006	0,002
-524,233	-176,349	-0,098	-0,002
-523,218	655,214	0,055	0,103
-522,204	-108,815	-0,019	0,003
-521,189	-200,000	0,004	0,119
-520,175	261,073	0,032	-0,041
-519,160	800,000	0,033	-0,092
-518,145	146,321	-0,091	0,088
-517,131	-200,000	0,011	-0,095
-516,116	326,441	0,061	-0,084
-515,102	800,000	0,013	0,030
-514,087	54,380	-0,146	-0,101
-513,072	-200,000	0,008	-0,066
-512,058	800,000	-0,053	-0,160
-511,043	237,354	0,082	-0,098
-510,029	622,822	0,020	0,036
-509,014	800,000	-0,037	0,075
-507,999	-200,000	-0,007	-0,048
-506,985	-148,157	-0,118	0,007
-505,970	404,689	-0,097	-0,149
-504,956	800,000	0,025	-0,065
-503,941	60,799	-0,055	-0,039
-502,926	-200,000	-0,001	0,066
-501,912	292,953	0,093	0,122
-500,897	79,448	0,087	0,068
-499,883	-200,000	-0,021	-0,135
-498,868	157,795	-0,128	-0,128
-497,853	800,000	-0,012	-0,035
-496,839	8,170	-0,137	-0,074
-495,824	800,000	0,084	0,220
-494,810	69,080	-0,128	0,095
-493,795	-81,341	0,127	0,030
-492,781	-200,000	-0,038	-0,139
-491,766	-200,000	0,006	0,055
-490,751	6,703	0,057	-0,030
-489,737	166,423	-0,045	0,046
-488,722	-64,875	-0,082	-0,024
-487,708	800,000	-0,042	0,113
-486,693	-112,345	0,125	-0,018
-485,678	-122,912	-0,018	-0,002
-484,664	-145,198	0,024	0,002
-483,649	-200,000	-0,042	-0,182
-482,635	-92,268	-0,156	0,031
-481,620	-118,854	0,139	0,017
-480,605	800,000	-0,006	-0,015
-479,591	-55,026	-0,092	-0,030
-478,576	-94,117	0,155	0,030
-477,562	15,032	-0,089	-0,050
-476,547	17,086	0,051	-0,029
-475,532	800,000	0,037	0,114
-474,518	53,973	-0,039	0,027
-473,503	-200,000	0,032	0,158
-472,489	420,121	-0,032	0,049
-471,474	490,624	-0,037	0,060
-470,459	800,000	-0,027	-0,061
-469,445	-200,000	0,002	0,036
-468,430	-115,142	-0,142	0,019
-467,416	-91,393	0,172	0,035
-466,401	351,133	0,027	-0,039
-465,386	96,997	0,099	0,081
-464,372	-130,237	-0,071	-0,007
-463,357	57,608	0,030	-0,021
-462,343	-122,211	-0,107	-0,012
-461,328	-200,000	-0,011	-0,069
-460,313	800,000	-0,031	0,085
-459,299	-194,532	0,032	-0,000
-458,284	348,976	0,054	-0,076
-457,270	271,655	0,044	0,056
-456,255	-200,000	0,009	-0,048
-455,241	-200,000	0,017	-0,122
-454,226	-200,000	-0,005	-0,132
-453,211	259,889	0,110	-0,137
-452,197	-200,000	0,008	-0,041
-451,182	-193,119	0,163	0,001
-450,168	219,603	-0,042	0,048
-449,153	79,059	-0,109	-0,084
-448,138	-200,000	-0,006	0,085
-447,124	379,869	0,058	0,085
-446,109	43,404	-0,057	0,038
-445,095	183,469	-0,065	0,070
-444,080	-4,175	-0,039	0,020
-443,065	-200,000	0,001	0,134
-442,051	40,779	0,015	-0,010
-441,036	-107,014	-0,075	-0,012
-440,022	-200,000	0,011	0,087
-439,007	150,526	-0,076	0,075
-437,992	112,552	-0,056	0,049
-436,978	40,020	0,045	0,029
-435,963	-113,257	0,090	-0,013
-434,949	-200,000	-0,009	-0,135
-433,934	-200,000	0,002	0,013
-432,919	38,642	-0,088	-0,057
-431,905	-200,000	0,011	-0,109
-430,890	-200,000	-0,019	-0,067
-429,876	109,389	0,051	0,044
-428,861	25,783	0,115	0,069
-427,846	-54,028	-0,026	-0,009
-426,832	-200,000	-0,011	0,046
-425,817	6,259	-0,090	-0,048
-424,803	-200,000	0,039	0,149
-423,788	-200,000	0,006	0,149
-422,773	800,000	0,042	0,094
-421,759	-200,000	0,001	0,028
-420,744	493,065	-0,079	-0,131
-419,730	159,568	-0,097	0,097
-418,715	-14,867	-0,023	0,011
-417,701	-102,699	-0,073	-0,012
-416,686	-200,000	-0,026	0,092
-415,671	-12,652	0,053	0,025
-414,657	579,862	-0,083	0,146
-413,642	-200,000	-0,003	0,071
-412,628	800,000	-0,041	0,097
-411,613	-200,000	-0,007	-0,139
-410,598	-53,968	0,131	-0,043
-409,584	-200,000	-0,018	0,118
-408,569	78,249	0,069	0,053
-407,555	81,337	-0,135	0,105
-406,540	602,926	0,031	-0,055
-405,525	-200,000	0,003	-0,029
-404,511	800,000	0,020	-0,043
-403,496	79,656	-0,060	-0,046
-402,482	94,387	-0,067	0,055
-401,467	497,988	0,073	0,121
-400,452	-178,619	-0,110	0,002
-399,438	-200,000	0,001	0,083
-398,423	-57,628	0,297	0,093
-397,409	-89,132	0,036	0,008
-396,394	21,609	-0,044	0,026
-395,379	365,315	0,031	-0,045
-394,365	-200,000	0,013	0,203
-393,350	-24,351	0,176	0,075
-392,336	34,369	-0,146	0,091
-391,321	134,804	-0,057	-0,053
-390,306	22,503	0,074	-0,044
-389,292	800,000	-0,034	-0,087
-388,277	-50,589	-0,091	0,031
-387,263	800,000	-0,027	0,063
-386,248	-43,879	0,135	0,048
-385,233	-170,682	-0,083	-0,002
-384,219	648,005	-0,009	0,016
-383,204	336,478	-0,067	-0,094
-382,190	147,221	-0,063	-0,061
-381,175	-200,000	-0,006	-0,037
-380,160	22,438	0,230	-0,134
-379,146	45,683	0,112	0,074
-378,131	-200,000	0,010	0,032
-377,117	-200,000	-0,032	0,191
-376,102	-200,000	0,010	0,042
-375,088	-147,451	-0,040	0,002
-374,073	-141,146	-0,068	-0,005
-373,058	134,607	0,088	0,082
-372,044	258,028	0,038	-0,047
-371,029	196,514	0,124	0,136
-370,015	11,242	-0,085	0,046
-369,000	-200,000	-0,013	-0,050
-367,985	-21,836	0,087	0,038
-366,971	800,000	-0,021	0,048
-365,956	-200,000	0,007	0,087
-364,942	5,640	-0,039	0,021
-363,927	-200,000	-0,021	0,094
-362,912	107,682	-0,052	-0,044
-361,898	1,663	-0,082	0,042
-360,883	63,007	-0,056	-0,040
-359,869	-200,000	0,006	-0,077
-358,854	-125,505	0,037	-0,004
-357,839	133,417	-0,061	0,056
-356,825	605,454	0,051	0,091
-355,810	353,424	-0,031	0,044
-354,796	-30,123	-0,013	-0,005
-353,781	-200,000	-0,070	-0,256
-352,766	-109,919	-0,060	0,009
-351,752	605,270	0,016	-0,028
-350,737	800,000	-0,053	0,116
-349,723	258,811	0,049	0,061
-348,708	-91,729	0,100	0,020
-347,693	800,000	-0,032	-0,069
-346,679	55,612	0,087	-0,060
-345,664	-53,495	0,044	0,014
-344,650	-92,508	-0,079	-0,016
-343,635	-66,843	0,078	0,022
-342,620	1,205	0,048	-0,024
-341,606	-127,994	0,081	0,008
-340,591	-16,739	0,043	0,019
-339,577	-200,000	-0,007	-0,082
-338,562	-200,000	0,021	0,084
-337,548	800,000	-0,037	0,092
-336,533	735,195	-0,029	-0,056
-335,518	-200,000	0,010	-0,120
-334,504	-200,000	-0,000	-0,018
-333,489	-124,690	-0,163	-0,018
-332,475	301,119	-0,065	-0,087
-331,460	-141,148	-0,130	-0,009
-330,445	-200,000	-0,017	-0,126
-329,431	-128,293	-0,035	0,003
-328,416	-200,000	-0,001	0,049
-327,402	419,149	0,120	0,185
-326,387	-4,057	0,066	0,033
-325,372	-28,883	-0,153	0,063
-324,358	-40,840	-0,110	0,041
-323,343	114,797	-0,092	0,080
-322,329	-200,000	0,007	-0,187
-321,314	-200,000	0,034	0,171
-320,299	-200,000	0,018	0,093
-319,285	175,366	-0,054	0,056
-318,270	29,226	-0,027	0,016
-317,256	800,000	0,050	-0,106
-316,241	134,148	0,098	-0,091
-315,226	1,848	0,123	-0,063
-314,212	242,528	0,122	0,146
-313,197	-200,000	-0,006	0,129
-312,183	-104,640	-0,037	-0,006
-311,168	132,799	-0,113	-0,104
-310,153	800,000	0,022	-0,053
-309,139	63,475	-0,066	-0,047
-308,124	-200,000	0,006	0,082
-307,110	-200,000	-0,003	0,037
-306,095	148,142	-0,038	0,036
-305,080	56,762	-0,037	0,026
-304,066	-200,000	0,010	0,042
-303,051	93,415	0,051	0,041
-302,037	-200,000	0,006	-0,134
-301,022	89,061	-0,050	0,040
-300,008	146,301	0,016	0,015
-298,993	-200,000	-0,026	-0,221
-297,978	336,970	0,075	0,104
-296,964	-121,979	-0,082	0,010
-295,949	121,668	-0,027	-0,024
-294,935	9,633	-0,053	-0,029
-293,920	-200,000	-0,020	0,093
-292,905	1,174	0,106	-0,054
-291,891	-135,875	0,092	-0,008
-290,876	-23,894	0,101	-0,043
-289,862	83,715	0,024	-0,018
-288,847	-200,000	-0,009	0,061
-287,832	-200,000	-0,003	-0,039
-286,818	86,336	0,152	0,120
-285,803	-200,000	0,010	0,031
-284,789	54,161	-0,156	0,107
-283,774	-73,838	0,085	0,022
-282,759	-56,197	0,008	-0,003
-281,745	-200,000	0,007	0,039
-280,730	-200,000	-0,012	-0,146
-279,716	400,892	-0,057	0,085
-278,701	-81,539	-0,123	0,029
-277,686	-44,252	0,182	0,065
-276,672	-109,707	-0,066	0,010
-275,657	-116,628	-0,125	-0,016
-274,643	-40,230	-0,070	-0,026
-273,628	-61,427	0,078	-0,023
-272,613	800,000	0,033	-0,080
-271,599	56,608	-0,031	-0,022
-270,584	-107,852	-0,107	-0,016
-269,570	128,945	0,063	-0,057
-268,555	98,153	0,112	0,092
-267,540	110,358	-0,068	-0,058
-266,526	102,785	-0,157	-0,131
-265,511	-76,437	-0,096	-0,024
-264,497	115,488	0,087	0,076
-263,482	316,551	0,069	0,094
-262,467	-48,321	0,130	0,045
-261,453	-147,203	-0,062	0,004
-260,438	800,000	0,041	0,096
-259,424	63,901	-0,124	0,089
-258,409	-200,000	-0,020	-0,102
-257,395	-200,000	0,039	-0,141
-256,380	92,692	0,043	-0,035
-255,365	0,226	0,038	0,019
-254,351	152,497	0,038	0,038
-253,336	-102,047	0,097	0,017
-252,322	-200,000	-0,009	0,108
-251,307	-175,109	0,141	0,003
-250,292	-59,119	-0,215	-0,066
-249,278	-200,000	-0,021	0,163
-248,263	-200,000	0,002	0,036
-247,249	-200,000	-0,039	0,147
-246,234	-200,000	0,009	-0,034
-245,219	-200,000	0,013	-0,095
-244,205	-11,935	-0,126	-0,059
-243,190	800,000	0,045	0,097
-242,176	274,245	0,114	0,145
-241,161	434,079	-0,070	0,109
-240,146	800,000	0,089	0,177
-239,132	445,001	-0,019	0,030
-238,117	203,830	0,046	-0,051
-237,103	-200,000	-0,029	-0,140
-236,088	137,244	0,035	0,033
-235,073	-120,179	0,258	0,031
-234,059	-200,000	0,002	0,055
-233,044	316,324	-0,041	-0,055
-232,030	800,000	0,004	0,009
-231,015	24,874	-0,100	-0,059
-230,000	-140,713	-0,093	0,007
-228,986	-3,408	-0,105	-0,052
-227,971	28,992	0,088	0,053
-226,957	223,888	-0,047	0,054
-225,942	255,411	0,044	0,054
-224,927	111,051	-0,023	-0,020
-223,913	-43,165	-0,102	-0,037
-222,898	2,830	-0,062	0,032
-221,884	-57,148	0,121	0,038
-220,869	-62,739	-0,066	0,019
-219,855	-41,360	0,081	-0,029
-218,840	230,141	0,089	-0,103
-217,825	800,000	-0,008	0,023
-216,811	-145,719	-0,118	-0,007
-215,796	-147,810	-0,126	0,007
-214,782	130,534	0,102	-0,094
-213,767	579,287	0,092	-0,161
-212,752	463,753	0,030	-0,048
-211,738	-108,135	0,050	0,008
-210,723	378,347	0,042	0,061
-209,709	-200,000	0,020	0,126
-208,694	-54,406	0,017	-0,006
-207,679	-102,367	0,044	0,007
-206,665	161,640	-0,056	0,056
-205,650	800,000	0,061	0,152
-204,636	407,027	-0,032	-0,048
-203,621	124,913	-0,026	-0,023
-202,606	195,902	-0,042	-0,046
-201,592	310,847	-0,145	-0,194
-200,577	800,000	-0,081	-0,163
-199,563	-78,605	0,127	-0,031
-198,548	41,346	0,045	-0,029
-197,533	301,358	0,068	-0,089
-196,519	85,633	0,118	0,092
-195,504	-43,747	0,067	-0,024
-194,490	-55,043	-0,209	0,067
-193,475	-200,000	-0,010	-0,149
-192,460	-200,000	-0,010	-0,071
-191,446	184,379	0,141	-0,149
-190,431	194,742	-0,028	0,030
-189,417	-159,040	-0,081	-0,003
-188,402	-100,565	0,183	0,032
-187,387	-25,606	0,148	-0,062
-186,373	-200,000	-0,028	0,090
-185,358	-47,541	-0,157	0,054
-184,344	-1,992	0,082	-0,041
-183,329	-24,358	0,141	0,060
-182,315	800,000	-0,057	0,129
-181,300	-200,000	0,024	-0,080
-180,285	-86,222	0,119	0,026
-179,271	800,000	-0,024	-0,049
-178,256	800,000	-0,092	-0,212
-177,242	118,440	0,071	-0,063
-176,227	687,962	-0,061	0,113
-175,212	800,000	-0,023	0,072
-174,198	60,744	0,102	-0,072
-173,183	165,715	-0,062	-0,062
-172,169	-125,236	-0,046	-0,005
-171,154	274,263	0,080	-0,101
-170,139	77,997	-0,072	-0,055
-169,125	-200,000	0,022	0,088
-168,110	-84,536	-0,051	0,011
-167,096	290,997	0,027	0,036
-166,081	676,754	-0,027	-0,050
-165,066	-116,041	-0,065	-0,008
-164,052	-200,000	0,027	0,099
-163,037	-98,948	0,119	0,021
-162,023	-200,000	-0,015	0,133
-161,008	202,380	0,112	0,123
-159,993	483,795	0,047	-0,076
-158,979	362,911	0,057	-0,082
-157,964	29,705	-0,145	-0,088
-156,950	96,086	0,051	-0,042
-155,935	12,029	0,105	-0,057
-154,920	295,401	0,099	0,129
-153,906	-62,728	0,132	0,039
-152,891	-200,000	0,017	0,081
-151,877	-48,821	-0,031	-0,010
-150,862	-34,573	0,090	-0,035
-149,847	-138,170	-0,131	0,010
-148,833	-85,326	-0,108	-0,024
-147,818	-69,123	0,069	0,019
-146,804	-119,069	-0,068	-0,008
-145,789	-200,000	0,014	0,086
-144,775	-200,000	0,002	-0,034
-143,760	302,047	0,030	-0,040
-142,745	-200,000	-0,001	-0,103
-141,731	47,669	-0,036	0,024
-140,716	539,536	0,060	0,103
-139,702	-200,000	0,000	0,095
-138,687	-89,616	0,139	0,029
-137,672	-200,000	-0,018	-0,073
-136,658	-74,999	-0,121	0,031
-135,643	-61,775	0,092	0,027
-134,629	648,012	0,105	-0,192
-133,614	-108,629	-0,045	0,007
-132,599	800,000	-0,034	0,102
-131,585	127,717	-0,080	0,072
-130,570	-55,306	-0,090	0,029
-129,556	800,000	0,013	-0,038
-128,541	-200,000	0,013	-0,152
-127,526	19,748	-0,028	0,016
-126,512	265,589	-0,067	0,083
-125,497	431,817	0,053	0,082
-124,483	-33,750	-0,043	-0,017
-123,468	800,000	-0,031	0,069
-122,453	220,189	0,058	-0,066
-121,439	-101,187	-0,117	-0,020
-120,424	11,542	0,069	-0,038
-119,410	99,872	0,083	0,068
-118,395	38,491	0,080	0,051
-117,380	-77,935	0,044	-0,011
-116,366	-200,000	-0,014	0,068
-115,351	681,991	0,043	0,080
-114,337	800,000	-0,043	0,111
-113,322	198,244	-0,117	-0,127
-112,307	800,000	-0,051	0,129
-111,293	644,693	0,029	0,053
-110,278	-200,000	0,030	-0,111
-109,264	25,541	0,102	0,060
-108,249	338,581	-0,030	0,042
-107,234	-117,352	0,066	0,008
-106,220	-81,365	-0,037	0,009
-105,205	-131,380	-0,055	0,005
-104,191	-200,000	0,002	0,156
-103,176	-54,175	-0,072	0,023
-102,162	289,115	-0,075	0,097
-101,147	-200,000	-0,003	-0,123
-100,132	800,000	-0,022	0,069
-99,118	-125,743	0,084	0,009
-98,103	-200,000	0,025	-0,103
-97,089	-200,000	-0,001	-0,042
-96,074	-52,807	0,101	0,033
-95,059	253,247	0,094	0,115
-94,045	92,118	-0,121	0,097
-93,030	-78,652	-0,115	0,028
-92,016	-33,012	0,067	0,026
-91,001	-121,637	-0,056	-0,006
-89,986	98,424	-0,123	-0,101
-88,972	191,711	-0,023	0,025
-87,957	-21,116	0,082	0,036
-86,943	53,651	-0,027	-0,018
-85,928	162,004	-0,072	-0,072
-84,913	105,509	-0,066	-0,056
-83,899	800,000	0,023	0,054
-82,884	161,258	-0,049	-0,049
-81,870	190,181	-0,053	-0,056
-80,855	713,164	-0,069	0,131
-79,840	111,580	0,052	0,045
-78,826	-73,700	0,080	-0,021
-77,811	-20,543	0,070	0,030
-76,797	685,324	-0,008	0,014
-75,782	184,159	0,165	0,174
-74,767	440,099	0,076	0,118
-73,753	-103,214	-0,033	-0,005
-72,738	259,798	-0,084	0,103
-71,724	-27,303	-0,094	-0,039
-70,709	-200,000	0,025	-0,088
-69,694	-75,915	0,141	-0,035
-68,680	-200,000	0,010	0,112
-67,665	619,452	0,038	0,067
-66,651	-111,184	0,042	0,006
-65,636	-200,000	-0,004	0,113
-64,622	-87,384	-0,064	-0,014
-63,607	-153,125	0,026	-0,001
-62,592	-48,361	0,097	-0,033
-61,578	104,756	-0,021	-0,017
-60,563	-200,000	0,004	0,050
-59,549	358,430	-0,013	0,019
-58,534	-89,066	-1,381	-0,287
-57,519	393,226	-1,531	-2,266
-56,505	-200,000	-0,623	-4,391
-55,490	203,587	0,811	0,891
-54,476	800,000	4,855	11,205
-53,461	-200,000	17,875	284,887
-52,446	800,000	721,913	2230,386
-51,432	562,422	1635,432	2815,308
-50,417	80,705	1658,748	1266,037
-49,403	23,505	1532,923	891,324
-48,388	17,498	1456,356	817,829
-47,373	18,118	1446,086	815,002
-46,359	17,718	1436,413	807,612
-45,344	15,823	1431,870	796,015
-44,330	15,768	1429,840	794,595
-43,315	15,748	1428,059	793,482
-42,300	15,702	1426,727	792,491
-41,286	15,777	1425,512	792,139
-40,271	15,761	1424,154	791,276
-39,257	15,765	1422,895	790,564
-38,242	15,789	1421,657	789,959
-37,227	15,794	1420,257	789,174
-36,213	15,797	1418,896	788,402
-35,198	15,786	1417,792	787,703
-34,184	15,808	1416,785	787,218
-33,169	15,709	1415,762	786,153
-32,154	15,800	1414,569	785,884
-31,140	15,831	1413,119	785,196
-30,125	15,809	1412,120	784,506
-29,111	15,783	1411,017	783,739
-28,096	15,735	1409,865	782,842
-27,082	15,690	1408,916	782,074
-26,067	15,705	1407,619	781,394
-25,052	15,700	1406,604	780,773
-24,038	15,725	1405,576	780,290
-23,023	15,684	1404,595	779,525
-22,009	15,665	1403,671	778,891
-20,994	15,659	1402,765	778,330
-19,979	15,672	1401,819	777,835
-18,965	15,622	1400,945	777,088
-17,950	15,650	1399,763	776,530
-16,936	15,675	1398,681	776,015
-15,921	15,563	1397,646	774,889
-14,906	15,630	1396,798	774,699
-13,892	15,629	1395,658	774,033
-12,877	15,614	1394,859	773,488
-11,863	15,650	1393,995	773,146
-10,848	15,616	1393,066	772,441
-9,833	15,640	1391,983	771,920
-8,819	15,529	1391,191	770,940
-7,804	15,510	1390,341	770,352
-6,790	15,534	1389,269	769,837
-5,775	15,532	1388,174	769,189
-4,760	15,529	1387,409	768,724
-3,746	15,507	1386,611	768,147
-2,731	15,496	1385,865	767,655
-1,717	15,497	1384,755	767,014
-0,702	15,495	1382,832	765,910
0,313	19,380	1303,665	739,953
1,327	35,827	706,209	438,916
2,342	54,997	125,029	85,391
3,356	6,239	16,460	8,620
4,371	-2,925	3,087	1,522
5,386	-17,874	0,451	0,199
6,400	-200,000	0,014	0,169
7,415	-21,661	-0,236	-0,101
8,429	800,000	-0,150	-0,343
9,444	305,367	-0,201	-0,265
10,459	-24,374	-0,352	-0,148
11,473	146,552	-0,216	-0,205
12,488	161,222	-0,230	-0,228
13,502	-13,650	-0,317	-0,144
14,517	-52,958	-0,364	-0,118
15,531	191,857	-0,300	-0,321
16,546	-67,347	-0,533	-0,147
17,561	16,279	-0,413	-0,230
18,575	-78,054	-0,184	-0,044
19,590	13,300	-0,251	-0,137
20,604	-14,500	-0,290	-0,131
21,619	71,522	-0,507	-0,372
22,634	113,756	-0,440	-0,378
23,648	102,391	-0,393	-0,325
24,663	232,560	-0,360	-0,419
25,677	2,059	-0,319	-0,162
26,692	-19,313	-0,211	-0,092
27,707	-6,275	-0,393	-0,189
28,721	76,193	-0,336	-0,251
29,736	187,384	-0,381	-0,402
30,750	150,930	-0,483	-0,464
31,765	22,282	-0,379	-0,218
32,780	173,153	-0,309	-0,315
33,794	140,078	-0,275	-0,257
34,809	140,757	-0,348	-0,325
35,823	144,068	-0,389	-0,366
36,838	39,978	-0,378	-0,239
37,853	75,013	-0,469	-0,348
38,867	392,478	-0,240	-0,354
39,882	144,682	-0,323	-0,305
40,896	24,414	-0,420	-0,244
41,911	-30,804	-0,350	-0,139
42,926	-35,255	-0,343	-0,131
43,940	-30,571	-0,456	-0,182
44,955	43,989	-0,314	-0,203
45,969	104,078	-0,336	-0,279
46,984	318,016	-0,188	-0,252
47,999	-31,772	-0,309	-0,122
49,013	88,652	-0,319	-0,250
50,028	195,792	-0,284	-0,305
51,042	88,506	-0,310	-0,243
52,057	339,535	-0,260	-0,359
53,071	127,184	-0,456	-0,408
54,086	210,840	-0,249	-0,277
55,101	113,750	-0,319	-0,273
56,115	81,374	-0,303	-0,231
57,130	99,779	-0,371	-0,303
58,144	53,111	-0,387	-0,261
59,159	96,196	-0,379	-0,305
60,174	65,478	-0,377	-0,269
61,188	85,886	-0,332	-0,257
62,203	26,048	-0,342	-0,200
63,217	-50,905	-0,234	-0,077
64,232	103,110	-0,190	-0,157
65,247	206,143	-0,185	-0,203
66,261	-21,668	-0,311	-0,133
67,276	140,846	-0,302	-0,281
68,290	-108,811	-0,463	-0,069
69,305	-1,844	-0,444	-0,219
70,320	-45,340	-0,271	-0,094
71,334	142,607	-0,341	-0,319
72,349	31,921	-0,320	-0,194
73,363	-34,019	-0,383	-0,148
74,378	182,305	-0,250	-0,260
75,393	-81,977	-0,290	-0,066
76,407	11,088	-0,255	-0,137
77,422	318,268	-0,190	-0,254
78,436	14,899	-0,282	-0,155
79,451	-33,460	-0,393	-0,152
80,466	34,132	-0,371	-0,227
81,480	67,088	-0,323	-0,231
82,495	354,161	-0,218	-0,305
83,509	78,011	-0,271	-0,203
84,524	24,155	-0,321	-0,186
85,539	8,668	-0,287	-0,152
86,553	10,087	-0,332	-0,177
87,568	51,702	-0,261	-0,174
88,582	4,016	-0,311	-0,160
89,597	43,509	-0,280	-0,179
90,611	62,171	-0,248	-0,174
91,626	72,465	-0,372	-0,272
92,641	14,893	-0,340	-0,186
93,655	-29,915	-0,379	-0,151
94,670	219,318	-0,314	-0,353
95,684	112,730	-0,331	-0,282
96,699	195,819	-0,243	-0,260
97,714	8,973	-0,257	-0,136
98,728	-59,097	-0,288	-0,087
99,743	45,148	-0,308	-0,199
100,757	-89,024	-0,237	-0,049
101,772	-100,129	-0,358	-0,062
102,787	-45,328	-0,321	-0,111
103,801	183,111	-0,165	-0,171
104,816	78,629	-0,216	-0,162
105,830	431,716	-0,168	-0,256
106,845	800,000	-0,092	-0,203
107,860	-27,953	-0,323	-0,131
108,874	-58,655	-0,228	-0,069
109,889	93,461	-0,280	-0,222
110,903	133,582	-0,347	-0,315
111,918	347,778	-0,126	-0,175
112,933	258,643	-0,195	-0,236
113,947	21,560	-0,185	-0,105
114,962	-2,669	-0,223	-0,109
115,976	21,423	-0,286	-0,162
116,991	59,966	-0,352	-0,243
118,006	0,031	-0,367	-0,183
119,020	103,178	-0,317	-0,260
120,035	129,370	-0,285	-0,255
121,049	15,728	-0,197	-0,108
122,064	126,015	-0,093	-0,083
123,079	800,000	-0,110	-0,217
124,093	5,996	-0,332	-0,172
125,108	108,866	-0,235	-0,197
126,122	72,521	-0,174	-0,127
127,137	34,353	-0,233	-0,142
128,151	14,779	-0,344	-0,188
129,166	-143,094	-0,328	0,022
130,181	15,235	-0,212	-0,116
131,195	265,400	-0,173	-0,211
132,210	77,868	-0,260	-0,194
133,224	-21,016	-0,228	-0,097
134,239	75,139	-0,255	-0,188
135,254	85,581	-0,214	-0,165
136,268	-21,231	-0,197	-0,084
137,283	-23,030	-0,412	-0,173
138,297	65,031	-0,280	-0,197
139,312	273,242	-0,269	-0,333
140,327	97,495	-0,295	-0,237
141,341	3,428	-0,274	-0,139
142,356	-142,672	-0,150	0,010
143,370	124,873	-0,199	-0,175
144,385	181,574	-0,247	-0,254
145,400	9,916	-0,166	-0,088
146,414	279,906	-0,248	-0,310
147,429	27,215	-0,184	-0,108
148,443	21,395	-0,205	-0,116
149,458	224,590	-0,224	-0,254
150,473	58,933	-0,251	-0,172
151,487	17,019	-0,281	-0,155
152,502	305,376	-0,239	-0,311
153,516	135,758	-0,314	-0,286
154,531	74,858	-0,315	-0,231
155,546	125,929	-0,209	-0,184
156,560	-77,062	-0,298	-0,072
157,575	438,902	-0,118	-0,180
158,589	274,141	-0,118	-0,146
159,604	25,157	-0,171	-0,099
160,619	10,310	-0,355	-0,188
161,633	44,389	-0,252	-0,161
162,648	86,095	-0,241	-0,185
163,662	-6,751	-0,201	-0,095
164,677	69,175	-0,204	-0,146
165,692	-13,509	-0,275	-0,124
166,706	188,985	-0,240	-0,251
167,721	-20,111	-0,248	-0,106
168,735	-20,476	-0,183	-0,078
169,750	-62,571	-0,363	-0,104
170,764	61,793	-0,180	-0,125
171,779	136,634	-0,181	-0,165
172,794	45,498	-0,159	-0,102
173,808	251,997	-0,116	-0,139
174,823	72,526	-0,336	-0,244
175,837	-87,026	-0,289	-0,061
176,852	98,403	-0,187	-0,150
177,867	85,118	-0,219	-0,167
178,881	-35,718	-0,295	-0,111
179,896	110,630	-0,245	-0,206
180,910	-28,710	-0,228	-0,091
181,925	216,963	-0,168	-0,187
182,940	302,358	-0,212	-0,274
183,954	294,942	-0,186	-0,237
184,969	-12,957	-0,226	-0,102
185,983	63,042	-0,200	-0,139
186,998	-13,324	-0,109	-0,049
188,013	800,000	-0,095	-0,223
189,027	785,813	-0,132	-0,254
190,042	-133,448	-0,312	-0,027
191,056	11,067	-0,236	-0,125
192,071	-159,630	-0,367	-0,014
193,086	129,979	-0,146	-0,130
194,100	207,743	-0,117	-0,128
195,115	103,365	-0,249	-0,203
196,129	69,869	-0,325	-0,233
197,144	-59,000	-0,324	-0,097
198,159	156,277	-0,253	-0,243
199,173	-49,746	-0,206	-0,068
200,188	103,509	-0,221	-0,180
201,202	76,858	-0,194	-0,143
202,217	72,412	-0,203	-0,147
203,232	606,334	-0,170	-0,296
204,246	591,418	-0,147	-0,253
205,261	608,874	-0,148	-0,257
206,275	2,144	-0,235	-0,118
207,290	-26,861	-0,258	-0,104
208,304	-200,000	-0,016	-0,150
209,319	42,356	-0,255	-0,161
210,334	179,078	-0,134	-0,137
211,348	131,414	-0,227	-0,203
212,363	246,479	-0,182	-0,213
213,377	-85,334	-0,308	-0,066
214,392	31,185	-0,110	-0,066
215,407	-200,000	0,015	-0,126
216,421	44,120	-0,115	-0,073
217,436	-3,694	-0,276	-0,133
218,450	800,000	-0,080	-0,186
219,465	114,768	-0,243	-0,206
220,480	8,974	-0,308	-0,161
221,494	205,585	-0,153	-0,166
222,509	-200,000	-0,040	-0,131
223,523	205,482	-0,111	-0,120
224,538	19,927	-0,107	-0,060
225,553	257,915	-0,209	-0,250
226,567	113,332	-0,176	-0,148
227,582	440,648	-0,154	-0,235
228,596	-27,497	-0,207	-0,083
229,611	-200,000	0,006	-0,147
230,626	-56,032	-0,171	-0,052
231,640	55,779	-0,285	-0,192
232,655	9,563	-0,176	-0,092
233,669	-54,099	-0,147	-0,046
234,684	-2,083	-0,211	-0,103
235,699	267,077	-0,136	-0,166
236,713	-200,000	0,020	-0,159
237,728	-88,324	-0,179	-0,037
238,742	193,482	-0,183	-0,192
239,757	261,726	-0,136	-0,164
240,772	424,717	-0,203	-0,304
241,786	-6,280	-0,264	-0,125
242,801	309,461	-0,097	-0,126
243,815	166,037	-0,185	-0,182
244,830	437,832	-0,135	-0,205
245,844	-37,888	-0,232	-0,085
246,859	81,785	-0,180	-0,135
247,874	760,852	-0,101	-0,191
248,888	-14,100	-0,283	-0,126
249,903	-80,333	-0,226	-0,052
250,917	800,000	-0,050	-0,136
251,932	-121,011	-0,145	-0,017
252,947	163,110	-0,113	-0,110
253,961	-70,702	-0,080	-0,021
254,976	-24,197	-0,183	-0,075
255,990	-21,576	-0,222	-0,093
257,005	225,322	-0,066	-0,074
258,020	715,709	-0,114	-0,211
259,034	800,000	-0,088	-0,221
260,049	496,509	-0,098	-0,157
261,063	43,735	-0,187	-0,118
262,078	30,642	-0,304	-0,180
263,093	-23,658	-0,229	-0,095
264,107	42,927	-0,249	-0,157
265,122	800,000	-0,080	-0,202
266,136	-4,783	-0,101	-0,048
267,151	136,734	-0,162	-0,146
268,166	-200,000	-0,013	-0,109
269,180	5,748	-0,186	-0,095
270,195	93,124	-0,109	-0,085
271,209	226,296	-0,085	-0,095
272,224	9,437	-0,110	0,057
273,239	-94,401	-0,205	-0,038
274,253	95,372	-0,133	-0,105
275,268	522,181	-0,144	-0,234
276,282	152,980	-0,133	-0,126
277,297	40,132	-0,282	-0,175
278,312	70,451	-0,245	-0,175
279,326	90,942	-0,136	-0,105
280,341	188,144	-0,127	-0,131
281,355	312,074	-0,093	-0,121
282,370	285,947	-0,183	-0,228
283,384	587,342	-0,103	-0,176
284,399	238,268	-0,198	-0,227
285,414	113,352	-0,038	-0,032
286,428	32,605	-0,218	-0,130
287,443	216,786	-0,164	-0,181
288,457	-200,000	-0,262	0,001
289,472	-56,234	-0,160	-0,049
290,487	315,766	-0,199	-0,261
291,501	-94,350	-0,237	-0,044
292,516	-92,291	-0,250	-0,048
293,530	800,000	-0,079	-0,207
294,545	527,248	-0,132	-0,215
295,560	53,132	-0,190	-0,125
296,574	800,000	-0,116	-0,242
297,589	664,412	-0,111	-0,199
298,603	31,187	-0,281	-0,166
299,618	60,515	-0,154	-0,105
300,633	-97,974	-0,046	0,008
301,647	800,000	-0,052	-0,143
302,662	600,934	-0,134	-0,231
303,676	60,687	-0,129	-0,088
304,691	24,603	-0,183	-0,104
305,706	-46,337	-0,093	-0,031
306,720	607,130	-0,142	-0,246
307,735	190,448	-0,230	-0,239
308,749	77,875	-0,064	0,047
309,764	26,094	-0,200	-0,115
310,779	-20,602	-0,286	-0,121
311,793	379,174	-0,199	-0,282
312,808	800,000	-0,104	-0,224
313,822	-200,000	-0,011	-0,047
314,837	270,674	-0,106	-0,128
315,852	-200,000	0,005	-0,094
316,866	159,421	-0,061	0,058
317,881	45,765	-0,067	-0,043
318,895	248,850	-0,152	-0,177
319,910	21,543	-0,144	-0,081
320,925	-32,191	-0,254	-0,097
321,939	125,506	-0,062	-0,054
322,954	147,553	-0,145	-0,134
323,968	759,705	-0,070	-0,132
324,983	291,792	-0,059	-0,074
325,997	605,780	-0,181	-0,311
327,012	297,424	-0,123	-0,156
328,027	800,000	-0,107	-0,211
329,041	800,000	-0,044	-0,126
330,056	529,246	-0,109	-0,178
331,070	15,967	-0,174	-0,094
332,085	69,458	-0,146	0,104
333,100	81,394	-0,134	-0,100
334,114	-200,000	-0,029	-0,093
335,129	-102,984	-0,170	-0,027
336,143	-95,709	-0,133	-0,024
337,158	-200,000	-0,009	-0,188
338,173	177,298	-0,033	-0,033
339,187	226,447	-0,099	-0,111
340,202	-79,370	-0,131	-0,030
341,216	-39,326	-0,071	-0,025
342,231	166,787	-0,206	-0,201
343,246	511,900	-0,129	-0,207
344,260	49,553	-0,105	-0,068
345,275	57,722	-0,083	-0,056
346,289	88,094	-0,121	-0,092
347,304	-71,188	-0,168	-0,043
348,319	353,557	-0,168	-0,230
349,333	49,714	-0,145	-0,094
350,348	542,240	-0,130	-0,214
351,362	506,452	-0,045	-0,071
352,377	-200,000	-0,028	-0,118
353,392	-51,367	-0,146	0,046
354,406	287,836	-0,049	-0,061
355,421	209,118	1313,500	1414,086
356,435	160,934	1474,106	1414,610
