DTS Sentinel unit serial number:	SN410029Multiplexer serial number:	ORYXHardware model number:	OX2-SRSoftware version number:	ORYX F/W v4,00 Oryx Data Collector v3.7.2.0data status	okinstallation	B3 Nyhavnadifferential loss correction	single-endedforward channel	channel 1reverse channel	N/Adate	2023/12/05time	05:22:30forward acquisition time	300,00reverse acquisition time	0,00gamma	499,1914k internal	0,3201k external	0,3201temperature offset calibration	1,0000default loss term (dB/km)	0,3820temperature slope calibration	1,0000multiplexer offset coefficient	1,0000multiplexer slope coefficient	1,0000fibre end	0,00T internal ref (°C)	14,05T ext. ref 1 (°C)	-0,95T ext. ref 2 (°C)	-0,98length (m)	temperature (°C)	Stokes	anti-Stokes-744,400	44,676	-0,288	-0,193
-743,385	-200,000	-0,059	0,239
-742,371	-200,000	-0,035	-0,247
-741,356	800,000	0,105	0,287
-740,342	71,164	-0,248	-0,187
-739,327	-200,000	0,001	0,192
-738,312	198,280	-0,219	-0,244
-737,298	800,000	-0,099	0,216
-736,283	37,287	-0,191	-0,123
-735,269	-200,000	0,056	0,300
-734,254	82,997	-0,216	-0,171
-733,239	17,292	-0,153	0,088
-732,225	800,000	-0,135	-0,276
-731,210	227,487	0,099	0,117
-730,196	411,731	0,004	0,007
-729,181	72,008	0,128	-0,097
-728,167	-51,184	-0,106	-0,036
-727,152	-141,038	-0,165	-0,012
-726,137	-37,477	-0,081	0,031
-725,123	-1,072	-0,088	-0,045
-724,108	-200,000	-0,006	-0,200
-723,094	-200,000	0,011	-0,082
-722,079	-121,838	-0,069	0,008
-721,064	-200,000	-0,001	0,029
-720,050	11,672	-0,105	-0,058
-719,035	32,660	-0,068	0,043
-718,021	-121,050	-0,049	0,006
-717,006	46,111	-0,072	0,048
-715,991	-113,632	-0,063	-0,009
-714,977	800,000	-0,066	-0,144
-713,962	33,397	-0,082	-0,051
-712,948	-200,000	0,015	-0,224
-711,933	-45,457	0,084	-0,030
-710,918	21,011	-0,200	-0,117
-709,904	35,799	-0,045	-0,029
-708,889	152,274	-0,081	-0,080
-707,875	-104,258	-0,057	0,009
-706,860	5,642	-0,109	-0,059
-705,845	-200,000	-0,016	0,076
-704,831	-81,424	0,036	-0,009
-703,816	-119,870	0,060	-0,007
-702,802	800,000	-0,053	-0,159
-701,787	137,688	0,034	-0,033
-700,772	-58,809	-0,015	0,005
-699,758	-200,000	-0,018	0,087
-698,743	-50,997	0,043	0,015
-697,729	116,397	-0,050	-0,044
-696,714	-200,000	-0,015	0,077
-695,699	800,000	-0,079	-0,234
-694,685	109,354	-0,048	-0,042
-693,670	-66,304	-0,169	0,048
-692,656	19,658	0,070	-0,041
-691,641	154,615	-0,027	0,027
-690,627	-44,307	0,039	0,014
-689,612	-91,036	-0,191	0,039
-688,597	-49,411	0,098	-0,034
-687,583	800,000	-0,040	-0,120
-686,568	-70,946	-0,155	0,042
-685,554	-200,000	0,012	-0,094
-684,539	62,561	0,045	0,033
-683,524	19,264	0,055	-0,032
-682,510	74,861	0,060	0,046
-681,495	37,846	-0,015	0,010
-680,481	800,000	-0,032	-0,069
-679,466	3,904	-0,085	-0,045
-678,451	6,824	-0,073	-0,039
-677,437	12,468	0,164	-0,092
-676,422	-49,441	-0,127	0,044
-675,408	800,000	0,031	-0,067
-674,393	-150,832	-0,156	-0,008
-673,378	176,987	-0,096	-0,102
-672,364	-80,541	-0,061	0,015
-671,349	-77,139	-0,098	-0,024
-670,335	363,567	0,024	0,035
-669,320	71,031	-0,087	0,065
-668,305	296,219	-0,049	0,065
-667,291	-118,970	-0,091	0,011
-666,276	183,659	-0,093	-0,099
-665,262	254,524	-0,079	-0,098
-664,247	98,002	-0,048	0,040
-663,232	800,000	-0,015	0,043
-662,218	800,000	-0,067	-0,140
-661,203	-66,612	0,060	0,017
-660,189	800,000	-0,032	0,066
-659,174	-8,523	-0,103	0,050
-658,159	269,853	-0,052	-0,066
-657,145	163,543	-0,061	-0,062
-656,130	-118,256	-0,114	-0,014
-655,116	763,109	0,040	0,079
-654,101	-46,741	0,027	-0,010
-653,086	-53,659	-0,066	0,022
-652,072	-200,000	0,012	0,081
-651,057	800,000	-0,011	0,033
-650,043	800,000	0,005	0,015
-649,028	-159,137	0,015	-0,001
-648,014	-200,000	-0,006	0,022
-646,999	107,965	0,057	0,050
-645,984	-96,294	-0,042	0,008
-644,970	515,369	0,026	-0,043
-643,955	-200,000	0,001	0,018
-642,941	-44,774	-0,050	-0,018
-641,926	291,068	-0,023	0,030
-640,911	-200,000	-0,006	0,062
-639,897	-200,000	-0,014	0,115
-638,882	800,000	-0,033	0,085
-637,868	730,416	-0,053	-0,103
-636,853	224,917	-0,025	-0,030
-635,838	800,000	-0,085	-0,173
-634,824	318,476	-0,073	-0,101
-633,809	-200,000	-0,018	0,122
-632,795	9,115	0,115	0,063
-631,780	660,088	0,040	-0,076
-630,765	-135,007	0,100	0,009
-629,751	257,139	-0,063	0,079
-628,736	465,963	-0,080	-0,130
-627,722	800,000	-0,029	-0,072
-626,707	800,000	0,019	-0,042
-625,692	-50,001	-0,042	-0,014
-624,678	-85,471	0,052	0,012
-623,663	-16,964	0,075	0,034
-622,649	34,753	-0,156	-0,099
-621,634	-200,000	0,001	-0,030
-620,619	146,122	-0,094	-0,091
-619,605	-200,000	-0,019	-0,153
-618,590	-41,658	-0,006	0,002
-617,576	253,159	-0,028	0,034
-616,561	30,218	-0,082	0,050
-615,546	-57,707	-0,084	0,026
-614,532	-200,000	0,010	-0,130
-613,517	-200,000	0,007	-0,135
-612,503	-200,000	-0,001	0,085
-611,488	12,607	-0,111	0,062
-610,474	239,253	0,127	0,153
-609,459	115,860	0,059	0,053
-608,444	-200,000	0,011	0,121
-607,430	-82,916	0,046	-0,011
-606,415	-105,756	0,078	-0,013
-605,401	800,000	0,047	0,107
-604,386	800,000	0,044	0,106
-603,371	64,671	-0,112	0,082
-602,357	800,000	0,034	-0,093
-601,342	-140,624	0,063	0,005
-600,328	-143,835	-0,169	-0,011
-599,313	-154,620	0,041	-0,002
-598,298	800,000	-0,029	0,064
-597,284	80,717	0,162	0,126
-596,269	-21,661	-0,035	0,015
-595,255	-141,139	-0,147	0,011
-594,240	186,351	-0,031	0,034
-593,225	-200,000	-0,021	0,139
-592,211	-200,000	0,004	-0,195
-591,196	-200,000	-0,005	-0,023
-590,182	116,110	-0,167	0,148
-589,167	-200,000	0,016	0,147
-588,152	96,059	0,017	0,014
-587,138	-88,850	0,068	-0,014
-586,123	-200,000	-0,010	-0,044
-585,109	-61,456	-0,102	-0,031
-584,094	750,923	0,031	0,061
-583,079	-126,534	-0,096	0,010
-582,065	-75,816	0,064	-0,016
-581,050	-67,374	-0,064	-0,018
-580,036	-200,000	0,022	-0,137
-579,021	126,135	-0,033	0,030
-578,006	-88,934	-0,030	0,006
-576,992	684,679	0,050	-0,094
-575,977	19,265	-0,036	0,021
-574,963	-51,865	-0,125	0,042
-573,948	313,721	0,052	0,071
-572,934	-59,163	-0,096	0,030
-571,919	-108,289	-0,097	-0,015
-570,904	-200,000	0,012	-0,095
-569,890	8,476	0,131	0,071
-568,875	81,685	-0,107	-0,083
-567,861	-200,000	-0,041	0,229
-566,846	311,381	-0,057	-0,078
-565,831	35,303	-0,061	0,039
-564,817	-48,495	-0,144	-0,050
-563,802	-200,000	-0,006	-0,057
-562,788	-200,000	-0,017	-0,141
-561,773	203,018	-0,076	-0,085
-560,758	165,829	0,043	0,044
-559,744	-200,000	0,011	0,060
-558,729	-123,778	0,056	-0,006
-557,715	484,150	-0,045	0,074
-556,700	-3,890	0,040	-0,020
-555,685	85,921	-0,063	0,050
-554,671	-200,000	0,021	0,086
-553,656	-101,911	-0,027	-0,005
-552,642	-183,232	-0,089	-0,001
-551,627	53,462	0,040	-0,028
-550,612	403,329	0,024	-0,037
-549,598	-134,592	-0,070	-0,006
-548,583	800,000	0,032	0,087
-547,569	-160,852	0,051	-0,002
-546,554	800,000	0,057	0,116
-545,539	800,000	0,044	0,097
-544,525	147,539	0,048	0,046
-543,510	165,014	-0,144	-0,147
-542,496	-200,000	0,036	-0,119
-541,481	643,816	-0,012	-0,022
-540,466	-200,000	-0,052	-0,179
-539,452	89,419	-0,049	0,039
-538,437	-24,152	0,126	0,054
-537,423	-200,000	0,008	0,128
-536,408	269,925	0,071	0,090
-535,393	2,322	-0,026	0,014
-534,379	239,626	0,038	-0,046
-533,364	-200,000	-0,024	-0,183
-532,350	800,000	-0,038	0,108
-531,335	-31,143	-0,079	-0,032
-530,321	-43,027	0,096	0,035
-529,306	71,692	0,018	-0,014
-528,291	361,351	-0,048	0,070
-527,277	-91,492	-0,090	-0,018
-526,262	146,975	0,095	0,092
-525,248	99,937	0,029	-0,024
-524,233	-200,000	-0,026	0,096
-523,218	-200,000	-0,007	0,056
-522,204	-69,234	0,063	0,017
-521,189	-113,461	-0,135	-0,019
-520,175	-200,000	0,010	-0,032
-519,160	-62,707	-0,074	-0,022
-518,145	800,000	0,034	-0,091
-517,131	-200,000	-0,008	0,096
-516,116	-200,000	0,027	0,116
-515,102	221,102	-0,062	0,072
-514,087	800,000	-0,015	-0,035
-513,072	-14,104	-0,074	-0,034
-512,058	44,723	0,069	-0,045
-511,043	-91,668	-0,037	-0,008
-510,029	-200,000	-0,036	0,264
-509,014	23,885	-0,088	0,052
-507,999	800,000	0,044	-0,090
-506,985	-200,000	-0,022	-0,150
-505,970	-5,885	0,033	0,016
-504,956	44,126	-0,080	-0,053
-503,941	-109,145	0,076	-0,012
-502,926	-0,453	0,043	0,022
-501,912	-98,012	-0,054	0,010
-500,897	390,837	0,028	0,041
-499,883	-108,042	-0,082	0,013
-498,868	-200,000	-0,050	-0,218
-497,853	-61,360	-0,178	-0,054
-496,839	553,297	0,057	0,099
-495,824	800,000	0,031	0,089
-494,810	-200,000	0,021	0,000
-493,795	51,955	-0,066	0,045
-492,781	-159,866	0,101	0,004
-491,766	-200,000	-0,026	-0,116
-490,751	800,000	0,038	-0,104
-489,737	164,879	0,100	0,101
-488,722	62,398	0,117	0,084
-487,708	391,087	0,029	-0,043
-486,693	-118,649	0,091	-0,011
-485,678	-120,451	-0,135	0,016
-484,664	438,829	-0,049	-0,077
-483,649	-63,678	-0,109	-0,032
-482,635	105,519	0,094	0,080
-481,620	-200,000	-0,002	-0,097
-480,605	-27,368	0,112	0,047
-479,591	-200,000	-0,044	0,156
-478,576	-150,772	-0,087	0,005
-477,562	385,339	0,006	-0,009
-476,547	-65,462	0,081	0,023
-475,532	800,000	-0,048	-0,132
-474,518	-95,065	-0,108	0,021
-473,503	371,412	-0,038	0,056
-472,489	-0,684	0,118	0,060
-471,474	136,135	0,100	0,094
-470,459	104,383	-0,065	-0,055
-469,445	-11,464	0,088	0,041
-468,430	-200,000	-0,021	-0,118
-467,416	-200,000	0,007	-0,038
-466,401	-200,000	0,000	-0,021
-465,386	225,694	0,062	-0,072
-464,372	76,109	-0,088	-0,067
-463,357	45,989	0,096	-0,064
-462,343	-133,664	-0,074	0,007
-461,328	-154,292	0,185	0,009
-460,313	-104,778	-0,118	-0,019
-459,299	69,542	0,116	-0,086
-458,284	-43,118	-0,076	-0,027
-457,270	203,097	0,076	-0,084
-456,255	151,258	-0,097	-0,095
-455,241	52,141	-0,124	-0,085
-454,226	77,666	0,046	0,035
-453,211	39,374	0,041	-0,026
-452,197	206,553	0,080	-0,090
-451,182	-200,000	0,024	0,136
-450,168	159,204	-0,082	-0,083
-449,153	131,252	-0,071	0,066
-448,138	-200,000	-0,002	0,008
-447,124	-200,000	0,003	-0,106
-446,109	196,314	0,074	-0,081
-445,095	8,384	0,137	0,074
-444,080	238,395	0,038	0,045
-443,065	-200,000	-0,002	0,116
-442,051	800,000	0,029	-0,082
-441,036	-62,012	-0,085	-0,025
-440,022	-200,000	0,013	-0,075
-439,007	364,520	0,024	-0,035
-437,992	141,913	-0,068	0,065
-436,978	108,459	-0,090	0,077
-435,963	81,781	0,099	0,077
-434,949	800,000	-0,026	-0,069
-433,934	-119,973	0,117	-0,014
-432,919	800,000	0,025	0,057
-431,905	-162,167	0,176	0,006
-430,890	-200,000	-0,030	0,196
-429,876	686,504	0,066	0,124
-428,861	-200,000	0,002	-0,098
-427,846	-200,000	-0,002	-0,036
-426,832	-200,000	0,014	-0,074
-425,817	-121,544	-0,099	-0,012
-424,803	-26,461	-0,151	-0,063
-423,788	-200,000	0,012	0,054
-422,773	-47,981	0,058	-0,020
-421,759	-141,652	0,052	-0,004
-420,744	95,780	-0,019	0,016
-419,730	23,090	-0,085	-0,050
-418,715	774,957	-0,033	0,066
-417,701	-57,185	0,101	-0,032
-416,686	-89,394	-0,029	0,006
-415,671	-200,000	-0,003	0,052
-414,657	374,713	0,064	0,094
-413,642	-1,141	0,091	0,046
-412,628	107,793	-0,130	-0,111
-411,613	110,326	0,093	-0,080
-410,598	-124,102	-0,081	0,009
-409,584	611,842	0,043	0,077
-408,569	-33,193	-0,122	-0,048
-407,555	-5,834	0,094	-0,046
-406,540	-200,000	0,018	-0,076
-405,525	469,367	-0,048	-0,078
-404,511	-68,580	0,121	0,033
-403,496	800,000	0,038	-0,116
-402,482	-200,000	0,027	-0,090
-401,467	-200,000	0,013	0,095
-400,452	-200,000	0,001	0,082
-399,438	-200,000	0,004	0,055
-398,423	200,694	-0,083	0,092
-397,409	-200,000	-0,002	-0,007
-396,394	-128,924	0,162	-0,016
-395,379	275,679	-0,070	0,089
-394,365	-200,000	0,020	0,091
-393,350	59,547	-0,036	0,025
-392,336	274,397	0,050	-0,064
-391,321	116,688	0,102	0,090
-390,306	209,097	-0,043	-0,049
-389,292	735,722	0,055	-0,107
-388,277	-200,000	-0,004	0,043
-387,263	-94,562	-0,082	0,016
-386,248	-7,933	0,128	0,062
-385,233	-200,000	-0,016	0,079
-384,219	800,000	-0,062	-0,145
-383,204	800,000	0,022	0,067
-382,190	-200,000	-0,013	-0,068
-381,175	-80,113	-0,068	-0,016
-380,160	21,883	-0,067	-0,039
-379,146	735,470	0,041	0,079
-378,131	146,854	-0,040	-0,038
-377,117	-200,000	0,025	0,106
-376,102	-200,000	0,013	-0,049
-375,088	-70,039	0,118	-0,032
-374,073	-200,000	-0,000	-0,072
-373,058	74,450	0,102	0,077
-372,044	106,173	-0,070	0,059
-371,029	389,851	0,064	0,095
-370,015	-50,538	-0,121	0,041
-369,000	-87,320	-0,065	0,014
-367,985	148,767	0,108	-0,105
-366,971	-200,000	0,009	-0,071
-365,956	800,000	0,014	-0,033
-364,942	8,527	-0,052	-0,028
-363,927	499,780	-0,137	0,227
-362,912	-200,000	0,013	-0,094
-361,898	-98,651	0,099	0,018
-360,883	-17,656	0,104	0,046
-359,869	-149,816	0,036	-0,002
-358,854	-200,000	0,010	0,042
-357,839	-107,360	0,062	-0,010
-356,825	63,803	-0,048	-0,034
-355,810	-200,000	-0,002	-0,069
-354,796	-64,858	0,065	0,019
-353,781	45,633	-0,047	-0,031
-352,766	221,425	-0,046	-0,053
-351,752	800,000	-0,052	-0,106
-350,737	-72,516	0,085	-0,022
-349,723	-200,000	-0,013	0,157
-348,708	-174,924	-0,047	-0,001
-347,693	800,000	0,021	0,044
-346,679	261,662	-0,049	-0,060
-345,664	-125,857	-0,188	-0,020
-344,650	262,046	-0,055	-0,068
-343,635	69,970	0,049	-0,036
-342,620	-200,000	0,028	-0,192
-341,606	687,956	0,061	-0,115
-340,591	-65,385	-0,087	-0,025
-339,577	22,601	-0,075	-0,044
-338,562	78,096	-0,018	0,014
-337,548	25,499	-0,057	-0,034
-336,533	800,000	0,039	-0,122
-335,518	-102,788	-0,042	-0,007
-334,504	-77,035	0,183	0,045
-333,489	-200,000	0,008	-0,056
-332,475	207,541	-0,071	-0,079
-331,460	800,000	-0,092	-0,256
-330,445	51,124	-0,072	0,049
-329,431	-84,286	0,148	0,033
-328,416	800,000	0,048	-0,109
-327,402	-64,422	-0,104	0,030
-326,387	-200,000	0,014	0,080
-325,372	639,722	-0,052	-0,095
-324,358	210,264	0,077	-0,087
-323,343	-200,000	-0,027	0,176
-322,329	85,816	0,096	0,075
-321,314	800,000	-0,033	0,089
-320,299	671,086	0,029	0,053
-319,285	68,906	-0,073	0,053
-318,270	-129,880	-0,138	-0,013
-317,256	-0,546	0,007	0,004
-316,241	-200,000	0,002	-0,011
-315,226	800,000	0,042	-0,127
-314,212	-200,000	0,017	0,134
-313,197	-61,749	-0,068	0,020
-312,183	201,087	-0,012	0,013
-311,168	-200,000	0,009	0,041
-310,153	119,630	-0,110	-0,098
-309,139	-14,930	0,054	-0,025
-308,124	115,141	0,205	-0,179
-307,110	-91,474	0,104	-0,021
-306,095	-200,000	-0,013	-0,068
-305,080	65,639	0,070	-0,050
-304,066	800,000	0,035	0,080
-303,051	419,174	-0,042	-0,064
-302,037	800,000	0,038	-0,099
-301,022	-96,250	-0,042	0,008
-300,008	-81,103	0,118	0,028
-298,993	-200,000	-0,021	0,157
-297,978	800,000	0,090	-0,213
-296,964	96,019	-0,103	-0,084
-295,949	-20,679	-0,115	0,050
-294,935	-95,985	-0,132	-0,025
-293,920	170,388	0,056	0,058
-292,905	-200,000	0,007	0,045
-291,891	-132,336	0,061	0,006
-290,876	347,124	-0,109	0,154
-289,862	-83,146	-0,097	0,022
-288,847	-200,000	-0,000	-0,109
-287,832	-200,000	-0,035	-0,131
-286,818	106,440	0,086	0,073
-285,803	172,321	0,153	-0,157
-284,789	59,681	0,120	-0,084
-283,774	119,133	0,042	0,037
-282,759	-31,697	-0,076	-0,030
-281,745	-200,000	0,003	-0,130
-280,730	220,766	-0,037	-0,042
-279,716	545,064	-0,080	-0,138
-278,701	-112,628	0,100	0,014
-277,686	630,580	0,046	0,084
-276,672	349,102	0,060	0,085
-275,657	148,339	-0,048	0,046
-274,643	133,401	0,057	0,052
-273,628	-108,393	-0,084	-0,013
-272,613	-90,101	0,017	-0,004
-271,599	188,411	0,062	0,066
-270,584	-80,517	0,090	-0,021
-269,570	4,821	0,088	0,046
-268,555	153,503	0,053	-0,052
-267,540	-39,890	-0,044	0,016
-266,526	194,657	-0,036	-0,039
-265,511	-200,000	-0,004	0,052
-264,497	106,417	0,103	-0,087
-263,482	133,243	0,072	-0,066
-262,467	-200,000	-0,044	0,157
-261,453	74,569	0,062	0,046
-260,438	-1,885	0,071	-0,035
-259,424	89,087	-0,077	-0,061
-258,409	187,115	0,085	-0,090
-257,395	-200,000	-0,014	0,108
-256,380	-17,992	-0,047	0,021
-255,365	-200,000	-0,016	-0,131
-254,351	468,837	0,017	-0,027
-253,336	-200,000	-0,001	0,102
-252,322	19,999	0,062	-0,035
-251,307	-8,367	-0,030	0,014
-250,292	-200,000	0,035	0,150
-249,278	55,381	0,130	-0,089
-248,263	135,455	0,127	0,118
-247,249	-200,000	-0,007	0,040
-246,234	-135,019	0,053	0,005
-245,219	15,396	0,053	0,029
-244,205	800,000	-0,013	-0,026
-243,190	-157,445	-0,119	0,005
-242,176	200,016	0,040	0,044
-241,161	-91,286	0,053	-0,011
-240,146	-125,662	0,116	-0,012
-239,132	-96,096	-0,013	-0,002
-238,117	627,334	0,048	-0,086
-237,103	-200,000	0,022	-0,092
-236,088	800,000	-0,023	-0,051
-235,073	-6,287	-0,018	-0,009
-234,059	800,000	0,025	0,067
-233,044	709,056	0,041	0,078
-232,030	-41,615	-0,052	0,019
-231,015	-9,445	-0,073	0,035
-230,000	-200,000	0,015	-0,061
-228,986	375,250	-0,069	0,100
-227,971	60,587	0,084	-0,059
-226,957	-119,920	-0,074	0,009
-225,942	800,000	0,046	-0,093
-224,927	-200,000	-0,003	0,037
-223,913	3,112	-0,046	-0,024
-222,898	-200,000	0,003	0,055
-221,884	-62,539	0,035	0,010
-220,869	800,000	0,074	-0,150
-219,855	9,589	0,069	0,037
-218,840	650,376	-0,075	0,138
-217,825	112,154	0,014	0,012
-216,811	197,149	-0,040	0,043
-215,796	74,497	-0,131	-0,098
-214,782	-200,000	-0,006	-0,045
-213,767	427,274	0,061	0,095
-212,752	-200,000	0,017	0,125
-211,738	-86,619	0,042	0,009
-210,723	-17,953	-0,077	0,034
-209,709	398,897	-0,057	0,085
-208,694	172,496	-0,064	0,066
-207,679	-200,000	0,005	-0,050
-206,665	-200,000	0,035	0,119
-205,650	154,966	-0,018	0,017
-204,636	131,725	-0,095	-0,087
-203,621	531,018	0,036	0,060
-202,606	572,674	-0,041	0,072
-201,592	-200,000	-0,006	0,069
-200,577	195,952	0,017	-0,019
-199,563	431,894	0,016	-0,025
-198,548	-200,000	-0,005	0,125
-197,533	800,000	0,023	0,055
-196,519	605,505	0,063	-0,112
-195,504	-200,000	0,022	0,084
-194,490	800,000	0,043	-0,106
-193,475	-200,000	-0,006	0,068
-192,460	222,207	-0,064	-0,074
-191,446	-84,849	0,124	-0,027
-190,431	26,648	0,068	-0,040
-189,417	-200,000	-0,021	-0,100
-188,402	-200,000	0,010	0,051
-187,387	44,624	0,067	-0,044
-186,373	60,226	0,050	0,035
-185,358	255,144	-0,016	-0,020
-184,344	-200,000	0,028	0,090
-183,329	39,605	-0,046	0,029
-182,315	-200,000	-0,013	0,109
-181,300	800,000	-0,036	-0,085
-180,285	68,883	-0,179	0,131
-179,271	52,264	-0,054	-0,037
-178,256	-67,086	-0,093	0,026
-177,242	-181,252	0,166	-0,002
-176,227	-200,000	0,010	0,047
-175,212	163,984	-0,043	-0,043
-174,198	-37,815	0,100	-0,038
-173,183	549,629	-0,032	-0,055
-172,169	311,760	-0,036	0,048
-171,154	304,720	0,049	0,064
-170,139	-200,000	-0,008	-0,027
-169,125	-200,000	0,003	0,021
-168,110	-56,378	0,031	0,010
-167,096	640,938	0,065	-0,119
-166,081	476,310	0,036	-0,059
-165,066	36,921	-0,092	0,058
-164,052	-200,000	0,013	-0,095
-163,037	-53,619	-0,020	-0,006
-162,023	-123,768	-0,036	-0,004
-161,008	-12,449	0,090	0,042
-159,993	325,646	-0,058	0,080
-158,979	-68,666	-0,124	0,034
-157,964	335,801	0,070	0,096
-156,950	-134,891	-0,164	0,014
-155,935	474,919	0,052	-0,084
-154,920	44,562	0,104	-0,068
-153,906	-200,000	0,016	0,127
-152,891	463,264	0,018	0,029
-151,877	757,114	0,047	-0,092
-150,862	193,550	0,029	-0,031
-149,847	-73,511	-0,123	0,032
-148,833	-37,628	0,113	0,043
-147,818	357,093	0,031	-0,044
-146,804	45,141	0,076	0,050
-145,789	105,514	-0,025	0,021
-144,775	9,263	-0,060	0,032
-143,760	159,020	-0,024	0,023
-142,745	-108,262	-0,103	0,016
-141,731	-156,039	0,202	-0,009
-140,716	237,329	0,079	0,093
-139,702	150,096	0,056	-0,054
-138,687	6,863	0,038	-0,020
-137,672	-123,145	0,079	0,009
-136,658	-200,000	-0,009	-0,070
-135,643	-200,000	-0,006	-0,040
-134,629	800,000	0,078	-0,184
-133,614	800,000	0,024	0,066
-132,599	3,378	0,062	0,032
-131,585	94,029	-0,074	-0,060
-130,570	771,317	-0,043	-0,083
-129,556	20,657	0,035	0,020
-128,541	-83,871	-0,138	-0,031
-127,526	-80,948	-0,109	-0,026
-126,512	130,412	0,076	0,069
-125,497	-36,482	0,147	-0,056
-124,483	-71,862	-0,066	-0,017
-123,468	-94,180	0,058	0,011
-122,453	-128,578	-0,061	-0,006
-121,439	193,121	0,046	-0,049
-120,424	62,498	0,041	-0,029
-119,410	111,720	0,067	-0,057
-118,395	800,000	-0,037	0,089
-117,380	-39,760	0,113	0,042
-116,366	127,401	0,181	0,163
-115,351	-40,893	-0,108	-0,039
-114,337	-92,146	0,080	0,016
-113,322	-200,000	0,004	-0,020
-112,307	-104,204	0,103	-0,017
-111,293	-200,000	-0,026	-0,132
-110,278	25,791	-0,109	0,064
-109,264	-200,000	-0,022	0,147
-108,249	244,033	-0,048	-0,057
-107,234	377,208	0,075	0,109
-106,220	177,892	0,080	-0,083
-105,205	-104,397	0,141	-0,023
-104,191	-200,000	0,005	0,069
-103,176	9,936	0,057	-0,031
-102,162	42,188	-0,061	0,039
-101,147	13,366	-0,151	-0,083
-100,132	431,824	-0,061	-0,094
-99,118	-200,000	0,005	-0,134
-98,103	461,559	0,104	-0,165
-97,089	-71,810	-0,152	0,040
-96,074	-200,000	-0,014	-0,111
-95,059	84,951	-0,144	-0,112
-94,045	-138,022	-0,036	-0,003
-93,030	43,054	-0,044	0,028
-92,016	500,758	-0,041	0,067
-91,001	-108,849	-0,093	0,014
-89,986	200,505	-0,048	0,053
-88,972	-159,131	0,177	-0,007
-87,957	-136,364	0,046	0,004
-86,943	800,000	-0,047	-0,092
-85,928	271,845	-0,078	-0,098
-84,913	-84,265	0,127	0,028
-83,899	-200,000	-0,026	0,154
-82,884	-200,000	0,029	-0,108
-81,870	-200,000	-0,021	0,112
-80,855	-89,122	0,026	0,005
-79,840	-200,000	0,002	0,009
-78,826	172,273	-0,147	-0,150
-77,811	0,514	-0,135	-0,068
-76,797	332,726	0,046	0,063
-75,782	24,589	0,031	-0,018
-74,767	-134,543	0,104	-0,009
-73,753	800,000	-0,021	0,060
-72,738	-110,023	-0,131	0,019
-71,724	-200,000	-0,021	-0,091
-70,709	70,175	-0,044	-0,032
-69,694	122,175	-0,041	0,036
-68,680	632,299	-0,050	0,090
-67,665	-200,000	0,003	0,044
-66,651	-200,000	0,012	0,045
-65,636	-200,000	-0,004	0,037
-64,622	-200,000	0,012	0,078
-63,607	116,210	-0,032	0,028
-62,592	-200,000	-0,004	-0,055
-61,578	800,000	-0,039	0,086
-60,563	210,473	-0,026	0,029
-59,549	-100,535	-0,085	-0,015
-58,534	-36,202	-1,625	-0,618
-57,519	381,940	-1,410	-2,058
-56,505	-200,000	-0,656	-4,527
-55,490	223,616	0,941	1,077
-54,476	800,000	4,969	11,583
-53,461	-200,000	18,928	307,013
-52,446	800,000	737,620	2301,508
-51,432	569,427	1653,781	2858,408
-50,417	78,962	1670,669	1265,080
-49,403	22,035	1543,464	889,134
-48,388	15,908	1466,249	814,880
-47,373	17,728	1456,351	818,142
-46,359	16,835	1446,459	808,269
-45,344	14,198	1441,644	792,921
-44,330	14,089	1439,817	791,360
-43,315	14,098	1438,174	790,474
-42,300	14,071	1436,583	789,437
-41,286	14,174	1435,235	789,157
-40,271	14,160	1433,958	788,355
-39,257	14,098	1432,826	787,406
-38,242	14,172	1431,518	787,009
-37,227	14,213	1430,151	786,421
-36,213	14,214	1428,920	785,720
-35,198	14,176	1427,735	784,854
-34,184	14,192	1426,854	784,413
-33,169	14,122	1425,485	783,298
-32,154	14,158	1424,521	782,909
-31,140	14,188	1423,065	782,219
-30,125	14,169	1421,941	781,482
-29,111	14,144	1421,047	780,840
-28,096	14,191	1419,756	780,323
-27,082	14,091	1418,784	779,285
-26,067	14,064	1417,661	778,513
-25,052	14,072	1416,536	777,901
-24,038	14,051	1415,612	777,261
-23,023	14,058	1414,679	776,753
-22,009	14,039	1413,573	776,027
-20,994	14,038	1412,708	775,514
-19,979	14,033	1411,996	775,068
-18,965	13,994	1411,059	774,340
-17,950	14,003	1410,049	773,797
-16,936	14,030	1409,008	773,322
-15,921	13,970	1408,105	772,515
-14,906	13,975	1407,296	772,063
-13,892	14,011	1406,144	771,571
-12,877	14,006	1405,209	771,002
-11,863	13,952	1404,430	770,293
-10,848	13,981	1403,441	769,856
-9,833	13,942	1402,591	769,176
-8,819	13,935	1401,620	768,583
-7,804	13,901	1400,767	767,927
-6,790	13,895	1399,741	767,303
-5,775	13,867	1398,759	766,603
-4,760	13,905	1397,664	766,150
-3,746	13,864	1397,050	765,592
-2,731	13,873	1396,316	765,205
-1,717	13,858	1395,382	764,590
-0,702	13,909	1393,277	763,644
0,313	17,632	1311,329	736,020
1,327	33,981	705,492	433,831
2,342	52,212	124,041	83,542
3,356	2,005	16,617	8,458
4,371	5,662	3,228	1,682
5,386	19,765	0,563	0,320
6,400	-200,000	0,007	0,192
7,415	35,566	-0,125	-0,077
8,429	73,757	-0,175	-0,129
9,444	-64,133	-0,286	-0,082
10,459	209,415	-0,165	-0,183
11,473	104,852	-0,232	-0,194
12,488	6,988	-0,403	-0,212
13,502	-18,904	-0,405	-0,177
14,517	-54,955	-0,349	-0,111
15,531	235,724	-0,250	-0,292
16,546	10,396	-0,341	-0,183
17,561	111,635	-0,407	-0,347
18,575	99,396	-0,166	-0,136
19,590	8,128	-0,299	-0,158
20,604	5,173	-0,240	-0,125
21,619	96,894	-0,372	-0,301
22,634	201,503	-0,363	-0,396
23,648	92,797	-0,500	-0,398
24,663	24,775	-0,397	-0,232
25,677	37,051	-0,421	-0,263
26,692	-59,309	-0,361	-0,109
27,707	-10,567	-0,370	-0,172
28,721	125,843	-0,343	-0,306
29,736	168,990	-0,284	-0,286
30,750	89,134	-0,534	-0,419
31,765	-22,968	-0,387	-0,164
32,780	112,262	-0,411	-0,350
33,794	58,693	-0,396	-0,274
34,809	95,257	-0,411	-0,331
35,823	113,158	-0,327	-0,280
36,838	-13,736	-0,490	-0,223
37,853	65,192	-0,462	-0,329
38,867	75,497	-0,295	-0,219
39,882	85,504	-0,373	-0,289
40,896	156,426	-0,279	-0,271
41,911	132,699	-0,334	-0,304
42,926	24,828	-0,349	-0,203
43,940	-98,204	-0,387	-0,069
44,955	43,491	-0,504	-0,324
45,969	2,432	-0,440	-0,224
46,984	-44,868	-0,197	-0,069
47,999	78,399	-0,285	-0,214
49,013	18,429	-0,375	-0,211
50,028	121,640	-0,317	-0,278
51,042	-26,135	-0,294	-0,121
52,057	81,291	-0,356	-0,270
53,071	16,814	-0,401	-0,223
54,086	-31,454	-0,399	-0,157
55,101	108,895	-0,332	-0,279
56,115	-13,847	-0,470	-0,213
57,130	38,760	-0,277	-0,174
58,144	-60,404	-0,459	-0,136
59,159	53,288	-0,542	-0,365
60,174	61,195	-0,393	-0,275
61,188	524,897	-0,220	-0,366
62,203	-124,300	-0,389	-0,042
63,217	139,455	-0,215	-0,199
64,232	-2,452	-0,318	-0,156
65,247	-37,938	-0,379	-0,141
66,261	19,526	-0,398	-0,224
67,276	332,689	-0,343	-0,467
68,290	69,956	-0,460	-0,334
69,305	82,379	-0,346	-0,264
70,320	0,791	-0,300	-0,151
71,334	157,920	-0,245	-0,239
72,349	-50,357	-0,479	-0,158
73,363	194,491	-0,322	-0,344
74,378	-28,747	-0,357	-0,144
75,393	106,809	-0,325	-0,271
76,407	140,362	-0,227	-0,210
77,422	273,822	-0,243	-0,303
78,436	-39,212	-0,374	-0,137
79,451	78,715	-0,283	-0,213
80,466	-21,237	-0,386	-0,165
81,480	127,277	-0,272	-0,243
82,495	122,582	-0,232	-0,203
83,509	73,131	-0,342	-0,251
84,524	-34,292	-0,291	-0,111
85,539	204,028	-0,244	-0,266
86,553	36,534	-0,275	-0,170
87,568	36,698	-0,342	-0,212
88,582	99,165	-0,285	-0,231
89,597	-139,862	-0,238	-0,017
90,611	-83,256	-0,385	-0,086
91,626	80,900	-0,310	-0,235
92,641	317,579	-0,128	-0,170
93,655	100,587	-0,268	-0,218
94,670	14,107	-0,322	-0,175
95,684	178,899	-0,248	-0,254
96,699	134,985	-0,260	-0,237
97,714	83,477	-0,251	-0,192
98,728	186,414	-0,211	-0,221
99,743	-28,715	-0,223	-0,090
100,757	59,261	-0,303	-0,209
101,772	-79,173	-0,367	-0,087
102,787	-1,499	-0,308	-0,152
103,801	459,828	-0,181	-0,283
104,816	210,095	-0,266	-0,293
105,830	180,587	-0,198	-0,204
106,845	107,917	-0,335	-0,280
107,860	415,408	-0,172	-0,257
108,874	53,474	-0,402	-0,270
109,889	378,320	-0,195	-0,280
110,903	-164,437	-0,304	-0,010
111,918	3,315	-0,252	-0,128
112,933	155,721	-0,093	-0,090
113,947	-33,204	-0,222	-0,086
114,962	-53,441	-0,226	-0,072
115,976	19,739	-0,346	-0,195
116,991	-4,310	-0,280	-0,135
118,006	21,813	-0,318	-0,181
119,020	83,905	-0,308	-0,236
120,035	-29,040	-0,201	-0,080
121,049	142,883	-0,219	-0,204
122,064	-143,525	-0,224	-0,015
123,079	-26,503	-0,251	-0,102
124,093	-4,379	-0,401	-0,193
125,108	143,276	-0,301	-0,281
126,122	295,202	-0,238	-0,305
127,137	6,902	-0,487	-0,253
128,151	299,529	-0,264	-0,341
129,166	800,000	-0,135	-0,271
130,181	28,240	-0,281	-0,166
131,195	499,824	-0,174	-0,282
132,210	45,725	-0,417	-0,269
133,224	26,183	-0,236	-0,138
134,239	134,919	-0,074	-0,067
135,254	-121,315	-0,318	-0,037
136,268	113,372	-0,278	-0,236
137,283	112,421	-0,281	-0,238
138,297	32,289	-0,317	-0,191
139,312	162,024	-0,177	-0,174
140,327	1,852	-0,275	-0,138
141,341	35,025	-0,228	-0,139
142,356	180,199	-0,178	-0,182
143,370	165,121	-0,186	-0,184
144,385	118,981	-0,141	-0,122
145,400	-39,870	-0,387	-0,140
146,414	68,166	-0,353	-0,252
147,429	31,607	-0,253	-0,151
148,443	241,664	-0,247	-0,289
149,458	210,202	-0,200	-0,220
150,473	40,027	-0,173	-0,108
151,487	154,568	-0,238	-0,228
152,502	177,156	-0,250	-0,255
153,516	-3,879	-0,239	-0,115
154,531	38,163	-0,216	-0,134
155,546	15,852	-0,320	-0,175
156,560	132,627	-0,215	-0,194
157,575	-39,131	-0,168	-0,061
158,589	208,165	-0,190	-0,207
159,604	-40,207	-0,358	-0,129
160,619	71,295	-0,366	-0,264
161,633	38,953	-0,266	-0,166
162,648	50,462	-0,275	-0,181
163,662	266,524	-0,095	-0,116
164,677	173,398	-0,238	-0,239
165,692	-58,721	-0,218	-0,065
166,706	143,449	-0,337	-0,313
167,721	-18,327	-0,282	-0,123
168,735	112,192	-0,214	-0,180
169,750	58,164	-0,364	-0,248
170,764	55,122	-0,249	-0,167
171,779	323,209	-0,090	-0,120
172,794	-14,483	-0,303	-0,135
173,808	53,892	-0,306	-0,205
174,823	214,336	-0,243	-0,268
175,837	-2,251	-0,250	-0,122
176,852	23,270	-0,198	-0,113
177,867	138,910	-0,266	-0,243
178,881	-67,392	-0,209	-0,057
179,896	118,888	-0,285	-0,245
180,910	177,746	-0,213	-0,216
181,925	133,240	-0,283	-0,255
182,940	155,497	-0,287	-0,275
183,954	323,660	-0,133	-0,177
184,969	153,148	-0,215	-0,205
185,983	-37,209	-0,206	-0,076
186,998	-0,809	-0,294	-0,144
188,013	523,006	-0,145	-0,238
189,027	800,000	-0,060	-0,180
190,042	41,195	-0,306	-0,192
191,056	66,260	-0,237	-0,168
192,071	621,977	-0,136	-0,239
193,086	145,625	-0,175	-0,163
194,100	123,666	-0,177	-0,155
195,115	-38,682	-0,216	-0,079
196,129	-19,314	-0,213	-0,092
197,144	322,091	-0,220	-0,292
198,159	114,351	-0,241	-0,204
199,173	77,728	-0,176	-0,131
200,188	-98,690	-0,132	-0,023
201,202	446,380	-0,086	-0,132
202,217	-126,885	-0,197	-0,020
203,232	213,643	-0,243	-0,267
204,246	193,366	-0,160	-0,168
205,261	295,436	-0,177	-0,225
206,275	32,414	-0,221	-0,133
207,290	-149,117	-0,157	-0,009
208,304	800,000	-0,112	-0,247
209,319	325,096	-0,159	-0,212
210,334	182,724	-0,255	-0,262
211,348	54,870	-0,271	-0,181
212,363	127,289	-0,212	-0,186
213,377	50,501	-0,222	-0,146
214,392	510,990	-0,102	-0,166
215,407	-4,186	-0,179	-0,086
216,421	-105,494	-0,097	-0,015
217,436	-40,812	-0,222	-0,079
218,450	114,263	-0,112	-0,095
219,465	111,555	-0,264	-0,221
220,480	79,463	-0,170	-0,126
221,494	163,293	-0,182	-0,178
222,509	248,555	-0,117	-0,138
223,523	54,718	-0,102	-0,068
224,538	215,253	-0,102	-0,113
225,553	145,049	-0,185	-0,172
226,567	390,681	-0,164	-0,237
227,582	767,540	-0,094	-0,177
228,596	97,851	-0,149	-0,119
229,611	164,656	-0,185	-0,181
230,626	235,701	-0,162	-0,186
231,640	111,790	-0,094	-0,078
232,655	-37,836	-0,194	-0,071
233,669	98,493	-0,351	-0,281
234,684	61,459	-0,199	-0,137
235,699	214,483	-0,129	-0,142
236,713	370,411	-0,104	-0,146
237,728	204,580	-0,078	-0,084
238,742	-127,459	-0,219	0,022
239,757	545,794	-0,137	-0,229
240,772	-1,072	-0,177	-0,087
241,786	-32,754	-0,213	-0,082
242,801	182,082	-0,189	-0,193
243,815	-44,707	-0,234	-0,081
244,830	-74,213	-0,145	0,036
245,844	-86,861	-0,178	0,037
246,859	71,720	-0,221	-0,159
247,874	800,000	-0,139	-0,271
248,888	200,790	-0,200	-0,213
249,903	114,207	-0,176	-0,148
250,917	223,374	-0,134	-0,150
251,932	-80,035	-0,121	-0,028
252,947	133,236	-0,088	-0,079
253,961	136,172	-0,108	-0,098
254,976	-12,999	-0,148	-0,066
255,990	72,049	-0,087	-0,063
257,005	324,352	-0,116	-0,154
258,020	-200,000	-0,020	-0,102
259,034	22,021	-0,191	-0,107
260,049	124,481	-0,188	-0,163
261,063	10,555	-0,223	-0,117
262,078	58,651	-0,188	-0,128
263,093	0,106	-0,200	-0,098
264,107	-90,836	-0,143	-0,028
265,122	17,884	-0,210	-0,116
266,136	-52,299	-0,189	-0,060
267,151	207,625	-0,042	-0,046
268,166	-13,703	-0,156	-0,070
269,180	15,601	-0,191	-0,104
270,195	37,140	-0,277	-0,169
271,209	11,308	-0,276	-0,146
272,224	317,842	-0,138	-0,181
273,239	-137,965	-0,117	-0,009
274,253	151,022	-0,101	-0,095
275,268	53,784	-0,088	-0,058
276,282	-53,992	-0,222	-0,069
277,297	51,843	-0,192	-0,126
278,312	66,484	-0,179	-0,125
279,326	-69,795	-0,112	0,029
280,341	-63,208	-0,141	-0,040
281,355	244,404	-0,146	-0,170
282,370	209,923	-0,143	-0,156
283,384	29,144	-0,215	-0,126
284,399	79,331	-0,245	-0,181
285,414	6,030	-0,225	-0,115
286,428	64,721	-0,241	-0,168
287,443	-76,569	-0,112	-0,027
288,457	10,014	-0,156	-0,082
289,472	124,212	-0,147	-0,128
290,487	269,669	-0,133	-0,161
291,501	76,662	-0,168	-0,123
292,516	-200,000	-0,057	-0,209
293,530	319,894	-0,162	-0,213
294,545	394,996	-0,075	-0,108
295,560	129,500	-0,109	-0,096
296,574	54,991	-0,063	-0,042
297,589	77,353	-0,164	-0,120
298,603	-92,263	-0,255	-0,049
299,618	800,000	-0,102	-0,200
300,633	37,287	-0,135	-0,082
301,647	173,301	-0,104	-0,104
302,662	188,524	-0,076	-0,078
303,676	-80,799	-0,170	-0,039
304,691	-117,203	-0,149	0,019
305,706	-11,132	-0,207	-0,094
306,720	-103,542	-0,066	-0,011
307,735	190,506	-0,140	-0,146
308,749	119,563	-0,146	-0,125
309,764	632,423	0,045	-0,078
310,779	26,524	-0,171	-0,098
311,793	-200,000	-0,020	-0,070
312,808	122,422	-0,120	-0,103
313,822	540,485	-0,098	-0,162
314,837	233,190	-0,165	-0,187
315,852	-200,000	0,031	-0,164
316,866	-49,094	-0,114	0,037
317,881	-33,864	-0,138	-0,052
318,895	-77,660	-0,193	-0,046
319,910	133,556	-0,079	-0,070
320,925	80,757	-0,179	-0,133
321,939	-43,491	-0,162	-0,056
322,954	-200,000	-0,056	-0,196
323,968	-6,759	-0,135	0,063
324,983	-18,053	-0,174	-0,075
325,997	181,915	-0,146	-0,148
327,012	39,358	-0,008	-0,005
328,027	272,770	-0,066	-0,080
329,041	-15,316	-0,214	-0,094
330,056	-59,693	-0,231	-0,068
331,070	355,000	-0,113	-0,155
332,085	103,281	-0,129	-0,104
333,100	-168,368	-0,140	-0,004
334,114	-200,000	-0,023	-0,105
335,129	-20,642	-0,231	-0,097
336,143	116,986	-0,173	-0,146
337,158	225,015	-0,054	-0,060
338,173	-107,931	-0,165	-0,024
339,187	-200,000	-0,102	0,000
340,202	-25,206	-0,037	-0,015
341,216	314,314	-0,158	-0,204
342,231	-50,314	-0,154	-0,050
343,246	94,031	-0,159	-0,124
344,260	53,192	-0,100	-0,066
345,275	93,069	0,084	-0,065
346,289	-52,758	-0,133	0,042
347,304	-81,186	-0,092	-0,021
348,319	800,000	-0,084	-0,173
349,333	800,000	-0,057	-0,128
350,348	-68,965	-0,258	-0,068
351,362	146,536	-0,128	-0,118
352,377	-110,564	-0,153	0,021
353,392	308,622	-0,138	-0,177
354,406	222,636	-0,203	-0,225
355,421	209,846	1314,215	1415,748
356,435	161,522	1474,887	1416,246
