DTS Sentinel unit serial number:	SN410029Multiplexer serial number:	ORYXHardware model number:	OX2-SRSoftware version number:	ORYX F/W v4,00 Oryx Data Collector v3.7.2.0data status	okinstallation	B3 Nyhavnadifferential loss correction	single-endedforward channel	channel 1reverse channel	N/Adate	2023/11/30time	12:52:30forward acquisition time	300,00reverse acquisition time	0,00gamma	499,1914k internal	0,3213k external	0,3213temperature offset calibration	1,0000default loss term (dB/km)	0,3820temperature slope calibration	1,0000multiplexer offset coefficient	1,0000multiplexer slope coefficient	1,0000fibre end	0,00T internal ref (°C)	10,02T ext. ref 1 (°C)	-3,88T ext. ref 2 (°C)	-3,95length (m)	temperature (°C)	Stokes	anti-Stokes-744,400	152,845	-0,210	-0,208
-743,385	446,426	-0,159	0,255
-742,371	-200,000	-0,005	-0,111
-741,356	-200,000	0,020	0,246
-740,342	126,645	-0,142	-0,130
-739,327	-200,000	-0,050	0,165
-738,312	174,451	-0,260	-0,272
-737,298	-200,000	0,050	0,230
-736,283	800,000	-0,142	-0,322
-735,269	-200,000	-0,048	0,307
-734,254	427,154	-0,193	-0,302
-733,239	97,674	-0,299	0,248
-732,225	800,000	-0,100	-0,230
-731,210	159,235	0,111	0,112
-730,196	-45,066	-0,085	0,030
-729,181	124,769	-0,042	0,038
-728,167	-101,765	0,048	0,008
-727,152	-19,482	-0,077	0,034
-726,137	800,000	-0,022	0,063
-725,123	-153,597	-0,025	0,001
-724,108	60,502	-0,031	-0,022
-723,094	-87,949	-0,080	0,017
-722,079	-200,000	0,033	-0,182
-721,064	122,994	-0,058	0,052
-720,050	343,039	-0,026	-0,037
-719,035	-84,640	-0,046	-0,010
-718,021	800,000	-0,015	0,041
-717,006	69,657	-0,130	-0,097
-715,991	800,000	0,032	-0,088
-714,977	123,394	0,039	-0,035
-713,962	-200,000	0,008	0,083
-712,948	800,000	0,045	0,139
-711,933	329,773	0,060	-0,084
-710,918	80,023	-0,094	0,073
-709,904	119,638	-0,093	-0,083
-708,889	89,817	0,060	0,048
-707,875	-79,767	-0,132	-0,032
-706,860	-99,712	-0,126	-0,023
-705,845	229,943	0,053	0,063
-704,831	710,305	-0,049	0,094
-703,816	257,453	0,083	-0,103
-702,802	-1,866	-0,072	-0,036
-701,787	800,000	-0,035	-0,093
-700,772	-200,000	0,030	-0,118
-699,758	259,109	-0,094	-0,118
-698,743	-93,201	0,023	-0,005
-697,729	800,000	0,030	0,096
-696,714	791,230	0,038	0,077
-695,699	51,151	-0,041	-0,028
-694,685	14,797	-0,166	-0,093
-693,670	-200,000	-0,016	-0,149
-692,656	175,010	-0,060	-0,063
-691,641	135,767	-0,061	0,057
-690,627	272,771	-0,053	-0,068
-689,612	-200,000	-0,004	-0,099
-688,597	-136,674	0,061	-0,005
-687,583	-21,040	0,107	-0,047
-686,568	95,294	-0,030	0,025
-685,554	2,152	-0,011	-0,006
-684,539	74,992	-0,120	0,091
-683,524	477,937	0,082	-0,135
-682,510	800,000	-0,013	-0,038
-681,495	1,321	-0,073	0,038
-680,481	355,034	-0,048	-0,069
-679,466	-25,155	-0,018	-0,007
-678,451	422,617	0,045	-0,070
-677,437	55,080	-0,083	0,058
-676,422	407,548	0,024	0,037
-675,408	224,338	-0,077	-0,091
-674,393	-132,318	0,038	0,003
-673,378	167,466	-0,089	-0,092
-672,364	154,917	-0,076	-0,075
-671,349	120,861	-0,108	-0,097
-670,335	13,893	-0,108	0,061
-669,320	-7,082	0,081	0,040
-668,305	-200,000	0,006	0,019
-667,291	577,935	-0,046	0,081
-666,276	-78,816	0,066	-0,016
-665,262	11,011	0,109	-0,060
-664,247	10,763	0,105	0,058
-663,232	-200,000	0,020	0,086
-662,218	179,912	0,098	0,104
-661,203	-33,649	-0,063	-0,025
-660,189	56,160	0,096	0,067
-659,174	-72,983	-0,076	-0,020
-658,159	632,987	0,045	-0,082
-657,145	126,699	0,094	-0,086
-656,130	70,968	-0,071	-0,053
-655,116	3,859	0,106	0,056
-654,101	280,814	0,067	-0,087
-653,086	63,844	-0,038	-0,027
-652,072	-200,000	-0,017	0,073
-651,057	-200,000	0,008	-0,137
-650,043	-200,000	-0,028	-0,113
-649,028	-14,439	0,083	0,038
-648,014	-65,447	-0,069	0,020
-646,999	-200,000	-0,022	-0,095
-645,984	-70,445	-0,122	0,033
-644,970	-200,000	-0,025	0,120
-643,955	77,801	0,059	-0,046
-642,941	119,184	-0,067	-0,060
-641,926	-0,126	0,111	-0,057
-640,911	442,604	0,047	0,075
-639,897	800,000	0,052	-0,115
-638,882	156,373	0,042	-0,042
-637,868	-200,000	0,004	0,090
-636,853	-25,558	-0,138	-0,058
-635,838	-42,863	-0,036	0,013
-634,824	14,851	0,048	-0,027
-633,809	213,657	0,021	0,024
-632,795	8,026	0,107	0,058
-631,780	-6,404	-0,041	-0,020
-630,765	-38,526	0,038	-0,014
-629,751	-200,000	0,008	-0,165
-628,736	800,000	-0,024	-0,069
-627,722	-54,597	-0,140	0,045
-626,707	-7,035	0,036	0,018
-625,692	800,000	0,034	0,096
-624,678	60,624	0,041	0,029
-623,663	-200,000	-0,003	-0,066
-622,649	-87,349	-0,118	-0,026
-621,634	800,000	0,037	0,080
-620,619	-85,884	-0,080	0,018
-619,605	117,963	-0,056	0,050
-618,590	112,070	-0,018	0,016
-617,576	538,848	0,042	0,072
-616,561	-200,000	0,029	0,131
-615,546	-63,519	-0,059	-0,017
-614,532	32,606	0,031	-0,019
-613,517	252,353	0,071	-0,087
-612,503	-200,000	-0,011	0,100
-611,488	-29,790	0,105	0,043
-610,474	197,832	0,079	0,087
-609,459	-11,914	-0,077	0,036
-608,444	-174,149	0,028	-0,001
-607,430	-200,000	-0,023	-0,119
-606,415	-200,000	-0,012	0,128
-605,401	46,630	0,044	0,029
-604,386	800,000	-0,045	0,144
-603,371	800,000	-0,035	-0,088
-602,357	295,579	-0,046	0,060
-601,342	-200,000	0,002	-0,057
-600,328	91,686	-0,110	0,089
-599,313	800,000	0,061	-0,149
-598,298	4,018	-0,100	0,053
-597,284	-200,000	0,007	0,095
-596,269	-70,480	-0,153	0,041
-595,255	-200,000	0,021	-0,112
-594,240	-40,145	0,166	-0,062
-593,225	18,631	-0,078	0,045
-592,211	-182,438	-0,144	-0,002
-591,196	-1,069	-0,092	0,047
-590,182	-28,641	-0,045	0,019
-589,167	800,000	0,028	0,078
-588,152	5,750	0,023	0,012
-587,138	99,617	-0,141	-0,118
-586,123	121,047	-0,106	-0,095
-585,109	205,928	0,015	-0,017
-584,094	235,918	0,018	-0,021
-583,079	-200,000	-0,017	-0,075
-582,065	57,958	-0,015	0,010
-581,050	800,000	-0,032	-0,071
-580,036	77,242	-0,045	-0,034
-579,021	-117,150	-0,070	-0,009
-578,006	2,168	-0,178	-0,092
-576,992	28,809	0,067	-0,041
-575,977	-200,000	-0,013	-0,077
-574,963	-200,000	0,005	-0,148
-573,948	-60,282	-0,196	0,060
-572,934	411,243	0,116	0,177
-571,919	800,000	0,016	-0,039
-570,904	71,943	0,030	0,022
-569,890	-200,000	0,020	-0,089
-568,875	-200,000	-0,025	0,215
-567,861	-200,000	-0,020	0,071
-566,846	-200,000	-0,020	-0,080
-565,831	-23,036	-0,096	0,042
-564,817	1,963	-0,168	-0,087
-563,802	57,300	0,053	-0,037
-562,788	69,235	-0,117	0,086
-561,773	78,576	0,103	-0,079
-560,758	-28,137	0,049	0,020
-559,744	549,092	0,039	0,068
-558,729	137,803	-0,092	0,087
-557,715	173,483	0,087	0,090
-556,700	-200,000	-0,029	-0,126
-555,685	-200,000	0,020	0,078
-554,671	800,000	-0,002	-0,005
-553,656	120,612	0,036	-0,032
-552,642	73,107	0,143	0,107
-551,627	-200,000	0,008	0,043
-550,612	-17,241	0,140	0,063
-549,598	127,101	-0,117	-0,107
-548,583	65,855	-0,120	-0,087
-547,569	295,321	0,022	-0,029
-546,554	166,664	-0,075	0,076
-545,539	468,178	-0,033	-0,053
-544,525	-85,337	0,104	0,023
-543,510	-73,084	-0,090	0,024
-542,496	161,064	-0,036	-0,036
-541,481	287,177	0,123	-0,161
-540,466	-48,980	0,138	-0,047
-539,452	-42,072	0,110	-0,040
-538,437	-4,896	0,098	0,049
-537,423	-200,000	0,014	0,080
-536,408	-26,158	-0,111	0,047
-535,393	-137,739	0,122	0,010
-534,379	800,000	-0,024	-0,063
-533,364	-173,883	-0,097	0,002
-532,350	-130,742	-0,013	0,001
-531,335	-200,000	0,029	0,131
-530,321	254,502	0,052	0,064
-529,306	89,517	0,044	-0,035
-528,291	-200,000	0,007	-0,043
-527,277	-166,655	-0,079	-0,002
-526,262	800,000	0,033	0,080
-525,248	71,294	0,069	-0,051
-524,233	13,206	-0,127	-0,071
-523,218	-200,000	0,016	0,115
-522,204	133,193	0,098	-0,091
-521,189	800,000	-0,026	0,074
-520,175	308,156	-0,015	0,020
-519,160	-147,104	-0,122	-0,007
-518,145	-200,000	0,001	0,182
-517,131	476,687	0,081	0,132
-516,116	-131,962	-0,103	0,010
-515,102	800,000	0,005	0,015
-514,087	800,000	-0,013	-0,028
-513,072	-200,000	-0,012	0,058
-512,058	273,054	0,016	0,021
-511,043	-122,925	0,042	0,005
-510,029	244,915	0,083	-0,100
-509,014	676,248	0,060	0,113
-507,999	-46,989	0,086	0,030
-506,985	-109,259	-0,049	0,007
-505,970	-55,421	-0,138	0,044
-504,956	-87,371	-0,042	-0,009
-503,941	-200,000	-0,021	0,069
-502,926	800,000	0,027	0,069
-501,912	-200,000	0,004	0,102
-500,897	-31,383	0,039	0,016
-499,883	198,103	-0,081	0,089
-498,868	-200,000	-0,055	-0,205
-497,853	800,000	-0,018	0,036
-496,839	93,115	0,076	-0,061
-495,824	-40,830	0,093	0,034
-494,810	800,000	0,078	-0,207
-493,795	-34,722	-0,043	-0,017
-492,781	-191,225	0,064	-0,000
-491,766	57,346	0,117	-0,082
-490,751	-200,000	0,002	-0,141
-489,737	13,480	0,084	-0,047
-488,722	399,071	0,087	-0,131
-487,708	800,000	0,020	0,050
-486,693	52,591	0,111	-0,076
-485,678	253,608	-0,079	-0,097
-484,664	-102,957	-0,076	-0,013
-483,649	150,719	0,036	-0,035
-482,635	268,621	0,035	-0,044
-481,620	800,000	0,060	-0,136
-480,605	395,849	0,065	0,098
-479,591	-200,000	-0,007	0,040
-478,576	-21,951	-0,058	-0,025
-477,562	14,936	-0,010	-0,005
-476,547	-92,600	0,159	-0,032
-475,532	354,616	0,049	0,069
-474,518	254,125	0,020	-0,024
-473,503	-136,985	0,054	0,004
-472,489	800,000	0,039	0,087
-471,474	326,014	-0,025	0,034
-470,459	178,771	0,067	0,070
-469,445	800,000	0,017	-0,041
-468,430	-51,078	-0,050	-0,017
-467,416	-135,771	-0,058	0,005
-466,401	-142,426	0,080	-0,006
-465,386	96,486	-0,094	0,077
-464,372	-186,565	0,123	-0,001
-463,357	410,846	-0,075	0,115
-462,343	-200,000	-0,000	-0,056
-461,328	223,707	0,119	0,138
-460,313	-29,101	0,087	-0,036
-459,299	-130,074	-0,125	0,012
-458,284	254,974	0,103	-0,127
-457,270	-200,000	-0,008	-0,043
-456,255	-22,765	-0,221	-0,095
-455,241	108,137	0,036	-0,030
-454,226	472,840	-0,053	0,086
-453,211	800,000	0,042	0,100
-452,197	-57,939	-0,063	0,020
-451,182	-47,063	0,001	0,000
-450,168	398,373	0,039	-0,058
-449,153	800,000	-0,022	0,055
-448,138	26,896	-0,155	0,093
-447,124	-200,000	-0,004	-0,109
-446,109	-41,083	-0,027	-0,010
-445,095	-98,996	0,100	0,018
-444,080	123,332	0,085	-0,076
-443,065	123,650	-0,024	-0,021
-442,051	232,956	0,050	-0,059
-441,036	-200,000	0,001	-0,003
-440,022	-200,000	-0,023	-0,079
-439,007	20,473	-0,041	0,023
-437,992	85,862	-0,010	0,008
-436,978	-126,603	0,050	-0,005
-435,963	-200,000	-0,002	-0,008
-434,949	800,000	0,014	-0,035
-433,934	-48,971	-0,063	-0,021
-432,919	-200,000	0,000	-0,042
-431,905	-200,000	-0,033	-0,112
-430,890	430,819	0,021	-0,033
-429,876	-61,027	0,186	0,056
-428,861	-200,000	0,033	0,127
-427,846	-115,060	0,090	0,012
-426,832	-92,553	-0,074	-0,015
-425,817	123,473	-0,023	-0,021
-424,803	16,323	-0,136	0,077
-423,788	49,232	0,109	0,074
-422,773	123,489	0,085	0,076
-421,759	-118,834	0,054	-0,007
-420,744	-200,000	0,000	0,009
-419,730	-103,195	-0,069	-0,012
-418,715	95,291	0,034	-0,028
-417,701	-146,901	-0,057	-0,003
-416,686	-200,000	-0,007	0,077
-415,671	800,000	-0,008	0,024
-414,657	-64,027	-0,075	0,022
-413,642	-6,383	0,090	0,044
-412,628	-200,000	0,023	-0,128
-411,613	-87,806	-0,156	-0,033
-410,598	265,296	-0,054	-0,067
-409,584	5,413	0,097	-0,051
-408,569	-138,211	-0,049	0,004
-407,555	12,229	-0,090	0,050
-406,540	-200,000	-0,025	0,085
-405,525	800,000	-0,026	-0,055
-404,511	-161,249	-0,104	0,004
-403,496	79,507	0,015	0,012
-402,482	375,073	0,061	-0,089
-401,467	-200,000	0,004	-0,109
-400,452	800,000	-0,034	0,095
-399,438	125,344	0,008	-0,007
-398,423	-200,000	0,005	0,064
-397,409	457,911	-0,046	0,073
-396,394	-200,000	0,017	-0,068
-395,379	800,000	0,010	-0,028
-394,365	-145,421	0,122	-0,008
-393,350	-80,774	-0,055	-0,013
-392,336	-116,394	-0,079	0,010
-391,321	359,973	-0,063	-0,091
-390,306	79,934	-0,062	-0,048
-389,292	46,194	-0,054	0,036
-388,277	14,746	0,006	-0,004
-387,263	-200,000	0,028	-0,116
-386,248	-31,104	-0,051	0,020
-385,233	-7,201	0,025	-0,012
-384,219	30,801	-0,062	-0,038
-383,204	-200,000	-0,039	-0,158
-382,190	228,920	-0,116	-0,136
-381,175	-27,613	0,071	0,029
-380,160	82,618	-0,074	0,057
-379,146	170,524	0,078	0,080
-378,131	800,000	0,024	-0,063
-377,117	-174,488	-0,209	0,004
-376,102	-200,000	-0,004	-0,043
-375,088	-200,000	0,004	-0,090
-374,073	800,000	0,045	-0,109
-373,058	5,618	0,138	0,073
-372,044	339,824	-0,054	0,075
-371,029	-200,000	0,026	0,257
-370,015	299,176	-0,023	0,030
-369,000	461,127	-0,066	0,105
-367,985	-200,000	0,010	-0,165
-366,971	105,291	0,022	0,018
-365,956	-129,576	0,132	-0,013
-364,942	-200,000	0,023	-0,076
-363,927	-200,000	-0,018	0,129
-362,912	800,000	-0,099	0,198
-361,898	800,000	0,058	-0,127
-360,883	339,788	-0,062	-0,086
-359,869	169,239	-0,055	0,056
-358,854	443,913	0,106	0,166
-357,839	-200,000	0,020	0,095
-356,825	-55,985	0,114	-0,036
-355,810	-200,000	-0,021	-0,092
-354,796	79,355	0,112	-0,085
-353,781	-200,000	-0,017	-0,090
-352,766	52,605	-0,097	0,066
-351,752	-116,911	0,114	0,015
-350,737	173,166	0,121	0,125
-349,723	94,299	0,157	0,127
-348,708	-12,900	0,101	0,047
-347,693	172,306	-0,084	0,086
-346,679	-27,160	-0,145	0,060
-345,664	-171,912	0,138	0,003
-344,650	187,872	0,092	-0,098
-343,635	800,000	0,025	0,071
-342,620	180,290	-0,101	0,106
-341,606	-76,039	-0,038	-0,009
-340,591	290,319	0,065	-0,084
-339,577	100,911	0,092	-0,077
-338,562	-74,948	-0,040	0,010
-337,548	-200,000	-0,000	-0,154
-336,533	-33,227	-0,049	-0,019
-335,518	-42,124	0,209	0,076
-334,504	-82,891	0,152	0,035
-333,489	650,465	0,023	-0,042
-332,475	800,000	-0,036	-0,075
-331,460	51,710	0,057	0,038
-330,445	-12,039	-0,092	-0,043
-329,431	-28,710	0,066	0,027
-328,416	-200,000	-0,008	-0,026
-327,402	541,657	0,074	0,127
-326,387	-200,000	0,000	-0,059
-325,372	462,422	0,038	0,060
-324,358	-95,284	-0,051	-0,010
-323,343	119,692	-0,046	0,041
-322,329	123,848	0,143	0,128
-321,314	389,664	0,060	-0,089
-320,299	65,270	-0,043	-0,031
-319,285	-166,295	-0,073	-0,002
-318,270	-71,092	-0,129	-0,034
-317,256	-200,000	0,029	-0,137
-316,241	136,639	-0,073	-0,068
-315,226	-200,000	0,048	0,178
-314,212	740,727	0,038	0,074
-313,197	-200,000	-0,011	0,115
-312,183	120,765	-0,090	0,079
-311,168	-79,553	-0,104	-0,025
-310,153	800,000	-0,023	0,046
-309,139	223,526	-0,063	-0,073
-308,124	2,771	-0,004	-0,002
-307,110	800,000	-0,026	0,070
-306,095	24,420	-0,102	0,060
-305,080	76,667	-0,046	-0,035
-304,066	12,001	-0,053	0,029
-303,051	-200,000	0,005	0,076
-302,037	-129,502	0,070	0,007
-301,022	40,907	0,033	-0,021
-300,008	630,262	-0,034	0,062
-298,993	-142,697	0,159	0,011
-297,978	-200,000	0,010	0,038
-296,964	-200,000	0,004	0,059
-295,949	125,856	-0,016	0,014
-294,935	86,310	-0,169	-0,132
-293,920	-136,692	0,022	-0,002
-292,905	800,000	-0,029	0,079
-291,891	-95,568	0,129	-0,024
-290,876	-160,902	-0,015	0,001
-289,862	325,616	-0,073	-0,100
-288,847	-200,000	0,017	-0,142
-287,832	-200,000	-0,007	-0,073
-286,818	36,357	0,044	0,028
-285,803	-82,811	0,037	-0,008
-284,789	235,547	0,051	0,060
-283,774	129,213	-0,029	0,027
-282,759	44,843	0,018	0,012
-281,745	-200,000	0,009	0,105
-280,730	-55,252	-0,199	0,063
-279,716	800,000	-0,057	0,131
-278,701	800,000	-0,021	0,053
-277,686	301,257	-0,036	-0,047
-276,672	800,000	0,029	-0,078
-275,657	-200,000	-0,006	0,019
-274,643	13,164	0,030	0,016
-273,628	251,125	-0,046	-0,055
-272,613	103,863	-0,076	0,064
-271,599	-200,000	0,006	0,073
-270,584	340,618	0,028	0,040
-269,570	800,000	-0,020	0,042
-268,555	-84,434	-0,055	0,012
-267,540	-3,592	-0,037	-0,018
-266,526	800,000	-0,035	-0,091
-265,511	57,976	-0,048	-0,033
-264,497	-200,000	0,015	-0,070
-263,482	167,363	0,134	-0,136
-262,467	230,624	-0,055	0,064
-261,453	-140,105	0,010	0,001
-260,438	800,000	-0,031	-0,091
-259,424	-186,472	0,035	-0,000
-258,409	-200,000	-0,046	-0,151
-257,395	77,745	-0,123	0,093
-256,380	602,293	0,050	0,089
-255,365	800,000	0,015	0,030
-254,351	-157,839	-0,041	-0,002
-253,336	469,004	-0,028	0,044
-252,322	274,065	0,054	0,068
-251,307	800,000	0,066	-0,131
-250,292	38,676	-0,096	0,061
-249,278	268,643	-0,073	-0,091
-248,263	-65,185	-0,067	0,019
-247,249	228,367	-0,081	-0,094
-246,234	-124,202	0,054	-0,006
-245,219	267,086	-0,099	-0,123
-244,205	-110,549	-0,111	0,016
-243,190	258,132	0,026	-0,031
-242,176	-72,152	0,160	0,042
-241,161	413,340	-0,041	0,062
-240,146	774,029	0,064	-0,124
-239,132	-110,907	-0,055	-0,008
-238,117	-55,899	-0,049	-0,015
-237,103	47,111	0,053	0,035
-236,088	-77,986	0,101	0,025
-235,073	527,452	0,035	-0,058
-234,059	-156,386	0,049	-0,002
-233,044	-75,258	0,103	0,026
-232,030	92,751	-0,092	-0,074
-231,015	80,208	0,025	0,019
-230,000	-87,951	-0,086	0,018
-228,986	800,000	0,026	0,059
-227,971	211,194	-0,023	-0,025
-226,957	-200,000	0,015	0,093
-225,942	-200,000	0,024	0,126
-224,927	-184,051	0,044	0,001
-223,913	-200,000	0,008	-0,141
-222,898	-200,000	0,065	-0,283
-221,884	30,314	-0,112	-0,068
-220,869	-200,000	0,010	-0,054
-219,855	222,894	0,071	0,082
-218,840	-200,000	0,005	0,047
-217,825	141,653	0,094	0,089
-216,811	-200,000	-0,037	-0,163
-215,796	-92,151	-0,039	0,008
-214,782	174,569	-0,087	0,090
-213,767	-200,000	0,018	0,113
-212,752	-200,000	0,021	0,110
-211,738	800,000	0,068	-0,136
-210,723	546,295	-0,085	-0,145
-209,709	126,531	-0,045	0,040
-208,694	432,856	0,062	-0,096
-207,679	49,273	-0,101	-0,067
-206,665	428,776	-0,107	0,165
-205,650	-77,888	0,130	-0,032
-204,636	690,716	-0,005	-0,010
-203,621	21,725	0,077	0,044
-202,606	800,000	0,048	-0,110
-201,592	-200,000	-0,034	-0,169
-200,577	-37,839	-0,090	-0,034
-199,563	292,460	0,035	0,045
-198,548	-200,000	-0,026	0,090
-197,533	800,000	-0,024	0,051
-196,519	800,000	-0,022	-0,070
-195,504	371,445	-0,062	-0,089
-194,490	-200,000	-0,008	0,054
-193,475	-103,631	-0,140	-0,023
-192,460	756,016	-0,061	0,118
-191,446	-28,932	0,100	-0,041
-190,431	464,214	0,049	0,078
-189,417	-200,000	0,011	0,063
-188,402	-131,991	0,009	-0,001
-187,387	659,172	-0,063	0,115
-186,373	182,999	0,101	-0,106
-185,358	-78,714	0,054	-0,013
-184,344	-43,476	0,110	0,039
-183,329	-178,451	0,153	-0,002
-182,315	-200,000	0,012	0,102
-181,300	-56,690	-0,070	-0,022
-180,285	587,071	0,049	-0,086
-179,271	-170,427	0,054	0,001
-178,256	-129,601	-0,093	-0,009
-177,242	-53,302	0,107	0,035
-176,227	-160,624	0,094	-0,003
-175,212	-10,879	-0,059	0,028
-174,198	800,000	-0,057	0,135
-173,183	218,014	0,059	-0,067
-172,169	800,000	-0,027	-0,075
-171,154	186,645	-0,069	-0,072
-170,139	-44,939	0,043	-0,015
-169,125	130,233	-0,023	0,021
-168,110	118,922	0,001	-0,001
-167,096	-200,000	0,030	0,098
-166,081	-200,000	0,019	-0,141
-165,066	581,373	-0,066	-0,115
-164,052	296,286	-0,040	-0,052
-163,037	800,000	0,029	-0,070
-162,023	-200,000	0,019	0,085
-161,008	-149,204	-0,062	0,003
-159,993	584,414	0,085	0,148
-158,979	-118,700	0,136	0,017
-157,964	421,087	-0,033	-0,050
-156,950	-200,000	0,003	-0,245
-155,935	-200,000	0,009	-0,093
-154,920	224,002	-0,046	0,053
-153,906	105,907	0,155	0,130
-152,891	-41,579	0,108	0,039
-151,877	-200,000	-0,035	-0,121
-150,862	132,542	-0,057	0,052
-149,847	461,543	0,084	-0,133
-148,833	-106,637	0,151	-0,024
-147,818	-37,945	-0,061	-0,023
-146,804	27,119	-0,021	-0,012
-145,789	-200,000	0,022	0,157
-144,775	800,000	-0,011	0,028
-143,760	-33,682	-0,125	-0,048
-142,745	800,000	-0,053	-0,105
-141,731	-158,471	0,104	0,004
-140,716	536,570	0,050	0,084
-139,702	800,000	0,062	-0,152
-138,687	-70,487	0,014	-0,004
-137,672	-131,054	-0,055	-0,005
-136,658	-200,000	0,001	-0,033
-135,643	496,372	0,025	-0,040
-134,629	-200,000	0,002	-0,053
-133,614	-67,508	0,099	-0,027
-132,599	413,501	-0,045	0,068
-131,585	78,358	-0,037	0,028
-130,570	-55,371	0,145	-0,046
-129,556	-119,005	-0,073	0,009
-128,541	6,504	-0,104	0,054
-127,526	-200,000	0,002	-0,052
-126,512	-200,000	-0,000	-0,029
-125,497	-84,860	-0,150	0,033
-124,483	-14,116	-0,052	-0,023
-123,468	-92,140	-0,019	0,004
-122,453	68,344	-0,083	-0,060
-121,439	59,036	0,119	-0,082
-120,424	-200,000	0,013	-0,067
-119,410	-200,000	-0,028	0,129
-118,395	-149,397	0,082	-0,005
-117,380	-159,533	-0,075	0,003
-116,366	-23,243	0,106	0,045
-115,351	0,309	-0,091	-0,046
-114,337	144,409	-0,088	-0,083
-113,322	46,282	-0,131	0,085
-112,307	-164,911	0,107	-0,003
-111,293	272,818	0,065	0,082
-110,278	800,000	0,069	0,147
-109,264	800,000	-0,032	-0,075
-108,249	-31,527	0,022	-0,009
-107,234	486,021	-0,024	-0,039
-106,220	-117,028	-0,111	-0,014
-105,205	-57,785	-0,009	-0,003
-104,191	-200,000	0,008	0,053
-103,176	-200,000	0,010	0,070
-102,162	-23,861	-0,059	0,025
-101,147	227,196	0,058	-0,067
-100,132	246,483	-0,040	0,047
-99,118	24,381	-0,071	-0,041
-98,103	-200,000	-0,005	-0,110
-97,089	2,488	-0,076	-0,039
-96,074	-200,000	0,002	0,012
-95,059	-109,396	0,149	-0,022
-94,045	682,624	-0,034	0,063
-93,030	230,494	0,076	-0,088
-92,016	4,549	-0,102	-0,053
-91,001	373,395	0,120	-0,173
-89,986	800,000	0,044	-0,136
-88,972	291,654	-0,063	0,081
-87,957	455,951	-0,105	0,166
-86,943	292,847	-0,044	0,056
-85,928	583,892	-0,069	-0,121
-84,913	174,291	-0,079	-0,080
-83,899	-200,000	-0,016	0,109
-82,884	-30,670	0,075	0,030
-81,870	653,566	0,065	-0,118
-80,855	128,114	-0,045	-0,040
-79,840	-81,181	0,039	-0,009
-78,826	263,627	0,064	-0,079
-77,811	284,271	0,045	-0,058
-76,797	800,000	-0,061	-0,175
-75,782	-200,000	-0,005	-0,092
-74,767	14,406	-0,020	0,011
-73,753	-200,000	0,006	0,078
-72,738	318,398	0,034	-0,046
-71,724	-200,000	-0,021	-0,080
-70,709	800,000	-0,087	-0,197
-69,694	43,298	-0,103	0,066
-68,680	297,722	0,082	0,107
-67,665	-200,000	-0,000	0,038
-66,651	-74,872	0,094	0,024
-65,636	-119,303	-0,056	0,007
-64,622	788,112	0,045	0,088
-63,607	-92,273	-0,107	-0,021
-62,592	-200,000	0,030	-0,145
-61,578	800,000	-0,029	0,084
-60,563	415,467	0,011	0,017
-59,549	642,465	0,035	0,063
-58,534	34,873	-1,961	-1,208
-57,519	506,565	-1,200	-1,970
-56,505	-200,000	-0,393	-4,411
-55,490	545,962	0,870	1,472
-54,476	800,000	5,170	11,282
-53,461	-200,000	21,335	342,708
-52,446	800,000	760,831	2363,631
-51,432	560,582	1663,899	2846,964
-50,417	73,686	1662,460	1227,304
-49,403	17,967	1535,841	860,781
-48,388	11,850	1459,315	788,306
-47,373	19,531	1450,439	820,336
-46,359	15,427	1439,482	794,598
-45,344	10,134	1435,482	767,155
-44,330	10,067	1433,461	765,726
-43,315	10,050	1431,766	764,712
-42,300	10,049	1429,875	763,664
-41,286	10,095	1428,839	763,299
-40,271	9,998	1427,604	762,148
-39,257	10,061	1426,485	761,822
-38,242	10,129	1425,332	761,498
-37,227	10,071	1424,099	760,533
-36,213	10,068	1422,913	759,855
-35,198	10,090	1421,839	759,354
-34,184	10,130	1420,995	759,065
-33,169	10,095	1419,302	757,964
-32,154	10,064	1418,549	757,386
-31,140	10,122	1416,977	756,791
-30,125	10,176	1415,799	756,384
-29,111	10,134	1414,840	755,646
-28,096	10,103	1413,761	754,894
-27,082	10,038	1412,382	753,824
-26,067	10,051	1411,465	753,363
-25,052	10,087	1410,398	752,933
-24,038	10,065	1409,283	752,205
-23,023	10,006	1408,663	751,566
-22,009	10,071	1407,327	751,129
-20,994	10,053	1406,308	750,472
-19,979	10,068	1405,559	750,114
-18,965	10,025	1404,706	749,427
-17,950	10,041	1403,561	748,859
-16,936	9,997	1402,932	748,290
-15,921	9,964	1401,887	747,551
-14,906	9,949	1400,956	746,952
-13,892	9,994	1399,925	746,584
-12,877	9,961	1399,305	746,070
-11,863	9,974	1398,317	745,574
-10,848	9,947	1397,357	744,908
-9,833	9,925	1396,502	744,319
-8,819	9,889	1395,863	743,783
-7,804	9,900	1394,739	743,205
-6,790	9,876	1393,863	742,600
-5,775	9,867	1392,619	741,865
-4,760	9,910	1391,597	741,487
-3,746	9,874	1390,781	740,858
-2,731	9,862	1390,080	740,400
-1,717	9,852	1389,064	739,785
-0,702	9,820	1387,435	738,740
0,313	13,991	1300,219	711,346
1,327	30,470	690,962	415,392
2,342	47,559	119,740	78,569
3,356	-0,544	16,619	8,285
4,371	-1,378	3,697	1,832
5,386	7,989	1,062	0,560
6,400	800,000	0,199	0,505
7,415	92,460	-0,139	-0,110
8,429	48,757	-0,310	-0,204
9,444	-12,564	-0,362	-0,166
10,459	-87,028	-0,336	-0,072
11,473	200,680	-0,269	-0,292
12,488	78,026	-0,262	-0,196
13,502	0,572	-0,301	-0,151
14,517	-71,502	-0,245	-0,064
15,531	155,989	-0,347	-0,337
16,546	-9,688	-0,309	-0,144
17,561	99,130	-0,296	-0,241
18,575	144,326	-0,242	-0,228
19,590	331,757	-0,164	-0,223
20,604	-65,697	-0,286	-0,080
21,619	42,235	-0,564	-0,360
22,634	24,073	-0,527	-0,305
23,648	119,177	-0,453	-0,394
24,663	9,588	-0,397	-0,211
25,677	26,965	-0,414	-0,244
26,692	34,949	-0,451	-0,277
27,707	59,130	-0,397	-0,274
28,721	62,582	-0,373	-0,262
29,736	-28,766	-0,494	-0,199
30,750	229,409	-0,336	-0,387
31,765	176,508	-0,383	-0,392
32,780	139,822	-0,358	-0,332
33,794	73,906	-0,344	-0,253
34,809	-143,896	-0,427	-0,028
35,823	267,650	-0,339	-0,418
36,838	165,355	-0,407	-0,404
37,853	197,587	-0,330	-0,355
38,867	59,398	-0,472	-0,326
39,882	104,760	-0,421	-0,348
40,896	208,208	-0,298	-0,327
41,911	136,110	-0,276	-0,253
42,926	114,711	-0,355	-0,304
43,940	764,099	-0,145	-0,278
44,955	46,853	-0,408	-0,266
45,969	52,577	-0,295	-0,198
46,984	42,552	-0,267	-0,170
47,999	275,700	-0,257	-0,320
49,013	-59,390	-0,428	-0,128
50,028	-15,211	-0,350	-0,157
51,042	226,599	-0,273	-0,312
52,057	52,272	-0,318	-0,213
53,071	153,756	-0,354	-0,340
54,086	800,000	-0,133	-0,276
55,101	-39,105	-0,300	-0,110
56,115	301,309	-0,223	-0,290
57,130	117,492	-0,325	-0,281
58,144	161,438	-0,264	-0,259
59,159	-68,684	-0,289	-0,078
60,174	-28,422	-0,202	-0,081
61,188	241,415	-0,226	-0,265
62,203	-13,966	-0,232	-0,105
63,217	-2,086	-0,404	-0,198
64,232	49,016	-0,208	-0,137
65,247	115,313	-0,283	-0,242
66,261	284,394	-0,281	-0,356
67,276	-4,141	-0,473	-0,229
68,290	68,001	-0,276	-0,197
69,305	138,530	-0,316	-0,290
70,320	77,510	-0,353	-0,263
71,334	89,950	-0,288	-0,225
72,349	36,192	-0,349	-0,215
73,363	196,820	-0,279	-0,299
74,378	343,728	-0,271	-0,373
75,393	151,809	-0,285	-0,272
76,407	226,088	-0,233	-0,265
77,422	-39,876	-0,253	-0,092
78,436	-39,823	-0,342	-0,124
79,451	142,096	-0,330	-0,306
80,466	-11,493	-0,202	-0,093
81,480	-67,173	-0,328	-0,090
82,495	52,225	-0,260	-0,173
83,509	-3,267	-0,292	-0,142
84,524	121,275	-0,225	-0,196
85,539	4,087	-0,342	-0,174
86,553	-86,587	-0,350	-0,074
87,568	35,666	-0,373	-0,229
88,582	-70,284	-0,409	-0,108
89,597	24,646	-0,375	-0,216
90,611	158,483	-0,219	-0,212
91,626	-42,329	-0,297	-0,106
92,641	39,264	-0,228	-0,142
93,655	192,809	-0,188	-0,199
94,670	221,539	-0,233	-0,262
95,684	189,759	-0,266	-0,279
96,699	63,716	-0,258	-0,181
97,714	-25,915	-0,265	-0,109
98,728	40,847	-0,275	-0,173
99,743	59,526	-0,246	-0,169
100,757	512,927	-0,175	-0,286
101,772	58,129	-0,227	-0,155
102,787	138,311	-0,290	-0,266
103,801	-62,070	-0,352	-0,102
104,816	77,641	-0,311	-0,231
105,830	-112,019	-0,195	-0,027
106,845	-79,173	-0,212	-0,050
107,860	-156,458	-0,175	-0,007
108,874	-60,103	-0,380	-0,112
109,889	186,304	-0,231	-0,240
110,903	-162,202	-0,252	-0,009
111,918	123,788	-0,286	-0,251
112,933	232,689	-0,181	-0,208
113,947	55,643	-0,263	-0,177
114,962	-10,174	-0,220	-0,102
115,976	45,305	-0,272	-0,175
116,991	46,002	-0,310	-0,200
118,006	96,759	-0,173	-0,138
119,020	215,278	-0,182	-0,202
120,035	58,410	-0,299	-0,205
121,049	26,047	-0,177	-0,103
122,064	18,531	-0,247	-0,137
123,079	-1,683	-0,312	-0,153
124,093	387,348	-0,187	-0,270
125,108	60,134	-0,250	-0,172
126,122	572,214	-0,152	-0,260
127,137	242,426	-0,236	-0,276
128,151	123,758	-0,186	-0,162
129,166	-24,536	-0,238	-0,098
130,181	83,361	-0,235	-0,178
131,195	195,353	-0,251	-0,266
132,210	53,259	-0,276	-0,184
133,224	182,093	-0,185	-0,190
134,239	368,469	-0,166	-0,235
135,254	106,381	-0,173	-0,143
136,268	49,484	-0,292	-0,191
137,283	-2,429	-0,190	-0,092
138,297	137,807	-0,206	-0,188
139,312	-41,172	-0,294	-0,105
140,327	59,677	-0,419	-0,288
141,341	316,115	-0,226	-0,297
142,356	298,832	-0,121	-0,156
143,370	68,752	-0,226	-0,162
144,385	231,423	-0,164	-0,187
145,400	166,376	-0,276	-0,273
146,414	-20,362	-0,187	-0,080
147,429	131,247	-0,158	-0,141
148,443	111,126	-0,183	-0,153
149,458	-64,364	-0,248	-0,070
150,473	-14,969	-0,245	-0,109
151,487	-2,296	-0,246	-0,120
152,502	28,588	-0,309	-0,181
153,516	67,645	-0,319	-0,227
154,531	125,947	-0,299	-0,262
155,546	150,000	-0,118	-0,112
156,560	178,280	-0,173	-0,176
157,575	150,981	-0,181	-0,172
158,589	190,804	-0,186	-0,195
159,604	35,236	-0,301	-0,183
160,619	-49,002	-0,185	-0,061
161,633	58,852	-0,278	-0,189
162,648	212,506	-0,231	-0,254
163,662	61,664	-0,214	-0,148
164,677	115,985	-0,156	-0,133
165,692	224,479	-0,201	-0,227
166,706	83,913	-0,243	-0,184
167,721	55,176	-0,306	-0,205
168,735	-29,876	-0,259	-0,102
169,750	36,312	-0,305	-0,187
170,764	-200,000	0,001	-0,190
171,779	158,563	-0,181	-0,175
172,794	197,700	-0,206	-0,219
173,808	270,468	-0,120	-0,147
174,823	-7,618	-0,257	-0,120
175,837	208,268	-0,219	-0,238
176,852	185,280	-0,188	-0,193
177,867	800,000	-0,046	-0,118
178,881	-43,106	-0,226	-0,079
179,896	151,017	-0,168	-0,159
180,910	24,581	-0,142	-0,081
181,925	-51,830	-0,201	-0,064
182,940	-4,341	-0,204	-0,098
183,954	108,668	-0,253	-0,209
184,969	106,160	-0,187	-0,154
185,983	19,144	-0,217	-0,121
186,998	800,000	-0,067	-0,134
188,013	-45,703	-0,332	-0,113
189,027	161,017	-0,301	-0,292
190,042	55,671	-0,173	-0,116
191,056	257,074	-0,171	-0,204
192,071	785,482	-0,123	-0,234
193,086	62,564	-0,186	-0,128
194,100	11,337	-0,211	-0,112
195,115	65,420	-0,225	-0,157
196,129	800,000	-0,103	-0,201
197,144	454,279	-0,119	-0,183
198,159	88,057	-0,169	-0,130
199,173	-150,818	-0,316	-0,016
200,188	-101,478	-0,209	-0,035
201,202	461,387	-0,138	-0,213
202,217	-34,709	-0,179	-0,068
203,232	-47,485	-0,333	-0,112
204,246	80,252	-0,174	-0,130
205,261	89,902	-0,245	-0,190
206,275	138,324	-0,167	-0,152
207,290	800,000	-0,061	-0,174
208,304	519,550	-0,129	-0,209
209,319	545,404	-0,113	-0,188
210,334	800,000	-0,056	-0,122
211,348	800,000	-0,172	-0,365
212,363	277,077	-0,154	-0,190
213,377	-113,213	-0,214	-0,029
214,392	88,706	-0,227	-0,175
215,407	10,428	-0,095	-0,050
216,421	-200,000	-0,178	-0,001
217,436	-38,159	-0,197	-0,072
218,450	297,302	-0,236	-0,300
219,465	-1,684	-0,135	-0,065
220,480	433,133	-0,170	-0,256
221,494	-63,020	-0,160	-0,045
222,509	-80,172	-0,159	-0,036
223,523	91,036	-0,175	-0,136
224,538	34,046	-0,172	-0,103
225,553	209,700	-0,205	-0,222
226,567	125,676	-0,304	-0,265
227,582	309,220	-0,174	-0,225
228,596	104,595	-0,238	-0,194
229,611	46,185	-0,137	-0,087
230,626	359,697	-0,118	-0,163
231,640	110,951	-0,159	-0,132
232,655	157,111	-0,154	-0,148
233,669	29,750	-0,229	-0,134
234,684	152,329	-0,228	-0,215
235,699	134,822	-0,168	-0,150
236,713	93,395	-0,234	-0,182
237,728	205,091	-0,115	-0,124
238,742	520,138	-0,148	-0,240
239,757	74,871	-0,178	-0,129
240,772	62,983	-0,271	-0,187
241,786	441,306	-0,115	-0,175
242,801	312,712	-0,152	-0,198
243,815	174,197	-0,180	-0,180
244,830	-54,842	-0,133	-0,041
245,844	385,609	-0,157	-0,225
246,859	127,366	-0,214	-0,188
247,874	58,974	-0,295	-0,200
248,888	89,124	-0,153	-0,117
249,903	18,029	-0,140	-0,077
250,917	114,254	-0,153	-0,129
251,932	134,049	-0,103	-0,092
252,947	-90,587	-0,147	-0,029
253,961	-106,190	-0,248	-0,038
254,976	-84,774	-0,224	-0,048
255,990	-93,019	-0,253	-0,048
257,005	11,466	-0,232	-0,122
258,020	71,399	-0,208	-0,149
259,034	572,653	-0,070	-0,118
260,049	3,440	-0,212	-0,106
261,063	134,767	-0,219	-0,196
262,078	236,216	-0,097	-0,111
263,093	-40,717	-0,178	-0,063
264,107	109,481	-0,204	-0,168
265,122	800,000	-0,038	-0,084
266,136	-5,752	-0,207	-0,098
267,151	800,000	-0,014	-0,031
268,166	78,533	-0,266	-0,195
269,180	168,330	-0,195	-0,191
270,195	-22,313	-0,173	-0,072
271,209	62,583	-0,120	-0,082
272,224	-23,027	-0,080	-0,033
273,239	-200,000	-0,207	0,000
274,253	-138,421	-0,167	-0,012
275,268	78,950	-0,145	-0,107
276,282	173,683	-0,276	-0,274
277,297	112,503	-0,135	-0,113
278,312	277,540	-0,204	-0,250
279,326	581,443	-0,048	-0,081
280,341	0,875	-0,116	0,057
281,355	-82,643	-0,177	-0,039
282,370	108,063	-0,072	-0,059
283,384	-3,680	-0,192	-0,091
284,399	-8,866	-0,224	-0,103
285,414	268,580	-0,149	-0,180
286,428	355,664	-0,084	-0,116
287,443	-73,503	-0,063	-0,016
288,457	-200,000	-0,058	-0,224
289,472	168,210	-0,102	-0,099
290,487	220,389	-0,203	-0,224
291,501	77,047	-0,178	-0,130
292,516	-88,092	-0,215	-0,044
293,530	-76,096	-0,158	0,038
294,545	197,644	-0,114	-0,120
295,560	-196,643	-0,166	-0,001
296,574	22,752	-0,173	-0,097
297,589	167,926	-0,094	-0,092
298,603	800,000	-0,056	-0,163
299,618	-29,281	-0,149	-0,058
300,633	417,295	-0,097	-0,142
301,647	59,279	-0,113	-0,077
302,662	-92,795	-0,127	-0,024
303,676	-200,000	0,013	-0,204
304,691	45,437	-0,216	-0,136
305,706	40,718	-0,226	-0,139
306,720	55,207	-0,198	-0,131
307,735	-140,526	-0,193	-0,014
308,749	160,048	-0,138	-0,132
309,764	217,050	-0,112	-0,123
310,779	64,147	-0,126	0,087
311,793	-200,000	-0,047	-0,188
312,808	229,911	-0,149	-0,167
313,822	111,817	-0,125	-0,104
314,837	80,558	-0,172	-0,127
315,852	-39,046	-0,104	-0,037
316,866	333,181	-0,101	-0,134
317,881	-200,000	0,001	-0,147
318,895	95,799	-0,207	-0,162
319,910	-197,089	-0,198	-0,001
320,925	389,178	-0,134	-0,191
321,939	-118,496	-0,108	-0,013
322,954	-84,187	-0,112	-0,024
323,968	41,761	-0,141	-0,088
324,983	592,181	-0,137	-0,233
325,997	-119,291	-0,178	-0,021
327,012	800,000	-0,121	-0,265
328,027	454,225	-0,181	-0,275
329,041	224,464	-0,160	-0,177
330,056	-83,393	-0,082	-0,018
331,070	-38,960	-0,165	-0,059
332,085	18,798	-0,115	-0,063
333,100	800,000	-0,059	-0,129
334,114	-187,778	-0,134	-0,001
335,129	85,786	-0,140	-0,105
336,143	110,961	-0,071	-0,058
337,158	-3,693	-0,151	-0,072
338,173	-200,000	-0,010	-0,198
339,187	183,967	-0,154	-0,156
340,202	-113,222	-0,208	0,028
341,216	67,459	-0,129	-0,090
342,231	296,041	-0,121	-0,152
343,246	-126,568	-0,179	-0,018
344,260	605,326	-0,108	-0,184
345,275	800,000	0,068	-0,152
346,289	329,229	-0,081	-0,107
347,304	-137,214	-0,148	-0,011
348,319	156,930	-0,046	-0,043
349,333	-200,000	-0,006	-0,167
350,348	-200,000	-0,024	-0,091
351,362	285,536	-0,123	-0,152
352,377	187,057	-0,122	-0,124
353,392	-147,235	-0,130	0,007
354,406	-35,913	-0,078	-0,029
355,421	207,644	1311,288	1400,553
356,435	159,746	1471,557	1401,035
