DTS Sentinel unit serial number:	SN410029Multiplexer serial number:	ORYXHardware model number:	OX2-SRSoftware version number:	ORYX F/W v4,00 Oryx Data Collector v3.7.2.0data status	okinstallation	B3 Nyhavnadifferential loss correction	single-endedforward channel	channel 1reverse channel	N/Adate	2023/12/05time	01:07:30forward acquisition time	300,00reverse acquisition time	0,00gamma	499,1914k internal	0,3200k external	0,3200temperature offset calibration	1,0000default loss term (dB/km)	0,3820temperature slope calibration	1,0000multiplexer offset coefficient	1,0000multiplexer slope coefficient	1,0000fibre end	0,00T internal ref (°C)	13,81T ext. ref 1 (°C)	-1,03T ext. ref 2 (°C)	-1,04length (m)	temperature (°C)	Stokes	anti-Stokes-744,400	72,645	-0,221	-0,167
-743,385	-200,000	0,059	0,334
-742,371	800,000	-0,112	-0,247
-741,356	-200,000	0,153	0,507
-740,342	426,207	-0,109	-0,172
-739,327	-200,000	-0,054	0,280
-738,312	719,250	-0,109	-0,211
-737,298	-200,000	-0,005	0,261
-736,283	586,479	-0,113	-0,203
-735,269	-200,000	0,010	0,405
-734,254	5,701	-0,248	-0,133
-733,239	427,462	-0,102	0,161
-732,225	399,882	-0,186	-0,284
-731,210	47,247	0,133	0,090
-730,196	-27,121	0,064	0,027
-729,181	-200,000	-0,002	-0,015
-728,167	-134,834	0,129	0,011
-727,152	-101,639	-0,115	0,020
-726,137	-87,305	-0,045	0,010
-725,123	428,902	-0,076	-0,119
-724,108	521,162	-0,056	-0,097
-723,094	-200,000	-0,026	-0,165
-722,079	-136,094	-0,131	-0,011
-721,064	-200,000	-0,025	-0,114
-720,050	162,688	0,018	-0,018
-719,035	231,996	0,051	0,061
-718,021	-200,000	0,009	-0,093
-717,006	-59,796	-0,110	-0,034
-715,991	-93,745	-0,052	-0,010
-714,977	326,830	-0,076	-0,105
-713,962	164,381	-0,045	0,047
-712,948	-34,892	0,024	-0,010
-711,933	-200,000	-0,005	0,125
-710,918	212,902	0,075	-0,087
-709,904	-200,000	-0,028	-0,180
-708,889	92,385	-0,059	-0,048
-707,875	-39,190	-0,130	0,049
-706,860	-200,000	-0,027	0,115
-705,845	-73,446	0,098	0,026
-704,831	25,112	-0,088	-0,053
-703,816	-86,057	-0,122	-0,027
-702,802	76,073	-0,089	0,069
-701,787	800,000	0,037	-0,117
-700,772	64,462	0,088	0,064
-699,758	-200,000	-0,028	-0,202
-698,743	-102,454	0,115	-0,020
-697,729	-200,000	0,004	0,080
-696,714	-137,190	0,107	0,009
-695,699	-200,000	-0,003	-0,081
-694,685	193,500	0,032	-0,035
-693,670	11,401	0,096	-0,053
-692,656	311,267	0,047	-0,065
-691,641	100,812	0,161	-0,136
-690,627	-200,000	0,023	0,150
-689,612	-61,195	-0,107	0,032
-688,597	-45,923	-0,071	0,025
-687,583	800,000	0,031	-0,081
-686,568	-37,685	-0,019	-0,007
-685,554	85,921	0,044	-0,035
-684,539	15,785	0,202	-0,115
-683,524	800,000	0,023	0,053
-682,510	-95,220	-0,068	0,013
-681,495	116,514	-0,036	-0,032
-680,481	-111,318	0,115	-0,017
-679,466	-123,628	-0,103	0,012
-678,451	64,003	-0,068	0,049
-677,437	252,419	0,022	-0,028
-676,422	-200,000	-0,022	0,082
-675,408	29,549	0,029	0,018
-674,393	-56,708	0,061	-0,020
-673,378	-200,000	-0,001	-0,120
-672,364	-200,000	0,021	-0,141
-671,349	-38,772	-0,094	-0,036
-670,335	24,071	0,109	0,065
-669,320	416,103	0,071	-0,111
-668,305	-8,623	-0,052	0,025
-667,291	-45,719	0,012	0,004
-666,276	-200,000	0,010	0,194
-665,262	324,613	-0,094	-0,131
-664,247	36,338	-0,118	-0,075
-663,232	-200,000	0,009	-0,066
-662,218	-200,000	0,003	-0,051
-661,203	800,000	-0,036	-0,099
-660,189	201,319	-0,040	0,045
-659,174	-200,000	0,016	-0,092
-658,159	571,268	-0,122	-0,216
-657,145	800,000	0,056	-0,157
-656,130	440,730	-0,109	-0,173
-655,116	232,133	-0,059	0,071
-654,101	-4,354	-0,052	0,026
-653,086	74,755	-0,096	0,073
-652,072	-200,000	-0,003	-0,020
-651,057	-200,000	-0,033	-0,161
-650,043	-77,281	-0,091	0,023
-649,028	-84,896	-0,034	0,008
-648,014	86,202	0,077	-0,062
-646,999	158,419	0,075	-0,075
-645,984	468,390	-0,027	0,045
-644,970	237,688	0,034	-0,040
-643,955	275,567	-0,055	-0,071
-642,941	800,000	0,041	-0,129
-641,926	-110,981	0,061	-0,009
-640,911	-200,000	0,015	0,135
-639,897	-150,206	0,081	-0,004
-638,882	-84,253	-0,088	0,020
-637,868	-200,000	-0,010	0,059
-636,853	-35,401	-0,043	0,017
-635,838	800,000	-0,040	-0,127
-634,824	800,000	0,013	0,032
-633,809	343,936	0,057	-0,081
-632,795	14,728	0,127	-0,072
-631,780	634,236	-0,018	-0,034
-630,765	503,407	0,022	0,037
-629,751	65,844	0,034	-0,025
-628,736	344,757	-0,044	-0,063
-627,722	28,221	-0,105	-0,064
-626,707	-82,803	-0,065	0,015
-625,692	371,420	0,065	0,096
-624,678	-37,076	0,024	-0,009
-623,663	-200,000	-0,019	0,074
-622,649	45,301	0,058	-0,039
-621,634	800,000	-0,037	-0,079
-620,619	-200,000	-0,006	0,092
-619,605	182,041	-0,058	0,062
-618,590	13,929	0,063	0,035
-617,576	128,922	-0,051	0,047
-616,561	155,862	0,056	0,056
-615,546	220,752	0,032	0,037
-614,532	-200,000	-0,003	-0,038
-613,517	8,201	0,119	-0,064
-612,503	-200,000	-0,001	0,095
-611,488	-110,232	0,060	-0,009
-610,474	-136,885	-0,092	0,008
-609,459	-93,297	-0,074	-0,015
-608,444	155,582	-0,096	0,096
-607,430	183,381	-0,098	0,105
-606,415	-61,088	0,057	0,017
-605,401	-146,067	-0,090	-0,006
-604,386	-200,000	-0,011	0,092
-603,371	-200,000	-0,013	0,139
-602,357	-140,244	0,062	0,005
-601,342	87,505	-0,065	-0,052
-600,328	267,216	-0,078	-0,099
-599,313	115,059	-0,045	-0,040
-598,298	414,934	-0,037	0,058
-597,284	-200,000	0,017	0,110
-596,269	-200,000	0,018	0,147
-595,255	-100,818	-0,106	0,019
-594,240	7,232	0,049	0,027
-593,225	54,444	-0,028	0,020
-592,211	800,000	-0,066	-0,141
-591,196	800,000	0,036	-0,087
-590,182	446,072	-0,057	-0,091
-589,167	800,000	-0,116	0,251
-588,152	-61,666	0,070	-0,021
-587,138	266,715	-0,063	-0,080
-586,123	-14,340	-0,054	-0,025
-585,109	-71,685	-0,008	-0,002
-584,094	-200,000	0,002	0,120
-583,079	-157,158	0,129	-0,006
-582,065	-200,000	-0,018	0,078
-581,050	-13,622	0,063	0,030
-580,036	-200,000	-0,051	-0,190
-579,021	-200,000	-0,043	-0,154
-578,006	-144,680	-0,056	-0,004
-576,992	-71,758	0,162	-0,043
-575,977	59,412	-0,032	-0,023
-574,963	-200,000	0,034	-0,178
-573,948	160,506	-0,089	0,090
-572,934	-6,603	-0,115	-0,056
-571,919	-75,658	0,072	0,018
-570,904	-150,793	0,037	0,002
-569,890	-39,415	-0,117	0,044
-568,875	-1,092	0,037	-0,019
-567,861	800,000	-0,046	0,104
-566,846	-77,258	0,041	-0,010
-565,831	-60,251	-0,066	-0,020
-564,817	-200,000	-0,039	-0,147
-563,802	237,658	0,036	-0,044
-562,788	-66,236	-0,117	0,033
-561,773	356,525	0,054	-0,078
-560,758	31,171	-0,044	0,027
-559,744	76,833	-0,146	0,112
-558,729	327,632	-0,042	0,058
-557,715	274,002	0,019	0,025
-556,700	116,840	-0,031	0,028
-555,685	-24,673	-0,178	-0,076
-554,671	-200,000	0,032	0,102
-553,656	800,000	0,035	0,081
-552,642	-200,000	0,017	0,115
-551,627	-53,238	0,011	0,004
-550,612	-95,532	-0,103	-0,020
-549,598	800,000	0,037	-0,082
-548,583	-186,778	-0,083	0,001
-547,569	288,482	-0,048	-0,063
-546,554	307,029	0,066	0,089
-545,539	351,147	-0,106	0,152
-544,525	-200,000	0,021	0,080
-543,510	30,269	0,033	-0,020
-542,496	183,118	-0,151	-0,162
-541,481	114,085	0,035	0,031
-540,466	-200,000	-0,034	-0,120
-539,452	27,100	0,124	-0,075
-538,437	133,675	0,071	0,066
-537,423	282,377	-0,109	-0,142
-536,408	564,070	0,029	-0,051
-535,393	-184,619	-0,097	-0,001
-534,379	152,370	-0,067	0,066
-533,364	145,631	0,015	-0,014
-532,350	-200,000	-0,007	-0,028
-531,335	14,020	0,104	0,058
-530,321	312,080	0,054	-0,073
-529,306	800,000	-0,075	0,183
-528,291	-200,000	-0,009	-0,104
-527,277	660,734	0,049	-0,092
-526,262	-179,830	0,103	-0,002
-525,248	136,239	-0,023	0,021
-524,233	-8,503	-0,058	-0,028
-523,218	169,385	0,026	-0,027
-522,204	126,331	0,019	-0,017
-521,189	98,728	-0,017	-0,014
-520,175	10,091	0,099	0,054
-519,160	800,000	-0,041	0,112
-518,145	-200,000	-0,014	0,078
-517,131	78,050	-0,030	-0,023
-516,116	267,265	-0,030	0,037
-515,102	138,637	-0,030	0,028
-514,087	92,328	0,019	-0,015
-513,072	-200,000	0,017	-0,087
-512,058	-148,844	0,059	0,003
-511,043	-103,652	-0,163	-0,027
-510,029	619,786	0,066	0,120
-509,014	-200,000	0,012	0,152
-507,999	-23,559	0,127	-0,055
-506,985	-200,000	-0,004	-0,065
-505,970	167,174	-0,121	-0,124
-504,956	-75,902	-0,075	0,019
-503,941	-200,000	0,043	-0,146
-502,926	760,740	0,042	-0,082
-501,912	163,455	0,022	0,023
-500,897	-137,249	0,084	-0,007
-499,883	27,344	-0,084	-0,051
-498,868	-62,705	-0,108	-0,032
-497,853	61,681	0,076	-0,055
-496,839	70,707	0,073	0,054
-495,824	-200,000	0,008	0,104
-494,810	298,755	0,114	0,151
-493,795	201,886	-0,134	0,149
-492,781	-35,652	0,353	-0,137
-491,766	-71,525	-0,079	0,021
-490,751	128,352	0,076	0,069
-489,737	800,000	0,030	0,062
-488,722	800,000	0,020	0,061
-487,708	-189,903	-0,048	0,000
-486,693	-200,000	-0,010	0,032
-485,678	-44,955	0,106	-0,038
-484,664	190,861	-0,142	-0,154
-483,649	-52,545	-0,069	0,023
-482,635	-3,573	0,168	0,084
-481,620	77,805	0,112	0,086
-480,605	71,983	0,150	0,112
-479,591	-78,846	-0,094	-0,023
-478,576	-137,033	0,074	0,006
-477,562	149,673	-0,108	-0,106
-476,547	529,200	-0,107	-0,183
-475,532	-200,000	0,001	-0,069
-474,518	38,442	-0,052	0,033
-473,503	62,573	0,059	-0,042
-472,489	95,486	-0,136	0,112
-471,474	116,388	-0,103	0,091
-470,459	219,105	0,041	0,047
-469,445	-77,068	-0,209	-0,052
-468,430	-28,149	0,046	-0,019
-467,416	-200,000	0,045	0,148
-466,401	743,214	0,022	0,044
-465,386	-10,918	0,068	0,032
-464,372	374,188	0,051	-0,075
-463,357	483,299	0,052	-0,086
-462,343	-200,000	0,036	-0,165
-461,328	122,835	0,016	0,015
-460,313	147,345	0,054	-0,053
-459,299	-200,000	0,016	-0,062
-458,284	116,068	0,090	-0,079
-457,270	-127,304	-0,143	0,015
-456,255	-142,652	0,134	-0,009
-455,241	-200,000	-0,006	0,028
-454,226	623,785	-0,083	-0,151
-453,211	800,000	0,059	-0,133
-452,197	638,354	0,036	-0,066
-451,182	-200,000	0,078	0,000
-450,168	-200,000	0,025	0,128
-449,153	800,000	0,009	0,023
-448,138	501,650	-0,008	0,013
-447,124	-22,324	0,117	-0,051
-446,109	342,309	0,074	-0,104
-445,095	-200,000	0,015	-0,082
-444,080	-200,000	0,006	0,098
-443,065	800,000	0,021	0,052
-442,051	108,499	0,067	0,057
-441,036	415,286	0,041	0,063
-440,022	-200,000	0,009	0,046
-439,007	-84,767	0,133	0,030
-437,992	800,000	-0,068	-0,188
-436,978	-95,468	0,117	0,022
-435,963	-200,000	0,004	0,043
-434,949	-195,188	-0,093	0,000
-433,934	162,243	-0,129	-0,130
-432,919	501,719	0,113	-0,188
-431,905	-107,273	0,074	0,012
-430,890	-27,792	0,032	-0,013
-429,876	800,000	0,057	0,117
-428,861	-200,000	0,016	0,059
-427,846	-200,000	-0,009	-0,098
-426,832	-138,841	-0,106	0,008
-425,817	348,950	0,084	-0,119
-424,803	-13,637	-0,035	-0,016
-423,788	-86,394	0,090	-0,020
-422,773	-67,017	0,091	0,026
-421,759	21,571	-0,091	0,053
-420,744	779,031	-0,042	0,082
-419,730	-200,000	-0,058	-0,209
-418,715	70,566	-0,098	-0,072
-417,701	-200,000	-0,030	-0,194
-416,686	-200,000	0,003	-0,158
-415,671	-44,300	0,157	0,056
-414,657	-200,000	0,000	0,143
-413,642	-13,136	-0,188	-0,087
-412,628	-200,000	-0,007	-0,128
-411,613	176,473	-0,076	0,080
-410,598	19,607	-0,027	0,015
-409,584	-66,414	0,071	0,020
-408,569	41,567	0,105	0,068
-407,555	-13,282	0,044	-0,021
-406,540	800,000	0,031	0,070
-405,525	-155,130	-0,066	-0,003
-404,511	236,554	0,047	0,056
-403,496	-200,000	0,003	0,022
-402,482	67,178	0,060	-0,044
-401,467	-200,000	0,004	-0,102
-400,452	-200,000	-0,003	-0,052
-399,438	-200,000	-0,057	0,180
-398,423	800,000	-0,034	0,086
-397,409	0,272	0,132	-0,067
-396,394	382,305	-0,087	-0,129
-395,379	28,274	-0,090	-0,054
-394,365	55,832	0,126	0,088
-393,350	-200,000	0,005	-0,079
-392,336	-200,000	-0,023	0,127
-391,321	2,839	-0,202	0,105
-390,306	418,810	-0,047	0,073
-389,292	55,641	-0,167	-0,116
-388,277	800,000	0,009	0,027
-387,263	7,533	0,047	-0,025
-386,248	131,236	-0,015	0,014
-385,233	240,135	-0,017	-0,021
-384,219	58,452	0,064	0,045
-383,204	124,282	-0,034	-0,031
-382,190	511,270	-0,034	0,057
-381,175	691,668	-0,060	-0,113
-380,160	800,000	0,057	0,126
-379,146	800,000	-0,033	0,087
-378,131	-200,000	-0,026	-0,149
-377,117	800,000	0,060	-0,138
-376,102	-200,000	0,005	-0,066
-375,088	-200,000	-0,007	-0,076
-374,073	-70,752	-0,023	0,006
-373,058	800,000	-0,015	-0,031
-372,044	88,985	0,161	0,129
-371,029	800,000	0,024	0,050
-370,015	-67,509	0,088	-0,024
-369,000	-172,149	-0,095	0,002
-367,985	65,520	-0,060	-0,044
-366,971	-200,000	-0,006	-0,210
-365,956	800,000	0,081	0,219
-364,942	503,742	0,050	0,083
-363,927	-200,000	0,036	0,199
-362,912	334,323	0,108	0,151
-361,898	239,458	-0,054	0,064
-360,883	-156,253	-0,103	-0,005
-359,869	-200,000	0,003	-0,065
-358,854	249,828	0,068	0,083
-357,839	800,000	0,015	0,037
-356,825	-147,999	0,070	0,004
-355,810	-200,000	-0,016	-0,060
-354,796	800,000	-0,022	0,049
-353,781	37,732	0,090	-0,057
-352,766	79,450	-0,137	-0,105
-351,752	96,491	-0,095	-0,077
-350,737	-61,203	0,079	-0,024
-349,723	49,947	-0,067	0,045
-348,708	-200,000	0,011	0,088
-347,693	96,341	0,050	0,041
-346,679	-4,318	-0,131	-0,065
-345,664	60,491	-0,062	0,044
-344,650	-200,000	0,003	0,013
-343,635	442,458	0,070	0,110
-342,620	42,978	-0,080	0,052
-341,606	139,975	0,076	-0,072
-340,591	226,774	0,108	-0,125
-339,577	-200,000	0,009	-0,180
-338,562	130,602	-0,059	0,054
-337,548	-96,603	0,060	0,011
-336,533	-200,000	0,038	0,121
-335,518	149,467	0,022	-0,022
-334,504	96,787	0,072	0,059
-333,489	-200,000	-0,012	0,065
-332,475	125,424	0,126	0,114
-331,460	744,456	0,020	0,038
-330,445	3,460	0,053	-0,028
-329,431	-200,000	0,012	0,082
-328,416	-153,369	0,154	0,008
-327,402	-200,000	-0,005	0,055
-326,387	-87,666	-0,012	0,003
-325,372	426,286	0,053	-0,082
-324,358	220,128	-0,035	-0,040
-323,343	18,234	-0,028	-0,016
-322,329	-26,940	0,048	-0,020
-321,314	-146,997	0,139	0,008
-320,299	-200,000	0,019	0,086
-319,285	165,569	0,042	-0,042
-318,270	-84,186	-0,055	-0,012
-317,256	36,788	-0,078	-0,049
-316,241	-10,124	-0,108	-0,051
-315,226	800,000	-0,025	0,067
-314,212	-26,624	0,153	0,064
-313,197	222,141	-0,081	-0,094
-312,183	-200,000	0,010	-0,037
-311,168	-200,000	0,001	-0,116
-310,153	32,329	-0,060	-0,037
-309,139	800,000	-0,048	-0,124
-308,124	769,513	-0,058	-0,113
-307,110	-200,000	-0,011	0,073
-306,095	35,319	-0,136	0,085
-305,080	-107,364	-0,063	0,010
-304,066	800,000	0,006	-0,014
-303,051	165,859	0,024	-0,025
-302,037	334,319	-0,046	0,064
-301,022	-111,356	0,086	0,012
-300,008	800,000	-0,025	-0,054
-298,993	-71,897	0,102	0,027
-297,978	-121,071	0,083	0,010
-296,964	-200,000	-0,040	-0,148
-295,949	97,437	0,053	-0,044
-294,935	-23,633	-0,057	0,024
-293,920	-65,748	0,082	-0,023
-292,905	597,054	0,115	0,204
-291,891	-200,000	0,024	0,158
-290,876	512,364	-0,074	0,124
-289,862	98,007	-0,059	0,048
-288,847	43,429	-0,047	-0,031
-287,832	800,000	-0,027	-0,061
-286,818	266,852	-0,049	0,062
-285,803	70,011	0,022	0,016
-284,789	314,794	0,081	-0,110
-283,774	22,190	-0,047	-0,027
-282,759	800,000	0,063	0,169
-281,745	-48,441	-0,099	-0,034
-280,730	-200,000	0,026	-0,115
-279,716	-200,000	0,000	0,083
-278,701	281,777	0,032	0,041
-277,686	493,093	0,035	0,058
-276,672	-200,000	-0,001	0,078
-275,657	114,340	-0,051	0,044
-274,643	-200,000	0,009	-0,111
-273,628	-125,489	-0,066	-0,007
-272,613	-200,000	-0,005	-0,018
-271,599	90,500	0,038	0,030
-270,584	37,614	0,071	-0,045
-269,570	-200,000	0,001	-0,028
-268,555	-200,000	-0,002	-0,032
-267,540	327,481	0,060	0,083
-266,526	-165,480	-0,101	-0,003
-265,511	412,792	-0,088	0,134
-264,497	6,101	0,075	-0,040
-263,482	-62,242	0,068	0,020
-262,467	428,665	0,001	0,002
-261,453	-200,000	-0,015	-0,064
-260,438	-61,335	0,040	-0,012
-259,424	-48,139	0,246	0,084
-258,409	-19,010	-0,107	-0,047
-257,395	-143,936	0,163	0,011
-256,380	490,214	-0,070	-0,115
-255,365	83,076	0,120	0,093
-254,351	28,487	0,058	0,035
-253,336	64,289	0,097	-0,069
-252,322	-200,000	-0,031	-0,143
-251,307	-200,000	-0,001	-0,089
-250,292	7,437	-0,069	0,037
-249,278	121,120	0,069	0,062
-248,263	-107,730	0,129	-0,020
-247,249	158,103	-0,087	-0,087
-246,234	-163,075	0,017	-0,001
-245,219	-103,327	-0,106	-0,018
-244,205	-34,969	-0,013	-0,005
-243,190	800,000	0,025	-0,058
-242,176	800,000	-0,023	0,053
-241,161	29,588	0,118	0,072
-240,146	230,372	-0,049	-0,057
-239,132	-199,217	0,063	-0,000
-238,117	-102,054	0,023	0,004
-237,103	-93,826	-0,094	-0,018
-236,088	394,351	0,017	-0,025
-235,073	746,436	-0,050	-0,096
-234,059	-13,919	-0,108	0,050
-233,044	300,938	-0,054	0,072
-232,030	-92,221	0,170	-0,034
-231,015	482,266	-0,042	-0,069
-230,000	208,615	-0,064	0,071
-228,986	-200,000	-0,025	-0,104
-227,971	-69,957	-0,081	0,022
-226,957	800,000	0,066	0,174
-225,942	322,606	0,037	0,050
-224,927	-71,795	-0,031	0,008
-223,913	99,893	-0,057	0,047
-222,898	800,000	-0,029	-0,065
-221,884	800,000	-0,033	-0,091
-220,869	322,372	0,045	0,062
-219,855	-200,000	0,001	0,107
-218,840	-75,555	0,084	-0,021
-217,825	-123,690	-0,115	-0,013
-216,811	14,587	0,054	-0,030
-215,796	106,808	-0,058	-0,049
-214,782	-116,914	-0,136	-0,018
-213,767	-96,430	-0,035	0,007
-212,752	18,942	0,081	0,046
-211,738	800,000	-0,040	0,114
-210,723	-37,665	-0,137	0,052
-209,709	-200,000	-0,010	-0,103
-208,694	726,545	-0,062	-0,119
-207,679	-145,536	0,032	0,002
-206,665	-200,000	-0,012	0,077
-205,650	800,000	-0,012	0,026
-204,636	-200,000	-0,018	0,063
-203,621	-56,277	-0,110	-0,035
-202,606	-116,414	-0,101	0,013
-201,592	-12,486	-0,108	-0,050
-200,577	800,000	-0,049	0,135
-199,563	105,843	0,124	0,104
-198,548	-108,996	0,101	0,015
-197,533	800,000	-0,030	0,066
-196,519	-39,456	0,068	0,025
-195,504	62,420	0,022	-0,016
-194,490	76,928	0,016	0,012
-193,475	-142,807	-0,070	-0,005
-192,460	232,036	0,097	-0,113
-191,446	-90,232	0,157	-0,032
-190,431	800,000	0,029	0,058
-189,417	-200,000	0,007	-0,066
-188,402	-200,000	-0,006	0,112
-187,387	-200,000	0,004	-0,035
-186,373	-146,256	-0,126	0,008
-185,358	19,675	0,076	-0,043
-184,344	405,073	0,088	0,132
-183,329	-200,000	-0,010	0,066
-182,315	198,451	0,064	0,069
-181,300	-138,575	-0,152	-0,012
-180,285	601,072	-0,005	0,008
-179,271	-85,031	-0,114	0,025
-178,256	63,613	0,146	-0,104
-177,242	-16,690	-0,109	0,049
-176,227	-200,000	-0,035	0,122
-175,212	504,725	-0,026	-0,043
-174,198	-123,944	-0,077	0,009
-173,183	-200,000	0,002	0,038
-172,169	-200,000	0,029	-0,181
-171,154	800,000	0,002	0,004
-170,139	-51,015	-0,150	-0,050
-169,125	-77,336	0,108	0,027
-168,110	382,170	-0,050	-0,074
-167,096	17,761	-0,010	-0,005
-166,081	11,356	-0,039	-0,021
-165,066	154,558	0,120	-0,117
-164,052	-74,348	-0,150	-0,038
-163,037	282,555	0,032	-0,041
-162,023	-138,497	0,021	-0,002
-161,008	190,902	-0,046	0,049
-159,993	-200,000	-0,018	0,116
-158,979	31,059	0,020	0,012
-157,964	-200,000	0,006	-0,115
-156,950	-200,000	-0,024	0,080
-155,935	800,000	-0,013	0,032
-154,920	-47,678	-0,072	0,025
-153,906	21,087	0,055	0,032
-152,891	54,826	0,114	-0,078
-151,877	22,993	-0,042	0,024
-150,862	800,000	-0,045	-0,099
-149,847	-29,955	0,069	-0,028
-148,833	16,496	0,059	0,033
-147,818	353,956	-0,050	-0,070
-146,804	-46,004	0,059	0,021
-145,789	-23,034	-0,041	-0,018
-144,775	-74,530	-0,166	-0,042
-143,760	-44,847	-0,033	-0,011
-142,745	-200,000	-0,019	-0,097
-141,731	-200,000	-0,034	0,203
-140,716	-200,000	0,013	-0,140
-139,702	233,437	-0,038	0,044
-138,687	-200,000	0,008	0,104
-137,672	800,000	-0,036	-0,087
-136,658	-200,000	-0,001	-0,089
-135,643	-96,541	0,052	0,010
-134,629	-12,205	-0,054	0,025
-133,614	93,396	0,154	0,124
-132,599	179,060	0,021	0,022
-131,585	521,547	0,011	0,018
-130,570	-200,000	0,028	0,093
-129,556	165,871	0,021	0,021
-128,541	125,672	-0,096	0,086
-127,526	800,000	-0,062	0,159
-126,512	-13,209	0,096	-0,044
-125,497	109,669	0,074	-0,063
-124,483	-30,878	0,091	0,036
-123,468	499,899	-0,034	0,056
-122,453	513,675	-0,058	0,097
-121,439	53,673	0,024	-0,016
-120,424	-80,462	0,014	-0,003
-119,410	10,367	0,081	-0,044
-118,395	-88,752	0,054	0,011
-117,380	800,000	-0,010	-0,027
-116,366	244,596	0,045	-0,054
-115,351	-83,975	-0,197	-0,044
-114,337	108,612	-0,097	-0,082
-113,322	-167,056	-0,039	-0,001
-112,307	63,449	0,049	-0,035
-111,293	-200,000	-0,029	0,134
-110,278	87,490	0,162	0,127
-109,264	-200,000	0,008	0,036
-108,249	-200,000	-0,018	0,063
-107,234	112,148	-0,116	-0,100
-106,220	46,133	0,037	-0,024
-105,205	448,856	0,105	0,165
-104,191	207,197	0,044	-0,049
-103,176	31,689	0,075	-0,046
-102,162	-69,529	-0,028	0,008
-101,147	-109,232	-0,089	0,013
-100,132	-22,543	-0,072	-0,031
-99,118	41,349	-0,033	-0,021
-98,103	18,756	-0,140	0,079
-97,089	-24,708	0,023	-0,010
-96,074	95,088	-0,119	0,096
-95,059	113,353	0,048	-0,041
-94,045	271,248	0,139	-0,174
-93,030	45,278	-0,105	-0,069
-92,016	-200,000	-0,024	0,083
-91,001	-59,459	-0,002	0,001
-89,986	753,097	0,043	-0,082
-88,972	-47,090	0,093	-0,032
-87,957	152,052	0,037	0,036
-86,943	420,234	0,071	-0,108
-85,928	-54,403	-0,169	-0,054
-84,913	-200,000	-0,036	-0,158
-83,899	188,831	0,014	-0,014
-82,884	-200,000	0,008	-0,081
-81,870	-200,000	0,005	0,068
-80,855	91,585	-0,029	0,023
-79,840	459,744	-0,079	-0,125
-78,826	38,111	0,052	0,033
-77,811	480,858	-0,063	-0,102
-76,797	-200,000	0,013	-0,188
-75,782	25,612	0,056	-0,033
-74,767	800,000	-0,045	0,133
-73,753	-200,000	-0,010	0,050
-72,738	-103,230	-0,067	-0,011
-71,724	149,300	-0,061	-0,059
-70,709	-69,701	-0,138	0,037
-69,694	-200,000	0,023	-0,079
-68,680	138,486	0,080	-0,074
-67,665	-48,080	0,115	-0,039
-66,651	-200,000	0,000	0,029
-65,636	-141,028	-0,102	-0,007
-64,622	-4,379	-0,050	-0,025
-63,607	14,547	0,070	-0,039
-62,592	99,570	0,151	0,124
-61,578	648,380	0,037	0,067
-60,563	155,193	0,134	0,130
-59,549	303,116	-0,023	0,031
-58,534	-35,930	-1,685	-0,642
-57,519	428,183	-1,363	-2,092
-56,505	-200,000	-0,644	-4,708
-55,490	142,739	1,022	0,962
-54,476	800,000	4,816	11,523
-53,461	-200,000	19,031	314,331
-52,446	-200,000	739,127	2326,638
-51,432	575,273	1655,478	2873,416
-50,417	79,121	1671,674	1266,814
-49,403	21,788	1544,642	888,668
-48,388	15,635	1467,193	814,182
-47,373	17,863	1457,111	819,325
-46,359	16,882	1446,882	808,834
-45,344	13,978	1442,288	792,324
-44,330	13,855	1440,484	790,711
-43,315	13,853	1438,803	789,747
-42,300	13,864	1437,105	788,834
-41,286	13,882	1435,924	788,241
-40,271	13,850	1434,547	787,304
-39,257	13,839	1433,445	786,612
-38,242	13,913	1432,127	786,210
-37,227	13,907	1430,966	785,514
-36,213	13,905	1429,590	784,717
-35,198	13,915	1428,488	784,131
-34,184	13,955	1427,473	783,730
-33,169	13,882	1425,962	782,524
-32,154	13,894	1425,182	782,123
-31,140	13,952	1423,779	781,596
-30,125	13,910	1422,798	780,829
-29,111	13,961	1421,423	780,282
-28,096	13,896	1420,370	779,365
-27,082	13,831	1419,326	778,458
-26,067	13,840	1418,202	777,850
-25,052	13,840	1417,085	777,210
-24,038	13,792	1416,199	776,467
-23,023	13,855	1415,068	776,113
-22,009	13,817	1414,093	775,368
-20,994	13,758	1413,425	774,692
-19,979	13,755	1412,458	774,118
-18,965	13,744	1411,542	773,534
-17,950	13,769	1410,488	773,044
-16,936	13,800	1409,500	772,614
-15,921	13,740	1408,463	771,735
-14,906	13,766	1407,486	771,289
-13,892	13,798	1406,253	770,733
-12,877	13,722	1405,797	770,101
-11,863	13,747	1404,808	769,645
-10,848	13,751	1404,034	769,208
-9,833	13,692	1403,210	768,450
-8,819	13,693	1402,229	767,886
-7,804	13,623	1401,465	767,113
-6,790	13,638	1400,055	766,381
-5,775	13,649	1399,147	765,904
-4,760	13,661	1398,259	765,442
-3,746	13,613	1397,460	764,752
-2,731	13,630	1396,650	764,358
-1,717	13,622	1395,546	763,688
-0,702	13,596	1393,912	762,641
0,313	17,372	1311,366	735,006
1,327	33,444	705,531	432,676
2,342	51,440	123,808	83,092
3,356	4,227	16,579	8,563
4,371	9,498	3,178	1,697
5,386	-37,032	0,479	0,180
6,400	75,454	-0,121	0,090
7,415	-3,993	-0,275	-0,135
8,429	125,531	-0,228	-0,204
9,444	9,831	-0,366	-0,196
10,459	-67,765	-0,313	-0,086
11,473	55,892	-0,268	-0,184
12,488	-54,084	-0,329	-0,105
13,502	-14,588	-0,342	-0,155
14,517	-33,570	-0,430	-0,167
15,531	334,084	-0,199	-0,273
16,546	27,254	-0,314	-0,186
17,561	55,536	-0,234	-0,160
18,575	-154,295	-0,247	-0,012
19,590	269,073	-0,210	-0,260
20,604	-1,648	-0,149	-0,074
21,619	116,768	-0,370	-0,320
22,634	182,389	-0,379	-0,395
23,648	69,506	-0,525	-0,381
24,663	105,441	-0,351	-0,292
25,677	106,967	-0,309	-0,259
26,692	278,722	-0,228	-0,288
27,707	192,590	-0,277	-0,295
28,721	41,619	-0,406	-0,259
29,736	205,868	-0,406	-0,447
30,750	295,682	-0,262	-0,339
31,765	40,352	-0,395	-0,251
32,780	114,115	-0,377	-0,324
33,794	104,604	-0,223	-0,186
34,809	90,217	-0,369	-0,291
35,823	45,623	-0,337	-0,220
36,838	52,921	-0,501	-0,338
37,853	200,479	-0,322	-0,350
38,867	98,364	-0,361	-0,293
39,882	213,799	-0,311	-0,347
40,896	50,156	-0,376	-0,250
41,911	42,266	-0,418	-0,268
42,926	136,704	-0,226	-0,208
43,940	46,752	-0,438	-0,286
44,955	-64,855	-0,457	-0,129
45,969	304,301	-0,238	-0,312
46,984	160,090	-0,298	-0,293
47,999	-7,105	-0,306	-0,146
49,013	-65,085	-0,389	-0,110
50,028	330,609	-0,165	-0,224
51,042	97,920	-0,304	-0,247
52,057	196,119	-0,313	-0,336
53,071	91,526	-0,275	-0,218
54,086	89,785	-0,329	-0,259
55,101	-28,413	-0,395	-0,160
56,115	-61,393	-0,275	-0,081
57,130	94,961	-0,364	-0,292
58,144	103,939	-0,414	-0,343
59,159	247,149	-0,300	-0,358
60,174	53,391	-0,332	-0,224
61,188	-1,318	-0,377	-0,187
62,203	46,415	-0,347	-0,226
63,217	68,358	-0,345	-0,249
64,232	-20,140	-0,415	-0,179
65,247	84,058	-0,290	-0,223
66,261	23,659	-0,324	-0,187
67,276	387,535	-0,178	-0,259
68,290	442,802	-0,199	-0,308
69,305	102,469	-0,328	-0,270
70,320	-11,685	-0,391	-0,180
71,334	31,537	-0,255	-0,154
72,349	25,616	-0,347	-0,202
73,363	-37,410	-0,373	-0,139
74,378	221,893	-0,268	-0,304
75,393	208,580	-0,177	-0,195
76,407	11,021	-0,415	-0,222
77,422	307,088	-0,276	-0,362
78,436	128,996	-0,267	-0,239
79,451	51,140	-0,256	-0,171
80,466	60,132	-0,304	-0,211
81,480	165,541	-0,253	-0,251
82,495	-71,728	-0,270	-0,070
83,509	24,460	-0,204	-0,118
84,524	-7,971	-0,196	-0,093
85,539	-10,972	-0,211	-0,098
86,553	311,036	-0,155	-0,205
87,568	147,311	-0,327	-0,309
88,582	11,306	-0,373	-0,200
89,597	162,613	-0,281	-0,277
90,611	-34,211	-0,231	-0,088
91,626	-18,996	-0,121	-0,053
92,641	52,629	-0,303	-0,203
93,655	30,278	-0,209	-0,125
94,670	73,479	-0,297	-0,218
95,684	145,576	-0,324	-0,305
96,699	-24,006	-0,289	-0,121
97,714	131,112	-0,216	-0,195
98,728	-45,281	-0,357	-0,124
99,743	800,000	-0,142	-0,349
100,757	56,752	-0,384	-0,262
101,772	242,618	-0,231	-0,272
102,787	176,995	-0,208	-0,212
103,801	-66,547	-0,299	-0,083
104,816	38,477	-0,326	-0,204
105,830	493,725	-0,113	-0,183
106,845	-200,000	-0,020	-0,180
107,860	193,107	-0,251	-0,267
108,874	-20,401	-0,327	-0,140
109,889	-6,987	-0,242	-0,115
110,903	172,269	-0,195	-0,197
111,918	217,442	-0,181	-0,203
112,933	274,684	-0,198	-0,247
113,947	105,896	-0,198	-0,164
114,962	51,979	-0,295	-0,197
115,976	-32,621	-0,262	-0,102
116,991	12,416	-0,265	-0,143
118,006	205,989	-0,363	-0,396
119,020	175,688	-0,215	-0,219
120,035	73,589	-0,158	-0,116
121,049	-90,663	-0,228	-0,046
122,064	-76,441	-0,179	-0,044
123,079	23,636	-0,372	-0,214
124,093	44,471	-0,303	-0,195
125,108	48,096	-0,267	-0,174
126,122	90,867	-0,184	-0,144
127,137	-34,992	-0,358	-0,136
128,151	133,446	-0,232	-0,210
129,166	42,622	-0,292	-0,186
130,181	227,363	-0,237	-0,270
131,195	109,106	-0,206	-0,172
132,210	119,751	-0,254	-0,220
133,224	132,840	-0,209	-0,189
134,239	12,096	-0,207	-0,111
135,254	370,452	-0,179	-0,254
136,268	1,193	-0,172	-0,086
137,283	-100,715	-0,311	-0,053
138,297	78,682	-0,366	-0,274
139,312	82,906	-0,255	-0,194
140,327	-21,355	-0,373	-0,159
141,341	-79,011	-0,174	-0,041
142,356	280,788	-0,152	-0,190
143,370	78,058	-0,150	-0,112
144,385	181,436	-0,192	-0,197
145,400	73,954	-0,281	-0,206
146,414	136,834	-0,255	-0,233
147,429	107,833	-0,221	-0,184
148,443	327,901	-0,163	-0,220
149,458	60,082	-0,122	-0,084
150,473	271,493	-0,102	-0,125
151,487	242,554	-0,195	-0,229
152,502	-36,522	-0,209	-0,078
153,516	-110,073	-0,350	-0,051
154,531	4,184	-0,316	-0,161
155,546	67,092	-0,190	-0,135
156,560	25,826	-0,179	-0,104
157,575	100,944	-0,217	-0,176
158,589	168,685	-0,135	-0,135
159,604	4,657	-0,325	-0,166
160,619	350,120	-0,269	-0,372
161,633	252,270	-0,223	-0,265
162,648	84,543	-0,247	-0,188
163,662	73,954	-0,218	-0,160
164,677	-132,565	-0,237	-0,021
165,692	27,019	-0,259	-0,151
166,706	78,415	-0,317	-0,236
167,721	62,485	-0,263	-0,183
168,735	151,273	-0,252	-0,239
169,750	73,167	-0,304	-0,222
170,764	-2,238	-0,295	-0,144
171,779	72,001	-0,102	-0,074
172,794	-26,071	-0,252	-0,103
173,808	45,668	-0,175	-0,112
174,823	58,668	-0,312	-0,213
175,837	-200,000	-0,047	-0,242
176,852	-83,461	-0,341	-0,075
177,867	484,158	-0,159	-0,254
178,881	7,225	-0,128	-0,066
179,896	299,051	-0,139	-0,179
180,910	154,065	-0,138	-0,132
181,925	50,883	-0,171	-0,113
182,940	-200,000	-0,063	-0,243
183,954	-2,936	-0,325	-0,158
184,969	-31,971	-0,200	-0,077
185,983	-85,391	-0,132	-0,028
186,998	35,405	-0,222	-0,135
188,013	287,077	-0,169	-0,213
189,027	-162,871	-0,331	0,011
190,042	59,842	-0,350	-0,240
191,056	137,063	-0,224	-0,204
192,071	37,414	-0,239	-0,147
193,086	39,094	-0,127	-0,079
194,100	-105,222	-0,182	-0,029
195,115	-44,307	-0,211	-0,073
196,129	70,139	-0,215	-0,154
197,144	42,694	-0,196	-0,124
198,159	265,415	-0,150	-0,183
199,173	28,944	-0,287	-0,169
200,188	-1,174	-0,208	-0,102
201,202	-107,540	-0,120	0,018
202,217	-24,603	-0,325	-0,134
203,232	9,627	-0,193	-0,101
204,246	188,595	-0,136	-0,141
205,261	101,903	-0,249	-0,202
206,275	59,141	-0,121	-0,083
207,290	190,840	-0,079	-0,082
208,304	783,033	-0,090	-0,172
209,319	-54,781	-0,151	-0,047
210,334	41,536	-0,203	-0,127
211,348	-23,609	-0,242	-0,101
212,363	800,000	-0,085	-0,239
213,377	105,987	-0,203	-0,167
214,392	53,073	-0,130	-0,086
215,407	278,539	-0,215	-0,267
216,421	134,925	-0,283	-0,255
217,436	7,523	-0,255	-0,132
218,450	15,930	-0,255	-0,139
219,465	452,722	-0,191	-0,294
220,480	123,256	-0,231	-0,201
221,494	199,996	-0,061	-0,065
222,509	24,653	-0,227	-0,130
223,523	174,191	-0,142	-0,142
224,538	50,405	-0,209	-0,137
225,553	42,266	-0,184	-0,116
226,567	148,551	-0,238	-0,223
227,582	96,609	-0,191	-0,151
228,596	190,477	-0,264	-0,275
229,611	-154,610	-0,155	-0,007
230,626	122,306	-0,207	-0,180
231,640	223,366	-0,171	-0,192
232,655	154,774	-0,102	-0,097
233,669	364,539	-0,186	-0,260
234,684	223,085	-0,094	-0,105
235,699	-170,215	-0,190	-0,005
236,713	-200,000	-0,031	-0,122
237,728	205,352	-0,212	-0,228
238,742	165,017	-0,231	-0,226
239,757	392,000	-0,173	-0,250
240,772	113,134	-0,196	-0,165
241,786	113,743	-0,121	-0,102
242,801	161,636	-0,165	-0,161
243,815	-10,812	-0,215	-0,098
244,830	242,469	-0,127	-0,147
245,844	-200,000	-0,059	-0,195
246,859	400,275	-0,195	-0,284
247,874	284,211	-0,128	-0,160
248,888	671,620	-0,086	-0,155
249,903	-54,598	-0,263	-0,082
250,917	158,769	-0,172	-0,165
251,932	367,866	-0,172	-0,241
252,947	204,669	-0,071	-0,076
253,961	28,515	-0,273	-0,160
254,976	65,753	-0,250	-0,175
255,990	-112,789	-0,159	-0,022
257,005	673,451	-0,089	-0,160
258,020	413,359	-0,124	-0,183
259,034	-81,117	-0,216	-0,049
260,049	314,739	-0,115	-0,150
261,063	162,774	-0,182	-0,177
262,078	47,059	-0,326	-0,209
263,093	277,743	-0,084	-0,104
264,107	20,203	-0,217	-0,121
265,122	247,235	-0,096	-0,112
266,136	36,172	-0,005	-0,003
267,151	-94,051	-0,187	-0,035
268,166	-49,020	-0,184	-0,060
269,180	115,438	-0,223	-0,188
270,195	6,688	-0,249	-0,127
271,209	461,430	-0,139	-0,216
272,224	800,000	-0,095	-0,206
273,239	-67,846	-0,173	-0,046
274,253	232,986	-0,077	-0,088
275,268	-118,224	-0,065	-0,008
276,282	117,300	-0,129	-0,109
277,297	138,311	-0,130	-0,118
278,312	-144,209	-0,194	0,012
279,326	-59,033	-0,159	0,047
280,341	63,841	-0,142	-0,099
281,355	207,503	-0,084	-0,091
282,370	143,313	-0,152	-0,140
283,384	-102,823	-0,261	-0,042
284,399	117,729	-0,201	-0,171
285,414	60,341	-0,261	-0,178
286,428	800,000	-0,043	-0,129
287,443	240,568	-0,121	-0,140
288,457	244,643	-0,111	-0,129
289,472	-63,386	-0,151	-0,043
290,487	111,508	-0,114	-0,095
291,501	-100,519	-0,274	-0,046
292,516	-23,338	-0,197	-0,081
293,530	-125,793	-0,181	-0,019
294,545	53,504	-0,058	0,038
295,560	-94,919	-0,186	-0,034
296,574	320,764	-0,081	-0,106
297,589	-17,856	-0,319	-0,137
298,603	91,625	-0,132	-0,102
299,618	9,276	-0,224	-0,116
300,633	115,381	-0,198	-0,167
301,647	38,353	-0,140	-0,086
302,662	-56,841	-0,202	-0,061
303,676	258,460	-0,142	-0,169
304,691	-162,771	-0,180	-0,006
305,706	83,244	-0,267	-0,200
306,720	123,097	-0,118	-0,101
307,735	69,467	-0,185	-0,131
308,749	-200,000	0,021	-0,069
309,764	339,364	-0,055	-0,074
310,779	-200,000	-0,037	-0,130
311,793	26,834	-0,168	-0,097
312,808	-200,000	-0,067	-0,210
313,822	800,000	-0,041	-0,122
314,837	643,315	-0,046	-0,080
315,852	-10,442	-0,207	-0,094
316,866	154,501	-0,055	0,052
317,881	226,250	-0,136	-0,152
318,895	421,396	-0,130	-0,192
319,910	215,390	-0,121	-0,132
320,925	36,542	-0,231	-0,140
321,939	-124,319	-0,120	-0,013
322,954	-65,587	-0,152	-0,042
323,968	-22,985	-0,087	-0,036
324,983	800,000	-0,113	-0,237
325,997	73,749	-0,125	-0,090
327,012	101,713	-0,125	-0,100
328,027	-106,983	-0,208	-0,031
329,041	115,968	-0,171	-0,144
330,056	420,771	-0,123	-0,181
331,070	-200,000	-0,054	-0,166
332,085	47,342	-0,200	-0,128
333,100	696,646	-0,104	-0,188
334,114	-125,938	-0,324	-0,033
335,129	102,269	-0,201	-0,161
336,143	-200,000	-0,028	-0,201
337,158	4,326	-0,177	-0,089
338,173	412,988	-0,192	-0,282
339,187	-200,000	-0,041	-0,126
340,202	-0,100	-0,117	-0,057
341,216	-68,818	-0,248	-0,065
342,231	36,712	-0,170	-0,103
343,246	-37,766	-0,327	-0,119
344,260	339,116	-0,128	-0,172
345,275	-200,000	-0,024	-0,167
346,289	638,994	-0,021	-0,036
347,304	800,000	-0,077	-0,187
348,319	-72,379	-0,139	-0,035
349,333	-36,197	-0,160	-0,059
350,348	-77,942	-0,184	-0,043
351,362	309,855	-0,132	-0,170
352,377	334,932	-0,119	-0,159
353,392	45,897	-0,124	-0,078
354,406	196,459	-0,109	-0,114
355,421	207,550	1315,430	1410,260
356,435	159,665	1476,229	1410,749
