DTS Sentinel unit serial number:	SN410029Multiplexer serial number:	ORYXHardware model number:	OX2-SRSoftware version number:	ORYX F/W v4,00 Oryx Data Collector v3.7.2.0data status	okinstallation	B3 Nyhavnadifferential loss correction	single-endedforward channel	channel 1reverse channel	N/Adate	2023/11/29time	02:12:30forward acquisition time	300,00reverse acquisition time	0,00gamma	499,1914k internal	0,3211k external	0,3211temperature offset calibration	1,0000default loss term (dB/km)	0,3820temperature slope calibration	1,0000multiplexer offset coefficient	1,0000multiplexer slope coefficient	1,0000fibre end	0,00T internal ref (°C)	9,60T ext. ref 1 (°C)	-5,51T ext. ref 2 (°C)	-5,64length (m)	temperature (°C)	Stokes	anti-Stokes-744,400	156,903	-0,311	-0,312
-743,385	-200,000	-0,025	0,178
-742,371	97,512	-0,223	-0,186
-741,356	-200,000	0,010	0,321
-740,342	142,810	-0,207	-0,199
-739,327	-200,000	-0,009	0,348
-738,312	800,000	-0,110	-0,246
-737,298	327,768	-0,089	0,124
-736,283	-200,000	-0,057	-0,210
-735,269	-200,000	-0,030	0,275
-734,254	138,584	-0,252	-0,240
-733,239	27,266	-0,174	0,105
-732,225	278,978	-0,156	-0,202
-731,210	462,697	0,109	0,178
-730,196	165,290	-0,056	-0,058
-729,181	-160,550	-0,094	-0,004
-728,167	-91,612	-0,186	-0,038
-727,152	-67,795	-0,083	-0,023
-726,137	-125,455	-0,094	0,010
-725,123	112,851	-0,104	-0,091
-724,108	193,715	-0,087	-0,095
-723,094	-54,789	-0,122	-0,040
-722,079	638,029	0,037	0,068
-721,064	-91,096	0,072	0,015
-720,050	800,000	-0,023	-0,070
-719,035	62,737	-0,099	-0,072
-718,021	-102,168	-0,083	0,014
-717,006	-75,605	-0,130	-0,033
-715,991	-200,000	0,010	0,099
-714,977	800,000	-0,066	-0,166
-713,962	-200,000	-0,001	0,019
-712,948	-41,878	-0,071	0,026
-711,933	131,726	0,074	-0,069
-710,918	392,891	-0,087	-0,132
-709,904	12,886	-0,113	-0,063
-708,889	800,000	0,063	-0,157
-707,875	3,518	-0,122	-0,064
-706,860	-6,567	-0,056	-0,027
-705,845	644,369	0,037	0,069
-704,831	-30,642	0,096	0,039
-703,816	303,369	0,095	0,128
-702,802	-14,615	-0,064	0,030
-701,787	-200,000	-0,026	-0,097
-700,772	-16,416	-0,124	-0,056
-699,758	-200,000	-0,004	0,070
-698,743	800,000	-0,004	-0,010
-697,729	336,052	0,072	-0,101
-696,714	-200,000	0,009	-0,039
-695,699	261,294	-0,036	-0,045
-694,685	800,000	0,048	-0,113
-693,670	366,332	-0,050	-0,073
-692,656	9,974	-0,062	0,034
-691,641	208,974	-0,087	-0,098
-690,627	20,322	-0,098	-0,057
-689,612	195,070	0,064	-0,071
-688,597	-200,000	0,002	-0,067
-687,583	-36,493	-0,100	0,039
-686,568	-93,127	-0,066	-0,013
-685,554	120,406	-0,051	-0,046
-684,539	11,914	0,052	0,029
-683,524	-95,532	-0,043	-0,008
-682,510	596,517	0,077	0,138
-681,495	60,307	-0,141	0,101
-680,481	-200,000	0,007	0,107
-679,466	-200,000	-0,042	-0,199
-678,451	148,229	0,030	-0,029
-677,437	296,874	-0,034	0,045
-676,422	369,921	0,026	-0,038
-675,408	-75,218	-0,087	0,022
-674,393	103,434	-0,072	-0,061
-673,378	-200,000	-0,025	-0,164
-672,364	-200,000	-0,000	-0,088
-671,349	-200,000	-0,018	0,063
-670,335	95,586	-0,067	0,055
-669,320	-141,824	0,167	-0,012
-668,305	14,468	-0,036	0,020
-667,291	-98,783	0,013	-0,002
-666,276	-200,000	0,012	-0,085
-665,262	56,768	-0,075	0,053
-664,247	-200,000	0,002	-0,041
-663,232	-144,793	-0,030	-0,002
-662,218	-105,892	0,148	0,024
-661,203	509,562	0,025	0,043
-660,189	152,547	-0,132	-0,130
-659,174	572,680	-0,038	-0,068
-658,159	-200,000	-0,005	-0,120
-657,145	168,751	-0,087	-0,090
-656,130	800,000	0,046	0,142
-655,116	-200,000	-0,000	-0,052
-654,101	-200,000	-0,026	0,100
-653,086	271,932	0,011	-0,014
-652,072	-200,000	0,011	-0,094
-651,057	34,411	-0,063	-0,039
-650,043	-102,402	0,032	-0,005
-649,028	57,063	-0,054	-0,038
-648,014	647,551	0,110	0,204
-646,999	-157,700	-0,133	-0,006
-645,984	-200,000	-0,001	0,016
-644,970	800,000	-0,094	-0,245
-643,955	-125,156	-0,032	0,004
-642,941	-200,000	0,015	0,060
-641,926	-200,000	-0,014	-0,127
-640,911	-13,543	-0,048	0,023
-639,897	800,000	-0,044	0,129
-638,882	89,570	-0,037	-0,030
-637,868	231,527	-0,049	-0,058
-636,853	218,840	0,041	0,047
-635,838	-200,000	0,011	-0,080
-634,824	-200,000	0,007	-0,032
-633,809	-200,000	-0,026	-0,101
-632,795	116,760	0,050	-0,044
-631,780	800,000	-0,044	0,115
-630,765	80,910	-0,081	-0,063
-629,751	723,218	0,047	-0,091
-628,736	45,737	-0,172	-0,115
-627,722	620,392	-0,084	-0,152
-626,707	800,000	0,017	0,043
-625,692	-200,000	0,008	0,053
-624,678	-141,200	0,071	0,005
-623,663	786,208	-0,045	0,090
-622,649	-200,000	0,004	-0,078
-621,634	206,273	0,122	-0,137
-620,619	221,006	-0,109	-0,126
-619,605	-68,443	-0,019	-0,005
-618,590	33,324	0,068	0,042
-617,576	78,479	-0,092	-0,071
-616,561	-200,000	0,004	-0,039
-615,546	-155,840	-0,175	-0,008
-614,532	30,351	-0,064	0,039
-613,517	-200,000	-0,037	-0,126
-612,503	-200,000	0,033	-0,141
-611,488	81,782	0,064	0,050
-610,474	44,644	-0,059	0,039
-609,459	129,574	-0,055	-0,051
-608,444	659,962	0,039	-0,072
-607,430	-200,000	0,018	-0,061
-606,415	200,821	-0,051	-0,056
-605,401	-35,785	0,058	-0,023
-604,386	-200,000	0,044	0,159
-603,371	681,063	-0,011	0,021
-602,357	-51,404	0,071	-0,024
-601,342	800,000	-0,051	0,143
-600,328	800,000	0,017	-0,053
-599,313	800,000	-0,042	-0,097
-598,298	800,000	0,039	-0,078
-597,284	-200,000	0,000	-0,048
-596,269	22,205	0,087	0,051
-595,255	1,895	0,032	0,017
-594,240	431,472	0,042	-0,065
-593,225	-69,409	-0,144	-0,040
-592,211	-200,000	-0,036	-0,174
-591,196	-51,864	-0,091	0,030
-590,182	-189,606	0,065	0,001
-589,167	147,692	0,049	0,048
-588,152	308,210	-0,031	0,042
-587,138	201,262	-0,052	0,058
-586,123	-137,720	-0,053	-0,004
-585,109	800,000	0,055	-0,149
-584,094	99,709	0,079	-0,066
-583,079	800,000	0,005	0,014
-582,065	12,807	0,139	0,077
-581,050	14,166	0,103	0,058
-580,036	-165,131	0,035	-0,001
-579,021	196,726	0,020	-0,022
-578,006	-161,246	-0,194	-0,007
-576,992	-118,443	-0,092	0,012
-575,977	-116,226	0,070	-0,009
-574,963	40,792	-0,168	0,109
-573,948	33,321	-0,078	-0,049
-572,934	63,618	0,136	-0,098
-571,919	-79,275	-0,123	0,030
-570,904	41,888	-0,090	-0,059
-569,890	-200,000	0,001	0,050
-568,875	-200,000	0,014	0,172
-567,861	-17,119	0,111	0,050
-566,846	710,691	-0,050	0,095
-565,831	-200,000	-0,004	0,039
-564,817	-200,000	-0,001	-0,070
-563,802	-200,000	0,012	0,041
-562,788	-200,000	0,012	0,097
-561,773	-200,000	0,001	-0,092
-560,758	15,311	0,033	-0,019
-559,744	135,236	0,030	0,028
-558,729	130,623	0,032	0,030
-557,715	291,855	-0,055	0,072
-556,700	-138,918	0,124	-0,010
-555,685	-200,000	-0,007	-0,046
-554,671	-71,713	0,050	0,013
-553,656	-200,000	-0,002	0,054
-552,642	378,231	0,016	-0,023
-551,627	46,953	-0,052	-0,035
-550,612	80,085	-0,063	-0,049
-549,598	145,386	-0,108	0,105
-548,583	296,580	-0,036	0,047
-547,569	-200,000	0,023	0,078
-546,554	-200,000	-0,007	-0,027
-545,539	-76,506	-0,099	-0,025
-544,525	-200,000	-0,006	0,124
-543,510	-200,000	-0,004	0,045
-542,496	-72,205	-0,180	0,048
-541,481	-200,000	-0,017	-0,154
-540,466	81,136	-0,124	0,096
-539,452	-90,728	-0,169	0,035
-538,437	72,744	-0,042	-0,031
-537,423	168,785	0,116	0,119
-536,408	-74,873	-0,053	0,014
-535,393	-157,095	0,125	0,005
-534,379	122,630	0,073	-0,065
-533,364	164,504	-0,058	-0,059
-532,350	-200,000	-0,019	0,063
-531,335	-130,087	0,131	0,013
-530,321	-200,000	-0,006	0,078
-529,306	-52,605	-0,155	-0,051
-528,291	-200,000	-0,003	0,085
-527,277	178,816	0,082	-0,086
-526,262	800,000	0,033	-0,089
-525,248	3,216	-0,038	-0,020
-524,233	74,941	0,089	0,067
-523,218	239,655	0,082	-0,098
-522,204	-200,000	-0,014	0,086
-521,189	139,394	-0,044	-0,042
-520,175	679,410	-0,023	-0,042
-519,160	146,696	0,093	0,089
-518,145	-200,000	0,021	0,107
-517,131	34,473	0,083	0,052
-516,116	267,131	-0,062	-0,078
-515,102	498,720	0,105	-0,174
-514,087	-173,334	0,046	-0,001
-513,072	800,000	-0,018	-0,057
-512,058	800,000	0,030	0,086
-511,043	-47,627	-0,032	-0,011
-510,029	800,000	-0,060	0,142
-509,014	550,280	-0,079	-0,137
-507,999	-200,000	0,002	-0,088
-506,985	372,915	-0,096	0,140
-505,970	578,338	-0,042	-0,075
-504,956	32,481	0,040	-0,025
-503,941	171,784	-0,061	0,063
-502,926	-82,701	0,131	0,030
-501,912	-200,000	-0,035	0,149
-500,897	-94,181	-0,041	-0,008
-499,883	-200,000	-0,019	-0,124
-498,868	573,581	-0,020	0,035
-497,853	14,114	-0,107	-0,060
-496,839	-132,465	0,074	-0,007
-495,824	-200,000	-0,017	-0,114
-494,810	-74,101	-0,074	0,019
-493,795	37,654	0,042	-0,027
-492,781	69,980	-0,038	-0,028
-491,766	187,201	0,068	-0,073
-490,751	-59,896	-0,127	0,039
-489,737	-35,494	-0,073	-0,028
-488,722	-54,487	0,175	0,056
-487,708	-7,924	-0,169	0,082
-486,693	3,917	-0,121	0,063
-485,678	-192,734	-0,065	0,000
-484,664	494,593	-0,053	-0,087
-483,649	118,634	0,007	0,006
-482,635	800,000	0,030	-0,061
-481,620	-72,235	-0,163	0,043
-480,605	800,000	0,024	0,063
-479,591	724,883	-0,010	-0,019
-478,576	227,071	-0,017	-0,020
-477,562	435,310	0,025	-0,039
-476,547	-200,000	0,023	0,114
-475,532	121,449	-0,109	0,098
-474,518	-200,000	-0,016	-0,077
-473,503	555,557	0,097	0,168
-472,489	-200,000	0,003	0,034
-471,474	-200,000	-0,021	0,100
-470,459	15,127	-0,101	-0,056
-469,445	81,778	-0,003	0,002
-468,430	513,893	0,004	-0,006
-467,416	155,456	0,081	0,080
-466,401	343,036	0,066	0,094
-465,386	210,578	0,063	0,071
-464,372	800,000	-0,047	-0,119
-463,357	-153,735	-0,054	-0,003
-462,343	59,840	-0,137	-0,097
-461,328	-74,294	-0,079	0,020
-460,313	-62,111	0,121	-0,036
-459,299	129,250	0,093	0,085
-458,284	-21,573	-0,129	0,056
-457,270	-200,000	0,011	-0,115
-456,255	-64,652	-0,091	-0,026
-455,241	800,000	-0,032	-0,094
-454,226	-200,000	0,036	0,144
-453,211	27,880	0,069	0,041
-452,197	-148,866	0,120	-0,007
-451,182	576,562	-0,105	0,184
-450,168	589,481	0,064	0,113
-449,153	800,000	0,024	-0,055
-448,138	481,745	0,101	-0,165
-447,124	666,130	0,044	0,081
-446,109	622,084	-0,049	-0,090
-445,095	-200,000	0,019	-0,066
-444,080	135,537	0,093	0,087
-443,065	-19,448	-0,058	0,025
-442,051	-77,088	-0,064	-0,016
-441,036	-200,000	0,010	-0,095
-440,022	139,912	-0,088	-0,083
-439,007	-56,230	0,074	0,024
-437,992	-200,000	0,003	0,104
-436,978	349,031	0,095	-0,135
-435,963	-200,000	0,011	0,058
-434,949	800,000	-0,025	-0,073
-433,934	-32,103	0,084	0,033
-432,919	-200,000	-0,032	-0,156
-431,905	800,000	-0,022	0,053
-430,890	-200,000	-0,005	0,112
-429,876	162,143	0,076	0,077
-428,861	-200,000	-0,006	0,020
-427,846	269,631	0,080	0,100
-426,832	103,001	-0,036	0,031
-425,817	578,688	-0,031	-0,055
-424,803	65,323	0,050	-0,036
-423,788	-114,264	0,113	-0,015
-422,773	-58,630	0,103	0,032
-421,759	-200,000	-0,020	-0,115
-420,744	-84,960	-0,160	0,036
-419,730	79,010	0,038	0,029
-418,715	12,547	-0,087	0,048
-417,701	-54,868	0,072	-0,023
-416,686	13,541	0,072	-0,040
-415,671	-43,394	0,101	-0,036
-414,657	469,910	-0,110	0,178
-413,642	800,000	-0,023	0,052
-412,628	6,621	-0,128	0,068
-411,613	800,000	0,023	0,064
-410,598	33,110	0,014	-0,009
-409,584	471,426	-0,091	-0,148
-408,569	-178,982	0,040	0,001
-407,555	-200,000	-0,030	0,116
-406,540	16,111	-0,018	0,010
-405,525	-200,000	-0,008	-0,046
-404,511	-61,008	0,102	0,031
-403,496	-124,731	-0,123	0,013
-402,482	-111,174	0,102	-0,015
-401,467	-200,000	0,002	0,084
-400,452	-63,112	0,141	0,041
-399,438	417,223	0,024	0,037
-398,423	135,347	0,040	0,037
-397,409	-200,000	-0,003	-0,191
-396,394	-78,404	-0,006	-0,002
-395,379	361,550	0,046	0,066
-394,365	-200,000	-0,017	0,000
-393,350	-200,000	0,006	0,028
-392,336	800,000	0,030	0,072
-391,321	800,000	0,016	0,045
-390,306	-133,649	-0,207	-0,018
-389,292	123,236	-0,049	-0,044
-388,277	23,321	0,031	0,018
-387,263	-118,311	0,129	-0,016
-386,248	151,219	0,089	0,087
-385,233	-200,000	-0,010	0,089
-384,219	800,000	0,071	-0,145
-383,204	800,000	-0,033	-0,073
-382,190	25,675	0,074	0,044
-381,175	115,082	0,024	-0,021
-380,160	84,790	0,055	0,043
-379,146	-200,000	-0,069	0,000
-378,131	-16,906	0,142	-0,064
-377,117	-24,288	-0,084	-0,036
-376,102	-90,866	0,038	-0,008
-375,088	249,364	-0,081	0,098
-374,073	-171,101	0,051	-0,001
-373,058	-41,818	0,101	-0,037
-372,044	-200,000	0,043	0,152
-371,029	-200,000	-0,003	0,126
-370,015	800,000	-0,047	0,114
-369,000	-200,000	-0,035	-0,113
-367,985	-81,613	-0,018	-0,004
-366,971	-38,293	-0,067	0,025
-365,956	88,453	0,081	0,064
-364,942	800,000	-0,022	-0,047
-363,927	-200,000	0,005	0,037
-362,912	-200,000	0,039	0,262
-361,898	-133,109	-0,157	0,014
-360,883	41,748	-0,147	-0,095
-359,869	-18,074	-0,050	0,022
-358,854	-200,000	-0,002	0,009
-357,839	401,007	-0,072	0,108
-356,825	-200,000	0,020	0,145
-355,810	-98,162	0,100	0,018
-354,796	-200,000	-0,039	0,191
-353,781	-200,000	-0,024	-0,136
-352,766	76,802	0,015	-0,012
-351,752	-61,531	0,098	-0,029
-350,737	57,057	0,145	-0,101
-349,723	-200,000	0,036	-0,132
-348,708	-200,000	0,017	-0,082
-347,693	-175,337	0,072	0,001
-346,679	-142,333	0,100	-0,007
-345,664	-106,645	-0,187	-0,029
-344,650	-195,455	0,023	-0,000
-343,635	-77,251	0,224	-0,055
-342,620	129,705	-0,055	-0,050
-341,606	104,940	-0,109	0,092
-340,591	-13,346	-0,122	0,056
-339,577	-91,330	0,159	-0,032
-338,562	-6,557	-0,119	0,058
-337,548	219,655	0,029	-0,033
-336,533	377,601	0,086	-0,126
-335,518	800,000	-0,022	0,044
-334,504	127,643	0,095	0,086
-333,489	800,000	0,084	-0,169
-332,475	487,072	0,028	-0,045
-331,460	-76,757	-0,153	-0,038
-330,445	800,000	0,040	-0,084
-329,431	-55,857	0,130	-0,041
-328,416	-200,000	-0,035	0,129
-327,402	-75,642	-0,144	0,036
-326,387	92,162	-0,090	0,072
-325,372	591,375	0,012	0,022
-324,358	350,912	0,023	-0,033
-323,343	201,536	-0,158	0,174
-322,329	-200,000	0,002	-0,058
-321,314	800,000	0,015	-0,040
-320,299	-170,398	0,097	0,002
-319,285	-111,245	-0,040	0,006
-318,270	-200,000	-0,019	0,113
-317,256	416,629	-0,034	0,052
-316,241	-155,748	-0,195	0,009
-315,226	65,453	0,173	-0,124
-314,212	-200,000	0,029	0,150
-313,197	426,836	0,064	0,099
-312,183	-14,398	0,107	0,049
-311,168	-200,000	0,005	-0,029
-310,153	118,578	0,083	0,073
-309,139	-200,000	-0,016	0,072
-308,124	213,318	-0,064	0,072
-307,110	214,655	0,064	0,072
-306,095	-200,000	0,012	0,088
-305,080	279,541	-0,076	-0,098
-304,066	332,233	-0,099	-0,136
-303,051	325,236	0,070	-0,095
-302,037	18,599	0,072	0,041
-301,022	-63,144	0,057	0,017
-300,008	127,600	0,082	0,074
-298,993	-200,000	-0,018	-0,059
-297,978	56,860	-0,202	-0,140
-296,964	54,328	-0,022	-0,015
-295,949	-200,000	-0,038	-0,142
-294,935	-4,095	0,069	-0,034
-293,920	-109,932	0,013	-0,002
-292,905	-45,505	0,151	-0,053
-291,891	7,822	0,023	-0,012
-290,876	800,000	0,018	-0,055
-289,862	204,765	0,062	-0,069
-288,847	-14,154	-0,044	0,020
-287,832	24,762	-0,131	-0,077
-286,818	-200,000	-0,003	0,065
-285,803	-200,000	-0,017	-0,073
-284,789	298,192	-0,085	0,111
-283,774	130,516	-0,046	0,042
-282,759	126,593	0,072	-0,065
-281,745	-60,848	-0,159	0,048
-280,730	-57,662	0,071	0,022
-279,716	-200,000	-0,021	-0,081
-278,701	-5,002	0,095	0,046
-277,686	-0,233	0,162	0,082
-276,672	-155,748	0,124	-0,006
-275,657	18,361	-0,083	0,047
-274,643	-80,069	-0,223	-0,053
-273,628	52,315	-0,084	0,057
-272,613	-200,000	-0,009	0,055
-271,599	720,223	0,037	0,070
-270,584	-71,276	-0,043	0,011
-269,570	199,267	0,105	0,115
-268,555	220,970	-0,108	0,124
-267,540	800,000	-0,033	-0,087
-266,526	-153,690	-0,051	0,002
-265,511	-200,000	0,040	-0,161
-264,497	-44,138	0,069	-0,024
-263,482	-200,000	-0,001	-0,017
-262,467	99,412	0,080	-0,066
-261,453	-200,000	-0,010	0,135
-260,438	-200,000	-0,019	-0,134
-259,424	-200,000	-0,017	0,075
-258,409	-50,482	-0,023	-0,008
-257,395	-120,263	0,075	-0,009
-256,380	12,249	0,094	-0,051
-255,365	-46,982	0,046	-0,016
-254,351	-200,000	0,011	-0,100
-253,336	130,510	-0,041	-0,037
-252,322	51,433	-0,018	-0,012
-251,307	50,967	-0,107	-0,072
-250,292	800,000	0,049	-0,134
-249,278	800,000	0,049	-0,101
-248,263	-200,000	0,014	0,049
-247,249	-63,509	0,170	0,049
-246,234	-30,206	0,121	-0,049
-245,219	28,269	0,050	0,030
-244,205	-200,000	0,019	-0,097
-243,190	-130,783	0,100	-0,009
-242,176	-148,073	0,044	0,003
-241,161	202,103	-0,023	0,025
-240,146	-200,000	-0,015	-0,103
-239,132	627,626	0,030	0,054
-238,117	-200,000	-0,014	-0,139
-237,103	-200,000	0,029	-0,096
-236,088	256,772	-0,124	-0,152
-235,073	523,409	-0,034	0,057
-234,059	446,438	0,024	0,038
-233,044	800,000	0,068	0,152
-232,030	301,144	0,076	0,100
-231,015	-0,140	-0,279	-0,141
-230,000	303,924	0,025	0,032
-228,986	583,812	0,037	-0,065
-227,971	800,000	-0,032	-0,074
-226,957	85,175	0,135	0,105
-225,942	-119,626	0,061	0,007
-224,927	-128,805	0,102	-0,010
-223,913	800,000	0,033	-0,066
-222,898	800,000	0,043	-0,112
-221,884	-38,017	0,141	0,053
-220,869	-101,210	-0,099	-0,017
-219,855	-200,000	-0,030	-0,162
-218,840	51,177	0,103	-0,069
-217,825	-200,000	-0,007	0,039
-216,811	25,791	-0,099	0,058
-215,796	-200,000	-0,015	0,075
-214,782	-200,000	-0,021	-0,110
-213,767	800,000	-0,084	0,186
-212,752	-200,000	0,005	0,210
-211,738	634,839	0,072	0,130
-210,723	-24,329	-0,023	0,010
-209,709	-88,706	0,139	-0,029
-208,694	-72,383	0,044	-0,011
-207,679	800,000	-0,038	-0,097
-206,665	-53,125	0,045	-0,015
-205,650	110,025	-0,159	0,136
-204,636	-200,000	-0,001	0,230
-203,621	32,244	0,073	0,044
-202,606	173,342	-0,060	0,062
-201,592	-85,844	-0,072	-0,016
-200,577	183,789	-0,056	0,059
-199,563	181,918	0,036	-0,038
-198,548	-138,215	0,135	-0,010
-197,533	-185,902	0,040	0,000
-196,519	-41,086	0,029	0,010
-195,504	-170,121	0,066	-0,002
-194,490	172,950	-0,092	-0,095
-193,475	263,192	0,075	-0,092
-192,460	459,873	-0,051	-0,081
-191,446	-200,000	-0,022	-0,152
-190,431	-200,000	0,050	0,175
-189,417	800,000	0,025	0,065
-188,402	-80,509	0,101	0,024
-187,387	-200,000	0,000	-0,054
-186,373	-138,469	-0,098	-0,008
-185,358	356,624	0,042	0,059
-184,344	62,094	0,072	0,051
-183,329	-24,962	0,089	-0,037
-182,315	-200,000	-0,018	-0,080
-181,300	-200,000	-0,004	-0,055
-180,285	-65,882	0,077	0,022
-179,271	-85,887	-0,046	0,010
-178,256	212,457	0,050	-0,056
-177,242	-130,877	-0,055	0,005
-176,227	-200,000	0,049	0,165
-175,212	13,776	0,089	-0,049
-174,198	753,007	-0,090	0,172
-173,183	89,722	-0,026	0,021
-172,169	-200,000	-0,044	-0,252
-171,154	800,000	0,114	-0,230
-170,139	-60,548	0,112	-0,033
-169,125	-200,000	-0,015	0,080
-168,110	-22,867	0,104	0,044
-167,096	-1,158	0,033	-0,017
-166,081	-200,000	0,009	-0,081
-165,066	800,000	-0,074	-0,156
-164,052	212,500	0,069	0,077
-163,037	-200,000	0,014	-0,060
-162,023	800,000	0,050	-0,107
-161,008	-200,000	0,020	-0,088
-159,993	428,281	-0,055	0,084
-158,979	-97,882	-0,180	0,033
-157,964	728,659	0,057	-0,109
-156,950	800,000	-0,030	-0,068
-155,935	-184,013	-0,139	0,002
-154,920	-200,000	0,061	0,212
-153,906	-200,000	-0,006	0,025
-152,891	-127,993	-0,163	0,016
-151,877	-200,000	0,004	0,057
-150,862	-200,000	0,003	0,055
-149,847	-99,552	0,005	0,001
-148,833	-17,392	0,137	0,061
-147,818	90,763	0,063	0,050
-146,804	40,412	0,125	-0,079
-145,789	-200,000	-0,027	0,179
-144,775	373,708	0,054	0,078
-143,760	736,116	-0,096	-0,184
-142,745	-200,000	-0,004	-0,253
-141,731	800,000	-0,010	0,026
-140,716	39,191	0,090	0,057
-139,702	178,869	-0,104	-0,108
-138,687	-139,432	-0,125	0,009
-137,672	800,000	-0,007	-0,018
-136,658	-185,200	-0,049	0,001
-135,643	-200,000	0,006	-0,059
-134,629	800,000	-0,023	0,046
-133,614	416,573	0,013	-0,020
-132,599	-200,000	-0,003	0,089
-131,585	323,549	0,103	0,139
-130,570	-0,895	0,011	0,005
-129,556	-200,000	0,020	0,067
-128,541	-114,761	-0,100	0,013
-127,526	-200,000	0,022	0,124
-126,512	-34,518	0,081	0,031
-125,497	-186,478	-0,032	0,000
-124,483	97,549	0,007	-0,005
-123,468	5,246	0,065	0,034
-122,453	-200,000	0,014	-0,084
-121,439	361,482	-0,032	-0,046
-120,424	169,257	-0,086	0,087
-119,410	112,575	0,074	-0,064
-118,395	800,000	-0,087	0,194
-117,380	-200,000	-0,019	0,062
-116,366	-93,804	-0,088	0,017
-115,351	-58,044	0,030	0,009
-114,337	222,079	-0,007	0,008
-113,322	-200,000	0,013	0,049
-112,307	-200,000	-0,019	-0,116
-111,293	30,314	0,143	-0,086
-110,278	-200,000	0,002	0,128
-109,264	800,000	0,031	0,090
-108,249	764,808	0,007	0,014
-107,234	417,006	0,051	-0,077
-106,220	-200,000	0,045	-0,172
-105,205	171,834	0,129	0,131
-104,191	105,185	-0,125	0,104
-103,176	470,793	0,056	0,089
-102,162	-200,000	-0,003	-0,034
-101,147	303,392	-0,076	-0,100
-100,132	800,000	0,015	-0,039
-99,118	800,000	-0,041	-0,099
-98,103	800,000	-0,012	-0,026
-97,089	84,863	0,088	-0,068
-96,074	359,334	0,083	0,117
-95,059	67,441	-0,031	-0,022
-94,045	-24,718	0,106	-0,044
-93,030	495,386	-0,051	-0,082
-92,016	50,734	-0,150	-0,100
-91,001	-113,886	-0,084	-0,011
-89,986	800,000	0,039	-0,102
-88,972	3,571	0,095	0,049
-87,957	162,981	0,094	0,094
-86,943	-200,000	0,013	0,074
-85,928	213,236	-0,066	-0,074
-84,913	-200,000	0,002	0,127
-83,899	-151,867	-0,032	-0,002
-82,884	193,559	0,163	0,174
-81,870	800,000	0,018	-0,047
-80,855	-29,854	-0,029	-0,012
-79,840	-200,000	-0,022	0,094
-78,826	373,219	-0,034	0,050
-77,811	-200,000	-0,024	-0,099
-76,797	-200,000	-0,010	-0,086
-75,782	46,593	0,083	0,054
-74,767	-60,213	0,087	0,026
-73,753	232,823	-0,097	0,112
-72,738	32,695	-0,024	0,015
-71,724	-146,962	-0,176	-0,010
-70,709	-62,207	-0,071	-0,021
-69,694	-200,000	-0,039	-0,130
-68,680	-200,000	0,021	-0,173
-67,665	534,625	0,028	0,047
-66,651	-110,076	0,073	-0,011
-65,636	-160,126	0,107	-0,004
-64,622	-1,019	0,039	-0,020
-63,607	-173,289	-0,050	0,001
-62,592	-77,219	-0,070	-0,017
-61,578	24,972	0,034	-0,020
-60,563	-200,000	0,018	0,126
-59,549	800,000	-0,027	0,071
-58,534	34,517	-2,018	-1,242
-57,519	422,669	-1,217	-1,851
-56,505	-200,000	-0,227	-4,397
-55,490	512,240	1,004	1,656
-54,476	800,000	5,048	11,215
-53,461	-200,000	21,681	343,560
-52,446	800,000	762,963	2353,893
-51,432	551,574	1662,546	2827,645
-50,417	72,085	1658,511	1216,906
-49,403	17,438	1531,950	856,390
-48,388	11,436	1455,900	784,887
-47,373	19,399	1447,459	818,464
-46,359	14,985	1436,480	791,269
-45,344	9,712	1432,343	763,884
-44,330	9,635	1430,447	762,479
-43,315	9,650	1428,674	761,573
-42,300	9,664	1426,652	760,532
-41,286	9,690	1425,522	760,022
-40,271	9,629	1424,505	759,163
-39,257	9,615	1423,449	758,503
-38,242	9,680	1422,036	758,025
-37,227	9,691	1421,117	757,560
-36,213	9,656	1419,734	756,628
-35,198	9,699	1418,605	756,197
-34,184	9,723	1417,640	755,767
-33,169	9,635	1416,051	754,473
-32,154	9,646	1415,438	754,170
-31,140	9,715	1413,833	753,609
-30,125	9,710	1412,755	752,980
-29,111	9,701	1411,695	752,342
-28,096	9,668	1410,540	751,545
-27,082	9,659	1409,126	750,719
-26,067	9,590	1408,498	750,032
-25,052	9,613	1407,207	749,420
-24,038	9,658	1406,095	749,008
-23,023	9,652	1405,548	748,662
-22,009	9,630	1404,350	747,889
-20,994	9,613	1403,321	747,232
-19,979	9,629	1402,298	746,733
-18,965	9,635	1401,412	746,258
-17,950	9,587	1400,627	745,589
-16,936	9,560	1399,641	744,910
-15,921	9,531	1398,787	744,291
-14,906	9,542	1397,793	743,783
-13,892	9,567	1396,924	743,406
-12,877	9,554	1395,859	742,751
-11,863	9,511	1395,424	742,287
-10,848	9,497	1394,442	741,671
-9,833	9,464	1393,390	740,931
-8,819	9,484	1392,503	740,521
-7,804	9,475	1391,699	740,021
-6,790	9,485	1390,535	739,419
-5,775	9,466	1389,514	738,760
-4,760	9,473	1388,457	738,205
-3,746	9,474	1387,728	737,790
-2,731	9,462	1386,776	737,201
-1,717	9,441	1385,874	736,592
-0,702	9,442	1384,148	735,653
0,313	13,438	1296,552	707,347
1,327	29,323	687,492	410,960
2,342	45,506	118,727	77,169
3,356	2,328	16,363	8,319
4,371	0,566	3,577	1,797
5,386	15,490	1,199	0,662
6,400	800,000	0,183	0,524
7,415	68,310	-0,120	-0,087
8,429	16,179	-0,252	-0,140
9,444	40,395	-0,426	-0,269
10,459	415,430	-0,172	-0,259
11,473	-34,604	-0,340	-0,130
12,488	-35,773	-0,325	-0,123
13,502	-9,039	-0,341	-0,160
14,517	-45,045	-0,416	-0,145
15,531	53,138	-0,344	-0,232
16,546	127,035	-0,333	-0,298
17,561	73,542	-0,393	-0,289
18,575	800,000	-0,053	0,111
19,590	369,396	-0,166	-0,237
20,604	65,668	-0,290	-0,206
21,619	98,976	-0,445	-0,362
22,634	234,940	-0,343	-0,400
23,648	76,167	-0,471	-0,351
24,663	5,799	-0,403	-0,209
25,677	169,300	-0,363	-0,365
26,692	546,990	-0,222	-0,375
27,707	61,423	-0,382	-0,267
28,721	103,221	-0,472	-0,389
29,736	179,681	-0,390	-0,402
30,750	147,486	-0,339	-0,321
31,765	105,535	-0,300	-0,249
32,780	71,113	-0,394	-0,287
33,794	-58,469	-0,305	-0,093
34,809	84,272	-0,328	-0,252
35,823	-2,527	-0,457	-0,224
36,838	87,103	-0,409	-0,318
37,853	228,972	-0,392	-0,450
38,867	92,742	-0,389	-0,308
39,882	64,232	-0,283	-0,200
40,896	150,259	-0,277	-0,264
41,911	-1,246	-0,476	-0,236
42,926	105,125	-0,408	-0,338
43,940	154,894	-0,355	-0,343
44,955	99,707	-0,432	-0,351
45,969	88,155	-0,331	-0,258
46,984	71,343	-0,241	-0,176
47,999	235,732	-0,243	-0,282
49,013	-0,515	-0,218	-0,108
50,028	-21,123	-0,334	-0,143
51,042	-17,205	-0,420	-0,185
52,057	308,485	-0,320	-0,421
53,071	109,453	-0,351	-0,295
54,086	177,625	-0,277	-0,284
55,101	142,931	-0,258	-0,241
56,115	-78,796	-0,266	-0,063
57,130	-105,670	-0,402	-0,063
58,144	31,424	-0,377	-0,227
59,159	54,853	-0,366	-0,248
60,174	153,911	-0,309	-0,298
61,188	321,287	-0,274	-0,366
62,203	-65,182	-0,313	-0,088
63,217	223,453	-0,274	-0,310
64,232	-66,743	-0,374	-0,103
65,247	132,231	-0,269	-0,243
66,261	91,326	-0,279	-0,219
67,276	243,203	-0,213	-0,251
68,290	-102,252	-0,381	-0,064
69,305	-71,353	-0,253	-0,066
70,320	207,143	-0,215	-0,235
71,334	89,734	-0,199	-0,156
72,349	-151,161	-0,340	0,018
73,363	59,986	-0,288	-0,199
74,378	18,880	-0,286	-0,160
75,393	240,631	-0,249	-0,292
76,407	30,475	-0,438	-0,262
77,422	-62,157	-0,304	-0,088
78,436	488,760	-0,211	-0,339
79,451	-38,071	-0,288	-0,106
80,466	-80,027	-0,355	-0,083
81,480	116,364	-0,304	-0,261
82,495	20,583	-0,328	-0,185
83,509	-26,986	-0,210	-0,086
84,524	146,359	-0,286	-0,269
85,539	221,501	-0,218	-0,246
86,553	-34,668	-0,309	-0,118
87,568	71,747	-0,320	-0,232
88,582	52,261	-0,198	-0,132
89,597	23,064	-0,277	-0,159
90,611	87,144	-0,223	-0,172
91,626	2,929	-0,346	-0,175
92,641	-120,841	-0,288	-0,034
93,655	199,661	-0,262	-0,282
94,670	107,041	-0,300	-0,249
95,684	-1,001	-0,328	-0,162
96,699	-26,841	-0,356	-0,145
97,714	64,120	-0,279	-0,196
98,728	33,713	-0,273	-0,166
99,743	-70,629	-0,266	-0,070
100,757	123,959	-0,178	-0,157
101,772	87,313	-0,297	-0,230
102,787	61,533	-0,384	-0,267
103,801	110,568	-0,270	-0,227
104,816	398,108	-0,148	-0,217
105,830	-50,692	-0,097	-0,032
106,845	9,145	-0,300	-0,158
107,860	177,272	-0,233	-0,237
108,874	231,810	-0,286	-0,329
109,889	43,924	-0,271	-0,173
110,903	62,489	-0,323	-0,225
111,918	57,231	-0,275	-0,187
112,933	133,892	-0,116	-0,105
113,947	-46,806	-0,252	-0,086
114,962	-168,508	-0,162	-0,004
115,976	109,966	-0,184	-0,154
116,991	23,006	-0,184	-0,105
118,006	82,124	-0,271	-0,205
119,020	-42,373	-0,231	-0,082
120,035	-87,250	-0,375	-0,079
121,049	-13,979	-0,332	-0,149
122,064	-92,158	-0,307	-0,060
123,079	-122,837	-0,246	-0,027
124,093	381,377	-0,191	-0,275
125,108	152,266	-0,249	-0,237
126,122	62,658	-0,365	-0,254
127,137	-144,677	-0,140	0,009
128,151	60,680	-0,153	-0,106
129,166	193,186	-0,256	-0,270
130,181	64,949	-0,268	-0,189
131,195	-22,332	-0,234	-0,099
132,210	115,406	-0,304	-0,259
133,224	31,395	-0,241	-0,144
134,239	45,734	-0,184	-0,119
135,254	126,784	-0,143	-0,126
136,268	93,133	-0,227	-0,179
137,283	-31,829	-0,254	-0,099
138,297	65,771	-0,251	-0,177
139,312	219,301	-0,302	-0,337
140,327	112,281	-0,228	-0,192
141,341	115,106	-0,251	-0,213
142,356	-8,163	-0,365	-0,171
143,370	-11,985	-0,266	-0,121
144,385	80,503	-0,209	-0,157
145,400	95,205	-0,290	-0,230
146,414	49,223	-0,387	-0,253
147,429	394,604	-0,147	-0,214
148,443	209,315	-0,198	-0,216
149,458	-41,267	-0,222	-0,079
150,473	78,510	-0,109	-0,081
151,487	-151,254	-0,166	0,009
152,502	36,789	-0,268	-0,164
153,516	45,529	-0,330	-0,212
154,531	106,365	-0,355	-0,292
155,546	102,282	-0,149	-0,121
156,560	-73,712	-0,174	0,044
157,575	-75,432	-0,279	-0,069
158,589	76,190	-0,247	-0,182
159,604	49,212	-0,279	-0,182
160,619	94,443	-0,233	-0,184
161,633	37,835	-0,251	-0,155
162,648	451,273	-0,223	-0,344
163,662	-200,000	-0,010	-0,089
164,677	220,672	-0,124	-0,139
165,692	35,068	-0,237	-0,144
166,706	208,891	-0,205	-0,223
167,721	51,071	-0,253	-0,166
168,735	778,244	-0,141	-0,269
169,750	213,391	-0,171	-0,188
170,764	321,467	-0,167	-0,222
171,779	-59,823	-0,150	-0,044
172,794	104,423	-0,154	-0,126
173,808	195,300	-0,185	-0,195
174,823	788,185	-0,140	-0,269
175,837	-6,220	-0,323	-0,153
176,852	98,709	-0,206	-0,165
177,867	446,542	-0,125	-0,191
178,881	195,472	-0,144	-0,152
179,896	-122,405	-0,383	-0,043
180,910	11,337	-0,227	-0,120
181,925	36,058	-0,257	-0,157
182,940	-20,947	-0,145	-0,061
183,954	-163,171	-0,151	0,005
184,969	23,331	-0,157	-0,089
185,983	-10,698	-0,066	-0,030
186,998	28,986	-0,219	-0,128
188,013	196,376	-0,109	-0,115
189,027	125,163	-0,216	-0,189
190,042	164,238	-0,235	-0,230
191,056	389,178	-0,148	-0,213
192,071	30,722	-0,253	-0,150
193,086	224,210	-0,149	-0,167
194,100	-136,192	-0,217	0,017
195,115	18,445	-0,214	-0,118
196,129	121,355	-0,207	-0,179
197,144	329,829	-0,174	-0,232
198,159	137,482	-0,260	-0,236
199,173	221,956	-0,201	-0,224
200,188	-129,939	-0,127	0,012
201,202	34,275	-0,274	-0,165
202,217	65,114	-0,217	-0,152
203,232	-200,000	0,025	-0,145
204,246	-16,893	-0,232	-0,101
205,261	238,213	-0,207	-0,239
206,275	160,206	-0,246	-0,237
207,290	359,742	-0,181	-0,252
208,304	-12,625	-0,191	-0,086
209,319	128,144	-0,177	-0,156
210,334	-200,000	-0,063	-0,226
211,348	236,026	-0,218	-0,250
212,363	361,567	-0,106	-0,148
213,377	-90,541	-0,307	-0,061
214,392	-104,426	-0,147	-0,023
215,407	304,333	-0,139	-0,179
216,421	174,386	-0,134	-0,134
217,436	-88,445	-0,247	-0,051
218,450	158,982	-0,204	-0,196
219,465	234,669	-0,155	-0,177
220,480	-37,754	-0,320	-0,117
221,494	174,142	-0,258	-0,258
222,509	-131,036	-0,031	-0,003
223,523	16,690	-0,178	-0,097
224,538	193,918	-0,209	-0,219
225,553	480,236	-0,205	-0,323
226,567	800,000	-0,136	-0,279
227,582	37,898	-0,336	-0,206
228,596	-11,018	-0,133	-0,060
229,611	-135,404	-0,183	0,015
230,626	31,180	-0,112	-0,066
231,640	-35,071	-0,086	-0,032
232,655	83,962	-0,330	-0,249
233,669	305,823	-0,106	-0,137
234,684	58,872	-0,062	-0,042
235,699	52,776	-0,129	-0,085
236,713	49,714	-0,267	-0,174
237,728	-164,602	-0,123	0,004
238,742	77,311	-0,130	-0,095
239,757	-19,032	-0,209	-0,089
240,772	172,945	-0,172	-0,171
241,786	277,574	-0,159	-0,196
242,801	290,719	-0,164	-0,206
243,815	405,043	-0,162	-0,236
244,830	65,661	-0,184	-0,129
245,844	31,274	-0,147	-0,087
246,859	126,146	-0,239	-0,208
247,874	800,000	-0,122	-0,277
248,888	117,852	-0,060	-0,051
249,903	-10,513	-0,210	-0,095
250,917	91,088	-0,106	-0,082
251,932	704,278	-0,038	-0,069
252,947	-35,588	-0,246	-0,092
253,961	-65,121	-0,216	-0,060
254,976	-62,192	-0,142	-0,041
255,990	148,327	-0,159	-0,148
257,005	60,931	-0,227	-0,155
258,020	194,292	-0,171	-0,179
259,034	161,594	-0,184	-0,177
260,049	24,662	-0,117	-0,067
261,063	-76,425	-0,132	0,032
262,078	239,364	-0,145	-0,167
263,093	248,609	-0,167	-0,195
264,107	-13,852	-0,133	-0,059
265,122	17,913	-0,228	-0,125
266,136	446,254	-0,099	-0,151
267,151	29,330	-0,249	0,146
268,166	800,000	-0,066	-0,198
269,180	-200,000	-0,014	-0,190
270,195	-72,385	-0,176	-0,045
271,209	241,405	-0,175	-0,202
272,224	-160,325	-0,130	0,005
273,239	-101,581	-0,274	-0,045
274,253	127,601	-0,114	-0,100
275,268	-67,973	-0,277	-0,074
276,282	746,895	-0,097	-0,182
277,297	-200,000	-0,041	-0,181
278,312	-53,274	-0,140	0,044
279,326	-200,000	-0,011	-0,128
280,341	337,425	-0,137	-0,183
281,355	-1,072	-0,130	-0,063
282,370	291,951	-0,081	-0,102
283,384	76,823	-0,138	-0,101
284,399	174,622	-0,207	-0,206
285,414	157,572	-0,137	-0,130
286,428	164,331	-0,122	-0,118
287,443	310,265	-0,144	-0,186
288,457	191,384	-0,100	-0,104
289,472	40,720	-0,030	0,019
290,487	15,653	-0,280	-0,151
291,501	249,865	-0,133	-0,155
292,516	800,000	-0,114	-0,267
293,530	444,576	-0,108	-0,164
294,545	-69,251	-0,069	0,018
295,560	139,603	-0,165	-0,149
296,574	411,063	-0,174	-0,254
297,589	-200,000	0,058	-0,192
298,603	-200,000	-0,045	-0,179
299,618	51,250	-0,273	-0,177
300,633	-200,000	0,033	-0,140
301,647	-119,622	-0,073	-0,009
302,662	-74,229	-0,091	-0,022
303,676	-23,605	-0,157	-0,064
304,691	55,401	-0,185	-0,122
305,706	79,298	-0,179	-0,132
306,720	14,677	-0,148	-0,079
307,735	72,197	-0,139	-0,099
308,749	40,847	-0,057	-0,036
309,764	-8,375	-0,106	0,049
310,779	-56,741	-0,106	-0,032
311,793	32,505	-0,160	-0,095
312,808	34,891	-0,186	-0,111
313,822	-11,554	-0,202	-0,091
314,837	-149,687	-0,100	-0,005
315,852	-165,000	-0,151	0,005
316,866	253,692	-0,051	-0,060
317,881	155,039	-0,054	-0,051
318,895	305,652	-0,062	-0,079
319,910	413,975	-0,078	-0,114
320,925	38,185	-0,182	-0,111
321,939	-49,458	-0,140	0,046
322,954	-200,000	-0,041	-0,140
323,968	800,000	-0,046	-0,133
324,983	-42,524	-0,266	0,092
325,997	800,000	-0,095	-0,198
327,012	791,323	-0,067	-0,126
328,027	-45,386	-0,163	-0,055
329,041	131,095	-0,184	-0,162
330,056	136,205	-0,042	0,038
331,070	349,717	-0,086	-0,117
332,085	-200,000	0,001	-0,067
333,100	-200,000	-0,011	-0,141
334,114	52,799	-0,187	-0,122
335,129	140,803	-0,045	-0,040
336,143	-2,760	-0,177	-0,085
337,158	-126,463	-0,115	-0,012
338,173	-200,000	-0,013	-0,069
339,187	278,724	-0,076	-0,093
340,202	281,231	-0,063	-0,078
341,216	-200,000	-0,039	-0,273
342,231	230,661	-0,126	-0,142
343,246	181,872	-0,174	-0,176
344,260	-180,214	-0,124	-0,002
345,275	102,963	-0,128	-0,102
346,289	-12,937	-0,057	0,025
347,304	-52,246	-0,173	-0,054
348,319	128,163	-0,124	-0,108
349,333	800,000	-0,112	-0,265
350,348	-143,660	-0,185	0,012
351,362	131,628	-0,099	0,087
352,377	-12,806	-0,215	-0,095
353,392	800,000	-0,092	-0,241
354,406	246,407	-0,089	-0,103
355,421	207,547	1308,188	1397,710
356,435	159,670	1468,080	1398,203
