DTS Sentinel unit serial number:	SN410029Multiplexer serial number:	ORYXHardware model number:	OX2-SRSoftware version number:	ORYX F/W v4,00 Oryx Data Collector v3.7.2.0data status	okinstallation	B3 Nyhavnadifferential loss correction	single-endedforward channel	channel 1reverse channel	N/Adate	2023/12/01time	20:57:30forward acquisition time	300,00reverse acquisition time	0,00gamma	499,1914k internal	0,3197k external	0,3197temperature offset calibration	1,0000default loss term (dB/km)	0,3820temperature slope calibration	1,0000multiplexer offset coefficient	1,0000multiplexer slope coefficient	1,0000fibre end	0,00T internal ref (°C)	16,00T ext. ref 1 (°C)	1,41T ext. ref 2 (°C)	1,41length (m)	temperature (°C)	Stokes	anti-Stokes-744,400	25,814	-0,322	-0,195
-743,385	-200,000	0,050	0,287
-742,371	-200,000	-0,049	-0,198
-741,356	-200,000	0,065	0,369
-740,342	102,876	-0,193	-0,165
-739,327	-200,000	-0,034	0,376
-738,312	276,832	-0,204	-0,264
-737,298	-200,000	0,029	0,237
-736,283	110,396	-0,171	-0,150
-735,269	-200,000	0,012	0,241
-734,254	223,369	-0,194	-0,229
-733,239	57,631	-0,178	0,127
-732,225	365,424	-0,102	-0,150
-731,210	96,128	0,102	0,085
-730,196	-167,450	-0,086	0,002
-729,181	-200,000	-0,017	0,068
-728,167	-13,631	-0,040	-0,019
-727,152	-200,000	0,010	-0,053
-726,137	53,934	-0,148	0,103
-725,123	6,964	0,060	-0,033
-724,108	426,773	-0,119	-0,188
-723,094	-200,000	-0,023	-0,119
-722,079	800,000	0,035	-0,092
-721,064	325,089	0,093	-0,130
-720,050	-66,052	0,174	0,050
-719,035	136,180	-0,113	0,107
-718,021	-200,000	-0,002	-0,015
-717,006	-10,400	-0,088	-0,042
-715,991	394,934	-0,103	-0,156
-714,977	-35,127	-0,159	-0,063
-713,962	-107,639	0,043	-0,007
-712,948	-54,184	0,079	0,026
-711,933	-110,439	-0,002	0,000
-710,918	-126,295	0,057	-0,006
-709,904	800,000	-0,060	0,122
-708,889	-95,531	0,092	-0,018
-707,875	-200,000	-0,007	-0,071
-706,860	482,453	-0,075	-0,124
-705,845	-50,232	0,134	0,046
-704,831	98,307	0,048	-0,040
-703,816	-108,955	-0,082	0,013
-702,802	-143,426	-0,134	0,009
-701,787	-200,000	-0,001	-0,037
-700,772	-200,000	0,019	0,071
-699,758	106,320	0,060	0,052
-698,743	-129,701	0,124	0,012
-697,729	-200,000	0,004	0,036
-696,714	-200,000	0,002	0,082
-695,699	-153,551	0,030	0,001
-694,685	86,396	-0,084	0,067
-693,670	-200,000	-0,027	-0,110
-692,656	94,491	0,051	-0,042
-691,641	70,390	0,053	-0,039
-690,627	-200,000	-0,002	-0,138
-689,612	775,601	0,005	-0,009
-688,597	-200,000	0,008	0,063
-687,583	265,173	-0,103	-0,131
-686,568	150,477	-0,046	0,045
-685,554	-8,312	0,072	-0,035
-684,539	120,842	0,015	-0,014
-683,524	-200,000	0,016	0,098
-682,510	263,733	-0,054	-0,069
-681,495	671,987	-0,081	0,154
-680,481	-200,000	-0,046	-0,204
-679,466	-200,000	-0,006	0,055
-678,451	91,636	0,126	-0,102
-677,437	-84,031	-0,046	-0,011
-676,422	21,628	0,054	-0,032
-675,408	-81,638	0,020	0,005
-674,393	136,899	-0,043	0,041
-673,378	60,677	-0,136	0,098
-672,364	-83,276	-0,103	-0,024
-671,349	70,777	0,171	0,129
-670,335	-48,259	-0,030	-0,010
-669,320	188,086	0,133	0,144
-668,305	-33,904	-0,085	0,034
-667,291	38,546	-0,133	-0,086
-666,276	32,866	-0,057	-0,036
-665,262	-53,658	0,070	-0,023
-664,247	417,702	0,028	-0,043
-663,232	-200,000	-0,001	-0,062
-662,218	-200,000	-0,017	0,123
-661,203	-200,000	-0,018	0,083
-660,189	-200,000	-0,001	0,003
-659,174	-134,405	-0,100	-0,009
-658,159	-200,000	0,016	-0,109
-657,145	-51,910	-0,104	-0,035
-656,130	-12,445	0,137	0,065
-655,116	3,338	-0,061	-0,032
-654,101	800,000	0,042	0,124
-653,086	-55,588	-0,099	-0,032
-652,072	-93,966	0,071	-0,014
-651,057	-200,000	0,006	0,049
-650,043	-35,007	-0,106	0,042
-649,028	179,067	-0,062	0,065
-648,014	-135,173	0,129	0,011
-646,999	-57,913	0,090	0,028
-645,984	11,960	0,082	0,045
-644,970	-200,000	-0,009	0,074
-643,955	132,021	-0,063	0,059
-642,941	800,000	0,050	-0,112
-641,926	-19,382	-0,161	0,072
-640,911	-200,000	-0,022	0,199
-639,897	-138,230	0,076	0,006
-638,882	-200,000	0,006	-0,046
-637,868	63,644	0,006	0,005
-636,853	-28,795	-0,044	0,018
-635,838	244,905	0,054	-0,066
-634,824	800,000	0,027	-0,054
-633,809	63,312	0,124	0,090
-632,795	-200,000	0,010	-0,122
-631,780	-54,456	0,152	0,050
-630,765	-128,501	0,053	0,005
-629,751	-200,000	-0,008	-0,078
-628,736	108,956	-0,051	0,044
-627,722	800,000	-0,021	-0,055
-626,707	-113,983	-0,070	-0,010
-625,692	-200,000	-0,003	0,087
-624,678	-200,000	-0,013	0,082
-623,663	800,000	-0,026	-0,056
-622,649	194,151	-0,131	0,144
-621,634	441,651	0,047	-0,075
-620,619	332,280	0,028	-0,040
-619,605	-200,000	-0,007	-0,057
-618,590	0,132	-0,044	0,023
-617,576	-200,000	-0,006	0,219
-616,561	451,115	-0,056	-0,090
-615,546	-200,000	-0,002	0,067
-614,532	800,000	0,026	-0,082
-613,517	-157,163	0,030	-0,001
-612,503	-200,000	0,022	0,186
-611,488	-200,000	-0,005	0,038
-610,474	800,000	-0,036	0,088
-609,459	532,660	-0,051	0,088
-608,444	-8,044	-0,068	0,033
-607,430	-156,074	0,029	-0,001
-606,415	-200,000	0,003	0,064
-605,401	477,014	0,047	-0,078
-604,386	97,178	-0,047	0,039
-603,371	657,266	0,064	-0,119
-602,357	257,736	-0,070	0,087
-601,342	-151,272	-0,081	0,004
-600,328	670,039	0,017	-0,032
-599,313	-200,000	-0,040	-0,130
-598,298	-200,000	0,014	-0,100
-597,284	-54,857	0,023	0,007
-596,269	800,000	0,018	0,046
-595,255	32,915	0,041	-0,025
-594,240	-200,000	0,012	-0,155
-593,225	377,460	-0,065	-0,096
-592,211	702,908	-0,042	-0,080
-591,196	63,930	0,085	0,062
-590,182	183,754	0,142	-0,152
-589,167	-200,000	0,002	-0,047
-588,152	645,638	-0,033	0,061
-587,138	-200,000	0,008	0,081
-586,123	-200,000	-0,001	-0,046
-585,109	-49,032	0,037	0,013
-584,094	198,586	0,113	-0,126
-583,079	-48,965	0,112	0,039
-582,065	45,134	0,116	-0,077
-581,050	-11,851	0,099	-0,047
-580,036	62,741	-0,072	-0,052
-579,021	800,000	-0,076	-0,220
-578,006	-200,000	0,003	-0,154
-576,992	-139,865	-0,073	-0,006
-575,977	-95,537	-0,083	-0,016
-574,963	-200,000	0,016	0,072
-573,948	800,000	-0,029	-0,069
-572,934	-78,953	0,079	0,019
-571,919	7,564	-0,060	0,033
-570,904	124,709	-0,075	-0,068
-569,890	-82,284	0,101	-0,024
-568,875	800,000	0,027	0,080
-567,861	-14,974	0,047	-0,022
-566,846	52,602	-0,052	0,036
-565,831	800,000	-0,037	0,082
-564,817	499,350	-0,026	0,043
-563,802	-200,000	0,000	-0,069
-562,788	-13,834	-0,078	-0,037
-561,773	-200,000	0,006	-0,056
-560,758	-200,000	0,001	0,091
-559,744	800,000	0,004	0,010
-558,729	-30,137	-0,093	-0,038
-557,715	168,073	0,089	-0,092
-556,700	800,000	-0,052	-0,144
-555,685	473,140	-0,055	-0,090
-554,671	-96,014	0,060	-0,011
-553,656	-200,000	-0,006	-0,024
-552,642	-67,001	0,088	-0,025
-551,627	-200,000	0,011	0,140
-550,612	-200,000	-0,018	-0,088
-549,598	187,881	-0,100	0,108
-548,583	-93,501	0,036	-0,007
-547,569	96,095	-0,038	-0,032
-546,554	66,291	0,075	-0,055
-545,539	-0,595	-0,089	0,046
-544,525	-200,000	-0,002	0,074
-543,510	57,280	0,055	0,039
-542,496	800,000	-0,021	-0,066
-541,481	-200,000	0,004	-0,067
-540,466	-200,000	0,019	0,082
-539,452	514,298	-0,052	0,088
-538,437	135,250	0,050	0,047
-537,423	-21,473	-0,123	0,054
-536,408	54,273	0,031	-0,022
-535,393	-200,000	0,018	-0,059
-534,379	-200,000	0,003	0,069
-533,364	-39,710	-0,126	-0,047
-532,350	800,000	0,038	0,118
-531,335	-81,685	0,076	0,018
-530,321	72,778	0,065	0,049
-529,306	-36,924	0,065	-0,025
-528,291	800,000	-0,014	-0,035
-527,277	-83,589	0,118	-0,027
-526,262	71,819	0,075	-0,057
-525,248	-6,975	0,020	-0,010
-524,233	-200,000	-0,026	0,097
-523,218	81,460	-0,078	0,061
-522,204	-1,249	0,011	0,006
-521,189	45,519	0,083	-0,056
-520,175	-156,248	-0,111	0,005
-519,160	800,000	-0,050	-0,118
-518,145	779,089	-0,016	0,032
-517,131	189,568	0,021	0,022
-516,116	-160,362	0,096	0,004
-515,102	293,380	-0,097	-0,128
-514,087	123,307	-0,061	-0,055
-513,072	-25,170	-0,190	-0,081
-512,058	626,679	0,071	-0,129
-511,043	-90,919	-0,092	-0,019
-510,029	-64,675	0,037	0,011
-509,014	800,000	-0,020	0,044
-507,999	-122,207	-0,124	-0,014
-506,985	-13,090	0,020	-0,009
-505,970	800,000	0,020	-0,052
-504,956	-200,000	0,002	0,070
-503,941	-198,786	-0,051	0,000
-502,926	-97,999	0,112	-0,021
-501,912	-177,270	-0,032	-0,001
-500,897	-71,038	-0,044	0,012
-499,883	156,674	0,061	-0,061
-498,868	800,000	0,029	-0,073
-497,853	800,000	0,016	-0,040
-496,839	303,273	-0,042	0,057
-495,824	800,000	-0,050	-0,102
-494,810	-77,564	-0,172	0,043
-493,795	163,042	0,062	0,063
-492,781	-200,000	-0,011	-0,040
-491,766	224,829	-0,103	-0,120
-490,751	-200,000	-0,009	-0,040
-489,737	700,010	-0,039	-0,075
-488,722	350,083	-0,056	0,081
-487,708	-188,479	-0,052	-0,000
-486,693	-200,000	-0,024	0,101
-485,678	-29,260	0,088	0,036
-484,664	-200,000	0,049	-0,196
-483,649	47,754	-0,072	-0,048
-482,635	-200,000	-0,001	0,095
-481,620	-65,355	0,125	0,036
-480,605	-30,762	0,125	-0,051
-479,591	-95,956	0,070	-0,013
-478,576	-200,000	-0,042	0,151
-477,562	800,000	0,064	-0,140
-476,547	127,753	-0,012	0,011
-475,532	-98,309	0,138	0,025
-474,518	-200,000	-0,018	0,077
-473,503	20,635	0,004	-0,003
-472,489	265,977	0,039	0,049
-471,474	105,419	-0,112	-0,096
-470,459	-119,210	0,118	-0,015
-469,445	176,856	-0,103	-0,109
-468,430	-106,472	0,080	-0,013
-467,416	172,592	0,044	-0,045
-466,401	-104,540	0,066	-0,011
-465,386	269,590	-0,046	0,059
-464,372	-41,111	-0,080	0,030
-463,357	-100,021	0,024	-0,004
-462,343	209,345	-0,104	0,118
-461,328	-109,152	-0,103	-0,016
-460,313	-200,000	-0,016	0,078
-459,299	363,401	0,029	0,042
-458,284	800,000	-0,066	-0,172
-457,270	-50,152	-0,079	-0,027
-456,255	-200,000	0,015	-0,115
-455,241	800,000	-0,040	-0,107
-454,226	-200,000	-0,015	-0,167
-453,211	-78,540	-0,031	-0,008
-452,197	-69,589	0,128	0,035
-451,182	-200,000	0,012	0,150
-450,168	-71,033	0,009	0,002
-449,153	-144,814	0,025	0,002
-448,138	-111,562	-0,096	-0,014
-447,124	-200,000	0,021	-0,081
-446,109	95,593	0,097	-0,079
-445,095	113,168	-0,095	0,083
-444,080	184,288	0,022	0,024
-443,065	52,897	0,102	-0,070
-442,051	57,401	0,031	-0,022
-441,036	-25,448	-0,098	-0,041
-440,022	208,244	-0,083	-0,093
-439,007	800,000	-0,030	-0,080
-437,992	219,151	0,027	-0,031
-436,978	-157,111	-0,071	-0,003
-435,963	-200,000	0,006	-0,021
-434,949	198,320	0,035	-0,039
-433,934	-200,000	-0,014	0,088
-432,919	800,000	0,048	-0,123
-431,905	43,214	-0,037	0,024
-430,890	249,365	0,102	0,124
-429,876	-200,000	0,014	-0,092
-428,861	27,373	0,056	0,034
-427,846	-156,740	0,069	0,003
-426,832	-142,255	-0,125	0,009
-425,817	-200,000	-0,002	0,021
-424,803	332,092	0,027	-0,038
-423,788	359,193	-0,065	0,094
-422,773	-200,000	-0,007	0,105
-421,759	-5,261	-0,049	0,024
-420,744	800,000	-0,012	-0,025
-419,730	800,000	-0,069	-0,190
-418,715	247,270	-0,111	0,135
-417,701	-127,717	0,082	0,008
-416,686	-200,000	0,019	0,162
-415,671	405,999	-0,058	0,088
-414,657	202,141	0,064	0,072
-413,642	579,389	-0,012	-0,021
-412,628	-2,321	-0,119	0,060
-411,613	126,281	0,047	-0,043
-410,598	107,915	0,076	-0,065
-409,584	273,045	0,102	-0,130
-408,569	-200,000	-0,026	0,085
-407,555	96,799	0,012	0,010
-406,540	426,262	-0,075	0,116
-405,525	-200,000	-0,033	0,137
-404,511	800,000	-0,016	-0,047
-403,496	140,155	0,038	0,036
-402,482	28,973	0,034	0,021
-401,467	-126,685	0,109	0,011
-400,452	76,206	0,133	0,101
-399,438	-200,000	0,013	0,129
-398,423	-200,000	0,010	-0,060
-397,409	-118,067	-0,075	0,010
-396,394	470,111	-0,046	0,075
-395,379	263,037	0,026	-0,033
-394,365	157,423	-0,071	0,071
-393,350	54,063	0,058	-0,040
-392,336	800,000	-0,019	-0,048
-391,321	-46,747	-0,125	0,044
-390,306	800,000	0,005	-0,010
-389,292	-115,442	-0,141	-0,019
-388,277	757,704	0,037	0,073
-387,263	-93,770	0,057	0,011
-386,248	385,089	0,037	-0,056
-385,233	800,000	0,074	-0,213
-384,219	224,514	-0,037	-0,042
-383,204	254,075	-0,100	-0,123
-382,190	606,212	0,057	-0,103
-381,175	340,959	-0,034	-0,048
-380,160	-200,000	-0,006	0,041
-379,146	-150,842	-0,080	0,004
-378,131	-19,983	0,027	0,012
-377,117	324,188	-0,042	-0,058
-376,102	-200,000	-0,002	0,022
-375,088	117,029	0,141	0,124
-374,073	-60,065	-0,103	0,031
-373,058	800,000	0,037	0,105
-372,044	-148,260	0,164	-0,010
-371,029	119,829	0,020	0,017
-370,015	-82,871	0,048	0,011
-369,000	-142,216	-0,078	-0,005
-367,985	-116,690	-0,196	-0,026
-366,971	76,542	0,052	0,040
-365,956	645,513	-0,023	-0,042
-364,942	190,992	0,072	-0,077
-363,927	-158,711	0,179	0,007
-362,912	10,088	0,110	0,060
-361,898	669,968	0,048	-0,089
-360,883	314,063	-0,051	-0,069
-359,869	-200,000	0,000	-0,141
-358,854	-36,048	-0,096	-0,037
-357,839	-200,000	0,014	0,162
-356,825	-200,000	0,004	0,044
-355,810	-105,700	0,171	0,028
-354,796	-89,999	-0,177	-0,037
-353,781	46,458	-0,083	-0,055
-352,766	744,278	0,053	0,102
-351,752	-53,305	0,063	-0,021
-350,737	300,618	-0,053	-0,071
-349,723	800,000	0,092	0,195
-348,708	579,558	0,056	0,100
-347,693	442,086	0,026	-0,041
-346,679	-200,000	0,035	-0,127
-345,664	800,000	0,038	0,101
-344,650	-200,000	0,038	-0,128
-343,635	26,119	0,064	-0,038
-342,620	-138,435	-0,059	-0,005
-341,606	-200,000	0,009	-0,048
-340,591	283,567	0,071	-0,092
-339,577	-125,240	0,054	0,006
-338,562	144,004	-0,068	0,065
-337,548	132,061	-0,090	0,084
-336,533	-200,000	-0,021	0,121
-335,518	-200,000	0,031	0,135
-334,504	-200,000	0,009	0,193
-333,489	331,228	-0,046	0,063
-332,475	778,209	-0,026	0,051
-331,460	-56,693	-0,101	0,032
-330,445	-200,000	0,007	-0,045
-329,431	-200,000	0,028	-0,114
-328,416	221,583	0,019	-0,022
-327,402	-200,000	0,039	0,187
-326,387	-200,000	-0,017	-0,067
-325,372	-134,388	-0,030	-0,003
-324,358	280,439	-0,128	0,165
-323,343	349,728	-0,028	-0,040
-322,329	172,870	0,102	0,105
-321,314	800,000	-0,051	0,102
-320,299	218,797	-0,044	-0,050
-319,285	-73,943	-0,064	0,016
-318,270	-57,154	0,056	0,017
-317,256	-62,782	-0,083	0,024
-316,241	-39,988	-0,047	-0,017
-315,226	-200,000	0,012	0,061
-314,212	-84,545	0,095	0,021
-313,197	-134,260	-0,076	-0,007
-312,183	-200,000	0,036	-0,152
-311,168	-200,000	0,014	-0,107
-310,153	-137,220	0,080	-0,006
-309,139	46,952	-0,033	0,022
-308,124	-40,344	0,045	0,017
-307,110	-200,000	0,017	-0,119
-306,095	-41,244	0,081	0,030
-305,080	-200,000	-0,001	-0,057
-304,066	-200,000	0,002	-0,146
-303,051	-200,000	-0,004	0,018
-302,037	800,000	-0,041	-0,086
-301,022	49,775	0,040	0,027
-300,008	800,000	0,044	0,089
-298,993	800,000	-0,012	0,036
-297,978	800,000	0,064	0,160
-296,964	27,069	0,016	-0,010
-295,949	-200,000	0,030	-0,181
-294,935	800,000	-0,036	-0,109
-293,920	233,562	0,064	0,075
-292,905	394,485	0,063	0,094
-291,891	800,000	0,029	-0,075
-290,876	-200,000	-0,008	-0,160
-289,862	-116,362	0,056	-0,007
-288,847	800,000	-0,054	-0,143
-287,832	717,340	0,045	-0,086
-286,818	-111,579	-0,171	-0,025
-285,803	-114,859	0,125	0,017
-284,789	280,915	0,034	-0,044
-283,774	-200,000	0,010	0,119
-282,759	-136,797	0,011	-0,001
-281,745	-146,342	-0,137	-0,008
-280,730	-200,000	0,004	-0,049
-279,716	-51,845	-0,066	-0,022
-278,701	72,537	0,078	0,058
-277,686	47,641	-0,074	0,049
-276,672	41,944	-0,056	0,036
-275,657	108,488	0,016	-0,014
-274,643	336,150	-0,076	-0,105
-273,628	-15,000	-0,145	-0,066
-272,613	-39,280	-0,139	-0,052
-271,599	11,708	0,126	-0,069
-270,584	-16,514	0,112	0,051
-269,570	800,000	0,027	-0,058
-268,555	-200,000	0,018	0,099
-267,540	60,277	-0,048	0,034
-266,526	-71,384	-0,042	-0,011
-265,511	-200,000	-0,021	-0,075
-264,497	800,000	-0,050	-0,142
-263,482	-15,388	0,066	0,030
-262,467	304,915	-0,079	0,105
-261,453	283,117	0,034	0,043
-260,438	-9,811	-0,043	-0,020
-259,424	-119,943	0,077	0,009
-258,409	103,794	-0,106	-0,089
-257,395	11,534	-0,087	0,047
-256,380	800,000	-0,028	-0,063
-255,365	-13,037	-0,094	-0,044
-254,351	-46,532	0,096	0,033
-253,336	750,162	-0,051	0,098
-252,322	-24,658	0,071	-0,030
-251,307	226,512	0,069	0,080
-250,292	-45,383	-0,116	0,041
-249,278	223,656	0,138	0,160
-248,263	-39,623	-0,052	0,020
-247,249	219,326	0,058	0,066
-246,234	-200,000	-0,010	0,070
-245,219	3,188	0,060	-0,031
-244,205	-128,670	-0,027	0,003
-243,190	-146,461	0,008	-0,000
-242,176	-136,146	0,085	0,007
-241,161	232,337	0,132	0,156
-240,146	-128,889	0,080	-0,008
-239,132	-126,938	-0,200	0,021
-238,117	800,000	0,021	-0,046
-237,103	242,194	-0,049	0,059
-236,088	-200,000	-0,008	0,081
-235,073	-13,077	0,224	0,104
-234,059	-200,000	-0,005	0,190
-233,044	184,054	-0,076	0,080
-232,030	-105,739	-0,141	-0,023
-231,015	800,000	0,022	0,064
-230,000	-85,283	0,150	0,033
-228,986	-113,322	0,122	-0,017
-227,971	113,514	0,023	-0,020
-226,957	-200,000	0,016	0,119
-225,942	-3,145	0,112	0,056
-224,927	800,000	-0,014	0,042
-223,913	154,294	-0,037	-0,037
-222,898	800,000	0,093	-0,188
-221,884	-49,750	-0,096	-0,032
-220,869	426,049	0,015	0,024
-219,855	639,237	-0,084	0,154
-218,840	253,517	0,019	0,023
-217,825	-200,000	0,001	-0,041
-216,811	107,602	-0,076	0,065
-215,796	-200,000	0,028	-0,090
-214,782	202,343	-0,034	-0,037
-213,767	70,518	0,042	0,031
-212,752	-200,000	0,008	0,032
-211,738	-200,000	0,003	-0,089
-210,723	-3,132	-0,112	0,056
-209,709	-200,000	0,022	0,093
-208,694	-69,236	-0,054	-0,015
-207,679	-141,997	0,035	0,002
-206,665	19,211	0,097	-0,055
-205,650	397,161	-0,042	0,062
-204,636	800,000	0,062	-0,135
-203,621	800,000	0,026	0,053
-202,606	-29,720	-0,070	0,028
-201,592	474,537	-0,038	-0,062
-200,577	3,972	0,060	0,031
-199,563	200,859	0,019	0,020
-198,548	-104,243	0,148	-0,024
-197,533	731,679	-0,015	0,028
-196,519	14,715	0,061	0,034
-195,504	-61,274	0,043	-0,013
-194,490	800,000	-0,032	-0,097
-193,475	-200,000	-0,006	0,134
-192,460	-200,000	0,019	-0,183
-191,446	-200,000	0,001	-0,031
-190,431	-200,000	-0,037	0,134
-189,417	-60,921	-0,125	-0,037
-188,402	393,181	-0,070	0,104
-187,387	41,414	-0,037	-0,024
-186,373	-200,000	0,008	0,032
-185,358	-9,137	-0,053	-0,025
-184,344	613,134	-0,016	-0,029
-183,329	-53,255	-0,016	0,005
-182,315	-73,056	0,069	-0,018
-181,300	-200,000	0,002	-0,074
-180,285	44,871	-0,203	0,133
-179,271	48,855	0,135	0,090
-178,256	-200,000	-0,009	-0,040
-177,242	55,083	-0,042	-0,029
-176,227	-153,821	-0,107	0,005
-175,212	-200,000	0,023	0,127
-174,198	168,986	-0,033	-0,033
-173,183	-200,000	-0,021	-0,100
-172,169	297,880	-0,032	-0,042
-171,154	600,259	-0,103	-0,183
-170,139	-200,000	-0,008	0,070
-169,125	-59,945	-0,029	-0,009
-168,110	-200,000	0,187	-0,000
-167,096	-200,000	-0,004	-0,019
-166,081	470,335	0,066	-0,105
-165,066	788,429	0,030	0,059
-164,052	-200,000	0,000	-0,038
-163,037	-200,000	-0,004	-0,051
-162,023	800,000	0,054	0,128
-161,008	197,508	-0,087	0,094
-159,993	800,000	-0,017	-0,053
-158,979	-61,623	-0,105	-0,031
-157,964	-69,792	0,067	-0,018
-156,950	-200,000	0,010	0,051
-155,935	618,957	-0,078	0,139
-154,920	65,567	0,085	-0,061
-153,906	-149,213	-0,069	0,004
-152,891	-75,264	0,119	0,030
-151,877	-34,811	-0,064	-0,025
-150,862	84,064	0,049	-0,038
-149,847	-200,000	0,019	-0,096
-148,833	144,344	0,113	0,107
-147,818	1,376	-0,040	0,020
-146,804	-200,000	0,017	0,130
-145,789	-38,121	-0,102	0,038
-144,775	-97,320	-0,103	0,019
-143,760	800,000	-0,054	-0,165
-142,745	314,597	0,102	-0,137
-141,731	-0,611	0,051	-0,025
-140,716	-110,827	0,063	0,009
-139,702	68,627	0,090	0,066
-138,687	8,324	0,085	0,045
-137,672	111,089	-0,147	0,126
-136,658	282,903	-0,067	-0,086
-135,643	64,473	-0,113	0,081
-134,629	-104,793	0,093	-0,015
-133,614	493,306	-0,057	-0,094
-132,599	-200,000	0,016	-0,113
-131,585	-200,000	0,005	0,107
-130,570	-200,000	-0,009	0,123
-129,556	-47,084	0,072	0,025
-128,541	37,201	-0,118	0,074
-127,526	-62,996	0,054	-0,016
-126,512	-200,000	0,002	0,070
-125,497	-200,000	-0,027	0,126
-124,483	696,433	0,042	0,078
-123,468	-98,238	0,074	-0,013
-122,453	-124,144	0,142	-0,016
-121,439	136,199	-0,117	0,109
-120,424	-66,976	-0,037	-0,010
-119,410	-200,000	-0,001	0,045
-118,395	51,025	0,188	0,126
-117,380	-200,000	0,001	0,015
-116,366	800,000	-0,053	-0,127
-115,351	-200,000	-0,018	-0,102
-114,337	91,619	0,073	-0,058
-113,322	375,517	-0,067	-0,097
-112,307	49,208	-0,097	-0,065
-111,293	671,396	0,033	0,061
-110,278	198,417	0,109	-0,119
-109,264	196,460	-0,060	0,065
-108,249	800,000	0,044	0,089
-107,234	800,000	0,070	-0,165
-106,220	-200,000	-0,004	-0,073
-105,205	317,341	0,033	0,044
-104,191	13,708	-0,012	0,007
-103,176	800,000	0,025	0,063
-102,162	57,789	0,054	0,037
-101,147	-0,842	-0,086	0,043
-100,132	-45,905	0,091	-0,032
-99,118	-39,163	-0,080	0,030
-98,103	-187,459	-0,068	0,001
-97,089	-200,000	0,001	0,082
-96,074	26,252	0,080	0,047
-95,059	94,437	0,131	0,106
-94,045	-61,530	0,075	-0,022
-93,030	688,965	-0,040	-0,074
-92,016	-200,000	-0,018	-0,083
-91,001	3,706	-0,063	-0,033
-89,986	-106,692	0,122	-0,019
-88,972	-186,518	-0,052	0,001
-87,957	-194,279	0,177	-0,001
-86,943	-49,745	-0,066	0,022
-85,928	9,742	-0,021	-0,011
-84,913	203,182	0,068	-0,075
-83,899	800,000	-0,066	-0,160
-82,884	179,799	0,015	-0,015
-81,870	800,000	0,033	0,069
-80,855	49,552	0,119	-0,079
-79,840	-200,000	-0,014	-0,086
-78,826	481,649	0,037	-0,060
-77,811	-200,000	0,003	-0,083
-76,797	-200,000	-0,004	-0,074
-75,782	114,799	0,043	-0,037
-74,767	53,653	-0,115	-0,078
-73,753	-159,206	-0,079	0,003
-72,738	293,158	0,036	-0,047
-71,724	-133,393	0,044	0,004
-70,709	125,860	-0,099	0,089
-69,694	800,000	-0,067	0,141
-68,680	19,343	0,079	0,045
-67,665	-146,465	0,199	-0,012
-66,651	189,521	-0,205	0,218
-65,636	357,664	0,036	0,051
-64,622	112,315	-0,061	0,052
-63,607	-200,000	-0,001	-0,040
-62,592	800,000	0,009	0,018
-61,578	305,185	-0,068	-0,090
-60,563	800,000	0,022	0,048
-59,549	-200,000	0,034	0,111
-58,534	-98,517	-1,548	-0,278
-57,519	344,753	-1,541	-2,150
-56,505	-200,000	-0,490	-4,484
-55,490	116,274	0,855	0,743
-54,476	800,000	4,828	11,416
-53,461	-200,000	17,647	279,384
-52,446	800,000	719,961	2214,059
-51,432	558,688	1634,168	2806,397
-50,417	80,941	1657,488	1266,624
-49,403	23,832	1531,796	892,575
-48,388	17,880	1455,226	819,272
-47,373	18,272	1444,748	815,218
-46,359	17,851	1435,428	807,922
-45,344	16,128	1430,790	797,092
-44,330	16,054	1428,736	795,566
-43,315	16,043	1427,234	794,648
-42,300	16,031	1425,482	793,582
-41,286	16,088	1424,468	793,259
-40,271	16,088	1422,901	792,354
-39,257	16,075	1421,587	791,526
-38,242	16,132	1420,390	791,099
-37,227	16,108	1419,122	790,248
-36,213	16,118	1417,799	789,528
-35,198	16,048	1416,772	788,592
-34,184	16,065	1415,860	788,135
-33,169	16,068	1414,397	787,302
-32,154	16,150	1413,426	787,115
-31,140	16,167	1411,953	786,347
-30,125	16,151	1410,895	785,650
-29,111	16,117	1409,761	784,826
-28,096	16,103	1408,582	784,075
-27,082	16,022	1407,806	783,231
-26,067	16,001	1406,512	782,384
-25,052	16,041	1405,467	781,957
-24,038	16,013	1404,436	781,224
-23,023	16,013	1403,432	780,634
-22,009	15,980	1402,713	780,047
-20,994	15,969	1401,540	779,313
-19,979	16,017	1400,560	778,961
-18,965	15,985	1399,671	778,288
-17,950	15,969	1398,703	777,647
-16,936	15,955	1397,752	777,018
-15,921	15,933	1396,321	776,089
-14,906	15,913	1395,504	775,515
-13,892	15,929	1394,558	775,031
-12,877	15,939	1393,589	774,508
-11,863	15,948	1392,783	774,071
-10,848	15,967	1391,868	773,618
-9,833	15,877	1391,006	772,696
-8,819	15,894	1389,891	772,124
-7,804	15,828	1389,202	771,405
-6,790	15,865	1388,106	770,939
-5,775	15,795	1387,089	770,018
-4,760	15,805	1386,433	769,670
-3,746	15,796	1385,473	769,063
-2,731	15,769	1384,749	768,507
-1,717	15,814	1383,588	768,043
-0,702	15,877	1381,510	767,144
0,313	19,621	1302,676	740,644
1,327	36,131	706,577	439,970
2,342	55,509	125,283	85,792
3,356	4,294	16,640	8,608
4,371	10,624	3,034	1,634
5,386	-12,622	0,539	0,248
6,400	-62,263	-0,175	0,051
7,415	577,611	-0,145	-0,252
8,429	-53,229	-0,380	-0,123
9,444	149,418	-0,349	-0,335
10,459	140,097	-0,245	-0,229
11,473	348,582	-0,208	-0,292
12,488	-95,162	-0,379	-0,072
13,502	73,062	-0,285	-0,210
14,517	8,529	-0,436	-0,232
15,531	148,114	-0,382	-0,365
16,546	145,605	-0,311	-0,295
17,561	800,000	-0,231	-0,537
18,575	-27,066	-0,248	-0,102
19,590	744,590	-0,167	-0,319
20,604	112,585	-0,235	-0,202
21,619	15,962	-0,448	-0,249
22,634	82,348	-0,472	-0,362
23,648	280,330	-0,338	-0,428
24,663	131,506	-0,375	-0,341
25,677	156,321	-0,294	-0,287
26,692	133,510	-0,221	-0,202
27,707	65,664	-0,406	-0,290
28,721	-29,625	-0,470	-0,189
29,736	90,050	-0,334	-0,264
30,750	141,244	-0,370	-0,346
31,765	234,633	-0,321	-0,375
32,780	2,513	-0,421	-0,215
33,794	-47,466	-0,377	-0,129
34,809	15,948	-0,377	-0,209
35,823	36,731	-0,384	-0,239
36,838	51,867	-0,427	-0,287
37,853	222,820	-0,294	-0,335
38,867	153,270	-0,319	-0,308
39,882	800,000	-0,159	-0,338
40,896	74,298	-0,308	-0,228
41,911	126,937	-0,319	-0,286
42,926	-32,388	-0,385	-0,151
43,940	2,397	-0,335	-0,170
44,955	96,543	-0,435	-0,351
45,969	404,791	-0,188	-0,281
46,984	48,007	-0,304	-0,200
47,999	-45,559	-0,270	-0,094
49,013	174,279	-0,290	-0,296
50,028	68,810	-0,291	-0,210
51,042	229,218	-0,239	-0,276
52,057	14,275	-0,224	-0,123
53,071	82,076	-0,334	-0,255
54,086	22,416	-0,320	-0,184
55,101	134,656	-0,271	-0,248
56,115	55,798	-0,312	-0,213
57,130	69,234	-0,313	-0,226
58,144	66,399	-0,394	-0,282
59,159	163,099	-0,287	-0,285
60,174	55,913	-0,385	-0,263
61,188	284,375	-0,304	-0,386
62,203	-6,629	-0,265	-0,126
63,217	80,919	-0,333	-0,253
64,232	14,580	-0,315	-0,173
65,247	278,837	-0,211	-0,266
66,261	142,398	-0,370	-0,346
67,276	110,207	-0,360	-0,304
68,290	46,842	-0,306	-0,200
69,305	477,366	-0,225	-0,359
70,320	9,655	-0,287	-0,152
71,334	207,197	-0,232	-0,255
72,349	39,348	-0,343	-0,216
73,363	31,821	-0,505	-0,305
74,378	131,296	-0,263	-0,238
75,393	227,638	-0,272	-0,312
76,407	-5,613	-0,203	-0,097
77,422	163,896	-0,210	-0,208
78,436	-11,775	-0,300	-0,138
79,451	3,835	-0,403	-0,206
80,466	-97,747	-0,342	-0,062
81,480	-42,056	-0,309	-0,111
82,495	25,196	-0,409	-0,239
83,509	-44,653	-0,345	-0,121
84,524	-61,111	-0,171	-0,050
85,539	51,470	-0,304	-0,203
86,553	-34,140	-0,171	-0,066
87,568	-4,747	-0,284	-0,137
88,582	-85,108	-0,432	-0,094
89,597	-30,763	-0,333	-0,132
90,611	176,576	-0,312	-0,319
91,626	-200,000	-0,065	-0,273
92,641	25,283	-0,290	-0,169
93,655	-6,450	-0,349	-0,166
94,670	210,802	-0,286	-0,317
95,684	191,756	-0,240	-0,255
96,699	110,228	-0,245	-0,206
97,714	100,155	-0,232	-0,189
98,728	40,276	-0,248	-0,156
99,743	48,570	-0,278	-0,183
100,757	29,993	-0,149	-0,089
101,772	-1,043	-0,331	-0,164
102,787	95,547	-0,315	-0,252
103,801	51,598	-0,275	-0,183
104,816	278,035	-0,183	-0,229
105,830	61,485	-0,253	-0,176
106,845	48,154	-0,197	-0,129
107,860	69,171	-0,205	-0,148
108,874	80,595	-0,282	-0,213
109,889	16,981	-0,335	-0,186
110,903	110,408	-0,249	-0,210
111,918	101,456	-0,230	-0,188
112,933	800,000	-0,096	-0,225
113,947	78,429	-0,228	-0,171
114,962	31,003	-0,251	-0,151
115,976	114,194	-0,282	-0,241
116,991	99,577	-0,321	-0,261
118,006	193,316	-0,142	-0,151
119,020	55,410	-0,242	-0,164
120,035	272,906	-0,112	-0,140
121,049	-53,804	-0,287	-0,091
122,064	46,891	-0,264	-0,171
123,079	69,149	-0,243	-0,175
124,093	44,713	-0,408	-0,263
125,108	5,252	-0,407	-0,209
126,122	113,054	-0,310	-0,263
127,137	83,134	-0,299	-0,228
128,151	-62,990	-0,227	-0,065
129,166	-10,587	-0,327	-0,151
130,181	59,305	-0,154	-0,106
131,195	90,283	-0,171	-0,134
132,210	145,154	-0,371	-0,348
133,224	38,870	-0,270	-0,169
134,239	-1,432	-0,261	-0,129
135,254	-120,201	-0,192	-0,023
136,268	-31,783	-0,269	-0,105
137,283	236,651	-0,208	-0,241
138,297	345,541	-0,165	-0,227
139,312	718,778	-0,152	-0,283
140,327	215,262	-0,268	-0,298
141,341	180,315	-0,283	-0,291
142,356	36,836	-0,290	-0,179
143,370	38,576	-0,252	-0,157
144,385	-87,861	-0,264	-0,055
145,400	101,885	-0,249	-0,203
146,414	311,313	-0,215	-0,283
147,429	52,622	-0,213	-0,142
148,443	191,235	-0,246	-0,259
149,458	277,832	-0,201	-0,250
150,473	360,720	-0,202	-0,283
151,487	318,310	-0,221	-0,294
152,502	-35,696	-0,337	-0,127
153,516	15,956	-0,361	-0,198
154,531	46,542	-0,251	-0,163
155,546	3,081	-0,294	-0,149
156,560	338,424	-0,140	-0,191
157,575	109,686	-0,114	-0,095
158,589	142,629	-0,238	-0,221
159,604	74,412	-0,224	-0,164
160,619	54,930	-0,227	-0,153
161,633	137,202	-0,319	-0,292
162,648	211,622	-0,142	-0,156
163,662	358,430	-0,174	-0,243
164,677	-8,357	-0,235	-0,110
165,692	66,790	-0,228	-0,162
166,706	99,557	-0,273	-0,221
167,721	167,662	-0,135	-0,134
168,735	4,923	-0,364	-0,186
169,750	87,579	-0,313	-0,242
170,764	156,249	-0,140	-0,134
171,779	2,615	-0,300	-0,151
172,794	33,864	-0,157	-0,095
173,808	14,798	-0,344	-0,187
174,823	100,690	-0,320	-0,260
175,837	100,055	-0,278	-0,225
176,852	39,168	-0,306	-0,191
177,867	-48,188	-0,220	-0,074
178,881	-30,559	-0,205	-0,081
179,896	26,760	-0,135	-0,078
180,910	100,488	-0,180	-0,146
181,925	180,923	-0,142	-0,145
182,940	170,419	-0,291	-0,290
183,954	800,000	-0,113	-0,297
184,969	247,026	-0,087	-0,102
185,983	695,075	-0,083	-0,152
186,998	-159,248	-0,187	0,007
188,013	75,383	-0,315	-0,232
189,027	278,176	-0,146	-0,182
190,042	340,597	-0,141	-0,192
191,056	637,103	-0,133	-0,237
192,071	623,838	-0,131	-0,231
193,086	27,292	-0,161	-0,094
194,100	-4,092	-0,247	-0,119
195,115	7,108	-0,279	-0,145
196,129	111,357	-0,219	-0,184
197,144	-35,969	-0,289	-0,108
198,159	-109,559	-0,250	-0,036
199,173	1,912	-0,257	-0,129
200,188	-200,000	-0,061	-0,199
201,202	131,792	-0,163	-0,146
202,217	-104,396	-0,269	-0,043
203,232	163,343	-0,147	-0,144
204,246	281,595	-0,151	-0,188
205,261	240,463	-0,171	-0,199
206,275	181,261	-0,096	-0,098
207,290	-200,000	-0,032	-0,162
208,304	195,243	-0,086	-0,091
209,319	18,572	-0,277	-0,154
210,334	800,000	-0,060	-0,140
211,348	150,830	-0,238	-0,225
212,363	35,853	-0,235	-0,143
213,377	45,995	-0,259	-0,166
214,392	302,751	-0,114	-0,147
215,407	50,647	-0,241	-0,158
216,421	68,894	-0,182	-0,130
217,436	252,961	-0,217	-0,258
218,450	228,399	-0,248	-0,282
219,465	21,804	-0,151	-0,085
220,480	-172,573	-0,185	0,004
221,494	51,706	-0,231	-0,152
222,509	245,971	-0,117	-0,137
223,523	-56,420	-0,248	-0,076
224,538	97,412	-0,204	-0,163
225,553	119,438	-0,257	-0,221
226,567	444,917	-0,222	-0,340
227,582	356,193	-0,222	-0,308
228,596	154,929	-0,323	-0,309
229,611	20,015	-0,126	-0,070
230,626	54,557	-0,182	-0,122
231,640	-42,410	-0,225	-0,079
232,655	-63,170	-0,262	-0,074
233,669	158,473	-0,098	-0,094
234,684	86,224	-0,189	-0,144
235,699	-125,937	-0,143	-0,015
236,713	-74,156	-0,154	-0,038
237,728	103,763	-0,070	-0,057
238,742	109,181	-0,179	-0,148
239,757	57,712	-0,208	-0,141
240,772	138,227	-0,204	-0,186
241,786	67,930	-0,185	-0,131
242,801	507,910	-0,109	-0,175
243,815	59,164	-0,191	-0,130
244,830	9,007	-0,248	-0,129
245,844	138,909	-0,238	-0,217
246,859	-22,316	-0,172	-0,072
247,874	213,978	-0,190	-0,209
248,888	618,175	-0,140	-0,245
249,903	-14,443	-0,261	-0,116
250,917	-59,959	-0,138	-0,041
251,932	232,752	-0,121	-0,139
252,947	29,460	-0,219	-0,129
253,961	74,020	-0,201	-0,146
254,976	-200,000	-0,016	-0,242
255,990	269,139	-0,175	-0,213
257,005	-200,000	-0,067	-0,205
258,020	-119,747	-0,213	-0,025
259,034	444,930	-0,093	-0,141
260,049	115,134	-0,244	-0,206
261,063	269,704	-0,158	-0,192
262,078	200,789	-0,102	-0,109
263,093	261,557	-0,140	-0,168
264,107	109,762	-0,171	-0,142
265,122	-9,374	-0,173	-0,080
266,136	9,397	-0,141	-0,074
267,151	35,750	-0,098	-0,060
268,166	-119,660	-0,244	-0,029
269,180	-84,509	-0,260	-0,056
270,195	-49,033	-0,237	-0,078
271,209	-22,409	-0,234	-0,097
272,224	-45,621	-0,218	-0,074
273,239	17,895	-0,210	-0,116
274,253	296,863	-0,074	-0,094
275,268	93,855	-0,171	-0,134
276,282	159,061	-0,184	-0,177
277,297	-31,054	-0,179	-0,070
278,312	222,934	-0,197	-0,220
279,326	-135,336	-0,143	0,012
280,341	800,000	-0,107	-0,217
281,355	103,055	-0,141	-0,114
282,370	413,863	-0,135	-0,200
283,384	701,929	-0,136	-0,248
284,399	341,948	-0,149	-0,202
285,414	800,000	-0,115	-0,235
286,428	800,000	-0,022	-0,056
287,443	-115,011	-0,227	-0,029
288,457	400,912	-0,108	-0,157
289,472	-200,000	-0,150	0,000
290,487	103,117	-0,230	-0,186
291,501	432,317	-0,086	-0,130
292,516	56,141	-0,133	-0,089
293,530	21,919	-0,153	-0,086
294,545	800,000	-0,068	-0,178
295,560	-145,463	-0,190	0,012
296,574	27,473	0,060	-0,034
297,589	800,000	-0,068	-0,153
298,603	-98,784	-0,234	-0,041
299,618	-47,828	-0,275	-0,091
300,633	4,923	-0,201	-0,102
301,647	347,822	-0,066	-0,091
302,662	800,000	-0,072	-0,153
303,676	-35,891	-0,238	-0,088
304,691	19,840	-0,247	-0,137
305,706	133,411	-0,195	-0,174
306,720	76,407	-0,098	-0,071
307,735	144,246	-0,132	-0,121
308,749	-69,960	-0,123	-0,032
309,764	30,461	0,054	-0,032
310,779	-35,677	-0,162	-0,060
311,793	39,871	-0,123	-0,076
312,808	221,683	-0,142	-0,158
313,822	137,193	-0,066	-0,059
314,837	6,489	-0,105	0,054
315,852	800,000	-0,074	-0,178
316,866	-166,180	-0,114	-0,003
317,881	-116,404	-0,111	0,014
318,895	800,000	-0,062	-0,167
319,910	78,539	-0,115	-0,084
320,925	98,781	-0,119	-0,094
321,939	159,370	-0,120	-0,115
322,954	-200,000	-0,056	-0,187
323,968	134,735	-0,150	-0,134
324,983	91,844	-0,102	-0,079
325,997	209,252	-0,159	-0,172
327,012	105,503	-0,123	-0,100
328,027	-8,093	-0,174	-0,080
329,041	312,863	-0,183	-0,237
330,056	800,000	-0,077	-0,222
331,070	764,816	-0,068	-0,127
332,085	800,000	-0,051	-0,134
333,100	203,819	-0,156	-0,167
334,114	800,000	-0,088	-0,200
335,129	138,824	-0,145	-0,131
336,143	-43,517	-0,086	-0,030
337,158	-27,422	-0,140	-0,056
338,173	-106,777	-0,162	-0,025
339,187	-61,808	-0,220	-0,063
340,202	760,540	-0,075	-0,140
341,216	59,083	-0,180	-0,122
342,231	-101,092	-0,171	0,029
343,246	-2,327	-0,143	-0,069
344,260	-67,211	-0,060	-0,016
345,275	453,155	-0,028	0,043
346,289	-20,992	-0,205	-0,086
347,304	-200,000	-0,016	-0,051
348,319	-178,263	-0,138	-0,002
349,333	-19,700	-0,126	-0,053
350,348	-157,767	-0,145	0,006
351,362	-200,000	-0,023	-0,160
352,377	47,063	-0,039	-0,025
353,392	1,639	-0,103	0,051
354,406	-25,503	-0,163	-0,066
355,421	208,805	1314,210	1414,302
356,435	160,675	1474,924	1414,827
