DTS Sentinel unit serial number:	SN410029Multiplexer serial number:	ORYXHardware model number:	OX2-SRSoftware version number:	ORYX F/W v4,00 Oryx Data Collector v3.7.2.0data status	okinstallation	B3 Nyhavnadifferential loss correction	single-endedforward channel	channel 1reverse channel	N/Adate	2023/11/29time	09:17:30forward acquisition time	300,00reverse acquisition time	0,00gamma	499,1914k internal	0,3212k external	0,3212temperature offset calibration	1,0000default loss term (dB/km)	0,3820temperature slope calibration	1,0000multiplexer offset coefficient	1,0000multiplexer slope coefficient	1,0000fibre end	0,00T internal ref (°C)	9,07T ext. ref 1 (°C)	-5,40T ext. ref 2 (°C)	-5,55length (m)	temperature (°C)	Stokes	anti-Stokes-744,400	800,000	-0,092	-0,224
-743,385	800,000	-0,112	0,285
-742,371	707,549	-0,137	-0,264
-741,356	-200,000	0,020	0,289
-740,342	96,439	-0,225	-0,186
-739,327	-200,000	0,023	0,167
-738,312	115,954	-0,227	-0,201
-737,298	-200,000	-0,057	0,266
-736,283	83,804	-0,146	-0,116
-735,269	800,000	0,086	0,255
-734,254	72,738	-0,164	-0,124
-733,239	436,804	-0,150	0,237
-732,225	-200,000	0,004	-0,312
-731,210	276,477	0,099	0,128
-730,196	-180,351	-0,075	0,001
-729,181	535,999	-0,022	0,037
-728,167	800,000	-0,028	-0,082
-727,152	-104,076	-0,026	0,004
-726,137	-59,931	-0,062	0,019
-725,123	-133,582	-0,039	0,003
-724,108	76,287	-0,080	-0,061
-723,094	-83,680	-0,068	-0,016
-722,079	509,512	-0,084	-0,141
-721,064	8,147	0,034	0,018
-720,050	-122,909	0,064	-0,007
-719,035	112,305	-0,134	0,117
-718,021	532,636	-0,052	-0,090
-717,006	66,557	-0,075	-0,055
-715,991	124,530	-0,176	-0,161
-714,977	324,129	-0,051	-0,071
-713,962	800,000	0,016	0,034
-712,948	-57,425	0,084	-0,027
-711,933	143,287	-0,023	0,022
-710,918	33,316	0,086	-0,054
-709,904	-115,529	-0,181	-0,024
-708,889	-47,424	-0,146	0,051
-707,875	150,111	-0,098	0,096
-706,860	-200,000	-0,009	0,240
-705,845	-200,000	0,029	0,137
-704,831	18,687	0,035	0,020
-703,816	63,920	-0,110	-0,080
-702,802	-67,871	0,074	0,021
-701,787	-164,827	0,069	0,002
-700,772	800,000	-0,061	0,144
-699,758	217,202	0,086	0,099
-698,743	800,000	0,039	-0,106
-697,729	800,000	0,037	0,087
-696,714	-200,000	-0,003	-0,050
-695,699	625,442	-0,016	-0,030
-694,685	471,188	0,009	-0,015
-693,670	-25,260	-0,038	-0,016
-692,656	800,000	-0,026	-0,072
-691,641	-200,000	-0,014	0,082
-690,627	31,115	-0,053	-0,033
-689,612	161,394	0,116	0,118
-688,597	-200,000	-0,029	-0,111
-687,583	652,764	-0,015	-0,028
-686,568	-47,575	-0,124	0,043
-685,554	-200,000	-0,012	-0,086
-684,539	-89,949	0,083	-0,017
-683,524	-77,915	0,090	0,022
-682,510	800,000	-0,066	0,156
-681,495	-200,000	-0,029	0,141
-680,481	46,783	-0,171	-0,115
-679,466	397,738	-0,082	-0,125
-678,451	-200,000	-0,014	0,095
-677,437	-200,000	-0,006	-0,032
-676,422	20,154	0,040	0,023
-675,408	-117,502	0,055	0,007
-674,393	-200,000	-0,028	-0,101
-673,378	-75,786	0,044	-0,011
-672,364	296,730	-0,020	0,026
-671,349	-72,670	-0,061	0,016
-670,335	19,258	0,124	-0,072
-669,320	-200,000	0,018	0,094
-668,305	-200,000	-0,006	0,046
-667,291	41,221	0,124	-0,081
-666,276	800,000	-0,044	-0,137
-665,262	-69,205	-0,065	0,018
-664,247	385,411	0,010	-0,015
-663,232	78,668	-0,145	0,112
-662,218	-200,000	-0,005	0,104
-661,203	800,000	-0,014	-0,036
-660,189	492,966	0,013	0,022
-659,174	-40,016	-0,085	0,032
-658,159	412,055	-0,026	-0,041
-657,145	800,000	0,055	-0,169
-656,130	84,825	-0,078	0,062
-655,116	-145,044	0,055	0,004
-654,101	421,819	-0,104	0,162
-653,086	-200,000	0,007	-0,042
-652,072	-3,747	-0,091	-0,046
-651,057	-31,110	-0,072	-0,029
-650,043	179,223	-0,042	0,045
-649,028	-5,024	-0,089	0,044
-648,014	-200,000	-0,019	-0,083
-646,999	-161,481	-0,180	-0,007
-645,984	213,813	-0,037	-0,042
-644,970	-63,468	0,083	0,024
-643,955	-200,000	0,012	-0,113
-642,941	593,978	-0,094	-0,168
-641,926	548,376	-0,050	-0,086
-640,911	782,813	0,022	0,043
-639,897	800,000	0,006	0,016
-638,882	-200,000	-0,005	-0,032
-637,868	256,122	-0,064	0,080
-636,853	-114,468	-0,163	-0,022
-635,838	364,185	-0,066	-0,096
-634,824	386,340	-0,026	-0,039
-633,809	-108,617	-0,113	-0,017
-632,795	-200,000	-0,001	0,137
-631,780	315,733	0,026	-0,035
-630,765	79,885	-0,086	-0,067
-629,751	54,312	0,081	0,056
-628,736	-40,230	-0,115	-0,043
-627,722	800,000	-0,050	0,158
-626,707	-200,000	-0,036	0,153
-625,692	66,443	-0,013	-0,010
-624,678	67,240	0,066	-0,048
-623,663	800,000	-0,041	-0,093
-622,649	800,000	-0,043	0,127
-621,634	-200,000	-0,046	-0,150
-620,619	-200,000	0,010	-0,065
-619,605	800,000	-0,043	0,087
-618,590	800,000	-0,033	0,088
-617,576	146,368	-0,108	0,105
-616,561	-170,203	-0,122	0,003
-615,546	-155,855	0,124	0,006
-614,532	624,288	-0,086	-0,157
-613,517	313,731	0,018	-0,025
-612,503	800,000	0,062	0,181
-611,488	581,760	0,053	0,094
-610,474	-200,000	-0,002	0,128
-609,459	333,442	0,070	0,098
-608,444	-200,000	-0,019	-0,065
-607,430	301,109	0,036	0,048
-606,415	259,683	-0,022	0,027
-605,401	-90,493	-0,048	0,010
-604,386	-23,545	0,146	-0,063
-603,371	60,186	-0,071	-0,050
-602,357	295,047	0,071	-0,094
-601,342	-200,000	-0,095	0,000
-600,328	-113,592	-0,041	0,006
-599,313	-200,000	-0,003	0,009
-598,298	-10,754	0,057	0,027
-597,284	-200,000	-0,010	0,094
-596,269	466,657	0,074	0,120
-595,255	-169,223	0,116	-0,003
-594,240	61,690	-0,062	0,044
-593,225	195,877	0,099	0,109
-592,211	106,362	0,047	-0,040
-591,196	-77,430	0,059	0,015
-590,182	-80,882	0,270	-0,064
-589,167	268,694	0,084	0,106
-588,152	104,630	-0,067	0,057
-587,138	-155,163	0,058	0,003
-586,123	132,830	-0,110	-0,102
-585,109	-200,000	-0,006	0,107
-584,094	800,000	-0,042	-0,103
-583,079	52,181	-0,035	0,024
-582,065	-200,000	-0,005	-0,041
-581,050	31,385	-0,088	-0,054
-580,036	-49,649	0,087	0,030
-579,021	-200,000	-0,034	0,124
-578,006	138,372	-0,086	0,082
-576,992	132,520	-0,119	-0,110
-575,977	19,015	-0,015	-0,009
-574,963	314,467	0,109	0,149
-573,948	800,000	0,046	0,135
-572,934	113,620	-0,102	0,089
-571,919	76,989	-0,058	-0,044
-570,904	-200,000	-0,029	-0,097
-569,890	44,929	-0,027	-0,018
-568,875	-76,346	0,079	-0,020
-567,861	-200,000	0,001	0,179
-566,846	536,602	0,067	0,114
-565,831	800,000	-0,038	0,084
-564,817	-183,761	0,091	-0,001
-563,802	-200,000	-0,009	-0,153
-562,788	-61,151	-0,084	-0,025
-561,773	264,339	-0,047	-0,059
-560,758	61,762	-0,024	0,017
-559,744	58,627	0,145	0,102
-558,729	-150,229	-0,148	0,008
-557,715	61,016	0,091	-0,065
-556,700	-200,000	-0,003	-0,119
-555,685	-102,019	-0,050	0,009
-554,671	152,504	0,017	0,017
-553,656	-194,333	0,062	0,000
-552,642	-116,360	0,172	0,023
-551,627	800,000	0,036	0,085
-550,612	621,669	0,049	-0,090
-549,598	378,521	-0,042	0,063
-548,583	189,776	0,013	-0,014
-547,569	-46,070	-0,199	0,070
-546,554	-40,897	-0,062	-0,023
-545,539	115,340	-0,043	-0,038
-544,525	438,492	-0,004	-0,007
-543,510	100,698	-0,075	0,063
-542,496	800,000	-0,077	-0,199
-541,481	-154,762	-0,108	-0,005
-540,466	555,218	-0,005	0,009
-539,452	-82,940	-0,052	0,012
-538,437	405,376	0,041	0,062
-537,423	163,760	-0,075	-0,076
-536,408	-56,075	0,035	-0,011
-535,393	-200,000	0,007	-0,126
-534,379	800,000	-0,030	-0,072
-533,364	275,109	0,021	0,027
-532,350	-200,000	0,002	0,007
-531,335	-13,323	0,072	-0,034
-530,321	121,932	0,031	-0,028
-529,306	-83,444	0,080	-0,018
-528,291	-200,000	-0,023	0,107
-527,277	-71,741	-0,136	-0,036
-526,262	344,633	-0,033	0,046
-525,248	70,230	0,062	-0,046
-524,233	-165,961	-0,032	0,001
-523,218	-181,507	-0,006	0,000
-522,204	800,000	-0,040	0,095
-521,189	-200,000	-0,001	-0,040
-520,175	63,408	0,039	-0,028
-519,160	179,776	0,065	0,068
-518,145	-52,241	0,109	0,036
-517,131	-26,471	0,113	0,047
-516,116	800,000	0,021	0,065
-515,102	763,110	0,049	0,097
-514,087	-52,468	-0,061	-0,020
-513,072	-200,000	-0,002	0,011
-512,058	483,356	0,042	-0,069
-511,043	377,584	-0,097	0,143
-510,029	-38,498	-0,061	0,023
-509,014	-46,078	-0,078	-0,028
-507,999	126,944	-0,087	-0,079
-506,985	-200,000	0,014	0,068
-505,970	800,000	0,014	0,042
-504,956	423,428	0,045	-0,070
-503,941	41,990	-0,184	0,120
-502,926	268,052	0,055	0,070
-501,912	-67,601	-0,106	0,030
-500,897	20,193	0,034	0,020
-499,883	-200,000	-0,009	0,042
-498,868	249,587	-0,115	0,140
-497,853	103,941	-0,073	-0,061
-496,839	-42,089	0,102	0,037
-495,824	150,496	-0,059	0,057
-494,810	-200,000	-0,010	0,209
-493,795	323,156	0,036	-0,049
-492,781	87,742	-0,069	-0,055
-491,766	459,918	0,022	-0,035
-490,751	800,000	-0,028	-0,056
-489,737	436,054	-0,023	-0,035
-488,722	258,535	0,039	0,048
-487,708	-200,000	-0,006	0,028
-486,693	-68,776	-0,089	-0,025
-485,678	-54,254	-0,001	-0,000
-484,664	-200,000	-0,006	0,025
-483,649	-149,316	0,054	-0,003
-482,635	-79,798	0,034	0,008
-481,620	68,931	0,101	0,075
-480,605	406,251	-0,089	0,135
-479,591	800,000	0,042	0,091
-478,576	-200,000	-0,015	0,126
-477,562	-200,000	-0,049	0,189
-476,547	174,599	0,060	0,062
-475,532	800,000	-0,064	-0,154
-474,518	475,811	0,046	0,075
-473,503	350,602	-0,053	-0,076
-472,489	-200,000	-0,006	0,113
-471,474	2,818	-0,077	-0,040
-470,459	32,706	-0,083	-0,051
-469,445	520,243	-0,021	0,036
-468,430	-53,225	-0,056	-0,018
-467,416	179,174	-0,041	-0,043
-466,401	370,966	0,083	0,122
-465,386	-82,378	0,179	0,041
-464,372	-200,000	-0,014	0,100
-463,357	317,388	-0,057	-0,078
-462,343	-200,000	-0,001	-0,055
-461,328	-200,000	-0,070	-0,246
-460,313	800,000	-0,003	-0,006
-459,299	365,827	0,023	-0,034
-458,284	800,000	0,027	-0,065
-457,270	126,405	-0,130	0,117
-456,255	-81,807	0,039	-0,009
-455,241	800,000	-0,072	-0,197
-454,226	-200,000	0,006	0,069
-453,211	-200,000	0,019	-0,100
-452,197	-98,358	0,062	-0,011
-451,182	800,000	0,044	-0,104
-450,168	800,000	-0,016	0,046
-449,153	-200,000	0,009	0,053
-448,138	-200,000	-0,009	-0,077
-447,124	800,000	0,005	0,011
-446,109	-125,903	0,112	0,012
-445,095	-200,000	0,017	0,174
-444,080	133,417	0,071	-0,066
-443,065	-44,679	-0,144	0,051
-442,051	570,554	0,042	0,074
-441,036	334,980	-0,056	-0,078
-440,022	375,627	-0,021	-0,031
-439,007	240,314	0,078	0,093
-437,992	-177,807	0,108	-0,002
-436,978	-159,977	0,034	-0,001
-435,963	-200,000	-0,003	0,163
-434,949	445,630	-0,005	0,008
-433,934	60,038	-0,090	-0,064
-432,919	174,503	-0,106	-0,110
-431,905	-131,848	0,037	0,003
-430,890	-200,000	0,038	-0,130
-429,876	-13,086	-0,039	-0,018
-428,861	-200,000	0,003	0,067
-427,846	-168,030	-0,090	-0,002
-426,832	56,011	-0,042	0,029
-425,817	-200,000	-0,011	-0,123
-424,803	800,000	0,032	-0,070
-423,788	-200,000	-0,004	-0,020
-422,773	-128,626	-0,094	0,009
-421,759	93,932	0,111	0,090
-420,744	800,000	-0,060	0,120
-419,730	201,295	0,053	-0,059
-418,715	439,646	0,035	0,056
-417,701	800,000	-0,041	-0,094
-416,686	-52,255	-0,071	-0,024
-415,671	93,302	-0,151	0,122
-414,657	-135,071	0,085	-0,007
-413,642	800,000	0,017	0,053
-412,628	800,000	-0,049	-0,112
-411,613	800,000	-0,056	0,136
-410,598	-200,000	-0,006	-0,063
-409,584	-122,798	0,004	0,000
-408,569	-200,000	0,004	0,058
-407,555	21,622	0,024	0,014
-406,540	-52,926	0,089	0,029
-405,525	-199,457	-0,156	0,001
-404,511	-158,644	-0,091	-0,004
-403,496	-101,503	0,047	-0,008
-402,482	800,000	-0,022	0,044
-401,467	93,355	0,149	-0,120
-400,452	90,415	0,067	-0,054
-399,438	-108,617	0,035	0,005
-398,423	-200,000	0,024	0,089
-397,409	-81,415	-0,084	-0,020
-396,394	-200,000	0,013	-0,118
-395,379	-55,406	0,105	0,034
-394,365	111,560	0,154	0,132
-393,350	180,847	0,039	0,041
-392,336	-200,000	-0,017	0,100
-391,321	64,086	0,080	-0,057
-390,306	231,630	-0,084	-0,099
-389,292	-200,000	-0,010	0,066
-388,277	159,771	0,105	0,104
-387,263	84,668	0,109	-0,085
-386,248	-98,121	0,121	0,022
-385,233	327,046	0,036	0,049
-384,219	-127,593	-0,097	-0,010
-383,204	-200,000	0,007	-0,092
-382,190	121,749	-0,096	-0,085
-381,175	163,285	-0,120	-0,121
-380,160	-5,847	0,081	0,039
-379,146	-200,000	0,005	-0,132
-378,131	-51,199	0,118	0,039
-377,117	115,378	-0,086	-0,075
-376,102	-200,000	0,002	0,035
-375,088	255,714	0,010	-0,013
-374,073	624,279	-0,070	0,126
-373,058	19,721	0,126	-0,072
-372,044	-200,000	0,014	-0,095
-371,029	145,034	0,063	0,060
-370,015	261,487	-0,044	0,054
-369,000	88,416	0,147	-0,117
-367,985	-200,000	-0,043	-0,176
-366,971	71,956	0,107	-0,079
-365,956	199,067	-0,072	0,079
-364,942	34,446	0,071	0,044
-363,927	-200,000	0,011	0,052
-362,912	186,861	0,044	-0,047
-361,898	-124,612	0,102	-0,011
-360,883	-3,863	-0,110	0,054
-359,869	-200,000	0,010	-0,071
-358,854	401,831	0,067	-0,101
-357,839	-89,232	0,192	-0,040
-356,825	-200,000	0,086	0,000
-355,810	80,507	-0,086	-0,066
-354,796	800,000	-0,014	-0,037
-353,781	-116,093	-0,102	0,013
-352,766	79,442	0,071	-0,054
-351,752	-200,000	0,018	0,130
-350,737	124,179	0,132	-0,119
-349,723	-119,928	0,143	0,017
-348,708	-32,660	-0,180	0,071
-347,693	326,814	0,065	0,089
-346,679	52,492	-0,019	-0,013
-345,664	-40,904	0,148	-0,054
-344,650	-99,508	-0,048	0,008
-343,635	306,957	0,033	0,043
-342,620	557,286	0,048	0,082
-341,606	-200,000	-0,112	0,000
-340,591	207,466	0,133	-0,149
-339,577	-200,000	0,030	-0,150
-338,562	-84,386	-0,086	-0,019
-337,548	-200,000	0,004	-0,046
-336,533	-167,902	-0,001	0,000
-335,518	146,789	0,058	0,055
-334,504	167,557	-0,043	-0,043
-333,489	-60,264	-0,091	0,027
-332,475	-200,000	-0,038	0,124
-331,460	-200,000	-0,029	-0,253
-330,445	470,297	0,044	-0,072
-329,431	-200,000	0,004	0,118
-328,416	-97,001	-0,074	0,014
-327,402	-0,350	-0,030	-0,015
-326,387	-63,911	0,076	0,022
-325,372	-4,957	-0,033	0,016
-324,358	102,145	0,069	0,058
-323,343	-200,000	-0,055	0,198
-322,329	378,746	-0,099	0,145
-321,314	-200,000	0,016	-0,070
-320,299	-46,479	0,048	-0,017
-319,285	336,742	0,012	-0,017
-318,270	220,407	-0,028	-0,032
-317,256	-123,087	-0,083	0,009
-316,241	29,916	0,060	-0,037
-315,226	-136,688	0,144	0,012
-314,212	800,000	-0,035	-0,082
-313,197	-200,000	0,026	0,124
-312,183	-124,788	0,123	0,013
-311,168	379,805	-0,069	-0,101
-310,153	-156,239	0,063	-0,003
-309,139	-200,000	0,008	-0,042
-308,124	-113,347	0,022	-0,003
-307,110	800,000	-0,040	0,088
-306,095	-200,000	-0,034	0,152
-305,080	-200,000	-0,002	0,091
-304,066	-200,000	0,001	0,010
-303,051	197,003	-0,100	0,109
-302,037	236,009	0,117	-0,138
-301,022	476,643	0,036	-0,058
-300,008	458,801	-0,070	0,111
-298,993	-106,476	-0,126	-0,020
-297,978	-200,000	-0,008	-0,125
-296,964	-173,348	-0,184	-0,004
-295,949	311,534	0,023	-0,030
-294,935	-200,000	-0,003	-0,031
-293,920	567,944	-0,019	-0,032
-292,905	-17,041	0,080	-0,036
-291,891	-131,418	0,037	0,003
-290,876	217,451	0,058	-0,066
-289,862	-200,000	-0,015	-0,111
-288,847	29,324	0,122	0,074
-287,832	-200,000	-0,011	-0,080
-286,818	427,968	0,013	-0,020
-285,803	-200,000	-0,009	0,144
-284,789	693,424	0,025	0,046
-283,774	-200,000	-0,021	0,098
-282,759	242,592	-0,106	0,126
-281,745	310,492	0,019	-0,026
-280,730	31,675	0,049	-0,030
-279,716	-92,785	-0,075	-0,015
-278,701	291,978	0,103	-0,134
-277,686	-91,930	0,026	-0,005
-276,672	-172,447	-0,103	-0,002
-275,657	-200,000	-0,002	0,099
-274,643	800,000	-0,025	-0,053
-273,628	133,794	0,060	0,055
-272,613	-9,514	-0,127	0,060
-271,599	-65,958	-0,099	-0,028
-270,584	-143,109	0,051	0,003
-269,570	270,171	0,033	0,041
-268,555	800,000	0,034	-0,092
-267,540	-139,229	-0,043	0,003
-266,526	143,078	0,109	-0,103
-265,511	301,306	-0,028	0,036
-264,497	196,456	0,091	0,098
-263,482	-99,990	-0,017	-0,003
-262,467	-92,082	0,132	0,026
-261,453	800,000	-0,048	-0,105
-260,438	800,000	-0,045	0,116
-259,424	119,812	-0,110	-0,097
-258,409	263,740	-0,064	0,079
-257,395	-62,466	-0,041	-0,012
-256,380	-14,781	0,105	-0,048
-255,365	203,138	0,104	0,115
-254,351	-200,000	0,030	-0,131
-253,336	800,000	0,013	-0,038
-252,322	-26,293	-0,084	-0,035
-251,307	127,189	-0,044	-0,040
-250,292	303,144	0,066	-0,087
-249,278	-200,000	0,000	0,055
-248,263	119,996	0,061	0,054
-247,249	-200,000	-0,034	-0,195
-246,234	352,517	-0,048	-0,068
-245,219	800,000	-0,043	0,111
-244,205	195,306	-0,038	-0,041
-243,190	-18,512	-0,069	0,031
-242,176	-6,894	0,048	-0,023
-241,161	800,000	-0,037	0,079
-240,146	-73,585	0,106	0,027
-239,132	50,280	0,027	0,018
-238,117	-118,770	0,165	-0,020
-237,103	128,197	-0,129	-0,117
-236,088	-200,000	0,012	-0,057
-235,073	-50,664	-0,098	-0,033
-234,059	800,000	0,046	-0,106
-233,044	590,008	0,025	-0,043
-232,030	482,036	0,023	0,036
-231,015	83,451	0,033	0,026
-230,000	-21,442	0,052	-0,022
-228,986	-200,000	-0,018	-0,129
-227,971	800,000	0,011	-0,033
-226,957	-18,468	0,056	-0,025
-225,942	-200,000	-0,001	0,090
-224,927	-79,873	-0,002	0,001
-223,913	-200,000	-0,005	-0,142
-222,898	-200,000	0,008	-0,076
-221,884	21,933	0,095	-0,055
-220,869	525,714	0,054	-0,091
-219,855	632,672	0,080	-0,145
-218,840	-200,000	0,010	0,110
-217,825	-200,000	-0,014	0,095
-216,811	800,000	0,028	-0,064
-215,796	121,445	-0,054	-0,047
-214,782	350,422	0,086	-0,120
-213,767	-200,000	-0,014	0,060
-212,752	101,846	-0,029	0,024
-211,738	18,248	0,068	0,039
-210,723	-190,002	0,095	-0,001
-209,709	448,908	-0,028	-0,044
-208,694	785,888	0,032	-0,063
-207,679	52,004	0,051	-0,034
-206,665	-51,323	0,041	-0,013
-205,650	91,411	-0,036	0,029
-204,636	-200,000	-0,041	0,184
-203,621	800,000	-0,044	0,088
-202,606	762,775	-0,080	-0,155
-201,592	-91,441	-0,024	-0,005
-200,577	6,502	0,056	-0,029
-199,563	293,721	0,062	-0,080
-198,548	278,854	-0,077	0,098
-197,533	354,210	0,051	0,072
-196,519	51,077	-0,130	-0,088
-195,504	609,298	0,027	-0,047
-194,490	-191,524	-0,113	0,001
-193,475	501,606	-0,036	-0,059
-192,460	181,960	0,050	0,053
-191,446	162,990	0,061	0,061
-190,431	-76,520	-0,130	0,032
-189,417	-62,823	0,186	0,054
-188,402	800,000	0,032	-0,091
-187,387	355,101	-0,070	-0,099
-186,373	285,312	0,032	-0,041
-185,358	215,628	0,052	0,059
-184,344	-200,000	0,012	-0,125
-183,329	306,061	0,140	0,184
-182,315	-200,000	-0,020	0,094
-181,300	-53,342	0,047	-0,015
-180,285	691,900	-0,080	-0,149
-179,271	-0,296	0,051	0,026
-178,256	-200,000	-0,029	-0,095
-177,242	225,284	-0,016	0,019
-176,227	271,389	0,083	0,104
-175,212	158,230	-0,042	-0,041
-174,198	-126,604	-0,015	0,002
-173,183	21,372	-0,142	-0,082
-172,169	186,840	0,045	-0,048
-171,154	-9,556	0,014	0,007
-170,139	87,812	0,104	-0,082
-169,125	135,523	-0,102	-0,094
-168,110	-144,084	-0,133	-0,009
-167,096	194,202	-0,083	0,089
-166,081	441,899	0,020	0,031
-165,066	258,574	-0,039	-0,048
-164,052	-200,000	0,026	0,139
-163,037	-127,926	0,113	0,011
-162,023	-196,144	0,050	0,000
-161,008	-13,874	-0,056	0,025
-159,993	14,406	0,156	-0,086
-158,979	-200,000	-0,015	0,113
-157,964	-200,000	-0,010	-0,081
-156,950	554,426	-0,033	-0,057
-155,935	140,522	0,035	0,033
-154,920	177,263	0,061	0,063
-153,906	76,172	0,139	0,104
-152,891	68,162	-0,165	-0,119
-151,877	-200,000	0,020	-0,064
-150,862	-21,574	-0,126	-0,054
-149,847	-200,000	-0,011	-0,065
-148,833	175,909	-0,105	-0,108
-147,818	37,900	-0,125	0,078
-146,804	-200,000	-0,022	0,119
-145,789	282,076	-0,075	0,096
-144,775	-81,921	0,062	0,014
-143,760	-200,000	-0,005	0,038
-142,745	-100,454	-0,035	0,006
-141,731	-200,000	-0,011	-0,063
-140,716	-77,866	0,039	0,009
-139,702	53,372	0,108	-0,073
-138,687	800,000	0,016	0,033
-137,672	11,222	-0,071	-0,038
-136,658	-200,000	-0,021	0,090
-135,643	17,691	-0,128	-0,072
-134,629	-200,000	0,005	0,162
-133,614	-200,000	0,001	0,029
-132,599	-200,000	0,022	0,147
-131,585	-99,172	0,079	0,014
-130,570	800,000	-0,001	-0,003
-129,556	485,309	-0,054	0,087
-128,541	448,397	-0,146	0,228
-127,526	800,000	-0,026	0,079
-126,512	-200,000	0,006	0,133
-125,497	-82,275	-0,048	0,011
-124,483	55,581	-0,065	-0,045
-123,468	369,091	0,074	-0,106
-122,453	426,898	-0,005	0,008
-121,439	110,127	-0,106	-0,090
-120,424	-43,681	0,065	0,023
-119,410	800,000	0,039	-0,086
-118,395	650,843	-0,031	-0,056
-117,380	-42,738	-0,075	0,027
-116,366	-200,000	0,039	-0,124
-115,351	-65,412	-0,138	-0,039
-114,337	-36,650	-0,115	-0,043
-113,322	800,000	-0,022	0,057
-112,307	96,508	0,071	-0,057
-111,293	-200,000	0,007	0,078
-110,278	-200,000	-0,004	0,072
-109,264	171,766	-0,054	0,055
-108,249	-15,332	0,016	-0,007
-107,234	-56,853	-0,095	0,030
-106,220	-150,197	-0,026	-0,001
-105,205	19,341	-0,069	-0,039
-104,191	-200,000	0,015	-0,051
-103,176	5,687	-0,063	0,033
-102,162	8,662	0,055	0,029
-101,147	-39,811	-0,082	0,030
-100,132	-78,947	0,097	-0,023
-99,118	-164,955	0,095	0,003
-98,103	299,154	-0,055	-0,071
-97,089	800,000	-0,011	0,033
-96,074	-197,207	-0,125	-0,001
-95,059	-131,992	-0,085	0,008
-94,045	800,000	-0,044	-0,128
-93,030	-99,863	-0,008	-0,001
-92,016	800,000	-0,030	0,088
-91,001	0,995	-0,114	0,057
-89,986	278,696	-0,057	0,073
-88,972	800,000	-0,016	0,037
-87,957	-12,704	0,077	0,035
-86,943	-200,000	0,015	0,101
-85,928	800,000	-0,062	0,145
-84,913	251,739	0,056	0,067
-83,899	61,757	-0,028	0,020
-82,884	-149,716	0,125	0,007
-81,870	-40,354	0,070	-0,026
-80,855	193,962	0,110	0,118
-79,840	275,364	-0,042	-0,052
-78,826	406,717	-0,023	0,034
-77,811	-124,954	-0,160	0,017
-76,797	-200,000	0,005	-0,048
-75,782	124,787	0,039	-0,034
-74,767	-3,672	0,100	0,049
-73,753	800,000	-0,042	0,113
-72,738	800,000	-0,051	0,128
-71,724	-200,000	-0,015	-0,078
-70,709	36,209	0,015	-0,009
-69,694	-105,182	-0,074	-0,012
-68,680	42,123	0,091	0,058
-67,665	591,271	0,070	0,123
-66,651	-200,000	0,012	0,138
-65,636	217,905	0,040	0,045
-64,622	315,385	-0,048	-0,065
-63,607	305,767	-0,081	-0,107
-62,592	-200,000	0,017	-0,074
-61,578	213,253	0,035	0,040
-60,563	-200,000	-0,026	-0,186
-59,549	287,563	-0,069	0,088
-58,534	50,400	-2,085	-1,388
-57,519	524,735	-1,140	-1,899
-56,505	-200,000	-0,291	-4,512
-55,490	654,713	0,837	1,523
-54,476	800,000	5,224	11,348
-53,461	-200,000	21,844	338,163
-52,446	800,000	760,468	2305,477
-51,432	536,290	1655,377	2782,498
-50,417	69,709	1652,157	1199,745
-49,403	16,720	1526,735	849,559
-48,388	10,940	1450,874	779,519
-47,373	19,050	1442,822	813,901
-46,359	14,272	1431,759	785,018
-45,344	9,202	1427,666	758,708
-44,330	9,167	1425,944	757,595
-43,315	9,126	1424,014	756,347
-42,300	9,147	1422,179	755,440
-41,286	9,171	1421,094	754,948
-40,271	9,143	1420,003	754,204
-39,257	9,134	1418,632	753,407
-38,242	9,141	1417,674	752,897
-37,227	9,181	1416,391	752,377
-36,213	9,143	1415,232	751,550
-35,198	9,190	1413,874	751,024
-34,184	9,178	1413,029	750,487
-33,169	9,091	1411,615	749,296
-32,154	9,161	1410,742	749,133
-31,140	9,131	1409,589	748,350
-30,125	9,183	1408,344	747,903
-29,111	9,181	1407,111	747,208
-28,096	9,154	1405,821	746,366
-27,082	9,082	1404,630	745,372
-26,067	9,111	1403,562	744,911
-25,052	9,085	1402,881	744,398
-24,038	9,114	1401,457	743,747
-23,023	9,106	1400,764	743,315
-22,009	9,120	1399,721	742,793
-20,994	9,133	1398,672	742,268
-19,979	9,061	1397,679	741,379
-18,965	9,094	1396,840	741,056
-17,950	9,058	1395,822	740,320
-16,936	9,042	1395,083	739,826
-15,921	8,964	1394,166	738,949
-14,906	9,045	1392,995	738,675
-13,892	9,080	1391,893	738,223
-12,877	9,005	1391,393	737,580
-11,863	8,998	1390,612	737,104
-10,848	8,974	1389,559	736,407
-9,833	8,978	1388,619	735,896
-8,819	8,942	1387,744	735,237
-7,804	8,936	1386,845	734,707
-6,790	8,952	1385,935	734,268
-5,775	8,935	1384,720	733,514
-4,760	8,944	1383,824	733,053
-3,746	8,931	1382,998	732,528
-2,731	8,957	1382,147	732,166
-1,717	8,893	1381,311	731,403
-0,702	8,929	1379,422	730,536
0,313	12,881	1291,333	701,874
1,327	28,723	683,401	407,037
2,342	44,596	117,724	76,149
3,356	2,182	16,472	8,364
4,371	4,434	3,620	1,865
5,386	-8,688	1,183	0,557
6,400	-200,000	0,171	0,546
7,415	-91,888	-0,129	-0,025
8,429	-52,633	-0,203	-0,066
9,444	82,283	-0,215	-0,164
10,459	-22,298	-0,345	-0,147
11,473	67,465	-0,203	-0,146
12,488	16,235	-0,316	-0,175
13,502	19,873	-0,253	-0,143
14,517	150,357	-0,248	-0,237
15,531	-27,431	-0,381	-0,155
16,546	196,883	-0,309	-0,332
17,561	175,404	-0,302	-0,308
18,575	10,238	-0,181	0,097
19,590	207,097	-0,185	-0,204
20,604	-177,328	-0,310	-0,005
21,619	364,201	-0,230	-0,327
22,634	175,269	-0,402	-0,410
23,648	200,287	-0,235	-0,254
24,663	149,031	-0,386	-0,368
25,677	-24,107	-0,429	-0,179
26,692	6,850	-0,464	-0,243
27,707	-32,369	-0,332	-0,130
28,721	161,584	-0,240	-0,236
29,736	424,973	-0,291	-0,442
30,750	135,346	-0,385	-0,352
31,765	181,147	-0,246	-0,255
32,780	-32,618	-0,453	-0,177
33,794	134,449	-0,259	-0,236
34,809	217,820	-0,272	-0,305
35,823	139,546	-0,388	-0,359
36,838	121,531	-0,335	-0,293
37,853	111,060	-0,305	-0,258
38,867	-15,461	-0,495	-0,221
39,882	706,625	-0,161	-0,300
40,896	142,877	-0,308	-0,288
41,911	25,520	-0,362	-0,211
42,926	161,727	-0,326	-0,321
43,940	41,076	-0,378	-0,240
44,955	103,931	-0,355	-0,293
45,969	384,137	-0,170	-0,246
46,984	-4,420	-0,411	-0,199
47,999	-33,345	-0,457	-0,177
49,013	303,430	-0,211	-0,275
50,028	185,129	-0,285	-0,297
51,042	139,989	-0,256	-0,237
52,057	112,690	-0,327	-0,278
53,071	242,875	-0,267	-0,314
54,086	-54,277	-0,248	-0,079
55,101	-76,517	-0,404	-0,099
56,115	114,999	-0,347	-0,297
57,130	107,522	-0,248	-0,207
58,144	67,834	-0,349	-0,250
59,159	112,930	-0,351	-0,299
60,174	-4,726	-0,425	-0,205
61,188	272,401	-0,224	-0,278
62,203	147,783	-0,333	-0,315
63,217	11,024	-0,372	-0,199
64,232	358,574	-0,165	-0,232
65,247	375,611	-0,211	-0,303
66,261	14,077	-0,373	-0,203
67,276	32,301	-0,327	-0,197
68,290	130,857	-0,367	-0,330
69,305	60,100	-0,334	-0,231
70,320	-38,081	-0,374	-0,138
71,334	48,929	-0,237	-0,156
72,349	71,994	-0,410	-0,299
73,363	105,759	-0,190	-0,157
74,378	-2,603	-0,290	-0,142
75,393	173,582	-0,380	-0,384
76,407	74,798	-0,312	-0,230
77,422	36,562	-0,276	-0,170
78,436	-102,484	-0,372	-0,062
79,451	800,000	-0,054	-0,138
80,466	-6,361	-0,260	-0,124
81,480	18,931	-0,337	-0,188
82,495	338,234	-0,268	-0,367
83,509	324,102	-0,185	-0,248
84,524	562,015	-0,151	-0,257
85,539	21,138	-0,291	-0,165
86,553	128,621	-0,155	-0,138
87,568	68,768	-0,281	-0,202
88,582	93,701	-0,222	-0,176
89,597	228,648	-0,260	-0,298
90,611	-84,855	-0,321	-0,070
91,626	142,830	-0,278	-0,258
92,641	-115,019	-0,238	0,031
93,655	800,000	-0,113	-0,262
94,670	-9,645	-0,285	-0,132
95,684	-39,396	-0,359	-0,131
96,699	150,792	-0,228	-0,216
97,714	-48,415	-0,334	-0,112
98,728	63,416	-0,284	-0,199
99,743	-15,351	-0,261	-0,116
100,757	1,833	-0,190	-0,095
101,772	298,837	-0,129	-0,167
102,787	43,218	-0,273	-0,174
103,801	27,421	-0,314	-0,184
104,816	66,898	-0,265	-0,188
105,830	222,008	-0,171	-0,192
106,845	-51,976	-0,189	0,061
107,860	96,297	-0,213	-0,170
108,874	96,470	-0,198	-0,159
109,889	-46,679	-0,299	-0,102
110,903	18,237	-0,173	-0,096
111,918	69,365	-0,332	-0,238
112,933	51,420	-0,239	-0,158
113,947	174,045	-0,207	-0,209
114,962	25,336	-0,304	-0,176
115,976	71,985	-0,150	-0,109
116,991	252,794	-0,161	-0,192
118,006	110,831	-0,272	-0,228
119,020	-200,000	-0,212	0,000
120,035	56,977	-0,144	-0,098
121,049	11,262	-0,149	-0,079
122,064	-200,000	-0,279	-0,001
123,079	73,070	-0,332	-0,241
124,093	322,178	-0,145	-0,193
125,108	187,560	-0,274	-0,285
126,122	5,947	-0,271	-0,139
127,137	5,951	-0,197	-0,101
128,151	-0,205	-0,277	-0,137
129,166	88,855	-0,176	-0,137
130,181	147,012	-0,218	-0,204
131,195	150,729	-0,284	-0,269
132,210	64,285	-0,318	-0,223
133,224	201,649	-0,255	-0,274
134,239	353,721	-0,070	-0,097
135,254	-124,024	-0,290	-0,031
136,268	4,280	-0,197	-0,100
137,283	-64,078	-0,304	-0,086
138,297	21,298	-0,294	-0,166
139,312	-86,698	-0,304	-0,064
140,327	316,285	-0,275	-0,362
141,341	-35,817	-0,311	-0,117
142,356	293,534	-0,162	-0,206
143,370	45,316	-0,267	-0,171
144,385	41,145	-0,150	-0,094
145,400	-14,488	-0,325	-0,145
146,414	54,156	-0,271	-0,181
147,429	138,536	-0,309	-0,282
148,443	245,424	-0,234	-0,274
149,458	12,389	-0,321	-0,172
150,473	-132,318	-0,238	-0,021
151,487	221,476	-0,166	-0,186
152,502	166,401	-0,249	-0,245
153,516	25,184	-0,300	-0,173
154,531	199,481	-0,157	-0,168
155,546	82,837	-0,265	-0,200
156,560	155,214	-0,178	-0,170
157,575	249,137	-0,228	-0,269
158,589	-5,704	-0,316	-0,150
159,604	274,391	-0,141	-0,174
160,619	296,651	-0,284	-0,363
161,633	93,577	-0,260	-0,205
162,648	106,714	-0,317	-0,261
163,662	124,314	-0,190	-0,166
164,677	223,041	-0,119	-0,133
165,692	-12,659	-0,321	-0,145
166,706	-135,705	-0,230	0,019
167,721	-23,948	-0,251	-0,104
168,735	-58,787	-0,254	-0,076
169,750	72,801	-0,194	-0,140
170,764	-200,000	-0,093	-0,296
171,779	110,545	-0,185	-0,155
172,794	66,685	-0,227	-0,160
173,808	-66,678	-0,300	-0,082
174,823	129,244	-0,238	-0,211
175,837	800,000	-0,126	-0,277
176,852	6,122	-0,258	-0,132
177,867	315,072	-0,157	-0,205
178,881	638,152	-0,095	-0,168
179,896	412,319	-0,094	-0,139
180,910	800,000	-0,110	-0,287
181,925	-90,905	-0,152	-0,030
182,940	108,227	-0,183	-0,152
183,954	200,827	-0,109	-0,116
184,969	64,915	-0,212	-0,148
185,983	245,506	-0,217	-0,254
186,998	777,113	-0,145	-0,275
188,013	50,055	-0,161	-0,105
189,027	137,543	-0,182	-0,165
190,042	-108,941	-0,226	-0,033
191,056	162,975	-0,136	-0,133
192,071	152,867	-0,258	-0,245
193,086	146,257	-0,071	-0,066
194,100	-24,836	-0,231	-0,095
195,115	407,237	-0,124	-0,183
196,129	199,518	-0,103	-0,109
197,144	228,908	-0,201	-0,227
198,159	371,221	-0,171	-0,241
199,173	-200,000	0,016	-0,171
200,188	91,577	-0,191	-0,149
201,202	79,437	-0,233	-0,173
202,217	800,000	-0,075	-0,220
203,232	86,364	-0,274	-0,209
204,246	-15,336	-0,350	-0,155
205,261	72,298	-0,224	-0,162
206,275	40,107	-0,154	-0,096
207,290	800,000	-0,103	-0,214
208,304	7,069	-0,240	-0,124
209,319	-70,941	-0,167	0,043
210,334	32,638	-0,182	-0,108
211,348	-67,244	-0,147	-0,040
212,363	376,142	-0,096	-0,136
213,377	229,643	-0,133	-0,150
214,392	-200,000	-0,014	-0,072
215,407	-31,399	-0,354	-0,137
216,421	179,912	-0,179	-0,182
217,436	-16,208	-0,202	-0,088
218,450	117,560	-0,186	-0,158
219,465	164,306	-0,262	-0,256
220,480	-200,000	-0,031	-0,243
221,494	60,994	-0,135	-0,093
222,509	369,461	-0,171	-0,240
223,523	20,906	-0,141	-0,079
224,538	-200,000	-0,066	-0,238
225,553	148,796	-0,245	-0,229
226,567	188,886	-0,281	-0,291
227,582	63,126	-0,188	-0,130
228,596	140,819	-0,211	-0,193
229,611	101,428	-0,149	-0,120
230,626	20,405	-0,197	-0,110
231,640	-95,388	-0,226	-0,042
232,655	6,615	-0,225	-0,115
233,669	56,751	-0,266	-0,179
234,684	182,843	-0,129	-0,131
235,699	110,866	-0,134	-0,111
236,713	800,000	-0,048	-0,103
237,728	-91,139	-0,157	-0,031
238,742	-61,265	-0,244	0,071
239,757	8,845	-0,249	-0,129
240,772	10,840	-0,337	-0,177
241,786	9,513	-0,210	-0,109
242,801	183,320	-0,102	-0,104
243,815	144,640	-0,210	-0,193
244,830	240,984	-0,103	-0,119
245,844	351,282	-0,139	-0,190
246,859	60,995	-0,237	-0,162
247,874	-194,555	-0,167	0,001
248,888	213,040	-0,126	-0,137
249,903	-83,136	-0,201	-0,044
250,917	-107,982	-0,219	0,032
251,932	-120,970	-0,108	-0,012
252,947	-49,958	-0,270	-0,088
253,961	59,234	-0,240	-0,163
254,976	57,362	-0,268	-0,180
255,990	128,471	-0,199	-0,175
257,005	-50,156	-0,190	-0,062
258,020	259,139	-0,139	-0,166
259,034	533,543	-0,146	-0,239
260,049	-92,027	-0,285	-0,055
261,063	89,669	-0,146	-0,113
262,078	17,581	-0,197	-0,108
263,093	16,544	-0,247	-0,134
264,107	52,956	-0,190	-0,125
265,122	125,949	-0,134	-0,117
266,136	-27,051	-0,159	0,063
267,151	29,225	-0,162	-0,095
268,166	76,872	-0,243	-0,178
269,180	137,738	-0,176	-0,159
270,195	54,291	-0,218	-0,145
271,209	-200,000	-0,005	0,084
272,224	79,298	-0,154	-0,113
273,239	800,000	-0,043	-0,123
274,253	374,570	-0,131	-0,185
275,268	-71,585	-0,084	-0,021
276,282	383,004	-0,133	-0,189
277,297	-54,279	-0,207	-0,064
278,312	800,000	-0,082	-0,213
279,326	-117,604	-0,202	0,025
280,341	-124,176	-0,081	-0,009
281,355	41,397	-0,088	0,055
282,370	436,213	-0,130	-0,195
283,384	197,227	-0,179	-0,188
284,399	-200,000	-0,036	-0,130
285,414	-80,818	-0,123	0,028
286,428	107,991	-0,107	-0,088
287,443	768,410	-0,058	-0,109
288,457	800,000	-0,089	-0,234
289,472	557,259	-0,114	-0,189
290,487	-65,218	-0,261	-0,072
291,501	63,622	-0,090	-0,062
292,516	119,689	-0,150	-0,127
293,530	202,551	-0,138	-0,147
294,545	-35,106	-0,176	-0,065
295,560	407,526	-0,075	-0,109
296,574	-46,337	-0,170	-0,057
297,589	-56,952	-0,224	-0,068
298,603	5,102	-0,309	-0,156
299,618	240,102	-0,236	-0,271
300,633	75,589	-0,147	-0,107
301,647	-48,009	-0,163	0,054
302,662	255,586	-0,127	-0,149
303,676	26,633	-0,175	-0,100
304,691	223,141	-0,060	-0,066
305,706	278,143	-0,137	-0,168
306,720	637,157	-0,070	-0,123
307,735	800,000	-0,083	-0,163
308,749	-128,177	-0,171	0,017
309,764	-31,404	-0,063	-0,024
310,779	392,707	-0,116	-0,166
311,793	22,031	-0,239	-0,133
312,808	800,000	-0,083	-0,186
313,822	8,271	-0,257	-0,132
314,837	-14,919	-0,156	0,068
315,852	78,597	-0,172	-0,126
316,866	29,887	-0,191	-0,111
317,881	-106,454	-0,245	-0,037
318,895	97,082	-0,130	-0,102
319,910	-47,112	-0,161	-0,054
320,925	-200,000	-0,026	-0,120
321,939	800,000	-0,027	-0,071
322,954	800,000	-0,095	-0,251
323,968	-154,265	-0,155	-0,007
324,983	-104,901	-0,272	-0,042
325,997	326,878	-0,129	-0,170
327,012	2,333	-0,212	-0,105
328,027	800,000	-0,057	-0,114
329,041	800,000	-0,081	-0,176
330,056	-200,000	-0,011	-0,049
331,070	-200,000	0,003	0,026
332,085	-78,280	-0,131	0,031
333,100	800,000	-0,069	-0,189
334,114	121,269	-0,135	-0,115
335,129	800,000	-0,068	-0,164
336,143	72,695	-0,144	-0,103
337,158	-91,316	-0,143	-0,028
338,173	-200,000	-0,031	-0,132
339,187	-70,030	-0,129	0,034
340,202	48,890	-0,137	-0,088
341,216	163,771	-0,170	-0,163
342,231	-200,000	-0,062	-0,222
343,246	234,182	-0,139	-0,157
344,260	-21,471	-0,119	-0,049
345,275	186,442	-0,086	-0,087
346,289	-152,304	0,042	-0,002
347,304	217,313	-0,115	-0,125
348,319	800,000	-0,067	-0,197
349,333	-72,969	-0,197	-0,049
350,348	-8,889	-0,126	-0,058
351,362	93,529	-0,163	-0,126
352,377	-200,000	0,006	-0,050
353,392	-129,128	-0,095	0,009
354,406	-199,797	-0,095	0,000
355,421	208,896	1305,578	1398,499
356,435	160,760	1465,150	1398,978
