DTS Sentinel unit serial number:	SN410029Multiplexer serial number:	ORYXHardware model number:	OX2-SRSoftware version number:	ORYX F/W v4,00 Oryx Data Collector v3.7.2.0data status	okinstallation	B3 Nyhavnadifferential loss correction	single-endedforward channel	channel 1reverse channel	N/Adate	2023/12/04time	04:27:30forward acquisition time	300,00reverse acquisition time	0,00gamma	499,1914k internal	0,3206k external	0,3206temperature offset calibration	1,0000default loss term (dB/km)	0,3820temperature slope calibration	1,0000multiplexer offset coefficient	1,0000multiplexer slope coefficient	1,0000fibre end	0,00T internal ref (°C)	12,00T ext. ref 1 (°C)	-3,10T ext. ref 2 (°C)	-3,13length (m)	temperature (°C)	Stokes	anti-Stokes-744,400	78,306	-0,218	-0,169
-743,385	-200,000	-0,044	0,324
-742,371	153,578	-0,191	-0,191
-741,356	-200,000	-0,038	0,220
-740,342	471,342	-0,145	-0,238
-739,327	-200,000	0,062	0,199
-738,312	-37,224	-0,223	-0,086
-737,298	-200,000	0,000	0,316
-736,283	239,351	-0,158	-0,191
-735,269	-200,000	-0,074	0,346
-734,254	800,000	-0,066	-0,186
-733,239	95,458	-0,183	0,151
-732,225	800,000	-0,066	-0,160
-731,210	-48,207	0,150	0,052
-730,196	321,428	0,065	0,090
-729,181	-200,000	0,001	-0,051
-728,167	800,000	-0,048	-0,151
-727,152	800,000	-0,041	0,098
-726,137	122,928	0,081	-0,074
-725,123	676,868	0,041	-0,078
-724,108	89,544	-0,122	-0,098
-723,094	800,000	0,035	-0,080
-722,079	800,000	-0,076	-0,168
-721,064	152,985	-0,139	0,138
-720,050	-200,000	-0,012	0,107
-719,035	146,478	0,069	0,068
-718,021	-97,128	-0,052	-0,010
-717,006	-100,139	-0,126	0,023
-715,991	-174,947	-0,228	-0,005
-714,977	390,808	0,033	0,050
-713,962	143,396	0,101	-0,098
-712,948	90,220	-0,100	0,081
-711,933	21,270	0,046	-0,027
-710,918	-100,196	-0,089	-0,016
-709,904	-16,477	-0,027	0,013
-708,889	314,049	0,085	-0,116
-707,875	-61,030	-0,045	-0,014
-706,860	800,000	-0,050	-0,103
-705,845	-200,000	0,003	0,038
-704,831	-24,445	0,028	0,012
-703,816	-21,914	0,087	0,038
-702,802	-200,000	-0,055	0,199
-701,787	-124,155	-0,008	-0,001
-700,772	-200,000	-0,024	-0,079
-699,758	-200,000	-0,032	-0,137
-698,743	722,299	0,034	-0,066
-697,729	800,000	0,029	0,089
-696,714	-200,000	0,017	0,078
-695,699	433,349	0,031	0,050
-694,685	30,769	-0,181	-0,112
-693,670	-200,000	-0,013	-0,167
-692,656	-79,945	0,052	0,012
-691,641	-200,000	0,004	-0,027
-690,627	298,833	0,131	-0,175
-689,612	-22,117	0,015	-0,006
-688,597	-91,799	-0,069	-0,014
-687,583	336,251	-0,067	-0,094
-686,568	407,949	0,108	-0,167
-685,554	-12,707	-0,144	-0,068
-684,539	-38,896	0,114	0,043
-683,524	800,000	0,034	0,086
-682,510	-28,508	-0,109	0,045
-681,495	253,885	0,030	0,037
-680,481	-200,000	-0,000	-0,102
-679,466	-158,415	-0,047	0,002
-678,451	-34,035	0,079	-0,031
-677,437	-96,046	-0,084	0,016
-676,422	39,152	-0,063	-0,041
-675,408	-66,045	0,126	0,036
-674,393	800,000	-0,021	-0,048
-673,378	-109,114	0,057	-0,009
-672,364	800,000	0,056	-0,125
-671,349	183,610	-0,073	-0,078
-670,335	-92,002	0,095	0,019
-669,320	247,802	-0,026	-0,031
-668,305	-200,000	0,008	-0,024
-667,291	-200,000	-0,031	-0,127
-666,276	495,517	-0,038	-0,064
-665,262	230,258	-0,027	-0,032
-664,247	149,319	-0,044	-0,043
-663,232	800,000	-0,025	-0,062
-662,218	-200,000	0,026	0,137
-661,203	405,540	-0,055	0,084
-660,189	-73,980	-0,129	-0,034
-659,174	62,346	-0,038	0,028
-658,159	-34,813	0,129	-0,051
-657,145	-200,000	-0,008	-0,095
-656,130	200,129	-0,044	-0,049
-655,116	483,571	-0,110	0,181
-654,101	-13,989	-0,077	-0,036
-653,086	800,000	-0,008	0,023
-652,072	-29,647	-0,130	0,053
-651,057	-50,742	-0,094	-0,032
-650,043	-154,932	0,038	-0,002
-649,028	260,223	-0,014	0,017
-648,014	-18,718	0,055	0,025
-646,999	-200,000	0,027	0,173
-645,984	259,692	0,063	0,079
-644,970	-91,488	-0,106	0,022
-643,955	153,530	-0,073	-0,073
-642,941	31,922	0,075	0,047
-641,926	19,572	0,055	0,032
-640,911	800,000	0,035	0,091
-639,897	191,911	0,063	0,069
-638,882	77,081	0,070	0,053
-637,868	-93,595	-0,165	0,033
-636,853	-200,000	0,010	-0,067
-635,838	56,996	-0,030	0,021
-634,824	800,000	-0,042	-0,109
-633,809	800,000	-0,033	0,068
-632,795	-200,000	0,023	-0,079
-631,780	-200,000	0,000	0,046
-630,765	-52,715	0,077	-0,025
-629,751	-68,282	-0,044	-0,012
-628,736	800,000	0,020	-0,048
-627,722	-28,417	-0,044	0,018
-626,707	-22,644	0,040	0,017
-625,692	7,472	0,065	-0,035
-624,678	-66,266	-0,062	-0,018
-623,663	-200,000	-0,005	-0,035
-622,649	49,185	-0,045	0,030
-621,634	800,000	-0,028	0,065
-620,619	-21,854	-0,077	0,034
-619,605	-63,302	0,092	0,027
-618,590	727,639	-0,081	-0,156
-617,576	-200,000	0,037	-0,138
-616,561	353,997	-0,061	-0,088
-615,546	481,219	0,011	0,018
-614,532	-200,000	0,005	0,058
-613,517	-200,000	0,009	0,092
-612,503	26,491	0,073	-0,044
-611,488	-102,274	0,076	0,013
-610,474	295,726	0,056	-0,074
-609,459	-200,000	0,030	0,168
-608,444	-200,000	0,004	-0,087
-607,430	-200,000	-0,000	-0,144
-606,415	67,812	0,070	-0,052
-605,401	390,718	-0,042	-0,063
-604,386	-200,000	0,019	-0,093
-603,371	73,168	-0,043	-0,032
-602,357	-160,968	0,061	0,002
-601,342	-34,454	-0,107	0,042
-600,328	-45,330	0,016	-0,006
-599,313	259,962	-0,049	-0,062
-598,298	-200,000	0,014	-0,138
-597,284	800,000	-0,042	0,087
-596,269	533,583	0,020	-0,034
-595,255	546,614	0,023	-0,040
-594,240	800,000	0,031	-0,082
-593,225	147,980	-0,110	0,107
-592,211	370,851	-0,020	-0,030
-591,196	-120,598	-0,166	0,020
-590,182	181,205	-0,095	0,101
-589,167	-200,000	0,011	-0,035
-588,152	-200,000	0,013	-0,046
-587,138	306,030	-0,028	0,038
-586,123	-200,000	-0,017	-0,126
-585,109	157,437	-0,049	0,049
-584,094	206,825	-0,014	0,016
-583,079	93,776	0,073	0,060
-582,065	800,000	0,070	-0,150
-581,050	800,000	0,046	-0,110
-580,036	135,307	-0,041	-0,038
-579,021	351,082	0,017	-0,024
-578,006	-200,000	0,003	-0,154
-576,992	800,000	0,017	0,040
-575,977	-119,898	0,066	-0,008
-574,963	800,000	-0,068	0,163
-573,948	-106,357	-0,066	0,010
-572,934	-200,000	0,014	0,140
-571,919	-107,830	-0,057	0,009
-570,904	-15,277	-0,127	-0,058
-569,890	21,032	-0,091	0,053
-568,875	-146,965	0,061	-0,004
-567,861	-200,000	0,012	0,124
-566,846	13,566	0,059	0,033
-565,831	-200,000	0,018	-0,059
-564,817	800,000	-0,045	0,089
-563,802	-71,372	-0,090	0,024
-562,788	-125,444	0,070	-0,008
-561,773	800,000	0,050	-0,142
-560,758	280,130	0,081	0,104
-559,744	800,000	0,012	-0,036
-558,729	12,697	-0,150	0,083
-557,715	0,984	-0,056	0,029
-556,700	-200,000	0,020	-0,082
-555,685	-55,088	0,156	-0,050
-554,671	-119,409	-0,041	0,005
-553,656	669,144	0,075	-0,140
-552,642	143,914	-0,033	-0,032
-551,627	331,934	0,077	0,107
-550,612	-200,000	0,001	-0,055
-549,598	-62,881	-0,040	-0,012
-548,583	139,152	-0,098	-0,093
-547,569	638,455	-0,010	-0,018
-546,554	-200,000	0,017	-0,067
-545,539	3,813	-0,198	-0,104
-544,525	-200,000	-0,035	0,150
-543,510	771,420	-0,042	0,083
-542,496	-200,000	0,006	0,045
-541,481	800,000	0,038	-0,108
-540,466	771,928	-0,031	0,061
-539,452	-200,000	-0,013	0,157
-538,437	-200,000	0,051	0,229
-537,423	-200,000	-0,001	-0,120
-536,408	171,514	0,062	-0,064
-535,393	408,487	-0,056	0,085
-534,379	168,727	-0,016	-0,017
-533,364	-57,711	-0,026	-0,008
-532,350	-200,000	-0,002	0,023
-531,335	800,000	0,046	0,129
-530,321	106,777	0,021	-0,018
-529,306	88,133	-0,063	0,051
-528,291	-63,833	-0,073	-0,021
-527,277	58,012	-0,108	-0,076
-526,262	152,974	-0,095	-0,093
-525,248	-200,000	-0,032	0,124
-524,233	789,635	-0,012	-0,024
-523,218	-200,000	-0,012	0,093
-522,204	543,212	0,050	0,086
-521,189	200,566	-0,008	-0,009
-520,175	-200,000	-0,006	-0,076
-519,160	-200,000	0,009	-0,030
-518,145	-200,000	-0,027	-0,180
-517,131	-200,000	0,013	0,095
-516,116	-78,406	-0,064	0,016
-515,102	-200,000	-0,001	-0,086
-514,087	-106,592	0,053	0,008
-513,072	121,353	-0,123	-0,111
-512,058	102,982	0,022	-0,018
-511,043	800,000	-0,037	-0,102
-510,029	-33,786	0,135	-0,053
-509,014	-200,000	0,008	0,058
-507,999	-200,000	0,003	0,111
-506,985	-11,225	-0,020	-0,010
-505,970	57,280	-0,092	-0,065
-504,956	-200,000	-0,013	0,056
-503,941	28,628	-0,097	-0,059
-502,926	800,000	-0,004	0,011
-501,912	-50,405	-0,020	-0,007
-500,897	2,451	0,105	0,055
-499,883	333,215	-0,094	0,131
-498,868	589,190	-0,037	-0,065
-497,853	91,328	-0,029	0,023
-496,839	-200,000	-0,005	0,085
-495,824	399,842	-0,027	0,040
-494,810	-200,000	-0,020	0,100
-493,795	-200,000	-0,018	0,097
-492,781	39,978	-0,070	-0,045
-491,766	-73,504	-0,041	0,011
-490,751	-200,000	-0,050	-0,202
-489,737	583,003	0,010	0,017
-488,722	429,137	0,015	0,024
-487,708	-200,000	0,001	0,071
-486,693	-200,000	0,000	0,032
-485,678	-1,729	0,117	-0,059
-484,664	108,522	-0,018	-0,015
-483,649	800,000	-0,037	-0,090
-482,635	-13,838	0,138	0,064
-481,620	-200,000	-0,002	0,064
-480,605	151,528	0,051	0,050
-479,591	-162,298	0,072	0,003
-478,576	78,262	0,019	-0,015
-477,562	-200,000	0,003	-0,092
-476,547	512,883	-0,048	-0,080
-475,532	31,556	-0,052	0,032
-474,518	800,000	0,034	-0,080
-473,503	0,955	0,077	0,040
-472,489	-126,498	0,042	0,004
-471,474	345,445	0,025	0,036
-470,459	615,568	0,040	0,072
-469,445	795,078	-0,066	-0,132
-468,430	800,000	0,031	-0,072
-467,416	41,188	0,041	-0,026
-466,401	-200,000	0,003	0,049
-465,386	118,789	-0,062	-0,055
-464,372	-58,336	0,063	0,019
-463,357	-104,306	-0,076	0,013
-462,343	464,814	0,035	-0,057
-461,328	378,217	-0,017	-0,025
-460,313	183,702	0,098	-0,104
-459,299	-39,376	0,122	0,046
-458,284	-160,816	0,093	0,003
-457,270	-8,183	-0,159	-0,077
-456,255	103,800	0,094	-0,079
-455,241	87,462	-0,068	0,054
-454,226	800,000	-0,054	0,149
-453,211	-200,000	0,023	0,082
-452,197	-200,000	0,022	0,158
-451,182	266,034	0,050	0,062
-450,168	-9,550	-0,104	-0,050
-449,153	-8,210	-0,041	0,020
-448,138	608,947	-0,081	-0,145
-447,124	-200,000	-0,008	0,100
-446,109	39,301	0,075	-0,048
-445,095	219,686	-0,035	0,040
-444,080	-200,000	0,013	-0,066
-443,065	67,870	0,062	-0,046
-442,051	1,711	-0,111	0,057
-441,036	65,629	0,132	-0,096
-440,022	345,734	-0,019	-0,028
-439,007	146,876	0,125	0,121
-437,992	-200,000	-0,000	-0,038
-436,978	-200,000	0,025	0,127
-435,963	116,856	-0,158	0,139
-434,949	-17,146	0,185	0,083
-433,934	-137,278	-0,028	-0,002
-432,919	82,084	0,110	-0,085
-431,905	-200,000	0,024	-0,082
-430,890	-200,000	0,014	0,148
-429,876	599,783	0,043	0,078
-428,861	-200,000	0,009	0,100
-427,846	377,103	-0,052	0,076
-426,832	471,074	0,072	-0,116
-425,817	97,219	-0,084	0,069
-424,803	800,000	-0,035	-0,083
-423,788	-9,318	-0,056	0,027
-422,773	800,000	-0,016	0,050
-421,759	84,754	-0,118	0,092
-420,744	103,273	0,021	-0,018
-419,730	-40,832	-0,087	0,032
-418,715	445,186	-0,037	-0,058
-417,701	-119,242	0,081	-0,010
-416,686	61,836	-0,115	0,082
-415,671	96,777	0,102	0,084
-414,657	-200,000	0,013	0,042
-413,642	52,167	0,208	0,142
-412,628	-45,745	-0,086	0,030
-411,613	114,854	0,090	0,079
-410,598	-131,267	0,109	0,010
-409,584	93,637	-0,026	0,021
-408,569	-50,869	-0,075	-0,025
-407,555	-132,070	0,068	-0,006
-406,540	800,000	0,065	0,157
-405,525	196,566	-0,089	-0,097
-404,511	-27,482	-0,082	0,034
-403,496	800,000	0,021	0,063
-402,482	-200,000	-0,009	-0,124
-401,467	84,734	0,082	0,064
-400,452	-200,000	0,000	-0,113
-399,438	40,247	-0,092	0,059
-398,423	140,773	0,075	-0,071
-397,409	-71,201	0,111	-0,030
-396,394	-138,433	-0,098	0,008
-395,379	800,000	0,042	-0,115
-394,365	769,095	-0,027	-0,054
-393,350	-105,650	0,029	0,005
-392,336	114,303	0,070	0,061
-391,321	26,388	-0,049	0,029
-390,306	800,000	0,057	-0,119
-389,292	-162,344	-0,158	-0,006
-388,277	14,111	-0,088	-0,049
-387,263	800,000	0,029	0,061
-386,248	67,334	0,191	0,140
-385,233	38,680	-0,128	-0,082
-384,219	-200,000	-0,025	-0,096
-383,204	92,256	-0,046	0,037
-382,190	-200,000	-0,029	-0,164
-381,175	-3,187	0,102	-0,051
-380,160	800,000	-0,027	0,071
-379,146	181,711	-0,023	-0,024
-378,131	-200,000	0,020	0,095
-377,117	39,514	0,022	-0,014
-376,102	800,000	-0,050	0,113
-375,088	94,491	-0,016	0,013
-374,073	129,166	0,091	-0,083
-373,058	-27,158	-0,010	0,004
-372,044	-58,937	0,060	0,019
-371,029	373,105	0,070	-0,102
-370,015	-49,092	0,119	0,040
-369,000	-200,000	-0,008	-0,065
-367,985	-6,875	0,068	-0,033
-366,971	506,543	0,052	0,087
-365,956	-134,087	0,196	0,017
-364,942	448,022	-0,044	0,070
-363,927	-16,666	0,079	-0,035
-362,912	-111,771	-0,063	0,009
-361,898	-200,000	0,000	-0,001
-360,883	84,149	0,032	-0,025
-359,869	-65,531	0,057	0,016
-358,854	-146,274	0,061	-0,004
-357,839	-200,000	0,020	0,066
-356,825	359,249	0,081	0,116
-355,810	714,872	0,048	0,091
-354,796	-107,349	-0,051	0,008
-353,781	-113,300	-0,093	-0,013
-352,766	38,823	-0,078	0,050
-351,752	-100,743	0,097	-0,017
-350,737	-107,115	0,173	0,027
-349,723	-61,628	-0,075	0,022
-348,708	-97,712	0,057	-0,010
-347,693	-17,170	0,052	0,023
-346,679	-200,000	0,015	-0,127
-345,664	800,000	0,036	-0,093
-344,650	-81,859	0,091	-0,021
-343,635	-77,703	-0,095	-0,023
-342,620	-49,343	-0,120	-0,041
-341,606	272,600	-0,061	0,077
-340,591	-136,225	-0,098	0,008
-339,577	-200,000	0,022	-0,116
-338,562	-152,941	-0,102	-0,005
-337,548	280,125	0,033	-0,043
-336,533	800,000	-0,019	0,050
-335,518	-179,226	0,016	0,000
-334,504	5,698	0,156	0,082
-333,489	-63,059	-0,065	-0,019
-332,475	-115,348	-0,139	-0,019
-331,460	169,948	-0,058	-0,059
-330,445	-200,000	0,013	-0,157
-329,431	-161,994	0,081	-0,003
-328,416	800,000	0,006	0,015
-327,402	-122,008	-0,075	0,009
-326,387	620,352	0,039	-0,070
-325,372	-200,000	-0,007	-0,081
-324,358	281,738	0,057	-0,073
-323,343	0,635	-0,214	0,109
-322,329	-200,000	-0,006	0,051
-321,314	-80,937	0,159	-0,037
-320,299	21,639	0,018	-0,011
-319,285	-114,928	-0,138	-0,019
-318,270	-200,000	0,010	-0,053
-317,256	345,016	0,099	-0,139
-316,241	370,339	0,018	0,026
-315,226	-200,000	0,015	0,050
-314,212	660,125	-0,034	0,063
-313,197	-200,000	0,014	0,095
-312,183	-200,000	-0,004	0,051
-311,168	800,000	0,011	0,025
-310,153	800,000	0,077	-0,157
-309,139	800,000	-0,017	-0,047
-308,124	-48,334	0,017	0,006
-307,110	-23,258	0,080	0,034
-306,095	-5,375	0,131	0,064
-305,080	213,829	-0,047	0,053
-304,066	-58,499	-0,076	-0,023
-303,051	800,000	-0,074	-0,156
-302,037	105,350	0,115	-0,097
-301,022	316,664	-0,029	0,039
-300,008	3,232	-0,084	0,044
-298,993	-156,437	0,234	-0,010
-297,978	-200,000	-0,001	0,051
-296,964	-81,255	0,088	0,021
-295,949	-100,023	-0,157	0,028
-294,935	-200,000	0,018	0,095
-293,920	136,343	0,040	0,037
-292,905	-127,287	0,146	-0,015
-291,891	194,617	-0,065	0,071
-290,876	800,000	0,066	-0,132
-289,862	-36,411	-0,135	-0,052
-288,847	-152,064	-0,138	0,007
-287,832	-200,000	0,015	-0,106
-286,818	800,000	-0,013	0,032
-285,803	-117,873	0,085	-0,011
-284,789	101,144	0,138	-0,115
-283,774	800,000	-0,055	0,160
-282,759	-111,227	0,064	-0,009
-281,745	-33,198	-0,076	-0,030
-280,730	435,211	-0,040	-0,062
-279,716	-200,000	0,022	0,132
-278,701	800,000	0,029	0,067
-277,686	-200,000	-0,005	0,025
-276,672	158,824	-0,064	0,064
-275,657	-7,576	0,105	0,050
-274,643	216,246	-0,074	-0,084
-273,628	526,857	0,019	0,032
-272,613	79,497	0,049	-0,038
-271,599	800,000	-0,047	0,106
-270,584	19,668	0,082	0,047
-269,570	-125,066	0,116	0,013
-268,555	22,551	-0,070	-0,041
-267,540	-200,000	0,002	0,063
-266,526	-99,725	-0,100	-0,018
-265,511	-200,000	-0,006	0,170
-264,497	-200,000	0,031	0,129
-263,482	27,335	-0,025	-0,015
-262,467	-200,000	-0,014	-0,073
-261,453	-44,672	-0,076	-0,027
-260,438	-20,669	-0,100	-0,044
-259,424	192,206	-0,014	-0,015
-258,409	-200,000	0,012	0,090
-257,395	347,022	0,058	0,082
-256,380	-92,406	0,073	-0,014
-255,365	800,000	0,064	0,128
-254,351	800,000	0,105	0,214
-253,336	-104,092	-0,067	-0,011
-252,322	-200,000	0,016	0,096
-251,307	800,000	-0,039	-0,121
-250,292	-200,000	0,007	-0,091
-249,278	800,000	0,048	0,115
-248,263	459,307	0,017	0,027
-247,249	-5,488	-0,031	0,015
-246,234	-31,199	-0,170	-0,068
-245,219	-5,595	-0,103	-0,050
-244,205	-42,569	-0,151	-0,054
-243,190	800,000	0,024	-0,068
-242,176	-98,516	0,151	-0,027
-241,161	800,000	0,073	0,157
-240,146	800,000	-0,020	0,061
-239,132	800,000	0,027	-0,067
-238,117	501,444	-0,021	-0,035
-237,103	60,923	-0,022	-0,015
-236,088	602,187	0,098	-0,173
-235,073	-200,000	-0,028	0,120
-234,059	-200,000	-0,022	0,103
-233,044	325,266	0,071	0,097
-232,030	-171,492	0,062	0,001
-231,015	-105,671	-0,001	-0,000
-230,000	-200,000	0,007	-0,069
-228,986	-200,000	-0,008	-0,085
-227,971	-45,055	0,060	0,021
-226,957	-77,929	-0,027	-0,006
-225,942	-120,459	-0,130	0,015
-224,927	156,382	-0,109	0,107
-223,913	143,143	-0,049	-0,046
-222,898	-29,037	-0,054	-0,022
-221,884	800,000	-0,028	-0,087
-220,869	-12,551	0,067	-0,031
-219,855	-75,583	0,124	0,031
-218,840	531,968	0,085	0,143
-217,825	-16,290	-0,130	-0,059
-216,811	-42,271	0,217	0,078
-215,796	-132,219	-0,119	0,011
-214,782	-21,897	0,064	-0,028
-213,767	-123,889	0,143	-0,016
-212,752	208,455	0,086	-0,095
-211,738	800,000	0,025	0,065
-210,723	800,000	-0,034	0,080
-209,709	-71,274	0,013	-0,003
-208,694	5,144	-0,215	-0,112
-207,679	40,822	-0,048	-0,031
-206,665	147,849	0,084	0,081
-205,650	266,578	0,133	0,165
-204,636	-200,000	0,006	-0,018
-203,621	67,557	-0,106	-0,077
-202,606	14,507	-0,106	0,058
-201,592	-187,101	-0,118	0,001
-200,577	91,704	-0,028	-0,022
-199,563	800,000	-0,026	-0,055
-198,548	-29,895	0,044	-0,018
-197,533	-200,000	0,011	-0,053
-196,519	670,678	0,082	0,152
-195,504	-79,551	0,013	-0,003
-194,490	-104,812	-0,074	-0,012
-193,475	-113,754	-0,164	-0,023
-192,460	462,026	0,037	-0,058
-191,446	50,850	-0,058	0,039
-190,431	174,527	0,080	0,082
-189,417	-89,420	0,088	-0,018
-188,402	-167,780	-0,012	-0,000
-187,387	57,568	0,050	-0,034
-186,373	59,144	0,083	0,058
-185,358	234,618	0,037	-0,043
-184,344	139,302	0,106	-0,099
-183,329	60,216	0,087	-0,061
-182,315	-200,000	0,003	0,036
-181,300	266,578	-0,023	0,029
-180,285	145,885	-0,053	-0,051
-179,271	516,643	0,055	-0,091
-178,256	-200,000	0,001	-0,087
-177,242	-149,302	-0,087	-0,005
-176,227	-36,312	0,062	-0,024
-175,212	-200,000	-0,001	0,043
-174,198	-83,534	-0,204	0,046
-173,183	-200,000	-0,021	-0,110
-172,169	-200,000	0,005	-0,075
-171,154	-200,000	0,002	-0,128
-170,139	-200,000	-0,001	-0,103
-169,125	476,767	0,096	-0,155
-168,110	-200,000	-0,007	-0,032
-167,096	800,000	-0,042	0,094
-166,081	230,105	0,061	-0,071
-165,066	-200,000	-0,016	-0,069
-164,052	-113,348	-0,106	0,015
-163,037	-47,700	0,069	-0,024
-162,023	67,616	0,039	0,028
-161,008	152,801	-0,037	-0,035
-159,993	53,247	0,022	-0,015
-158,979	204,164	-0,119	-0,131
-157,964	-141,472	-0,150	0,011
-156,950	-133,418	-0,164	-0,014
-155,935	800,000	0,070	-0,150
-154,920	160,179	0,034	0,034
-153,906	33,227	-0,057	0,035
-152,891	-200,000	0,003	-0,076
-151,877	-132,445	0,050	-0,005
-150,862	-52,970	-0,055	0,018
-149,847	722,294	-0,079	-0,151
-148,833	128,745	0,077	-0,069
-147,818	131,128	-0,027	0,025
-146,804	800,000	0,081	0,210
-145,789	-200,000	0,002	-0,008
-144,775	445,743	0,038	-0,059
-143,760	800,000	0,024	0,055
-142,745	-142,106	-0,060	0,004
-141,731	-37,668	0,167	-0,063
-140,716	-144,055	0,020	0,001
-139,702	131,787	0,079	0,072
-138,687	-200,000	-0,002	0,160
-137,672	800,000	0,056	-0,122
-136,658	-87,813	0,054	-0,012
-135,643	-14,843	-0,092	0,042
-134,629	-200,000	-0,017	-0,089
-133,614	-200,000	-0,001	0,017
-132,599	-200,000	0,040	0,136
-131,585	14,384	-0,066	0,036
-130,570	189,287	-0,088	0,094
-129,556	356,876	-0,065	-0,092
-128,541	13,995	-0,090	-0,050
-127,526	66,276	-0,055	0,040
-126,512	800,000	0,023	-0,049
-125,497	-117,234	0,121	0,015
-124,483	-93,102	0,100	-0,020
-123,468	-108,303	0,061	0,009
-122,453	-200,000	-0,034	-0,139
-121,439	-200,000	-0,000	-0,057
-120,424	800,000	-0,014	-0,035
-119,410	-89,891	-0,068	0,014
-118,395	263,698	0,035	-0,043
-117,380	-147,603	0,127	-0,007
-116,366	-46,459	-0,158	-0,055
-115,351	319,810	-0,043	0,058
-114,337	-200,000	0,019	-0,101
-113,322	-200,000	0,002	-0,165
-112,307	-71,672	0,060	-0,016
-111,293	-98,091	-0,099	0,018
-110,278	-52,567	-0,075	0,024
-109,264	-200,000	-0,020	0,080
-108,249	800,000	-0,103	-0,205
-107,234	433,853	0,096	-0,148
-106,220	210,759	-0,079	0,088
-105,205	90,976	0,053	-0,042
-104,191	-200,000	-0,023	0,155
-103,176	-137,046	0,072	0,006
-102,162	-200,000	-0,027	0,112
-101,147	267,332	-0,050	0,062
-100,132	-73,973	-0,144	0,037
-99,118	800,000	0,031	-0,063
-98,103	-167,165	-0,105	0,003
-97,089	166,232	0,037	0,037
-96,074	800,000	-0,041	-0,081
-95,059	-200,000	-0,012	-0,108
-94,045	-50,480	0,138	0,046
-93,030	-30,645	-0,078	-0,031
-92,016	226,123	-0,080	0,092
-91,001	70,113	0,085	0,062
-89,986	-27,163	0,110	0,045
-88,972	-33,094	0,112	0,044
-87,957	-78,837	0,061	0,015
-86,943	-85,183	-0,083	-0,018
-85,928	-133,509	-0,031	0,003
-84,913	178,006	0,107	0,111
-83,899	-200,000	-0,015	-0,052
-82,884	-200,000	-0,006	0,094
-81,870	732,095	0,057	0,108
-80,855	-86,386	0,094	0,020
-79,840	-200,000	0,005	0,107
-78,826	800,000	0,027	-0,076
-77,811	-200,000	-0,008	-0,133
-76,797	-45,248	0,094	0,033
-75,782	-200,000	0,025	0,081
-74,767	-26,033	0,153	0,063
-73,753	187,127	0,041	-0,043
-72,738	201,891	0,080	0,087
-71,724	-107,878	-0,081	-0,012
-70,709	-75,220	0,116	-0,029
-69,694	800,000	-0,028	-0,065
-68,680	800,000	-0,027	0,074
-67,665	-200,000	0,027	0,131
-66,651	800,000	0,057	0,114
-65,636	-99,442	-0,112	0,020
-64,622	331,283	0,085	0,117
-63,607	154,974	0,036	0,035
-62,592	110,890	-0,075	-0,064
-61,578	-77,513	-0,053	-0,013
-60,563	34,258	0,056	0,034
-59,549	-86,094	-0,044	0,009
-58,534	11,913	-1,708	-0,926
-57,519	336,038	-1,369	-1,883
-56,505	-200,000	-0,572	-4,736
-55,490	329,186	1,039	1,416
-54,476	800,000	4,955	11,115
-53,461	-200,000	20,211	324,261
-52,446	800,000	752,557	2311,290
-51,432	549,125	1662,936	2828,026
-50,417	74,687	1671,585	1241,948
-49,403	19,870	1544,584	877,347
-48,388	13,851	1466,998	803,996
-47,373	18,476	1457,292	820,983
-46,359	16,327	1446,927	804,822
-45,344	12,103	1442,459	782,075
-44,330	12,014	1440,746	780,687
-43,315	12,021	1439,013	779,754
-42,300	12,061	1437,236	778,949
-41,286	12,020	1436,170	778,143
-40,271	12,025	1434,402	777,180
-39,257	12,017	1433,364	776,550
-38,242	12,118	1432,024	776,275
-37,227	12,097	1430,840	775,502
-36,213	12,090	1429,495	774,706
-35,198	12,091	1428,534	774,160
-34,184	12,094	1427,522	773,596
-33,169	12,033	1426,195	772,559
-32,154	12,116	1424,838	772,183
-31,140	12,104	1423,744	771,503
-30,125	12,141	1422,752	771,111
-29,111	12,131	1421,537	770,376
-28,096	12,077	1420,506	769,530
-27,082	12,045	1419,204	768,645
-26,067	12,014	1418,280	767,966
-25,052	12,021	1417,251	767,412
-24,038	12,016	1416,267	766,825
-23,023	12,043	1415,060	766,268
-22,009	12,036	1414,041	765,654
-20,994	12,019	1413,215	765,094
-19,979	12,014	1412,279	764,534
-18,965	12,000	1411,261	763,887
-17,950	11,976	1410,470	763,316
-16,936	11,985	1409,609	762,864
-15,921	11,923	1408,741	762,071
-14,906	11,911	1407,806	761,478
-13,892	11,938	1406,598	760,925
-12,877	11,946	1405,848	760,524
-11,863	11,925	1404,950	759,911
-10,848	11,909	1403,840	759,204
-9,833	11,861	1403,117	758,558
-8,819	11,884	1402,254	758,168
-7,804	11,821	1401,457	757,414
-6,790	11,817	1400,582	756,893
-5,775	11,829	1399,388	756,276
-4,760	11,845	1398,254	755,708
-3,746	11,853	1397,287	755,189
-2,731	11,806	1396,688	754,619
-1,717	11,815	1395,894	754,200
-0,702	11,868	1393,827	753,302
0,313	15,754	1308,864	725,338
1,327	31,968	699,469	424,866
2,342	49,177	121,917	80,806
3,356	1,199	16,524	8,353
4,371	-2,338	3,341	1,649
5,386	36,961	0,629	0,392
6,400	-200,000	0,138	0,441
7,415	-127,744	-0,282	-0,028
8,429	334,910	-0,157	-0,215
9,444	276,218	-0,266	-0,334
10,459	-32,596	-0,364	-0,143
11,473	4,952	-0,251	-0,130
12,488	54,128	-0,208	-0,141
13,502	72,817	-0,190	-0,140
14,517	41,751	-0,365	-0,233
15,531	67,125	-0,292	-0,210
16,546	1,834	-0,319	-0,162
17,561	159,978	-0,294	-0,289
18,575	-42,705	-0,141	-0,050
19,590	166,634	-0,235	-0,236
20,604	47,657	-0,289	-0,190
21,619	-46,222	-0,462	-0,160
22,634	85,629	-0,375	-0,291
23,648	76,348	-0,429	-0,320
24,663	14,370	-0,323	-0,177
25,677	136,325	-0,285	-0,262
26,692	73,369	-0,292	-0,216
27,707	97,036	-0,282	-0,228
28,721	51,898	-0,384	-0,257
29,736	187,709	-0,379	-0,399
30,750	46,699	-0,605	-0,395
31,765	128,141	-0,381	-0,341
32,780	25,257	-0,282	-0,164
33,794	53,155	-0,339	-0,229
34,809	17,175	-0,511	-0,285
35,823	-1,476	-0,284	-0,141
36,838	179,466	-0,295	-0,304
37,853	210,017	-0,323	-0,358
38,867	-4,523	-0,279	-0,135
39,882	-19,552	-0,401	-0,174
40,896	101,552	-0,363	-0,298
41,911	1,458	-0,390	-0,197
42,926	179,406	-0,336	-0,347
43,940	153,329	-0,198	-0,191
44,955	293,794	-0,305	-0,393
45,969	142,333	-0,382	-0,357
46,984	175,390	-0,322	-0,329
47,999	-15,916	-0,389	-0,174
49,013	235,750	-0,323	-0,376
50,028	-16,321	-0,379	-0,169
51,042	139,961	-0,242	-0,225
52,057	174,537	-0,290	-0,295
53,071	88,863	-0,210	-0,164
54,086	177,547	-0,211	-0,216
55,101	137,160	-0,358	-0,330
56,115	184,882	-0,309	-0,323
57,130	10,500	-0,349	-0,187
58,144	-25,139	-0,359	-0,149
59,159	151,228	-0,353	-0,337
60,174	34,300	-0,366	-0,224
61,188	101,117	-0,276	-0,226
62,203	156,532	-0,282	-0,274
63,217	83,665	-0,227	-0,174
64,232	45,676	-0,519	-0,337
65,247	-3,125	-0,426	-0,208
66,261	-67,273	-0,371	-0,102
67,276	102,571	-0,319	-0,262
68,290	188,816	-0,188	-0,198
69,305	48,322	-0,291	-0,191
70,320	6,629	-0,330	-0,172
71,334	-103,029	-0,164	-0,027
72,349	-96,338	-0,340	-0,063
73,363	-25,019	-0,300	-0,124
74,378	107,833	-0,307	-0,257
75,393	74,455	-0,381	-0,281
76,407	-167,073	-0,217	0,006
77,422	42,002	-0,252	-0,160
78,436	37,953	-0,383	-0,239
79,451	447,477	-0,196	-0,304
80,466	-49,487	-0,421	-0,140
81,480	85,268	-0,293	-0,225
82,495	40,856	-0,285	-0,180
83,509	57,969	-0,298	-0,204
84,524	36,817	-0,261	-0,161
85,539	6,089	-0,215	-0,111
86,553	-47,504	-0,298	-0,101
87,568	-7,051	-0,363	-0,172
88,582	16,126	-0,340	-0,187
89,597	362,528	-0,270	-0,382
90,611	-96,806	-0,356	-0,065
91,626	18,786	-0,250	-0,140
92,641	-49,549	-0,256	-0,085
93,655	-12,706	-0,352	-0,160
94,670	167,208	-0,230	-0,230
95,684	4,245	-0,389	-0,199
96,699	90,558	-0,190	-0,149
97,714	48,637	-0,233	-0,153
98,728	432,618	-0,180	-0,274
99,743	64,129	-0,322	-0,227
100,757	-131,475	-0,296	-0,027
101,772	-8,009	-0,341	-0,160
102,787	108,724	-0,303	-0,254
103,801	-84,900	-0,376	-0,082
104,816	170,483	-0,204	-0,205
105,830	-50,036	-0,344	-0,113
106,845	125,463	-0,269	-0,237
107,860	-84,290	-0,256	-0,056
108,874	-52,107	-0,294	-0,095
109,889	175,233	-0,277	-0,281
110,903	142,184	-0,248	-0,230
111,918	20,276	-0,287	-0,162
112,933	-26,255	-0,290	-0,119
113,947	-37,222	-0,205	-0,076
114,962	-120,657	-0,252	-0,029
115,976	59,586	-0,315	-0,217
116,991	41,955	-0,406	-0,257
118,006	64,927	-0,234	-0,165
119,020	80,437	-0,136	-0,102
120,035	244,253	-0,269	-0,317
121,049	304,902	-0,095	-0,124
122,064	174,309	-0,200	-0,202
123,079	310,689	-0,225	-0,295
124,093	185,320	-0,156	-0,162
125,108	36,393	-0,261	-0,160
126,122	219,690	-0,214	-0,240
127,137	800,000	-0,049	-0,143
128,151	-0,966	-0,339	-0,167
129,166	-30,020	-0,261	-0,103
130,181	102,962	-0,196	-0,160
131,195	420,526	-0,214	-0,321
132,210	76,514	-0,253	-0,187
133,224	138,058	-0,256	-0,235
134,239	800,000	-0,118	-0,243
135,254	-102,675	-0,193	0,032
136,268	186,283	-0,192	-0,200
137,283	15,406	-0,205	-0,112
138,297	224,878	-0,161	-0,182
139,312	39,014	-0,263	-0,164
140,327	312,718	-0,237	-0,312
141,341	67,917	-0,276	-0,197
142,356	-12,459	-0,303	-0,138
143,370	359,855	-0,100	-0,140
144,385	275,346	-0,108	-0,134
145,400	-47,344	-0,478	-0,161
146,414	119,113	-0,254	-0,219
147,429	37,148	-0,280	-0,172
148,443	329,658	-0,146	-0,196
149,458	46,442	-0,279	-0,180
150,473	27,347	-0,226	-0,132
151,487	71,717	-0,298	-0,216
152,502	166,276	-0,238	-0,235
153,516	169,545	-0,191	-0,190
154,531	55,446	-0,160	-0,108
155,546	48,584	-0,320	-0,209
156,560	-67,824	-0,259	-0,070
157,575	498,322	-0,076	-0,122
158,589	-71,237	-0,128	-0,033
159,604	65,623	-0,303	-0,213
160,619	212,769	-0,239	-0,263
161,633	41,991	-0,260	-0,164
162,648	80,786	-0,186	-0,139
163,662	-44,618	-0,255	-0,088
164,677	54,437	-0,299	-0,200
165,692	95,706	-0,162	-0,128
166,706	739,242	-0,117	-0,220
167,721	157,582	-0,242	-0,233
168,735	152,746	-0,145	-0,138
169,750	75,990	-0,200	-0,147
170,764	48,544	-0,231	-0,150
171,779	-45,118	-0,207	-0,071
172,794	452,244	-0,087	-0,135
173,808	-96,420	-0,272	-0,050
174,823	4,206	-0,307	-0,156
175,837	74,460	-0,210	-0,153
176,852	25,510	-0,230	-0,133
177,867	261,508	-0,119	-0,144
178,881	98,336	-0,173	-0,139
179,896	0,813	-0,206	-0,102
180,910	-123,856	-0,313	0,034
181,925	55,464	-0,296	-0,199
182,940	145,640	-0,237	-0,221
183,954	151,846	-0,174	-0,165
184,969	-12,360	-0,287	-0,130
185,983	23,479	-0,290	-0,166
186,998	49,817	-0,280	-0,183
188,013	800,000	-0,140	-0,299
189,027	346,095	-0,129	-0,177
190,042	578,974	-0,185	-0,317
191,056	108,623	-0,361	-0,300
192,071	69,691	-0,198	-0,142
193,086	-6,266	-0,234	-0,110
194,100	-74,592	-0,239	-0,059
195,115	323,243	-0,168	-0,223
196,129	143,215	-0,214	-0,197
197,144	188,695	-0,180	-0,187
198,159	-10,522	-0,142	-0,065
199,173	26,721	-0,208	-0,120
200,188	-17,276	-0,275	-0,120
201,202	139,156	-0,173	-0,158
202,217	800,000	-0,130	-0,300
203,232	68,019	-0,153	-0,109
204,246	180,978	-0,185	-0,189
205,261	20,768	-0,248	-0,139
206,275	96,111	-0,246	-0,195
207,290	206,697	-0,143	-0,154
208,304	551,909	-0,105	-0,176
209,319	79,193	-0,233	-0,173
210,334	243,100	-0,105	-0,122
211,348	230,607	-0,217	-0,247
212,363	361,511	-0,172	-0,240
213,377	31,451	-0,296	-0,176
214,392	-35,327	-0,173	-0,065
215,407	-170,873	-0,112	0,003
216,421	18,194	-0,302	-0,166
217,436	303,087	-0,202	-0,260
218,450	45,916	-0,257	-0,164
219,465	202,729	-0,268	-0,287
220,480	51,162	-0,230	-0,151
221,494	98,929	-0,179	-0,143
222,509	-84,363	-0,265	-0,058
223,523	313,976	-0,158	-0,207
224,538	800,000	-0,115	-0,259
225,553	248,098	-0,178	-0,209
226,567	226,419	-0,156	-0,175
227,582	-103,510	-0,143	0,023
228,596	-131,674	-0,131	-0,012
229,611	84,878	-0,107	-0,081
230,626	-85,053	-0,191	-0,041
231,640	-6,795	-0,271	-0,127
232,655	170,001	-0,151	-0,150
233,669	457,468	-0,153	-0,237
234,684	-125,542	-0,317	-0,033
235,699	-2,518	-0,166	-0,080
236,713	800,000	-0,058	-0,154
237,728	-22,346	-0,167	-0,070
238,742	88,926	-0,214	-0,165
239,757	30,886	-0,209	-0,123
240,772	800,000	-0,120	-0,238
241,786	122,658	-0,114	-0,098
242,801	13,805	-0,257	-0,138
243,815	-2,219	-0,125	-0,061
244,830	-5,393	-0,080	-0,038
245,844	-49,201	-0,253	-0,083
246,859	185,994	-0,193	-0,199
247,874	233,698	-0,137	-0,156
248,888	17,330	-0,184	-0,101
249,903	154,965	-0,111	-0,105
250,917	275,999	-0,165	-0,203
251,932	258,054	-0,146	-0,174
252,947	108,010	-0,188	-0,155
253,961	-3,689	-0,309	-0,148
254,976	97,890	-0,133	-0,106
255,990	32,704	-0,272	-0,162
257,005	32,412	-0,254	-0,151
258,020	-69,524	-0,261	-0,069
259,034	-200,000	-0,047	-0,166
260,049	299,417	-0,166	-0,212
261,063	129,268	-0,127	-0,112
262,078	149,922	-0,226	-0,212
263,093	4,301	-0,197	-0,100
264,107	-34,720	-0,129	-0,048
265,122	-112,929	-0,159	0,022
266,136	236,021	-0,107	-0,122
267,151	800,000	-0,091	-0,187
268,166	-173,808	-0,167	0,003
269,180	770,476	-0,103	-0,194
270,195	422,147	-0,172	-0,255
271,209	491,676	-0,164	-0,260
272,224	-200,000	-0,039	-0,166
273,239	324,683	-0,193	-0,255
274,253	301,463	-0,147	-0,188
275,268	196,126	-0,090	-0,094
276,282	108,186	-0,121	-0,099
277,297	307,503	-0,127	-0,163
278,312	58,304	-0,271	-0,183
279,326	800,000	-0,049	-0,114
280,341	800,000	-0,055	-0,151
281,355	-173,999	-0,144	0,003
282,370	88,324	-0,161	-0,123
283,384	196,203	-0,191	-0,201
284,399	8,064	-0,286	-0,147
285,414	178,390	-0,185	-0,186
286,428	42,942	-0,114	-0,071
287,443	42,951	-0,057	-0,036
288,457	62,952	-0,061	-0,042
289,472	800,000	-0,092	-0,180
290,487	259,996	-0,161	-0,192
291,501	-45,028	-0,153	-0,052
292,516	24,763	-0,224	-0,127
293,530	-102,584	-0,179	0,029
294,545	-164,191	-0,135	-0,004
295,560	144,441	-0,077	-0,071
296,574	23,152	-0,081	0,046
297,589	139,701	-0,107	-0,097
298,603	161,010	-0,224	-0,215
299,618	131,266	-0,199	-0,176
300,633	119,646	-0,167	-0,143
301,647	800,000	-0,081	-0,172
302,662	377,918	-0,058	-0,082
303,676	414,592	-0,112	-0,164
304,691	77,722	-0,123	-0,090
305,706	-40,692	-0,169	-0,060
306,720	213,579	-0,086	-0,094
307,735	-121,057	-0,167	0,019
308,749	-136,011	-0,110	0,009
309,764	-20,774	-0,188	-0,079
310,779	108,887	-0,212	-0,174
311,793	73,805	-0,206	-0,148
312,808	71,578	-0,181	-0,129
313,822	-59,202	-0,234	-0,069
314,837	-165,005	-0,155	-0,005
315,852	-4,489	-0,130	-0,062
316,866	298,210	-0,106	-0,134
317,881	273,389	-0,068	-0,083
318,895	-151,718	-0,232	0,012
319,910	-69,574	-0,155	-0,040
320,925	-0,015	-0,233	-0,114
321,939	-79,237	-0,103	-0,024
322,954	-88,589	-0,183	-0,037
323,968	-200,000	-0,013	-0,051
324,983	-153,588	-0,058	-0,003
325,997	-39,394	-0,162	-0,058
327,012	210,873	-0,161	-0,174
328,027	154,702	-0,189	-0,179
329,041	-60,621	-0,075	-0,022
330,056	149,122	-0,150	-0,140
331,070	153,412	-0,132	-0,124
332,085	19,210	-0,183	-0,101
333,100	397,944	-0,176	-0,254
334,114	800,000	-0,103	-0,214
335,129	65,605	-0,254	-0,176
336,143	673,660	-0,139	-0,249
337,158	-61,516	-0,161	0,046
338,173	-200,000	-0,008	0,126
339,187	63,598	-0,090	-0,062
340,202	-37,163	-0,068	0,025
341,216	105,916	-0,154	-0,125
342,231	-98,841	-0,170	0,029
343,246	-200,000	-0,034	-0,161
344,260	-200,000	-0,008	-0,072
345,275	43,033	-0,007	-0,004
346,289	-177,390	-0,133	0,002
347,304	51,210	-0,094	-0,061
348,319	-86,308	-0,155	-0,032
349,333	307,054	-0,074	-0,095
350,348	43,364	-0,187	-0,117
351,362	384,480	-0,134	-0,189
352,377	-164,086	-0,112	0,003
353,392	-18,035	-0,102	-0,044
354,406	-27,861	-0,157	-0,062
355,421	208,684	1314,789	1410,608
356,435	160,578	1475,515	1411,080
