DTS Sentinel unit serial number:	SN410029Multiplexer serial number:	ORYXHardware model number:	OX2-SRSoftware version number:	ORYX F/W v4,00 Oryx Data Collector v3.7.2.0data status	okinstallation	B3 Nyhavnadifferential loss correction	single-endedforward channel	channel 1reverse channel	N/Adate	2023/11/30time	19:17:30forward acquisition time	300,00reverse acquisition time	0,00gamma	499,1914k internal	0,3206k external	0,3206temperature offset calibration	1,0000default loss term (dB/km)	0,3820temperature slope calibration	1,0000multiplexer offset coefficient	1,0000multiplexer slope coefficient	1,0000fibre end	0,00T internal ref (°C)	12,11T ext. ref 1 (°C)	-3,09T ext. ref 2 (°C)	-3,21length (m)	temperature (°C)	Stokes	anti-Stokes-744,400	194,782	-0,143	-0,158
-743,385	-200,000	-0,002	0,424
-742,371	540,481	-0,097	-0,168
-741,356	-200,000	0,097	0,329
-740,342	-111,805	-0,068	-0,010
-739,327	-200,000	-0,097	0,384
-738,312	464,750	-0,137	-0,223
-737,298	-200,000	-0,051	0,188
-736,283	204,953	-0,264	-0,298
-735,269	341,396	0,170	0,241
-734,254	800,000	-0,077	-0,189
-733,239	-8,502	-0,284	0,138
-732,225	545,004	-0,105	-0,182
-731,210	-200,000	-0,063	0,220
-730,196	-200,000	0,011	-0,121
-729,181	696,650	-0,028	-0,053
-728,167	-200,000	0,007	-0,046
-727,152	60,236	0,050	0,036
-726,137	360,146	0,081	-0,118
-725,123	28,181	-0,055	-0,034
-724,108	115,842	-0,057	0,051
-723,094	-200,000	0,022	-0,073
-722,079	-200,000	0,026	0,175
-721,064	704,202	0,034	0,065
-720,050	-22,558	0,099	0,043
-719,035	108,726	-0,157	0,136
-718,021	-200,000	0,014	-0,199
-717,006	-64,282	-0,152	-0,045
-715,991	-135,863	-0,121	0,010
-714,977	-7,572	0,023	-0,011
-713,962	800,000	-0,056	0,114
-712,948	-200,000	0,032	0,125
-711,933	141,059	-0,034	-0,033
-710,918	652,910	0,056	0,104
-709,904	800,000	-0,064	-0,202
-708,889	252,686	-0,112	-0,139
-707,875	52,703	0,121	-0,084
-706,860	-200,000	0,012	-0,045
-705,845	-77,193	0,120	-0,030
-704,831	-172,870	0,118	-0,003
-703,816	800,000	-0,029	-0,082
-702,802	-139,170	-0,031	0,002
-701,787	-200,000	0,014	-0,053
-700,772	-114,087	-0,069	0,010
-699,758	491,418	-0,022	0,037
-698,743	16,300	0,183	0,105
-697,729	133,273	-0,049	-0,046
-696,714	624,601	0,070	0,129
-695,699	800,000	-0,041	-0,088
-694,685	-200,000	0,014	-0,068
-693,670	800,000	-0,031	-0,069
-692,656	-31,464	-0,061	0,025
-691,641	-16,679	-0,113	-0,052
-690,627	33,612	0,020	0,013
-689,612	-111,184	0,111	-0,016
-688,597	66,681	-0,079	-0,058
-687,583	800,000	0,005	-0,013
-686,568	223,828	-0,056	-0,066
-685,554	-35,271	-0,098	0,038
-684,539	-106,978	0,036	0,006
-683,524	589,824	-0,046	0,083
-682,510	2,288	-0,026	0,013
-681,495	-200,000	-0,008	-0,040
-680,481	800,000	-0,039	0,083
-679,466	-29,245	-0,034	0,014
-678,451	-88,051	0,014	-0,003
-677,437	-35,027	0,093	0,037
-676,422	-116,462	0,152	-0,020
-675,408	197,919	0,027	0,030
-674,393	-7,267	0,087	0,043
-673,378	483,719	-0,043	-0,071
-672,364	-17,003	-0,041	-0,019
-671,349	511,811	-0,021	-0,036
-670,335	113,481	-0,076	0,067
-669,320	608,863	-0,044	-0,080
-668,305	800,000	0,035	0,095
-667,291	223,538	-0,036	0,042
-666,276	119,831	0,060	-0,054
-665,262	-122,094	-0,173	0,020
-664,247	800,000	-0,031	-0,095
-663,232	408,682	-0,027	-0,041
-662,218	9,920	-0,064	-0,035
-661,203	18,468	0,103	-0,059
-660,189	-200,000	0,042	-0,152
-659,174	262,679	0,105	0,133
-658,159	800,000	0,020	-0,054
-657,145	198,326	0,020	-0,023
-656,130	381,729	0,035	-0,052
-655,116	107,006	-0,076	0,065
-654,101	-49,303	-0,051	0,017
-653,086	-40,350	-0,082	0,031
-652,072	27,540	0,008	-0,005
-651,057	98,275	-0,186	-0,155
-650,043	63,151	-0,082	-0,059
-649,028	-200,000	0,017	0,059
-648,014	31,511	-0,066	0,041
-646,999	-10,207	-0,018	0,008
-645,984	-14,995	-0,169	0,078
-644,970	-27,670	0,089	0,037
-643,955	-62,064	-0,059	-0,018
-642,941	-53,316	-0,069	-0,023
-641,926	54,166	-0,043	0,030
-640,911	-57,220	-0,181	-0,057
-639,897	719,265	0,080	0,155
-638,882	714,434	0,066	-0,128
-637,868	-200,000	-0,018	-0,091
-636,853	191,560	-0,026	-0,029
-635,838	-200,000	0,003	-0,146
-634,824	-88,870	0,187	0,040
-633,809	126,418	-0,058	0,053
-632,795	-200,000	0,019	0,129
-631,780	-200,000	-0,009	0,035
-630,765	-156,604	0,050	-0,002
-629,751	-151,180	-0,114	-0,006
-628,736	-149,268	-0,070	0,004
-627,722	-200,000	-0,005	0,074
-626,707	318,931	-0,061	-0,084
-625,692	-170,304	0,131	-0,003
-624,678	-94,618	-0,126	-0,025
-623,663	266,409	-0,030	0,039
-622,649	-162,462	-0,103	0,004
-621,634	-96,428	0,087	-0,017
-620,619	-200,000	-0,014	-0,140
-619,605	102,996	0,092	-0,078
-618,590	-199,929	0,048	0,000
-617,576	190,267	-0,065	-0,071
-616,561	476,241	-0,027	-0,044
-615,546	219,962	-0,045	0,052
-614,532	311,910	-0,045	-0,061
-613,517	-47,395	0,132	0,046
-612,503	342,143	-0,034	0,049
-611,488	-128,045	-0,035	0,004
-610,474	-78,635	0,058	0,014
-609,459	302,320	0,014	-0,018
-608,444	49,608	-0,112	0,076
-607,430	-200,000	0,001	-0,075
-606,415	134,550	-0,112	-0,105
-605,401	800,000	0,049	0,139
-604,386	-107,431	-0,086	0,013
-603,371	71,057	-0,072	0,054
-602,357	-53,442	-0,075	0,025
-601,342	-200,000	0,002	-0,065
-600,328	17,019	-0,069	0,039
-599,313	32,853	-0,108	-0,068
-598,298	-71,711	0,095	0,025
-597,284	-76,573	0,163	-0,041
-596,269	241,195	0,120	-0,145
-595,255	-11,810	0,017	-0,008
-594,240	-163,599	0,114	-0,004
-593,225	173,817	0,019	0,020
-592,211	-122,400	-0,107	0,012
-591,196	356,843	-0,055	-0,079
-590,182	65,597	0,045	0,033
-589,167	38,974	0,039	0,025
-588,152	62,869	-0,054	-0,039
-587,138	-200,000	0,017	-0,067
-586,123	-150,333	0,036	-0,002
-585,109	483,755	-0,093	-0,154
-584,094	-88,088	0,079	0,017
-583,079	-95,997	-0,065	0,012
-582,065	-104,879	0,126	0,021
-581,050	800,000	0,010	0,020
-580,036	467,609	-0,044	-0,071
-579,021	-86,644	0,070	-0,015
-578,006	336,477	0,087	-0,122
-576,992	-200,000	-0,002	-0,091
-575,977	800,000	-0,020	-0,045
-574,963	25,158	0,057	-0,034
-573,948	-81,100	0,078	-0,018
-572,934	-161,649	0,084	-0,003
-571,919	-127,953	-0,104	0,011
-570,904	-106,360	-0,083	-0,013
-569,890	-200,000	0,008	0,129
-568,875	-175,866	0,081	-0,002
-567,861	120,483	0,105	0,094
-566,846	800,000	0,039	-0,117
-565,831	-48,504	-0,095	-0,033
-564,817	36,434	-0,075	0,048
-563,802	800,000	-0,020	0,056
-562,788	800,000	-0,044	-0,125
-561,773	800,000	-0,030	-0,071
-560,758	309,946	-0,031	-0,042
-559,744	800,000	-0,027	-0,056
-558,729	-30,415	0,111	-0,045
-557,715	-200,000	0,009	-0,054
-556,700	-91,110	-0,110	-0,022
-555,685	-47,113	0,023	-0,008
-554,671	-200,000	0,030	-0,118
-553,656	333,682	0,092	-0,129
-552,642	800,000	-0,059	0,133
-551,627	-194,791	0,130	0,001
-550,612	374,916	-0,040	-0,058
-549,598	182,587	-0,071	-0,076
-548,583	544,290	-0,071	-0,123
-547,569	-108,257	-0,034	-0,005
-546,554	-200,000	0,009	0,130
-545,539	-82,892	0,076	-0,018
-544,525	-200,000	0,007	0,027
-543,510	283,695	0,055	-0,072
-542,496	11,425	-0,042	-0,023
-541,481	-93,232	-0,172	0,034
-540,466	-198,775	-0,218	0,001
-539,452	-130,708	0,173	0,017
-538,437	-40,141	0,137	0,051
-537,423	800,000	-0,078	-0,174
-536,408	219,098	-0,077	-0,088
-535,393	-71,463	-0,070	-0,019
-534,379	800,000	0,029	-0,074
-533,364	538,706	-0,051	0,087
-532,350	362,874	0,042	0,061
-531,335	63,031	0,033	-0,023
-530,321	20,678	0,062	0,036
-529,306	55,980	-0,068	-0,048
-528,291	37,580	0,133	-0,085
-527,277	-200,000	0,001	-0,042
-526,262	-40,623	0,022	-0,008
-525,248	127,883	-0,036	-0,033
-524,233	363,260	0,022	0,033
-523,218	-41,075	0,096	0,036
-522,204	17,354	0,040	0,023
-521,189	84,535	-0,066	-0,052
-520,175	800,000	0,049	-0,110
-519,160	-90,739	-0,159	0,033
-518,145	-200,000	0,015	0,144
-517,131	180,728	0,074	-0,078
-516,116	155,974	0,003	0,003
-515,102	757,089	-0,043	-0,085
-514,087	-200,000	-0,006	-0,036
-513,072	-200,000	-0,022	-0,134
-512,058	31,562	0,049	0,031
-511,043	-200,000	0,023	0,076
-510,029	-200,000	-0,043	0,227
-509,014	-137,886	0,142	-0,011
-507,999	-33,038	-0,031	0,012
-506,985	60,518	0,073	0,052
-505,970	-167,366	-0,056	0,002
-504,956	-200,000	-0,006	-0,122
-503,941	-122,765	-0,137	0,016
-502,926	-200,000	-0,012	0,040
-501,912	193,755	0,098	0,106
-500,897	-72,271	-0,112	0,030
-499,883	-98,038	-0,072	0,013
-498,868	-200,000	0,004	0,098
-497,853	-40,550	-0,159	-0,059
-496,839	-151,208	0,152	0,008
-495,824	800,000	0,031	0,080
-494,810	-200,000	0,009	-0,046
-493,795	-200,000	0,020	0,112
-492,781	800,000	-0,075	0,167
-491,766	-140,177	0,180	0,013
-490,751	-41,353	-0,146	-0,054
-489,737	227,863	-0,077	0,090
-488,722	175,291	0,097	-0,101
-487,708	-20,155	0,103	0,046
-486,693	310,409	0,042	-0,057
-485,678	336,238	0,038	-0,054
-484,664	800,000	-0,029	0,075
-483,649	800,000	-0,023	0,056
-482,635	-200,000	-0,043	-0,188
-481,620	-49,660	-0,056	-0,019
-480,605	-153,226	0,178	0,009
-479,591	800,000	0,051	0,147
-478,576	91,252	-0,124	-0,100
-477,562	321,667	-0,033	-0,045
-476,547	-7,753	-0,011	-0,005
-475,532	-123,060	0,051	-0,006
-474,518	-200,000	0,043	0,143
-473,503	158,704	0,073	-0,073
-472,489	-25,580	0,079	0,033
-471,474	-28,698	0,098	-0,040
-470,459	-4,687	-0,105	-0,052
-469,445	1,919	0,037	-0,019
-468,430	-135,711	-0,074	-0,006
-467,416	640,297	0,037	0,068
-466,401	111,123	-0,021	0,018
-465,386	-40,738	0,030	0,011
-464,372	-9,203	-0,117	-0,056
-463,357	-83,951	-0,052	-0,012
-462,343	114,985	-0,077	-0,067
-461,328	-200,000	0,017	-0,061
-460,313	185,320	0,070	0,075
-459,299	94,443	0,022	0,018
-458,284	-88,585	0,134	0,028
-457,270	433,055	0,080	-0,125
-456,255	396,950	0,074	-0,111
-455,241	-104,035	-0,090	0,015
-454,226	12,312	0,050	-0,028
-453,211	-2,032	0,086	0,043
-452,197	220,477	0,109	0,126
-451,182	18,389	-0,075	-0,043
-450,168	800,000	0,053	0,108
-449,153	-44,487	-0,121	-0,043
-448,138	192,584	0,067	-0,072
-447,124	-51,365	0,108	0,036
-446,109	-125,627	0,026	0,003
-445,095	169,375	0,005	-0,005
-444,080	-75,696	0,146	-0,037
-443,065	277,303	0,049	0,063
-442,051	-109,969	0,058	-0,009
-441,036	-86,565	-0,096	-0,021
-440,022	33,607	-0,117	0,073
-439,007	-200,000	-0,024	0,136
-437,992	94,440	0,106	-0,086
-436,978	-200,000	0,006	0,041
-435,963	-200,000	0,006	0,111
-434,949	-94,165	0,175	-0,034
-433,934	429,505	0,084	-0,131
-432,919	-200,000	0,018	0,075
-431,905	107,105	-0,101	0,086
-430,890	-100,186	0,120	0,021
-429,876	800,000	-0,024	0,052
-428,861	-200,000	-0,002	-0,015
-427,846	-70,298	0,232	-0,063
-426,832	308,460	-0,065	0,087
-425,817	605,411	0,043	-0,077
-424,803	800,000	0,026	-0,079
-423,788	48,896	0,130	-0,087
-422,773	-200,000	0,017	-0,113
-421,759	261,136	0,069	-0,086
-420,744	99,963	-0,029	-0,024
-419,730	-128,859	0,125	0,012
-418,715	-200,000	-0,010	-0,083
-417,701	800,000	-0,047	-0,113
-416,686	-200,000	0,002	0,074
-415,671	486,243	0,061	0,101
-414,657	-156,126	0,077	0,003
-413,642	-170,784	0,016	0,000
-412,628	15,216	-0,090	0,050
-411,613	27,584	0,042	-0,025
-410,598	233,815	-0,166	-0,196
-409,584	-49,996	0,050	-0,017
-408,569	128,918	0,082	0,075
-407,555	-51,797	-0,118	-0,039
-406,540	113,669	0,081	-0,070
-405,525	-200,000	0,014	-0,048
-404,511	-94,456	0,007	-0,001
-403,496	253,471	-0,117	-0,143
-402,482	361,652	0,013	-0,019
-401,467	129,921	0,053	-0,048
-400,452	85,025	0,102	0,080
-399,438	-200,000	-0,017	0,128
-398,423	115,894	0,026	0,022
-397,409	-200,000	-0,000	0,035
-396,394	323,385	-0,051	-0,069
-395,379	46,431	0,037	-0,024
-394,365	294,661	-0,086	0,114
-393,350	-145,865	0,099	-0,006
-392,336	-200,000	-0,015	0,068
-391,321	111,568	-0,066	0,057
-390,306	436,824	0,060	0,093
-389,292	800,000	-0,109	0,244
-388,277	-166,257	0,179	-0,005
-387,263	-73,204	-0,149	-0,039
-386,248	-200,000	0,034	0,137
-385,233	-90,407	-0,021	0,004
-384,219	-47,443	-0,049	-0,017
-383,204	800,000	0,034	-0,071
-382,190	-116,380	-0,067	0,009
-381,175	104,599	-0,051	0,043
-380,160	84,936	-0,066	-0,052
-379,146	-118,790	0,040	0,005
-378,131	207,334	0,043	0,048
-377,117	-200,000	-0,019	0,113
-376,102	111,339	0,133	0,115
-375,088	800,000	0,043	-0,093
-374,073	-200,000	-0,014	0,000
-373,058	77,165	0,151	0,115
-372,044	800,000	-0,031	0,094
-371,029	-200,000	0,001	-0,018
-370,015	81,138	0,052	-0,040
-369,000	800,000	-0,036	-0,102
-367,985	-200,000	-0,004	0,136
-366,971	800,000	-0,029	-0,084
-365,956	286,188	0,053	0,069
-364,942	54,791	-0,004	0,003
-363,927	-200,000	0,019	0,062
-362,912	800,000	0,069	0,174
-361,898	253,552	-0,071	-0,087
-360,883	167,905	-0,094	-0,096
-359,869	800,000	0,064	-0,184
-358,854	-36,274	0,108	-0,042
-357,839	361,471	0,029	0,042
-356,825	63,331	0,085	-0,061
-355,810	-200,000	-0,029	-0,099
-354,796	-65,170	-0,055	-0,016
-353,781	-200,000	-0,001	-0,093
-352,766	607,818	-0,068	-0,123
-351,752	240,860	0,095	0,114
-350,737	782,222	0,084	0,165
-349,723	233,000	-0,107	0,127
-348,708	214,575	-0,031	0,035
-347,693	-27,216	0,072	0,030
-346,679	189,908	-0,057	-0,061
-345,664	-200,000	-0,000	-0,039
-344,650	-100,256	-0,133	-0,023
-343,635	-200,000	0,000	0,041
-342,620	-200,000	0,011	0,161
-341,606	-200,000	-0,007	-0,074
-340,591	-106,560	-0,082	0,013
-339,577	433,475	0,049	-0,077
-338,562	-200,000	-0,006	-0,091
-337,548	9,388	-0,051	-0,028
-336,533	304,853	-0,054	0,072
-335,518	80,561	0,146	0,112
-334,504	-99,504	0,055	-0,010
-333,489	-200,000	0,021	-0,081
-332,475	86,960	0,038	0,030
-331,460	-52,780	-0,090	0,030
-330,445	-96,861	0,069	0,013
-329,431	310,443	0,092	-0,124
-328,416	13,698	-0,073	0,041
-327,402	-200,000	0,006	0,079
-326,387	-116,287	-0,026	0,003
-325,372	800,000	0,011	-0,025
-324,358	287,191	-0,047	-0,061
-323,343	-123,054	0,024	-0,003
-322,329	-200,000	-0,022	0,084
-321,314	215,778	-0,068	0,077
-320,299	-200,000	0,004	-0,058
-319,285	-200,000	-0,002	-0,034
-318,270	-200,000	0,039	0,128
-317,256	-82,627	-0,074	-0,017
-316,241	-200,000	0,008	-0,063
-315,226	800,000	0,046	-0,108
-314,212	-181,086	0,050	-0,001
-313,197	-8,875	-0,020	-0,010
-312,183	-161,079	0,114	0,004
-311,168	-81,744	0,136	-0,032
-310,153	-81,436	-0,132	0,031
-309,139	187,893	-0,067	0,071
-308,124	-68,441	-0,071	0,019
-307,110	-23,163	0,047	-0,020
-306,095	-200,000	0,004	0,056
-305,080	328,936	0,042	-0,058
-304,066	-48,446	-0,074	0,025
-303,051	-50,297	0,057	-0,019
-302,037	46,773	-0,115	0,076
-301,022	463,218	0,060	0,096
-300,008	-200,000	-0,001	0,025
-298,993	-137,125	0,047	-0,004
-297,978	-200,000	-0,004	-0,110
-296,964	219,747	0,034	0,039
-295,949	-200,000	0,000	-0,061
-294,935	-173,605	-0,083	-0,002
-293,920	424,452	0,054	0,084
-292,905	-123,130	-0,108	0,012
-291,891	-48,690	0,211	0,072
-290,876	-0,271	-0,063	0,032
-289,862	-200,000	-0,008	0,104
-288,847	-96,120	-0,095	0,018
-287,832	-161,131	0,093	-0,003
-286,818	-200,000	-0,005	-0,158
-285,803	27,256	-0,068	0,041
-284,789	-100,165	-0,093	0,016
-283,774	63,438	-0,004	-0,003
-282,759	-200,000	0,008	-0,126
-281,745	-200,000	-0,003	-0,050
-280,730	-49,526	-0,171	-0,058
-279,716	-200,000	-0,021	-0,105
-278,701	514,750	-0,029	-0,048
-277,686	38,922	0,116	0,074
-276,672	12,017	0,110	-0,060
-275,657	548,723	-0,061	0,105
-274,643	156,888	-0,038	-0,037
-273,628	-200,000	0,008	-0,052
-272,613	36,137	-0,018	-0,012
-271,599	88,650	0,070	0,056
-270,584	532,737	0,103	0,175
-269,570	-51,514	-0,131	0,043
-268,555	233,815	0,021	0,025
-267,540	261,061	-0,047	0,058
-266,526	-200,000	-0,017	-0,165
-265,511	-200,000	-0,030	0,137
-264,497	47,463	0,049	0,032
-263,482	798,263	0,061	0,120
-262,467	136,270	-0,057	0,053
-261,453	800,000	-0,007	0,021
-260,438	800,000	-0,017	-0,035
-259,424	800,000	0,109	-0,218
-258,409	-162,983	-0,105	0,004
-257,395	-80,264	-0,026	0,006
-256,380	342,250	-0,051	0,071
-255,365	-94,938	0,063	0,012
-254,351	-17,320	-0,035	-0,016
-253,336	87,289	-0,129	0,102
-252,322	800,000	0,031	0,064
-251,307	800,000	0,018	-0,055
-250,292	78,332	-0,078	0,060
-249,278	1,369	0,068	-0,034
-248,263	-138,273	0,053	0,004
-247,249	800,000	-0,030	0,094
-246,234	-61,975	-0,076	0,023
-245,219	-107,814	-0,151	-0,023
-244,205	-200,000	-0,021	0,155
-243,190	732,428	0,062	-0,118
-242,176	-31,498	0,041	0,016
-241,161	-64,186	-0,077	0,022
-240,146	108,334	-0,109	0,092
-239,132	-75,529	-0,159	-0,040
-238,117	215,999	0,101	-0,114
-237,103	-200,000	-0,014	0,080
-236,088	61,600	0,058	0,041
-235,073	-30,363	0,128	0,051
-234,059	-45,057	-0,010	-0,004
-233,044	-65,900	0,162	-0,046
-232,030	355,194	-0,090	0,128
-231,015	-119,359	0,114	0,014
-230,000	102,706	0,064	-0,054
-228,986	800,000	0,030	-0,073
-227,971	-91,825	0,082	0,017
-226,957	800,000	0,003	0,009
-225,942	-200,000	-0,017	0,072
-224,927	49,297	0,072	0,048
-223,913	135,326	-0,107	-0,099
-222,898	-15,734	-0,083	0,038
-221,884	-200,000	-0,006	0,078
-220,869	800,000	-0,037	0,084
-219,855	436,372	-0,077	-0,119
-218,840	297,522	0,032	-0,042
-217,825	-86,661	0,058	-0,012
-216,811	-123,787	-0,112	-0,012
-215,796	658,207	-0,064	-0,117
-214,782	583,006	0,082	-0,144
-213,767	-92,832	-0,149	0,029
-212,752	-81,039	-0,115	0,027
-211,738	-157,183	-0,173	0,007
-210,723	62,309	0,142	0,100
-209,709	-142,086	-0,127	0,009
-208,694	800,000	-0,025	0,053
-207,679	-200,000	0,014	0,076
-206,665	-200,000	0,015	-0,076
-205,650	547,411	-0,026	0,044
-204,636	99,705	-0,161	0,132
-203,621	-200,000	-0,016	0,073
-202,606	-200,000	-0,002	-0,047
-201,592	-200,000	0,016	-0,077
-200,577	-14,527	-0,146	0,066
-199,563	800,000	-0,064	-0,158
-198,548	-200,000	-0,004	0,161
-197,533	-41,457	0,145	0,053
-196,519	15,130	0,021	0,012
-195,504	800,000	-0,035	-0,079
-194,490	124,793	-0,111	0,099
-193,475	291,327	-0,055	0,071
-192,460	70,575	0,169	0,124
-191,446	-49,333	0,104	-0,035
-190,431	41,403	-0,145	0,093
-189,417	-200,000	0,027	-0,109
-188,402	-9,206	-0,076	-0,036
-187,387	39,084	0,085	-0,054
-186,373	800,000	0,013	-0,032
-185,358	14,480	0,068	0,037
-184,344	122,604	0,041	-0,037
-183,329	-88,036	0,032	0,007
-182,315	182,734	-0,011	-0,012
-181,300	723,613	-0,058	-0,110
-180,285	-200,000	-0,006	-0,124
-179,271	771,042	0,045	-0,087
-178,256	-87,556	-0,086	0,018
-177,242	137,789	-0,053	-0,049
-176,227	-133,081	-0,126	-0,011
-175,212	-111,729	0,055	-0,008
-174,198	-134,630	-0,149	0,013
-173,183	62,788	0,102	-0,072
-172,169	-200,000	-0,000	0,018
-171,154	-52,264	-0,056	0,018
-170,139	17,503	0,116	0,065
-169,125	131,772	0,121	0,110
-168,110	519,642	-0,037	0,061
-167,096	312,058	-0,021	-0,028
-166,081	68,343	-0,111	-0,081
-165,066	-32,759	0,061	0,024
-164,052	-63,051	0,114	-0,033
-163,037	-16,190	-0,106	-0,048
-162,023	-200,000	0,040	0,150
-161,008	-153,676	-0,081	-0,004
-159,993	800,000	-0,038	0,118
-158,979	-154,515	-0,070	-0,003
-157,964	-30,535	-0,074	0,030
-156,950	-145,555	-0,053	0,003
-155,935	203,448	0,099	-0,109
-154,920	-200,000	0,035	0,155
-153,906	103,115	0,026	0,022
-152,891	-200,000	-0,028	-0,096
-151,877	-143,898	0,102	-0,007
-150,862	494,499	0,036	-0,059
-149,847	-200,000	-0,000	0,038
-148,833	151,264	0,052	0,050
-147,818	-161,537	-0,062	-0,002
-146,804	800,000	0,040	-0,108
-145,789	84,458	0,100	-0,078
-144,775	-98,449	-0,021	-0,004
-143,760	733,173	-0,006	-0,011
-142,745	-141,840	0,102	0,007
-141,731	-200,000	-0,008	-0,113
-140,716	-105,865	-0,050	0,008
-139,702	-108,985	-0,056	0,008
-138,687	-200,000	-0,003	0,198
-137,672	359,582	0,046	0,065
-136,658	-67,329	0,081	-0,022
-135,643	-115,841	0,196	-0,026
-134,629	-20,258	0,108	0,047
-133,614	-96,076	0,023	0,004
-132,599	42,359	-0,018	-0,011
-131,585	-200,000	-0,002	0,022
-130,570	-11,316	-0,091	-0,042
-129,556	-200,000	-0,009	-0,119
-128,541	-173,981	-0,057	0,001
-127,526	-84,532	0,030	-0,007
-126,512	-200,000	0,043	0,137
-125,497	-200,000	0,013	0,207
-124,483	800,000	-0,030	0,071
-123,468	-132,199	-0,136	-0,012
-122,453	0,550	-0,067	-0,034
-121,439	-120,241	0,048	-0,006
-120,424	226,511	0,060	-0,070
-119,410	800,000	-0,042	-0,099
-118,395	-200,000	0,028	-0,121
-117,380	40,775	-0,039	-0,025
-116,366	800,000	-0,028	-0,070
-115,351	-200,000	-0,003	-0,038
-114,337	202,045	-0,101	-0,110
-113,322	11,130	-0,065	-0,035
-112,307	176,491	0,067	-0,069
-111,293	47,912	0,079	0,052
-110,278	-200,000	0,005	0,107
-109,264	-200,000	-0,017	0,119
-108,249	-200,000	0,013	-0,053
-107,234	776,390	-0,065	-0,127
-106,220	-64,524	-0,037	-0,011
-105,205	-46,447	0,112	0,039
-104,191	209,761	0,051	-0,057
-103,176	-43,227	0,001	-0,000
-102,162	-127,898	0,120	-0,012
-101,147	255,300	-0,063	-0,076
-100,132	-200,000	0,005	-0,115
-99,118	532,059	-0,041	0,070
-98,103	-109,203	-0,100	0,015
-97,089	504,852	0,048	0,078
-96,074	287,128	0,072	0,093
-95,059	-54,334	0,083	0,026
-94,045	800,000	-0,050	-0,105
-93,030	-200,000	0,018	-0,183
-92,016	-40,866	0,118	0,043
-91,001	135,858	0,091	0,084
-89,986	-116,278	0,122	0,016
-88,972	10,136	0,082	0,044
-87,957	800,000	-0,067	0,138
-86,943	-200,000	-0,011	0,053
-85,928	111,073	-0,080	-0,068
-84,913	227,825	-0,033	0,038
-83,899	-200,000	-0,015	0,100
-82,884	-200,000	-0,001	0,036
-81,870	67,186	0,047	0,034
-80,855	-200,000	0,001	-0,054
-79,840	-200,000	-0,004	-0,071
-78,826	-200,000	-0,003	0,225
-77,811	-18,493	0,047	0,021
-76,797	98,861	0,024	0,020
-75,782	-64,946	-0,083	-0,024
-74,767	-131,949	0,126	-0,011
-73,753	136,120	0,062	0,057
-72,738	10,382	-0,083	0,045
-71,724	-200,000	-0,025	-0,172
-70,709	800,000	0,019	-0,044
-69,694	-60,393	-0,097	-0,029
-68,680	-74,702	-0,117	-0,030
-67,665	-200,000	0,002	0,040
-66,651	-85,693	0,091	-0,020
-65,636	-118,366	-0,072	-0,009
-64,622	-111,373	0,084	0,012
-63,607	474,790	-0,033	-0,052
-62,592	-165,461	-0,123	0,004
-61,578	-17,798	0,142	-0,063
-60,563	140,500	0,118	-0,111
-59,549	404,195	-0,121	0,181
-58,534	-3,872	-1,814	-0,887
-57,519	484,506	-1,343	-2,169
-56,505	-200,000	-0,320	-4,433
-55,490	375,145	0,781	1,129
-54,476	800,000	5,173	11,337
-53,461	-200,000	20,285	328,072
-52,446	800,000	751,175	2316,442
-51,432	550,433	1660,056	2826,080
-50,417	75,085	1668,167	1241,545
-49,403	19,928	1540,952	875,651
-48,388	13,972	1463,148	802,543
-47,373	18,745	1453,886	820,427
-46,359	16,638	1442,942	804,156
-45,344	12,245	1438,462	780,651
-44,330	12,200	1436,634	779,412
-43,315	12,166	1434,976	778,320
-42,300	12,166	1433,183	777,319
-41,286	12,181	1431,914	776,667
-40,271	12,125	1430,689	775,709
-39,257	12,131	1429,483	775,052
-38,242	12,204	1428,009	774,570
-37,227	12,187	1427,096	773,960
-36,213	12,210	1425,683	773,271
-35,198	12,181	1424,633	772,536
-34,184	12,218	1423,698	772,173
-33,169	12,160	1422,306	771,113
-32,154	12,281	1420,896	770,889
-31,140	12,233	1419,761	770,018
-30,125	12,207	1418,841	769,364
-29,111	12,226	1417,663	768,787
-28,096	12,242	1416,418	768,153
-27,082	12,165	1415,356	767,186
-26,067	12,119	1414,560	766,508
-25,052	12,161	1413,464	766,079
-24,038	12,145	1412,489	765,447
-23,023	12,114	1411,284	764,616
-22,009	12,074	1410,427	763,936
-20,994	12,089	1409,448	763,444
-19,979	12,109	1408,598	763,050
-18,965	12,133	1407,491	762,531
-17,950	12,089	1406,770	761,902
-16,936	12,135	1405,682	761,497
-15,921	12,020	1404,813	760,463
-14,906	12,086	1403,711	760,142
-13,892	12,036	1402,879	759,428
-12,877	12,056	1402,269	759,163
-11,863	12,040	1401,122	758,436
-10,848	12,062	1400,249	758,036
-9,833	11,988	1399,613	757,318
-8,819	11,926	1398,640	756,472
-7,804	11,945	1397,692	756,018
-6,790	11,946	1396,602	755,402
-5,775	11,950	1395,773	754,943
-4,760	11,950	1395,002	754,495
-3,746	11,950	1393,749	753,787
-2,731	11,922	1392,985	753,215
-1,717	11,895	1392,194	752,632
-0,702	11,916	1390,277	751,663
0,313	15,843	1305,543	723,942
1,327	32,151	697,943	424,391
2,342	49,665	121,723	80,873
3,356	0,930	16,630	8,392
4,371	2,783	3,322	1,697
5,386	22,734	0,673	0,389
6,400	-200,000	0,093	0,361
7,415	352,020	-0,088	-0,124
8,429	199,484	-0,256	-0,278
9,444	155,218	-0,253	-0,246
10,459	-89,744	-0,253	-0,052
11,473	-65,830	-0,321	-0,090
12,488	175,786	-0,275	-0,282
13,502	67,775	-0,235	-0,169
14,517	-135,811	-0,341	-0,028
15,531	-25,132	-0,446	-0,186
16,546	53,638	-0,294	-0,199
17,561	219,367	-0,259	-0,292
18,575	-67,602	-0,165	-0,045
19,590	800,000	-0,109	-0,273
20,604	-147,407	-0,385	-0,023
21,619	118,846	-0,408	-0,356
22,634	77,848	-0,383	-0,288
23,648	193,862	-0,317	-0,339
24,663	162,541	-0,465	-0,460
25,677	103,455	-0,325	-0,269
26,692	6,988	-0,353	-0,185
27,707	68,545	-0,285	-0,206
28,721	19,156	-0,414	-0,234
29,736	22,248	-0,333	-0,191
30,750	57,996	-0,455	-0,314
31,765	-34,112	-0,350	-0,135
32,780	-25,383	-0,393	-0,163
33,794	152,096	-0,355	-0,341
34,809	-30,984	-0,424	-0,168
35,823	52,324	-0,344	-0,231
36,838	83,353	-0,352	-0,270
37,853	25,914	-0,293	-0,172
38,867	155,191	-0,332	-0,322
39,882	127,364	-0,284	-0,254
40,896	5,279	-0,295	-0,153
41,911	24,770	-0,341	-0,198
42,926	-1,180	-0,345	-0,171
43,940	-40,636	-0,502	-0,182
44,955	61,702	-0,430	-0,301
45,969	54,739	-0,386	-0,261
46,984	220,529	-0,257	-0,291
47,999	31,765	-0,266	-0,161
49,013	25,379	-0,315	-0,184
50,028	79,457	-0,312	-0,235
51,042	69,113	-0,342	-0,247
52,057	62,618	-0,392	-0,275
53,071	110,176	-0,264	-0,223
54,086	-30,037	-0,301	-0,120
55,101	111,795	-0,357	-0,303
56,115	91,713	-0,254	-0,201
57,130	96,165	-0,357	-0,286
58,144	339,324	-0,203	-0,279
59,159	127,752	-0,424	-0,379
60,174	167,290	-0,225	-0,225
61,188	143,847	-0,226	-0,212
62,203	110,232	-0,253	-0,213
63,217	-66,921	-0,327	-0,090
64,232	-47,913	-0,266	-0,090
65,247	173,084	-0,272	-0,276
66,261	37,083	-0,401	-0,249
67,276	136,623	-0,240	-0,220
68,290	-38,138	-0,325	-0,121
69,305	88,718	-0,302	-0,236
70,320	58,814	-0,271	-0,187
71,334	-17,742	-0,445	-0,195
72,349	92,719	-0,375	-0,297
73,363	23,013	-0,401	-0,230
74,378	-173,904	-0,249	0,005
75,393	165,519	-0,242	-0,241
76,407	14,833	-0,168	-0,092
77,422	-77,706	-0,375	-0,090
78,436	-80,649	-0,247	-0,057
79,451	208,860	-0,291	-0,320
80,466	225,254	-0,222	-0,252
81,480	10,892	-0,379	-0,203
82,495	226,474	-0,254	-0,289
83,509	-9,491	-0,515	-0,240
84,524	-83,270	-0,248	-0,055
85,539	77,661	-0,300	-0,224
86,553	64,100	-0,242	-0,170
87,568	19,375	-0,323	-0,181
88,582	250,730	-0,202	-0,241
89,597	54,273	-0,243	-0,164
90,611	206,504	-0,156	-0,171
91,626	-3,272	-0,331	-0,161
92,641	209,485	-0,150	-0,165
93,655	0,126	-0,223	-0,111
94,670	103,278	-0,178	-0,146
95,684	-11,870	-0,234	-0,107
96,699	196,870	-0,202	-0,216
97,714	-76,327	-0,357	-0,087
98,728	-73,746	-0,182	-0,046
99,743	88,728	-0,241	-0,187
100,757	126,131	-0,316	-0,280
101,772	520,616	-0,117	-0,193
102,787	15,181	-0,382	-0,209
103,801	62,691	-0,254	-0,178
104,816	119,909	-0,301	-0,261
105,830	48,654	-0,245	-0,161
106,845	12,307	-0,329	-0,177
107,860	-99,668	-0,282	-0,049
108,874	-72,860	-0,303	-0,078
109,889	422,458	-0,171	-0,258
110,903	120,769	-0,235	-0,205
111,918	17,670	-0,274	-0,152
112,933	-46,415	-0,238	-0,081
113,947	-119,008	-0,171	-0,021
114,962	-59,170	-0,233	-0,070
115,976	153,229	-0,235	-0,225
116,991	115,675	-0,315	-0,270
118,006	245,352	-0,144	-0,170
119,020	98,278	-0,188	-0,151
120,035	-70,331	-0,336	-0,088
121,049	263,690	-0,199	-0,242
122,064	546,752	-0,117	-0,196
123,079	76,468	-0,154	-0,114
124,093	111,952	-0,299	-0,252
125,108	166,996	-0,275	-0,273
126,122	194,996	-0,181	-0,193
127,137	-20,173	-0,338	-0,145
128,151	-130,438	-0,176	-0,016
129,166	66,725	-0,142	-0,101
130,181	-11,028	-0,217	-0,100
131,195	100,812	-0,289	-0,234
132,210	9,338	-0,289	-0,152
133,224	150,688	-0,287	-0,272
134,239	45,997	-0,237	-0,153
135,254	91,216	-0,162	-0,127
136,268	124,332	-0,138	-0,121
137,283	47,221	-0,273	-0,177
138,297	482,072	-0,195	-0,311
139,312	109,390	-0,259	-0,217
140,327	101,846	-0,265	-0,216
141,341	151,462	-0,146	-0,138
142,356	-101,820	-0,321	-0,054
143,370	20,261	-0,179	-0,101
144,385	-27,244	-0,236	-0,095
145,400	312,028	-0,153	-0,201
146,414	164,314	-0,242	-0,238
147,429	59,940	-0,194	-0,133
148,443	22,887	-0,241	-0,138
149,458	106,375	-0,196	-0,162
150,473	25,970	-0,239	-0,138
151,487	374,542	-0,082	-0,116
152,502	174,662	-0,214	-0,216
153,516	182,867	-0,366	-0,377
154,531	103,967	-0,247	-0,203
155,546	-40,084	-0,255	-0,092
156,560	92,470	-0,304	-0,239
157,575	122,934	-0,174	-0,151
158,589	7,513	-0,240	-0,125
159,604	-16,582	-0,295	-0,129
160,619	79,527	-0,210	-0,157
161,633	136,453	-0,254	-0,231
162,648	79,613	-0,197	-0,147
163,662	61,685	-0,250	-0,173
164,677	116,609	-0,286	-0,245
165,692	531,400	-0,068	-0,113
166,706	408,823	-0,164	-0,242
167,721	-106,810	-0,261	-0,040
168,735	168,497	-0,283	-0,280
169,750	318,042	-0,114	-0,151
170,764	-59,069	-0,317	-0,095
171,779	188,356	-0,190	-0,198
172,794	-44,168	-0,261	-0,091
173,808	50,153	-0,181	-0,119
174,823	-63,308	-0,381	-0,109
175,837	105,596	-0,241	-0,198
176,852	161,882	-0,202	-0,196
177,867	165,482	-0,151	-0,149
178,881	-32,932	-0,293	-0,113
179,896	-200,000	-0,013	-0,042
180,910	600,078	-0,179	-0,310
181,925	592,699	-0,127	-0,219
182,940	201,781	-0,252	-0,271
183,954	-54,120	-0,217	-0,068
184,969	-200,000	-0,064	-0,204
185,983	380,791	-0,198	-0,283
186,998	-117,916	-0,158	0,019
188,013	60,051	-0,199	-0,137
189,027	104,522	-0,266	-0,217
190,042	405,247	-0,201	-0,295
191,056	-115,284	-0,236	0,031
192,071	62,788	-0,183	-0,127
193,086	-144,287	-0,099	-0,006
194,100	-130,901	-0,145	0,013
195,115	-200,000	-0,048	-0,167
196,129	243,525	-0,170	-0,198
197,144	217,435	-0,146	-0,162
198,159	245,352	-0,208	-0,244
199,173	-2,217	-0,151	-0,073
200,188	-41,496	-0,369	-0,131
201,202	-47,351	-0,138	-0,046
202,217	35,382	-0,306	-0,186
203,232	154,971	-0,093	-0,089
204,246	-70,044	-0,361	-0,095
205,261	-51,991	-0,258	-0,083
206,275	-132,006	-0,322	-0,029
207,290	571,504	-0,133	-0,225
208,304	68,666	-0,194	-0,138
209,319	51,235	-0,162	-0,107
210,334	-100,416	-0,276	-0,047
211,348	114,705	-0,150	-0,127
212,363	56,269	-0,219	-0,148
213,377	125,511	-0,240	-0,210
214,392	215,893	-0,184	-0,202
215,407	28,888	-0,223	-0,130
216,421	-63,821	-0,235	-0,066
217,436	172,086	-0,147	-0,147
218,450	205,040	-0,235	-0,253
219,465	185,365	-0,183	-0,188
220,480	53,859	-0,203	-0,135
221,494	216,303	-0,129	-0,142
222,509	43,846	-0,219	-0,139
223,523	-60,309	-0,227	-0,067
224,538	31,414	-0,172	-0,102
225,553	-50,121	-0,184	-0,060
226,567	171,565	-0,189	-0,188
227,582	-158,916	-0,102	-0,004
228,596	495,024	-0,064	-0,102
229,611	800,000	-0,110	-0,272
230,626	131,830	-0,214	-0,191
231,640	360,150	-0,045	-0,062
232,655	144,169	-0,218	-0,202
233,669	-200,000	-0,056	-0,199
234,684	-200,000	-0,039	-0,178
235,699	215,681	-0,208	-0,229
236,713	74,104	-0,098	-0,071
237,728	-200,000	-0,044	-0,225
238,742	-85,443	-0,081	-0,017
239,757	136,213	-0,210	-0,190
240,772	238,688	-0,153	-0,176
241,786	37,817	-0,262	-0,160
242,801	-200,000	0,003	-0,209
243,815	211,302	-0,088	-0,096
244,830	-60,924	-0,145	-0,042
245,844	-169,373	-0,254	-0,006
246,859	800,000	-0,107	-0,303
247,874	47,543	-0,248	-0,160
248,888	100,092	-0,170	-0,137
249,903	7,143	-0,120	-0,062
250,917	362,737	-0,116	-0,162
251,932	527,119	-0,082	-0,134
252,947	-200,000	-0,010	-0,304
253,961	52,109	-0,197	-0,129
254,976	43,493	-0,201	-0,127
255,990	615,862	-0,102	-0,177
257,005	-99,668	-0,064	-0,011
258,020	-29,232	-0,214	-0,084
259,034	800,000	-0,060	-0,155
260,049	376,359	-0,117	-0,165
261,063	-55,269	-0,101	-0,031
262,078	42,276	-0,169	-0,106
263,093	-67,863	-0,199	-0,053
264,107	-18,752	-0,161	-0,069
265,122	-200,000	0,011	-0,155
266,136	8,836	-0,160	-0,083
267,151	-53,859	-0,156	-0,049
268,166	140,577	-0,249	-0,227
269,180	86,020	-0,197	-0,149
270,195	-84,986	-0,192	-0,041
271,209	5,035	-0,094	-0,048
272,224	-123,584	-0,118	-0,013
273,239	184,775	-0,136	-0,139
274,253	60,250	-0,169	-0,115
275,268	290,092	-0,158	-0,198
276,282	12,668	-0,285	-0,151
277,297	12,286	-0,204	-0,108
278,312	459,808	-0,056	-0,087
279,326	-95,789	-0,114	0,021
280,341	-99,037	0,049	0,008
281,355	28,648	-0,155	-0,091
282,370	-200,000	-0,059	-0,211
283,384	159,179	-0,234	-0,224
284,399	82,630	-0,187	-0,140
285,414	-4,749	-0,042	-0,020
286,428	-69,066	-0,048	0,013
287,443	9,839	-0,097	0,051
288,457	-200,000	-0,031	-0,135
289,472	335,827	-0,089	-0,119
290,487	102,895	-0,239	-0,193
291,501	12,780	-0,115	0,061
292,516	95,291	-0,117	-0,092
293,530	546,909	-0,146	-0,241
294,545	416,368	-0,186	-0,274
295,560	-148,384	-0,198	-0,011
296,574	-29,972	-0,268	0,104
297,589	-63,582	-0,174	-0,049
298,603	142,683	-0,168	-0,153
299,618	59,328	-0,161	-0,109
300,633	506,540	-0,094	-0,151
301,647	271,275	-0,067	-0,082
302,662	285,246	-0,114	-0,141
303,676	-200,000	0,007	-0,042
304,691	-29,603	-0,240	-0,094
305,706	800,000	-0,043	-0,108
306,720	418,715	-0,174	-0,257
307,735	-119,136	-0,139	0,017
308,749	312,564	-0,048	-0,062
309,764	14,980	-0,162	-0,087
310,779	-21,013	-0,190	-0,080
311,793	-88,382	-0,230	-0,047
312,808	-44,470	-0,357	-0,122
313,822	148,290	-0,199	-0,185
314,837	2,715	-0,208	-0,103
315,852	519,649	-0,121	0,196
316,866	736,730	-0,068	0,126
317,881	-28,044	-0,083	-0,033
318,895	-16,467	-0,179	-0,078
319,910	-122,548	-0,129	-0,014
320,925	433,626	-0,103	-0,154
321,939	-200,000	-0,006	0,021
322,954	-160,835	-0,138	-0,005
323,968	234,625	-0,054	-0,061
324,983	-157,191	-0,236	0,010
325,997	-171,856	-0,122	0,003
327,012	404,607	-0,111	-0,161
328,027	544,534	-0,106	-0,175
329,041	-42,305	-0,186	-0,065
330,056	148,709	-0,158	-0,147
331,070	62,431	-0,141	-0,097
332,085	127,346	-0,159	-0,139
333,100	-26,363	-0,089	0,035
334,114	66,759	-0,170	-0,119
335,129	6,594	-0,201	-0,102
336,143	-35,671	-0,179	-0,066
337,158	426,662	-0,124	-0,184
338,173	395,919	-0,076	-0,109
339,187	84,319	-0,202	-0,151
340,202	-5,414	-0,135	-0,063
341,216	199,241	-0,187	-0,197
342,231	10,773	-0,130	0,068
343,246	-47,249	-0,181	-0,060
344,260	-13,370	-0,139	-0,061
345,275	-44,894	-0,138	-0,047
346,289	-114,305	-0,063	-0,008
347,304	800,000	-0,108	-0,232
348,319	-200,000	-0,057	-0,212
349,333	59,380	-0,115	-0,078
350,348	-124,891	-0,166	0,017
351,362	125,067	-0,053	-0,046
352,377	-145,880	-0,106	0,006
353,392	-18,719	-0,134	-0,057
354,406	107,036	-0,134	-0,109
355,421	207,669	1313,320	1406,070
356,435	159,761	1473,876	1406,569
