DTS Sentinel unit serial number:	SN410029Multiplexer serial number:	ORYXHardware model number:	OX2-SRSoftware version number:	ORYX F/W v4,00 Oryx Data Collector v3.7.2.0data status	okinstallation	B3 Nyhavnadifferential loss correction	single-endedforward channel	channel 1reverse channel	N/Adate	2023/12/02time	03:07:30forward acquisition time	300,00reverse acquisition time	0,00gamma	499,1914k internal	0,3194k external	0,3194temperature offset calibration	1,0000default loss term (dB/km)	0,3820temperature slope calibration	1,0000multiplexer offset coefficient	1,0000multiplexer slope coefficient	1,0000fibre end	0,00T internal ref (°C)	16,66T ext. ref 1 (°C)	1,74T ext. ref 2 (°C)	1,73length (m)	temperature (°C)	Stokes	anti-Stokes-744,400	800,000	-0,147	-0,302
-743,385	-200,000	-0,007	0,267
-742,371	218,553	-0,195	-0,227
-741,356	-200,000	0,110	0,390
-740,342	171,225	-0,210	-0,220
-739,327	800,000	0,105	0,261
-738,312	800,000	-0,106	-0,257
-737,298	800,000	-0,130	0,377
-736,283	167,038	-0,167	-0,173
-735,269	-200,000	0,039	0,316
-734,254	130,292	-0,141	-0,131
-733,239	9,926	-0,138	0,076
-732,225	307,499	-0,134	-0,183
-731,210	-77,919	0,122	0,031
-730,196	718,572	0,087	-0,169
-729,181	-124,537	0,038	-0,004
-728,167	45,469	-0,092	-0,061
-727,152	800,000	-0,007	0,019
-726,137	-83,642	-0,024	0,006
-725,123	-200,000	0,010	0,088
-724,108	-149,432	-0,087	0,005
-723,094	389,102	0,033	-0,051
-722,079	-65,669	0,104	-0,030
-721,064	-200,000	-0,014	0,133
-720,050	-68,479	-0,136	0,038
-719,035	146,861	-0,040	-0,040
-718,021	-200,000	0,001	-0,049
-717,006	163,126	-0,046	0,047
-715,991	800,000	-0,036	-0,093
-714,977	-129,152	-0,167	0,017
-713,962	-200,000	0,020	-0,071
-712,948	-5,694	-0,016	0,008
-711,933	48,629	-0,031	0,021
-710,918	-95,810	0,060	0,012
-709,904	-200,000	0,006	-0,050
-708,889	70,882	-0,122	-0,092
-707,875	179,263	0,080	-0,085
-706,860	156,780	-0,021	0,021
-705,845	-102,236	0,188	0,033
-704,831	340,709	-0,066	0,094
-703,816	-92,315	-0,070	-0,014
-702,802	-122,019	0,167	0,020
-701,787	-169,252	-0,012	0,000
-700,772	783,491	0,049	-0,098
-699,758	370,980	-0,035	-0,052
-698,743	800,000	0,061	0,138
-697,729	9,609	0,111	0,061
-696,714	21,337	-0,056	-0,033
-695,699	800,000	-0,021	0,066
-694,685	-200,000	0,005	0,126
-693,670	-151,066	-0,141	-0,008
-692,656	86,623	0,066	-0,053
-691,641	52,778	0,080	-0,056
-690,627	-200,000	0,013	0,102
-689,612	35,416	0,053	-0,034
-688,597	20,738	-0,078	0,046
-687,583	215,008	0,067	0,078
-686,568	800,000	-0,026	-0,084
-685,554	79,327	0,010	-0,008
-684,539	-50,253	0,141	-0,048
-683,524	162,546	-0,058	0,059
-682,510	14,115	-0,029	-0,016
-681,495	104,453	0,097	-0,083
-680,481	669,388	0,036	-0,068
-679,466	-51,148	-0,119	0,040
-678,451	142,265	-0,036	-0,035
-677,437	69,569	0,018	0,013
-676,422	-170,588	-0,057	0,001
-675,408	-200,000	-0,037	0,151
-674,393	31,371	-0,028	0,017
-673,378	171,012	-0,053	0,056
-672,364	-51,988	-0,093	-0,031
-671,349	-200,000	-0,021	0,079
-670,335	453,065	-0,036	-0,057
-669,320	800,000	-0,039	0,080
-668,305	-0,157	-0,148	-0,076
-667,291	-130,261	-0,074	-0,007
-666,276	-111,435	0,065	-0,010
-665,262	148,821	-0,118	-0,116
-664,247	-200,000	0,014	-0,046
-663,232	800,000	-0,010	-0,025
-662,218	-200,000	0,007	-0,043
-661,203	-162,861	0,103	-0,004
-660,189	-200,000	0,003	-0,029
-659,174	-134,651	0,085	-0,007
-658,159	211,032	-0,136	-0,156
-657,145	-1,911	-0,144	-0,073
-656,130	-67,661	-0,107	0,030
-655,116	-200,000	0,013	-0,092
-654,101	377,581	-0,020	-0,029
-653,086	-43,928	-0,062	-0,022
-652,072	68,105	0,127	-0,094
-651,057	-200,000	-0,025	0,130
-650,043	157,026	-0,076	-0,077
-649,028	-200,000	0,004	-0,050
-648,014	334,423	0,032	0,045
-646,999	-3,330	0,100	0,050
-645,984	-15,917	0,105	-0,048
-644,970	330,024	-0,063	-0,088
-643,955	-200,000	-0,045	-0,170
-642,941	179,969	-0,080	0,085
-641,926	424,968	0,122	-0,192
-640,911	97,242	-0,108	-0,090
-639,897	-200,000	-0,018	0,076
-638,882	-91,645	0,013	-0,003
-637,868	84,592	-0,051	0,040
-636,853	-94,648	-0,104	-0,020
-635,838	800,000	-0,059	-0,143
-634,824	754,481	0,048	-0,095
-633,809	42,091	-0,049	-0,032
-632,795	-18,153	-0,058	-0,026
-631,780	576,137	-0,027	0,048
-630,765	729,743	-0,065	0,126
-629,751	-19,792	0,082	-0,037
-628,736	-8,320	-0,066	-0,032
-627,722	50,956	-0,021	-0,015
-626,707	63,033	-0,138	0,100
-625,692	-62,251	0,099	0,030
-624,678	-28,348	0,065	0,027
-623,663	-200,000	0,019	-0,066
-622,649	493,305	-0,085	-0,143
-621,634	56,491	-0,088	-0,062
-620,619	800,000	0,025	-0,050
-619,605	21,640	0,052	-0,031
-618,590	145,832	0,030	0,029
-617,576	27,727	0,020	0,012
-616,561	18,364	0,078	-0,045
-615,546	-200,000	-0,052	-0,178
-614,532	383,008	0,076	0,114
-613,517	66,439	-0,078	-0,057
-612,503	-200,000	-0,032	-0,133
-611,488	-32,941	0,091	0,036
-610,474	-117,892	0,127	0,016
-609,459	-27,219	-0,105	-0,044
-608,444	194,567	-0,106	-0,117
-607,430	77,011	0,105	-0,080
-606,415	-67,268	-0,083	-0,024
-605,401	-135,174	0,094	0,008
-604,386	332,574	-0,075	-0,106
-603,371	-200,000	-0,003	0,064
-602,357	800,000	0,020	-0,064
-601,342	-200,000	-0,022	0,126
-600,328	-200,000	-0,019	-0,097
-599,313	-112,480	-0,038	-0,005
-598,298	127,401	-0,089	-0,082
-597,284	-33,561	0,122	-0,049
-596,269	-109,964	0,097	-0,015
-595,255	-55,974	0,082	0,026
-594,240	-146,782	-0,146	-0,009
-593,225	-148,952	0,148	0,009
-592,211	-34,524	0,070	-0,028
-591,196	79,932	-0,022	0,017
-590,182	800,000	-0,079	0,188
-589,167	215,525	0,109	0,126
-588,152	1,630	-0,055	-0,029
-587,138	-64,359	-0,117	0,034
-586,123	-200,000	-0,037	0,124
-585,109	80,687	0,090	-0,070
-584,094	37,798	0,105	-0,068
-583,079	-200,000	0,054	-0,188
-582,065	-52,260	0,073	-0,024
-581,050	561,713	-0,032	-0,057
-580,036	800,000	0,091	-0,210
-579,021	-173,823	-0,139	0,003
-578,006	-200,000	-0,014	-0,167
-576,992	94,957	-0,083	0,069
-575,977	163,945	0,136	-0,139
-574,963	208,497	-0,021	0,024
-573,948	133,804	0,129	0,121
-572,934	-16,818	-0,204	-0,093
-571,919	-72,360	-0,056	-0,015
-570,904	-200,000	0,006	-0,044
-569,890	-200,000	0,003	0,174
-568,875	773,201	0,037	-0,073
-567,861	-194,248	-0,133	-0,001
-566,846	312,722	-0,058	0,079
-565,831	-8,764	0,055	0,026
-564,817	229,356	-0,034	-0,040
-563,802	108,906	0,018	-0,015
-562,788	-200,000	-0,001	-0,009
-561,773	-73,613	0,099	0,026
-560,758	-200,000	0,007	-0,056
-559,744	27,215	0,089	-0,054
-558,729	152,437	0,080	0,079
-557,715	183,915	-0,160	0,171
-556,700	59,330	-0,089	-0,063
-555,685	108,977	0,022	-0,019
-554,671	220,541	0,084	-0,097
-553,656	-200,000	0,033	0,165
-552,642	612,276	0,041	0,075
-551,627	-89,478	-0,151	0,032
-550,612	394,120	-0,027	0,041
-549,598	-47,928	-0,018	-0,006
-548,583	-103,192	-0,087	0,015
-547,569	-200,000	0,002	0,091
-546,554	800,000	0,034	0,083
-545,539	800,000	-0,031	0,095
-544,525	-200,000	-0,023	0,152
-543,510	42,883	-0,056	0,037
-542,496	18,914	0,069	0,040
-541,481	-200,000	0,018	-0,146
-540,466	800,000	0,043	-0,085
-539,452	800,000	0,029	0,091
-538,437	302,922	0,043	0,058
-537,423	-111,173	0,134	-0,020
-536,408	-200,000	0,010	-0,078
-535,393	-200,000	0,002	0,038
-534,379	292,779	-0,094	-0,125
-533,364	42,786	-0,117	-0,077
-532,350	-114,115	0,247	0,034
-531,335	800,000	0,009	0,024
-530,321	-200,000	0,043	0,194
-529,306	175,635	0,060	0,063
-528,291	42,980	-0,011	0,007
-527,277	-89,284	-0,103	-0,022
-526,262	-200,000	-0,016	-0,062
-525,248	-102,506	0,100	-0,017
-524,233	329,434	-0,017	0,024
-523,218	140,628	0,006	0,006
-522,204	460,974	0,020	-0,032
-521,189	-41,658	-0,079	-0,029
-520,175	-200,000	-0,012	-0,057
-519,160	119,892	0,043	-0,038
-518,145	601,419	-0,020	0,036
-517,131	800,000	-0,030	0,088
-516,116	800,000	-0,014	0,030
-515,102	-200,000	-0,019	-0,126
-514,087	412,438	0,060	-0,092
-513,072	161,786	-0,066	-0,067
-512,058	509,411	-0,065	0,109
-511,043	228,792	0,010	0,012
-510,029	249,336	0,054	0,066
-509,014	-200,000	0,002	0,039
-507,999	91,637	0,057	0,046
-506,985	194,530	0,014	0,015
-505,970	381,421	-0,085	-0,126
-504,956	800,000	0,032	0,086
-503,941	214,794	0,047	0,054
-502,926	-15,200	0,076	0,035
-501,912	-82,851	0,117	0,027
-500,897	-200,000	-0,001	0,020
-499,883	71,315	-0,022	0,017
-498,868	-37,018	0,059	-0,023
-497,853	0,481	0,044	0,023
-496,839	800,000	0,039	0,112
-495,824	326,687	-0,046	0,064
-494,810	186,333	-0,109	0,117
-493,795	189,041	-0,035	-0,037
-492,781	125,671	-0,100	0,091
-491,766	395,092	-0,077	-0,117
-490,751	245,913	-0,102	-0,125
-489,737	-200,000	-0,011	-0,135
-488,722	800,000	-0,054	0,159
-487,708	76,955	-0,025	0,019
-486,693	-200,000	0,031	0,123
-485,678	-161,833	-0,123	0,004
-484,664	-95,818	-0,093	-0,018
-483,649	-200,000	0,018	-0,098
-482,635	311,837	0,054	-0,074
-481,620	-103,618	0,042	0,007
-480,605	-65,700	0,042	0,012
-479,591	800,000	-0,045	0,101
-478,576	-200,000	0,013	0,064
-477,562	233,100	-0,008	0,010
-476,547	230,967	0,075	-0,089
-475,532	-81,344	-0,071	0,017
-474,518	-20,700	0,039	-0,017
-473,503	-170,494	0,040	-0,001
-472,489	-97,419	-0,141	0,026
-471,474	-200,000	-0,022	-0,150
-470,459	182,285	0,079	0,084
-469,445	-17,403	0,138	-0,062
-468,430	800,000	0,043	-0,116
-467,416	-116,672	-0,109	0,014
-466,401	294,693	-0,069	-0,092
-465,386	-2,122	0,146	0,074
-464,372	-42,129	-0,108	-0,040
-463,357	-133,661	0,124	0,011
-462,343	800,000	0,017	-0,047
-461,328	145,548	0,055	-0,053
-460,313	-73,404	-0,102	-0,027
-459,299	800,000	0,078	0,169
-458,284	232,500	-0,051	0,060
-457,270	9,411	-0,015	-0,008
-456,255	687,858	-0,071	0,134
-455,241	-55,794	-0,080	-0,026
-454,226	220,390	-0,068	-0,078
-453,211	800,000	0,088	-0,194
-452,197	330,692	-0,036	-0,050
-451,182	-200,000	-0,003	-0,038
-450,168	-138,267	-0,113	0,009
-449,153	-151,672	0,101	-0,005
-448,138	105,438	0,052	-0,045
-447,124	18,356	-0,102	-0,058
-446,109	182,243	-0,045	0,048
-445,095	223,267	0,039	0,046
-444,080	800,000	0,032	0,086
-443,065	-200,000	0,010	0,046
-442,051	43,426	0,085	-0,056
-441,036	169,615	-0,005	-0,005
-440,022	-69,092	-0,049	-0,014
-439,007	575,659	0,093	0,164
-437,992	-36,347	-0,052	-0,020
-436,978	794,616	-0,006	0,013
-435,963	647,452	0,076	0,141
-434,949	-200,000	0,001	-0,062
-433,934	180,247	0,077	-0,081
-432,919	-159,579	-0,061	-0,002
-431,905	114,191	-0,064	0,056
-430,890	-198,349	-0,136	-0,001
-429,876	-68,476	0,072	0,020
-428,861	800,000	-0,052	0,133
-427,846	-54,169	0,092	0,030
-426,832	-200,000	-0,040	-0,144
-425,817	392,475	-0,042	-0,063
-424,803	27,368	-0,074	0,045
-423,788	800,000	0,060	0,120
-422,773	244,223	-0,046	0,056
-421,759	-153,621	0,117	-0,006
-420,744	800,000	0,026	0,072
-419,730	379,448	-0,076	-0,113
-418,715	705,731	-0,056	-0,106
-417,701	800,000	0,011	0,033
-416,686	20,917	-0,069	-0,040
-415,671	433,133	-0,052	0,082
-414,657	252,936	0,038	-0,047
-413,642	2,206	0,113	0,059
-412,628	634,002	-0,061	-0,113
-411,613	253,320	-0,063	-0,078
-410,598	-125,120	-0,120	-0,013
-409,584	-147,507	0,112	0,007
-408,569	-2,769	0,115	-0,058
-407,555	-3,942	-0,030	-0,015
-406,540	519,138	-0,014	-0,024
-405,525	55,300	0,072	0,050
-404,511	44,686	-0,086	-0,057
-403,496	-158,278	0,071	0,003
-402,482	-170,973	0,112	0,003
-401,467	235,810	0,086	0,102
-400,452	619,990	-0,047	0,086
-399,438	-99,063	0,106	0,019
-398,423	-55,833	-0,048	0,015
-397,409	-200,000	-0,016	-0,053
-396,394	678,754	0,061	0,114
-395,379	800,000	-0,026	-0,066
-394,365	355,040	0,018	-0,026
-393,350	-200,000	0,001	0,003
-392,336	-69,616	-0,065	0,018
-391,321	-63,317	-0,043	0,013
-390,306	800,000	-0,106	0,213
-389,292	800,000	-0,052	0,129
-388,277	-36,415	-0,163	0,063
-387,263	-200,000	-0,008	0,049
-386,248	-15,821	0,099	0,045
-385,233	488,809	-0,054	0,088
-384,219	124,121	-0,104	0,094
-383,204	-132,274	0,062	-0,006
-382,190	77,693	-0,064	-0,049
-381,175	-200,000	0,010	0,056
-380,160	-200,000	-0,015	0,071
-379,146	-102,856	0,102	0,017
-378,131	374,610	-0,057	-0,084
-377,117	125,647	0,055	-0,050
-376,102	8,647	0,023	0,012
-375,088	-116,955	-0,067	-0,009
-374,073	-200,000	0,007	0,033
-373,058	569,548	0,064	-0,112
-372,044	-200,000	-0,020	0,070
-371,029	-200,000	-0,012	0,146
-370,015	80,341	-0,069	0,053
-369,000	-200,000	0,009	-0,045
-367,985	40,858	-0,128	-0,083
-366,971	30,930	-0,156	-0,096
-365,956	800,000	0,059	-0,152
-364,942	330,150	-0,053	0,074
-363,927	530,803	-0,064	0,109
-362,912	-142,112	0,048	0,003
-361,898	-143,745	-0,106	0,007
-360,883	-200,000	0,043	-0,138
-359,869	24,306	0,031	-0,018
-358,854	546,459	-0,027	-0,047
-357,839	48,523	0,038	0,025
-356,825	-200,000	-0,002	-0,064
-355,810	-109,646	0,114	0,017
-354,796	23,387	0,081	0,048
-353,781	59,824	-0,028	0,020
-352,766	-64,353	-0,094	0,027
-351,752	-200,000	0,006	-0,108
-350,737	777,057	0,021	0,041
-349,723	-92,841	0,115	-0,023
-348,708	-200,000	-0,008	0,048
-347,693	260,748	-0,005	-0,007
-346,679	172,299	0,087	-0,090
-345,664	420,100	0,069	0,106
-344,650	800,000	-0,020	-0,043
-343,635	800,000	0,018	0,056
-342,620	800,000	0,046	0,141
-341,606	-98,658	0,053	-0,010
-340,591	145,245	0,081	-0,077
-339,577	-200,000	-0,014	-0,071
-338,562	25,772	0,037	0,022
-337,548	184,750	-0,051	-0,054
-336,533	47,563	0,071	-0,048
-335,518	72,428	-0,053	-0,040
-334,504	800,000	0,023	0,050
-333,489	-166,993	-0,112	0,003
-332,475	800,000	-0,026	-0,075
-331,460	-200,000	0,037	-0,155
-330,445	-97,320	-0,073	0,013
-329,431	800,000	0,031	0,081
-328,416	-200,000	0,012	0,060
-327,402	-54,983	0,097	0,031
-326,387	-134,323	0,194	-0,017
-325,372	-34,589	-0,046	-0,018
-324,358	124,519	-0,041	0,037
-323,343	-200,000	0,028	0,114
-322,329	-27,483	-0,055	-0,023
-321,314	30,445	-0,022	0,013
-320,299	-65,706	0,126	0,036
-319,285	7,944	0,050	0,027
-318,270	167,154	0,044	0,045
-317,256	-69,756	-0,093	-0,025
-316,241	-150,411	-0,066	0,004
-315,226	800,000	-0,033	0,069
-314,212	309,510	-0,110	0,148
-313,197	800,000	0,053	0,122
-312,183	800,000	-0,035	0,095
-311,168	154,960	-0,191	0,188
-310,153	-17,685	-0,058	-0,026
-309,139	213,548	0,024	0,027
-308,124	276,979	0,020	0,026
-307,110	-85,790	0,103	0,023
-306,095	-7,635	-0,024	-0,011
-305,080	800,000	0,022	0,065
-304,066	-145,244	-0,086	-0,006
-303,051	793,989	-0,043	-0,084
-302,037	-122,273	-0,065	0,008
-301,022	14,197	0,084	-0,047
-300,008	40,445	0,062	-0,040
-298,993	800,000	0,034	-0,090
-297,978	170,340	0,015	0,015
-296,964	-200,000	0,002	-0,007
-295,949	-13,675	-0,023	-0,011
-294,935	-132,494	-0,017	-0,002
-293,920	-200,000	0,017	0,059
-292,905	-200,000	0,028	-0,144
-291,891	-15,221	0,125	0,057
-290,876	800,000	-0,049	0,122
-289,862	-127,950	0,096	0,010
-288,847	99,456	-0,113	-0,093
-287,832	-200,000	0,034	-0,143
-286,818	432,764	0,055	-0,086
-285,803	-200,000	-0,013	0,131
-284,789	-200,000	-0,004	0,015
-283,774	306,214	-0,045	-0,060
-282,759	-61,132	-0,030	0,009
-281,745	273,073	0,038	-0,048
-280,730	-83,090	-0,015	0,003
-279,716	800,000	-0,025	-0,061
-278,701	583,829	0,081	-0,143
-277,686	85,819	0,037	0,029
-276,672	243,933	0,093	0,112
-275,657	-200,000	0,002	-0,027
-274,643	800,000	-0,043	-0,111
-273,628	-200,000	-0,005	-0,021
-272,613	-64,381	0,146	-0,042
-271,599	-200,000	0,015	0,076
-270,584	611,068	-0,024	-0,042
-269,570	597,915	0,036	-0,065
-268,555	79,067	-0,099	0,076
-267,540	-3,330	-0,061	0,030
-266,526	800,000	-0,049	-0,114
-265,511	800,000	0,006	-0,014
-264,497	800,000	0,040	0,093
-263,482	45,689	0,105	-0,069
-262,467	199,951	0,039	-0,043
-261,453	-200,000	0,003	-0,014
-260,438	-72,323	-0,021	0,005
-259,424	800,000	0,021	-0,053
-258,409	-121,728	0,036	-0,004
-257,395	-91,311	0,148	0,030
-256,380	13,520	0,075	0,042
-255,365	800,000	-0,032	-0,081
-254,351	-10,367	-0,093	-0,044
-253,336	616,006	-0,064	-0,114
-252,322	217,297	0,132	-0,151
-251,307	-52,288	-0,149	-0,049
-250,292	170,031	-0,079	0,081
-249,278	-4,114	0,106	0,052
-248,263	-200,000	-0,001	-0,107
-247,249	280,157	-0,069	-0,088
-246,234	-200,000	0,023	-0,091
-245,219	393,865	0,071	-0,106
-244,205	-68,085	-0,201	0,055
-243,190	18,733	-0,061	0,035
-242,176	-64,336	-0,047	-0,014
-241,161	91,960	0,123	0,099
-240,146	100,620	-0,121	0,101
-239,132	800,000	-0,006	-0,014
-238,117	-200,000	-0,010	0,082
-237,103	326,949	0,111	-0,152
-236,088	-200,000	-0,024	-0,079
-235,073	-71,090	0,074	-0,020
-234,059	276,943	-0,016	0,020
-233,044	5,800	-0,139	0,073
-232,030	261,817	0,040	0,050
-231,015	-200,000	-0,057	0,183
-230,000	144,362	0,055	0,053
-228,986	312,642	0,090	-0,121
-227,971	-3,806	0,155	0,076
-226,957	-93,803	-0,082	0,016
-225,942	-200,000	-0,014	0,072
-224,927	5,574	-0,050	0,026
-223,913	61,146	0,016	0,011
-222,898	800,000	-0,011	0,029
-221,884	142,925	-0,081	0,077
-220,869	734,131	0,073	-0,141
-219,855	404,490	-0,035	-0,053
-218,840	304,493	0,047	-0,063
-217,825	383,688	-0,051	-0,075
-216,811	-200,000	-0,004	-0,050
-215,796	114,242	0,031	0,027
-214,782	-200,000	-0,027	0,087
-213,767	-36,652	-0,122	0,047
-212,752	658,224	0,028	0,051
-211,738	800,000	0,037	0,095
-210,723	-200,000	-0,026	-0,086
-209,709	-200,000	0,006	-0,105
-208,694	203,422	-0,071	0,078
-207,679	-40,207	0,034	0,013
-206,665	381,265	-0,016	-0,023
-205,650	-98,657	0,137	-0,025
-204,636	-34,276	-0,046	0,018
-203,621	219,286	0,089	0,101
-202,606	800,000	-0,049	0,140
-201,592	167,253	-0,033	-0,034
-200,577	-200,000	0,025	0,111
-199,563	-200,000	0,030	0,099
-198,548	112,053	-0,083	-0,071
-197,533	497,767	0,061	0,101
-196,519	-200,000	-0,034	0,118
-195,504	-200,000	-0,005	0,035
-194,490	40,089	-0,073	-0,047
-193,475	-200,000	-0,004	-0,051
-192,460	-78,926	-0,130	-0,031
-191,446	800,000	-0,005	-0,010
-190,431	-200,000	-0,005	0,166
-189,417	-200,000	0,023	0,104
-188,402	188,490	0,052	0,055
-187,387	-200,000	-0,004	0,057
-186,373	772,406	0,053	-0,103
-185,358	-130,413	0,100	0,009
-184,344	72,903	-0,077	-0,057
-183,329	492,636	0,052	-0,085
-182,315	38,025	0,105	0,066
-181,300	-42,385	0,062	0,023
-180,285	-22,299	0,134	-0,058
-179,271	-72,695	0,057	-0,015
-178,256	97,433	-0,049	0,040
-177,242	-200,000	0,048	0,189
-176,227	-200,000	0,026	-0,148
-175,212	154,533	0,092	0,090
-174,198	-200,000	0,003	-0,050
-173,183	-105,535	-0,026	-0,004
-172,169	-153,060	0,079	0,004
-171,154	-200,000	0,025	-0,085
-170,139	-46,606	-0,176	0,061
-169,125	800,000	0,028	0,088
-168,110	-153,312	0,124	0,006
-167,096	604,644	-0,055	0,098
-166,081	-200,000	0,013	-0,124
-165,066	-61,322	-0,143	-0,043
-164,052	-200,000	0,021	0,078
-163,037	83,065	-0,120	0,093
-162,023	-42,054	-0,067	-0,024
-161,008	-61,934	0,045	0,013
-159,993	-200,000	0,004	0,032
-158,979	800,000	-0,026	-0,056
-157,964	-34,635	0,034	0,013
-156,950	443,944	-0,041	-0,064
-155,935	-200,000	0,006	-0,222
-154,920	-200,000	-0,013	-0,082
-153,906	-156,369	0,049	-0,002
-152,891	-49,919	0,051	-0,017
-151,877	-200,000	0,027	0,100
-150,862	800,000	-0,013	-0,040
-149,847	-200,000	-0,001	0,053
-148,833	38,803	-0,146	-0,093
-147,818	424,800	0,100	0,154
-146,804	225,612	0,082	0,095
-145,789	368,645	0,007	0,010
-144,775	280,123	-0,087	0,111
-143,760	89,873	-0,117	-0,093
-142,745	-200,000	0,007	-0,097
-141,731	800,000	0,084	-0,205
-140,716	460,105	-0,059	-0,094
-139,702	99,830	-0,045	0,037
-138,687	-69,793	0,030	0,008
-137,672	-200,000	0,017	0,057
-136,658	-160,170	-0,043	-0,002
-135,643	-40,292	-0,066	0,024
-134,629	-200,000	-0,025	0,141
-133,614	-93,320	0,100	0,020
-132,599	71,868	-0,133	0,099
-131,585	800,000	0,027	0,069
-130,570	58,477	0,072	-0,050
-129,556	-2,164	-0,020	0,010
-128,541	-200,000	0,020	-0,098
-127,526	23,403	0,119	-0,070
-126,512	-49,154	0,113	0,038
-125,497	-200,000	-0,023	0,077
-124,483	-200,000	-0,032	0,205
-123,468	-62,968	0,139	0,040
-122,453	65,222	0,030	0,022
-121,439	-200,000	-0,000	-0,043
-120,424	-200,000	0,029	-0,127
-119,410	-41,051	0,032	-0,012
-118,395	64,274	-0,060	-0,043
-117,380	84,261	0,073	-0,057
-116,366	252,702	-0,099	0,121
-115,351	-200,000	0,015	0,075
-114,337	-200,000	-0,009	-0,064
-113,322	74,509	-0,092	0,069
-112,307	32,296	0,129	0,079
-111,293	786,872	0,024	-0,046
-110,278	800,000	0,018	0,041
-109,264	437,352	0,006	-0,009
-108,249	800,000	-0,073	-0,162
-107,234	-200,000	-0,014	-0,145
-106,220	104,632	-0,045	0,038
-105,205	800,000	-0,016	-0,033
-104,191	171,222	-0,012	-0,013
-103,176	-200,000	-0,005	-0,093
-102,162	197,042	0,050	0,054
-101,147	-54,009	-0,159	-0,051
-100,132	32,753	-0,029	-0,018
-99,118	800,000	-0,044	0,115
-98,103	-51,418	0,089	0,029
-97,089	221,307	0,055	0,063
-96,074	-137,734	0,041	-0,003
-95,059	-73,036	-0,085	0,022
-94,045	-111,725	0,062	0,009
-93,030	-152,844	0,044	-0,002
-92,016	5,765	-0,125	-0,066
-91,001	372,749	-0,027	0,040
-89,986	297,221	-0,095	-0,125
-88,972	-200,000	0,027	-0,093
-87,957	356,112	0,020	0,028
-86,943	-113,090	-0,118	0,016
-85,928	-200,000	-0,001	-0,140
-84,913	800,000	0,032	0,094
-83,899	76,767	-0,058	0,044
-82,884	-61,797	0,089	0,026
-81,870	124,417	-0,029	-0,026
-80,855	745,135	-0,032	0,061
-79,840	800,000	-0,029	0,068
-78,826	800,000	-0,039	-0,085
-77,811	-200,000	0,016	0,106
-76,797	800,000	-0,046	0,119
-75,782	70,070	0,034	0,025
-74,767	800,000	-0,038	0,094
-73,753	58,406	0,046	0,032
-72,738	197,126	0,006	0,006
-71,724	123,092	0,025	0,022
-70,709	-93,005	-0,116	-0,023
-69,694	424,001	-0,051	-0,078
-68,680	-200,000	0,022	0,073
-67,665	-200,000	0,024	0,107
-66,651	-0,473	-0,095	0,048
-65,636	302,142	0,082	0,108
-64,622	-68,173	-0,102	-0,028
-63,607	-10,039	-0,037	-0,017
-62,592	-200,000	0,048	0,162
-61,578	-200,000	-0,011	-0,044
-60,563	220,516	0,110	0,125
-59,549	446,914	-0,047	-0,074
-58,534	-95,758	-1,321	-0,248
-57,519	410,173	-1,537	-2,319
-56,505	-200,000	-0,443	-4,561
-55,490	46,907	0,904	0,595
-54,476	800,000	4,747	11,258
-53,461	-200,000	17,156	268,541
-52,446	800,000	714,828	2178,719
-51,432	551,673	1629,209	2786,112
-50,417	81,391	1655,006	1268,121
-49,403	24,423	1529,564	895,050
-48,388	18,463	1452,977	821,542
-47,373	18,589	1442,152	815,992
-46,359	18,289	1433,236	809,489
-45,344	16,808	1428,409	799,706
-44,330	16,744	1426,432	798,264
-43,315	16,755	1425,023	797,494
-42,300	16,800	1423,158	796,633
-41,286	16,817	1422,153	796,118
-40,271	16,782	1420,626	795,069
-39,257	16,722	1419,627	794,193
-38,242	16,808	1418,015	793,665
-37,227	16,750	1417,090	792,841
-36,213	16,777	1415,742	792,184
-35,198	16,748	1414,547	791,349
-34,184	16,777	1413,510	790,870
-33,169	16,753	1412,318	790,062
-32,154	16,753	1411,547	789,599
-31,140	16,793	1409,979	788,879
-30,125	16,808	1408,818	788,267
-29,111	16,790	1407,700	787,524
-28,096	16,742	1406,786	786,758
-27,082	16,706	1405,453	785,813
-26,067	16,714	1404,553	785,319
-25,052	16,699	1403,362	784,549
-24,038	16,640	1402,535	783,783
-23,023	16,668	1401,309	783,198
-22,009	16,649	1400,468	782,607
-20,994	16,610	1399,511	781,857
-19,979	16,637	1398,570	781,429
-18,965	16,625	1397,700	780,856
-17,950	16,605	1396,514	780,067
-16,936	16,648	1395,774	779,826
-15,921	16,638	1394,302	778,923
-14,906	16,602	1393,396	778,220
-13,892	16,600	1392,748	777,817
-12,877	16,583	1391,686	777,116
-11,863	16,572	1390,940	776,618
-10,848	16,610	1389,987	776,230
-9,833	16,568	1389,040	775,475
-8,819	16,560	1388,012	774,837
-7,804	16,493	1387,184	774,032
-6,790	16,508	1385,926	773,370
-5,775	16,513	1384,977	772,835
-4,760	16,515	1384,277	772,421
-3,746	16,453	1383,322	771,571
-2,731	16,449	1382,617	771,129
-1,717	16,447	1381,642	770,546
-0,702	16,400	1380,009	769,388
0,313	20,258	1301,706	743,496
1,327	36,708	707,701	442,388
2,342	56,347	125,869	86,604
3,356	3,335	16,620	8,552
4,371	7,107	3,114	1,642
5,386	-132,777	0,597	0,053
6,400	152,452	-0,086	-0,083
7,415	407,621	-0,184	-0,277
8,429	76,933	-0,274	-0,206
9,444	102,361	-0,283	-0,234
10,459	-96,039	-0,370	-0,069
11,473	31,070	-0,321	-0,195
12,488	-52,128	-0,246	-0,080
13,502	-60,835	-0,518	-0,154
14,517	215,387	-0,315	-0,355
15,531	100,840	-0,327	-0,270
16,546	135,266	-0,390	-0,359
17,561	146,681	-0,376	-0,358
18,575	-103,257	-0,333	-0,055
19,590	60,346	-0,305	-0,213
20,604	-36,929	-0,402	-0,152
21,619	-32,478	-0,417	-0,164
22,634	62,848	-0,554	-0,392
23,648	53,144	-0,437	-0,296
24,663	148,835	-0,399	-0,382
25,677	29,536	-0,404	-0,243
26,692	85,119	-0,258	-0,200
27,707	24,196	-0,344	-0,201
28,721	76,541	-0,318	-0,238
29,736	375,741	-0,251	-0,363
30,750	274,942	-0,354	-0,445
31,765	47,876	-0,423	-0,279
32,780	-13,115	-0,366	-0,168
33,794	278,277	-0,202	-0,255
34,809	91,249	-0,298	-0,236
35,823	20,267	-0,301	-0,171
36,838	14,104	-0,422	-0,232
37,853	109,603	-0,440	-0,372
38,867	85,467	-0,373	-0,289
39,882	63,572	-0,350	-0,248
40,896	15,613	-0,400	-0,222
41,911	52,809	-0,345	-0,233
42,926	-76,158	-0,299	-0,074
43,940	-30,337	-0,420	-0,167
44,955	77,390	-0,348	-0,261
45,969	408,559	-0,267	-0,401
46,984	66,124	-0,384	-0,275
47,999	92,965	-0,267	-0,213
49,013	-23,261	-0,312	-0,132
50,028	297,905	-0,252	-0,328
51,042	56,421	-0,379	-0,260
52,057	151,876	-0,349	-0,336
53,071	89,838	-0,346	-0,273
54,086	187,918	-0,263	-0,278
55,101	162,772	-0,243	-0,241
56,115	15,796	-0,265	-0,147
57,130	48,740	-0,395	-0,261
58,144	119,482	-0,382	-0,334
59,159	70,320	-0,384	-0,280
60,174	31,435	-0,384	-0,232
61,188	191,288	-0,290	-0,308
62,203	-27,717	-0,364	-0,148
63,217	129,068	-0,222	-0,200
64,232	10,445	-0,371	-0,199
65,247	-43,302	-0,344	-0,122
66,261	-67,571	-0,347	-0,095
67,276	60,603	-0,466	-0,325
68,290	64,569	-0,357	-0,253
69,305	20,982	-0,295	-0,168
70,320	-99,348	-0,336	-0,059
71,334	4,668	-0,344	-0,177
72,349	97,157	-0,273	-0,221
73,363	12,021	-0,401	-0,217
74,378	63,573	-0,333	-0,235
75,393	26,004	-0,425	-0,249
76,407	-44,832	-0,354	-0,124
77,422	-54,989	-0,397	-0,125
78,436	105,857	-0,263	-0,219
79,451	47,162	-0,325	-0,213
80,466	92,580	-0,393	-0,312
81,480	30,586	-0,368	-0,221
82,495	89,653	-0,291	-0,229
83,509	373,548	-0,202	-0,290
84,524	-5,367	-0,273	-0,132
85,539	6,262	-0,316	-0,164
86,553	551,333	-0,196	-0,333
87,568	45,675	-0,361	-0,234
88,582	113,441	-0,211	-0,180
89,597	43,366	-0,355	-0,228
90,611	288,256	-0,188	-0,240
91,626	-1,086	-0,305	-0,151
92,641	177,622	-0,222	-0,227
93,655	109,219	-0,276	-0,232
94,670	56,051	-0,262	-0,178
95,684	41,417	-0,326	-0,207
96,699	195,316	-0,262	-0,280
97,714	152,382	-0,221	-0,213
98,728	310,398	-0,219	-0,289
99,743	-78,974	-0,274	-0,065
100,757	13,793	-0,248	-0,135
101,772	122,737	-0,220	-0,194
102,787	106,600	-0,317	-0,264
103,801	213,617	-0,259	-0,289
104,816	49,832	-0,289	-0,191
105,830	-40,277	-0,253	-0,092
106,845	-54,354	-0,468	-0,148
107,860	42,465	-0,271	-0,173
108,874	137,429	-0,112	-0,103
109,889	17,641	-0,165	-0,092
110,903	116,631	-0,211	-0,182
111,918	101,964	-0,262	-0,214
112,933	158,219	-0,153	-0,149
113,947	5,919	-0,235	-0,122
114,962	1,718	-0,278	-0,140
115,976	-117,370	-0,290	0,036
116,991	-28,351	-0,326	-0,132
118,006	800,000	-0,146	-0,329
119,020	135,444	-0,206	-0,188
120,035	68,735	-0,269	-0,194
121,049	28,594	-0,224	-0,133
122,064	131,549	-0,271	-0,244
123,079	226,920	-0,172	-0,196
124,093	89,252	-0,245	-0,191
125,108	215,137	-0,246	-0,274
126,122	-126,174	-0,186	0,019
127,137	2,797	-0,372	-0,189
128,151	273,718	-0,167	-0,207
129,166	297,776	-0,195	-0,251
130,181	199,991	-0,172	-0,186
131,195	159,758	-0,151	-0,147
132,210	10,329	-0,301	-0,160
133,224	-9,293	-0,299	-0,140
134,239	-27,426	-0,262	-0,106
135,254	137,231	-0,203	-0,186
136,268	96,191	-0,222	-0,178
137,283	6,490	-0,167	-0,087
138,297	-68,966	-0,299	-0,080
139,312	544,065	-0,191	-0,321
140,327	16,930	-0,317	-0,175
141,341	36,597	-0,248	-0,153
142,356	68,971	-0,175	-0,125
143,370	21,238	-0,322	-0,182
144,385	-18,939	-0,228	-0,099
145,400	266,158	-0,184	-0,225
146,414	12,172	-0,319	-0,171
147,429	38,245	-0,348	-0,216
148,443	36,865	-0,207	-0,128
149,458	64,325	-0,243	-0,171
150,473	-51,132	-0,240	-0,078
151,487	126,592	-0,168	-0,149
152,502	165,722	-0,254	-0,252
153,516	123,156	-0,331	-0,290
154,531	-54,947	-0,331	-0,104
155,546	6,740	-0,252	-0,131
156,560	1,313	-0,251	-0,126
157,575	119,756	-0,246	-0,213
158,589	282,222	-0,169	-0,212
159,604	19,032	-0,274	-0,153
160,619	119,803	-0,296	-0,257
161,633	-95,698	-0,307	-0,057
162,648	-18,446	-0,291	-0,127
163,662	57,640	-0,208	-0,142
164,677	-110,058	-0,227	-0,033
165,692	-91,556	-0,277	0,055
166,706	-8,847	-0,201	-0,094
167,721	288,357	-0,151	-0,192
168,735	-77,400	-0,161	-0,039
169,750	-22,848	-0,341	-0,143
170,764	134,118	-0,243	-0,220
171,779	187,861	-0,155	-0,162
172,794	6,944	-0,253	-0,131
173,808	-20,725	-0,195	-0,083
174,823	-45,824	-0,259	-0,089
175,837	356,759	-0,099	-0,138
176,852	548,754	-0,159	-0,267
177,867	26,038	-0,112	-0,065
178,881	-87,477	-0,282	-0,059
179,896	379,202	-0,153	-0,220
180,910	564,706	-0,180	-0,305
181,925	-113,992	-0,389	-0,052
182,940	-43,663	-0,316	-0,111
183,954	29,774	-0,266	-0,158
184,969	11,361	-0,138	-0,073
185,983	46,661	-0,250	-0,161
186,998	509,679	-0,165	-0,268
188,013	58,523	-0,302	-0,207
189,027	185,027	-0,178	-0,185
190,042	276,520	-0,212	-0,264
191,056	93,723	-0,276	-0,218
192,071	171,161	-0,169	-0,169
193,086	-18,402	-0,135	-0,059
194,100	-82,234	-0,183	-0,041
195,115	-7,592	-0,168	-0,079
196,129	226,290	-0,193	-0,218
197,144	-93,068	-0,286	-0,055
198,159	36,032	-0,178	-0,109
199,173	314,413	-0,097	-0,128
200,188	-22,042	-0,244	-0,103
201,202	5,802	-0,152	-0,078
202,217	239,475	-0,185	-0,215
203,232	136,377	-0,262	-0,239
204,246	-100,943	-0,240	-0,041
205,261	56,465	-0,206	-0,139
206,275	163,184	-0,184	-0,180
207,290	800,000	-0,044	-0,109
208,304	800,000	-0,111	-0,247
209,319	188,739	-0,145	-0,151
210,334	79,259	-0,203	-0,151
211,348	-200,000	-0,066	-0,239
212,363	122,109	-0,213	-0,185
213,377	-200,000	0,018	-0,236
214,392	52,590	-0,162	-0,108
215,407	800,000	-0,058	-0,154
216,421	228,965	-0,185	-0,210
217,436	-42,212	-0,337	-0,119
218,450	300,645	-0,212	-0,273
219,465	90,054	-0,255	-0,198
220,480	800,000	-0,125	-0,251
221,494	78,821	-0,067	-0,050
222,509	-91,294	-0,231	-0,046
223,523	-94,838	-0,118	0,022
224,538	69,467	-0,190	-0,136
225,553	46,118	-0,189	-0,122
226,567	95,160	-0,201	-0,159
227,582	115,597	-0,214	-0,182
228,596	99,540	-0,240	-0,193
229,611	73,453	-0,242	-0,176
230,626	44,875	-0,206	-0,131
231,640	59,091	-0,232	-0,159
232,655	348,855	-0,269	-0,370
233,669	95,906	-0,229	-0,182
234,684	92,678	-0,236	-0,185
235,699	10,218	-0,084	0,044
236,713	144,285	-0,212	-0,196
237,728	119,990	-0,194	-0,167
238,742	76,163	-0,171	-0,126
239,757	-17,885	-0,234	-0,101
240,772	344,237	-0,178	-0,243
241,786	294,412	-0,134	-0,170
242,801	-196,879	-0,170	0,001
243,815	-103,023	-0,146	-0,024
244,830	-181,013	-0,167	-0,002
245,844	56,022	-0,246	-0,165
246,859	66,260	-0,279	-0,197
247,874	461,128	-0,105	-0,163
248,888	-104,316	-0,258	-0,041
249,903	61,281	-0,260	-0,179
250,917	-142,233	-0,169	0,011
251,932	314,533	-0,202	-0,265
252,947	343,403	-0,063	-0,086
253,961	4,168	-0,165	-0,083
254,976	81,300	-0,115	-0,086
255,990	117,784	-0,160	-0,136
257,005	264,855	-0,319	-0,386
258,020	14,445	-0,117	-0,063
259,034	59,736	-0,183	-0,125
260,049	-1,125	-0,176	-0,086
261,063	32,736	-0,173	-0,103
262,078	95,063	-0,149	-0,118
263,093	800,000	-0,054	-0,119
264,107	170,350	-0,203	-0,202
265,122	213,476	-0,124	-0,136
266,136	152,686	-0,245	-0,232
267,151	252,283	-0,155	-0,183
268,166	62,138	-0,247	-0,170
269,180	694,939	-0,104	-0,191
270,195	800,000	-0,091	-0,232
271,209	800,000	-0,188	-0,385
272,224	376,560	-0,079	-0,112
273,239	-38,431	-0,190	-0,069
274,253	484,137	-0,052	-0,082
275,268	176,783	-0,191	-0,192
276,282	71,542	-0,184	-0,132
277,297	194,202	-0,189	-0,198
278,312	267,455	-0,207	-0,251
279,326	409,223	-0,135	-0,199
280,341	800,000	-0,077	-0,171
281,355	800,000	-0,081	-0,206
282,370	1,369	-0,312	-0,155
283,384	550,353	-0,157	-0,262
284,399	-95,572	-0,165	-0,030
285,414	800,000	-0,108	-0,210
286,428	429,383	-0,142	-0,212
287,443	-141,709	-0,162	0,011
288,457	40,360	-0,224	-0,139
289,472	15,532	-0,151	-0,082
290,487	193,445	-0,194	-0,203
291,501	1,316	-0,185	-0,092
292,516	-200,000	0,007	-0,137
293,530	409,353	-0,118	-0,174
294,545	800,000	-0,094	-0,201
295,560	60,915	-0,218	-0,149
296,574	305,831	-0,122	-0,157
297,589	54,602	-0,192	-0,128
298,603	92,976	-0,211	-0,165
299,618	800,000	-0,057	-0,141
300,633	274,212	-0,094	-0,115
301,647	-200,000	0,002	-0,073
302,662	-21,363	-0,183	-0,077
303,676	-8,013	-0,277	-0,129
304,691	73,172	-0,111	-0,080
305,706	-11,696	-0,258	-0,117
306,720	-27,443	-0,179	-0,072
307,735	-105,620	-0,258	-0,040
308,749	37,916	-0,173	-0,106
309,764	-163,730	-0,048	-0,002
310,779	-1,264	-0,208	0,101
311,793	467,292	-0,082	0,128
312,808	-64,659	-0,113	-0,031
313,822	-122,892	-0,240	-0,026
314,837	278,770	-0,114	-0,140
315,852	568,531	-0,148	-0,249
316,866	109,727	-0,062	-0,052
317,881	6,739	-0,161	-0,082
318,895	-100,319	-0,182	-0,031
319,910	579,914	-0,088	-0,150
320,925	564,017	-0,114	-0,191
321,939	-105,680	-0,119	-0,018
322,954	396,069	-0,057	-0,083
323,968	-78,376	-0,122	0,029
324,983	45,439	-0,119	-0,076
325,997	328,702	-0,159	-0,212
327,012	317,275	-0,112	-0,147
328,027	-200,000	-0,060	-0,246
329,041	800,000	-0,066	-0,189
330,056	33,426	-0,142	-0,085
331,070	-105,159	-0,263	-0,041
332,085	-107,073	-0,205	-0,031
333,100	-99,025	-0,071	-0,012
334,114	29,827	-0,214	-0,125
335,129	22,809	-0,169	-0,095
336,143	-136,654	-0,226	-0,018
337,158	-4,670	-0,152	-0,072
338,173	59,241	-0,113	-0,076
339,187	-74,533	-0,141	-0,035
340,202	-153,359	-0,060	-0,003
341,216	435,079	-0,188	-0,282
342,231	263,550	-0,143	-0,172
343,246	800,000	-0,117	-0,237
344,260	79,407	-0,163	-0,120
345,275	-53,352	-0,109	-0,034
346,289	-16,619	-0,096	-0,042
347,304	61,678	-0,167	-0,114
348,319	-200,000	-0,009	-0,158
349,333	41,861	-0,172	-0,107
350,348	-4,188	-0,161	-0,076
351,362	-128,604	-0,208	0,020
352,377	36,420	-0,160	-0,097
353,392	-100,441	-0,268	0,045
354,406	-142,931	-0,174	0,011
355,421	210,424	1314,459	1420,746
356,435	161,988	1475,204	1421,280
