DTS Sentinel unit serial number:	SN410029Multiplexer serial number:	ORYXHardware model number:	OX2-SRSoftware version number:	ORYX F/W v4,00 Oryx Data Collector v3.7.2.0data status	okinstallation	B3 Nyhavnadifferential loss correction	single-endedforward channel	channel 1reverse channel	N/Adate	2023/12/01time	05:17:30forward acquisition time	300,00reverse acquisition time	0,00gamma	499,1914k internal	0,3212k external	0,3212temperature offset calibration	1,0000default loss term (dB/km)	0,3820temperature slope calibration	1,0000multiplexer offset coefficient	1,0000multiplexer slope coefficient	1,0000fibre end	0,00T internal ref (°C)	7,88T ext. ref 1 (°C)	-7,24T ext. ref 2 (°C)	-7,36length (m)	temperature (°C)	Stokes	anti-Stokes-744,400	163,824	-0,068	-0,070
-743,385	534,828	-0,118	0,204
-742,371	49,289	-0,260	-0,177
-741,356	-200,000	-0,038	0,291
-740,342	-200,000	-0,022	-0,282
-739,327	-200,000	-0,056	0,299
-738,312	37,852	-0,173	-0,111
-737,298	679,447	-0,086	0,163
-736,283	800,000	-0,063	-0,198
-735,269	-200,000	0,005	0,237
-734,254	318,732	-0,171	-0,235
-733,239	-179,455	-0,283	-0,004
-732,225	465,012	-0,173	-0,281
-731,210	-122,248	0,138	-0,016
-730,196	800,000	-0,056	-0,132
-729,181	132,764	0,041	0,039
-728,167	-66,058	0,191	0,055
-727,152	-2,263	-0,114	-0,058
-726,137	84,515	-0,036	-0,028
-725,123	-200,000	-0,040	-0,154
-724,108	376,774	-0,087	-0,129
-723,094	42,010	-0,056	0,037
-722,079	6,406	-0,072	0,039
-721,064	302,037	-0,036	-0,049
-720,050	13,559	0,024	0,014
-719,035	-3,067	-0,086	-0,043
-718,021	201,595	0,006	-0,006
-717,006	-37,162	-0,097	-0,037
-715,991	380,619	-0,045	0,067
-714,977	-200,000	-0,000	-0,020
-713,962	800,000	-0,022	-0,066
-712,948	-38,222	-0,072	-0,028
-711,933	-200,000	0,024	-0,099
-710,918	-200,000	0,027	-0,103
-709,904	-200,000	-0,011	0,058
-708,889	-200,000	-0,032	-0,110
-707,875	343,923	-0,145	-0,206
-706,860	-200,000	-0,015	-0,076
-705,845	21,124	-0,059	0,035
-704,831	205,052	-0,078	0,088
-703,816	41,774	0,018	-0,012
-702,802	-127,463	-0,082	0,009
-701,787	-39,179	-0,087	-0,033
-700,772	285,340	-0,060	-0,078
-699,758	742,562	0,048	-0,094
-698,743	294,379	-0,028	-0,036
-697,729	15,736	-0,099	0,056
-696,714	295,477	0,125	-0,166
-695,699	-70,633	-0,145	-0,039
-694,685	-59,542	0,085	-0,026
-693,670	-143,851	-0,077	-0,005
-692,656	26,236	-0,191	0,115
-691,641	-200,000	-0,005	0,068
-690,627	374,590	0,089	0,132
-689,612	-200,000	-0,002	0,042
-688,597	-99,202	-0,105	-0,019
-687,583	-200,000	-0,006	-0,021
-686,568	203,149	0,021	0,023
-685,554	487,572	-0,039	-0,065
-684,539	228,382	0,075	-0,089
-683,524	134,559	0,051	0,048
-682,510	-52,350	-0,122	-0,041
-681,495	-21,227	0,098	-0,043
-680,481	-146,424	-0,067	-0,004
-679,466	682,061	-0,060	0,114
-678,451	-27,165	-0,115	0,048
-677,437	265,650	-0,031	0,040
-676,422	-101,500	0,127	-0,022
-675,408	408,674	0,070	-0,107
-674,393	-200,000	-0,000	-0,064
-673,378	74,980	-0,090	-0,068
-672,364	800,000	-0,049	-0,140
-671,349	-48,833	-0,049	0,017
-670,335	-43,285	-0,044	0,016
-669,320	298,029	0,024	0,032
-668,305	190,137	-0,068	0,074
-667,291	800,000	0,017	-0,052
-666,276	800,000	0,058	-0,128
-665,262	368,381	-0,048	-0,070
-664,247	468,584	-0,075	-0,122
-663,232	13,498	-0,100	-0,056
-662,218	178,467	0,045	-0,048
-661,203	-200,000	-0,009	-0,031
-660,189	800,000	0,039	-0,083
-659,174	-200,000	0,007	-0,052
-658,159	-155,429	-0,135	0,006
-657,145	289,494	-0,078	-0,103
-656,130	-200,000	0,004	0,051
-655,116	29,885	0,096	-0,059
-654,101	-200,000	-0,021	0,087
-653,086	800,000	-0,077	-0,160
-652,072	263,127	-0,042	-0,053
-651,057	-200,000	-0,034	-0,192
-650,043	800,000	0,031	-0,072
-649,028	-200,000	-0,014	0,130
-648,014	-200,000	-0,005	0,049
-646,999	43,511	0,071	0,047
-645,984	-123,519	0,068	-0,008
-644,970	-41,543	-0,083	-0,031
-643,955	800,000	-0,060	-0,159
-642,941	-200,000	-0,020	-0,076
-641,926	-19,901	-0,108	0,048
-640,911	-200,000	0,026	0,160
-639,897	-200,000	-0,012	0,053
-638,882	-145,659	-0,091	-0,006
-637,868	-200,000	0,006	0,153
-636,853	-37,698	-0,096	0,037
-635,838	-52,744	-0,113	-0,037
-634,824	800,000	0,052	0,109
-633,809	89,988	0,102	0,082
-632,795	-200,000	0,005	-0,061
-631,780	-55,597	0,119	0,038
-630,765	-200,000	0,019	-0,096
-629,751	42,012	-0,136	-0,089
-628,736	233,290	-0,033	0,039
-627,722	-169,166	0,094	-0,002
-626,707	1,398	-0,105	-0,054
-625,692	463,777	-0,029	0,048
-624,678	800,000	-0,042	0,110
-623,663	-200,000	-0,015	-0,121
-622,649	800,000	0,060	-0,159
-621,634	-200,000	0,013	0,114
-620,619	-59,117	-0,164	-0,051
-619,605	-183,308	0,120	-0,001
-618,590	20,982	-0,074	-0,043
-617,576	-200,000	0,002	0,060
-616,561	6,415	-0,081	0,043
-615,546	78,576	-0,074	-0,057
-614,532	64,509	-0,100	-0,073
-613,517	-106,259	-0,090	-0,014
-612,503	800,000	0,053	-0,136
-611,488	-200,000	0,017	-0,121
-610,474	-115,897	-0,045	0,006
-609,459	-26,167	0,177	-0,074
-608,444	-53,323	-0,057	0,019
-607,430	20,470	-0,120	-0,070
-606,415	47,772	0,042	-0,028
-605,401	150,872	-0,075	0,074
-604,386	800,000	0,024	0,065
-603,371	163,409	-0,080	0,081
-602,357	-108,671	0,087	-0,013
-601,342	800,000	-0,060	-0,174
-600,328	-20,205	0,080	-0,035
-599,313	-200,000	-0,004	-0,049
-598,298	479,118	0,028	0,046
-597,284	368,592	-0,061	0,090
-596,269	352,803	0,046	0,066
-595,255	-200,000	-0,043	0,143
-594,240	18,898	-0,046	-0,027
-593,225	-200,000	0,005	0,047
-592,211	-200,000	0,002	-0,043
-591,196	51,915	-0,052	-0,036
-590,182	220,480	0,067	0,078
-589,167	29,773	0,078	0,048
-588,152	-136,849	-0,080	-0,007
-587,138	-3,258	0,076	0,038
-586,123	-143,843	-0,169	-0,011
-585,109	-200,000	-0,029	-0,190
-584,094	197,441	-0,038	0,042
-583,079	-144,000	-0,060	0,004
-582,065	87,534	-0,068	-0,054
-581,050	-200,000	0,012	-0,101
-580,036	31,153	-0,133	-0,082
-579,021	-81,323	-0,044	0,010
-578,006	800,000	0,013	0,038
-576,992	-200,000	-0,006	0,165
-575,977	99,627	0,086	0,071
-574,963	68,181	0,040	-0,029
-573,948	89,607	-0,059	-0,047
-572,934	-200,000	0,012	-0,070
-571,919	-200,000	0,021	-0,075
-570,904	406,768	-0,049	-0,075
-569,890	292,003	0,026	-0,034
-568,875	225,993	0,055	0,064
-567,861	-200,000	0,005	-0,021
-566,846	71,990	0,051	0,038
-565,831	800,000	0,027	0,058
-564,817	-38,977	0,033	0,012
-563,802	-163,759	0,064	-0,002
-562,788	-136,761	-0,105	-0,009
-561,773	798,287	-0,028	0,056
-560,758	-46,051	0,117	-0,041
-559,744	214,330	-0,053	0,061
-558,729	104,547	-0,019	0,016
-557,715	-200,000	0,019	0,127
-556,700	-200,000	0,019	0,063
-555,685	-200,000	-0,030	-0,110
-554,671	158,209	-0,033	0,033
-553,656	-200,000	-0,010	0,081
-552,642	-200,000	-0,024	0,079
-551,627	189,667	0,049	-0,053
-550,612	-51,776	-0,094	-0,031
-549,598	93,864	-0,056	-0,046
-548,583	374,364	-0,033	-0,048
-547,569	29,109	-0,129	-0,078
-546,554	96,503	0,124	0,102
-545,539	394,072	-0,022	-0,033
-544,525	-200,000	0,032	0,244
-543,510	542,168	-0,084	-0,144
-542,496	20,914	0,076	-0,044
-541,481	16,492	-0,059	-0,034
-540,466	-200,000	-0,037	0,150
-539,452	-132,873	-0,022	0,002
-538,437	-99,231	0,140	-0,025
-537,423	800,000	0,060	0,186
-536,408	-63,327	-0,136	-0,040
-535,393	2,475	0,051	-0,027
-534,379	-200,000	0,023	-0,107
-533,364	668,192	-0,052	-0,098
-532,350	-200,000	0,005	0,024
-531,335	-200,000	0,009	0,064
-530,321	-200,000	-0,003	-0,036
-529,306	481,831	0,095	-0,156
-528,291	800,000	0,008	0,018
-527,277	-200,000	-0,005	-0,044
-526,262	800,000	0,082	-0,215
-525,248	345,766	0,102	0,144
-524,233	800,000	0,017	0,048
-523,218	142,486	0,054	-0,052
-522,204	-200,000	-0,005	-0,066
-521,189	64,357	-0,060	0,043
-520,175	191,080	0,031	-0,033
-519,160	385,185	-0,088	0,130
-518,145	-129,176	-0,154	0,015
-517,131	15,822	-0,077	0,044
-516,116	800,000	0,036	-0,082
-515,102	-60,367	0,034	0,010
-514,087	-200,000	0,020	-0,125
-513,072	-200,000	-0,018	-0,095
-512,058	-134,138	-0,055	0,005
-511,043	-125,035	0,119	0,013
-510,029	377,074	0,055	0,081
-509,014	567,154	0,056	-0,098
-507,999	-200,000	-0,038	0,149
-506,985	310,187	0,064	0,086
-505,970	-197,041	-0,128	0,001
-504,956	507,865	-0,073	-0,122
-503,941	312,630	-0,042	0,057
-502,926	68,042	0,043	-0,032
-501,912	-200,000	-0,005	0,084
-500,897	-38,987	0,122	-0,046
-499,883	-5,393	0,055	-0,027
-498,868	281,127	-0,133	-0,172
-497,853	-20,330	-0,078	-0,034
-496,839	72,456	0,165	-0,123
-495,824	-200,000	-0,015	0,137
-494,810	-200,000	-0,003	0,046
-493,795	102,735	0,075	0,063
-492,781	38,221	-0,078	-0,050
-491,766	-200,000	-0,030	0,096
-490,751	800,000	-0,047	-0,116
-489,737	189,131	0,132	0,142
-488,722	800,000	-0,030	-0,064
-487,708	-78,289	0,029	0,007
-486,693	415,923	0,055	0,085
-485,678	65,248	0,090	0,065
-484,664	-200,000	0,011	-0,079
-483,649	-200,000	0,012	-0,088
-482,635	-100,075	0,069	-0,012
-481,620	444,160	0,019	0,030
-480,605	168,477	-0,075	0,077
-479,591	388,604	0,041	0,062
-478,576	-28,184	0,089	-0,037
-477,562	-34,842	-0,058	-0,022
-476,547	-200,000	-0,020	-0,074
-475,532	28,784	-0,096	-0,058
-474,518	22,692	0,075	-0,044
-473,503	-200,000	0,032	0,125
-472,489	-200,000	0,025	0,258
-471,474	-26,467	0,018	0,007
-470,459	800,000	-0,050	0,123
-469,445	528,152	0,031	-0,053
-468,430	782,392	0,086	0,170
-467,416	-160,466	0,068	-0,003
-466,401	81,647	-0,058	-0,045
-465,386	239,389	0,039	0,047
-464,372	-30,534	-0,052	-0,021
-463,357	220,285	-0,040	-0,046
-462,343	265,981	-0,071	0,088
-461,328	-200,000	-0,010	-0,110
-460,313	800,000	-0,043	0,103
-459,299	-61,497	0,024	-0,007
-458,284	-200,000	0,019	0,107
-457,270	800,000	-0,037	0,090
-456,255	1,409	-0,108	0,055
-455,241	-17,932	0,060	-0,027
-454,226	2,357	-0,154	-0,080
-453,211	800,000	0,063	0,137
-452,197	318,513	-0,082	0,111
-451,182	-200,000	0,020	-0,122
-450,168	-200,000	-0,009	-0,074
-449,153	800,000	-0,019	0,053
-448,138	123,564	0,008	-0,008
-447,124	-200,000	-0,007	0,075
-446,109	17,975	-0,104	-0,059
-445,095	-200,000	0,005	-0,019
-444,080	4,017	-0,044	0,023
-443,065	210,338	0,071	-0,080
-442,051	-200,000	0,012	0,044
-441,036	115,781	-0,049	-0,043
-440,022	100,688	0,159	0,132
-439,007	800,000	0,025	-0,071
-437,992	-31,954	0,039	0,016
-436,978	550,750	0,020	-0,035
-435,963	15,598	0,055	-0,031
-434,949	-62,095	-0,043	0,013
-433,934	-76,383	0,081	-0,020
-432,919	3,817	0,097	0,051
-431,905	-120,115	0,073	0,009
-430,890	-120,569	0,074	0,009
-429,876	4,715	0,013	0,007
-428,861	35,686	-0,071	0,045
-427,846	800,000	0,038	-0,117
-426,832	-144,404	0,087	-0,006
-425,817	-200,000	0,000	0,004
-424,803	103,886	-0,109	-0,091
-423,788	36,577	0,099	-0,062
-422,773	98,571	0,071	-0,059
-421,759	8,872	-0,034	-0,018
-420,744	-200,000	-0,011	0,156
-419,730	-168,034	0,097	-0,003
-418,715	800,000	-0,010	-0,029
-417,701	101,555	0,050	0,042
-416,686	800,000	-0,033	0,066
-415,671	-146,186	0,102	-0,006
-414,657	126,319	0,042	0,038
-413,642	90,266	0,071	0,057
-412,628	168,473	0,078	-0,080
-411,613	-21,584	-0,103	-0,045
-410,598	280,526	-0,043	-0,055
-409,584	150,948	0,048	-0,047
-408,569	-200,000	0,031	0,098
-407,555	246,724	-0,016	0,020
-406,540	-110,668	0,027	0,004
-405,525	-200,000	-0,008	0,051
-404,511	395,154	-0,027	-0,040
-403,496	-200,000	-0,027	-0,110
-402,482	15,167	0,025	-0,014
-401,467	203,483	-0,026	-0,029
-400,452	88,069	-0,085	-0,067
-399,438	143,374	0,105	0,100
-398,423	-62,560	0,086	-0,025
-397,409	175,606	-0,063	-0,066
-396,394	63,998	0,071	-0,051
-395,379	162,245	-0,046	-0,046
-394,365	-200,000	0,005	0,090
-393,350	-52,006	0,029	-0,009
-392,336	384,098	-0,032	0,047
-391,321	36,673	0,013	-0,008
-390,306	182,984	-0,130	-0,137
-389,292	-20,800	0,131	0,057
-388,277	460,293	0,099	-0,159
-387,263	-117,695	-0,074	-0,009
-386,248	-200,000	0,001	0,016
-385,233	-171,220	0,070	0,002
-384,219	398,349	-0,058	0,087
-383,204	-200,000	0,011	-0,055
-382,190	183,129	0,014	-0,015
-381,175	-143,560	-0,154	-0,010
-380,160	-122,691	-0,036	-0,004
-379,146	-200,000	-0,010	-0,070
-378,131	182,844	0,091	0,097
-377,117	293,101	0,044	0,058
-376,102	-200,000	-0,039	-0,156
-375,088	-200,000	-0,007	0,066
-374,073	-63,260	0,124	0,036
-373,058	800,000	-0,013	0,027
-372,044	800,000	0,022	0,067
-371,029	-200,000	0,004	0,053
-370,015	-34,452	-0,048	-0,019
-369,000	226,655	-0,090	-0,104
-367,985	-200,000	-0,031	-0,108
-366,971	-86,396	0,123	0,027
-365,956	-177,772	0,111	0,002
-364,942	395,573	0,089	0,133
-363,927	-200,000	-0,009	0,076
-362,912	586,114	0,037	0,065
-361,898	-200,000	-0,002	-0,183
-360,883	800,000	0,027	-0,066
-359,869	-48,913	-0,089	0,030
-358,854	-60,880	0,038	0,011
-357,839	-17,547	0,045	0,020
-356,825	-39,938	-0,040	0,015
-355,810	-200,000	0,024	0,106
-354,796	577,323	0,034	-0,060
-353,781	-0,448	-0,037	-0,019
-352,766	190,959	-0,116	-0,124
-351,752	-200,000	0,006	0,059
-350,737	698,181	0,046	0,086
-349,723	466,615	-0,020	0,033
-348,708	800,000	-0,042	-0,097
-347,693	-139,748	0,083	0,006
-346,679	136,807	-0,111	-0,104
-345,664	-16,837	-0,100	0,045
-344,650	-200,000	-0,028	-0,110
-343,635	677,899	-0,037	-0,069
-342,620	397,137	0,065	0,098
-341,606	-200,000	0,017	0,127
-340,591	82,507	-0,106	-0,082
-339,577	-200,000	0,050	-0,211
-338,562	97,863	0,140	-0,115
-337,548	-200,000	-0,022	0,139
-336,533	277,512	0,067	0,085
-335,518	110,504	0,098	0,084
-334,504	12,165	-0,069	-0,038
-333,489	289,481	-0,023	0,030
-332,475	-39,413	-0,023	0,008
-331,460	295,600	0,019	0,025
-330,445	-200,000	-0,006	0,031
-329,431	298,131	0,045	0,059
-328,416	90,594	-0,061	0,048
-327,402	7,321	-0,162	0,086
-326,387	207,547	0,059	0,066
-325,372	85,959	0,053	-0,042
-324,358	-200,000	0,016	-0,056
-323,343	22,387	0,073	-0,043
-322,329	-68,166	0,071	-0,020
-321,314	-67,772	-0,129	0,036
-320,299	-80,357	0,089	0,021
-319,285	-8,227	-0,077	0,037
-318,270	-200,000	-0,006	-0,128
-317,256	-77,852	0,049	-0,012
-316,241	-200,000	0,024	0,122
-315,226	83,617	0,083	-0,065
-314,212	-133,506	0,073	0,006
-313,197	-83,749	0,121	0,027
-312,183	800,000	-0,035	0,107
-311,168	144,207	-0,079	0,075
-310,153	385,290	0,021	0,031
-309,139	-24,391	-0,105	-0,044
-308,124	7,934	0,031	-0,017
-307,110	134,444	-0,045	0,041
-306,095	800,000	-0,043	0,125
-305,080	-200,000	0,000	-0,053
-304,066	-200,000	-0,021	-0,094
-303,051	229,763	0,113	-0,132
-302,037	113,774	-0,139	-0,120
-301,022	254,405	-0,103	0,126
-300,008	-200,000	0,004	0,059
-298,993	309,386	0,074	0,098
-297,978	-116,606	0,032	-0,004
-296,964	258,422	-0,033	-0,040
-295,949	12,327	-0,119	0,065
-294,935	-81,616	0,021	0,005
-293,920	22,398	0,111	-0,064
-292,905	-163,099	0,066	-0,002
-291,891	-35,639	0,075	0,029
-290,876	586,648	0,040	0,071
-289,862	143,762	0,044	-0,042
-288,847	-200,000	0,011	-0,191
-287,832	469,605	-0,054	-0,087
-286,818	199,569	0,051	0,056
-285,803	386,316	0,019	0,028
-284,789	-200,000	0,001	0,056
-283,774	88,636	-0,015	-0,012
-282,759	246,028	-0,055	-0,066
-281,745	-154,398	0,079	0,004
-280,730	-54,480	-0,036	-0,011
-279,716	800,000	0,028	-0,057
-278,701	-200,000	0,014	0,066
-277,686	-86,950	0,067	-0,014
-276,672	800,000	0,044	-0,102
-275,657	94,173	-0,062	0,050
-274,643	-200,000	0,009	-0,150
-273,628	-160,062	-0,127	-0,005
-272,613	195,433	0,016	0,017
-271,599	-39,887	0,145	-0,053
-270,584	-183,993	-0,229	-0,003
-269,570	291,580	-0,056	-0,073
-268,555	800,000	-0,011	0,026
-267,540	351,838	0,009	0,013
-266,526	-200,000	-0,041	-0,204
-265,511	-200,000	-0,021	-0,086
-264,497	72,195	0,126	-0,094
-263,482	192,232	0,072	0,078
-262,467	800,000	-0,021	0,053
-261,453	-200,000	-0,004	-0,073
-260,438	-200,000	0,004	-0,122
-259,424	4,535	-0,200	-0,104
-258,409	25,714	-0,080	-0,047
-257,395	16,635	-0,080	0,045
-256,380	-200,000	-0,040	0,194
-255,365	-200,000	0,039	0,215
-254,351	-200,000	0,001	0,042
-253,336	-200,000	0,021	-0,100
-252,322	-76,895	-0,053	0,013
-251,307	-200,000	-0,005	0,040
-250,292	-137,725	0,188	-0,015
-249,278	105,979	0,035	-0,030
-248,263	395,608	-0,053	-0,078
-247,249	800,000	0,061	0,127
-246,234	656,577	-0,028	-0,051
-245,219	-55,298	-0,131	-0,042
-244,205	6,335	-0,087	-0,046
-243,190	-163,829	0,049	-0,002
-242,176	-84,417	0,120	-0,027
-241,161	122,512	0,147	0,131
-240,146	-200,000	-0,004	-0,084
-239,132	-111,185	-0,022	-0,003
-238,117	-103,406	-0,124	-0,021
-237,103	262,217	0,088	-0,109
-236,088	77,624	-0,055	0,041
-235,073	-21,997	-0,069	-0,029
-234,059	34,437	0,064	-0,039
-233,044	358,518	-0,106	0,151
-232,030	-200,000	-0,009	0,083
-231,015	-200,000	-0,015	-0,158
-230,000	34,950	-0,167	0,103
-228,986	-131,639	0,154	-0,014
-227,971	800,000	-0,068	-0,146
-226,957	92,748	0,097	0,078
-225,942	222,941	0,057	-0,066
-224,927	11,934	0,118	-0,064
-223,913	-200,000	0,057	0,183
-222,898	-55,106	-0,155	0,049
-221,884	86,989	-0,053	0,042
-220,869	195,770	-0,044	0,047
-219,855	-107,967	0,067	-0,010
-218,840	-200,000	0,001	0,080
-217,825	240,572	0,068	-0,080
-216,811	-200,000	-0,020	-0,109
-215,796	-65,590	-0,037	-0,010
-214,782	103,687	0,024	0,020
-213,767	46,232	-0,031	0,020
-212,752	-124,512	0,100	-0,011
-211,738	298,428	0,029	0,038
-210,723	800,000	0,021	0,051
-209,709	-200,000	-0,034	-0,141
-208,694	-200,000	-0,045	-0,180
-207,679	-108,774	-0,028	0,004
-206,665	-200,000	0,007	-0,023
-205,650	86,321	0,064	-0,050
-204,636	216,925	0,080	0,090
-203,621	-67,559	0,133	-0,037
-202,606	-165,707	-0,134	0,004
-201,592	800,000	0,035	0,074
-200,577	-200,000	0,000	0,014
-199,563	-200,000	0,014	-0,089
-198,548	800,000	-0,020	-0,042
-197,533	-1,790	-0,055	-0,027
-196,519	116,881	0,081	0,071
-195,504	-112,491	-0,120	0,017
-194,490	249,534	-0,109	-0,131
-193,475	-200,000	0,005	0,046
-192,460	-200,000	0,004	0,105
-191,446	-200,000	-0,005	0,021
-190,431	245,280	0,023	0,028
-189,417	-200,000	-0,041	0,203
-188,402	800,000	-0,037	0,095
-187,387	-200,000	-0,054	-0,170
-186,373	194,514	0,023	-0,024
-185,358	-200,000	0,002	-0,107
-184,344	-200,000	0,004	0,178
-183,329	800,000	0,026	-0,067
-182,315	-126,181	0,135	0,014
-181,300	14,756	-0,037	-0,021
-180,285	-200,000	-0,000	-0,163
-179,271	-102,589	-0,037	0,006
-178,256	46,313	0,094	-0,062
-177,242	800,000	-0,043	0,092
-176,227	223,190	-0,104	0,119
-175,212	330,635	0,084	0,115
-174,198	341,646	0,033	-0,046
-173,183	-86,999	-0,051	-0,011
-172,169	-77,537	-0,111	0,027
-171,154	-200,000	-0,016	-0,150
-170,139	93,747	0,094	0,076
-169,125	-200,000	0,012	0,049
-168,110	393,417	0,082	0,121
-167,096	507,388	-0,053	0,087
-166,081	800,000	-0,035	0,099
-165,066	183,693	-0,076	0,080
-164,052	28,706	-0,070	0,042
-163,037	265,680	0,050	-0,062
-162,023	-200,000	0,011	0,130
-161,008	799,279	0,060	0,118
-159,993	800,000	-0,028	-0,082
-158,979	177,560	-0,114	-0,117
-157,964	107,410	-0,088	-0,074
-156,950	-28,094	0,030	-0,012
-155,935	-106,228	0,120	-0,019
-154,920	800,000	-0,023	-0,064
-153,906	138,008	0,019	0,017
-152,891	-114,850	0,148	-0,020
-151,877	626,289	-0,032	0,057
-150,862	-200,000	-0,020	-0,115
-149,847	160,484	-0,065	-0,064
-148,833	62,810	0,103	-0,073
-147,818	115,823	0,048	-0,042
-146,804	157,671	0,086	0,084
-145,789	85,339	0,097	0,075
-144,775	93,402	-0,067	-0,053
-143,760	3,122	0,054	0,028
-142,745	220,643	-0,026	-0,029
-141,731	-16,245	0,107	0,048
-140,716	-64,519	0,040	0,011
-139,702	155,386	0,014	0,014
-138,687	-200,000	-0,001	-0,048
-137,672	304,318	-0,085	-0,112
-136,658	-200,000	0,027	-0,172
-135,643	-200,000	-0,025	-0,114
-134,629	205,108	-0,078	0,086
-133,614	800,000	-0,017	-0,045
-132,599	109,142	-0,116	-0,098
-131,585	-51,352	0,088	-0,029
-130,570	-200,000	-0,013	0,041
-129,556	800,000	0,023	-0,068
-128,541	747,992	-0,016	-0,032
-127,526	-156,620	-0,110	-0,005
-126,512	-200,000	-0,006	0,079
-125,497	800,000	0,023	0,046
-124,483	17,626	0,030	0,017
-123,468	225,034	-0,031	0,035
-122,453	-165,777	0,136	-0,004
-121,439	-200,000	-0,022	0,088
-120,424	-200,000	0,007	-0,036
-119,410	18,715	-0,065	-0,037
-118,395	780,384	0,087	0,170
-117,380	-12,147	0,096	-0,044
-116,366	-200,000	-0,007	0,041
-115,351	800,000	-0,033	-0,068
-114,337	5,821	0,076	-0,039
-113,322	35,177	-0,092	-0,057
-112,307	-200,000	0,007	-0,063
-111,293	163,247	-0,042	0,042
-110,278	464,266	-0,028	0,044
-109,264	395,841	0,008	0,012
-108,249	-200,000	0,001	-0,088
-107,234	544,318	-0,088	-0,149
-106,220	-157,887	-0,040	0,002
-105,205	129,937	-0,023	-0,021
-104,191	145,101	0,061	-0,058
-103,176	77,296	-0,052	0,039
-102,162	-13,317	-0,072	0,033
-101,147	-129,118	0,085	0,008
-100,132	174,699	0,089	-0,091
-99,118	800,000	-0,102	-0,263
-98,103	-200,000	0,013	-0,062
-97,089	-4,342	-0,059	-0,029
-96,074	4,480	-0,061	0,031
-95,059	-61,963	0,047	-0,014
-94,045	8,055	-0,112	-0,059
-93,030	-121,990	-0,161	0,018
-92,016	-200,000	0,036	-0,122
-91,001	135,078	0,113	-0,104
-89,986	800,000	-0,053	0,150
-88,972	-99,396	0,021	0,004
-87,957	160,640	0,138	0,136
-86,943	-176,198	-0,127	0,002
-85,928	-179,961	-0,054	0,001
-84,913	170,849	-0,076	-0,077
-83,899	64,366	0,074	0,053
-82,884	25,816	0,096	0,056
-81,870	800,000	-0,010	0,027
-80,855	11,925	-0,042	-0,023
-79,840	-200,000	-0,005	-0,020
-78,826	-200,000	-0,012	0,055
-77,811	800,000	-0,021	0,050
-76,797	768,136	-0,015	0,029
-75,782	30,898	0,119	0,072
-74,767	-7,451	-0,104	0,050
-73,753	242,115	0,067	0,080
-72,738	-200,000	0,000	-0,014
-71,724	99,915	-0,087	-0,071
-70,709	753,123	0,064	0,123
-69,694	254,566	0,072	-0,087
-68,680	587,781	0,049	0,085
-67,665	800,000	0,018	-0,042
-66,651	-200,000	-0,025	-0,098
-65,636	-200,000	-0,014	-0,111
-64,622	500,245	0,057	-0,093
-63,607	-148,656	-0,080	-0,005
-62,592	-107,120	-0,072	-0,011
-61,578	-48,913	0,118	0,040
-60,563	-82,473	0,215	0,049
-59,549	-30,495	-0,107	0,042
-58,534	55,139	-2,154	-1,467
-57,519	574,796	-1,029	-1,779
-56,505	-200,000	-0,588	-4,666
-55,490	551,719	0,999	1,699
-54,476	800,000	5,341	11,475
-53,461	-200,000	22,628	347,736
-52,446	800,000	757,403	2287,811
-51,432	530,879	1642,230	2748,938
-50,417	67,543	1640,581	1180,346
-49,403	15,489	1518,357	838,709
-48,388	9,741	1444,793	770,482
-47,373	19,306	1437,498	812,105
-46,359	13,266	1425,977	777,083
-45,344	8,058	1421,964	750,254
-44,330	8,004	1419,960	748,912
-43,315	7,956	1418,278	747,768
-42,300	7,968	1416,313	746,759
-41,286	8,015	1415,189	746,358
-40,271	7,947	1414,138	745,453
-39,257	7,966	1412,829	744,820
-38,242	7,994	1411,709	744,333
-37,227	7,951	1410,512	743,471
-36,213	7,981	1409,417	743,004
-35,198	8,025	1408,046	742,459
-34,184	8,026	1407,198	741,989
-33,169	7,935	1406,037	740,920
-32,154	7,916	1405,271	740,398
-31,140	7,943	1403,871	739,755
-30,125	8,005	1402,540	739,318
-29,111	7,990	1401,357	738,593
-28,096	7,962	1400,128	737,786
-27,082	7,874	1399,294	736,908
-26,067	7,906	1397,962	736,326
-25,052	7,981	1396,844	736,057
-24,038	7,937	1395,916	735,335
-23,023	7,934	1395,051	734,833
-22,009	7,911	1394,106	734,199
-20,994	7,902	1393,070	733,583
-19,979	7,879	1392,254	733,017
-18,965	7,869	1390,965	732,267
-17,950	7,884	1390,136	731,868
-16,936	7,832	1389,408	731,217
-15,921	7,779	1388,355	730,386
-14,906	7,815	1387,510	730,080
-13,892	7,863	1386,391	729,684
-12,877	7,831	1385,539	729,057
-11,863	7,792	1384,959	728,544
-10,848	7,751	1384,102	727,876
-9,833	7,752	1382,970	727,258
-8,819	7,726	1382,265	726,737
-7,804	7,751	1381,227	726,278
-6,790	7,705	1380,171	725,483
-5,775	7,740	1379,081	725,043
-4,760	7,731	1378,228	724,526
-3,746	7,698	1377,556	723,990
-2,731	7,786	1376,375	723,743
-1,717	7,728	1375,595	723,040
-0,702	7,692	1373,847	721,926
0,313	11,664	1283,748	692,559
1,327	27,320	675,755	399,381
2,342	42,170	116,128	74,213
3,356	0,789	16,533	8,318
4,371	8,740	3,828	2,027
5,386	-12,824	1,461	0,668
6,400	800,000	0,262	0,643
7,415	92,216	-0,138	-0,110
8,429	43,509	-0,316	-0,203
9,444	43,558	-0,275	-0,177
10,459	184,483	-0,182	-0,191
11,473	194,957	-0,280	-0,300
12,488	61,386	-0,223	-0,156
13,502	-74,699	-0,237	-0,060
14,517	76,646	-0,290	-0,216
15,531	121,043	-0,389	-0,341
16,546	-0,408	-0,278	-0,139
17,561	9,961	-0,427	-0,228
18,575	-53,326	-0,185	-0,059
19,590	-200,000	-0,000	-0,040
20,604	-140,722	-0,333	-0,024
21,619	42,637	-0,455	-0,291
22,634	30,606	-0,482	-0,290
23,648	18,374	-0,314	-0,176
24,663	413,472	-0,246	-0,369
25,677	-0,758	-0,435	-0,216
26,692	78,036	-0,335	-0,251
27,707	74,554	-0,329	-0,243
28,721	45,062	-0,434	-0,281
29,736	119,826	-0,261	-0,227
30,750	227,490	-0,277	-0,317
31,765	119,924	-0,391	-0,341
32,780	-70,886	-0,371	-0,097
33,794	155,727	-0,265	-0,257
34,809	-22,571	-0,392	-0,166
35,823	74,354	-0,288	-0,212
36,838	29,541	-0,320	-0,191
37,853	48,195	-0,296	-0,194
38,867	35,157	-0,379	-0,233
39,882	141,133	-0,324	-0,301
40,896	109,645	-0,327	-0,275
41,911	287,198	-0,225	-0,287
42,926	-9,034	-0,361	-0,169
43,940	-21,156	-0,396	-0,169
44,955	134,654	-0,350	-0,319
45,969	13,155	-0,427	-0,232
46,984	63,256	-0,341	-0,239
47,999	112,986	-0,289	-0,246
49,013	26,399	-0,295	-0,173
50,028	213,254	-0,267	-0,297
51,042	126,667	-0,385	-0,343
52,057	128,504	-0,282	-0,252
53,071	163,549	-0,393	-0,388
54,086	-9,519	-0,336	-0,157
55,101	63,700	-0,452	-0,318
56,115	55,158	-0,250	-0,169
57,130	130,753	-0,271	-0,244
58,144	-16,936	-0,406	-0,179
59,159	82,634	-0,379	-0,288
60,174	264,949	-0,252	-0,308
61,188	179,593	-0,249	-0,256
62,203	116,867	-0,259	-0,223
63,217	-18,429	-0,383	-0,167
64,232	-74,453	-0,265	-0,066
65,247	35,287	-0,321	-0,197
66,261	107,834	-0,306	-0,256
67,276	91,835	-0,347	-0,273
68,290	105,188	-0,400	-0,331
69,305	149,451	-0,295	-0,280
70,320	24,965	-0,315	-0,183
71,334	12,414	-0,316	-0,170
72,349	187,191	-0,248	-0,259
73,363	84,077	-0,322	-0,246
74,378	-58,233	-0,453	-0,137
75,393	-52,373	-0,316	-0,102
76,407	150,665	-0,226	-0,215
77,422	-0,192	-0,326	-0,162
78,436	115,927	-0,297	-0,254
79,451	-20,843	-0,332	-0,142
80,466	188,548	-0,271	-0,284
81,480	66,217	-0,315	-0,223
82,495	-52,966	-0,283	-0,091
83,509	19,052	-0,366	-0,205
84,524	55,044	-0,200	-0,135
85,539	73,044	-0,235	-0,172
86,553	-63,518	-0,360	-0,103
87,568	-37,338	-0,242	-0,090
88,582	75,455	-0,377	-0,278
89,597	17,623	-0,422	-0,234
90,611	38,899	-0,285	-0,178
91,626	287,010	-0,230	-0,292
92,641	-30,274	-0,188	-0,074
93,655	-72,551	-0,319	-0,082
94,670	121,330	-0,205	-0,178
95,684	338,004	-0,166	-0,226
96,699	103,141	-0,170	-0,139
97,714	10,123	-0,231	-0,123
98,728	-87,347	-0,238	-0,050
99,743	-78,822	-0,235	-0,056
100,757	164,157	-0,228	-0,224
101,772	117,825	-0,356	-0,306
102,787	18,046	-0,332	-0,185
103,801	283,151	-0,140	-0,176
104,816	223,158	-0,202	-0,228
105,830	-105,274	-0,297	-0,047
106,845	224,288	-0,172	-0,194
107,860	182,282	-0,270	-0,278
108,874	79,255	-0,268	-0,200
109,889	63,545	-0,334	-0,234
110,903	229,196	-0,202	-0,230
111,918	66,778	-0,207	-0,147
112,933	23,905	-0,223	-0,128
113,947	-108,414	-0,288	-0,043
114,962	17,099	-0,141	0,078
115,976	48,573	-0,310	-0,202
116,991	-58,195	-0,284	-0,086
118,006	35,736	-0,256	-0,157
119,020	331,061	-0,240	-0,324
120,035	12,622	-0,302	-0,162
121,049	316,682	-0,150	-0,198
122,064	237,541	-0,176	-0,204
123,079	-104,023	-0,221	-0,036
124,093	-104,468	-0,322	-0,051
125,108	3,336	-0,173	-0,087
126,122	123,036	-0,297	-0,259
127,137	-3,806	-0,245	-0,118
128,151	235,876	-0,089	-0,103
129,166	78,558	-0,189	-0,141
130,181	-49,934	-0,206	-0,068
131,195	243,891	-0,262	-0,307
132,210	235,614	-0,238	-0,275
133,224	-0,354	-0,201	-0,099
134,239	-27,212	-0,242	-0,098
135,254	39,455	-0,273	-0,170
136,268	23,605	-0,155	-0,089
137,283	37,615	-0,263	-0,163
138,297	123,738	-0,286	-0,250
139,312	483,235	-0,227	-0,360
140,327	150,502	-0,299	-0,283
141,341	590,074	-0,108	-0,187
142,356	-40,604	-0,266	-0,096
143,370	-60,644	-0,225	-0,066
144,385	23,426	-0,189	-0,108
145,400	101,193	-0,189	-0,153
146,414	35,780	-0,228	-0,139
147,429	-163,972	-0,244	-0,008
148,443	136,217	-0,304	-0,276
149,458	58,902	-0,227	-0,155
150,473	-23,350	-0,245	-0,102
151,487	-44,765	-0,140	-0,048
152,502	156,910	-0,205	-0,197
153,516	19,217	-0,278	-0,155
154,531	3,791	-0,405	-0,205
155,546	-110,627	-0,170	-0,024
156,560	27,436	-0,173	-0,101
157,575	-24,592	-0,254	-0,105
158,589	122,124	-0,212	-0,184
159,604	83,657	-0,158	-0,120
160,619	293,517	-0,192	-0,245
161,633	-2,097	-0,339	-0,165
162,648	94,658	-0,260	-0,205
163,662	401,553	-0,048	-0,070
164,677	104,014	-0,139	-0,114
165,692	404,065	-0,135	-0,198
166,706	667,155	-0,194	-0,350
167,721	-24,522	-0,282	-0,116
168,735	89,479	-0,259	-0,200
169,750	113,802	-0,231	-0,195
170,764	-24,323	-0,232	-0,096
171,779	10,962	-0,265	-0,140
172,794	7,081	-0,312	-0,161
173,808	33,711	-0,159	-0,096
174,823	-65,411	-0,219	-0,061
175,837	7,296	-0,340	-0,176
176,852	255,348	-0,148	-0,176
177,867	167,164	-0,143	-0,141
178,881	51,861	-0,121	-0,080
179,896	-34,016	-0,355	-0,135
180,910	61,098	-0,155	-0,107
181,925	137,767	-0,226	-0,206
182,940	244,860	-0,199	-0,233
183,954	181,188	-0,107	-0,109
184,969	111,225	-0,079	-0,066
185,983	124,393	-0,195	-0,170
186,998	566,472	-0,101	-0,171
188,013	0,277	-0,241	-0,119
189,027	-2,048	-0,218	-0,106
190,042	266,848	-0,098	-0,119
191,056	83,559	-0,337	-0,254
192,071	-50,451	-0,184	-0,060
193,086	72,361	-0,201	-0,145
194,100	-4,157	-0,268	-0,128
195,115	556,516	-0,111	-0,185
196,129	547,398	-0,173	-0,287
197,144	233,630	-0,244	-0,279
198,159	263,685	-0,080	-0,096
199,173	-115,280	-0,297	-0,039
200,188	144,537	-0,124	-0,115
201,202	-21,387	-0,129	-0,054
202,217	-20,775	-0,390	-0,165
203,232	97,202	-0,228	-0,181
204,246	352,190	-0,165	-0,227
205,261	159,361	-0,242	-0,233
206,275	164,474	-0,294	-0,287
207,290	-62,644	-0,328	-0,094
208,304	-200,000	-0,055	-0,215
209,319	-28,717	-0,255	-0,101
210,334	76,270	-0,123	-0,090
211,348	9,246	-0,181	-0,095
212,363	44,667	-0,206	-0,131
213,377	147,611	-0,196	-0,183
214,392	110,013	-0,127	-0,106
215,407	-200,000	0,007	-0,241
216,421	346,352	-0,170	-0,232
217,436	269,264	-0,106	-0,129
218,450	97,142	-0,172	-0,136
219,465	237,373	-0,244	-0,280
220,480	142,027	-0,117	-0,107
221,494	464,253	-0,064	-0,099
222,509	-74,374	-0,226	-0,056
223,523	105,239	-0,065	-0,053
224,538	163,079	-0,123	-0,119
225,553	84,673	-0,118	-0,089
226,567	10,774	-0,226	-0,119
227,582	15,668	-0,166	-0,090
228,596	148,053	-0,088	-0,082
229,611	-18,022	-0,217	-0,094
230,626	113,131	-0,191	-0,160
231,640	-29,451	-0,287	-0,113
232,655	-7,860	-0,240	-0,112
233,669	30,379	-0,217	-0,127
234,684	74,402	-0,173	-0,125
235,699	-12,956	-0,108	-0,049
236,713	641,905	-0,042	-0,075
237,728	-35,758	-0,222	-0,083
238,742	276,499	-0,137	-0,169
239,757	210,953	-0,250	-0,272
240,772	-200,000	0,017	-0,246
241,786	134,591	-0,165	-0,148
242,801	-200,000	-0,037	-0,148
243,815	107,031	-0,163	-0,134
244,830	800,000	-0,052	-0,111
245,844	232,628	-0,243	-0,276
246,859	-114,589	-0,193	0,025
247,874	255,647	-0,184	-0,218
248,888	77,751	-0,221	-0,162
249,903	-25,018	-0,144	-0,059
250,917	-17,500	-0,187	-0,081
251,932	800,000	-0,098	-0,283
252,947	-58,020	-0,221	-0,066
253,961	728,773	-0,070	-0,130
254,976	99,640	-0,171	-0,137
255,990	131,744	-0,186	-0,165
257,005	87,528	-0,155	-0,118
258,020	381,928	-0,107	-0,153
259,034	241,384	-0,135	-0,155
260,049	-200,000	-0,064	-0,257
261,063	528,725	-0,101	-0,165
262,078	-82,433	-0,227	-0,050
263,093	187,632	-0,181	-0,187
264,107	46,423	-0,246	-0,157
265,122	230,212	-0,189	-0,213
266,136	800,000	-0,013	0,029
267,151	-60,292	-0,104	-0,030
268,166	483,414	-0,128	-0,201
269,180	-103,807	-0,241	-0,038
270,195	-186,456	-0,210	-0,002
271,209	800,000	-0,058	-0,152
272,224	54,478	-0,090	-0,060
273,239	-71,381	-0,101	-0,026
274,253	92,124	-0,220	-0,171
275,268	-58,365	-0,134	-0,040
276,282	-52,037	-0,293	-0,093
277,297	215,237	-0,078	-0,085
278,312	44,804	-0,200	-0,126
279,326	129,409	-0,184	-0,161
280,341	241,771	-0,129	-0,149
281,355	800,000	-0,093	-0,195
282,370	153,324	-0,280	-0,264
283,384	54,753	-0,317	-0,210
284,399	-39,647	-0,133	-0,048
285,414	39,646	-0,232	-0,143
286,428	-6,536	-0,206	-0,096
287,443	-200,000	-0,020	-0,081
288,457	9,692	-0,098	-0,051
289,472	-132,661	-0,076	0,007
290,487	45,529	-0,177	-0,112
291,501	115,412	-0,191	-0,160
292,516	140,005	-0,152	-0,138
293,530	72,980	-0,073	-0,053
294,545	-27,944	-0,131	-0,052
295,560	-171,256	-0,054	0,001
296,574	46,549	-0,138	-0,088
297,589	44,967	-0,179	-0,113
298,603	-120,040	-0,139	0,016
299,618	-153,387	-0,132	0,006
300,633	-200,000	-0,070	-0,213
301,647	-61,398	-0,155	-0,044
302,662	-29,940	-0,234	-0,091
303,676	-165,674	-0,109	0,003
304,691	-200,000	-0,021	-0,139
305,706	7,786	-0,187	-0,096
306,720	31,345	-0,212	-0,125
307,735	116,816	-0,080	-0,067
308,749	10,377	-0,183	-0,095
309,764	224,258	-0,032	-0,036
310,779	58,049	-0,136	-0,092
311,793	60,736	-0,088	-0,060
312,808	47,081	-0,216	-0,137
313,822	26,429	-0,141	-0,080
314,837	264,595	-0,154	-0,184
315,852	85,569	-0,055	-0,041
316,866	-153,338	-0,064	-0,003
317,881	-58,979	-0,170	0,050
318,895	401,833	-0,082	-0,119
319,910	30,181	-0,168	-0,098
320,925	-200,000	-0,085	-0,311
321,939	439,184	-0,074	-0,111
322,954	199,432	-0,113	-0,119
323,968	106,797	-0,257	-0,209
324,983	-95,577	-0,195	-0,035
325,997	187,674	-0,085	-0,088
327,012	720,649	-0,118	-0,216
328,027	-89,214	-0,259	0,052
329,041	104,696	-0,103	-0,083
330,056	149,979	-0,107	-0,100
331,070	10,728	-0,150	-0,078
332,085	-47,090	-0,136	-0,045
333,100	-21,719	-0,148	-0,061
334,114	-11,325	-0,253	-0,114
335,129	90,894	-0,207	-0,159
336,143	605,294	-0,103	-0,177
337,158	-47,447	-0,257	-0,085
338,173	800,000	-0,051	-0,113
339,187	-45,934	-0,121	-0,041
340,202	-200,000	-0,036	-0,119
341,216	-200,000	-0,054	-0,180
342,231	578,636	-0,134	-0,226
343,246	-52,182	-0,160	-0,050
344,260	800,000	-0,069	-0,192
345,275	492,344	-0,117	-0,184
346,289	-145,908	-0,124	-0,007
347,304	4,302	-0,151	-0,075
348,319	114,540	-0,194	-0,162
349,333	-4,267	-0,191	-0,090
350,348	95,484	-0,268	-0,209
351,362	417,493	-0,085	-0,125
352,377	-177,769	-0,096	0,002
353,392	-200,000	-0,000	0,133
354,406	-9,417	-0,047	0,021
355,421	205,759	1308,479	1392,117
356,435	158,216	1468,365	1392,554
