DTS Sentinel unit serial number:	SN410029Multiplexer serial number:	ORYXHardware model number:	OX2-SRSoftware version number:	ORYX F/W v4,00 Oryx Data Collector v3.7.2.0data status	okinstallation	B3 Nyhavnadifferential loss correction	single-endedforward channel	channel 1reverse channel	N/Adate	2023/11/30time	03:42:30forward acquisition time	300,00reverse acquisition time	0,00gamma	499,1914k internal	0,3211k external	0,3211temperature offset calibration	1,0000default loss term (dB/km)	0,3820temperature slope calibration	1,0000multiplexer offset coefficient	1,0000multiplexer slope coefficient	1,0000fibre end	0,00T internal ref (°C)	10,17T ext. ref 1 (°C)	-5,30T ext. ref 2 (°C)	-5,38length (m)	temperature (°C)	Stokes	anti-Stokes-744,400	255,186	-0,226	-0,281
-743,385	800,000	0,090	0,220
-742,371	365,881	-0,105	-0,154
-741,356	800,000	0,061	0,187
-740,342	800,000	-0,085	-0,195
-739,327	-200,000	0,050	0,287
-738,312	89,207	-0,163	-0,131
-737,298	-200,000	-0,066	0,275
-736,283	-200,000	-0,077	-0,311
-735,269	-200,000	-0,006	0,341
-734,254	116,731	-0,142	-0,126
-733,239	5,978	-0,295	0,158
-732,225	800,000	0,086	-0,194
-731,210	-200,000	0,007	0,138
-730,196	236,839	0,016	0,019
-729,181	205,608	-0,068	-0,076
-728,167	794,900	-0,051	0,102
-727,152	800,000	-0,025	0,071
-726,137	556,065	-0,048	0,085
-725,123	-200,000	-0,011	-0,090
-724,108	-88,827	-0,167	-0,036
-723,094	-99,750	-0,209	-0,038
-722,079	381,149	-0,094	-0,141
-721,064	479,698	-0,047	-0,077
-720,050	-200,000	0,011	-0,108
-719,035	-81,914	-0,072	-0,017
-718,021	-200,000	-0,053	-0,187
-717,006	24,183	-0,171	-0,102
-715,991	-65,585	-0,147	-0,042
-714,977	115,209	-0,018	-0,016
-713,962	245,960	0,063	-0,076
-712,948	800,000	0,023	-0,049
-711,933	-19,552	0,051	0,023
-710,918	252,375	0,091	-0,112
-709,904	-200,000	-0,055	-0,247
-708,889	800,000	-0,037	-0,106
-707,875	800,000	-0,063	-0,178
-706,860	-108,514	-0,119	0,018
-705,845	-119,114	-0,035	-0,004
-704,831	-10,086	-0,041	0,020
-703,816	-0,880	-0,224	-0,114
-702,802	353,113	-0,088	-0,127
-701,787	451,887	-0,136	-0,219
-700,772	24,077	-0,084	0,050
-699,758	-36,158	-0,144	-0,056
-698,743	-200,000	0,006	0,119
-697,729	-200,000	-0,013	0,199
-696,714	-104,831	0,105	0,017
-695,699	625,627	-0,041	-0,075
-694,685	-200,000	-0,040	-0,197
-693,670	800,000	0,020	0,042
-692,656	55,393	0,123	0,086
-691,641	-44,609	0,076	-0,027
-690,627	72,274	-0,066	-0,050
-689,612	27,335	-0,118	0,072
-688,597	184,083	-0,025	0,027
-687,583	800,000	0,049	-0,127
-686,568	-16,180	-0,046	0,021
-685,554	-62,666	-0,142	0,042
-684,539	51,890	0,138	0,095
-683,524	87,481	0,088	-0,070
-682,510	92,054	-0,049	0,040
-681,495	-200,000	-0,013	-0,088
-680,481	36,194	-0,158	-0,101
-679,466	24,250	-0,088	-0,052
-678,451	800,000	-0,079	-0,165
-677,437	-31,464	0,034	-0,014
-676,422	-200,000	0,004	0,063
-675,408	-134,541	-0,176	-0,015
-674,393	-114,974	-0,087	-0,012
-673,378	-200,000	0,031	-0,114
-672,364	800,000	-0,036	-0,094
-671,349	390,111	0,071	-0,107
-670,335	78,453	0,021	0,017
-669,320	-200,000	0,005	0,039
-668,305	-40,362	-0,033	0,012
-667,291	-200,000	0,003	-0,034
-666,276	21,775	-0,144	0,085
-665,262	210,737	0,015	-0,017
-664,247	14,630	-0,141	-0,079
-663,232	493,024	0,047	-0,078
-662,218	-52,336	-0,022	-0,007
-661,203	-74,255	0,028	0,007
-660,189	800,000	0,076	0,167
-659,174	800,000	-0,058	-0,129
-658,159	364,108	-0,138	-0,202
-657,145	178,992	-0,025	-0,027
-656,130	800,000	-0,054	-0,127
-655,116	262,079	0,060	-0,075
-654,101	1,628	0,080	-0,042
-653,086	800,000	-0,039	0,079
-652,072	271,007	0,048	-0,061
-651,057	-200,000	0,021	0,094
-650,043	-6,826	0,058	-0,028
-649,028	516,216	-0,138	-0,235
-648,014	194,707	0,110	-0,120
-646,999	800,000	-0,049	0,109
-645,984	199,453	0,027	0,030
-644,970	-200,000	0,007	0,029
-643,955	-66,644	-0,124	-0,035
-642,941	598,256	-0,092	-0,165
-641,926	-200,000	0,020	-0,088
-640,911	148,697	-0,027	0,027
-639,897	800,000	-0,025	-0,068
-638,882	800,000	0,069	0,169
-637,868	-200,000	0,005	-0,045
-636,853	-41,513	-0,062	-0,023
-635,838	-32,339	0,102	0,041
-634,824	33,917	0,076	-0,048
-633,809	426,694	0,040	-0,063
-632,795	-68,799	-0,137	-0,038
-631,780	35,705	0,040	-0,025
-630,765	-130,707	0,057	-0,005
-629,751	-200,000	0,002	0,045
-628,736	733,714	-0,006	-0,011
-627,722	-83,891	0,096	-0,022
-626,707	800,000	0,044	0,120
-625,692	-65,467	-0,085	-0,025
-624,678	-200,000	-0,000	-0,032
-623,663	22,956	0,134	0,079
-622,649	-45,577	-0,156	0,055
-621,634	69,805	-0,022	-0,016
-620,619	-2,062	-0,059	-0,030
-619,605	-96,220	0,057	-0,011
-618,590	552,580	0,015	0,027
-617,576	-200,000	-0,020	0,094
-616,561	140,827	-0,089	0,085
-615,546	-161,912	-0,146	0,005
-614,532	-127,182	-0,097	-0,010
-613,517	-177,291	-0,097	-0,002
-612,503	-200,000	-0,001	-0,014
-611,488	103,024	0,046	0,039
-610,474	792,444	0,050	0,101
-609,459	-24,864	-0,052	0,022
-608,444	428,911	0,034	-0,053
-607,430	-89,425	0,072	-0,015
-606,415	662,042	-0,076	0,142
-605,401	42,859	0,121	0,079
-604,386	-5,293	0,061	0,030
-603,371	-20,330	-0,160	0,071
-602,357	343,785	-0,006	-0,008
-601,342	-200,000	-0,005	0,061
-600,328	675,440	-0,035	-0,067
-599,313	131,072	0,122	0,113
-598,298	-110,905	0,023	0,003
-597,284	409,141	0,030	-0,046
-596,269	101,257	0,068	0,057
-595,255	-200,000	-0,037	0,140
-594,240	-200,000	-0,009	0,036
-593,225	-200,000	0,000	0,142
-592,211	-200,000	-0,016	-0,137
-591,196	47,126	0,067	0,045
-590,182	94,597	0,055	0,045
-589,167	7,947	-0,046	0,025
-588,152	155,247	0,051	0,050
-587,138	159,140	0,103	0,103
-586,123	705,906	-0,073	-0,139
-585,109	83,007	0,021	-0,016
-584,094	35,637	-0,090	-0,057
-583,079	-171,211	0,024	0,001
-582,065	85,116	-0,112	0,088
-581,050	-82,231	-0,092	0,021
-580,036	554,577	0,075	0,131
-579,021	-79,138	-0,047	-0,011
-578,006	230,509	-0,051	-0,060
-576,992	-72,672	-0,100	0,026
-575,977	-200,000	-0,032	-0,138
-574,963	-98,648	-0,032	0,006
-573,948	589,971	0,007	0,012
-572,934	443,371	0,067	-0,106
-571,919	-81,522	-0,044	0,010
-570,904	800,000	-0,052	-0,135
-569,890	-200,000	-0,009	0,043
-568,875	144,998	0,086	-0,083
-567,861	-200,000	0,029	0,106
-566,846	110,950	0,055	0,047
-565,831	-90,134	-0,080	0,017
-564,817	-200,000	0,035	-0,214
-563,802	294,185	-0,022	-0,029
-562,788	258,226	-0,026	-0,032
-561,773	-200,000	-0,006	-0,077
-560,758	226,041	0,029	0,034
-559,744	800,000	0,022	0,062
-558,729	-200,000	-0,005	0,138
-557,715	281,350	-0,078	-0,101
-556,700	187,319	-0,133	-0,143
-555,685	800,000	0,033	-0,077
-554,671	-31,040	-0,103	-0,042
-553,656	-77,334	0,102	-0,025
-552,642	726,918	0,008	0,015
-551,627	0,448	0,052	-0,027
-550,612	-163,754	-0,146	-0,005
-549,598	-200,000	-0,008	-0,059
-548,583	247,624	-0,110	0,134
-547,569	96,938	0,060	-0,050
-546,554	-200,000	0,021	0,073
-545,539	-200,000	-0,003	0,014
-544,525	172,369	-0,021	0,022
-543,510	-200,000	0,012	-0,072
-542,496	-200,000	-0,000	-0,018
-541,481	41,139	0,039	0,025
-540,466	-103,849	0,053	-0,009
-539,452	-200,000	-0,009	-0,092
-538,437	-200,000	-0,009	0,043
-537,423	-12,907	-0,037	-0,017
-536,408	139,674	-0,070	0,067
-535,393	31,664	-0,096	-0,059
-534,379	-62,612	-0,116	0,034
-533,364	800,000	-0,053	0,157
-532,350	-200,000	0,012	-0,061
-531,335	132,521	0,031	-0,029
-530,321	83,060	-0,062	0,048
-529,306	492,576	-0,018	0,029
-528,291	-4,445	0,015	-0,007
-527,277	147,222	-0,003	0,003
-526,262	-89,319	-0,069	-0,014
-525,248	23,846	0,095	-0,056
-524,233	-200,000	-0,011	0,039
-523,218	800,000	-0,061	0,187
-522,204	71,553	0,060	-0,045
-521,189	-31,163	-0,073	0,030
-520,175	-200,000	-0,027	-0,161
-519,160	15,547	-0,061	-0,035
-518,145	32,675	0,055	-0,034
-517,131	-131,019	-0,029	-0,003
-516,116	-142,039	0,088	-0,006
-515,102	-200,000	0,001	0,050
-514,087	-188,883	0,021	-0,000
-513,072	800,000	-0,041	-0,101
-512,058	-81,246	-0,076	0,018
-511,043	759,375	0,026	-0,051
-510,029	-200,000	-0,006	-0,019
-509,014	-78,041	-0,096	0,024
-507,999	423,730	-0,032	-0,049
-506,985	-200,000	0,026	-0,133
-505,970	-133,521	-0,124	-0,011
-504,956	313,397	0,049	-0,066
-503,941	266,755	-0,057	0,072
-502,926	6,481	-0,033	-0,018
-501,912	751,063	0,062	0,121
-500,897	800,000	-0,072	0,203
-499,883	279,815	-0,056	-0,073
-498,868	-139,695	0,048	0,004
-497,853	-75,915	0,081	-0,020
-496,839	-200,000	0,009	-0,080
-495,824	-28,282	-0,079	0,032
-494,810	-200,000	-0,010	-0,089
-493,795	-200,000	-0,016	0,090
-492,781	275,016	-0,078	0,100
-491,766	692,739	-0,021	0,040
-490,751	222,449	-0,094	-0,109
-489,737	126,079	-0,076	0,069
-488,722	252,188	0,035	0,043
-487,708	-200,000	-0,004	0,015
-486,693	666,189	0,026	0,048
-485,678	-200,000	-0,016	-0,172
-484,664	800,000	-0,071	-0,167
-483,649	444,996	-0,076	-0,120
-482,635	244,195	0,037	0,044
-481,620	54,922	-0,013	-0,009
-480,605	-25,620	0,157	-0,066
-479,591	-166,164	-0,093	-0,003
-478,576	-200,000	-0,006	0,030
-477,562	559,468	-0,017	0,029
-476,547	191,713	-0,085	0,092
-475,532	-14,686	-0,095	-0,044
-474,518	-86,971	0,088	0,019
-473,503	158,505	0,063	-0,063
-472,489	-200,000	0,006	0,049
-471,474	-76,719	0,048	-0,012
-470,459	-200,000	0,004	-0,021
-469,445	166,582	0,031	-0,031
-468,430	136,037	-0,086	0,081
-467,416	-75,342	0,080	0,020
-466,401	-200,000	-0,008	-0,143
-465,386	402,930	0,099	0,149
-464,372	800,000	-0,026	0,074
-463,357	-200,000	0,019	-0,096
-462,343	-28,696	0,068	-0,028
-461,328	9,685	0,171	0,092
-460,313	-153,958	-0,110	0,005
-459,299	800,000	-0,062	0,178
-458,284	40,943	0,167	0,108
-457,270	-33,952	-0,097	0,038
-456,255	-66,289	0,071	0,020
-455,241	142,206	-0,102	-0,097
-454,226	-74,789	-0,074	0,019
-453,211	-200,000	0,009	0,035
-452,197	40,234	0,083	-0,053
-451,182	359,590	0,053	-0,076
-450,168	316,328	-0,078	0,106
-449,153	53,028	-0,061	0,042
-448,138	702,192	0,059	0,111
-447,124	-14,923	0,147	-0,067
-446,109	120,343	0,094	-0,084
-445,095	-87,206	0,016	0,003
-444,080	-200,000	0,033	0,126
-443,065	-61,110	-0,043	0,013
-442,051	612,314	0,026	0,048
-441,036	-200,000	0,018	0,128
-440,022	-85,545	0,103	-0,023
-439,007	800,000	-0,046	-0,103
-437,992	-20,916	0,099	0,043
-436,978	57,633	0,067	0,047
-435,963	160,414	0,157	0,157
-434,949	-107,936	-0,088	-0,014
-433,934	-40,815	-0,040	-0,015
-432,919	169,634	-0,062	0,063
-431,905	747,230	-0,045	0,088
-430,890	-112,779	0,166	0,023
-429,876	136,336	0,044	0,041
-428,861	1,639	0,092	0,047
-427,846	-21,713	0,056	-0,024
-426,832	104,788	0,131	-0,110
-425,817	1,991	-0,095	0,049
-424,803	-200,000	0,024	-0,129
-423,788	-90,548	0,121	0,025
-422,773	11,201	0,070	0,038
-421,759	-9,989	0,073	-0,035
-420,744	800,000	-0,003	-0,009
-419,730	-57,682	0,097	-0,030
-418,715	793,120	0,029	-0,058
-417,701	-137,336	-0,135	-0,011
-416,686	421,361	0,030	0,047
-415,671	800,000	-0,011	0,030
-414,657	-10,964	0,135	0,064
-413,642	-35,753	-0,091	-0,035
-412,628	309,113	0,120	-0,161
-411,613	490,447	-0,054	-0,089
-410,598	-68,840	0,079	0,022
-409,584	156,181	-0,094	-0,092
-408,569	-106,516	-0,099	0,016
-407,555	800,000	0,052	0,131
-406,540	-200,000	-0,051	0,171
-405,525	146,783	-0,067	-0,065
-404,511	100,571	-0,065	0,054
-403,496	-10,150	-0,067	0,032
-402,482	94,134	0,101	0,082
-401,467	289,756	0,059	-0,077
-400,452	-200,000	0,011	0,096
-399,438	-200,000	-0,013	0,122
-398,423	36,718	-0,004	0,002
-397,409	-119,760	0,125	-0,015
-396,394	54,939	-0,021	0,014
-395,379	450,789	0,021	0,034
-394,365	286,127	-0,066	0,085
-393,350	800,000	-0,009	0,018
-392,336	225,254	-0,055	-0,064
-391,321	340,501	0,045	-0,063
-390,306	800,000	0,029	-0,068
-389,292	-50,917	-0,151	-0,050
-388,277	312,947	0,087	-0,117
-387,263	-200,000	-0,012	-0,059
-386,248	-200,000	0,004	0,110
-385,233	-157,204	0,162	0,007
-384,219	-92,641	0,054	-0,011
-383,204	-200,000	-0,038	-0,135
-382,190	139,096	-0,080	0,075
-381,175	94,262	0,171	0,139
-380,160	-200,000	0,041	0,145
-379,146	432,205	0,032	-0,049
-378,131	-200,000	0,024	0,079
-377,117	33,177	-0,153	-0,095
-376,102	-200,000	-0,002	0,076
-375,088	800,000	0,024	-0,072
-374,073	-200,000	-0,005	0,128
-373,058	-163,947	-0,079	0,003
-372,044	-200,000	0,012	0,115
-371,029	-200,000	0,029	0,111
-370,015	-104,753	-0,154	-0,025
-369,000	800,000	0,006	0,014
-367,985	-200,000	-0,020	0,083
-366,971	-123,024	-0,077	0,009
-365,956	800,000	0,021	-0,048
-364,942	800,000	0,018	0,051
-363,927	-200,000	-0,024	0,105
-362,912	672,916	0,037	-0,069
-361,898	800,000	0,023	-0,047
-360,883	-200,000	-0,014	0,069
-359,869	205,635	0,045	-0,051
-358,854	85,570	-0,043	-0,034
-357,839	-200,000	-0,020	-0,072
-356,825	-116,860	0,049	0,006
-355,810	-2,212	0,035	-0,017
-354,796	800,000	0,025	-0,068
-353,781	178,390	0,113	-0,118
-352,766	399,834	-0,016	0,024
-351,752	263,907	-0,031	-0,039
-350,737	717,998	-0,022	-0,041
-349,723	-200,000	-0,000	-0,064
-348,708	154,517	0,069	-0,068
-347,693	-56,737	-0,069	-0,022
-346,679	47,920	-0,075	-0,050
-345,664	-7,138	-0,111	0,054
-344,650	-114,072	-0,081	0,011
-343,635	-200,000	-0,006	0,031
-342,620	-74,124	0,096	-0,025
-341,606	522,274	0,033	0,056
-340,591	167,823	-0,098	-0,100
-339,577	-12,131	0,215	-0,100
-338,562	-200,000	-0,012	-0,044
-337,548	800,000	0,035	-0,077
-336,533	722,598	0,020	0,038
-335,518	-35,060	0,127	0,049
-334,504	632,174	-0,049	0,089
-333,489	-200,000	-0,007	0,027
-332,475	-200,000	0,011	-0,069
-331,460	800,000	-0,061	-0,152
-330,445	132,695	-0,077	-0,071
-329,431	-174,272	-0,068	-0,001
-328,416	87,499	0,054	-0,043
-327,402	-90,953	0,050	0,010
-326,387	800,000	-0,024	0,048
-325,372	144,666	-0,084	0,080
-324,358	800,000	-0,046	-0,096
-323,343	-78,438	0,128	0,031
-322,329	-200,000	0,007	-0,051
-321,314	-63,275	0,119	-0,035
-320,299	800,000	-0,029	0,064
-319,285	-200,000	-0,021	-0,136
-318,270	-200,000	-0,002	-0,097
-317,256	152,877	-0,074	-0,072
-316,241	216,126	0,060	0,068
-315,226	800,000	0,002	0,005
-314,212	-52,106	0,187	0,062
-313,197	800,000	-0,010	0,026
-312,183	766,620	0,074	0,145
-311,168	800,000	-0,040	0,100
-310,153	-1,093	-0,147	-0,074
-309,139	402,115	-0,059	-0,089
-308,124	623,373	0,092	0,166
-307,110	287,161	0,070	0,090
-306,095	-62,334	-0,051	-0,015
-305,080	-200,000	-0,010	0,147
-304,066	11,081	0,092	0,050
-303,051	-200,000	0,020	-0,117
-302,037	49,644	-0,084	-0,056
-301,022	800,000	0,049	-0,151
-300,008	5,403	0,058	0,031
-298,993	-200,000	-0,008	0,047
-297,978	222,275	0,071	-0,082
-296,964	-159,844	-0,094	0,004
-295,949	-129,411	-0,114	-0,011
-294,935	38,678	0,010	-0,007
-293,920	36,586	-0,027	-0,017
-292,905	800,000	0,054	0,142
-291,891	800,000	0,030	0,081
-290,876	33,959	-0,060	0,037
-289,862	-113,496	-0,149	0,021
-288,847	-200,000	0,001	0,035
-287,832	0,710	-0,045	-0,023
-286,818	87,524	-0,038	0,030
-285,803	-9,269	0,136	0,065
-284,789	-200,000	-0,051	0,170
-283,774	-114,896	0,086	-0,012
-282,759	-200,000	0,020	0,069
-281,745	-31,856	-0,173	-0,069
-280,730	-200,000	0,002	0,023
-279,716	327,480	-0,094	-0,128
-278,701	-144,219	-0,042	-0,003
-277,686	800,000	-0,025	0,079
-276,672	-113,682	-0,225	-0,031
-275,657	215,528	0,079	-0,089
-274,643	628,745	-0,021	-0,038
-273,628	746,289	0,030	-0,058
-272,613	455,666	-0,008	-0,012
-271,599	137,059	-0,069	0,064
-270,584	674,559	0,027	0,050
-269,570	83,815	0,160	0,125
-268,555	401,392	-0,044	0,066
-267,540	114,698	-0,036	0,031
-266,526	165,676	-0,042	0,043
-265,511	410,875	0,039	-0,058
-264,497	-59,365	-0,058	-0,018
-263,482	554,544	-0,056	0,096
-262,467	-86,299	0,075	-0,016
-261,453	-55,846	-0,021	0,007
-260,438	800,000	-0,039	-0,080
-259,424	-20,945	-0,170	-0,074
-258,409	-200,000	0,025	0,110
-257,395	518,884	0,073	-0,122
-256,380	134,334	-0,083	-0,077
-255,365	800,000	-0,024	0,051
-254,351	86,456	0,177	-0,139
-253,336	-200,000	0,021	-0,089
-252,322	-200,000	-0,013	-0,084
-251,307	-200,000	0,024	-0,108
-250,292	-109,396	0,064	-0,009
-249,278	366,731	-0,078	0,112
-248,263	-50,967	-0,040	0,013
-247,249	-200,000	-0,005	-0,073
-246,234	-200,000	-0,007	-0,028
-245,219	1,150	0,068	-0,035
-244,205	-83,673	0,047	-0,011
-243,190	800,000	0,015	-0,036
-242,176	67,275	-0,069	0,050
-241,161	-30,568	-0,031	0,012
-240,146	-84,301	0,041	0,009
-239,132	800,000	0,034	0,083
-238,117	-24,221	-0,102	0,043
-237,103	411,180	0,062	-0,094
-236,088	-5,846	0,093	0,045
-235,073	-146,958	0,149	0,009
-234,059	241,576	-0,092	-0,110
-233,044	555,600	-0,007	-0,011
-232,030	104,636	-0,015	-0,013
-231,015	800,000	0,016	0,047
-230,000	-106,014	0,150	-0,024
-228,986	-200,000	0,018	0,072
-227,971	-35,554	-0,119	-0,046
-226,957	800,000	-0,037	0,105
-225,942	-49,428	0,014	-0,005
-224,927	-110,993	0,103	-0,015
-223,913	-95,810	0,031	-0,006
-222,898	-65,916	-0,015	-0,004
-221,884	13,939	-0,083	-0,046
-220,869	-200,000	-0,015	-0,052
-219,855	-200,000	0,032	-0,136
-218,840	-200,000	-0,039	0,147
-217,825	-200,000	0,015	-0,064
-216,811	386,781	-0,072	-0,107
-215,796	10,625	-0,111	-0,060
-214,782	-42,511	0,083	0,030
-213,767	25,926	0,169	0,100
-212,752	-12,253	0,097	0,045
-211,738	427,234	0,047	-0,072
-210,723	113,486	-0,038	0,032
-209,709	66,083	-0,016	-0,012
-208,694	258,856	-0,052	-0,063
-207,679	-200,000	0,005	-0,042
-206,665	-200,000	0,015	0,066
-205,650	-15,606	0,038	-0,017
-204,636	-200,000	-0,032	-0,122
-203,621	-38,069	0,136	0,051
-202,606	-26,078	-0,100	0,042
-201,592	185,253	-0,109	-0,115
-200,577	748,041	-0,038	0,074
-199,563	800,000	-0,031	0,079
-198,548	-200,000	0,024	0,080
-197,533	800,000	0,028	0,078
-196,519	-200,000	0,037	0,147
-195,504	-200,000	-0,045	0,147
-194,490	-98,076	-0,181	-0,033
-193,475	-200,000	-0,013	-0,170
-192,460	354,119	-0,068	-0,096
-191,446	-200,000	-0,002	-0,128
-190,431	-200,000	0,030	-0,156
-189,417	168,637	-0,035	0,035
-188,402	800,000	-0,035	0,084
-187,387	190,712	0,065	0,069
-186,373	-200,000	0,018	-0,118
-185,358	-200,000	-0,016	-0,075
-184,344	-104,399	0,128	-0,021
-183,329	182,994	0,010	0,011
-182,315	-200,000	0,001	0,046
-181,300	-156,523	-0,057	-0,002
-180,285	491,150	0,060	-0,097
-179,271	-120,586	-0,061	-0,007
-178,256	-58,476	0,050	0,015
-177,242	-200,000	0,003	0,013
-176,227	173,644	0,086	0,088
-175,212	-152,866	0,109	-0,005
-174,198	74,495	0,127	0,094
-173,183	-200,000	0,018	-0,075
-172,169	391,552	0,076	-0,112
-171,154	552,223	-0,107	-0,182
-170,139	-200,000	-0,001	0,022
-169,125	48,724	-0,035	-0,023
-168,110	4,990	0,132	0,068
-167,096	683,675	-0,051	0,095
-166,081	391,590	-0,027	0,040
-165,066	-200,000	-0,030	-0,152
-164,052	-58,333	-0,095	-0,029
-163,037	-4,535	0,108	0,053
-162,023	38,789	0,067	0,043
-161,008	766,301	-0,026	0,050
-159,993	65,078	-0,021	-0,015
-158,979	-200,000	-0,019	-0,146
-157,964	-107,006	0,017	-0,003
-156,950	757,660	0,041	-0,080
-155,935	71,833	0,092	-0,068
-154,920	-94,092	0,056	-0,011
-153,906	115,456	0,108	0,093
-152,891	-118,472	0,061	0,008
-151,877	5,949	-0,086	0,045
-150,862	-88,877	-0,109	0,023
-149,847	800,000	-0,032	-0,080
-148,833	-200,000	-0,012	0,058
-147,818	-183,934	0,072	0,001
-146,804	-200,000	0,004	-0,058
-145,789	210,830	0,049	-0,054
-144,775	-151,885	-0,060	0,003
-143,760	-200,000	-0,005	0,040
-142,745	154,690	-0,122	-0,119
-141,731	800,000	-0,057	-0,129
-140,716	800,000	0,066	-0,147
-139,702	29,657	-0,089	0,053
-138,687	-74,666	-0,061	-0,015
-137,672	-10,919	0,154	0,072
-136,658	800,000	0,011	0,023
-135,643	199,636	-0,123	-0,133
-134,629	249,331	-0,028	0,034
-133,614	-31,362	0,179	0,071
-132,599	205,540	0,031	0,035
-131,585	277,518	-0,110	0,139
-130,570	569,230	0,026	0,045
-129,556	183,705	-0,026	-0,027
-128,541	-118,203	-0,119	-0,015
-127,526	796,221	0,081	-0,160
-126,512	71,496	0,137	0,100
-125,497	90,007	0,090	0,071
-124,483	42,110	0,090	-0,058
-123,468	-200,000	0,018	0,087
-122,453	531,665	-0,047	0,079
-121,439	-53,482	-0,175	-0,056
-120,424	495,687	0,041	0,067
-119,410	170,243	0,115	0,117
-118,395	-200,000	-0,026	0,101
-117,380	-200,000	-0,002	0,153
-116,366	-26,668	-0,052	-0,022
-115,351	-200,000	0,012	0,060
-114,337	-95,573	-0,091	-0,017
-113,322	800,000	-0,006	0,015
-112,307	-200,000	0,008	-0,079
-111,293	-200,000	0,107	0,000
-110,278	-200,000	0,022	0,125
-109,264	30,061	-0,045	-0,027
-108,249	-72,179	-0,149	0,039
-107,234	-57,862	-0,052	-0,016
-106,220	465,092	-0,030	-0,048
-105,205	-28,109	0,024	0,010
-104,191	-200,000	0,027	-0,091
-103,176	800,000	-0,028	0,069
-102,162	-200,000	0,066	0,211
-101,147	338,671	-0,032	-0,044
-100,132	123,772	-0,071	0,063
-99,118	800,000	0,050	0,099
-98,103	-200,000	0,015	-0,141
-97,089	106,330	0,036	0,030
-96,074	-200,000	0,024	0,194
-95,059	321,303	0,063	-0,084
-94,045	156,262	-0,053	-0,051
-93,030	-200,000	0,010	-0,181
-92,016	-39,282	-0,093	-0,034
-91,001	460,375	0,049	-0,077
-89,986	-28,084	-0,104	0,042
-88,972	-200,000	-0,007	0,035
-87,957	310,882	0,065	0,087
-86,943	-136,512	-0,117	0,009
-85,928	-200,000	-0,005	0,067
-84,913	333,523	-0,027	-0,037
-83,899	749,790	-0,069	-0,132
-82,884	-200,000	0,034	0,128
-81,870	184,271	-0,077	0,081
-80,855	-48,047	0,088	-0,030
-79,840	-200,000	0,004	0,096
-78,826	548,714	0,023	-0,039
-77,811	800,000	-0,049	-0,102
-76,797	261,233	0,079	-0,097
-75,782	800,000	0,001	-0,002
-74,767	-49,322	-0,048	0,016
-73,753	-70,754	-0,054	-0,014
-72,738	-130,741	-0,053	-0,005
-71,724	-200,000	-0,007	-0,084
-70,709	800,000	-0,034	0,067
-69,694	10,716	-0,025	0,013
-68,680	800,000	0,038	0,083
-67,665	-200,000	-0,005	0,049
-66,651	800,000	-0,025	0,055
-65,636	800,000	0,019	0,047
-64,622	55,479	0,069	0,047
-63,607	1,338	-0,130	-0,066
-62,592	271,102	-0,035	-0,044
-61,578	169,657	-0,066	0,067
-60,563	629,562	0,045	0,080
-59,549	800,000	-0,064	0,137
-58,534	35,997	-2,069	-1,283
-57,519	448,099	-1,271	-1,983
-56,505	-200,000	-0,248	-4,390
-55,490	614,069	0,850	1,509
-54,476	800,000	5,068	11,222
-53,461	-200,000	21,280	340,762
-52,446	800,000	759,760	2359,362
-51,432	559,379	1662,640	2844,544
-50,417	73,667	1661,486	1227,434
-49,403	18,053	1534,951	861,381
-48,388	12,003	1458,657	789,303
-47,373	19,379	1449,539	819,734
-46,359	15,403	1439,017	794,839
-45,344	10,278	1434,623	767,979
-44,330	10,210	1432,876	766,686
-43,315	10,230	1430,989	765,741
-42,300	10,232	1429,296	764,813
-41,286	10,251	1427,833	764,094
-40,271	10,174	1426,764	763,124
-39,257	10,202	1425,593	762,599
-38,242	10,270	1424,252	762,176
-37,227	10,193	1423,459	761,358
-36,213	10,232	1422,165	760,817
-35,198	10,269	1420,903	760,289
-34,184	10,300	1420,019	759,932
-33,169	10,221	1418,688	758,814
-32,154	10,264	1417,605	758,408
-31,140	10,269	1416,302	757,707
-30,125	10,318	1415,152	757,293
-29,111	10,339	1413,938	756,711
-28,096	10,202	1413,002	755,535
-27,082	10,199	1411,538	754,709
-26,067	10,187	1410,670	754,157
-25,052	10,185	1409,795	753,653
-24,038	10,217	1408,581	753,123
-23,023	10,216	1407,746	752,643
-22,009	10,229	1406,749	752,141
-20,994	10,210	1405,543	751,376
-19,979	10,196	1404,832	750,902
-18,965	10,141	1403,992	750,165
-17,950	10,140	1402,903	749,550
-16,936	10,150	1402,298	749,242
-15,921	10,091	1401,167	748,334
-14,906	10,152	1400,080	748,006
-13,892	10,106	1399,324	747,360
-12,877	10,126	1398,383	746,920
-11,863	10,057	1397,677	746,191
-10,848	10,042	1396,783	745,618
-9,833	10,049	1395,791	745,088
-8,819	9,951	1395,176	744,279
-7,804	10,016	1394,060	743,955
-6,790	10,016	1392,941	743,327
-5,775	10,011	1392,072	742,812
-4,760	10,057	1390,983	742,411
-3,746	10,029	1389,899	741,675
-2,731	9,995	1389,244	741,137
-1,717	9,978	1388,394	740,579
-0,702	9,993	1386,648	739,686
0,313	14,039	1299,335	711,615
1,327	30,296	689,858	414,657
2,342	46,859	119,413	78,149
3,356	3,825	16,425	8,435
4,371	-6,097	3,523	1,692
5,386	-40,203	1,214	0,444
6,400	-200,000	0,112	0,536
7,415	-141,510	-0,179	0,013
8,429	-9,003	-0,272	-0,128
9,444	-31,535	-0,400	-0,158
10,459	-67,214	-0,336	-0,093
11,473	-8,594	-0,277	-0,131
12,488	-143,682	-0,233	-0,015
13,502	-36,167	-0,297	-0,113
14,517	-122,367	-0,286	-0,032
15,531	21,013	-0,360	-0,205
16,546	183,382	-0,230	-0,240
17,561	101,912	-0,314	-0,258
18,575	-3,717	-0,207	-0,101
19,590	25,555	-0,293	-0,171
20,604	-19,862	-0,191	-0,083
21,619	255,496	-0,344	-0,416
22,634	127,148	-0,385	-0,344
23,648	72,163	-0,435	-0,319
24,663	121,408	-0,341	-0,299
25,677	78,808	-0,280	-0,211
26,692	405,079	-0,195	-0,290
27,707	63,496	-0,330	-0,233
28,721	112,482	-0,288	-0,245
29,736	20,546	-0,369	-0,210
30,750	176,891	-0,327	-0,335
31,765	256,008	-0,299	-0,361
32,780	106,501	-0,374	-0,312
33,794	662,044	-0,192	-0,349
34,809	152,647	-0,275	-0,264
35,823	81,709	-0,365	-0,277
36,838	290,626	-0,287	-0,368
37,853	293,686	-0,308	-0,397
38,867	169,499	-0,334	-0,336
39,882	196,570	-0,318	-0,341
40,896	-17,250	-0,361	-0,159
41,911	-33,421	-0,271	-0,105
42,926	-3,511	-0,471	-0,230
43,940	145,393	-0,328	-0,309
44,955	119,571	-0,368	-0,321
45,969	116,640	-0,383	-0,330
46,984	145,906	-0,249	-0,234
47,999	-25,824	-0,344	-0,142
49,013	-49,603	-0,395	-0,131
50,028	125,892	-0,303	-0,269
51,042	145,393	-0,303	-0,285
52,057	-34,234	-0,399	-0,153
53,071	35,878	-0,390	-0,240
54,086	80,653	-0,297	-0,225
55,101	86,454	-0,391	-0,302
56,115	16,801	-0,316	-0,175
57,130	151,148	-0,306	-0,292
58,144	91,225	-0,299	-0,236
59,159	68,560	-0,457	-0,328
60,174	64,932	-0,369	-0,261
61,188	44,820	-0,469	-0,302
62,203	56,542	-0,238	-0,162
63,217	7,644	-0,333	-0,175
64,232	78,539	-0,327	-0,245
65,247	173,239	-0,291	-0,294
66,261	15,863	-0,381	-0,210
67,276	116,532	-0,383	-0,329
68,290	-69,991	-0,336	-0,089
69,305	78,645	-0,370	-0,277
70,320	-78,643	-0,215	-0,051
71,334	68,408	-0,294	-0,211
72,349	48,519	-0,396	-0,260
73,363	116,075	-0,315	-0,270
74,378	85,958	-0,257	-0,198
75,393	34,125	-0,378	-0,230
76,407	124,450	-0,230	-0,203
77,422	85,343	-0,234	-0,180
78,436	36,556	-0,274	-0,169
79,451	-58,018	-0,299	-0,091
80,466	163,565	-0,345	-0,340
81,480	202,829	-0,266	-0,289
82,495	105,961	-0,182	-0,151
83,509	-193,205	-0,238	-0,001
84,524	39,690	-0,260	-0,163
85,539	119,259	-0,124	-0,108
86,553	213,218	-0,281	-0,311
87,568	36,573	-0,284	-0,175
88,582	62,686	-0,274	-0,191
89,597	-22,625	-0,311	-0,131
90,611	12,570	-0,224	-0,120
91,626	531,037	-0,096	-0,160
92,641	0,484	-0,251	-0,125
93,655	104,004	-0,359	-0,295
94,670	-14,544	-0,530	-0,237
95,684	72,320	-0,397	-0,289
96,699	147,014	-0,226	-0,213
97,714	64,928	-0,290	-0,204
98,728	101,122	-0,231	-0,188
99,743	116,161	-0,106	-0,091
100,757	39,760	-0,240	-0,150
101,772	192,634	-0,227	-0,240
102,787	151,019	-0,272	-0,259
103,801	2,929	-0,318	-0,161
104,816	72,100	-0,194	-0,141
105,830	-70,198	-0,222	-0,059
106,845	320,405	-0,200	-0,267
107,860	-21,885	-0,397	-0,168
108,874	41,084	-0,221	-0,139
109,889	76,430	-0,311	-0,230
110,903	-69,412	-0,257	-0,068
111,918	-60,753	-0,265	-0,078
112,933	800,000	-0,078	-0,175
113,947	-3,396	-0,217	-0,105
114,962	485,525	-0,116	-0,186
115,976	341,754	-0,244	-0,334
116,991	36,376	-0,378	-0,232
118,006	-151,484	-0,310	-0,016
119,020	141,264	-0,267	-0,246
120,035	-36,763	-0,302	-0,113
121,049	453,329	-0,155	-0,241
122,064	48,086	-0,186	-0,121
123,079	205,962	-0,279	-0,304
124,093	178,260	-0,204	-0,208
125,108	376,273	-0,103	-0,147
126,122	-16,660	-0,252	-0,111
127,137	-36,561	-0,188	-0,070
128,151	-63,022	-0,334	-0,095
129,166	-10,180	-0,289	-0,133
130,181	49,008	-0,261	-0,171
131,195	-14,123	-0,318	-0,143
132,210	-15,049	-0,300	-0,133
133,224	6,462	-0,270	-0,139
134,239	-159,757	-0,224	-0,008
135,254	-87,400	-0,226	-0,047
136,268	-21,733	-0,251	-0,106
137,283	4,338	-0,299	-0,152
138,297	87,932	-0,261	-0,202
139,312	5,668	-0,394	-0,203
140,327	190,276	-0,186	-0,195
141,341	147,961	-0,216	-0,203
142,356	350,288	-0,144	-0,199
143,370	190,811	-0,120	-0,126
144,385	138,930	-0,206	-0,189
145,400	97,648	-0,386	-0,309
146,414	15,107	-0,309	-0,168
147,429	19,186	-0,342	-0,191
148,443	82,478	-0,278	-0,210
149,458	8,787	-0,300	-0,157
150,473	-138,111	-0,228	-0,017
151,487	87,833	-0,170	-0,131
152,502	23,681	-0,314	-0,179
153,516	-69,777	-0,251	-0,066
154,531	171,401	-0,308	-0,308
155,546	148,535	-0,083	-0,078
156,560	132,736	-0,284	-0,255
157,575	-200,000	-0,085	-0,292
158,589	302,788	-0,184	-0,238
159,604	127,028	-0,291	-0,257
160,619	14,895	-0,263	-0,143
161,633	91,317	-0,173	-0,135
162,648	191,564	-0,171	-0,179
163,662	8,021	-0,300	-0,156
164,677	92,675	-0,135	-0,106
165,692	-115,132	-0,194	-0,025
166,706	-24,231	-0,254	-0,105
167,721	71,200	-0,406	-0,292
168,735	190,327	-0,282	-0,295
169,750	30,745	-0,171	-0,101
170,764	-42,632	-0,300	-0,106
171,779	-5,607	-0,239	-0,113
172,794	-37,672	-0,241	-0,089
173,808	511,035	-0,144	-0,234
174,823	91,866	-0,152	-0,118
175,837	242,727	-0,145	-0,169
176,852	-82,060	-0,169	-0,038
177,867	656,272	-0,092	-0,165
178,881	281,132	-0,188	-0,234
179,896	131,665	-0,117	-0,104
180,910	65,702	-0,224	-0,157
181,925	154,032	-0,182	-0,174
182,940	78,912	-0,184	-0,137
183,954	233,989	-0,164	-0,188
184,969	258,778	-0,180	-0,216
185,983	83,355	-0,254	-0,192
186,998	132,806	-0,116	-0,104
188,013	384,084	-0,113	-0,162
189,027	-64,531	-0,370	-0,104
190,042	105,305	-0,263	-0,215
191,056	54,231	-0,283	-0,189
192,071	7,901	-0,253	-0,131
193,086	57,741	-0,157	-0,106
194,100	150,683	-0,209	-0,197
195,115	88,076	-0,186	-0,143
196,129	10,056	-0,216	-0,114
197,144	-46,703	-0,345	-0,117
198,159	229,925	-0,117	-0,133
199,173	-97,176	-0,151	-0,027
200,188	82,337	-0,149	-0,112
201,202	-83,776	-0,180	-0,040
202,217	-111,742	-0,225	-0,031
203,232	160,370	-0,237	-0,230
204,246	-59,618	-0,126	-0,037
205,261	-15,007	-0,292	-0,129
206,275	259,748	-0,186	-0,223
207,290	-16,040	-0,187	-0,082
208,304	-7,810	-0,103	-0,048
209,319	98,945	-0,261	-0,208
210,334	-65,222	-0,246	-0,068
211,348	135,718	-0,217	-0,196
212,363	37,202	-0,215	-0,132
213,377	-200,000	-0,006	-0,190
214,392	-49,009	-0,208	-0,069
215,407	108,061	-0,113	-0,093
216,421	-39,149	-0,174	-0,063
217,436	-84,533	-0,220	-0,048
218,450	120,084	-0,108	-0,092
219,465	-38,260	-0,310	-0,113
220,480	281,635	-0,205	-0,255
221,494	83,284	-0,069	-0,052
222,509	-16,770	-0,262	-0,114
223,523	-9,478	-0,193	-0,089
224,538	141,738	-0,251	-0,230
225,553	800,000	-0,116	-0,247
226,567	800,000	-0,086	-0,223
227,582	38,393	-0,229	-0,141
228,596	-200,000	-0,004	-0,099
229,611	-200,000	-0,020	-0,125
230,626	535,194	-0,086	-0,141
231,640	35,917	-0,233	-0,141
232,655	145,461	-0,119	-0,111
233,669	204,878	-0,236	-0,253
234,684	17,415	-0,253	-0,139
235,699	4,225	-0,181	-0,091
236,713	-86,065	-0,210	-0,044
237,728	-154,640	-0,186	0,008
238,742	-156,713	-0,295	-0,012
239,757	109,870	-0,154	-0,128
240,772	132,370	-0,226	-0,201
241,786	800,000	-0,081	-0,177
242,801	41,815	-0,171	-0,107
243,815	723,614	-0,182	-0,336
244,830	196,515	-0,182	-0,192
245,844	68,739	-0,087	-0,062
246,859	11,198	-0,231	-0,122
247,874	511,716	-0,145	-0,234
248,888	-62,882	-0,083	0,023
249,903	-62,950	-0,264	-0,075
250,917	-66,003	-0,086	-0,024
251,932	-27,121	-0,228	-0,091
252,947	119,019	-0,150	-0,128
253,961	273,702	-0,123	-0,150
254,976	69,438	-0,298	-0,211
255,990	69,498	-0,335	-0,238
257,005	-18,668	-0,181	-0,078
258,020	472,112	-0,071	-0,111
259,034	800,000	-0,041	-0,087
260,049	114,601	-0,215	-0,180
261,063	114,176	-0,202	-0,169
262,078	458,281	-0,147	-0,226
263,093	21,475	-0,212	-0,118
264,107	-135,986	-0,226	-0,018
265,122	-12,651	-0,097	-0,043
266,136	-9,238	-0,125	0,057
267,151	-83,334	-0,167	-0,037
268,166	9,925	-0,208	-0,109
269,180	800,000	-0,067	-0,142
270,195	92,617	-0,178	-0,138
271,209	-70,101	-0,199	-0,052
272,224	-42,655	-0,182	0,063
273,239	73,405	-0,151	-0,109
274,253	177,229	-0,234	-0,235
275,268	-26,264	-0,179	-0,072
276,282	337,447	-0,099	-0,133
277,297	-200,000	-0,090	-0,304
278,312	64,815	-0,176	-0,122
279,326	294,548	-0,139	-0,176
280,341	260,130	-0,134	-0,159
281,355	29,469	-0,156	-0,091
282,370	195,983	-0,138	-0,144
283,384	166,527	-0,141	-0,137
284,399	800,000	-0,081	-0,225
285,414	-9,264	-0,177	-0,081
286,428	-131,260	-0,121	0,011
287,443	-200,000	-0,002	-0,067
288,457	-7,077	-0,187	-0,087
289,472	-200,000	-0,035	-0,152
290,487	342,497	-0,178	-0,241
291,501	-159,885	-0,167	0,006
292,516	-180,370	-0,153	0,002
293,530	-108,031	-0,118	-0,017
294,545	721,146	-0,137	-0,252
295,560	-17,105	-0,236	-0,102
296,574	64,025	-0,036	-0,025
297,589	75,775	-0,209	-0,152
298,603	-200,000	-0,028	-0,206
299,618	36,586	-0,199	-0,121
300,633	-131,199	-0,164	0,015
301,647	202,090	-0,064	-0,067
302,662	-81,592	-0,148	-0,033
303,676	-131,275	-0,048	0,004
304,691	800,000	-0,121	-0,236
305,706	-114,158	-0,237	-0,031
306,720	661,177	-0,144	-0,255
307,735	118,936	-0,075	-0,063
308,749	188,759	-0,151	-0,155
309,764	128,990	-0,118	-0,104
310,779	800,000	-0,085	-0,222
311,793	800,000	-0,147	-0,353
312,808	800,000	-0,140	-0,300
313,822	35,634	-0,213	-0,128
314,837	800,000	-0,079	-0,170
315,852	54,732	-0,133	-0,088
316,866	38,184	-0,186	-0,113
317,881	49,382	-0,216	-0,139
318,895	36,722	-0,150	-0,091
319,910	141,977	-0,237	-0,216
320,925	189,462	-0,168	-0,173
321,939	27,888	-0,146	-0,084
322,954	91,349	-0,117	-0,090
323,968	-200,000	-0,008	0,044
324,983	-108,420	-0,224	-0,033
325,997	-78,906	-0,288	0,067
327,012	-17,171	-0,166	-0,071
328,027	800,000	-0,048	-0,119
329,041	678,364	-0,067	-0,121
330,056	-81,985	-0,140	-0,031
331,070	-12,526	-0,113	-0,050
332,085	93,848	-0,079	-0,061
333,100	-97,682	-0,160	-0,028
334,114	-12,027	-0,148	-0,066
335,129	60,881	-0,176	-0,119
336,143	-63,480	-0,234	-0,066
337,158	-53,657	-0,094	-0,029
338,173	800,000	-0,052	-0,117
339,187	418,771	-0,074	-0,109
340,202	87,166	-0,093	0,070
341,216	339,604	-0,082	-0,109
342,231	57,693	-0,241	-0,161
343,246	98,001	-0,095	-0,075
344,260	800,000	-0,033	-0,068
345,275	-144,511	-0,211	0,013
346,289	292,058	-0,156	-0,195
347,304	7,917	-0,151	-0,077
348,319	171,430	-0,100	-0,098
349,333	140,072	-0,119	-0,108
350,348	87,439	-0,171	-0,130
351,362	-41,728	-0,121	0,042
352,377	-57,458	-0,167	0,050
353,392	-115,360	-0,186	-0,024
354,406	-57,645	-0,106	-0,032
355,421	207,002	1311,271	1399,674
356,435	159,226	1471,544	1400,159
