DTS Sentinel unit serial number:	SN410029Multiplexer serial number:	ORYXHardware model number:	OX2-SRSoftware version number:	ORYX F/W v4,00 Oryx Data Collector v3.7.2.0data status	okinstallation	B3 Nyhavnadifferential loss correction	single-endedforward channel	channel 1reverse channel	N/Adate	2023/11/30time	19:47:30forward acquisition time	300,00reverse acquisition time	0,00gamma	499,1914k internal	0,3207k external	0,3207temperature offset calibration	1,0000default loss term (dB/km)	0,3820temperature slope calibration	1,0000multiplexer offset coefficient	1,0000multiplexer slope coefficient	1,0000fibre end	0,00T internal ref (°C)	11,75T ext. ref 1 (°C)	-3,60T ext. ref 2 (°C)	-3,71length (m)	temperature (°C)	Stokes	anti-Stokes-744,400	28,907	-0,226	-0,139
-743,385	-200,000	-0,012	0,282
-742,371	800,000	-0,145	-0,295
-741,356	349,324	-0,132	0,190
-740,342	800,000	-0,090	-0,248
-739,327	709,091	-0,172	0,332
-738,312	139,512	-0,276	-0,264
-737,298	-200,000	-0,016	0,296
-736,283	-200,000	-0,048	-0,224
-735,269	-200,000	0,012	0,215
-734,254	202,701	-0,188	-0,210
-733,239	5,578	-0,369	0,197
-732,225	-200,000	-0,054	-0,219
-731,210	29,498	0,172	0,106
-730,196	488,090	0,045	0,075
-729,181	800,000	-0,051	-0,109
-728,167	-200,000	0,003	0,115
-727,152	-48,107	-0,120	0,042
-726,137	-102,031	-0,152	0,026
-725,123	-200,000	-0,014	-0,091
-724,108	-59,739	-0,184	-0,057
-723,094	609,969	-0,129	0,234
-722,079	-125,521	-0,087	-0,009
-721,064	545,421	-0,007	-0,012
-720,050	-200,000	0,019	-0,198
-719,035	579,077	0,048	0,086
-718,021	800,000	0,040	-0,092
-717,006	641,241	-0,039	-0,073
-715,991	-200,000	-0,007	-0,117
-714,977	-40,193	-0,118	0,044
-713,962	136,801	0,095	0,090
-712,948	-13,118	-0,091	0,043
-711,933	-200,000	-0,008	0,114
-710,918	746,124	-0,067	-0,131
-709,904	148,153	-0,157	0,154
-708,889	-92,969	-0,083	-0,017
-707,875	-200,000	-0,035	-0,263
-706,860	-44,848	-0,066	-0,024
-705,845	129,994	0,036	0,034
-704,831	129,872	-0,091	-0,085
-703,816	-65,776	-0,089	-0,026
-702,802	317,894	-0,067	-0,092
-701,787	56,534	-0,081	0,057
-700,772	-200,000	-0,022	0,086
-699,758	315,625	0,078	0,107
-698,743	800,000	-0,025	0,060
-697,729	678,689	0,030	0,056
-696,714	27,028	0,043	0,026
-695,699	-200,000	0,000	-0,012
-694,685	138,225	-0,099	-0,094
-693,670	-200,000	0,023	-0,114
-692,656	-39,589	-0,071	0,027
-691,641	-200,000	-0,010	0,034
-690,627	303,852	-0,112	0,151
-689,612	573,587	-0,010	0,017
-688,597	-200,000	0,005	-0,067
-687,583	-200,000	-0,003	-0,033
-686,568	-200,000	-0,030	-0,123
-685,554	79,741	0,077	-0,060
-684,539	424,585	-0,105	0,164
-683,524	250,952	0,073	0,090
-682,510	800,000	0,058	0,125
-681,495	197,714	0,045	-0,050
-680,481	20,597	0,040	0,024
-679,466	-200,000	-0,002	0,015
-678,451	-153,685	-0,066	-0,003
-677,437	8,469	0,075	-0,041
-676,422	507,894	-0,011	-0,018
-675,408	-39,965	0,163	-0,061
-674,393	412,710	-0,110	-0,169
-673,378	562,684	0,015	0,026
-672,364	-77,194	-0,101	-0,025
-671,349	-200,000	-0,031	-0,179
-670,335	800,000	0,016	0,040
-669,320	0,252	-0,225	0,116
-668,305	-87,749	0,100	0,022
-667,291	152,857	0,101	-0,100
-666,276	-200,000	0,014	0,090
-665,262	40,548	-0,095	-0,062
-664,247	-200,000	-0,019	-0,120
-663,232	-200,000	-0,003	0,010
-662,218	17,171	0,048	0,027
-661,203	-21,741	0,030	0,013
-660,189	800,000	-0,059	0,186
-659,174	800,000	0,059	-0,157
-658,159	800,000	-0,033	-0,100
-657,145	85,149	-0,059	-0,047
-656,130	-24,349	0,069	-0,030
-655,116	-200,000	0,002	-0,030
-654,101	15,480	0,064	-0,036
-653,086	-200,000	0,023	0,101
-652,072	800,000	-0,087	-0,187
-651,057	-200,000	-0,021	0,196
-650,043	800,000	-0,020	-0,041
-649,028	-76,790	-0,094	0,024
-648,014	463,920	0,077	-0,125
-646,999	15,595	0,074	-0,042
-645,984	475,927	0,038	0,062
-644,970	197,195	-0,047	-0,052
-643,955	-49,503	-0,041	0,014
-642,941	-200,000	0,001	-0,008
-641,926	-102,920	-0,092	0,016
-640,911	52,672	0,150	0,104
-639,897	212,867	-0,031	-0,036
-638,882	-11,475	-0,004	-0,002
-637,868	800,000	0,030	-0,096
-636,853	510,984	0,037	-0,062
-635,838	-93,196	-0,126	0,025
-634,824	81,951	-0,216	-0,169
-633,809	-64,007	0,113	-0,033
-632,795	192,065	0,104	0,113
-631,780	574,132	-0,017	0,031
-630,765	81,596	0,046	-0,036
-629,751	-118,909	-0,040	0,005
-628,736	800,000	-0,075	-0,194
-627,722	-200,000	0,060	-0,279
-626,707	-200,000	0,015	-0,065
-625,692	800,000	-0,022	0,056
-624,678	281,192	-0,046	0,060
-623,663	348,382	0,018	0,026
-622,649	280,058	0,011	-0,014
-621,634	-8,308	-0,146	-0,071
-620,619	14,932	0,068	0,039
-619,605	-200,000	0,000	-0,086
-618,590	435,262	-0,018	0,028
-617,576	-200,000	-0,033	0,124
-616,561	203,869	0,119	0,134
-615,546	-200,000	-0,024	0,124
-614,532	-200,000	0,019	0,079
-613,517	504,753	-0,082	-0,137
-612,503	92,746	-0,032	-0,026
-611,488	-200,000	0,024	-0,110
-610,474	512,243	-0,042	-0,071
-609,459	573,563	0,042	0,074
-608,444	-93,768	-0,102	0,020
-607,430	-31,803	-0,076	-0,031
-606,415	-132,510	0,101	-0,009
-605,401	792,140	0,051	-0,101
-604,386	201,296	0,047	-0,052
-603,371	-88,912	-0,103	0,022
-602,357	-183,828	0,040	0,000
-601,342	202,844	0,036	0,041
-600,328	-73,513	-0,123	0,032
-599,313	-105,563	-0,046	0,007
-598,298	257,452	-0,048	-0,060
-597,284	-200,000	0,004	-0,060
-596,269	-100,747	0,119	0,021
-595,255	142,375	-0,136	-0,131
-594,240	34,263	0,086	-0,054
-593,225	69,919	0,054	-0,040
-592,211	65,148	-0,052	-0,038
-591,196	683,670	-0,056	0,106
-590,182	99,504	-0,036	0,030
-589,167	-152,527	0,155	-0,008
-588,152	574,912	0,054	0,096
-587,138	70,926	0,103	-0,077
-586,123	-102,632	-0,137	0,023
-585,109	-102,756	-0,128	-0,022
-584,094	-200,000	0,009	0,077
-583,079	-20,269	0,143	-0,063
-582,065	83,999	-0,081	0,063
-581,050	800,000	0,053	0,113
-580,036	-200,000	-0,025	0,107
-579,021	-200,000	0,059	-0,206
-578,006	394,070	-0,058	-0,087
-576,992	122,260	-0,131	-0,118
-575,977	-128,419	-0,166	0,017
-574,963	673,849	0,053	0,100
-573,948	-46,436	0,085	0,030
-572,934	-200,000	0,010	0,073
-571,919	66,922	-0,180	-0,132
-570,904	362,356	0,071	-0,103
-569,890	-112,207	-0,135	0,019
-568,875	490,496	-0,027	0,044
-567,861	-43,926	0,256	0,092
-566,846	800,000	0,033	0,072
-565,831	14,956	-0,048	0,027
-564,817	-200,000	0,013	-0,109
-563,802	-200,000	0,017	-0,072
-562,788	74,141	-0,088	0,066
-561,773	-200,000	-0,007	0,163
-560,758	-106,908	0,118	0,019
-559,744	199,134	0,092	0,102
-558,729	-200,000	0,004	0,046
-557,715	310,297	-0,081	-0,109
-556,700	-135,367	0,038	-0,003
-555,685	486,836	0,031	-0,050
-554,671	-14,634	-0,041	0,019
-553,656	-15,375	0,104	-0,048
-552,642	-21,102	-0,040	-0,018
-551,627	39,126	-0,089	-0,057
-550,612	761,569	-0,065	0,127
-549,598	-112,059	-0,095	-0,014
-548,583	800,000	-0,021	0,054
-547,569	97,952	-0,040	-0,033
-546,554	800,000	0,038	0,086
-545,539	-120,960	-0,063	0,007
-544,525	244,687	0,097	0,118
-543,510	-37,038	0,021	-0,008
-542,496	77,530	0,059	0,045
-541,481	-48,108	-0,081	-0,028
-540,466	800,000	-0,057	-0,133
-539,452	-200,000	0,002	0,056
-538,437	82,045	0,109	-0,085
-537,423	4,700	0,121	0,064
-536,408	62,764	-0,042	0,030
-535,393	140,993	0,103	0,098
-534,379	-70,864	-0,133	0,036
-533,364	-109,180	-0,135	0,020
-532,350	-88,146	-0,078	0,017
-531,335	222,498	0,084	0,098
-530,321	-49,745	-0,096	0,033
-529,306	-200,000	0,033	0,117
-528,291	-200,000	0,005	-0,035
-527,277	17,824	-0,087	-0,050
-526,262	800,000	0,023	-0,063
-525,248	582,428	0,026	-0,047
-524,233	361,735	-0,072	-0,105
-523,218	-164,897	0,135	-0,004
-522,204	-15,999	0,054	0,025
-521,189	189,287	0,086	0,093
-520,175	-200,000	-0,011	-0,090
-519,160	800,000	-0,050	-0,110
-518,145	315,792	0,052	0,071
-517,131	-200,000	-0,001	0,064
-516,116	-4,214	0,072	0,036
-515,102	-167,164	-0,168	0,005
-514,087	800,000	-0,014	-0,035
-513,072	-37,922	0,111	-0,042
-512,058	800,000	0,027	0,069
-511,043	-157,709	0,099	-0,004
-510,029	19,869	0,105	-0,061
-509,014	-200,000	0,004	0,108
-507,999	-200,000	-0,000	-0,050
-506,985	-200,000	-0,008	-0,184
-505,970	11,248	0,067	-0,037
-504,956	-27,217	-0,079	0,033
-503,941	248,876	-0,030	0,037
-502,926	211,518	-0,054	0,062
-501,912	-52,077	0,073	0,024
-500,897	-200,000	-0,002	-0,101
-499,883	325,463	-0,048	-0,066
-498,868	7,625	0,091	-0,049
-497,853	-100,595	-0,165	-0,029
-496,839	-102,723	-0,037	-0,006
-495,824	87,357	0,049	0,039
-494,810	132,063	0,111	-0,103
-493,795	800,000	0,026	0,080
-492,781	-142,809	0,150	0,010
-491,766	-200,000	-0,037	-0,194
-490,751	800,000	0,011	0,033
-489,737	200,314	-0,010	-0,011
-488,722	-200,000	-0,015	-0,124
-487,708	-87,037	-0,047	0,010
-486,693	-94,461	0,089	-0,017
-485,678	-138,840	-0,111	0,009
-484,664	683,171	-0,033	-0,062
-483,649	800,000	0,020	-0,052
-482,635	408,288	0,073	-0,111
-481,620	128,923	-0,096	0,088
-480,605	-126,912	0,104	-0,011
-479,591	-200,000	-0,018	0,111
-478,576	-10,871	-0,088	-0,042
-477,562	440,460	-0,041	-0,065
-476,547	-34,810	-0,137	-0,053
-475,532	800,000	0,015	-0,041
-474,518	546,637	0,044	-0,076
-473,503	-200,000	0,026	0,126
-472,489	-200,000	0,040	-0,131
-471,474	9,209	0,012	-0,007
-470,459	3,674	-0,023	0,012
-469,445	-133,211	0,065	-0,006
-468,430	21,220	0,093	0,054
-467,416	-45,154	0,169	0,060
-466,401	-76,758	0,108	-0,027
-465,386	-42,479	-0,056	-0,020
-464,372	403,521	0,093	-0,140
-463,357	273,653	-0,058	-0,074
-462,343	-200,000	-0,032	0,121
-461,328	-200,000	-0,001	0,026
-460,313	155,034	0,038	-0,038
-459,299	437,844	-0,012	0,019
-458,284	-46,428	-0,067	0,023
-457,270	27,268	0,051	0,030
-456,255	800,000	0,025	-0,061
-455,241	-166,660	-0,041	0,001
-454,226	113,785	-0,019	0,017
-453,211	-200,000	-0,009	-0,198
-452,197	125,239	0,056	0,051
-451,182	38,293	-0,109	0,070
-450,168	151,846	-0,024	0,024
-449,153	91,081	-0,049	-0,039
-448,138	-200,000	0,016	-0,082
-447,124	201,349	0,071	0,079
-446,109	-77,603	0,127	-0,031
-445,095	800,000	0,007	0,015
-444,080	450,323	-0,036	0,057
-443,065	-200,000	0,024	0,232
-442,051	115,154	-0,113	0,099
-441,036	216,189	0,032	-0,037
-440,022	-147,167	0,074	0,004
-439,007	-200,000	0,000	-0,028
-437,992	213,426	0,028	0,031
-436,978	-200,000	-0,027	0,121
-435,963	-75,109	-0,003	0,001
-434,949	471,666	0,060	-0,098
-433,934	144,206	-0,101	-0,097
-432,919	800,000	-0,038	-0,110
-431,905	-200,000	0,004	0,052
-430,890	44,849	0,024	-0,016
-429,876	-200,000	-0,033	-0,171
-428,861	537,615	-0,081	0,139
-427,846	800,000	0,028	0,075
-426,832	14,504	-0,047	-0,026
-425,817	-152,187	-0,111	-0,006
-424,803	-139,536	-0,110	0,008
-423,788	195,232	-0,046	0,050
-422,773	-200,000	0,015	0,178
-421,759	315,987	0,109	0,148
-420,744	251,400	-0,039	0,047
-419,730	-93,260	-0,041	0,008
-418,715	-100,938	0,058	-0,010
-417,701	39,330	0,091	-0,058
-416,686	800,000	0,041	0,089
-415,671	19,610	0,107	0,062
-414,657	800,000	0,030	-0,090
-413,642	268,262	0,069	0,087
-412,628	-61,382	0,036	-0,011
-411,613	-143,875	-0,113	-0,008
-410,598	-63,999	-0,168	0,049
-409,584	-200,000	0,000	0,019
-408,569	-200,000	-0,017	0,089
-407,555	263,858	0,088	0,110
-406,540	758,032	-0,061	0,120
-405,525	130,559	-0,029	0,027
-404,511	192,576	-0,035	0,037
-403,496	-200,000	-0,033	-0,208
-402,482	-93,144	0,083	-0,016
-401,467	161,271	0,075	0,075
-400,452	-6,668	0,071	0,035
-399,438	61,070	0,075	0,053
-398,423	-200,000	0,012	0,107
-397,409	-52,408	0,080	0,026
-396,394	-200,000	0,001	-0,145
-395,379	285,789	0,074	-0,095
-394,365	-200,000	-0,006	0,164
-393,350	648,468	0,001	-0,003
-392,336	-141,562	0,102	0,007
-391,321	800,000	0,042	-0,131
-390,306	30,223	-0,073	0,045
-389,292	-136,311	0,041	0,003
-388,277	-200,000	-0,000	0,058
-387,263	-130,960	0,088	-0,008
-386,248	-28,320	0,137	0,056
-385,233	-123,260	0,067	0,008
-384,219	209,701	-0,052	0,058
-383,204	-93,122	-0,123	-0,024
-382,190	-200,000	-0,034	-0,114
-381,175	-200,000	0,016	-0,081
-380,160	-38,001	0,133	0,050
-379,146	4,499	0,093	-0,049
-378,131	-132,111	0,141	-0,013
-377,117	237,331	-0,080	0,095
-376,102	82,674	0,023	0,018
-375,088	79,458	0,127	-0,097
-374,073	104,508	-0,030	-0,026
-373,058	-38,601	0,114	0,043
-372,044	-84,999	-0,082	0,018
-371,029	395,792	0,056	-0,084
-370,015	-200,000	-0,009	0,085
-369,000	-28,929	-0,058	-0,024
-367,985	-4,944	0,131	-0,064
-366,971	-167,975	0,147	0,004
-365,956	240,713	-0,036	0,043
-364,942	106,310	-0,094	0,080
-363,927	-60,702	0,228	0,069
-362,912	311,913	0,031	-0,042
-361,898	66,029	-0,101	-0,073
-360,883	123,891	0,079	-0,071
-359,869	800,000	-0,055	0,117
-358,854	256,485	0,057	0,070
-357,839	800,000	0,047	0,095
-356,825	-59,263	-0,088	0,027
-355,810	547,677	0,028	-0,049
-354,796	181,692	0,034	0,035
-353,781	800,000	-0,075	-0,160
-352,766	249,415	-0,052	-0,063
-351,752	-7,514	-0,097	-0,047
-350,737	65,512	0,090	0,065
-349,723	515,638	-0,053	0,088
-348,708	-121,739	-0,137	0,016
-347,693	-200,000	0,021	-0,081
-346,679	800,000	-0,048	-0,104
-345,664	177,671	0,036	0,038
-344,650	-31,954	0,075	-0,030
-343,635	2,588	-0,058	0,030
-342,620	-18,028	0,143	-0,064
-341,606	-20,371	-0,189	0,083
-340,591	-5,293	0,066	0,032
-339,577	-45,742	0,069	-0,024
-338,562	36,045	-0,041	-0,026
-337,548	-105,233	0,148	-0,024
-336,533	800,000	-0,019	0,042
-335,518	-113,748	-0,078	-0,011
-334,504	-200,000	-0,031	0,102
-333,489	115,332	-0,128	-0,112
-332,475	-27,987	-0,078	-0,032
-331,460	160,557	-0,067	0,067
-330,445	-200,000	0,001	-0,004
-329,431	90,396	-0,045	-0,036
-328,416	-18,080	0,085	0,038
-327,402	167,069	-0,144	0,146
-326,387	-200,000	0,007	0,049
-325,372	463,289	0,028	-0,046
-324,358	189,566	-0,138	0,148
-323,343	10,047	-0,019	-0,010
-322,329	326,961	0,043	0,058
-321,314	-200,000	-0,002	-0,020
-320,299	82,324	-0,119	0,092
-319,285	19,356	0,062	-0,036
-318,270	-200,000	0,033	-0,127
-317,256	800,000	0,017	-0,054
-316,241	587,101	0,060	0,106
-315,226	-28,164	0,123	0,050
-314,212	-119,995	0,152	-0,018
-313,197	64,259	0,150	0,108
-312,183	490,860	-0,016	0,026
-311,168	-200,000	0,019	0,095
-310,153	-200,000	-0,004	0,020
-309,139	-200,000	0,046	-0,160
-308,124	-25,715	0,025	-0,011
-307,110	-200,000	0,004	-0,117
-306,095	-200,000	-0,005	0,165
-305,080	-24,121	0,081	-0,034
-304,066	-151,299	-0,125	-0,007
-303,051	283,603	0,030	0,039
-302,037	-46,997	-0,067	-0,023
-301,022	79,618	-0,046	-0,035
-300,008	-46,892	-0,027	0,009
-298,993	-200,000	0,049	0,195
-297,978	726,670	0,048	0,092
-296,964	-200,000	-0,000	0,120
-295,949	-148,589	-0,071	-0,004
-294,935	800,000	0,034	-0,068
-293,920	-200,000	-0,008	-0,107
-292,905	733,982	-0,054	0,104
-291,891	262,888	0,058	0,072
-290,876	41,742	0,151	-0,098
-289,862	3,575	0,059	0,030
-288,847	184,199	0,037	0,039
-287,832	133,078	0,051	-0,047
-286,818	-116,452	-0,117	-0,015
-285,803	800,000	-0,037	0,086
-284,789	222,337	0,017	-0,019
-283,774	-131,553	-0,103	0,010
-282,759	-137,911	-0,043	-0,003
-281,745	330,534	-0,038	0,053
-280,730	800,000	-0,042	-0,090
-279,716	67,262	-0,033	-0,024
-278,701	123,698	0,057	0,051
-277,686	-200,000	-0,033	-0,118
-276,672	301,651	0,010	0,013
-275,657	274,863	0,113	0,143
-274,643	-200,000	0,048	-0,183
-273,628	-164,160	-0,102	0,003
-272,613	-197,089	-0,096	0,000
-271,599	228,462	-0,045	0,053
-270,584	-200,000	0,007	0,109
-269,570	24,304	-0,135	0,079
-268,555	-200,000	0,004	-0,054
-267,540	159,822	0,052	-0,052
-266,526	263,190	-0,016	-0,020
-265,511	800,000	0,020	-0,058
-264,497	16,430	0,126	0,071
-263,482	-41,328	-0,057	0,021
-262,467	-57,236	-0,027	0,009
-261,453	-45,871	-0,142	0,050
-260,438	412,513	-0,055	-0,083
-259,424	-200,000	0,006	0,036
-258,409	800,000	-0,022	-0,052
-257,395	-200,000	0,007	-0,037
-256,380	-200,000	-0,012	-0,130
-255,365	766,803	-0,041	-0,081
-254,351	296,110	-0,051	0,067
-253,336	80,746	0,057	0,044
-252,322	76,593	-0,163	-0,123
-251,307	24,726	-0,119	-0,070
-250,292	18,153	-0,114	0,065
-249,278	-200,000	-0,016	0,094
-248,263	-129,726	0,101	0,010
-247,249	-200,000	0,005	-0,037
-246,234	-87,776	-0,034	0,007
-245,219	-2,444	-0,156	-0,078
-244,205	174,645	-0,117	0,121
-243,190	800,000	-0,012	-0,035
-242,176	-200,000	-0,039	0,148
-241,161	800,000	-0,027	-0,081
-240,146	-158,900	-0,092	0,004
-239,132	800,000	-0,022	-0,047
-238,117	-42,926	-0,182	-0,065
-237,103	187,467	-0,048	0,051
-236,088	-37,266	0,070	-0,026
-235,073	-200,000	0,017	-0,107
-234,059	-48,752	-0,161	0,055
-233,044	-200,000	-0,005	-0,033
-232,030	179,236	-0,114	0,119
-231,015	462,413	-0,050	0,079
-230,000	170,830	0,086	-0,088
-228,986	-200,000	0,033	-0,126
-227,971	-200,000	-0,014	0,063
-226,957	-132,420	-0,126	0,011
-225,942	98,928	0,096	0,079
-224,927	-132,048	-0,072	-0,007
-223,913	392,747	-0,041	-0,061
-222,898	-103,552	-0,130	0,021
-221,884	-122,873	0,074	-0,008
-220,869	534,045	0,067	0,113
-219,855	-70,495	0,136	-0,036
-218,840	-55,410	-0,023	-0,007
-217,825	50,972	0,088	0,059
-216,811	-128,248	0,093	0,009
-215,796	60,990	0,068	0,048
-214,782	-113,628	-0,099	0,014
-213,767	-164,667	0,141	-0,004
-212,752	-154,380	0,135	-0,006
-211,738	-200,000	-0,001	-0,052
-210,723	-142,534	0,105	-0,007
-209,709	-200,000	0,010	-0,128
-208,694	328,605	-0,037	-0,051
-207,679	-7,172	-0,084	0,040
-206,665	61,006	0,118	0,083
-205,650	223,345	0,050	0,057
-204,636	-200,000	0,042	0,179
-203,621	-200,000	-0,005	0,017
-202,606	-139,401	0,019	0,001
-201,592	7,724	-0,116	-0,061
-200,577	117,370	0,002	-0,002
-199,563	-200,000	0,009	0,056
-198,548	-137,614	-0,120	0,009
-197,533	245,912	-0,045	0,054
-196,519	257,563	0,069	0,085
-195,504	342,780	-0,093	-0,129
-194,490	-68,258	-0,130	-0,036
-193,475	800,000	-0,021	-0,045
-192,460	524,010	-0,048	-0,080
-191,446	800,000	-0,045	-0,101
-190,431	672,461	0,023	0,043
-189,417	-71,636	-0,092	-0,024
-188,402	-9,270	-0,066	-0,031
-187,387	800,000	0,045	-0,103
-186,373	-200,000	-0,032	-0,131
-185,358	800,000	0,028	-0,064
-184,344	520,114	0,040	0,067
-183,329	-104,978	0,035	0,006
-182,315	2,580	0,196	0,101
-181,300	800,000	0,004	0,011
-180,285	-19,967	-0,162	-0,071
-179,271	54,505	0,078	-0,053
-178,256	234,616	-0,063	0,074
-177,242	800,000	0,062	0,126
-176,227	56,290	0,097	-0,067
-175,212	16,346	0,069	-0,039
-174,198	524,772	-0,056	-0,093
-173,183	-200,000	0,005	-0,084
-172,169	42,322	-0,108	-0,070
-171,154	51,546	0,092	-0,062
-170,139	49,141	0,068	0,046
-169,125	122,957	-0,046	0,041
-168,110	360,812	0,073	0,104
-167,096	-141,672	0,072	0,005
-166,081	477,538	-0,040	0,065
-165,066	75,109	-0,112	-0,083
-164,052	0,372	-0,084	-0,042
-163,037	-70,152	0,171	-0,046
-162,023	151,828	-0,134	-0,129
-161,008	17,369	0,165	0,093
-159,993	-10,531	-0,085	-0,040
-158,979	202,761	0,066	-0,072
-157,964	-200,000	-0,001	0,076
-156,950	107,827	0,060	0,050
-155,935	-90,360	0,079	-0,016
-154,920	147,526	-0,028	0,027
-153,906	33,670	-0,006	0,004
-152,891	-70,593	0,049	-0,013
-151,877	344,090	-0,066	0,092
-150,862	-2,700	-0,072	-0,036
-149,847	63,027	-0,098	0,069
-148,833	-200,000	-0,028	0,175
-147,818	-115,142	0,134	0,018
-146,804	800,000	-0,078	0,163
-145,789	388,409	-0,040	-0,059
-144,775	87,841	-0,051	-0,040
-143,760	800,000	-0,041	-0,091
-142,745	-34,334	0,084	-0,033
-141,731	-143,960	0,062	0,004
-140,716	273,075	0,042	-0,052
-139,702	120,797	-0,037	-0,033
-138,687	315,976	-0,072	0,097
-137,672	-200,000	0,004	0,060
-136,658	800,000	0,034	-0,087
-135,643	-200,000	0,008	-0,072
-134,629	-135,135	0,095	-0,008
-133,614	197,474	-0,100	-0,108
-132,599	-142,232	0,117	0,008
-131,585	-200,000	-0,002	0,014
-130,570	-200,000	0,005	0,021
-129,556	800,000	0,009	-0,018
-128,541	-200,000	-0,040	-0,131
-127,526	-166,991	0,116	0,003
-126,512	162,316	0,068	-0,068
-125,497	-200,000	0,015	0,050
-124,483	41,384	-0,095	-0,061
-123,468	275,869	0,086	0,109
-122,453	-126,401	-0,069	0,007
-121,439	-200,000	-0,027	-0,173
-120,424	264,887	-0,070	-0,086
-119,410	369,104	0,008	-0,012
-118,395	-200,000	-0,015	0,055
-117,380	762,356	-0,066	-0,127
-116,366	14,426	0,096	-0,053
-115,351	-107,610	-0,124	-0,019
-114,337	-53,077	-0,094	-0,030
-113,322	-128,872	0,174	0,017
-112,307	421,481	-0,078	-0,119
-111,293	372,562	0,052	0,075
-110,278	37,628	-0,033	0,021
-109,264	-39,510	0,080	-0,030
-108,249	301,030	-0,086	-0,113
-107,234	-200,000	0,008	-0,026
-106,220	-131,446	-0,151	-0,014
-105,205	-200,000	-0,019	-0,143
-104,191	-200,000	-0,007	-0,036
-103,176	-200,000	-0,013	-0,043
-102,162	-24,730	0,077	-0,032
-101,147	74,253	-0,149	-0,110
-100,132	182,234	0,006	-0,006
-99,118	-200,000	-0,005	-0,083
-98,103	149,711	0,058	-0,056
-97,089	800,000	0,032	-0,081
-96,074	800,000	0,053	0,156
-95,059	39,234	-0,042	-0,027
-94,045	800,000	0,042	-0,124
-93,030	-61,392	0,098	0,029
-92,016	379,080	-0,033	-0,047
-91,001	800,000	-0,017	0,039
-89,986	169,696	0,066	0,066
-88,972	-19,964	-0,027	-0,012
-87,957	-75,550	0,104	0,026
-86,943	502,430	0,023	-0,038
-85,928	63,229	-0,086	-0,061
-84,913	47,299	-0,117	-0,077
-83,899	-200,000	-0,018	0,063
-82,884	-140,907	0,105	-0,008
-81,870	494,709	0,094	0,154
-80,855	-176,221	0,056	0,001
-79,840	107,471	-0,034	-0,029
-78,826	141,749	-0,053	-0,050
-77,811	-69,198	-0,139	0,037
-76,797	369,009	-0,056	0,080
-75,782	-10,185	0,099	0,046
-74,767	-149,546	0,158	0,009
-73,753	403,470	0,093	0,139
-72,738	18,428	-0,123	-0,069
-71,724	125,612	-0,134	-0,120
-70,709	-200,000	0,017	-0,124
-69,694	800,000	0,008	-0,017
-68,680	-74,080	-0,044	-0,011
-67,665	-70,113	0,214	0,057
-66,651	145,211	-0,074	0,070
-65,636	-98,742	-0,049	-0,009
-64,622	-126,232	-0,070	-0,007
-63,607	-200,000	0,005	0,058
-62,592	-200,000	0,013	0,144
-61,578	288,324	0,052	0,067
-60,563	-111,423	0,032	0,005
-59,549	800,000	-0,043	0,104
-58,534	4,721	-1,852	-0,959
-57,519	347,816	-1,371	-1,915
-56,505	-200,000	-0,375	-4,404
-55,490	355,423	0,875	1,234
-54,476	800,000	5,046	11,307
-53,461	-200,000	20,466	328,654
-52,446	800,000	752,252	2314,916
-51,432	550,314	1659,543	2823,724
-50,417	74,439	1666,947	1236,795
-49,403	19,621	1540,174	873,263
-48,388	13,570	1462,678	799,980
-47,373	18,926	1452,990	820,432
-46,359	16,483	1442,533	802,836
-45,344	11,868	1438,177	778,353
-44,330	11,822	1436,039	776,945
-43,315	11,812	1434,487	776,026
-42,300	11,794	1432,716	774,950
-41,286	11,852	1431,341	774,453
-40,271	11,789	1430,183	773,495
-39,257	11,814	1428,764	772,815
-38,242	11,795	1427,782	772,167
-37,227	11,753	1426,645	771,321
-36,213	11,808	1425,325	770,836
-35,198	11,806	1424,226	770,201
-34,184	11,896	1423,104	769,992
-33,169	11,840	1421,672	768,920
-32,154	11,804	1420,903	768,302
-31,140	11,878	1419,391	767,803
-30,125	11,922	1418,288	767,385
-29,111	11,897	1417,168	766,633
-28,096	11,838	1416,035	765,709
-27,082	11,842	1414,796	765,031
-26,067	11,756	1414,131	764,234
-25,052	11,794	1412,881	763,706
-24,038	11,795	1411,785	763,087
-23,023	11,773	1410,767	762,403
-22,009	11,753	1409,888	761,807
-20,994	11,755	1409,117	761,370
-19,979	11,748	1408,248	760,838
-18,965	11,765	1407,238	760,338
-17,950	11,719	1406,351	759,616
-16,936	11,750	1405,468	759,254
-15,921	11,691	1404,450	758,396
-14,906	11,711	1403,471	757,932
-13,892	11,645	1402,525	757,084
-12,877	11,685	1401,803	756,848
-11,863	11,712	1400,638	756,319
-10,848	11,647	1399,936	755,606
-9,833	11,624	1399,003	754,965
-8,819	11,625	1398,174	754,492
-7,804	11,533	1397,338	753,583
-6,790	11,606	1396,209	753,286
-5,775	11,563	1395,287	752,557
-4,760	11,620	1394,106	752,153
-3,746	11,609	1393,193	751,582
-2,731	11,596	1392,533	751,135
-1,717	11,526	1391,819	750,398
-0,702	11,572	1389,808	749,494
0,313	15,508	1304,649	721,681
1,327	31,764	696,770	422,614
2,342	49,170	121,451	80,466
3,356	0,966	16,622	8,387
4,371	-3,908	3,407	1,663
5,386	-21,159	0,824	0,354
6,400	-200,000	0,111	0,413
7,415	-120,131	-0,310	-0,037
8,429	150,160	-0,254	-0,243
9,444	784,202	-0,226	-0,439
10,459	-14,513	-0,361	-0,163
11,473	-5,092	-0,343	-0,166
12,488	61,515	-0,211	-0,148
13,502	-133,992	-0,300	-0,026
14,517	180,908	-0,230	-0,239
15,531	41,768	-0,368	-0,235
16,546	6,268	-0,336	-0,175
17,561	174,846	-0,387	-0,395
18,575	-43,675	-0,377	-0,133
19,590	134,054	-0,248	-0,227
20,604	23,445	-0,279	-0,162
21,619	19,493	-0,512	-0,289
22,634	85,808	-0,408	-0,316
23,648	68,224	-0,422	-0,304
24,663	239,169	-0,261	-0,306
25,677	54,833	-0,432	-0,293
26,692	-7,878	-0,311	-0,148
27,707	3,731	-0,434	-0,222
28,721	109,018	-0,381	-0,321
29,736	152,136	-0,297	-0,286
30,750	-34,368	-0,486	-0,187
31,765	-5,566	-0,516	-0,248
32,780	-47,065	-0,324	-0,111
33,794	56,059	-0,338	-0,231
34,809	95,565	-0,267	-0,214
35,823	112,105	-0,350	-0,298
36,838	204,058	-0,328	-0,358
37,853	-12,519	-0,447	-0,205
38,867	136,705	-0,450	-0,413
39,882	77,517	-0,340	-0,254
40,896	14,800	-0,277	-0,152
41,911	-62,284	-0,385	-0,112
42,926	273,287	-0,288	-0,358
43,940	26,702	-0,399	-0,234
44,955	43,281	-0,398	-0,255
45,969	162,542	-0,315	-0,311
46,984	-39,160	-0,371	-0,137
47,999	31,518	-0,365	-0,220
49,013	166,034	-0,304	-0,303
50,028	28,932	-0,324	-0,193
51,042	41,011	-0,288	-0,183
52,057	143,719	-0,383	-0,359
53,071	107,117	-0,279	-0,233
54,086	-52,417	-0,399	-0,129
55,101	85,307	-0,305	-0,235
56,115	-75,097	-0,500	-0,125
57,130	43,918	-0,262	-0,168
58,144	41,899	-0,402	-0,256
59,159	-65,355	-0,486	-0,136
60,174	-23,521	-0,484	-0,203
61,188	98,714	-0,289	-0,234
62,203	-17,606	-0,245	-0,108
63,217	41,984	-0,303	-0,193
64,232	-0,653	-0,457	-0,227
65,247	33,124	-0,370	-0,225
66,261	88,055	-0,312	-0,243
67,276	241,493	-0,317	-0,372
68,290	61,587	-0,377	-0,263
69,305	101,991	-0,148	-0,121
70,320	116,488	-0,354	-0,304
71,334	-68,626	-0,340	-0,092
72,349	281,608	-0,253	-0,318
73,363	61,821	-0,335	-0,234
74,378	147,536	-0,210	-0,199
75,393	20,310	-0,266	-0,150
76,407	-6,167	-0,320	-0,153
77,422	15,216	-0,250	-0,137
78,436	-104,505	-0,324	-0,052
79,451	52,594	-0,231	-0,155
80,466	192,870	-0,243	-0,258
81,480	17,602	-0,233	-0,130
82,495	76,285	-0,225	-0,167
83,509	331,236	-0,272	-0,369
84,524	32,500	-0,226	-0,136
85,539	126,848	-0,234	-0,208
86,553	-40,801	-0,405	-0,146
87,568	-50,656	-0,232	-0,076
88,582	63,124	-0,175	-0,123
89,597	582,667	-0,211	-0,364
90,611	49,730	-0,220	-0,145
91,626	-25,378	-0,285	-0,117
92,641	-65,247	-0,404	-0,113
93,655	-54,172	-0,369	-0,117
94,670	-32,546	-0,265	-0,103
95,684	-99,320	-0,373	-0,065
96,699	800,000	-0,074	-0,180
97,714	47,339	-0,341	-0,222
98,728	34,430	-0,351	-0,214
99,743	239,701	-0,218	-0,254
100,757	188,800	-0,256	-0,269
101,772	200,719	-0,182	-0,196
102,787	166,832	-0,386	-0,383
103,801	77,678	-0,363	-0,270
104,816	111,338	-0,276	-0,233
105,830	327,714	-0,195	-0,262
106,845	60,849	-0,189	-0,131
107,860	243,370	-0,105	-0,124
108,874	-117,850	-0,330	-0,041
109,889	269,202	-0,265	-0,326
110,903	64,407	-0,277	-0,195
111,918	-23,542	-0,260	-0,109
112,933	-3,730	-0,209	-0,101
113,947	26,700	-0,166	-0,097
114,962	-146,520	-0,209	-0,013
115,976	0,011	-0,265	-0,131
116,991	503,438	-0,165	-0,268
118,006	-2,574	-0,369	-0,180
119,020	-39,799	-0,271	-0,098
120,035	272,535	-0,203	-0,251
121,049	-121,744	-0,196	-0,022
122,064	98,798	-0,336	-0,271
123,079	-7,247	-0,199	-0,094
124,093	72,563	-0,282	-0,205
125,108	239,514	-0,229	-0,267
126,122	98,480	-0,175	-0,141
127,137	-5,161	-0,254	-0,122
128,151	73,755	-0,265	-0,194
129,166	-13,204	-0,181	-0,082
130,181	43,907	-0,243	-0,155
131,195	-7,377	-0,349	-0,164
132,210	231,239	-0,218	-0,250
133,224	76,993	-0,239	-0,177
134,239	-17,076	-0,287	-0,126
135,254	25,027	-0,177	-0,102
136,268	21,892	-0,270	-0,153
137,283	-82,077	-0,291	-0,066
138,297	343,782	-0,279	-0,383
139,312	46,796	-0,246	-0,159
140,327	112,939	-0,310	-0,262
141,341	131,181	-0,185	-0,165
142,356	800,000	-0,133	-0,271
143,370	4,281	-0,189	-0,096
144,385	8,868	-0,268	-0,141
145,400	67,493	-0,351	-0,250
146,414	-158,290	-0,321	0,013
147,429	800,000	-0,157	-0,332
148,443	456,764	-0,199	-0,310
149,458	28,553	-0,200	-0,118
150,473	119,253	-0,163	-0,140
151,487	10,896	-0,251	-0,133
152,502	196,211	-0,211	-0,224
153,516	-7,801	-0,340	-0,160
154,531	-200,000	-0,068	-0,281
155,546	93,085	-0,281	-0,221
156,560	201,131	-0,188	-0,202
157,575	-15,710	-0,211	-0,093
158,589	121,651	-0,173	-0,151
159,604	-193,735	-0,131	0,001
160,619	115,472	-0,232	-0,197
161,633	35,119	-0,328	-0,200
162,648	270,314	-0,198	-0,243
163,662	354,486	-0,131	-0,181
164,677	84,064	-0,210	-0,160
165,692	37,923	-0,239	-0,148
166,706	277,812	-0,212	-0,263
167,721	128,513	-0,210	-0,186
168,735	29,474	-0,249	-0,147
169,750	142,661	-0,257	-0,238
170,764	-104,651	-0,193	-0,031
171,779	-125,682	-0,164	-0,017
172,794	-85,226	-0,286	-0,062
173,808	134,809	-0,197	-0,178
174,823	27,382	-0,289	-0,169
175,837	-55,693	-0,214	-0,066
176,852	9,432	-0,240	-0,126
177,867	-94,272	-0,371	-0,070
178,881	110,860	-0,207	-0,173
179,896	800,000	-0,086	-0,230
180,910	102,156	-0,205	-0,166
181,925	209,527	-0,169	-0,185
182,940	102,798	-0,250	-0,203
183,954	-45,792	-0,248	-0,085
184,969	-1,362	-0,227	-0,111
185,983	5,552	-0,283	-0,145
186,998	537,807	-0,094	-0,157
188,013	129,407	-0,214	-0,190
189,027	81,982	-0,226	-0,170
190,042	198,999	-0,256	-0,273
191,056	-200,000	-0,030	-0,176
192,071	137,489	-0,147	-0,134
193,086	95,656	-0,214	-0,170
194,100	278,119	-0,068	-0,085
195,115	78,264	-0,305	-0,226
196,129	270,241	-0,150	-0,184
197,144	566,123	-0,151	-0,256
198,159	-7,127	-0,265	-0,125
199,173	-89,566	-0,216	-0,044
200,188	-24,212	-0,302	-0,124
201,202	46,958	-0,187	-0,120
202,217	-82,379	-0,171	-0,038
203,232	-66,157	-0,332	-0,091
204,246	-39,661	-0,326	-0,118
205,261	89,936	-0,202	-0,157
206,275	126,517	-0,134	-0,118
207,290	215,707	-0,126	-0,139
208,304	-57,437	-0,192	-0,058
209,319	60,024	-0,221	-0,151
210,334	161,379	-0,212	-0,205
211,348	163,092	-0,217	-0,212
212,363	222,765	-0,123	-0,137
213,377	800,000	-0,081	-0,185
214,392	115,922	-0,175	-0,148
215,407	59,803	-0,111	-0,076
216,421	126,569	-0,191	-0,168
217,436	9,050	-0,214	-0,112
218,450	258,603	-0,218	-0,261
219,465	202,382	-0,170	-0,182
220,480	334,645	-0,198	-0,266
221,494	106,545	-0,130	-0,107
222,509	29,085	-0,092	-0,054
223,523	-69,715	-0,114	-0,030
224,538	62,083	-0,120	-0,083
225,553	129,977	-0,272	-0,241
226,567	119,183	-0,153	-0,131
227,582	800,000	-0,085	-0,172
228,596	-200,000	0,005	-0,092
229,611	800,000	-0,039	-0,106
230,626	587,273	-0,075	-0,128
231,640	-93,611	-0,276	-0,052
232,655	800,000	-0,088	-0,174
233,669	3,405	-0,290	-0,146
234,684	53,411	-0,222	-0,147
235,699	153,293	-0,163	-0,155
236,713	-10,667	-0,236	0,107
237,728	29,405	-0,186	-0,109
238,742	72,981	-0,194	-0,140
239,757	91,762	-0,252	-0,196
240,772	559,329	-0,064	-0,108
241,786	174,879	-0,155	-0,155
242,801	101,421	-0,207	-0,167
243,815	175,760	-0,143	-0,144
244,830	50,770	-0,158	-0,103
245,844	-130,635	-0,264	-0,024
246,859	57,505	-0,193	-0,130
247,874	48,944	-0,224	-0,145
248,888	-69,192	-0,178	-0,047
249,903	0,392	-0,225	-0,111
250,917	-55,240	-0,315	-0,097
251,932	424,043	-0,151	-0,224
252,947	35,295	-0,094	-0,057
253,961	-76,809	-0,250	-0,060
254,976	129,157	-0,182	-0,160
255,990	176,638	-0,219	-0,220
257,005	179,033	-0,094	-0,095
258,020	800,000	-0,078	-0,151
259,034	159,405	-0,172	-0,165
260,049	-111,926	-0,199	-0,027
261,063	87,707	-0,166	-0,127
262,078	-33,965	-0,230	-0,087
263,093	-200,000	-0,042	-0,131
264,107	287,636	-0,164	-0,205
265,122	-200,000	-0,007	-0,260
266,136	96,834	-0,152	0,120
267,151	298,334	-0,072	0,091
268,166	202,720	-0,181	-0,194
269,180	-105,473	-0,290	-0,045
270,195	90,569	-0,191	-0,147
271,209	-24,258	-0,196	-0,080
272,224	85,017	-0,033	-0,025
273,239	454,379	-0,123	-0,189
274,253	-200,000	-0,051	-0,164
275,268	288,931	-0,259	-0,325
276,282	105,894	-0,222	-0,181
277,297	46,699	-0,130	-0,083
278,312	86,279	-0,248	-0,188
279,326	36,204	-0,120	-0,072
280,341	-200,000	-0,006	-0,078
281,355	800,000	-0,074	-0,145
282,370	-101,592	-0,241	-0,040
283,384	47,868	-0,311	-0,200
284,399	-53,267	-0,267	-0,084
285,414	154,927	-0,126	-0,119
286,428	-200,000	-0,047	-0,150
287,443	-100,236	-0,120	0,020
288,457	-200,000	0,012	-0,054
289,472	-104,054	-0,281	-0,045
290,487	175,517	-0,190	-0,189
291,501	59,759	-0,097	-0,066
292,516	-14,257	-0,264	-0,117
293,530	336,186	-0,151	-0,202
294,545	215,482	-0,151	-0,165
295,560	468,452	-0,102	-0,158
296,574	439,480	-0,060	-0,091
297,589	800,000	-0,108	-0,251
298,603	629,873	-0,087	-0,152
299,618	90,749	-0,203	-0,157
300,633	153,525	-0,154	-0,145
301,647	9,538	-0,081	0,042
302,662	-102,842	-0,120	-0,019
303,676	-155,141	-0,066	-0,003
304,691	133,827	-0,184	-0,164
305,706	645,510	-0,034	-0,061
306,720	159,303	-0,184	-0,177
307,735	-169,674	-0,111	0,003
308,749	-40,121	-0,091	-0,033
309,764	-90,687	-0,127	-0,025
310,779	183,546	-0,121	-0,124
311,793	409,275	-0,133	-0,194
312,808	-200,000	-0,012	-0,116
313,822	-34,642	-0,139	-0,052
314,837	145,467	-0,184	-0,170
315,852	268,839	-0,091	-0,109
316,866	-200,000	-0,007	-0,063
317,881	-45,548	-0,145	-0,049
318,895	-158,123	-0,132	0,005
319,910	95,864	-0,183	-0,143
320,925	238,551	-0,134	-0,153
321,939	25,377	-0,135	-0,077
322,954	288,706	-0,103	-0,128
323,968	388,726	-0,145	-0,207
324,983	-108,403	-0,092	-0,013
325,997	4,292	-0,167	-0,084
327,012	-89,707	-0,148	0,030
328,027	-96,551	-0,146	-0,026
329,041	270,858	-0,090	-0,109
330,056	291,976	-0,125	-0,157
331,070	89,800	-0,184	-0,141
332,085	-200,000	-0,001	0,048
333,100	-141,069	-0,182	0,013
334,114	285,852	-0,111	-0,138
335,129	101,798	-0,253	-0,202
336,143	240,865	-0,177	-0,203
337,158	198,615	-0,134	-0,140
338,173	-16,306	-0,158	0,068
339,187	-103,143	-0,099	-0,016
340,202	-158,496	-0,164	-0,006
341,216	607,211	-0,089	-0,154
342,231	-7,248	-0,181	-0,084
343,246	-19,909	-0,182	-0,077
344,260	423,894	-0,054	-0,080
345,275	442,647	-0,040	-0,060
346,289	29,082	-0,103	0,060
347,304	-200,000	-0,014	-0,060
348,319	800,000	-0,059	-0,126
349,333	58,304	-0,240	-0,161
350,348	-81,395	-0,066	-0,015
351,362	-53,378	-0,178	-0,056
352,377	-77,971	-0,101	-0,024
353,392	32,698	-0,230	-0,136
354,406	-105,586	-0,230	-0,035
355,421	207,988	1311,827	1404,825
356,435	160,022	1472,193	1405,326
