DTS Sentinel unit serial number:	SN410029Multiplexer serial number:	ORYXHardware model number:	OX2-SRSoftware version number:	ORYX F/W v4,00 Oryx Data Collector v3.7.2.0data status	okinstallation	B3 Nyhavnadifferential loss correction	single-endedforward channel	channel 1reverse channel	N/Adate	2023/12/02time	09:52:30forward acquisition time	300,00reverse acquisition time	0,00gamma	499,1914k internal	0,3196k external	0,3196temperature offset calibration	1,0000default loss term (dB/km)	0,3820temperature slope calibration	1,0000multiplexer offset coefficient	1,0000multiplexer slope coefficient	1,0000fibre end	0,00T internal ref (°C)	14,87T ext. ref 1 (°C)	-0,86T ext. ref 2 (°C)	-0,88length (m)	temperature (°C)	Stokes	anti-Stokes-744,400	172,067	-0,208	-0,218
-743,385	-200,000	0,047	0,369
-742,371	95,454	-0,314	-0,261
-741,356	224,996	0,144	0,170
-740,342	423,721	-0,087	-0,137
-739,327	-200,000	-0,028	0,373
-738,312	-12,685	-0,240	-0,114
-737,298	-200,000	-0,079	0,257
-736,283	396,937	-0,125	-0,192
-735,269	800,000	0,146	0,418
-734,254	681,823	-0,108	-0,207
-733,239	111,721	-0,046	0,040
-732,225	130,850	-0,091	-0,085
-731,210	-200,000	-0,032	0,174
-730,196	456,570	-0,061	0,099
-729,181	281,840	0,063	0,082
-728,167	36,437	-0,029	0,018
-727,152	403,392	0,018	0,028
-726,137	-98,527	0,065	-0,012
-725,123	800,000	-0,029	-0,073
-724,108	800,000	-0,071	-0,155
-723,094	-149,231	-0,232	-0,013
-722,079	12,024	0,096	-0,054
-721,064	-1,780	-0,056	-0,029
-720,050	251,768	-0,069	0,086
-719,035	336,653	0,086	0,122
-718,021	-200,000	0,008	0,164
-717,006	-100,428	-0,100	0,018
-715,991	21,758	-0,142	-0,084
-714,977	21,707	-0,180	0,106
-713,962	357,527	0,042	-0,062
-712,948	691,483	0,067	0,129
-711,933	-73,180	0,045	-0,012
-710,918	199,844	-0,045	0,050
-709,904	9,938	0,133	-0,073
-708,889	156,740	-0,081	-0,082
-707,875	-200,000	-0,005	-0,092
-706,860	-39,109	0,013	-0,005
-705,845	21,854	0,128	0,076
-704,831	-99,057	-0,085	-0,016
-703,816	169,364	-0,104	-0,108
-702,802	29,065	0,087	0,054
-701,787	-9,189	-0,070	0,034
-700,772	78,225	0,014	-0,011
-699,758	775,111	-0,037	-0,074
-698,743	108,020	0,068	0,059
-697,729	800,000	-0,066	0,157
-696,714	-200,000	0,009	-0,107
-695,699	266,992	-0,051	-0,065
-694,685	404,206	0,080	-0,122
-693,670	-110,117	-0,085	0,013
-692,656	-200,000	-0,016	0,125
-691,641	35,847	-0,076	-0,049
-690,627	-160,682	0,157	0,006
-689,612	526,078	0,080	-0,137
-688,597	-113,271	-0,157	0,022
-687,583	-200,000	-0,004	-0,018
-686,568	35,398	0,021	0,013
-685,554	-57,542	-0,122	-0,039
-684,539	44,878	-0,085	0,057
-683,524	-200,000	-0,003	0,073
-682,510	-200,000	0,015	-0,080
-681,495	224,479	-0,080	0,094
-680,481	-200,000	-0,000	-0,009
-679,466	166,997	-0,076	0,078
-678,451	-200,000	-0,046	0,166
-677,437	-65,708	0,053	-0,015
-676,422	-200,000	0,029	-0,130
-675,408	-50,952	-0,122	-0,041
-674,393	-200,000	0,007	-0,057
-673,378	-102,815	-0,113	0,019
-672,364	195,797	-0,111	-0,123
-671,349	800,000	-0,055	-0,114
-670,335	-156,619	0,086	0,004
-669,320	-42,718	-0,030	0,011
-668,305	-80,894	-0,156	0,037
-667,291	-100,864	-0,053	-0,009
-666,276	622,152	0,035	-0,065
-665,262	-63,429	-0,108	-0,032
-664,247	300,820	0,041	-0,055
-663,232	41,282	-0,089	-0,058
-662,218	-163,199	0,095	0,003
-661,203	800,000	0,048	0,119
-660,189	146,279	-0,051	-0,049
-659,174	32,973	0,128	-0,080
-658,159	-200,000	0,003	-0,151
-657,145	-83,047	-0,074	-0,017
-656,130	86,171	0,097	0,077
-655,116	65,051	0,020	-0,015
-654,101	800,000	0,043	0,108
-653,086	-200,000	0,094	0,000
-652,072	-91,595	0,098	0,020
-651,057	-52,343	-0,132	-0,044
-650,043	800,000	0,011	-0,026
-649,028	-200,000	-0,016	-0,062
-648,014	2,436	0,054	0,028
-646,999	-75,062	0,029	-0,007
-645,984	-99,305	0,045	-0,008
-644,970	337,752	0,043	-0,061
-643,955	184,527	-0,051	0,054
-642,941	-20,477	-0,076	0,034
-641,926	800,000	-0,038	0,091
-640,911	413,542	-0,062	-0,096
-639,897	-128,638	0,126	0,013
-638,882	-34,149	-0,162	-0,064
-637,868	201,775	0,097	0,109
-636,853	212,901	0,077	-0,088
-635,838	-60,220	-0,075	0,023
-634,824	-200,000	-0,012	0,054
-633,809	-200,000	0,014	0,070
-632,795	-200,000	0,005	0,042
-631,780	-114,688	0,101	0,014
-630,765	-200,000	-0,004	0,120
-629,751	19,727	0,071	-0,042
-628,736	146,051	-0,106	-0,103
-627,722	41,920	0,085	0,056
-626,707	0,346	-0,153	-0,079
-625,692	-18,338	0,144	0,065
-624,678	800,000	-0,049	-0,131
-623,663	-72,031	-0,039	-0,011
-622,649	-200,000	0,014	-0,047
-621,634	714,346	-0,060	-0,115
-620,619	800,000	-0,044	-0,129
-619,605	800,000	-0,078	-0,164
-618,590	592,769	-0,015	0,027
-617,576	132,351	0,141	0,132
-616,561	-132,515	0,054	-0,005
-615,546	18,182	-0,079	-0,045
-614,532	165,180	0,110	0,112
-613,517	-200,000	-0,009	-0,089
-612,503	147,267	-0,160	0,156
-611,488	-163,114	0,102	0,003
-610,474	-200,000	-0,012	-0,054
-609,459	-70,705	-0,114	-0,031
-608,444	-38,859	0,100	0,038
-607,430	-200,000	-0,027	-0,088
-606,415	-200,000	0,001	-0,077
-605,401	676,580	0,092	-0,174
-604,386	237,096	-0,106	0,127
-603,371	-6,565	0,087	0,043
-602,357	436,009	-0,033	-0,052
-601,342	93,591	-0,135	-0,111
-600,328	-200,000	-0,002	-0,071
-599,313	-133,094	-0,059	-0,005
-598,298	-33,040	0,254	-0,102
-597,284	150,491	-0,101	-0,100
-596,269	-69,047	0,122	0,034
-595,255	-43,733	0,074	0,027
-594,240	31,418	-0,145	-0,090
-593,225	-85,610	-0,083	0,019
-592,211	-200,000	-0,021	-0,090
-591,196	-51,712	-0,070	0,023
-590,182	-78,576	0,062	-0,015
-589,167	-143,880	0,035	-0,002
-588,152	7,312	0,029	-0,016
-587,138	-80,837	0,081	-0,019
-586,123	591,027	-0,063	0,113
-585,109	-8,792	-0,109	0,053
-584,094	105,672	-0,121	-0,104
-583,079	109,274	-0,025	0,022
-582,065	229,382	0,045	-0,054
-581,050	608,357	-0,036	0,065
-580,036	70,201	-0,050	0,037
-579,021	800,000	-0,039	-0,085
-578,006	327,934	-0,044	0,061
-576,992	204,763	-0,066	0,074
-575,977	558,678	0,035	0,062
-574,963	-139,476	0,066	-0,005
-573,948	-131,194	0,016	0,002
-572,934	-200,000	-0,000	0,082
-571,919	-200,000	-0,072	-0,245
-570,904	183,209	0,060	-0,065
-569,890	-71,145	-0,105	-0,028
-568,875	484,465	0,120	0,198
-567,861	-140,935	0,080	0,006
-566,846	-139,089	-0,027	0,002
-565,831	536,085	0,050	-0,085
-564,817	-76,918	0,010	0,002
-563,802	203,124	-0,091	-0,102
-562,788	-200,000	-0,003	-0,027
-561,773	-80,781	0,069	-0,016
-560,758	-4,871	0,138	-0,068
-559,744	-146,962	0,049	-0,003
-558,729	56,255	0,113	-0,079
-557,715	-85,699	-0,069	0,015
-556,700	800,000	0,067	-0,163
-555,685	676,508	-0,026	0,049
-554,671	786,438	-0,017	-0,033
-553,656	-200,000	0,037	-0,122
-552,642	-62,145	0,096	0,029
-551,627	-116,223	0,063	0,008
-550,612	-200,000	0,008	0,080
-549,598	479,081	-0,051	-0,083
-548,583	-200,000	0,000	0,067
-547,569	111,849	-0,035	0,031
-546,554	-104,551	-0,062	-0,010
-545,539	129,288	0,105	0,097
-544,525	-200,000	0,002	-0,035
-543,510	107,565	-0,103	0,089
-542,496	25,648	-0,113	0,068
-541,481	-20,127	-0,127	-0,056
-540,466	59,379	0,102	0,073
-539,452	-103,623	0,152	-0,026
-538,437	-200,000	-0,004	0,053
-537,423	175,373	-0,128	0,135
-536,408	555,281	0,074	0,130
-535,393	-200,000	0,000	-0,041
-534,379	-131,576	-0,063	-0,006
-533,364	-200,000	-0,002	0,049
-532,350	112,991	0,088	-0,077
-531,335	-7,740	0,115	-0,056
-530,321	-200,000	0,039	0,243
-529,306	-6,948	0,106	0,052
-528,291	-172,811	-0,202	0,004
-527,277	800,000	0,014	0,040
-526,262	-53,545	-0,075	-0,025
-525,248	-33,664	0,125	-0,050
-524,233	800,000	0,043	-0,133
-523,218	328,809	0,054	0,075
-522,204	40,227	0,011	0,007
-521,189	-63,106	-0,184	-0,054
-520,175	208,259	-0,082	0,092
-519,160	-4,867	0,095	-0,047
-518,145	13,823	0,080	0,045
-517,131	800,000	-0,033	0,076
-516,116	-200,000	0,012	0,111
-515,102	-57,697	-0,102	-0,032
-514,087	74,013	-0,066	0,050
-513,072	-11,716	-0,044	-0,021
-512,058	-200,000	-0,016	-0,120
-511,043	26,418	0,034	-0,020
-510,029	-200,000	0,002	0,053
-509,014	-50,618	0,071	-0,024
-507,999	800,000	0,010	0,026
-506,985	-122,488	0,140	0,016
-505,970	-159,625	-0,127	0,005
-504,956	-200,000	-0,007	-0,108
-503,941	25,650	0,028	0,017
-502,926	-200,000	-0,035	-0,165
-501,912	-34,651	0,041	-0,016
-500,897	-25,445	-0,082	0,035
-499,883	-200,000	0,016	-0,080
-498,868	208,340	-0,083	-0,094
-497,853	800,000	0,027	0,082
-496,839	800,000	0,033	-0,078
-495,824	114,090	-0,082	-0,072
-494,810	201,754	0,091	0,101
-493,795	326,511	-0,085	-0,118
-492,781	488,541	-0,053	-0,088
-491,766	-200,000	-0,007	0,128
-490,751	-117,036	-0,113	0,015
-489,737	-121,068	-0,167	-0,020
-488,722	52,547	-0,035	0,024
-487,708	-26,792	0,112	-0,047
-486,693	-130,405	-0,077	-0,007
-485,678	-200,000	-0,016	-0,090
-484,664	-200,000	-0,002	-0,037
-483,649	-161,634	-0,117	0,004
-482,635	96,510	0,190	0,157
-481,620	585,233	0,053	0,094
-480,605	-45,483	0,106	0,038
-479,591	-12,848	-0,043	0,020
-478,576	214,869	0,091	0,104
-477,562	62,331	-0,039	0,028
-476,547	-52,037	-0,079	-0,026
-475,532	-153,913	0,124	-0,006
-474,518	109,725	-0,077	0,066
-473,503	196,396	-0,028	0,031
-472,489	53,665	-0,045	-0,031
-471,474	-200,000	-0,021	0,154
-470,459	408,740	-0,078	-0,119
-469,445	-43,655	-0,142	-0,051
-468,430	254,024	-0,063	-0,078
-467,416	170,866	0,043	0,045
-466,401	-120,165	-0,116	-0,014
-465,386	-200,000	0,047	0,167
-464,372	-200,000	-0,007	0,152
-463,357	103,418	-0,019	-0,016
-462,343	800,000	-0,019	0,054
-461,328	-200,000	-0,042	-0,144
-460,313	800,000	0,043	0,116
-459,299	800,000	0,063	0,132
-458,284	-200,000	0,055	0,183
-457,270	-200,000	0,021	0,067
-456,255	800,000	-0,056	0,122
-455,241	-200,000	-0,008	-0,110
-454,226	-69,039	-0,063	0,017
-453,211	800,000	0,040	0,088
-452,197	-67,453	-0,083	0,023
-451,182	119,995	0,107	0,095
-450,168	800,000	0,033	-0,093
-449,153	-200,000	0,016	-0,057
-448,138	-200,000	0,005	-0,147
-447,124	-200,000	0,000	0,090
-446,109	800,000	-0,035	-0,105
-445,095	-200,000	0,013	-0,174
-444,080	-200,000	0,007	-0,038
-443,065	-109,735	-0,101	-0,015
-442,051	17,763	-0,057	0,033
-441,036	-41,451	0,033	-0,012
-440,022	-157,165	0,140	-0,006
-439,007	139,779	0,036	-0,034
-437,992	-200,000	0,006	0,047
-436,978	-200,000	0,022	0,093
-435,963	171,431	0,014	-0,014
-434,949	-75,131	-0,205	0,052
-433,934	21,463	-0,147	0,086
-432,919	9,799	-0,026	0,014
-431,905	367,402	0,041	-0,060
-430,890	348,405	-0,046	-0,065
-429,876	88,345	0,131	0,105
-428,861	800,000	0,027	0,054
-427,846	800,000	0,034	0,075
-426,832	201,882	-0,072	0,080
-425,817	624,232	-0,057	-0,103
-424,803	257,538	0,058	0,072
-423,788	800,000	-0,020	0,063
-422,773	800,000	0,024	-0,058
-421,759	-25,039	0,139	0,059
-420,744	-200,000	-0,021	0,099
-419,730	800,000	-0,005	-0,009
-418,715	474,323	-0,043	0,070
-417,701	800,000	0,048	0,142
-416,686	-200,000	-0,021	0,125
-415,671	-105,736	0,154	-0,025
-414,657	-120,830	0,090	-0,011
-413,642	8,035	-0,124	0,066
-412,628	9,074	0,081	-0,044
-411,613	128,707	0,096	0,088
-410,598	-200,000	-0,003	0,023
-409,584	-200,000	0,018	-0,071
-408,569	17,247	0,073	-0,041
-407,555	88,638	0,022	0,018
-406,540	280,211	0,035	0,046
-405,525	-74,749	-0,121	0,031
-404,511	-200,000	-0,041	0,137
-403,496	-200,000	0,005	0,019
-402,482	372,766	0,035	0,051
-401,467	800,000	0,072	0,156
-400,452	111,138	0,080	0,069
-399,438	-200,000	-0,006	0,052
-398,423	-27,340	-0,034	-0,014
-397,409	-80,111	-0,048	0,011
-396,394	-19,726	-0,031	-0,014
-395,379	-37,159	0,058	0,022
-394,365	-170,662	0,145	-0,004
-393,350	227,060	0,015	0,017
-392,336	401,962	0,058	0,087
-391,321	-200,000	0,010	-0,059
-390,306	-65,955	-0,030	0,009
-389,292	-200,000	-0,003	-0,052
-388,277	-71,898	0,108	0,029
-387,263	85,181	0,045	-0,035
-386,248	-58,857	0,111	0,034
-385,233	800,000	-0,051	0,103
-384,219	-200,000	-0,009	-0,173
-383,204	-84,158	0,051	-0,012
-382,190	7,154	-0,150	-0,080
-381,175	104,805	0,106	0,090
-380,160	-200,000	0,049	0,189
-379,146	-200,000	-0,007	-0,030
-378,131	800,000	0,035	-0,076
-377,117	78,656	0,047	-0,036
-376,102	-26,325	-0,084	-0,035
-375,088	708,352	0,080	-0,152
-374,073	34,979	-0,131	-0,082
-373,058	194,160	-0,084	-0,092
-372,044	-200,000	-0,015	-0,096
-371,029	800,000	-0,042	-0,118
-370,015	125,735	0,078	0,071
-369,000	800,000	-0,033	0,089
-367,985	-79,678	-0,053	-0,013
-366,971	-71,658	0,081	-0,022
-365,956	-200,000	-0,028	0,117
-364,942	196,863	0,126	-0,138
-363,927	-32,096	0,152	0,061
-362,912	58,286	0,088	0,062
-361,898	-200,000	-0,005	-0,027
-360,883	378,253	0,025	-0,036
-359,869	800,000	-0,014	0,038
-358,854	183,603	-0,040	-0,042
-357,839	590,989	-0,091	0,162
-356,825	84,115	0,176	0,138
-355,810	259,066	-0,088	0,109
-354,796	314,546	-0,015	0,020
-353,781	-200,000	0,018	-0,159
-352,766	-16,324	-0,056	-0,026
-351,752	34,770	0,056	0,035
-350,737	800,000	-0,025	-0,060
-349,723	-22,055	0,096	-0,041
-348,708	-200,000	0,006	0,167
-347,693	-200,000	0,024	-0,084
-346,679	-200,000	0,006	-0,083
-345,664	-75,661	-0,090	0,023
-344,650	-58,501	-0,090	-0,028
-343,635	105,852	0,097	-0,083
-342,620	-55,489	0,139	-0,045
-341,606	-200,000	-0,008	0,050
-340,591	-35,429	-0,117	-0,045
-339,577	-2,316	-0,089	0,045
-338,562	128,194	-0,079	-0,072
-337,548	800,000	-0,034	-0,082
-336,533	-200,000	0,014	-0,086
-335,518	-51,644	0,078	0,026
-334,504	-48,452	-0,080	-0,028
-333,489	-111,290	0,180	-0,026
-332,475	148,756	0,013	-0,012
-331,460	47,460	-0,120	-0,080
-330,445	-68,882	0,137	-0,038
-329,431	122,667	0,052	-0,047
-328,416	-131,033	0,084	0,008
-327,402	696,873	-0,063	0,120
-326,387	-200,000	0,006	-0,108
-325,372	190,350	-0,057	-0,062
-324,358	37,958	0,093	0,059
-323,343	40,261	-0,077	-0,049
-322,329	412,035	0,054	0,082
-321,314	487,935	0,147	0,241
-320,299	-16,108	0,037	-0,017
-319,285	-138,217	0,040	0,003
-318,270	-19,061	-0,125	-0,055
-317,256	107,736	0,068	0,058
-316,241	-200,000	0,008	-0,046
-315,226	-119,230	-0,038	-0,005
-314,212	-200,000	-0,048	0,157
-313,197	177,037	0,083	0,087
-312,183	324,897	0,063	0,087
-311,168	129,712	-0,147	-0,135
-310,153	800,000	-0,057	-0,167
-309,139	-200,000	0,017	-0,061
-308,124	367,281	-0,107	0,156
-307,110	-126,134	0,093	-0,010
-306,095	800,000	0,024	-0,070
-305,080	800,000	-0,068	-0,146
-304,066	-179,941	-0,017	0,000
-303,051	-200,000	-0,001	-0,043
-302,037	-200,000	0,009	-0,076
-301,022	-200,000	0,008	-0,034
-300,008	-200,000	0,007	0,094
-298,993	70,485	-0,101	0,075
-297,978	677,433	0,025	0,047
-296,964	212,519	0,074	-0,084
-295,949	-127,447	-0,069	-0,007
-294,935	-200,000	0,011	0,040
-293,920	148,246	0,048	0,047
-292,905	-62,279	0,039	0,011
-291,891	-160,383	0,067	0,003
-290,876	-84,823	-0,108	-0,024
-289,862	-200,000	0,017	-0,070
-288,847	-108,486	-0,076	-0,012
-287,832	-27,031	0,066	0,028
-286,818	14,084	0,133	0,074
-285,803	800,000	-0,025	-0,070
-284,789	800,000	-0,064	-0,180
-283,774	-200,000	0,045	0,142
-282,759	0,523	-0,094	0,048
-281,745	-67,946	-0,122	-0,034
-280,730	525,827	0,064	0,108
-279,716	-200,000	-0,031	0,101
-278,701	-38,834	-0,047	0,018
-277,686	-200,000	0,011	-0,082
-276,672	73,899	0,108	0,081
-275,657	-189,237	0,113	-0,001
-274,643	-83,416	0,041	0,009
-273,628	190,498	-0,038	0,041
-272,613	-39,090	0,085	-0,032
-271,599	-200,000	-0,004	-0,036
-270,584	-146,009	-0,101	0,006
-269,570	-90,586	-0,039	0,008
-268,555	-64,758	-0,134	-0,038
-267,540	-48,183	-0,138	-0,047
-266,526	800,000	0,016	-0,043
-265,511	-200,000	0,030	-0,137
-264,497	6,895	0,076	-0,041
-263,482	-12,468	0,053	-0,024
-262,467	800,000	-0,025	-0,054
-261,453	19,237	0,082	0,047
-260,438	-22,587	-0,001	-0,001
-259,424	-200,000	-0,037	0,219
-258,409	-200,000	0,005	-0,040
-257,395	-55,545	-0,126	0,040
-256,380	-200,000	0,024	-0,100
-255,365	-200,000	-0,015	0,233
-254,351	-200,000	0,023	0,084
-253,336	800,000	-0,037	0,098
-252,322	74,102	-0,152	-0,114
-251,307	-200,000	0,018	-0,094
-250,292	86,043	0,035	0,027
-249,278	-200,000	0,025	0,141
-248,263	800,000	-0,057	-0,161
-247,249	32,776	-0,168	0,104
-246,234	240,025	0,055	-0,066
-245,219	90,821	0,014	-0,011
-244,205	-19,365	0,102	0,045
-243,190	97,578	0,057	-0,047
-242,176	290,804	-0,058	0,075
-241,161	158,189	0,049	0,049
-240,146	-115,338	0,035	-0,005
-239,132	394,539	-0,045	0,067
-238,117	800,000	-0,058	-0,142
-237,103	800,000	0,078	-0,206
-236,088	539,471	0,008	-0,013
-235,073	441,464	0,057	-0,090
-234,059	-200,000	-0,000	0,050
-233,044	-200,000	-0,003	-0,071
-232,030	281,467	-0,040	-0,051
-231,015	800,000	0,070	-0,153
-230,000	-200,000	-0,022	-0,116
-228,986	-84,893	-0,110	-0,024
-227,971	-200,000	0,030	-0,115
-226,957	139,767	0,033	0,031
-225,942	5,454	-0,092	0,048
-224,927	-200,000	0,001	-0,035
-223,913	152,661	-0,070	-0,069
-222,898	-200,000	-0,043	0,173
-221,884	-200,000	0,003	0,135
-220,869	-200,000	0,007	0,064
-219,855	-200,000	-0,020	-0,082
-218,840	329,732	0,040	-0,055
-217,825	-200,000	0,004	-0,084
-216,811	408,135	0,017	-0,026
-215,796	138,770	0,040	-0,037
-214,782	200,108	-0,068	-0,074
-213,767	-200,000	0,003	0,062
-212,752	153,338	0,081	0,079
-211,738	208,574	0,038	-0,042
-210,723	800,000	0,026	0,058
-209,709	155,909	0,128	-0,126
-208,694	-47,568	-0,122	-0,042
-207,679	-200,000	-0,013	-0,089
-206,665	-1,330	-0,068	-0,034
-205,650	-121,947	0,047	-0,005
-204,636	385,155	-0,034	0,050
-203,621	169,111	0,015	0,015
-202,606	800,000	-0,012	0,025
-201,592	-200,000	-0,011	0,048
-200,577	3,689	-0,089	0,046
-199,563	29,204	-0,045	-0,027
-198,548	224,577	-0,030	-0,035
-197,533	101,919	-0,031	-0,026
-196,519	-200,000	-0,003	0,028
-195,504	800,000	-0,037	-0,100
-194,490	189,489	0,017	0,018
-193,475	28,488	-0,080	0,048
-192,460	-200,000	0,003	-0,072
-191,446	472,913	0,023	0,038
-190,431	313,126	0,103	0,139
-189,417	59,177	-0,074	-0,052
-188,402	799,359	-0,032	0,064
-187,387	773,012	0,028	0,054
-186,373	108,559	0,074	0,063
-185,358	-200,000	-0,005	-0,081
-184,344	800,000	0,049	-0,104
-183,329	-200,000	0,024	0,086
-182,315	453,761	-0,018	-0,029
-181,300	-200,000	0,007	-0,073
-180,285	560,513	-0,069	-0,119
-179,271	353,491	-0,144	-0,205
-178,256	73,360	0,060	-0,045
-177,242	252,964	-0,052	-0,063
-176,227	174,472	0,162	0,167
-175,212	800,000	-0,039	0,119
-174,198	-200,000	-0,003	0,044
-173,183	-11,419	0,056	0,026
-172,169	-56,893	0,091	0,029
-171,154	281,220	0,048	-0,061
-170,139	342,388	-0,085	0,119
-169,125	165,848	0,118	0,119
-168,110	-200,000	-0,003	0,145
-167,096	-34,795	-0,099	-0,038
-166,081	-157,777	-0,045	0,002
-165,066	-146,942	-0,147	0,009
-164,052	-200,000	-0,043	0,000
-163,037	-200,000	0,020	-0,124
-162,023	50,011	0,005	0,003
-161,008	-200,000	0,021	0,089
-159,993	-200,000	0,019	-0,144
-158,979	-115,613	-0,066	0,009
-157,964	800,000	0,016	-0,038
-156,950	-200,000	-0,001	-0,020
-155,935	-200,000	0,002	0,016
-154,920	-200,000	0,012	-0,066
-153,906	-200,000	0,003	0,027
-152,891	-86,084	0,035	-0,008
-151,877	-200,000	0,019	0,101
-150,862	237,972	-0,060	-0,071
-149,847	418,542	0,041	-0,062
-148,833	-15,622	-0,083	-0,037
-147,818	-55,095	0,090	0,029
-146,804	-45,211	0,099	-0,035
-145,789	366,494	0,026	0,038
-144,775	80,500	0,051	0,039
-143,760	800,000	0,017	-0,043
-142,745	117,984	0,087	-0,076
-141,731	715,924	-0,028	0,054
-140,716	-44,520	-0,106	-0,038
-139,702	-148,310	0,033	-0,002
-138,687	800,000	0,039	0,118
-137,672	275,040	0,026	-0,033
-136,658	83,891	-0,096	-0,075
-135,643	-200,000	0,044	-0,149
-134,629	-200,000	-0,002	0,028
-133,614	152,173	0,105	0,102
-132,599	-4,955	0,019	0,009
-131,585	-200,000	0,036	0,130
-130,570	-71,179	0,079	-0,021
-129,556	-200,000	-0,023	-0,134
-128,541	795,768	-0,041	-0,081
-127,526	212,883	-0,077	0,087
-126,512	-200,000	-0,037	0,171
-125,497	94,200	0,068	-0,055
-124,483	9,749	-0,119	-0,064
-123,468	800,000	-0,039	-0,096
-122,453	284,575	-0,042	-0,054
-121,439	-127,816	-0,207	-0,021
-120,424	292,317	0,087	0,114
-119,410	326,478	0,082	-0,112
-118,395	-58,724	0,239	-0,073
-117,380	-200,000	-0,007	0,124
-116,366	46,359	0,112	-0,074
-115,351	108,747	0,045	0,038
-114,337	34,042	0,048	-0,030
-113,322	800,000	0,030	0,079
-112,307	-53,220	0,119	0,039
-111,293	-200,000	0,029	0,139
-110,278	-200,000	-0,007	0,134
-109,264	64,362	-0,061	0,043
-108,249	-71,299	-0,066	0,017
-107,234	109,438	-0,128	-0,109
-106,220	-200,000	-0,012	0,056
-105,205	-20,125	0,062	-0,027
-104,191	-116,485	-0,034	0,004
-103,176	-200,000	0,014	0,073
-102,162	15,861	-0,075	0,042
-101,147	-47,942	0,075	0,026
-100,132	-200,000	-0,042	-0,196
-99,118	58,781	-0,086	0,060
-98,103	71,097	-0,066	-0,049
-97,089	800,000	0,033	0,097
-96,074	-200,000	-0,002	0,120
-95,059	403,422	-0,062	0,094
-94,045	-9,596	-0,076	-0,036
-93,030	-97,248	0,140	0,026
-92,016	8,064	-0,128	-0,068
-91,001	-31,814	-0,039	0,015
-89,986	-150,937	-0,005	0,000
-88,972	-64,761	0,091	-0,026
-87,957	-200,000	0,003	-0,052
-86,943	-110,427	0,099	0,014
-85,928	-102,394	-0,061	-0,010
-84,913	-46,105	0,071	-0,025
-83,899	-89,837	-0,055	0,011
-82,884	800,000	-0,101	0,215
-81,870	800,000	0,029	-0,070
-80,855	56,242	0,049	0,033
-79,840	800,000	0,024	-0,052
-78,826	-86,131	-0,157	-0,034
-77,811	-45,406	-0,107	-0,038
-76,797	342,355	-0,030	-0,041
-75,782	800,000	0,037	0,095
-74,767	800,000	0,018	-0,048
-73,753	-200,000	-0,011	0,035
-72,738	-200,000	-0,036	0,125
-71,724	12,002	-0,052	-0,028
-70,709	621,238	-0,137	-0,246
-69,694	500,174	0,043	0,071
-68,680	-200,000	-0,005	0,029
-67,665	-200,000	0,012	0,071
-66,651	-200,000	0,016	-0,089
-65,636	-200,000	0,013	-0,114
-64,622	-200,000	0,005	-0,016
-63,607	485,595	-0,064	-0,103
-62,592	-34,437	0,043	-0,017
-61,578	-36,666	0,065	0,025
-60,563	292,458	0,087	-0,113
-59,549	-142,998	0,098	0,007
-58,534	-36,607	-1,615	-0,613
-57,519	375,982	-1,484	-2,154
-56,505	-200,000	-0,452	-4,386
-55,490	162,900	0,907	0,904
-54,476	800,000	4,814	11,195
-53,461	-200,000	18,256	291,487
-52,446	800,000	728,573	2242,567
-51,432	558,990	1644,759	2826,294
-50,417	79,197	1666,070	1264,819
-49,403	22,779	1539,426	892,019
-48,388	16,718	1462,795	818,206
-47,373	17,969	1452,645	818,530
-46,359	17,291	1443,139	809,892
-45,344	15,004	1438,281	796,197
-44,330	14,931	1436,456	794,810
-43,315	14,946	1434,766	793,914
-42,300	14,934	1433,103	792,903
-41,286	14,985	1431,903	792,454
-40,271	14,954	1430,502	791,500
-39,257	14,933	1429,571	790,852
-38,242	15,008	1428,025	790,319
-37,227	15,011	1426,793	789,622
-36,213	14,980	1425,396	788,671
-35,198	14,949	1424,429	787,957
-34,184	15,019	1423,343	787,659
-33,169	14,943	1422,097	786,579
-32,154	14,970	1421,313	786,239
-31,140	14,970	1419,752	785,347
-30,125	15,011	1418,527	784,829
-29,111	14,990	1417,517	784,139
-28,096	14,953	1416,382	783,305
-27,082	14,919	1415,298	782,515
-26,067	14,921	1414,365	781,978
-25,052	14,893	1413,124	781,132
-24,038	14,935	1411,990	780,669
-23,023	14,849	1411,415	779,918
-22,009	14,855	1410,308	779,305
-20,994	14,822	1409,538	778,690
-19,979	14,870	1408,311	778,209
-18,965	14,856	1407,449	777,635
-17,950	14,830	1406,436	776,924
-16,936	14,854	1405,432	776,449
-15,921	14,800	1404,225	775,498
-14,906	14,798	1403,712	775,174
-13,892	14,814	1402,708	774,664
-12,877	14,825	1401,768	774,170
-11,863	14,799	1400,906	773,541
-10,848	14,816	1399,882	773,021
-9,833	14,764	1399,055	772,291
-8,819	14,741	1398,339	771,759
-7,804	14,684	1397,454	770,976
-6,790	14,708	1396,149	770,337
-5,775	14,705	1395,067	769,697
-4,760	14,717	1394,288	769,291
-3,746	14,730	1393,394	768,828
-2,731	14,709	1392,785	768,362
-1,717	14,683	1391,698	767,615
-0,702	14,712	1389,934	766,746
0,313	18,466	1308,578	739,277
1,327	34,639	706,662	436,762
2,342	52,996	124,584	84,353
3,356	1,337	16,670	8,461
4,371	4,312	3,191	1,652
5,386	-13,315	0,558	0,255
6,400	800,000	-0,036	0,083
7,415	51,780	-0,291	-0,196
8,429	108,464	-0,252	-0,213
9,444	122,550	-0,283	-0,250
10,459	89,062	-0,238	-0,188
11,473	16,459	-0,440	-0,246
12,488	-80,842	-0,287	-0,067
13,502	12,743	-0,357	-0,195
14,517	38,579	-0,308	-0,194
15,531	42,657	-0,255	-0,164
16,546	-12,371	-0,317	-0,146
17,561	76,339	-0,406	-0,304
18,575	-200,000	-0,041	-0,159
19,590	124,621	-0,253	-0,226
20,604	77,183	-0,237	-0,178
21,619	4,929	-0,495	-0,257
22,634	59,845	-0,419	-0,292
23,648	68,106	-0,402	-0,291
24,663	137,825	-0,360	-0,334
25,677	31,886	-0,475	-0,289
26,692	60,655	-0,320	-0,224
27,707	85,294	-0,332	-0,258
28,721	-51,491	-0,403	-0,132
29,736	80,938	-0,292	-0,223
30,750	163,836	-0,449	-0,447
31,765	-13,522	-0,382	-0,174
32,780	426,688	-0,253	-0,387
33,794	122,947	-0,288	-0,255
34,809	8,305	-0,390	-0,206
35,823	33,258	-0,375	-0,229
36,838	86,348	-0,413	-0,321
37,853	152,467	-0,313	-0,302
38,867	109,867	-0,391	-0,331
39,882	116,867	-0,346	-0,300
40,896	201,043	-0,213	-0,232
41,911	4,699	-0,310	-0,160
42,926	-68,669	-0,491	-0,133
43,940	265,586	-0,267	-0,329
44,955	232,940	-0,242	-0,282
45,969	19,430	-0,344	-0,195
46,984	72,673	-0,311	-0,229
47,999	86,368	-0,363	-0,282
49,013	173,750	-0,253	-0,258
50,028	22,331	-0,411	-0,236
51,042	327,178	-0,297	-0,403
52,057	44,522	-0,405	-0,262
53,071	61,400	-0,242	-0,169
54,086	90,845	-0,286	-0,226
55,101	49,874	-0,314	-0,209
56,115	186,315	-0,360	-0,378
57,130	131,929	-0,299	-0,271
58,144	75,084	-0,217	-0,161
59,159	25,496	-0,392	-0,229
60,174	-21,797	-0,432	-0,184
61,188	249,921	-0,243	-0,291
62,203	192,638	-0,266	-0,283
63,217	66,271	-0,337	-0,241
64,232	44,954	-0,303	-0,196
65,247	154,232	-0,233	-0,225
66,261	113,698	-0,418	-0,358
67,276	107,840	-0,427	-0,358
68,290	187,199	-0,198	-0,209
69,305	72,949	-0,300	-0,221
70,320	-4,133	-0,363	-0,177
71,334	-51,277	-0,284	-0,093
72,349	37,384	-0,250	-0,156
73,363	185,314	-0,308	-0,322
74,378	-43,678	-0,284	-0,100
75,393	12,649	-0,388	-0,210
76,407	157,732	-0,218	-0,213
77,422	108,955	-0,194	-0,164
78,436	53,088	-0,344	-0,231
79,451	124,562	-0,322	-0,285
80,466	-73,199	-0,477	-0,122
81,480	16,086	-0,398	-0,220
82,495	64,825	-0,331	-0,235
83,509	-145,556	-0,307	-0,019
84,524	5,516	-0,326	-0,169
85,539	85,067	-0,239	-0,185
86,553	43,395	-0,379	-0,243
87,568	43,815	-0,269	-0,173
88,582	102,050	-0,220	-0,180
89,597	59,596	-0,305	-0,211
90,611	-70,089	-0,260	-0,069
91,626	49,016	-0,332	-0,219
92,641	51,854	-0,246	-0,164
93,655	137,525	-0,138	-0,127
94,670	144,712	-0,309	-0,290
95,684	-124,077	-0,289	-0,031
96,699	140,503	-0,237	-0,220
97,714	85,649	-0,197	-0,152
98,728	-115,112	-0,267	0,035
99,743	-33,841	-0,363	-0,140
100,757	-172,573	-0,275	0,006
101,772	95,103	-0,185	-0,148
102,787	103,494	-0,233	-0,192
103,801	158,053	-0,259	-0,252
104,816	-37,922	-0,213	-0,079
105,830	77,070	-0,173	-0,129
106,845	241,969	-0,183	-0,216
107,860	120,347	-0,182	-0,159
108,874	-121,584	-0,200	-0,023
109,889	-97,775	-0,246	-0,044
110,903	16,506	-0,322	-0,178
111,918	105,111	-0,251	-0,208
112,933	-200,000	-0,075	-0,236
113,947	-56,023	-0,224	-0,070
114,962	9,666	-0,237	-0,125
115,976	176,142	-0,361	-0,368
116,991	42,290	-0,432	-0,275
118,006	-81,902	-0,310	-0,070
119,020	24,958	-0,280	-0,163
120,035	154,984	-0,277	-0,267
121,049	-106,509	-0,280	-0,043
122,064	-47,308	-0,312	-0,106
123,079	290,059	-0,176	-0,224
124,093	368,296	-0,193	-0,274
125,108	67,152	-0,239	-0,171
126,122	-2,176	-0,241	-0,118
127,137	324,430	-0,183	-0,246
128,151	-29,084	-0,174	-0,070
129,166	269,230	-0,133	-0,164
130,181	160,536	-0,174	-0,170
131,195	286,234	-0,193	-0,244
132,210	-42,170	-0,274	-0,098
133,224	-22,104	-0,231	-0,098
134,239	285,359	-0,177	-0,224
135,254	102,110	-0,206	-0,168
136,268	117,131	-0,211	-0,182
137,283	16,471	-0,185	-0,102
138,297	268,377	-0,230	-0,283
139,312	146,696	-0,295	-0,278
140,327	187,828	-0,286	-0,299
141,341	226,525	-0,187	-0,212
142,356	124,469	-0,152	-0,134
143,370	-33,734	-0,369	-0,142
144,385	-37,912	-0,359	-0,133
145,400	104,219	-0,233	-0,191
146,414	45,218	-0,330	-0,212
147,429	736,510	-0,185	-0,348
148,443	224,196	-0,200	-0,226
149,458	310,236	-0,168	-0,221
150,473	179,154	-0,250	-0,256
151,487	85,436	-0,131	-0,101
152,502	216,194	-0,293	-0,327
153,516	-63,052	-0,394	-0,113
154,531	195,643	-0,229	-0,244
155,546	-69,632	-0,160	-0,042
156,560	800,000	-0,128	-0,261
157,575	-200,000	-0,031	-0,196
158,589	104,422	-0,189	-0,156
159,604	106,031	-0,159	-0,131
160,619	-1,756	-0,209	-0,102
161,633	64,221	-0,223	-0,156
162,648	-15,760	-0,304	-0,135
163,662	-42,637	-0,222	-0,079
164,677	-200,000	-0,096	-0,300
165,692	91,622	-0,180	-0,141
166,706	107,455	-0,253	-0,210
167,721	323,279	-0,177	-0,236
168,735	-32,461	-0,249	-0,097
169,750	143,076	-0,282	-0,262
170,764	111,672	-0,157	-0,132
171,779	-116,438	-0,140	-0,018
172,794	233,253	-0,162	-0,186
173,808	104,492	-0,222	-0,182
174,823	39,316	-0,291	-0,182
175,837	-30,954	-0,298	-0,117
176,852	-28,919	-0,276	-0,110
177,867	-20,132	-0,107	-0,046
178,881	-121,306	-0,061	0,007
179,896	343,415	-0,159	-0,218
180,910	263,990	-0,148	-0,180
181,925	782,661	-0,178	-0,342
182,940	65,010	-0,241	-0,170
183,954	124,730	-0,223	-0,196
184,969	-47,476	-0,328	-0,111
185,983	-41,568	-0,162	-0,058
186,998	66,045	-0,276	-0,195
188,013	-70,139	-0,203	-0,054
189,027	-60,869	-0,332	-0,097
190,042	582,711	-0,101	-0,174
191,056	195,635	-0,246	-0,261
192,071	323,151	-0,188	-0,251
193,086	342,703	-0,112	-0,153
194,100	-58,781	-0,113	-0,034
195,115	-88,446	-0,323	-0,067
196,129	-40,919	-0,169	-0,061
197,144	273,254	-0,181	-0,223
198,159	328,145	-0,130	-0,174
199,173	534,181	-0,188	-0,312
200,188	168,259	-0,159	-0,158
201,202	126,590	-0,256	-0,225
202,217	140,305	-0,077	-0,070
203,232	76,470	-0,129	-0,095
204,246	68,293	-0,260	-0,185
205,261	7,027	-0,254	-0,131
206,275	60,202	-0,249	-0,171
207,290	340,680	-0,106	-0,144
208,304	-22,340	-0,141	-0,059
209,319	-80,278	-0,264	-0,061
210,334	40,243	-0,069	-0,043
211,348	-83,882	-0,217	-0,048
212,363	60,579	-0,189	-0,130
213,377	-4,038	-0,162	-0,078
214,392	40,960	-0,256	-0,161
215,407	-135,459	-0,214	0,018
216,421	-62,237	-0,113	0,033
217,436	-60,245	-0,182	-0,054
218,450	86,129	-0,280	-0,214
219,465	-40,341	-0,320	-0,115
220,480	40,576	-0,163	-0,102
221,494	34,268	-0,182	-0,110
222,509	800,000	-0,121	-0,276
223,523	800,000	-0,083	-0,161
224,538	-200,000	-0,008	-0,193
225,553	-71,228	-0,187	-0,048
226,567	38,770	-0,222	-0,137
227,582	324,505	-0,190	-0,252
228,596	800,000	-0,110	-0,235
229,611	-167,711	-0,203	-0,005
230,626	-136,249	-0,160	-0,013
231,640	-200,000	-0,255	-0,000
232,655	246,405	-0,237	-0,277
233,669	99,942	-0,235	-0,189
234,684	274,724	-0,117	-0,145
235,699	406,394	-0,148	-0,218
236,713	8,447	-0,236	-0,123
237,728	-200,000	-0,158	0,000
238,742	318,201	-0,147	-0,194
239,757	125,701	-0,142	-0,125
240,772	62,154	-0,172	-0,119
241,786	97,401	-0,248	-0,197
242,801	-45,055	-0,191	-0,066
243,815	-106,267	-0,418	-0,064
244,830	800,000	-0,065	-0,170
245,844	214,984	-0,122	-0,135
246,859	117,405	-0,207	-0,177
247,874	-46,009	-0,217	-0,074
248,888	-98,482	-0,200	-0,035
249,903	-87,767	-0,206	-0,043
250,917	628,403	-0,118	-0,208
251,932	333,678	-0,112	-0,151
252,947	800,000	-0,052	-0,149
253,961	-117,882	-0,171	-0,021
254,976	15,014	-0,290	-0,157
255,990	560,160	-0,152	-0,256
257,005	87,484	-0,236	-0,181
258,020	477,534	-0,124	-0,196
259,034	800,000	-0,041	-0,083
260,049	0,145	-0,103	-0,051
261,063	-160,324	-0,138	-0,005
262,078	237,756	-0,087	-0,100
263,093	195,132	-0,253	-0,267
264,107	330,826	-0,163	-0,218
265,122	7,502	-0,157	-0,081
266,136	800,000	-0,083	-0,195
267,151	87,214	-0,245	-0,188
268,166	38,094	-0,243	-0,150
269,180	-147,047	-0,244	-0,014
270,195	-31,955	-0,211	-0,081
271,209	648,854	-0,044	-0,079
272,224	-110,345	-0,196	-0,028
273,239	-123,909	-0,121	0,013
274,253	-200,000	-0,132	0,000
275,268	-73,946	-0,099	0,025
276,282	130,497	-0,143	-0,127
277,297	70,695	-0,188	-0,134
278,312	38,347	-0,243	-0,150
279,326	-200,000	-0,007	-0,140
280,341	12,084	-0,113	0,060
281,355	-101,142	-0,258	-0,043
282,370	80,689	-0,126	-0,094
283,384	271,196	-0,209	-0,255
284,399	301,879	-0,172	-0,221
285,414	153,083	-0,211	-0,200
286,428	-41,331	-0,178	-0,063
287,443	-183,780	-0,196	-0,002
288,457	-135,247	-0,183	-0,015
289,472	69,751	-0,212	-0,151
290,487	432,617	-0,100	-0,151
291,501	-45,386	-0,159	-0,054
292,516	152,359	-0,187	-0,177
293,530	42,318	-0,180	-0,113
294,545	153,845	-0,172	-0,163
295,560	255,789	-0,142	-0,169
296,574	495,385	-0,069	-0,109
297,589	800,000	-0,076	-0,162
298,603	242,584	-0,128	-0,148
299,618	331,132	-0,173	-0,230
300,633	-200,000	0,023	-0,124
301,647	-200,000	-0,009	-0,190
302,662	-115,814	-0,101	-0,013
303,676	-105,501	-0,228	-0,035
304,691	-200,000	0,024	-0,083
305,706	8,810	-0,165	-0,086
306,720	-42,596	-0,194	-0,068
307,735	226,089	-0,064	-0,072
308,749	-142,577	-0,109	0,007
309,764	58,811	-0,286	-0,193
310,779	483,452	-0,100	-0,157
311,793	11,772	-0,177	0,093
312,808	-105,856	-0,136	-0,021
313,822	36,128	-0,099	-0,060
314,837	-43,985	-0,216	-0,075
315,852	-106,116	-0,167	-0,026
316,866	-200,000	-0,031	-0,217
317,881	-72,285	-0,076	-0,019
318,895	-55,827	-0,079	-0,024
319,910	768,959	-0,115	-0,216
320,925	800,000	-0,118	-0,249
321,939	312,179	-0,148	-0,192
322,954	319,822	-0,125	-0,164
323,968	93,128	-0,190	-0,148
324,983	37,265	-0,114	-0,069
325,997	253,503	-0,162	-0,191
327,012	-81,421	-0,203	-0,046
328,027	-1,942	-0,193	-0,093
329,041	-48,337	-0,177	-0,058
330,056	-200,000	0,028	-0,177
331,070	-67,369	-0,083	0,022
332,085	800,000	-0,055	-0,144
333,100	-200,000	-0,035	-0,176
334,114	274,065	-0,158	-0,193
335,129	22,957	-0,176	-0,099
336,143	172,402	-0,137	-0,136
337,158	270,281	-0,180	-0,218
338,173	121,481	-0,137	-0,117
339,187	-23,608	-0,252	-0,104
340,202	-200,000	-0,023	-0,179
341,216	-36,547	-0,065	-0,024
342,231	118,873	-0,112	-0,095
343,246	471,869	-0,172	-0,268
344,260	81,707	-0,092	-0,068
345,275	800,000	-0,068	-0,144
346,289	472,253	-0,056	-0,087
347,304	213,496	-0,116	-0,127
348,319	800,000	-0,070	-0,150
349,333	321,875	-0,069	-0,091
350,348	-67,979	-0,175	-0,047
351,362	-200,000	-0,032	-0,168
352,377	800,000	-0,054	-0,143
353,392	557,698	-0,068	-0,112
354,406	800,000	-0,024	-0,070
355,421	209,279	1311,545	1413,417
356,435	161,068	1471,887	1413,931
