DTS Sentinel unit serial number:	SN410029Multiplexer serial number:	ORYXHardware model number:	OX2-SRSoftware version number:	ORYX F/W v4,00 Oryx Data Collector v3.7.2.0data status	okinstallation	B3 Nyhavnadifferential loss correction	single-endedforward channel	channel 1reverse channel	N/Adate	2023/11/30time	06:32:30forward acquisition time	300,00reverse acquisition time	0,00gamma	499,1914k internal	0,3210k external	0,3210temperature offset calibration	1,0000default loss term (dB/km)	0,3820temperature slope calibration	1,0000multiplexer offset coefficient	1,0000multiplexer slope coefficient	1,0000fibre end	0,00T internal ref (°C)	10,24T ext. ref 1 (°C)	-5,43T ext. ref 2 (°C)	-5,53length (m)	temperature (°C)	Stokes	anti-Stokes-744,400	800,000	-0,157	-0,320
-743,385	800,000	0,109	0,248
-742,371	481,547	-0,173	-0,286
-741,356	800,000	0,091	0,217
-740,342	536,504	-0,180	-0,311
-739,327	-200,000	-0,092	0,320
-738,312	429,264	-0,197	-0,310
-737,298	-200,000	-0,037	0,251
-736,283	294,949	-0,184	-0,245
-735,269	-200,000	0,035	0,270
-734,254	167,861	-0,186	-0,192
-733,239	-196,369	-0,123	-0,001
-732,225	321,406	-0,123	-0,170
-731,210	66,366	0,212	0,156
-730,196	-200,000	0,002	-0,147
-729,181	-28,077	0,108	0,045
-728,167	-57,374	0,090	-0,029
-727,152	-69,322	0,056	-0,016
-726,137	800,000	-0,061	0,166
-725,123	800,000	0,058	0,127
-724,108	748,431	-0,059	-0,115
-723,094	-9,212	-0,010	0,005
-722,079	778,161	0,061	-0,120
-721,064	-12,980	-0,064	0,030
-720,050	800,000	0,016	-0,038
-719,035	-200,000	0,005	-0,083
-718,021	-200,000	0,001	-0,136
-717,006	-172,703	0,134	-0,003
-715,991	98,412	-0,146	-0,122
-714,977	800,000	-0,025	0,061
-713,962	-200,000	-0,018	0,068
-712,948	495,678	-0,021	0,035
-711,933	-200,000	-0,002	0,140
-710,918	285,423	0,054	0,070
-709,904	363,055	-0,070	-0,102
-708,889	-200,000	-0,022	-0,183
-707,875	272,357	-0,133	-0,170
-706,860	322,112	0,047	0,065
-705,845	-200,000	-0,026	-0,086
-704,831	10,971	-0,079	0,044
-703,816	12,958	0,073	0,041
-702,802	-20,755	0,104	0,046
-701,787	800,000	-0,071	-0,179
-700,772	-200,000	0,039	-0,132
-699,758	-3,700	0,062	0,031
-698,743	236,294	-0,065	0,078
-697,729	-172,314	-0,074	-0,002
-696,714	-25,807	-0,022	-0,009
-695,699	-200,000	-0,000	-0,176
-694,685	-19,852	-0,059	-0,026
-693,670	-54,806	0,017	0,006
-692,656	-200,000	-0,018	0,071
-691,641	800,000	-0,040	-0,108
-690,627	664,019	0,018	0,034
-689,612	-9,933	0,068	-0,032
-688,597	11,618	-0,093	0,051
-687,583	-200,000	0,012	-0,105
-686,568	51,245	-0,030	-0,021
-685,554	197,476	-0,037	-0,041
-684,539	800,000	-0,028	-0,058
-683,524	-200,000	0,014	0,091
-682,510	-200,000	-0,011	0,131
-681,495	-200,000	-0,034	0,110
-680,481	-145,841	0,091	-0,006
-679,466	-200,000	0,038	-0,204
-678,451	-200,000	0,026	-0,133
-677,437	-200,000	0,008	-0,095
-676,422	342,630	0,026	0,036
-675,408	109,926	0,080	0,069
-674,393	33,346	-0,065	0,041
-673,378	54,317	-0,080	-0,056
-672,364	360,179	-0,023	-0,034
-671,349	106,469	-0,056	0,048
-670,335	-58,274	-0,108	0,034
-669,320	-162,986	0,083	-0,003
-668,305	-200,000	0,022	-0,168
-667,291	53,979	0,074	0,051
-666,276	-36,271	-0,057	0,022
-665,262	-200,000	0,025	-0,148
-664,247	-200,000	-0,003	-0,045
-663,232	800,000	0,045	-0,100
-662,218	17,460	0,059	-0,034
-661,203	-200,000	0,015	0,086
-660,189	-14,528	0,043	0,020
-659,174	43,830	-0,093	-0,061
-658,159	-200,000	-0,064	-0,240
-657,145	177,696	-0,123	-0,130
-656,130	285,381	-0,042	0,055
-655,116	-36,091	0,050	-0,019
-654,101	-200,000	-0,009	-0,134
-653,086	322,397	-0,055	0,076
-652,072	-52,400	-0,111	0,037
-651,057	155,242	-0,145	-0,144
-650,043	-200,000	0,017	-0,141
-649,028	66,454	-0,153	-0,112
-648,014	800,000	0,024	0,070
-646,999	800,000	0,036	0,100
-645,984	168,873	-0,032	-0,033
-644,970	116,837	0,080	0,071
-643,955	73,226	-0,069	-0,052
-642,941	-78,948	-0,110	-0,027
-641,926	-134,887	0,127	-0,011
-640,911	97,030	0,070	0,058
-639,897	131,839	0,062	0,057
-638,882	-200,000	-0,027	-0,143
-637,868	-105,232	-0,127	0,021
-636,853	800,000	0,064	-0,154
-635,838	-200,000	-0,018	-0,202
-634,824	226,649	0,021	0,025
-633,809	-90,630	-0,086	0,018
-632,795	-200,000	-0,007	-0,043
-631,780	-200,000	0,000	-0,046
-630,765	14,514	-0,034	-0,019
-629,751	800,000	0,020	-0,061
-628,736	-143,149	0,035	0,002
-627,722	4,077	-0,101	0,053
-626,707	101,731	0,042	0,035
-625,692	-200,000	-0,004	0,040
-624,678	-72,059	-0,066	0,018
-623,663	-200,000	-0,015	0,065
-622,649	-200,000	-0,027	-0,103
-621,634	495,659	0,061	-0,101
-620,619	184,855	0,060	-0,065
-619,605	-56,370	0,052	-0,017
-618,590	117,672	0,008	-0,007
-617,576	-79,680	-0,194	0,047
-616,561	800,000	-0,027	-0,082
-615,546	13,209	-0,050	0,028
-614,532	-96,145	-0,072	0,014
-613,517	800,000	0,027	0,060
-612,503	-200,000	0,026	-0,122
-611,488	-200,000	0,012	-0,074
-610,474	123,537	0,076	0,069
-609,459	385,325	-0,105	-0,156
-608,444	-200,000	0,019	-0,069
-607,430	-150,323	-0,125	0,007
-606,415	-200,000	0,010	-0,054
-605,401	-97,488	-0,066	0,012
-604,386	531,738	0,025	0,042
-603,371	800,000	0,064	0,190
-602,357	-117,790	-0,081	-0,010
-601,342	-200,000	0,000	-0,143
-600,328	306,665	0,049	0,066
-599,313	-200,000	-0,002	-0,100
-598,298	-200,000	-0,012	-0,054
-597,284	-74,536	0,139	0,036
-596,269	-200,000	0,020	0,082
-595,255	-200,000	0,004	0,071
-594,240	306,777	-0,051	0,069
-593,225	-20,713	-0,085	0,037
-592,211	718,955	0,048	0,093
-591,196	1,401	-0,038	0,020
-590,182	-13,556	0,057	0,026
-589,167	800,000	0,051	0,134
-588,152	-40,180	-0,045	-0,017
-587,138	-4,724	-0,172	0,085
-586,123	800,000	0,032	-0,099
-585,109	-200,000	0,007	-0,116
-584,094	800,000	0,062	-0,173
-583,079	289,913	0,001	-0,001
-582,065	71,905	0,083	0,062
-581,050	124,023	0,087	0,079
-580,036	-81,851	0,032	-0,007
-579,021	209,876	-0,043	-0,048
-578,006	-26,178	-0,206	-0,087
-576,992	-200,000	0,026	0,090
-575,977	45,187	0,086	-0,057
-574,963	-200,000	-0,020	0,115
-573,948	384,118	0,049	0,073
-572,934	-200,000	-0,020	-0,120
-571,919	-200,000	0,032	-0,111
-570,904	128,467	-0,029	-0,026
-569,890	800,000	0,030	-0,085
-568,875	-119,186	-0,073	0,009
-567,861	425,818	-0,035	-0,054
-566,846	800,000	0,039	0,101
-565,831	119,568	-0,049	0,044
-564,817	-200,000	0,030	-0,114
-563,802	33,544	0,047	-0,029
-562,788	-143,579	-0,034	-0,002
-561,773	800,000	0,023	-0,050
-560,758	-97,386	0,214	-0,040
-559,744	-32,826	-0,028	0,011
-558,729	20,825	-0,044	0,026
-557,715	677,133	0,014	-0,027
-556,700	-200,000	-0,006	-0,077
-555,685	244,593	0,027	-0,033
-554,671	56,433	0,076	0,053
-553,656	2,158	0,074	0,039
-552,642	437,455	0,056	-0,088
-551,627	192,311	-0,087	-0,094
-550,612	-120,400	-0,092	0,011
-549,598	116,093	-0,133	-0,117
-548,583	800,000	0,073	-0,188
-547,569	792,235	0,016	0,032
-546,554	159,791	0,099	-0,099
-545,539	63,938	-0,102	0,073
-544,525	-200,000	-0,002	-0,040
-543,510	800,000	-0,041	-0,083
-542,496	504,411	-0,081	0,135
-541,481	3,966	-0,063	-0,033
-540,466	231,083	-0,155	-0,183
-539,452	-59,192	0,093	0,029
-538,437	57,674	-0,088	0,062
-537,423	800,000	-0,048	-0,132
-536,408	-200,000	0,013	0,109
-535,393	-99,987	0,138	-0,025
-534,379	43,021	-0,083	-0,054
-533,364	657,140	0,008	0,015
-532,350	-131,833	0,123	0,011
-531,335	-200,000	-0,006	0,110
-530,321	4,485	0,007	0,004
-529,306	318,347	-0,096	-0,130
-528,291	-23,132	-0,172	-0,074
-527,277	108,668	-0,171	-0,147
-526,262	-6,342	0,028	0,013
-525,248	-109,928	0,024	-0,004
-524,233	9,252	0,115	0,062
-523,218	68,132	0,049	-0,036
-522,204	-123,210	0,097	0,011
-521,189	-31,973	-0,173	0,069
-520,175	-115,581	-0,018	-0,002
-519,160	-200,000	-0,000	0,075
-518,145	800,000	0,043	-0,134
-517,131	356,377	0,053	0,076
-516,116	-45,439	0,082	0,029
-515,102	248,194	-0,006	-0,007
-514,087	-200,000	-0,024	-0,108
-513,072	-200,000	-0,028	-0,204
-512,058	800,000	-0,022	-0,052
-511,043	-111,647	0,078	0,011
-510,029	-200,000	0,027	0,112
-509,014	-200,000	-0,042	0,143
-507,999	4,065	0,097	0,051
-506,985	144,612	-0,065	0,062
-505,970	308,794	0,043	-0,058
-504,956	140,750	-0,098	-0,093
-503,941	264,707	0,113	-0,142
-502,926	8,222	0,113	-0,061
-501,912	-200,000	0,017	0,141
-500,897	-200,000	0,005	-0,094
-499,883	-200,000	-0,025	-0,129
-498,868	640,458	0,033	-0,060
-497,853	-27,098	-0,183	-0,076
-496,839	158,649	-0,049	-0,049
-495,824	184,254	0,021	-0,023
-494,810	137,385	0,029	0,027
-493,795	-133,129	-0,115	-0,010
-492,781	800,000	0,096	-0,257
-491,766	-1,955	-0,048	0,024
-490,751	-200,000	0,015	-0,104
-489,737	1,239	-0,092	0,047
-488,722	800,000	0,083	0,194
-487,708	350,208	0,040	0,056
-486,693	800,000	0,048	0,110
-485,678	-156,233	-0,069	-0,003
-484,664	-41,248	0,107	0,039
-483,649	184,538	-0,120	-0,128
-482,635	342,354	-0,050	-0,071
-481,620	28,515	0,121	-0,073
-480,605	-200,000	0,029	0,101
-479,591	10,134	0,046	0,025
-478,576	-200,000	0,006	-0,054
-477,562	800,000	-0,066	-0,188
-476,547	632,936	0,069	-0,126
-475,532	-104,597	0,037	0,006
-474,518	-77,133	0,085	-0,021
-473,503	235,594	-0,057	0,068
-472,489	800,000	0,036	0,109
-471,474	349,637	-0,042	-0,060
-470,459	-200,000	0,035	-0,113
-469,445	27,972	0,042	-0,026
-468,430	-200,000	-0,013	0,050
-467,416	220,258	0,050	0,058
-466,401	-185,018	0,113	-0,001
-465,386	60,982	0,102	0,072
-464,372	-200,000	-0,015	0,072
-463,357	304,063	0,067	0,089
-462,343	252,860	-0,146	-0,179
-461,328	402,412	0,068	-0,103
-460,313	9,728	0,031	-0,017
-459,299	402,524	0,064	0,097
-458,284	-200,000	-0,046	0,159
-457,270	11,843	0,085	0,046
-456,255	447,023	0,039	-0,061
-455,241	800,000	0,029	0,088
-454,226	-42,799	-0,020	-0,007
-453,211	-200,000	-0,007	-0,053
-452,197	-53,528	0,080	-0,026
-451,182	105,821	0,068	0,058
-450,168	-200,000	-0,009	0,042
-449,153	800,000	0,028	0,063
-448,138	74,308	-0,078	0,059
-447,124	-8,015	-0,098	-0,047
-446,109	37,964	0,060	-0,038
-445,095	-81,256	0,132	-0,031
-444,080	-200,000	0,006	0,035
-443,065	145,328	0,038	0,037
-442,051	426,744	-0,035	-0,054
-441,036	67,297	-0,094	-0,069
-440,022	-200,000	-0,004	-0,083
-439,007	156,650	-0,042	0,041
-437,992	-200,000	-0,032	0,106
-436,978	135,041	-0,026	0,024
-435,963	194,872	0,081	0,089
-434,949	-30,143	-0,046	-0,019
-433,934	253,114	0,028	-0,035
-432,919	-2,884	-0,106	-0,053
-431,905	-200,000	0,003	0,019
-430,890	800,000	0,024	0,065
-429,876	-60,616	0,067	0,020
-428,861	206,658	-0,069	0,077
-427,846	-129,069	0,086	0,008
-426,832	800,000	-0,036	-0,112
-425,817	19,720	-0,083	-0,048
-424,803	446,931	0,063	0,099
-423,788	-29,352	0,022	-0,009
-422,773	-200,000	0,004	-0,021
-421,759	-200,000	0,005	0,099
-420,744	393,097	0,033	-0,049
-419,730	-200,000	-0,007	-0,040
-418,715	103,130	0,107	-0,090
-417,701	-140,069	-0,172	-0,013
-416,686	-41,378	0,154	0,056
-415,671	-200,000	-0,006	0,096
-414,657	470,258	-0,100	0,162
-413,642	-47,052	-0,005	0,002
-412,628	151,483	-0,069	0,068
-411,613	29,648	0,024	0,015
-410,598	-200,000	-0,025	-0,119
-409,584	-72,870	0,015	-0,004
-408,569	6,921	0,035	0,018
-407,555	334,518	-0,107	0,149
-406,540	-137,205	0,093	-0,008
-405,525	276,386	0,025	-0,032
-404,511	61,836	-0,112	-0,080
-403,496	251,287	-0,045	0,055
-402,482	-185,976	-0,110	-0,001
-401,467	43,217	0,007	0,004
-400,452	-86,991	0,145	0,031
-399,438	515,036	0,023	-0,039
-398,423	-183,573	0,013	-0,000
-397,409	-136,529	-0,228	0,019
-396,394	177,819	0,036	0,038
-395,379	239,262	0,062	0,074
-394,365	-51,605	0,075	0,025
-393,350	-92,487	-0,058	-0,012
-392,336	69,184	0,172	0,126
-391,321	179,518	-0,054	0,057
-390,306	-200,000	-0,010	-0,074
-389,292	226,758	0,071	-0,083
-388,277	-69,292	-0,102	0,028
-387,263	24,088	0,099	0,058
-386,248	-200,000	-0,006	0,071
-385,233	-200,000	-0,027	0,106
-384,219	-120,310	0,062	-0,008
-383,204	137,649	-0,090	0,084
-382,190	367,033	0,058	-0,084
-381,175	5,949	0,032	-0,017
-380,160	-200,000	0,017	0,101
-379,146	800,000	-0,066	0,159
-378,131	-12,531	0,106	0,049
-377,117	800,000	0,034	0,078
-376,102	-200,000	0,001	-0,129
-375,088	-112,139	-0,084	-0,012
-374,073	69,156	0,089	-0,065
-373,058	46,287	0,126	0,083
-372,044	79,441	-0,119	0,091
-371,029	-159,755	0,066	-0,003
-370,015	800,000	-0,042	0,121
-369,000	-62,116	-0,161	-0,048
-367,985	143,768	-0,047	0,045
-366,971	96,345	-0,038	-0,031
-365,956	108,186	-0,054	0,046
-364,942	121,247	0,068	0,060
-363,927	-200,000	-0,000	-0,139
-362,912	-69,924	0,199	-0,054
-361,898	-200,000	-0,002	-0,049
-360,883	358,297	-0,038	-0,055
-359,869	492,507	-0,078	0,128
-358,854	800,000	-0,021	0,064
-357,839	-29,816	0,091	-0,037
-356,825	206,619	-0,085	0,095
-355,810	408,042	0,055	-0,083
-354,796	77,340	-0,021	0,016
-353,781	-23,261	-0,134	0,057
-352,766	81,972	-0,039	0,031
-351,752	-200,000	0,016	-0,056
-350,737	32,622	0,052	0,032
-349,723	-101,578	0,084	-0,014
-348,708	122,724	0,040	0,035
-347,693	219,695	-0,129	-0,148
-346,679	233,955	-0,124	-0,147
-345,664	215,645	-0,088	0,100
-344,650	-200,000	0,032	-0,160
-343,635	-200,000	0,034	0,149
-342,620	-200,000	-0,002	0,139
-341,606	23,393	0,056	0,033
-340,591	-200,000	0,021	-0,073
-339,577	-170,867	-0,187	0,004
-338,562	3,346	0,141	-0,073
-337,548	-200,000	0,008	0,065
-336,533	-99,850	0,086	-0,015
-335,518	-26,306	0,037	0,015
-334,504	356,095	0,031	-0,044
-333,489	800,000	-0,071	-0,169
-332,475	10,899	-0,083	0,045
-331,460	-8,388	0,014	-0,007
-330,445	-86,312	-0,057	0,012
-329,431	-5,007	0,128	0,063
-328,416	-200,000	0,015	0,086
-327,402	-200,000	0,002	0,059
-326,387	26,503	-0,008	0,005
-325,372	-36,887	-0,156	-0,060
-324,358	33,700	-0,089	0,055
-323,343	29,197	-0,080	-0,048
-322,329	-200,000	-0,001	0,143
-321,314	-200,000	0,024	0,084
-320,299	-135,000	-0,027	0,002
-319,285	-200,000	-0,011	-0,131
-318,270	89,505	-0,130	0,103
-317,256	-93,907	0,009	-0,002
-316,241	22,933	0,065	0,038
-315,226	-200,000	0,011	0,118
-314,212	-200,000	0,000	0,105
-313,197	-69,596	0,084	0,023
-312,183	303,606	0,021	0,027
-311,168	194,491	-0,098	-0,107
-310,153	-200,000	-0,038	-0,187
-309,139	-124,334	0,104	0,011
-308,124	-46,526	-0,144	-0,050
-307,110	-96,874	0,083	0,015
-306,095	-200,000	0,047	0,203
-305,080	-2,844	0,087	0,043
-304,066	-200,000	-0,031	-0,114
-303,051	115,209	0,133	-0,116
-302,037	407,438	-0,061	-0,092
-301,022	-200,000	0,004	-0,042
-300,008	148,552	-0,091	0,088
-298,993	-130,474	0,078	-0,007
-297,978	-7,684	0,061	0,029
-296,964	44,475	0,090	-0,059
-295,949	-143,335	-0,174	0,012
-294,935	16,093	-0,113	0,063
-293,920	113,891	0,031	0,027
-292,905	-26,152	0,109	0,045
-291,891	-81,562	0,131	0,030
-290,876	58,715	0,050	0,035
-289,862	688,956	-0,033	0,062
-288,847	-200,000	0,000	0,038
-287,832	94,425	0,081	0,066
-286,818	-200,000	-0,004	-0,050
-285,803	-200,000	-0,001	-0,112
-284,789	8,011	-0,062	0,033
-283,774	346,470	0,066	0,093
-282,759	148,367	0,006	0,006
-281,745	800,000	-0,073	-0,153
-280,730	800,000	-0,068	-0,146
-279,716	69,911	-0,014	-0,010
-278,701	458,417	0,080	0,127
-277,686	-133,777	-0,097	0,008
-276,672	58,689	0,067	-0,047
-275,657	-87,626	-0,096	0,021
-274,643	-200,000	-0,014	-0,142
-273,628	791,184	-0,059	-0,116
-272,613	327,175	0,071	0,097
-271,599	280,964	-0,040	-0,051
-270,584	-36,523	-0,062	0,024
-269,570	147,682	0,065	-0,062
-268,555	-49,664	-0,153	0,051
-267,540	271,803	-0,026	0,032
-266,526	692,562	0,037	-0,069
-265,511	335,169	0,070	0,097
-264,497	-141,011	-0,161	-0,012
-263,482	-200,000	-0,000	-0,100
-262,467	-67,928	0,079	-0,022
-261,453	-200,000	-0,005	0,151
-260,438	204,322	0,032	0,035
-259,424	28,841	0,065	-0,039
-258,409	581,360	-0,006	0,011
-257,395	164,235	0,189	0,190
-256,380	39,147	0,055	0,035
-255,365	424,534	-0,051	-0,078
-254,351	800,000	0,011	-0,026
-253,336	300,266	0,061	-0,081
-252,322	800,000	-0,039	-0,099
-251,307	153,328	0,026	-0,025
-250,292	-132,682	-0,090	0,008
-249,278	0,054	0,098	0,050
-248,263	-6,586	-0,135	0,065
-247,249	126,592	0,021	-0,019
-246,234	-200,000	0,013	0,045
-245,219	97,917	-0,097	-0,079
-244,205	-34,776	-0,132	-0,051
-243,190	93,772	0,107	-0,086
-242,176	177,010	0,147	0,152
-241,161	203,954	-0,059	0,065
-240,146	58,025	0,047	0,032
-239,132	-158,475	-0,060	0,002
-238,117	33,345	-0,053	0,033
-237,103	536,681	-0,087	-0,147
-236,088	-200,000	-0,021	0,077
-235,073	17,042	0,082	0,046
-234,059	272,590	0,070	0,089
-233,044	125,279	0,058	0,052
-232,030	27,569	0,118	-0,070
-231,015	-56,437	-0,118	0,037
-230,000	-200,000	-0,025	-0,132
-228,986	800,000	0,035	-0,077
-227,971	-200,000	-0,011	0,070
-226,957	-200,000	0,033	0,206
-225,942	128,214	-0,019	0,017
-224,927	-20,323	-0,093	-0,040
-223,913	-109,474	-0,078	-0,012
-222,898	-100,405	-0,109	0,019
-221,884	-145,590	0,165	-0,010
-220,869	183,838	0,078	-0,082
-219,855	-142,638	-0,096	0,007
-218,840	-200,000	-0,019	-0,160
-217,825	47,409	0,043	0,029
-216,811	-188,949	-0,123	0,001
-215,796	48,518	-0,063	0,042
-214,782	800,000	-0,043	-0,119
-213,767	-73,419	0,133	0,034
-212,752	-200,000	-0,035	0,149
-211,738	799,100	0,014	0,027
-210,723	-97,596	-0,073	-0,013
-209,709	-79,766	-0,090	-0,021
-208,694	-200,000	-0,022	0,126
-207,679	-200,000	-0,025	0,081
-206,665	-49,503	0,033	-0,011
-205,650	-31,772	0,096	-0,038
-204,636	-200,000	-0,009	-0,042
-203,621	-1,939	0,107	-0,053
-202,606	-106,962	-0,064	-0,010
-201,592	267,923	0,026	-0,032
-200,577	298,875	0,043	-0,056
-199,563	-75,444	-0,132	-0,033
-198,548	-85,124	0,127	-0,028
-197,533	-200,000	-0,011	0,095
-196,519	800,000	-0,037	0,088
-195,504	800,000	0,035	0,092
-194,490	-37,609	0,071	0,027
-193,475	-200,000	-0,017	-0,129
-192,460	139,046	0,089	-0,083
-191,446	444,885	-0,052	0,082
-190,431	13,646	-0,068	-0,037
-189,417	-200,000	0,016	0,093
-188,402	-56,329	0,090	-0,028
-187,387	-200,000	0,025	-0,099
-186,373	800,000	-0,025	0,051
-185,358	148,225	0,055	-0,053
-184,344	-86,847	0,057	0,012
-183,329	-156,914	-0,107	0,005
-182,315	699,732	0,043	0,081
-181,300	146,958	0,048	0,046
-180,285	-148,904	0,012	0,001
-179,271	800,000	0,046	-0,125
-178,256	479,214	0,053	-0,085
-177,242	178,626	-0,038	0,040
-176,227	755,671	0,032	0,062
-175,212	-87,539	-0,058	-0,012
-174,198	-89,969	-0,059	0,012
-173,183	-200,000	0,012	-0,087
-172,169	-140,908	0,050	0,004
-171,154	101,951	0,072	-0,060
-170,139	-3,459	0,175	0,086
-169,125	-200,000	-0,064	0,201
-168,110	-62,417	0,060	-0,018
-167,096	-128,590	0,166	0,016
-166,081	705,028	-0,090	0,168
-165,066	-44,141	-0,109	-0,039
-164,052	560,543	-0,057	0,098
-163,037	800,000	-0,044	0,127
-162,023	80,411	0,220	0,168
-161,008	-200,000	0,011	-0,043
-159,993	-200,000	-0,014	0,159
-158,979	800,000	-0,052	-0,146
-157,964	-122,680	-0,090	0,010
-156,950	-4,609	-0,063	-0,031
-155,935	800,000	0,064	-0,151
-154,920	-200,000	0,006	0,076
-153,906	800,000	-0,053	0,111
-152,891	800,000	-0,042	0,109
-151,877	800,000	0,054	0,111
-150,862	-10,190	-0,073	-0,034
-149,847	0,759	-0,045	0,023
-148,833	800,000	-0,059	0,128
-147,818	-200,000	0,011	0,123
-146,804	-170,555	0,105	-0,003
-145,789	800,000	0,025	0,057
-144,775	800,000	0,031	0,064
-143,760	86,480	0,064	0,050
-142,745	800,000	0,021	-0,053
-141,731	-48,254	0,156	-0,053
-140,716	-200,000	0,003	-0,088
-139,702	-190,046	0,035	0,000
-138,687	658,501	-0,046	-0,084
-137,672	-191,556	-0,086	-0,001
-136,658	-80,995	-0,104	-0,024
-135,643	-144,021	-0,187	0,012
-134,629	800,000	-0,048	0,133
-133,614	800,000	0,038	0,104
-132,599	-49,726	0,074	0,025
-131,585	24,041	-0,076	0,044
-130,570	349,045	0,002	-0,003
-129,556	18,590	0,083	-0,047
-128,541	800,000	0,035	-0,095
-127,526	800,000	0,057	-0,116
-126,512	546,326	0,014	0,024
-125,497	-200,000	-0,023	-0,136
-124,483	-178,473	-0,138	0,002
-123,468	231,649	0,126	-0,146
-122,453	-200,000	0,016	-0,082
-121,439	800,000	-0,075	-0,177
-120,424	-200,000	-0,018	-0,082
-119,410	306,329	-0,008	0,011
-118,395	24,289	0,142	-0,083
-117,380	192,258	-0,072	0,077
-116,366	228,576	0,083	-0,096
-115,351	-13,573	0,064	-0,029
-114,337	-33,280	0,096	-0,037
-113,322	185,973	0,055	0,058
-112,307	-200,000	-0,025	0,104
-111,293	303,376	0,091	0,120
-110,278	800,000	0,052	0,141
-109,264	-25,437	-0,073	0,030
-108,249	-200,000	0,008	0,059
-107,234	180,637	-0,118	-0,122
-106,220	215,119	0,057	0,064
-105,205	636,425	0,097	0,175
-104,191	-150,944	0,110	-0,006
-103,176	626,446	-0,039	-0,070
-102,162	-86,416	0,015	-0,003
-101,147	480,066	-0,029	0,046
-100,132	482,866	0,045	-0,072
-99,118	65,872	0,029	-0,021
-98,103	-44,078	0,115	-0,041
-97,089	-143,785	0,117	-0,008
-96,074	-200,000	0,008	-0,093
-95,059	-92,743	-0,044	0,009
-94,045	357,208	-0,029	0,041
-93,030	246,122	0,027	0,032
-92,016	581,251	-0,057	-0,099
-91,001	-66,671	-0,048	0,013
-89,986	-200,000	0,007	-0,043
-88,972	120,749	0,124	-0,109
-87,957	136,981	0,056	0,051
-86,943	451,526	0,049	-0,077
-85,928	163,241	0,041	0,040
-84,913	-200,000	-0,004	0,031
-83,899	-200,000	0,019	0,080
-82,884	-174,262	0,100	-0,002
-81,870	257,313	0,063	-0,077
-80,855	800,000	0,029	0,080
-79,840	800,000	0,030	0,069
-78,826	-158,022	0,086	-0,004
-77,811	-191,812	-0,105	0,001
-76,797	-132,930	-0,178	-0,016
-75,782	-120,741	0,154	-0,018
-74,767	-39,426	0,037	0,014
-73,753	207,242	0,032	0,035
-72,738	-200,000	0,035	0,117
-71,724	149,869	-0,004	0,004
-70,709	-200,000	-0,022	-0,117
-69,694	-200,000	-0,028	-0,132
-68,680	800,000	0,019	0,053
-67,665	-56,153	0,085	-0,027
-66,651	-200,000	-0,045	0,209
-65,636	800,000	0,094	0,205
-64,622	129,782	0,043	0,038
-63,607	-78,363	0,078	-0,019
-62,592	476,546	-0,025	-0,040
-61,578	-200,000	-0,013	0,042
-60,563	65,409	0,072	0,052
-59,549	-200,000	-0,048	0,159
-58,534	44,731	-2,028	-1,315
-57,519	658,041	-1,160	-2,115
-56,505	-200,000	-0,245	-4,438
-55,490	781,396	0,892	1,732
-54,476	800,000	5,088	11,120
-53,461	-200,000	21,160	339,270
-52,446	800,000	759,000	2354,188
-51,432	558,759	1661,721	2841,748
-50,417	73,648	1661,420	1227,309
-49,403	18,148	1534,913	861,857
-48,388	12,072	1458,479	789,549
-47,373	19,287	1449,324	819,185
-46,359	15,487	1438,756	795,109
-45,344	10,336	1434,616	768,262
-44,330	10,262	1432,789	766,901
-43,315	10,266	1430,953	765,905
-42,300	10,274	1429,137	764,943
-41,286	10,334	1427,782	764,471
-40,271	10,236	1426,722	763,409
-39,257	10,312	1425,420	763,043
-38,242	10,287	1424,218	762,252
-37,227	10,306	1423,183	761,757
-36,213	10,293	1422,012	761,037
-35,198	10,338	1420,840	760,594
-34,184	10,381	1419,893	760,257
-33,169	10,222	1418,864	758,927
-32,154	10,355	1417,414	758,750
-31,140	10,348	1416,172	758,019
-30,125	10,375	1415,151	757,571
-29,111	10,344	1414,015	756,788
-28,096	10,330	1412,881	756,085
-27,082	10,305	1411,830	755,374
-26,067	10,277	1410,675	754,597
-25,052	10,261	1409,814	754,030
-24,038	10,327	1408,553	753,636
-23,023	10,290	1407,683	752,966
-22,009	10,260	1406,830	752,340
-20,994	10,292	1405,467	751,728
-19,979	10,270	1404,722	751,199
-18,965	10,277	1403,772	750,692
-17,950	10,203	1403,082	749,948
-16,936	10,200	1402,096	749,381
-15,921	10,167	1401,103	748,665
-14,906	10,189	1400,297	748,306
-13,892	10,237	1399,098	747,859
-12,877	10,188	1398,435	747,246
-11,863	10,197	1397,615	746,822
-10,848	10,145	1396,758	746,094
-9,833	10,144	1395,752	745,523
-8,819	10,100	1395,090	744,936
-7,804	10,077	1393,950	744,188
-6,790	10,065	1393,221	743,713
-5,775	10,074	1391,975	743,062
-4,760	10,062	1391,136	742,530
-3,746	10,111	1390,029	742,136
-2,731	10,074	1389,156	741,471
-1,717	10,111	1388,270	741,139
-0,702	10,097	1386,438	740,064
0,313	14,158	1299,245	712,093
1,327	30,431	690,134	415,132
2,342	47,027	119,488	78,263
3,356	1,666	16,404	8,306
4,371	7,402	3,463	1,820
5,386	-63,870	1,036	0,297
6,400	800,000	0,207	0,440
7,415	-136,962	-0,212	-0,017
8,429	7,251	-0,357	-0,188
9,444	46,892	-0,252	-0,165
10,459	-63,905	-0,357	-0,102
11,473	3,837	-0,285	-0,146
12,488	151,238	-0,125	-0,120
13,502	-78,990	-0,206	-0,049
14,517	-0,249	-0,443	-0,221
15,531	235,559	-0,215	-0,251
16,546	51,644	-0,301	-0,202
17,561	88,669	-0,349	-0,273
18,575	246,779	-0,157	-0,187
19,590	766,059	-0,085	-0,164
20,604	94,924	-0,293	-0,235
21,619	98,211	-0,478	-0,387
22,634	229,088	-0,378	-0,435
23,648	81,522	-0,424	-0,323
24,663	161,943	-0,314	-0,310
25,677	-62,620	-0,377	-0,109
26,692	36,396	-0,251	-0,156
27,707	227,715	-0,274	-0,314
28,721	181,275	-0,332	-0,344
29,736	89,212	-0,352	-0,275
30,750	23,342	-0,504	-0,291
31,765	20,446	-0,420	-0,238
32,780	1,000	-0,461	-0,232
33,794	59,821	-0,309	-0,214
34,809	112,549	-0,304	-0,259
35,823	-77,946	-0,263	-0,063
36,838	38,591	-0,415	-0,260
37,853	167,142	-0,234	-0,234
38,867	617,277	-0,122	-0,216
39,882	51,109	-0,365	-0,243
40,896	-113,616	-0,419	-0,057
41,911	-17,356	-0,290	-0,128
42,926	247,016	-0,241	-0,286
43,940	23,905	-0,404	-0,234
44,955	63,248	-0,406	-0,286
45,969	236,649	-0,290	-0,337
46,984	239,259	-0,270	-0,317
47,999	216,155	-0,407	-0,455
49,013	-103,371	-0,352	-0,058
50,028	104,327	-0,249	-0,206
51,042	116,140	-0,332	-0,285
52,057	26,137	-0,487	-0,285
53,071	550,911	-0,191	-0,323
54,086	-50,694	-0,346	-0,114
55,101	135,683	-0,358	-0,327
56,115	-4,873	-0,274	-0,132
57,130	-4,774	-0,472	-0,228
58,144	141,343	-0,363	-0,337
59,159	126,216	-0,380	-0,338
60,174	87,744	-0,377	-0,293
61,188	-22,949	-0,298	-0,126
62,203	81,362	-0,258	-0,195
63,217	109,802	-0,216	-0,182
64,232	-161,771	-0,328	0,012
65,247	18,714	-0,314	-0,176
66,261	73,456	-0,337	-0,247
67,276	59,930	-0,361	-0,250
68,290	18,073	-0,348	-0,194
69,305	-32,298	-0,237	-0,092
70,320	91,261	-0,254	-0,200
71,334	-130,993	-0,301	-0,028
72,349	-51,768	-0,252	-0,082
73,363	-12,219	-0,425	-0,194
74,378	41,803	-0,440	-0,279
75,393	2,181	-0,352	-0,178
76,407	9,430	-0,312	-0,165
77,422	-9,946	-0,329	-0,153
78,436	302,116	-0,138	-0,179
79,451	41,465	-0,282	-0,178
80,466	-3,004	-0,313	-0,153
81,480	21,678	-0,268	-0,152
82,495	299,146	-0,190	-0,246
83,509	-22,893	-0,323	-0,136
84,524	-94,676	-0,422	-0,080
85,539	-38,475	-0,221	-0,082
86,553	121,461	-0,220	-0,192
87,568	-200,000	-0,215	-0,000
88,582	2,402	-0,259	-0,131
89,597	24,171	-0,270	-0,156
90,611	19,038	-0,328	-0,184
91,626	39,499	-0,241	-0,151
92,641	131,564	-0,203	-0,182
93,655	184,040	-0,156	-0,162
94,670	-38,759	-0,329	-0,121
95,684	86,106	-0,405	-0,312
96,699	-44,683	-0,387	-0,134
97,714	58,615	-0,277	-0,190
98,728	800,000	-0,128	-0,340
99,743	72,390	-0,302	-0,220
100,757	240,926	-0,107	-0,125
101,772	-41,678	-0,274	-0,098
102,787	108,782	-0,317	-0,265
103,801	96,373	-0,367	-0,293
104,816	-119,245	-0,326	-0,039
105,830	51,736	-0,337	-0,224
106,845	-39,142	-0,123	-0,045
107,860	-15,357	-0,181	-0,081
108,874	41,995	-0,267	-0,169
109,889	46,104	-0,202	-0,130
110,903	-30,328	-0,311	-0,123
111,918	84,073	-0,192	-0,147
112,933	-57,650	-0,246	0,075
113,947	-1,879	-0,190	-0,093
114,962	-111,927	-0,302	-0,042
115,976	-39,274	-0,310	-0,113
116,991	-19,361	-0,361	-0,156
118,006	87,010	-0,201	-0,155
119,020	6,801	-0,245	-0,127
120,035	460,302	-0,090	-0,141
121,049	800,000	-0,044	-0,113
122,064	119,612	-0,226	-0,196
123,079	-21,592	-0,319	-0,135
124,093	800,000	-0,122	-0,284
125,108	47,706	-0,273	-0,177
126,122	440,965	-0,187	-0,287
127,137	-10,361	-0,174	-0,080
128,151	32,422	-0,203	-0,122
129,166	-66,326	-0,329	-0,091
130,181	-38,091	-0,330	-0,122
131,195	45,488	-0,269	-0,173
132,210	250,866	-0,215	-0,256
133,224	-43,030	-0,189	-0,067
134,239	-12,484	-0,163	-0,074
135,254	97,879	-0,302	-0,242
136,268	315,076	-0,160	-0,211
137,283	84,354	-0,212	-0,162
138,297	213,888	-0,274	-0,303
139,312	279,388	-0,264	-0,329
140,327	361,826	-0,187	-0,263
141,341	31,920	-0,186	-0,112
142,356	-200,000	-0,050	-0,223
143,370	82,696	-0,300	-0,227
144,385	32,797	-0,234	-0,141
145,400	412,737	-0,139	-0,206
146,414	79,410	-0,336	-0,251
147,429	353,663	-0,169	-0,235
148,443	565,630	-0,147	-0,250
149,458	-2,842	-0,274	-0,133
150,473	800,000	-0,025	-0,057
151,487	167,698	-0,195	-0,193
152,502	-10,325	-0,239	-0,110
153,516	171,159	-0,268	-0,268
154,531	9,597	-0,314	-0,165
155,546	497,479	-0,155	-0,249
156,560	-74,386	-0,295	-0,074
157,575	-91,756	-0,178	-0,035
158,589	-73,831	-0,281	-0,071
159,604	-39,827	-0,339	-0,122
160,619	222,663	-0,149	-0,167
161,633	-10,213	-0,289	-0,133
162,648	-82,383	-0,287	-0,064
163,662	159,628	-0,238	-0,230
164,677	151,352	-0,205	-0,194
165,692	-71,695	-0,214	-0,055
166,706	111,791	-0,186	-0,156
167,721	74,815	-0,245	-0,179
168,735	125,166	-0,329	-0,289
169,750	23,331	-0,235	-0,134
170,764	-123,484	-0,139	-0,015
171,779	-26,409	-0,280	-0,114
172,794	-91,172	-0,126	0,025
173,808	151,400	-0,239	-0,226
174,823	-7,373	-0,303	-0,142
175,837	134,833	-0,280	-0,252
176,852	88,883	-0,258	-0,200
177,867	75,483	-0,221	-0,162
178,881	-138,545	-0,163	0,012
179,896	-54,202	-0,096	0,030
180,910	10,477	-0,185	-0,098
181,925	225,179	-0,212	-0,239
182,940	496,308	-0,090	-0,144
183,954	88,656	-0,272	-0,209
184,969	12,548	-0,442	-0,236
185,983	682,454	-0,131	-0,238
186,998	245,277	-0,183	-0,214
188,013	-27,930	-0,342	-0,137
189,027	53,505	-0,239	-0,159
190,042	415,468	-0,167	-0,247
191,056	46,784	-0,300	-0,193
192,071	-32,047	-0,267	-0,103
193,086	-8,256	-0,253	-0,118
194,100	-103,736	-0,065	0,010
195,115	217,580	-0,200	-0,221
196,129	39,452	-0,192	-0,119
197,144	114,025	-0,250	-0,211
198,159	-95,616	-0,255	-0,047
199,173	-61,560	-0,218	-0,063
200,188	51,398	-0,114	0,075
201,202	171,076	-0,141	-0,140
202,217	128,073	-0,080	-0,070
203,232	41,016	-0,183	-0,114
204,246	179,510	-0,210	-0,213
205,261	-200,000	-0,102	-0,318
206,275	-105,669	-0,128	0,020
207,290	2,224	-0,180	-0,090
208,304	800,000	-0,176	-0,374
209,319	588,852	-0,143	-0,244
210,334	-82,271	-0,242	-0,054
211,348	107,480	-0,107	-0,088
212,363	265,746	-0,190	-0,231
213,377	167,432	-0,234	-0,230
214,392	7,748	-0,245	-0,127
215,407	-62,384	-0,176	-0,050
216,421	43,471	-0,259	-0,163
217,436	-22,500	-0,298	-0,124
218,450	800,000	-0,107	-0,238
219,465	122,562	-0,195	-0,169
220,480	226,141	-0,116	-0,130
221,494	-21,387	-0,237	-0,100
222,509	-53,687	-0,159	0,050
223,523	-13,459	-0,158	-0,070
224,538	63,028	-0,128	-0,089
225,553	217,754	-0,124	-0,136
226,567	-163,219	-0,118	-0,004
227,582	379,191	-0,164	-0,232
228,596	253,337	-0,068	-0,080
229,611	167,439	-0,134	-0,131
230,626	-59,933	-0,176	0,052
231,640	-159,806	-0,236	-0,009
232,655	509,740	-0,133	-0,215
233,669	-10,657	-0,091	-0,042
234,684	50,270	-0,208	-0,136
235,699	197,444	-0,180	-0,191
236,713	-23,286	-0,245	-0,101
237,728	-125,593	-0,222	-0,023
238,742	-18,410	-0,261	-0,112
239,757	303,796	-0,123	-0,157
240,772	-137,983	-0,146	0,011
241,786	192,285	-0,174	-0,181
242,801	40,338	-0,205	-0,127
243,815	800,000	-0,084	-0,163
244,830	317,102	-0,101	-0,133
245,844	87,718	-0,238	-0,182
246,859	121,073	-0,254	-0,219
247,874	59,945	-0,156	-0,106
248,888	-39,803	-0,106	-0,038
249,903	800,000	-0,045	-0,111
250,917	169,379	-0,135	-0,133
251,932	28,533	-0,097	-0,057
252,947	98,751	-0,142	-0,113
253,961	269,349	-0,181	-0,220
254,976	-99,220	-0,186	-0,032
255,990	-38,010	-0,185	-0,067
257,005	-82,472	-0,229	-0,051
258,020	184,886	-0,150	-0,153
259,034	81,143	-0,037	-0,028
260,049	54,838	-0,240	-0,160
261,063	-126,173	-0,255	-0,026
262,078	82,243	-0,208	-0,156
263,093	-66,370	-0,114	-0,031
264,107	57,508	-0,128	-0,086
265,122	-200,000	-0,037	-0,150
266,136	90,096	-0,211	-0,162
267,151	22,093	-0,222	-0,125
268,166	750,311	-0,134	-0,251
269,180	-92,930	-0,225	-0,043
270,195	532,897	-0,122	-0,199
271,209	70,244	-0,168	-0,120
272,224	-173,684	-0,180	-0,004
273,239	187,091	-0,163	-0,168
274,253	-31,687	-0,251	-0,097
275,268	510,647	-0,128	-0,205
276,282	800,000	-0,072	-0,177
277,297	2,027	-0,189	-0,094
278,312	800,000	-0,079	-0,195
279,326	-200,000	-0,001	-0,144
280,341	800,000	-0,066	-0,157
281,355	567,650	-0,056	-0,095
282,370	83,557	-0,159	-0,119
283,384	130,596	-0,224	-0,197
284,399	325,721	-0,153	-0,202
285,414	106,043	-0,237	-0,193
286,428	43,459	-0,227	-0,142
287,443	111,268	-0,115	-0,095
288,457	-25,144	-0,192	-0,078
289,472	-128,646	-0,131	0,013
290,487	149,452	-0,197	-0,183
291,501	-200,000	0,027	-0,100
292,516	376,882	-0,155	-0,219
293,530	-68,953	-0,217	-0,057
294,545	63,891	-0,063	-0,043
295,560	-17,599	-0,145	-0,062
296,574	251,546	-0,134	-0,157
297,589	501,722	-0,118	-0,188
298,603	501,114	-0,139	-0,221
299,618	426,979	-0,101	-0,150
300,633	483,205	-0,161	-0,253
301,647	-92,779	-0,135	-0,026
302,662	-200,000	-0,037	-0,117
303,676	800,000	-0,129	-0,260
304,691	-141,822	-0,114	-0,008
305,706	800,000	-0,060	-0,131
306,720	256,241	-0,121	-0,142
307,735	46,675	-0,161	-0,102
308,749	309,630	-0,113	-0,145
309,764	224,781	-0,076	-0,085
310,779	-0,422	-0,138	-0,067
311,793	270,599	-0,123	-0,149
312,808	800,000	-0,081	-0,195
313,822	800,000	-0,042	-0,094
314,837	174,434	-0,147	-0,146
315,852	380,235	-0,100	-0,141
316,866	158,777	-0,045	0,043
317,881	162,396	-0,054	0,052
318,895	-67,750	-0,155	-0,041
319,910	324,802	-0,099	-0,130
320,925	-200,000	-0,043	-0,158
321,939	-168,583	-0,137	0,004
322,954	9,304	-0,131	0,068
323,968	384,764	-0,074	-0,105
324,983	164,115	-0,102	-0,098
325,997	-200,000	0,015	-0,218
327,012	42,860	-0,138	-0,086
328,027	-200,000	-0,072	-0,265
329,041	-200,000	-0,024	-0,144
330,056	-200,000	-0,003	-0,118
331,070	16,072	-0,156	-0,084
332,085	202,061	-0,084	0,089
333,100	644,648	-0,069	-0,121
334,114	50,799	-0,257	-0,166
335,129	356,978	-0,144	-0,197
336,143	84,670	-0,187	-0,140
337,158	800,000	-0,038	-0,094
338,173	226,544	-0,136	-0,152
339,187	-54,623	-0,168	-0,052
340,202	-133,511	-0,156	0,013
341,216	199,164	-0,071	-0,074
342,231	90,176	-0,080	0,061
343,246	-46,611	-0,249	-0,083
344,260	735,627	-0,060	-0,110
345,275	13,352	-0,146	-0,077
346,289	-0,360	-0,222	-0,108
347,304	144,552	-0,083	-0,076
348,319	332,029	-0,133	-0,176
349,333	706,329	-0,075	-0,136
350,348	226,202	-0,099	-0,111
351,362	127,069	-0,078	-0,068
352,377	126,837	-0,148	-0,128
353,392	524,268	-0,093	-0,150
354,406	323,683	-0,147	-0,193
355,421	207,650	1309,001	1399,232
356,435	159,747	1469,003	1399,708
