DTS Sentinel unit serial number:	SN410029Multiplexer serial number:	ORYXHardware model number:	OX2-SRSoftware version number:	ORYX F/W v4,00 Oryx Data Collector v3.7.2.0data status	okinstallation	B3 Nyhavnadifferential loss correction	single-endedforward channel	channel 1reverse channel	N/Adate	2023/12/03time	04:57:30forward acquisition time	300,00reverse acquisition time	0,00gamma	499,1914k internal	0,3201k external	0,3201temperature offset calibration	1,0000default loss term (dB/km)	0,3820temperature slope calibration	1,0000multiplexer offset coefficient	1,0000multiplexer slope coefficient	1,0000fibre end	0,00T internal ref (°C)	13,30T ext. ref 1 (°C)	-1,81T ext. ref 2 (°C)	-1,81length (m)	temperature (°C)	Stokes	anti-Stokes-744,400	150,464	-0,257	-0,254
-743,385	-200,000	-0,091	0,429
-742,371	229,721	-0,113	-0,134
-741,356	-200,000	0,115	0,374
-740,342	132,173	-0,289	-0,271
-739,327	-200,000	-0,041	0,314
-738,312	-65,305	-0,262	-0,076
-737,298	700,419	-0,093	0,179
-736,283	249,645	-0,144	-0,179
-735,269	195,673	0,119	0,131
-734,254	62,223	-0,212	-0,154
-733,239	-112,920	-0,173	0,025
-732,225	735,537	-0,120	-0,234
-731,210	134,343	0,120	0,113
-730,196	13,319	0,106	-0,060
-729,181	-36,059	-0,054	-0,021
-728,167	66,452	-0,050	0,037
-727,152	-121,779	-0,162	0,019
-726,137	-200,000	-0,005	-0,053
-725,123	6,476	-0,142	-0,077
-724,108	800,000	-0,038	-0,092
-723,094	93,052	-0,127	-0,105
-722,079	32,156	0,045	-0,028
-721,064	662,261	-0,050	-0,094
-720,050	266,244	0,081	-0,103
-719,035	-33,162	0,064	0,026
-718,021	95,819	-0,135	-0,112
-717,006	97,743	-0,132	-0,110
-715,991	-168,621	-0,152	-0,004
-714,977	-200,000	0,006	0,074
-713,962	-98,899	0,025	-0,005
-712,948	-200,000	0,004	0,077
-711,933	-48,548	0,160	-0,056
-710,918	48,817	0,093	-0,063
-709,904	49,858	0,059	-0,040
-708,889	800,000	0,008	-0,020
-707,875	800,000	-0,049	-0,156
-706,860	-44,036	-0,145	-0,053
-705,845	800,000	0,069	-0,147
-704,831	-200,000	0,013	0,076
-703,816	-162,737	-0,030	0,001
-702,802	161,605	0,059	0,060
-701,787	64,130	-0,085	-0,062
-700,772	82,289	0,066	0,052
-699,758	-49,444	-0,101	-0,035
-698,743	-41,008	0,034	-0,013
-697,729	-200,000	0,007	-0,034
-696,714	-43,544	-0,047	-0,017
-695,699	-200,000	-0,021	-0,210
-694,685	-45,356	-0,044	0,016
-693,670	428,308	0,022	-0,035
-692,656	-200,000	0,001	-0,072
-691,641	151,207	0,028	0,028
-690,627	800,000	0,050	-0,106
-689,612	117,909	-0,146	0,131
-688,597	-103,503	-0,098	-0,017
-687,583	340,974	-0,086	-0,123
-686,568	312,290	-0,092	-0,126
-685,554	19,987	-0,068	0,039
-684,539	-200,000	-0,035	0,113
-683,524	800,000	0,036	0,115
-682,510	-15,297	0,123	-0,057
-681,495	-116,268	-0,099	-0,013
-680,481	-200,000	-0,002	0,112
-679,466	800,000	0,010	-0,031
-678,451	800,000	-0,035	0,082
-677,437	-99,590	0,129	0,023
-676,422	-200,000	0,001	-0,065
-675,408	27,297	0,080	0,049
-674,393	55,467	-0,079	0,056
-673,378	-200,000	0,017	-0,073
-672,364	800,000	0,038	-0,087
-671,349	-200,000	-0,010	-0,104
-670,335	-200,000	0,012	0,111
-669,320	-200,000	0,026	0,089
-668,305	-200,000	0,029	-0,095
-667,291	-144,708	0,109	-0,007
-666,276	595,145	0,047	0,085
-665,262	110,476	-0,079	-0,069
-664,247	447,269	-0,135	-0,216
-663,232	-200,000	0,032	-0,232
-662,218	513,139	0,069	-0,116
-661,203	-200,000	-0,012	0,124
-660,189	-106,599	-0,009	0,001
-659,174	-86,777	-0,091	-0,020
-658,159	800,000	0,038	-0,105
-657,145	800,000	0,043	-0,099
-656,130	79,515	-0,065	0,051
-655,116	-200,000	-0,000	-0,002
-654,101	-127,784	-0,212	0,022
-653,086	-123,371	-0,131	-0,015
-652,072	-6,738	0,051	-0,025
-651,057	104,835	-0,078	-0,067
-650,043	16,877	-0,067	-0,038
-649,028	800,000	-0,037	-0,103
-648,014	-2,631	0,183	0,093
-646,999	-88,361	0,094	0,020
-645,984	800,000	0,006	0,017
-644,970	46,047	-0,052	0,035
-643,955	-98,795	-0,069	0,013
-642,941	121,943	-0,087	-0,078
-641,926	265,540	-0,053	0,066
-640,911	335,449	-0,042	-0,059
-639,897	-96,198	0,025	0,005
-638,882	513,320	-0,048	0,081
-637,868	173,937	-0,029	0,030
-636,853	-200,000	-0,021	-0,099
-635,838	800,000	-0,065	-0,153
-634,824	-33,982	0,042	0,017
-633,809	382,525	-0,052	0,078
-632,795	800,000	0,058	-0,122
-631,780	-69,900	0,051	0,014
-630,765	-120,260	-0,180	-0,022
-629,751	-200,000	-0,030	-0,128
-628,736	-200,000	-0,020	-0,202
-627,722	-200,000	-0,011	-0,129
-626,707	515,922	-0,009	-0,015
-625,692	341,368	0,087	0,123
-624,678	-157,929	-0,109	-0,005
-623,663	-129,074	0,028	-0,003
-622,649	-49,182	-0,116	-0,040
-621,634	324,335	0,047	-0,066
-620,619	-200,000	0,020	0,145
-619,605	800,000	0,020	0,053
-618,590	67,180	0,062	-0,046
-617,576	120,388	-0,052	0,047
-616,561	-200,000	-0,002	0,063
-615,546	-49,549	0,077	-0,026
-614,532	7,194	-0,090	-0,049
-613,517	-200,000	0,012	-0,108
-612,503	-200,000	-0,010	-0,048
-611,488	-42,422	0,107	-0,039
-610,474	-91,473	-0,018	0,004
-609,459	-135,961	0,038	0,003
-608,444	-200,000	-0,014	0,131
-607,430	-200,000	0,032	-0,111
-606,415	-14,119	-0,061	0,028
-605,401	390,253	0,045	0,068
-604,386	68,701	0,051	0,038
-603,371	-93,956	0,088	0,017
-602,357	10,646	-0,057	0,031
-601,342	-12,386	0,067	-0,032
-600,328	-200,000	0,024	0,101
-599,313	130,553	-0,058	-0,054
-598,298	239,721	0,027	-0,033
-597,284	-200,000	-0,014	-0,087
-596,269	-45,042	0,060	-0,021
-595,255	-133,195	-0,027	0,002
-594,240	800,000	0,057	0,139
-593,225	169,163	-0,079	-0,081
-592,211	-117,845	0,097	0,013
-591,196	-43,227	-0,168	0,061
-590,182	-200,000	0,027	-0,138
-589,167	226,146	0,038	0,045
-588,152	-100,885	-0,142	0,025
-587,138	-51,299	-0,074	0,025
-586,123	-51,439	-0,191	0,064
-585,109	800,000	0,042	-0,124
-584,094	800,000	0,047	-0,149
-583,079	-200,000	0,019	-0,105
-582,065	800,000	-0,015	-0,036
-581,050	42,075	0,075	-0,049
-580,036	344,824	-0,058	0,082
-579,021	800,000	-0,030	0,085
-578,006	-200,000	-0,008	0,032
-576,992	-57,031	0,024	0,008
-575,977	800,000	0,013	-0,027
-574,963	800,000	-0,041	-0,095
-573,948	-130,587	0,078	0,008
-572,934	-77,181	-0,098	0,024
-571,919	99,861	-0,108	-0,090
-570,904	382,257	-0,072	0,107
-569,890	206,972	-0,080	-0,091
-568,875	469,216	-0,015	0,024
-567,861	-154,680	0,068	0,003
-566,846	-56,080	0,061	-0,020
-565,831	107,520	-0,005	0,004
-564,817	-91,521	-0,079	-0,016
-563,802	-200,000	-0,003	-0,098
-562,788	800,000	-0,013	-0,032
-561,773	800,000	0,015	0,046
-560,758	441,677	0,012	-0,019
-559,744	506,658	-0,045	0,076
-558,729	-31,384	0,053	-0,021
-557,715	-58,188	-0,147	-0,046
-556,700	192,139	0,089	0,097
-555,685	158,215	-0,057	-0,057
-554,671	478,012	-0,010	-0,017
-553,656	-200,000	0,006	0,142
-552,642	-200,000	0,027	0,098
-551,627	-200,000	0,012	-0,050
-550,612	161,390	-0,050	-0,050
-549,598	230,109	0,017	0,020
-548,583	14,858	0,120	-0,068
-547,569	-200,000	0,025	0,000
-546,554	328,348	-0,079	-0,109
-545,539	-200,000	-0,006	-0,090
-544,525	-200,000	-0,006	0,057
-543,510	-200,000	0,007	-0,031
-542,496	-178,927	-0,121	0,002
-541,481	740,513	-0,051	-0,099
-540,466	156,461	0,119	0,119
-539,452	-94,282	0,105	-0,020
-538,437	53,488	0,160	0,110
-537,423	-38,417	-0,138	0,052
-536,408	167,368	-0,052	0,054
-535,393	-200,000	0,028	-0,123
-534,379	-151,422	-0,043	0,002
-533,364	-200,000	0,018	0,059
-532,350	169,734	0,069	0,071
-531,335	-200,000	0,003	-0,025
-530,321	7,189	0,149	-0,080
-529,306	-39,002	-0,030	0,011
-528,291	-85,067	0,030	0,007
-527,277	-12,846	-0,117	0,055
-526,262	224,318	0,080	0,093
-525,248	-200,000	-0,017	0,095
-524,233	800,000	-0,031	0,082
-523,218	-85,576	0,161	-0,036
-522,204	-183,163	-0,184	-0,002
-521,189	-56,428	-0,147	-0,047
-520,175	-125,375	-0,122	0,013
-519,160	800,000	-0,014	0,039
-518,145	800,000	-0,024	0,056
-517,131	-2,255	0,117	0,059
-516,116	-112,555	0,080	0,011
-515,102	800,000	-0,016	-0,045
-514,087	-8,511	-0,090	-0,043
-513,072	-48,800	0,033	-0,011
-512,058	-86,789	-0,173	0,038
-511,043	42,197	0,060	0,039
-510,029	345,731	0,093	0,133
-509,014	38,806	0,087	0,056
-507,999	544,951	-0,057	0,098
-506,985	687,208	0,023	-0,044
-505,970	800,000	-0,015	0,036
-504,956	-90,525	-0,035	-0,007
-503,941	13,035	0,050	-0,028
-502,926	84,577	0,087	0,068
-501,912	-200,000	0,002	0,204
-500,897	-145,009	0,175	0,011
-499,883	97,100	-0,030	-0,025
-498,868	-200,000	-0,013	-0,170
-497,853	800,000	0,003	-0,005
-496,839	435,470	0,004	-0,006
-495,824	800,000	-0,014	0,042
-494,810	418,971	0,120	0,186
-493,795	392,666	0,047	0,070
-492,781	-200,000	-0,010	0,083
-491,766	448,016	-0,063	-0,101
-490,751	85,655	0,041	-0,033
-489,737	-142,971	-0,106	-0,007
-488,722	-200,000	0,035	0,113
-487,708	141,088	-0,070	0,066
-486,693	800,000	0,049	-0,124
-485,678	-52,439	-0,114	-0,038
-484,664	-200,000	-0,028	-0,130
-483,649	375,200	-0,036	-0,053
-482,635	-70,653	0,066	-0,018
-481,620	350,650	0,063	0,089
-480,605	162,939	0,102	0,103
-479,591	-140,703	0,022	-0,002
-478,576	-81,226	-0,060	-0,014
-477,562	-200,000	0,009	0,058
-476,547	65,365	0,071	-0,051
-475,532	-44,211	0,067	-0,024
-474,518	45,760	0,086	-0,057
-473,503	-112,663	-0,031	0,004
-472,489	-1,971	0,127	0,064
-471,474	-200,000	-0,004	-0,064
-470,459	324,080	-0,079	0,109
-469,445	254,108	0,092	0,113
-468,430	-45,503	-0,038	-0,014
-467,416	58,560	0,044	-0,031
-466,401	133,291	-0,076	-0,070
-465,386	-200,000	-0,052	0,216
-464,372	-56,232	-0,042	0,013
-463,357	756,187	-0,045	-0,089
-462,343	-200,000	-0,009	-0,057
-461,328	800,000	0,038	-0,103
-460,313	-93,209	-0,037	-0,007
-459,299	607,738	-0,042	0,076
-458,284	50,893	-0,087	0,059
-457,270	-200,000	0,001	-0,077
-456,255	800,000	0,046	-0,117
-455,241	-200,000	-0,005	0,121
-454,226	-92,341	-0,023	-0,005
-453,211	-128,314	0,086	-0,009
-452,197	-51,290	0,108	-0,036
-451,182	800,000	-0,043	0,110
-450,168	-8,481	0,009	0,005
-449,153	685,700	-0,017	-0,032
-448,138	-200,000	-0,008	0,057
-447,124	251,864	-0,160	-0,196
-446,109	-155,993	0,132	0,006
-445,095	59,111	0,104	-0,073
-444,080	-97,966	-0,008	0,001
-443,065	-25,964	-0,059	-0,025
-442,051	44,096	0,026	0,017
-441,036	-88,971	0,028	-0,006
-440,022	-164,031	-0,052	0,002
-439,007	-40,295	0,119	-0,044
-437,992	800,000	-0,013	0,037
-436,978	-37,778	-0,127	0,048
-435,963	139,349	-0,176	0,167
-434,949	775,911	0,020	0,039
-433,934	145,090	-0,045	-0,043
-432,919	79,092	-0,038	-0,029
-431,905	588,067	-0,014	0,025
-430,890	683,177	-0,010	0,019
-429,876	183,502	-0,066	0,070
-428,861	-117,543	0,061	-0,008
-427,846	800,000	-0,055	0,111
-426,832	-154,816	0,125	0,006
-425,817	-4,849	0,108	0,053
-424,803	311,581	-0,016	-0,022
-423,788	66,435	0,100	-0,073
-422,773	800,000	0,028	0,062
-421,759	-114,997	0,044	-0,006
-420,744	-200,000	0,019	0,080
-419,730	-4,478	-0,245	-0,121
-418,715	-31,814	-0,012	0,005
-417,701	-23,021	0,095	0,041
-416,686	800,000	0,008	0,019
-415,671	200,266	0,166	0,183
-414,657	-55,842	0,059	-0,019
-413,642	174,256	-0,073	-0,076
-412,628	579,957	0,013	-0,024
-411,613	529,273	-0,025	-0,042
-410,598	-14,108	0,072	-0,033
-409,584	573,607	0,001	0,002
-408,569	117,771	0,080	0,070
-407,555	375,840	-0,034	0,050
-406,540	39,255	0,053	-0,034
-405,525	-19,024	-0,109	0,049
-404,511	-148,676	-0,191	0,011
-403,496	-161,088	-0,087	0,003
-402,482	420,915	0,042	-0,065
-401,467	166,814	0,046	0,047
-400,452	21,988	0,091	0,053
-399,438	-128,895	0,020	-0,002
-398,423	-90,138	-0,079	0,016
-397,409	85,562	0,025	-0,020
-396,394	787,810	-0,039	-0,078
-395,379	37,626	0,042	-0,026
-394,365	800,000	0,028	0,070
-393,350	342,386	0,069	-0,097
-392,336	185,646	-0,023	0,025
-391,321	-200,000	-0,000	-0,135
-390,306	195,940	0,029	-0,031
-389,292	-200,000	-0,171	-0,001
-388,277	-200,000	0,013	-0,064
-387,263	63,634	-0,015	0,011
-386,248	-28,708	-0,105	0,043
-385,233	174,616	0,098	0,102
-384,219	183,406	0,076	-0,080
-383,204	-82,149	-0,200	-0,046
-382,190	800,000	0,025	0,056
-381,175	800,000	-0,011	0,023
-380,160	-200,000	-0,014	-0,077
-379,146	-7,470	-0,067	0,033
-378,131	800,000	-0,044	0,107
-377,117	-179,488	0,020	0,000
-376,102	-200,000	-0,059	0,000
-375,088	-141,456	0,153	-0,011
-374,073	315,615	-0,110	-0,148
-373,058	506,874	-0,028	0,046
-372,044	-200,000	-0,016	-0,087
-371,029	55,159	0,106	0,073
-370,015	495,291	0,044	0,073
-369,000	800,000	0,043	-0,106
-367,985	221,547	0,049	0,056
-366,971	-200,000	0,020	-0,128
-365,956	-17,499	0,123	-0,055
-364,942	-66,748	0,248	0,070
-363,927	686,306	-0,017	-0,032
-362,912	-92,236	-0,051	0,010
-361,898	121,421	-0,079	-0,070
-360,883	47,312	-0,058	-0,039
-359,869	497,315	0,028	-0,047
-358,854	-74,248	0,039	0,010
-357,839	-37,808	0,151	0,057
-356,825	-200,000	0,022	0,147
-355,810	30,876	0,095	-0,058
-354,796	-200,000	-0,014	-0,097
-353,781	800,000	0,062	0,133
-352,766	450,290	0,043	0,068
-351,752	-200,000	0,016	-0,050
-350,737	171,884	0,034	-0,035
-349,723	-91,981	-0,027	-0,005
-348,708	96,311	0,025	0,020
-347,693	800,000	-0,026	-0,057
-346,679	48,853	0,138	-0,093
-345,664	124,412	-0,111	-0,100
-344,650	800,000	0,035	-0,083
-343,635	32,276	-0,016	-0,010
-342,620	287,886	-0,137	0,178
-341,606	438,769	0,022	0,034
-340,591	-200,000	0,005	0,038
-339,577	-144,581	-0,058	0,004
-338,562	-200,000	0,010	0,034
-337,548	340,219	0,038	-0,053
-336,533	-7,058	-0,101	-0,049
-335,518	-12,564	0,056	-0,026
-334,504	101,768	0,015	-0,013
-333,489	-107,130	0,148	-0,023
-332,475	-200,000	-0,016	0,063
-331,460	327,033	0,029	0,039
-330,445	345,303	0,087	0,123
-329,431	-200,000	0,002	0,065
-328,416	-70,710	0,077	-0,021
-327,402	-75,884	0,069	0,017
-326,387	32,652	-0,061	0,038
-325,372	-200,000	-0,002	-0,015
-324,358	-200,000	-0,010	-0,049
-323,343	6,480	-0,114	-0,060
-322,329	276,813	0,130	-0,165
-321,314	92,497	0,019	-0,015
-320,299	-18,307	0,179	0,080
-319,285	182,713	-0,110	0,116
-318,270	-200,000	-0,003	-0,132
-317,256	147,524	0,050	0,048
-316,241	298,627	0,029	-0,039
-315,226	-200,000	0,040	-0,168
-314,212	140,911	0,065	-0,061
-313,197	-200,000	-0,006	0,051
-312,183	-5,611	0,064	-0,031
-311,168	-200,000	-0,023	-0,124
-310,153	-200,000	-0,006	0,059
-309,139	-200,000	0,005	-0,043
-308,124	269,924	-0,048	-0,060
-307,110	46,076	0,126	0,083
-306,095	800,000	0,004	0,008
-305,080	-76,962	-0,037	0,009
-304,066	-117,712	0,097	0,012
-303,051	800,000	0,008	-0,016
-302,037	-200,000	0,000	-0,066
-301,022	-200,000	0,003	0,169
-300,008	31,061	-0,104	0,063
-298,993	-178,919	0,192	-0,003
-297,978	167,259	-0,100	0,102
-296,964	800,000	0,051	-0,134
-295,949	-51,126	-0,085	-0,028
-294,935	-200,000	0,003	0,080
-293,920	800,000	-0,042	0,104
-292,905	70,824	0,097	0,072
-291,891	338,784	-0,060	0,084
-290,876	-200,000	-0,001	0,032
-289,862	-200,000	-0,035	-0,129
-288,847	-51,000	-0,047	0,016
-287,832	-61,807	-0,056	-0,017
-286,818	800,000	-0,036	0,082
-285,803	-85,573	0,079	0,017
-284,789	-66,387	0,072	-0,020
-283,774	-96,944	0,116	0,022
-282,759	-200,000	-0,011	-0,186
-281,745	527,482	-0,057	-0,097
-280,730	533,301	-0,027	-0,045
-279,716	15,152	-0,057	0,032
-278,701	-200,000	0,023	0,081
-277,686	-152,711	0,114	0,006
-276,672	19,590	0,140	-0,080
-275,657	200,007	-0,074	-0,081
-274,643	-122,905	-0,013	-0,002
-273,628	800,000	0,008	0,016
-272,613	-89,122	-0,105	0,022
-271,599	-200,000	0,013	0,067
-270,584	-81,564	-0,039	-0,009
-269,570	800,000	-0,031	-0,076
-268,555	658,961	0,034	0,063
-267,540	153,926	-0,078	-0,076
-266,526	-200,000	-0,058	-0,198
-265,511	-200,000	0,012	0,056
-264,497	-86,432	0,173	0,038
-263,482	-32,935	0,045	-0,018
-262,467	-56,942	0,116	0,036
-261,453	-200,000	0,044	0,171
-260,438	-76,037	-0,240	-0,060
-259,424	800,000	-0,047	-0,113
-258,409	-141,016	-0,043	0,003
-257,395	707,546	-0,073	-0,139
-256,380	-200,000	-0,003	0,038
-255,365	-200,000	0,009	-0,039
-254,351	222,301	0,065	0,075
-253,336	-157,112	0,070	0,003
-252,322	223,520	0,019	0,022
-251,307	485,691	0,022	0,036
-250,292	-200,000	-0,007	0,081
-249,278	-200,000	0,002	0,032
-248,263	-200,000	0,007	0,031
-247,249	800,000	-0,024	0,062
-246,234	-165,546	-0,163	0,005
-245,219	-200,000	-0,025	-0,088
-244,205	-200,000	-0,008	-0,244
-243,190	-200,000	-0,032	-0,136
-242,176	800,000	0,022	-0,056
-241,161	535,714	-0,005	0,009
-240,146	509,479	0,098	0,162
-239,132	-9,397	-0,121	0,057
-238,117	-73,222	-0,097	0,025
-237,103	252,534	-0,018	0,022
-236,088	119,055	-0,047	0,041
-235,073	143,775	0,028	-0,026
-234,059	-28,074	0,085	-0,035
-233,044	-200,000	0,144	-0,000
-232,030	126,073	-0,093	-0,084
-231,015	329,855	-0,039	-0,054
-230,000	59,617	-0,053	-0,037
-228,986	59,311	0,139	0,097
-227,971	440,882	0,011	-0,017
-226,957	108,284	-0,069	0,058
-225,942	-46,531	-0,028	0,010
-224,927	-200,000	0,005	-0,118
-223,913	800,000	-0,018	-0,037
-222,898	800,000	-0,030	0,088
-221,884	-200,000	-0,029	-0,132
-220,869	-200,000	-0,011	-0,075
-219,855	79,581	-0,002	0,002
-218,840	-200,000	-0,006	0,036
-217,825	-23,147	-0,013	-0,006
-216,811	221,070	0,063	0,072
-215,796	-64,961	-0,009	-0,003
-214,782	363,372	-0,028	0,041
-213,767	346,349	0,036	0,051
-212,752	-114,861	0,103	0,014
-211,738	332,172	-0,069	-0,095
-210,723	-33,740	0,139	-0,054
-209,709	236,505	0,123	0,145
-208,694	-100,557	0,013	-0,002
-207,679	545,607	0,034	-0,058
-206,665	-200,000	-0,034	0,156
-205,650	-200,000	-0,024	0,162
-204,636	-30,344	0,059	0,024
-203,621	-12,548	-0,025	-0,012
-202,606	558,257	-0,043	-0,074
-201,592	-100,631	-0,098	-0,017
-200,577	-115,056	0,089	0,012
-199,563	604,593	-0,038	0,068
-198,548	-200,000	0,005	0,020
-197,533	-200,000	-0,012	0,075
-196,519	-139,826	0,114	-0,008
-195,504	-6,447	-0,055	0,027
-194,490	126,113	-0,044	-0,040
-193,475	-56,084	0,200	-0,063
-192,460	-65,452	0,048	0,014
-191,446	446,714	0,082	0,128
-190,431	41,087	-0,066	0,042
-189,417	-200,000	0,006	0,060
-188,402	-46,347	-0,091	-0,032
-187,387	626,558	0,048	-0,087
-186,373	24,428	-0,085	0,050
-185,358	-200,000	0,001	-0,045
-184,344	800,000	0,043	0,095
-183,329	367,921	-0,076	-0,110
-182,315	-179,477	-0,058	-0,001
-181,300	-60,696	-0,089	0,027
-180,285	568,899	-0,058	0,101
-179,271	16,925	-0,103	0,058
-178,256	207,144	-0,070	-0,078
-177,242	-107,150	-0,043	0,007
-176,227	158,000	-0,051	0,051
-175,212	491,982	-0,003	-0,005
-174,198	800,000	-0,010	0,031
-173,183	800,000	-0,038	-0,104
-172,169	14,088	0,009	-0,005
-171,154	-47,741	-0,064	-0,022
-170,139	192,549	0,021	-0,022
-169,125	530,316	0,023	-0,038
-168,110	602,143	0,037	0,066
-167,096	-200,000	0,000	-0,116
-166,081	81,230	-0,033	-0,025
-165,066	157,507	-0,109	-0,108
-164,052	-124,167	0,069	-0,008
-163,037	346,417	-0,034	-0,048
-162,023	278,967	0,038	-0,049
-161,008	-200,000	0,010	0,123
-159,993	6,557	-0,101	-0,053
-158,979	-123,737	-0,103	-0,011
-157,964	-200,000	-0,013	0,159
-156,950	-134,651	-0,147	-0,013
-155,935	107,441	-0,022	-0,018
-154,920	440,783	0,053	0,082
-153,906	124,494	-0,029	-0,026
-152,891	-193,388	0,033	0,000
-151,877	245,820	-0,087	-0,105
-150,862	-90,852	-0,210	-0,043
-149,847	-20,424	-0,053	-0,023
-148,833	-200,000	-0,002	0,015
-147,818	800,000	-0,034	-0,096
-146,804	-85,012	0,025	-0,006
-145,789	-34,606	0,084	-0,032
-144,775	-173,994	-0,073	0,001
-143,760	332,773	0,082	-0,113
-142,745	-122,257	0,056	-0,006
-141,731	800,000	-0,026	0,062
-140,716	-115,963	-0,082	0,011
-139,702	-200,000	0,029	0,102
-138,687	269,763	-0,017	0,022
-137,672	241,403	-0,075	-0,089
-136,658	-200,000	-0,042	-0,174
-135,643	-38,749	0,047	-0,018
-134,629	570,458	-0,046	0,080
-133,614	-61,349	0,041	-0,012
-132,599	132,030	0,045	0,041
-131,585	800,000	0,038	-0,076
-130,570	-42,354	-0,062	-0,022
-129,556	-200,000	-0,030	-0,177
-128,541	202,164	0,105	-0,115
-127,526	-200,000	0,071	-0,230
-126,512	42,309	0,020	-0,013
-125,497	45,172	0,067	-0,044
-124,483	800,000	-0,032	0,066
-123,468	-200,000	-0,024	-0,100
-122,453	800,000	0,038	-0,099
-121,439	-200,000	-0,021	0,105
-120,424	-12,675	-0,108	-0,050
-119,410	-39,242	0,091	0,034
-118,395	800,000	0,080	0,223
-117,380	-74,974	0,102	-0,026
-116,366	800,000	0,038	-0,075
-115,351	266,912	0,033	-0,041
-114,337	-200,000	-0,005	-0,078
-113,322	209,013	-0,046	-0,051
-112,307	-50,840	-0,084	0,028
-111,293	-64,484	0,112	-0,032
-110,278	-200,000	-0,020	0,081
-109,264	-200,000	-0,006	0,071
-108,249	800,000	-0,042	0,110
-107,234	-200,000	0,006	0,115
-106,220	800,000	0,054	-0,108
-105,205	147,101	-0,019	-0,018
-104,191	-200,000	-0,056	0,223
-103,176	-200,000	0,007	0,070
-102,162	-41,601	0,103	0,037
-101,147	800,000	-0,029	0,083
-100,132	793,647	-0,019	-0,037
-99,118	197,678	-0,082	-0,089
-98,103	800,000	-0,030	0,074
-97,089	48,668	0,050	-0,033
-96,074	-200,000	0,021	-0,070
-95,059	-200,000	-0,010	-0,145
-94,045	-2,159	-0,085	-0,042
-93,030	191,015	-0,158	-0,168
-92,016	-200,000	-0,036	-0,121
-91,001	800,000	-0,023	0,051
-89,986	800,000	-0,017	0,043
-88,972	-61,133	-0,073	0,022
-87,957	135,975	0,073	0,068
-86,943	-200,000	-0,019	-0,124
-85,928	224,243	-0,046	-0,053
-84,913	-102,555	-0,102	-0,017
-83,899	25,610	-0,116	-0,068
-82,884	-200,000	0,019	0,203
-81,870	434,026	0,080	0,124
-80,855	800,000	0,057	0,130
-79,840	195,091	0,023	-0,025
-78,826	-89,509	-0,151	0,031
-77,811	-200,000	-0,011	0,034
-76,797	-143,531	-0,088	-0,006
-75,782	-200,000	-0,005	-0,078
-74,767	288,079	0,115	0,148
-73,753	-61,999	0,149	0,044
-72,738	160,676	-0,098	0,097
-71,724	-152,122	0,060	-0,003
-70,709	112,071	0,044	-0,038
-69,694	1,487	0,121	-0,062
-68,680	800,000	-0,054	-0,121
-67,665	24,463	0,025	-0,014
-66,651	800,000	0,018	-0,053
-65,636	110,019	0,105	0,090
-64,622	117,690	-0,011	0,010
-63,607	800,000	-0,042	-0,108
-62,592	-89,922	-0,055	-0,011
-61,578	800,000	0,066	-0,151
-60,563	419,501	-0,055	0,084
-59,549	230,187	0,199	0,230
-58,534	-1,313	-1,639	-0,816
-57,519	468,810	-1,385	-2,209
-56,505	-200,000	-0,473	-4,491
-55,490	182,842	0,937	0,980
-54,476	800,000	4,887	11,544
-53,461	-200,000	19,256	320,080
-52,446	-200,000	740,775	2334,492
-51,432	573,334	1655,504	2868,638
-50,417	78,316	1671,195	1261,931
-49,403	21,306	1544,178	885,650
-48,388	15,191	1466,538	811,387
-47,373	17,962	1456,840	819,377
-46,359	16,664	1446,638	807,386
-45,344	13,412	1442,186	789,289
-44,330	13,329	1440,002	787,662
-43,315	13,343	1438,323	786,780
-42,300	13,364	1436,639	785,927
-41,286	13,385	1435,348	785,292
-40,271	13,341	1433,907	784,261
-39,257	13,310	1432,875	783,520
-38,242	13,371	1431,403	782,975
-37,227	13,399	1430,370	782,512
-36,213	13,397	1428,886	781,658
-35,198	13,423	1427,760	781,136
-34,184	13,447	1426,930	780,762
-33,169	13,351	1425,497	779,493
-32,154	13,432	1424,290	779,187
-31,140	13,444	1423,008	778,512
-30,125	13,489	1421,978	778,128
-29,111	13,395	1420,918	777,075
-28,096	13,343	1419,806	776,188
-27,082	13,311	1418,894	775,508
-26,067	13,337	1417,698	774,948
-25,052	13,330	1416,816	774,403
-24,038	13,344	1415,502	773,720
-23,023	13,256	1414,950	772,970
-22,009	13,266	1413,585	772,240
-20,994	13,296	1412,717	771,879
-19,979	13,289	1411,683	771,249
-18,965	13,318	1410,783	770,865
-17,950	13,273	1409,922	770,152
-16,936	13,251	1409,076	769,554
-15,921	13,235	1407,794	768,749
-14,906	13,224	1406,866	768,160
-13,892	13,281	1406,027	767,941
-12,877	13,259	1405,184	767,347
-11,863	13,249	1404,318	766,798
-10,848	13,205	1403,587	766,163
-9,833	13,196	1402,518	765,503
-8,819	13,126	1401,659	764,681
-7,804	13,137	1400,840	764,255
-6,790	13,163	1399,673	763,708
-5,775	13,187	1398,521	763,162
-4,760	13,148	1397,589	762,439
-3,746	13,116	1396,793	761,826
-2,731	13,119	1396,088	761,425
-1,717	13,088	1395,173	760,755
-0,702	13,113	1393,215	759,773
0,313	16,953	1310,186	732,282
1,327	33,184	703,858	430,910
2,342	51,113	123,240	82,555
3,356	4,479	16,645	8,609
4,371	-4,357	3,343	1,630
5,386	-28,824	0,572	0,231
6,400	-200,000	0,076	0,254
7,415	77,293	-0,211	-0,158
8,429	66,359	-0,284	-0,204
9,444	78,625	-0,341	-0,258
10,459	-28,133	-0,262	-0,107
11,473	-29,018	-0,361	-0,146
12,488	-50,392	-0,342	-0,113
13,502	141,568	-0,284	-0,266
14,517	44,815	-0,342	-0,222
15,531	64,054	-0,340	-0,241
16,546	-43,408	-0,441	-0,157
17,561	217,053	-0,248	-0,279
18,575	-45,298	-0,289	-0,101
19,590	-10,323	-0,228	-0,106
20,604	-96,957	-0,329	-0,060
21,619	245,130	-0,292	-0,347
22,634	97,579	-0,548	-0,444
23,648	161,391	-0,360	-0,356
24,663	5,813	-0,493	-0,257
25,677	20,022	-0,327	-0,186
26,692	36,659	-0,355	-0,221
27,707	1,542	-0,325	-0,164
28,721	38,594	-0,427	-0,268
29,736	97,431	-0,418	-0,338
30,750	319,313	-0,334	-0,449
31,765	117,696	-0,234	-0,203
32,780	-25,120	-0,349	-0,145
33,794	-17,671	-0,388	-0,171
34,809	365,079	-0,222	-0,317
35,823	138,005	-0,363	-0,336
36,838	50,903	-0,300	-0,200
37,853	142,341	-0,408	-0,382
38,867	112,449	-0,364	-0,311
39,882	109,003	-0,298	-0,251
40,896	25,478	-0,367	-0,215
41,911	-41,822	-0,349	-0,125
42,926	62,455	-0,313	-0,220
43,940	89,923	-0,291	-0,229
44,955	102,905	-0,322	-0,266
45,969	-28,896	-0,382	-0,154
46,984	-29,761	-0,317	-0,127
47,999	-77,531	-0,443	-0,107
49,013	324,670	-0,192	-0,259
50,028	-51,760	-0,280	-0,091
51,042	120,162	-0,283	-0,247
52,057	60,964	-0,449	-0,313
53,071	139,838	-0,303	-0,282
54,086	-44,033	-0,398	-0,140
55,101	82,400	-0,307	-0,235
56,115	14,042	-0,233	-0,127
57,130	-2,299	-0,327	-0,161
58,144	81,545	-0,480	-0,365
59,159	67,794	-0,365	-0,262
60,174	34,754	-0,342	-0,210
61,188	78,977	-0,317	-0,239
62,203	-33,632	-0,404	-0,156
63,217	-50,510	-0,370	-0,122
64,232	42,037	-0,333	-0,212
65,247	143,788	-0,252	-0,236
66,261	128,321	-0,394	-0,353
67,276	118,190	-0,322	-0,279
68,290	78,028	-0,400	-0,300
69,305	221,965	-0,269	-0,304
70,320	140,253	-0,207	-0,192
71,334	-60,941	-0,331	-0,098
72,349	47,756	-0,379	-0,248
73,363	286,209	-0,274	-0,348
74,378	106,039	-0,316	-0,263
75,393	19,704	-0,312	-0,176
76,407	-11,884	-0,218	-0,100
77,422	-32,684	-0,189	-0,073
78,436	159,425	-0,323	-0,316
79,451	-0,396	-0,319	-0,159
80,466	127,937	-0,285	-0,255
81,480	82,189	-0,366	-0,279
82,495	-4,592	-0,395	-0,191
83,509	63,763	-0,353	-0,249
84,524	-55,677	-0,223	-0,070
85,539	42,700	-0,193	-0,123
86,553	29,130	-0,364	-0,216
87,568	8,678	-0,437	-0,230
88,582	7,521	-0,413	-0,216
89,597	52,432	-0,351	-0,235
90,611	75,398	-0,304	-0,225
91,626	222,112	-0,235	-0,266
92,641	65,656	-0,299	-0,213
93,655	61,405	-0,358	-0,250
94,670	102,850	-0,209	-0,172
95,684	218,013	-0,262	-0,293
96,699	420,893	-0,127	-0,192
97,714	124,658	-0,290	-0,256
98,728	3,167	-0,233	-0,118
99,743	113,495	-0,280	-0,238
100,757	-41,839	-0,366	-0,131
101,772	-58,843	-0,260	-0,078
102,787	57,183	-0,337	-0,230
103,801	61,677	-0,347	-0,242
104,816	63,797	-0,197	-0,139
105,830	260,612	-0,243	-0,295
106,845	91,111	-0,194	-0,153
107,860	244,981	-0,214	-0,253
108,874	71,968	-0,293	-0,213
109,889	137,632	-0,352	-0,323
110,903	-100,953	-0,255	0,043
111,918	-142,485	-0,257	-0,017
112,933	-29,807	-0,320	-0,127
113,947	-83,029	-0,213	-0,048
114,962	539,974	-0,143	-0,240
115,976	169,744	-0,164	-0,165
116,991	-43,276	-0,362	-0,127
118,006	321,276	-0,155	-0,207
119,020	-43,162	-0,413	-0,146
120,035	107,836	-0,153	-0,127
121,049	-16,784	-0,226	-0,100
122,064	41,770	-0,218	-0,138
123,079	800,000	-0,087	-0,204
124,093	49,357	-0,362	-0,238
125,108	688,040	-0,250	-0,459
126,122	363,442	-0,203	-0,286
127,137	47,229	-0,171	-0,111
128,151	-136,166	-0,222	-0,018
129,166	-130,928	-0,249	0,023
130,181	19,818	-0,248	-0,139
131,195	14,983	-0,268	-0,146
132,210	69,341	-0,241	-0,173
133,224	98,340	-0,230	-0,185
134,239	-63,412	-0,228	-0,065
135,254	135,081	-0,313	-0,284
136,268	-63,232	-0,223	-0,064
137,283	282,301	-0,249	-0,313
138,297	116,470	-0,204	-0,175
139,312	423,489	-0,164	-0,248
140,327	10,679	-0,293	-0,156
141,341	346,195	-0,083	-0,114
142,356	-13,317	-0,206	-0,093
143,370	43,277	-0,169	-0,108
144,385	25,269	-0,208	-0,120
145,400	528,479	-0,190	-0,314
146,414	359,429	-0,201	-0,282
147,429	-103,942	-0,309	-0,050
148,443	104,087	-0,269	-0,221
149,458	429,354	-0,103	-0,156
150,473	48,763	-0,164	-0,107
151,487	108,597	-0,271	-0,226
152,502	27,432	-0,351	-0,205
153,516	25,588	-0,258	-0,149
154,531	211,135	-0,198	-0,217
155,546	127,493	-0,238	-0,211
156,560	213,733	-0,245	-0,270
157,575	-93,743	-0,199	-0,038
158,589	229,353	-0,159	-0,182
159,604	-200,000	-0,054	-0,266
160,619	44,473	-0,293	-0,187
161,633	33,351	-0,303	-0,183
162,648	-29,238	-0,244	-0,097
163,662	29,175	-0,181	-0,107
164,677	653,238	-0,065	-0,116
165,692	75,929	-0,192	-0,141
166,706	-115,263	-0,264	0,034
167,721	109,375	-0,309	-0,258
168,735	800,000	-0,145	-0,339
169,750	800,000	-0,152	-0,367
170,764	-200,000	-0,064	-0,202
171,779	461,104	-0,185	-0,288
172,794	278,820	-0,171	-0,213
173,808	-41,010	-0,201	-0,072
174,823	230,087	-0,245	-0,279
175,837	-10,612	-0,289	-0,133
176,852	11,384	-0,400	-0,213
177,867	800,000	-0,138	-0,288
178,881	48,158	-0,272	-0,177
179,896	7,403	-0,301	-0,156
180,910	14,476	-0,194	-0,105
181,925	225,547	-0,240	-0,271
182,940	-100,764	-0,259	-0,044
183,954	219,074	-0,148	-0,165
184,969	-24,767	-0,263	-0,108
185,983	176,107	-0,113	-0,114
186,998	105,456	-0,174	-0,143
188,013	153,329	-0,199	-0,190
189,027	221,218	-0,223	-0,250
190,042	224,599	-0,160	-0,181
191,056	220,866	-0,241	-0,270
192,071	-97,117	-0,404	-0,073
193,086	45,655	-0,214	-0,137
194,100	-56,841	-0,180	-0,055
195,115	260,836	-0,248	-0,299
196,129	251,133	-0,109	-0,129
197,144	-76,547	-0,221	-0,054
198,159	101,427	-0,176	-0,142
199,173	800,000	-0,101	-0,265
200,188	177,825	-0,163	-0,166
201,202	-3,219	-0,180	-0,087
202,217	-24,037	-0,216	-0,090
203,232	765,553	-0,118	-0,225
204,246	-10,011	-0,174	-0,080
205,261	157,576	-0,262	-0,252
206,275	-48,236	-0,176	-0,059
207,290	348,916	-0,106	-0,146
208,304	-200,000	-0,042	-0,163
209,319	356,178	-0,142	-0,197
210,334	282,129	-0,151	-0,188
211,348	1,389	-0,213	-0,106
212,363	800,000	-0,141	-0,296
213,377	25,809	-0,148	-0,085
214,392	30,000	-0,218	-0,129
215,407	-44,971	-0,203	-0,070
216,421	800,000	-0,062	-0,173
217,436	139,259	-0,120	-0,109
218,450	87,767	-0,292	-0,224
219,465	40,389	-0,352	-0,220
220,480	800,000	-0,081	-0,167
221,494	48,559	-0,163	-0,106
222,509	-73,005	-0,226	-0,057
223,523	147,013	-0,194	-0,181
224,538	-27,955	-0,220	-0,088
225,553	800,000	-0,112	-0,233
226,567	152,611	-0,137	-0,130
227,582	153,966	-0,184	-0,175
228,596	-113,941	-0,222	-0,030
229,611	-200,000	-0,044	-0,291
230,626	-89,499	-0,179	-0,036
231,640	-200,000	-0,053	-0,209
232,655	-13,240	-0,249	-0,111
233,669	380,910	-0,218	-0,311
234,684	-51,575	-0,288	-0,093
235,699	105,492	-0,137	-0,112
236,713	-94,247	-0,312	-0,059
237,728	323,776	-0,159	-0,210
238,742	-32,572	-0,126	-0,048
239,757	130,371	-0,224	-0,199
240,772	76,481	-0,141	-0,104
241,786	800,000	-0,092	-0,269
242,801	12,046	-0,155	-0,083
243,815	799,364	-0,070	-0,135
244,830	346,018	-0,120	-0,163
245,844	45,303	-0,136	-0,087
246,859	-200,000	-0,046	-0,187
247,874	-1,860	-0,277	-0,135
248,888	242,926	-0,168	-0,195
249,903	55,681	-0,206	-0,138
250,917	520,399	-0,034	-0,055
251,932	-38,897	-0,124	-0,045
252,947	-108,877	-0,291	-0,043
253,961	93,885	-0,268	-0,210
254,976	96,500	-0,284	-0,225
255,990	357,695	-0,135	-0,187
257,005	115,710	-0,166	-0,140
258,020	800,000	-0,083	-0,197
259,034	-200,000	-0,057	-0,222
260,049	140,574	-0,219	-0,200
261,063	-122,590	-0,134	-0,015
262,078	800,000	-0,097	-0,280
263,093	-119,054	-0,282	-0,034
264,107	-63,029	-0,242	-0,069
265,122	654,879	-0,103	-0,184
266,136	148,860	-0,134	-0,125
267,151	30,693	-0,140	-0,083
268,166	-128,845	-0,183	-0,018
269,180	-58,148	-0,137	-0,041
270,195	289,413	-0,159	-0,200
271,209	-99,741	-0,153	-0,026
272,224	68,715	-0,098	-0,069
273,239	-82,148	-0,221	0,049
274,253	60,365	-0,086	-0,059
275,268	-78,644	-0,148	-0,035
276,282	161,141	-0,162	-0,157
277,297	242,665	-0,086	-0,099
278,312	-161,927	-0,185	0,006
279,326	-68,051	-0,188	-0,050
280,341	106,815	-0,115	-0,094
281,355	55,054	-0,193	-0,129
282,370	330,440	-0,156	-0,209
283,384	-103,649	-0,185	0,030
284,399	349,220	-0,129	-0,176
285,414	-54,321	-0,126	-0,039
286,428	20,693	-0,146	-0,081
287,443	37,950	-0,116	-0,071
288,457	76,762	-0,084	-0,062
289,472	800,000	-0,058	-0,132
290,487	-67,124	-0,168	-0,045
291,501	-25,862	-0,086	0,035
292,516	435,603	-0,096	-0,144
293,530	-97,376	-0,173	-0,031
294,545	-98,051	-0,125	-0,022
295,560	-62,517	-0,131	-0,037
296,574	-5,389	-0,183	-0,086
297,589	-122,424	-0,193	-0,021
298,603	46,443	-0,162	-0,103
299,618	134,823	-0,206	-0,185
300,633	41,341	-0,247	-0,153
301,647	-120,793	-0,147	-0,017
302,662	-106,438	-0,111	-0,017
303,676	45,293	-0,113	-0,072
304,691	46,742	-0,202	-0,129
305,706	34,382	-0,238	-0,143
306,720	143,958	-0,151	-0,139
307,735	131,711	-0,138	-0,122
308,749	800,000	-0,087	-0,212
309,764	-190,566	-0,163	0,001
310,779	-200,000	0,054	-0,193
311,793	-124,664	-0,072	0,008
312,808	157,659	-0,163	-0,156
313,822	-49,750	-0,190	-0,062
314,837	559,602	-0,145	-0,241
315,852	414,163	0,016	-0,023
316,866	-200,000	0,018	-0,062
317,881	77,934	-0,189	-0,138
318,895	597,969	-0,132	-0,225
319,910	73,350	-0,117	-0,084
320,925	69,789	-0,233	-0,165
321,939	103,959	-0,217	-0,175
322,954	-182,103	-0,096	-0,001
323,968	-200,000	0,013	-0,098
324,983	800,000	-0,053	-0,108
325,997	-124,685	-0,121	0,013
327,012	158,171	-0,119	-0,114
328,027	168,352	-0,220	-0,215
329,041	-99,594	-0,241	-0,041
330,056	-153,126	-0,098	-0,005
331,070	612,817	0,028	-0,049
332,085	-200,000	-0,010	-0,109
333,100	800,000	-0,021	-0,058
334,114	-9,329	-0,167	0,076
335,129	226,361	-0,087	-0,097
336,143	-84,515	-0,162	-0,035
337,158	-22,482	-0,184	-0,076
338,173	-66,388	-0,086	-0,023
339,187	-15,658	0,020	-0,009
340,202	106,366	-0,076	-0,062
341,216	96,517	-0,171	-0,134
342,231	22,187	-0,231	-0,129
343,246	800,000	-0,131	-0,287
344,260	-191,488	-0,175	0,001
345,275	-200,000	-0,002	-0,103
346,289	-161,051	-0,147	-0,005
347,304	23,211	-0,182	-0,102
348,319	363,297	-0,139	-0,192
349,333	-200,000	-0,051	-0,191
350,348	167,994	-0,037	-0,036
351,362	75,343	-0,112	-0,081
352,377	-43,597	-0,221	0,076
353,392	365,072	-0,043	-0,060
354,406	-32,956	-0,218	-0,083
355,421	208,745	1314,503	1412,429
356,435	160,630	1475,213	1412,928
