DTS Sentinel unit serial number:	SN410029Multiplexer serial number:	ORYXHardware model number:	OX2-SRSoftware version number:	ORYX F/W v4,00 Oryx Data Collector v3.7.2.0data status	okinstallation	B3 Nyhavnadifferential loss correction	single-endedforward channel	channel 1reverse channel	N/Adate	2023/11/29time	23:12:30forward acquisition time	300,00reverse acquisition time	0,00gamma	499,1914k internal	0,3210k external	0,3210temperature offset calibration	1,0000default loss term (dB/km)	0,3820temperature slope calibration	1,0000multiplexer offset coefficient	1,0000multiplexer slope coefficient	1,0000fibre end	0,00T internal ref (°C)	10,87T ext. ref 1 (°C)	-3,82T ext. ref 2 (°C)	-3,93length (m)	temperature (°C)	Stokes	anti-Stokes-744,400	800,000	-0,097	-0,207
-743,385	800,000	0,094	0,191
-742,371	181,383	-0,236	-0,251
-741,356	-200,000	-0,073	0,243
-740,342	279,885	-0,234	-0,304
-739,327	534,684	-0,161	0,278
-738,312	182,253	-0,191	-0,205
-737,298	800,000	-0,045	0,144
-736,283	331,032	-0,152	-0,213
-735,269	-200,000	0,011	0,153
-734,254	800,000	-0,110	-0,276
-733,239	-113,280	-0,298	0,042
-732,225	308,595	-0,161	-0,219
-731,210	330,563	0,069	0,096
-730,196	128,448	-0,085	0,079
-729,181	800,000	-0,104	-0,209
-728,167	217,627	0,061	-0,070
-727,152	251,533	-0,078	-0,097
-726,137	131,138	-0,094	-0,088
-725,123	332,599	-0,074	0,104
-724,108	800,000	-0,020	-0,047
-723,094	800,000	0,029	-0,080
-722,079	12,782	-0,134	-0,075
-721,064	349,410	0,077	0,110
-720,050	222,579	-0,018	0,021
-719,035	-132,690	-0,103	-0,009
-718,021	-92,651	-0,146	0,029
-717,006	-200,000	0,034	-0,125
-715,991	-200,000	0,042	-0,149
-714,977	91,707	-0,119	0,097
-713,962	90,820	-0,054	0,044
-712,948	460,501	0,040	-0,066
-711,933	166,535	0,057	-0,059
-710,918	-82,727	-0,047	-0,011
-709,904	98,639	-0,105	0,087
-708,889	-200,000	0,001	0,005
-707,875	-200,000	-0,001	0,120
-706,860	-105,459	-0,097	-0,016
-705,845	476,394	0,042	-0,069
-704,831	121,598	-0,037	0,033
-703,816	275,718	0,019	0,025
-702,802	-117,636	-0,077	-0,010
-701,787	-200,000	-0,002	-0,043
-700,772	8,855	-0,036	0,019
-699,758	-200,000	-0,006	0,037
-698,743	-129,217	0,116	0,012
-697,729	-173,666	0,063	0,001
-696,714	178,737	-0,029	-0,031
-695,699	41,742	0,069	0,045
-694,685	-70,509	-0,069	0,019
-693,670	288,711	-0,019	0,025
-692,656	230,599	0,056	-0,066
-691,641	536,316	-0,020	-0,035
-690,627	800,000	-0,040	0,095
-689,612	-200,000	0,012	-0,129
-688,597	-200,000	-0,029	-0,130
-687,583	-200,000	0,004	-0,042
-686,568	-118,498	-0,108	0,014
-685,554	800,000	0,055	0,131
-684,539	-41,298	-0,063	0,023
-683,524	-66,086	0,046	0,013
-682,510	219,929	-0,063	-0,073
-681,495	-170,203	0,020	-0,000
-680,481	85,838	-0,112	-0,089
-679,466	140,709	-0,033	-0,032
-678,451	136,985	0,034	0,032
-677,437	-7,282	-0,039	0,019
-676,422	69,515	-0,110	-0,082
-675,408	-40,802	0,103	0,038
-674,393	324,449	-0,065	0,090
-673,378	-58,771	-0,052	-0,016
-672,364	42,053	-0,070	-0,046
-671,349	-119,391	0,089	-0,011
-670,335	137,248	-0,088	-0,083
-669,320	-200,000	-0,018	-0,117
-668,305	-77,760	-0,089	-0,022
-667,291	-200,000	0,000	0,002
-666,276	-200,000	-0,007	-0,180
-665,262	-52,737	0,062	-0,020
-664,247	81,609	-0,041	0,032
-663,232	197,869	-0,003	-0,003
-662,218	43,948	0,108	-0,072
-661,203	800,000	-0,046	0,108
-660,189	-200,000	-0,013	0,131
-659,174	72,832	-0,096	-0,073
-658,159	-88,323	0,073	-0,016
-657,145	155,649	-0,156	-0,155
-656,130	-22,882	0,043	0,019
-655,116	-105,088	-0,028	0,005
-654,101	202,487	0,054	-0,060
-653,086	-46,077	-0,073	0,026
-652,072	127,232	-0,077	-0,070
-651,057	58,013	-0,159	-0,112
-650,043	-52,249	0,112	0,037
-649,028	-62,190	0,094	0,028
-648,014	229,683	0,096	0,114
-646,999	-200,000	0,022	0,134
-645,984	119,555	0,064	0,057
-644,970	72,699	-0,072	0,054
-643,955	800,000	-0,053	-0,133
-642,941	-200,000	0,009	-0,075
-641,926	-80,413	0,079	-0,019
-640,911	215,809	-0,040	-0,046
-639,897	-200,000	0,022	-0,111
-638,882	274,564	-0,054	0,069
-637,868	130,848	-0,052	-0,048
-636,853	800,000	0,035	-0,104
-635,838	-103,013	-0,048	-0,008
-634,824	238,805	-0,065	0,078
-633,809	368,992	-0,015	0,022
-632,795	34,699	0,135	0,085
-631,780	271,897	-0,043	0,055
-630,765	83,119	0,074	-0,058
-629,751	3,472	0,034	-0,018
-628,736	-164,294	-0,104	0,003
-627,722	800,000	-0,033	0,085
-626,707	-26,190	0,104	-0,044
-625,692	800,000	-0,007	0,020
-624,678	57,355	0,035	0,025
-623,663	455,939	0,036	-0,057
-622,649	-200,000	-0,022	-0,078
-621,634	800,000	-0,032	-0,065
-620,619	2,204	0,052	-0,027
-619,605	-200,000	-0,022	0,078
-618,590	-29,165	-0,208	0,086
-617,576	19,456	0,134	0,078
-616,561	800,000	-0,073	-0,157
-615,546	-90,377	0,031	0,006
-614,532	-200,000	0,003	0,102
-613,517	224,003	0,043	0,050
-612,503	-200,000	0,014	-0,076
-611,488	800,000	0,007	-0,017
-610,474	593,970	0,028	0,050
-609,459	-9,383	0,096	-0,046
-608,444	-156,647	-0,080	-0,004
-607,430	-200,000	-0,018	-0,098
-606,415	165,420	-0,124	0,126
-605,401	-7,380	0,026	-0,013
-604,386	-200,000	-0,008	0,046
-603,371	-59,903	0,062	-0,019
-602,357	-110,185	-0,126	0,019
-601,342	-95,809	-0,093	-0,018
-600,328	-169,769	-0,150	0,004
-599,313	122,510	0,020	0,018
-598,298	56,787	-0,050	-0,035
-597,284	-200,000	-0,005	-0,032
-596,269	-49,159	0,106	-0,036
-595,255	88,037	-0,154	0,123
-594,240	-200,000	-0,027	-0,153
-593,225	-200,000	-0,023	-0,098
-592,211	176,207	-0,025	0,027
-591,196	325,768	0,023	-0,032
-590,182	-18,622	0,049	-0,022
-589,167	44,545	0,098	0,065
-588,152	-70,424	0,096	0,026
-587,138	-11,729	0,101	-0,048
-586,123	666,146	-0,044	-0,082
-585,109	-60,599	0,132	-0,040
-584,094	-34,445	-0,060	0,023
-583,079	-114,534	0,336	0,046
-582,065	95,865	0,079	-0,065
-581,050	-200,000	-0,019	0,085
-580,036	-136,795	-0,031	0,003
-579,021	-42,081	-0,182	-0,067
-578,006	-137,107	0,079	-0,006
-576,992	-200,000	0,011	0,057
-575,977	211,498	0,087	0,099
-574,963	280,248	0,046	0,059
-573,948	15,082	-0,066	-0,037
-572,934	-99,975	0,147	0,026
-571,919	13,078	-0,168	-0,093
-570,904	-200,000	-0,049	-0,192
-569,890	314,005	-0,128	-0,174
-568,875	-106,201	0,071	0,011
-567,861	339,298	0,036	0,050
-566,846	18,505	-0,082	-0,047
-565,831	-27,090	-0,070	0,029
-564,817	-44,855	-0,085	-0,030
-563,802	-60,372	-0,097	-0,030
-562,788	-191,775	0,040	-0,000
-561,773	-1,100	0,088	-0,045
-560,758	800,000	-0,013	0,033
-559,744	-200,000	0,025	0,118
-558,729	484,735	-0,054	0,088
-557,715	-106,795	0,132	0,021
-556,700	649,989	-0,016	-0,030
-555,685	800,000	-0,014	-0,034
-554,671	-200,000	-0,008	0,083
-553,656	-166,600	0,204	0,006
-552,642	-162,073	0,050	0,002
-551,627	782,381	-0,043	0,084
-550,612	-151,180	0,058	0,003
-549,598	259,861	-0,042	-0,052
-548,583	-102,638	0,096	0,016
-547,569	38,932	0,073	0,047
-546,554	-200,000	-0,011	-0,068
-545,539	-200,000	-0,001	0,034
-544,525	-21,717	-0,073	0,032
-543,510	237,144	0,018	-0,022
-542,496	177,981	-0,160	-0,168
-541,481	488,880	0,065	-0,107
-540,466	400,587	-0,059	-0,090
-539,452	-0,558	0,139	0,071
-538,437	631,041	0,019	0,035
-537,423	800,000	0,031	0,080
-536,408	518,851	-0,031	-0,053
-535,393	-177,087	-0,125	0,002
-534,379	800,000	-0,012	-0,026
-533,364	-104,422	-0,218	0,036
-532,350	-19,011	0,022	-0,010
-531,335	415,978	0,042	0,064
-530,321	-65,474	-0,051	0,015
-529,306	-88,547	0,162	-0,035
-528,291	-93,130	-0,055	0,011
-527,277	-200,000	-0,033	0,143
-526,262	247,178	-0,078	0,095
-525,248	-12,579	-0,121	0,057
-524,233	274,335	0,069	0,088
-523,218	413,048	-0,081	0,125
-522,204	68,554	0,046	0,034
-521,189	-200,000	0,026	0,085
-520,175	-24,153	-0,119	0,051
-519,160	763,378	-0,018	-0,035
-518,145	-200,000	0,001	0,103
-517,131	408,091	0,081	0,124
-516,116	800,000	-0,060	0,121
-515,102	409,884	-0,017	0,025
-514,087	279,315	-0,065	-0,084
-513,072	-200,000	-0,000	-0,198
-512,058	800,000	-0,020	-0,055
-511,043	-102,789	0,143	-0,024
-510,029	-200,000	-0,000	0,061
-509,014	-107,713	0,078	-0,012
-507,999	241,318	0,100	-0,120
-506,985	-50,989	-0,119	-0,040
-505,970	-128,706	-0,112	0,011
-504,956	-100,669	0,046	-0,008
-503,941	49,303	-0,121	0,081
-502,926	530,767	0,103	-0,176
-501,912	-31,138	0,202	-0,081
-500,897	-200,000	-0,025	0,084
-499,883	189,100	-0,048	-0,051
-498,868	-200,000	0,013	-0,091
-497,853	-84,340	-0,108	-0,024
-496,839	577,610	0,079	-0,140
-495,824	60,259	0,142	-0,100
-494,810	-200,000	0,018	0,134
-493,795	207,535	0,054	-0,060
-492,781	-158,131	-0,061	0,003
-491,766	-50,275	-0,075	0,025
-490,751	-200,000	-0,010	0,062
-489,737	-65,883	0,037	-0,010
-488,722	230,600	-0,046	0,054
-487,708	-200,000	-0,013	0,093
-486,693	-154,331	-0,133	0,006
-485,678	210,607	0,098	-0,111
-484,664	800,000	-0,087	-0,195
-483,649	-81,089	0,035	0,008
-482,635	-200,000	-0,008	0,037
-481,620	-200,000	0,002	0,088
-480,605	560,655	0,026	0,045
-479,591	-74,331	-0,116	-0,030
-478,576	-164,771	-0,128	0,004
-477,562	36,962	-0,072	-0,046
-476,547	204,402	-0,090	0,101
-475,532	-200,000	-0,027	-0,112
-474,518	137,281	-0,065	0,061
-473,503	-21,586	0,021	0,009
-472,489	172,859	0,048	0,050
-471,474	41,739	-0,068	-0,044
-470,459	251,151	-0,165	-0,202
-469,445	-200,000	0,008	-0,030
-468,430	-92,426	0,031	-0,006
-467,416	-200,000	0,014	-0,047
-466,401	267,279	0,113	0,142
-465,386	-90,152	0,107	0,022
-464,372	611,584	-0,052	0,093
-463,357	100,016	0,119	-0,099
-462,343	265,014	-0,034	-0,042
-461,328	-85,699	0,146	0,032
-460,313	800,000	-0,073	0,147
-459,299	73,354	0,075	0,056
-458,284	137,341	0,044	-0,042
-457,270	39,704	-0,029	0,018
-456,255	800,000	0,022	-0,058
-455,241	109,373	-0,131	-0,113
-454,226	-200,000	0,008	-0,037
-453,211	-33,980	-0,152	0,060
-452,197	800,000	-0,025	0,065
-451,182	356,709	0,035	0,050
-450,168	138,023	-0,102	-0,096
-449,153	800,000	-0,082	0,176
-448,138	-165,447	0,023	-0,001
-447,124	-87,288	-0,148	-0,032
-446,109	185,186	-0,107	-0,114
-445,095	603,153	0,056	-0,100
-444,080	113,359	0,045	0,039
-443,065	368,073	-0,077	0,112
-442,051	800,000	0,036	-0,093
-441,036	-200,000	-0,002	0,022
-440,022	101,466	0,090	-0,075
-439,007	-200,000	-0,022	-0,074
-437,992	22,099	0,039	0,023
-436,978	542,595	0,018	-0,030
-435,963	-112,428	-0,050	-0,007
-434,949	-200,000	0,034	0,151
-433,934	-168,108	-0,100	0,003
-432,919	374,042	-0,070	0,103
-431,905	-43,922	-0,038	-0,014
-430,890	-200,000	0,017	-0,054
-429,876	183,269	0,012	-0,013
-428,861	-200,000	0,029	0,111
-427,846	137,626	-0,057	0,054
-426,832	-200,000	-0,011	-0,081
-425,817	-18,764	0,071	0,032
-424,803	-91,784	-0,054	-0,011
-423,788	-47,624	0,065	0,022
-422,773	153,178	-0,050	-0,049
-421,759	-200,000	-0,008	-0,032
-420,744	-200,000	0,006	0,041
-419,730	800,000	0,018	-0,038
-418,715	-200,000	0,011	-0,070
-417,701	-8,813	-0,038	0,018
-416,686	-24,068	0,088	0,038
-415,671	800,000	0,015	-0,029
-414,657	38,901	0,007	0,005
-413,642	-103,256	-0,082	0,014
-412,628	-16,160	-0,037	-0,017
-411,613	-200,000	0,006	0,081
-410,598	-82,082	0,085	-0,020
-409,584	414,904	-0,034	0,052
-408,569	100,665	0,105	0,087
-407,555	-200,000	0,008	0,152
-406,540	-200,000	-0,009	0,095
-405,525	-53,495	-0,041	0,013
-404,511	800,000	-0,039	-0,100
-403,496	-4,692	-0,191	-0,094
-402,482	152,622	-0,030	0,029
-401,467	-125,421	-0,065	-0,007
-400,452	-123,394	0,043	0,005
-399,438	-200,000	-0,013	0,044
-398,423	-141,891	0,064	0,004
-397,409	-200,000	-0,037	0,130
-396,394	65,537	-0,010	0,007
-395,379	96,880	0,042	-0,035
-394,365	167,661	0,133	0,135
-393,350	113,862	0,095	0,082
-392,336	-200,000	-0,010	0,165
-391,321	-153,275	-0,076	-0,004
-390,306	336,256	0,044	0,062
-389,292	30,430	-0,172	-0,105
-388,277	800,000	0,031	0,064
-387,263	7,344	0,071	0,038
-386,248	-5,709	-0,174	0,085
-385,233	800,000	-0,048	0,135
-384,219	-112,147	-0,050	0,007
-383,204	-141,942	0,085	0,006
-382,190	-200,000	0,019	-0,112
-381,175	800,000	0,086	-0,172
-380,160	-200,000	-0,036	-0,118
-379,146	-37,433	0,044	0,017
-378,131	-200,000	-0,018	-0,103
-377,117	-200,000	0,008	-0,089
-376,102	-200,000	-0,005	0,017
-375,088	297,304	-0,116	-0,153
-374,073	84,120	0,074	-0,058
-373,058	413,452	-0,041	-0,062
-372,044	-21,895	-0,065	0,028
-371,029	-60,591	-0,138	-0,042
-370,015	479,239	0,034	-0,055
-369,000	239,384	-0,041	-0,049
-367,985	77,571	0,092	-0,070
-366,971	-177,728	-0,105	0,002
-365,956	-200,000	0,010	0,046
-364,942	-200,000	0,002	0,086
-363,927	-200,000	0,031	0,106
-362,912	129,281	0,049	0,045
-361,898	-39,935	-0,126	0,047
-360,883	699,997	-0,053	-0,100
-359,869	-61,542	0,034	0,010
-358,854	-200,000	0,001	0,059
-357,839	-93,268	0,024	-0,005
-356,825	-106,540	0,091	0,014
-355,810	-112,074	-0,100	0,014
-354,796	122,288	-0,021	-0,018
-353,781	-200,000	0,001	-0,065
-352,766	-200,000	0,005	0,026
-351,752	-44,243	0,057	0,020
-350,737	204,254	0,024	0,027
-349,723	56,378	0,114	-0,079
-348,708	115,567	0,023	0,020
-347,693	31,156	-0,106	-0,065
-346,679	-200,000	-0,022	-0,146
-345,664	-200,000	0,029	-0,151
-344,650	-200,000	-0,005	-0,089
-343,635	800,000	-0,024	-0,056
-342,620	-129,206	-0,057	-0,006
-341,606	800,000	0,061	0,134
-340,591	-200,000	0,016	-0,125
-339,577	132,625	-0,141	-0,130
-338,562	-200,000	-0,004	0,068
-337,548	331,481	0,052	0,071
-336,533	-200,000	0,019	0,096
-335,518	116,743	0,111	0,097
-334,504	200,224	0,086	-0,094
-333,489	400,182	-0,109	-0,163
-332,475	20,245	0,057	-0,033
-331,460	-20,447	0,003	0,001
-330,445	-172,394	0,075	0,002
-329,431	455,794	-0,075	-0,119
-328,416	-200,000	0,010	0,101
-327,402	117,025	0,026	-0,023
-326,387	303,231	0,075	0,100
-325,372	-200,000	-0,023	-0,098
-324,358	-200,000	-0,024	-0,108
-323,343	800,000	0,031	-0,083
-322,329	-200,000	-0,031	0,113
-321,314	26,382	0,154	0,092
-320,299	-200,000	-0,007	-0,095
-319,285	800,000	-0,048	-0,128
-318,270	-69,622	-0,154	0,042
-317,256	-200,000	0,008	-0,056
-316,241	364,510	-0,026	0,038
-315,226	302,508	-0,081	0,108
-314,212	-113,915	0,149	-0,020
-313,197	-114,971	0,062	0,008
-312,183	203,582	0,103	-0,113
-311,168	196,941	-0,029	0,032
-310,153	-200,000	0,015	-0,099
-309,139	114,850	0,061	0,053
-308,124	73,080	0,050	0,037
-307,110	612,494	0,084	0,151
-306,095	-200,000	0,005	0,157
-305,080	185,109	-0,110	0,116
-304,066	-165,774	-0,002	0,000
-303,051	-56,017	-0,131	-0,042
-302,037	800,000	-0,008	-0,019
-301,022	800,000	0,069	-0,148
-300,008	-200,000	-0,038	-0,122
-298,993	-97,027	0,070	0,013
-297,978	-200,000	0,006	-0,068
-296,964	-67,695	0,037	0,010
-295,949	800,000	-0,038	-0,099
-294,935	-200,000	0,003	0,021
-293,920	36,273	0,071	0,045
-292,905	-200,000	0,007	0,157
-291,891	-200,000	0,003	0,022
-290,876	-200,000	0,030	0,149
-289,862	-200,000	0,016	0,105
-288,847	-200,000	0,027	-0,133
-287,832	426,234	0,048	0,074
-286,818	-200,000	0,005	-0,050
-285,803	-86,422	0,113	0,024
-284,789	455,942	0,035	0,055
-283,774	-141,015	-0,023	0,002
-282,759	28,470	0,042	0,025
-281,745	99,967	-0,044	0,036
-280,730	-200,000	-0,020	0,073
-279,716	-142,263	0,125	-0,009
-278,701	800,000	0,032	0,092
-277,686	-200,000	-0,009	0,081
-276,672	800,000	-0,032	-0,077
-275,657	593,585	-0,041	0,072
-274,643	-27,993	-0,010	-0,004
-273,628	-113,690	-0,070	-0,010
-272,613	-13,349	0,025	0,012
-271,599	199,331	0,088	0,096
-270,584	-200,000	-0,046	0,148
-269,570	132,471	-0,052	0,048
-268,555	599,670	0,035	0,062
-267,540	27,832	-0,099	-0,059
-266,526	-200,000	0,010	-0,092
-265,511	343,628	0,033	0,046
-264,497	39,843	0,054	-0,034
-263,482	-67,939	0,165	-0,046
-262,467	104,225	0,011	0,009
-261,453	-192,891	-0,110	0,001
-260,438	-154,854	0,022	-0,001
-259,424	-90,100	-0,067	-0,014
-258,409	-172,221	-0,104	0,002
-257,395	-101,467	0,117	-0,020
-256,380	-5,646	-0,067	-0,033
-255,365	38,889	-0,028	-0,018
-254,351	-54,738	-0,075	-0,024
-253,336	167,294	-0,042	0,042
-252,322	128,989	-0,064	-0,058
-251,307	-200,000	0,000	-0,088
-250,292	18,447	0,113	0,064
-249,278	-200,000	0,016	0,127
-248,263	-102,864	0,145	0,024
-247,249	11,321	0,143	0,077
-246,234	-22,567	-0,046	-0,020
-245,219	133,606	-0,097	-0,089
-244,205	665,881	0,030	0,056
-243,190	-175,158	0,148	0,003
-242,176	209,455	-0,039	-0,044
-241,161	112,588	-0,024	0,020
-240,146	800,000	-0,029	0,081
-239,132	-61,056	-0,045	-0,014
-238,117	227,019	0,019	0,021
-237,103	357,467	0,008	-0,012
-236,088	800,000	-0,062	0,153
-235,073	800,000	0,079	0,156
-234,059	-200,000	-0,017	0,179
-233,044	348,666	0,049	0,069
-232,030	128,100	-0,115	0,104
-231,015	-200,000	0,012	-0,129
-230,000	429,160	0,020	0,031
-228,986	-200,000	0,006	-0,215
-227,971	-72,952	-0,042	0,011
-226,957	-134,759	0,157	-0,013
-225,942	328,864	-0,020	0,028
-224,927	252,269	0,062	-0,075
-223,913	77,607	0,096	0,073
-222,898	4,996	-0,033	-0,017
-221,884	800,000	0,040	-0,079
-220,869	-84,284	0,059	0,013
-219,855	-129,558	-0,014	0,001
-218,840	513,338	0,042	0,071
-217,825	-140,088	0,052	-0,004
-216,811	-107,035	0,023	0,004
-215,796	800,000	-0,016	-0,048
-214,782	-200,000	0,016	0,162
-213,767	141,804	-0,046	-0,044
-212,752	-200,000	0,010	-0,067
-211,738	800,000	-0,017	0,052
-210,723	-37,277	-0,078	0,029
-209,709	-200,000	-0,010	-0,119
-208,694	285,772	0,076	-0,098
-207,679	-200,000	-0,012	0,066
-206,665	-36,463	0,067	0,026
-205,650	-32,199	-0,108	-0,043
-204,636	197,188	-0,059	0,064
-203,621	207,667	-0,102	-0,113
-202,606	737,982	0,054	-0,103
-201,592	-113,393	-0,201	0,028
-200,577	-200,000	0,020	-0,092
-199,563	-200,000	-0,001	-0,007
-198,548	588,208	0,014	0,024
-197,533	-152,927	0,172	0,008
-196,519	-11,954	0,129	-0,060
-195,504	122,377	-0,101	-0,090
-194,490	-200,000	-0,003	-0,108
-193,475	15,974	-0,115	-0,064
-192,460	448,889	0,052	-0,082
-191,446	-200,000	-0,022	0,145
-190,431	-200,000	0,057	0,193
-189,417	-52,092	0,118	-0,039
-188,402	-200,000	0,028	-0,142
-187,387	800,000	-0,027	-0,065
-186,373	-148,151	-0,120	0,007
-185,358	589,390	0,068	-0,119
-184,344	66,655	-0,042	-0,030
-183,329	154,603	0,030	-0,030
-182,315	124,180	0,037	-0,033
-181,300	800,000	-0,058	0,126
-180,285	800,000	0,027	-0,053
-179,271	-200,000	0,009	-0,133
-178,256	-200,000	-0,012	-0,074
-177,242	351,162	0,044	0,062
-176,227	-70,132	0,037	0,010
-175,212	-121,159	-0,055	-0,006
-174,198	19,314	0,089	0,051
-173,183	-200,000	0,003	-0,027
-172,169	-145,849	-0,084	0,005
-171,154	-17,998	0,051	0,023
-170,139	328,078	-0,024	-0,032
-169,125	-107,934	-0,071	0,011
-168,110	800,000	0,051	0,108
-167,096	313,882	0,071	0,095
-166,081	-200,000	-0,002	0,041
-165,066	253,724	-0,022	-0,026
-164,052	-189,966	-0,092	-0,001
-163,037	138,395	-0,054	-0,051
-162,023	-90,388	0,141	-0,029
-161,008	203,614	-0,091	-0,100
-159,993	42,030	-0,022	-0,014
-158,979	-200,000	-0,015	-0,165
-157,964	-200,000	-0,003	0,036
-156,950	216,196	0,019	-0,022
-155,935	-200,000	-0,002	0,105
-154,920	-56,841	0,099	-0,031
-153,906	465,094	0,043	0,069
-152,891	183,809	0,059	0,062
-151,877	62,186	-0,021	-0,015
-150,862	800,000	-0,012	-0,028
-149,847	-46,716	-0,082	-0,028
-148,833	578,019	0,034	-0,060
-147,818	18,798	0,147	0,083
-146,804	569,671	-0,079	-0,136
-145,789	800,000	0,021	0,060
-144,775	-20,382	-0,074	-0,032
-143,760	84,220	-0,032	-0,025
-142,745	691,946	-0,045	-0,084
-141,731	-200,000	0,016	0,089
-140,716	167,577	0,071	0,071
-139,702	-34,362	0,137	0,053
-138,687	62,840	-0,041	0,029
-137,672	-121,207	-0,106	0,012
-136,658	-200,000	-0,011	0,054
-135,643	-84,786	-0,102	0,023
-134,629	231,586	-0,065	0,076
-133,614	-107,307	-0,034	0,005
-132,599	-127,045	0,115	-0,012
-131,585	800,000	0,044	0,095
-130,570	156,419	0,079	0,077
-129,556	800,000	0,032	0,068
-128,541	289,483	-0,068	-0,088
-127,526	-200,000	0,013	-0,055
-126,512	48,754	-0,025	0,016
-125,497	381,385	0,083	0,121
-124,483	13,960	-0,016	0,009
-123,468	15,735	0,129	-0,071
-122,453	-200,000	-0,010	0,105
-121,439	-200,000	0,009	-0,095
-120,424	-33,243	-0,030	0,012
-119,410	-160,965	0,069	0,003
-118,395	6,137	0,123	-0,064
-117,380	-89,132	0,086	0,018
-116,366	85,717	-0,069	0,054
-115,351	-120,855	-0,119	-0,014
-114,337	303,533	0,058	-0,077
-113,322	57,238	0,068	0,047
-112,307	-200,000	-0,020	0,120
-111,293	60,983	0,058	0,040
-110,278	307,993	-0,012	-0,016
-109,264	800,000	0,018	-0,041
-108,249	388,112	0,013	0,019
-107,234	-200,000	0,002	0,115
-106,220	-200,000	-0,010	-0,042
-105,205	-54,670	-0,060	0,019
-104,191	-158,274	-0,177	0,007
-103,176	7,628	0,037	0,019
-102,162	-114,610	0,045	-0,006
-101,147	-42,438	0,022	-0,008
-100,132	759,387	0,022	-0,043
-99,118	148,917	-0,034	-0,032
-98,103	-191,405	0,070	-0,000
-97,089	-200,000	-0,015	0,079
-96,074	242,595	-0,127	0,150
-95,059	136,925	-0,078	0,072
-94,045	-96,703	-0,054	-0,010
-93,030	-131,354	0,107	-0,010
-92,016	158,650	0,067	-0,066
-91,001	-200,000	-0,017	0,077
-89,986	-200,000	-0,012	0,127
-88,972	388,042	0,003	0,005
-87,957	800,000	0,043	-0,132
-86,943	800,000	0,014	0,031
-85,928	-129,584	-0,099	0,010
-84,913	800,000	-0,050	-0,101
-83,899	15,249	-0,124	-0,068
-82,884	31,871	0,124	0,075
-81,870	143,622	-0,013	-0,012
-80,855	800,000	-0,044	0,125
-79,840	88,291	-0,158	0,123
-78,826	-53,888	-0,098	0,031
-77,811	-200,000	-0,006	-0,038
-76,797	-200,000	0,007	0,080
-75,782	-107,945	-0,031	-0,005
-74,767	-27,042	0,138	0,057
-73,753	75,829	0,044	-0,033
-72,738	-200,000	-0,022	0,087
-71,724	-189,108	-0,111	0,001
-70,709	261,268	-0,003	-0,004
-69,694	-200,000	-0,024	-0,117
-68,680	700,617	0,032	-0,060
-67,665	800,000	0,005	-0,012
-66,651	756,550	-0,021	0,041
-65,636	-200,000	-0,004	-0,039
-64,622	-200,000	0,022	0,117
-63,607	-39,810	-0,066	0,024
-62,592	-21,556	-0,135	-0,058
-61,578	644,973	0,017	-0,031
-60,563	8,251	0,138	0,073
-59,549	-32,067	-0,096	0,038
-58,534	17,000	-1,854	-1,034
-57,519	511,426	-1,262	-2,083
-56,505	-200,000	-0,295	-4,382
-55,490	404,567	0,938	1,400
-54,476	800,000	5,118	11,120
-53,461	-200,000	20,939	330,358
-52,446	800,000	757,847	2324,829
-51,432	550,185	1662,937	2826,238
-50,417	73,568	1664,628	1229,327
-49,403	18,719	1537,743	866,385
-48,388	12,735	1460,708	794,011
-47,373	19,098	1451,650	819,631
-46,359	15,924	1440,978	798,458
-45,344	11,007	1436,579	772,556
-44,330	10,948	1434,613	771,184
-43,315	10,893	1432,772	769,900
-42,300	10,902	1431,039	768,985
-41,286	10,944	1429,732	768,449
-40,271	10,946	1428,377	767,703
-39,257	10,904	1427,108	766,787
-38,242	10,932	1426,317	766,465
-37,227	10,924	1425,150	765,770
-36,213	10,949	1423,843	765,159
-35,198	10,917	1422,754	764,391
-34,184	11,006	1421,877	764,308
-33,169	10,928	1420,390	763,110
-32,154	10,978	1419,464	762,819
-31,140	10,978	1418,270	762,149
-30,125	11,017	1417,217	761,736
-29,111	10,980	1416,034	760,892
-28,096	11,013	1414,903	760,411
-27,082	10,951	1413,677	759,431
-26,067	10,894	1412,722	758,622
-25,052	10,883	1411,767	758,026
-24,038	10,914	1410,773	757,606
-23,023	10,892	1409,634	756,862
-22,009	10,879	1408,403	756,112
-20,994	10,930	1407,461	755,812
-19,979	10,914	1406,635	755,265
-18,965	10,868	1405,554	754,442
-17,950	10,916	1404,546	754,094
-16,936	10,829	1404,067	753,398
-15,921	10,765	1403,023	752,511
-14,906	10,802	1402,109	752,164
-13,892	10,831	1400,995	751,674
-12,877	10,823	1400,312	751,239
-11,863	10,803	1399,341	750,594
-10,848	10,803	1398,457	750,089
-9,833	10,760	1397,585	749,392
-8,819	10,705	1396,842	748,708
-7,804	10,710	1395,883	748,190
-6,790	10,716	1394,852	747,638
-5,775	10,789	1393,840	747,402
-4,760	10,713	1392,796	746,461
-3,746	10,753	1391,735	746,047
-2,731	10,758	1391,144	745,725
-1,717	10,728	1390,213	745,055
-0,702	10,738	1388,472	744,141
0,313	14,831	1301,954	716,510
1,327	31,230	693,331	418,878
2,342	48,092	120,208	79,146
3,356	1,364	16,489	8,333
4,371	14,906	3,367	1,853
5,386	70,724	0,879	0,641
6,400	-200,000	0,143	0,520
7,415	314,548	-0,163	-0,217
8,429	52,586	-0,306	-0,206
9,444	52,354	-0,342	-0,230
10,459	-75,846	-0,159	0,039
11,473	16,595	-0,396	-0,220
12,488	10,426	-0,297	-0,159
13,502	8,640	-0,306	-0,162
14,517	-65,753	-0,203	-0,057
15,531	46,550	-0,528	-0,345
16,546	83,253	-0,326	-0,250
17,561	364,174	-0,250	-0,355
18,575	-99,538	-0,265	-0,047
19,590	45,065	-0,199	-0,129
20,604	-49,895	-0,150	-0,050
21,619	63,958	-0,394	-0,279
22,634	82,180	-0,324	-0,247
23,648	236,186	-0,390	-0,455
24,663	440,705	-0,297	-0,458
25,677	99,757	-0,390	-0,318
26,692	24,443	-0,341	-0,198
27,707	11,877	-0,360	-0,194
28,721	81,878	-0,367	-0,279
29,736	5,073	-0,399	-0,206
30,750	175,262	-0,365	-0,373
31,765	46,059	-0,414	-0,270
32,780	-0,399	-0,362	-0,180
33,794	97,932	-0,380	-0,308
34,809	83,052	-0,364	-0,278
35,823	113,406	-0,333	-0,284
36,838	103,852	-0,388	-0,321
37,853	196,243	-0,327	-0,351
38,867	-4,155	-0,469	-0,228
39,882	97,113	-0,290	-0,233
40,896	87,560	-0,207	-0,161
41,911	39,117	-0,362	-0,227
42,926	71,656	-0,364	-0,265
43,940	158,579	-0,380	-0,371
44,955	345,581	-0,208	-0,288
45,969	10,584	-0,293	-0,157
46,984	229,739	-0,394	-0,452
47,999	-18,289	-0,390	-0,171
49,013	24,373	-0,264	-0,153
50,028	184,646	-0,216	-0,225
51,042	198,895	-0,247	-0,266
52,057	64,742	-0,431	-0,305
53,071	97,520	-0,364	-0,294
54,086	15,261	-0,284	-0,156
55,101	-25,643	-0,341	-0,140
56,115	183,579	-0,287	-0,298
57,130	78,644	-0,433	-0,325
58,144	-15,027	-0,356	-0,159
59,159	97,583	-0,392	-0,316
60,174	18,018	-0,379	-0,211
61,188	136,484	-0,338	-0,310
62,203	81,199	-0,301	-0,228
63,217	-158,022	-0,305	-0,012
64,232	30,565	-0,378	-0,226
65,247	168,744	-0,289	-0,289
66,261	17,466	-0,408	-0,227
67,276	32,670	-0,304	-0,184
68,290	-24,906	-0,323	-0,134
69,305	578,853	-0,198	-0,341
70,320	3,351	-0,354	-0,180
71,334	267,965	-0,202	-0,248
72,349	8,655	-0,344	-0,181
73,363	-10,075	-0,323	-0,150
74,378	154,999	-0,270	-0,260
75,393	7,991	-0,213	-0,112
76,407	61,122	-0,304	-0,211
77,422	49,903	-0,274	-0,181
78,436	-16,561	-0,315	-0,139
79,451	85,277	-0,345	-0,265
80,466	246,683	-0,338	-0,401
81,480	111,578	-0,311	-0,263
82,495	-70,488	-0,458	-0,121
83,509	-14,433	-0,334	-0,150
84,524	110,953	-0,242	-0,204
85,539	80,258	-0,320	-0,241
86,553	-80,134	-0,206	-0,048
87,568	55,555	-0,284	-0,192
88,582	123,145	-0,223	-0,196
89,597	-119,288	-0,450	-0,054
90,611	118,875	-0,288	-0,249
91,626	-62,370	-0,427	-0,124
92,641	-109,672	-0,353	-0,051
93,655	152,734	-0,251	-0,240
94,670	-34,083	-0,311	-0,119
95,684	72,005	-0,391	-0,284
96,699	-81,618	-0,275	-0,063
97,714	132,341	-0,187	-0,169
98,728	136,592	-0,302	-0,276
99,743	-5,845	-0,269	-0,128
100,757	-4,084	-0,249	-0,120
101,772	48,145	-0,307	-0,201
102,787	51,377	-0,343	-0,227
103,801	84,968	-0,394	-0,301
104,816	26,203	-0,280	-0,163
105,830	-14,591	-0,346	-0,155
106,845	584,539	-0,131	-0,225
107,860	541,376	-0,175	-0,292
108,874	6,890	-0,370	-0,192
109,889	72,105	-0,371	-0,270
110,903	270,836	-0,172	-0,212
111,918	285,204	-0,236	-0,298
112,933	-28,620	-0,169	-0,068
113,947	470,387	-0,219	-0,345
114,962	9,700	-0,291	-0,154
115,976	-111,098	-0,224	-0,032
116,991	-63,468	-0,266	-0,076
118,006	52,711	-0,239	-0,159
119,020	-29,527	-0,255	-0,101
120,035	-107,795	-0,186	-0,028
121,049	-200,000	-0,217	0,000
122,064	53,539	-0,236	-0,158
123,079	-143,309	-0,266	0,018
124,093	94,773	-0,218	-0,173
125,108	403,984	-0,211	-0,311
126,122	17,476	-0,340	-0,188
127,137	194,539	-0,272	-0,288
128,151	-4,090	-0,261	-0,126
129,166	464,861	-0,160	-0,251
130,181	800,000	-0,071	-0,196
131,195	185,167	-0,189	-0,196
132,210	318,809	-0,202	-0,268
133,224	46,434	-0,204	-0,132
134,239	31,539	-0,323	-0,193
135,254	576,406	-0,105	-0,180
136,268	317,112	-0,194	-0,256
137,283	102,798	-0,222	-0,181
138,297	-153,462	-0,262	0,012
139,312	126,577	-0,314	-0,277
140,327	5,225	-0,203	-0,104
141,341	1,981	-0,181	-0,091
142,356	-42,251	-0,327	-0,116
143,370	-42,528	-0,132	-0,046
144,385	15,878	-0,233	-0,127
145,400	138,528	-0,199	-0,182
146,414	337,401	-0,148	-0,201
147,429	298,153	-0,236	-0,303
148,443	265,918	-0,293	-0,356
149,458	169,813	-0,124	-0,124
150,473	195,849	-0,209	-0,221
151,487	124,188	-0,178	-0,156
152,502	164,397	-0,387	-0,380
153,516	242,873	-0,207	-0,242
154,531	51,670	-0,386	-0,255
155,546	117,192	-0,239	-0,204
156,560	94,807	-0,248	-0,197
157,575	800,000	0,051	-0,134
158,589	-135,739	-0,296	-0,024
159,604	43,675	-0,245	-0,156
160,619	165,014	-0,277	-0,272
161,633	-24,893	-0,282	-0,116
162,648	93,461	-0,292	-0,230
163,662	167,999	-0,149	-0,148
164,677	800,000	-0,095	-0,201
165,692	56,053	-0,197	-0,133
166,706	-141,042	-0,240	-0,017
167,721	247,709	-0,256	-0,302
168,735	132,086	-0,267	-0,239
169,750	21,112	-0,388	-0,218
170,764	172,395	-0,193	-0,193
171,779	-0,585	-0,328	-0,161
172,794	-72,312	-0,179	-0,046
173,808	374,435	-0,137	-0,194
174,823	249,167	-0,180	-0,213
175,837	12,323	-0,277	-0,148
176,852	291,379	-0,130	-0,164
177,867	318,312	-0,155	-0,204
178,881	-114,824	-0,233	-0,031
179,896	140,250	-0,043	0,039
180,910	31,198	-0,305	-0,181
181,925	133,073	-0,259	-0,232
182,940	63,115	-0,267	-0,186
183,954	25,261	-0,223	-0,129
184,969	-200,000	-0,040	-0,140
185,983	433,390	-0,086	-0,130
186,998	537,785	-0,152	-0,251
188,013	641,980	-0,187	-0,332
189,027	406,461	-0,131	-0,193
190,042	432,907	-0,192	-0,290
191,056	123,106	-0,156	-0,135
192,071	-200,000	-0,148	-0,000
193,086	-78,356	-0,159	-0,037
194,100	800,000	-0,114	-0,258
195,115	69,093	-0,154	-0,110
196,129	190,595	-0,222	-0,231
197,144	176,745	-0,228	-0,230
198,159	-154,726	-0,278	0,013
199,173	-53,166	-0,235	-0,074
200,188	477,565	-0,082	-0,129
201,202	110,460	-0,164	-0,136
202,217	141,399	-0,226	-0,207
203,232	183,311	-0,184	-0,189
204,246	-105,796	-0,180	0,028
205,261	102,169	-0,153	-0,124
206,275	-47,195	-0,187	-0,063
207,290	23,470	-0,019	-0,011
208,304	101,377	-0,165	-0,133
209,319	148,818	-0,228	-0,214
210,334	16,471	-0,215	-0,117
211,348	178,352	-0,162	-0,163
212,363	-20,836	-0,190	-0,080
213,377	84,698	-0,235	-0,178
214,392	105,742	-0,161	-0,132
215,407	220,479	-0,167	-0,186
216,421	83,434	-0,147	-0,111
217,436	10,941	-0,330	-0,174
218,450	-82,128	-0,188	-0,042
219,465	800,000	-0,134	-0,268
220,480	-53,131	-0,275	-0,087
221,494	-200,000	-0,068	-0,228
222,509	496,860	-0,153	-0,245
223,523	-100,851	-0,175	0,029
224,538	280,626	-0,145	-0,179
225,553	152,782	-0,182	-0,172
226,567	192,767	-0,177	-0,185
227,582	-166,725	-0,133	0,004
228,596	323,260	-0,123	-0,162
229,611	-48,823	-0,275	-0,091
230,626	98,977	-0,069	-0,055
231,640	41,314	-0,177	-0,111
232,655	-200,000	-0,039	-0,299
233,669	14,750	-0,145	-0,078
234,684	18,726	-0,324	-0,179
235,699	-105,825	-0,119	0,018
236,713	406,229	-0,151	-0,221
237,728	52,845	-0,241	-0,159
238,742	-121,107	-0,212	-0,024
239,757	-29,687	-0,123	-0,048
240,772	249,513	-0,197	-0,231
241,786	-38,451	-0,302	-0,110
242,801	269,917	-0,148	-0,180
243,815	-20,920	-0,181	-0,076
244,830	298,081	-0,135	-0,172
245,844	210,360	-0,155	-0,169
246,859	164,323	-0,227	-0,221
247,874	412,450	-0,159	-0,233
248,888	175,726	-0,168	-0,168
249,903	68,504	-0,163	-0,115
250,917	199,795	-0,212	-0,225
251,932	354,225	-0,105	-0,144
252,947	562,642	-0,138	-0,231
253,961	-186,012	-0,225	-0,002
254,976	24,540	-0,208	-0,119
255,990	119,569	-0,083	-0,071
257,005	98,212	-0,079	-0,062
258,020	-140,746	-0,153	0,011
259,034	-26,294	-0,170	-0,068
260,049	129,254	-0,110	-0,097
261,063	13,585	-0,154	-0,082
262,078	12,534	-0,266	-0,141
263,093	-59,140	-0,082	-0,024
264,107	-200,000	-0,022	-0,079
265,122	152,599	-0,135	-0,127
266,136	179,703	-0,138	-0,139
267,151	-50,517	-0,351	-0,114
268,166	38,565	-0,183	-0,112
269,180	116,281	-0,165	-0,139
270,195	800,000	-0,094	-0,205
271,209	800,000	-0,058	-0,145
272,224	654,202	-0,193	-0,343
273,239	173,648	-0,187	-0,186
274,253	72,835	-0,059	-0,042
275,268	-64,152	-0,203	-0,057
276,282	675,754	-0,092	-0,166
277,297	3,297	-0,238	-0,119
278,312	84,902	-0,241	-0,182
279,326	-30,550	-0,115	-0,045
280,341	-111,858	-0,192	-0,026
281,355	59,675	-0,259	-0,175
282,370	-49,832	-0,098	-0,032
283,384	-5,645	-0,183	-0,086
284,399	319,915	-0,182	-0,238
285,414	800,000	-0,076	-0,150
286,428	3,546	-0,227	-0,113
287,443	800,000	-0,075	-0,205
288,457	-12,737	-0,119	-0,053
289,472	69,957	-0,176	-0,125
290,487	-100,289	-0,186	-0,031
291,501	-5,171	-0,271	-0,128
292,516	285,041	-0,138	-0,172
293,530	119,881	-0,201	-0,172
294,545	53,710	-0,062	-0,041
295,560	-130,203	-0,163	-0,015
296,574	-155,873	-0,127	-0,005
297,589	-4,145	-0,134	-0,063
298,603	-174,731	-0,276	-0,005
299,618	232,275	-0,144	-0,163
300,633	-21,614	-0,180	-0,075
301,647	1,317	-0,141	-0,069
302,662	-135,576	-0,171	0,014
303,676	-200,000	-0,031	-0,119
304,691	214,829	-0,117	-0,128
305,706	800,000	-0,114	-0,245
306,720	124,879	-0,127	-0,110
307,735	14,187	-0,143	-0,076
308,749	800,000	-0,082	-0,190
309,764	-11,970	-0,233	-0,104
310,779	483,186	-0,144	-0,225
311,793	-200,000	0,035	-0,189
312,808	800,000	-0,066	-0,131
313,822	800,000	-0,090	-0,213
314,837	388,654	-0,148	-0,211
315,852	117,331	-0,161	-0,135
316,866	-44,982	-0,091	0,031
317,881	27,644	-0,112	0,065
318,895	133,427	-0,169	-0,150
319,910	800,000	-0,099	-0,199
320,925	90,978	-0,114	-0,088
321,939	-156,706	-0,157	-0,007
322,954	343,809	-0,053	-0,072
323,968	800,000	-0,039	-0,086
324,983	117,956	-0,101	-0,085
325,997	225,398	-0,022	-0,025
327,012	800,000	-0,126	-0,246
328,027	204,698	-0,147	-0,156
329,041	-120,045	-0,212	0,025
330,056	-36,704	-0,218	-0,080
331,070	-91,402	-0,109	0,021
332,085	800,000	-0,068	-0,171
333,100	-125,560	-0,030	0,003
334,114	24,228	-0,178	-0,101
335,129	800,000	-0,085	-0,231
336,143	-200,000	-0,052	-0,182
337,158	564,115	-0,036	-0,060
338,173	-147,550	-0,069	-0,004
339,187	293,696	-0,117	-0,147
340,202	278,025	-0,097	-0,119
341,216	-61,427	-0,125	0,036
342,231	25,933	-0,209	-0,119
343,246	-45,504	-0,173	-0,058
344,260	142,563	-0,049	-0,045
345,275	800,000	-0,074	-0,206
346,289	-92,222	-0,144	-0,028
347,304	800,000	-0,046	-0,094
348,319	-82,309	-0,305	-0,067
349,333	-96,136	-0,104	-0,019
350,348	800,000	-0,038	-0,114
351,362	17,415	0,074	-0,040
352,377	325,171	-0,081	-0,106
353,392	128,214	-0,080	-0,069
354,406	-129,073	-0,224	-0,021
355,421	206,479	1310,669	1397,531
356,435	158,793	1470,896	1398,010
