DTS Sentinel unit serial number:	SN410029Multiplexer serial number:	ORYXHardware model number:	OX2-SRSoftware version number:	ORYX F/W v4,00 Oryx Data Collector v3.7.2.0data status	okinstallation	B3 Nyhavnadifferential loss correction	single-endedforward channel	channel 1reverse channel	N/Adate	2023/12/02time	07:02:30forward acquisition time	300,00reverse acquisition time	0,00gamma	499,1914k internal	0,3194k external	0,3194temperature offset calibration	1,0000default loss term (dB/km)	0,3820temperature slope calibration	1,0000multiplexer offset coefficient	1,0000multiplexer slope coefficient	1,0000fibre end	0,00T internal ref (°C)	15,76T ext. ref 1 (°C)	0,48T ext. ref 2 (°C)	0,46length (m)	temperature (°C)	Stokes	anti-Stokes-744,400	238,840	-0,179	-0,218
-743,385	-200,000	0,015	0,178
-742,371	95,339	-0,189	-0,157
-741,356	-200,000	0,042	0,378
-740,342	-200,000	-0,006	-0,108
-739,327	-200,000	0,030	0,386
-738,312	94,774	-0,116	-0,096
-737,298	-200,000	0,043	0,284
-736,283	538,905	-0,155	-0,270
-735,269	-200,000	-0,069	0,312
-734,254	123,018	-0,273	-0,249
-733,239	-128,887	-0,200	-0,020
-732,225	417,674	-0,069	-0,109
-731,210	-200,000	-0,007	0,137
-730,196	362,946	0,087	0,128
-729,181	-27,255	-0,093	-0,039
-728,167	-46,610	-0,091	-0,032
-727,152	800,000	0,056	0,118
-726,137	28,367	-0,119	-0,073
-725,123	101,472	0,060	-0,051
-724,108	343,712	-0,084	-0,121
-723,094	598,689	-0,099	-0,180
-722,079	89,064	-0,131	-0,106
-721,064	-44,688	0,042	-0,015
-720,050	-115,614	0,067	-0,009
-719,035	247,280	-0,092	-0,113
-718,021	-200,000	0,000	-0,007
-717,006	-200,000	0,001	-0,064
-715,991	-200,000	0,018	-0,080
-714,977	-37,424	-0,030	0,012
-713,962	761,610	0,041	0,082
-712,948	-29,131	-0,130	-0,054
-711,933	-2,167	-0,075	0,038
-710,918	-106,419	-0,092	-0,015
-709,904	370,095	-0,071	-0,106
-708,889	-34,034	-0,043	-0,017
-707,875	-5,265	0,118	-0,059
-706,860	-7,293	-0,027	-0,013
-705,845	-123,912	0,066	0,007
-704,831	422,156	0,053	-0,083
-703,816	747,470	0,035	-0,069
-702,802	600,406	-0,067	-0,122
-701,787	117,198	-0,058	0,052
-700,772	-29,573	-0,065	-0,027
-699,758	195,182	-0,070	0,078
-698,743	-82,988	0,091	-0,021
-697,729	-16,987	0,116	-0,053
-696,714	800,000	-0,012	0,026
-695,699	-78,720	-0,033	0,008
-694,685	-157,298	-0,069	0,003
-693,670	-31,527	-0,070	-0,029
-692,656	800,000	-0,036	-0,096
-691,641	675,356	-0,062	0,117
-690,627	-40,925	-0,066	0,025
-689,612	88,348	0,132	-0,106
-688,597	-200,000	-0,116	0,000
-687,583	-33,581	-0,175	-0,070
-686,568	800,000	-0,014	-0,039
-685,554	-200,000	-0,009	-0,100
-684,539	-200,000	-0,043	-0,156
-683,524	-200,000	-0,041	0,192
-682,510	800,000	-0,023	-0,053
-681,495	555,429	-0,032	0,057
-680,481	276,313	0,016	0,020
-679,466	-200,000	-0,007	-0,172
-678,451	436,831	-0,106	0,168
-677,437	385,492	0,042	0,064
-676,422	32,626	-0,078	-0,049
-675,408	4,520	-0,083	0,044
-674,393	85,762	0,163	0,130
-673,378	800,000	-0,073	0,165
-672,364	-200,000	-0,017	0,149
-671,349	800,000	-0,049	0,127
-670,335	62,329	-0,069	-0,050
-669,320	-134,316	0,094	0,008
-668,305	-27,739	0,057	0,024
-667,291	-83,562	0,093	-0,021
-666,276	-55,394	-0,101	-0,033
-665,262	-200,000	-0,036	-0,121
-664,247	-77,172	0,123	-0,031
-663,232	-59,014	-0,069	-0,021
-662,218	26,124	0,107	0,065
-661,203	-30,034	-0,182	0,075
-660,189	-200,000	0,002	-0,086
-659,174	800,000	-0,042	-0,105
-658,159	160,826	0,062	0,063
-657,145	-200,000	0,001	-0,183
-656,130	-200,000	0,022	0,091
-655,116	800,000	-0,021	0,059
-654,101	-19,163	-0,169	0,076
-653,086	273,442	-0,055	0,071
-652,072	100,769	0,022	0,018
-651,057	-200,000	-0,039	-0,170
-650,043	379,851	-0,085	-0,127
-649,028	324,609	0,085	-0,118
-648,014	88,735	0,025	-0,020
-646,999	800,000	0,040	0,085
-645,984	60,798	0,032	0,023
-644,970	-55,110	-0,051	-0,017
-643,955	-200,000	-0,014	-0,061
-642,941	-200,000	-0,008	0,067
-641,926	-200,000	0,025	-0,150
-640,911	-13,809	-0,045	0,021
-639,897	730,840	-0,056	-0,110
-638,882	345,627	-0,030	0,043
-637,868	573,054	-0,042	-0,074
-636,853	42,849	0,042	0,027
-635,838	-88,667	-0,041	0,009
-634,824	73,626	0,068	-0,052
-633,809	460,300	0,035	-0,057
-632,795	108,783	-0,036	-0,031
-631,780	-200,000	0,020	0,099
-630,765	29,202	0,117	-0,072
-629,751	31,410	-0,063	0,039
-628,736	98,414	0,060	-0,050
-627,722	-200,000	0,035	-0,158
-626,707	366,539	-0,028	-0,041
-625,692	52,118	0,047	0,033
-624,678	-140,166	-0,026	0,002
-623,663	-51,887	-0,084	-0,028
-622,649	-158,538	-0,029	-0,001
-621,634	-67,462	0,061	-0,017
-620,619	-168,239	-0,231	0,006
-619,605	-200,000	0,023	0,139
-618,590	-180,008	0,157	0,002
-617,576	-200,000	-0,000	0,063
-616,561	255,076	0,049	0,061
-615,546	-162,299	-0,090	-0,003
-614,532	517,521	0,037	-0,063
-613,517	800,000	-0,027	-0,066
-612,503	300,959	-0,058	0,078
-611,488	541,292	0,022	0,038
-610,474	65,277	0,163	0,119
-609,459	-64,337	0,140	-0,041
-608,444	-148,786	-0,030	-0,002
-607,430	-200,000	0,002	-0,027
-606,415	45,660	0,062	0,042
-605,401	34,596	-0,077	0,048
-604,386	-102,479	0,048	0,008
-603,371	-100,863	-0,157	0,028
-602,357	800,000	0,015	-0,043
-601,342	467,142	0,072	-0,118
-600,328	-200,000	-0,033	-0,117
-599,313	800,000	-0,050	-0,144
-598,298	-200,000	0,023	0,111
-597,284	762,742	0,118	0,233
-596,269	367,613	0,081	0,119
-595,255	361,943	0,020	0,030
-594,240	82,770	-0,054	0,042
-593,225	-160,632	-0,209	0,008
-592,211	-68,699	-0,133	-0,037
-591,196	16,915	0,093	-0,053
-590,182	-200,000	-0,013	0,067
-589,167	-200,000	0,001	-0,052
-588,152	107,301	0,084	-0,073
-587,138	-144,994	0,082	-0,005
-586,123	485,274	-0,015	-0,026
-585,109	800,000	0,026	-0,078
-584,094	-89,068	-0,067	0,014
-583,079	-81,173	-0,105	0,025
-582,065	800,000	0,023	0,052
-581,050	385,762	0,048	-0,072
-580,036	-200,000	0,005	-0,069
-579,021	-200,000	0,036	-0,166
-578,006	-104,781	-0,047	-0,008
-576,992	426,344	0,041	0,064
-575,977	-155,676	-0,083	-0,004
-574,963	-38,679	0,086	0,033
-573,948	-73,893	-0,132	-0,034
-572,934	-200,000	0,000	-0,090
-571,919	194,291	0,035	-0,038
-570,904	-200,000	0,006	-0,104
-569,890	-50,689	-0,070	0,024
-568,875	-40,037	-0,055	-0,021
-567,861	-106,950	0,274	0,043
-566,846	178,061	-0,038	-0,040
-565,831	800,000	0,019	0,047
-564,817	-148,285	-0,198	-0,012
-563,802	-10,792	-0,055	0,026
-562,788	-135,047	0,155	0,013
-561,773	-200,000	-0,002	-0,133
-560,758	26,562	0,046	-0,028
-559,744	-137,194	0,041	0,003
-558,729	271,646	0,078	-0,100
-557,715	-90,148	-0,045	-0,009
-556,700	-200,000	-0,025	-0,093
-555,685	-167,616	0,062	-0,002
-554,671	122,955	0,038	0,034
-553,656	-63,138	-0,073	-0,022
-552,642	-69,562	0,099	0,027
-551,627	-12,451	-0,087	-0,041
-550,612	74,873	0,130	-0,099
-549,598	-200,000	0,024	-0,098
-548,583	800,000	-0,020	-0,062
-547,569	-200,000	0,022	-0,175
-546,554	279,657	0,151	0,196
-545,539	-30,251	-0,129	0,053
-544,525	137,154	0,038	0,036
-543,510	800,000	0,031	-0,097
-542,496	-200,000	0,027	-0,124
-541,481	62,492	-0,055	0,039
-540,466	-200,000	-0,013	0,143
-539,452	-155,522	0,157	0,007
-538,437	-200,000	0,043	0,194
-537,423	-200,000	0,008	0,032
-536,408	-122,338	-0,032	-0,004
-535,393	181,923	-0,018	0,020
-534,379	471,091	-0,045	-0,074
-533,364	232,190	0,053	-0,062
-532,350	-200,000	0,010	-0,039
-531,335	-35,537	-0,099	-0,039
-530,321	-200,000	0,029	-0,096
-529,306	800,000	0,027	-0,068
-528,291	286,216	-0,042	-0,054
-527,277	144,792	-0,102	-0,098
-526,262	227,282	0,067	-0,079
-525,248	202,548	-0,024	0,027
-524,233	321,966	-0,075	-0,103
-523,218	800,000	-0,054	0,118
-522,204	-85,873	0,096	0,021
-521,189	-44,658	-0,150	-0,054
-520,175	-128,380	0,065	0,007
-519,160	-200,000	0,008	-0,065
-518,145	760,623	0,036	-0,072
-517,131	-3,536	0,082	0,041
-516,116	-91,920	0,130	-0,026
-515,102	-25,492	-0,071	-0,030
-514,087	-28,205	0,020	-0,008
-513,072	-92,087	-0,188	0,038
-512,058	684,648	0,090	0,171
-511,043	-24,957	0,166	0,071
-510,029	-200,000	0,031	0,162
-509,014	-200,000	0,003	0,091
-507,999	-153,874	0,028	-0,001
-506,985	-96,968	0,076	-0,014
-505,970	-200,000	0,003	0,035
-504,956	96,485	-0,085	-0,071
-503,941	-200,000	-0,006	0,116
-502,926	-119,273	-0,103	0,013
-501,912	26,964	0,067	-0,041
-500,897	-9,465	-0,027	0,013
-499,883	244,686	-0,067	0,082
-498,868	-97,719	-0,058	0,011
-497,853	-200,000	-0,038	0,209
-496,839	-200,000	0,034	-0,119
-495,824	-95,140	0,129	-0,025
-494,810	75,571	0,131	0,100
-493,795	800,000	0,033	-0,070
-492,781	246,373	0,012	-0,014
-491,766	-63,677	0,053	-0,016
-490,751	-200,000	0,001	0,021
-489,737	800,000	-0,055	-0,142
-488,722	-34,549	0,082	0,032
-487,708	800,000	-0,030	0,068
-486,693	-200,000	0,020	0,073
-485,678	4,577	0,095	0,050
-484,664	-200,000	0,013	0,052
-483,649	-92,466	0,133	0,027
-482,635	-134,173	-0,086	-0,008
-481,620	-79,460	0,060	0,015
-480,605	-144,880	0,156	-0,010
-479,591	202,350	-0,029	0,033
-478,576	117,368	-0,097	-0,086
-477,562	124,912	-0,034	-0,031
-476,547	376,358	-0,096	-0,142
-475,532	88,096	0,016	0,013
-474,518	99,414	0,054	0,045
-473,503	474,965	0,097	0,158
-472,489	12,623	0,101	0,056
-471,474	-200,000	-0,014	0,081
-470,459	659,509	0,025	-0,047
-469,445	204,940	0,054	-0,061
-468,430	130,741	0,067	-0,062
-467,416	-200,000	0,013	0,074
-466,401	152,638	0,073	0,071
-465,386	800,000	-0,026	-0,057
-464,372	135,768	-0,024	-0,022
-463,357	-105,472	0,052	0,008
-462,343	16,562	-0,152	-0,086
-461,328	0,232	0,096	-0,049
-460,313	36,948	-0,070	0,044
-459,299	-200,000	-0,019	-0,129
-458,284	-23,863	0,122	0,052
-457,270	-126,852	-0,123	0,013
-456,255	125,441	-0,036	-0,033
-455,241	-200,000	-0,012	-0,101
-454,226	87,702	0,025	0,020
-453,211	-73,683	-0,192	-0,050
-452,197	-200,000	-0,003	-0,061
-451,182	-17,958	-0,034	0,015
-450,168	5,748	0,094	0,050
-449,153	35,713	-0,211	-0,133
-448,138	271,378	0,077	-0,098
-447,124	-200,000	-0,015	-0,114
-446,109	-10,081	0,030	0,014
-445,095	358,688	-0,043	0,063
-444,080	800,000	0,055	0,112
-443,065	-80,233	-0,049	0,012
-442,051	148,900	-0,080	0,078
-441,036	413,330	-0,028	-0,042
-440,022	-42,718	0,125	0,046
-439,007	-136,109	-0,110	-0,009
-437,992	79,734	0,079	-0,061
-436,978	64,419	0,066	-0,048
-435,963	162,554	-0,099	0,100
-434,949	-14,021	0,224	-0,104
-433,934	-200,000	-0,037	0,129
-432,919	189,181	0,039	-0,042
-431,905	-185,709	-0,084	-0,001
-430,890	-200,000	0,017	0,168
-429,876	331,102	0,061	0,085
-428,861	171,282	0,041	0,042
-427,846	327,945	0,094	-0,130
-426,832	800,000	-0,021	0,063
-425,817	108,470	-0,069	-0,059
-424,803	-70,668	-0,128	0,035
-423,788	800,000	0,014	0,038
-422,773	253,310	0,029	0,036
-421,759	-83,500	-0,055	-0,013
-420,744	-136,960	-0,197	-0,016
-419,730	800,000	-0,064	-0,164
-418,715	18,741	-0,146	-0,084
-417,701	-200,000	0,035	-0,142
-416,686	266,482	0,058	-0,073
-415,671	-200,000	-0,008	-0,094
-414,657	163,843	0,077	0,078
-413,642	264,759	0,066	-0,083
-412,628	241,245	-0,065	-0,078
-411,613	-61,183	-0,086	0,026
-410,598	228,511	-0,081	0,095
-409,584	-64,021	0,068	-0,020
-408,569	-200,000	-0,013	-0,131
-407,555	65,235	0,044	-0,032
-406,540	800,000	-0,037	0,089
-405,525	-123,461	-0,100	-0,011
-404,511	-200,000	0,027	0,108
-403,496	594,852	-0,032	0,056
-402,482	24,227	0,069	0,041
-401,467	-58,928	0,140	0,043
-400,452	515,797	0,116	0,196
-399,438	319,269	-0,055	0,076
-398,423	-200,000	-0,009	0,121
-397,409	800,000	-0,022	0,061
-396,394	800,000	0,037	0,079
-395,379	-200,000	0,014	-0,122
-394,365	800,000	0,061	0,181
-393,350	25,763	-0,107	-0,064
-392,336	-55,797	-0,066	-0,021
-391,321	3,482	0,101	-0,053
-390,306	302,265	-0,038	0,050
-389,292	-200,000	-0,014	-0,090
-388,277	420,231	-0,016	0,025
-387,263	800,000	0,065	0,144
-386,248	98,022	-0,108	0,089
-385,233	184,222	-0,109	0,116
-384,219	296,956	-0,036	0,047
-383,204	-16,101	-0,139	-0,063
-382,190	377,032	-0,022	-0,032
-381,175	3,462	0,076	0,040
-380,160	25,427	0,105	0,062
-379,146	185,721	0,095	0,101
-378,131	-99,454	0,097	-0,017
-377,117	537,425	0,030	0,052
-376,102	-145,538	-0,076	0,005
-375,088	-121,945	-0,040	0,005
-374,073	-200,000	-0,018	-0,071
-373,058	100,139	0,038	-0,032
-372,044	188,268	-0,035	-0,037
-371,029	214,344	0,046	-0,053
-370,015	-200,000	-0,004	-0,030
-369,000	800,000	0,094	-0,195
-367,985	734,399	0,082	-0,159
-366,971	800,000	0,029	-0,079
-365,956	-35,572	0,061	-0,024
-364,942	258,915	0,046	-0,057
-363,927	-200,000	-0,003	-0,015
-362,912	740,852	0,087	-0,168
-361,898	-64,646	0,033	-0,009
-360,883	111,289	-0,040	-0,035
-359,869	-83,775	-0,117	-0,027
-358,854	339,525	0,020	0,028
-357,839	800,000	0,057	0,158
-356,825	-26,261	0,145	-0,061
-355,810	-200,000	-0,024	0,113
-354,796	-133,385	-0,183	-0,016
-353,781	574,152	-0,074	-0,131
-352,766	-200,000	-0,022	-0,086
-351,752	800,000	0,060	0,134
-350,737	231,295	-0,055	0,064
-349,723	-51,948	0,029	0,010
-348,708	-200,000	0,035	-0,146
-347,693	21,495	-0,060	-0,035
-346,679	-200,000	-0,014	-0,119
-345,664	78,747	0,059	-0,046
-344,650	153,683	-0,065	0,064
-343,635	232,517	0,016	0,019
-342,620	555,195	0,016	0,028
-341,606	800,000	0,068	0,140
-340,591	82,383	-0,056	0,044
-339,577	241,400	-0,027	0,032
-338,562	104,204	0,052	0,043
-337,548	213,396	-0,071	-0,081
-336,533	495,319	-0,089	0,146
-335,518	-200,000	-0,042	0,137
-334,504	-200,000	0,004	0,116
-333,489	-200,000	-0,033	-0,196
-332,475	152,192	-0,165	-0,161
-331,460	800,000	-0,006	-0,012
-330,445	3,906	-0,106	0,055
-329,431	-81,125	0,096	-0,023
-328,416	-76,074	-0,092	-0,023
-327,402	28,002	0,179	-0,108
-326,387	615,610	-0,033	-0,059
-325,372	67,329	-0,047	0,034
-324,358	565,696	0,056	-0,098
-323,343	-180,506	-0,026	0,000
-322,329	157,161	0,093	0,092
-321,314	82,421	0,140	0,109
-320,299	-139,430	0,187	-0,014
-319,285	800,000	-0,025	0,067
-318,270	800,000	-0,021	-0,063
-317,256	577,070	-0,040	0,070
-316,241	800,000	0,061	-0,147
-315,226	218,187	-0,031	0,036
-314,212	800,000	0,045	0,114
-313,197	772,696	0,058	0,115
-312,183	800,000	0,034	0,088
-311,168	-48,116	-0,059	0,020
-310,153	-86,858	-0,129	0,028
-309,139	41,986	0,083	-0,054
-308,124	-55,626	-0,067	0,021
-307,110	384,667	0,032	0,047
-306,095	250,442	0,149	0,182
-305,080	352,225	-0,088	0,125
-304,066	472,919	0,016	0,026
-303,051	-200,000	0,016	-0,082
-302,037	-200,000	0,025	-0,202
-301,022	-131,325	-0,027	0,003
-300,008	-200,000	-0,019	0,197
-298,993	800,000	0,026	0,076
-297,978	800,000	0,046	0,101
-296,964	27,332	-0,119	0,071
-295,949	616,710	-0,027	0,048
-294,935	461,691	-0,041	0,066
-293,920	37,609	-0,077	-0,049
-292,905	103,590	0,112	0,095
-291,891	-200,000	-0,047	0,153
-290,876	15,500	0,077	0,043
-289,862	346,093	-0,075	-0,106
-288,847	-79,785	-0,130	-0,031
-287,832	-200,000	0,000	0,023
-286,818	800,000	-0,056	-0,133
-285,803	599,126	0,112	0,199
-284,789	-76,842	0,046	-0,011
-283,774	167,312	-0,069	0,070
-282,759	-200,000	0,023	0,131
-281,745	-200,000	-0,010	-0,105
-280,730	-200,000	0,011	-0,075
-279,716	27,132	0,058	-0,035
-278,701	800,000	-0,058	0,118
-277,686	21,746	0,058	0,034
-276,672	-130,608	-0,131	-0,012
-275,657	800,000	0,012	0,037
-274,643	-120,661	0,008	0,001
-273,628	255,687	-0,085	0,104
-272,613	22,543	-0,133	0,077
-271,599	2,890	-0,005	-0,003
-270,584	222,210	0,046	-0,053
-269,570	34,782	0,038	0,024
-268,555	57,083	-0,074	0,051
-267,540	800,000	-0,003	0,007
-266,526	98,516	-0,012	-0,010
-265,511	-170,921	-0,077	-0,002
-264,497	108,119	0,056	0,048
-263,482	-118,919	0,210	0,026
-262,467	153,219	0,111	0,109
-261,453	106,992	0,112	0,095
-260,438	800,000	-0,067	-0,147
-259,424	416,030	-0,021	0,032
-258,409	251,169	0,030	-0,037
-257,395	-200,000	0,000	0,112
-256,380	-42,782	-0,061	-0,022
-255,365	358,371	-0,097	0,140
-254,351	6,264	0,016	-0,008
-253,336	-180,524	-0,081	0,001
-252,322	37,599	0,069	-0,043
-251,307	429,278	-0,034	-0,053
-250,292	800,000	0,014	0,034
-249,278	-151,383	0,031	0,002
-248,263	455,111	-0,042	-0,066
-247,249	-200,000	-0,006	-0,154
-246,234	800,000	0,010	0,028
-245,219	-13,820	-0,067	0,031
-244,205	-82,273	-0,084	-0,019
-243,190	-66,792	-0,087	-0,024
-242,176	16,234	0,132	0,074
-241,161	-200,000	0,005	-0,136
-240,146	15,249	0,092	-0,051
-239,132	-30,621	-0,012	-0,005
-238,117	-82,531	0,021	0,005
-237,103	184,177	0,076	-0,081
-236,088	441,707	0,035	0,055
-235,073	80,805	-0,055	-0,042
-234,059	21,946	-0,115	0,067
-233,044	-180,514	0,016	-0,000
-232,030	146,030	-0,097	-0,093
-231,015	192,764	0,067	-0,072
-230,000	-67,548	-0,085	-0,024
-228,986	-200,000	-0,024	0,127
-227,971	409,440	-0,024	-0,036
-226,957	-84,478	0,083	-0,019
-225,942	152,846	0,053	0,051
-224,927	11,282	-0,040	-0,022
-223,913	701,401	0,033	0,062
-222,898	83,178	-0,065	0,050
-221,884	137,794	-0,079	-0,074
-220,869	711,484	0,088	0,167
-219,855	-200,000	-0,001	0,076
-218,840	167,134	0,050	-0,051
-217,825	800,000	0,047	-0,132
-216,811	800,000	-0,045	-0,093
-215,796	38,439	-0,129	-0,082
-214,782	-200,000	0,014	-0,086
-213,767	-95,272	-0,144	-0,027
-212,752	50,905	0,113	-0,076
-211,738	157,364	0,058	0,058
-210,723	-58,579	-0,099	-0,030
-209,709	70,993	-0,079	0,058
-208,694	-200,000	-0,002	-0,075
-207,679	-200,000	0,004	-0,077
-206,665	-91,933	-0,105	0,021
-205,650	79,703	0,033	-0,025
-204,636	-125,158	-0,063	0,007
-203,621	351,841	0,029	-0,041
-202,606	435,551	-0,073	0,113
-201,592	-34,617	-0,016	0,006
-200,577	800,000	-0,011	0,031
-199,563	19,289	-0,037	-0,021
-198,548	278,864	-0,114	0,146
-197,533	-200,000	-0,003	-0,032
-196,519	175,467	-0,105	0,108
-195,504	82,836	0,084	0,065
-194,490	800,000	0,009	0,027
-193,475	156,768	-0,109	-0,108
-192,460	189,797	0,068	-0,072
-191,446	270,930	0,101	-0,127
-190,431	-200,000	-0,002	0,099
-189,417	-36,620	0,109	0,042
-188,402	19,057	-0,055	-0,031
-187,387	28,779	-0,059	-0,036
-186,373	90,412	-0,024	-0,019
-185,358	-200,000	0,002	-0,039
-184,344	17,785	0,067	0,038
-183,329	-200,000	0,009	0,082
-182,315	591,809	0,034	0,060
-181,300	791,163	-0,068	-0,135
-180,285	-111,390	-0,115	0,017
-179,271	192,662	0,050	-0,054
-178,256	234,216	-0,019	0,022
-177,242	284,284	-0,040	0,052
-176,227	231,065	0,044	-0,052
-175,212	377,139	-0,072	-0,105
-174,198	59,371	0,109	0,077
-173,183	31,881	-0,034	0,021
-172,169	-200,000	0,008	0,026
-171,154	55,897	-0,085	-0,059
-170,139	-34,183	0,160	0,062
-169,125	-150,790	-0,127	0,007
-168,110	431,781	-0,074	0,115
-167,096	509,243	0,023	0,038
-166,081	-165,711	-0,128	0,004
-165,066	407,747	-0,112	-0,170
-164,052	583,144	-0,032	-0,056
-163,037	-61,334	-0,185	0,055
-162,023	-29,690	0,113	0,046
-161,008	128,146	0,102	0,093
-159,993	-1,421	-0,038	-0,019
-158,979	213,663	-0,034	-0,038
-157,964	-200,000	-0,023	-0,182
-156,950	-184,051	0,145	-0,002
-155,935	10,740	0,109	-0,059
-154,920	-171,442	-0,072	-0,002
-153,906	30,898	0,046	0,028
-152,891	139,804	0,064	0,060
-151,877	340,254	-0,065	0,090
-150,862	-43,049	-0,167	0,060
-149,847	277,712	0,052	0,066
-148,833	-200,000	-0,012	0,081
-147,818	259,150	0,127	0,156
-146,804	-86,879	-0,030	0,007
-145,789	-200,000	-0,008	-0,109
-144,775	-95,803	-0,101	0,019
-143,760	-108,225	-0,040	-0,006
-142,745	-200,000	-0,030	0,117
-141,731	-179,048	0,133	-0,002
-140,716	147,327	-0,108	0,103
-139,702	-152,765	0,174	-0,009
-138,687	63,211	-0,081	-0,058
-137,672	82,221	0,008	-0,006
-136,658	-111,435	-0,071	0,010
-135,643	-200,000	0,013	0,053
-134,629	800,000	0,023	0,052
-133,614	-62,335	0,070	-0,021
-132,599	-200,000	0,004	-0,114
-131,585	-200,000	0,017	0,171
-130,570	134,617	-0,113	0,105
-129,556	-200,000	0,010	-0,126
-128,541	-74,211	-0,048	-0,012
-127,526	737,079	-0,029	0,056
-126,512	-200,000	0,002	0,137
-125,497	54,768	0,064	0,044
-124,483	-200,000	-0,013	0,075
-123,468	36,316	-0,075	-0,047
-122,453	78,312	0,055	-0,042
-121,439	52,542	-0,097	0,066
-120,424	800,000	-0,042	-0,085
-119,410	44,905	-0,124	0,081
-118,395	11,745	0,061	-0,033
-117,380	800,000	-0,044	0,095
-116,366	0,843	0,052	-0,026
-115,351	114,789	-0,131	-0,114
-114,337	142,954	0,028	0,027
-113,322	418,526	-0,064	-0,098
-112,307	118,819	-0,073	-0,064
-111,293	-200,000	-0,001	0,065
-110,278	18,570	0,081	0,046
-109,264	-200,000	0,009	-0,140
-108,249	800,000	0,072	0,164
-107,234	65,630	-0,056	-0,041
-106,220	-200,000	0,013	-0,134
-105,205	-200,000	-0,004	0,076
-104,191	251,966	-0,016	0,020
-103,176	7,320	-0,081	0,043
-102,162	-200,000	0,005	0,027
-101,147	-74,827	-0,224	-0,057
-100,132	35,687	-0,094	-0,059
-99,118	50,283	0,063	0,042
-98,103	-36,748	-0,174	-0,066
-97,089	-153,147	0,094	0,005
-96,074	-200,000	0,016	-0,102
-95,059	25,790	0,106	-0,063
-94,045	324,766	0,019	0,026
-93,030	-55,902	0,087	-0,028
-92,016	-132,207	-0,094	0,009
-91,001	-106,862	0,171	0,027
-89,986	-200,000	0,013	0,071
-88,972	68,507	0,149	0,108
-87,957	-200,000	0,026	0,123
-86,943	800,000	-0,069	-0,148
-85,928	-200,000	0,014	-0,054
-84,913	800,000	0,056	-0,143
-83,899	54,935	0,086	-0,059
-82,884	-107,087	0,098	0,015
-81,870	800,000	-0,051	0,150
-80,855	-8,464	-0,044	0,021
-79,840	-200,000	0,011	0,076
-78,826	-2,864	0,061	-0,030
-77,811	222,233	-0,040	-0,045
-76,797	29,663	0,075	-0,045
-75,782	-79,330	-0,110	-0,026
-74,767	800,000	-0,023	-0,067
-73,753	212,985	0,024	0,027
-72,738	615,284	0,048	-0,085
-71,724	-107,891	-0,043	0,007
-70,709	-13,602	0,120	-0,055
-69,694	-200,000	-0,033	0,122
-68,680	70,818	0,153	0,112
-67,665	-154,919	0,109	-0,005
-66,651	-200,000	-0,008	0,086
-65,636	800,000	0,053	-0,159
-64,622	-161,523	-0,088	-0,003
-63,607	-115,079	-0,097	-0,013
-62,592	-200,000	-0,011	-0,040
-61,578	-50,333	-0,064	-0,021
-60,563	-200,000	-0,008	0,115
-59,549	800,000	-0,052	0,122
-58,534	-71,951	-1,448	-0,379
-57,519	340,500	-1,566	-2,175
-56,505	-200,000	-0,444	-4,384
-55,490	145,729	0,970	0,923
-54,476	800,000	4,762	11,242
-53,461	-200,000	17,796	285,073
-52,446	800,000	722,163	2233,071
-51,432	564,227	1637,102	2825,208
-50,417	80,748	1660,520	1269,129
-49,403	23,631	1534,277	893,823
-48,388	17,577	1457,493	819,831
-47,373	18,186	1447,141	816,906
-46,359	17,757	1437,906	809,612
-45,344	15,951	1433,127	798,284
-44,330	15,810	1431,363	796,597
-43,315	15,805	1429,497	795,504
-42,300	15,857	1427,758	794,754
-41,286	15,868	1426,800	794,238
-40,271	15,822	1425,669	793,359
-39,257	15,823	1424,191	792,511
-38,242	15,878	1422,840	791,988
-37,227	15,873	1421,762	791,336
-36,213	15,866	1420,114	790,354
-35,198	15,859	1419,248	789,804
-34,184	15,857	1418,103	789,125
-33,169	15,764	1417,161	788,131
-32,154	15,842	1416,080	787,868
-31,140	15,874	1414,577	787,152
-30,125	15,935	1413,283	786,687
-29,111	15,921	1412,120	785,941
-28,096	15,879	1411,439	785,335
-27,082	15,781	1410,126	784,113
-26,067	15,774	1409,168	783,520
-25,052	15,784	1407,973	782,870
-24,038	15,782	1407,070	782,324
-23,023	15,791	1405,930	781,705
-22,009	15,771	1404,926	781,019
-20,994	15,714	1404,140	780,288
-19,979	15,750	1403,029	779,808
-18,965	15,756	1401,931	779,194
-17,950	15,776	1401,190	778,844
-16,936	15,730	1400,193	778,043
-15,921	15,713	1398,891	777,213
-14,906	15,683	1397,985	776,539
-13,892	15,687	1397,128	776,049
-12,877	15,701	1396,192	775,561
-11,863	15,691	1395,271	774,975
-10,848	15,685	1394,375	774,419
-9,833	15,666	1393,569	773,852
-8,819	15,630	1392,615	773,125
-7,804	15,580	1391,660	772,332
-6,790	15,628	1390,434	771,843
-5,775	15,630	1389,408	771,255
-4,760	15,580	1388,698	770,595
-3,746	15,601	1387,791	770,161
-2,731	15,600	1387,028	769,699
-1,717	15,570	1386,163	769,053
-0,702	15,545	1384,412	767,935
0,313	19,337	1304,585	741,182
1,327	35,620	706,961	439,437
2,342	54,719	125,051	85,399
3,356	2,956	16,596	8,519
4,371	4,918	3,074	1,598
5,386	-79,875	0,526	0,124
6,400	800,000	0,075	0,187
7,415	62,780	-0,184	-0,131
8,429	61,014	-0,135	-0,095
9,444	45,735	-0,253	-0,165
10,459	-27,322	-0,313	-0,128
11,473	112,351	-0,253	-0,217
12,488	-87,957	-0,225	-0,047
13,502	-156,574	-0,399	-0,017
14,517	-143,467	-0,288	0,019
15,531	-104,397	-0,286	-0,046
16,546	58,180	-0,317	-0,220
17,561	310,677	-0,324	-0,430
18,575	-35,843	-0,281	-0,107
19,590	800,000	-0,073	-0,215
20,604	-77,587	-0,291	-0,071
21,619	-4,720	-0,602	-0,293
22,634	228,634	-0,407	-0,470
23,648	83,915	-0,361	-0,279
24,663	144,232	-0,406	-0,383
25,677	81,626	-0,377	-0,288
26,692	35,114	-0,340	-0,211
27,707	67,922	-0,293	-0,212
28,721	97,992	-0,381	-0,310
29,736	54,395	-0,323	-0,220
30,750	89,935	-0,442	-0,349
31,765	168,722	-0,326	-0,329
32,780	-32,853	-0,346	-0,135
33,794	104,857	-0,272	-0,227
34,809	96,274	-0,344	-0,278
35,823	106,433	-0,409	-0,343
36,838	57,457	-0,477	-0,329
37,853	305,690	-0,222	-0,293
38,867	62,170	-0,329	-0,232
39,882	56,967	-0,413	-0,284
40,896	17,860	-0,394	-0,221
41,911	6,288	-0,296	-0,155
42,926	91,288	-0,444	-0,352
43,940	35,524	-0,366	-0,227
44,955	247,982	-0,389	-0,466
45,969	353,690	-0,277	-0,389
46,984	67,001	-0,359	-0,258
47,999	104,880	-0,257	-0,214
49,013	229,483	-0,313	-0,362
50,028	125,896	-0,191	-0,170
51,042	39,504	-0,320	-0,202
52,057	-12,877	-0,359	-0,164
53,071	-22,307	-0,370	-0,158
54,086	-54,642	-0,481	-0,153
55,101	-60,147	-0,445	-0,133
56,115	-49,291	-0,377	-0,126
57,130	-68,063	-0,445	-0,121
58,144	89,868	-0,388	-0,306
59,159	261,496	-0,301	-0,368
60,174	81,204	-0,407	-0,310
61,188	248,087	-0,242	-0,290
62,203	13,752	-0,320	-0,175
63,217	75,319	-0,256	-0,190
64,232	23,648	-0,364	-0,211
65,247	-2,820	-0,372	-0,183
66,261	-45,186	-0,363	-0,127
67,276	-7,236	-0,423	-0,201
68,290	388,645	-0,188	-0,275
69,305	85,077	-0,330	-0,255
70,320	-26,117	-0,306	-0,126
71,334	85,137	-0,252	-0,195
72,349	104,292	-0,251	-0,208
73,363	-51,729	-0,295	-0,096
74,378	53,135	-0,328	-0,221
75,393	148,530	-0,340	-0,324
76,407	74,719	-0,290	-0,215
77,422	130,536	-0,328	-0,296
78,436	114,124	-0,226	-0,194
79,451	64,822	-0,356	-0,253
80,466	3,811	-0,351	-0,180
81,480	93,232	-0,286	-0,228
82,495	118,306	-0,235	-0,204
83,509	87,116	-0,216	-0,168
84,524	100,486	-0,322	-0,263
85,539	-45,902	-0,321	-0,111
86,553	-84,219	-0,298	-0,066
87,568	-17,620	-0,401	-0,177
88,582	189,281	-0,266	-0,281
89,597	126,679	-0,286	-0,255
90,611	-18,949	-0,326	-0,142
91,626	164,004	-0,151	-0,150
92,641	-20,445	-0,179	-0,077
93,655	17,578	-0,159	0,089
94,670	-19,581	-0,321	-0,139
95,684	59,675	-0,328	-0,227
96,699	-96,122	-0,423	-0,078
97,714	58,153	-0,218	-0,150
98,728	167,263	-0,301	-0,301
99,743	-10,615	-0,206	-0,095
100,757	-13,044	-0,382	-0,174
101,772	338,286	-0,197	-0,270
102,787	69,115	-0,357	-0,258
103,801	5,470	-0,400	-0,207
104,816	-36,557	-0,351	-0,132
105,830	-51,175	-0,338	-0,111
106,845	-109,326	-0,339	-0,050
107,860	49,063	-0,233	-0,154
108,874	70,787	-0,212	-0,154
109,889	81,902	-0,362	-0,275
110,903	56,349	-0,308	-0,210
111,918	115,131	-0,187	-0,160
112,933	153,926	-0,204	-0,196
113,947	147,652	-0,205	-0,194
114,962	294,732	-0,221	-0,284
115,976	-91,159	-0,316	-0,063
116,991	-191,256	-0,301	0,002
118,006	26,360	-0,261	-0,152
119,020	-75,909	-0,362	-0,089
120,035	38,846	-0,264	-0,165
121,049	78,259	-0,307	-0,230
122,064	141,469	-0,164	-0,152
123,079	39,653	-0,254	-0,160
124,093	-13,321	-0,236	-0,107
125,108	80,985	-0,315	-0,238
126,122	86,441	-0,134	-0,103
127,137	21,637	-0,255	-0,145
128,151	-57,581	-0,298	-0,091
129,166	138,525	-0,185	-0,170
130,181	314,211	-0,182	-0,241
131,195	2,189	-0,222	-0,112
132,210	217,209	-0,204	-0,228
133,224	97,586	-0,266	-0,215
134,239	271,494	-0,202	-0,250
135,254	-178,421	-0,186	0,003
136,268	130,700	-0,126	-0,113
137,283	-95,209	-0,206	-0,039
138,297	-68,606	-0,323	-0,087
139,312	192,339	-0,246	-0,261
140,327	-50,609	-0,357	-0,117
141,341	381,517	-0,179	-0,258
142,356	62,549	-0,263	-0,184
143,370	110,948	-0,185	-0,156
144,385	67,256	-0,259	-0,185
145,400	4,908	-0,292	-0,150
146,414	90,443	-0,258	-0,202
147,429	599,064	-0,214	-0,373
148,443	138,654	-0,226	-0,207
149,458	133,220	-0,221	-0,200
150,473	172,904	-0,239	-0,241
151,487	-68,387	-0,133	-0,036
152,502	300,449	-0,131	-0,169
153,516	136,755	-0,222	-0,203
154,531	-39,021	-0,241	-0,088
155,546	159,641	-0,284	-0,276
156,560	64,573	-0,224	-0,158
157,575	800,000	-0,120	-0,248
158,589	158,775	-0,178	-0,173
159,604	187,340	-0,217	-0,227
160,619	272,645	-0,163	-0,201
161,633	-143,865	-0,267	0,017
162,648	-9,836	-0,343	-0,159
163,662	223,563	-0,136	-0,154
164,677	800,000	-0,066	-0,189
165,692	185,036	-0,189	-0,196
166,706	91,698	-0,218	-0,171
167,721	148,430	-0,291	-0,275
168,735	86,031	-0,201	-0,154
169,750	-15,775	-0,332	-0,147
170,764	-177,542	-0,148	0,002
171,779	-33,754	-0,196	-0,075
172,794	-94,277	-0,281	-0,053
173,808	-57,731	-0,202	0,061
174,823	265,243	-0,197	-0,240
175,837	512,591	-0,156	-0,255
176,852	225,070	-0,265	-0,300
177,867	43,065	-0,320	-0,203
178,881	70,751	-0,276	-0,199
179,896	89,970	-0,149	-0,116
180,910	70,769	-0,297	-0,215
181,925	-36,729	-0,248	-0,092
182,940	-14,153	-0,152	-0,068
183,954	113,713	-0,232	-0,197
184,969	230,183	-0,220	-0,251
185,983	184,040	-0,190	-0,196
186,998	257,904	-0,131	-0,158
188,013	-51,144	-0,224	-0,073
189,027	-5,256	-0,069	-0,033
190,042	62,013	-0,230	-0,160
191,056	7,846	-0,205	-0,107
192,071	-31,784	-0,261	-0,102
193,086	326,147	-0,096	-0,128
194,100	344,175	-0,145	-0,199
195,115	337,997	-0,143	-0,195
196,129	127,929	-0,271	-0,240
197,144	74,996	-0,236	-0,173
198,159	629,080	-0,144	-0,255
199,173	149,718	-0,174	-0,165
200,188	4,722	-0,058	-0,030
201,202	379,126	-0,087	-0,125
202,217	133,728	-0,111	-0,100
203,232	342,057	-0,097	-0,132
204,246	439,718	-0,196	-0,299
205,261	598,598	-0,160	-0,277
206,275	10,654	-0,113	-0,060
207,290	-173,032	-0,227	-0,005
208,304	102,802	-0,155	-0,126
209,319	448,677	-0,129	-0,199
210,334	-73,295	-0,237	-0,060
211,348	173,482	-0,236	-0,237
212,363	313,732	-0,198	-0,260
213,377	266,324	-0,172	-0,209
214,392	-30,878	-0,215	-0,084
215,407	-200,000	-0,041	-0,237
216,421	349,742	-0,170	-0,234
217,436	-16,181	-0,267	-0,118
218,450	-60,669	-0,162	-0,047
219,465	413,921	-0,184	-0,274
220,480	175,517	-0,139	-0,140
221,494	746,834	-0,073	-0,137
222,509	-109,851	-0,067	-0,010
223,523	55,870	-0,098	-0,066
224,538	-200,000	-0,061	-0,199
225,553	-57,082	-0,332	-0,101
226,567	348,333	-0,143	-0,197
227,582	206,418	-0,189	-0,205
228,596	110,800	-0,133	-0,111
229,611	104,525	-0,140	-0,114
230,626	-18,930	-0,225	-0,097
231,640	800,000	-0,058	-0,123
232,655	338,624	-0,090	-0,122
233,669	16,166	-0,295	-0,161
234,684	165,542	-0,205	-0,202
235,699	21,642	-0,095	-0,053
236,713	-38,928	-0,191	-0,070
237,728	123,659	-0,123	-0,107
238,742	285,696	-0,233	-0,292
239,757	-30,689	-0,175	-0,068
240,772	800,000	-0,149	-0,316
241,786	-66,216	-0,143	-0,039
242,801	-175,198	-0,228	-0,004
243,815	-139,874	-0,166	-0,012
244,830	126,838	-0,094	-0,083
245,844	115,931	-0,098	-0,083
246,859	80,483	-0,190	-0,142
247,874	-4,249	-0,199	-0,095
248,888	-62,757	-0,153	-0,044
249,903	550,500	-0,141	-0,236
250,917	-200,000	-0,030	-0,217
251,932	12,441	-0,111	-0,059
252,947	-128,460	-0,230	0,022
253,961	-8,624	-0,250	-0,116
254,976	177,770	-0,225	-0,228
255,990	259,179	-0,183	-0,219
257,005	239,076	-0,107	-0,124
258,020	167,199	-0,206	-0,203
259,034	107,227	-0,117	-0,097
260,049	231,332	-0,156	-0,177
261,063	45,101	-0,212	-0,135
262,078	582,471	-0,085	-0,146
263,093	56,013	-0,248	-0,167
264,107	109,376	-0,211	-0,175
265,122	35,749	-0,120	-0,073
266,136	-21,654	-0,250	-0,105
267,151	38,610	-0,138	-0,085
268,166	347,908	-0,122	-0,167
269,180	800,000	-0,065	-0,197
270,195	55,714	-0,213	-0,143
271,209	185,314	-0,186	-0,191
272,224	86,044	-0,228	-0,174
273,239	143,680	-0,116	-0,107
274,253	-53,889	-0,115	-0,036
275,268	-81,557	-0,205	0,046
276,282	22,873	-0,188	-0,106
277,297	31,891	-0,176	-0,105
278,312	137,144	-0,220	-0,199
279,326	174,410	-0,166	-0,167
280,341	-200,000	-0,021	-0,120
281,355	-30,510	-0,142	-0,056
282,370	-17,491	-0,067	-0,029
283,384	144,726	-0,161	-0,149
284,399	-200,000	-0,055	-0,219
285,414	425,923	-0,070	-0,104
286,428	-166,368	-0,090	0,003
287,443	-65,908	-0,157	-0,043
288,457	5,064	-0,062	-0,031
289,472	-94,922	-0,116	-0,021
290,487	7,083	-0,143	-0,073
291,501	-148,377	-0,272	-0,015
292,516	20,727	-0,227	-0,127
293,530	35,164	-0,230	-0,139
294,545	-200,000	-0,007	-0,190
295,560	81,846	-0,111	0,083
296,574	-31,072	-0,167	-0,065
297,589	255,187	-0,215	-0,255
298,603	125,121	-0,198	-0,172
299,618	452,906	-0,110	-0,169
300,633	800,000	-0,044	-0,106
301,647	-40,618	-0,006	0,002
302,662	-7,976	-0,108	-0,050
303,676	635,441	-0,060	-0,106
304,691	-71,194	-0,270	-0,069
305,706	192,180	-0,200	-0,209
306,720	384,076	-0,086	-0,122
307,735	189,133	-0,099	-0,102
308,749	-2,177	-0,127	-0,061
309,764	-66,760	-0,104	-0,028
310,779	450,709	-0,104	-0,159
311,793	726,693	-0,090	-0,167
312,808	800,000	-0,038	-0,088
313,822	87,128	-0,206	-0,157
314,837	-200,000	-0,017	-0,103
315,852	-91,775	-0,100	0,019
316,866	800,000	-0,101	-0,205
317,881	91,210	-0,231	-0,178
318,895	-67,326	-0,106	-0,029
319,910	246,798	-0,082	-0,096
320,925	-4,432	-0,168	0,080
321,939	-200,000	-0,036	-0,117
322,954	352,887	-0,150	-0,206
323,968	202,453	-0,245	-0,261
324,983	800,000	0,068	-0,163
325,997	-34,796	-0,036	-0,013
327,012	-16,580	-0,081	-0,035
328,027	491,237	-0,144	-0,227
329,041	-171,653	-0,140	0,003
330,056	734,712	-0,092	-0,170
331,070	800,000	-0,013	-0,039
332,085	800,000	-0,018	0,043
333,100	800,000	-0,080	-0,233
334,114	343,124	-0,137	-0,185
335,129	344,119	-0,137	-0,185
336,143	-158,764	-0,121	0,005
337,158	131,959	-0,083	-0,073
338,173	129,752	-0,233	-0,205
339,187	515,429	-0,044	-0,070
340,202	597,801	-0,071	-0,121
341,216	-3,455	-0,083	-0,040
342,231	146,880	-0,207	-0,192
343,246	407,348	-0,107	-0,156
344,260	-200,000	-0,058	-0,245
345,275	-96,763	-0,071	-0,013
346,289	800,000	-0,054	-0,111
347,304	800,000	-0,112	-0,234
348,319	55,888	-0,038	-0,025
349,333	443,187	-0,090	-0,136
350,348	-80,121	-0,153	0,035
351,362	-72,703	-0,122	-0,031
352,377	-200,000	0,031	-0,126
353,392	-40,409	-0,089	-0,032
354,406	238,164	-0,125	-0,143
355,421	208,689	1312,506	1413,413
356,435	160,583	1472,988	1413,921
