DTS Sentinel unit serial number:	SN410029Multiplexer serial number:	ORYXHardware model number:	OX2-SRSoftware version number:	ORYX F/W v4,00 Oryx Data Collector v3.7.2.0data status	okinstallation	B3 Nyhavnadifferential loss correction	single-endedforward channel	channel 1reverse channel	N/Adate	2023/11/30time	13:52:30forward acquisition time	300,00reverse acquisition time	0,00gamma	499,1914k internal	0,3213k external	0,3213temperature offset calibration	1,0000default loss term (dB/km)	0,3820temperature slope calibration	1,0000multiplexer offset coefficient	1,0000multiplexer slope coefficient	1,0000fibre end	0,00T internal ref (°C)	11,00T ext. ref 1 (°C)	-2,29T ext. ref 2 (°C)	-2,36length (m)	temperature (°C)	Stokes	anti-Stokes-744,400	125,565	-0,154	-0,141
-743,385	800,000	0,098	0,205
-742,371	102,656	-0,173	-0,147
-741,356	800,000	0,075	0,198
-740,342	319,324	-0,211	-0,291
-739,327	-200,000	-0,047	0,253
-738,312	120,000	-0,323	-0,290
-737,298	-200,000	-0,029	0,235
-736,283	800,000	-0,108	-0,278
-735,269	-200,000	0,007	0,377
-734,254	83,368	-0,225	-0,178
-733,239	3,458	-0,157	0,082
-732,225	393,482	-0,161	-0,243
-731,210	-200,000	0,010	0,221
-730,196	800,000	-0,055	-0,111
-729,181	453,932	-0,055	0,088
-728,167	198,890	-0,042	-0,046
-727,152	-90,697	-0,113	0,023
-726,137	800,000	-0,010	-0,031
-725,123	279,533	-0,061	-0,079
-724,108	800,000	-0,009	-0,018
-723,094	-200,000	-0,007	-0,071
-722,079	-29,326	-0,023	0,010
-721,064	-64,092	0,173	-0,051
-720,050	-200,000	0,004	0,212
-719,035	226,047	-0,064	-0,075
-718,021	-136,933	-0,013	-0,001
-717,006	-160,679	-0,089	0,003
-715,991	800,000	-0,082	-0,191
-714,977	46,396	0,031	-0,021
-713,962	-200,000	-0,031	-0,125
-712,948	109,475	0,062	0,053
-711,933	-130,908	-0,085	0,008
-710,918	-200,000	-0,001	0,007
-709,904	-59,192	-0,036	-0,011
-708,889	-23,619	0,093	-0,040
-707,875	251,531	0,092	-0,113
-706,860	-52,422	0,160	-0,053
-705,845	-114,773	-0,113	0,015
-704,831	-55,041	-0,069	-0,022
-703,816	-122,920	-0,019	-0,002
-702,802	105,624	-0,101	0,086
-701,787	-200,000	-0,148	0,000
-700,772	-97,332	-0,018	0,003
-699,758	101,127	-0,155	-0,130
-698,743	95,365	-0,065	0,054
-697,729	490,422	-0,078	0,129
-696,714	505,858	-0,061	-0,102
-695,699	3,575	-0,034	-0,018
-694,685	146,425	-0,161	-0,156
-693,670	-200,000	0,019	-0,071
-692,656	117,582	0,033	0,030
-691,641	128,291	0,028	-0,026
-690,627	-141,902	0,033	-0,002
-689,612	449,508	-0,013	-0,020
-688,597	800,000	-0,066	0,134
-687,583	233,786	-0,114	-0,135
-686,568	203,215	0,017	-0,019
-685,554	-157,241	-0,157	0,007
-684,539	187,672	0,161	-0,174
-683,524	-200,000	0,006	-0,072
-682,510	121,723	-0,040	0,036
-681,495	733,020	0,097	0,188
-680,481	-200,000	0,019	-0,101
-679,466	-43,774	-0,079	-0,029
-678,451	-163,911	-0,052	0,002
-677,437	-200,000	0,012	-0,157
-676,422	58,134	-0,076	-0,054
-675,408	-200,000	0,020	-0,145
-674,393	89,795	0,097	-0,078
-673,378	-189,112	-0,032	0,000
-672,364	800,000	-0,054	-0,132
-671,349	-200,000	-0,039	-0,126
-670,335	-107,187	0,095	0,015
-669,320	-200,000	0,021	0,079
-668,305	126,230	0,073	0,067
-667,291	-200,000	-0,004	-0,103
-666,276	-200,000	0,002	-0,101
-665,262	-200,000	-0,021	-0,076
-664,247	-200,000	0,033	-0,155
-663,232	800,000	0,001	-0,003
-662,218	-56,838	0,139	0,044
-661,203	161,456	0,081	-0,081
-660,189	65,752	0,061	-0,045
-659,174	67,967	-0,102	-0,075
-658,159	785,134	0,021	-0,042
-657,145	52,531	-0,129	-0,089
-656,130	83,731	0,088	0,070
-655,116	146,150	0,080	-0,078
-654,101	17,220	0,028	-0,016
-653,086	-42,476	-0,099	0,036
-652,072	371,490	-0,045	0,066
-651,057	135,492	0,066	-0,062
-650,043	678,643	0,011	-0,022
-649,028	61,831	-0,035	0,025
-648,014	800,000	-0,018	-0,042
-646,999	197,250	-0,060	-0,067
-645,984	-34,948	0,100	0,039
-644,970	-200,000	-0,008	-0,224
-643,955	96,297	-0,109	-0,090
-642,941	-200,000	-0,014	-0,066
-641,926	45,351	0,077	0,051
-640,911	20,964	0,053	0,031
-639,897	-200,000	-0,007	0,061
-638,882	-200,000	-0,014	0,103
-637,868	28,035	0,096	-0,058
-636,853	-148,881	-0,054	0,003
-635,838	-200,000	0,023	-0,113
-634,824	800,000	0,043	-0,125
-633,809	-200,000	-0,012	0,137
-632,795	473,881	-0,020	0,033
-631,780	151,260	0,012	-0,012
-630,765	800,000	-0,034	-0,093
-629,751	-115,338	-0,104	-0,014
-628,736	24,453	-0,132	-0,079
-627,722	800,000	-0,036	0,072
-626,707	800,000	0,090	0,185
-625,692	632,237	0,096	0,177
-624,678	27,677	-0,054	0,033
-623,663	388,498	-0,068	0,102
-622,649	47,169	0,024	0,016
-621,634	9,596	-0,049	-0,027
-620,619	-67,277	-0,112	-0,032
-619,605	-143,866	0,151	0,010
-618,590	307,068	-0,082	0,111
-617,576	-132,489	-0,061	0,006
-616,561	-133,702	0,026	-0,002
-615,546	90,784	-0,017	-0,014
-614,532	-111,054	-0,147	-0,022
-613,517	800,000	-0,016	-0,036
-612,503	-125,683	0,141	0,015
-611,488	168,248	-0,087	0,089
-610,474	26,663	0,219	-0,132
-609,459	-126,863	-0,064	0,007
-608,444	-85,446	0,078	0,017
-607,430	-200,000	0,009	-0,079
-606,415	49,641	0,091	-0,062
-605,401	125,963	0,114	0,104
-604,386	-42,645	-0,013	-0,005
-603,371	47,051	0,027	0,018
-602,357	-75,925	0,059	0,015
-601,342	-83,139	0,043	-0,010
-600,328	81,555	0,066	0,052
-599,313	72,738	-0,058	-0,043
-598,298	29,750	-0,070	-0,043
-597,284	295,037	0,033	0,044
-596,269	800,000	0,005	0,014
-595,255	-115,863	0,035	-0,005
-594,240	-58,700	-0,080	0,025
-593,225	-200,000	0,015	-0,120
-592,211	-200,000	-0,016	-0,173
-591,196	221,337	-0,087	-0,101
-590,182	23,159	0,097	-0,057
-589,167	125,966	0,055	-0,051
-588,152	95,150	-0,013	0,011
-587,138	-131,338	-0,119	0,011
-586,123	52,089	0,105	-0,072
-585,109	800,000	-0,013	-0,031
-584,094	800,000	0,032	0,074
-583,079	-200,000	0,017	-0,132
-582,065	-200,000	0,013	-0,120
-581,050	-26,981	0,030	0,013
-580,036	-115,967	-0,065	0,009
-579,021	-200,000	-0,010	-0,037
-578,006	303,291	-0,129	-0,173
-576,992	-200,000	-0,015	0,053
-575,977	-21,444	0,082	0,036
-574,963	-162,131	0,012	0,000
-573,948	-200,000	0,027	0,161
-572,934	-100,517	-0,058	-0,010
-571,919	674,188	-0,087	-0,163
-570,904	-121,921	-0,084	-0,010
-569,890	-35,976	-0,067	-0,026
-568,875	800,000	0,030	0,066
-567,861	132,127	0,074	0,068
-566,846	-200,000	-0,008	-0,127
-565,831	800,000	-0,010	-0,031
-564,817	393,069	-0,112	-0,168
-563,802	-112,518	-0,063	0,009
-562,788	346,887	0,072	0,103
-561,773	-104,585	0,128	-0,021
-560,758	800,000	-0,034	-0,069
-559,744	24,301	-0,088	0,052
-558,729	170,479	-0,059	0,061
-557,715	247,442	-0,128	0,156
-556,700	157,295	-0,109	-0,108
-555,685	-39,726	0,021	0,008
-554,671	800,000	0,082	-0,172
-553,656	-156,831	0,078	0,003
-552,642	85,884	-0,005	0,004
-551,627	645,082	-0,094	-0,173
-550,612	16,077	-0,115	0,065
-549,598	-133,905	-0,082	-0,007
-548,583	106,697	-0,105	-0,090
-547,569	133,685	0,148	-0,138
-546,554	290,936	0,079	-0,103
-545,539	47,913	0,067	0,045
-544,525	-74,179	-0,046	0,012
-543,510	-200,000	-0,027	-0,112
-542,496	-200,000	-0,025	0,102
-541,481	800,000	0,027	-0,058
-540,466	-72,898	0,126	0,033
-539,452	-85,489	0,099	-0,022
-538,437	3,626	-0,076	-0,040
-537,423	66,801	0,088	-0,064
-536,408	246,073	-0,117	0,142
-535,393	-200,000	-0,005	-0,115
-534,379	-31,695	-0,101	-0,041
-533,364	-42,598	0,095	0,035
-532,350	-200,000	-0,002	-0,057
-531,335	101,642	0,061	-0,051
-530,321	-200,000	-0,019	0,061
-529,306	-94,027	-0,011	0,002
-528,291	-200,000	-0,009	0,122
-527,277	-200,000	-0,016	0,054
-526,262	-119,059	-0,155	-0,019
-525,248	-200,000	-0,004	-0,098
-524,233	204,066	0,060	-0,067
-523,218	-200,000	0,005	0,028
-522,204	-9,169	-0,091	-0,044
-521,189	-200,000	-0,018	-0,123
-520,175	-32,479	-0,015	0,006
-519,160	292,350	-0,064	-0,084
-518,145	40,717	-0,118	-0,076
-517,131	-194,518	-0,088	0,000
-516,116	-200,000	0,042	0,156
-515,102	-200,000	-0,013	0,049
-514,087	-128,342	0,068	-0,007
-513,072	-200,000	-0,004	0,064
-512,058	800,000	-0,012	-0,030
-511,043	190,749	0,038	0,041
-510,029	-200,000	0,021	0,080
-509,014	-200,000	0,026	0,151
-507,999	530,226	0,039	-0,066
-506,985	105,548	-0,053	-0,045
-505,970	800,000	0,013	-0,028
-504,956	61,588	0,074	0,053
-503,941	-200,000	0,004	-0,026
-502,926	-120,160	-0,015	-0,002
-501,912	151,150	0,062	0,060
-500,897	412,547	0,035	0,054
-499,883	-200,000	-0,022	0,127
-498,868	107,171	-0,091	-0,078
-497,853	-200,000	0,005	0,075
-496,839	-94,574	-0,062	-0,012
-495,824	22,173	0,024	0,014
-494,810	370,355	0,026	0,039
-493,795	-68,725	0,148	-0,041
-492,781	137,473	0,040	-0,038
-491,766	-99,257	-0,090	-0,016
-490,751	40,288	-0,102	0,066
-489,737	-120,250	0,109	-0,013
-488,722	484,943	0,080	0,132
-487,708	119,379	0,042	0,038
-486,693	800,000	-0,026	0,057
-485,678	122,993	-0,079	0,071
-484,664	13,993	-0,057	-0,032
-483,649	800,000	0,013	-0,031
-482,635	-200,000	-0,016	-0,096
-481,620	-2,066	-0,121	0,061
-480,605	-200,000	0,023	0,207
-479,591	303,933	-0,093	-0,124
-478,576	228,822	-0,063	0,074
-477,562	-9,274	-0,115	-0,055
-476,547	197,256	-0,093	-0,102
-475,532	2,746	-0,044	-0,023
-474,518	70,012	0,018	0,013
-473,503	425,482	-0,087	0,135
-472,489	232,023	0,043	0,051
-471,474	30,501	-0,065	-0,040
-470,459	-56,179	-0,079	-0,025
-469,445	95,297	0,044	0,036
-468,430	200,943	-0,053	-0,059
-467,416	715,972	0,051	-0,097
-466,401	492,068	0,101	-0,166
-465,386	-200,000	-0,007	-0,040
-464,372	-19,015	-0,088	0,039
-463,357	-200,000	0,009	0,075
-462,343	-139,383	-0,053	0,004
-461,328	-55,199	0,078	-0,025
-460,313	82,500	0,098	-0,076
-459,299	436,233	0,034	-0,053
-458,284	800,000	0,017	0,047
-457,270	-134,767	0,120	0,010
-456,255	-46,766	-0,157	0,055
-455,241	-200,000	0,003	0,105
-454,226	595,373	-0,033	-0,059
-453,211	766,371	0,018	-0,034
-452,197	144,109	-0,068	-0,065
-451,182	59,437	0,042	0,030
-450,168	-143,860	-0,097	0,006
-449,153	125,841	-0,035	-0,032
-448,138	-120,944	0,016	0,002
-447,124	579,936	0,090	-0,159
-446,109	136,343	-0,044	-0,041
-445,095	-58,126	-0,077	0,024
-444,080	800,000	0,034	0,095
-443,065	-31,516	-0,161	-0,065
-442,051	522,643	0,028	0,047
-441,036	-129,806	-0,080	0,008
-440,022	-108,637	0,066	-0,010
-439,007	800,000	0,051	-0,113
-437,992	800,000	0,047	0,119
-436,978	800,000	0,081	0,166
-435,963	-134,893	0,143	0,012
-434,949	-164,647	0,061	0,002
-433,934	-57,343	-0,193	-0,061
-432,919	54,087	-0,109	0,075
-431,905	-97,178	-0,075	-0,014
-430,890	385,954	-0,027	-0,040
-429,876	151,451	-0,103	0,100
-428,861	90,674	0,061	0,049
-427,846	-200,000	0,002	0,045
-426,832	-10,850	0,084	-0,040
-425,817	502,014	-0,072	0,120
-424,803	-200,000	-0,051	-0,188
-423,788	260,172	0,086	0,107
-422,773	800,000	-0,017	0,042
-421,759	1,164	-0,054	-0,028
-420,744	220,546	0,038	-0,043
-419,730	-200,000	-0,018	0,098
-418,715	129,388	0,074	-0,068
-417,701	-200,000	0,012	0,105
-416,686	87,886	-0,067	0,053
-415,671	133,332	0,082	0,075
-414,657	-92,890	0,156	0,031
-413,642	-37,646	-0,118	-0,045
-412,628	-200,000	0,007	-0,036
-411,613	57,780	-0,049	-0,034
-410,598	-200,000	0,013	0,076
-409,584	-61,789	-0,040	0,012
-408,569	476,747	0,052	0,084
-407,555	-200,000	0,040	0,155
-406,540	-111,608	-0,039	0,006
-405,525	-200,000	0,001	-0,109
-404,511	-138,399	-0,064	0,005
-403,496	-200,000	0,039	0,170
-402,482	-95,186	-0,094	0,018
-401,467	726,489	0,042	0,080
-400,452	73,977	0,046	-0,035
-399,438	11,227	-0,065	0,036
-398,423	100,543	0,071	-0,059
-397,409	338,832	0,070	-0,098
-396,394	437,256	-0,081	-0,127
-395,379	800,000	-0,042	-0,103
-394,365	53,838	0,045	0,031
-393,350	-67,683	-0,018	0,005
-392,336	800,000	0,020	0,045
-391,321	172,063	-0,036	0,038
-390,306	115,781	-0,101	0,089
-389,292	119,806	-0,090	0,080
-388,277	-45,977	-0,109	-0,038
-387,263	153,216	-0,022	-0,022
-386,248	-200,000	-0,013	-0,075
-385,233	800,000	0,018	0,054
-384,219	92,128	-0,108	0,087
-383,204	-36,794	-0,125	0,048
-382,190	-200,000	-0,009	-0,160
-381,175	32,828	0,149	0,092
-380,160	123,533	0,079	0,071
-379,146	-126,107	-0,051	0,005
-378,131	-25,854	0,058	0,024
-377,117	113,451	0,108	-0,093
-376,102	-200,000	0,003	-0,087
-375,088	-200,000	0,015	-0,110
-374,073	652,651	-0,024	0,044
-373,058	341,696	-0,005	-0,007
-372,044	-200,000	-0,019	-0,129
-371,029	-200,000	0,016	-0,070
-370,015	103,548	0,085	-0,071
-369,000	-4,529	-0,090	-0,044
-367,985	-76,978	-0,076	-0,019
-366,971	800,000	-0,044	-0,115
-365,956	639,121	0,052	0,095
-364,942	-29,327	0,132	0,054
-363,927	800,000	0,028	-0,087
-362,912	27,255	-0,082	-0,049
-361,898	647,897	-0,026	-0,048
-360,883	-106,859	0,088	0,014
-359,869	800,000	-0,081	-0,221
-358,854	352,197	0,035	0,049
-357,839	-100,526	0,055	-0,010
-356,825	-200,000	-0,011	0,041
-355,810	-34,295	-0,161	-0,063
-354,796	555,635	-0,037	0,063
-353,781	200,773	-0,105	-0,115
-352,766	-40,981	-0,060	-0,022
-351,752	-200,000	-0,032	0,142
-350,737	565,810	0,079	0,137
-349,723	143,524	0,132	0,125
-348,708	662,781	0,058	-0,107
-347,693	-90,941	0,068	-0,014
-346,679	-200,000	-0,002	-0,086
-345,664	-200,000	-0,015	-0,084
-344,650	-185,554	0,148	-0,002
-343,635	-96,000	0,093	-0,017
-342,620	202,884	-0,061	0,067
-341,606	-200,000	-0,026	0,167
-340,591	-200,000	-0,035	0,122
-339,577	800,000	0,018	-0,037
-338,562	82,679	-0,109	-0,084
-337,548	-105,170	0,057	-0,009
-336,533	363,721	-0,027	0,038
-335,518	-200,000	0,014	0,064
-334,504	-104,317	0,153	-0,025
-333,489	-59,256	-0,050	-0,015
-332,475	-178,693	0,057	-0,001
-331,460	800,000	0,029	-0,061
-330,445	246,318	0,010	-0,012
-329,431	-51,794	0,067	-0,022
-328,416	-29,077	0,142	-0,058
-327,402	-200,000	-0,000	-0,002
-326,387	433,219	0,020	-0,031
-325,372	71,764	0,008	0,006
-324,358	-200,000	0,019	-0,108
-323,343	-200,000	-0,013	0,041
-322,329	137,750	0,145	0,135
-321,314	800,000	-0,064	0,141
-320,299	451,023	0,058	0,092
-319,285	-166,242	0,099	0,003
-318,270	-200,000	0,023	-0,091
-317,256	140,604	-0,041	-0,038
-316,241	-114,618	-0,050	-0,007
-315,226	-200,000	-0,001	-0,095
-314,212	167,903	-0,064	-0,065
-313,197	395,912	0,033	0,050
-312,183	131,363	0,023	-0,021
-311,168	800,000	0,029	-0,084
-310,153	69,798	-0,071	0,052
-309,139	800,000	-0,024	0,065
-308,124	-150,825	0,074	0,004
-307,110	800,000	-0,026	0,081
-306,095	104,576	0,047	0,040
-305,080	321,070	0,058	0,078
-304,066	-23,249	-0,068	-0,029
-303,051	-78,446	-0,166	-0,040
-302,037	-165,635	0,037	0,001
-301,022	-101,491	0,141	-0,024
-300,008	126,222	0,034	-0,031
-298,993	70,004	-0,082	-0,060
-297,978	-200,000	-0,034	-0,113
-296,964	-47,269	0,149	-0,051
-295,949	222,890	0,102	-0,118
-294,935	-200,000	-0,023	0,094
-293,920	-0,727	-0,054	-0,027
-292,905	-200,000	-0,021	0,161
-291,891	103,676	0,092	0,077
-290,876	522,578	-0,072	0,121
-289,862	-137,157	0,111	0,009
-288,847	-58,516	-0,187	-0,057
-287,832	178,333	-0,020	-0,021
-286,818	-110,498	0,194	0,028
-285,803	599,921	0,086	0,153
-284,789	385,059	0,087	0,128
-283,774	109,597	-0,032	0,027
-282,759	618,695	0,029	-0,051
-281,745	-73,462	-0,119	-0,031
-280,730	-30,794	-0,073	-0,029
-279,716	800,000	0,062	-0,145
-278,701	-58,743	0,045	0,014
-277,686	122,110	0,003	0,003
-276,672	703,228	-0,031	-0,058
-275,657	19,774	-0,125	-0,072
-274,643	-200,000	-0,020	0,074
-273,628	800,000	-0,045	-0,128
-272,613	800,000	-0,013	0,032
-271,599	14,085	-0,066	0,036
-270,584	-200,000	0,007	0,032
-269,570	449,715	0,039	0,061
-268,555	358,829	0,101	0,145
-267,540	289,077	-0,035	0,046
-266,526	-200,000	-0,019	-0,065
-265,511	258,715	-0,086	0,105
-264,497	563,165	-0,067	0,116
-263,482	-14,350	0,074	0,034
-262,467	-85,162	0,045	0,010
-261,453	800,000	0,019	-0,043
-260,438	-200,000	0,024	-0,176
-259,424	-200,000	0,009	-0,080
-258,409	69,299	-0,081	-0,059
-257,395	438,305	0,018	-0,028
-256,380	-151,461	0,048	-0,002
-255,365	800,000	-0,041	-0,088
-254,351	-63,931	-0,040	0,012
-253,336	179,278	-0,077	-0,080
-252,322	-42,584	-0,090	-0,032
-251,307	47,622	-0,126	0,084
-250,292	-200,000	-0,006	0,065
-249,278	126,447	0,117	-0,105
-248,263	797,696	0,024	-0,048
-247,249	-200,000	-0,005	0,120
-246,234	221,403	0,083	-0,095
-245,219	206,977	-0,033	-0,037
-244,205	-200,000	-0,011	-0,088
-243,190	-143,799	0,151	-0,010
-242,176	68,121	-0,001	-0,001
-241,161	-55,238	0,110	0,035
-240,146	-119,421	-0,072	-0,009
-239,132	534,149	-0,050	-0,084
-238,117	-200,000	0,029	-0,096
-237,103	800,000	0,039	0,080
-236,088	763,585	0,016	0,030
-235,073	-200,000	0,008	0,053
-234,059	431,500	0,067	0,103
-233,044	-133,093	-0,021	-0,002
-232,030	234,517	0,025	-0,029
-231,015	12,976	0,081	0,044
-230,000	-16,168	-0,135	-0,061
-228,986	-200,000	-0,004	-0,045
-227,971	-170,440	0,138	0,003
-226,957	800,000	-0,026	0,063
-225,942	-70,908	0,115	-0,031
-224,927	800,000	-0,047	-0,123
-223,913	-200,000	-0,010	-0,065
-222,898	165,752	-0,052	-0,053
-221,884	-200,000	-0,024	0,124
-220,869	422,386	-0,021	0,032
-219,855	82,242	0,043	0,033
-218,840	108,992	0,011	0,009
-217,825	135,137	0,059	-0,054
-216,811	741,269	0,054	-0,103
-215,796	262,808	-0,077	0,095
-214,782	-55,696	0,036	-0,011
-213,767	800,000	0,022	0,066
-212,752	23,105	0,092	0,054
-211,738	139,785	0,050	0,047
-210,723	7,906	0,076	0,040
-209,709	-200,000	-0,015	0,056
-208,694	319,846	-0,070	-0,094
-207,679	-25,031	-0,084	-0,035
-206,665	64,228	0,076	-0,054
-205,650	800,000	-0,020	-0,044
-204,636	-200,000	0,019	0,078
-203,621	621,045	0,046	-0,083
-202,606	-169,950	-0,093	0,002
-201,592	131,983	0,082	-0,075
-200,577	-38,207	0,088	0,033
-199,563	80,037	0,076	0,058
-198,548	192,109	-0,081	0,087
-197,533	800,000	-0,012	0,035
-196,519	-200,000	0,018	0,162
-195,504	163,453	0,121	0,121
-194,490	170,319	-0,065	-0,066
-193,475	-88,870	-0,068	-0,014
-192,460	-200,000	-0,011	0,052
-191,446	279,109	0,112	0,142
-190,431	95,223	0,046	0,037
-189,417	-4,856	0,067	0,033
-188,402	-98,100	-0,012	0,002
-187,387	-200,000	-0,025	0,101
-186,373	-113,592	0,103	-0,014
-185,358	-200,000	0,001	-0,128
-184,344	-200,000	-0,028	0,116
-183,329	29,680	0,093	0,056
-182,315	-182,602	-0,141	-0,002
-181,300	-1,240	-0,063	0,032
-180,285	-200,000	-0,017	-0,098
-179,271	-119,521	0,102	-0,012
-178,256	284,340	-0,082	0,104
-177,242	-59,921	0,087	0,026
-176,227	-56,152	0,059	0,019
-175,212	5,210	0,198	-0,103
-174,198	-200,000	0,024	0,077
-173,183	-60,345	-0,098	0,029
-172,169	472,367	0,049	0,078
-171,154	-135,640	0,186	-0,015
-170,139	246,318	0,027	-0,032
-169,125	-200,000	-0,005	0,203
-168,110	-128,922	-0,091	-0,009
-167,096	141,262	-0,050	0,047
-166,081	181,605	-0,083	0,087
-165,066	-48,129	-0,125	0,042
-164,052	-200,000	-0,009	-0,032
-163,037	-200,000	0,017	0,081
-162,023	800,000	0,009	0,019
-161,008	-200,000	0,003	0,085
-159,993	743,109	-0,055	0,106
-158,979	-200,000	0,009	-0,100
-157,964	-80,722	-0,049	0,012
-156,950	-200,000	-0,018	-0,148
-155,935	-141,431	0,083	-0,006
-154,920	-7,004	-0,075	0,036
-153,906	-135,124	0,115	-0,010
-152,891	-200,000	0,004	-0,039
-151,877	800,000	0,049	-0,097
-150,862	-44,325	0,063	0,022
-149,847	-189,536	-0,088	-0,001
-148,833	110,813	-0,096	-0,082
-147,818	-200,000	0,001	0,115
-146,804	-61,022	-0,090	-0,027
-145,789	800,000	-0,080	0,158
-144,775	18,958	0,070	0,039
-143,760	39,644	0,114	-0,072
-142,745	800,000	0,020	0,056
-141,731	198,829	0,070	0,076
-140,716	265,907	-0,094	-0,116
-139,702	-121,390	0,102	0,012
-138,687	465,782	0,078	-0,125
-137,672	791,045	0,035	-0,068
-136,658	365,919	0,037	-0,052
-135,643	191,895	-0,131	-0,140
-134,629	92,683	0,123	-0,098
-133,614	494,594	-0,068	0,111
-132,599	345,607	0,090	0,125
-131,585	154,731	-0,033	0,032
-130,570	-22,942	0,107	0,045
-129,556	-200,000	0,003	-0,084
-128,541	149,973	0,062	-0,060
-127,526	199,537	0,036	0,039
-126,512	183,709	0,030	0,031
-125,497	103,107	-0,061	-0,050
-124,483	-139,488	-0,056	0,004
-123,468	-49,943	-0,065	-0,022
-122,453	800,000	0,029	0,075
-121,439	-92,552	-0,002	0,000
-120,424	-200,000	0,004	-0,068
-119,410	-42,568	0,044	0,016
-118,395	-118,027	0,086	-0,011
-117,380	800,000	0,036	0,092
-116,366	-30,384	-0,109	-0,044
-115,351	195,271	-0,042	-0,046
-114,337	175,185	-0,038	0,039
-113,322	800,000	0,055	0,122
-112,307	-67,579	-0,100	0,028
-111,293	9,702	-0,060	-0,032
-110,278	-160,624	0,146	0,005
-109,264	168,326	0,049	-0,049
-108,249	103,108	-0,073	0,060
-107,234	615,193	0,035	0,061
-106,220	346,294	0,069	0,096
-105,205	-200,000	0,000	-0,031
-104,191	-76,070	0,088	-0,022
-103,176	-200,000	0,041	-0,167
-102,162	800,000	-0,029	0,085
-101,147	314,470	-0,071	-0,095
-100,132	-200,000	0,017	-0,062
-99,118	171,539	-0,032	-0,033
-98,103	491,260	-0,033	-0,053
-97,089	-36,780	-0,083	0,031
-96,074	-200,000	0,013	0,179
-95,059	-162,050	0,138	-0,005
-94,045	-200,000	0,026	-0,251
-93,030	-200,000	-0,019	-0,092
-92,016	-133,590	-0,056	0,005
-91,001	-200,000	0,002	0,011
-89,986	-200,000	-0,023	-0,110
-88,972	-200,000	-0,003	0,020
-87,957	-200,000	0,021	0,087
-86,943	360,084	-0,130	-0,184
-85,928	-200,000	0,001	-0,004
-84,913	89,240	-0,108	0,085
-83,899	366,899	-0,052	-0,074
-82,884	170,772	0,037	0,038
-81,870	29,690	-0,087	0,052
-80,855	-200,000	-0,005	-0,052
-79,840	258,842	-0,025	0,031
-78,826	-121,301	-0,038	0,004
-77,811	-200,000	0,024	-0,209
-76,797	-200,000	0,017	-0,126
-75,782	14,431	-0,062	0,034
-74,767	187,891	0,084	0,089
-73,753	-123,644	0,220	0,024
-72,738	309,803	-0,049	0,065
-71,724	339,246	0,025	-0,035
-70,709	-198,421	-0,207	-0,001
-69,694	-39,033	0,047	-0,017
-68,680	-200,000	-0,009	-0,107
-67,665	800,000	0,053	0,127
-66,651	-200,000	0,006	-0,057
-65,636	800,000	0,063	-0,127
-64,622	800,000	0,050	-0,143
-63,607	77,101	0,094	0,070
-62,592	800,000	0,034	-0,104
-61,578	469,165	-0,077	-0,123
-60,563	-200,000	0,002	0,101
-59,549	51,562	0,086	0,058
-58,534	35,551	-1,935	-1,196
-57,519	448,318	-1,291	-2,013
-56,505	-200,000	-0,423	-4,315
-55,490	576,683	0,767	1,328
-54,476	800,000	5,032	11,501
-53,461	-200,000	20,776	329,464
-52,446	800,000	755,101	2318,205
-51,432	551,915	1660,869	2824,262
-50,417	73,790	1664,389	1229,387
-49,403	18,891	1537,631	866,563
-48,388	12,835	1460,358	793,728
-47,373	18,931	1450,748	817,726
-46,359	15,942	1440,188	797,523
-45,344	11,128	1435,966	772,240
-44,330	11,025	1434,056	770,694
-43,315	11,027	1432,144	769,643
-42,300	11,042	1430,390	768,740
-41,286	11,042	1429,316	768,134
-40,271	10,967	1427,985	767,031
-39,257	11,024	1426,765	766,619
-38,242	11,077	1425,312	766,056
-37,227	11,092	1424,353	765,581
-36,213	11,041	1423,256	764,719
-35,198	11,091	1422,057	764,283
-34,184	11,158	1421,068	764,036
-33,169	11,049	1419,921	762,876
-32,154	11,126	1418,636	762,518
-31,140	11,093	1417,543	761,747
-30,125	11,147	1416,278	761,287
-29,111	11,126	1415,268	760,614
-28,096	11,162	1413,743	759,934
-27,082	10,990	1413,248	758,831
-26,067	11,012	1412,015	758,243
-25,052	11,000	1411,044	757,638
-24,038	11,086	1409,845	757,363
-23,023	11,013	1409,059	756,571
-22,009	11,003	1407,930	755,886
-20,994	10,999	1406,927	755,300
-19,979	11,040	1405,755	754,835
-18,965	10,970	1405,111	754,131
-17,950	11,002	1404,177	753,751
-16,936	10,981	1403,308	753,152
-15,921	10,906	1402,421	752,300
-14,906	10,950	1401,302	751,874
-13,892	10,970	1400,407	751,457
-12,877	10,982	1399,689	751,099
-11,863	10,937	1398,772	750,369
-10,848	10,940	1397,952	749,910
-9,833	10,874	1397,176	749,159
-8,819	10,869	1396,137	748,551
-7,804	10,841	1395,178	747,876
-6,790	10,824	1394,378	747,336
-5,775	10,874	1393,076	746,842
-4,760	10,843	1392,200	746,200
-3,746	10,806	1391,321	745,528
-2,731	10,876	1390,503	745,382
-1,717	10,841	1389,766	744,797
-0,702	10,816	1387,773	743,587
0,313	14,975	1302,130	716,709
1,327	31,284	694,001	419,101
2,342	48,437	120,646	79,509
3,356	1,139	16,555	8,347
4,371	4,995	3,387	1,751
5,386	50,440	0,837	0,557
6,400	-200,000	0,133	0,481
7,415	-123,255	-0,199	0,022
8,429	37,300	-0,292	-0,182
9,444	-96,417	-0,336	-0,062
10,459	73,139	-0,280	-0,206
11,473	38,206	-0,341	-0,214
12,488	43,954	-0,327	-0,210
13,502	54,918	-0,345	-0,234
14,517	-0,399	-0,262	-0,131
15,531	177,311	-0,323	-0,331
16,546	31,242	-0,289	-0,174
17,561	-36,146	-0,445	-0,168
18,575	-148,772	-0,307	-0,017
19,590	217,066	-0,170	-0,191
20,604	72,252	-0,315	-0,230
21,619	35,683	-0,366	-0,226
22,634	89,740	-0,367	-0,288
23,648	83,418	-0,402	-0,308
24,663	76,510	-0,386	-0,287
25,677	282,587	-0,301	-0,381
26,692	145,143	-0,272	-0,256
27,707	4,546	-0,365	-0,188
28,721	128,128	-0,342	-0,306
29,736	2,009	-0,389	-0,197
30,750	-14,043	-0,408	-0,185
31,765	25,095	-0,374	-0,218
32,780	166,119	-0,326	-0,325
33,794	-58,993	-0,372	-0,112
34,809	73,328	-0,255	-0,187
35,823	75,349	-0,366	-0,271
36,838	44,719	-0,458	-0,295
37,853	76,610	-0,370	-0,275
38,867	81,527	-0,448	-0,340
39,882	54,220	-0,364	-0,246
40,896	139,997	-0,338	-0,313
41,911	39,533	-0,281	-0,176
42,926	-33,840	-0,413	-0,159
43,940	-15,612	-0,334	-0,149
44,955	168,571	-0,318	-0,319
45,969	106,248	-0,274	-0,228
46,984	239,382	-0,320	-0,374
47,999	131,162	-0,244	-0,220
49,013	114,047	-0,342	-0,292
50,028	110,647	-0,354	-0,298
51,042	79,175	-0,514	-0,386
52,057	-12,656	-0,404	-0,184
53,071	69,732	-0,282	-0,204
54,086	175,268	-0,275	-0,280
55,101	114,602	-0,295	-0,252
56,115	48,501	-0,338	-0,222
57,130	95,463	-0,399	-0,319
58,144	47,700	-0,406	-0,265
59,159	93,822	-0,361	-0,287
60,174	-13,727	-0,381	-0,172
61,188	17,031	-0,377	-0,209
62,203	66,883	-0,192	-0,137
63,217	18,304	-0,223	-0,125
64,232	93,750	-0,371	-0,294
65,247	-38,572	-0,452	-0,166
66,261	151,606	-0,325	-0,311
67,276	43,947	-0,525	-0,337
68,290	308,504	-0,172	-0,226
69,305	48,748	-0,277	-0,182
70,320	-58,223	-0,171	-0,052
71,334	-62,138	-0,379	-0,110
72,349	-18,199	-0,373	-0,163
73,363	253,440	-0,297	-0,356
74,378	180,599	-0,307	-0,316
75,393	46,771	-0,336	-0,218
76,407	140,797	-0,330	-0,306
77,422	-16,759	-0,269	-0,119
78,436	75,143	-0,214	-0,158
79,451	-21,580	-0,320	-0,136
80,466	11,249	-0,349	-0,186
81,480	156,885	-0,393	-0,381
82,495	50,598	-0,257	-0,170
83,509	576,442	-0,117	-0,201
84,524	-52,665	-0,335	-0,107
85,539	-77,835	-0,368	-0,088
86,553	104,890	-0,174	-0,143
87,568	25,804	-0,393	-0,228
88,582	135,405	-0,361	-0,329
89,597	96,217	-0,366	-0,293
90,611	-42,627	-0,323	-0,114
91,626	-29,010	-0,213	-0,085
92,641	94,268	-0,173	-0,137
93,655	-37,934	-0,312	-0,115
94,670	134,301	-0,279	-0,253
95,684	70,070	-0,363	-0,262
96,699	-7,678	-0,473	-0,223
97,714	-51,627	-0,410	-0,133
98,728	72,207	-0,257	-0,187
99,743	141,153	-0,282	-0,261
100,757	17,380	-0,288	-0,159
101,772	106,815	-0,376	-0,312
102,787	423,682	-0,180	-0,272
103,801	82,679	-0,246	-0,186
104,816	315,203	-0,190	-0,251
105,830	30,989	-0,161	-0,096
106,845	101,474	-0,259	-0,211
107,860	-95,181	-0,218	-0,041
108,874	-44,508	-0,185	-0,064
109,889	141,701	-0,246	-0,228
110,903	29,421	-0,352	-0,208
111,918	273,548	-0,271	-0,336
112,933	-19,827	-0,269	-0,116
113,947	164,372	-0,221	-0,217
114,962	111,021	-0,276	-0,232
115,976	99,091	-0,259	-0,209
116,991	14,812	-0,227	-0,124
118,006	47,439	-0,243	-0,157
119,020	79,500	-0,313	-0,234
120,035	-77,461	-0,213	-0,051
121,049	-89,032	-0,152	-0,031
122,064	40,773	-0,280	-0,176
123,079	-42,006	-0,253	-0,090
124,093	215,308	-0,241	-0,267
125,108	-63,414	-0,382	-0,109
126,122	202,042	-0,239	-0,258
127,137	89,160	-0,170	-0,132
128,151	312,695	-0,216	-0,284
129,166	155,682	-0,220	-0,211
130,181	226,678	-0,171	-0,194
131,195	178,827	-0,327	-0,333
132,210	75,668	-0,278	-0,205
133,224	-1,643	-0,263	-0,128
134,239	11,737	-0,294	-0,157
135,254	459,223	-0,101	-0,157
136,268	-125,844	-0,292	-0,030
137,283	73,810	-0,281	-0,205
138,297	150,048	-0,197	-0,186
139,312	-81,110	-0,398	-0,091
140,327	318,134	-0,231	-0,305
141,341	72,401	-0,256	-0,186
142,356	-28,842	-0,224	-0,089
143,370	43,132	-0,261	-0,166
144,385	39,312	-0,216	-0,134
145,400	49,055	-0,219	-0,143
146,414	524,287	-0,159	-0,262
147,429	186,974	-0,182	-0,189
148,443	188,670	-0,173	-0,181
149,458	51,257	-0,198	-0,131
150,473	17,464	-0,184	-0,101
151,487	295,203	-0,176	-0,224
152,502	-70,074	-0,253	-0,066
153,516	229,156	-0,242	-0,275
154,531	109,830	-0,260	-0,217
155,546	8,537	-0,253	-0,132
156,560	104,372	-0,162	-0,133
157,575	47,507	-0,161	-0,104
158,589	48,317	-0,246	-0,160
159,604	250,900	-0,212	-0,251
160,619	66,656	-0,152	-0,107
161,633	232,412	-0,111	-0,127
162,648	76,768	-0,346	-0,255
163,662	20,757	-0,115	-0,065
164,677	161,352	-0,237	-0,231
165,692	71,262	-0,159	-0,115
166,706	522,369	-0,183	-0,300
167,721	27,384	-0,235	-0,137
168,735	79,118	-0,281	-0,209
169,750	141,809	-0,256	-0,236
170,764	325,450	-0,166	-0,222
171,779	-119,667	-0,268	-0,032
172,794	44,321	-0,217	-0,138
173,808	-72,604	-0,330	-0,084
174,823	392,815	-0,250	-0,362
175,837	183,388	-0,176	-0,181
176,852	-0,501	-0,313	-0,154
177,867	42,573	-0,263	-0,166
178,881	-108,860	-0,107	0,016
179,896	800,000	-0,080	-0,193
180,910	283,804	-0,178	-0,222
181,925	304,860	-0,238	-0,308
182,940	800,000	-0,138	-0,275
183,954	258,621	-0,153	-0,184
184,969	329,250	-0,156	-0,208
185,983	-68,993	-0,205	-0,054
186,998	93,524	-0,223	-0,175
188,013	10,488	-0,147	-0,077
189,027	13,580	-0,273	-0,146
190,042	54,341	-0,383	-0,255
191,056	-21,008	-0,310	-0,131
192,071	193,702	-0,161	-0,169
193,086	-48,253	-0,179	-0,059
194,100	-9,718	-0,215	-0,099
195,115	92,990	-0,158	-0,123
196,129	800,000	-0,072	-0,178
197,144	68,929	-0,281	-0,200
198,159	402,179	-0,147	-0,215
199,173	156,015	-0,152	-0,145
200,188	157,979	-0,195	-0,187
201,202	299,588	-0,137	-0,175
202,217	-200,000	-0,070	-0,224
203,232	-16,831	-0,231	-0,101
204,246	-3,820	-0,315	-0,151
205,261	35,835	-0,148	-0,090
206,275	24,252	-0,226	-0,129
207,290	-102,706	-0,170	-0,028
208,304	-2,472	-0,181	-0,088
209,319	-35,060	-0,090	-0,034
210,334	-80,507	-0,278	-0,064
211,348	2,405	-0,218	-0,109
212,363	-85,401	-0,235	-0,050
213,377	-59,552	-0,256	-0,076
214,392	120,969	-0,147	-0,126
215,407	326,309	-0,133	-0,177
216,421	163,882	-0,163	-0,159
217,436	27,821	-0,231	-0,134
218,450	-92,917	-0,208	-0,040
219,465	-17,368	-0,236	-0,102
220,480	-34,497	-0,121	-0,046
221,494	7,831	-0,215	-0,111
222,509	-6,589	-0,204	-0,096
223,523	141,766	-0,208	-0,190
224,538	-73,280	-0,248	-0,062
225,553	257,772	-0,226	-0,269
226,567	-77,114	-0,236	-0,056
227,582	-200,000	-0,035	-0,254
228,596	-41,153	-0,323	-0,114
229,611	319,535	-0,091	-0,119
230,626	-16,530	-0,200	0,087
231,640	154,019	-0,206	-0,195
232,655	96,297	-0,182	-0,144
233,669	-14,046	-0,270	-0,120
234,684	123,807	-0,216	-0,187
235,699	800,000	-0,128	-0,274
236,713	74,594	-0,184	-0,134
237,728	8,838	-0,156	-0,081
238,742	-117,121	-0,178	-0,022
239,757	-41,531	-0,278	-0,098
240,772	264,161	-0,142	-0,171
241,786	50,863	-0,166	-0,109
242,801	800,000	-0,086	-0,203
243,815	342,119	-0,154	-0,208
244,830	157,615	-0,153	-0,146
245,844	19,077	-0,226	-0,125
246,859	-200,000	-0,035	-0,175
247,874	588,303	-0,117	-0,199
248,888	-176,784	-0,265	0,005
249,903	-91,009	-0,117	-0,023
250,917	-0,481	-0,156	-0,076
251,932	-172,833	-0,224	-0,005
252,947	-71,796	-0,069	-0,017
253,961	-113,889	-0,159	-0,021
254,976	147,875	-0,124	-0,115
255,990	176,150	-0,170	-0,170
257,005	85,894	-0,168	-0,128
258,020	195,132	-0,201	-0,210
259,034	22,778	-0,148	-0,083
260,049	-200,000	-0,032	-0,212
261,063	800,000	-0,045	-0,097
262,078	229,436	-0,259	-0,291
263,093	-88,485	-0,180	0,037
264,107	214,681	-0,110	-0,120
265,122	3,291	-0,167	-0,083
266,136	740,238	-0,159	-0,294
267,151	-93,115	-0,255	-0,048
268,166	44,799	-0,191	-0,121
269,180	79,531	-0,227	-0,167
270,195	137,300	-0,246	-0,221
271,209	-118,193	-0,241	-0,029
272,224	-64,615	-0,194	-0,054
273,239	-158,852	-0,160	0,006
274,253	105,032	-0,150	-0,122
275,268	-167,352	-0,119	-0,003
276,282	146,097	-0,120	-0,111
277,297	-10,173	-0,241	-0,109
278,312	-200,000	-0,068	-0,265
279,326	-8,665	-0,150	-0,069
280,341	-28,551	-0,083	0,033
281,355	-20,985	-0,170	-0,071
282,370	800,000	-0,100	-0,229
283,384	130,987	-0,113	-0,100
284,399	714,649	-0,093	-0,171
285,414	60,087	-0,151	-0,102
286,428	800,000	-0,108	-0,267
287,443	169,198	-0,187	-0,184
288,457	174,904	-0,096	-0,096
289,472	74,751	-0,212	-0,154
290,487	140,375	-0,155	-0,141
291,501	244,686	-0,181	-0,210
292,516	6,834	-0,208	-0,106
293,530	53,625	-0,167	-0,110
294,545	299,264	-0,118	-0,150
295,560	429,357	-0,118	0,176
296,574	132,637	-0,195	-0,172
297,589	191,578	-0,169	-0,175
298,603	-32,402	-0,158	-0,060
299,618	148,363	-0,147	-0,136
300,633	66,849	-0,189	-0,132
301,647	78,101	-0,115	-0,084
302,662	95,422	-0,074	-0,058
303,676	-29,896	-0,150	-0,059
304,691	216,259	-0,079	-0,087
305,706	285,144	-0,173	-0,214
306,720	70,842	-0,181	-0,129
307,735	156,750	-0,114	-0,109
308,749	-200,000	-0,050	-0,175
309,764	9,028	-0,133	-0,069
310,779	429,170	-0,114	-0,169
311,793	-14,251	-0,134	-0,059
312,808	25,150	-0,229	-0,130
313,822	72,469	-0,109	-0,078
314,837	270,877	-0,105	-0,127
315,852	278,114	-0,060	0,074
316,866	800,000	0,029	0,077
317,881	-133,244	-0,138	0,012
318,895	-59,719	-0,098	0,029
319,910	58,448	-0,163	-0,109
320,925	-200,000	-0,072	-0,251
321,939	200,884	-0,102	-0,108
322,954	89,069	-0,053	-0,041
323,968	432,274	-0,087	-0,130
324,983	-170,514	-0,136	-0,003
325,997	497,645	-0,154	-0,243
327,012	128,185	-0,059	-0,051
328,027	23,013	-0,170	-0,096
329,041	311,911	-0,108	-0,139
330,056	337,310	-0,092	-0,123
331,070	153,874	-0,135	-0,127
332,085	-48,391	-0,145	-0,047
333,100	597,430	-0,048	-0,082
334,114	800,000	-0,062	-0,153
335,129	442,840	-0,037	-0,056
336,143	29,900	-0,142	-0,082
337,158	-21,311	-0,105	-0,044
338,173	-125,412	-0,131	-0,013
339,187	48,596	-0,080	-0,051
340,202	44,394	-0,069	-0,043
341,216	390,438	-0,032	-0,046
342,231	800,000	-0,061	-0,166
343,246	212,095	-0,197	-0,213
344,260	-74,195	-0,072	0,018
345,275	168,310	-0,092	-0,090
346,289	46,427	-0,244	-0,154
347,304	540,016	-0,137	-0,224
348,319	91,718	-0,164	-0,126
349,333	-91,063	-0,195	-0,038
350,348	266,185	-0,157	-0,188
351,362	53,411	-0,206	-0,135
352,377	196,769	-0,154	-0,160
353,392	-8,595	-0,132	-0,060
354,406	-145,545	-0,093	0,006
355,421	206,007	1313,918	1398,544
356,435	158,419	1474,527	1399,040
