DTS Sentinel unit serial number:	SN410029Multiplexer serial number:	ORYXHardware model number:	OX2-SRSoftware version number:	ORYX F/W v4,00 Oryx Data Collector v3.7.2.0data status	okinstallation	B3 Nyhavnadifferential loss correction	single-endedforward channel	channel 1reverse channel	N/Adate	2023/11/29time	00:07:30forward acquisition time	300,00reverse acquisition time	0,00gamma	499,1914k internal	0,3212k external	0,3212temperature offset calibration	1,0000default loss term (dB/km)	0,3820temperature slope calibration	1,0000multiplexer offset coefficient	1,0000multiplexer slope coefficient	1,0000fibre end	0,00T internal ref (°C)	9,00T ext. ref 1 (°C)	-5,32T ext. ref 2 (°C)	-5,46length (m)	temperature (°C)	Stokes	anti-Stokes-744,400	120,043	-0,299	-0,269
-743,385	800,000	0,137	0,337
-742,371	22,849	-0,304	-0,180
-741,356	-200,000	-0,011	0,276
-740,342	800,000	-0,069	-0,188
-739,327	800,000	-0,126	0,332
-738,312	343,398	-0,198	-0,282
-737,298	-200,000	0,016	0,251
-736,283	725,576	-0,095	-0,185
-735,269	-200,000	-0,036	0,416
-734,254	214,991	-0,201	-0,232
-733,239	-106,688	-0,263	0,042
-732,225	-200,000	-0,101	-0,337
-731,210	584,275	0,099	0,178
-730,196	-26,368	0,037	0,016
-729,181	800,000	-0,015	-0,047
-728,167	-200,000	-0,010	-0,066
-727,152	-54,570	-0,080	0,026
-726,137	800,000	-0,012	-0,025
-725,123	190,551	-0,024	-0,026
-724,108	417,576	-0,057	-0,089
-723,094	-200,000	0,001	-0,012
-722,079	-142,503	-0,066	-0,005
-721,064	160,262	-0,031	-0,031
-720,050	-106,379	-0,129	-0,021
-719,035	-68,258	0,032	0,009
-718,021	-46,067	-0,109	-0,039
-717,006	-84,845	-0,054	-0,012
-715,991	65,143	-0,095	-0,069
-714,977	-34,001	0,065	0,026
-713,962	-200,000	0,006	-0,174
-712,948	-26,622	-0,124	0,052
-711,933	64,269	0,061	0,045
-710,918	-200,000	0,008	0,066
-709,904	106,361	-0,031	0,026
-708,889	-118,721	-0,113	-0,014
-707,875	-72,747	-0,008	0,002
-706,860	119,398	-0,102	-0,091
-705,845	313,985	0,036	-0,049
-704,831	417,905	-0,045	0,071
-703,816	-87,932	-0,171	0,037
-702,802	365,807	-0,049	-0,072
-701,787	92,026	-0,089	-0,072
-700,772	-51,424	0,056	-0,019
-699,758	-53,550	-0,057	0,019
-698,743	-200,000	0,015	0,065
-697,729	70,007	0,052	0,039
-696,714	-200,000	0,006	0,070
-695,699	-200,000	-0,015	-0,075
-694,685	414,571	-0,034	-0,053
-693,670	-200,000	-0,007	-0,073
-692,656	433,183	0,065	-0,103
-691,641	65,860	0,196	0,144
-690,627	-71,806	-0,044	-0,012
-689,612	13,745	-0,060	0,033
-688,597	-200,000	-0,020	-0,073
-687,583	-200,000	-0,030	-0,141
-686,568	364,118	-0,005	0,007
-685,554	-200,000	-0,024	0,123
-684,539	-200,000	0,014	0,052
-683,524	-200,000	0,003	-0,010
-682,510	469,782	-0,008	0,013
-681,495	-184,419	-0,041	0,000
-680,481	203,592	-0,049	-0,055
-679,466	-20,601	-0,074	-0,033
-678,451	3,561	0,075	-0,040
-677,437	-55,193	0,039	0,013
-676,422	78,171	-0,082	-0,063
-675,408	13,095	0,006	-0,003
-674,393	-200,000	-0,007	0,074
-673,378	506,879	-0,046	-0,077
-672,364	-20,924	0,124	-0,055
-671,349	800,000	0,018	-0,053
-670,335	147,053	0,024	0,023
-669,320	-55,903	0,133	0,043
-668,305	47,588	-0,108	-0,073
-667,291	-7,736	-0,125	0,061
-666,276	68,310	-0,073	-0,054
-665,262	-1,537	-0,017	-0,009
-664,247	-143,129	0,068	0,005
-663,232	-168,128	-0,038	-0,001
-662,218	-200,000	0,038	-0,155
-661,203	-106,100	0,088	0,014
-660,189	800,000	-0,050	-0,124
-659,174	-51,114	-0,011	-0,004
-658,159	137,839	-0,095	0,090
-657,145	-69,546	-0,100	-0,027
-656,130	-45,707	0,086	0,030
-655,116	-69,855	-0,143	0,039
-654,101	233,044	0,023	-0,028
-653,086	800,000	-0,032	-0,083
-652,072	-200,000	-0,034	-0,129
-651,057	-123,722	-0,133	-0,015
-650,043	287,076	-0,038	-0,050
-649,028	-93,502	-0,018	-0,004
-648,014	490,888	0,055	-0,092
-646,999	-51,224	-0,051	0,017
-645,984	-54,301	-0,158	-0,051
-644,970	-107,926	0,126	0,020
-643,955	-200,000	-0,039	0,176
-642,941	-200,000	-0,003	-0,119
-641,926	-6,445	-0,006	-0,003
-640,911	399,967	0,026	-0,040
-639,897	-6,130	0,034	-0,017
-638,882	586,605	0,042	-0,074
-637,868	800,000	-0,019	0,048
-636,853	-101,404	-0,134	0,023
-635,838	-200,000	0,006	-0,077
-634,824	-14,852	0,141	-0,065
-633,809	34,650	0,037	0,023
-632,795	-145,854	-0,200	-0,013
-631,780	-62,771	0,048	0,014
-630,765	-82,779	-0,120	-0,028
-629,751	-144,190	-0,197	0,013
-628,736	-56,749	-0,078	-0,025
-627,722	-66,260	0,078	-0,022
-626,707	55,945	-0,036	-0,025
-625,692	394,738	0,080	0,121
-624,678	-200,000	-0,005	0,033
-623,663	-200,000	0,001	-0,026
-622,649	-97,077	-0,055	0,010
-621,634	149,176	-0,139	-0,136
-620,619	160,275	0,068	0,068
-619,605	-32,367	0,082	0,033
-618,590	-174,463	-0,025	-0,001
-617,576	-200,000	-0,008	-0,071
-616,561	-99,274	0,076	-0,014
-615,546	511,462	0,039	-0,065
-614,532	-83,184	-0,123	-0,028
-613,517	-200,000	0,007	-0,056
-612,503	80,205	0,018	0,014
-611,488	337,465	-0,046	-0,065
-610,474	697,615	0,057	0,109
-609,459	-14,664	0,068	-0,031
-608,444	642,081	-0,050	-0,091
-607,430	-47,103	-0,106	0,037
-606,415	-70,467	-0,109	-0,030
-605,401	-200,000	0,024	-0,115
-604,386	-200,000	-0,049	-0,181
-603,371	800,000	0,024	0,073
-602,357	-120,173	-0,091	-0,011
-601,342	35,150	-0,077	0,048
-600,328	-200,000	-0,046	-0,150
-599,313	-64,029	-0,059	0,017
-598,298	-137,418	-0,068	0,005
-597,284	187,507	0,033	-0,036
-596,269	-200,000	0,030	0,110
-595,255	-200,000	-0,026	0,106
-594,240	800,000	-0,010	0,021
-593,225	800,000	-0,034	0,079
-592,211	-8,081	-0,116	-0,056
-591,196	-200,000	-0,004	-0,030
-590,182	-200,000	0,001	0,111
-589,167	800,000	0,037	0,096
-588,152	-200,000	-0,017	-0,107
-587,138	251,969	-0,032	-0,040
-586,123	352,241	-0,078	-0,111
-585,109	69,363	-0,066	-0,049
-584,094	-116,163	-0,075	-0,010
-583,079	-200,000	0,006	0,040
-582,065	111,016	0,045	0,039
-581,050	-75,031	-0,066	0,017
-580,036	106,942	0,087	-0,074
-579,021	-200,000	-0,026	-0,125
-578,006	-200,000	0,017	-0,131
-576,992	-200,000	-0,019	-0,102
-575,977	42,308	0,122	0,080
-574,963	-200,000	0,037	0,168
-573,948	800,000	0,024	0,070
-572,934	-119,638	0,027	-0,003
-571,919	-120,117	-0,074	-0,009
-570,904	232,736	-0,030	0,035
-569,890	-200,000	0,000	-0,030
-568,875	-200,000	-0,017	0,000
-567,861	87,879	-0,049	0,039
-566,846	-15,897	0,081	-0,037
-565,831	395,510	-0,040	-0,060
-564,817	800,000	-0,059	-0,135
-563,802	265,492	-0,021	0,026
-562,788	-26,332	-0,102	-0,043
-561,773	800,000	0,017	0,039
-560,758	-177,013	0,092	0,002
-559,744	-108,213	0,174	0,027
-558,729	-200,000	0,004	-0,084
-557,715	261,679	-0,028	-0,036
-556,700	-175,167	-0,089	0,002
-555,685	-200,000	-0,015	0,052
-554,671	168,417	-0,042	-0,043
-553,656	17,328	0,009	-0,005
-552,642	38,219	-0,027	0,017
-551,627	78,731	0,039	-0,030
-550,612	-160,385	0,037	0,001
-549,598	692,237	-0,111	-0,210
-548,583	2,313	-0,208	-0,108
-547,569	147,399	0,131	-0,127
-546,554	-161,074	-0,067	-0,002
-545,539	800,000	0,069	0,208
-544,525	74,489	-0,133	0,101
-543,510	353,749	-0,013	-0,019
-542,496	77,213	-0,090	-0,068
-541,481	532,196	0,057	0,098
-540,466	45,987	0,031	0,020
-539,452	-127,462	0,079	-0,008
-538,437	10,449	0,207	0,113
-537,423	-36,059	-0,071	0,027
-536,408	800,000	0,024	0,051
-535,393	-200,000	-0,005	0,127
-534,379	29,480	0,087	0,053
-533,364	664,739	-0,074	-0,138
-532,350	116,356	0,060	0,053
-531,335	143,032	-0,090	-0,086
-530,321	800,000	0,019	0,047
-529,306	157,301	-0,072	-0,072
-528,291	-200,000	0,017	-0,138
-527,277	800,000	-0,027	-0,061
-526,262	340,445	-0,040	0,056
-525,248	-35,351	-0,112	-0,043
-524,233	92,468	-0,009	-0,007
-523,218	72,945	0,027	0,020
-522,204	-200,000	-0,001	0,062
-521,189	800,000	0,031	-0,074
-520,175	-109,670	-0,127	-0,019
-519,160	-102,040	0,132	-0,023
-518,145	-5,808	0,066	0,032
-517,131	-176,547	0,020	0,000
-516,116	-50,676	-0,075	0,025
-515,102	163,138	-0,090	0,091
-514,087	603,106	-0,039	0,070
-513,072	494,277	-0,038	-0,063
-512,058	623,608	-0,031	-0,057
-511,043	800,000	0,009	0,025
-510,029	616,515	0,022	0,039
-509,014	38,299	0,025	-0,016
-507,999	800,000	0,038	0,098
-506,985	252,691	-0,099	-0,121
-505,970	37,868	0,018	-0,011
-504,956	800,000	-0,039	0,096
-503,941	-4,720	-0,109	0,054
-502,926	-200,000	-0,004	0,156
-501,912	-71,686	0,191	-0,051
-500,897	-47,475	-0,074	-0,026
-499,883	800,000	-0,027	-0,074
-498,868	28,811	0,111	0,068
-497,853	-200,000	-0,039	-0,165
-496,839	-143,220	0,028	0,002
-495,824	-42,093	0,031	-0,011
-494,810	10,976	0,128	-0,070
-493,795	192,009	0,037	-0,040
-492,781	800,000	0,008	-0,022
-491,766	69,271	-0,111	-0,082
-490,751	160,020	-0,090	-0,090
-489,737	-200,000	-0,001	0,009
-488,722	-5,198	0,141	0,069
-487,708	-200,000	0,012	0,125
-486,693	73,175	0,143	0,107
-485,678	257,751	0,079	0,097
-484,664	-39,707	0,022	0,008
-483,649	-142,270	-0,116	-0,008
-482,635	394,989	-0,009	0,013
-481,620	800,000	0,034	0,075
-480,605	-26,607	0,114	0,048
-479,591	353,946	0,027	0,038
-478,576	-200,000	0,016	-0,212
-477,562	87,929	-0,058	-0,046
-476,547	800,000	-0,039	0,089
-475,532	-12,207	0,112	-0,052
-474,518	13,208	-0,081	0,045
-473,503	-147,865	0,046	0,003
-472,489	41,110	-0,066	-0,043
-471,474	-157,546	0,140	-0,006
-470,459	-26,152	-0,088	-0,037
-469,445	410,002	0,051	-0,078
-468,430	347,564	0,032	0,046
-467,416	148,017	0,070	0,068
-466,401	514,628	0,102	0,171
-465,386	86,911	0,050	-0,039
-464,372	-20,197	-0,079	-0,035
-463,357	800,000	-0,064	-0,182
-462,343	100,572	-0,042	0,035
-461,328	-200,000	0,008	-0,077
-460,313	105,730	0,070	0,059
-459,299	800,000	-0,022	-0,060
-458,284	800,000	-0,043	-0,104
-457,270	249,839	0,014	0,017
-456,255	1,847	-0,110	0,057
-455,241	-44,579	-0,209	0,075
-454,226	207,301	-0,046	-0,051
-453,211	278,175	0,111	-0,142
-452,197	-101,476	0,115	-0,020
-451,182	175,147	-0,131	0,136
-450,168	800,000	0,046	0,105
-449,153	-200,000	0,012	-0,068
-448,138	45,163	0,045	0,030
-447,124	-198,802	-0,138	-0,001
-446,109	-51,911	0,109	-0,036
-445,095	800,000	0,051	0,124
-444,080	-36,986	-0,087	0,033
-443,065	-97,749	0,124	-0,023
-442,051	800,000	-0,021	-0,052
-441,036	-70,186	-0,110	-0,030
-440,022	137,577	-0,036	0,034
-439,007	262,008	0,081	0,101
-437,992	118,857	-0,090	-0,080
-436,978	298,664	0,029	0,039
-435,963	368,037	-0,013	0,019
-434,949	98,032	0,109	-0,090
-433,934	46,500	-0,093	0,061
-432,919	-200,000	-0,006	0,088
-431,905	234,490	0,039	0,046
-430,890	137,579	0,035	0,033
-429,876	-68,548	0,044	-0,012
-428,861	570,314	-0,048	-0,083
-427,846	307,181	-0,022	-0,030
-426,832	48,216	-0,071	-0,048
-425,817	-200,000	0,010	-0,051
-424,803	-90,433	0,100	-0,021
-423,788	-200,000	-0,011	0,152
-422,773	-42,529	0,160	0,058
-421,759	-200,000	-0,035	0,155
-420,744	101,104	0,024	0,020
-419,730	-39,130	-0,102	0,038
-418,715	-17,763	0,026	-0,012
-417,701	-116,339	-0,103	-0,013
-416,686	280,596	0,120	0,154
-415,671	-200,000	0,009	-0,051
-414,657	84,474	0,111	-0,087
-413,642	-44,139	-0,061	0,022
-412,628	-200,000	-0,020	-0,073
-411,613	226,073	0,048	0,056
-410,598	-200,000	-0,011	0,039
-409,584	-179,548	0,224	-0,003
-408,569	-44,012	0,051	0,018
-407,555	-88,038	0,137	-0,029
-406,540	800,000	0,042	0,086
-405,525	-200,000	-0,002	-0,087
-404,511	-200,000	-0,011	-0,097
-403,496	79,234	-0,056	0,043
-402,482	-200,000	0,005	-0,054
-401,467	800,000	0,030	0,084
-400,452	800,000	0,024	0,066
-399,438	49,861	0,075	-0,050
-398,423	-142,819	0,036	-0,002
-397,409	253,202	0,036	-0,044
-396,394	800,000	0,036	-0,096
-395,379	-200,000	0,176	-0,000
-394,365	-157,143	0,240	0,010
-393,350	-121,829	0,048	-0,006
-392,336	-200,000	0,006	0,048
-391,321	61,228	-0,058	-0,041
-390,306	-200,000	0,006	-0,077
-389,292	204,503	-0,069	-0,076
-388,277	463,699	-0,089	-0,143
-387,263	62,532	-0,078	-0,056
-386,248	-99,027	0,072	0,013
-385,233	354,232	0,059	0,084
-384,219	800,000	-0,025	-0,076
-383,204	-200,000	0,002	-0,123
-382,190	630,435	-0,072	-0,131
-381,175	103,733	-0,018	-0,015
-380,160	-200,000	0,009	0,065
-379,146	-200,000	0,028	-0,102
-378,131	-200,000	0,025	-0,141
-377,117	-200,000	-0,023	-0,103
-376,102	-22,070	-0,048	-0,021
-375,088	-145,808	-0,056	0,003
-374,073	70,740	-0,089	-0,066
-373,058	-101,207	0,110	-0,019
-372,044	245,451	0,060	0,072
-371,029	52,541	-0,128	-0,087
-370,015	282,845	-0,075	0,097
-369,000	800,000	0,018	-0,049
-367,985	165,874	-0,131	-0,132
-366,971	800,000	0,054	-0,146
-365,956	800,000	0,085	0,180
-364,942	336,245	-0,012	-0,017
-363,927	-200,000	0,004	0,067
-362,912	-200,000	-0,025	-0,127
-361,898	-200,000	0,011	-0,065
-360,883	-200,000	-0,008	-0,054
-359,869	-39,704	-0,087	-0,032
-358,854	-10,013	0,120	0,057
-357,839	75,167	0,108	0,081
-356,825	160,701	0,034	0,034
-355,810	-200,000	-0,030	0,170
-354,796	-11,656	0,055	0,026
-353,781	32,426	0,038	-0,024
-352,766	1,935	-0,099	-0,051
-351,752	67,790	0,178	0,129
-350,737	-200,000	0,014	0,176
-349,723	-119,579	-0,118	0,014
-348,708	145,562	0,103	-0,099
-347,693	371,463	-0,040	0,059
-346,679	120,434	-0,066	0,059
-345,664	572,048	-0,023	0,040
-344,650	-95,551	0,090	0,017
-343,635	-192,314	0,101	0,001
-342,620	800,000	0,046	-0,112
-341,606	-45,593	-0,050	-0,017
-340,591	800,000	0,065	0,149
-339,577	800,000	0,054	-0,108
-338,562	-200,000	0,018	-0,166
-337,548	22,131	-0,101	-0,059
-336,533	502,610	0,055	0,091
-335,518	-66,237	0,121	-0,034
-334,504	-21,632	-0,066	-0,028
-333,489	-104,791	-0,156	0,025
-332,475	-38,250	-0,052	0,020
-331,460	-86,118	-0,067	0,015
-330,445	-200,000	0,009	-0,039
-329,431	-25,879	0,050	0,021
-328,416	-200,000	-0,009	-0,059
-327,402	320,130	0,006	0,008
-326,387	-200,000	-0,003	-0,029
-325,372	271,009	0,044	-0,055
-324,358	-149,124	-0,177	0,010
-323,343	155,590	0,057	-0,056
-322,329	-200,000	-0,014	0,083
-321,314	800,000	0,081	0,196
-320,299	-200,000	0,023	0,076
-319,285	452,790	-0,043	-0,067
-318,270	-66,812	0,128	-0,036
-317,256	-200,000	0,006	-0,024
-316,241	-200,000	0,101	-0,000
-315,226	-200,000	0,015	0,144
-314,212	-200,000	0,015	-0,059
-313,197	800,000	-0,041	-0,119
-312,183	175,276	0,113	0,117
-311,168	-25,318	-0,047	-0,020
-310,153	-200,000	0,018	-0,112
-309,139	116,104	-0,047	-0,041
-308,124	185,364	-0,025	0,026
-307,110	210,317	-0,059	0,066
-306,095	96,534	0,019	0,015
-305,080	-18,237	-0,160	-0,071
-304,066	2,587	-0,013	-0,007
-303,051	727,720	-0,021	0,041
-302,037	-200,000	0,011	-0,036
-301,022	83,410	-0,028	-0,022
-300,008	333,818	-0,061	0,085
-298,993	70,246	0,179	0,131
-297,978	56,215	0,010	0,007
-296,964	37,917	0,044	-0,028
-295,949	-97,695	-0,105	-0,019
-294,935	555,557	0,034	0,058
-293,920	-200,000	-0,001	-0,066
-292,905	-200,000	-0,008	0,041
-291,891	-45,226	0,115	0,040
-290,876	-44,465	-0,030	-0,011
-289,862	24,971	-0,107	-0,063
-288,847	194,204	0,045	-0,049
-287,832	-64,614	-0,082	0,024
-286,818	271,572	0,044	-0,056
-285,803	-200,000	0,012	-0,072
-284,789	800,000	0,012	-0,036
-283,774	-200,000	-0,062	0,198
-282,759	-42,209	0,129	-0,047
-281,745	800,000	0,032	-0,067
-280,730	800,000	0,039	-0,091
-279,716	-200,000	0,010	-0,093
-278,701	430,387	0,028	-0,043
-277,686	469,541	0,045	0,072
-276,672	-200,000	0,009	0,071
-275,657	24,547	0,028	-0,016
-274,643	-200,000	0,019	0,078
-273,628	-89,864	0,125	-0,026
-272,613	448,089	-0,036	-0,056
-271,599	800,000	-0,018	0,044
-270,584	37,073	0,058	0,037
-269,570	754,020	-0,055	0,106
-268,555	160,057	-0,124	0,123
-267,540	-200,000	-0,015	-0,148
-266,526	136,984	-0,065	-0,060
-265,511	562,616	0,052	-0,090
-264,497	800,000	0,032	0,077
-263,482	800,000	0,029	0,075
-262,467	95,060	0,075	0,061
-261,453	9,042	-0,043	-0,023
-260,438	355,379	-0,031	-0,044
-259,424	456,405	-0,058	-0,092
-258,409	5,760	-0,144	-0,075
-257,395	71,820	-0,089	0,066
-256,380	272,372	0,021	0,026
-255,365	81,161	0,130	0,100
-254,351	-168,148	-0,224	0,006
-253,336	132,743	0,107	-0,098
-252,322	96,162	-0,074	-0,060
-251,307	-200,000	0,003	-0,081
-250,292	-126,889	0,038	0,004
-249,278	-120,117	0,152	0,018
-248,263	666,107	-0,073	-0,135
-247,249	642,686	-0,050	0,091
-246,234	36,408	-0,097	0,061
-245,219	-200,000	0,017	-0,072
-244,205	800,000	-0,031	-0,070
-243,190	31,939	-0,103	-0,063
-242,176	-200,000	-0,005	-0,070
-241,161	-200,000	0,010	-0,051
-240,146	67,943	0,143	0,104
-239,132	85,299	0,029	0,023
-238,117	51,554	-0,037	-0,025
-237,103	800,000	-0,066	0,164
-236,088	-200,000	-0,036	-0,154
-235,073	-200,000	0,030	0,108
-234,059	347,447	0,067	0,094
-233,044	-200,000	-0,003	0,110
-232,030	800,000	0,044	0,116
-231,015	355,700	0,088	0,124
-230,000	129,831	0,050	-0,045
-228,986	-200,000	-0,011	0,066
-227,971	28,909	0,117	0,071
-226,957	39,221	0,105	-0,067
-225,942	-164,403	-0,014	0,000
-224,927	116,684	-0,024	0,021
-223,913	-79,407	-0,146	0,035
-222,898	-53,537	0,091	0,029
-221,884	-200,000	-0,032	-0,101
-220,869	-47,679	0,081	-0,028
-219,855	520,774	-0,088	0,147
-218,840	3,642	-0,080	-0,041
-217,825	-33,369	-0,060	0,024
-216,811	-143,618	-0,127	0,008
-215,796	650,753	0,059	-0,107
-214,782	380,977	-0,070	-0,103
-213,767	-54,328	-0,010	0,003
-212,752	-200,000	0,057	0,237
-211,738	800,000	0,039	0,116
-210,723	715,248	0,087	0,165
-209,709	85,736	-0,033	-0,026
-208,694	-83,598	-0,110	0,025
-207,679	-200,000	0,020	-0,155
-206,665	800,000	0,014	0,035
-205,650	-200,000	-0,016	0,118
-204,636	800,000	-0,035	0,079
-203,621	-107,212	0,106	0,016
-202,606	187,622	0,029	-0,031
-201,592	-200,000	-0,001	-0,049
-200,577	-17,853	-0,130	-0,058
-199,563	520,072	0,025	-0,042
-198,548	116,470	-0,080	-0,070
-197,533	249,789	-0,040	0,049
-196,519	-200,000	0,016	0,065
-195,504	108,123	-0,048	-0,040
-194,490	355,865	0,065	-0,092
-193,475	310,879	0,084	0,113
-192,460	84,392	-0,064	-0,050
-191,446	-200,000	0,021	0,125
-190,431	800,000	0,040	0,122
-189,417	25,733	0,159	0,094
-188,402	-58,520	-0,067	0,020
-187,387	230,737	-0,090	0,105
-186,373	800,000	-0,041	0,103
-185,358	-77,338	0,074	0,018
-184,344	-44,552	0,076	-0,027
-183,329	-200,000	0,010	-0,055
-182,315	-118,278	0,187	0,023
-181,300	-200,000	-0,009	-0,102
-180,285	-117,004	-0,130	0,017
-179,271	350,093	0,007	0,010
-178,256	-94,937	-0,058	-0,011
-177,242	-120,445	0,046	0,006
-176,227	100,373	-0,064	0,052
-175,212	293,201	0,023	0,029
-174,198	-104,207	0,094	0,015
-173,183	-200,000	-0,004	-0,149
-172,169	273,560	0,109	0,137
-171,154	-75,571	-0,095	0,024
-170,139	-17,332	0,022	-0,010
-169,125	-20,437	0,036	-0,016
-168,110	268,447	-0,194	0,242
-167,096	82,797	-0,049	-0,038
-166,081	59,654	-0,109	-0,076
-165,066	-0,941	-0,099	-0,050
-164,052	800,000	-0,028	-0,071
-163,037	-148,471	0,091	-0,005
-162,023	82,623	0,037	0,028
-161,008	800,000	0,067	0,134
-159,993	-200,000	0,017	0,230
-158,979	-200,000	-0,021	0,082
-157,964	-200,000	0,005	0,039
-156,950	-157,676	0,086	0,004
-155,935	-62,199	0,125	-0,037
-154,920	66,063	-0,065	0,047
-153,906	235,912	0,071	-0,083
-152,891	-47,282	-0,076	0,026
-151,877	-26,397	0,091	0,038
-150,862	-200,000	-0,019	-0,087
-149,847	-200,000	-0,003	-0,013
-148,833	-27,525	-0,040	-0,016
-147,818	224,654	0,035	0,040
-146,804	192,416	0,100	0,107
-145,789	120,416	0,067	0,059
-144,775	-200,000	0,003	0,112
-143,760	800,000	-0,035	-0,074
-142,745	-134,261	-0,090	-0,008
-141,731	44,751	0,083	0,054
-140,716	290,196	0,041	0,053
-139,702	-86,827	0,178	0,038
-138,687	800,000	0,088	0,177
-137,672	-93,173	-0,125	0,024
-136,658	-200,000	0,010	-0,097
-135,643	-126,250	-0,052	0,005
-134,629	46,384	-0,057	-0,037
-133,614	41,138	0,085	0,054
-132,599	-200,000	-0,023	0,097
-131,585	-92,406	-0,046	-0,009
-130,570	-200,000	-0,005	0,125
-129,556	800,000	-0,045	-0,112
-128,541	800,000	-0,030	-0,063
-127,526	-7,673	0,132	0,063
-126,512	800,000	0,035	0,100
-125,497	800,000	-0,059	0,157
-124,483	-200,000	0,004	0,019
-123,468	-56,075	0,007	0,002
-122,453	124,387	-0,093	-0,083
-121,439	278,310	-0,045	-0,057
-120,424	-80,609	0,052	-0,012
-119,410	161,363	0,084	0,084
-118,395	-200,000	0,014	-0,093
-117,380	-200,000	0,139	0,000
-116,366	-200,000	-0,009	-0,078
-115,351	800,000	0,022	-0,047
-114,337	234,544	-0,040	-0,047
-113,322	800,000	-0,005	-0,012
-112,307	13,823	-0,075	-0,041
-111,293	22,652	0,081	0,047
-110,278	512,470	-0,070	0,116
-109,264	144,330	-0,041	-0,039
-108,249	-34,904	-0,090	-0,035
-107,234	69,112	0,055	-0,040
-106,220	800,000	-0,017	0,053
-105,205	-200,000	0,028	0,134
-104,191	145,160	0,149	0,141
-103,176	167,078	-0,088	0,089
-102,162	-41,693	0,123	-0,044
-101,147	-136,714	-0,049	-0,004
-100,132	625,940	-0,072	-0,129
-99,118	-200,000	0,012	0,086
-98,103	-131,335	-0,069	0,006
-97,089	130,439	0,106	0,096
-96,074	-200,000	0,007	0,050
-95,059	-200,000	0,013	-0,058
-94,045	-200,000	-0,025	0,085
-93,030	44,375	0,014	0,009
-92,016	217,886	-0,053	0,060
-91,001	29,338	0,035	0,021
-89,986	163,845	-0,069	-0,069
-88,972	-200,000	-0,022	0,113
-87,957	-195,965	-0,047	0,000
-86,943	-200,000	-0,010	-0,062
-85,928	-174,701	-0,149	0,003
-84,913	633,842	-0,026	-0,046
-83,899	-200,000	0,012	-0,048
-82,884	192,404	-0,056	-0,060
-81,870	45,422	0,081	0,053
-80,855	-200,000	0,031	-0,147
-79,840	800,000	-0,033	-0,093
-78,826	-200,000	-0,001	-0,072
-77,811	-58,420	-0,094	-0,029
-76,797	-27,913	0,108	-0,044
-75,782	-140,841	0,048	-0,003
-74,767	302,048	0,014	-0,019
-73,753	-26,039	-0,035	0,014
-72,738	-13,244	-0,044	-0,020
-71,724	25,671	-0,063	0,037
-70,709	-128,304	0,278	-0,028
-69,694	-32,947	-0,103	-0,040
-68,680	140,274	0,048	-0,045
-67,665	-73,697	0,102	0,026
-66,651	-200,000	0,013	0,118
-65,636	-200,000	-0,002	0,077
-64,622	-200,000	0,004	-0,062
-63,607	-90,118	-0,072	0,015
-62,592	293,043	-0,046	-0,059
-61,578	-190,299	-0,156	-0,001
-60,563	800,000	0,045	0,109
-59,549	32,714	-0,072	0,044
-58,534	37,704	-2,140	-1,338
-57,519	579,999	-1,141	-1,981
-56,505	-200,000	-0,349	-4,337
-55,490	789,769	0,881	1,716
-54,476	800,000	5,205	11,145
-53,461	-200,000	21,816	338,657
-52,446	800,000	759,307	2301,659
-51,432	534,681	1653,652	2776,557
-50,417	69,506	1651,262	1198,219
-49,403	16,706	1525,712	849,033
-48,388	10,846	1449,939	778,666
-47,373	19,087	1442,009	813,728
-46,359	14,279	1430,651	784,549
-45,344	9,182	1426,754	758,228
-44,330	9,105	1424,790	756,789
-43,315	9,090	1423,009	755,740
-42,300	9,069	1421,402	754,759
-41,286	9,119	1420,205	754,329
-40,271	9,084	1418,780	753,376
-39,257	9,036	1417,823	752,615
-38,242	9,140	1416,427	752,331
-37,227	9,076	1415,486	751,504
-36,213	9,086	1414,235	750,855
-35,198	9,123	1412,887	750,284
-34,184	9,115	1412,097	749,797
-33,169	9,050	1410,638	748,685
-32,154	9,087	1409,809	748,393
-31,140	9,044	1408,495	747,461
-30,125	9,124	1407,162	747,102
-29,111	9,105	1406,165	746,452
-28,096	9,111	1404,885	745,768
-27,082	9,022	1403,792	744,743
-26,067	9,017	1402,824	744,177
-25,052	9,055	1401,625	743,688
-24,038	9,068	1400,784	743,273
-23,023	9,057	1399,536	742,532
-22,009	8,978	1398,843	741,766
-20,994	9,029	1397,792	741,417
-19,979	9,001	1396,882	740,778
-18,965	8,985	1395,865	740,134
-17,950	8,948	1395,114	739,535
-16,936	8,976	1394,121	739,106
-15,921	8,928	1393,153	738,344
-14,906	8,943	1392,278	737,920
-13,892	8,970	1391,261	737,478
-12,877	8,978	1390,386	737,018
-11,863	8,968	1389,666	736,563
-10,848	8,856	1388,892	735,606
-9,833	8,907	1387,689	735,177
-8,819	8,843	1387,011	734,493
-7,804	8,835	1385,993	733,888
-6,790	8,844	1384,929	733,334
-5,775	8,840	1383,804	732,693
-4,760	8,838	1383,132	732,296
-3,746	8,867	1381,939	731,772
-2,731	8,897	1381,250	731,512
-1,717	8,872	1380,415	730,926
-0,702	8,820	1378,616	729,706
0,313	12,888	1290,385	701,481
1,327	28,880	682,771	407,066
2,342	44,517	117,591	76,043
3,356	-2,443	16,551	8,149
4,371	12,850	3,747	2,036
5,386	-12,952	1,274	0,582
6,400	368,693	0,323	0,462
7,415	97,494	-0,105	-0,085
8,429	138,620	-0,169	-0,156
9,444	305,817	-0,184	-0,241
10,459	800,000	-0,104	-0,247
11,473	-66,094	-0,333	-0,093
12,488	-144,381	-0,271	-0,017
13,502	-143,345	-0,335	-0,022
14,517	103,217	-0,260	-0,215
15,531	61,673	-0,313	-0,219
16,546	105,153	-0,391	-0,325
17,561	489,060	-0,246	-0,397
18,575	-1,215	-0,143	0,071
19,590	5,536	-0,194	-0,100
20,604	-60,407	-0,200	-0,059
21,619	-2,868	-0,585	-0,287
22,634	95,930	-0,438	-0,352
23,648	19,912	-0,456	-0,258
24,663	38,162	-0,484	-0,302
25,677	132,990	-0,292	-0,266
26,692	-95,973	-0,351	-0,065
27,707	-8,941	-0,346	-0,162
28,721	53,125	-0,368	-0,248
29,736	9,308	-0,387	-0,205
30,750	55,013	-0,410	-0,278
31,765	-6,142	-0,414	-0,198
32,780	9,259	-0,396	-0,210
33,794	90,586	-0,292	-0,230
34,809	102,627	-0,361	-0,297
35,823	229,232	-0,395	-0,454
36,838	113,540	-0,318	-0,271
37,853	72,901	-0,425	-0,312
38,867	-34,437	-0,414	-0,159
39,882	35,815	-0,476	-0,293
40,896	380,031	-0,236	-0,341
41,911	200,829	-0,281	-0,304
42,926	91,758	-0,448	-0,354
43,940	-26,420	-0,387	-0,159
44,955	51,618	-0,340	-0,227
45,969	-12,225	-0,325	-0,149
46,984	162,249	-0,308	-0,304
47,999	12,312	-0,325	-0,175
49,013	3,088	-0,289	-0,147
50,028	40,002	-0,300	-0,189
51,042	144,460	-0,297	-0,279
52,057	102,426	-0,360	-0,295
53,071	60,097	-0,367	-0,254
54,086	0,663	-0,331	-0,166
55,101	62,888	-0,313	-0,219
56,115	-0,381	-0,310	-0,154
57,130	7,882	-0,458	-0,240
58,144	11,275	-0,445	-0,238
59,159	-42,365	-0,538	-0,192
60,174	146,266	-0,219	-0,206
61,188	284,065	-0,239	-0,302
62,203	114,525	-0,261	-0,223
63,217	-103,837	-0,298	-0,048
64,232	-1,959	-0,428	-0,210
65,247	192,363	-0,237	-0,251
66,261	156,890	-0,284	-0,275
67,276	12,038	-0,397	-0,213
68,290	58,702	-0,228	-0,157
69,305	180,304	-0,159	-0,163
70,320	79,741	-0,343	-0,258
71,334	54,232	-0,269	-0,181
72,349	-66,729	-0,272	-0,075
73,363	290,128	-0,225	-0,287
74,378	30,257	-0,287	-0,171
75,393	165,258	-0,243	-0,240
76,407	-83,509	-0,265	-0,059
77,422	-29,333	-0,333	-0,133
78,436	247,629	-0,176	-0,209
79,451	115,613	-0,308	-0,264
80,466	4,575	-0,354	-0,182
81,480	-0,678	-0,284	-0,141
82,495	115,412	-0,213	-0,182
83,509	31,991	-0,231	-0,139
84,524	67,686	-0,255	-0,182
85,539	69,547	-0,271	-0,195
86,553	-8,236	-0,361	-0,169
87,568	-43,517	-0,394	-0,139
88,582	52,160	-0,367	-0,245
89,597	105,697	-0,360	-0,298
90,611	62,457	-0,328	-0,229
91,626	-34,175	-0,232	-0,089
92,641	39,729	-0,199	-0,125
93,655	78,407	-0,225	-0,168
94,670	192,478	-0,213	-0,225
95,684	279,340	-0,222	-0,278
96,699	41,279	-0,297	-0,187
97,714	-2,375	-0,308	-0,150
98,728	-141,746	-0,297	-0,021
99,743	73,477	-0,174	-0,127
100,757	-81,106	-0,272	0,062
101,772	119,575	-0,242	-0,210
102,787	-37,132	-0,269	-0,100
103,801	142,923	-0,220	-0,204
104,816	98,835	-0,265	-0,213
105,830	91,036	-0,208	-0,163
106,845	8,301	-0,281	-0,147
107,860	72,808	-0,325	-0,237
108,874	-77,625	-0,334	-0,080
109,889	69,891	-0,318	-0,229
110,903	-24,832	-0,224	-0,093
111,918	37,318	-0,149	-0,092
112,933	114,797	-0,238	-0,203
113,947	150,500	-0,132	-0,125
114,962	-74,166	-0,308	-0,077
115,976	-62,230	-0,389	-0,112
116,991	68,034	-0,230	-0,164
118,006	-146,321	-0,105	0,006
119,020	129,976	-0,144	-0,129
120,035	250,500	-0,172	-0,205
121,049	66,834	-0,295	-0,209
122,064	-13,596	-0,242	-0,109
123,079	-66,321	-0,251	-0,069
124,093	-14,512	-0,310	-0,139
125,108	-6,751	-0,144	-0,068
126,122	-50,566	-0,279	-0,091
127,137	683,577	-0,102	-0,186
128,151	6,322	-0,305	-0,157
129,166	-112,124	-0,146	0,020
130,181	162,842	-0,222	-0,218
131,195	35,616	-0,211	-0,129
132,210	181,602	-0,210	-0,216
133,224	49,108	-0,232	-0,152
134,239	77,759	-0,105	-0,078
135,254	800,000	-0,099	-0,233
136,268	98,444	-0,180	-0,144
137,283	62,734	-0,261	-0,182
138,297	114,560	-0,257	-0,218
139,312	40,678	-0,220	-0,138
140,327	277,472	-0,201	-0,250
141,341	-57,231	-0,125	-0,038
142,356	81,824	-0,210	-0,158
143,370	96,458	-0,172	-0,137
144,385	-136,747	-0,341	-0,027
145,400	8,923	-0,271	-0,142
146,414	459,124	-0,165	-0,257
147,429	9,018	-0,233	-0,122
148,443	-31,209	-0,273	-0,107
149,458	28,639	-0,184	-0,108
150,473	-2,733	-0,105	-0,051
151,487	105,272	-0,278	-0,228
152,502	74,724	-0,218	-0,159
153,516	252,394	-0,183	-0,217
154,531	38,427	-0,307	-0,190
155,546	-138,740	-0,280	-0,021
156,560	-107,313	-0,254	-0,038
157,575	325,491	-0,135	-0,180
158,589	-16,164	-0,289	-0,127
159,604	131,506	-0,255	-0,228
160,619	22,486	-0,343	-0,194
161,633	66,776	-0,344	-0,243
162,648	-79,321	-0,288	-0,067
163,662	-130,130	-0,215	-0,020
164,677	-131,057	-0,316	-0,029
165,692	85,450	-0,188	-0,144
166,706	178,419	-0,167	-0,170
167,721	66,078	-0,217	-0,153
168,735	292,916	-0,220	-0,280
169,750	-66,198	-0,372	-0,102
170,764	300,335	-0,200	-0,257
171,779	-46,409	-0,137	-0,046
172,794	-52,368	-0,264	-0,085
173,808	-18,967	-0,149	-0,064
174,823	147,317	-0,165	-0,154
175,837	123,715	-0,200	-0,175
176,852	-0,268	-0,256	-0,126
177,867	67,876	-0,248	-0,176
178,881	1,184	-0,270	-0,134
179,896	44,874	-0,241	-0,154
180,910	47,076	-0,321	-0,207
181,925	5,381	-0,209	-0,107
182,940	-61,556	-0,227	-0,066
183,954	39,371	-0,292	-0,181
184,969	64,314	-0,170	-0,118
185,983	-1,533	-0,200	-0,098
186,998	-27,621	-0,244	-0,098
188,013	-109,467	-0,135	-0,020
189,027	-149,281	-0,251	-0,014
190,042	-81,897	-0,312	-0,070
191,056	83,503	-0,261	-0,197
192,071	-141,092	-0,159	0,011
193,086	-115,468	-0,164	-0,021
194,100	-111,952	-0,272	0,038
195,115	496,919	-0,125	-0,200
196,129	185,938	-0,175	-0,181
197,144	71,543	-0,314	-0,226
198,159	71,119	-0,180	-0,129
199,173	140,989	-0,148	-0,136
200,188	237,395	-0,103	-0,119
201,202	800,000	-0,061	-0,136
202,217	-103,513	-0,243	0,039
203,232	-116,855	-0,278	-0,035
204,246	146,166	-0,127	-0,118
205,261	113,012	-0,275	-0,231
206,275	183,462	-0,129	-0,132
207,290	431,162	-0,110	-0,165
208,304	-160,135	-0,106	0,004
209,319	-89,964	-0,234	-0,047
210,334	420,217	-0,152	-0,226
211,348	18,938	-0,167	-0,093
212,363	-37,436	-0,257	-0,094
213,377	423,349	-0,114	-0,170
214,392	525,506	-0,179	-0,293
215,407	-67,360	-0,109	0,029
216,421	13,817	-0,116	-0,062
217,436	313,535	-0,111	-0,145
218,450	24,643	-0,200	-0,114
219,465	32,680	-0,260	-0,155
220,480	-135,530	-0,180	0,015
221,494	15,778	-0,140	-0,076
222,509	-200,000	0,000	-0,084
223,523	12,520	-0,255	-0,136
224,538	800,000	-0,069	-0,142
225,553	-110,483	-0,297	-0,042
226,567	254,859	-0,218	-0,258
227,582	-129,604	-0,323	-0,030
228,596	170,608	-0,189	-0,187
229,611	61,434	-0,168	-0,115
230,626	-59,587	-0,182	0,054
231,640	-172,308	-0,208	-0,004
232,655	-185,440	-0,146	-0,002
233,669	151,080	-0,192	-0,180
234,684	82,504	-0,257	-0,193
235,699	63,106	-0,171	-0,118
236,713	612,250	-0,092	-0,160
237,728	153,673	-0,140	-0,133
238,742	169,759	-0,190	-0,188
239,757	42,601	-0,248	-0,156
240,772	-19,512	-0,186	-0,079
241,786	108,231	-0,185	-0,152
242,801	188,845	-0,122	-0,126
243,815	173,174	-0,142	-0,142
244,830	578,292	-0,059	-0,101
245,844	259,080	-0,184	-0,220
246,859	-23,373	-0,197	-0,081
247,874	205,844	-0,228	-0,245
248,888	38,669	-0,135	-0,083
249,903	-93,663	-0,289	-0,054
250,917	-23,684	-0,154	-0,063
251,932	-76,539	-0,241	-0,058
252,947	28,431	-0,255	-0,148
253,961	21,351	-0,284	-0,159
254,976	-57,299	-0,203	-0,061
255,990	-34,923	-0,221	-0,083
257,005	57,791	-0,172	-0,116
258,020	800,000	-0,037	0,107
259,034	-139,263	-0,315	0,023
260,049	-151,437	-0,244	-0,012
261,063	800,000	-0,103	-0,231
262,078	800,000	-0,121	-0,241
263,093	104,724	-0,169	-0,137
264,107	-49,944	-0,168	-0,055
265,122	102,368	-0,108	-0,087
266,136	-15,846	-0,146	-0,064
267,151	-200,000	-0,006	-0,025
268,166	-73,120	-0,231	-0,058
269,180	220,086	-0,160	-0,177
270,195	-138,882	-0,176	-0,013
271,209	15,613	-0,089	-0,048
272,224	688,581	-0,145	-0,263
273,239	-27,984	-0,099	-0,039
274,253	-83,274	-0,088	0,019
275,268	-68,220	-0,271	-0,072
276,282	-111,891	-0,246	-0,034
277,297	-59,983	-0,180	-0,052
278,312	-55,091	-0,235	-0,072
279,326	-111,055	-0,068	-0,009
280,341	197,989	-0,093	-0,098
281,355	-181,035	-0,258	0,003
282,370	-118,226	-0,133	-0,016
283,384	800,000	-0,035	-0,103
284,399	800,000	-0,080	-0,156
285,414	-45,217	-0,258	-0,088
286,428	22,018	-0,083	-0,047
287,443	385,139	-0,090	-0,128
288,457	-72,503	-0,270	-0,068
289,472	298,104	-0,112	-0,142
290,487	-13,402	-0,183	-0,081
291,501	28,660	-0,290	-0,169
292,516	113,880	-0,231	-0,193
293,530	-104,225	-0,133	0,021
294,545	97,406	-0,150	-0,118
295,560	627,821	-0,124	-0,216
296,574	31,166	-0,079	-0,046
297,589	184,737	-0,190	-0,193
298,603	259,677	-0,106	-0,126
299,618	-35,066	-0,155	-0,058
300,633	-7,915	-0,192	-0,089
301,647	-11,381	-0,150	-0,068
302,662	117,555	-0,071	0,060
303,676	-41,530	-0,175	-0,061
304,691	-44,359	-0,197	-0,067
305,706	-106,471	-0,264	-0,040
306,720	-142,933	-0,205	-0,013
307,735	-200,000	-0,034	-0,157
308,749	732,168	-0,068	-0,126
309,764	-200,000	-0,010	-0,039
310,779	-84,938	-0,085	-0,018
311,793	-68,538	-0,177	-0,047
312,808	-32,373	-0,092	0,035
313,822	-200,000	-0,011	0,000
314,837	129,984	-0,172	-0,151
315,852	92,903	-0,225	-0,174
316,866	-139,076	-0,156	-0,011
317,881	-114,156	-0,046	-0,006
318,895	-14,594	-0,236	-0,104
319,910	129,501	-0,202	-0,177
320,925	661,559	-0,075	-0,133
321,939	229,522	-0,117	-0,131
322,954	-200,000	-0,033	-0,104
323,968	-65,752	-0,013	0,004
324,983	331,698	-0,052	-0,069
325,997	214,685	-0,087	-0,094
327,012	800,000	-0,074	-0,181
328,027	193,079	-0,198	-0,205
329,041	-30,117	-0,154	-0,060
330,056	-200,000	-0,035	-0,107
331,070	-57,944	0,073	0,022
332,085	-200,000	-0,019	-0,215
333,100	356,486	-0,139	-0,190
334,114	-29,254	-0,311	-0,121
335,129	7,239	-0,225	-0,115
336,143	42,319	-0,037	-0,023
337,158	163,843	-0,111	-0,107
338,173	281,457	-0,062	-0,076
339,187	182,114	-0,123	-0,124
340,202	72,769	-0,207	-0,148
341,216	-113,115	-0,122	-0,016
342,231	215,479	-0,143	-0,155
343,246	-200,000	-0,013	-0,202
344,260	590,032	-0,041	-0,069
345,275	-200,000	-0,004	-0,091
346,289	126,954	-0,145	-0,125
347,304	-200,000	0,002	-0,046
348,319	99,848	-0,107	-0,085
349,333	279,461	-0,137	-0,167
350,348	-50,286	-0,216	-0,070
351,362	-103,784	-0,062	0,010
352,377	583,830	-0,021	-0,036
353,392	-26,467	-0,192	-0,077
354,406	-43,818	-0,128	-0,044
355,421	207,470	1305,425	1394,233
356,435	159,605	1464,982	1394,716
