DTS Sentinel unit serial number:	SN410029Multiplexer serial number:	ORYXHardware model number:	OX2-SRSoftware version number:	ORYX F/W v4,00 Oryx Data Collector v3.7.2.0data status	okinstallation	B3 Nyhavnadifferential loss correction	single-endedforward channel	channel 1reverse channel	N/Adate	2023/12/04time	19:37:30forward acquisition time	300,00reverse acquisition time	0,00gamma	499,1914k internal	0,3200k external	0,3200temperature offset calibration	1,0000default loss term (dB/km)	0,3820temperature slope calibration	1,0000multiplexer offset coefficient	1,0000multiplexer slope coefficient	1,0000fibre end	0,00T internal ref (°C)	14,60T ext. ref 1 (°C)	-0,68T ext. ref 2 (°C)	-0,70length (m)	temperature (°C)	Stokes	anti-Stokes-744,400	1,383	-0,237	-0,124
-743,385	-200,000	0,017	0,418
-742,371	741,750	-0,127	-0,250
-741,356	800,000	0,132	0,349
-740,342	16,155	-0,283	-0,162
-739,327	-200,000	-0,006	0,272
-738,312	800,000	-0,094	-0,270
-737,298	-200,000	-0,070	0,337
-736,283	800,000	-0,124	-0,289
-735,269	739,040	0,137	0,268
-734,254	217,975	-0,243	-0,282
-733,239	135,450	-0,227	0,215
-732,225	295,257	-0,152	-0,202
-731,210	247,202	0,048	0,059
-730,196	81,657	0,033	-0,026
-729,181	10,033	-0,132	-0,073
-728,167	-113,143	-0,151	-0,021
-727,152	103,111	-0,173	0,147
-726,137	178,754	-0,019	0,020
-725,123	-200,000	-0,041	0,155
-724,108	32,483	-0,077	0,048
-723,094	196,090	-0,148	-0,164
-722,079	24,679	-0,120	-0,072
-721,064	800,000	-0,056	0,117
-720,050	12,131	0,061	-0,034
-719,035	-200,000	0,024	-0,096
-718,021	-158,954	-0,083	0,003
-717,006	119,854	-0,163	-0,147
-715,991	286,336	-0,120	-0,157
-714,977	446,379	-0,102	-0,163
-713,962	47,466	-0,079	-0,054
-712,948	-164,573	-0,202	-0,007
-711,933	-131,752	0,117	0,011
-710,918	306,118	0,036	-0,049
-709,904	800,000	-0,032	-0,102
-708,889	178,138	-0,035	0,037
-707,875	-57,792	-0,139	0,044
-706,860	-185,125	-0,084	0,001
-705,845	125,515	-0,036	0,033
-704,831	55,243	-0,087	-0,061
-703,816	-200,000	-0,000	-0,095
-702,802	-123,250	-0,159	0,018
-701,787	75,321	-0,071	-0,054
-700,772	266,247	0,071	-0,090
-699,758	-200,000	0,000	0,015
-698,743	-200,000	0,025	0,123
-697,729	71,652	0,112	0,084
-696,714	56,649	0,071	0,050
-695,699	800,000	0,022	-0,048
-694,685	24,154	-0,018	0,011
-693,670	5,142	-0,079	-0,042
-692,656	-84,571	-0,077	-0,017
-691,641	800,000	0,058	-0,133
-690,627	233,396	0,078	0,094
-689,612	-1,048	0,053	0,027
-688,597	-43,270	0,148	-0,054
-687,583	-200,000	-0,021	-0,076
-686,568	-200,000	-0,156	0,000
-685,554	152,882	-0,014	0,014
-684,539	-118,907	-0,081	-0,010
-683,524	-36,201	0,170	-0,066
-682,510	79,791	-0,025	0,019
-681,495	-155,228	0,082	0,004
-680,481	800,000	-0,047	-0,134
-679,466	-122,354	-0,033	0,004
-678,451	85,778	0,044	-0,035
-677,437	-72,898	0,130	-0,034
-676,422	-27,790	-0,084	-0,035
-675,408	-91,073	0,040	-0,008
-674,393	-200,000	-0,011	-0,081
-673,378	176,585	-0,087	0,092
-672,364	-200,000	-0,005	-0,053
-671,349	-200,000	-0,021	0,129
-670,335	-200,000	-0,022	-0,088
-669,320	-0,019	-0,081	0,041
-668,305	222,684	-0,086	0,101
-667,291	66,732	0,086	0,063
-666,276	-10,811	-0,076	0,036
-665,262	141,067	-0,053	0,051
-664,247	28,921	0,025	0,015
-663,232	16,459	0,062	-0,035
-662,218	48,810	0,027	0,018
-661,203	-64,833	-0,107	0,031
-660,189	-92,526	-0,081	0,016
-659,174	-8,230	0,152	-0,074
-658,159	-106,692	-0,166	0,026
-657,145	-200,000	-0,004	-0,032
-656,130	10,639	0,063	0,035
-655,116	643,336	-0,087	0,161
-654,101	361,300	0,046	0,067
-653,086	120,050	0,030	0,027
-652,072	-57,621	-0,054	-0,017
-651,057	-200,000	0,021	-0,181
-650,043	26,488	-0,093	-0,056
-649,028	-17,280	0,049	-0,022
-648,014	683,736	0,084	0,160
-646,999	-200,000	0,085	0,000
-645,984	800,000	-0,034	0,075
-644,970	617,427	-0,047	0,085
-643,955	800,000	0,015	0,042
-642,941	-61,584	-0,062	0,019
-641,926	-200,000	-0,001	-0,015
-640,911	-41,057	0,127	-0,047
-639,897	765,712	-0,045	0,090
-638,882	562,975	-0,038	-0,066
-637,868	800,000	-0,012	-0,032
-636,853	66,536	-0,139	-0,102
-635,838	160,449	0,032	0,032
-634,824	-200,000	0,030	-0,161
-633,809	-200,000	0,032	0,139
-632,795	315,858	0,049	0,067
-631,780	26,375	0,041	-0,025
-630,765	417,255	0,058	0,091
-629,751	98,187	0,100	-0,084
-628,736	478,479	0,024	-0,039
-627,722	-72,603	0,124	0,033
-626,707	12,093	0,190	-0,106
-625,692	207,540	0,020	0,023
-624,678	-200,000	0,002	-0,111
-623,663	399,900	0,063	-0,096
-622,649	63,257	-0,032	-0,023
-621,634	-168,734	-0,090	-0,002
-620,619	-131,571	-0,082	-0,008
-619,605	-200,000	-0,001	-0,007
-618,590	228,841	-0,076	0,090
-617,576	336,748	0,018	-0,025
-616,561	800,000	0,055	-0,145
-615,546	-200,000	-0,009	-0,073
-614,532	800,000	-0,065	0,147
-613,517	800,000	0,047	-0,104
-612,503	104,068	0,090	0,077
-611,488	-200,000	-0,008	0,033
-610,474	471,745	-0,063	-0,102
-609,459	-16,225	0,125	0,057
-608,444	130,733	-0,078	0,073
-607,430	49,532	0,044	0,030
-606,415	111,302	0,034	-0,029
-605,401	-15,179	0,051	-0,023
-604,386	-200,000	0,002	0,060
-603,371	351,377	0,037	-0,053
-602,357	600,485	-0,071	0,128
-601,342	607,145	-0,007	-0,013
-600,328	-13,801	-0,085	0,040
-599,313	468,880	-0,044	0,072
-598,298	-200,000	0,022	0,135
-597,284	-200,000	-0,011	0,154
-596,269	-21,888	-0,051	0,022
-595,255	44,928	0,049	0,033
-594,240	-109,584	-0,157	-0,024
-593,225	-112,890	-0,091	-0,013
-592,211	176,553	-0,045	-0,047
-591,196	210,027	-0,016	0,018
-590,182	800,000	0,014	0,032
-589,167	17,340	-0,063	0,036
-588,152	82,238	0,044	-0,034
-587,138	49,413	-0,095	0,065
-586,123	800,000	0,027	-0,059
-585,109	781,547	0,064	-0,128
-584,094	-200,000	-0,035	-0,126
-583,079	-200,000	0,005	-0,040
-582,065	68,042	-0,086	-0,064
-581,050	190,235	0,056	0,061
-580,036	83,421	-0,043	-0,034
-579,021	220,286	-0,086	-0,100
-578,006	-200,000	0,008	-0,148
-576,992	753,881	-0,061	-0,120
-575,977	-200,000	0,007	-0,051
-574,963	-200,000	0,040	0,155
-573,948	-200,000	0,027	0,109
-572,934	-21,628	-0,059	0,026
-571,919	800,000	-0,057	-0,119
-570,904	622,845	-0,069	-0,126
-569,890	-200,000	-0,010	-0,067
-568,875	309,649	-0,122	-0,166
-567,861	-200,000	-0,014	-0,093
-566,846	800,000	-0,046	0,103
-565,831	-200,000	-0,001	-0,009
-564,817	-200,000	-0,021	0,097
-563,802	84,102	-0,043	-0,034
-562,788	800,000	-0,018	-0,052
-561,773	67,167	0,083	-0,061
-560,758	-200,000	0,016	0,078
-559,744	800,000	-0,077	0,179
-558,729	800,000	-0,009	0,024
-557,715	800,000	-0,061	-0,134
-556,700	-30,111	-0,187	-0,076
-555,685	-200,000	0,010	-0,147
-554,671	-200,000	0,003	0,136
-553,656	800,000	-0,040	0,096
-552,642	-25,027	0,086	-0,037
-551,627	-194,229	0,242	-0,001
-550,612	122,966	-0,103	-0,093
-549,598	418,597	0,065	0,101
-548,583	60,722	-0,082	-0,059
-547,569	26,579	-0,068	0,041
-546,554	800,000	0,031	-0,089
-545,539	-200,000	-0,005	0,038
-544,525	295,446	0,055	-0,073
-543,510	-100,049	-0,155	0,028
-542,496	184,605	0,057	-0,061
-541,481	-200,000	-0,003	-0,126
-540,466	-20,114	-0,129	0,057
-539,452	-66,492	0,208	0,059
-538,437	558,095	-0,041	0,071
-537,423	129,437	-0,025	0,023
-536,408	104,130	0,083	0,070
-535,393	-66,208	-0,061	-0,017
-534,379	88,976	-0,040	-0,032
-533,364	-113,874	0,090	-0,013
-532,350	-140,249	-0,034	-0,003
-531,335	-200,000	-0,023	0,148
-530,321	682,399	0,010	0,018
-529,306	800,000	-0,039	-0,122
-528,291	140,560	0,103	-0,098
-527,277	707,651	-0,037	0,070
-526,262	298,466	0,031	0,041
-525,248	4,842	0,035	-0,019
-524,233	92,376	0,070	0,057
-523,218	-80,628	-0,044	0,010
-522,204	274,031	0,032	0,041
-521,189	-43,293	-0,082	-0,030
-520,175	56,107	-0,093	0,065
-519,160	251,776	-0,078	-0,096
-518,145	283,657	0,036	-0,047
-517,131	676,136	0,026	-0,050
-516,116	-118,538	0,066	0,008
-515,102	-122,692	-0,102	-0,012
-514,087	-151,513	0,052	-0,003
-513,072	129,353	0,113	-0,104
-512,058	-200,000	-0,001	0,033
-511,043	148,902	-0,022	0,021
-510,029	-200,000	-0,022	-0,078
-509,014	-200,000	0,009	0,119
-507,999	185,325	0,102	0,109
-506,985	-161,908	-0,123	-0,004
-505,970	-96,857	-0,168	-0,032
-504,956	468,452	0,051	0,083
-503,941	800,000	-0,032	0,071
-502,926	800,000	0,033	-0,067
-501,912	409,616	0,064	0,099
-500,897	-159,871	0,055	-0,002
-499,883	57,422	-0,121	-0,085
-498,868	800,000	0,035	-0,073
-497,853	421,658	0,039	-0,060
-496,839	691,641	-0,056	-0,105
-495,824	15,288	0,161	-0,091
-494,810	-200,000	-0,012	-0,095
-493,795	-72,965	-0,119	-0,031
-492,781	-200,000	0,002	0,217
-491,766	75,291	0,093	-0,071
-490,751	-37,856	-0,030	-0,012
-489,737	-7,495	0,129	-0,063
-488,722	35,342	-0,112	-0,071
-487,708	178,727	0,079	-0,084
-486,693	36,368	-0,071	-0,045
-485,678	800,000	-0,062	-0,133
-484,664	800,000	0,020	-0,044
-483,649	-33,681	-0,097	0,038
-482,635	-48,163	0,153	-0,053
-481,620	800,000	0,062	-0,180
-480,605	83,953	-0,049	-0,039
-479,591	265,622	-0,024	-0,030
-478,576	406,961	-0,046	0,070
-477,562	17,064	-0,075	-0,043
-476,547	-45,828	-0,070	-0,025
-475,532	-44,208	-0,155	0,056
-474,518	-71,207	-0,022	-0,006
-473,503	47,803	-0,056	-0,038
-472,489	-53,410	0,117	0,038
-471,474	-200,000	0,000	0,087
-470,459	-200,000	-0,043	0,140
-469,445	-0,342	0,053	-0,027
-468,430	-36,482	-0,047	0,018
-467,416	800,000	0,021	0,060
-466,401	-200,000	0,012	0,119
-465,386	-7,184	0,106	0,052
-464,372	-200,000	-0,002	0,054
-463,357	330,173	0,020	0,028
-462,343	-22,175	-0,063	0,028
-461,328	-200,000	-0,008	-0,114
-460,313	390,160	0,095	0,142
-459,299	31,458	0,100	0,062
-458,284	-29,406	0,077	0,031
-457,270	-200,000	0,029	0,121
-456,255	702,930	-0,060	-0,115
-455,241	45,141	-0,044	0,029
-454,226	-158,545	0,050	-0,002
-453,211	-200,000	0,014	0,045
-452,197	98,500	0,078	-0,064
-451,182	-61,111	0,169	0,051
-450,168	-23,510	-0,048	0,021
-449,153	217,675	0,019	-0,022
-448,138	-200,000	0,030	-0,188
-447,124	26,679	-0,074	0,044
-446,109	226,153	0,035	-0,041
-445,095	-200,000	0,027	0,107
-444,080	800,000	0,015	-0,044
-443,065	80,126	0,010	-0,008
-442,051	-1,464	-0,082	0,042
-441,036	800,000	0,011	-0,027
-440,022	800,000	0,014	-0,033
-439,007	800,000	0,022	0,051
-437,992	-200,000	-0,021	0,115
-436,978	-200,000	0,018	0,068
-435,963	69,201	0,036	0,027
-434,949	-1,123	0,050	0,025
-433,934	800,000	0,040	-0,105
-432,919	-12,422	0,050	0,023
-431,905	210,819	-0,091	0,103
-430,890	21,728	-0,085	0,049
-429,876	6,031	0,130	-0,069
-428,861	800,000	-0,028	-0,080
-427,846	-104,312	0,141	0,023
-426,832	-22,505	0,101	0,044
-425,817	-200,000	0,003	-0,097
-424,803	756,938	0,048	0,095
-423,788	-99,682	0,044	-0,008
-422,773	800,000	0,047	0,123
-421,759	348,728	-0,040	-0,057
-420,744	800,000	-0,034	-0,068
-419,730	36,746	0,064	0,040
-418,715	422,917	-0,061	-0,095
-417,701	-11,629	0,147	-0,069
-416,686	-108,885	-0,043	0,007
-415,671	800,000	0,027	0,055
-414,657	66,252	0,116	0,084
-413,642	-200,000	0,012	-0,049
-412,628	33,023	0,091	-0,056
-411,613	382,586	-0,113	0,167
-410,598	-74,137	-0,063	-0,016
-409,584	-179,837	0,041	-0,001
-408,569	45,179	-0,066	0,044
-407,555	-133,891	0,067	-0,006
-406,540	-167,225	0,105	0,003
-405,525	-125,880	-0,035	0,004
-404,511	697,571	0,006	0,011
-403,496	-200,000	0,016	0,210
-402,482	-97,673	-0,098	0,018
-401,467	-25,565	0,164	0,069
-400,452	-200,000	-0,016	0,052
-399,438	-144,964	-0,115	-0,007
-398,423	-200,000	0,006	-0,061
-397,409	-31,322	0,106	0,042
-396,394	800,000	-0,033	-0,084
-395,379	55,601	0,084	0,058
-394,365	-112,667	0,143	-0,020
-393,350	465,935	0,062	0,100
-392,336	800,000	-0,030	0,078
-391,321	-200,000	-0,003	0,095
-390,306	-47,621	-0,107	-0,037
-389,292	82,564	-0,097	-0,076
-388,277	163,921	-0,097	0,098
-387,263	281,987	-0,061	0,079
-386,248	-200,000	0,001	0,011
-385,233	274,783	0,076	0,096
-384,219	485,432	-0,019	-0,031
-383,204	514,516	-0,020	-0,033
-382,190	-113,868	-0,130	-0,018
-381,175	-52,049	0,092	-0,030
-380,160	-156,694	-0,071	0,003
-379,146	-200,000	0,005	-0,040
-378,131	632,087	-0,079	-0,144
-377,117	-200,000	0,001	-0,008
-376,102	-200,000	-0,012	-0,087
-375,088	312,877	0,035	-0,048
-374,073	-200,000	-0,029	0,111
-373,058	800,000	0,027	0,076
-372,044	-11,613	0,102	0,048
-371,029	-72,311	0,046	-0,012
-370,015	-12,137	0,172	-0,080
-369,000	-189,497	-0,110	0,001
-367,985	-95,521	-0,232	0,044
-366,971	470,762	0,023	-0,038
-365,956	-200,000	-0,023	-0,103
-364,942	-23,726	0,140	-0,060
-363,927	62,175	-0,020	0,015
-362,912	-191,502	0,089	-0,001
-361,898	-79,328	0,072	-0,017
-360,883	-119,338	-0,084	-0,010
-359,869	207,559	0,022	0,025
-358,854	-200,000	0,005	-0,130
-357,839	-200,000	-0,001	0,055
-356,825	231,765	-0,078	0,092
-355,810	170,884	0,071	0,073
-354,796	-23,204	-0,043	0,018
-353,781	-200,000	-0,006	-0,095
-352,766	191,744	-0,145	-0,157
-351,752	800,000	0,067	-0,189
-350,737	-68,228	0,085	0,023
-349,723	800,000	0,067	0,158
-348,708	-63,076	-0,021	0,006
-347,693	-135,190	0,085	-0,007
-346,679	-200,000	0,010	-0,088
-345,664	324,722	0,066	-0,090
-344,650	800,000	0,015	-0,041
-343,635	-89,709	0,050	0,010
-342,620	191,467	0,113	0,122
-341,606	800,000	-0,068	0,166
-340,591	-200,000	-0,012	0,044
-339,577	69,450	0,023	-0,017
-338,562	-200,000	-0,016	-0,119
-337,548	-124,940	-0,157	0,017
-336,533	-54,276	0,170	-0,055
-335,518	142,396	0,024	-0,022
-334,504	800,000	-0,005	0,012
-333,489	-200,000	0,007	-0,112
-332,475	-37,018	-0,206	0,079
-331,460	237,766	0,034	0,040
-330,445	181,721	-0,049	-0,051
-329,431	292,887	0,062	0,081
-328,416	-200,000	-0,000	0,014
-327,402	565,625	0,066	0,115
-326,387	1,599	-0,069	0,035
-325,372	800,000	-0,101	-0,224
-324,358	68,816	-0,078	0,057
-323,343	153,948	-0,014	-0,014
-322,329	-131,078	0,051	-0,005
-321,314	-200,000	0,023	0,080
-320,299	576,000	0,067	0,118
-319,285	194,728	-0,092	0,100
-318,270	-147,622	0,128	0,008
-317,256	222,129	-0,098	-0,113
-316,241	336,984	-0,073	-0,101
-315,226	171,521	0,028	-0,029
-314,212	800,000	0,047	0,102
-313,197	-200,000	-0,012	0,046
-312,183	-200,000	0,015	-0,083
-311,168	-48,000	0,083	0,029
-310,153	143,127	-0,021	-0,020
-309,139	599,641	0,089	-0,159
-308,124	275,769	0,020	-0,025
-307,110	800,000	-0,024	-0,058
-306,095	-200,000	0,043	0,165
-305,080	-43,011	-0,094	0,034
-304,066	-200,000	-0,021	0,098
-303,051	338,601	-0,030	-0,042
-302,037	-101,898	-0,102	0,017
-301,022	274,991	0,015	-0,019
-300,008	-200,000	0,005	0,100
-298,993	493,549	0,025	-0,042
-297,978	-200,000	-0,006	0,029
-296,964	-200,000	0,017	-0,118
-295,949	-144,150	-0,236	0,016
-294,935	800,000	-0,032	-0,077
-293,920	-200,000	0,021	0,078
-292,905	-200,000	-0,036	0,171
-291,891	72,637	0,093	0,070
-290,876	800,000	-0,039	-0,088
-289,862	-129,601	0,100	0,010
-288,847	426,597	-0,055	-0,084
-287,832	-42,406	-0,155	-0,056
-286,818	-200,000	-0,005	-0,089
-285,803	-155,835	0,062	-0,003
-284,789	-72,701	0,025	-0,007
-283,774	-200,000	0,020	0,200
-282,759	-16,677	-0,126	0,057
-281,745	592,566	0,088	0,156
-280,730	800,000	0,030	0,076
-279,716	-33,270	-0,086	0,034
-278,701	123,874	0,065	0,058
-277,686	-155,579	0,156	0,007
-276,672	299,768	0,122	0,161
-275,657	-30,867	-0,055	-0,022
-274,643	-176,258	-0,097	-0,002
-273,628	416,274	-0,038	0,057
-272,613	336,590	0,089	-0,124
-271,599	-200,000	-0,011	0,055
-270,584	-68,230	-0,058	0,016
-269,570	-114,163	-0,108	-0,015
-268,555	561,080	0,039	-0,067
-267,540	-200,000	0,017	-0,079
-266,526	71,506	0,015	0,011
-265,511	-200,000	0,008	0,111
-264,497	-141,589	0,080	0,006
-263,482	42,238	-0,058	-0,038
-262,467	-127,984	-0,116	0,012
-261,453	800,000	0,009	-0,027
-260,438	-200,000	-0,026	0,089
-259,424	800,000	-0,039	-0,080
-258,409	-101,227	0,024	0,004
-257,395	-200,000	-0,006	-0,033
-256,380	-101,643	0,156	-0,027
-255,365	-200,000	-0,032	0,116
-254,351	423,690	0,019	0,029
-253,336	-200,000	-0,010	-0,051
-252,322	-102,444	-0,146	0,025
-251,307	-155,908	-0,176	-0,008
-250,292	665,406	0,018	0,033
-249,278	-65,272	-0,043	-0,012
-248,263	800,000	-0,026	0,055
-247,249	-200,000	0,005	-0,142
-246,234	-51,959	0,018	-0,006
-245,219	415,138	-0,108	-0,164
-244,205	315,365	-0,021	-0,029
-243,190	-200,000	0,040	0,000
-242,176	-200,000	-0,035	0,000
-241,161	107,810	0,139	0,118
-240,146	800,000	0,096	0,202
-239,132	544,873	0,073	-0,125
-238,117	800,000	-0,037	-0,088
-237,103	586,348	0,036	-0,063
-236,088	-200,000	0,003	0,106
-235,073	-128,757	0,080	0,008
-234,059	-129,196	-0,061	0,006
-233,044	36,272	0,116	-0,073
-232,030	-137,529	-0,182	-0,014
-231,015	629,149	-0,068	-0,122
-230,000	505,692	-0,077	-0,127
-228,986	-8,392	-0,033	-0,016
-227,971	-200,000	0,041	-0,137
-226,957	121,447	0,053	0,047
-225,942	237,048	-0,049	0,058
-224,927	41,613	-0,106	0,068
-223,913	67,950	0,044	0,032
-222,898	-8,775	-0,095	-0,045
-221,884	-200,000	0,018	-0,134
-220,869	110,720	-0,092	0,079
-219,855	-33,973	0,113	0,044
-218,840	-73,827	0,081	-0,021
-217,825	800,000	0,030	0,063
-216,811	265,307	0,038	-0,047
-215,796	800,000	-0,030	-0,090
-214,782	-200,000	-0,003	-0,075
-213,767	800,000	-0,065	-0,156
-212,752	-46,903	0,121	0,042
-211,738	362,036	-0,049	0,070
-210,723	61,236	0,122	-0,086
-209,709	34,954	-0,013	-0,008
-208,694	119,598	-0,038	0,033
-207,679	800,000	-0,054	-0,163
-206,665	125,230	0,068	-0,061
-205,650	-200,000	0,057	-0,000
-204,636	800,000	0,027	0,054
-203,621	382,897	-0,026	-0,038
-202,606	-200,000	0,032	-0,112
-201,592	-200,000	0,008	-0,161
-200,577	-29,332	0,046	0,019
-199,563	-200,000	-0,009	0,071
-198,548	800,000	0,043	0,098
-197,533	-200,000	0,014	0,134
-196,519	20,604	-0,032	-0,018
-195,504	48,559	0,043	0,028
-194,490	-200,000	-0,022	0,088
-193,475	87,512	-0,117	-0,092
-192,460	632,077	0,039	0,071
-191,446	331,361	0,115	0,159
-190,431	117,518	0,091	-0,080
-189,417	3,713	0,099	0,051
-188,402	239,327	-0,074	0,087
-187,387	-200,000	-0,003	-0,152
-186,373	-86,720	-0,125	-0,027
-185,358	-200,000	-0,002	0,088
-184,344	152,634	0,074	0,072
-183,329	61,949	0,060	0,042
-182,315	263,601	0,065	-0,081
-181,300	-200,000	0,004	-0,027
-180,285	800,000	0,020	0,052
-179,271	-19,718	0,081	-0,035
-178,256	226,541	-0,049	-0,056
-177,242	800,000	-0,039	0,080
-176,227	418,486	-0,094	0,144
-175,212	800,000	0,014	0,044
-174,198	122,712	-0,017	-0,015
-173,183	138,812	-0,070	-0,066
-172,169	2,758	0,048	-0,025
-171,154	60,060	-0,098	0,069
-170,139	800,000	0,019	-0,041
-169,125	-129,070	0,028	0,003
-168,110	-21,239	0,032	0,014
-167,096	-200,000	-0,010	0,105
-166,081	-73,109	-0,205	0,053
-165,066	800,000	-0,022	-0,069
-164,052	411,434	-0,038	-0,057
-163,037	-78,479	-0,018	0,004
-162,023	-8,367	0,047	-0,022
-161,008	429,097	-0,027	-0,042
-159,993	55,706	-0,035	-0,024
-158,979	150,543	-0,046	0,044
-157,964	25,571	-0,099	-0,058
-156,950	19,067	0,088	-0,050
-155,935	246,514	0,059	-0,070
-154,920	256,888	-0,014	0,018
-153,906	-200,000	-0,021	0,113
-152,891	157,462	-0,023	0,023
-151,877	-200,000	-0,012	0,138
-150,862	311,850	-0,065	0,087
-149,847	-200,000	-0,012	-0,176
-148,833	-98,847	-0,068	0,012
-147,818	96,038	0,086	0,070
-146,804	-200,000	-0,034	0,165
-145,789	364,796	-0,063	0,090
-144,775	53,568	0,110	0,075
-143,760	-153,497	-0,055	-0,003
-142,745	800,000	-0,009	0,022
-141,731	-200,000	-0,032	0,194
-140,716	261,987	-0,039	0,048
-139,702	-90,206	0,263	-0,054
-138,687	-72,818	-0,114	0,030
-137,672	-200,000	-0,003	0,111
-136,658	114,155	-0,129	-0,112
-135,643	165,047	-0,017	-0,017
-134,629	-68,345	-0,142	-0,039
-133,614	25,398	-0,064	0,038
-132,599	-200,000	-0,022	0,114
-131,585	-45,416	0,123	0,043
-130,570	-200,000	0,009	0,082
-129,556	800,000	-0,036	0,076
-128,541	227,278	0,051	-0,059
-127,526	-100,917	-0,192	-0,033
-126,512	210,585	-0,048	0,053
-125,497	-145,893	-0,054	-0,003
-124,483	-64,079	-0,052	-0,015
-123,468	49,016	0,110	0,073
-122,453	-88,605	-0,061	0,013
-121,439	800,000	-0,028	-0,082
-120,424	-200,000	-0,008	-0,054
-119,410	-129,919	0,055	-0,005
-118,395	105,373	-0,063	0,053
-117,380	-63,009	-0,058	0,017
-116,366	-200,000	-0,002	-0,061
-115,351	279,580	-0,034	0,043
-114,337	-35,866	-0,144	-0,055
-113,322	800,000	0,036	0,095
-112,307	-41,921	0,045	0,016
-111,293	575,765	0,085	-0,148
-110,278	-200,000	0,007	-0,025
-109,264	-200,000	0,000	-0,138
-108,249	40,230	0,040	-0,026
-107,234	-200,000	0,005	-0,046
-106,220	16,935	0,069	0,038
-105,205	-200,000	0,017	0,083
-104,191	-120,353	0,105	-0,013
-103,176	59,093	-0,013	-0,009
-102,162	50,274	0,092	0,061
-101,147	-46,033	-0,093	-0,032
-100,132	-115,365	-0,100	0,013
-99,118	-6,955	0,080	0,038
-98,103	-200,000	-0,012	0,061
-97,089	119,832	0,101	-0,089
-96,074	105,341	0,055	0,046
-95,059	192,249	0,105	0,113
-94,045	-116,245	-0,083	-0,011
-93,030	-72,597	0,036	0,009
-92,016	50,065	0,092	-0,061
-91,001	216,967	0,063	0,071
-89,986	0,860	0,076	0,039
-88,972	123,935	0,076	0,067
-87,957	-60,127	0,083	0,025
-86,943	-23,877	-0,102	0,043
-85,928	60,196	-0,103	-0,072
-84,913	169,515	0,048	-0,048
-83,899	197,302	0,063	-0,068
-82,884	45,263	0,061	0,040
-81,870	-200,000	0,017	0,083
-80,855	800,000	0,047	0,128
-79,840	-200,000	0,018	0,112
-78,826	-44,028	-0,130	0,046
-77,811	-200,000	-0,001	-0,074
-76,797	800,000	0,024	-0,059
-75,782	-53,410	0,091	-0,029
-74,767	-136,045	0,100	0,008
-73,753	-109,961	0,223	0,033
-72,738	269,775	0,024	0,030
-71,724	-76,705	0,094	-0,023
-70,709	-200,000	-0,042	-0,133
-69,694	-18,494	0,152	-0,067
-68,680	422,273	-0,071	-0,108
-67,665	-200,000	0,027	0,203
-66,651	-200,000	0,021	0,070
-65,636	-34,079	-0,093	-0,036
-64,622	800,000	0,029	-0,075
-63,607	407,326	-0,075	-0,112
-62,592	-24,538	-0,121	-0,051
-61,578	-144,508	-0,109	-0,007
-60,563	-34,741	-0,074	0,028
-59,549	-5,694	-0,065	0,031
-58,534	-67,074	-1,472	-0,408
-57,519	384,670	-1,445	-2,115
-56,505	-200,000	-0,696	-4,657
-55,490	153,652	0,887	0,861
-54,476	800,000	4,995	11,382
-53,461	-200,000	18,479	296,449
-52,446	800,000	730,939	2254,292
-51,432	558,463	1647,302	2825,273
-50,417	79,001	1667,903	1263,283
-49,403	22,487	1541,374	890,301
-48,388	16,482	1464,391	816,703
-47,373	17,811	1454,278	817,441
-46,359	17,088	1444,611	808,512
-45,344	14,755	1439,945	794,713
-44,330	14,680	1438,122	793,320
-43,315	14,647	1436,530	792,251
-42,300	14,682	1434,784	791,422
-41,286	14,715	1433,634	790,915
-40,271	14,656	1432,698	790,086
-39,257	14,656	1431,049	789,143
-38,242	14,690	1429,730	788,549
-37,227	14,702	1428,638	787,970
-36,213	14,738	1427,374	787,415
-35,198	14,715	1426,069	786,554
-34,184	14,752	1425,198	786,219
-33,169	14,688	1423,874	785,155
-32,154	14,699	1422,836	784,601
-31,140	14,716	1421,615	783,975
-30,125	14,709	1420,719	783,417
-29,111	14,711	1419,156	782,533
-28,096	14,685	1418,160	781,831
-27,082	14,623	1417,092	780,923
-26,067	14,602	1416,115	780,253
-25,052	14,646	1414,892	779,753
-24,038	14,625	1414,097	779,187
-23,023	14,585	1412,928	778,323
-22,009	14,621	1412,057	777,982
-20,994	14,604	1411,167	777,381
-19,979	14,599	1410,121	776,753
-18,965	14,557	1409,208	776,020
-17,950	14,556	1408,332	775,505
-16,936	14,566	1407,287	774,945
-15,921	14,527	1406,056	774,050
-14,906	14,525	1405,298	773,593
-13,892	14,561	1404,306	773,186
-12,877	14,521	1403,442	772,493
-11,863	14,521	1402,601	772,001
-10,848	14,536	1401,682	771,532
-9,833	14,526	1400,913	771,032
-8,819	14,482	1400,154	770,378
-7,804	14,472	1398,937	769,631
-6,790	14,481	1397,794	769,014
-5,775	14,456	1396,908	768,383
-4,760	14,473	1396,067	767,967
-3,746	14,420	1395,125	767,171
-2,731	14,467	1394,524	767,030
-1,717	14,438	1393,588	766,352
-0,702	14,406	1391,796	765,188
0,313	18,322	1309,826	738,228
1,327	34,773	705,961	435,971
2,342	53,314	124,308	84,163
3,356	-1,530	16,718	8,311
4,371	6,477	3,252	1,704
5,386	-0,980	0,481	0,240
6,400	800,000	0,088	0,177
7,415	-12,625	-0,314	-0,144
8,429	23,491	-0,397	-0,230
9,444	136,032	-0,292	-0,269
10,459	14,168	-0,275	-0,151
11,473	99,230	-0,307	-0,251
12,488	33,719	-0,307	-0,188
13,502	-147,035	-0,349	-0,021
14,517	-40,493	-0,269	-0,098
15,531	89,366	-0,386	-0,304
16,546	18,861	-0,328	-0,185
17,561	112,802	-0,365	-0,312
18,575	-128,740	-0,226	-0,022
19,590	-110,568	-0,172	-0,025
20,604	217,303	-0,210	-0,236
21,619	-40,366	-0,549	-0,201
22,634	85,284	-0,433	-0,335
23,648	113,828	-0,453	-0,389
24,663	74,990	-0,450	-0,335
25,677	15,551	-0,394	-0,218
26,692	128,481	-0,252	-0,227
27,707	17,708	-0,388	-0,218
28,721	40,474	-0,385	-0,245
29,736	81,546	-0,385	-0,294
30,750	234,160	-0,374	-0,436
31,765	32,746	-0,373	-0,227
32,780	89,440	-0,422	-0,332
33,794	11,797	-0,361	-0,195
34,809	133,108	-0,376	-0,343
35,823	123,312	-0,403	-0,356
36,838	249,338	-0,263	-0,315
37,853	125,085	-0,348	-0,309
38,867	298,101	-0,265	-0,344
39,882	99,168	-0,279	-0,227
40,896	265,157	-0,250	-0,308
41,911	198,955	-0,321	-0,347
42,926	88,380	-0,263	-0,205
43,940	30,368	-0,472	-0,284
44,955	7,854	-0,357	-0,188
45,969	152,628	-0,345	-0,332
46,984	78,688	-0,376	-0,283
47,999	95,175	-0,359	-0,288
49,013	83,031	-0,276	-0,211
50,028	184,173	-0,263	-0,275
51,042	124,062	-0,381	-0,337
52,057	11,932	-0,401	-0,216
53,071	53,249	-0,333	-0,224
54,086	134,901	-0,210	-0,192
55,101	87,208	-0,271	-0,211
56,115	41,321	-0,427	-0,271
57,130	392,877	-0,227	-0,333
58,144	-71,992	-0,407	-0,106
59,159	115,152	-0,330	-0,284
60,174	-45,487	-0,459	-0,159
61,188	-3,420	-0,347	-0,170
62,203	111,617	-0,301	-0,255
63,217	24,986	-0,285	-0,166
64,232	-95,789	-0,475	-0,088
65,247	63,050	-0,339	-0,239
66,261	110,784	-0,384	-0,325
67,276	81,009	-0,276	-0,209
68,290	67,275	-0,372	-0,267
69,305	29,691	-0,394	-0,235
70,320	136,451	-0,238	-0,218
71,334	-139,142	-0,405	-0,030
72,349	32,495	-0,278	-0,169
73,363	1,953	-0,397	-0,201
74,378	196,885	-0,320	-0,343
75,393	-69,483	-0,384	-0,103
76,407	242,545	-0,201	-0,237
77,422	101,288	-0,221	-0,181
78,436	140,901	-0,324	-0,301
79,451	15,967	-0,289	-0,160
80,466	-19,364	-0,321	-0,139
81,480	53,854	-0,281	-0,189
82,495	246,673	-0,195	-0,232
83,509	210,633	-0,159	-0,176
84,524	4,951	-0,295	-0,152
85,539	136,779	-0,223	-0,204
86,553	119,087	-0,298	-0,259
87,568	-21,232	-0,307	-0,131
88,582	-110,483	-0,376	-0,054
89,597	-28,393	-0,345	-0,139
90,611	25,388	-0,357	-0,208
91,626	56,951	-0,315	-0,215
92,641	25,104	-0,306	-0,178
93,655	-70,348	-0,352	-0,093
94,670	-4,645	-0,238	-0,115
95,684	-110,024	-0,388	-0,056
96,699	201,198	-0,221	-0,240
97,714	321,746	-0,175	-0,235
98,728	21,512	-0,218	-0,124
99,743	563,889	-0,147	-0,250
100,757	32,400	-0,264	-0,159
101,772	-3,560	-0,347	-0,169
102,787	-25,404	-0,346	-0,143
103,801	13,749	-0,331	-0,180
104,816	22,567	-0,299	-0,171
105,830	40,472	-0,226	-0,142
106,845	97,123	-0,237	-0,191
107,860	-23,182	-0,316	-0,133
108,874	45,145	-0,371	-0,239
109,889	-63,856	-0,360	-0,102
110,903	147,704	-0,264	-0,249
111,918	218,663	-0,245	-0,275
112,933	-23,167	-0,345	-0,145
113,947	94,724	-0,215	-0,171
114,962	182,025	-0,140	-0,144
115,976	118,147	-0,236	-0,204
116,991	29,769	-0,380	-0,226
118,006	57,017	-0,436	-0,297
119,020	103,989	-0,171	-0,141
120,035	115,651	-0,276	-0,236
121,049	-27,311	-0,239	-0,097
122,064	74,848	-0,283	-0,208
123,079	73,793	-0,211	-0,155
124,093	151,311	-0,274	-0,261
125,108	114,398	-0,238	-0,203
126,122	114,317	-0,290	-0,247
127,137	294,775	-0,135	-0,174
128,151	-76,608	-0,202	0,049
129,166	16,424	-0,194	-0,107
130,181	-110,385	-0,237	-0,034
131,195	140,678	-0,241	-0,223
132,210	95,677	-0,256	-0,204
133,224	13,753	-0,307	-0,167
134,239	204,373	-0,206	-0,223
135,254	86,235	-0,185	-0,142
136,268	28,188	-0,225	-0,133
137,283	-66,096	-0,242	-0,067
138,297	-5,096	-0,427	-0,205
139,312	170,665	-0,378	-0,379
140,327	368,260	-0,184	-0,261
141,341	43,226	-0,326	-0,208
142,356	-2,325	-0,330	-0,161
143,370	366,619	-0,119	-0,168
144,385	36,420	-0,216	-0,133
145,400	120,281	-0,211	-0,183
146,414	-1,314	-0,251	-0,123
147,429	-34,124	-0,361	-0,138
148,443	44,098	-0,243	-0,156
149,458	353,516	-0,080	-0,111
150,473	135,805	-0,173	-0,157
151,487	98,233	-0,222	-0,178
152,502	158,529	-0,313	-0,303
153,516	-9,327	-0,225	-0,104
154,531	3,766	-0,252	-0,128
155,546	-38,139	-0,210	-0,077
156,560	94,264	-0,182	-0,144
157,575	-70,568	-0,205	-0,054
158,589	-69,747	-0,253	-0,067
159,604	237,661	-0,226	-0,262
160,619	79,929	-0,185	-0,138
161,633	-31,288	-0,352	-0,138
162,648	52,762	-0,176	-0,117
163,662	112,255	-0,108	-0,091
164,677	136,616	-0,217	-0,198
165,692	14,093	-0,195	-0,106
166,706	195,898	-0,194	-0,206
167,721	47,951	-0,390	-0,254
168,735	148,848	-0,164	-0,155
169,750	-94,124	-0,197	-0,037
170,764	80,652	-0,283	-0,213
171,779	83,522	-0,162	-0,123
172,794	178,475	-0,160	-0,163
173,808	121,573	-0,245	-0,213
174,823	18,403	-0,292	-0,162
175,837	165,957	-0,247	-0,243
176,852	31,672	-0,211	-0,126
177,867	57,609	-0,129	-0,088
178,881	151,415	-0,150	-0,142
179,896	-82,626	-0,106	-0,024
180,910	-95,728	-0,259	-0,048
181,925	4,222	-0,206	-0,105
182,940	-34,569	-0,230	-0,087
183,954	800,000	-0,128	-0,270
184,969	-151,191	-0,231	-0,012
185,983	505,638	-0,103	-0,167
186,998	-9,288	-0,217	-0,101
188,013	173,465	-0,234	-0,235
189,027	784,146	-0,166	-0,319
190,042	187,070	-0,240	-0,249
191,056	76,862	-0,269	-0,198
192,071	104,083	-0,239	-0,196
193,086	23,521	-0,203	-0,116
194,100	156,759	-0,213	-0,205
195,115	213,997	-0,251	-0,277
196,129	123,519	-0,129	-0,112
197,144	-30,685	-0,232	-0,091
198,159	-184,054	-0,262	-0,003
199,173	-200,000	-0,029	-0,120
200,188	-95,187	-0,316	-0,059
201,202	101,220	-0,179	-0,145
202,217	800,000	-0,157	-0,323
203,232	98,015	-0,261	-0,208
204,246	-77,665	-0,299	-0,071
205,261	180,382	-0,308	-0,314
206,275	-200,000	-0,054	-0,304
207,290	675,190	-0,123	-0,224
208,304	380,398	-0,116	-0,165
209,319	-156,835	-0,285	-0,012
210,334	-85,720	-0,156	0,033
211,348	-49,094	-0,180	-0,059
212,363	800,000	-0,075	-0,174
213,377	129,798	-0,127	-0,113
214,392	190,315	-0,154	-0,161
215,407	-60,393	-0,198	-0,058
216,421	800,000	-0,089	-0,243
217,436	-113,064	-0,168	0,023
218,450	-0,086	-0,223	-0,110
219,465	113,067	-0,227	-0,191
220,480	418,193	-0,201	-0,298
221,494	-61,021	-0,199	-0,058
222,509	-183,013	-0,202	0,002
223,523	513,662	-0,126	-0,205
224,538	242,609	-0,127	-0,148
225,553	235,198	-0,155	-0,178
226,567	116,263	-0,260	-0,221
227,582	216,759	-0,108	-0,119
228,596	52,776	-0,128	-0,085
229,611	-36,411	-0,251	-0,093
230,626	-200,000	-0,023	-0,137
231,640	441,057	-0,214	-0,325
232,655	259,328	-0,180	-0,216
233,669	99,912	-0,169	-0,136
234,684	-138,906	-0,334	-0,025
235,699	120,266	-0,227	-0,196
236,713	-174,086	-0,226	0,004
237,728	-67,640	-0,132	-0,036
238,742	237,330	-0,176	-0,202
239,757	-56,291	-0,222	-0,068
240,772	504,769	-0,186	-0,300
241,786	1,262	-0,175	-0,087
242,801	246,861	-0,088	-0,103
243,815	85,199	-0,298	-0,227
244,830	460,074	-0,057	-0,088
245,844	-113,783	-0,197	-0,026
246,859	29,118	-0,113	-0,066
247,874	59,756	-0,265	-0,181
248,888	167,373	-0,228	-0,224
249,903	253,452	-0,202	-0,239
250,917	800,000	-0,064	-0,127
251,932	296,090	-0,164	-0,209
252,947	-84,776	-0,289	-0,062
253,961	501,977	-0,118	-0,189
254,976	104,475	-0,173	-0,141
255,990	230,364	-0,175	-0,198
257,005	16,644	-0,171	-0,094
258,020	169,881	-0,137	-0,136
259,034	-49,506	-0,145	-0,047
260,049	40,867	-0,046	-0,029
261,063	-157,350	-0,249	-0,010
262,078	135,401	-0,253	-0,228
263,093	-30,718	-0,216	-0,084
264,107	80,632	-0,084	-0,063
265,122	235,834	-0,094	-0,108
266,136	-20,256	-0,171	-0,072
267,151	61,374	-0,197	-0,135
268,166	87,207	-0,172	-0,131
269,180	34,532	-0,300	-0,181
270,195	20,143	-0,278	-0,154
271,209	-182,909	-0,281	-0,003
272,224	-74,171	-0,299	-0,074
273,239	31,734	-0,149	0,088
274,253	-200,000	0,003	-0,079
275,268	-124,176	-0,137	-0,015
276,282	131,341	-0,164	-0,145
277,297	265,571	-0,141	-0,170
278,312	-28,516	-0,272	-0,108
279,326	495,254	-0,107	-0,171
280,341	98,419	-0,211	-0,168
281,355	-86,035	-0,045	-0,009
282,370	57,544	-0,171	-0,116
283,384	-72,678	-0,125	-0,031
284,399	168,943	-0,223	-0,220
285,414	-41,247	-0,282	0,100
286,428	-56,094	-0,166	-0,051
287,443	-43,561	-0,106	-0,037
288,457	-105,604	-0,161	-0,025
289,472	99,220	-0,181	-0,145
290,487	-94,299	-0,182	0,034
291,501	-167,585	-0,167	0,004
292,516	596,391	-0,100	-0,172
293,530	89,032	-0,150	-0,115
294,545	541,279	-0,066	-0,108
295,560	264,177	-0,110	-0,133
296,574	698,806	-0,087	-0,159
297,589	800,000	-0,083	-0,252
298,603	-83,653	-0,299	-0,065
299,618	466,685	-0,132	-0,205
300,633	164,789	-0,117	-0,113
301,647	-139,907	-0,259	-0,019
302,662	40,738	-0,226	-0,140
303,676	-19,836	-0,139	0,059
304,691	241,476	-0,198	-0,228
305,706	-136,485	-0,169	0,013
306,720	-163,934	-0,203	0,006
307,735	118,504	-0,095	-0,080
308,749	448,133	-0,109	-0,167
309,764	-35,889	-0,178	-0,066
310,779	42,494	-0,152	-0,095
311,793	-49,732	-0,111	0,036
312,808	15,074	-0,137	-0,074
313,822	-200,000	-0,045	-0,158
314,837	-75,247	-0,070	-0,017
315,852	-200,000	-0,005	-0,116
316,866	525,801	-0,135	-0,220
317,881	-160,230	-0,220	0,008
318,895	118,967	-0,149	-0,127
319,910	50,195	-0,100	-0,065
320,925	30,956	-0,190	-0,112
321,939	-72,871	-0,118	0,030
322,954	-56,580	-0,117	0,035
323,968	9,556	-0,178	-0,092
324,983	800,000	-0,022	-0,047
325,997	-32,159	-0,174	-0,067
327,012	112,462	-0,143	-0,119
328,027	260,307	-0,137	-0,163
329,041	32,331	-0,194	-0,115
330,056	527,034	-0,082	-0,134
331,070	1,726	-0,150	-0,074
332,085	-200,000	0,013	-0,107
333,100	-89,017	-0,110	-0,022
334,114	115,160	-0,080	-0,067
335,129	114,013	-0,192	-0,161
336,143	248,335	-0,128	-0,149
337,158	800,000	-0,080	-0,156
338,173	800,000	-0,040	-0,113
339,187	-200,000	-0,038	-0,141
340,202	363,658	-0,119	-0,164
341,216	193,699	-0,156	-0,162
342,231	-34,947	-0,083	-0,031
343,246	18,521	-0,119	-0,065
344,260	59,197	-0,075	-0,050
345,275	-118,288	-0,066	-0,008
346,289	-105,431	-0,167	-0,026
347,304	-12,627	-0,138	0,062
348,319	82,479	-0,238	-0,177
349,333	148,817	-0,142	-0,132
350,348	55,286	-0,132	-0,087
351,362	-46,657	-0,162	-0,054
352,377	-30,920	-0,054	0,021
353,392	400,312	-0,044	-0,064
354,406	-181,029	-0,068	-0,001
355,421	207,844	1317,406	1413,201
356,435	159,901	1478,455	1413,690
