DTS Sentinel unit serial number:	SN410029Multiplexer serial number:	ORYXHardware model number:	OX2-SRSoftware version number:	ORYX F/W v4,00 Oryx Data Collector v3.7.2.0data status	okinstallation	B3 Nyhavnadifferential loss correction	single-endedforward channel	channel 1reverse channel	N/Adate	2023/12/04time	21:47:30forward acquisition time	300,00reverse acquisition time	0,00gamma	499,1914k internal	0,3200k external	0,3200temperature offset calibration	1,0000default loss term (dB/km)	0,3820temperature slope calibration	1,0000multiplexer offset coefficient	1,0000multiplexer slope coefficient	1,0000fibre end	0,00T internal ref (°C)	14,57T ext. ref 1 (°C)	-0,37T ext. ref 2 (°C)	-0,37length (m)	temperature (°C)	Stokes	anti-Stokes-744,400	413,027	-0,100	-0,155
-743,385	-200,000	0,009	0,393
-742,371	204,482	-0,208	-0,235
-741,356	-200,000	-0,059	0,349
-740,342	242,344	-0,221	-0,270
-739,327	800,000	0,112	0,282
-738,312	47,697	-0,286	-0,194
-737,298	-200,000	-0,004	0,242
-736,283	800,000	-0,104	-0,301
-735,269	800,000	0,132	0,358
-734,254	150,463	-0,211	-0,208
-733,239	17,332	-0,300	0,173
-732,225	620,067	-0,143	-0,263
-731,210	-178,763	0,153	-0,002
-730,196	16,805	-0,083	-0,048
-729,181	81,115	-0,032	0,025
-728,167	-200,000	-0,007	-0,048
-727,152	800,000	-0,059	-0,126
-726,137	-200,000	-0,029	0,118
-725,123	404,635	0,017	0,026
-724,108	130,280	0,058	0,054
-723,094	-96,330	-0,213	0,041
-722,079	-128,894	-0,030	0,003
-721,064	350,081	-0,077	0,112
-720,050	120,545	0,014	0,013
-719,035	558,636	-0,029	0,050
-718,021	83,777	-0,047	0,037
-717,006	243,420	-0,047	0,058
-715,991	-52,503	-0,129	-0,043
-714,977	-200,000	0,018	-0,079
-713,962	-33,733	0,058	-0,023
-712,948	325,594	0,081	-0,113
-711,933	-200,000	-0,017	0,100
-710,918	800,000	-0,053	-0,159
-709,904	800,000	-0,019	-0,039
-708,889	-200,000	0,017	-0,070
-707,875	-129,843	-0,076	0,008
-706,860	-125,367	0,144	0,016
-705,845	201,476	0,066	-0,074
-704,831	-200,000	-0,000	0,089
-703,816	380,559	-0,071	-0,106
-702,802	-200,000	-0,002	-0,012
-701,787	222,133	-0,098	0,115
-700,772	800,000	-0,048	-0,141
-699,758	50,706	-0,040	-0,028
-698,743	800,000	0,074	0,148
-697,729	-124,799	-0,045	-0,005
-696,714	-139,608	-0,054	0,004
-695,699	236,512	-0,064	-0,076
-694,685	107,307	-0,014	-0,012
-693,670	91,697	-0,120	-0,098
-692,656	800,000	0,012	0,028
-691,641	679,493	-0,022	0,042
-690,627	-200,000	0,034	-0,120
-689,612	-200,000	-0,006	-0,059
-688,597	-34,283	-0,073	0,029
-687,583	-57,231	-0,138	-0,044
-686,568	649,672	-0,039	0,072
-685,554	74,393	-0,126	0,096
-684,539	794,277	0,019	0,038
-683,524	-200,000	-0,042	-0,168
-682,510	-200,000	0,018	0,106
-681,495	47,129	0,137	0,092
-680,481	800,000	-0,027	0,076
-679,466	146,299	0,108	-0,106
-678,451	-123,380	-0,112	-0,013
-677,437	523,790	-0,009	0,016
-676,422	72,631	0,072	0,055
-675,408	31,765	0,124	0,077
-674,393	-72,187	0,058	-0,015
-673,378	-166,908	-0,160	-0,005
-672,364	-200,000	0,006	-0,106
-671,349	-81,971	0,009	0,002
-670,335	800,000	0,015	0,033
-669,320	-86,593	0,044	-0,010
-668,305	-200,000	-0,026	-0,103
-667,291	-200,000	-0,028	-0,185
-666,276	800,000	-0,053	-0,162
-665,262	-200,000	-0,023	-0,161
-664,247	371,799	-0,075	-0,111
-663,232	800,000	0,054	-0,131
-662,218	-200,000	-0,001	0,018
-661,203	-64,736	-0,052	0,015
-660,189	-58,856	-0,097	-0,030
-659,174	9,170	-0,057	-0,031
-658,159	800,000	-0,047	-0,097
-657,145	-64,628	-0,089	-0,026
-656,130	-91,125	-0,033	-0,007
-655,116	-91,256	0,041	0,009
-654,101	-200,000	-0,025	0,142
-653,086	-200,000	0,002	-0,015
-652,072	-200,000	-0,004	-0,095
-651,057	-14,517	-0,124	0,058
-650,043	800,000	-0,034	0,079
-649,028	-20,425	0,051	0,023
-648,014	291,044	0,026	-0,034
-646,999	252,740	0,053	0,066
-645,984	-200,000	-0,016	0,100
-644,970	8,181	-0,184	-0,100
-643,955	-134,373	-0,134	0,012
-642,941	800,000	-0,031	-0,067
-641,926	395,792	-0,073	0,110
-640,911	-150,797	0,046	-0,003
-639,897	-57,052	-0,074	-0,023
-638,882	362,364	-0,028	0,040
-637,868	800,000	0,031	0,070
-636,853	-200,000	0,034	0,126
-635,838	-200,000	-0,020	0,169
-634,824	50,722	0,084	-0,058
-633,809	465,084	0,021	0,034
-632,795	609,557	-0,051	0,092
-631,780	45,330	0,091	-0,061
-630,765	205,438	-0,025	-0,028
-629,751	-116,454	0,061	0,008
-628,736	500,965	-0,027	-0,045
-627,722	-113,389	0,070	-0,010
-626,707	-200,000	0,028	0,099
-625,692	396,408	0,051	-0,078
-624,678	800,000	0,003	-0,008
-623,663	800,000	-0,018	-0,050
-622,649	-200,000	-0,010	0,034
-621,634	130,914	-0,133	-0,124
-620,619	-23,800	0,020	0,009
-619,605	199,256	-0,026	-0,029
-618,590	437,676	-0,044	0,070
-617,576	3,777	-0,074	0,039
-616,561	129,484	-0,045	-0,041
-615,546	106,038	0,037	-0,032
-614,532	-147,802	-0,056	0,003
-613,517	410,631	-0,042	0,064
-612,503	294,603	-0,020	0,027
-611,488	-145,923	0,048	-0,003
-610,474	-200,000	-0,001	0,054
-609,459	-77,463	0,080	-0,020
-608,444	-200,000	-0,022	-0,092
-607,430	-200,000	0,020	-0,117
-606,415	507,751	-0,104	-0,175
-605,401	-200,000	-0,010	0,040
-604,386	-200,000	0,004	0,039
-603,371	800,000	0,003	-0,007
-602,357	-57,068	-0,028	-0,009
-601,342	-70,887	-0,105	0,028
-600,328	-200,000	0,007	-0,143
-599,313	-200,000	0,003	-0,112
-598,298	-200,000	0,017	0,078
-597,284	-153,669	-0,123	-0,006
-596,269	175,346	0,099	0,104
-595,255	48,469	0,072	0,049
-594,240	-200,000	0,001	-0,088
-593,225	30,158	-0,097	0,060
-592,211	-8,213	-0,043	-0,021
-591,196	800,000	-0,034	0,076
-590,182	-136,586	0,076	0,006
-589,167	-6,405	0,161	0,079
-588,152	-200,000	-0,002	-0,069
-587,138	800,000	0,046	-0,137
-586,123	-200,000	0,008	-0,026
-585,109	287,673	-0,062	-0,081
-584,094	432,913	-0,065	0,103
-583,079	-200,000	-0,003	-0,056
-582,065	73,087	0,104	-0,078
-581,050	-200,000	-0,010	0,126
-580,036	70,725	-0,061	0,045
-579,021	153,444	-0,036	-0,036
-578,006	-200,000	-0,026	-0,184
-576,992	-200,000	0,019	-0,147
-575,977	800,000	-0,058	-0,130
-574,963	-114,542	-0,063	0,009
-573,948	71,241	0,075	-0,056
-572,934	-148,514	-0,099	0,006
-571,919	166,791	-0,058	-0,060
-570,904	-62,253	-0,078	-0,023
-569,890	38,108	-0,079	-0,051
-568,875	393,735	0,045	0,067
-567,861	-200,000	-0,005	0,040
-566,846	-200,000	-0,027	0,187
-565,831	-200,000	-0,006	0,051
-564,817	-81,336	-0,204	-0,048
-563,802	173,444	0,114	-0,119
-562,788	395,928	0,020	0,030
-561,773	800,000	0,036	-0,099
-560,758	141,475	0,092	-0,088
-559,744	-149,159	0,079	0,005
-558,729	-200,000	-0,019	0,175
-557,715	-27,275	-0,163	-0,068
-556,700	800,000	0,062	-0,137
-555,685	-200,000	-0,002	-0,017
-554,671	-200,000	0,015	-0,086
-553,656	25,722	0,049	-0,029
-552,642	-22,010	0,054	-0,024
-551,627	-80,337	-0,070	-0,017
-550,612	-83,766	-0,112	-0,026
-549,598	-200,000	0,015	-0,056
-548,583	222,777	0,007	0,008
-547,569	568,313	-0,048	0,085
-546,554	800,000	0,030	0,083
-545,539	252,469	-0,074	-0,091
-544,525	800,000	-0,036	-0,109
-543,510	-41,733	-0,164	0,061
-542,496	42,373	0,059	-0,039
-541,481	-200,000	0,000	-0,018
-540,466	43,312	-0,061	-0,040
-539,452	-200,000	-0,015	0,051
-538,437	-200,000	0,003	-0,104
-537,423	-200,000	0,019	0,067
-536,408	800,000	0,023	-0,062
-535,393	292,637	-0,107	-0,142
-534,379	275,873	-0,070	-0,090
-533,364	-185,735	0,110	0,001
-532,350	51,164	-0,015	0,010
-531,335	-123,958	-0,104	0,012
-530,321	-178,975	0,183	-0,003
-529,306	-103,467	-0,080	0,013
-528,291	152,418	-0,068	0,067
-527,277	392,635	0,105	-0,158
-526,262	284,664	-0,070	-0,091
-525,248	-200,000	0,035	-0,113
-524,233	-56,489	0,063	0,020
-523,218	71,449	-0,052	0,039
-522,204	390,936	-0,048	-0,073
-521,189	-200,000	-0,005	0,104
-520,175	55,384	0,191	-0,133
-519,160	-69,228	-0,166	-0,046
-518,145	79,992	0,046	0,036
-517,131	166,940	-0,029	0,030
-516,116	-200,000	0,006	0,087
-515,102	-56,260	0,139	0,044
-514,087	664,069	0,011	-0,020
-513,072	226,758	-0,028	0,033
-512,058	615,557	-0,036	-0,066
-511,043	-200,000	0,025	-0,112
-510,029	-200,000	0,037	0,132
-509,014	-85,219	-0,060	0,013
-507,999	800,000	-0,013	0,029
-506,985	93,969	-0,083	-0,068
-505,970	-200,000	0,011	-0,043
-504,956	312,554	0,068	-0,093
-503,941	-200,000	0,023	-0,102
-502,926	-200,000	-0,026	-0,125
-501,912	384,611	-0,029	-0,043
-500,897	-200,000	0,000	-0,088
-499,883	237,667	0,113	-0,135
-498,868	194,566	-0,038	0,042
-497,853	58,604	-0,231	-0,163
-496,839	-6,513	-0,139	-0,068
-495,824	800,000	0,032	0,082
-494,810	263,927	0,040	0,050
-493,795	91,770	0,037	0,030
-492,781	169,542	0,052	-0,054
-491,766	96,873	-0,043	-0,035
-490,751	-200,000	0,032	0,207
-489,737	372,111	0,027	0,040
-488,722	0,721	0,093	0,048
-487,708	-151,711	0,099	-0,005
-486,693	326,519	0,036	0,050
-485,678	99,954	0,128	0,107
-484,664	-130,180	-0,163	0,016
-483,649	-200,000	-0,004	-0,147
-482,635	540,344	0,055	0,094
-481,620	136,434	-0,052	0,049
-480,605	800,000	0,022	-0,045
-479,591	191,958	0,103	0,112
-478,576	-83,564	0,051	0,012
-477,562	-57,731	-0,080	0,025
-476,547	289,702	0,024	-0,032
-475,532	-200,000	0,005	0,064
-474,518	442,734	-0,067	-0,106
-473,503	753,999	-0,025	-0,048
-472,489	288,826	0,169	0,220
-471,474	-65,825	0,071	-0,020
-470,459	-200,000	-0,051	-0,199
-469,445	110,338	-0,056	0,048
-468,430	705,935	0,112	-0,214
-467,416	-35,038	0,069	0,027
-466,401	-200,000	0,024	0,089
-465,386	800,000	0,030	0,078
-464,372	161,543	0,050	-0,050
-463,357	-6,847	0,080	0,039
-462,343	13,835	-0,120	-0,067
-461,328	-8,677	0,097	-0,047
-460,313	-76,267	0,101	-0,026
-459,299	800,000	-0,008	-0,018
-458,284	-200,000	0,002	0,080
-457,270	-1,211	-0,136	-0,069
-456,255	136,052	0,057	0,054
-455,241	10,025	-0,013	0,007
-454,226	65,281	-0,063	-0,046
-453,211	800,000	0,024	0,075
-452,197	189,382	0,042	0,046
-451,182	-200,000	-0,001	0,031
-450,168	-200,000	-0,009	0,079
-449,153	-200,000	-0,003	0,139
-448,138	-50,882	0,120	-0,040
-447,124	668,588	-0,065	-0,122
-446,109	52,997	-0,049	0,034
-445,095	457,081	0,030	-0,047
-444,080	-117,041	0,133	0,017
-443,065	-180,361	-0,103	-0,002
-442,051	452,480	0,028	0,045
-441,036	-23,168	-0,179	0,077
-440,022	165,072	0,061	0,062
-439,007	730,419	-0,030	0,057
-437,992	114,122	0,060	0,053
-436,978	235,138	0,041	-0,049
-435,963	47,734	-0,066	0,044
-434,949	72,781	-0,071	0,053
-433,934	-200,000	0,003	-0,034
-432,919	-200,000	-0,006	-0,104
-431,905	800,000	0,045	-0,113
-430,890	636,349	-0,085	0,156
-429,876	65,822	0,177	0,129
-428,861	177,946	0,020	-0,021
-427,846	-48,108	-0,103	0,036
-426,832	319,250	0,084	-0,115
-425,817	800,000	0,081	-0,206
-424,803	111,771	0,036	0,031
-423,788	800,000	0,066	0,142
-422,773	-200,000	0,055	0,176
-421,759	800,000	-0,031	-0,064
-420,744	800,000	-0,037	0,076
-419,730	-11,289	0,019	-0,009
-418,715	148,203	-0,105	-0,102
-417,701	430,795	-0,059	-0,091
-416,686	126,574	0,042	-0,038
-415,671	389,009	-0,071	0,106
-414,657	202,522	0,042	0,047
-413,642	-93,788	-0,078	-0,015
-412,628	748,032	-0,067	-0,130
-411,613	433,033	-0,017	-0,026
-410,598	-24,144	-0,058	0,025
-409,584	316,777	-0,103	0,140
-408,569	-151,070	0,099	-0,005
-407,555	800,000	0,062	-0,159
-406,540	-3,751	-0,035	0,017
-405,525	89,587	0,057	-0,045
-404,511	-95,349	-0,130	-0,025
-403,496	105,411	0,026	-0,022
-402,482	-126,562	0,038	-0,004
-401,467	251,500	0,095	-0,116
-400,452	83,157	0,082	-0,064
-399,438	657,014	-0,082	0,152
-398,423	800,000	-0,072	-0,156
-397,409	198,333	-0,050	-0,055
-396,394	350,954	0,055	-0,079
-395,379	-200,000	-0,050	0,181
-394,365	-36,534	-0,034	0,013
-393,350	103,960	0,065	0,055
-392,336	775,139	0,046	0,091
-391,321	-77,218	-0,068	0,017
-390,306	405,409	-0,098	0,149
-389,292	800,000	0,025	0,067
-388,277	-200,000	-0,012	-0,060
-387,263	331,716	0,102	-0,141
-386,248	29,217	0,109	-0,066
-385,233	-2,171	0,050	0,025
-384,219	32,750	0,104	-0,064
-383,204	800,000	-0,013	-0,041
-382,190	-200,000	-0,011	-0,042
-381,175	-72,236	0,109	0,029
-380,160	47,397	-0,032	-0,021
-379,146	-7,190	-0,080	-0,039
-378,131	-200,000	0,009	0,054
-377,117	96,996	0,106	0,087
-376,102	-200,000	-0,022	-0,109
-375,088	-200,000	-0,021	0,083
-374,073	26,600	-0,135	-0,081
-373,058	75,297	0,119	0,090
-372,044	-20,431	0,160	0,070
-371,029	-108,995	0,105	0,016
-370,015	-200,000	0,004	-0,089
-369,000	-200,000	-0,018	-0,084
-367,985	599,167	0,008	0,015
-366,971	378,333	-0,066	-0,097
-365,956	46,769	0,029	0,019
-364,942	-200,000	-0,010	0,185
-363,927	380,641	-0,103	0,152
-362,912	23,696	-0,033	0,019
-361,898	52,322	0,087	0,059
-360,883	-200,000	-0,032	-0,119
-359,869	262,678	0,073	-0,091
-358,854	98,115	0,052	0,043
-357,839	-24,871	-0,072	-0,031
-356,825	800,000	0,048	0,130
-355,810	329,651	0,112	0,155
-354,796	-15,077	0,087	0,040
-353,781	-79,954	-0,049	-0,012
-352,766	-200,000	0,001	-0,011
-351,752	88,198	0,028	-0,022
-350,737	-200,000	0,017	0,087
-349,723	-200,000	-0,006	0,078
-348,708	-11,412	0,004	-0,002
-347,693	76,548	-0,077	0,058
-346,679	-200,000	0,001	0,024
-345,664	299,066	0,074	-0,098
-344,650	113,183	0,091	0,079
-343,635	-11,034	-0,014	-0,006
-342,620	220,034	0,106	0,122
-341,606	393,482	-0,049	0,073
-340,591	-29,737	0,070	-0,029
-339,577	616,157	0,039	0,071
-338,562	750,261	-0,067	-0,129
-337,548	-100,356	-0,063	-0,011
-336,533	-21,603	-0,172	0,075
-335,518	703,209	0,009	-0,017
-334,504	-48,416	-0,203	0,070
-333,489	37,047	0,063	-0,040
-332,475	-200,000	-0,022	-0,088
-331,460	110,961	0,048	0,042
-330,445	-200,000	0,001	0,091
-329,431	613,390	0,024	-0,044
-328,416	142,237	0,095	0,091
-327,402	-171,660	0,009	-0,000
-326,387	670,782	-0,034	-0,063
-325,372	0,741	-0,112	0,057
-324,358	246,638	-0,070	-0,085
-323,343	-98,917	0,053	-0,010
-322,329	-200,000	0,009	0,089
-321,314	9,886	0,096	-0,052
-320,299	301,947	-0,045	0,059
-319,285	-200,000	0,017	0,072
-318,270	-88,948	0,054	-0,011
-317,256	-99,653	-0,133	-0,024
-316,241	126,840	-0,143	-0,129
-315,226	-171,465	-0,028	0,001
-314,212	-19,736	0,082	-0,036
-313,197	-200,000	0,011	0,055
-312,183	800,000	0,014	-0,038
-311,168	223,867	-0,090	0,104
-310,153	800,000	-0,061	-0,156
-309,139	-200,000	0,009	-0,192
-308,124	-11,281	-0,104	-0,049
-307,110	800,000	0,064	0,143
-306,095	196,921	0,040	0,044
-305,080	-141,752	0,075	-0,005
-304,066	-66,242	-0,140	0,040
-303,051	800,000	0,056	0,117
-302,037	168,852	-0,050	0,051
-301,022	-200,000	0,044	-0,150
-300,008	-56,054	-0,038	-0,012
-298,993	-40,511	0,099	0,036
-297,978	-200,000	-0,003	0,070
-296,964	214,177	-0,030	-0,034
-295,949	-200,000	-0,010	-0,132
-294,935	-8,844	-0,041	-0,020
-293,920	-9,942	0,039	0,019
-292,905	61,060	-0,053	-0,037
-291,891	-6,254	0,052	0,025
-290,876	141,256	0,082	0,077
-289,862	-136,717	-0,085	0,007
-288,847	-200,000	0,001	-0,081
-287,832	800,000	0,004	0,009
-286,818	128,451	0,051	-0,046
-285,803	58,369	-0,066	0,046
-284,789	103,279	0,030	0,025
-283,774	-178,979	-0,094	0,001
-282,759	-173,252	0,111	-0,002
-281,745	-200,000	0,005	0,055
-280,730	-89,169	-0,163	-0,034
-279,716	-58,525	0,069	0,021
-278,701	94,477	-0,148	-0,120
-277,686	2,201	0,095	0,049
-276,672	82,546	-0,152	0,118
-275,657	-200,000	-0,022	-0,123
-274,643	109,713	0,062	-0,053
-273,628	452,845	0,051	0,080
-272,613	-138,640	0,011	0,001
-271,599	536,964	0,060	-0,102
-270,584	-7,003	0,055	-0,027
-269,570	-10,680	0,122	0,057
-268,555	-61,847	0,105	-0,031
-267,540	-187,745	-0,080	0,001
-266,526	-200,000	0,003	-0,013
-265,511	-200,000	-0,012	-0,044
-264,497	-3,150	-0,162	-0,080
-263,482	-200,000	0,018	-0,090
-262,467	800,000	0,053	0,141
-261,453	-51,396	0,108	0,036
-260,438	27,522	-0,121	-0,073
-259,424	-80,269	0,041	-0,010
-258,409	93,401	0,094	-0,076
-257,395	457,349	0,035	0,055
-256,380	-107,491	0,181	-0,028
-255,365	-110,057	-0,130	-0,019
-254,351	-200,000	0,027	-0,149
-253,336	767,729	-0,053	-0,104
-252,322	-28,089	-0,148	0,061
-251,307	800,000	0,010	0,026
-250,292	-200,000	0,008	0,134
-249,278	120,132	0,092	0,082
-248,263	-200,000	-0,017	-0,059
-247,249	-90,637	0,225	0,046
-246,234	-46,388	-0,282	0,098
-245,219	-62,035	-0,070	0,021
-244,205	800,000	-0,043	0,128
-243,190	-146,430	-0,035	0,002
-242,176	-200,000	0,002	0,143
-241,161	79,134	0,117	-0,089
-240,146	-10,534	0,052	-0,024
-239,132	562,664	0,075	0,130
-238,117	-200,000	0,007	-0,042
-237,103	341,704	0,027	0,038
-236,088	298,160	0,076	0,100
-235,073	79,797	-0,083	0,063
-234,059	90,903	0,051	0,041
-233,044	800,000	0,024	0,048
-232,030	271,065	-0,052	0,066
-231,015	-35,332	-0,057	-0,022
-230,000	154,944	-0,045	0,045
-228,986	563,719	-0,025	-0,043
-227,971	-101,334	0,024	0,004
-226,957	-200,000	0,013	0,100
-225,942	-200,000	-0,025	-0,107
-224,927	194,447	-0,039	-0,043
-223,913	-200,000	0,004	0,038
-222,898	-100,272	-0,117	-0,020
-221,884	-200,000	0,017	-0,130
-220,869	186,191	0,119	-0,126
-219,855	-184,424	0,058	0,001
-218,840	548,613	-0,010	0,017
-217,825	-134,509	-0,024	-0,002
-216,811	800,000	0,018	0,046
-215,796	33,488	0,053	0,033
-214,782	792,360	0,047	-0,092
-213,767	10,376	0,051	0,027
-212,752	-200,000	0,002	-0,029
-211,738	800,000	0,014	-0,030
-210,723	800,000	0,015	-0,032
-209,709	-200,000	0,023	0,134
-208,694	-143,722	-0,224	0,015
-207,679	800,000	0,007	0,019
-206,665	800,000	0,040	-0,090
-205,650	-31,804	0,090	0,036
-204,636	-48,185	0,153	0,052
-203,621	-48,535	-0,156	0,053
-202,606	702,815	0,026	-0,048
-201,592	13,636	-0,099	0,055
-200,577	238,356	0,012	0,015
-199,563	800,000	0,010	0,025
-198,548	336,148	-0,054	0,074
-197,533	362,617	0,020	0,029
-196,519	217,054	0,067	0,076
-195,504	496,503	0,033	0,054
-194,490	-12,979	0,024	-0,011
-193,475	800,000	0,028	-0,079
-192,460	-72,732	0,039	-0,010
-191,446	77,397	-0,052	0,039
-190,431	317,374	0,051	0,069
-189,417	800,000	0,044	0,100
-188,402	-200,000	0,003	0,027
-187,387	-93,902	0,044	-0,009
-186,373	340,775	-0,030	-0,042
-185,358	575,759	-0,067	-0,117
-184,344	-32,871	-0,048	-0,019
-183,329	130,302	0,044	0,040
-182,315	149,758	-0,101	0,097
-181,300	701,769	-0,015	0,028
-180,285	-200,000	-0,007	-0,081
-179,271	424,980	-0,068	-0,104
-178,256	-69,701	-0,100	0,027
-177,242	477,544	0,069	0,112
-176,227	325,196	-0,057	0,077
-175,212	70,380	0,027	0,020
-174,198	800,000	-0,080	0,174
-173,183	-200,000	0,011	-0,080
-172,169	800,000	-0,053	-0,120
-171,154	-200,000	0,003	-0,052
-170,139	54,514	0,018	0,012
-169,125	800,000	0,049	0,123
-168,110	-200,000	0,009	0,064
-167,096	-97,555	0,088	0,016
-166,081	800,000	0,031	-0,080
-165,066	-128,839	0,104	-0,010
-164,052	-200,000	-0,005	0,037
-163,037	-155,945	-0,129	0,006
-162,023	130,679	0,124	0,113
-161,008	742,721	-0,011	-0,022
-159,993	-200,000	0,006	0,031
-158,979	95,271	0,160	0,130
-157,964	41,736	-0,094	0,060
-156,950	-58,806	0,080	-0,024
-155,935	464,562	0,047	-0,074
-154,920	-200,000	0,004	-0,102
-153,906	-200,000	0,007	0,072
-152,891	150,405	-0,064	-0,062
-151,877	-200,000	-0,014	-0,068
-150,862	774,338	-0,047	-0,092
-149,847	-93,341	-0,092	0,018
-148,833	-60,994	-0,132	0,039
-147,818	-200,000	0,001	0,152
-146,804	-29,682	0,072	-0,029
-145,789	-200,000	0,048	0,189
-144,775	189,637	-0,082	0,088
-143,760	-200,000	-0,010	-0,031
-142,745	339,900	-0,045	-0,062
-141,731	-200,000	-0,015	0,086
-140,716	-200,000	-0,007	0,100
-139,702	632,962	0,014	0,025
-138,687	-200,000	0,035	-0,131
-137,672	52,300	0,084	-0,057
-136,658	800,000	-0,022	-0,058
-135,643	800,000	-0,045	-0,102
-134,629	219,151	0,136	-0,154
-133,614	200,595	0,053	0,058
-132,599	-11,148	0,085	0,040
-131,585	135,778	0,072	0,067
-130,570	-116,801	0,035	0,005
-129,556	-73,125	-0,145	0,037
-128,541	-200,000	0,002	0,071
-127,526	-66,393	0,021	0,006
-126,512	73,101	0,112	-0,083
-125,497	-129,142	-0,081	0,008
-124,483	-29,985	0,060	-0,024
-123,468	-200,000	-0,001	0,011
-122,453	116,576	-0,093	-0,081
-121,439	-155,469	0,017	-0,001
-120,424	81,434	-0,056	0,043
-119,410	549,150	0,008	0,014
-118,395	-88,888	0,051	-0,011
-117,380	-200,000	0,051	-0,166
-116,366	-120,934	0,088	-0,010
-115,351	-200,000	0,014	0,055
-114,337	800,000	-0,075	-0,172
-113,322	-26,657	0,045	0,019
-112,307	70,558	-0,057	0,042
-111,293	-200,000	0,012	-0,060
-110,278	-100,097	-0,050	0,009
-109,264	695,637	0,067	0,125
-108,249	-40,828	-0,085	-0,031
-107,234	-1,358	0,016	-0,008
-106,220	-7,935	0,032	0,015
-105,205	-200,000	0,008	-0,046
-104,191	190,971	0,092	0,098
-103,176	44,746	-0,068	-0,045
-102,162	300,325	0,044	0,057
-101,147	800,000	-0,061	-0,153
-100,132	281,285	-0,013	-0,017
-99,118	218,153	0,069	0,079
-98,103	-57,893	-0,078	0,024
-97,089	-102,000	0,063	-0,011
-96,074	645,631	-0,021	-0,038
-95,059	305,823	0,039	-0,052
-94,045	601,795	0,034	0,060
-93,030	26,694	0,092	-0,055
-92,016	800,000	-0,050	0,099
-91,001	339,148	0,026	0,036
-89,986	137,160	-0,073	0,068
-88,972	72,933	0,100	-0,074
-87,957	-72,372	0,058	-0,015
-86,943	39,821	-0,130	-0,083
-85,928	-109,446	0,063	-0,009
-84,913	-39,261	-0,114	-0,042
-83,899	800,000	0,043	-0,097
-82,884	718,818	0,030	0,056
-81,870	-136,753	0,097	0,008
-80,855	-200,000	0,024	0,140
-79,840	-200,000	-0,042	0,196
-78,826	-200,000	0,007	0,032
-77,811	-90,837	0,093	0,019
-76,797	411,016	0,040	0,060
-75,782	-18,618	0,045	0,020
-74,767	800,000	-0,054	0,111
-73,753	304,557	-0,121	0,159
-72,738	-29,254	0,078	-0,031
-71,724	-200,000	-0,008	-0,072
-70,709	-28,149	-0,061	0,025
-69,694	-132,985	0,128	0,011
-68,680	-137,217	0,058	0,005
-67,665	104,603	0,068	0,057
-66,651	213,036	0,069	-0,077
-65,636	329,206	0,024	-0,032
-64,622	97,713	0,063	0,051
-63,607	303,983	-0,035	-0,046
-62,592	-54,947	-0,075	0,024
-61,578	88,065	0,105	0,083
-60,563	68,956	-0,064	-0,047
-59,549	-200,000	0,004	0,056
-58,534	-42,378	-1,584	-0,569
-57,519	350,547	-1,548	-2,174
-56,505	-200,000	-0,682	-4,729
-55,490	199,951	0,878	0,956
-54,476	800,000	4,940	11,287
-53,461	-200,000	18,553	296,044
-52,446	800,000	730,753	2254,086
-51,432	558,807	1646,969	2825,645
-50,417	78,937	1667,614	1262,845
-49,403	22,490	1541,023	890,188
-48,388	16,451	1464,031	816,422
-47,373	17,790	1454,124	817,321
-46,359	17,054	1444,415	808,309
-45,344	14,699	1439,900	794,490
-44,330	14,610	1437,797	792,873
-43,315	14,624	1436,035	791,935
-42,300	14,620	1434,416	790,990
-41,286	14,661	1433,437	790,614
-40,271	14,636	1431,986	789,665
-39,257	14,614	1430,903	788,930
-38,242	14,675	1429,492	788,413
-37,227	14,708	1428,216	787,835
-36,213	14,678	1426,946	786,960
-35,198	14,684	1425,787	786,320
-34,184	14,689	1424,869	785,803
-33,169	14,610	1423,664	784,734
-32,154	14,718	1422,420	784,527
-31,140	14,672	1421,275	783,649
-30,125	14,712	1420,084	783,147
-29,111	14,704	1418,982	782,472
-28,096	14,677	1417,734	781,626
-27,082	14,641	1416,743	780,882
-26,067	14,602	1415,697	780,089
-25,052	14,600	1414,582	779,436
-24,038	14,549	1413,852	778,759
-23,023	14,564	1412,809	778,225
-22,009	14,574	1411,727	777,648
-20,994	14,539	1410,859	776,974
-19,979	14,503	1409,913	776,253
-18,965	14,539	1408,757	775,755
-17,950	14,504	1407,965	775,123
-16,936	14,512	1407,047	774,623
-15,921	14,477	1405,933	773,819
-14,906	14,521	1404,835	773,390
-13,892	14,545	1403,954	772,985
-12,877	14,504	1403,227	772,364
-11,863	14,493	1402,221	771,728
-10,848	14,551	1401,459	771,544
-9,833	14,467	1400,285	770,481
-8,819	14,397	1399,674	769,787
-7,804	14,410	1398,682	769,272
-6,790	14,410	1397,741	768,721
-5,775	14,429	1396,549	768,123
-4,760	14,367	1395,795	767,390
-3,746	14,434	1394,726	767,083
-2,731	14,358	1394,309	766,474
-1,717	14,410	1393,304	766,131
-0,702	14,386	1391,423	764,955
0,313	18,257	1309,684	737,929
1,327	34,647	705,902	435,681
2,342	53,239	124,318	84,148
3,356	3,317	16,451	8,447
4,371	1,778	3,243	1,648
5,386	-69,923	0,479	0,128
6,400	-200,000	0,007	0,147
7,415	107,587	-0,298	-0,251
8,429	-63,041	-0,272	-0,079
9,444	267,826	-0,268	-0,332
10,459	132,466	-0,239	-0,218
11,473	1,378	-0,356	-0,180
12,488	-87,346	-0,273	-0,058
13,502	52,711	-0,314	-0,212
14,517	14,255	-0,456	-0,251
15,531	126,143	-0,308	-0,276
16,546	12,366	-0,394	-0,214
17,561	126,804	-0,373	-0,334
18,575	284,870	-0,209	-0,266
19,590	103,043	-0,255	-0,211
20,604	117,851	-0,150	-0,131
21,619	198,865	-0,372	-0,403
22,634	-5,145	-0,536	-0,259
23,648	115,072	-0,443	-0,382
24,663	27,034	-0,509	-0,301
25,677	53,925	-0,423	-0,286
26,692	-68,523	-0,452	-0,123
27,707	40,708	-0,407	-0,259
28,721	152,553	-0,293	-0,282
29,736	81,539	-0,457	-0,348
30,750	18,995	-0,396	-0,223
31,765	54,051	-0,513	-0,348
32,780	104,930	-0,426	-0,355
33,794	88,983	-0,364	-0,286
34,809	-0,092	-0,344	-0,172
35,823	12,060	-0,401	-0,217
36,838	115,983	-0,331	-0,286
37,853	-33,449	-0,430	-0,167
38,867	-20,931	-0,305	-0,131
39,882	7,097	-0,324	-0,170
40,896	184,977	-0,255	-0,267
41,911	-7,734	-0,412	-0,196
42,926	107,936	-0,372	-0,312
43,940	169,322	-0,328	-0,330
44,955	197,924	-0,316	-0,341
45,969	-18,552	-0,403	-0,176
46,984	242,284	-0,288	-0,340
47,999	-40,032	-0,440	-0,161
49,013	-78,918	-0,316	-0,075
50,028	-1,096	-0,448	-0,223
51,042	49,138	-0,302	-0,200
52,057	89,169	-0,351	-0,275
53,071	354,983	-0,236	-0,331
54,086	39,968	-0,316	-0,200
55,101	-14,378	-0,375	-0,169
56,115	140,524	-0,362	-0,337
57,130	61,436	-0,284	-0,198
58,144	390,183	-0,263	-0,385
59,159	20,496	-0,361	-0,205
60,174	132,941	-0,323	-0,293
61,188	52,396	-0,409	-0,274
62,203	-21,419	-0,445	-0,190
63,217	-0,599	-0,241	-0,120
64,232	-78,936	-0,336	-0,080
65,247	120,816	-0,241	-0,211
66,261	47,363	-0,413	-0,270
67,276	146,993	-0,289	-0,274
68,290	262,149	-0,203	-0,248
69,305	-79,544	-0,290	-0,068
70,320	38,889	-0,261	-0,164
71,334	91,718	-0,249	-0,197
72,349	-13,578	-0,377	-0,171
73,363	250,647	-0,247	-0,296
74,378	9,050	-0,529	-0,280
75,393	-7,853	-0,352	-0,167
76,407	341,950	-0,228	-0,315
77,422	121,313	-0,166	-0,145
78,436	-134,184	-0,264	-0,023
79,451	-43,311	-0,319	-0,113
80,466	-127,679	-0,363	-0,036
81,480	284,730	-0,205	-0,260
82,495	98,650	-0,243	-0,197
83,509	31,179	-0,244	-0,147
84,524	65,660	-0,257	-0,182
85,539	6,494	-0,311	-0,162
86,553	69,149	-0,368	-0,266
87,568	32,642	-0,387	-0,235
88,582	20,733	-0,252	-0,143
89,597	34,325	-0,290	-0,177
90,611	-61,245	-0,364	-0,107
91,626	137,329	-0,265	-0,244
92,641	438,642	-0,095	-0,145
93,655	-19,701	-0,262	-0,113
94,670	594,010	-0,174	-0,304
95,684	-61,454	-0,291	-0,085
96,699	46,269	-0,336	-0,218
97,714	-44,338	-0,243	-0,085
98,728	107,120	-0,336	-0,280
99,743	67,156	-0,318	-0,227
100,757	-84,564	-0,275	-0,060
101,772	103,510	-0,239	-0,197
102,787	26,031	-0,382	-0,223
103,801	108,097	-0,309	-0,259
104,816	406,828	-0,260	-0,387
105,830	216,311	-0,257	-0,287
106,845	85,999	-0,252	-0,194
107,860	22,015	-0,172	-0,098
108,874	74,842	-0,190	-0,140
109,889	-11,100	-0,289	-0,133
110,903	37,381	-0,276	-0,171
111,918	794,484	-0,156	-0,302
112,933	103,337	-0,137	-0,112
113,947	-160,286	-0,321	-0,012
114,962	37,860	-0,293	-0,182
115,976	-64,836	-0,315	-0,089
116,991	-43,126	-0,310	-0,109
118,006	70,481	-0,221	-0,160
119,020	-72,521	-0,241	-0,062
120,035	36,858	-0,254	-0,157
121,049	5,339	-0,298	-0,154
122,064	166,398	-0,249	-0,247
123,079	78,249	-0,205	-0,153
124,093	76,242	-0,256	-0,190
125,108	-124,523	-0,226	-0,024
126,122	-160,733	-0,127	0,005
127,137	27,358	-0,300	-0,176
128,151	485,469	-0,114	-0,182
129,166	-75,263	-0,223	-0,055
130,181	176,718	-0,197	-0,201
131,195	-15,760	-0,375	-0,167
132,210	195,725	-0,184	-0,196
133,224	59,846	-0,277	-0,191
134,239	164,204	-0,170	-0,168
135,254	90,910	-0,288	-0,226
136,268	141,843	-0,294	-0,273
137,283	49,843	-0,264	-0,174
138,297	134,534	-0,148	-0,134
139,312	73,031	-0,255	-0,186
140,327	-70,302	-0,355	-0,093
141,341	139,605	-0,288	-0,265
142,356	45,897	-0,136	-0,088
143,370	73,276	-0,211	-0,154
144,385	205,866	-0,193	-0,210
145,400	23,255	-0,241	-0,138
146,414	583,088	-0,209	-0,360
147,429	146,997	-0,218	-0,205
148,443	139,907	-0,259	-0,238
149,458	147,629	-0,263	-0,248
150,473	351,945	-0,152	-0,211
151,487	-64,896	-0,212	-0,059
152,502	274,000	-0,163	-0,201
153,516	56,418	-0,311	-0,211
154,531	39,174	-0,328	-0,204
155,546	217,551	-0,147	-0,164
156,560	-57,607	-0,218	-0,066
157,575	334,648	-0,170	-0,230
158,589	189,954	-0,237	-0,249
159,604	16,393	-0,358	-0,197
160,619	28,390	-0,326	-0,192
161,633	40,175	-0,211	-0,132
162,648	34,331	-0,367	-0,223
163,662	-90,924	-0,146	-0,029
164,677	54,806	-0,152	-0,102
165,692	65,805	-0,312	-0,220
166,706	230,293	-0,218	-0,249
167,721	526,402	-0,235	-0,388
168,735	287,261	-0,238	-0,300
169,750	-113,777	-0,196	-0,026
170,764	-25,340	-0,322	-0,132
171,779	79,437	-0,183	-0,137
172,794	14,959	-0,139	-0,076
173,808	80,720	-0,208	-0,156
174,823	213,753	-0,172	-0,190
175,837	44,584	-0,312	-0,199
176,852	56,903	-0,198	-0,135
177,867	-46,852	-0,263	-0,089
178,881	-116,087	-0,292	0,037
179,896	64,219	-0,248	-0,174
180,910	-155,340	-0,236	-0,011
181,925	3,997	-0,213	-0,108
182,940	0,799	-0,197	-0,098
183,954	43,690	-0,262	-0,167
184,969	-90,535	-0,274	-0,055
185,983	-200,000	-0,052	-0,179
186,998	40,248	-0,278	-0,174
188,013	206,091	-0,203	-0,220
189,027	598,063	-0,200	-0,347
190,042	214,496	-0,189	-0,209
191,056	118,917	-0,259	-0,222
192,071	-122,929	-0,113	0,013
193,086	-102,929	-0,091	0,015
194,100	15,016	-0,311	-0,169
195,115	355,724	-0,155	-0,215
196,129	-49,225	-0,125	-0,041
197,144	72,544	-0,156	-0,113
198,159	121,981	-0,226	-0,196
199,173	210,557	-0,266	-0,291
200,188	-17,807	-0,179	-0,078
201,202	63,894	-0,121	-0,085
202,217	791,182	-0,040	-0,077
203,232	683,515	-0,123	-0,224
204,246	800,000	-0,088	-0,214
205,261	-31,066	-0,305	-0,119
206,275	375,462	-0,162	-0,230
207,290	82,193	-0,108	-0,081
208,304	664,407	-0,064	-0,115
209,319	-200,000	0,015	-0,164
210,334	5,526	-0,296	-0,151
211,348	624,676	-0,132	-0,232
212,363	800,000	-0,095	-0,226
213,377	193,704	-0,165	-0,173
214,392	-64,319	-0,173	-0,048
215,407	800,000	-0,077	-0,233
216,421	68,771	-0,253	-0,180
217,436	674,356	-0,155	-0,281
218,450	-33,024	-0,321	-0,123
219,465	76,159	-0,256	-0,188
220,480	511,300	-0,153	-0,248
221,494	62,270	-0,267	-0,185
222,509	469,074	-0,114	-0,179
223,523	8,338	-0,156	-0,081
224,538	-51,995	-0,229	-0,074
225,553	-200,000	-0,026	-0,185
226,567	18,834	-0,378	-0,209
227,582	9,451	-0,252	-0,132
228,596	132,903	-0,150	-0,135
229,611	-54,209	-0,211	-0,066
230,626	86,277	-0,178	-0,136
231,640	84,734	-0,150	-0,114
232,655	-90,782	-0,195	-0,039
233,669	180,527	-0,151	-0,153
234,684	299,427	-0,140	-0,180
235,699	15,572	-0,153	-0,083
236,713	61,075	-0,114	-0,078
237,728	-138,588	-0,206	-0,015
238,742	-17,440	-0,269	-0,117
239,757	747,208	-0,136	-0,255
240,772	21,135	-0,140	-0,079
241,786	38,168	-0,111	-0,069
242,801	213,330	-0,157	-0,172
243,815	516,092	0,045	-0,073
244,830	91,116	-0,149	-0,116
245,844	18,942	-0,224	-0,124
246,859	367,818	-0,171	-0,240
247,874	-86,283	-0,172	-0,036
248,888	234,628	-0,113	-0,129
249,903	135,514	-0,200	-0,181
250,917	168,419	-0,126	-0,125
251,932	115,138	-0,163	-0,138
252,947	126,387	0,039	-0,034
253,961	800,000	-0,132	-0,283
254,976	204,344	-0,124	-0,133
255,990	44,126	-0,235	-0,149
257,005	-200,000	-0,074	-0,288
258,020	-200,000	-0,068	-0,212
259,034	163,566	-0,134	-0,131
260,049	160,044	-0,193	-0,187
261,063	-45,058	-0,151	-0,052
262,078	201,062	-0,139	-0,148
263,093	301,601	-0,186	-0,239
264,107	304,812	-0,136	-0,175
265,122	-21,235	-0,234	-0,099
266,136	321,452	-0,190	-0,250
267,151	-1,570	-0,175	-0,085
268,166	98,736	-0,126	-0,101
269,180	-71,334	-0,198	-0,051
270,195	88,259	-0,356	-0,273
271,209	179,913	-0,198	-0,200
272,224	305,818	-0,086	-0,111
273,239	132,484	-0,170	-0,151
274,253	-61,409	-0,184	-0,053
275,268	276,739	-0,178	-0,218
276,282	800,000	-0,095	-0,244
277,297	122,699	-0,269	-0,232
278,312	-143,203	-0,055	-0,004
279,326	117,057	-0,074	-0,063
280,341	75,933	-0,115	-0,084
281,355	108,016	-0,189	-0,155
282,370	531,868	-0,131	-0,215
283,384	-43,923	-0,263	-0,091
284,399	-57,159	-0,157	-0,048
285,414	-200,000	-0,015	-0,093
286,428	423,899	-0,155	-0,231
287,443	-65,088	-0,170	-0,047
288,457	8,394	-0,220	-0,114
289,472	329,872	-0,146	-0,194
290,487	113,086	-0,140	-0,117
291,501	436,658	-0,146	-0,220
292,516	-200,000	0,007	-0,108
293,530	625,431	-0,167	-0,291
294,545	520,186	-0,062	0,101
295,560	151,164	-0,144	-0,135
296,574	-55,821	-0,207	0,063
297,589	-200,000	-0,027	-0,154
298,603	245,255	-0,066	-0,077
299,618	134,515	-0,196	-0,175
300,633	-135,779	-0,143	-0,011
301,647	100,731	-0,139	-0,111
302,662	270,661	-0,041	-0,049
303,676	22,735	-0,173	0,097
304,691	-12,099	-0,181	-0,082
305,706	-200,000	-0,060	-0,260
306,720	548,773	-0,074	-0,122
307,735	-119,684	-0,173	0,020
308,749	120,536	-0,105	-0,090
309,764	53,444	-0,099	-0,066
310,779	270,778	-0,124	-0,150
311,793	-200,000	0,006	-0,101
312,808	800,000	-0,060	-0,134
313,822	-31,036	-0,193	-0,075
314,837	800,000	-0,011	-0,027
315,852	-66,922	-0,144	0,039
316,866	-35,662	-0,157	-0,058
317,881	-88,439	-0,082	-0,017
318,895	800,000	-0,060	-0,131
319,910	169,417	-0,171	-0,168
320,925	25,716	-0,112	-0,064
321,939	30,831	-0,193	-0,113
322,954	447,370	-0,061	-0,092
323,968	-34,310	-0,209	-0,078
324,983	-127,310	-0,127	0,013
325,997	-145,234	-0,178	0,011
327,012	-96,600	-0,191	-0,034
328,027	495,827	-0,099	-0,157
329,041	200,655	-0,180	-0,191
330,056	58,336	-0,069	-0,046
331,070	-152,167	-0,066	0,003
332,085	-98,187	-0,071	0,012
333,100	473,461	-0,067	-0,104
334,114	-94,441	-0,089	-0,017
335,129	-113,232	-0,184	0,025
336,143	171,392	-0,168	-0,166
337,158	800,000	-0,047	-0,131
338,173	52,893	-0,114	-0,075
339,187	185,255	-0,082	-0,084
340,202	-32,295	-0,154	-0,059
341,216	-137,913	-0,289	-0,022
342,231	13,726	-0,141	0,075
343,246	43,392	-0,134	-0,084
344,260	-114,177	-0,065	0,009
345,275	270,670	-0,056	-0,068
346,289	-115,357	-0,084	-0,011
347,304	584,449	-0,072	-0,122
348,319	575,273	-0,087	-0,146
349,333	366,668	-0,068	-0,095
350,348	388,064	-0,041	-0,058
351,362	-0,584	-0,129	-0,063
352,377	-12,982	-0,154	-0,068
353,392	-155,583	-0,157	-0,007
354,406	-200,000	-0,037	-0,183
355,421	210,500	1316,429	1420,345
356,435	162,053	1477,361	1420,841
