DTS Sentinel unit serial number:	SN410029Multiplexer serial number:	ORYXHardware model number:	OX2-SRSoftware version number:	ORYX F/W v4,00 Oryx Data Collector v3.7.2.0data status	okinstallation	B3 Nyhavnadifferential loss correction	single-endedforward channel	channel 1reverse channel	N/Adate	2023/12/04time	18:12:30forward acquisition time	300,00reverse acquisition time	0,00gamma	499,1914k internal	0,3200k external	0,3200temperature offset calibration	1,0000default loss term (dB/km)	0,3820temperature slope calibration	1,0000multiplexer offset coefficient	1,0000multiplexer slope coefficient	1,0000fibre end	0,00T internal ref (°C)	15,00T ext. ref 1 (°C)	-0,16T ext. ref 2 (°C)	-0,17length (m)	temperature (°C)	Stokes	anti-Stokes-744,400	800,000	-0,169	-0,346
-743,385	-200,000	0,082	0,365
-742,371	16,297	-0,307	-0,176
-741,356	-200,000	0,048	0,363
-740,342	23,000	-0,206	-0,123
-739,327	527,923	0,118	0,204
-738,312	169,836	-0,293	-0,304
-737,298	800,000	0,082	0,260
-736,283	154,938	-0,219	-0,220
-735,269	-200,000	0,089	0,291
-734,254	231,773	-0,233	-0,278
-733,239	96,931	-0,145	0,121
-732,225	800,000	-0,114	-0,288
-731,210	800,000	0,052	0,153
-730,196	-129,169	-0,046	0,005
-729,181	-102,484	-0,129	0,022
-728,167	800,000	-0,037	0,110
-727,152	-132,080	0,188	-0,018
-726,137	-97,003	-0,108	-0,020
-725,123	-132,453	-0,139	0,013
-724,108	-3,251	-0,173	-0,087
-723,094	-44,338	-0,106	-0,038
-722,079	-200,000	0,030	-0,129
-721,064	-178,716	-0,091	0,001
-720,050	-200,000	0,029	-0,102
-719,035	76,072	-0,032	-0,025
-718,021	-61,218	-0,046	-0,014
-717,006	-143,898	-0,337	-0,023
-715,991	-80,879	-0,235	-0,056
-714,977	800,000	0,006	0,015
-713,962	-152,126	0,132	-0,007
-712,948	800,000	-0,023	-0,070
-711,933	-200,000	-0,028	0,105
-710,918	344,119	0,026	-0,037
-709,904	800,000	0,016	-0,044
-708,889	619,001	-0,026	-0,047
-707,875	-200,000	-0,007	-0,114
-706,860	-200,000	0,013	0,059
-705,845	-200,000	0,013	0,150
-704,831	-8,994	-0,037	0,018
-703,816	475,492	0,049	0,081
-702,802	-200,000	0,005	-0,029
-701,787	156,026	0,049	-0,050
-700,772	-90,707	-0,037	-0,008
-699,758	-200,000	0,040	-0,140
-698,743	91,270	-0,087	0,071
-697,729	-125,302	-0,149	-0,016
-696,714	-200,000	0,027	0,207
-695,699	-200,000	-0,002	-0,075
-694,685	-200,000	-0,031	-0,147
-693,670	-35,139	-0,173	-0,068
-692,656	-200,000	-0,024	-0,088
-691,641	-148,334	0,115	0,007
-690,627	-200,000	0,015	0,094
-689,612	-108,977	0,090	0,014
-688,597	36,932	-0,037	-0,023
-687,583	18,794	-0,149	0,086
-686,568	-46,220	0,087	-0,031
-685,554	514,623	-0,027	-0,046
-684,539	-200,000	0,027	-0,122
-683,524	-159,696	0,067	-0,003
-682,510	-97,369	0,038	-0,007
-681,495	154,010	0,053	-0,053
-680,481	-200,000	0,007	0,113
-679,466	142,642	-0,155	-0,149
-678,451	157,541	0,108	-0,108
-677,437	800,000	0,034	-0,108
-676,422	76,410	0,006	0,005
-675,408	374,268	0,091	-0,134
-674,393	-69,129	0,037	-0,010
-673,378	-37,261	-0,157	0,060
-672,364	800,000	-0,031	-0,088
-671,349	-200,000	0,021	0,113
-670,335	119,602	0,077	0,069
-669,320	-13,753	0,075	-0,035
-668,305	-200,000	-0,014	0,117
-667,291	800,000	-0,067	-0,170
-666,276	459,184	0,046	-0,074
-665,262	-133,684	0,101	-0,009
-664,247	460,884	-0,028	-0,045
-663,232	610,050	-0,042	-0,077
-662,218	594,182	-0,047	-0,084
-661,203	558,462	0,045	-0,079
-660,189	-200,000	0,008	-0,029
-659,174	-79,893	-0,037	-0,009
-658,159	800,000	0,030	0,064
-657,145	295,304	-0,023	-0,031
-656,130	-69,880	0,175	-0,048
-655,116	229,106	-0,043	0,051
-654,101	-50,024	0,025	-0,009
-653,086	800,000	0,036	-0,106
-652,072	-16,701	-0,137	-0,063
-651,057	-130,238	-0,136	-0,013
-650,043	800,000	-0,029	-0,060
-649,028	-124,846	-0,110	0,012
-648,014	-200,000	0,001	-0,033
-646,999	800,000	-0,020	0,041
-645,984	-83,681	-0,095	0,022
-644,970	-92,454	0,071	0,014
-643,955	37,323	-0,134	-0,086
-642,941	400,451	-0,073	-0,112
-641,926	-200,000	0,006	-0,066
-640,911	-200,000	-0,015	0,138
-639,897	800,000	-0,019	-0,045
-638,882	344,195	0,053	0,075
-637,868	430,446	-0,024	0,037
-636,853	800,000	0,039	-0,119
-635,838	-200,000	0,001	-0,120
-634,824	109,667	-0,015	-0,013
-633,809	262,808	0,088	0,111
-632,795	-0,427	-0,141	0,072
-631,780	-120,443	0,178	-0,022
-630,765	-96,999	-0,068	-0,013
-629,751	-91,965	-0,023	0,005
-628,736	166,147	-0,090	-0,093
-627,722	-200,000	-0,002	-0,136
-626,707	-200,000	0,021	0,073
-625,692	-27,383	0,057	-0,024
-624,678	291,615	0,069	-0,091
-623,663	406,183	0,037	-0,057
-622,649	133,494	-0,065	0,061
-621,634	22,262	-0,108	-0,064
-620,619	-107,495	-0,088	-0,014
-619,605	-200,000	0,045	0,254
-618,590	-86,116	-0,171	0,038
-617,576	799,580	-0,032	-0,065
-616,561	49,437	0,055	-0,037
-615,546	431,130	-0,060	-0,094
-614,532	800,000	-0,079	-0,218
-613,517	-33,438	-0,032	0,013
-612,503	800,000	0,024	-0,054
-611,488	-200,000	-0,023	0,099
-610,474	-200,000	0,002	-0,063
-609,459	-200,000	-0,005	0,108
-608,444	24,277	0,127	0,076
-607,430	226,058	-0,049	-0,058
-606,415	-42,369	-0,167	0,061
-605,401	-200,000	-0,004	0,094
-604,386	403,966	-0,089	-0,136
-603,371	182,953	0,064	0,068
-602,357	98,057	-0,074	0,062
-601,342	800,000	-0,056	-0,154
-600,328	37,456	-0,126	0,081
-599,313	357,875	0,065	-0,094
-598,298	-98,550	-0,045	0,008
-597,284	-200,000	-0,013	0,064
-596,269	55,388	-0,085	0,060
-595,255	800,000	-0,032	0,098
-594,240	800,000	-0,021	0,063
-593,225	-38,290	0,142	0,054
-592,211	89,006	-0,113	-0,091
-591,196	58,722	-0,066	-0,047
-590,182	55,652	-0,057	-0,040
-589,167	-58,662	0,052	0,016
-588,152	30,885	0,147	0,091
-587,138	-90,080	0,113	-0,024
-586,123	138,202	-0,084	-0,079
-585,109	-27,036	-0,103	-0,043
-584,094	-109,140	-0,099	0,015
-583,079	104,810	-0,029	-0,025
-582,065	-48,013	-0,139	-0,048
-581,050	-200,000	-0,000	-0,108
-580,036	-35,255	-0,066	-0,026
-579,021	543,615	0,040	-0,069
-578,006	391,948	-0,104	-0,157
-576,992	702,686	0,029	0,055
-575,977	460,865	-0,005	-0,007
-574,963	134,085	0,057	0,053
-573,948	-200,000	-0,015	0,047
-572,934	-200,000	0,007	0,052
-571,919	786,816	-0,032	-0,063
-570,904	301,148	-0,089	0,119
-569,890	622,531	-0,018	-0,033
-568,875	800,000	0,039	0,092
-567,861	-200,000	-0,007	0,032
-566,846	782,409	0,073	0,145
-565,831	-200,000	-0,002	0,115
-564,817	-146,840	-0,081	0,005
-563,802	-112,746	-0,111	0,016
-562,788	-69,766	0,177	-0,048
-561,773	91,416	-0,126	-0,102
-560,758	269,983	-0,035	0,044
-559,744	107,300	0,075	0,064
-558,729	-200,000	0,002	0,165
-557,715	291,306	-0,023	0,030
-556,700	-14,089	0,155	0,072
-555,685	2,819	-0,032	0,017
-554,671	187,845	-0,126	-0,136
-553,656	-200,000	-0,047	0,000
-552,642	-155,052	0,122	0,006
-551,627	-7,397	0,053	-0,026
-550,612	-175,955	0,025	-0,000
-549,598	-115,403	0,084	0,011
-548,583	595,241	-0,059	-0,106
-547,569	-200,000	0,005	0,022
-546,554	-93,145	0,222	0,044
-545,539	2,305	0,067	0,035
-544,525	800,000	0,035	-0,092
-543,510	-147,789	-0,066	-0,004
-542,496	-106,769	-0,129	0,020
-541,481	-200,000	0,028	-0,098
-540,466	-200,000	-0,006	-0,132
-539,452	737,401	0,063	-0,123
-538,437	512,192	-0,060	0,101
-537,423	800,000	0,014	-0,044
-536,408	-200,000	0,023	-0,126
-535,393	734,033	-0,017	0,033
-534,379	69,284	-0,075	0,055
-533,364	-200,000	0,008	0,152
-532,350	476,252	0,028	-0,046
-531,335	373,221	0,106	0,156
-530,321	-54,819	-0,065	-0,021
-529,306	-200,000	0,013	-0,043
-528,291	-102,927	-0,112	-0,019
-527,277	-79,254	0,112	-0,027
-526,262	800,000	0,025	-0,076
-525,248	800,000	0,080	0,165
-524,233	800,000	-0,023	0,063
-523,218	-108,312	0,165	0,025
-522,204	-34,538	-0,083	0,032
-521,189	-26,034	0,027	-0,011
-520,175	800,000	0,020	0,047
-519,160	29,038	0,105	0,064
-518,145	800,000	0,045	0,098
-517,131	588,040	0,089	0,159
-516,116	-200,000	-0,009	-0,046
-515,102	313,782	-0,024	-0,033
-514,087	-63,099	-0,170	-0,050
-513,072	439,471	-0,019	0,029
-512,058	121,830	-0,110	0,099
-511,043	-82,906	-0,040	0,009
-510,029	-5,858	-0,089	-0,044
-509,014	-4,971	0,149	-0,074
-507,999	-200,000	-0,003	-0,033
-506,985	800,000	0,026	0,061
-505,970	-172,249	-0,042	0,001
-504,956	330,703	-0,075	0,104
-503,941	3,485	0,120	0,063
-502,926	427,753	0,074	0,116
-501,912	778,567	0,022	0,043
-500,897	-200,000	0,009	0,168
-499,883	-118,550	0,039	0,005
-498,868	-43,176	-0,168	-0,061
-497,853	17,523	0,039	0,022
-496,839	185,583	-0,053	-0,057
-495,824	-121,807	0,108	-0,013
-494,810	235,634	0,080	-0,095
-493,795	252,345	0,120	0,148
-492,781	182,454	0,053	0,056
-491,766	217,619	-0,047	-0,054
-490,751	800,000	0,053	-0,169
-489,737	679,517	-0,055	-0,104
-488,722	-137,493	0,060	-0,005
-487,708	800,000	0,041	0,107
-486,693	-30,257	-0,030	-0,012
-485,678	119,098	0,041	-0,037
-484,664	69,256	0,039	-0,029
-483,649	-5,469	-0,106	-0,052
-482,635	800,000	-0,060	-0,124
-481,620	-130,429	-0,037	0,004
-480,605	394,568	0,051	0,077
-479,591	800,000	0,026	0,077
-478,576	-200,000	-0,005	0,056
-477,562	35,414	-0,085	0,053
-476,547	-200,000	0,004	-0,079
-475,532	311,208	0,033	-0,045
-474,518	-91,859	0,072	-0,015
-473,503	-42,039	0,115	0,042
-472,489	227,471	0,163	0,191
-471,474	800,000	-0,061	0,159
-470,459	58,102	-0,089	0,062
-469,445	150,468	-0,058	-0,057
-468,430	-122,151	0,101	0,012
-467,416	355,390	0,014	-0,020
-466,401	43,254	0,087	0,057
-465,386	-113,531	0,065	-0,009
-464,372	23,832	0,100	0,059
-463,357	-87,242	-0,130	0,028
-462,343	52,015	-0,087	-0,060
-461,328	50,855	0,140	-0,095
-460,313	199,442	-0,111	-0,122
-459,299	6,245	0,062	-0,033
-458,284	-200,000	-0,046	-0,154
-457,270	17,139	-0,046	0,026
-456,255	-119,688	0,129	-0,016
-455,241	58,451	-0,027	-0,019
-454,226	-58,000	0,071	-0,022
-453,211	348,796	0,021	-0,030
-452,197	-200,000	-0,027	0,089
-451,182	235,705	-0,086	-0,102
-450,168	-16,070	-0,053	-0,024
-449,153	-71,857	-0,034	0,009
-448,138	800,000	-0,065	-0,163
-447,124	-171,933	0,058	-0,001
-446,109	-67,165	-0,113	-0,032
-445,095	-188,445	0,164	-0,001
-444,080	-200,000	0,049	0,226
-443,065	-200,000	-0,001	0,070
-442,051	-5,850	-0,098	-0,048
-441,036	-200,000	0,018	0,068
-440,022	44,823	0,141	-0,093
-439,007	-200,000	-0,014	0,045
-437,992	118,931	0,059	0,053
-436,978	-68,339	0,112	0,031
-435,963	-200,000	0,007	0,058
-434,949	87,622	-0,028	-0,023
-433,934	477,723	-0,059	-0,097
-432,919	-200,000	0,005	-0,060
-431,905	-144,800	-0,054	0,004
-430,890	-48,531	-0,024	0,008
-429,876	-149,357	0,143	-0,008
-428,861	-200,000	0,033	0,111
-427,846	-4,893	-0,104	0,051
-426,832	406,940	-0,034	-0,052
-425,817	212,866	-0,032	0,036
-424,803	-200,000	0,018	-0,068
-423,788	193,438	0,023	0,025
-422,773	-200,000	0,001	-0,088
-421,759	313,798	-0,049	0,066
-420,744	296,033	-0,032	0,042
-419,730	446,935	0,037	-0,059
-418,715	189,226	-0,053	-0,057
-417,701	-200,000	0,067	0,237
-416,686	800,000	-0,020	0,045
-415,671	-140,760	0,097	-0,007
-414,657	87,648	-0,092	0,073
-413,642	-200,000	0,006	-0,029
-412,628	-51,730	-0,129	-0,043
-411,613	-3,492	0,143	-0,071
-410,598	-100,095	-0,068	-0,012
-409,584	70,790	0,046	-0,034
-408,569	-158,451	-0,040	-0,002
-407,555	43,944	0,170	0,112
-406,540	-117,226	0,105	-0,014
-405,525	-93,961	-0,175	0,034
-404,511	-200,000	0,007	0,170
-403,496	633,722	-0,081	-0,147
-402,482	28,374	-0,030	0,018
-401,467	448,187	0,089	0,141
-400,452	800,000	0,032	-0,095
-399,438	364,025	0,015	0,022
-398,423	10,058	0,115	0,063
-397,409	247,323	-0,092	-0,111
-396,394	-48,484	0,026	0,009
-395,379	101,172	0,027	-0,022
-394,365	48,276	0,047	-0,032
-393,350	700,701	-0,046	0,087
-392,336	-106,743	-0,047	-0,007
-391,321	800,000	0,014	0,031
-390,306	800,000	-0,013	0,033
-389,292	-66,465	-0,091	-0,026
-388,277	5,171	-0,127	-0,067
-387,263	-25,326	0,067	-0,028
-386,248	-98,574	-0,099	0,018
-385,233	-200,000	-0,038	0,127
-384,219	20,991	0,060	-0,035
-383,204	120,221	0,030	-0,026
-382,190	425,362	-0,136	-0,210
-381,175	800,000	0,020	0,054
-380,160	-93,118	-0,025	0,005
-379,146	-200,000	-0,012	0,198
-378,131	-73,151	0,052	0,013
-377,117	635,592	-0,045	-0,083
-376,102	395,546	0,048	-0,072
-375,088	47,154	-0,061	0,041
-374,073	-14,415	0,049	-0,022
-373,058	-198,758	0,068	0,000
-372,044	-200,000	0,007	0,043
-371,029	-71,250	0,164	0,044
-370,015	-200,000	-0,036	-0,117
-369,000	368,879	0,098	-0,143
-367,985	761,622	-0,025	-0,050
-366,971	-200,000	-0,017	-0,165
-365,956	-200,000	0,002	0,008
-364,942	-177,723	0,119	-0,002
-363,927	800,000	0,012	0,036
-362,912	468,639	-0,004	-0,006
-361,898	314,130	0,026	-0,036
-360,883	-128,426	-0,078	0,008
-359,869	-132,873	0,061	0,005
-358,854	-200,000	-0,007	0,130
-357,839	800,000	-0,036	0,095
-356,825	800,000	-0,029	0,081
-355,810	114,345	0,092	0,081
-354,796	485,910	0,041	-0,066
-353,781	-200,000	0,030	-0,171
-352,766	77,577	0,016	0,012
-351,752	-200,000	-0,007	-0,065
-350,737	800,000	0,032	-0,070
-349,723	781,183	0,027	-0,054
-348,708	800,000	0,026	0,061
-347,693	-200,000	0,025	-0,160
-346,679	-123,903	-0,076	-0,008
-345,664	-200,000	0,040	-0,138
-344,650	-200,000	0,012	-0,111
-343,635	439,183	0,040	0,063
-342,620	39,693	0,061	-0,039
-341,606	243,824	-0,038	-0,045
-340,591	309,355	0,093	-0,124
-339,577	45,277	0,098	-0,065
-338,562	30,202	-0,084	-0,051
-337,548	-200,000	-0,005	-0,076
-336,533	70,755	-0,038	0,028
-335,518	-38,352	0,031	0,012
-334,504	37,946	-0,075	0,048
-333,489	-68,821	0,158	-0,043
-332,475	-66,814	-0,128	-0,036
-331,460	-129,955	-0,097	0,009
-330,445	488,810	-0,056	-0,093
-329,431	670,311	-0,080	-0,148
-328,416	17,205	0,040	-0,023
-327,402	800,000	-0,034	0,095
-326,387	-173,916	0,154	0,003
-325,372	-120,737	-0,140	0,017
-324,358	-200,000	0,004	0,027
-323,343	-52,436	-0,129	0,042
-322,329	-70,142	-0,168	-0,045
-321,314	88,142	0,077	0,061
-320,299	339,768	0,055	0,077
-319,285	97,410	-0,069	-0,057
-318,270	-200,000	0,025	-0,085
-317,256	220,340	-0,126	0,145
-316,241	226,015	-0,107	-0,124
-315,226	686,840	0,036	0,068
-314,212	133,041	0,019	-0,017
-313,197	-14,257	0,096	-0,044
-312,183	-200,000	-0,004	0,016
-311,168	3,662	0,068	-0,035
-310,153	800,000	-0,040	-0,097
-309,139	171,346	-0,062	0,064
-308,124	-57,412	0,097	-0,030
-307,110	161,914	0,123	0,123
-306,095	732,683	-0,055	-0,105
-305,080	-200,000	0,017	0,065
-304,066	451,216	-0,053	-0,083
-303,051	800,000	-0,040	-0,118
-302,037	-200,000	-0,003	0,046
-301,022	555,916	0,038	0,066
-300,008	-200,000	-0,006	0,019
-298,993	532,959	-0,020	0,033
-297,978	247,134	0,062	0,075
-296,964	-200,000	-0,021	-0,166
-295,949	-50,454	-0,064	0,022
-294,935	74,570	-0,041	0,031
-293,920	-72,102	-0,106	-0,028
-292,905	-170,814	0,138	0,003
-291,891	800,000	0,036	0,084
-290,876	-200,000	0,006	0,110
-289,862	93,393	-0,060	-0,048
-288,847	-200,000	-0,000	0,024
-287,832	-200,000	-0,018	0,105
-286,818	-90,849	0,066	-0,013
-285,803	-200,000	-0,000	-0,035
-284,789	-200,000	0,006	0,164
-283,774	185,966	0,091	0,097
-282,759	-38,950	-0,112	0,042
-281,745	-129,791	0,035	-0,003
-280,730	800,000	-0,094	-0,233
-279,716	-200,000	-0,043	0,162
-278,701	800,000	-0,046	0,100
-277,686	228,840	0,055	0,064
-276,672	77,879	0,131	0,099
-275,657	55,387	-0,087	-0,060
-274,643	583,662	-0,057	-0,100
-273,628	7,080	-0,083	-0,044
-272,613	60,471	0,026	-0,019
-271,599	80,935	-0,003	0,003
-270,584	192,288	0,045	0,048
-269,570	-200,000	0,014	0,122
-268,555	91,029	0,068	0,055
-267,540	-178,950	-0,037	0,001
-266,526	-200,000	-0,000	0,047
-265,511	93,552	0,029	0,023
-264,497	-200,000	-0,010	-0,059
-263,482	800,000	-0,004	-0,010
-262,467	576,357	0,078	0,137
-261,453	181,375	0,093	0,097
-260,438	130,163	-0,083	-0,076
-259,424	800,000	0,034	-0,076
-258,409	-16,445	-0,070	0,032
-257,395	546,977	-0,034	0,058
-256,380	-13,879	-0,105	0,048
-255,365	-123,253	0,103	0,012
-254,351	-200,000	-0,020	-0,063
-253,336	-200,000	0,007	0,068
-252,322	-19,849	-0,047	0,020
-251,307	-163,481	-0,099	0,003
-250,292	20,400	0,149	-0,086
-249,278	-124,525	0,074	-0,008
-248,263	-200,000	-0,022	0,210
-247,249	-185,626	0,201	-0,002
-246,234	800,000	-0,031	0,099
-245,219	-131,149	-0,029	0,003
-244,205	198,176	0,035	0,038
-243,190	10,065	-0,140	-0,075
-242,176	-86,908	0,126	-0,027
-241,161	61,057	0,083	-0,059
-240,146	-140,574	-0,116	-0,008
-239,132	-30,020	0,040	-0,016
-238,117	-115,626	0,109	0,014
-237,103	11,104	-0,145	-0,079
-236,088	416,696	0,021	-0,033
-235,073	66,337	-0,069	-0,050
-234,059	214,510	-0,029	-0,033
-233,044	-200,000	0,018	0,126
-232,030	-95,870	0,141	0,027
-231,015	-97,375	0,047	-0,009
-230,000	36,700	-0,046	0,029
-228,986	-185,167	-0,116	-0,001
-227,971	369,702	-0,064	-0,093
-226,957	591,224	0,045	-0,080
-225,942	-119,716	-0,084	-0,010
-224,927	-200,000	0,004	0,073
-223,913	97,455	0,103	-0,084
-222,898	1,119	0,063	-0,032
-221,884	93,441	-0,086	0,069
-220,869	457,853	0,029	-0,046
-219,855	800,000	-0,043	0,089
-218,840	9,777	-0,023	0,012
-217,825	132,502	0,064	-0,059
-216,811	17,715	-0,023	-0,013
-215,796	800,000	-0,059	-0,140
-214,782	-200,000	0,016	-0,174
-213,767	-130,476	0,026	0,002
-212,752	800,000	0,023	0,052
-211,738	303,110	0,127	0,168
-210,723	-64,614	0,009	-0,003
-209,709	-200,000	-0,006	-0,095
-208,694	-200,000	-0,018	-0,083
-207,679	-200,000	-0,031	-0,145
-206,665	800,000	-0,050	-0,145
-205,650	800,000	0,014	0,033
-204,636	52,417	0,055	-0,037
-203,621	800,000	0,013	0,028
-202,606	-200,000	-0,008	-0,027
-201,592	34,063	-0,138	-0,085
-200,577	579,962	-0,029	0,051
-199,563	373,764	-0,041	-0,060
-198,548	689,154	0,039	0,072
-197,533	-153,196	0,089	-0,004
-196,519	-60,413	0,102	0,031
-195,504	800,000	-0,061	0,144
-194,490	-200,000	-0,011	0,128
-193,475	-45,013	0,143	-0,050
-192,460	-200,000	0,005	0,061
-191,446	14,638	0,077	-0,042
-190,431	-85,049	0,048	-0,011
-189,417	336,769	0,056	-0,078
-188,402	34,452	-0,109	-0,068
-187,387	-146,375	-0,206	0,013
-186,373	-200,000	-0,023	-0,102
-185,358	-123,236	-0,099	0,011
-184,344	162,786	0,010	-0,010
-183,329	-19,693	0,072	0,032
-182,315	114,035	0,068	-0,059
-181,300	800,000	0,023	-0,068
-180,285	-158,467	0,079	0,003
-179,271	-200,000	-0,005	-0,061
-178,256	452,864	0,087	0,137
-177,242	-75,280	0,065	0,016
-176,227	800,000	0,045	0,089
-175,212	448,470	0,061	0,096
-174,198	40,492	0,135	-0,086
-173,183	75,157	-0,046	-0,034
-172,169	-200,000	0,007	0,093
-171,154	-200,000	-0,012	-0,086
-170,139	228,564	0,069	-0,080
-169,125	188,175	0,068	0,073
-168,110	800,000	-0,017	0,050
-167,096	-200,000	0,037	0,119
-166,081	-147,763	-0,137	-0,008
-165,066	-63,948	-0,074	0,021
-164,052	800,000	0,046	-0,141
-163,037	417,272	-0,062	0,094
-162,023	-189,607	0,103	-0,001
-161,008	10,993	-0,051	-0,028
-159,993	362,379	-0,037	0,053
-158,979	393,862	-0,051	0,076
-157,964	118,162	-0,038	-0,034
-156,950	-200,000	-0,035	-0,166
-155,935	159,590	-0,055	-0,054
-154,920	-200,000	0,001	0,027
-153,906	800,000	0,039	0,079
-152,891	-200,000	-0,015	0,124
-151,877	512,879	0,017	0,028
-150,862	-200,000	0,011	-0,058
-149,847	-200,000	-0,006	-0,176
-148,833	408,637	0,040	0,060
-147,818	12,607	0,070	0,038
-146,804	-150,415	0,092	0,005
-145,789	-38,756	0,062	-0,023
-144,775	395,899	-0,030	-0,045
-143,760	632,027	-0,063	-0,114
-142,745	336,276	0,065	-0,090
-141,731	-89,082	-0,134	0,028
-140,716	242,609	0,089	0,107
-139,702	-200,000	0,048	0,156
-138,687	167,660	-0,096	0,097
-137,672	226,740	-0,010	0,012
-136,658	-8,115	0,149	-0,071
-135,643	-86,907	-0,107	-0,023
-134,629	800,000	0,020	-0,051
-133,614	-73,893	0,047	-0,012
-132,599	169,495	0,195	0,198
-131,585	4,955	0,124	0,065
-130,570	-81,481	0,079	0,018
-129,556	26,845	-0,065	-0,039
-128,541	88,012	-0,144	0,114
-127,526	62,389	-0,039	-0,027
-126,512	201,212	0,117	0,128
-125,497	-200,000	-0,002	-0,033
-124,483	-200,000	0,016	0,065
-123,468	-45,655	-0,167	-0,058
-122,453	-113,119	0,103	0,014
-121,439	515,112	-0,026	0,044
-120,424	-7,429	-0,038	0,018
-119,410	360,944	0,029	0,042
-118,395	-200,000	0,016	0,101
-117,380	800,000	0,005	0,016
-116,366	89,563	-0,020	-0,016
-115,351	211,281	-0,084	-0,094
-114,337	131,605	-0,063	-0,058
-113,322	171,067	0,068	0,070
-112,307	-32,038	0,019	0,008
-111,293	215,874	-0,028	0,032
-110,278	-119,605	0,049	0,006
-109,264	800,000	0,017	-0,048
-108,249	774,646	0,094	0,183
-107,234	-200,000	0,001	-0,006
-106,220	113,509	-0,097	0,084
-105,205	607,614	-0,035	0,062
-104,191	270,599	-0,075	0,094
-103,176	41,266	0,098	-0,062
-102,162	-200,000	-0,013	-0,084
-101,147	-143,908	-0,154	-0,010
-100,132	800,000	-0,028	0,070
-99,118	102,300	-0,038	-0,031
-98,103	4,421	0,104	-0,054
-97,089	-118,984	0,104	0,013
-96,074	-200,000	0,013	0,068
-95,059	-56,900	0,030	0,009
-94,045	0,902	-0,045	-0,023
-93,030	69,891	-0,113	-0,083
-92,016	800,000	-0,021	0,049
-91,001	-200,000	-0,009	0,090
-89,986	771,706	-0,022	-0,043
-88,972	203,813	0,136	0,149
-87,957	384,885	0,100	0,146
-86,943	302,858	-0,065	0,086
-85,928	-135,309	-0,038	0,003
-84,913	-91,145	-0,023	0,005
-83,899	110,688	0,061	-0,052
-82,884	800,000	0,062	0,132
-81,870	800,000	-0,005	-0,013
-80,855	532,265	-0,056	0,095
-79,840	-106,701	-0,103	-0,016
-78,826	224,919	0,077	-0,088
-77,811	252,419	-0,090	-0,109
-76,797	800,000	-0,010	-0,029
-75,782	49,534	0,002	-0,001
-74,767	-200,000	0,001	0,092
-73,753	-112,463	0,059	0,008
-72,738	516,022	-0,031	0,051
-71,724	73,328	0,069	-0,051
-70,709	-200,000	0,020	0,073
-69,694	-112,229	0,110	0,016
-68,680	133,225	-0,100	-0,092
-67,665	623,686	0,027	0,048
-66,651	-105,100	-0,138	0,022
-65,636	800,000	-0,003	-0,008
-64,622	59,445	0,074	-0,051
-63,607	-200,000	0,006	-0,107
-62,592	171,001	-0,013	0,013
-61,578	729,702	0,007	0,013
-60,563	-102,745	0,084	0,014
-59,549	764,379	0,069	0,134
-58,534	-46,572	-1,504	-0,520
-57,519	340,699	-1,544	-2,141
-56,505	-200,000	-0,567	-4,501
-55,490	101,835	1,089	0,899
-54,476	800,000	4,790	11,399
-53,461	-200,000	18,295	287,991
-52,446	800,000	727,243	2230,417
-51,432	555,644	1643,633	2813,570
-50,417	79,329	1665,749	1263,470
-49,403	22,879	1539,457	891,291
-48,388	16,871	1462,737	817,765
-47,373	17,889	1452,418	816,869
-46,359	17,303	1443,074	808,775
-45,344	15,173	1438,366	795,934
-44,330	15,067	1436,414	794,319
-43,315	15,038	1434,749	793,228
-42,300	15,037	1433,183	792,328
-41,286	15,136	1431,867	792,038
-40,271	15,069	1430,847	791,126
-39,257	15,113	1429,521	790,566
-38,242	15,129	1428,022	789,783
-37,227	15,066	1427,111	788,949
-36,213	15,138	1425,609	788,429
-35,198	15,082	1424,588	787,571
-34,184	15,131	1423,672	787,265
-33,169	15,065	1422,385	786,209
-32,154	15,109	1421,274	785,771
-31,140	15,086	1420,035	784,945
-30,125	15,103	1418,958	784,399
-29,111	15,088	1417,795	783,655
-28,096	15,085	1416,730	783,022
-27,082	15,012	1415,642	782,045
-26,067	15,055	1414,472	781,572
-25,052	15,016	1413,502	780,821
-24,038	15,048	1412,360	780,307
-23,023	15,001	1411,255	779,445
-22,009	15,025	1410,311	779,004
-20,994	15,024	1409,337	778,431
-19,979	14,961	1408,483	777,634
-18,965	14,948	1407,654	777,087
-17,950	14,920	1406,505	776,291
-16,936	14,960	1405,842	776,078
-15,921	14,938	1404,520	775,218
-14,906	14,919	1403,764	774,681
-13,892	14,949	1402,756	774,231
-12,877	14,924	1402,070	773,709
-11,863	14,951	1400,938	773,177
-10,848	14,971	1400,103	772,777
-9,833	14,874	1399,315	771,863
-8,819	14,911	1398,227	771,405
-7,804	14,828	1397,440	770,555
-6,790	14,866	1396,222	770,026
-5,775	14,857	1395,321	769,457
-4,760	14,857	1394,464	768,957
-3,746	14,850	1393,683	768,462
-2,731	14,824	1392,928	767,893
-1,717	14,830	1391,837	767,290
-0,702	14,815	1390,028	766,193
0,313	18,582	1308,965	738,961
1,327	34,773	707,191	436,783
2,342	53,122	124,830	84,451
3,356	4,808	16,679	8,648
4,371	14,057	3,146	1,728
5,386	0,824	0,446	0,225
6,400	48,752	-0,090	0,060
7,415	50,479	-0,320	-0,214
8,429	140,633	-0,260	-0,243
9,444	78,116	-0,275	-0,207
10,459	-8,074	-0,282	-0,134
11,473	38,306	-0,210	-0,132
12,488	-17,214	-0,316	-0,140
13,502	550,442	-0,135	-0,230
14,517	191,472	-0,236	-0,251
15,531	-85,468	-0,569	-0,124
16,546	229,201	-0,296	-0,342
17,561	146,143	-0,378	-0,358
18,575	-117,628	-0,170	-0,021
19,590	265,431	-0,290	-0,358
20,604	43,825	-0,159	-0,103
21,619	92,938	-0,499	-0,398
22,634	122,205	-0,455	-0,401
23,648	21,154	-0,347	-0,199
24,663	44,260	-0,477	-0,308
25,677	63,123	-0,309	-0,218
26,692	54,414	-0,289	-0,196
27,707	-43,410	-0,301	-0,107
28,721	166,206	-0,224	-0,224
29,736	113,595	-0,358	-0,307
30,750	24,430	-0,430	-0,250
31,765	89,744	-0,349	-0,275
32,780	178,793	-0,226	-0,233
33,794	163,290	-0,362	-0,359
34,809	29,869	-0,409	-0,245
35,823	51,751	-0,417	-0,280
36,838	105,364	-0,412	-0,343
37,853	184,788	-0,334	-0,349
38,867	6,481	-0,362	-0,189
39,882	204,079	-0,292	-0,320
40,896	-73,895	-0,376	-0,096
41,911	-11,232	-0,390	-0,181
42,926	45,066	-0,325	-0,211
43,940	173,987	-0,255	-0,260
44,955	116,803	-0,295	-0,255
45,969	150,664	-0,370	-0,354
46,984	58,990	-0,395	-0,273
47,999	35,314	-0,298	-0,184
49,013	78,502	-0,311	-0,234
50,028	195,955	-0,260	-0,279
51,042	100,837	-0,428	-0,350
52,057	695,086	-0,226	-0,419
53,071	321,136	-0,212	-0,285
54,086	121,281	-0,342	-0,300
55,101	111,979	-0,302	-0,257
56,115	-62,669	-0,296	-0,086
57,130	-39,254	-0,376	-0,139
58,144	166,095	-0,260	-0,260
59,159	42,265	-0,456	-0,291
60,174	-121,602	-0,406	-0,047
61,188	17,588	-0,301	-0,168
62,203	49,205	-0,325	-0,214
63,217	-61,160	-0,253	-0,075
64,232	54,534	-0,269	-0,182
65,247	-25,456	-0,331	-0,137
66,261	-44,694	-0,431	-0,151
67,276	95,441	-0,417	-0,335
68,290	108,994	-0,376	-0,316
69,305	-19,043	-0,284	-0,124
70,320	-115,019	-0,256	0,034
71,334	-48,507	-0,384	-0,129
72,349	221,996	-0,281	-0,318
73,363	34,453	-0,280	-0,172
74,378	84,488	-0,220	-0,169
75,393	87,546	-0,322	-0,251
76,407	142,304	-0,293	-0,274
77,422	152,089	-0,123	-0,118
78,436	-35,119	-0,260	-0,099
79,451	-35,478	-0,323	-0,123
80,466	90,917	-0,307	-0,242
81,480	55,794	-0,265	-0,181
82,495	34,742	-0,365	-0,224
83,509	73,753	-0,227	-0,167
84,524	-23,924	-0,428	-0,179
85,539	128,788	-0,171	-0,153
86,553	113,742	-0,239	-0,204
87,568	27,515	-0,385	-0,227
88,582	111,630	-0,254	-0,215
89,597	-2,636	-0,406	-0,199
90,611	362,327	-0,184	-0,260
91,626	25,045	-0,232	-0,135
92,641	-60,802	-0,448	-0,132
93,655	-92,092	-0,363	-0,071
94,670	93,627	-0,334	-0,266
95,684	53,180	-0,297	-0,199
96,699	-9,304	-0,314	-0,146
97,714	43,434	-0,354	-0,227
98,728	31,402	-0,369	-0,222
99,743	152,126	-0,151	-0,145
100,757	19,641	-0,272	-0,153
101,772	6,952	-0,289	-0,151
102,787	131,506	-0,356	-0,321
103,801	69,672	-0,369	-0,266
104,816	223,942	-0,172	-0,196
105,830	40,037	-0,160	-0,100
106,845	-14,689	-0,293	-0,131
107,860	111,913	-0,264	-0,224
108,874	80,966	-0,263	-0,199
109,889	8,281	-0,286	-0,150
110,903	-18,224	-0,355	-0,155
111,918	67,528	-0,235	-0,168
112,933	5,474	-0,344	-0,177
113,947	264,887	-0,120	-0,146
114,962	701,617	-0,092	-0,170
115,976	-91,214	-0,340	-0,068
116,991	190,140	-0,248	-0,262
118,006	36,454	-0,260	-0,160
119,020	48,017	-0,310	-0,203
120,035	93,917	-0,288	-0,229
121,049	-4,669	-0,141	-0,068
122,064	99,115	-0,237	-0,192
123,079	-169,598	-0,201	-0,005
124,093	3,473	-0,279	-0,142
125,108	-52,722	-0,223	-0,072
126,122	-58,348	-0,258	-0,078
127,137	-35,653	-0,219	-0,083
128,151	68,401	-0,255	-0,183
129,166	180,278	-0,167	-0,171
130,181	230,717	-0,177	-0,203
131,195	227,373	-0,282	-0,321
132,210	167,688	-0,279	-0,278
133,224	137,399	-0,168	-0,154
134,239	35,803	-0,263	-0,161
135,254	-41,230	-0,231	-0,083
136,268	-17,193	-0,240	-0,106
137,283	-3,205	-0,177	-0,086
138,297	171,844	-0,210	-0,212
139,312	43,093	-0,279	-0,178
140,327	62,585	-0,266	-0,186
141,341	84,506	-0,152	-0,116
142,356	198,847	-0,192	-0,206
143,370	-173,977	-0,278	0,006
144,385	40,782	-0,352	-0,221
145,400	344,290	-0,270	-0,370
146,414	220,273	-0,133	-0,149
147,429	227,631	-0,163	-0,185
148,443	605,897	-0,118	-0,206
149,458	328,541	-0,216	-0,290
150,473	21,700	-0,306	-0,174
151,487	-27,608	-0,176	-0,071
152,502	47,431	-0,201	-0,131
153,516	48,832	-0,278	-0,182
154,531	87,412	-0,207	-0,160
155,546	314,179	-0,267	-0,352
156,560	155,275	-0,177	-0,170
157,575	94,819	-0,242	-0,192
158,589	92,358	-0,166	-0,131
159,604	315,978	-0,164	-0,217
160,619	-35,313	-0,325	-0,123
161,633	75,399	-0,225	-0,166
162,648	-23,662	-0,286	-0,119
163,662	-24,206	-0,231	-0,096
164,677	-148,676	-0,287	-0,016
165,692	-8,574	-0,299	-0,140
166,706	-24,926	-0,313	-0,129
167,721	11,480	-0,274	-0,146
168,735	183,324	-0,233	-0,240
169,750	72,567	-0,234	-0,170
170,764	800,000	-0,166	-0,332
171,779	254,733	-0,162	-0,193
172,794	0,134	-0,319	-0,158
173,808	-98,452	-0,320	-0,057
174,823	154,030	-0,240	-0,229
175,837	55,112	-0,166	-0,111
176,852	192,857	-0,127	-0,134
177,867	185,193	-0,223	-0,231
178,881	238,172	-0,198	-0,229
179,896	363,054	-0,164	-0,230
180,910	26,809	-0,300	-0,175
181,925	315,458	-0,173	-0,228
182,940	70,312	-0,251	-0,181
183,954	65,519	-0,379	-0,267
184,969	602,312	-0,124	-0,216
185,983	154,031	-0,201	-0,192
186,998	142,636	-0,209	-0,193
188,013	97,935	-0,227	-0,182
189,027	270,247	-0,128	-0,157
190,042	505,139	-0,150	-0,242
191,056	144,348	-0,144	-0,134
192,071	21,235	-0,211	-0,119
193,086	49,761	-0,228	-0,149
194,100	-66,158	-0,217	-0,060
195,115	98,375	-0,207	-0,166
196,129	800,000	-0,076	-0,203
197,144	47,597	-0,208	-0,135
198,159	-200,000	-0,020	-0,165
199,173	43,937	-0,236	-0,150
200,188	140,020	-0,199	-0,183
201,202	94,410	-0,217	-0,172
202,217	325,342	-0,158	-0,210
203,232	-62,137	-0,300	-0,086
204,246	-25,826	-0,263	-0,107
205,261	-161,145	-0,138	-0,005
206,275	325,477	-0,178	-0,237
207,290	-13,453	-0,264	-0,119
208,304	-200,000	-0,047	-0,157
209,319	-25,612	-0,330	-0,135
210,334	60,329	-0,238	-0,163
211,348	67,943	-0,213	-0,151
212,363	23,076	-0,255	-0,145
213,377	37,962	-0,278	-0,171
214,392	72,091	-0,113	-0,082
215,407	8,131	-0,178	0,092
216,421	18,109	-0,241	-0,133
217,436	-46,312	-0,169	-0,058
218,450	25,445	-0,206	-0,119
219,465	-150,598	-0,173	0,009
220,480	629,416	-0,113	-0,199
221,494	-200,000	-0,086	-0,268
222,509	84,124	-0,195	-0,148
223,523	-13,550	-0,148	-0,066
224,538	5,881	-0,240	-0,123
225,553	-2,279	-0,298	-0,144
226,567	262,200	-0,132	-0,160
227,582	107,425	-0,227	-0,187
228,596	212,584	-0,193	-0,211
229,611	-39,250	-0,271	-0,098
230,626	3,404	-0,278	-0,140
231,640	88,021	-0,149	-0,114
232,655	52,981	-0,145	-0,096
233,669	-74,461	-0,226	-0,056
234,684	-147,358	-0,264	-0,015
235,699	101,116	-0,197	-0,159
236,713	-51,516	-0,315	-0,101
237,728	335,982	-0,157	-0,212
238,742	114,920	-0,160	-0,135
239,757	152,250	-0,197	-0,186
240,772	-20,124	-0,084	-0,036
241,786	466,328	-0,120	-0,187
242,801	114,851	-0,193	-0,163
243,815	-17,896	-0,078	-0,034
244,830	391,503	-0,059	-0,085
245,844	153,105	-0,166	-0,157
246,859	-58,996	-0,088	-0,026
247,874	-46,115	-0,203	-0,069
248,888	800,000	-0,123	-0,262
249,903	47,671	-0,210	-0,136
250,917	-107,751	-0,262	-0,039
251,932	-94,760	-0,195	-0,036
252,947	-161,090	-0,229	-0,008
253,961	84,079	-0,158	-0,120
254,976	120,046	-0,237	-0,203
255,990	-69,409	-0,151	-0,040
257,005	-170,256	-0,125	0,003
258,020	-102,305	-0,165	-0,027
259,034	-15,003	-0,078	-0,034
260,049	502,053	-0,098	-0,158
261,063	118,371	-0,223	-0,190
262,078	23,825	-0,186	-0,106
263,093	-200,000	-0,010	-0,109
264,107	73,245	-0,146	-0,105
265,122	-0,797	-0,192	-0,094
266,136	90,768	-0,123	-0,095
267,151	252,975	-0,072	-0,085
268,166	-19,109	-0,234	-0,100
269,180	120,713	-0,205	-0,176
270,195	64,778	-0,245	-0,171
271,209	130,964	-0,176	-0,156
272,224	140,373	-0,167	-0,153
273,239	-23,938	-0,201	-0,083
274,253	57,224	-0,069	-0,047
275,268	25,274	-0,139	-0,080
276,282	407,007	-0,180	-0,264
277,297	-109,733	-0,140	-0,020
278,312	278,506	-0,098	-0,121
279,326	800,000	-0,078	-0,172
280,341	20,299	-0,200	0,111
281,355	-138,488	-0,112	0,008
282,370	53,713	-0,232	-0,154
283,384	46,065	-0,208	-0,132
284,399	-102,110	-0,190	-0,031
285,414	-200,000	-0,035	-0,150
286,428	12,820	-0,230	-0,122
287,443	229,804	-0,138	-0,156
288,457	285,082	-0,127	-0,158
289,472	800,000	-0,027	-0,069
290,487	477,463	-0,091	-0,143
291,501	-42,379	-0,088	-0,031
292,516	611,465	-0,142	-0,247
293,530	-56,745	-0,147	-0,045
294,545	38,821	-0,131	0,081
295,560	30,698	-0,064	0,038
296,574	278,034	-0,083	-0,102
297,589	-137,061	-0,161	0,012
298,603	470,371	-0,132	-0,205
299,618	60,830	-0,174	-0,119
300,633	174,679	-0,101	-0,101
301,647	40,497	-0,038	0,024
302,662	332,309	-0,041	0,054
303,676	277,627	-0,135	-0,166
304,691	-16,660	-0,229	0,099
305,706	-56,404	-0,143	-0,043
306,720	556,727	-0,102	-0,170
307,735	-200,000	-0,071	-0,219
308,749	304,926	-0,127	-0,163
309,764	434,413	-0,080	-0,121
310,779	131,239	-0,136	-0,121
311,793	197,326	-0,161	-0,169
312,808	314,562	-0,119	-0,155
313,822	-37,718	-0,222	-0,081
314,837	120,062	-0,148	-0,126
315,852	5,671	-0,170	-0,086
316,866	47,493	-0,191	-0,122
317,881	167,746	-0,180	-0,176
318,895	343,954	-0,111	-0,151
319,910	40,845	-0,100	-0,062
320,925	74,870	-0,229	-0,166
321,939	800,000	-0,108	-0,245
322,954	156,915	-0,085	-0,081
323,968	11,952	-0,161	-0,085
324,983	11,612	-0,107	0,056
325,997	-73,936	-0,285	-0,071
327,012	-59,003	-0,117	0,034
328,027	196,648	-0,155	-0,162
329,041	-39,871	-0,207	-0,074
330,056	63,889	-0,061	-0,042
331,070	800,000	-0,053	-0,146
332,085	19,348	-0,117	-0,064
333,100	155,115	-0,154	-0,146
334,114	800,000	-0,110	-0,248
335,129	374,481	-0,150	-0,211
336,143	296,188	-0,155	-0,196
337,158	800,000	-0,101	-0,206
338,173	350,187	-0,043	-0,059
339,187	-37,927	-0,140	-0,051
340,202	-72,546	-0,144	0,036
341,216	-76,555	-0,101	-0,024
342,231	76,267	-0,145	-0,106
343,246	-86,264	-0,212	0,045
344,260	-127,520	-0,261	0,026
345,275	-126,441	-0,201	-0,020
346,289	-125,660	-0,080	0,008
347,304	91,480	-0,125	-0,097
348,319	800,000	-0,080	-0,174
349,333	192,177	-0,150	-0,155
350,348	381,447	-0,129	-0,182
351,362	-44,388	-0,120	0,041
352,377	345,436	-0,108	-0,146
353,392	44,953	-0,094	-0,060
354,406	-138,412	-0,136	0,010
355,421	209,542	1316,972	1418,073
356,435	161,269	1478,004	1418,567
