DTS Sentinel unit serial number:	SN410029Multiplexer serial number:	ORYXHardware model number:	OX2-SRSoftware version number:	ORYX F/W v4,00 Oryx Data Collector v3.7.2.0data status	okinstallation	B3 Nyhavnadifferential loss correction	single-endedforward channel	channel 1reverse channel	N/Adate	2023/12/02time	00:27:30forward acquisition time	300,00reverse acquisition time	0,00gamma	499,1914k internal	0,3196k external	0,3196temperature offset calibration	1,0000default loss term (dB/km)	0,3820temperature slope calibration	1,0000multiplexer offset coefficient	1,0000multiplexer slope coefficient	1,0000fibre end	0,00T internal ref (°C)	16,19T ext. ref 1 (°C)	1,74T ext. ref 2 (°C)	1,73length (m)	temperature (°C)	Stokes	anti-Stokes-744,400	63,602	-0,212	-0,155
-743,385	-200,000	0,019	0,340
-742,371	85,287	-0,321	-0,257
-741,356	-200,000	-0,015	0,336
-740,342	-200,000	-0,087	-0,312
-739,327	-200,000	-0,093	0,309
-738,312	74,353	-0,171	-0,131
-737,298	-200,000	-0,038	0,280
-736,283	125,764	-0,221	-0,203
-735,269	-200,000	0,079	0,307
-734,254	800,000	-0,109	-0,268
-733,239	23,628	-0,192	0,115
-732,225	691,738	-0,120	-0,229
-731,210	-200,000	0,000	0,098
-730,196	784,153	0,046	-0,093
-729,181	-200,000	0,004	-0,075
-728,167	800,000	-0,018	0,049
-727,152	-12,952	-0,020	-0,009
-726,137	-200,000	-0,012	0,083
-725,123	507,012	-0,049	-0,084
-724,108	29,031	0,026	-0,016
-723,094	28,183	0,105	-0,065
-722,079	-141,832	-0,198	-0,014
-721,064	-101,974	0,128	-0,022
-720,050	-70,808	-0,121	0,033
-719,035	-200,000	0,030	-0,109
-718,021	-19,076	0,113	-0,051
-717,006	-17,464	-0,076	0,035
-715,991	392,241	-0,127	-0,192
-714,977	296,115	-0,038	-0,051
-713,962	-200,000	-0,024	-0,113
-712,948	-31,378	-0,023	0,010
-711,933	-200,000	0,020	-0,083
-710,918	640,544	0,054	-0,101
-709,904	-46,516	-0,102	0,036
-708,889	-15,598	-0,125	-0,058
-707,875	-200,000	-0,025	-0,154
-706,860	-38,225	-0,190	-0,073
-705,845	72,508	-0,032	0,025
-704,831	-147,847	-0,127	0,008
-703,816	-124,864	0,128	0,014
-702,802	-61,206	-0,107	-0,033
-701,787	64,785	-0,086	-0,063
-700,772	-200,000	0,012	-0,071
-699,758	-200,000	-0,009	-0,030
-698,743	-42,674	0,084	0,031
-697,729	598,277	-0,038	0,068
-696,714	-200,000	0,017	0,160
-695,699	556,887	0,020	-0,035
-694,685	125,025	0,073	0,066
-693,670	39,957	-0,134	0,087
-692,656	92,001	-0,085	0,069
-691,641	800,000	0,033	-0,082
-690,627	371,670	0,024	-0,035
-689,612	-200,000	0,008	0,029
-688,597	740,570	-0,032	-0,063
-687,583	-13,617	-0,217	-0,102
-686,568	25,178	0,063	-0,038
-685,554	-200,000	-0,020	-0,076
-684,539	-125,947	0,058	0,006
-683,524	331,295	-0,018	-0,026
-682,510	800,000	0,055	-0,118
-681,495	800,000	-0,046	0,109
-680,481	71,738	-0,082	-0,062
-679,466	-39,227	-0,086	0,033
-678,451	-128,444	-0,055	-0,006
-677,437	76,019	0,124	-0,095
-676,422	212,599	0,086	-0,099
-675,408	131,768	-0,076	0,071
-674,393	40,719	0,007	-0,005
-673,378	800,000	-0,027	-0,062
-672,364	-38,155	-0,125	0,048
-671,349	-79,859	-0,142	-0,034
-670,335	-200,000	0,026	0,138
-669,320	-106,411	-0,091	0,015
-668,305	-173,177	0,081	0,002
-667,291	-84,466	-0,086	0,020
-666,276	-131,055	-0,085	0,008
-665,262	462,833	-0,079	-0,129
-664,247	-200,000	-0,045	-0,205
-663,232	-200,000	0,015	0,120
-662,218	733,438	-0,096	0,187
-661,203	58,942	0,075	0,053
-660,189	-151,052	0,081	0,004
-659,174	-80,938	-0,111	-0,026
-658,159	396,301	-0,058	-0,089
-657,145	-115,474	-0,091	0,012
-656,130	800,000	-0,029	-0,064
-655,116	800,000	0,065	0,171
-654,101	-200,000	-0,007	0,050
-653,086	423,081	-0,069	-0,108
-652,072	86,314	-0,096	-0,077
-651,057	204,892	-0,048	-0,055
-650,043	-200,000	0,021	-0,112
-649,028	-56,529	0,165	-0,053
-648,014	-17,482	0,082	0,037
-646,999	-112,912	-0,180	-0,026
-645,984	627,583	-0,084	0,155
-644,970	800,000	0,042	-0,100
-643,955	800,000	-0,023	-0,051
-642,941	193,422	-0,006	-0,006
-641,926	573,724	0,041	-0,073
-640,911	360,706	-0,056	-0,082
-639,897	-121,615	0,098	-0,012
-638,882	-51,018	-0,066	0,022
-637,868	800,000	0,031	-0,069
-636,853	-24,754	-0,071	0,030
-635,838	800,000	-0,049	0,148
-634,824	156,926	-0,042	-0,042
-633,809	800,000	-0,042	-0,131
-632,795	261,989	0,057	0,072
-631,780	-62,216	-0,062	-0,019
-630,765	-32,277	-0,069	0,028
-629,751	-13,143	0,035	-0,017
-628,736	109,393	-0,127	-0,110
-627,722	90,571	-0,128	-0,104
-626,707	-30,055	0,030	-0,012
-625,692	212,986	0,056	0,064
-624,678	74,688	0,037	-0,028
-623,663	451,063	0,085	-0,136
-622,649	-200,000	-0,002	0,075
-621,634	-200,000	0,002	-0,151
-620,619	-200,000	0,008	0,039
-619,605	76,561	0,031	-0,024
-618,590	721,941	0,021	-0,040
-617,576	29,310	0,042	-0,026
-616,561	308,347	-0,033	-0,045
-615,546	-200,000	0,011	-0,049
-614,532	-109,599	-0,096	-0,014
-613,517	41,638	-0,150	-0,098
-612,503	-200,000	-0,010	-0,159
-611,488	20,006	0,050	-0,029
-610,474	247,942	0,092	-0,113
-609,459	-200,000	0,002	-0,055
-608,444	-118,948	-0,244	0,031
-607,430	-58,749	-0,147	0,046
-606,415	790,653	0,029	0,058
-605,401	132,455	-0,137	-0,128
-604,386	-34,985	0,195	-0,077
-603,371	-121,600	0,078	0,009
-602,357	323,887	-0,054	0,075
-601,342	800,000	-0,017	-0,044
-600,328	169,403	-0,065	-0,067
-599,313	-200,000	0,004	-0,113
-598,298	308,835	0,098	-0,133
-597,284	153,498	0,075	0,074
-596,269	-11,911	0,137	0,065
-595,255	137,284	0,028	-0,027
-594,240	-185,382	-0,139	-0,002
-593,225	-124,003	-0,084	0,009
-592,211	-38,214	0,101	0,039
-591,196	-200,000	0,015	-0,070
-590,182	-84,794	0,122	0,028
-589,167	-47,060	-0,162	-0,057
-588,152	-30,967	-0,090	0,037
-587,138	112,809	-0,162	0,142
-586,123	621,735	-0,058	0,106
-585,109	353,959	-0,039	0,056
-584,094	86,782	-0,085	0,068
-583,079	-200,000	-0,010	0,099
-582,065	800,000	0,040	0,090
-581,050	800,000	0,022	-0,045
-580,036	318,059	0,030	0,041
-579,021	-0,666	-0,055	0,028
-578,006	4,402	0,042	-0,022
-576,992	-200,000	0,020	-0,069
-575,977	-89,102	0,062	0,013
-574,963	-82,595	0,130	0,030
-573,948	-200,000	0,024	0,130
-572,934	-200,000	-0,011	0,067
-571,919	-200,000	-0,030	-0,143
-570,904	-200,000	-0,005	0,061
-569,890	800,000	-0,037	-0,092
-568,875	4,176	0,035	-0,018
-567,861	-200,000	0,001	0,070
-566,846	-54,200	0,080	0,026
-565,831	-200,000	-0,110	-0,000
-564,817	-200,000	0,005	0,035
-563,802	-200,000	0,003	-0,093
-562,788	800,000	-0,037	-0,076
-561,773	3,942	0,126	-0,067
-560,758	28,559	-0,052	0,032
-559,744	287,289	-0,079	0,104
-558,729	74,609	-0,025	0,019
-557,715	-200,000	-0,008	0,081
-556,700	-67,653	0,052	0,015
-555,685	311,556	0,122	-0,166
-554,671	-88,507	0,088	0,019
-553,656	-200,000	0,012	0,090
-552,642	422,698	0,023	-0,037
-551,627	-200,000	0,004	0,097
-550,612	583,943	-0,058	0,103
-549,598	-200,000	-0,045	0,151
-548,583	500,747	0,008	0,014
-547,569	223,854	-0,087	0,102
-546,554	12,549	0,122	-0,068
-545,539	-65,187	-0,050	0,015
-544,525	-200,000	0,009	0,039
-543,510	-200,000	0,001	0,106
-542,496	-79,166	-0,162	0,040
-541,481	217,243	-0,097	-0,112
-540,466	-200,000	0,010	0,058
-539,452	-139,508	-0,150	0,011
-538,437	572,839	0,057	-0,100
-537,423	-200,000	0,008	0,079
-536,408	164,842	-0,030	0,030
-535,393	253,714	0,029	-0,036
-534,379	-132,019	-0,058	0,005
-533,364	800,000	-0,034	-0,076
-532,350	155,745	0,104	-0,103
-531,335	-200,000	-0,001	-0,092
-530,321	-200,000	-0,013	0,045
-529,306	158,377	-0,113	-0,114
-528,291	-93,354	0,043	-0,009
-527,277	452,647	-0,069	-0,111
-526,262	800,000	0,010	-0,029
-525,248	8,694	-0,135	0,073
-524,233	-92,298	0,158	-0,032
-523,218	444,009	0,046	0,074
-522,204	719,834	-0,055	-0,107
-521,189	-200,000	-0,001	-0,010
-520,175	-0,073	-0,111	-0,057
-519,160	214,045	0,044	-0,050
-518,145	780,759	0,056	0,111
-517,131	-200,000	0,003	-0,030
-516,116	110,168	-0,108	0,094
-515,102	-83,836	0,045	-0,010
-514,087	800,000	0,024	-0,059
-513,072	110,538	-0,149	-0,130
-512,058	152,623	0,039	-0,038
-511,043	36,965	0,017	-0,011
-510,029	-102,844	0,091	-0,016
-509,014	-200,000	-0,015	0,101
-507,999	-54,411	0,065	0,021
-506,985	-120,015	0,086	-0,011
-505,970	800,000	0,039	-0,113
-504,956	-34,262	0,074	0,029
-503,941	163,940	0,072	-0,073
-502,926	541,790	-0,108	0,187
-501,912	471,588	-0,017	0,028
-500,897	8,895	0,011	-0,006
-499,883	33,203	-0,076	-0,048
-498,868	-200,000	0,003	0,031
-497,853	-52,065	-0,085	-0,028
-496,839	284,376	0,013	-0,017
-495,824	-94,798	0,063	-0,012
-494,810	61,118	0,045	0,032
-493,795	-200,000	0,005	0,089
-492,781	89,148	0,055	0,044
-491,766	800,000	0,057	-0,129
-490,751	800,000	0,016	-0,033
-489,737	-27,673	-0,038	-0,016
-488,722	458,387	0,086	0,139
-487,708	-69,354	0,100	-0,028
-486,693	800,000	0,029	0,068
-485,678	-200,000	-0,007	0,136
-484,664	800,000	-0,027	-0,083
-483,649	800,000	0,020	0,047
-482,635	-108,095	-0,103	0,016
-481,620	177,452	0,096	0,101
-480,605	800,000	0,012	0,031
-479,591	-44,231	0,200	0,072
-478,576	-200,000	0,013	-0,058
-477,562	-200,000	-0,021	-0,099
-476,547	-151,210	0,169	-0,009
-475,532	17,803	-0,069	0,040
-474,518	800,000	0,053	-0,120
-473,503	133,958	0,064	0,060
-472,489	-4,717	0,080	-0,040
-471,474	-41,416	0,035	0,013
-470,459	223,145	0,008	0,010
-469,445	752,058	-0,041	0,081
-468,430	-115,116	0,064	-0,009
-467,416	-112,176	-0,110	-0,016
-466,401	800,000	0,053	0,168
-465,386	19,376	0,105	-0,061
-464,372	-71,353	-0,052	-0,014
-463,357	-200,000	-0,016	-0,092
-462,343	8,489	-0,097	-0,053
-461,328	-40,778	-0,165	-0,061
-460,313	328,444	0,057	-0,079
-459,299	-104,278	-0,081	-0,013
-458,284	-158,942	0,108	0,004
-457,270	-200,000	0,003	0,108
-456,255	-53,636	0,039	-0,013
-455,241	78,440	-0,069	0,053
-454,226	49,679	-0,085	-0,057
-453,211	181,684	0,066	-0,070
-452,197	800,000	0,083	0,179
-451,182	800,000	-0,054	0,132
-450,168	-111,966	-0,053	0,008
-449,153	665,145	-0,063	-0,118
-448,138	800,000	-0,092	-0,196
-447,124	-200,000	-0,000	-0,003
-446,109	312,423	-0,043	-0,058
-445,095	-200,000	-0,010	0,039
-444,080	261,933	0,092	0,115
-443,065	-17,377	0,029	0,013
-442,051	668,263	0,031	0,059
-441,036	800,000	-0,083	-0,170
-440,022	65,927	0,078	0,057
-439,007	-140,185	-0,150	0,011
-437,992	-184,148	0,240	-0,003
-436,978	800,000	0,022	0,061
-435,963	-74,001	-0,108	0,028
-434,949	29,933	-0,106	0,065
-433,934	100,124	0,067	-0,056
-432,919	429,730	-0,039	0,061
-431,905	800,000	-0,023	-0,046
-430,890	-200,000	0,008	-0,105
-429,876	626,578	-0,079	-0,144
-428,861	-162,872	0,105	0,004
-427,846	-142,514	-0,058	0,004
-426,832	-200,000	-0,005	-0,076
-425,817	86,535	0,090	0,071
-424,803	-108,643	0,210	-0,032
-423,788	800,000	-0,055	0,133
-422,773	-99,157	-0,072	-0,013
-421,759	7,752	0,106	0,057
-420,744	283,996	-0,056	-0,073
-419,730	28,453	-0,059	-0,036
-418,715	-53,240	-0,072	-0,024
-417,701	258,404	-0,136	0,169
-416,686	-200,000	0,010	-0,054
-415,671	800,000	0,030	0,072
-414,657	112,653	-0,082	0,072
-413,642	121,402	0,090	-0,080
-412,628	693,888	0,077	-0,146
-411,613	-41,566	0,035	-0,013
-410,598	418,748	0,033	-0,051
-409,584	192,392	0,011	0,012
-408,569	-61,322	0,091	0,027
-407,555	-200,000	-0,014	0,075
-406,540	-200,000	0,017	0,073
-405,525	-200,000	0,004	-0,056
-404,511	-106,627	-0,123	-0,019
-403,496	-54,707	0,046	0,015
-402,482	-200,000	-0,016	0,141
-401,467	150,245	-0,084	0,082
-400,452	-182,282	0,027	0,000
-399,438	251,454	-0,047	-0,057
-398,423	14,205	-0,117	0,065
-397,409	-200,000	-0,008	-0,033
-396,394	-200,000	-0,000	0,089
-395,379	-8,961	-0,118	0,056
-394,365	184,471	0,067	0,071
-393,350	698,197	0,038	0,072
-392,336	-200,000	-0,031	0,142
-391,321	-200,000	-0,016	-0,056
-390,306	-94,912	-0,084	-0,016
-389,292	-200,000	-0,002	-0,126
-388,277	-102,881	-0,117	-0,020
-387,263	-64,622	0,197	0,057
-386,248	-200,000	0,017	0,056
-385,233	-116,825	-0,094	0,012
-384,219	24,329	-0,102	0,060
-383,204	376,184	0,053	-0,078
-382,190	-200,000	-0,015	-0,080
-381,175	494,724	0,025	0,041
-380,160	125,723	0,087	0,079
-379,146	415,197	0,073	0,112
-378,131	800,000	0,015	0,040
-377,117	-200,000	0,032	0,199
-376,102	162,042	-0,126	-0,127
-375,088	549,653	0,035	-0,060
-374,073	237,417	-0,030	0,036
-373,058	-200,000	-0,021	-0,185
-372,044	69,728	-0,100	0,074
-371,029	800,000	0,034	0,094
-370,015	-58,238	0,027	-0,009
-369,000	-93,635	-0,175	0,034
-367,985	314,464	-0,053	0,072
-366,971	38,856	-0,197	0,126
-365,956	436,154	-0,035	0,054
-364,942	65,811	0,105	-0,076
-363,927	342,557	-0,050	-0,070
-362,912	-54,225	-0,064	0,021
-361,898	291,455	0,138	-0,181
-360,883	800,000	0,023	0,065
-359,869	53,463	-0,139	0,096
-358,854	78,352	0,055	0,042
-357,839	47,063	-0,092	0,061
-356,825	800,000	-0,005	-0,015
-355,810	186,544	0,045	0,048
-354,796	-25,470	-0,102	0,043
-353,781	-200,000	0,027	-0,122
-352,766	800,000	-0,081	-0,212
-351,752	-200,000	0,030	0,129
-350,737	44,563	-0,043	0,028
-349,723	-38,494	-0,058	0,022
-348,708	76,977	-0,009	-0,007
-347,693	800,000	0,025	-0,071
-346,679	575,011	0,083	-0,147
-345,664	576,042	0,064	-0,113
-344,650	686,521	-0,086	-0,161
-343,635	-102,302	0,075	-0,013
-342,620	353,197	-0,009	0,012
-341,606	23,673	-0,060	-0,035
-340,591	-67,685	0,181	-0,050
-339,577	271,169	0,109	0,137
-338,562	622,123	-0,016	0,029
-337,548	-168,122	-0,031	-0,001
-336,533	171,013	-0,031	0,032
-335,518	8,848	0,240	0,130
-334,504	-104,683	0,137	0,022
-333,489	800,000	-0,030	-0,063
-332,475	-78,648	-0,168	-0,041
-331,460	529,841	0,033	-0,056
-330,445	250,998	-0,071	-0,087
-329,431	155,946	-0,129	0,128
-328,416	562,729	-0,053	0,092
-327,402	800,000	0,018	-0,044
-326,387	-76,474	-0,087	-0,022
-325,372	800,000	0,023	-0,049
-324,358	-200,000	-0,025	-0,133
-323,343	-200,000	0,015	-0,125
-322,329	800,000	0,052	0,139
-321,314	524,164	-0,024	0,041
-320,299	-138,742	0,136	0,010
-319,285	475,300	0,026	-0,042
-318,270	-21,725	-0,047	-0,020
-317,256	-200,000	0,028	-0,097
-316,241	-200,000	-0,001	0,098
-315,226	-87,845	-0,073	-0,016
-314,212	17,367	-0,049	-0,028
-313,197	215,127	0,031	0,036
-312,183	-14,378	-0,049	0,022
-311,168	-137,330	-0,147	0,012
-310,153	29,416	0,086	-0,052
-309,139	7,322	-0,035	0,019
-308,124	53,537	-0,023	-0,016
-307,110	800,000	0,013	0,037
-306,095	-78,027	-0,154	0,038
-305,080	800,000	-0,039	-0,088
-304,066	-161,284	0,104	0,004
-303,051	159,611	-0,040	-0,040
-302,037	23,836	0,120	0,071
-301,022	-67,336	0,123	0,034
-300,008	-200,000	0,010	0,068
-298,993	800,000	0,035	0,108
-297,978	268,130	-0,032	0,040
-296,964	85,862	0,073	0,057
-295,949	800,000	-0,052	-0,114
-294,935	310,465	-0,033	0,044
-293,920	-200,000	-0,008	0,087
-292,905	123,739	0,054	0,049
-291,891	-200,000	0,022	-0,090
-290,876	-72,186	-0,017	0,004
-289,862	4,015	0,074	0,038
-288,847	32,329	-0,033	0,021
-287,832	25,451	-0,016	0,009
-286,818	-86,126	0,057	0,012
-285,803	800,000	-0,013	0,029
-284,789	129,365	-0,107	0,098
-283,774	800,000	-0,060	0,144
-282,759	-200,000	0,022	-0,093
-281,745	95,179	0,042	-0,034
-280,730	-200,000	-0,018	0,090
-279,716	102,755	0,055	0,046
-278,701	-200,000	0,018	0,092
-277,686	-200,000	0,007	-0,053
-276,672	52,416	0,108	0,074
-275,657	-126,445	0,182	0,019
-274,643	273,052	0,037	0,047
-273,628	35,761	0,101	0,063
-272,613	122,469	-0,068	0,061
-271,599	-167,880	0,090	0,002
-270,584	171,677	-0,070	-0,072
-269,570	459,672	-0,041	-0,066
-268,555	800,000	0,051	-0,123
-267,540	3,201	0,086	0,045
-266,526	125,890	0,085	-0,077
-265,511	800,000	-0,073	-0,145
-264,497	248,294	-0,082	0,100
-263,482	407,080	-0,021	-0,032
-262,467	78,494	0,061	0,046
-261,453	160,856	-0,084	0,084
-260,438	319,205	0,058	0,079
-259,424	22,127	-0,106	-0,062
-258,409	-110,928	0,134	-0,020
-257,395	-200,000	-0,018	-0,069
-256,380	220,730	0,118	0,136
-255,365	-200,000	0,014	0,168
-254,351	-200,000	-0,015	0,151
-253,336	-200,000	0,011	-0,048
-252,322	800,000	-0,024	-0,058
-251,307	-200,000	-0,010	0,123
-250,292	-200,000	-0,000	-0,009
-249,278	-23,493	0,017	-0,007
-248,263	12,663	0,145	0,080
-247,249	66,280	-0,165	0,120
-246,234	21,620	-0,106	-0,062
-245,219	-200,000	0,011	-0,054
-244,205	156,830	0,149	-0,147
-243,190	34,988	0,058	-0,036
-242,176	-28,341	0,055	0,022
-241,161	121,226	0,070	0,062
-240,146	283,241	0,045	0,057
-239,132	-200,000	0,012	-0,060
-238,117	-200,000	-0,009	-0,101
-237,103	433,960	-0,030	0,046
-236,088	287,129	-0,057	0,074
-235,073	-200,000	-0,009	0,160
-234,059	42,084	0,058	-0,038
-233,044	-200,000	0,001	-0,032
-232,030	-200,000	0,036	0,114
-231,015	-200,000	0,020	0,098
-230,000	628,868	-0,054	-0,099
-228,986	-200,000	-0,043	-0,231
-227,971	-29,392	-0,024	-0,010
-226,957	137,158	0,105	0,098
-225,942	79,535	0,086	0,066
-224,927	217,117	-0,097	-0,110
-223,913	800,000	-0,051	-0,103
-222,898	613,052	-0,065	-0,117
-221,884	256,812	0,065	-0,080
-220,869	-69,499	0,159	-0,043
-219,855	-200,000	0,004	-0,053
-218,840	800,000	0,023	0,068
-217,825	36,685	-0,098	0,062
-216,811	32,425	-0,028	-0,017
-215,796	131,377	0,045	0,041
-214,782	-10,765	-0,037	-0,018
-213,767	163,724	0,094	-0,094
-212,752	63,430	0,016	-0,012
-211,738	355,218	-0,028	0,039
-210,723	-12,433	-0,090	0,042
-209,709	-82,415	0,048	0,011
-208,694	-200,000	0,036	-0,194
-207,679	-200,000	0,009	-0,115
-206,665	800,000	0,047	0,096
-205,650	36,661	0,098	0,061
-204,636	63,122	0,097	0,070
-203,621	800,000	-0,034	0,069
-202,606	-200,000	-0,013	-0,086
-201,592	-200,000	0,004	-0,089
-200,577	800,000	-0,010	0,028
-199,563	-118,476	-0,104	-0,013
-198,548	37,307	0,115	-0,073
-197,533	44,023	0,035	0,023
-196,519	-0,208	0,034	-0,017
-195,504	466,702	-0,048	-0,077
-194,490	15,372	-0,142	0,079
-193,475	-65,396	-0,120	-0,034
-192,460	76,864	0,042	-0,032
-191,446	395,648	0,089	0,132
-190,431	193,373	0,131	0,141
-189,417	-200,000	-0,003	-0,021
-188,402	-200,000	-0,025	-0,163
-187,387	100,189	-0,031	-0,026
-186,373	435,287	0,023	-0,036
-185,358	-115,264	0,091	0,012
-184,344	222,045	-0,079	0,091
-183,329	-200,000	0,000	0,107
-182,315	264,643	0,035	-0,044
-181,300	86,580	-0,042	0,033
-180,285	-128,732	-0,028	0,003
-179,271	632,460	0,060	-0,108
-178,256	-200,000	0,040	-0,133
-177,242	-200,000	0,009	-0,064
-176,227	216,969	0,043	0,048
-175,212	52,866	-0,051	0,035
-174,198	-200,000	-0,010	-0,038
-173,183	-102,623	-0,079	-0,013
-172,169	800,000	-0,068	-0,163
-171,154	800,000	-0,049	-0,103
-170,139	-127,820	0,134	-0,014
-169,125	244,725	-0,059	0,071
-168,110	-200,000	0,014	0,234
-167,096	231,208	0,049	0,057
-166,081	-200,000	-0,020	-0,082
-165,066	-200,000	0,007	0,027
-164,052	206,880	-0,118	-0,132
-163,037	105,558	0,106	-0,089
-162,023	800,000	0,027	0,078
-161,008	348,061	-0,068	-0,096
-159,993	-200,000	-0,019	-0,139
-158,979	-80,811	0,025	0,006
-157,964	-200,000	0,034	-0,106
-156,950	-200,000	-0,010	0,034
-155,935	102,720	-0,088	0,073
-154,920	-200,000	-0,009	0,098
-153,906	80,630	0,070	0,054
-152,891	800,000	-0,009	0,024
-151,877	-75,900	-0,169	-0,042
-150,862	178,490	-0,144	-0,150
-149,847	-200,000	0,023	-0,118
-148,833	-46,517	0,112	0,039
-147,818	800,000	0,020	-0,040
-146,804	178,699	0,021	0,022
-145,789	-200,000	0,000	-0,036
-144,775	-27,544	-0,116	-0,048
-143,760	-43,435	-0,108	-0,039
-142,745	-200,000	0,014	-0,152
-141,731	-29,713	0,164	-0,066
-140,716	-200,000	0,042	0,147
-139,702	-200,000	0,045	-0,144
-138,687	800,000	0,023	0,050
-137,672	-109,307	-0,041	0,006
-136,658	258,979	-0,126	-0,155
-135,643	-200,000	0,008	-0,070
-134,629	-200,000	-0,046	-0,155
-133,614	-81,524	0,134	0,031
-132,599	-117,177	0,077	0,010
-131,585	-66,559	0,044	0,012
-130,570	-200,000	0,009	0,073
-129,556	174,247	-0,027	-0,028
-128,541	800,000	-0,020	0,047
-127,526	-59,919	-0,093	-0,028
-126,512	168,006	0,050	0,051
-125,497	-45,644	-0,084	0,029
-124,483	-200,000	0,027	0,205
-123,468	80,461	0,041	0,031
-122,453	381,449	-0,072	-0,105
-121,439	-200,000	-0,006	-0,172
-120,424	-200,000	-0,000	0,099
-119,410	-138,286	0,099	-0,008
-118,395	-108,592	0,089	0,013
-117,380	119,486	-0,065	-0,057
-116,366	744,934	0,022	-0,043
-115,351	25,879	0,061	0,036
-114,337	-200,000	-0,005	-0,139
-113,322	387,971	0,093	-0,137
-112,307	-200,000	-0,010	-0,059
-111,293	-200,000	0,010	0,078
-110,278	-10,253	0,122	0,057
-109,264	58,605	0,073	-0,051
-108,249	-88,020	0,130	-0,028
-107,234	121,461	-0,102	-0,090
-106,220	117,246	-0,027	0,023
-105,205	-200,000	0,027	0,094
-104,191	48,034	-0,113	0,075
-103,176	-200,000	0,002	0,041
-102,162	800,000	0,070	0,160
-101,147	-200,000	0,013	-0,050
-100,132	-200,000	0,002	-0,014
-99,118	21,085	0,013	0,007
-98,103	279,827	0,052	-0,066
-97,089	359,439	0,037	0,052
-96,074	-200,000	-0,004	-0,050
-95,059	-52,340	0,115	0,038
-94,045	-89,388	-0,023	0,005
-93,030	-200,000	-0,045	-0,148
-92,016	351,057	0,055	-0,078
-91,001	476,524	-0,041	0,067
-89,986	-24,092	-0,116	-0,049
-88,972	305,068	0,021	0,027
-87,957	800,000	-0,043	0,105
-86,943	-200,000	0,015	0,063
-85,928	-14,184	-0,156	-0,071
-84,913	800,000	-0,016	-0,038
-83,899	-26,921	-0,134	0,055
-82,884	64,816	-0,071	0,051
-81,870	-98,177	0,119	0,022
-80,855	800,000	-0,016	-0,033
-79,840	-200,000	0,002	-0,099
-78,826	7,137	-0,061	0,032
-77,811	379,920	-0,044	-0,065
-76,797	98,312	0,116	-0,094
-75,782	-125,271	-0,015	0,002
-74,767	60,878	0,067	0,047
-73,753	705,234	-0,026	0,049
-72,738	142,391	0,063	0,059
-71,724	-108,813	0,098	-0,015
-70,709	-200,000	-0,003	-0,032
-69,694	438,058	0,057	0,088
-68,680	-141,778	0,094	-0,007
-67,665	233,057	0,054	-0,063
-66,651	-200,000	-0,028	0,105
-65,636	-200,000	0,001	-0,066
-64,622	360,627	0,073	-0,104
-63,607	226,162	0,041	-0,048
-62,592	-200,000	0,029	-0,111
-61,578	-200,000	0,017	0,080
-60,563	-200,000	0,028	-0,089
-59,549	51,225	0,120	0,081
-58,534	-43,549	-1,427	-0,508
-57,519	491,171	-1,470	-2,395
-56,505	-200,000	-0,546	-4,472
-55,490	75,772	1,008	0,755
-54,476	800,000	4,686	11,243
-53,461	-200,000	17,470	276,363
-52,446	800,000	718,634	2204,794
-51,432	556,515	1632,881	2800,841
-50,417	81,097	1657,106	1267,596
-49,403	24,062	1531,185	893,718
-48,388	17,994	1454,810	819,895
-47,373	18,386	1444,278	815,809
-46,359	18,003	1434,903	808,654
-45,344	16,339	1430,169	798,053
-44,330	16,245	1428,330	796,550
-43,315	16,262	1426,598	795,633
-42,300	16,307	1424,735	794,773
-41,286	16,307	1423,850	794,250
-40,271	16,280	1422,406	793,284
-39,257	16,231	1421,239	792,371
-38,242	16,343	1419,894	792,119
-37,227	16,328	1418,676	791,334
-36,213	16,268	1417,500	790,367
-35,198	16,266	1416,243	789,626
-34,184	16,319	1415,271	789,300
-33,169	16,273	1414,028	788,360
-32,154	16,276	1413,008	787,775
-31,140	16,310	1411,475	787,046
-30,125	16,305	1410,420	786,403
-29,111	16,301	1409,335	785,748
-28,096	16,240	1408,521	784,980
-27,082	16,235	1407,108	784,138
-26,067	16,240	1405,906	783,459
-25,052	16,194	1405,123	782,775
-24,038	16,159	1404,201	782,071
-23,023	16,221	1402,869	781,586
-22,009	16,136	1402,043	780,699
-20,994	16,148	1400,885	780,079
-19,979	16,149	1400,117	779,623
-18,965	16,168	1399,036	779,082
-17,950	16,165	1398,013	778,464
-16,936	16,176	1397,247	778,060
-15,921	16,138	1395,829	777,061
-14,906	16,121	1395,038	776,512
-13,892	16,138	1394,105	776,042
-12,877	16,129	1393,322	775,530
-11,863	16,110	1392,259	774,822
-10,848	16,108	1391,492	774,355
-9,833	16,036	1390,634	773,516
-8,819	16,135	1389,361	773,234
-7,804	16,026	1388,559	772,252
-6,790	16,101	1387,353	771,895
-5,775	16,018	1386,616	771,074
-4,760	16,002	1385,855	770,546
-3,746	16,007	1384,980	770,052
-2,731	16,024	1384,147	769,637
-1,717	16,006	1382,982	768,875
-0,702	15,999	1381,129	767,781
0,313	19,836	1302,879	741,967
1,327	36,353	707,419	441,170
2,342	56,402	125,420	86,273
3,356	3,762	16,554	8,537
4,371	-3,886	3,133	1,535
5,386	62,313	0,555	0,392
6,400	49,809	-0,075	0,050
7,415	-128,386	-0,248	-0,025
8,429	172,217	-0,222	-0,226
9,444	-15,058	-0,343	-0,155
10,459	131,185	-0,289	-0,263
11,473	187,309	-0,319	-0,337
12,488	-95,959	-0,276	-0,052
13,502	-16,186	-0,377	-0,169
14,517	6,284	-0,320	-0,168
15,531	83,829	-0,300	-0,232
16,546	45,732	-0,341	-0,223
17,561	45,848	-0,358	-0,234
18,575	295,312	-0,161	-0,209
19,590	345,714	-0,211	-0,294
20,604	173,358	-0,106	-0,108
21,619	-12,852	-0,390	-0,179
22,634	58,362	-0,522	-0,362
23,648	151,900	-0,371	-0,358
24,663	437,176	-0,319	-0,493
25,677	70,541	-0,385	-0,281
26,692	114,922	-0,200	-0,173
27,707	31,302	-0,392	-0,237
28,721	11,304	-0,474	-0,256
29,736	111,232	-0,424	-0,361
30,750	6,956	-0,490	-0,258
31,765	99,933	-0,403	-0,330
32,780	30,653	-0,382	-0,231
33,794	-17,777	-0,337	-0,149
34,809	800,000	-0,169	-0,396
35,823	-43,433	-0,396	-0,140
36,838	88,781	-0,267	-0,209
37,853	286,130	-0,292	-0,373
38,867	36,528	-0,370	-0,230
39,882	198,870	-0,294	-0,318
40,896	122,869	-0,292	-0,258
41,911	-28,931	-0,409	-0,165
42,926	-13,970	-0,421	-0,191
43,940	178,179	-0,327	-0,338
44,955	106,247	-0,300	-0,251
45,969	20,146	-0,348	-0,198
46,984	35,329	-0,341	-0,210
47,999	62,620	-0,205	-0,144
49,013	4,549	-0,283	-0,146
50,028	-7,970	-0,421	-0,200
51,042	261,350	-0,323	-0,396
52,057	96,324	-0,392	-0,316
53,071	169,105	-0,302	-0,304
54,086	349,611	-0,290	-0,405
55,101	-7,184	-0,361	-0,172
56,115	49,898	-0,419	-0,278
57,130	28,157	-0,302	-0,179
58,144	188,657	-0,326	-0,345
59,159	104,088	-0,236	-0,195
60,174	4,335	-0,378	-0,195
61,188	74,964	-0,350	-0,260
62,203	64,133	-0,325	-0,230
63,217	464,690	-0,206	-0,326
64,232	-83,482	-0,373	-0,083
65,247	38,585	-0,310	-0,194
66,261	-2,983	-0,413	-0,203
67,276	19,144	-0,384	-0,217
68,290	-10,741	-0,346	-0,161
69,305	37,594	-0,368	-0,230
70,320	-49,976	-0,312	-0,104
71,334	-61,998	-0,336	-0,098
72,349	-189,417	-0,279	-0,002
73,363	80,029	-0,342	-0,259
74,378	-54,735	-0,404	-0,128
75,393	-22,161	-0,319	-0,136
76,407	-3,544	-0,260	-0,127
77,422	-82,061	-0,237	-0,054
78,436	81,746	-0,270	-0,206
79,451	153,494	-0,209	-0,202
80,466	76,713	-0,354	-0,264
81,480	322,586	-0,217	-0,292
82,495	222,683	-0,214	-0,243
83,509	0,836	-0,355	-0,178
84,524	73,917	-0,239	-0,176
85,539	59,253	-0,225	-0,156
86,553	788,863	-0,132	-0,255
87,568	-71,436	-0,380	-0,099
88,582	58,333	-0,335	-0,231
89,597	-65,549	-0,297	-0,083
90,611	134,291	-0,316	-0,288
91,626	195,911	-0,234	-0,250
92,641	94,740	-0,297	-0,238
93,655	116,250	-0,231	-0,199
94,670	9,126	-0,122	-0,065
95,684	57,363	-0,318	-0,218
96,699	22,260	-0,368	-0,211
97,714	7,316	-0,322	-0,168
98,728	209,551	-0,212	-0,234
99,743	90,267	-0,249	-0,195
100,757	38,594	-0,265	-0,166
101,772	77,258	-0,384	-0,287
102,787	95,904	-0,322	-0,259
103,801	63,162	-0,272	-0,191
104,816	85,892	-0,280	-0,216
105,830	282,574	-0,147	-0,185
106,845	-63,429	-0,273	-0,078
107,860	-11,961	-0,320	-0,147
108,874	-7,450	-0,332	-0,157
109,889	44,069	-0,352	-0,226
110,903	122,144	-0,254	-0,223
111,918	40,372	-0,361	-0,227
112,933	215,170	-0,223	-0,249
113,947	-98,788	-0,230	-0,041
114,962	-6,281	-0,253	-0,121
115,976	270,749	-0,250	-0,309
116,991	304,139	-0,126	-0,164
118,006	-48,955	-0,344	-0,115
119,020	19,492	-0,220	-0,124
120,035	41,253	-0,297	-0,188
121,049	106,325	-0,270	-0,224
122,064	800,000	-0,103	-0,234
123,079	228,866	-0,258	-0,295
124,093	-31,984	-0,366	-0,143
125,108	189,846	-0,246	-0,259
126,122	99,009	-0,182	-0,147
127,137	-26,071	-0,211	-0,087
128,151	5,666	-0,281	-0,145
129,166	86,671	-0,202	-0,156
130,181	424,494	-0,195	-0,294
131,195	52,453	-0,313	-0,209
132,210	24,229	-0,307	-0,177
133,224	38,802	-0,225	-0,141
134,239	-82,749	-0,296	-0,067
135,254	-129,130	-0,347	-0,034
136,268	-82,737	-0,282	-0,063
137,283	-16,404	-0,178	-0,079
138,297	157,977	-0,213	-0,207
139,312	25,827	-0,256	-0,149
140,327	800,000	-0,106	-0,207
141,341	341,621	-0,177	-0,243
142,356	79,571	-0,249	-0,187
143,370	-63,565	-0,285	-0,081
144,385	115,114	-0,261	-0,223
145,400	-200,000	-0,082	-0,274
146,414	112,761	-0,192	-0,163
147,429	657,876	-0,189	-0,341
148,443	45,291	-0,177	-0,114
149,458	202,476	-0,131	-0,141
150,473	535,884	-0,111	-0,185
151,487	-5,456	-0,355	-0,170
152,502	5,351	-0,259	-0,133
153,516	297,864	-0,204	-0,263
154,531	102,996	-0,303	-0,248
155,546	777,837	-0,088	-0,170
156,560	114,203	-0,252	-0,215
157,575	34,551	-0,196	-0,120
158,589	1,294	-0,269	-0,135
159,604	92,584	-0,254	-0,200
160,619	137,255	-0,257	-0,235
161,633	-36,201	-0,285	-0,107
162,648	22,337	-0,246	-0,140
163,662	155,203	-0,227	-0,219
164,677	167,151	-0,139	-0,138
165,692	-92,195	-0,225	-0,044
166,706	121,866	-0,157	-0,136
167,721	-36,270	-0,281	-0,105
168,735	139,582	-0,399	-0,367
169,750	-35,844	-0,201	-0,075
170,764	75,758	-0,239	-0,176
171,779	94,779	-0,171	-0,135
172,794	497,302	-0,191	-0,308
173,808	302,461	-0,169	-0,219
174,823	31,294	-0,276	-0,165
175,837	178,434	-0,188	-0,192
176,852	91,314	-0,305	-0,239
177,867	5,645	-0,194	-0,100
178,881	277,384	-0,155	-0,193
179,896	187,063	-0,197	-0,205
180,910	24,943	-0,256	-0,148
181,925	773,680	-0,073	-0,140
182,940	69,764	-0,274	-0,196
183,954	151,553	-0,166	-0,158
184,969	537,815	-0,130	-0,215
185,983	-70,196	-0,181	-0,048
186,998	348,233	-0,138	-0,190
188,013	310,674	-0,135	-0,177
189,027	214,794	-0,127	-0,140
190,042	303,950	-0,240	-0,311
191,056	-37,093	-0,264	-0,098
192,071	-76,720	-0,172	0,042
193,086	242,587	-0,183	-0,213
194,100	-115,316	-0,316	0,041
195,115	617,282	-0,142	-0,250
196,129	-28,648	-0,293	-0,117
197,144	333,290	-0,165	-0,223
198,159	119,573	-0,236	-0,204
199,173	365,419	-0,163	-0,229
200,188	353,384	-0,122	-0,169
201,202	108,142	-0,180	-0,149
202,217	-87,041	-0,128	-0,027
203,232	323,804	-0,220	-0,292
204,246	800,000	-0,131	-0,265
205,261	216,637	-0,158	-0,175
206,275	800,000	-0,078	-0,171
207,290	117,112	-0,195	-0,166
208,304	122,169	-0,130	-0,113
209,319	62,342	-0,134	-0,093
210,334	436,723	-0,121	-0,185
211,348	69,026	-0,255	-0,182
212,363	672,906	-0,120	-0,217
213,377	360,718	-0,231	-0,323
214,392	41,166	-0,131	-0,082
215,407	-96,227	-0,087	-0,016
216,421	60,459	-0,218	-0,150
217,436	150,411	-0,179	-0,169
218,450	314,975	-0,121	-0,159
219,465	24,850	-0,303	-0,174
220,480	-50,905	-0,251	-0,081
221,494	-3,216	-0,263	-0,127
222,509	70,571	-0,083	-0,060
223,523	-83,716	-0,176	-0,039
224,538	-9,570	-0,262	-0,121
225,553	-61,426	-0,243	-0,070
226,567	245,176	-0,187	-0,219
227,582	368,561	-0,138	-0,194
228,596	800,000	-0,066	-0,170
229,611	-32,603	-0,157	-0,060
230,626	145,569	-0,179	-0,166
231,640	-43,555	-0,306	-0,107
232,655	17,070	-0,144	-0,079
233,669	214,597	-0,220	-0,242
234,684	289,875	-0,155	-0,196
235,699	303,002	-0,127	-0,164
236,713	-120,192	-0,193	-0,023
237,728	-40,945	-0,223	-0,079
238,742	57,042	-0,243	-0,164
239,757	52,181	-0,145	-0,096
240,772	-75,497	-0,298	-0,073
241,786	119,139	-0,209	-0,179
242,801	800,000	-0,063	-0,124
243,815	261,261	-0,125	-0,150
244,830	22,061	-0,076	-0,043
245,844	81,769	-0,211	-0,158
246,859	64,250	-0,215	-0,150
247,874	73,910	-0,324	-0,235
248,888	234,988	-0,281	-0,323
249,903	2,294	-0,272	-0,136
250,917	-77,525	-0,117	-0,028
251,932	-31,787	-0,362	-0,140
252,947	-58,312	-0,180	-0,054
253,961	121,661	-0,088	-0,076
254,976	289,881	-0,215	-0,271
255,990	800,000	-0,095	-0,185
257,005	560,878	-0,094	-0,158
258,020	229,620	-0,190	-0,215
259,034	226,320	-0,165	-0,185
260,049	51,077	-0,123	-0,081
261,063	209,590	-0,130	-0,142
262,078	343,116	-0,130	-0,176
263,093	20,552	-0,251	-0,140
264,107	-72,695	-0,159	-0,040
265,122	-75,672	-0,210	0,051
266,136	-137,840	-0,158	-0,012
267,151	41,440	-0,215	0,134
268,166	-25,466	-0,278	-0,113
269,180	596,201	-0,165	-0,284
270,195	168,493	-0,248	-0,245
271,209	172,277	-0,212	-0,211
272,224	155,809	-0,156	-0,149
273,239	229,345	-0,051	-0,057
274,253	239,393	-0,091	-0,106
275,268	71,277	-0,172	-0,123
276,282	-122,002	-0,147	-0,017
277,297	53,816	-0,245	-0,163
278,312	199,946	-0,148	-0,158
279,326	101,505	-0,125	-0,101
280,341	326,573	-0,123	-0,164
281,355	-80,777	-0,120	0,027
282,370	-30,721	-0,148	-0,058
283,384	126,906	-0,277	-0,243
284,399	-160,297	-0,171	-0,006
285,414	-200,000	-0,073	-0,262
286,428	800,000	-0,112	-0,232
287,443	79,967	-0,231	-0,171
288,457	633,679	-0,091	-0,159
289,472	540,735	-0,094	-0,155
290,487	-200,000	-0,021	-0,146
291,501	-200,000	-0,052	-0,194
292,516	800,000	-0,078	-0,149
293,530	717,838	-0,098	-0,182
294,545	81,908	-0,104	-0,078
295,560	11,332	-0,153	0,081
296,574	605,705	-0,044	-0,075
297,589	245,842	-0,121	-0,141
298,603	70,901	-0,200	-0,143
299,618	388,385	-0,148	-0,212
300,633	79,843	-0,117	-0,087
301,647	-170,702	-0,202	-0,005
302,662	189,173	-0,149	-0,154
303,676	98,910	-0,150	-0,120
304,691	-3,483	-0,213	-0,102
305,706	-172,246	-0,246	0,005
306,720	-119,331	-0,188	-0,022
307,735	168,123	-0,084	-0,082
308,749	53,209	-0,150	-0,099
309,764	-3,405	-0,187	-0,090
310,779	-84,958	-0,141	-0,030
311,793	202,533	-0,082	-0,087
312,808	16,109	-0,067	-0,036
313,822	162,936	-0,163	-0,158
314,837	-45,660	-0,089	-0,030
315,852	37,663	-0,087	-0,053
316,866	277,973	-0,076	-0,094
317,881	-141,567	-0,224	0,015
318,895	115,512	-0,161	-0,136
319,910	50,270	-0,170	-0,111
320,925	-54,702	-0,192	-0,059
321,939	147,781	-0,204	-0,190
322,954	83,390	-0,154	-0,115
323,968	-42,661	-0,126	-0,044
324,983	91,675	-0,121	-0,094
325,997	470,388	-0,074	-0,115
327,012	195,842	-0,185	-0,194
328,027	800,000	-0,088	-0,184
329,041	163,957	-0,151	-0,147
330,056	72,575	-0,115	-0,083
331,070	68,132	-0,158	-0,111
332,085	195,465	-0,160	-0,168
333,100	-32,703	-0,095	-0,036
334,114	-38,535	-0,201	-0,073
335,129	133,382	-0,247	-0,220
336,143	148,697	-0,173	-0,161
337,158	174,672	-0,125	-0,124
338,173	20,917	-0,154	-0,086
339,187	157,278	-0,133	-0,126
340,202	-114,384	-0,154	-0,020
341,216	-154,962	-0,051	-0,002
342,231	-200,000	-0,004	-0,194
343,246	94,570	-0,220	-0,172
344,260	-189,453	-0,142	0,001
345,275	195,636	-0,070	-0,073
346,289	180,956	-0,031	-0,032
347,304	-47,966	-0,167	-0,055
348,319	-82,534	-0,204	-0,045
349,333	-92,384	-0,197	-0,038
350,348	159,144	-0,027	-0,026
351,362	151,642	-0,114	-0,107
352,377	-200,000	-0,038	-0,204
353,392	-200,000	0,026	-0,146
354,406	29,339	-0,154	0,090
355,421	209,238	1313,069	1414,923
356,435	161,034	1473,629	1415,464
