DTS Sentinel unit serial number:	SN410029Multiplexer serial number:	ORYXHardware model number:	OX2-SRSoftware version number:	ORYX F/W v4,00 Oryx Data Collector v3.7.2.0data status	okinstallation	B3 Nyhavnadifferential loss correction	single-endedforward channel	channel 1reverse channel	N/Adate	2023/12/04time	13:12:30forward acquisition time	300,00reverse acquisition time	0,00gamma	499,1914k internal	0,3202k external	0,3202temperature offset calibration	1,0000default loss term (dB/km)	0,3820temperature slope calibration	1,0000multiplexer offset coefficient	1,0000multiplexer slope coefficient	1,0000fibre end	0,00T internal ref (°C)	14,79T ext. ref 1 (°C)	0,29T ext. ref 2 (°C)	0,28length (m)	temperature (°C)	Stokes	anti-Stokes-744,400	68,650	-0,267	-0,199
-743,385	-200,000	-0,099	0,334
-742,371	311,869	-0,167	-0,228
-741,356	-200,000	0,052	0,392
-740,342	800,000	-0,115	-0,308
-739,327	-200,000	0,009	0,372
-738,312	558,095	-0,242	-0,426
-737,298	-200,000	-0,045	0,286
-736,283	115,412	-0,230	-0,205
-735,269	-200,000	0,050	0,481
-734,254	-0,164	-0,297	-0,153
-733,239	122,350	-0,162	0,147
-732,225	-23,124	-0,279	-0,122
-731,210	-123,283	0,062	-0,007
-730,196	-131,903	0,038	-0,004
-729,181	395,666	-0,022	-0,033
-728,167	-200,000	-0,011	-0,075
-727,152	453,273	0,034	-0,056
-726,137	-200,000	-0,004	0,094
-725,123	421,254	0,034	0,052
-724,108	382,462	-0,063	-0,095
-723,094	74,009	-0,095	-0,072
-722,079	800,000	0,027	-0,078
-721,064	800,000	0,036	-0,095
-720,050	129,429	0,052	0,048
-719,035	92,478	0,069	-0,057
-718,021	-55,349	0,111	0,036
-717,006	-200,000	-0,030	-0,106
-715,991	-152,278	-0,033	-0,002
-714,977	-40,976	-0,062	-0,023
-713,962	382,947	-0,037	-0,055
-712,948	752,991	0,038	-0,075
-711,933	-40,312	-0,076	0,028
-710,918	-85,806	0,038	-0,008
-709,904	391,494	-0,070	-0,107
-708,889	-182,545	-0,172	0,002
-707,875	561,010	0,026	-0,046
-706,860	-51,528	0,088	-0,030
-705,845	-13,265	0,077	0,036
-704,831	307,670	-0,058	0,079
-703,816	508,007	0,074	-0,124
-702,802	800,000	0,012	-0,025
-701,787	44,230	-0,172	0,114
-700,772	-187,694	-0,078	0,001
-699,758	35,683	0,117	-0,075
-698,743	-200,000	-0,010	0,068
-697,729	109,421	0,086	-0,075
-696,714	346,783	0,029	-0,042
-695,699	-10,624	0,028	-0,013
-694,685	-200,000	0,005	-0,018
-693,670	-200,000	0,023	-0,229
-692,656	719,655	0,014	-0,027
-691,641	-200,000	-0,042	0,209
-690,627	30,040	0,128	0,079
-689,612	462,039	0,055	0,089
-688,597	-200,000	-0,003	-0,045
-687,583	246,667	-0,048	-0,058
-686,568	-200,000	-0,005	-0,034
-685,554	177,472	-0,039	0,041
-684,539	403,990	0,049	-0,075
-683,524	800,000	0,056	0,134
-682,510	-163,646	0,041	0,001
-681,495	400,769	-0,101	0,154
-680,481	217,791	-0,033	-0,038
-679,466	343,402	-0,053	-0,075
-678,451	111,287	-0,061	-0,053
-677,437	526,164	0,063	-0,108
-676,422	147,480	0,157	0,154
-675,408	-12,836	-0,090	0,042
-674,393	-200,000	0,012	0,047
-673,378	800,000	-0,004	-0,009
-672,364	92,293	-0,036	-0,029
-671,349	-46,917	-0,087	0,031
-670,335	181,980	0,106	0,114
-669,320	800,000	0,048	0,103
-668,305	239,905	0,008	0,009
-667,291	-72,980	-0,133	-0,035
-666,276	216,009	-0,101	0,117
-665,262	-200,000	0,013	-0,127
-664,247	800,000	0,021	-0,063
-663,232	-200,000	0,028	-0,169
-662,218	180,329	-0,030	-0,032
-661,203	-200,000	0,003	0,090
-660,189	780,747	-0,030	0,059
-659,174	-79,111	-0,094	-0,023
-658,159	321,039	-0,119	-0,164
-657,145	-62,212	0,077	-0,023
-656,130	-66,328	0,039	0,011
-655,116	-10,446	0,048	-0,023
-654,101	-200,000	0,022	0,158
-653,086	352,384	-0,056	0,080
-652,072	8,791	0,069	-0,038
-651,057	800,000	-0,047	-0,114
-650,043	793,215	0,033	-0,067
-649,028	-200,000	-0,019	-0,203
-648,014	247,228	-0,063	-0,077
-646,999	-13,920	-0,083	0,039
-645,984	17,849	-0,191	0,110
-644,970	612,940	-0,093	-0,169
-643,955	116,460	-0,016	-0,015
-642,941	118,795	-0,126	-0,112
-641,926	181,690	-0,114	-0,122
-640,911	800,000	0,014	0,039
-639,897	-200,000	0,004	0,099
-638,882	-28,385	-0,027	-0,011
-637,868	294,417	-0,035	0,046
-636,853	-200,000	0,026	0,104
-635,838	33,851	0,041	-0,026
-634,824	217,678	-0,077	-0,089
-633,809	45,006	0,089	0,059
-632,795	581,512	0,033	-0,059
-631,780	101,091	-0,079	-0,067
-630,765	274,669	-0,133	-0,171
-629,751	800,000	-0,062	-0,141
-628,736	800,000	-0,032	-0,086
-627,722	-6,234	-0,093	0,046
-626,707	640,590	0,032	-0,059
-625,692	348,458	-0,034	-0,048
-624,678	-200,000	-0,010	0,054
-623,663	800,000	-0,044	0,107
-622,649	68,681	-0,037	0,027
-621,634	-6,385	0,060	-0,030
-620,619	-200,000	-0,005	-0,033
-619,605	-85,346	0,154	0,035
-618,590	-79,282	0,046	-0,011
-617,576	-101,158	-0,145	0,025
-616,561	-200,000	0,002	-0,087
-615,546	153,781	0,083	0,082
-614,532	-14,161	-0,081	0,038
-613,517	-89,269	-0,079	0,017
-612,503	-48,791	0,145	-0,050
-611,488	210,440	-0,039	0,044
-610,474	800,000	0,053	0,126
-609,459	-124,511	-0,026	0,003
-608,444	-200,000	0,004	-0,123
-607,430	-63,347	-0,159	-0,047
-606,415	-41,742	0,072	0,026
-605,401	283,423	-0,034	-0,045
-604,386	41,419	-0,072	0,047
-603,371	51,581	0,099	-0,068
-602,357	209,128	-0,088	0,100
-601,342	15,032	-0,075	-0,042
-600,328	800,000	-0,076	-0,164
-599,313	-200,000	0,003	-0,102
-598,298	-60,524	0,082	-0,025
-597,284	-200,000	-0,007	-0,052
-596,269	43,661	0,104	0,068
-595,255	349,054	0,077	0,110
-594,240	26,152	-0,119	0,072
-593,225	-50,998	-0,069	0,023
-592,211	27,526	-0,040	-0,024
-591,196	181,737	-0,120	0,128
-590,182	26,187	-0,069	0,042
-589,167	629,723	0,065	-0,120
-588,152	-69,225	-0,029	-0,008
-587,138	-200,000	-0,002	-0,183
-586,123	-200,000	-0,007	-0,100
-585,109	-120,423	-0,221	-0,027
-584,094	800,000	-0,058	-0,146
-583,079	373,095	0,097	-0,143
-582,065	539,713	-0,092	0,158
-581,050	800,000	0,012	0,036
-580,036	28,649	0,021	-0,013
-579,021	-200,000	-0,007	-0,043
-578,006	-200,000	0,002	0,030
-576,992	-200,000	0,011	-0,046
-575,977	-200,000	-0,007	0,091
-574,963	800,000	0,057	0,126
-573,948	800,000	0,045	0,135
-572,934	71,144	0,027	-0,020
-571,919	-200,000	-0,018	-0,062
-570,904	258,352	0,012	0,015
-569,890	-91,214	-0,072	-0,015
-568,875	32,797	0,051	0,032
-567,861	-134,011	0,120	0,011
-566,846	800,000	0,035	0,099
-565,831	-200,000	0,010	0,104
-564,817	800,000	-0,045	0,104
-563,802	-134,652	-0,063	-0,005
-562,788	-147,156	-0,044	0,003
-561,773	-200,000	-0,013	0,097
-560,758	-97,388	-0,113	-0,021
-559,744	86,555	0,032	0,025
-558,729	95,610	0,034	0,028
-557,715	-44,191	-0,140	-0,050
-556,700	-63,812	-0,061	-0,018
-555,685	166,459	0,042	0,043
-554,671	-37,058	0,049	-0,019
-553,656	-167,053	-0,074	-0,002
-552,642	-66,639	0,102	-0,029
-551,627	89,225	-0,061	-0,049
-550,612	-109,665	0,029	0,004
-549,598	-22,908	-0,114	-0,049
-548,583	-127,028	-0,055	0,006
-547,569	-43,138	-0,079	-0,029
-546,554	-200,000	0,029	0,095
-545,539	471,155	-0,028	-0,046
-544,525	-118,571	-0,187	0,024
-543,510	379,403	-0,053	0,079
-542,496	-200,000	0,003	-0,037
-541,481	481,117	-0,050	-0,083
-540,466	28,597	0,065	-0,040
-539,452	62,388	0,084	0,060
-538,437	325,463	-0,048	0,066
-537,423	-200,000	0,007	0,111
-536,408	371,687	0,054	-0,079
-535,393	-200,000	-0,008	0,090
-534,379	-200,000	-0,006	-0,087
-533,364	-200,000	-0,008	-0,227
-532,350	-200,000	0,001	-0,012
-531,335	359,354	0,056	0,081
-530,321	-200,000	0,032	0,157
-529,306	480,782	-0,045	0,074
-528,291	-200,000	0,024	-0,128
-527,277	-200,000	-0,002	0,048
-526,262	-200,000	0,017	0,086
-525,248	-160,988	0,107	-0,004
-524,233	543,638	-0,009	0,016
-523,218	-200,000	0,021	0,070
-522,204	-1,611	0,040	0,020
-521,189	45,871	-0,072	0,048
-520,175	-200,000	-0,017	-0,057
-519,160	110,932	-0,054	0,047
-518,145	32,571	0,087	0,054
-517,131	-200,000	-0,006	0,090
-516,116	-200,000	0,008	-0,069
-515,102	49,228	-0,155	-0,105
-514,087	-200,000	-0,002	-0,035
-513,072	90,793	0,038	0,031
-512,058	32,466	-0,015	0,009
-511,043	445,250	0,013	-0,020
-510,029	155,971	0,036	0,035
-509,014	-64,149	0,066	0,019
-507,999	18,629	0,024	0,014
-506,985	263,839	0,037	0,047
-505,970	-200,000	-0,025	0,136
-504,956	-133,741	0,094	0,008
-503,941	35,486	0,089	0,056
-502,926	616,374	0,060	0,109
-501,912	88,692	0,127	-0,102
-500,897	96,121	-0,021	-0,017
-499,883	412,814	-0,007	-0,011
-498,868	245,938	-0,034	-0,042
-497,853	-200,000	-0,032	-0,105
-496,839	800,000	-0,055	0,111
-495,824	-127,583	0,033	-0,003
-494,810	419,856	0,013	-0,020
-493,795	19,069	0,068	-0,039
-492,781	-200,000	-0,012	0,073
-491,766	-96,118	-0,062	-0,012
-490,751	97,025	-0,039	-0,032
-489,737	454,067	0,027	0,043
-488,722	-123,117	-0,070	-0,008
-487,708	20,143	0,128	0,074
-486,693	800,000	-0,076	0,205
-485,678	-200,000	-0,004	0,056
-484,664	-200,000	0,024	-0,140
-483,649	509,410	0,053	-0,088
-482,635	-200,000	-0,019	-0,096
-481,620	-3,973	-0,083	0,041
-480,605	212,486	-0,080	0,091
-479,591	-200,000	0,034	0,110
-478,576	-200,000	-0,023	-0,074
-477,562	0,803	-0,083	0,043
-476,547	800,000	-0,046	0,112
-475,532	-200,000	-0,031	-0,140
-474,518	656,588	0,054	0,100
-473,503	473,464	0,064	0,105
-472,489	-200,000	-0,008	0,053
-471,474	-16,769	-0,156	0,071
-470,459	-98,446	0,098	-0,018
-469,445	-58,721	0,080	-0,025
-468,430	800,000	0,015	0,034
-467,416	-86,436	-0,055	-0,012
-466,401	219,349	0,156	-0,179
-465,386	57,839	0,110	-0,077
-464,372	-200,000	0,015	-0,110
-463,357	-27,742	-0,091	-0,038
-462,343	43,480	-0,090	-0,059
-461,328	18,696	-0,120	0,069
-460,313	732,513	-0,053	-0,101
-459,299	-14,519	0,101	0,047
-458,284	-90,441	-0,052	-0,011
-457,270	360,802	0,062	-0,089
-456,255	-100,219	0,113	-0,020
-455,241	-78,605	-0,150	0,037
-454,226	-93,455	0,150	-0,030
-453,211	245,234	-0,054	0,065
-452,197	800,000	0,058	0,126
-451,182	-200,000	0,002	-0,055
-450,168	800,000	0,018	0,037
-449,153	-200,000	-0,014	0,058
-448,138	28,589	-0,115	-0,070
-447,124	-200,000	-0,011	-0,041
-446,109	318,708	0,044	-0,061
-445,095	800,000	0,033	-0,067
-444,080	-148,752	0,107	-0,006
-443,065	91,661	0,059	0,048
-442,051	800,000	0,005	0,014
-441,036	668,258	0,033	0,062
-440,022	29,018	-0,061	0,037
-439,007	77,272	-0,080	0,061
-437,992	800,000	-0,017	-0,052
-436,978	168,039	0,091	-0,093
-435,963	-89,174	-0,065	-0,014
-434,949	414,194	0,028	-0,042
-433,934	315,025	0,085	-0,116
-432,919	-71,690	0,062	0,016
-431,905	800,000	0,030	-0,089
-430,890	-12,160	0,062	0,029
-429,876	-200,000	0,012	0,048
-428,861	-93,936	0,121	0,024
-427,846	71,908	-0,039	-0,029
-426,832	-200,000	-0,005	-0,118
-425,817	-200,000	-0,029	-0,103
-424,803	157,979	-0,057	-0,057
-423,788	-87,323	0,181	0,039
-422,773	-152,649	-0,134	0,007
-421,759	800,000	-0,070	0,189
-420,744	92,720	0,049	-0,039
-419,730	-200,000	-0,006	-0,068
-418,715	-200,000	-0,013	-0,138
-417,701	-31,115	-0,020	-0,008
-416,686	76,387	-0,065	-0,050
-415,671	-129,746	-0,052	-0,005
-414,657	-200,000	0,015	0,189
-413,642	58,147	0,085	-0,059
-412,628	584,399	0,021	0,037
-411,613	364,504	-0,080	0,116
-410,598	-11,903	-0,052	0,024
-409,584	-200,000	-0,003	-0,050
-408,569	713,535	0,012	0,022
-407,555	-116,345	0,086	0,011
-406,540	-200,000	-0,036	-0,126
-405,525	-51,635	0,086	0,029
-404,511	-118,807	-0,046	0,006
-403,496	800,000	-0,007	-0,017
-402,482	-84,586	0,174	0,039
-401,467	-170,942	0,041	0,001
-400,452	114,882	0,122	0,107
-399,438	800,000	0,022	0,055
-398,423	-68,992	0,119	0,033
-397,409	14,656	-0,077	-0,043
-396,394	195,135	-0,116	0,126
-395,379	-65,601	-0,069	0,020
-394,365	-8,047	0,074	-0,036
-393,350	58,152	0,075	-0,052
-392,336	800,000	0,048	0,148
-391,321	187,671	0,038	-0,040
-390,306	-200,000	-0,011	-0,203
-389,292	-200,000	0,017	0,080
-388,277	307,862	0,025	-0,033
-387,263	47,412	-0,075	-0,050
-386,248	-20,758	-0,091	0,040
-385,233	186,834	-0,060	-0,064
-384,219	39,824	0,030	-0,019
-383,204	50,062	0,072	0,048
-382,190	388,876	-0,048	-0,071
-381,175	-57,973	0,099	0,031
-380,160	-200,000	0,008	-0,040
-379,146	-98,059	-0,044	-0,008
-378,131	-200,000	0,031	0,213
-377,117	246,838	0,045	-0,054
-376,102	130,878	-0,051	-0,047
-375,088	800,000	0,048	0,142
-374,073	-175,132	-0,041	-0,001
-373,058	-200,000	0,008	0,049
-372,044	567,132	-0,094	0,164
-371,029	-120,385	0,020	0,002
-370,015	-36,879	0,090	-0,034
-369,000	-40,330	-0,237	-0,088
-367,985	-17,661	0,057	0,025
-366,971	460,817	-0,024	0,038
-365,956	-27,522	0,088	-0,036
-364,942	800,000	0,075	0,222
-363,927	64,121	-0,028	-0,020
-362,912	-20,210	0,108	0,047
-361,898	45,928	0,023	0,015
-360,883	-6,154	0,111	0,054
-359,869	-3,473	0,119	-0,059
-358,854	-40,571	-0,108	-0,040
-357,839	66,808	0,073	-0,053
-356,825	-200,000	-0,003	0,078
-355,810	-200,000	-0,003	0,036
-354,796	27,666	-0,021	-0,013
-353,781	-200,000	0,011	-0,085
-352,766	424,018	-0,072	-0,111
-351,752	-200,000	-0,002	-0,107
-350,737	258,479	-0,023	0,028
-349,723	-200,000	-0,023	0,107
-348,708	443,906	0,002	-0,003
-347,693	67,466	0,076	-0,055
-346,679	306,747	0,015	0,020
-345,664	-35,644	0,044	-0,017
-344,650	-200,000	0,002	-0,027
-343,635	-122,931	-0,124	0,014
-342,620	45,867	0,071	0,047
-341,606	800,000	0,032	0,097
-340,591	800,000	0,045	0,130
-339,577	35,344	-0,159	-0,099
-338,562	536,771	0,054	-0,093
-337,548	-80,187	-0,042	-0,010
-336,533	-156,797	0,033	0,001
-335,518	-88,534	0,084	0,018
-334,504	327,761	0,081	0,111
-333,489	549,074	-0,015	-0,025
-332,475	-141,696	-0,032	-0,002
-331,460	-200,000	0,028	-0,173
-330,445	-113,908	0,068	0,009
-329,431	-5,246	0,127	0,062
-328,416	23,261	0,078	-0,045
-327,402	-200,000	0,026	0,105
-326,387	16,191	0,076	-0,043
-325,372	800,000	0,031	0,094
-324,358	-200,000	-0,018	-0,110
-323,343	21,165	0,108	-0,062
-322,329	800,000	-0,024	0,055
-321,314	418,916	0,085	-0,131
-320,299	800,000	-0,062	0,124
-319,285	-42,753	0,096	-0,035
-318,270	-200,000	-0,024	-0,096
-317,256	800,000	0,033	-0,083
-316,241	-200,000	-0,089	0,000
-315,226	800,000	-0,013	-0,026
-314,212	-10,584	-0,082	0,039
-313,197	-32,842	0,100	-0,039
-312,183	800,000	0,046	-0,127
-311,168	-50,416	-0,089	0,030
-310,153	571,456	-0,028	0,049
-309,139	159,207	0,050	-0,050
-308,124	-50,211	-0,052	-0,017
-307,110	-123,115	0,060	-0,007
-306,095	-200,000	-0,003	0,071
-305,080	800,000	0,049	0,101
-304,066	9,046	-0,015	-0,008
-303,051	-200,000	-0,008	0,039
-302,037	-200,000	-0,020	0,089
-301,022	800,000	-0,018	-0,056
-300,008	-32,041	0,074	0,029
-298,993	407,932	-0,035	0,053
-297,978	74,242	-0,171	0,129
-296,964	-20,913	-0,078	0,034
-295,949	198,588	-0,078	0,086
-294,935	45,811	-0,024	-0,016
-293,920	-200,000	0,011	-0,090
-292,905	611,609	-0,044	0,079
-291,891	-200,000	0,012	0,055
-290,876	-59,877	-0,121	-0,037
-289,862	-200,000	-0,032	-0,178
-288,847	23,786	0,051	0,030
-287,832	-200,000	-0,000	-0,035
-286,818	-34,518	0,241	-0,094
-285,803	-178,548	0,041	0,001
-284,789	103,473	0,067	0,056
-283,774	188,843	0,074	0,079
-282,759	-200,000	-0,006	0,174
-281,745	-200,000	0,001	0,043
-280,730	800,000	0,017	0,052
-279,716	800,000	0,058	-0,123
-278,701	-70,968	0,020	-0,005
-277,686	330,690	0,059	0,081
-276,672	94,150	-0,048	-0,039
-275,657	61,749	0,022	-0,015
-274,643	264,136	-0,015	0,019
-273,628	358,602	-0,066	0,095
-272,613	-76,467	0,073	-0,018
-271,599	-25,833	-0,228	0,095
-270,584	136,484	-0,085	0,079
-269,570	-200,000	0,007	0,000
-268,555	-100,818	-0,026	-0,004
-267,540	-71,832	0,148	-0,039
-266,526	-132,767	0,047	-0,004
-265,511	-79,519	0,094	-0,022
-264,497	-67,538	0,061	0,017
-263,482	-200,000	0,035	0,134
-262,467	800,000	-0,050	0,155
-261,453	255,411	-0,162	0,199
-260,438	800,000	-0,043	0,108
-259,424	-193,237	0,068	-0,000
-258,409	-200,000	0,017	0,078
-257,395	152,376	0,058	0,057
-256,380	196,717	0,035	-0,038
-255,365	800,000	-0,011	0,036
-254,351	800,000	-0,030	-0,089
-253,336	-200,000	-0,045	-0,150
-252,322	-200,000	0,063	-0,256
-251,307	-200,000	0,012	0,098
-250,292	207,468	0,107	0,120
-249,278	-200,000	-0,020	-0,084
-248,263	-81,790	-0,036	-0,008
-247,249	-90,497	-0,073	-0,015
-246,234	800,000	0,036	0,083
-245,219	-146,248	0,149	0,009
-244,205	800,000	0,011	-0,035
-243,190	-95,949	0,069	-0,013
-242,176	621,604	-0,035	0,064
-241,161	301,184	0,080	-0,106
-240,146	-200,000	-0,008	0,143
-239,132	-142,163	-0,070	0,005
-238,117	800,000	-0,020	-0,040
-237,103	-200,000	0,015	0,101
-236,088	-126,398	-0,090	-0,009
-235,073	100,886	0,136	-0,113
-234,059	-138,163	0,116	0,009
-233,044	191,384	0,073	0,078
-232,030	-200,000	-0,008	-0,027
-231,015	-200,000	0,019	0,089
-230,000	-27,968	-0,197	-0,081
-228,986	289,665	0,027	-0,035
-227,971	-200,000	0,012	0,121
-226,957	135,771	-0,071	-0,066
-225,942	-200,000	-0,002	0,109
-224,927	315,801	0,023	-0,031
-223,913	-200,000	-0,015	-0,145
-222,898	-57,757	0,011	-0,003
-221,884	66,423	-0,045	-0,033
-220,869	538,673	-0,032	0,054
-219,855	-113,452	0,112	0,016
-218,840	800,000	-0,061	-0,141
-217,825	-200,000	-0,017	-0,067
-216,811	800,000	0,022	-0,070
-215,796	15,471	-0,042	-0,024
-214,782	800,000	-0,040	-0,120
-213,767	467,442	0,057	0,091
-212,752	206,653	0,070	0,078
-211,738	-50,891	0,113	-0,038
-210,723	287,890	0,011	0,014
-209,709	79,756	-0,031	-0,023
-208,694	18,276	-0,066	-0,038
-207,679	-21,679	-0,135	-0,058
-206,665	-165,457	-0,077	-0,002
-205,650	465,553	0,114	0,182
-204,636	-67,774	0,033	-0,009
-203,621	-200,000	0,002	-0,051
-202,606	-200,000	0,017	-0,068
-201,592	-200,000	-0,019	-0,082
-200,577	-200,000	-0,016	0,099
-199,563	16,898	0,006	-0,003
-198,548	-200,000	0,001	0,027
-197,533	-44,459	-0,110	0,039
-196,519	350,904	0,014	-0,020
-195,504	-41,831	-0,090	0,033
-194,490	259,338	0,016	-0,020
-193,475	148,141	-0,084	0,081
-192,460	-200,000	0,009	0,041
-191,446	-64,237	-0,127	0,036
-190,431	214,925	-0,035	-0,040
-189,417	-200,000	-0,005	-0,063
-188,402	615,648	0,061	-0,109
-187,387	800,000	-0,013	-0,037
-186,373	-160,501	0,145	0,005
-185,358	119,217	-0,127	-0,112
-184,344	202,699	0,042	-0,046
-183,329	-200,000	0,007	0,086
-182,315	-200,000	0,003	-0,033
-181,300	18,305	0,099	-0,056
-180,285	-23,158	0,044	0,019
-179,271	251,641	-0,065	0,079
-178,256	-200,000	-0,003	-0,025
-177,242	430,608	0,082	-0,127
-176,227	-149,868	-0,109	0,006
-175,212	3,219	-0,083	-0,043
-174,198	672,836	0,017	-0,031
-173,183	-200,000	-0,008	-0,083
-172,169	-93,228	0,068	0,013
-171,154	441,515	0,099	-0,155
-170,139	243,283	-0,058	0,069
-169,125	-200,000	-0,002	0,115
-168,110	-31,230	-0,038	-0,015
-167,096	-127,281	-0,134	-0,014
-166,081	-3,826	0,086	-0,043
-165,066	800,000	-0,055	-0,125
-164,052	-169,763	0,180	-0,005
-163,037	-54,024	-0,068	0,022
-162,023	-200,000	0,026	-0,117
-161,008	134,231	-0,038	0,035
-159,993	62,656	0,040	-0,028
-158,979	800,000	0,036	-0,083
-157,964	23,102	-0,116	-0,068
-156,950	348,108	-0,053	-0,074
-155,935	49,962	0,054	-0,036
-154,920	-62,566	0,134	0,039
-153,906	3,221	0,093	0,048
-152,891	-200,000	-0,009	0,119
-151,877	800,000	-0,010	0,019
-150,862	114,074	-0,054	0,047
-149,847	-200,000	-0,006	-0,057
-148,833	-97,815	-0,093	-0,017
-147,818	800,000	0,051	0,120
-146,804	-200,000	-0,004	0,137
-145,789	470,470	0,035	0,056
-144,775	-200,000	0,002	-0,008
-143,760	-200,000	0,005	-0,033
-142,745	-200,000	0,022	-0,098
-141,731	172,876	-0,043	-0,044
-140,716	-200,000	-0,004	0,046
-139,702	-96,592	0,058	-0,011
-138,687	800,000	0,057	0,112
-137,672	19,243	0,079	-0,045
-136,658	-200,000	0,010	-0,105
-135,643	800,000	0,026	-0,052
-134,629	-62,755	-0,062	-0,018
-133,614	-200,000	-0,003	-0,032
-132,599	800,000	-0,028	-0,068
-131,585	800,000	-0,051	0,133
-130,570	156,804	-0,027	0,027
-129,556	800,000	0,041	-0,109
-128,541	-200,000	0,000	-0,033
-127,526	-200,000	-0,008	-0,055
-126,512	147,116	0,080	0,077
-125,497	800,000	0,050	0,146
-124,483	-200,000	0,010	0,074
-123,468	43,376	-0,088	0,057
-122,453	-200,000	-0,006	-0,104
-121,439	505,496	-0,053	0,087
-120,424	-141,938	-0,099	-0,007
-119,410	-200,000	0,021	-0,085
-118,395	-7,908	0,031	-0,015
-117,380	-200,000	0,002	0,071
-116,366	-152,551	-0,100	-0,005
-115,351	-173,921	-0,148	0,003
-114,337	434,094	-0,083	-0,128
-113,322	126,503	-0,113	-0,101
-112,307	248,725	0,077	0,093
-111,293	129,908	0,112	0,102
-110,278	-200,000	-0,005	0,095
-109,264	800,000	-0,044	0,125
-108,249	255,063	0,036	0,044
-107,234	167,976	-0,064	0,064
-106,220	800,000	-0,083	0,177
-105,205	-200,000	0,021	-0,076
-104,191	800,000	-0,017	0,048
-103,176	-137,115	0,084	0,007
-102,162	-200,000	-0,003	-0,020
-101,147	105,805	-0,036	0,030
-100,132	-200,000	-0,022	-0,123
-99,118	-200,000	0,024	-0,107
-98,103	800,000	0,014	0,036
-97,089	-17,217	0,103	0,046
-96,074	61,486	0,059	-0,041
-95,059	800,000	-0,020	0,060
-94,045	132,009	-0,045	-0,041
-93,030	-200,000	0,018	-0,147
-92,016	-19,489	0,075	0,033
-91,001	-200,000	0,040	-0,158
-89,986	-126,424	0,080	-0,008
-88,972	580,413	0,047	-0,083
-87,957	-200,000	-0,031	0,100
-86,943	-119,112	-0,136	-0,017
-85,928	239,482	-0,018	-0,022
-84,913	-65,109	-0,022	0,006
-83,899	-88,738	-0,150	-0,031
-82,884	26,944	0,059	0,035
-81,870	-6,589	0,071	0,034
-80,855	800,000	0,036	0,086
-79,840	358,747	-0,045	0,064
-78,826	800,000	-0,053	0,162
-77,811	-108,150	-0,082	-0,012
-76,797	-200,000	-0,032	0,177
-75,782	-11,112	-0,006	-0,003
-74,767	171,162	-0,031	0,032
-73,753	-14,748	0,098	-0,044
-72,738	-99,889	0,050	0,009
-71,724	20,124	-0,132	-0,075
-70,709	244,627	0,090	-0,108
-69,694	-159,390	-0,213	0,008
-68,680	800,000	-0,021	-0,053
-67,665	-200,000	0,022	0,093
-66,651	49,572	0,080	-0,053
-65,636	-109,401	0,035	-0,005
-64,622	-200,000	0,041	0,210
-63,607	-79,093	0,004	0,001
-62,592	-32,061	-0,119	0,047
-61,578	-200,000	0,014	0,108
-60,563	-177,315	-0,075	-0,001
-59,549	253,452	-0,069	0,084
-58,534	-71,524	-1,577	-0,415
-57,519	407,762	-1,413	-2,122
-56,505	-200,000	-0,503	-4,538
-55,490	196,058	1,070	1,154
-54,476	800,000	4,727	11,196
-53,461	-200,000	18,412	290,177
-52,446	800,000	727,949	2237,612
-51,432	557,028	1644,368	2816,392
-50,417	79,170	1665,939	1262,236
-49,403	22,706	1539,676	890,136
-48,388	16,676	1462,732	816,449
-47,373	17,821	1452,736	816,353
-46,359	17,188	1443,119	807,888
-45,344	14,922	1438,372	794,381
-44,330	14,825	1436,543	792,877
-43,315	14,852	1434,882	792,056
-42,300	14,872	1433,225	791,206
-41,286	14,932	1431,836	790,693
-40,271	14,855	1430,885	789,770
-39,257	14,884	1429,381	789,048
-38,242	14,906	1428,233	788,488
-37,227	14,926	1427,073	787,911
-36,213	14,925	1425,534	787,024
-35,198	14,884	1424,642	786,309
-34,184	14,905	1423,605	785,804
-33,169	14,812	1422,452	784,695
-32,154	14,914	1421,315	784,520
-31,140	14,904	1420,075	783,757
-30,125	14,909	1418,859	783,079
-29,111	14,907	1417,742	782,419
-28,096	14,912	1416,694	781,835
-27,082	14,807	1415,565	780,688
-26,067	14,807	1414,590	780,120
-25,052	14,839	1413,257	779,504
-24,038	14,758	1412,585	778,721
-23,023	14,825	1411,406	778,355
-22,009	14,816	1410,351	777,700
-20,994	14,773	1409,597	777,052
-19,979	14,734	1408,751	776,374
-18,965	14,753	1407,594	775,793
-17,950	14,755	1406,780	775,321
-16,936	14,762	1405,700	774,731
-15,921	14,745	1404,516	773,967
-14,906	14,698	1403,867	773,358
-13,892	14,741	1402,723	772,899
-12,877	14,704	1401,963	772,278
-11,863	14,705	1401,133	771,794
-10,848	14,737	1400,103	771,344
-9,833	14,692	1399,273	770,646
-8,819	14,668	1398,370	770,010
-7,804	14,618	1397,362	769,193
-6,790	14,643	1396,310	768,699
-5,775	14,654	1395,260	768,138
-4,760	14,615	1394,695	767,619
-3,746	14,633	1393,591	767,065
-2,731	14,617	1393,014	766,643
-1,717	14,603	1391,928	765,948
-0,702	14,667	1389,978	765,142
0,313	18,323	1309,084	737,570
1,327	34,525	706,663	435,691
2,342	53,474	124,444	84,291
3,356	4,243	16,629	8,587
4,371	7,779	3,118	1,647
5,386	-43,212	0,575	0,205
6,400	-200,000	-0,020	0,144
7,415	291,380	-0,128	-0,166
8,429	83,993	-0,269	-0,207
9,444	-43,439	-0,379	-0,134
10,459	-68,312	-0,277	-0,075
11,473	24,753	-0,289	-0,169
12,488	48,202	-0,303	-0,200
13,502	-16,812	-0,341	-0,152
14,517	226,405	-0,192	-0,220
15,531	24,126	-0,377	-0,219
16,546	130,185	-0,336	-0,304
17,561	16,659	-0,432	-0,241
18,575	575,978	-0,077	-0,134
19,590	110,921	-0,326	-0,277
20,604	39,896	-0,371	-0,235
21,619	116,435	-0,324	-0,280
22,634	94,416	-0,520	-0,417
23,648	158,597	-0,351	-0,344
24,663	152,008	-0,412	-0,397
25,677	227,020	-0,318	-0,365
26,692	212,203	-0,284	-0,316
27,707	67,929	-0,348	-0,251
28,721	270,046	-0,167	-0,208
29,736	213,145	-0,361	-0,403
30,750	77,107	-0,373	-0,280
31,765	82,193	-0,404	-0,309
32,780	75,300	-0,331	-0,246
33,794	2,784	-0,477	-0,244
34,809	34,604	-0,380	-0,234
35,823	22,721	-0,459	-0,264
36,838	-38,047	-0,446	-0,166
37,853	54,912	-0,369	-0,251
38,867	108,774	-0,411	-0,346
39,882	198,960	-0,229	-0,248
40,896	37,006	-0,405	-0,252
41,911	-17,652	-0,330	-0,145
42,926	108,775	-0,334	-0,281
43,940	148,664	-0,309	-0,295
44,955	70,284	-0,435	-0,316
45,969	56,598	-0,384	-0,263
46,984	187,444	-0,293	-0,309
47,999	75,523	-0,369	-0,275
49,013	-120,450	-0,274	-0,032
50,028	-21,710	-0,325	-0,139
51,042	60,232	-0,340	-0,236
52,057	22,041	-0,269	-0,154
53,071	88,318	-0,333	-0,260
54,086	-9,917	-0,245	-0,114
55,101	124,752	-0,396	-0,351
56,115	3,033	-0,331	-0,169
57,130	106,754	-0,317	-0,265
58,144	61,225	-0,438	-0,306
59,159	192,745	-0,367	-0,391
60,174	173,345	-0,331	-0,337
61,188	541,882	-0,229	-0,386
62,203	37,470	-0,370	-0,230
63,217	40,571	-0,380	-0,240
64,232	14,561	-0,281	-0,154
65,247	-80,586	-0,381	-0,089
66,261	164,178	-0,336	-0,333
67,276	185,999	-0,229	-0,240
68,290	300,830	-0,286	-0,372
69,305	-2,634	-0,338	-0,166
70,320	-40,286	-0,329	-0,120
71,334	287,631	-0,206	-0,263
72,349	8,636	-0,233	-0,123
73,363	105,049	-0,404	-0,335
74,378	119,624	-0,381	-0,332
75,393	-36,572	-0,333	-0,125
76,407	46,124	-0,150	-0,098
77,422	-70,334	-0,426	-0,113
78,436	13,124	-0,318	-0,172
79,451	29,156	-0,393	-0,234
80,466	-33,838	-0,331	-0,127
81,480	117,798	-0,371	-0,321
82,495	14,635	-0,394	-0,215
83,509	-16,915	-0,220	-0,097
84,524	-36,926	-0,274	-0,103
85,539	111,719	-0,253	-0,214
86,553	272,322	-0,187	-0,232
87,568	50,493	-0,355	-0,235
88,582	65,704	-0,391	-0,278
89,597	161,262	-0,193	-0,190
90,611	-63,748	-0,290	-0,083
91,626	-10,977	-0,200	-0,092
92,641	-24,985	-0,327	-0,135
93,655	100,727	-0,280	-0,228
94,670	143,923	-0,306	-0,286
95,684	183,883	-0,223	-0,231
96,699	249,762	-0,220	-0,263
97,714	131,487	-0,199	-0,179
98,728	42,868	-0,241	-0,154
99,743	-4,543	-0,320	-0,155
100,757	-47,416	-0,267	-0,090
101,772	492,600	-0,171	-0,276
102,787	19,890	-0,265	-0,149
103,801	238,917	-0,204	-0,238
104,816	-33,385	-0,384	-0,148
105,830	-18,640	-0,353	-0,154
106,845	86,344	-0,255	-0,197
107,860	-21,387	-0,255	-0,109
108,874	141,570	-0,255	-0,237
109,889	243,272	-0,233	-0,274
110,903	80,550	-0,205	-0,155
111,918	112,714	-0,294	-0,249
112,933	-38,424	-0,160	-0,059
113,947	25,430	-0,237	-0,138
114,962	294,994	-0,130	-0,167
115,976	87,743	-0,190	-0,147
116,991	54,137	-0,331	-0,222
118,006	91,065	-0,225	-0,176
119,020	-42,246	-0,279	-0,099
120,035	-89,526	-0,277	-0,057
121,049	-117,012	-0,173	-0,022
122,064	205,699	-0,206	-0,225
123,079	-22,625	-0,350	-0,147
124,093	105,293	-0,139	-0,115
125,108	21,271	-0,338	-0,192
126,122	-30,254	-0,280	-0,111
127,137	209,481	-0,150	-0,164
128,151	572,214	-0,177	-0,302
129,166	382,669	-0,156	-0,225
130,181	15,652	-0,341	-0,187
131,195	111,084	-0,332	-0,280
132,210	50,760	-0,259	-0,171
133,224	141,764	-0,267	-0,248
134,239	-30,663	-0,280	-0,110
135,254	76,542	-0,164	-0,121
136,268	-74,446	-0,345	-0,086
137,283	154,090	-0,276	-0,265
138,297	327,267	-0,215	-0,289
139,312	283,240	-0,173	-0,217
140,327	227,921	-0,348	-0,396
141,341	446,631	-0,221	-0,340
142,356	800,000	-0,054	-0,115
143,370	35,020	-0,275	-0,168
144,385	84,565	-0,227	-0,173
145,400	107,399	-0,257	-0,213
146,414	116,864	-0,337	-0,289
147,429	452,364	-0,200	-0,309
148,443	430,654	-0,241	-0,365
149,458	171,304	-0,110	-0,110
150,473	122,519	-0,241	-0,211
151,487	88,063	-0,263	-0,204
152,502	36,241	-0,264	-0,162
153,516	123,879	-0,259	-0,227
154,531	255,723	-0,230	-0,276
155,546	-6,658	-0,332	-0,157
156,560	46,891	-0,285	-0,185
157,575	-49,711	-0,217	-0,072
158,589	70,226	-0,275	-0,198
159,604	98,439	-0,152	-0,122
160,619	-2,996	-0,321	-0,156
161,633	48,568	-0,206	-0,135
162,648	-24,630	-0,299	-0,124
163,662	-144,149	-0,254	-0,016
164,677	54,200	-0,266	-0,178
165,692	114,451	-0,171	-0,146
166,706	85,523	-0,233	-0,178
167,721	305,978	-0,220	-0,287
168,735	285,776	-0,189	-0,238
169,750	257,594	-0,197	-0,237
170,764	82,551	-0,234	-0,177
171,779	-93,513	-0,176	-0,034
172,794	-42,488	-0,214	-0,076
173,808	-28,787	-0,181	-0,072
174,823	106,619	-0,325	-0,269
175,837	270,869	-0,198	-0,243
176,852	-128,996	-0,189	-0,018
177,867	233,164	-0,202	-0,232
178,881	-75,225	-0,263	-0,065
179,896	103,040	-0,147	-0,120
180,910	800,000	-0,074	-0,156
181,925	307,027	-0,222	-0,288
182,940	800,000	-0,184	-0,391
183,954	118,342	-0,259	-0,223
184,969	463,350	-0,130	-0,203
185,983	-153,266	-0,164	0,008
186,998	11,641	-0,231	-0,123
188,013	-46,316	-0,291	-0,099
189,027	215,125	-0,215	-0,238
190,042	639,334	-0,159	-0,282
191,056	174,378	-0,236	-0,238
192,071	113,006	-0,201	-0,170
193,086	101,378	-0,154	-0,124
194,100	-200,000	0,024	-0,099
195,115	13,559	-0,206	-0,111
196,129	-44,129	-0,177	-0,061
197,144	-2,841	-0,256	-0,124
198,159	285,986	-0,149	-0,187
199,173	123,971	-0,255	-0,223
200,188	106,260	-0,188	-0,155
201,202	-129,549	-0,139	-0,013
202,217	262,975	-0,137	-0,165
203,232	-2,473	-0,275	-0,134
204,246	554,305	-0,084	-0,142
205,261	119,911	-0,153	-0,131
206,275	67,629	-0,153	-0,109
207,290	-139,608	-0,269	-0,020
208,304	-9,670	-0,283	-0,130
209,319	64,943	-0,181	-0,127
210,334	19,672	-0,178	-0,099
211,348	266,852	-0,201	-0,244
212,363	102,878	-0,169	-0,137
213,377	259,533	-0,095	-0,115
214,392	-88,374	-0,151	-0,031
215,407	-165,939	-0,179	0,005
216,421	-138,063	-0,189	-0,014
217,436	45,348	-0,267	-0,170
218,450	95,191	-0,259	-0,205
219,465	58,985	-0,236	-0,161
220,480	-44,361	-0,117	-0,041
221,494	58,113	-0,169	-0,115
222,509	-57,415	-0,211	-0,064
223,523	94,523	-0,110	-0,086
224,538	285,492	-0,145	-0,182
225,553	778,986	-0,120	-0,229
226,567	101,845	-0,215	-0,174
227,582	-39,454	-0,322	-0,117
228,596	27,577	-0,242	-0,141
229,611	454,025	-0,126	-0,195
230,626	628,720	-0,130	-0,229
231,640	-200,000	-0,052	-0,262
232,655	800,000	-0,111	-0,304
233,669	800,000	-0,126	-0,274
234,684	26,026	-0,203	-0,117
235,699	-124,695	-0,191	0,020
236,713	57,975	-0,250	-0,170
237,728	-145,199	-0,162	-0,010
238,742	308,001	-0,134	-0,174
239,757	-36,974	-0,203	-0,075
240,772	27,897	-0,237	-0,138
241,786	90,501	-0,255	-0,197
242,801	95,081	-0,260	-0,205
243,815	353,915	-0,122	-0,168
244,830	418,857	-0,146	-0,217
245,844	-0,418	-0,228	-0,112
246,859	-105,980	-0,128	-0,020
247,874	247,887	-0,139	-0,163
248,888	-157,146	-0,197	-0,008
249,903	326,315	-0,159	-0,211
250,917	800,000	-0,062	-0,130
251,932	46,610	-0,059	-0,038
252,947	245,019	-0,086	-0,100
253,961	66,814	-0,229	-0,161
254,976	-19,011	-0,200	-0,086
255,990	800,000	-0,073	-0,219
257,005	800,000	-0,037	-0,106
258,020	606,314	-0,092	-0,160
259,034	-200,000	-0,022	-0,155
260,049	-49,587	-0,180	-0,059
261,063	45,962	-0,108	-0,069
262,078	238,303	-0,212	-0,244
263,093	89,804	-0,176	-0,135
264,107	435,461	-0,097	-0,146
265,122	800,000	-0,057	-0,129
266,136	45,279	-0,230	-0,146
267,151	-200,000	-0,071	-0,216
268,166	-50,806	-0,137	0,044
269,180	-60,782	-0,283	-0,082
270,195	324,768	-0,151	-0,199
271,209	246,751	-0,113	-0,131
272,224	225,526	-0,124	-0,139
273,239	31,823	-0,133	-0,079
274,253	-59,997	-0,055	0,016
275,268	241,974	-0,154	-0,178
276,282	245,857	-0,209	-0,244
277,297	316,046	-0,144	-0,188
278,312	-200,000	-0,041	-0,146
279,326	107,282	-0,160	-0,131
280,341	111,406	-0,108	-0,090
281,355	262,907	-0,158	-0,190
282,370	23,274	-0,120	-0,068
283,384	269,593	-0,155	-0,189
284,399	-87,887	-0,169	-0,035
285,414	-53,969	-0,139	-0,043
286,428	8,546	-0,063	-0,033
287,443	-131,928	-0,145	-0,013
288,457	113,836	-0,093	-0,078
289,472	800,000	-0,055	-0,160
290,487	-33,283	-0,184	-0,070
291,501	396,139	-0,170	-0,245
292,516	488,136	-0,167	-0,264
293,530	-200,000	-0,034	-0,167
294,545	-55,612	-0,121	-0,037
295,560	-75,384	-0,222	-0,054
296,574	-114,531	-0,230	-0,030
297,589	-21,000	-0,169	-0,071
298,603	-200,000	-0,048	-0,157
299,618	126,818	-0,070	-0,061
300,633	248,095	-0,095	-0,111
301,647	-8,291	-0,263	0,122
302,662	81,683	-0,048	0,036
303,676	198,132	-0,031	0,033
304,691	499,809	-0,091	-0,146
305,706	-28,196	-0,263	-0,104
306,720	115,779	-0,171	-0,144
307,735	263,370	-0,115	-0,137
308,749	800,000	-0,044	0,112
309,764	-200,000	0,015	-0,083
310,779	-1,247	-0,070	0,034
311,793	800,000	-0,111	-0,228
312,808	-102,683	-0,177	-0,029
313,822	-81,452	-0,198	0,045
314,837	-200,000	-0,007	-0,049
315,852	6,329	-0,155	0,079
316,866	-27,567	-0,201	-0,080
317,881	-140,281	-0,208	0,015
318,895	-200,000	-0,144	0,000
319,910	148,853	-0,184	-0,171
320,925	-47,722	-0,192	-0,064
321,939	72,128	-0,162	-0,116
322,954	800,000	-0,071	-0,137
323,968	23,312	-0,134	-0,076
324,983	-62,436	-0,125	-0,035
325,997	302,201	-0,101	-0,129
327,012	26,634	-0,207	-0,119
328,027	-83,452	-0,210	-0,046
329,041	235,398	-0,117	-0,133
330,056	116,931	-0,192	-0,162
331,070	-105,313	-0,135	-0,021
332,085	470,924	-0,058	-0,090
333,100	15,700	-0,147	-0,079
334,114	10,578	-0,235	-0,123
335,129	27,479	-0,116	-0,067
336,143	-118,795	-0,133	0,016
337,158	311,948	-0,098	-0,126
338,173	316,330	0,030	-0,039
339,187	800,000	-0,029	-0,065
340,202	112,744	-0,064	-0,054
341,216	203,938	-0,155	-0,165
342,231	800,000	-0,081	-0,184
343,246	231,211	-0,035	0,040
344,260	-200,000	0,009	-0,033
345,275	-200,000	0,007	-0,053
346,289	800,000	-0,036	-0,089
347,304	-161,818	-0,104	-0,004
348,319	-136,116	-0,111	0,009
349,333	252,260	-0,143	-0,168
350,348	51,662	-0,106	-0,069
351,362	86,262	-0,082	-0,062
352,377	118,177	-0,078	-0,066
353,392	88,230	-0,160	0,122
354,406	-200,000	-0,018	-0,129
355,421	209,530	1315,455	1415,767
356,435	161,267	1476,273	1416,262
