DTS Sentinel unit serial number:	SN410029Multiplexer serial number:	ORYXHardware model number:	OX2-SRSoftware version number:	ORYX F/W v4,00 Oryx Data Collector v3.7.2.0data status	okinstallation	B3 Nyhavnadifferential loss correction	single-endedforward channel	channel 1reverse channel	N/Adate	2023/11/30time	17:47:30forward acquisition time	300,00reverse acquisition time	0,00gamma	499,1914k internal	0,3203k external	0,3203temperature offset calibration	1,0000default loss term (dB/km)	0,3820temperature slope calibration	1,0000multiplexer offset coefficient	1,0000multiplexer slope coefficient	1,0000fibre end	0,00T internal ref (°C)	13,02T ext. ref 1 (°C)	-2,16T ext. ref 2 (°C)	-2,25length (m)	temperature (°C)	Stokes	anti-Stokes-744,400	196,032	-0,272	-0,301
-743,385	-200,000	0,002	0,160
-742,371	523,772	-0,112	-0,193
-741,356	-200,000	0,099	0,455
-740,342	-2,085	-0,272	-0,139
-739,327	800,000	0,046	0,099
-738,312	112,626	-0,159	-0,140
-737,298	-200,000	0,073	0,261
-736,283	396,321	-0,171	-0,261
-735,269	-200,000	-0,005	0,421
-734,254	187,214	-0,179	-0,194
-733,239	215,889	-0,156	0,181
-732,225	-68,186	-0,148	-0,042
-731,210	185,988	0,031	0,034
-730,196	-41,093	-0,111	0,041
-729,181	-200,000	0,005	0,055
-728,167	76,406	-0,147	0,113
-727,152	396,519	-0,041	0,063
-726,137	572,812	-0,056	-0,099
-725,123	-200,000	0,006	-0,174
-724,108	-195,087	-0,198	-0,001
-723,094	-200,000	0,017	-0,241
-722,079	800,000	0,079	-0,240
-721,064	-89,052	-0,082	-0,017
-720,050	-200,000	0,022	0,094
-719,035	-61,254	-0,108	0,033
-718,021	-1,549	0,067	-0,034
-717,006	695,207	-0,066	-0,126
-715,991	800,000	-0,031	-0,074
-714,977	-9,047	-0,149	0,072
-713,962	800,000	-0,025	-0,053
-712,948	-35,784	-0,031	0,012
-711,933	-87,675	-0,120	0,026
-710,918	177,749	0,068	0,072
-709,904	-139,417	-0,055	0,004
-708,889	736,353	-0,019	-0,037
-707,875	800,000	-0,060	-0,151
-706,860	800,000	0,026	-0,053
-705,845	-86,499	0,091	-0,020
-704,831	-66,072	-0,109	-0,031
-703,816	89,959	0,021	0,017
-702,802	-50,551	0,211	0,072
-701,787	-47,789	-0,238	-0,083
-700,772	-200,000	-0,009	0,030
-699,758	124,992	0,057	-0,052
-698,743	57,450	-0,078	-0,055
-697,729	-17,789	0,174	0,079
-696,714	530,742	-0,046	0,079
-695,699	-8,132	-0,199	0,097
-694,685	111,074	-0,111	-0,097
-693,670	800,000	-0,081	-0,176
-692,656	800,000	0,029	-0,064
-691,641	27,682	-0,048	-0,029
-690,627	-200,000	0,011	0,135
-689,612	800,000	0,020	-0,049
-688,597	238,154	0,066	-0,079
-687,583	-200,000	0,024	-0,185
-686,568	-200,000	0,015	-0,138
-685,554	-55,399	-0,046	-0,015
-684,539	-200,000	-0,006	0,025
-683,524	-200,000	-0,023	0,080
-682,510	-1,649	0,172	-0,088
-681,495	800,000	0,055	-0,138
-680,481	-200,000	-0,022	0,087
-679,466	-200,000	-0,003	-0,085
-678,451	800,000	0,043	-0,088
-677,437	800,000	-0,023	0,072
-676,422	85,590	-0,102	0,082
-675,408	800,000	-0,006	0,018
-674,393	-125,923	-0,106	-0,011
-673,378	-200,000	0,003	-0,143
-672,364	-149,128	-0,147	0,008
-671,349	-80,662	-0,042	-0,010
-670,335	8,839	0,154	0,084
-669,320	55,832	0,149	0,105
-668,305	71,699	-0,125	-0,094
-667,291	800,000	-0,046	-0,111
-666,276	-90,125	0,050	-0,010
-665,262	287,205	-0,045	-0,059
-664,247	-200,000	0,022	-0,094
-663,232	-34,287	0,102	-0,040
-662,218	147,943	-0,075	-0,074
-661,203	800,000	0,031	0,070
-660,189	-129,076	-0,162	-0,016
-659,174	-12,873	-0,105	-0,049
-658,159	-154,615	-0,109	0,005
-657,145	228,143	-0,091	-0,107
-656,130	47,560	0,197	-0,133
-655,116	800,000	0,041	0,104
-654,101	-144,157	0,065	0,004
-653,086	800,000	-0,051	-0,109
-652,072	-41,448	0,072	-0,027
-651,057	92,606	-0,046	-0,038
-650,043	243,685	0,107	0,130
-649,028	392,780	0,032	0,048
-648,014	358,027	0,038	-0,056
-646,999	-200,000	-0,015	-0,064
-645,984	308,825	0,034	-0,047
-644,970	-200,000	0,004	0,089
-643,955	-174,002	0,031	0,001
-642,941	800,000	-0,034	-0,078
-641,926	136,423	-0,027	-0,025
-640,911	-164,096	-0,075	-0,002
-639,897	-90,040	-0,073	-0,015
-638,882	69,289	0,068	0,050
-637,868	235,582	0,040	-0,048
-636,853	240,313	-0,019	-0,023
-635,838	-200,000	0,019	-0,071
-634,824	-152,208	-0,084	0,004
-633,809	350,856	0,063	-0,090
-632,795	213,003	0,113	-0,130
-631,780	237,677	-0,079	0,095
-630,765	76,488	-0,061	-0,047
-629,751	-171,223	-0,108	-0,003
-628,736	-200,000	0,017	-0,103
-627,722	800,000	0,057	-0,158
-626,707	561,720	-0,035	-0,061
-625,692	800,000	-0,021	0,049
-624,678	299,984	-0,033	0,045
-623,663	201,094	0,022	-0,025
-622,649	513,458	-0,050	-0,085
-621,634	19,528	0,025	-0,015
-620,619	18,537	-0,058	-0,033
-619,605	231,995	-0,030	0,036
-618,590	151,521	-0,055	-0,054
-617,576	205,544	0,056	0,063
-616,561	-133,180	-0,164	-0,015
-615,546	349,665	-0,089	-0,127
-614,532	249,078	-0,117	-0,144
-613,517	800,000	0,027	0,063
-612,503	94,209	-0,029	0,024
-611,488	-200,000	0,011	0,062
-610,474	800,000	0,055	0,153
-609,459	490,713	-0,069	0,115
-608,444	-63,675	0,069	-0,020
-607,430	149,567	-0,138	-0,136
-606,415	-200,000	-0,004	-0,096
-605,401	197,754	-0,058	-0,064
-604,386	-200,000	0,006	0,118
-603,371	130,152	0,063	0,059
-602,357	800,000	0,030	0,087
-601,342	-200,000	0,024	0,115
-600,328	325,814	-0,080	0,110
-599,313	-47,079	-0,046	-0,016
-598,298	-120,840	0,104	-0,013
-597,284	376,188	-0,016	0,024
-596,269	800,000	0,029	0,078
-595,255	76,049	-0,067	0,052
-594,240	-78,654	-0,061	0,015
-593,225	565,651	-0,100	-0,175
-592,211	695,972	-0,036	-0,069
-591,196	264,266	0,070	0,089
-590,182	-72,656	-0,017	-0,005
-589,167	83,971	0,101	-0,080
-588,152	103,806	-0,053	-0,045
-587,138	186,580	-0,084	0,090
-586,123	-200,000	0,036	-0,128
-585,109	-43,684	-0,069	0,025
-584,094	-78,153	-0,073	0,018
-583,079	-89,667	0,054	-0,011
-582,065	-121,538	0,128	0,015
-581,050	-51,092	-0,118	-0,040
-580,036	600,802	0,054	0,097
-579,021	-35,876	-0,113	0,044
-578,006	79,214	-0,039	0,030
-576,992	146,575	-0,109	-0,106
-575,977	800,000	0,027	-0,054
-574,963	-87,179	0,078	-0,017
-573,948	-33,475	-0,162	-0,064
-572,934	14,478	0,092	0,052
-571,919	-200,000	0,025	-0,100
-570,904	-13,277	-0,126	0,059
-569,890	294,756	-0,087	-0,115
-568,875	-200,000	0,004	-0,119
-567,861	-58,967	0,036	0,011
-566,846	-200,000	-0,011	0,105
-565,831	372,780	-0,039	-0,057
-564,817	800,000	0,024	-0,057
-563,802	-169,020	-0,050	0,001
-562,788	-2,303	-0,158	-0,080
-561,773	120,220	-0,022	0,019
-560,758	75,545	-0,047	0,036
-559,744	-200,000	-0,044	0,150
-558,729	-200,000	-0,018	-0,084
-557,715	800,000	-0,021	0,050
-556,700	110,049	-0,113	-0,098
-555,685	2,679	-0,117	-0,061
-554,671	413,784	0,050	-0,077
-553,656	30,189	-0,098	0,060
-552,642	-200,000	0,001	0,006
-551,627	800,000	0,057	-0,148
-550,612	293,091	-0,048	-0,064
-549,598	120,876	-0,029	0,026
-548,583	284,104	-0,037	-0,048
-547,569	20,329	-0,013	0,007
-546,554	539,813	0,034	-0,058
-545,539	-200,000	-0,004	0,028
-544,525	726,007	0,018	-0,034
-543,510	-3,558	-0,191	-0,095
-542,496	726,031	-0,014	-0,028
-541,481	247,771	-0,053	-0,064
-540,466	87,867	0,140	-0,112
-539,452	110,207	-0,020	-0,018
-538,437	-110,016	0,074	-0,011
-537,423	800,000	0,070	0,147
-536,408	-31,079	0,047	-0,019
-535,393	662,962	-0,050	0,093
-534,379	-200,000	-0,028	-0,246
-533,364	-36,994	0,067	0,026
-532,350	-186,967	0,056	0,001
-531,335	224,244	0,039	-0,045
-530,321	-200,000	-0,005	0,143
-529,306	-49,264	0,154	0,053
-528,291	-200,000	0,006	-0,057
-527,277	194,180	0,116	0,126
-526,262	379,676	-0,030	-0,045
-525,248	-118,442	-0,108	-0,014
-524,233	-200,000	0,004	-0,080
-523,218	-97,463	-0,121	0,022
-522,204	2,434	0,112	0,058
-521,189	-200,000	0,034	-0,185
-520,175	-60,512	-0,063	0,019
-519,160	756,034	-0,035	-0,068
-518,145	-16,349	-0,035	-0,016
-517,131	646,147	0,021	0,039
-516,116	-200,000	0,009	0,082
-515,102	-200,000	-0,009	-0,140
-514,087	387,989	0,008	-0,012
-513,072	-25,132	0,067	0,029
-512,058	-4,271	0,062	-0,031
-511,043	124,747	0,108	0,098
-510,029	795,809	0,034	0,068
-509,014	36,650	0,112	0,071
-507,999	-25,108	-0,198	-0,084
-506,985	800,000	0,040	-0,111
-505,970	-15,464	-0,104	-0,048
-504,956	-90,980	-0,111	-0,023
-503,941	-135,939	0,114	-0,009
-502,926	315,353	-0,035	0,048
-501,912	146,188	-0,050	0,048
-500,897	-148,734	-0,084	-0,005
-499,883	-200,000	0,031	0,103
-498,868	800,000	-0,015	-0,035
-497,853	61,431	-0,050	-0,036
-496,839	-200,000	0,011	-0,131
-495,824	666,134	0,029	0,054
-494,810	-72,647	-0,028	-0,007
-493,795	800,000	0,110	0,234
-492,781	64,721	0,039	-0,028
-491,766	-200,000	-0,038	0,152
-490,751	-98,717	0,132	-0,024
-489,737	474,438	0,033	0,053
-488,722	-126,224	0,053	0,006
-487,708	-200,000	0,009	0,047
-486,693	336,212	0,090	0,127
-485,678	550,209	-0,051	-0,088
-484,664	486,552	-0,076	-0,125
-483,649	-200,000	-0,006	-0,031
-482,635	99,930	-0,081	-0,068
-481,620	-200,000	-0,016	0,066
-480,605	82,988	0,104	0,082
-479,591	-200,000	0,017	0,165
-478,576	-81,550	-0,266	0,062
-477,562	762,299	-0,058	0,114
-476,547	800,000	0,047	-0,106
-475,532	-200,000	-0,021	-0,164
-474,518	-118,963	0,018	0,002
-473,503	800,000	0,072	0,152
-472,489	412,453	-0,072	0,110
-471,474	46,834	0,045	-0,030
-470,459	27,806	0,095	0,058
-469,445	84,611	0,114	-0,090
-468,430	317,619	-0,061	0,083
-467,416	800,000	-0,027	0,069
-466,401	72,039	0,125	0,094
-465,386	-68,553	-0,047	0,013
-464,372	-200,000	0,027	0,164
-463,357	800,000	-0,014	-0,041
-462,343	-200,000	0,010	-0,087
-461,328	-37,141	-0,083	0,032
-460,313	-12,480	0,066	0,031
-459,299	-200,000	0,024	-0,085
-458,284	478,315	0,034	0,055
-457,270	800,000	-0,018	0,050
-456,255	-200,000	0,000	0,029
-455,241	-200,000	-0,026	-0,094
-454,226	-200,000	0,025	0,123
-453,211	175,007	-0,100	-0,104
-452,197	-121,264	-0,048	0,006
-451,182	242,934	0,061	0,073
-450,168	-200,000	0,012	-0,121
-449,153	189,672	-0,144	0,156
-448,138	-200,000	0,010	0,069
-447,124	-188,794	0,126	-0,001
-446,109	-200,000	-0,036	-0,144
-445,095	74,614	0,046	0,035
-444,080	800,000	0,052	0,138
-443,065	800,000	0,061	0,124
-442,051	-102,411	-0,091	0,016
-441,036	800,000	0,046	-0,109
-440,022	71,914	0,062	0,046
-439,007	-83,591	-0,113	-0,026
-437,992	-68,688	0,076	0,021
-436,978	-200,000	-0,013	0,115
-435,963	-200,000	-0,004	-0,036
-434,949	800,000	-0,030	0,068
-433,934	-37,221	-0,070	0,027
-432,919	238,653	0,085	-0,101
-431,905	-200,000	0,049	0,000
-430,890	24,858	0,059	-0,035
-429,876	390,870	0,058	0,087
-428,861	-29,483	-0,053	0,022
-427,846	2,091	0,088	-0,046
-426,832	194,965	-0,109	-0,119
-425,817	48,162	0,016	0,011
-424,803	433,268	-0,072	-0,112
-423,788	-55,883	0,047	0,015
-422,773	800,000	0,016	0,032
-421,759	-115,184	-0,064	0,009
-420,744	-200,000	-0,008	-0,059
-419,730	800,000	0,065	-0,177
-418,715	392,987	0,068	-0,101
-417,701	-200,000	-0,029	0,126
-416,686	800,000	0,032	0,085
-415,671	-23,157	0,129	0,055
-414,657	155,652	-0,005	-0,005
-413,642	149,056	-0,016	-0,015
-412,628	137,171	-0,073	0,068
-411,613	-60,106	0,082	0,025
-410,598	-2,320	-0,050	-0,025
-409,584	651,973	-0,064	0,118
-408,569	-31,507	0,082	0,033
-407,555	-200,000	0,009	0,029
-406,540	-78,506	0,113	0,028
-405,525	197,327	-0,007	0,008
-404,511	-200,000	-0,040	-0,145
-403,496	800,000	-0,033	-0,086
-402,482	-200,000	-0,008	-0,065
-401,467	-12,160	0,109	-0,051
-400,452	-140,356	0,334	0,025
-399,438	-55,630	-0,133	-0,042
-398,423	240,967	0,040	-0,048
-397,409	13,666	0,105	-0,058
-396,394	258,682	-0,048	-0,060
-395,379	800,000	0,037	-0,078
-394,365	800,000	-0,012	0,032
-393,350	65,807	-0,094	0,069
-392,336	-65,385	0,075	0,021
-391,321	-130,616	-0,110	-0,010
-390,306	-0,318	-0,064	-0,032
-389,292	800,000	0,052	-0,130
-388,277	-200,000	0,001	0,044
-387,263	31,461	0,124	0,076
-386,248	-200,000	-0,009	-0,072
-385,233	-65,376	0,081	0,023
-384,219	222,136	-0,068	0,079
-383,204	103,821	0,052	0,044
-382,190	-19,438	-0,141	0,062
-381,175	-200,000	0,003	0,169
-380,160	800,000	0,082	0,174
-379,146	275,955	0,027	0,035
-378,131	257,040	0,075	0,093
-377,117	-145,577	0,152	0,010
-376,102	256,230	-0,078	-0,096
-375,088	-200,000	0,014	-0,087
-374,073	800,000	-0,051	0,122
-373,058	215,297	0,081	0,092
-372,044	-11,561	0,152	-0,071
-371,029	-200,000	0,009	-0,116
-370,015	800,000	-0,011	-0,028
-369,000	-153,951	0,174	0,008
-367,985	-200,000	-0,011	-0,074
-366,971	-200,000	-0,002	-0,101
-365,956	-200,000	-0,031	0,121
-364,942	-174,089	0,096	0,002
-363,927	-200,000	0,049	0,194
-362,912	-200,000	-0,004	-0,038
-361,898	38,266	0,083	0,053
-360,883	-87,875	-0,036	-0,008
-359,869	-200,000	0,003	-0,084
-358,854	-200,000	0,015	0,055
-357,839	800,000	0,031	-0,064
-356,825	800,000	-0,059	-0,149
-355,810	405,425	0,056	-0,084
-354,796	-200,000	-0,027	0,115
-353,781	-200,000	0,014	0,086
-352,766	14,959	0,010	0,006
-351,752	272,037	0,073	-0,093
-350,737	33,307	0,033	0,020
-349,723	-200,000	-0,011	0,085
-348,708	192,390	0,090	0,098
-347,693	158,105	-0,147	0,146
-346,679	-89,689	-0,068	0,014
-345,664	-101,871	0,123	-0,021
-344,650	734,528	-0,047	-0,090
-343,635	-160,298	0,108	0,004
-342,620	-200,000	0,004	0,099
-341,606	-200,000	-0,035	0,139
-340,591	-42,382	0,103	0,037
-339,577	-37,202	-0,174	-0,066
-338,562	8,431	-0,196	-0,105
-337,548	-28,745	0,152	0,062
-336,533	-166,183	0,094	-0,003
-335,518	709,885	0,065	0,124
-334,504	-130,076	0,069	-0,007
-333,489	-185,856	-0,136	0,001
-332,475	-103,887	-0,163	-0,027
-331,460	345,197	-0,061	-0,085
-330,445	-66,924	0,077	-0,022
-329,431	-85,967	0,087	-0,019
-328,416	800,000	-0,010	0,021
-327,402	800,000	0,045	0,124
-326,387	-98,876	-0,155	-0,028
-325,372	-59,358	-0,099	0,030
-324,358	-200,000	0,019	-0,137
-323,343	9,496	0,031	0,017
-322,329	-159,201	0,107	0,004
-321,314	218,062	0,057	0,065
-320,299	433,444	-0,052	0,081
-319,285	-200,000	0,002	-0,036
-318,270	-200,000	-0,004	-0,019
-317,256	-116,260	-0,096	-0,013
-316,241	130,883	-0,060	-0,055
-315,226	-200,000	0,024	0,091
-314,212	-200,000	0,009	0,172
-313,197	-200,000	-0,030	0,159
-312,183	-25,613	-0,054	0,023
-311,168	112,954	0,067	-0,058
-310,153	370,854	0,064	-0,093
-309,139	-200,000	0,037	-0,195
-308,124	-79,744	-0,083	0,020
-307,110	-200,000	-0,027	0,193
-306,095	125,122	0,028	0,025
-305,080	-85,402	0,081	-0,018
-304,066	-48,371	-0,078	0,027
-303,051	-114,221	-0,122	0,017
-302,037	506,157	0,054	-0,090
-301,022	664,422	0,069	-0,129
-300,008	26,313	0,073	-0,043
-298,993	-81,715	0,161	0,037
-297,978	800,000	0,005	-0,016
-296,964	781,208	-0,024	0,047
-295,949	333,890	0,022	0,031
-294,935	-8,780	0,110	0,053
-293,920	66,347	0,042	0,030
-292,905	191,221	0,078	-0,084
-291,891	-91,813	0,066	-0,013
-290,876	800,000	0,037	0,096
-289,862	-63,438	-0,168	0,049
-288,847	800,000	0,028	-0,084
-287,832	800,000	-0,025	-0,064
-286,818	544,441	0,047	0,081
-285,803	-78,983	0,070	0,017
-284,789	-187,700	0,164	-0,002
-283,774	26,949	0,088	0,052
-282,759	800,000	-0,035	0,077
-281,745	333,489	0,085	-0,117
-280,730	9,260	-0,081	-0,044
-279,716	156,595	0,025	-0,025
-278,701	21,779	-0,098	-0,057
-277,686	-200,000	0,006	0,116
-276,672	-200,000	0,036	-0,128
-275,657	-11,589	-0,118	-0,055
-274,643	800,000	0,021	0,064
-273,628	12,907	-0,010	0,006
-272,613	-31,306	-0,092	-0,037
-271,599	61,207	-0,073	0,052
-270,584	800,000	0,061	0,157
-269,570	-112,024	-0,085	0,012
-268,555	-92,045	-0,039	-0,008
-267,540	263,745	0,050	-0,062
-266,526	800,000	0,022	-0,052
-265,511	-1,532	-0,014	0,007
-264,497	51,238	0,084	-0,056
-263,482	289,752	-0,038	0,049
-262,467	-142,051	0,105	0,007
-261,453	549,270	-0,007	0,012
-260,438	-170,179	-0,118	0,003
-259,424	138,437	-0,097	-0,091
-258,409	-173,218	-0,081	-0,002
-257,395	54,697	0,006	0,004
-256,380	800,000	-0,037	0,085
-255,365	99,214	0,031	-0,025
-254,351	-137,770	-0,151	-0,012
-253,336	-140,549	-0,131	-0,010
-252,322	161,877	-0,092	-0,092
-251,307	-181,339	0,033	0,000
-250,292	-134,717	0,028	-0,002
-249,278	800,000	0,034	-0,081
-248,263	43,860	0,089	0,058
-247,249	178,242	0,063	0,065
-246,234	79,425	-0,062	-0,048
-245,219	-57,333	-0,100	0,031
-244,205	-152,922	0,103	0,005
-243,190	55,362	0,025	-0,017
-242,176	-172,475	0,074	0,002
-241,161	666,725	-0,060	0,112
-240,146	37,646	-0,011	0,007
-239,132	800,000	-0,017	0,034
-238,117	-200,000	-0,033	-0,253
-237,103	-107,343	-0,032	0,005
-236,088	44,572	-0,101	-0,066
-235,073	88,911	-0,052	-0,041
-234,059	-70,698	-0,015	-0,004
-233,044	-200,000	-0,003	0,071
-232,030	-182,833	0,025	-0,000
-231,015	-117,807	-0,040	0,005
-230,000	-107,284	-0,120	-0,019
-228,986	-170,901	0,078	0,002
-227,971	396,331	-0,080	-0,120
-226,957	-169,878	0,146	-0,004
-225,942	-200,000	0,007	0,079
-224,927	-200,000	-0,013	0,128
-223,913	-200,000	0,005	-0,147
-222,898	-200,000	-0,035	-0,114
-221,884	-200,000	0,018	0,079
-220,869	293,377	0,056	0,073
-219,855	800,000	-0,066	-0,199
-218,840	-200,000	0,035	-0,155
-217,825	205,916	-0,035	0,039
-216,811	-200,000	-0,010	-0,085
-215,796	-184,434	0,114	-0,001
-214,782	800,000	-0,056	0,166
-213,767	4,873	0,122	0,064
-212,752	407,762	0,077	0,116
-211,738	-109,693	0,097	-0,014
-210,723	-85,962	0,051	0,011
-209,709	36,876	-0,052	0,033
-208,694	-200,000	0,001	0,033
-207,679	-19,312	-0,161	-0,071
-206,665	225,052	0,060	-0,070
-205,650	-79,467	-0,032	0,008
-204,636	-200,000	-0,013	0,121
-203,621	129,806	0,121	0,110
-202,606	441,491	-0,075	-0,118
-201,592	-15,027	-0,148	-0,067
-200,577	800,000	0,058	-0,159
-199,563	-138,624	0,263	-0,020
-198,548	-200,000	-0,005	0,047
-197,533	-77,640	0,141	-0,035
-196,519	-10,608	-0,067	-0,032
-195,504	-125,902	-0,096	0,010
-194,490	-200,000	0,027	-0,159
-193,475	335,098	-0,031	-0,044
-192,460	-31,790	0,109	0,043
-191,446	20,815	0,074	-0,042
-190,431	800,000	0,031	-0,074
-189,417	-200,000	-0,014	0,087
-188,402	-200,000	-0,016	0,071
-187,387	-9,250	-0,096	-0,045
-186,373	-34,345	0,040	-0,016
-185,358	-13,049	0,105	0,048
-184,344	-39,705	-0,018	-0,007
-183,329	369,602	0,059	0,086
-182,315	-200,000	0,005	0,101
-181,300	56,219	0,031	-0,021
-180,285	35,161	-0,106	-0,066
-179,271	115,741	0,026	0,023
-178,256	35,686	0,040	-0,025
-177,242	-180,625	0,083	-0,001
-176,227	240,265	-0,061	-0,072
-175,212	-101,411	0,059	-0,010
-174,198	-154,496	-0,081	0,004
-173,183	57,722	-0,159	-0,110
-172,169	63,229	-0,048	-0,034
-171,154	4,441	0,020	-0,010
-170,139	259,670	-0,062	-0,077
-169,125	-27,425	0,124	0,051
-168,110	-200,000	-0,025	0,185
-167,096	184,579	-0,075	0,079
-166,081	-165,906	-0,173	-0,005
-165,066	-175,482	-0,125	-0,002
-164,052	-66,594	0,129	0,036
-163,037	124,744	-0,112	0,100
-162,023	159,028	0,091	0,090
-161,008	-200,000	0,003	0,039
-159,993	-200,000	-0,018	0,083
-158,979	433,476	-0,021	0,033
-157,964	-66,718	0,068	0,019
-156,950	-43,370	-0,136	-0,049
-155,935	-86,985	0,133	0,029
-154,920	647,694	0,064	0,116
-153,906	384,365	-0,056	-0,083
-152,891	-88,116	0,054	-0,011
-151,877	60,647	0,045	0,032
-150,862	-124,858	-0,205	0,022
-149,847	-200,000	-0,004	-0,080
-148,833	-3,473	-0,046	0,022
-147,818	-200,000	0,026	0,127
-146,804	-109,953	-0,075	0,011
-145,789	-200,000	0,009	-0,075
-144,775	649,826	0,051	-0,093
-143,760	-200,000	-0,003	-0,099
-142,745	39,344	-0,043	-0,027
-141,731	-9,991	0,022	-0,011
-140,716	-130,617	0,119	-0,011
-139,702	-200,000	0,042	0,247
-138,687	166,117	-0,080	-0,081
-137,672	800,000	-0,037	0,109
-136,658	-179,983	0,110	0,002
-135,643	-127,650	-0,083	0,008
-134,629	270,312	0,113	-0,141
-133,614	746,797	0,106	0,204
-132,599	196,264	-0,027	0,029
-131,585	12,069	0,176	0,096
-130,570	47,666	-0,030	0,020
-129,556	-105,161	-0,088	-0,014
-128,541	-123,989	-0,147	-0,016
-127,526	533,857	-0,048	-0,081
-126,512	137,282	0,079	-0,074
-125,497	381,475	0,076	0,111
-124,483	329,337	-0,095	0,130
-123,468	91,840	0,048	-0,038
-122,453	-200,000	0,014	-0,120
-121,439	800,000	0,042	-0,119
-120,424	-133,058	-0,063	0,006
-119,410	-5,916	0,048	0,023
-118,395	-200,000	-0,015	-0,154
-117,380	-28,172	-0,074	0,030
-116,366	273,506	-0,053	0,067
-115,351	-4,896	-0,068	-0,033
-114,337	566,866	-0,056	-0,096
-113,322	158,786	0,036	0,036
-112,307	526,662	-0,063	0,106
-111,293	63,862	0,137	0,097
-110,278	380,084	0,027	-0,039
-109,264	-101,603	0,107	0,018
-108,249	481,774	0,048	-0,077
-107,234	404,453	-0,026	0,040
-106,220	12,142	-0,142	-0,078
-105,205	712,824	-0,067	-0,126
-104,191	-66,638	0,106	0,030
-103,176	594,644	0,052	0,092
-102,162	800,000	0,037	0,099
-101,147	-22,535	-0,114	-0,049
-100,132	93,704	-0,080	-0,064
-99,118	-200,000	0,000	0,023
-98,103	-200,000	0,026	-0,159
-97,089	167,106	0,097	0,097
-96,074	83,392	0,130	0,100
-95,059	104,154	-0,032	0,026
-94,045	-30,574	-0,154	0,062
-93,030	-200,000	0,007	-0,093
-92,016	-200,000	-0,023	-0,118
-91,001	539,290	0,034	-0,058
-89,986	16,120	0,098	0,055
-88,972	800,000	0,027	0,062
-87,957	-74,497	-0,076	0,019
-86,943	-200,000	-0,017	-0,117
-85,928	187,396	-0,044	0,046
-84,913	-38,869	-0,055	-0,020
-83,899	-152,064	0,121	-0,006
-82,884	361,478	-0,024	-0,034
-81,870	385,704	0,052	-0,076
-80,855	-200,000	0,007	-0,051
-79,840	800,000	0,025	-0,067
-78,826	638,157	-0,031	-0,056
-77,811	800,000	0,030	-0,068
-76,797	308,724	-0,056	0,074
-75,782	55,348	-0,038	0,026
-74,767	126,672	-0,075	0,068
-73,753	-200,000	-0,012	0,124
-72,738	-200,000	-0,003	-0,035
-71,724	131,664	-0,151	-0,137
-70,709	-89,012	0,078	0,016
-69,694	-27,300	0,088	0,036
-68,680	-200,000	-0,006	0,136
-67,665	-89,645	0,107	0,022
-66,651	-200,000	0,002	-0,040
-65,636	122,246	0,065	0,057
-64,622	72,004	0,091	-0,067
-63,607	592,872	0,007	0,012
-62,592	-200,000	-0,002	0,025
-61,578	185,301	-0,057	0,060
-60,563	717,875	0,022	-0,042
-59,549	-200,000	0,012	0,053
-58,534	-10,362	-1,734	-0,811
-57,519	414,887	-1,426	-2,157
-56,505	-200,000	-0,273	-4,368
-55,490	372,675	0,764	1,101
-54,476	800,000	4,893	11,062
-53,461	-200,000	19,490	326,452
-52,446	-200,000	741,640	2338,382
-51,432	571,609	1652,326	2858,414
-50,417	77,614	1666,666	1254,380
-49,403	20,943	1540,086	881,068
-48,388	14,912	1462,489	807,430
-47,373	18,344	1453,075	818,736
-46,359	16,804	1442,658	805,476
-45,344	13,149	1438,146	785,467
-44,330	13,064	1436,301	784,023
-43,315	13,090	1434,448	783,105
-42,300	13,078	1432,850	782,145
-41,286	13,078	1431,699	781,487
-40,271	13,066	1430,320	780,644
-39,257	13,053	1428,788	779,714
-38,242	13,091	1427,698	779,268
-37,227	13,132	1426,314	778,677
-36,213	13,081	1425,169	777,782
-35,198	13,097	1424,096	777,239
-34,184	13,141	1423,136	776,893
-33,169	13,106	1421,656	775,890
-32,154	13,128	1420,648	775,413
-31,140	13,158	1419,481	774,885
-30,125	13,183	1418,470	774,420
-29,111	13,168	1417,188	773,621
-28,096	13,117	1416,131	772,770
-27,082	13,038	1415,283	771,908
-26,067	13,093	1413,963	771,413
-25,052	13,055	1412,829	770,588
-24,038	12,992	1412,144	769,889
-23,023	13,020	1411,007	769,368
-22,009	13,037	1409,929	768,832
-20,994	12,984	1409,124	768,111
-19,979	13,013	1408,246	767,739
-18,965	12,987	1407,212	767,022
-17,950	13,018	1406,066	766,513
-16,936	13,003	1405,357	766,026
-15,921	12,960	1404,322	765,229
-14,906	12,944	1403,627	764,746
-13,892	12,987	1402,463	764,283
-12,877	12,960	1401,594	763,654
-11,863	12,988	1400,750	763,293
-10,848	12,921	1399,824	762,446
-9,833	12,877	1399,204	761,876
-8,819	12,868	1398,189	761,251
-7,804	12,806	1397,350	760,476
-6,790	12,899	1396,179	760,238
-5,775	12,879	1395,266	759,618
-4,760	12,853	1394,309	758,948
-3,746	12,832	1393,380	758,314
-2,731	12,844	1392,561	757,894
-1,717	12,829	1391,802	757,379
-0,702	12,787	1389,783	756,058
0,313	16,709	1306,008	728,565
1,327	33,009	699,969	427,940
2,342	50,814	122,627	81,992
3,356	0,559	16,561	8,344
4,371	-5,774	3,237	1,562
5,386	41,834	0,565	0,361
6,400	-200,000	0,041	0,328
7,415	502,666	-0,159	-0,261
8,429	241,964	-0,291	-0,345
9,444	541,613	-0,162	-0,273
10,459	70,310	-0,335	-0,244
11,473	55,933	-0,210	-0,143
12,488	71,757	-0,322	-0,236
13,502	7,630	-0,256	-0,135
14,517	-63,915	-0,334	-0,096
15,531	232,845	-0,333	-0,387
16,546	484,988	-0,156	-0,252
17,561	152,751	-0,330	-0,319
18,575	17,946	-0,248	-0,139
19,590	102,954	-0,356	-0,294
20,604	-99,901	-0,266	-0,046
21,619	135,792	-0,393	-0,361
22,634	179,847	-0,394	-0,408
23,648	175,540	-0,397	-0,407
24,663	66,849	-0,449	-0,322
25,677	289,601	-0,229	-0,294
26,692	429,338	-0,237	-0,363
27,707	90,183	-0,401	-0,316
28,721	56,949	-0,490	-0,337
29,736	195,173	-0,337	-0,361
30,750	56,923	-0,406	-0,279
31,765	216,964	-0,332	-0,373
32,780	54,153	-0,406	-0,275
33,794	-8,424	-0,248	-0,117
34,809	40,698	-0,354	-0,225
35,823	119,075	-0,256	-0,223
36,838	33,366	-0,317	-0,193
37,853	-45,788	-0,449	-0,156
38,867	133,973	-0,390	-0,357
39,882	-6,064	-0,358	-0,172
40,896	29,827	-0,288	-0,172
41,911	-111,722	-0,339	-0,048
42,926	82,887	-0,380	-0,291
43,940	58,013	-0,388	-0,267
44,955	69,698	-0,316	-0,229
45,969	-41,374	-0,466	-0,168
46,984	122,197	-0,365	-0,321
47,999	83,513	-0,256	-0,196
49,013	109,265	-0,339	-0,286
50,028	-45,380	-0,338	-0,117
51,042	78,874	-0,273	-0,206
52,057	11,005	-0,370	-0,198
53,071	71,061	-0,305	-0,222
54,086	133,829	-0,242	-0,221
55,101	7,650	-0,352	-0,185
56,115	85,237	-0,249	-0,192
57,130	16,784	-0,349	-0,194
58,144	33,705	-0,433	-0,265
59,159	107,989	-0,268	-0,224
60,174	42,802	-0,408	-0,261
61,188	70,667	-0,351	-0,255
62,203	20,061	-0,272	-0,154
63,217	588,812	-0,135	-0,234
64,232	57,036	-0,346	-0,237
65,247	1,680	-0,281	-0,142
66,261	177,423	-0,344	-0,352
67,276	161,460	-0,360	-0,355
68,290	68,771	-0,406	-0,293
69,305	0,692	-0,420	-0,211
70,320	223,149	-0,191	-0,216
71,334	113,150	-0,312	-0,266
72,349	131,845	-0,366	-0,331
73,363	37,161	-0,342	-0,212
74,378	48,429	-0,437	-0,287
75,393	-2,209	-0,324	-0,159
76,407	84,091	-0,215	-0,165
77,422	172,171	-0,286	-0,289
78,436	-85,730	-0,234	-0,051
79,451	30,586	-0,182	-0,109
80,466	92,715	-0,325	-0,258
81,480	-33,678	-0,433	-0,167
82,495	241,088	-0,248	-0,291
83,509	485,155	-0,218	-0,349
84,524	10,004	-0,240	-0,128
85,539	-71,461	-0,257	-0,067
86,553	-19,899	-0,286	-0,123
87,568	59,270	-0,330	-0,227
88,582	133,748	-0,229	-0,208
89,597	18,945	-0,277	-0,156
90,611	59,895	-0,376	-0,260
91,626	134,709	-0,240	-0,218
92,641	-25,737	-0,260	-0,107
93,655	357,374	-0,171	-0,239
94,670	-45,813	-0,383	-0,132
95,684	33,636	-0,361	-0,219
96,699	137,666	-0,285	-0,262
97,714	395,718	-0,222	-0,326
98,728	115,430	-0,255	-0,218
99,743	-34,260	-0,299	-0,114
100,757	119,555	-0,141	-0,123
101,772	72,766	-0,216	-0,158
102,787	258,704	-0,234	-0,283
103,801	151,991	-0,261	-0,249
104,816	-52,995	-0,282	-0,090
105,830	197,770	-0,169	-0,181
106,845	-79,340	-0,106	0,025
107,860	14,948	-0,351	-0,192
108,874	-68,386	-0,297	-0,080
109,889	287,148	-0,196	-0,249
110,903	205,220	-0,208	-0,226
111,918	101,487	-0,319	-0,260
112,933	96,536	-0,303	-0,243
113,947	200,704	-0,273	-0,295
114,962	377,300	-0,166	-0,238
115,976	153,025	-0,202	-0,193
116,991	722,152	-0,245	-0,459
118,006	179,061	-0,213	-0,218
119,020	-10,158	-0,192	-0,089
120,035	155,391	-0,222	-0,214
121,049	-0,150	-0,220	-0,109
122,064	42,295	-0,284	-0,180
123,079	88,875	-0,250	-0,194
124,093	41,190	-0,294	-0,185
125,108	139,431	-0,192	-0,177
126,122	-175,563	-0,298	0,006
127,137	-32,803	-0,232	-0,090
128,151	218,120	-0,184	-0,205
129,166	174,909	-0,143	-0,145
130,181	800,000	-0,096	-0,222
131,195	626,748	-0,197	-0,350
132,210	-131,414	-0,400	-0,036
133,224	108,711	-0,231	-0,193
134,239	113,672	-0,183	-0,155
135,254	-38,176	-0,223	-0,082
136,268	66,417	-0,399	-0,283
137,283	316,975	-0,187	-0,248
138,297	135,982	-0,252	-0,229
139,312	-28,264	-0,356	-0,143
140,327	-58,831	-0,304	-0,091
141,341	120,714	-0,155	-0,135
142,356	69,140	-0,331	-0,238
143,370	88,955	-0,186	-0,145
144,385	177,990	-0,209	-0,213
145,400	141,636	-0,230	-0,213
146,414	165,348	-0,271	-0,267
147,429	-200,000	-0,100	-0,314
148,443	232,029	-0,115	-0,132
149,458	231,886	-0,153	-0,175
150,473	-73,788	-0,298	-0,075
151,487	-0,012	-0,262	-0,130
152,502	57,989	-0,297	-0,203
153,516	228,662	-0,276	-0,315
154,531	-23,436	-0,344	-0,144
155,546	4,596	-0,206	-0,105
156,560	80,219	-0,291	-0,218
157,575	141,295	-0,252	-0,233
158,589	222,611	-0,171	-0,192
159,604	-27,934	-0,313	-0,126
160,619	203,475	-0,173	-0,187
161,633	113,123	-0,223	-0,189
162,648	-2,110	-0,237	-0,116
163,662	127,036	-0,284	-0,251
164,677	-27,217	-0,233	-0,094
165,692	-145,848	-0,227	0,014
166,706	-48,622	-0,244	-0,081
167,721	555,981	-0,212	-0,357
168,735	13,880	-0,280	-0,151
169,750	49,344	-0,219	-0,143
170,764	50,739	-0,342	-0,225
171,779	95,811	-0,198	-0,158
172,794	252,755	-0,124	-0,148
173,808	-33,019	-0,359	-0,138
174,823	-71,007	-0,213	-0,055
175,837	-162,298	-0,250	-0,009
176,852	31,310	-0,221	-0,132
177,867	-26,926	-0,162	-0,065
178,881	-157,230	-0,276	-0,011
179,896	-178,458	-0,212	-0,003
180,910	-68,356	-0,240	-0,064
181,925	800,000	-0,156	-0,327
182,940	-24,600	-0,328	-0,135
183,954	128,597	-0,180	-0,160
184,969	2,656	-0,244	-0,123
185,983	641,259	-0,091	-0,162
186,998	-54,167	-0,181	-0,057
188,013	206,926	-0,134	-0,145
189,027	-16,812	-0,256	-0,112
190,042	80,331	-0,329	-0,246
191,056	173,770	-0,307	-0,308
192,071	36,874	-0,204	-0,125
193,086	277,231	-0,166	-0,206
194,100	800,000	-0,078	-0,177
195,115	3,650	-0,161	-0,081
196,129	52,535	-0,195	-0,129
197,144	130,677	-0,226	-0,202
198,159	127,826	-0,250	-0,221
199,173	205,243	-0,202	-0,219
200,188	183,647	-0,152	-0,156
201,202	172,612	-0,201	-0,201
202,217	74,251	-0,233	-0,170
203,232	35,890	-0,323	-0,197
204,246	235,920	-0,147	-0,169
205,261	171,902	-0,116	-0,116
206,275	156,280	-0,200	-0,192
207,290	66,716	-0,164	-0,116
208,304	-135,127	-0,261	-0,021
209,319	-33,948	-0,198	-0,075
210,334	286,668	-0,167	-0,210
211,348	376,619	-0,228	-0,323
212,363	-47,933	-0,240	-0,080
213,377	646,862	-0,152	-0,272
214,392	-1,822	-0,279	-0,136
215,407	-108,971	-0,133	-0,020
216,421	36,089	-0,299	-0,182
217,436	317,313	-0,187	-0,246
218,450	108,664	-0,251	-0,208
219,465	264,557	-0,185	-0,223
220,480	-200,000	-0,056	-0,301
221,494	22,346	-0,170	-0,096
222,509	81,579	-0,157	-0,118
223,523	66,443	-0,219	-0,154
224,538	72,746	-0,292	-0,211
225,553	233,244	-0,164	-0,188
226,567	149,719	-0,223	-0,210
227,582	800,000	-0,085	-0,195
228,596	353,235	-0,085	-0,117
229,611	-12,612	-0,164	-0,074
230,626	176,338	-0,159	-0,160
231,640	343,197	-0,154	-0,210
232,655	73,450	-0,173	-0,125
233,669	-30,345	-0,254	-0,100
234,684	580,338	-0,077	-0,132
235,699	69,447	-0,180	-0,128
236,713	277,225	-0,183	-0,226
237,728	-38,347	-0,219	-0,080
238,742	264,679	-0,171	-0,206
239,757	-14,688	-0,240	-0,106
240,772	-37,372	-0,198	-0,073
241,786	-65,500	-0,304	-0,084
242,801	-200,000	-0,049	-0,167
243,815	-105,502	-0,048	-0,007
244,830	-200,000	0,003	-0,167
245,844	90,845	-0,129	-0,100
246,859	-39,608	-0,264	-0,095
247,874	305,531	-0,152	-0,196
248,888	342,809	-0,173	-0,234
249,903	647,831	-0,103	-0,184
250,917	-66,768	-0,226	-0,061
251,932	271,133	-0,054	-0,066
252,947	-60,205	-0,210	-0,062
253,961	-158,672	-0,224	-0,009
254,976	800,000	-0,080	-0,172
255,990	28,542	-0,277	-0,162
257,005	-30,392	-0,215	-0,084
258,020	-10,590	-0,170	-0,077
259,034	201,835	-0,197	-0,210
260,049	524,144	-0,083	-0,135
261,063	-42,858	-0,234	-0,082
262,078	-41,643	-0,339	-0,120
263,093	800,000	-0,137	-0,284
264,107	26,559	-0,306	-0,177
265,122	-199,243	-0,093	0,000
266,136	-18,154	-0,223	-0,096
267,151	44,306	-0,241	0,153
268,166	62,609	-0,131	-0,091
269,180	156,110	-0,229	-0,218
270,195	-5,623	-0,274	-0,129
271,209	800,000	-0,087	-0,193
272,224	175,340	-0,207	-0,208
273,239	232,811	-0,181	-0,206
274,253	-180,382	-0,255	0,004
275,268	47,008	-0,110	-0,071
276,282	48,258	-0,188	-0,121
277,297	-67,558	-0,232	-0,062
278,312	373,200	-0,079	-0,111
279,326	182,731	-0,155	-0,158
280,341	800,000	-0,061	-0,182
281,355	-81,976	-0,195	-0,044
282,370	-1,021	-0,151	-0,073
283,384	744,168	-0,119	-0,221
284,399	660,754	-0,108	-0,192
285,414	-8,272	-0,100	-0,046
286,428	-200,000	-0,034	-0,150
287,443	-111,423	-0,222	-0,031
288,457	113,354	-0,153	-0,128
289,472	289,538	-0,160	-0,201
290,487	234,237	-0,136	-0,155
291,501	21,152	-0,151	-0,084
292,516	263,946	-0,149	-0,178
293,530	36,308	-0,141	-0,086
294,545	-34,461	-0,161	-0,061
295,560	800,000	0,037	-0,078
296,574	355,768	-0,151	-0,208
297,589	261,839	-0,129	-0,155
298,603	216,105	-0,072	-0,078
299,618	329,684	-0,020	0,026
300,633	40,702	-0,142	-0,088
301,647	6,677	-0,210	0,107
302,662	-110,465	-0,253	-0,036
303,676	-51,676	-0,232	-0,074
304,691	-153,711	-0,081	-0,004
305,706	470,410	-0,112	-0,174
306,720	145,627	-0,136	-0,126
307,735	303,281	-0,172	-0,220
308,749	786,047	-0,079	-0,149
309,764	-200,000	0,044	-0,244
310,779	-4,763	-0,159	-0,075
311,793	72,824	-0,145	0,104
312,808	113,956	-0,104	-0,087
313,822	-108,129	-0,242	-0,036
314,837	-69,329	-0,224	-0,059
315,852	9,039	-0,216	-0,112
316,866	-129,148	-0,142	-0,013
317,881	800,000	-0,039	-0,076
318,895	800,000	-0,098	-0,198
319,910	245,607	-0,168	-0,195
320,925	800,000	-0,085	-0,182
321,939	114,586	-0,094	-0,079
322,954	271,396	-0,091	-0,111
323,968	-200,000	-0,011	0,057
324,983	-114,967	-0,110	-0,014
325,997	608,125	-0,135	-0,233
327,012	416,966	-0,070	-0,103
328,027	-107,372	-0,144	-0,021
329,041	52,348	-0,186	-0,122
330,056	200,683	-0,172	-0,182
331,070	41,671	-0,086	-0,053
332,085	103,537	-0,219	-0,177
333,100	-57,225	-0,147	-0,044
334,114	-20,187	-0,274	-0,116
335,129	35,426	-0,186	-0,112
336,143	351,330	-0,072	-0,098
337,158	-124,427	-0,230	-0,024
338,173	446,243	-0,072	0,108
339,187	42,375	-0,150	0,093
340,202	54,935	-0,171	0,113
341,216	49,553	-0,083	-0,054
342,231	437,362	-0,098	-0,147
343,246	41,347	-0,185	-0,114
344,260	246,483	-0,112	-0,130
345,275	83,979	-0,107	-0,080
346,289	-200,000	0,011	-0,100
347,304	47,288	-0,252	-0,161
348,319	171,740	-0,146	-0,144
349,333	132,705	-0,169	-0,149
350,348	6,047	-0,209	-0,106
351,362	422,648	-0,041	-0,060
352,377	-182,355	-0,174	-0,002
353,392	-26,408	-0,147	-0,059
354,406	102,177	-0,149	-0,119
355,421	207,268	1312,357	1405,015
356,435	159,436	1472,804	1405,523
