DTS Sentinel unit serial number:	SN410029Multiplexer serial number:	ORYXHardware model number:	OX2-SRSoftware version number:	ORYX F/W v4,00 Oryx Data Collector v3.7.2.0data status	okinstallation	B3 Nyhavnadifferential loss correction	single-endedforward channel	channel 1reverse channel	N/Adate	2023/12/01time	00:02:30forward acquisition time	300,00reverse acquisition time	0,00gamma	499,1914k internal	0,3211k external	0,3211temperature offset calibration	1,0000default loss term (dB/km)	0,3820temperature slope calibration	1,0000multiplexer offset coefficient	1,0000multiplexer slope coefficient	1,0000fibre end	0,00T internal ref (°C)	9,38T ext. ref 1 (°C)	-5,70T ext. ref 2 (°C)	-5,83length (m)	temperature (°C)	Stokes	anti-Stokes-744,400	792,432	-0,179	-0,359
-743,385	628,556	-0,055	0,101
-742,371	-37,322	-0,098	-0,038
-741,356	-200,000	0,002	0,388
-740,342	800,000	-0,063	-0,155
-739,327	-200,000	-0,022	0,299
-738,312	302,999	-0,148	-0,199
-737,298	384,526	-0,180	0,270
-736,283	66,039	-0,194	-0,143
-735,269	-200,000	0,025	0,360
-734,254	-200,000	-0,024	-0,251
-733,239	83,677	-0,221	0,174
-732,225	800,000	-0,147	-0,306
-731,210	-47,633	0,062	0,022
-730,196	-200,000	-0,011	0,076
-729,181	800,000	0,038	-0,087
-728,167	-44,602	-0,044	-0,016
-727,152	72,839	0,077	0,058
-726,137	800,000	-0,050	0,115
-725,123	-101,646	0,088	-0,015
-724,108	-99,316	-0,201	-0,036
-723,094	-200,000	-0,015	-0,082
-722,079	-200,000	0,004	0,038
-721,064	106,178	-0,118	0,101
-720,050	233,843	0,038	0,046
-719,035	740,888	-0,042	0,082
-718,021	88,481	0,027	0,022
-717,006	135,784	-0,123	-0,116
-715,991	336,192	-0,034	-0,047
-714,977	118,447	0,098	-0,087
-713,962	327,338	-0,020	-0,028
-712,948	26,578	-0,181	0,110
-711,933	-45,281	-0,069	-0,025
-710,918	-200,000	0,012	-0,100
-709,904	-67,872	0,003	-0,001
-708,889	5,638	0,071	-0,038
-707,875	800,000	-0,037	-0,084
-706,860	254,232	0,055	0,069
-705,845	49,547	-0,121	-0,082
-704,831	185,020	0,051	-0,055
-703,816	-200,000	-0,017	0,195
-702,802	-9,429	0,093	-0,045
-701,787	559,098	-0,014	0,025
-700,772	646,250	-0,054	-0,101
-699,758	-50,686	-0,056	0,019
-698,743	-200,000	0,011	-0,069
-697,729	387,104	-0,060	0,090
-696,714	800,000	-0,016	0,035
-695,699	-200,000	0,015	-0,096
-694,685	800,000	0,022	-0,051
-693,670	-200,000	0,001	-0,147
-692,656	-88,121	-0,086	0,019
-691,641	-138,380	-0,090	-0,007
-690,627	-70,046	0,050	0,014
-689,612	83,823	0,082	0,065
-688,597	-123,014	-0,069	0,008
-687,583	-145,482	0,121	-0,008
-686,568	-33,423	-0,093	0,037
-685,554	-73,666	-0,061	-0,016
-684,539	260,251	-0,046	-0,057
-683,524	-151,559	-0,054	-0,003
-682,510	-46,892	-0,160	-0,056
-681,495	-200,000	-0,036	-0,202
-680,481	157,776	-0,111	-0,111
-679,466	-200,000	0,049	-0,211
-678,451	-200,000	-0,008	-0,044
-677,437	-200,000	0,011	-0,064
-676,422	193,954	0,087	0,096
-675,408	-110,232	0,092	0,014
-674,393	-39,788	-0,100	0,038
-673,378	156,765	-0,136	-0,136
-672,364	-70,647	-0,170	-0,046
-671,349	-200,000	0,002	0,096
-670,335	-72,386	0,071	-0,019
-669,320	-200,000	-0,003	-0,026
-668,305	-166,642	0,234	0,007
-667,291	43,143	-0,027	-0,018
-666,276	-106,309	-0,119	0,019
-665,262	-200,000	-0,046	-0,188
-664,247	-178,952	-0,192	-0,003
-663,232	569,997	0,013	0,023
-662,218	-165,138	0,135	-0,004
-661,203	-200,000	-0,006	-0,040
-660,189	118,595	0,012	-0,011
-659,174	26,019	-0,059	-0,035
-658,159	-133,509	-0,074	-0,007
-657,145	688,618	-0,083	-0,158
-656,130	12,168	0,069	-0,038
-655,116	-99,954	-0,099	0,018
-654,101	29,579	0,057	-0,035
-653,086	-200,000	0,006	0,046
-652,072	110,391	-0,120	-0,105
-651,057	41,667	-0,149	-0,097
-650,043	-137,600	-0,064	-0,005
-649,028	381,134	-0,040	0,060
-648,014	-200,000	0,018	0,097
-646,999	-4,155	-0,069	-0,035
-645,984	39,056	-0,103	-0,066
-644,970	-27,993	0,065	-0,027
-643,955	-200,000	0,003	0,025
-642,941	73,689	0,046	-0,035
-641,926	800,000	-0,051	-0,115
-640,911	-3,013	-0,114	0,057
-639,897	-200,000	-0,012	0,054
-638,882	93,792	-0,063	0,051
-637,868	119,817	-0,079	-0,071
-636,853	59,075	0,057	-0,041
-635,838	800,000	-0,021	0,043
-634,824	800,000	0,024	-0,076
-633,809	-94,422	-0,088	0,017
-632,795	-200,000	-0,003	0,100
-631,780	-14,343	-0,102	-0,047
-630,765	9,459	-0,074	-0,040
-629,751	800,000	0,013	-0,029
-628,736	131,489	-0,064	-0,059
-627,722	199,390	-0,069	-0,076
-626,707	374,308	-0,022	-0,032
-625,692	-67,107	-0,027	-0,007
-624,678	73,311	0,063	0,047
-623,663	-27,032	0,111	0,047
-622,649	-97,851	-0,066	0,012
-621,634	-200,000	0,017	-0,134
-620,619	-88,470	-0,157	-0,033
-619,605	272,539	-0,007	0,009
-618,590	137,425	-0,071	0,067
-617,576	-200,000	-0,031	0,114
-616,561	-200,000	-0,026	-0,150
-615,546	464,623	0,037	-0,060
-614,532	-200,000	-0,013	-0,065
-613,517	-89,850	-0,046	0,010
-612,503	-126,802	0,023	-0,002
-611,488	-138,754	-0,112	-0,009
-610,474	657,746	0,035	0,066
-609,459	354,592	0,075	-0,108
-608,444	-200,000	-0,009	-0,120
-607,430	-53,895	0,123	-0,040
-606,415	-200,000	-0,001	0,120
-605,401	407,373	-0,048	0,073
-604,386	262,770	0,053	0,066
-603,371	61,368	0,056	-0,040
-602,357	85,585	0,112	-0,089
-601,342	-123,143	-0,108	0,012
-600,328	-200,000	-0,018	-0,111
-599,313	-200,000	-0,021	-0,260
-598,298	435,748	-0,025	0,040
-597,284	-200,000	0,016	0,058
-596,269	407,929	-0,020	-0,030
-595,255	194,304	0,043	-0,048
-594,240	729,522	-0,051	-0,099
-593,225	-84,159	0,043	0,010
-592,211	-78,913	-0,113	0,028
-591,196	-81,284	0,165	0,039
-590,182	93,214	0,042	0,034
-589,167	-200,000	-0,000	-0,043
-588,152	65,571	-0,144	-0,105
-587,138	209,467	0,028	-0,032
-586,123	53,612	-0,134	-0,092
-585,109	-24,882	-0,081	0,034
-584,094	70,807	-0,084	0,063
-583,079	306,425	0,077	-0,104
-582,065	54,183	0,070	0,049
-581,050	800,000	0,049	-0,109
-580,036	-28,815	-0,118	0,049
-579,021	-200,000	0,006	-0,022
-578,006	-18,028	-0,069	-0,031
-576,992	425,366	-0,027	0,043
-575,977	458,607	-0,025	0,040
-574,963	-65,067	-0,115	0,033
-573,948	96,330	-0,052	-0,042
-572,934	98,568	-0,085	-0,071
-571,919	-52,974	0,063	0,021
-570,904	-174,444	-0,105	0,002
-569,890	-120,400	0,017	-0,002
-568,875	30,952	0,084	0,052
-567,861	12,581	0,102	0,057
-566,846	800,000	-0,024	0,074
-565,831	-200,000	-0,003	-0,044
-564,817	-200,000	0,026	0,106
-563,802	8,556	-0,064	-0,035
-562,788	476,852	-0,037	-0,060
-561,773	138,844	-0,001	0,001
-560,758	21,782	-0,051	0,030
-559,744	-76,546	-0,067	-0,017
-558,729	800,000	-0,040	-0,099
-557,715	-200,000	0,019	-0,156
-556,700	-61,690	-0,037	0,011
-555,685	-112,549	0,105	0,015
-554,671	800,000	-0,010	-0,033
-553,656	139,610	-0,151	0,143
-552,642	168,343	0,033	-0,034
-551,627	136,041	-0,065	0,061
-550,612	84,095	0,003	-0,002
-549,598	211,254	-0,088	-0,100
-548,583	800,000	-0,039	0,079
-547,569	-200,000	0,012	-0,064
-546,554	408,736	-0,003	0,005
-545,539	383,666	-0,134	0,199
-544,525	800,000	0,042	-0,088
-543,510	800,000	0,058	-0,167
-542,496	800,000	-0,035	-0,090
-541,481	-124,847	-0,051	-0,006
-540,466	-5,951	0,120	0,059
-539,452	-4,566	-0,042	-0,021
-538,437	34,753	0,028	-0,017
-537,423	209,370	-0,044	-0,050
-536,408	308,247	0,044	-0,059
-535,393	800,000	-0,061	-0,130
-534,379	-200,000	0,012	0,040
-533,364	-200,000	0,014	-0,051
-532,350	14,239	0,062	-0,035
-531,335	-200,000	0,020	-0,106
-530,321	800,000	0,015	-0,034
-529,306	387,868	-0,063	-0,094
-528,291	659,324	-0,039	-0,072
-527,277	800,000	-0,046	-0,111
-526,262	800,000	-0,017	0,038
-525,248	44,786	0,085	-0,056
-524,233	-3,656	0,099	-0,049
-523,218	160,038	-0,108	0,108
-522,204	-70,368	0,125	0,034
-521,189	-17,461	0,037	-0,017
-520,175	-200,000	0,016	-0,079
-519,160	-200,000	-0,014	0,155
-518,145	-200,000	-0,061	0,226
-517,131	-67,437	0,060	0,017
-516,116	74,365	0,012	-0,009
-515,102	-29,364	0,062	-0,025
-514,087	-97,285	0,082	-0,015
-513,072	-41,272	-0,110	0,041
-512,058	-200,000	-0,026	-0,147
-511,043	-81,730	0,047	-0,011
-510,029	89,475	-0,047	-0,038
-509,014	125,991	0,074	0,067
-507,999	-4,259	-0,028	0,014
-506,985	800,000	0,035	0,075
-505,970	-200,000	0,030	-0,120
-504,956	800,000	-0,018	-0,045
-503,941	-200,000	-0,004	-0,053
-502,926	-18,321	0,103	-0,046
-501,912	113,885	0,049	0,043
-500,897	800,000	0,030	-0,092
-499,883	800,000	-0,016	-0,043
-498,868	800,000	-0,032	0,067
-497,853	230,216	-0,054	-0,063
-496,839	116,476	-0,081	0,071
-495,824	800,000	-0,023	-0,053
-494,810	131,328	-0,062	0,057
-493,795	-83,178	0,191	0,044
-492,781	262,546	-0,076	0,095
-491,766	-82,871	0,016	-0,004
-490,751	323,505	-0,018	-0,025
-489,737	-200,000	0,001	0,019
-488,722	130,974	0,029	-0,026
-487,708	332,939	0,008	0,011
-486,693	680,598	-0,009	0,017
-485,678	800,000	-0,009	0,020
-484,664	-200,000	-0,005	-0,029
-483,649	96,518	-0,084	-0,069
-482,635	110,663	-0,005	-0,004
-481,620	-200,000	0,002	-0,073
-480,605	193,986	0,077	0,084
-479,591	800,000	-0,022	-0,059
-478,576	800,000	0,046	-0,104
-477,562	-151,816	-0,107	-0,006
-476,547	184,091	0,023	0,024
-475,532	786,705	-0,063	-0,124
-474,518	-200,000	0,008	0,069
-473,503	129,591	0,062	0,057
-472,489	-117,781	0,167	0,021
-471,474	110,419	-0,063	0,055
-470,459	56,620	-0,099	-0,069
-469,445	45,822	-0,098	-0,065
-468,430	39,530	-0,023	0,015
-467,416	-83,311	0,127	0,029
-466,401	800,000	0,022	0,052
-465,386	-68,233	0,123	0,034
-464,372	-200,000	0,003	-0,065
-463,357	800,000	0,042	0,094
-462,343	800,000	-0,046	0,111
-461,328	-86,896	0,048	0,010
-460,313	47,824	-0,036	0,024
-459,299	-108,089	0,024	0,004
-458,284	-41,905	0,134	-0,049
-457,270	-200,000	0,018	-0,103
-456,255	-123,348	0,034	-0,004
-455,241	255,320	0,051	-0,063
-454,226	-58,826	-0,131	0,040
-453,211	-80,259	0,215	0,051
-452,197	-31,360	-0,135	-0,054
-451,182	800,000	-0,044	0,090
-450,168	-123,193	0,034	-0,004
-449,153	132,487	-0,063	0,058
-448,138	-43,506	-0,101	-0,036
-447,124	106,705	-0,149	-0,127
-446,109	148,488	0,020	-0,019
-445,095	-10,900	0,134	0,063
-444,080	-69,658	0,026	0,007
-443,065	-158,372	0,109	-0,004
-442,051	-200,000	0,011	-0,140
-441,036	-200,000	-0,017	-0,065
-440,022	-22,317	0,036	-0,016
-439,007	-91,333	0,161	-0,033
-437,992	-200,000	0,009	-0,075
-436,978	261,770	0,027	-0,034
-435,963	-14,967	-0,030	0,014
-434,949	-66,031	-0,078	-0,022
-433,934	-200,000	0,007	-0,055
-432,919	-136,546	-0,031	0,003
-431,905	199,149	-0,037	0,040
-430,890	336,249	-0,061	0,085
-429,876	644,896	-0,036	-0,065
-428,861	800,000	0,022	0,055
-427,846	800,000	0,037	-0,087
-426,832	207,375	0,104	0,117
-425,817	358,395	-0,048	0,069
-424,803	84,184	-0,147	-0,115
-423,788	-13,981	-0,060	-0,028
-422,773	-200,000	-0,038	0,143
-421,759	10,706	-0,064	-0,035
-420,744	-80,201	-0,198	0,047
-419,730	50,140	0,061	-0,041
-418,715	75,579	-0,130	-0,098
-417,701	-200,000	0,024	0,117
-416,686	-49,968	0,154	0,052
-415,671	440,211	-0,032	-0,050
-414,657	800,000	0,019	-0,053
-413,642	800,000	0,049	0,107
-412,628	-200,000	0,036	-0,118
-411,613	72,380	0,072	0,054
-410,598	13,442	-0,032	0,018
-409,584	542,628	-0,032	0,054
-408,569	-154,560	0,050	0,002
-407,555	7,779	0,009	0,005
-406,540	72,447	0,144	0,107
-405,525	-93,771	0,022	-0,004
-404,511	156,060	-0,042	0,042
-403,496	-121,633	-0,122	0,014
-402,482	53,189	0,113	-0,077
-401,467	23,561	0,038	-0,022
-400,452	20,077	0,165	-0,095
-399,438	12,158	-0,007	0,004
-398,423	-45,908	-0,094	0,033
-397,409	492,747	-0,048	0,079
-396,394	-58,723	-0,111	0,034
-395,379	657,052	-0,035	0,065
-394,365	24,970	0,057	0,034
-393,350	5,875	-0,098	-0,052
-392,336	152,264	0,074	0,072
-391,321	-30,033	-0,028	0,011
-390,306	-14,484	-0,042	-0,019
-389,292	-200,000	0,004	-0,135
-388,277	614,345	-0,065	-0,118
-387,263	80,579	0,163	0,126
-386,248	-27,691	-0,051	0,021
-385,233	301,746	0,061	-0,081
-384,219	1,565	-0,030	-0,015
-383,204	800,000	0,030	-0,066
-382,190	30,715	-0,033	-0,020
-381,175	-23,649	0,112	0,048
-380,160	-200,000	-0,014	0,049
-379,146	4,707	-0,104	-0,054
-378,131	-35,552	0,081	0,031
-377,117	310,437	-0,075	-0,100
-376,102	800,000	-0,038	-0,077
-375,088	-200,000	-0,027	0,116
-374,073	-112,678	0,126	0,018
-373,058	800,000	0,012	0,027
-372,044	-89,942	-0,055	0,011
-371,029	797,298	-0,074	0,146
-370,015	137,110	-0,076	-0,071
-369,000	-200,000	-0,010	0,072
-367,985	-200,000	-0,022	0,166
-366,971	647,786	-0,081	0,149
-365,956	120,985	0,057	-0,050
-364,942	-36,048	0,208	0,080
-363,927	-104,155	-0,072	0,012
-362,912	57,594	0,075	0,052
-361,898	-200,000	-0,005	-0,035
-360,883	304,491	-0,082	-0,108
-359,869	-22,309	0,203	-0,087
-358,854	-149,068	0,043	0,002
-357,839	141,650	-0,081	-0,077
-356,825	800,000	0,010	-0,025
-355,810	467,572	0,015	-0,024
-354,796	100,858	0,027	-0,023
-353,781	-146,940	-0,053	-0,003
-352,766	201,413	0,049	-0,054
-351,752	-200,000	-0,009	0,068
-350,737	-200,000	0,007	-0,043
-349,723	-49,909	0,034	0,011
-348,708	-47,615	0,049	-0,017
-347,693	800,000	-0,038	0,113
-346,679	800,000	0,012	-0,030
-345,664	83,444	-0,066	0,051
-344,650	108,661	0,072	0,062
-343,635	706,288	-0,056	0,106
-342,620	30,519	0,029	-0,017
-341,606	671,305	0,022	0,041
-340,591	-190,353	0,050	-0,000
-339,577	192,397	0,011	0,012
-338,562	111,537	0,004	0,004
-337,548	-78,824	-0,060	0,015
-336,533	-200,000	0,011	-0,057
-335,518	800,000	-0,008	-0,018
-334,504	800,000	-0,062	0,133
-333,489	-200,000	-0,040	0,136
-332,475	-200,000	-0,006	-0,028
-331,460	-200,000	0,030	-0,127
-330,445	290,562	0,041	0,053
-329,431	-93,917	0,130	-0,025
-328,416	3,926	0,081	0,042
-327,402	466,683	0,087	0,140
-326,387	-200,000	0,004	-0,032
-325,372	800,000	-0,034	0,085
-324,358	11,602	-0,110	-0,060
-323,343	-200,000	-0,001	0,030
-322,329	44,628	0,101	-0,066
-321,314	-200,000	-0,002	0,055
-320,299	800,000	0,038	0,084
-319,285	76,571	-0,063	0,048
-318,270	-77,929	-0,040	-0,010
-317,256	-34,006	0,029	0,011
-316,241	1,659	-0,083	-0,042
-315,226	157,487	0,019	-0,018
-314,212	400,422	0,050	-0,075
-313,197	-200,000	-0,008	0,125
-312,183	-200,000	-0,012	0,067
-311,168	94,838	0,044	0,036
-310,153	65,434	0,049	0,036
-309,139	193,989	0,063	0,068
-308,124	-59,424	0,071	-0,022
-307,110	-2,562	0,037	-0,018
-306,095	119,480	0,045	0,040
-305,080	-200,000	-0,029	0,176
-304,066	318,018	-0,068	-0,092
-303,051	53,958	-0,103	0,070
-302,037	-173,191	-0,074	-0,002
-301,022	54,740	0,136	-0,093
-300,008	-58,029	0,105	0,032
-298,993	-9,602	0,051	0,024
-297,978	486,466	-0,083	0,135
-296,964	142,385	-0,016	-0,015
-295,949	-200,000	0,004	-0,058
-294,935	74,927	-0,104	-0,078
-293,920	14,065	0,100	-0,055
-292,905	156,508	-0,123	0,121
-291,891	-200,000	0,037	0,121
-290,876	800,000	-0,037	0,110
-289,862	-200,000	0,041	-0,152
-288,847	-139,355	-0,057	0,004
-287,832	800,000	0,033	-0,069
-286,818	800,000	-0,045	0,131
-285,803	-200,000	0,000	-0,021
-284,789	-200,000	-0,001	0,094
-283,774	-200,000	-0,001	0,098
-282,759	-200,000	-0,006	-0,032
-281,745	59,462	0,078	0,054
-280,730	-200,000	-0,039	0,159
-279,716	-96,118	-0,092	0,017
-278,701	-102,191	0,129	-0,022
-277,686	136,531	0,007	0,007
-276,672	800,000	0,076	0,152
-275,657	800,000	-0,050	0,101
-274,643	-200,000	0,008	-0,112
-273,628	-54,356	-0,161	-0,052
-272,613	-96,203	-0,026	-0,005
-271,599	281,306	0,066	-0,084
-270,584	800,000	-0,024	0,048
-269,570	-87,767	0,092	-0,020
-268,555	800,000	0,041	-0,108
-267,540	800,000	0,014	0,030
-266,526	-92,003	0,034	0,007
-265,511	81,923	0,095	-0,073
-264,497	-200,000	-0,045	0,000
-263,482	65,625	0,081	-0,058
-262,467	531,998	-0,056	-0,095
-261,453	-151,862	0,083	0,004
-260,438	-200,000	-0,025	-0,169
-259,424	300,533	-0,076	0,100
-258,409	-200,000	-0,001	-0,029
-257,395	255,040	0,006	-0,007
-256,380	523,689	0,043	-0,073
-255,365	-17,184	-0,146	-0,065
-254,351	79,715	0,092	-0,070
-253,336	50,304	0,041	0,027
-252,322	800,000	0,044	-0,104
-251,307	-25,286	-0,111	-0,046
-250,292	-200,000	-0,030	-0,098
-249,278	-102,015	0,156	-0,027
-248,263	-87,448	0,009	0,002
-247,249	774,532	-0,061	0,118
-246,234	147,617	0,068	0,065
-245,219	800,000	-0,055	-0,139
-244,205	800,000	0,034	-0,077
-243,190	800,000	-0,030	0,062
-242,176	-76,326	0,148	0,037
-241,161	-15,593	0,164	-0,074
-240,146	-200,000	0,007	-0,061
-239,132	-84,969	0,020	-0,004
-238,117	-13,541	-0,100	0,046
-237,103	676,709	0,024	-0,044
-236,088	412,865	-0,011	-0,016
-235,073	-55,763	-0,050	0,016
-234,059	372,262	0,078	0,113
-233,044	800,000	-0,096	0,199
-232,030	188,323	-0,027	-0,029
-231,015	135,651	-0,119	0,110
-230,000	115,274	-0,128	-0,111
-228,986	-97,122	0,055	0,010
-227,971	-160,697	-0,063	0,002
-226,957	46,552	0,087	0,057
-225,942	800,000	0,014	-0,043
-224,927	-167,746	-0,186	0,005
-223,913	3,441	0,098	-0,051
-222,898	-200,000	-0,007	-0,151
-221,884	59,983	0,050	0,035
-220,869	-15,329	0,023	0,010
-219,855	457,377	0,020	0,031
-218,840	-14,597	0,164	-0,075
-217,825	-104,192	0,132	0,022
-216,811	135,931	-0,027	-0,025
-215,796	287,558	0,033	0,043
-214,782	419,940	0,065	0,099
-213,767	-200,000	-0,026	0,153
-212,752	250,442	0,120	0,145
-211,738	218,753	-0,120	0,137
-210,723	6,809	0,095	0,050
-209,709	-71,331	0,011	0,003
-208,694	-200,000	0,006	-0,130
-207,679	188,442	-0,066	-0,071
-206,665	-89,443	0,081	-0,017
-205,650	-77,153	0,169	-0,042
-204,636	720,583	-0,027	-0,052
-203,621	777,017	-0,016	0,030
-202,606	10,827	0,060	-0,032
-201,592	111,650	0,034	-0,029
-200,577	24,816	-0,051	0,030
-199,563	-200,000	0,055	-0,188
-198,548	-162,717	0,163	-0,006
-197,533	-200,000	0,131	-0,000
-196,519	-18,534	0,090	0,040
-195,504	-200,000	-0,001	0,024
-194,490	54,629	-0,047	-0,032
-193,475	92,485	-0,076	0,061
-192,460	800,000	-0,064	0,129
-191,446	-200,000	0,008	0,028
-190,431	800,000	0,105	0,222
-189,417	-200,000	-0,041	-0,133
-188,402	-98,323	0,051	0,009
-187,387	-200,000	0,001	0,020
-186,373	800,000	-0,010	-0,025
-185,358	288,792	-0,028	-0,036
-184,344	-200,000	0,017	0,144
-183,329	-101,915	0,058	-0,010
-182,315	800,000	-0,045	-0,093
-181,300	-100,490	-0,156	0,027
-180,285	800,000	0,039	0,084
-179,271	-200,000	-0,004	0,090
-178,256	800,000	0,041	0,082
-177,242	-200,000	-0,007	0,121
-176,227	502,620	-0,023	0,038
-175,212	9,625	-0,075	0,040
-174,198	-28,806	0,025	0,010
-173,183	62,318	-0,058	0,041
-172,169	-85,096	0,048	0,011
-171,154	800,000	-0,048	-0,098
-170,139	101,409	0,050	0,041
-169,125	-200,000	-0,018	0,060
-168,110	-144,308	-0,026	-0,002
-167,096	-167,701	-0,108	0,003
-166,081	-40,907	0,070	0,026
-165,066	-166,557	0,114	0,003
-164,052	-200,000	0,047	-0,209
-163,037	-174,889	-0,059	0,001
-162,023	-2,835	0,071	0,035
-161,008	-200,000	0,018	0,174
-159,993	-200,000	0,012	0,040
-158,979	-25,607	-0,144	0,060
-157,964	-9,344	-0,129	-0,061
-156,950	-163,043	-0,143	0,005
-155,935	243,980	0,178	-0,212
-154,920	259,223	-0,068	0,084
-153,906	800,000	-0,058	0,141
-152,891	-200,000	-0,001	-0,042
-151,877	-16,223	-0,131	-0,059
-150,862	378,868	-0,042	-0,060
-149,847	54,539	0,038	-0,026
-148,833	359,384	-0,031	-0,043
-147,818	-200,000	-0,002	-0,024
-146,804	-200,000	0,023	0,077
-145,789	800,000	-0,011	0,029
-144,775	-200,000	0,000	-0,061
-143,760	198,168	-0,037	0,040
-142,745	58,229	-0,109	0,076
-141,731	216,391	0,041	0,046
-140,716	800,000	-0,040	0,096
-139,702	444,911	0,029	0,045
-138,687	-200,000	0,024	0,088
-137,672	-105,703	-0,076	0,012
-136,658	53,522	-0,179	0,122
-135,643	480,783	0,006	0,010
-134,629	193,873	0,027	0,029
-133,614	86,801	0,065	-0,051
-132,599	631,559	0,030	-0,054
-131,585	800,000	0,051	-0,123
-130,570	52,818	-0,113	0,076
-129,556	385,775	-0,069	0,101
-128,541	51,095	-0,047	0,032
-127,526	-95,327	-0,178	0,034
-126,512	50,746	0,069	0,047
-125,497	92,532	0,060	0,048
-124,483	800,000	-0,029	0,059
-123,468	-137,822	0,086	-0,007
-122,453	-28,790	0,076	0,031
-121,439	779,390	0,041	-0,079
-120,424	-8,185	0,121	0,057
-119,410	4,089	-0,064	-0,033
-118,395	37,726	-0,078	-0,049
-117,380	-68,686	0,166	-0,045
-116,366	64,923	0,003	0,002
-115,351	800,000	-0,051	0,120
-114,337	256,309	-0,073	-0,089
-113,322	80,691	-0,060	0,045
-112,307	520,356	-0,061	0,102
-111,293	-184,786	0,054	0,001
-110,278	-200,000	-0,007	-0,035
-109,264	639,253	-0,053	-0,096
-108,249	800,000	0,015	0,035
-107,234	-108,241	0,085	-0,013
-106,220	22,199	-0,055	-0,032
-105,205	-86,842	0,132	0,028
-104,191	342,333	0,058	-0,081
-103,176	-200,000	-0,016	0,104
-102,162	-200,000	-0,006	0,103
-101,147	800,000	0,031	0,077
-100,132	-200,000	0,019	-0,152
-99,118	-162,869	-0,152	0,005
-98,103	230,958	0,096	-0,111
-97,089	28,389	0,076	0,045
-96,074	-134,136	0,043	-0,004
-95,059	151,813	0,035	-0,034
-94,045	144,251	-0,079	-0,075
-93,030	-116,592	-0,157	0,020
-92,016	-200,000	0,004	-0,017
-91,001	800,000	0,060	0,128
-89,986	295,920	-0,053	0,069
-88,972	-101,990	0,021	0,004
-87,957	-50,887	0,109	-0,036
-86,943	-200,000	-0,027	0,093
-85,928	226,267	-0,038	-0,043
-84,913	800,000	-0,019	-0,049
-83,899	800,000	-0,046	0,098
-82,884	-200,000	-0,002	0,024
-81,870	-200,000	0,028	0,101
-80,855	-17,800	0,046	0,020
-79,840	-159,962	-0,087	-0,003
-78,826	-127,828	-0,113	-0,011
-77,811	-8,562	-0,067	-0,032
-76,797	291,225	-0,058	-0,075
-75,782	-30,276	0,032	0,013
-74,767	428,741	0,031	0,048
-73,753	-151,032	0,077	-0,004
-72,738	-164,595	-0,081	0,003
-71,724	-200,000	-0,015	-0,057
-70,709	-19,649	-0,165	-0,072
-69,694	46,453	0,062	-0,041
-68,680	-200,000	-0,026	-0,085
-67,665	-200,000	-0,032	0,116
-66,651	-200,000	0,003	0,041
-65,636	800,000	0,051	0,140
-64,622	-160,477	-0,100	-0,004
-63,607	-26,766	-0,181	-0,075
-62,592	800,000	0,058	-0,176
-61,578	58,036	-0,073	-0,050
-60,563	-51,493	0,130	0,043
-59,549	28,274	-0,059	-0,035
-58,534	31,235	-2,091	-1,264
-57,519	426,463	-1,325	-2,023
-56,505	-200,000	-0,466	-4,517
-55,490	800,000	0,615	1,438
-54,476	800,000	5,376	12,093
-53,461	-200,000	21,781	345,015
-52,446	800,000	763,129	2326,188
-51,432	539,884	1660,909	2800,960
-50,417	70,611	1658,003	1209,265
-49,403	17,104	1531,916	854,859
-48,388	11,180	1455,982	783,855
-47,373	19,488	1447,543	819,105
-46,359	14,718	1436,480	790,160
-45,344	9,519	1432,631	763,278
-44,330	9,427	1430,580	761,715
-43,315	9,439	1428,790	760,788
-42,300	9,406	1427,274	759,797
-41,286	9,490	1425,813	759,385
-40,271	9,413	1424,594	758,340
-39,257	9,430	1423,480	757,798
-38,242	9,473	1422,377	757,384
-37,227	9,487	1421,102	756,741
-36,213	9,426	1420,262	755,974
-35,198	9,504	1418,649	755,458
-34,184	9,499	1417,878	754,992
-33,169	9,448	1416,342	753,905
-32,154	9,447	1415,506	753,424
-31,140	9,458	1414,169	752,733
-30,125	9,507	1412,872	752,243
-29,111	9,453	1412,049	751,521
-28,096	9,476	1410,737	750,904
-27,082	9,373	1409,755	749,867
-26,067	9,384	1408,565	749,257
-25,052	9,417	1407,323	748,718
-24,038	9,428	1406,675	748,398
-23,023	9,425	1405,479	747,717
-22,009	9,390	1404,570	747,042
-20,994	9,449	1403,444	746,687
-19,979	9,418	1402,575	746,048
-18,965	9,360	1401,635	745,249
-17,950	9,393	1400,580	744,813
-16,936	9,310	1399,881	744,025
-15,921	9,274	1398,933	743,325
-14,906	9,356	1398,022	743,191
-13,892	9,378	1397,042	742,743
-12,877	9,369	1396,252	742,254
-11,863	9,283	1395,564	741,460
-10,848	9,298	1394,541	740,955
-9,833	9,277	1393,553	740,303
-8,819	9,207	1392,810	739,554
-7,804	9,187	1391,916	738,958
-6,790	9,235	1390,589	738,449
-5,775	9,185	1389,648	737,686
-4,760	9,241	1388,620	737,370
-3,746	9,279	1387,573	736,962
-2,731	9,214	1387,152	736,410
-1,717	9,227	1386,039	735,849
-0,702	9,223	1384,319	734,888
0,313	13,254	1296,040	706,425
1,327	29,302	686,438	410,367
2,342	45,457	118,560	77,058
3,356	0,638	16,591	8,343
4,371	-1,594	3,611	1,789
5,386	20,540	1,306	0,743
6,400	800,000	0,249	0,583
7,415	50,435	-0,189	-0,126
8,429	641,326	-0,225	-0,406
9,444	-12,543	-0,373	-0,171
10,459	-75,908	-0,287	-0,071
11,473	-10,400	-0,327	-0,152
12,488	-152,733	-0,347	-0,017
13,502	68,572	-0,147	-0,106
14,517	109,084	-0,182	-0,154
15,531	98,227	-0,417	-0,338
16,546	67,452	-0,301	-0,216
17,561	142,326	-0,237	-0,222
18,575	6,829	-0,090	-0,047
19,590	233,816	-0,202	-0,234
20,604	-21,107	-0,299	0,128
21,619	251,146	-0,435	-0,522
22,634	137,141	-0,409	-0,376
23,648	161,771	-0,347	-0,342
24,663	45,638	-0,485	-0,315
25,677	-11,168	-0,506	-0,234
26,692	185,553	-0,201	-0,211
27,707	82,881	-0,245	-0,187
28,721	150,560	-0,369	-0,353
29,736	27,132	-0,371	-0,219
30,750	264,426	-0,329	-0,404
31,765	29,661	-0,513	-0,306
32,780	108,730	-0,366	-0,307
33,794	46,050	-0,407	-0,265
34,809	31,261	-0,350	-0,211
35,823	-24,497	-0,311	-0,130
36,838	44,978	-0,418	-0,270
37,853	70,465	-0,296	-0,215
38,867	117,456	-0,316	-0,273
39,882	57,245	-0,333	-0,228
40,896	-10,023	-0,361	-0,168
41,911	189,589	-0,249	-0,262
42,926	66,387	-0,300	-0,214
43,940	139,614	-0,236	-0,218
44,955	110,308	-0,328	-0,276
45,969	136,707	-0,262	-0,241
46,984	-31,819	-0,319	-0,125
47,999	233,351	-0,257	-0,297
49,013	119,193	-0,319	-0,277
50,028	14,461	-0,331	-0,181
51,042	2,007	-0,442	-0,224
52,057	-19,845	-0,446	-0,193
53,071	122,629	-0,413	-0,362
54,086	-4,412	-0,200	-0,097
55,101	37,134	-0,270	-0,167
56,115	62,218	-0,298	-0,209
57,130	43,021	-0,396	-0,253
58,144	184,954	-0,270	-0,282
59,159	355,191	-0,247	-0,346
60,174	20,877	-0,361	-0,205
61,188	65,809	-0,277	-0,196
62,203	-41,844	-0,270	-0,097
63,217	21,088	-0,260	-0,147
64,232	39,902	-0,259	-0,163
65,247	-62,676	-0,385	-0,111
66,261	98,369	-0,288	-0,232
67,276	94,158	-0,373	-0,297
68,290	71,393	-0,319	-0,232
69,305	5,187	-0,388	-0,200
70,320	-122,592	-0,288	0,032
71,334	516,282	-0,218	-0,359
72,349	225,828	-0,268	-0,305
73,363	85,405	-0,288	-0,222
74,378	48,108	-0,364	-0,238
75,393	-20,816	-0,283	-0,121
76,407	152,610	-0,281	-0,269
77,422	-49,779	-0,403	-0,134
78,436	-41,031	-0,360	-0,130
79,451	52,514	-0,221	-0,147
80,466	90,681	-0,293	-0,230
81,480	57,633	-0,316	-0,216
82,495	-29,445	-0,427	-0,170
83,509	-53,223	-0,399	-0,127
84,524	-144,039	-0,231	-0,015
85,539	160,641	-0,240	-0,235
86,553	6,100	-0,380	-0,197
87,568	200,860	-0,220	-0,237
88,582	-63,391	-0,277	-0,079
89,597	-19,024	-0,250	-0,108
90,611	-20,882	-0,219	-0,093
91,626	7,987	-0,191	-0,100
92,641	183,200	-0,248	-0,256
93,655	79,219	-0,271	-0,203
94,670	59,474	-0,271	-0,187
95,684	123,985	-0,272	-0,239
96,699	53,114	-0,249	-0,167
97,714	140,861	-0,245	-0,226
98,728	-137,800	-0,434	-0,034
99,743	166,119	-0,285	-0,282
100,757	23,257	-0,281	-0,161
101,772	34,968	-0,225	-0,137
102,787	11,150	-0,377	-0,201
103,801	161,655	-0,275	-0,269
104,816	321,288	-0,229	-0,306
105,830	109,227	-0,190	-0,159
106,845	194,282	-0,244	-0,259
107,860	87,516	-0,196	-0,152
108,874	342,277	-0,136	-0,186
109,889	524,075	-0,153	-0,253
110,903	22,985	-0,308	-0,176
111,918	800,000	-0,135	-0,382
112,933	-2,093	-0,331	-0,162
113,947	7,302	-0,137	-0,071
114,962	-18,946	-0,212	-0,092
115,976	-76,815	-0,279	-0,068
116,991	-19,966	-0,358	-0,154
118,006	438,212	-0,189	-0,289
119,020	179,964	-0,212	-0,217
120,035	93,166	-0,255	-0,201
121,049	-64,053	-0,280	-0,079
122,064	85,212	-0,187	-0,143
123,079	-30,350	-0,288	-0,114
124,093	284,412	-0,161	-0,203
125,108	78,115	-0,338	-0,251
126,122	748,860	-0,129	-0,244
127,137	18,512	-0,216	-0,120
128,151	179,799	-0,097	-0,099
129,166	-35,503	-0,219	-0,083
130,181	466,292	-0,140	-0,219
131,195	53,699	-0,242	-0,161
132,210	-0,685	-0,182	-0,089
133,224	-24,301	-0,293	-0,121
134,239	124,525	-0,243	-0,213
135,254	137,709	-0,130	-0,119
136,268	-141,455	-0,235	0,016
137,283	-186,964	-0,398	0,004
138,297	62,349	-0,292	-0,203
139,312	231,630	-0,230	-0,264
140,327	11,834	-0,294	-0,157
141,341	161,170	-0,190	-0,185
142,356	225,824	-0,111	-0,126
143,370	-116,412	-0,311	-0,040
144,385	800,000	-0,070	-0,198
145,400	14,413	-0,228	-0,124
146,414	95,322	-0,352	-0,279
147,429	169,367	-0,253	-0,251
148,443	337,418	-0,192	-0,261
149,458	30,200	-0,228	-0,135
150,473	153,145	-0,188	-0,179
151,487	-4,959	-0,300	-0,143
152,502	399,387	-0,152	-0,222
153,516	332,888	-0,171	-0,231
154,531	441,500	-0,250	-0,382
155,546	538,143	-0,169	-0,281
156,560	8,353	-0,342	-0,178
157,575	-200,000	-0,153	0,000
158,589	-81,776	-0,184	-0,042
159,604	-126,580	-0,317	-0,032
160,619	173,034	-0,160	-0,161
161,633	175,465	-0,148	-0,150
162,648	800,000	-0,095	-0,205
163,662	225,314	-0,170	-0,192
164,677	233,856	-0,149	-0,171
165,692	-58,277	-0,199	-0,060
166,706	15,602	-0,289	-0,158
167,721	99,045	-0,203	-0,163
168,735	-74,492	-0,238	-0,059
169,750	-196,057	-0,169	-0,001
170,764	668,235	-0,081	-0,145
171,779	38,148	-0,164	-0,101
172,794	56,607	-0,280	-0,189
173,808	219,711	-0,281	-0,314
174,823	40,409	-0,348	-0,217
175,837	162,914	-0,198	-0,193
176,852	126,119	-0,237	-0,209
177,867	15,705	-0,152	-0,083
178,881	111,132	-0,133	-0,111
179,896	800,000	-0,124	-0,275
180,910	240,742	-0,126	-0,146
181,925	-20,455	-0,267	-0,113
182,940	542,606	-0,129	-0,215
183,954	18,707	-0,298	-0,165
184,969	457,461	-0,117	-0,182
185,983	-72,933	-0,248	-0,063
186,998	600,714	-0,154	-0,266
188,013	150,718	-0,195	-0,184
189,027	48,409	-0,153	-0,099
190,042	-53,297	-0,174	-0,055
191,056	289,791	-0,157	-0,198
192,071	67,425	-0,119	-0,084
193,086	483,995	-0,096	-0,151
194,100	-17,928	-0,097	-0,042
195,115	-29,781	-0,172	-0,068
196,129	198,931	-0,252	-0,268
197,144	212,170	-0,234	-0,256
198,159	85,309	-0,268	-0,204
199,173	106,179	-0,191	-0,157
200,188	-19,538	-0,175	-0,075
201,202	244,867	-0,125	-0,146
202,217	-96,876	-0,280	-0,050
203,232	338,324	-0,130	-0,176
204,246	-136,952	-0,345	-0,027
205,261	139,186	-0,207	-0,189
206,275	-85,106	-0,224	-0,048
207,290	235,120	-0,054	-0,062
208,304	-200,000	-0,039	-0,165
209,319	14,572	-0,096	-0,052
210,334	-34,366	-0,177	-0,067
211,348	207,320	-0,140	-0,151
212,363	27,860	-0,255	-0,149
213,377	16,546	-0,045	-0,025
214,392	-49,850	-0,161	-0,053
215,407	-83,165	-0,308	-0,068
216,421	-131,148	-0,109	-0,010
217,436	47,244	-0,283	-0,182
218,450	466,281	-0,128	-0,199
219,465	-36,484	-0,172	-0,064
220,480	-136,013	-0,325	0,026
221,494	800,000	-0,089	-0,209
222,509	258,131	-0,181	-0,216
223,523	138,238	-0,200	-0,181
224,538	365,029	-0,053	-0,074
225,553	63,971	-0,292	-0,203
226,567	-85,780	-0,236	-0,050
227,582	-27,048	-0,156	-0,063
228,596	144,679	-0,092	-0,085
229,611	-13,223	-0,095	-0,043
230,626	168,074	-0,126	-0,124
231,640	-84,807	-0,248	-0,053
232,655	492,240	-0,164	-0,260
233,669	800,000	-0,147	-0,346
234,684	602,205	-0,158	-0,272
235,699	99,883	-0,182	-0,145
236,713	800,000	-0,075	-0,199
237,728	76,325	-0,258	-0,188
238,742	20,615	-0,184	-0,103
239,757	120,923	-0,192	-0,165
240,772	-4,976	-0,328	-0,156
241,786	460,254	-0,168	-0,260
242,801	-78,853	-0,164	-0,038
243,815	-13,365	-0,165	-0,074
244,830	52,426	-0,166	-0,109
245,844	-0,518	-0,115	0,056
246,859	-64,430	-0,136	-0,038
247,874	-36,706	-0,178	-0,066
248,888	141,671	-0,235	-0,215
249,903	462,974	-0,107	-0,166
250,917	-192,349	-0,079	0,000
251,932	-200,000	-0,044	-0,152
252,947	-112,020	-0,255	-0,035
253,961	90,371	-0,258	-0,199
254,976	800,000	-0,132	-0,254
255,990	-35,785	-0,173	-0,064
257,005	89,535	-0,198	-0,152
258,020	370,312	-0,131	-0,183
259,034	100,182	-0,169	-0,135
260,049	-25,256	-0,106	-0,043
261,063	800,000	-0,068	-0,140
262,078	85,612	-0,183	-0,138
263,093	-7,551	-0,237	-0,110
264,107	-3,907	-0,134	-0,064
265,122	444,339	-0,068	-0,103
266,136	142,870	-0,121	-0,111
267,151	-200,000	-0,186	0,000
268,166	5,759	-0,206	-0,104
269,180	-47,048	-0,196	-0,065
270,195	-14,190	-0,189	-0,084
271,209	-11,274	-0,316	-0,143
272,224	636,703	-0,039	-0,069
273,239	-149,491	-0,128	-0,007
274,253	175,472	-0,057	0,057
275,268	83,241	-0,168	-0,126
276,282	23,713	-0,291	-0,165
277,297	-42,431	-0,114	-0,040
278,312	154,835	-0,116	-0,110
279,326	-9,639	-0,068	-0,031
280,341	-200,000	-0,220	-0,000
281,355	153,387	-0,107	-0,101
282,370	440,391	-0,112	-0,168
283,384	-58,666	-0,205	-0,061
284,399	-39,701	-0,207	-0,074
285,414	-72,215	-0,152	-0,038
286,428	-78,086	-0,189	-0,044
287,443	330,975	-0,128	-0,170
288,457	93,471	-0,123	-0,096
289,472	262,086	-0,088	-0,105
290,487	7,249	-0,309	-0,158
291,501	163,677	-0,188	-0,182
292,516	191,485	-0,043	-0,044
293,530	-2,480	-0,269	-0,129
294,545	-27,092	-0,150	-0,060
295,560	94,339	-0,158	-0,123
296,574	-200,000	-0,053	-0,163
297,589	-52,719	-0,302	-0,095
298,603	19,319	-0,219	-0,120
299,618	26,382	-0,115	-0,066
300,633	767,910	-0,077	-0,144
301,647	800,000	-0,065	-0,155
302,662	-30,798	-0,074	-0,028
303,676	-101,501	-0,183	-0,030
304,691	-52,059	-0,175	0,055
305,706	-200,000	-0,055	-0,178
306,720	136,786	-0,070	-0,063
307,735	-156,037	-0,100	-0,004
308,749	-22,501	-0,261	0,108
309,764	85,285	-0,159	0,120
310,779	-64,045	-0,144	-0,040
311,793	659,464	-0,075	-0,134
312,808	404,157	-0,173	-0,251
313,822	103,633	-0,166	-0,134
314,837	488,947	-0,087	-0,137
315,852	296,995	-0,108	-0,137
316,866	404,333	-0,082	-0,119
317,881	-94,806	-0,201	0,037
318,895	-39,418	-0,157	-0,056
319,910	187,249	-0,140	-0,143
320,925	611,297	-0,096	-0,165
321,939	-51,477	-0,211	-0,067
322,954	324,907	-0,138	-0,182
323,968	-128,771	-0,148	-0,014
324,983	6,593	-0,113	-0,057
325,997	-49,903	-0,191	-0,062
327,012	172,057	-0,172	-0,169
328,027	16,992	-0,134	-0,072
329,041	-4,804	-0,120	-0,056
330,056	-20,555	-0,189	-0,079
331,070	228,679	-0,094	-0,105
332,085	-133,792	-0,148	-0,012
333,100	11,944	-0,203	-0,106
334,114	-1,925	-0,127	-0,061
335,129	-3,421	-0,230	-0,109
336,143	236,218	-0,196	-0,223
337,158	101,970	-0,113	-0,091
338,173	50,923	-0,100	-0,065
339,187	-112,097	-0,092	-0,012
340,202	51,577	-0,056	-0,037
341,216	-54,242	-0,137	-0,042
342,231	269,501	-0,185	-0,223
343,246	800,000	-0,075	-0,200
344,260	36,089	-0,108	-0,065
345,275	-200,000	0,025	-0,105
346,289	209,727	-0,026	-0,028
347,304	-20,405	-0,225	-0,094
348,319	800,000	-0,060	-0,128
349,333	-200,000	0,007	-0,087
350,348	-200,000	-0,012	-0,169
351,362	41,853	-0,067	-0,042
352,377	-56,617	-0,061	-0,019
353,392	258,834	-0,085	-0,101
354,406	210,957	-0,041	0,045
355,421	207,609	1311,081	1401,280
356,435	159,723	1471,300	1401,753
