DTS Sentinel unit serial number:	SN410029Multiplexer serial number:	ORYXHardware model number:	OX2-SRSoftware version number:	ORYX F/W v4,00 Oryx Data Collector v3.7.2.0data status	okinstallation	B3 Nyhavnadifferential loss correction	single-endedforward channel	channel 1reverse channel	N/Adate	2023/12/02time	18:37:30forward acquisition time	300,00reverse acquisition time	0,00gamma	499,1914k internal	0,3200k external	0,3200temperature offset calibration	1,0000default loss term (dB/km)	0,3820temperature slope calibration	1,0000multiplexer offset coefficient	1,0000multiplexer slope coefficient	1,0000fibre end	0,00T internal ref (°C)	13,56T ext. ref 1 (°C)	-1,76T ext. ref 2 (°C)	-1,80length (m)	temperature (°C)	Stokes	anti-Stokes-744,400	17,392	-0,279	-0,161
-743,385	-200,000	-0,042	0,238
-742,371	344,547	-0,272	-0,390
-741,356	-200,000	-0,069	0,269
-740,342	42,080	-0,163	-0,108
-739,327	-200,000	-0,001	0,317
-738,312	535,857	-0,208	-0,360
-737,298	-200,000	-0,007	0,288
-736,283	259,470	-0,204	-0,256
-735,269	-200,000	0,060	0,243
-734,254	800,000	-0,126	-0,271
-733,239	-27,630	-0,151	0,063
-732,225	316,964	-0,128	-0,176
-731,210	-140,828	0,131	0,010
-730,196	800,000	-0,082	-0,205
-729,181	13,697	-0,116	0,066
-728,167	471,386	0,064	-0,105
-727,152	-44,686	0,071	-0,026
-726,137	176,835	-0,134	-0,142
-725,123	-200,000	0,024	-0,085
-724,108	-17,160	-0,125	-0,057
-723,094	-95,281	-0,177	-0,034
-722,079	80,210	-0,089	-0,070
-721,064	-52,621	-0,140	-0,047
-720,050	-200,000	-0,007	-0,036
-719,035	-82,399	-0,024	-0,006
-718,021	-39,124	0,115	-0,044
-717,006	-200,000	-0,012	-0,067
-715,991	91,209	0,034	-0,027
-714,977	-200,000	0,007	-0,041
-713,962	-200,000	-0,007	-0,055
-712,948	-200,000	0,001	0,086
-711,933	-49,465	-0,190	0,065
-710,918	14,479	0,141	0,080
-709,904	760,898	-0,059	0,116
-708,889	-79,629	-0,060	-0,015
-707,875	800,000	0,021	-0,050
-706,860	800,000	-0,045	-0,124
-705,845	-127,675	0,061	-0,006
-704,831	109,737	-0,065	0,057
-703,816	411,051	-0,040	0,062
-702,802	64,788	0,127	-0,093
-701,787	480,904	-0,134	-0,221
-700,772	800,000	-0,043	-0,090
-699,758	30,212	0,021	0,013
-698,743	800,000	-0,020	-0,044
-697,729	509,446	-0,039	0,066
-696,714	-200,000	-0,005	0,028
-695,699	-95,681	-0,055	0,011
-694,685	453,192	-0,036	-0,058
-693,670	-200,000	-0,024	-0,081
-692,656	-200,000	0,008	0,122
-691,641	-200,000	-0,011	-0,073
-690,627	111,194	-0,033	0,029
-689,612	-63,249	-0,057	0,017
-688,597	-20,354	0,024	-0,011
-687,583	800,000	-0,044	0,126
-686,568	-76,430	-0,045	0,012
-685,554	800,000	-0,046	-0,096
-684,539	60,132	-0,092	-0,066
-683,524	39,959	0,040	0,026
-682,510	800,000	0,031	0,094
-681,495	152,363	-0,047	0,047
-680,481	-11,990	0,061	-0,029
-679,466	27,833	-0,205	-0,125
-678,451	45,925	-0,142	0,095
-677,437	-74,926	0,071	-0,018
-676,422	-170,094	0,203	-0,005
-675,408	-2,208	0,053	0,027
-674,393	-100,684	0,076	-0,014
-673,378	-63,834	-0,073	-0,021
-672,364	421,184	-0,113	-0,177
-671,349	726,956	0,043	-0,084
-670,335	44,029	-0,111	0,073
-669,320	-200,000	0,002	-0,009
-668,305	120,743	-0,069	-0,062
-667,291	-16,070	0,062	0,028
-666,276	88,552	0,058	-0,047
-665,262	-200,000	-0,027	-0,087
-664,247	283,821	-0,037	-0,049
-663,232	46,938	-0,126	0,085
-662,218	1,037	-0,042	0,022
-661,203	-160,027	-0,112	-0,004
-660,189	241,796	-0,009	-0,011
-659,174	319,375	0,065	-0,089
-658,159	41,326	-0,120	-0,079
-657,145	-200,000	-0,021	0,097
-656,130	-200,000	0,013	0,071
-655,116	305,074	0,102	-0,138
-654,101	800,000	0,044	0,133
-653,086	-66,712	-0,058	-0,016
-652,072	258,016	-0,058	-0,073
-651,057	800,000	-0,077	-0,183
-650,043	-200,000	-0,018	0,066
-649,028	3,714	-0,043	0,023
-648,014	-133,271	0,057	-0,005
-646,999	-138,903	-0,073	-0,006
-645,984	-175,994	0,140	-0,003
-644,970	63,093	0,014	0,010
-643,955	-3,846	-0,087	-0,044
-642,941	420,629	-0,036	-0,056
-641,926	-16,216	-0,073	-0,033
-640,911	44,081	-0,156	-0,103
-639,897	-200,000	0,002	0,050
-638,882	683,886	0,020	0,038
-637,868	93,419	0,057	-0,047
-636,853	7,362	-0,032	-0,017
-635,838	216,321	0,087	-0,100
-634,824	-200,000	0,001	-0,088
-633,809	-0,256	0,039	0,020
-632,795	-53,345	-0,117	0,039
-631,780	281,429	-0,099	0,129
-630,765	371,449	-0,070	-0,103
-629,751	800,000	-0,023	-0,072
-628,736	-27,805	-0,139	-0,058
-627,722	-200,000	0,003	0,080
-626,707	561,847	-0,056	-0,099
-625,692	-200,000	0,001	0,142
-624,678	2,351	0,190	0,099
-623,663	-200,000	-0,006	0,055
-622,649	-40,949	-0,076	0,028
-621,634	248,842	-0,060	-0,074
-620,619	-200,000	-0,016	-0,079
-619,605	271,562	0,069	0,088
-618,590	9,373	0,084	-0,046
-617,576	3,799	-0,032	-0,017
-616,561	-83,573	0,109	-0,025
-615,546	-200,000	-0,024	0,104
-614,532	269,960	-0,091	0,116
-613,517	101,700	-0,031	-0,026
-612,503	-200,000	-0,019	-0,091
-611,488	-200,000	0,142	-0,000
-610,474	-30,790	0,120	0,049
-609,459	-200,000	0,005	0,132
-608,444	112,665	-0,165	-0,145
-607,430	-132,659	0,035	-0,003
-606,415	33,678	0,087	-0,055
-605,401	187,259	-0,045	-0,049
-604,386	-200,000	0,011	-0,062
-603,371	-200,000	0,003	0,114
-602,357	265,460	-0,081	0,103
-601,342	800,000	-0,054	-0,133
-600,328	-117,563	-0,179	0,023
-599,313	84,068	-0,105	0,083
-598,298	-200,000	-0,007	0,084
-597,284	634,867	0,027	0,050
-596,269	-200,000	0,017	0,142
-595,255	-107,893	-0,091	-0,014
-594,240	334,379	0,053	-0,075
-593,225	-141,768	-0,158	-0,011
-592,211	179,530	0,086	-0,091
-591,196	507,402	0,047	0,080
-590,182	800,000	0,032	0,083
-589,167	-200,000	0,000	0,085
-588,152	133,597	-0,047	-0,044
-587,138	-200,000	0,006	-0,050
-586,123	337,722	-0,095	-0,133
-585,109	103,495	0,045	-0,038
-584,094	800,000	0,056	-0,139
-583,079	84,725	0,091	-0,072
-582,065	370,605	-0,065	-0,096
-581,050	-27,413	0,170	0,071
-580,036	-89,690	0,052	0,011
-579,021	800,000	0,018	-0,051
-578,006	146,631	0,077	0,075
-576,992	-200,000	-0,017	-0,077
-575,977	800,000	0,010	0,031
-574,963	394,792	-0,056	-0,085
-573,948	-69,939	0,044	-0,012
-572,934	-200,000	-0,004	-0,030
-571,919	725,946	-0,014	-0,027
-570,904	487,673	-0,059	-0,097
-569,890	800,000	-0,031	-0,087
-568,875	712,774	-0,063	0,121
-567,861	800,000	0,046	0,107
-566,846	800,000	-0,039	0,081
-565,831	550,773	-0,042	0,073
-564,817	-187,831	0,017	-0,000
-563,802	679,393	0,023	-0,044
-562,788	-200,000	-0,011	-0,211
-561,773	-120,339	-0,041	0,005
-560,758	800,000	0,053	0,145
-559,744	133,521	0,083	0,077
-558,729	185,352	0,076	-0,082
-557,715	206,968	0,105	0,118
-556,700	800,000	-0,012	-0,028
-555,685	-46,575	-0,083	0,029
-554,671	44,123	0,046	0,031
-553,656	753,384	0,102	0,199
-552,642	800,000	-0,053	0,125
-551,627	84,801	-0,051	-0,040
-550,612	712,475	-0,035	-0,068
-549,598	-117,305	-0,100	0,013
-548,583	-200,000	-0,037	-0,173
-547,569	800,000	-0,032	-0,090
-546,554	-107,607	0,088	0,014
-545,539	800,000	-0,089	0,195
-544,525	-163,548	0,034	-0,001
-543,510	-24,838	-0,108	-0,046
-542,496	67,541	-0,125	-0,092
-541,481	-200,000	-0,005	-0,060
-540,466	-76,387	-0,061	0,015
-539,452	-200,000	0,026	0,108
-538,437	16,043	0,017	-0,010
-537,423	-114,064	-0,122	-0,017
-536,408	239,609	0,078	-0,094
-535,393	-200,000	-0,015	-0,076
-534,379	40,403	-0,011	0,007
-533,364	-200,000	0,004	-0,064
-532,350	4,203	-0,071	-0,037
-531,335	800,000	0,039	0,085
-530,321	-189,958	0,077	0,001
-529,306	-116,344	0,089	0,012
-528,291	427,817	-0,055	0,086
-527,277	441,687	-0,073	-0,116
-526,262	-57,615	-0,043	0,014
-525,248	-132,060	-0,085	0,008
-524,233	-200,000	0,006	0,030
-523,218	-200,000	-0,008	0,103
-522,204	-200,000	-0,018	-0,169
-521,189	-111,175	0,095	-0,014
-520,175	-109,080	-0,145	-0,022
-519,160	612,023	-0,035	-0,064
-518,145	8,806	0,045	0,024
-517,131	800,000	0,040	0,112
-516,116	-200,000	0,023	0,110
-515,102	-200,000	-0,019	-0,081
-514,087	566,800	-0,045	-0,080
-513,072	340,578	0,074	-0,105
-512,058	256,469	-0,087	0,108
-511,043	89,172	0,057	0,046
-510,029	-1,383	0,163	0,083
-509,014	314,991	-0,047	0,064
-507,999	-10,039	0,028	-0,013
-506,985	-73,658	-0,023	-0,006
-505,970	-95,426	-0,171	-0,033
-504,956	-200,000	-0,026	0,115
-503,941	333,471	-0,021	0,030
-502,926	71,153	-0,107	-0,080
-501,912	800,000	0,055	0,166
-500,897	153,234	-0,080	0,079
-499,883	-200,000	0,023	-0,112
-498,868	154,578	-0,056	-0,055
-497,853	23,617	0,027	0,016
-496,839	-121,861	0,181	0,021
-495,824	-200,000	0,036	0,140
-494,810	39,013	0,027	0,017
-493,795	-200,000	-0,018	0,107
-492,781	800,000	-0,049	0,116
-491,766	-2,363	0,105	0,053
-490,751	800,000	-0,023	0,055
-489,737	-143,957	-0,125	-0,008
-488,722	-93,836	0,144	-0,028
-487,708	800,000	0,045	-0,116
-486,693	63,347	0,013	-0,009
-485,678	800,000	0,015	-0,041
-484,664	243,784	-0,070	-0,085
-483,649	736,966	-0,061	-0,118
-482,635	102,305	0,028	-0,024
-481,620	800,000	-0,038	0,115
-480,605	800,000	-0,003	-0,009
-479,591	-96,770	0,018	0,003
-478,576	800,000	0,010	-0,023
-477,562	-5,230	-0,044	0,022
-476,547	136,298	0,025	0,024
-475,532	-125,803	-0,179	0,019
-474,518	-137,931	0,086	-0,007
-473,503	53,120	-0,132	0,091
-472,489	800,000	-0,040	0,102
-471,474	800,000	0,032	0,076
-470,459	-8,804	-0,041	-0,020
-469,445	152,359	-0,040	-0,040
-468,430	-71,548	0,073	0,020
-467,416	571,775	0,036	-0,064
-466,401	800,000	-0,062	0,141
-465,386	-56,818	0,037	0,012
-464,372	159,113	0,052	-0,052
-463,357	409,630	-0,033	-0,050
-462,343	-155,259	-0,095	0,004
-461,328	84,757	-0,081	0,064
-460,313	-200,000	0,004	-0,015
-459,299	800,000	0,075	0,155
-458,284	-200,000	-0,059	0,229
-457,270	-96,993	0,164	0,031
-456,255	21,858	-0,087	0,051
-455,241	-21,719	-0,111	0,049
-454,226	-181,451	-0,044	0,001
-453,211	227,426	-0,061	0,071
-452,197	-59,562	0,008	0,002
-451,182	-113,060	0,076	-0,011
-450,168	-51,400	0,084	-0,028
-449,153	233,353	-0,041	0,048
-448,138	800,000	0,069	-0,151
-447,124	261,869	-0,054	0,068
-446,109	46,922	-0,065	-0,043
-445,095	-18,245	0,064	-0,029
-444,080	-200,000	0,023	0,132
-443,065	-8,346	0,118	0,057
-442,051	-200,000	0,005	-0,016
-441,036	-200,000	0,038	-0,130
-440,022	149,849	-0,038	0,037
-439,007	-3,826	0,110	0,054
-437,992	-45,893	0,160	0,056
-436,978	-62,875	0,110	0,033
-435,963	-200,000	0,004	-0,051
-434,949	-4,824	-0,084	0,041
-433,934	-31,874	0,038	0,015
-432,919	269,139	0,037	0,047
-431,905	71,770	0,036	0,027
-430,890	-1,867	-0,071	-0,036
-429,876	231,320	0,041	0,048
-428,861	-44,320	-0,094	-0,034
-427,846	-30,060	0,069	-0,028
-426,832	800,000	-0,048	-0,119
-425,817	22,889	0,115	-0,067
-424,803	-62,112	0,181	-0,054
-423,788	432,117	0,083	0,129
-422,773	198,602	0,077	0,085
-421,759	-200,000	0,036	0,152
-420,744	-120,012	-0,082	-0,010
-419,730	-200,000	-0,003	0,043
-418,715	-3,875	-0,134	-0,067
-417,701	-154,976	-0,057	0,003
-416,686	-93,494	0,091	-0,018
-415,671	-65,983	0,108	0,031
-414,657	800,000	0,050	0,123
-413,642	800,000	0,033	-0,091
-412,628	768,340	-0,020	0,039
-411,613	-111,905	0,067	0,010
-410,598	153,765	0,064	-0,063
-409,584	-200,000	0,002	-0,064
-408,569	800,000	0,029	0,068
-407,555	211,653	-0,054	0,061
-406,540	95,320	0,077	-0,063
-405,525	121,589	-0,069	-0,062
-404,511	146,961	-0,087	-0,084
-403,496	148,128	-0,041	0,040
-402,482	-131,310	0,066	0,006
-401,467	309,885	0,017	-0,023
-400,452	193,383	0,066	0,072
-399,438	-49,879	-0,030	0,010
-398,423	-56,061	-0,069	-0,022
-397,409	63,272	-0,132	-0,095
-396,394	269,627	-0,005	-0,007
-395,379	-200,000	-0,016	-0,063
-394,365	-26,724	0,082	0,034
-393,350	800,000	-0,034	0,091
-392,336	133,533	0,092	0,085
-391,321	86,472	0,049	0,038
-390,306	-96,419	-0,050	-0,009
-389,292	359,831	-0,065	-0,093
-388,277	309,951	-0,082	-0,110
-387,263	-99,546	-0,136	0,024
-386,248	-8,430	0,079	0,038
-385,233	5,336	0,018	-0,009
-384,219	-200,000	-0,008	-0,084
-383,204	173,654	0,035	0,037
-382,190	-13,723	-0,089	-0,041
-381,175	12,413	0,159	0,088
-380,160	-200,000	-0,007	0,054
-379,146	-200,000	-0,024	-0,126
-378,131	157,833	-0,120	0,119
-377,117	800,000	0,025	0,055
-376,102	191,426	-0,068	0,073
-375,088	-14,713	-0,085	-0,039
-374,073	271,065	0,055	0,070
-373,058	249,316	-0,029	0,036
-372,044	219,285	0,116	0,133
-371,029	371,264	-0,058	-0,085
-370,015	34,956	-0,072	0,045
-369,000	800,000	0,064	-0,142
-367,985	-110,711	-0,145	-0,021
-366,971	-24,010	-0,047	-0,020
-365,956	-38,550	0,159	0,060
-364,942	800,000	0,054	0,125
-363,927	-28,671	0,126	0,052
-362,912	-147,834	-0,124	0,007
-361,898	-93,003	-0,041	-0,008
-360,883	-68,208	-0,066	0,018
-359,869	-78,323	-0,065	0,016
-358,854	800,000	0,055	0,129
-357,839	111,968	-0,060	-0,052
-356,825	-61,327	0,229	-0,069
-355,810	94,182	0,059	-0,048
-354,796	800,000	-0,016	-0,044
-353,781	-41,529	-0,095	-0,035
-352,766	-141,190	-0,086	0,006
-351,752	-107,185	-0,073	0,011
-350,737	-200,000	0,009	0,105
-349,723	264,545	0,049	0,061
-348,708	321,018	-0,030	0,041
-347,693	800,000	0,024	0,065
-346,679	-68,511	-0,172	-0,048
-345,664	28,058	-0,115	-0,069
-344,650	-200,000	-0,010	0,101
-343,635	53,161	0,127	-0,087
-342,620	29,670	0,137	0,084
-341,606	-8,635	0,120	-0,058
-340,591	597,535	-0,049	0,087
-339,577	-200,000	-0,001	-0,045
-338,562	800,000	0,019	0,050
-337,548	-95,932	0,044	-0,008
-336,533	-92,857	-0,072	-0,014
-335,518	247,406	0,050	0,061
-334,504	16,017	0,104	0,058
-333,489	-15,672	-0,128	-0,058
-332,475	-200,000	-0,015	-0,102
-331,460	-200,000	0,010	-0,159
-330,445	800,000	0,101	-0,240
-329,431	241,968	0,015	0,018
-328,416	-160,380	0,133	0,005
-327,402	428,667	0,027	-0,041
-326,387	493,788	-0,100	-0,165
-325,372	266,530	-0,087	-0,109
-324,358	465,961	0,028	-0,045
-323,343	-104,470	-0,104	-0,017
-322,329	-200,000	-0,015	-0,066
-321,314	244,120	0,014	0,017
-320,299	-64,919	-0,061	0,017
-319,285	-200,000	-0,008	-0,129
-318,270	-200,000	0,016	0,057
-317,256	69,619	0,055	-0,040
-316,241	-170,162	0,138	0,003
-315,226	-60,368	0,189	0,057
-314,212	-72,133	0,017	-0,005
-313,197	250,742	0,121	0,148
-312,183	-200,000	0,003	0,148
-311,168	-200,000	-0,015	-0,093
-310,153	630,122	-0,056	-0,101
-309,139	-200,000	0,012	-0,053
-308,124	482,342	0,019	-0,031
-307,110	800,000	0,050	-0,133
-306,095	725,814	-0,013	-0,025
-305,080	25,832	0,030	0,018
-304,066	800,000	0,037	-0,110
-303,051	-200,000	0,010	-0,134
-302,037	-117,856	0,038	0,005
-301,022	409,464	0,068	-0,103
-300,008	-41,333	0,048	-0,018
-298,993	-167,641	0,126	-0,004
-297,978	-108,165	0,172	0,026
-296,964	-136,725	-0,168	-0,014
-295,949	6,951	0,046	0,024
-294,935	-167,999	-0,109	0,003
-293,920	800,000	-0,059	0,118
-292,905	86,365	0,119	0,094
-291,891	800,000	-0,050	0,108
-290,876	-4,859	-0,047	-0,023
-289,862	206,057	-0,083	-0,092
-288,847	-200,000	0,016	-0,085
-287,832	132,408	-0,113	-0,104
-286,818	175,644	0,052	0,054
-285,803	-113,348	-0,071	-0,010
-284,789	328,694	0,049	0,068
-283,774	-200,000	0,017	-0,067
-282,759	111,272	-0,082	0,071
-281,745	714,712	-0,090	-0,171
-280,730	242,720	-0,104	0,124
-279,716	264,268	0,043	-0,054
-278,701	-200,000	-0,010	0,056
-277,686	5,768	-0,054	0,029
-276,672	190,742	0,062	0,066
-275,657	19,417	-0,114	0,066
-274,643	145,732	0,023	0,022
-273,628	-183,857	-0,123	-0,001
-272,613	-189,121	-0,086	0,001
-271,599	-87,677	0,090	-0,019
-270,584	-93,843	-0,150	-0,029
-269,570	-40,327	0,055	0,020
-268,555	-200,000	-0,010	-0,100
-267,540	-32,401	-0,115	0,046
-266,526	-200,000	-0,008	-0,125
-265,511	-200,000	-0,021	-0,131
-264,497	86,589	0,109	0,086
-263,482	-118,317	-0,080	-0,010
-262,467	615,929	0,070	0,125
-261,453	249,288	0,040	-0,049
-260,438	71,798	-0,055	-0,041
-259,424	-148,303	-0,044	-0,003
-258,409	-200,000	0,033	-0,165
-257,395	-2,608	-0,097	-0,048
-256,380	-101,146	0,214	-0,037
-255,365	38,310	-0,068	0,043
-254,351	800,000	0,041	-0,121
-253,336	-63,144	0,086	-0,025
-252,322	50,229	-0,105	-0,071
-251,307	83,641	0,102	-0,080
-250,292	298,967	-0,014	-0,018
-249,278	333,604	0,047	0,066
-248,263	-200,000	-0,023	-0,074
-247,249	275,417	0,065	-0,082
-246,234	800,000	0,013	0,027
-245,219	762,141	-0,034	-0,066
-244,205	-200,000	-0,042	-0,158
-243,190	-56,418	0,036	-0,011
-242,176	308,144	0,042	-0,056
-241,161	444,279	0,047	0,074
-240,146	258,034	-0,028	0,034
-239,132	180,231	0,050	0,052
-238,117	216,257	-0,081	-0,092
-237,103	761,088	-0,062	-0,120
-236,088	-98,293	-0,128	-0,023
-235,073	20,518	0,175	0,101
-234,059	636,351	0,085	0,155
-233,044	-200,000	0,001	0,159
-232,030	163,276	-0,065	0,066
-231,015	-82,525	-0,188	0,043
-230,000	-200,000	-0,031	0,106
-228,986	-68,844	0,070	0,019
-227,971	246,638	-0,035	0,043
-226,957	-200,000	0,023	0,168
-225,942	-164,426	-0,123	-0,004
-224,927	228,604	0,044	0,051
-223,913	-96,428	-0,066	-0,012
-222,898	188,942	-0,054	-0,057
-221,884	800,000	-0,020	0,052
-220,869	288,024	-0,046	-0,059
-219,855	-89,529	0,115	0,024
-218,840	155,967	0,072	0,071
-217,825	-77,670	0,032	0,008
-216,811	-29,218	-0,093	-0,038
-215,796	309,979	-0,087	-0,116
-214,782	34,043	0,072	0,045
-213,767	281,565	-0,019	-0,024
-212,752	123,688	0,099	0,089
-211,738	38,255	-0,045	0,028
-210,723	76,767	0,051	-0,038
-209,709	270,542	-0,020	-0,025
-208,694	78,845	-0,049	0,038
-207,679	-200,000	0,003	0,132
-206,665	-200,000	0,028	0,112
-205,650	-200,000	-0,016	0,108
-204,636	-113,331	0,092	0,013
-203,621	-200,000	-0,002	-0,032
-202,606	-200,000	0,009	-0,143
-201,592	468,389	-0,070	-0,113
-200,577	-178,855	-0,114	0,002
-199,563	131,505	0,104	0,095
-198,548	-160,527	0,187	0,007
-197,533	-200,000	-0,002	-0,082
-196,519	-155,253	0,108	-0,005
-195,504	-200,000	0,014	-0,054
-194,490	-200,000	-0,012	-0,087
-193,475	-20,629	-0,074	-0,032
-192,460	-200,000	-0,003	-0,012
-191,446	-152,863	0,069	0,003
-190,431	-127,892	0,094	-0,010
-189,417	-200,000	0,015	0,085
-188,402	-200,000	0,011	0,076
-187,387	112,080	0,154	-0,132
-186,373	269,842	0,037	-0,047
-185,358	77,288	-0,046	-0,035
-184,344	-146,181	0,038	0,002
-183,329	140,364	-0,018	-0,017
-182,315	6,733	0,060	-0,031
-181,300	-42,218	-0,186	-0,067
-180,285	233,751	-0,121	-0,142
-179,271	800,000	0,023	-0,049
-178,256	-47,993	0,093	0,032
-177,242	-200,000	0,034	0,125
-176,227	53,969	0,003	0,002
-175,212	33,525	0,042	-0,026
-174,198	163,668	-0,058	-0,058
-173,183	-200,000	-0,008	0,158
-172,169	-29,312	-0,052	-0,021
-171,154	169,840	0,042	-0,043
-170,139	-134,510	-0,085	0,007
-169,125	89,192	0,141	-0,112
-168,110	404,228	0,034	0,051
-167,096	-86,017	0,095	-0,021
-166,081	-12,181	-0,086	-0,040
-165,066	12,189	0,081	0,044
-164,052	659,863	0,064	-0,118
-163,037	30,740	-0,063	-0,038
-162,023	217,444	-0,040	0,046
-161,008	-200,000	0,047	-0,000
-159,993	361,326	-0,020	0,029
-158,979	-200,000	0,018	-0,133
-157,964	-166,093	0,114	-0,003
-156,950	-148,239	-0,175	0,010
-155,935	32,667	0,074	0,045
-154,920	-200,000	0,037	0,139
-153,906	124,158	0,024	0,022
-152,891	-140,435	0,073	0,005
-151,877	69,337	-0,130	-0,095
-150,862	800,000	0,040	-0,092
-149,847	3,339	-0,044	0,023
-148,833	352,706	0,060	0,085
-147,818	-200,000	0,013	0,086
-146,804	12,351	-0,011	0,006
-145,789	42,975	-0,093	0,060
-144,775	-95,971	0,056	-0,011
-143,760	-200,000	-0,003	0,095
-142,745	63,153	-0,080	0,057
-141,731	0,954	0,035	-0,018
-140,716	800,000	-0,031	0,088
-139,702	-95,962	-0,054	-0,010
-138,687	-200,000	-0,023	0,109
-137,672	-200,000	0,021	0,141
-136,658	83,005	-0,080	0,062
-135,643	-200,000	0,030	-0,116
-134,629	503,621	-0,042	-0,070
-133,614	254,339	-0,095	0,116
-132,599	-26,485	0,080	0,033
-131,585	-33,381	-0,108	-0,042
-130,570	46,124	-0,045	0,030
-129,556	395,236	-0,077	0,114
-128,541	240,913	-0,047	-0,055
-127,526	240,697	-0,021	-0,025
-126,512	-200,000	0,004	-0,117
-125,497	43,060	0,011	-0,007
-124,483	722,147	-0,027	-0,050
-123,468	36,872	0,092	-0,058
-122,453	680,886	0,058	-0,108
-121,439	-200,000	-0,027	-0,100
-120,424	-200,000	0,006	0,025
-119,410	-64,707	0,173	0,049
-118,395	-83,272	0,050	0,011
-117,380	-200,000	-0,001	0,174
-116,366	75,727	0,050	0,037
-115,351	-200,000	-0,039	-0,130
-114,337	26,371	-0,043	0,026
-113,322	-200,000	-0,035	0,154
-112,307	105,346	0,050	0,042
-111,293	619,542	-0,015	-0,026
-110,278	-200,000	-0,015	0,051
-109,264	-142,570	0,155	-0,011
-108,249	-84,379	0,128	0,029
-107,234	-200,000	-0,009	-0,061
-106,220	137,500	-0,035	-0,033
-105,205	800,000	-0,008	0,017
-104,191	-200,000	-0,013	-0,109
-103,176	-200,000	-0,030	0,103
-102,162	1,668	0,090	0,046
-101,147	365,826	0,019	0,027
-100,132	27,897	-0,098	-0,059
-99,118	-200,000	0,011	-0,040
-98,103	800,000	0,076	0,153
-97,089	800,000	0,020	0,050
-96,074	-136,312	0,129	0,011
-95,059	-200,000	-0,015	0,079
-94,045	757,603	-0,041	-0,080
-93,030	-76,946	0,102	-0,025
-92,016	-183,902	-0,263	-0,003
-91,001	304,065	-0,092	-0,121
-89,986	-200,000	0,007	0,044
-88,972	-200,000	-0,005	-0,094
-87,957	-99,924	0,135	-0,024
-86,943	169,821	-0,104	-0,106
-85,928	-77,667	-0,105	-0,026
-84,913	102,672	0,011	-0,009
-83,899	159,337	-0,017	0,017
-82,884	800,000	-0,027	-0,065
-81,870	-200,000	0,018	0,099
-80,855	-200,000	-0,008	-0,081
-79,840	2,032	-0,177	0,090
-78,826	-200,000	-0,035	0,167
-77,811	-200,000	0,010	-0,124
-76,797	32,465	0,088	-0,054
-75,782	55,346	0,089	0,061
-74,767	800,000	-0,020	0,052
-73,753	-187,851	-0,115	0,001
-72,738	251,778	-0,011	0,013
-71,724	162,750	-0,099	0,099
-70,709	453,558	0,098	-0,154
-69,694	143,506	-0,134	-0,127
-68,680	800,000	-0,035	-0,088
-67,665	203,543	-0,035	-0,038
-66,651	800,000	-0,072	0,148
-65,636	800,000	0,040	0,115
-64,622	4,815	-0,095	0,049
-63,607	-48,525	-0,227	-0,077
-62,592	78,385	-0,149	0,112
-61,578	-26,270	0,078	-0,032
-60,563	800,000	0,024	-0,061
-59,549	-162,118	-0,066	-0,002
-58,534	-16,698	-1,603	-0,716
-57,519	408,306	-1,427	-2,146
-56,505	-200,000	-0,503	-4,600
-55,490	179,830	0,947	0,984
-54,476	800,000	4,918	11,530
-53,461	-200,000	19,130	317,959
-52,446	-200,000	740,026	2334,558
-51,432	575,422	1655,320	2874,138
-50,417	78,673	1671,186	1264,473
-49,403	21,574	1543,733	887,273
-48,388	15,430	1466,508	813,000
-47,373	17,921	1456,458	819,437
-46,359	16,779	1446,547	808,351
-45,344	13,667	1441,874	790,796
-44,330	13,616	1439,845	789,406
-43,315	13,611	1438,220	788,459
-42,300	13,603	1436,571	787,486
-41,286	13,655	1435,254	786,983
-40,271	13,561	1434,164	785,904
-39,257	13,575	1432,738	785,159
-38,242	13,638	1431,303	784,639
-37,227	13,682	1430,092	784,157
-36,213	13,633	1428,869	783,220
-35,198	13,641	1427,600	782,534
-34,184	13,717	1426,574	782,301
-33,169	13,627	1425,314	781,151
-32,154	13,704	1424,315	780,939
-31,140	13,659	1423,145	780,053
-30,125	13,687	1421,936	779,489
-29,111	13,652	1420,801	778,673
-28,096	13,664	1419,590	778,033
-27,082	13,614	1418,429	777,133
-26,067	13,582	1417,539	776,463
-25,052	13,630	1416,329	775,992
-24,038	13,601	1415,401	775,319
-23,023	13,529	1414,631	774,526
-22,009	13,571	1413,290	773,959
-20,994	13,567	1412,528	773,493
-19,979	13,547	1411,683	772,904
-18,965	13,539	1410,769	772,337
-17,950	13,537	1409,645	771,681
-16,936	13,537	1408,836	771,207
-15,921	13,548	1407,535	770,519
-14,906	13,506	1406,735	769,850
-13,892	13,495	1405,789	769,253
-12,877	13,490	1404,919	768,724
-11,863	13,469	1404,227	768,217
-10,848	13,521	1403,121	767,822
-9,833	13,492	1402,362	767,240
-8,819	13,405	1401,454	766,308
-7,804	13,433	1400,499	765,886
-6,790	13,383	1399,590	765,126
-5,775	13,383	1398,359	764,423
-4,760	13,397	1397,566	764,022
-3,746	13,359	1396,779	763,389
-2,731	13,360	1395,941	762,901
-1,717	13,371	1394,834	762,316
-0,702	13,306	1393,204	761,094
0,313	17,170	1310,354	733,743
1,327	33,453	704,182	431,975
2,342	51,507	123,331	82,818
3,356	5,488	16,505	8,597
4,371	9,943	3,199	1,714
5,386	-54,914	0,706	0,224
6,400	-200,000	0,064	0,231
7,415	61,871	-0,177	-0,125
8,429	-25,567	-0,252	-0,105
9,444	142,864	-0,432	-0,406
10,459	27,854	-0,323	-0,192
11,473	203,306	-0,270	-0,295
12,488	411,136	-0,160	-0,241
13,502	146,380	-0,253	-0,240
14,517	92,662	-0,351	-0,280
15,531	244,367	-0,240	-0,286
16,546	58,804	-0,257	-0,178
17,561	116,393	-0,368	-0,318
18,575	-18,342	-0,233	-0,102
19,590	187,424	-0,229	-0,241
20,604	7,435	-0,102	-0,054
21,619	129,397	-0,311	-0,281
22,634	72,466	-0,355	-0,261
23,648	137,981	-0,363	-0,336
24,663	97,367	-0,425	-0,345
25,677	208,808	-0,310	-0,343
26,692	69,332	-0,366	-0,266
27,707	68,983	-0,473	-0,343
28,721	-73,193	-0,398	-0,102
29,736	18,966	-0,448	-0,253
30,750	10,435	-0,480	-0,257
31,765	37,204	-0,411	-0,256
32,780	159,437	-0,318	-0,313
33,794	48,338	-0,318	-0,209
34,809	-16,942	-0,396	-0,176
35,823	13,150	-0,422	-0,230
36,838	219,865	-0,281	-0,318
37,853	68,466	-0,413	-0,298
38,867	-28,075	-0,467	-0,190
39,882	109,681	-0,328	-0,278
40,896	79,095	-0,244	-0,184
41,911	196,453	-0,319	-0,343
42,926	70,123	-0,358	-0,261
43,940	16,531	-0,424	-0,235
44,955	56,208	-0,447	-0,305
45,969	11,853	-0,397	-0,214
46,984	-110,261	-0,295	-0,043
47,999	71,219	-0,332	-0,242
49,013	47,485	-0,465	-0,305
50,028	-6,905	-0,256	-0,122
51,042	0,524	-0,413	-0,207
52,057	278,491	-0,338	-0,425
53,071	178,872	-0,322	-0,332
54,086	-0,054	-0,444	-0,222
55,101	800,000	-0,151	-0,366
56,115	-55,159	-0,359	-0,113
57,130	7,255	-0,441	-0,231
58,144	234,284	-0,281	-0,327
59,159	119,324	-0,373	-0,325
60,174	-89,663	-0,347	-0,071
61,188	27,375	-0,336	-0,199
62,203	-25,772	-0,313	-0,129
63,217	13,751	-0,358	-0,195
64,232	-18,305	-0,459	-0,201
65,247	98,522	-0,392	-0,318
66,261	292,344	-0,305	-0,392
67,276	124,579	-0,333	-0,295
68,290	31,919	-0,430	-0,260
69,305	215,110	-0,275	-0,307
70,320	2,012	-0,375	-0,190
71,334	-76,255	-0,298	-0,073
72,349	119,593	-0,340	-0,297
73,363	-60,715	-0,224	-0,066
74,378	107,369	-0,237	-0,198
75,393	-16,915	-0,455	-0,201
76,407	3,519	-0,215	-0,110
77,422	90,209	-0,271	-0,213
78,436	139,700	-0,274	-0,254
79,451	-27,252	-0,343	-0,140
80,466	-75,381	-0,448	-0,111
81,480	132,997	-0,194	-0,176
82,495	18,139	-0,369	-0,206
83,509	37,037	-0,381	-0,237
84,524	20,617	-0,323	-0,183
85,539	113,921	-0,257	-0,219
86,553	115,452	-0,279	-0,239
87,568	284,917	-0,219	-0,277
88,582	145,665	-0,266	-0,251
89,597	159,544	-0,302	-0,295
90,611	33,449	-0,193	-0,118
91,626	-50,625	-0,253	-0,083
92,641	-7,332	-0,242	-0,115
93,655	-81,423	-0,266	-0,061
94,670	68,247	-0,443	-0,318
95,684	145,401	-0,302	-0,284
96,699	368,791	-0,235	-0,335
97,714	-126,442	-0,318	-0,033
98,728	-12,734	-0,233	-0,106
99,743	-136,880	-0,257	-0,020
100,757	11,091	-0,265	-0,142
101,772	136,361	-0,290	-0,266
102,787	117,365	-0,250	-0,216
103,801	121,667	-0,306	-0,267
104,816	83,094	-0,319	-0,243
105,830	321,372	-0,265	-0,355
106,845	-58,137	-0,263	-0,080
107,860	73,816	-0,295	-0,217
108,874	-65,761	-0,203	-0,057
109,889	-1,576	-0,348	-0,171
110,903	-56,099	-0,339	-0,105
111,918	9,248	-0,314	-0,166
112,933	214,356	-0,187	-0,208
113,947	695,451	-0,125	-0,231
114,962	59,359	-0,185	-0,128
115,976	1,496	-0,191	-0,096
116,991	-38,373	-0,288	-0,106
118,006	160,411	-0,287	-0,281
119,020	-200,000	-0,060	-0,197
120,035	96,049	-0,189	-0,151
121,049	-98,004	-0,285	-0,051
122,064	-104,377	-0,344	-0,055
123,079	169,552	-0,171	-0,171
124,093	15,718	-0,184	-0,101
125,108	196,185	-0,239	-0,255
126,122	-59,076	-0,281	-0,084
127,137	-7,244	-0,270	-0,128
128,151	-90,808	-0,382	-0,076
129,166	64,199	-0,246	-0,173
130,181	130,512	-0,299	-0,269
131,195	5,270	-0,232	-0,119
132,210	-47,972	-0,343	-0,115
133,224	85,716	-0,260	-0,200
134,239	-22,224	-0,307	-0,130
135,254	-63,613	-0,318	0,091
136,268	-71,395	-0,205	0,053
137,283	37,800	-0,195	-0,121
138,297	360,281	-0,178	-0,250
139,312	356,398	-0,218	-0,305
140,327	-15,744	-0,253	-0,112
141,341	-22,188	-0,258	-0,109
142,356	-53,365	-0,290	-0,092
143,370	-0,506	-0,342	-0,169
144,385	-16,372	-0,154	-0,068
145,400	149,293	-0,288	-0,273
146,414	126,665	-0,323	-0,286
147,429	128,045	-0,211	-0,187
148,443	133,985	-0,157	-0,142
149,458	-18,906	-0,233	-0,101
150,473	-27,240	-0,263	-0,107
151,487	-160,176	-0,257	-0,010
152,502	78,674	-0,303	-0,226
153,516	186,919	-0,230	-0,240
154,531	183,658	-0,319	-0,330
155,546	135,117	-0,208	-0,189
156,560	-46,867	-0,163	-0,055
157,575	307,965	-0,192	-0,251
158,589	-111,521	-0,279	-0,039
159,604	-75,132	-0,244	0,061
160,619	-87,466	-0,285	-0,060
161,633	192,901	-0,232	-0,245
162,648	208,809	-0,251	-0,275
163,662	257,362	-0,212	-0,254
164,677	-21,076	-0,265	-0,113
165,692	175,090	-0,190	-0,192
166,706	231,183	-0,291	-0,333
167,721	50,464	-0,248	-0,163
168,735	-61,285	-0,290	-0,085
169,750	381,202	-0,211	-0,303
170,764	129,360	-0,172	-0,153
171,779	-45,497	-0,238	-0,082
172,794	-63,044	-0,248	0,071
173,808	-1,128	-0,202	-0,099
174,823	71,606	-0,344	-0,249
175,837	71,017	-0,206	-0,149
176,852	-40,027	-0,199	-0,072
177,867	-59,648	-0,264	-0,078
178,881	3,870	-0,290	-0,147
179,896	-50,292	-0,283	-0,093
180,910	140,262	-0,120	-0,111
181,925	341,659	-0,220	-0,300
182,940	653,766	-0,077	-0,138
183,954	417,797	-0,147	-0,220
184,969	-101,608	-0,116	0,019
185,983	-43,585	-0,165	-0,058
186,998	-36,866	-0,133	-0,049
188,013	189,465	-0,223	-0,234
189,027	521,680	-0,222	-0,364
190,042	19,266	-0,258	-0,144
191,056	103,075	-0,250	-0,204
192,071	6,772	-0,249	-0,129
193,086	101,381	-0,159	-0,129
194,100	28,131	-0,174	-0,102
195,115	-90,084	-0,240	-0,048
196,129	7,983	-0,259	-0,135
197,144	382,198	-0,216	-0,309
198,159	575,771	-0,103	-0,176
199,173	236,697	-0,194	-0,223
200,188	-115,016	-0,149	-0,019
201,202	-73,354	-0,289	-0,073
202,217	-35,815	-0,270	-0,101
203,232	22,069	-0,292	-0,165
204,246	-103,942	-0,183	0,029
205,261	252,898	-0,212	-0,252
206,275	64,221	-0,191	-0,133
207,290	213,960	-0,164	-0,181
208,304	-36,883	-0,253	-0,094
209,319	116,413	-0,194	-0,165
210,334	216,899	-0,168	-0,187
211,348	562,459	-0,105	-0,177
212,363	519,159	-0,137	-0,223
213,377	800,000	-0,086	-0,233
214,392	-10,008	-0,248	-0,114
215,407	275,530	-0,203	-0,251
216,421	-7,323	-0,225	-0,105
217,436	-200,000	-0,178	0,000
218,450	13,036	-0,196	-0,105
219,465	138,880	-0,248	-0,226
220,480	800,000	-0,108	-0,217
221,494	216,691	-0,153	-0,169
222,509	-123,129	-0,158	0,017
223,523	141,710	-0,178	-0,164
224,538	800,000	-0,118	-0,305
225,553	256,039	-0,184	-0,219
226,567	-93,298	-0,333	-0,064
227,582	69,787	-0,154	-0,110
228,596	-169,888	-0,100	0,002
229,611	176,132	-0,151	-0,152
230,626	-8,764	-0,137	-0,064
231,640	57,741	-0,269	-0,182
232,655	-113,692	-0,289	-0,039
233,669	30,454	-0,246	-0,146
234,684	1,807	-0,276	-0,138
235,699	294,264	-0,118	-0,150
236,713	-85,809	-0,080	-0,017
237,728	-136,955	-0,180	0,014
238,742	-162,112	-0,170	0,006
239,757	113,628	-0,268	-0,226
240,772	800,000	-0,125	-0,309
241,786	285,441	-0,159	-0,199
242,801	800,000	-0,073	-0,168
243,815	800,000	-0,095	-0,195
244,830	-7,316	-0,133	-0,062
245,844	38,573	-0,210	-0,129
246,859	91,437	-0,199	-0,155
247,874	128,558	-0,177	-0,156
248,888	-107,954	-0,267	0,040
249,903	-149,231	-0,265	-0,014
250,917	78,695	-0,260	-0,193
251,932	-19,394	-0,224	-0,096
252,947	-11,806	-0,092	-0,042
253,961	40,826	-0,219	-0,136
254,976	87,709	-0,172	-0,132
255,990	65,457	-0,165	-0,115
257,005	16,471	-0,268	-0,146
258,020	-65,273	-0,146	-0,040
259,034	-104,445	-0,275	-0,044
260,049	65,961	-0,130	-0,091
261,063	89,951	-0,165	-0,128
262,078	800,000	-0,050	-0,154
263,093	-14,617	-0,118	-0,052
264,107	6,150	-0,211	-0,108
265,122	119,781	-0,107	-0,092
266,136	-200,000	-0,044	-0,179
267,151	-20,860	-0,141	-0,059
268,166	-7,314	-0,218	-0,102
269,180	-29,807	-0,211	-0,083
270,195	165,997	-0,263	-0,257
271,209	800,000	-0,105	-0,233
272,224	323,395	-0,111	-0,147
273,239	174,875	-0,159	-0,159
274,253	-43,540	-0,234	-0,081
275,268	-118,450	-0,089	-0,011
276,282	283,351	-0,132	-0,165
277,297	63,456	-0,173	-0,120
278,312	136,280	-0,136	-0,123
279,326	181,721	-0,149	-0,151
280,341	424,323	-0,151	-0,226
281,355	-42,465	-0,151	-0,053
282,370	-10,338	-0,200	-0,091
283,384	45,291	-0,163	-0,104
284,399	-20,011	-0,234	-0,099
285,414	104,495	-0,154	-0,125
286,428	158,875	-0,183	-0,175
287,443	90,590	-0,134	0,104
288,457	-121,807	-0,067	-0,007
289,472	-174,998	-0,061	0,001
290,487	-6,118	-0,261	-0,123
291,501	36,862	-0,271	-0,165
292,516	-126,665	-0,181	-0,018
293,530	192,222	-0,059	-0,061
294,545	32,331	-0,093	0,055
295,560	-44,321	-0,241	-0,083
296,574	99,494	-0,135	-0,108
297,589	63,225	-0,242	-0,167
298,603	31,119	-0,137	-0,081
299,618	18,745	-0,179	-0,098
300,633	262,452	-0,170	-0,203
301,647	-200,000	-0,011	-0,069
302,662	-79,946	-0,254	-0,058
303,676	-65,878	-0,161	-0,044
304,691	476,068	-0,140	-0,218
305,706	114,442	-0,284	-0,239
306,720	5,382	-0,117	-0,060
307,735	19,668	-0,277	-0,153
308,749	-200,000	-0,051	-0,167
309,764	-166,564	-0,132	-0,004
310,779	-76,665	-0,127	0,030
311,793	163,769	-0,124	-0,120
312,808	101,115	-0,153	-0,122
313,822	-181,183	-0,165	-0,002
314,837	372,095	-0,074	-0,104
315,852	269,434	-0,145	-0,176
316,866	3,489	-0,182	-0,091
317,881	-59,984	-0,197	-0,058
318,895	-113,163	-0,123	-0,017
319,910	-46,003	-0,152	-0,051
320,925	83,240	-0,155	-0,116
321,939	266,272	-0,114	-0,137
322,954	48,885	-0,201	-0,129
323,968	800,000	-0,052	0,113
324,983	16,234	-0,207	-0,112
325,997	173,496	-0,093	-0,093
327,012	398,479	-0,133	-0,192
328,027	67,673	-0,174	-0,122
329,041	113,280	-0,225	-0,188
330,056	212,178	-0,092	0,099
331,070	-54,656	-0,226	-0,070
332,085	230,472	-0,141	-0,159
333,100	143,132	-0,165	-0,151
334,114	255,258	-0,146	-0,172
335,129	-16,232	-0,207	-0,090
336,143	-167,462	-0,171	0,005
337,158	800,000	-0,046	-0,108
338,173	37,312	-0,035	-0,022
339,187	201,449	-0,048	-0,051
340,202	105,565	-0,127	-0,104
341,216	-48,798	-0,087	-0,029
342,231	132,510	-0,101	-0,090
343,246	219,613	-0,122	-0,134
344,260	-103,913	-0,116	-0,018
345,275	-163,557	-0,089	-0,003
346,289	209,544	-0,095	-0,103
347,304	-27,436	-0,150	-0,060
348,319	-200,000	-0,009	-0,101
349,333	103,189	-0,257	-0,207
350,348	142,859	-0,190	-0,173
351,362	52,212	-0,098	-0,064
352,377	266,498	-0,004	-0,005
353,392	-112,306	-0,146	0,020
354,406	-12,342	-0,110	-0,049
355,421	209,191	1312,852	1412,821
356,435	160,990	1473,355	1413,311
