DTS Sentinel unit serial number:	SN410029Multiplexer serial number:	ORYXHardware model number:	OX2-SRSoftware version number:	ORYX F/W v4,00 Oryx Data Collector v3.7.2.0data status	okinstallation	B3 Nyhavnadifferential loss correction	single-endedforward channel	channel 1reverse channel	N/Adate	2023/11/29time	05:07:31forward acquisition time	300,00reverse acquisition time	0,00gamma	499,1914k internal	0,3211k external	0,3211temperature offset calibration	1,0000default loss term (dB/km)	0,3820temperature slope calibration	1,0000multiplexer offset coefficient	1,0000multiplexer slope coefficient	1,0000fibre end	0,00T internal ref (°C)	9,17T ext. ref 1 (°C)	-6,25T ext. ref 2 (°C)	-6,37length (m)	temperature (°C)	Stokes	anti-Stokes-744,400	511,387	-0,184	-0,312
-743,385	-200,000	0,026	0,287
-742,371	800,000	-0,154	-0,310
-741,356	-200,000	-0,019	0,343
-740,342	373,925	-0,204	-0,302
-739,327	-200,000	-0,022	0,166
-738,312	800,000	-0,056	-0,169
-737,298	-200,000	-0,067	0,270
-736,283	44,953	-0,123	-0,082
-735,269	-200,000	0,007	0,405
-734,254	23,788	-0,160	-0,096
-733,239	324,379	-0,144	0,199
-732,225	-200,000	-0,028	-0,139
-731,210	-200,000	0,042	0,160
-730,196	800,000	0,005	0,012
-729,181	402,861	0,049	-0,075
-728,167	-57,586	-0,075	0,024
-727,152	380,769	-0,076	-0,113
-726,137	800,000	-0,046	-0,109
-725,123	-87,025	-0,113	0,025
-724,108	109,062	-0,105	-0,091
-723,094	-200,000	0,005	-0,143
-722,079	-33,500	-0,107	-0,042
-721,064	321,820	-0,038	0,052
-720,050	4,236	0,151	-0,080
-719,035	-3,996	0,054	-0,027
-718,021	255,080	-0,113	0,141
-717,006	-200,000	-0,002	-0,201
-715,991	138,153	-0,142	-0,135
-714,977	355,277	-0,088	-0,127
-713,962	-200,000	0,004	0,067
-712,948	-200,000	-0,021	-0,117
-711,933	167,213	0,060	-0,062
-710,918	-194,935	-0,166	-0,001
-709,904	-200,000	-0,035	-0,137
-708,889	-24,723	-0,109	-0,047
-707,875	-64,221	-0,099	-0,029
-706,860	37,023	-0,049	0,032
-705,845	-200,000	-0,003	-0,043
-704,831	800,000	-0,019	0,040
-703,816	167,456	0,114	0,117
-702,802	575,350	-0,087	0,155
-701,787	-200,000	-0,001	0,022
-700,772	21,836	-0,111	0,065
-699,758	-183,501	0,090	-0,001
-698,743	-200,000	-0,023	0,175
-697,729	655,306	0,034	0,063
-696,714	97,216	0,072	0,059
-695,699	800,000	-0,013	0,039
-694,685	23,412	-0,189	0,112
-693,670	-94,793	-0,043	-0,008
-692,656	-200,000	-0,006	-0,063
-691,641	3,341	-0,048	-0,025
-690,627	-129,136	0,135	-0,013
-689,612	-44,662	-0,204	-0,073
-688,597	15,226	-0,009	0,005
-687,583	105,790	-0,092	-0,079
-686,568	39,535	0,106	-0,068
-685,554	-200,000	-0,011	0,040
-684,539	598,711	0,010	0,017
-683,524	800,000	-0,056	0,143
-682,510	407,072	-0,044	0,068
-681,495	-24,352	0,015	0,006
-680,481	406,801	-0,034	-0,052
-679,466	206,582	-0,122	-0,137
-678,451	-97,081	0,030	-0,006
-677,437	-71,735	-0,095	-0,026
-676,422	800,000	0,039	-0,085
-675,408	800,000	0,025	0,060
-674,393	-200,000	-0,013	-0,071
-673,378	800,000	-0,074	-0,186
-672,364	-200,000	0,018	-0,197
-671,349	438,229	-0,029	0,045
-670,335	-200,000	-0,004	-0,070
-669,320	-200,000	-0,012	0,060
-668,305	232,504	0,055	-0,065
-667,291	124,411	-0,032	0,029
-666,276	-40,014	0,079	-0,030
-665,262	-200,000	0,022	-0,111
-664,247	800,000	0,005	-0,013
-663,232	-43,949	0,089	0,032
-662,218	66,530	0,059	-0,043
-661,203	-144,654	-0,079	-0,005
-660,189	30,506	0,126	0,078
-659,174	-124,985	-0,095	-0,010
-658,159	194,855	-0,101	0,111
-657,145	261,399	-0,039	-0,049
-656,130	-200,000	-0,041	0,154
-655,116	-200,000	-0,005	-0,057
-654,101	32,915	0,113	0,071
-653,086	280,946	-0,014	-0,018
-652,072	800,000	-0,028	-0,067
-651,057	145,419	-0,083	-0,080
-650,043	60,325	0,039	0,028
-649,028	-139,949	0,036	0,003
-648,014	279,274	0,060	-0,077
-646,999	-200,000	0,017	0,175
-645,984	800,000	0,001	0,001
-644,970	394,475	0,025	-0,038
-643,955	-52,813	-0,201	-0,067
-642,941	-127,060	-0,108	-0,011
-641,926	85,256	0,051	-0,040
-640,911	17,782	-0,088	0,051
-639,897	800,000	0,039	0,080
-638,882	313,803	0,058	0,078
-637,868	62,600	-0,094	-0,068
-636,853	186,326	-0,055	-0,059
-635,838	355,194	-0,058	-0,083
-634,824	-22,245	-0,163	-0,071
-633,809	-200,000	-0,017	0,089
-632,795	222,582	0,067	0,078
-631,780	118,981	0,044	-0,039
-630,765	104,228	-0,075	0,063
-629,751	800,000	0,027	-0,064
-628,736	114,696	0,031	-0,027
-627,722	145,445	-0,080	-0,077
-626,707	-51,717	-0,047	0,016
-625,692	262,395	0,081	-0,102
-624,678	-200,000	-0,054	0,176
-623,663	37,215	-0,064	0,041
-622,649	-125,467	-0,146	-0,016
-621,634	-23,899	-0,100	-0,043
-620,619	-200,000	-0,011	-0,035
-619,605	-61,231	0,052	0,016
-618,590	87,826	-0,094	-0,075
-617,576	-11,145	-0,067	0,032
-616,561	-112,547	0,044	-0,006
-615,546	85,604	0,083	0,066
-614,532	-200,000	-0,000	-0,071
-613,517	473,033	0,028	-0,046
-612,503	59,033	-0,075	0,053
-611,488	800,000	0,021	0,056
-610,474	484,382	0,061	0,100
-609,459	-200,000	-0,025	0,118
-608,444	-47,971	0,031	-0,011
-607,430	-74,466	0,018	0,005
-606,415	258,007	-0,084	0,105
-605,401	299,955	0,069	-0,092
-604,386	-146,099	-0,058	0,004
-603,371	-200,000	-0,039	0,168
-602,357	506,563	0,062	0,104
-601,342	-200,000	-0,016	-0,105
-600,328	-22,164	-0,250	0,109
-599,313	-72,626	-0,163	-0,043
-598,298	-52,557	-0,106	-0,035
-597,284	-51,196	0,101	-0,034
-596,269	-200,000	-0,007	0,041
-595,255	673,705	-0,041	0,077
-594,240	237,258	0,083	-0,099
-593,225	-200,000	-0,030	0,113
-592,211	78,097	-0,049	0,038
-591,196	226,996	0,061	0,071
-590,182	-17,763	0,126	0,057
-589,167	800,000	0,007	0,016
-588,152	-25,410	-0,128	0,054
-587,138	-200,000	-0,017	-0,066
-586,123	800,000	0,055	-0,169
-585,109	138,582	-0,097	-0,092
-584,094	800,000	-0,002	0,006
-583,079	457,812	0,055	-0,088
-582,065	-20,958	-0,034	-0,015
-581,050	-200,000	0,006	0,028
-580,036	-14,669	0,039	0,018
-579,021	-200,000	0,029	-0,152
-578,006	-200,000	0,025	-0,122
-576,992	800,000	-0,017	-0,035
-575,977	311,398	-0,032	-0,044
-574,963	133,140	0,094	0,088
-573,948	-45,759	0,079	0,028
-572,934	-22,908	-0,093	-0,040
-571,919	-76,308	0,066	0,017
-570,904	-200,000	-0,040	-0,153
-569,890	689,206	-0,036	-0,068
-568,875	76,482	-0,080	-0,061
-567,861	-129,717	-0,113	0,011
-566,846	34,466	0,044	-0,028
-565,831	-200,000	0,015	-0,236
-564,817	335,407	-0,047	-0,066
-563,802	155,280	0,046	-0,046
-562,788	-200,000	0,023	-0,101
-561,773	78,000	0,056	-0,043
-560,758	89,623	0,085	0,068
-559,744	-200,000	0,010	-0,077
-558,729	-200,000	0,032	-0,104
-557,715	-150,077	-0,051	-0,003
-556,700	-151,786	-0,251	0,013
-555,685	-101,262	0,066	-0,011
-554,671	-200,000	0,000	-0,060
-553,656	296,350	-0,038	-0,051
-552,642	228,532	0,051	-0,060
-551,627	148,693	-0,103	-0,100
-550,612	-12,517	-0,019	-0,009
-549,598	7,554	0,028	0,015
-548,583	-7,913	0,003	0,001
-547,569	230,944	-0,114	-0,134
-546,554	-200,000	-0,000	-0,002
-545,539	197,086	-0,021	-0,023
-544,525	-200,000	0,008	0,069
-543,510	67,439	-0,049	-0,036
-542,496	-24,833	-0,127	-0,054
-541,481	-200,000	0,076	0,000
-540,466	389,578	0,021	-0,032
-539,452	-54,961	0,047	0,015
-538,437	800,000	-0,085	0,232
-537,423	113,369	0,066	0,058
-536,408	-3,714	0,039	-0,019
-535,393	-200,000	-0,023	-0,179
-534,379	-200,000	0,029	-0,117
-533,364	-200,000	0,014	-0,056
-532,350	-81,730	0,110	0,026
-531,335	62,412	0,021	0,015
-530,321	-85,019	0,109	-0,024
-529,306	87,942	-0,109	0,087
-528,291	800,000	0,039	-0,100
-527,277	355,549	0,105	-0,151
-526,262	-200,000	-0,022	-0,070
-525,248	-200,000	-0,030	0,116
-524,233	-130,404	0,091	-0,009
-523,218	604,726	-0,070	0,126
-522,204	383,230	0,046	0,068
-521,189	-120,267	-0,076	-0,009
-520,175	421,399	-0,019	-0,029
-519,160	-23,917	0,045	0,019
-518,145	-101,829	0,058	0,010
-517,131	-200,000	0,006	-0,126
-516,116	7,930	0,052	-0,028
-515,102	-59,586	-0,086	-0,026
-514,087	51,627	0,060	-0,041
-513,072	-200,000	-0,016	0,144
-512,058	-200,000	0,017	0,068
-511,043	33,851	-0,049	0,030
-510,029	800,000	-0,039	-0,085
-509,014	325,900	0,079	0,109
-507,999	-104,992	0,194	0,032
-506,985	800,000	-0,035	0,070
-505,970	696,497	-0,081	-0,153
-504,956	800,000	0,045	-0,140
-503,941	-122,560	-0,027	0,003
-502,926	-200,000	-0,009	0,071
-501,912	800,000	-0,045	-0,099
-500,897	-94,855	0,117	0,023
-499,883	-93,433	-0,148	0,029
-498,868	-200,000	-0,008	-0,086
-497,853	-200,000	-0,004	0,104
-496,839	-21,890	-0,143	-0,062
-495,824	260,583	-0,057	0,071
-494,810	-101,668	0,111	0,019
-493,795	-126,995	0,026	-0,003
-492,781	800,000	0,012	0,032
-491,766	61,333	0,102	0,073
-490,751	-65,962	-0,044	0,012
-489,737	7,003	0,083	0,044
-488,722	-2,443	0,070	0,035
-487,708	800,000	0,052	0,153
-486,693	125,734	-0,063	-0,057
-485,678	354,871	0,035	0,050
-484,664	-33,279	0,137	-0,054
-483,649	-138,242	-0,095	0,007
-482,635	-176,510	-0,106	0,002
-481,620	-52,143	0,207	-0,068
-480,605	800,000	0,027	0,071
-479,591	18,245	0,074	0,042
-478,576	318,123	-0,021	0,028
-477,562	-200,000	0,013	0,135
-476,547	-200,000	-0,006	0,040
-475,532	-200,000	-0,014	0,083
-474,518	10,995	0,093	-0,051
-473,503	-141,941	0,050	0,004
-472,489	5,809	0,051	0,027
-471,474	-111,045	0,040	-0,006
-470,459	138,925	0,053	0,050
-469,445	179,720	0,059	-0,062
-468,430	12,376	-0,078	-0,043
-467,416	86,618	-0,011	-0,008
-466,401	-137,540	0,153	0,012
-465,386	-33,617	0,046	-0,018
-464,372	97,432	0,151	0,124
-463,357	795,444	-0,057	-0,114
-462,343	-200,000	0,003	0,080
-461,328	215,267	-0,017	-0,020
-460,313	21,472	0,063	-0,037
-459,299	299,353	0,095	0,126
-458,284	800,000	0,022	0,057
-457,270	-127,641	-0,099	-0,010
-456,255	800,000	0,036	0,090
-455,241	62,059	-0,013	0,009
-454,226	-200,000	0,000	-0,025
-453,211	2,418	0,130	0,067
-452,197	154,153	0,005	-0,005
-451,182	-200,000	-0,002	0,063
-450,168	247,625	-0,017	-0,021
-449,153	-122,237	0,069	0,008
-448,138	-200,000	-0,014	-0,052
-447,124	-200,000	-0,025	0,085
-446,109	-68,563	0,048	0,013
-445,095	27,002	0,059	-0,036
-444,080	-39,319	0,129	-0,048
-443,065	23,869	-0,024	-0,014
-442,051	-200,000	-0,020	0,069
-441,036	67,667	-0,093	0,068
-440,022	755,210	0,106	0,205
-439,007	37,754	0,056	-0,036
-437,992	800,000	-0,022	0,068
-436,978	-200,000	0,015	-0,054
-435,963	-200,000	0,034	0,153
-434,949	42,374	0,035	-0,023
-433,934	58,061	-0,145	-0,102
-432,919	276,616	-0,027	-0,034
-431,905	38,340	-0,045	-0,029
-430,890	-200,000	0,001	0,070
-429,876	-108,367	0,063	0,010
-428,861	-32,856	0,081	0,032
-427,846	-174,854	-0,120	0,002
-426,832	91,697	-0,106	-0,085
-425,817	-35,438	0,065	-0,025
-424,803	295,985	0,033	-0,043
-423,788	5,557	0,109	0,057
-422,773	-146,110	-0,082	-0,005
-421,759	-200,000	-0,007	-0,076
-420,744	-78,818	-0,066	0,016
-419,730	-200,000	-0,052	-0,208
-418,715	27,189	-0,135	0,081
-417,701	244,475	0,033	0,040
-416,686	-200,000	0,004	0,043
-415,671	800,000	0,048	0,142
-414,657	342,049	-0,051	0,071
-413,642	-200,000	-0,000	0,048
-412,628	-200,000	-0,025	-0,138
-411,613	-51,351	0,092	-0,031
-410,598	419,186	0,040	-0,062
-409,584	347,397	-0,027	0,038
-408,569	16,413	0,124	0,070
-407,555	800,000	-0,018	-0,049
-406,540	110,857	0,035	0,030
-405,525	-28,358	0,100	-0,041
-404,511	-200,000	-0,008	-0,231
-403,496	22,240	0,099	-0,058
-402,482	676,062	-0,059	-0,111
-401,467	-20,625	0,096	-0,042
-400,452	98,209	-0,071	-0,059
-399,438	50,474	-0,055	0,037
-398,423	-200,000	-0,004	0,076
-397,409	18,515	0,086	-0,049
-396,394	-66,866	-0,089	-0,025
-395,379	-200,000	0,020	-0,065
-394,365	-36,067	0,050	-0,019
-393,350	-200,000	0,017	0,097
-392,336	282,762	0,048	-0,062
-391,321	800,000	-0,032	0,089
-390,306	453,839	-0,069	0,110
-389,292	-200,000	-0,026	-0,107
-388,277	-109,569	0,030	0,004
-387,263	-68,657	-0,036	0,010
-386,248	-9,710	0,092	-0,044
-385,233	-200,000	0,024	-0,082
-384,219	267,977	0,054	-0,068
-383,204	186,825	0,061	-0,065
-382,190	-16,711	-0,179	-0,081
-381,175	527,316	-0,057	-0,096
-380,160	-56,596	-0,064	-0,020
-379,146	-200,000	-0,033	0,193
-378,131	216,815	0,112	0,128
-377,117	91,818	0,104	-0,083
-376,102	-69,402	-0,079	-0,022
-375,088	-200,000	-0,026	-0,087
-374,073	-200,000	0,007	0,022
-373,058	471,481	0,027	0,044
-372,044	-184,145	0,053	0,001
-371,029	800,000	0,064	0,143
-370,015	-200,000	0,023	0,099
-369,000	-200,000	-0,040	0,205
-367,985	-114,969	-0,051	0,007
-366,971	142,301	-0,068	0,064
-365,956	-200,000	0,012	0,149
-364,942	-75,895	0,098	-0,025
-363,927	619,372	0,029	0,053
-362,912	21,022	-0,041	-0,024
-361,898	37,802	-0,108	0,069
-360,883	-200,000	0,024	-0,209
-359,869	800,000	-0,013	-0,036
-358,854	-200,000	-0,022	0,100
-357,839	-163,510	0,102	-0,003
-356,825	-54,567	0,123	-0,040
-355,810	800,000	-0,009	-0,024
-354,796	-200,000	0,001	-0,037
-353,781	99,169	-0,080	-0,066
-352,766	22,252	-0,032	0,019
-351,752	15,932	-0,059	0,033
-350,737	-200,000	-0,010	0,090
-349,723	205,680	0,093	0,103
-348,708	212,212	-0,042	0,048
-347,693	-88,700	-0,084	-0,018
-346,679	57,893	-0,098	-0,068
-345,664	79,068	0,056	-0,043
-344,650	-109,880	0,022	0,003
-343,635	-141,216	0,049	-0,003
-342,620	683,261	0,076	0,143
-341,606	800,000	-0,071	0,149
-340,591	-98,871	-0,142	0,026
-339,577	-91,898	-0,057	0,011
-338,562	-111,079	-0,011	-0,002
-337,548	-82,876	-0,124	-0,028
-336,533	260,600	0,074	-0,091
-335,518	-159,119	0,119	0,005
-334,504	63,865	0,080	0,057
-333,489	-200,000	-0,025	0,092
-332,475	-200,000	0,007	-0,140
-331,460	140,719	-0,036	0,034
-330,445	-200,000	0,027	0,119
-329,431	800,000	0,008	0,021
-328,416	-59,847	0,027	0,008
-327,402	-13,359	0,037	0,017
-326,387	185,298	-0,111	0,118
-325,372	38,933	-0,040	0,025
-324,358	800,000	0,018	-0,047
-323,343	168,386	0,049	0,050
-322,329	-200,000	0,008	-0,045
-321,314	440,283	-0,064	0,100
-320,299	0,001	0,040	0,020
-319,285	800,000	0,033	0,091
-318,270	412,715	-0,059	-0,090
-317,256	420,154	0,041	0,064
-316,241	-154,509	0,079	-0,004
-315,226	-65,681	-0,132	-0,038
-314,212	-200,000	-0,001	-0,051
-313,197	16,591	0,064	0,036
-312,183	721,766	0,025	-0,047
-311,168	-8,556	0,084	-0,040
-310,153	800,000	-0,095	-0,218
-309,139	368,659	0,032	-0,046
-308,124	424,129	-0,007	-0,011
-307,110	391,773	0,045	0,067
-306,095	-200,000	-0,023	-0,100
-305,080	20,565	0,054	-0,031
-304,066	-13,751	-0,054	0,025
-303,051	-97,188	0,134	0,025
-302,037	276,772	-0,105	-0,133
-301,022	103,122	-0,036	-0,030
-300,008	68,418	-0,025	-0,019
-298,993	50,061	-0,072	0,048
-297,978	-200,000	-0,013	0,044
-296,964	-31,642	0,065	-0,026
-295,949	800,000	-0,081	-0,199
-294,935	-200,000	-0,022	-0,118
-293,920	246,433	0,087	-0,104
-292,905	-46,314	-0,025	-0,009
-291,891	-200,000	-0,022	0,176
-290,876	222,591	0,088	0,101
-289,862	267,953	-0,031	0,039
-288,847	-200,000	-0,020	0,078
-287,832	97,699	-0,112	-0,091
-286,818	-151,325	0,078	0,004
-285,803	800,000	0,066	0,145
-284,789	800,000	-0,018	-0,041
-283,774	-30,458	0,169	0,068
-282,759	294,397	-0,067	-0,087
-281,745	164,688	0,149	-0,150
-280,730	-0,188	-0,032	-0,016
-279,716	69,850	0,102	0,075
-278,701	-200,000	0,001	0,046
-277,686	-74,517	0,081	-0,021
-276,672	-200,000	-0,012	0,158
-275,657	396,603	-0,099	0,147
-274,643	800,000	-0,014	-0,041
-273,628	-200,000	0,006	-0,148
-272,613	198,581	-0,052	0,057
-271,599	136,947	0,064	0,059
-270,584	-56,904	-0,077	0,024
-269,570	-88,958	-0,182	0,038
-268,555	792,109	-0,009	0,019
-267,540	-200,000	0,010	-0,125
-266,526	31,825	-0,147	-0,090
-265,511	-49,434	-0,050	-0,017
-264,497	-200,000	-0,029	-0,169
-263,482	314,265	0,040	0,054
-262,467	-7,953	-0,033	0,016
-261,453	246,094	-0,121	0,145
-260,438	-200,000	0,020	0,136
-259,424	-200,000	0,013	0,120
-258,409	505,885	-0,058	0,095
-257,395	190,201	0,109	-0,117
-256,380	129,329	0,096	0,087
-255,365	-116,768	-0,058	0,008
-254,351	-187,878	-0,040	-0,000
-253,336	33,286	0,034	0,021
-252,322	-73,215	-0,091	0,024
-251,307	800,000	-0,046	-0,104
-250,292	-133,879	0,207	-0,018
-249,278	-94,798	-0,029	0,006
-248,263	800,000	-0,045	0,096
-247,249	118,804	-0,047	0,042
-246,234	-200,000	0,021	-0,110
-245,219	-49,313	-0,090	0,030
-244,205	-18,961	0,128	-0,057
-243,190	-200,000	-0,056	-0,269
-242,176	-66,255	-0,074	0,021
-241,161	-98,714	0,152	0,027
-240,146	-84,781	-0,109	0,024
-239,132	-200,000	0,030	-0,203
-238,117	190,960	-0,065	-0,070
-237,103	-75,821	-0,120	0,030
-236,088	-31,289	-0,017	0,007
-235,073	302,710	0,065	0,086
-234,059	-35,702	-0,089	-0,034
-233,044	30,958	0,157	0,096
-232,030	-200,000	-0,006	-0,058
-231,015	175,844	-0,027	-0,028
-230,000	800,000	0,031	-0,064
-228,986	-200,000	0,044	0,217
-227,971	-200,000	-0,005	0,139
-226,957	631,952	0,066	0,119
-225,942	-66,558	-0,119	-0,033
-224,927	800,000	0,051	-0,148
-223,913	-96,445	0,029	-0,005
-222,898	599,542	-0,033	-0,058
-221,884	800,000	0,026	0,069
-220,869	-200,000	-0,020	-0,104
-219,855	800,000	0,031	0,079
-218,840	-85,432	0,237	0,052
-217,825	186,841	-0,087	0,092
-216,811	-5,560	-0,143	0,069
-215,796	558,879	-0,013	-0,023
-214,782	-200,000	0,013	-0,048
-213,767	19,956	-0,086	0,049
-212,752	38,931	-0,108	0,069
-211,738	8,466	0,093	0,050
-210,723	-129,709	-0,053	0,005
-209,709	-111,289	0,077	-0,011
-208,694	51,153	0,035	-0,024
-207,679	-200,000	-0,019	-0,071
-206,665	634,344	-0,086	0,155
-205,650	108,239	0,029	0,024
-204,636	-200,000	0,006	0,055
-203,621	174,125	-0,035	-0,036
-202,606	-200,000	0,015	-0,052
-201,592	-200,000	-0,005	0,090
-200,577	-151,537	-0,086	-0,004
-199,563	800,000	-0,048	-0,117
-198,548	127,969	0,115	-0,104
-197,533	501,660	-0,087	0,143
-196,519	182,436	0,068	0,071
-195,504	-125,944	-0,091	-0,010
-194,490	347,548	-0,046	0,065
-193,475	-122,816	-0,047	-0,005
-192,460	-200,000	-0,003	-0,125
-191,446	-129,945	0,173	-0,017
-190,431	-200,000	0,013	0,122
-189,417	694,279	0,011	0,021
-188,402	3,573	0,123	0,063
-187,387	-200,000	0,013	-0,047
-186,373	333,028	-0,060	0,083
-185,358	-112,358	0,095	-0,013
-184,344	-200,000	-0,018	0,082
-183,329	40,793	-0,032	-0,020
-182,315	800,000	0,025	-0,053
-181,300	368,014	0,093	-0,134
-180,285	16,835	-0,185	-0,104
-179,271	-11,319	-0,054	0,025
-178,256	-168,073	-0,156	-0,004
-177,242	411,561	0,015	0,022
-176,227	-200,000	0,007	0,052
-175,212	-28,443	0,037	-0,015
-174,198	-200,000	-0,017	-0,139
-173,183	800,000	-0,061	-0,126
-172,169	335,557	0,008	0,011
-171,154	513,200	-0,010	-0,016
-170,139	137,312	0,124	0,115
-169,125	672,802	0,076	0,140
-168,110	-24,665	-0,085	0,036
-167,096	-19,260	0,105	0,046
-166,081	-200,000	-0,003	0,012
-165,066	-200,000	-0,014	-0,056
-164,052	-102,053	-0,063	0,011
-163,037	-145,750	0,127	-0,008
-162,023	7,859	0,092	-0,049
-161,008	-6,678	0,071	-0,034
-159,993	-52,855	0,051	0,017
-158,979	168,593	-0,087	-0,088
-157,964	-200,000	0,006	-0,067
-156,950	-24,781	-0,028	-0,012
-155,935	17,482	-0,057	0,032
-154,920	26,977	0,108	-0,064
-153,906	-200,000	-0,011	-0,114
-152,891	225,771	-0,043	-0,049
-151,877	-200,000	0,036	-0,156
-150,862	24,262	-0,266	-0,155
-149,847	800,000	-0,070	-0,196
-148,833	-200,000	0,012	-0,070
-147,818	-88,732	-0,143	-0,030
-146,804	-103,308	0,062	-0,010
-145,789	-8,490	0,141	0,067
-144,775	-109,856	-0,062	0,009
-143,760	-43,842	0,091	-0,032
-142,745	-200,000	0,007	-0,119
-141,731	247,837	0,108	0,129
-140,716	-200,000	0,004	-0,051
-139,702	-200,000	0,018	-0,059
-138,687	43,160	0,052	-0,034
-137,672	187,346	-0,115	0,121
-136,658	-70,404	0,067	-0,018
-135,643	432,756	-0,082	-0,126
-134,629	561,155	0,053	0,091
-133,614	132,901	-0,011	-0,010
-132,599	-200,000	0,011	0,046
-131,585	655,684	-0,046	-0,085
-130,570	-200,000	-0,010	-0,041
-129,556	-200,000	-0,033	0,123
-128,541	-200,000	0,022	-0,226
-127,526	800,000	-0,032	-0,069
-126,512	379,929	-0,054	-0,078
-125,497	-200,000	0,030	0,103
-124,483	205,973	-0,090	-0,100
-123,468	-109,905	-0,081	0,012
-122,453	538,955	-0,046	-0,077
-121,439	-11,758	0,063	-0,029
-120,424	-200,000	0,022	-0,081
-119,410	-200,000	0,026	-0,087
-118,395	-200,000	-0,003	-0,118
-117,380	228,769	0,093	0,108
-116,366	706,282	-0,039	0,074
-115,351	-200,000	0,013	-0,069
-114,337	-200,000	-0,007	-0,239
-113,322	800,000	-0,021	-0,060
-112,307	-200,000	0,004	0,128
-111,293	161,689	-0,038	0,037
-110,278	639,200	0,039	-0,070
-109,264	-97,582	-0,063	-0,011
-108,249	119,756	0,032	-0,028
-107,234	-61,054	-0,065	0,019
-106,220	800,000	-0,013	-0,031
-105,205	-200,000	0,010	0,090
-104,191	661,519	-0,032	0,058
-103,176	-82,164	0,121	0,028
-102,162	-70,105	0,056	-0,015
-101,147	-89,282	-0,058	-0,012
-100,132	-9,898	-0,083	0,039
-99,118	324,825	-0,074	0,100
-98,103	-132,084	0,075	0,007
-97,089	-200,000	-0,005	-0,024
-96,074	800,000	0,067	0,148
-95,059	2,127	0,093	-0,047
-94,045	-200,000	0,007	0,072
-93,030	193,415	-0,060	-0,064
-92,016	247,816	-0,057	-0,068
-91,001	-200,000	0,022	-0,087
-89,986	-100,736	0,145	-0,025
-88,972	533,451	-0,017	-0,028
-87,957	31,297	0,028	-0,017
-86,943	-84,857	0,088	-0,019
-85,928	800,000	-0,023	-0,052
-84,913	106,011	0,091	-0,076
-83,899	624,494	0,054	-0,096
-82,884	-200,000	0,012	-0,082
-81,870	-51,054	0,087	0,029
-80,855	710,557	0,022	-0,041
-79,840	-200,000	0,036	-0,158
-78,826	800,000	-0,026	0,055
-77,811	-65,731	0,122	-0,034
-76,797	125,135	0,097	0,086
-75,782	-200,000	0,027	0,108
-74,767	293,370	0,018	0,023
-73,753	335,160	0,087	-0,119
-72,738	-73,752	-0,111	-0,028
-71,724	-34,194	-0,062	-0,024
-70,709	800,000	-0,030	-0,088
-69,694	800,000	-0,048	-0,109
-68,680	800,000	-0,014	-0,034
-67,665	360,721	-0,024	-0,034
-66,651	-200,000	-0,013	0,042
-65,636	-200,000	-0,041	-0,135
-64,622	202,965	0,029	0,032
-63,607	-73,607	-0,089	0,023
-62,592	407,576	0,026	-0,039
-61,578	82,096	0,157	-0,120
-60,563	262,965	0,042	0,051
-59,549	18,809	0,032	0,018
-58,534	49,839	-2,119	-1,408
-57,519	438,987	-1,205	-1,863
-56,505	-200,000	-0,281	-4,422
-55,490	511,252	0,941	1,552
-54,476	800,000	5,098	11,181
-53,461	-200,000	21,782	338,193
-52,446	800,000	760,688	2310,133
-51,432	537,754	1655,722	2787,023
-50,417	70,014	1652,452	1201,874
-49,403	16,863	1527,009	850,689
-48,388	10,961	1451,392	780,131
-47,373	19,049	1442,961	814,221
-46,359	14,381	1432,008	785,908
-45,344	9,295	1428,039	759,576
-44,330	9,278	1425,858	758,307
-43,315	9,252	1424,133	757,236
-42,300	9,227	1422,708	756,329
-41,286	9,298	1420,986	755,718
-40,271	9,224	1420,011	754,823
-39,257	9,224	1418,958	754,233
-38,242	9,267	1417,631	753,699
-37,227	9,307	1416,618	753,321
-36,213	9,235	1415,423	752,315
-35,198	9,311	1414,011	751,889
-34,184	9,279	1413,067	751,211
-33,169	9,190	1411,851	750,116
-32,154	9,220	1410,892	749,715
-31,140	9,260	1409,443	749,103
-30,125	9,288	1408,212	748,551
-29,111	9,259	1407,319	747,912
-28,096	9,246	1406,168	747,210
-27,082	9,174	1404,862	746,150
-26,067	9,200	1403,764	745,660
-25,052	9,174	1402,858	745,026
-24,038	9,190	1401,949	744,589
-23,023	9,195	1400,972	744,062
-22,009	9,217	1399,960	743,598
-20,994	9,161	1398,900	742,746
-19,979	9,209	1397,845	742,380
-18,965	9,166	1397,009	741,706
-17,950	9,165	1396,296	741,294
-16,936	9,152	1395,295	740,673
-15,921	9,119	1394,237	739,929
-14,906	9,121	1393,396	739,459
-13,892	9,137	1392,459	739,008
-12,877	9,098	1391,794	738,444
-11,863	9,089	1390,943	737,923
-10,848	9,166	1389,855	737,672
-9,833	9,072	1388,776	736,636
-8,819	9,054	1388,028	736,126
-7,804	9,015	1387,234	735,498
-6,790	8,994	1386,286	734,869
-5,775	9,023	1384,946	734,263
-4,760	9,062	1383,921	733,871
-3,746	9,048	1383,066	733,322
-2,731	9,044	1382,290	732,864
-1,717	9,046	1381,512	732,429
-0,702	9,018	1379,826	731,381
0,313	12,964	1292,152	702,885
1,327	28,874	683,767	407,715
2,342	44,790	117,902	76,359
3,356	-1,123	16,563	8,229
4,371	-0,565	3,681	1,836
5,386	34,950	1,186	0,731
6,400	-200,000	0,192	0,680
7,415	-55,224	-0,294	-0,092
8,429	284,376	-0,184	-0,234
9,444	374,899	-0,140	-0,202
10,459	-32,478	-0,384	-0,150
11,473	72,830	-0,315	-0,231
12,488	-10,560	-0,197	-0,092
13,502	81,734	-0,250	-0,191
14,517	-105,227	-0,410	-0,065
15,531	226,057	-0,402	-0,460
16,546	-2,650	-0,461	-0,226
17,561	183,430	-0,275	-0,286
18,575	43,770	-0,134	-0,086
19,590	196,305	-0,188	-0,202
20,604	-136,512	-0,273	-0,022
21,619	82,904	-0,429	-0,328
22,634	161,591	-0,354	-0,349
23,648	157,210	-0,346	-0,337
24,663	73,786	-0,333	-0,245
25,677	67,884	-0,302	-0,217
26,692	279,131	-0,246	-0,310
27,707	90,763	-0,290	-0,229
28,721	315,651	-0,274	-0,365
29,736	137,192	-0,336	-0,309
30,750	56,614	-0,384	-0,263
31,765	141,075	-0,259	-0,241
32,780	293,007	-0,217	-0,279
33,794	29,777	-0,426	-0,254
34,809	153,237	-0,329	-0,317
35,823	15,949	-0,434	-0,240
36,838	313,456	-0,292	-0,387
37,853	155,289	-0,359	-0,347
38,867	22,210	-0,471	-0,270
39,882	-22,518	-0,456	-0,193
40,896	70,849	-0,371	-0,270
41,911	168,476	-0,327	-0,328
42,926	5,575	-0,400	-0,207
43,940	138,191	-0,324	-0,298
44,955	59,251	-0,392	-0,271
45,969	154,258	-0,266	-0,257
46,984	710,430	-0,238	-0,444
47,999	6,088	-0,308	-0,160
49,013	-28,611	-0,287	-0,115
50,028	77,314	-0,385	-0,287
51,042	57,386	-0,248	-0,170
52,057	164,520	-0,306	-0,303
53,071	122,321	-0,384	-0,337
54,086	-8,974	-0,402	-0,188
55,101	-7,531	-0,431	-0,204
56,115	57,071	-0,316	-0,216
57,130	-6,059	-0,310	-0,148
58,144	207,405	-0,379	-0,415
59,159	116,149	-0,335	-0,288
60,174	95,364	-0,341	-0,272
61,188	61,687	-0,348	-0,243
62,203	252,961	-0,216	-0,259
63,217	325,277	-0,210	-0,283
64,232	-22,814	-0,403	-0,170
65,247	-19,658	-0,430	-0,186
66,261	181,575	-0,209	-0,215
67,276	41,298	-0,370	-0,234
68,290	110,086	-0,308	-0,259
69,305	138,580	-0,295	-0,271
70,320	239,985	-0,224	-0,262
71,334	29,948	-0,415	-0,247
72,349	77,540	-0,292	-0,218
73,363	32,042	-0,330	-0,199
74,378	49,420	-0,308	-0,202
75,393	19,947	-0,449	-0,253
76,407	-9,931	-0,269	-0,125
77,422	10,743	-0,378	-0,201
78,436	35,944	-0,256	-0,157
79,451	77,431	-0,307	-0,228
80,466	177,464	-0,330	-0,337
81,480	400,098	-0,168	-0,247
82,495	227,231	-0,227	-0,259
83,509	-9,625	-0,355	-0,165
84,524	-31,043	-0,357	-0,141
85,539	44,422	-0,123	-0,079
86,553	42,415	-0,212	-0,135
87,568	75,511	-0,214	-0,158
88,582	165,718	-0,281	-0,278
89,597	-37,028	-0,339	-0,126
90,611	49,959	-0,212	-0,140
91,626	-85,140	-0,351	-0,076
92,641	-87,013	-0,194	-0,041
93,655	103,416	-0,203	-0,166
94,670	48,694	-0,277	-0,182
95,684	106,553	-0,316	-0,262
96,699	220,020	-0,231	-0,260
97,714	102,640	-0,306	-0,250
98,728	-16,018	-0,355	-0,157
99,743	7,041	-0,213	-0,110
100,757	180,593	-0,252	-0,259
101,772	178,917	-0,324	-0,332
102,787	-45,273	-0,344	-0,119
103,801	103,341	-0,285	-0,233
104,816	27,343	-0,342	-0,200
105,830	800,000	-0,127	-0,261
106,845	-102,001	-0,151	-0,025
107,860	51,187	-0,169	-0,112
108,874	-51,788	-0,280	-0,091
109,889	133,846	-0,162	-0,147
110,903	207,237	-0,247	-0,269
111,918	5,725	-0,359	-0,185
112,933	437,096	-0,233	-0,356
113,947	36,573	-0,262	-0,161
114,962	163,946	-0,231	-0,228
115,976	-24,979	-0,246	-0,102
116,991	168,205	-0,212	-0,211
118,006	39,727	-0,320	-0,200
119,020	162,922	-0,192	-0,188
120,035	137,653	-0,099	-0,090
121,049	-83,292	-0,330	-0,073
122,064	43,146	-0,243	-0,154
123,079	-22,758	-0,279	-0,117
124,093	90,978	-0,215	-0,168
125,108	414,190	-0,081	-0,121
126,122	77,007	-0,268	-0,198
127,137	-47,610	-0,239	-0,080
128,151	37,596	-0,212	-0,131
129,166	7,562	-0,245	-0,127
130,181	-168,047	-0,272	-0,007
131,195	64,249	-0,294	-0,206
132,210	163,635	-0,231	-0,227
133,224	200,782	-0,195	-0,210
134,239	-6,612	-0,256	-0,121
135,254	34,996	-0,293	-0,178
136,268	-18,296	-0,252	-0,109
137,283	166,799	-0,181	-0,179
138,297	86,688	-0,264	-0,203
139,312	120,012	-0,340	-0,294
140,327	-48,103	-0,381	-0,127
141,341	22,329	-0,227	-0,129
142,356	99,944	-0,101	-0,081
143,370	800,000	-0,144	-0,295
144,385	2,578	-0,362	-0,182
145,400	23,901	-0,165	-0,094
146,414	-108,888	-0,341	-0,050
147,429	-113,872	-0,319	-0,043
148,443	79,395	-0,186	-0,139
149,458	76,744	-0,274	-0,203
150,473	21,691	-0,262	-0,148
151,487	-9,497	-0,279	-0,129
152,502	139,959	-0,243	-0,223
153,516	800,000	-0,076	-0,233
154,531	104,835	-0,302	-0,247
155,546	193,509	-0,247	-0,260
156,560	99,028	-0,213	-0,171
157,575	20,396	-0,371	-0,208
158,589	-138,366	-0,290	-0,022
159,604	12,974	-0,233	-0,125
160,619	119,458	-0,226	-0,195
161,633	126,350	-0,227	-0,200
162,648	-14,229	-0,282	-0,126
163,662	-184,486	-0,360	0,004
164,677	422,997	-0,158	-0,237
165,692	153,116	-0,226	-0,215
166,706	0,830	-0,313	-0,156
167,721	-77,057	-0,183	-0,044
168,735	121,022	-0,206	-0,178
169,750	415,178	-0,165	-0,245
170,764	800,000	-0,088	-0,206
171,779	436,543	-0,176	-0,267
172,794	156,134	-0,261	-0,251
173,808	179,321	-0,226	-0,230
174,823	107,713	-0,244	-0,202
175,837	397,312	-0,150	-0,219
176,852	-90,388	-0,312	-0,062
177,867	107,356	-0,192	-0,158
178,881	-131,991	-0,216	-0,019
179,896	431,056	-0,155	-0,234
180,910	106,687	-0,142	-0,117
181,925	139,923	-0,216	-0,198
182,940	100,712	-0,242	-0,195
183,954	800,000	-0,073	-0,178
184,969	7,170	-0,216	-0,111
185,983	270,045	-0,185	-0,226
186,998	167,881	-0,158	-0,156
188,013	-28,007	-0,357	-0,143
189,027	55,668	-0,162	-0,108
190,042	479,046	-0,138	-0,218
191,056	-200,000	-0,062	-0,196
192,071	73,039	-0,229	-0,166
193,086	-45,676	-0,367	-0,125
194,100	17,873	-0,090	-0,049
195,115	152,110	-0,211	-0,200
196,129	-15,314	-0,322	-0,142
197,144	73,796	-0,344	-0,250
198,159	272,124	-0,177	-0,217
199,173	214,849	-0,231	-0,254
200,188	-34,398	-0,278	-0,105
201,202	78,457	-0,162	-0,120
202,217	15,734	-0,198	-0,107
203,232	124,305	-0,171	-0,149
204,246	-82,850	-0,157	-0,035
205,261	419,515	-0,115	-0,171
206,275	200,322	-0,180	-0,192
207,290	315,930	-0,113	-0,148
208,304	-10,967	-0,188	-0,085
209,319	800,000	-0,102	-0,258
210,334	-15,061	-0,227	-0,100
211,348	285,269	-0,188	-0,235
212,363	-34,344	-0,290	-0,110
213,377	720,550	-0,104	-0,193
214,392	-86,358	-0,193	-0,041
215,407	104,029	-0,167	-0,136
216,421	71,125	-0,254	-0,182
217,436	7,916	-0,146	-0,075
218,450	-21,337	-0,378	-0,159
219,465	10,344	-0,310	-0,163
220,480	94,406	-0,193	-0,151
221,494	96,413	-0,226	-0,179
222,509	30,329	-0,139	-0,082
223,523	-148,839	-0,255	0,014
224,538	-42,834	-0,076	-0,027
225,553	280,638	-0,221	-0,274
226,567	300,357	-0,174	-0,222
227,582	211,771	-0,200	-0,219
228,596	-55,670	-0,138	-0,042
229,611	-22,380	-0,227	-0,095
230,626	-0,335	-0,192	-0,094
231,640	-2,249	-0,194	-0,094
232,655	80,014	-0,151	-0,112
233,669	420,693	-0,105	-0,156
234,684	26,057	-0,235	-0,135
235,699	76,946	-0,216	-0,158
236,713	203,220	-0,174	-0,186
237,728	58,092	-0,125	-0,085
238,742	-13,017	-0,204	-0,091
239,757	154,630	-0,162	-0,154
240,772	58,463	-0,190	-0,129
241,786	82,932	-0,233	-0,175
242,801	151,640	-0,120	-0,113
243,815	-35,330	-0,076	-0,028
244,830	-38,719	-0,134	-0,049
245,844	489,111	-0,146	-0,231
246,859	-13,527	-0,243	-0,108
247,874	-45,700	-0,193	-0,066
248,888	38,605	-0,256	-0,157
249,903	-141,130	-0,224	-0,016
250,917	3,235	-0,158	-0,079
251,932	-136,342	-0,147	0,012
252,947	233,444	-0,167	-0,189
253,961	-89,673	-0,187	-0,037
254,976	108,642	-0,183	-0,151
255,990	-36,712	-0,263	-0,097
257,005	619,309	-0,111	-0,194
258,020	256,898	-0,110	-0,130
259,034	-32,783	-0,235	-0,090
260,049	-147,017	-0,189	0,011
261,063	-10,967	-0,249	-0,113
262,078	-38,426	-0,228	-0,083
263,093	416,133	-0,112	-0,165
264,107	114,011	-0,189	-0,158
265,122	216,654	-0,078	-0,086
266,136	-48,141	-0,120	0,040
267,151	160,351	-0,075	-0,072
268,166	166,997	-0,232	-0,227
269,180	120,673	-0,253	-0,217
270,195	62,417	-0,239	-0,164
271,209	800,000	-0,139	-0,355
272,224	-136,601	-0,154	0,012
273,239	273,021	-0,108	-0,132
274,253	-17,505	-0,194	-0,084
275,268	133,723	-0,246	-0,219
276,282	212,686	-0,220	-0,239
277,297	-84,277	-0,231	-0,050
278,312	800,000	-0,036	-0,107
279,326	343,192	-0,117	-0,158
280,341	290,093	-0,110	-0,137
281,355	800,000	-0,068	-0,156
282,370	-139,913	-0,308	-0,022
283,384	91,892	-0,169	-0,130
284,399	55,337	-0,181	-0,120
285,414	244,486	-0,086	-0,100
286,428	72,577	-0,127	0,091
287,443	231,392	-0,120	-0,136
288,457	-200,000	-0,028	-0,122
289,472	800,000	-0,049	-0,141
290,487	800,000	-0,074	-0,181
291,501	51,485	-0,271	-0,177
292,516	82,057	-0,163	-0,121
293,530	285,746	-0,121	-0,150
294,545	-177,683	-0,211	0,003
295,560	76,963	-0,169	-0,123
296,574	-41,458	-0,150	-0,053
297,589	-16,384	-0,171	-0,074
298,603	800,000	-0,075	-0,200
299,618	-200,000	-0,032	-0,236
300,633	800,000	-0,073	-0,181
301,647	-200,000	0,003	-0,048
302,662	480,589	-0,049	-0,077
303,676	-200,000	-0,005	-0,075
304,691	-31,861	-0,243	-0,093
305,706	490,726	-0,112	-0,176
306,720	-124,333	-0,292	0,031
307,735	5,572	-0,227	-0,115
308,749	205,410	-0,179	-0,191
309,764	-49,451	-0,209	-0,068
310,779	157,432	-0,092	-0,087
311,793	28,199	-0,153	-0,088
312,808	611,458	-0,092	-0,158
313,822	-131,707	-0,231	-0,021
314,837	82,812	-0,148	-0,111
315,852	-73,971	-0,126	-0,031
316,866	-41,594	-0,116	0,041
317,881	800,000	-0,032	-0,087
318,895	-200,000	0,052	-0,163
319,910	181,387	-0,110	-0,111
320,925	226,103	-0,063	-0,070
321,939	129,469	-0,011	-0,009
322,954	800,000	-0,065	-0,156
323,968	76,238	-0,085	-0,062
324,983	-93,775	-0,097	0,018
325,997	-13,163	-0,141	-0,063
327,012	176,426	-0,220	-0,219
328,027	-83,875	-0,341	-0,074
329,041	174,221	-0,125	-0,124
330,056	-35,254	-0,207	-0,077
331,070	-147,641	-0,159	-0,009
332,085	-123,216	-0,262	0,028
333,100	-124,005	-0,140	0,015
334,114	800,000	-0,068	-0,139
335,129	-200,000	0,001	-0,029
336,143	340,788	-0,141	-0,189
337,158	-96,939	-0,157	-0,028
338,173	412,207	-0,140	-0,204
339,187	587,116	-0,053	-0,089
340,202	800,000	-0,024	-0,063
341,216	103,185	-0,116	-0,093
342,231	800,000	-0,027	-0,062
343,246	101,357	-0,136	-0,108
344,260	152,050	-0,104	-0,097
345,275	-200,000	-0,005	-0,080
346,289	-200,000	-0,015	-0,047
347,304	55,059	-0,147	-0,097
348,319	-34,291	-0,148	-0,055
349,333	798,964	-0,138	-0,261
350,348	29,956	-0,238	-0,138
351,362	-59,120	-0,216	-0,063
352,377	-20,355	-0,129	-0,054
353,392	85,951	-0,090	0,068
354,406	8,495	-0,041	0,021
355,421	207,414	1306,284	1395,217
356,435	159,559	1465,932	1395,685
