DTS Sentinel unit serial number:	SN410029Multiplexer serial number:	ORYXHardware model number:	OX2-SRSoftware version number:	ORYX F/W v4,00 Oryx Data Collector v3.7.2.0data status	okinstallation	B3 Nyhavnadifferential loss correction	single-endedforward channel	channel 1reverse channel	N/Adate	2023/12/04time	17:42:30forward acquisition time	300,00reverse acquisition time	0,00gamma	499,1914k internal	0,3200k external	0,3200temperature offset calibration	1,0000default loss term (dB/km)	0,3820temperature slope calibration	1,0000multiplexer offset coefficient	1,0000multiplexer slope coefficient	1,0000fibre end	0,00T internal ref (°C)	15,06T ext. ref 1 (°C)	-0,06T ext. ref 2 (°C)	-0,07length (m)	temperature (°C)	Stokes	anti-Stokes-744,400	546,955	-0,184	-0,321
-743,385	-200,000	-0,046	0,301
-742,371	800,000	-0,114	-0,303
-741,356	642,763	0,192	0,358
-740,342	167,794	-0,210	-0,217
-739,327	-200,000	-0,014	0,359
-738,312	119,803	-0,184	-0,166
-737,298	-200,000	-0,065	0,325
-736,283	682,675	-0,156	-0,298
-735,269	-200,000	0,052	0,197
-734,254	100,281	-0,163	-0,138
-733,239	103,501	-0,135	0,115
-732,225	-200,000	0,025	-0,163
-731,210	452,103	0,087	0,140
-730,196	-100,926	0,024	-0,004
-729,181	103,155	-0,064	-0,054
-728,167	-85,013	-0,071	-0,016
-727,152	370,065	0,032	-0,047
-726,137	-200,000	-0,012	-0,085
-725,123	-42,382	-0,083	0,031
-724,108	303,802	0,032	0,043
-723,094	41,375	-0,092	-0,060
-722,079	-152,053	-0,251	-0,013
-721,064	-200,000	-0,021	0,086
-720,050	800,000	0,006	-0,014
-719,035	800,000	-0,023	0,068
-718,021	612,385	-0,075	0,136
-717,006	628,353	0,047	-0,087
-715,991	319,430	-0,075	-0,104
-714,977	-74,262	-0,063	-0,017
-713,962	147,291	-0,134	-0,131
-712,948	24,697	-0,040	-0,024
-711,933	-200,000	0,145	0,000
-710,918	517,321	0,043	0,073
-709,904	800,000	-0,014	0,036
-708,889	-200,000	-0,013	-0,076
-707,875	800,000	0,042	-0,121
-706,860	121,994	0,072	0,065
-705,845	406,493	-0,039	-0,059
-704,831	-200,000	0,039	0,158
-703,816	331,732	-0,059	-0,083
-702,802	-15,707	-0,007	-0,003
-701,787	-93,007	-0,241	0,048
-700,772	-148,447	-0,062	0,004
-699,758	-200,000	-0,028	-0,096
-698,743	-200,000	-0,018	0,164
-697,729	633,386	-0,047	-0,087
-696,714	162,061	0,043	0,044
-695,699	47,592	0,035	-0,024
-694,685	800,000	0,016	0,051
-693,670	-200,000	-0,001	-0,023
-692,656	-9,355	0,071	-0,034
-691,641	134,746	0,052	-0,049
-690,627	75,907	0,037	0,029
-689,612	-200,000	-0,001	0,144
-688,597	-200,000	-0,020	-0,079
-687,583	-86,273	-0,096	-0,021
-686,568	-200,000	0,032	0,150
-685,554	-200,000	-0,008	0,069
-684,539	-200,000	0,027	0,138
-683,524	-200,000	-0,011	0,105
-682,510	202,722	-0,066	0,075
-681,495	800,000	-0,034	0,086
-680,481	-58,335	-0,136	0,043
-679,466	-179,764	-0,142	-0,002
-678,451	6,038	-0,126	0,068
-677,437	-200,000	0,003	-0,046
-676,422	483,034	0,043	0,072
-675,408	9,396	0,085	0,046
-674,393	-85,765	0,057	-0,013
-673,378	-200,000	-0,004	-0,178
-672,364	99,670	-0,065	0,055
-671,349	-150,801	0,038	0,002
-670,335	800,000	0,027	-0,086
-669,320	745,753	0,051	-0,101
-668,305	-105,516	0,056	-0,009
-667,291	-200,000	-0,005	-0,090
-666,276	389,051	0,029	-0,044
-665,262	47,232	-0,063	-0,043
-664,247	-131,882	-0,044	-0,004
-663,232	-67,347	0,117	-0,033
-662,218	799,807	0,098	0,196
-661,203	-200,000	0,012	-0,041
-660,189	-110,579	-0,076	-0,011
-659,174	305,035	-0,097	-0,131
-658,159	37,807	0,056	0,036
-657,145	-42,205	0,028	0,010
-656,130	142,712	0,050	0,048
-655,116	-200,000	0,003	-0,009
-654,101	-200,000	0,008	0,094
-653,086	431,331	0,027	-0,043
-652,072	121,912	-0,087	0,078
-651,057	-200,000	-0,002	-0,223
-650,043	1,390	-0,144	-0,075
-649,028	120,979	-0,068	-0,061
-648,014	-146,302	0,118	-0,007
-646,999	-200,000	-0,001	0,028
-645,984	162,479	0,039	0,040
-644,970	800,000	-0,046	0,123
-643,955	-104,487	-0,051	-0,008
-642,941	-5,908	-0,068	-0,033
-641,926	800,000	-0,042	0,117
-640,911	-126,373	-0,083	-0,009
-639,897	272,379	0,083	0,107
-638,882	-200,000	-0,004	-0,068
-637,868	28,141	-0,082	0,050
-636,853	209,457	-0,082	-0,094
-635,838	386,139	-0,025	-0,038
-634,824	556,202	0,077	-0,134
-633,809	-200,000	-0,003	0,028
-632,795	83,981	-0,122	0,097
-631,780	-123,544	0,089	-0,010
-630,765	54,348	0,059	0,041
-629,751	-127,332	-0,149	0,016
-628,736	-200,000	0,050	-0,166
-627,722	611,456	0,020	-0,036
-626,707	800,000	-0,035	0,098
-625,692	-164,016	0,112	-0,004
-624,678	-175,623	-0,050	0,001
-623,663	-200,000	0,006	-0,037
-622,649	-90,475	0,078	-0,016
-621,634	-104,301	0,061	-0,010
-620,619	-200,000	-0,013	0,050
-619,605	-131,427	0,075	-0,007
-618,590	148,034	-0,069	0,067
-617,576	-10,551	0,070	-0,034
-616,561	-17,083	0,028	-0,013
-615,546	-67,667	-0,056	0,016
-614,532	-65,408	-0,104	-0,030
-613,517	-169,254	-0,129	-0,003
-612,503	-78,573	0,058	-0,014
-611,488	800,000	0,035	0,108
-610,474	-120,393	0,017	0,002
-609,459	-43,098	-0,034	-0,013
-608,444	800,000	0,072	-0,162
-607,430	674,841	-0,038	-0,072
-606,415	105,947	0,126	-0,108
-605,401	-142,337	-0,146	-0,010
-604,386	800,000	-0,054	0,165
-603,371	-65,085	0,070	0,020
-602,357	-11,379	0,073	0,035
-601,342	-200,000	-0,033	-0,139
-600,328	-200,000	0,001	0,039
-599,313	436,881	0,039	0,061
-598,298	800,000	0,058	-0,147
-597,284	800,000	0,037	-0,076
-596,269	-32,347	0,065	-0,026
-595,255	239,393	-0,027	0,033
-594,240	800,000	0,051	0,112
-593,225	8,367	-0,115	-0,062
-592,211	-30,578	-0,092	-0,038
-591,196	706,777	0,095	-0,183
-590,182	-200,000	-0,030	0,153
-589,167	-64,531	-0,034	-0,010
-588,152	-200,000	0,011	-0,045
-587,138	361,821	-0,014	0,020
-586,123	10,543	-0,104	0,057
-585,109	-57,319	-0,062	0,020
-584,094	-61,835	0,049	-0,015
-583,079	-34,263	-0,021	-0,008
-582,065	51,409	-0,058	-0,039
-581,050	-168,638	-0,077	-0,002
-580,036	224,558	-0,060	0,070
-579,021	-134,148	-0,092	0,008
-578,006	-151,388	-0,065	0,003
-576,992	94,745	-0,023	-0,019
-575,977	49,647	-0,006	-0,004
-574,963	-200,000	0,026	0,104
-573,948	-2,076	-0,148	0,075
-572,934	-191,464	-0,150	0,001
-571,919	-8,562	0,087	-0,042
-570,904	-5,511	0,066	-0,033
-569,890	171,643	-0,086	-0,089
-568,875	-18,628	0,059	-0,027
-567,861	265,836	-0,030	-0,038
-566,846	-40,847	-0,107	0,040
-565,831	-200,000	0,005	0,044
-564,817	13,126	-0,084	-0,047
-563,802	-200,000	0,004	-0,099
-562,788	800,000	-0,021	0,051
-561,773	-27,942	0,104	0,044
-560,758	-200,000	0,042	0,202
-559,744	194,842	-0,070	0,077
-558,729	-14,969	0,082	0,038
-557,715	-56,478	-0,056	-0,018
-556,700	-200,000	-0,004	-0,088
-555,685	-95,411	-0,034	-0,006
-554,671	462,557	0,085	-0,137
-553,656	800,000	-0,027	0,062
-552,642	800,000	0,008	0,017
-551,627	-48,975	-0,043	-0,015
-550,612	800,000	0,012	-0,037
-549,598	521,934	-0,063	-0,107
-548,583	-200,000	-0,014	-0,120
-547,569	-200,000	-0,003	-0,042
-546,554	384,695	-0,019	0,029
-545,539	800,000	0,027	-0,068
-544,525	67,853	-0,129	-0,095
-543,510	161,307	-0,079	0,080
-542,496	-200,000	-0,015	-0,104
-541,481	-78,812	-0,099	-0,024
-540,466	-160,931	-0,044	-0,002
-539,452	-10,451	0,093	-0,044
-538,437	-93,735	0,035	0,007
-537,423	-200,000	-0,005	0,060
-536,408	-64,790	0,062	-0,018
-535,393	418,438	-0,056	-0,087
-534,379	410,020	-0,024	0,037
-533,364	800,000	0,027	0,068
-532,350	-200,000	-0,009	0,124
-531,335	-200,000	0,011	0,097
-530,321	161,942	0,136	0,138
-529,306	790,874	-0,013	-0,026
-528,291	294,649	-0,040	0,053
-527,277	551,313	0,073	-0,127
-526,262	-200,000	0,028	-0,103
-525,248	79,757	0,059	0,045
-524,233	633,223	0,046	0,084
-523,218	32,765	0,081	0,051
-522,204	-153,691	-0,122	-0,006
-521,189	480,860	0,068	0,112
-520,175	-163,287	-0,125	-0,004
-519,160	-200,000	-0,004	-0,217
-518,145	-200,000	-0,014	-0,191
-517,131	-64,529	0,094	-0,027
-516,116	-20,824	-0,043	-0,019
-515,102	-200,000	-0,025	0,104
-514,087	305,816	0,037	0,050
-513,072	-200,000	0,019	-0,085
-512,058	-200,000	0,004	-0,174
-511,043	20,823	0,070	-0,041
-510,029	577,018	-0,020	-0,036
-509,014	800,000	0,044	0,092
-507,999	-200,000	-0,002	0,086
-506,985	25,713	-0,136	0,081
-505,970	-200,000	-0,001	-0,033
-504,956	-200,000	0,011	-0,053
-503,941	177,852	-0,020	-0,021
-502,926	-200,000	0,004	0,046
-501,912	-137,868	-0,036	0,003
-500,897	-80,218	0,075	0,018
-499,883	309,516	-0,043	-0,058
-498,868	330,529	0,015	0,021
-497,853	-111,589	-0,127	-0,018
-496,839	-51,522	0,053	-0,018
-495,824	-200,000	-0,014	0,062
-494,810	92,308	0,044	0,036
-493,795	56,443	-0,128	-0,090
-492,781	289,821	0,015	-0,020
-491,766	800,000	0,035	0,072
-490,751	-27,992	-0,165	0,069
-489,737	-200,000	-0,004	0,040
-488,722	182,005	0,083	-0,088
-487,708	249,345	-0,017	0,021
-486,693	800,000	0,044	0,107
-485,678	203,741	0,076	-0,085
-484,664	106,160	-0,125	-0,107
-483,649	252,153	-0,106	-0,131
-482,635	800,000	-0,035	0,073
-481,620	-48,446	0,129	0,044
-480,605	-200,000	-0,009	0,062
-479,591	334,348	-0,077	0,108
-478,576	206,236	0,019	-0,021
-477,562	363,883	0,018	-0,027
-476,547	139,134	-0,078	-0,074
-475,532	138,738	-0,038	-0,036
-474,518	-54,058	0,064	0,021
-473,503	236,275	0,035	-0,042
-472,489	54,015	0,153	0,106
-471,474	-63,360	0,039	0,011
-470,459	5,546	-0,210	0,111
-469,445	55,006	-0,051	-0,035
-468,430	-200,000	-0,011	0,128
-467,416	-200,000	-0,025	-0,115
-466,401	-86,141	-0,057	0,013
-465,386	800,000	0,034	-0,080
-464,372	-72,354	-0,180	0,048
-463,357	800,000	0,047	0,095
-462,343	-101,379	0,114	-0,020
-461,328	800,000	0,040	0,123
-460,313	281,299	0,025	-0,033
-459,299	-34,480	0,037	0,014
-458,284	146,254	0,024	-0,023
-457,270	800,000	0,029	-0,068
-456,255	158,222	0,031	-0,031
-455,241	-181,830	-0,090	-0,001
-454,226	-200,000	-0,006	-0,121
-453,211	671,076	0,012	0,023
-452,197	61,065	0,054	0,039
-451,182	84,678	0,040	-0,032
-450,168	-151,321	0,049	0,003
-449,153	-38,344	-0,029	-0,011
-448,138	452,656	0,088	-0,140
-447,124	-165,438	-0,076	0,002
-446,109	88,910	0,056	-0,045
-445,095	800,000	0,093	-0,208
-444,080	-141,249	0,072	0,005
-443,065	800,000	0,045	0,140
-442,051	-200,000	-0,014	-0,129
-441,036	-140,267	-0,096	0,007
-440,022	-151,099	-0,124	-0,007
-439,007	300,296	-0,069	-0,092
-437,992	91,878	0,136	0,110
-436,978	-67,028	0,059	0,017
-435,963	191,266	-0,042	0,046
-434,949	206,934	-0,085	0,096
-433,934	367,415	-0,042	-0,061
-432,919	68,974	-0,069	-0,051
-431,905	-200,000	0,026	-0,121
-430,890	-135,175	0,238	0,020
-429,876	66,595	0,095	-0,069
-428,861	170,993	-0,046	0,048
-427,846	156,841	0,078	0,078
-426,832	129,702	-0,102	0,094
-425,817	-140,251	0,160	0,012
-424,803	-31,530	-0,093	0,038
-423,788	303,726	-0,122	-0,163
-422,773	800,000	-0,091	0,188
-421,759	-74,868	0,101	-0,026
-420,744	-10,913	-0,141	-0,066
-419,730	175,021	-0,072	0,075
-418,715	800,000	-0,033	-0,067
-417,701	-106,529	-0,080	-0,013
-416,686	234,890	0,086	0,102
-415,671	800,000	-0,016	0,035
-414,657	507,425	-0,094	0,158
-413,642	-122,171	0,052	-0,006
-412,628	306,041	0,081	0,108
-411,613	194,541	0,041	0,045
-410,598	-200,000	-0,002	-0,156
-409,584	-200,000	0,006	-0,089
-408,569	413,512	0,043	0,066
-407,555	464,129	-0,040	0,064
-406,540	-200,000	0,001	0,131
-405,525	-200,000	-0,225	0,001
-404,511	13,733	0,092	-0,051
-403,496	-200,000	0,014	-0,065
-402,482	-183,371	0,069	0,001
-401,467	31,639	0,110	-0,068
-400,452	105,495	0,060	0,051
-399,438	784,620	-0,032	-0,064
-398,423	-87,752	0,135	-0,029
-397,409	625,142	0,046	-0,083
-396,394	-200,000	-0,004	-0,062
-395,379	78,720	0,118	0,091
-394,365	-150,087	-0,143	0,008
-393,350	35,549	-0,098	0,062
-392,336	-200,000	0,011	0,038
-391,321	134,236	0,146	-0,136
-390,306	273,483	-0,043	-0,055
-389,292	-81,574	-0,121	-0,028
-388,277	-200,000	-0,002	0,020
-387,263	153,769	0,063	-0,062
-386,248	800,000	0,043	-0,102
-385,233	-30,297	-0,013	-0,005
-384,219	96,915	0,047	-0,039
-383,204	243,776	0,080	-0,096
-382,190	716,274	-0,072	-0,138
-381,175	76,914	-0,058	0,044
-380,160	-200,000	0,029	0,111
-379,146	420,821	-0,051	0,079
-378,131	800,000	-0,059	0,182
-377,117	308,721	0,047	-0,063
-376,102	-62,405	-0,081	0,024
-375,088	343,935	-0,078	-0,110
-374,073	-147,218	0,075	0,005
-373,058	91,209	0,011	-0,009
-372,044	-200,000	0,010	-0,054
-371,029	-200,000	0,016	0,070
-370,015	800,000	0,020	-0,045
-369,000	-200,000	0,010	0,055
-367,985	-200,000	-0,004	-0,014
-366,971	285,180	-0,046	-0,060
-365,956	-200,000	-0,003	-0,089
-364,942	800,000	-0,024	0,072
-363,927	-62,200	0,068	0,020
-362,912	479,879	0,004	-0,007
-361,898	60,988	0,055	0,039
-360,883	373,595	-0,045	0,066
-359,869	-200,000	0,006	-0,070
-358,854	23,906	0,104	0,061
-357,839	-41,212	0,223	0,082
-356,825	22,846	0,113	0,066
-355,810	-4,641	-0,052	0,026
-354,796	-111,000	-0,214	-0,031
-353,781	28,728	0,034	0,020
-352,766	205,564	0,062	0,070
-351,752	9,332	-0,095	-0,051
-350,737	-134,451	0,160	-0,014
-349,723	220,803	0,072	0,082
-348,708	-200,000	0,028	0,134
-347,693	440,297	-0,086	0,135
-346,679	800,000	0,036	-0,097
-345,664	-200,000	0,041	-0,142
-344,650	431,882	-0,031	-0,049
-343,635	-102,972	0,126	0,021
-342,620	-200,000	-0,000	-0,042
-341,606	-64,783	-0,127	-0,037
-340,591	-200,000	-0,009	0,091
-339,577	-200,000	-0,012	-0,082
-338,562	190,855	-0,124	-0,133
-337,548	800,000	0,035	-0,105
-336,533	-101,725	0,114	0,020
-335,518	316,522	0,082	0,111
-334,504	-200,000	0,010	0,151
-333,489	-10,563	-0,062	-0,030
-332,475	-200,000	0,003	-0,060
-331,460	800,000	0,040	0,110
-330,445	-200,000	-0,018	-0,146
-329,431	76,506	0,069	0,052
-328,416	180,925	0,028	-0,029
-327,402	649,881	-0,019	-0,036
-326,387	55,171	-0,042	-0,029
-325,372	-200,000	-0,006	0,022
-324,358	-69,565	-0,070	0,019
-323,343	800,000	0,026	-0,054
-322,329	-67,343	-0,040	-0,011
-321,314	-50,769	-0,127	0,042
-320,299	-200,000	0,015	0,083
-319,285	-187,714	-0,080	0,001
-318,270	-200,000	0,033	0,152
-317,256	16,276	0,014	0,008
-316,241	27,396	0,044	0,027
-315,226	-100,742	-0,024	-0,004
-314,212	282,697	0,014	0,018
-313,197	-200,000	0,007	0,100
-312,183	-84,812	0,099	-0,022
-311,168	-43,445	0,050	-0,018
-310,153	-64,139	0,102	0,030
-309,139	-200,000	0,027	-0,158
-308,124	-149,512	0,085	0,005
-307,110	197,161	0,077	0,085
-306,095	-79,182	0,106	-0,026
-305,080	-200,000	-0,001	-0,040
-304,066	-93,852	0,052	0,010
-303,051	-31,693	0,040	0,016
-302,037	-200,000	-0,016	0,104
-301,022	-45,733	-0,083	-0,029
-300,008	-200,000	0,001	0,071
-298,993	181,511	0,083	-0,087
-297,978	471,268	-0,025	-0,040
-296,964	-145,891	-0,078	-0,005
-295,949	-200,000	-0,036	-0,219
-294,935	-41,715	0,098	0,036
-293,920	-200,000	0,001	0,039
-292,905	247,643	-0,043	0,052
-291,891	103,195	0,038	0,032
-290,876	462,009	-0,032	-0,051
-289,862	-200,000	-0,027	-0,110
-288,847	-200,000	0,016	0,127
-287,832	-200,000	-0,034	-0,232
-286,818	-200,000	-0,002	-0,059
-285,803	250,248	-0,027	0,033
-284,789	170,955	0,074	0,076
-283,774	-104,343	0,106	-0,017
-282,759	520,119	0,041	0,069
-281,745	-104,290	-0,056	-0,009
-280,730	-43,195	-0,075	-0,027
-279,716	150,112	0,049	0,047
-278,701	-200,000	0,047	-0,149
-277,686	800,000	0,033	0,080
-276,672	800,000	0,035	0,077
-275,657	-97,514	-0,107	0,020
-274,643	-146,634	0,078	-0,005
-273,628	-25,227	0,113	-0,048
-272,613	-135,218	-0,062	0,005
-271,599	-23,783	0,149	0,063
-270,584	800,000	0,034	0,085
-269,570	-1,515	0,038	0,019
-268,555	268,015	0,058	0,073
-267,540	-130,988	-0,192	0,018
-266,526	-37,986	-0,086	-0,032
-265,511	-200,000	0,027	0,102
-264,497	-200,000	0,037	-0,152
-263,482	-200,000	0,022	0,126
-262,467	-88,976	-0,073	0,015
-261,453	77,081	0,080	0,060
-260,438	-200,000	-0,023	-0,133
-259,424	-200,000	0,014	-0,121
-258,409	190,256	-0,104	0,111
-257,395	407,075	0,026	0,040
-256,380	-54,265	-0,042	0,013
-255,365	800,000	-0,039	0,111
-254,351	-184,712	0,118	-0,001
-253,336	-200,000	-0,008	-0,041
-252,322	-94,971	-0,133	-0,025
-251,307	-7,047	-0,120	-0,058
-250,292	-200,000	0,004	0,071
-249,278	-57,827	0,031	0,009
-248,263	-200,000	-0,028	0,150
-247,249	775,506	-0,028	0,054
-246,234	-21,639	0,060	-0,026
-245,219	-200,000	0,011	-0,043
-244,205	204,316	-0,098	-0,109
-243,190	62,098	0,054	-0,039
-242,176	-200,000	-0,025	-0,132
-241,161	-112,568	-0,127	0,018
-240,146	-41,714	0,067	0,024
-239,132	-30,606	-0,078	0,031
-238,117	287,402	0,016	-0,021
-237,103	-52,684	0,040	0,013
-236,088	629,423	-0,050	0,091
-235,073	-200,000	0,005	0,040
-234,059	-27,874	0,182	0,075
-233,044	-200,000	-0,008	0,032
-232,030	189,764	0,106	-0,114
-231,015	140,354	-0,089	-0,084
-230,000	800,000	0,066	0,163
-228,986	-169,758	-0,094	0,002
-227,971	-31,441	0,098	0,039
-226,957	275,312	-0,065	0,082
-225,942	-133,789	-0,019	-0,002
-224,927	-200,000	0,014	0,066
-223,913	-200,000	0,018	-0,108
-222,898	29,751	-0,146	-0,088
-221,884	-109,105	0,094	0,014
-220,869	-31,225	-0,131	-0,052
-219,855	610,132	-0,037	0,066
-218,840	-200,000	-0,043	0,162
-217,825	800,000	-0,023	-0,064
-216,811	-90,766	-0,047	0,009
-215,796	193,540	-0,090	0,097
-214,782	159,959	0,042	-0,041
-213,767	800,000	-0,038	-0,112
-212,752	-98,707	0,052	-0,009
-211,738	-112,666	-0,087	0,012
-210,723	-109,360	0,103	0,015
-209,709	-61,847	0,200	-0,059
-208,694	13,720	0,095	-0,052
-207,679	137,035	0,081	0,076
-206,665	-200,000	-0,007	0,130
-205,650	145,885	0,089	0,085
-204,636	-81,003	-0,190	-0,045
-203,621	-200,000	0,021	0,070
-202,606	800,000	0,020	-0,060
-201,592	485,419	-0,046	-0,075
-200,577	-15,876	-0,106	0,048
-199,563	-200,000	0,033	0,163
-198,548	456,766	0,058	-0,092
-197,533	-20,342	0,098	0,043
-196,519	107,693	0,045	-0,038
-195,504	-200,000	-0,002	-0,092
-194,490	-200,000	-0,026	-0,099
-193,475	-200,000	0,000	-0,121
-192,460	-154,640	0,083	0,004
-191,446	-200,000	-0,003	-0,017
-190,431	214,077	0,097	0,110
-189,417	570,430	-0,049	-0,085
-188,402	306,158	-0,059	0,079
-187,387	-200,000	0,002	-0,088
-186,373	800,000	-0,011	0,025
-185,358	-200,000	0,007	-0,103
-184,344	-200,000	-0,002	0,081
-183,329	-200,000	-0,014	0,091
-182,315	536,087	-0,050	0,085
-181,300	64,953	-0,102	0,074
-180,285	800,000	-0,009	-0,019
-179,271	148,192	-0,024	0,023
-178,256	-75,572	-0,077	0,019
-177,242	800,000	0,056	-0,121
-176,227	329,720	0,018	0,025
-175,212	177,288	0,068	0,070
-174,198	-200,000	-0,001	-0,044
-173,183	199,455	-0,120	-0,131
-172,169	800,000	-0,046	-0,145
-171,154	-32,291	0,070	-0,028
-170,139	-49,943	-0,061	-0,020
-169,125	-200,000	-0,002	0,092
-168,110	-10,045	0,057	0,027
-167,096	659,314	0,075	-0,138
-166,081	66,809	0,102	-0,074
-165,066	668,280	-0,053	0,098
-164,052	-200,000	-0,003	0,011
-163,037	-200,000	0,003	-0,047
-162,023	-200,000	0,009	0,059
-161,008	81,343	0,070	0,054
-159,993	39,862	0,100	-0,064
-158,979	800,000	0,055	0,111
-157,964	-77,643	-0,072	-0,018
-156,950	-7,760	-0,058	-0,028
-155,935	439,800	0,041	0,064
-154,920	32,681	0,104	0,064
-153,906	-200,000	0,037	0,128
-152,891	-60,214	-0,081	0,024
-151,877	-200,000	-0,016	0,123
-150,862	-154,317	0,127	-0,006
-149,847	551,980	-0,100	-0,171
-148,833	-200,000	0,017	0,063
-147,818	-200,000	-0,031	0,150
-146,804	-200,000	0,013	0,082
-145,789	-14,054	0,067	0,031
-144,775	-200,000	-0,036	0,144
-143,760	-151,211	0,054	0,003
-142,745	-11,830	-0,042	0,020
-141,731	-200,000	-0,005	0,166
-140,716	14,471	0,007	0,004
-139,702	-200,000	0,024	0,085
-138,687	345,252	-0,073	-0,102
-137,672	106,455	0,041	-0,034
-136,658	-137,798	-0,166	0,013
-135,643	615,414	-0,017	-0,030
-134,629	27,335	0,023	0,013
-133,614	69,339	-0,049	0,036
-132,599	-200,000	0,003	-0,023
-131,585	-79,919	-0,113	-0,027
-130,570	-200,000	-0,005	-0,059
-129,556	-28,524	-0,082	-0,033
-128,541	-161,003	-0,125	-0,005
-127,526	169,017	-0,065	0,066
-126,512	239,831	0,025	-0,030
-125,497	-51,457	0,091	0,030
-124,483	70,788	0,066	-0,048
-123,468	-200,000	0,003	0,070
-122,453	800,000	0,050	-0,128
-121,439	-200,000	0,008	0,079
-120,424	-200,000	-0,014	-0,071
-119,410	800,000	-0,026	0,063
-118,395	-200,000	0,017	0,104
-117,380	-200,000	0,060	0,190
-116,366	800,000	-0,049	0,123
-115,351	-200,000	0,004	0,069
-114,337	-200,000	-0,032	0,111
-113,322	95,283	0,034	-0,028
-112,307	-54,740	0,106	-0,034
-111,293	-8,347	0,059	-0,028
-110,278	-200,000	0,012	0,148
-109,264	15,987	0,026	-0,014
-108,249	-102,439	-0,128	0,021
-107,234	103,513	-0,022	-0,018
-106,220	-200,000	-0,003	-0,070
-105,205	-70,088	-0,075	0,020
-104,191	-98,786	-0,093	0,017
-103,176	86,962	0,011	-0,009
-102,162	800,000	-0,017	-0,052
-101,147	-120,164	-0,124	0,015
-100,132	800,000	-0,032	-0,079
-99,118	-200,000	-0,009	-0,160
-98,103	407,429	0,062	-0,094
-97,089	408,188	0,086	0,129
-96,074	800,000	-0,039	0,080
-95,059	154,939	0,047	0,046
-94,045	-200,000	0,001	-0,026
-93,030	152,718	0,119	-0,116
-92,016	140,830	-0,023	-0,022
-91,001	38,265	0,138	0,087
-89,986	162,997	0,093	0,092
-88,972	-66,817	0,150	0,042
-87,957	538,434	0,008	-0,014
-86,943	634,101	0,090	0,162
-85,928	-76,327	-0,132	-0,033
-84,913	800,000	0,003	-0,008
-83,899	32,730	-0,126	-0,077
-82,884	604,484	0,074	0,131
-81,870	-157,654	-0,104	0,004
-80,855	626,202	-0,050	0,090
-79,840	112,321	-0,010	0,008
-78,826	305,459	-0,032	0,042
-77,811	60,612	0,016	-0,011
-76,797	-200,000	-0,001	-0,012
-75,782	-6,501	0,046	0,022
-74,767	-87,674	0,041	-0,009
-73,753	800,000	0,011	-0,024
-72,738	261,623	0,049	0,060
-71,724	14,369	-0,152	-0,084
-70,709	-200,000	0,004	-0,079
-69,694	800,000	0,053	-0,110
-68,680	73,984	0,014	0,010
-67,665	800,000	0,035	0,103
-66,651	-200,000	-0,004	0,022
-65,636	-108,972	-0,084	0,013
-64,622	121,866	-0,080	-0,071
-63,607	17,652	-0,141	-0,079
-62,592	41,982	0,041	0,026
-61,578	24,709	-0,071	-0,041
-60,563	800,000	-0,023	-0,059
-59,549	-9,280	-0,142	0,067
-58,534	-38,168	-1,592	-0,595
-57,519	441,921	-1,447	-2,251
-56,505	-200,000	-0,637	-4,688
-55,490	130,464	0,882	0,801
-54,476	800,000	4,830	11,273
-53,461	-200,000	18,047	286,291
-52,446	800,000	727,053	2225,374
-51,432	554,091	1643,442	2809,994
-50,417	79,262	1665,398	1262,828
-49,403	22,928	1539,254	891,397
-48,388	16,881	1462,493	817,659
-47,373	17,833	1452,354	816,544
-46,359	17,262	1442,727	808,368
-45,344	15,172	1438,025	795,725
-44,330	15,103	1436,197	794,350
-43,315	15,145	1434,413	793,534
-42,300	15,104	1432,860	792,448
-41,286	15,140	1431,674	791,933
-40,271	15,134	1430,413	791,171
-39,257	15,118	1429,120	790,351
-38,242	15,174	1427,847	789,882
-37,227	15,178	1426,741	789,259
-36,213	15,175	1425,232	788,377
-35,198	15,141	1424,079	787,545
-34,184	15,216	1423,250	787,413
-33,169	15,146	1421,979	786,347
-32,154	15,214	1420,800	785,986
-31,140	15,141	1419,869	785,092
-30,125	15,178	1418,433	784,441
-29,111	15,196	1417,468	783,961
-28,096	15,151	1416,390	783,121
-27,082	15,098	1415,226	782,198
-26,067	15,084	1414,131	781,497
-25,052	15,101	1412,955	780,896
-24,038	15,080	1411,954	780,214
-23,023	15,064	1410,878	779,514
-22,009	15,039	1410,012	778,887
-20,994	15,046	1409,154	778,416
-19,979	14,996	1408,404	777,735
-18,965	15,042	1407,168	777,237
-17,950	15,049	1406,128	776,665
-16,936	15,030	1405,458	776,176
-15,921	14,983	1404,329	775,300
-14,906	15,002	1403,150	774,710
-13,892	15,005	1402,287	774,213
-12,877	15,029	1401,575	773,901
-11,863	15,014	1400,686	773,312
-10,848	14,942	1399,621	772,356
-9,833	14,970	1398,952	772,090
-8,819	14,931	1397,815	771,248
-7,804	14,916	1397,045	770,725
-6,790	14,914	1395,906	770,057
-5,775	14,898	1394,947	769,423
-4,760	14,917	1394,011	768,965
-3,746	14,872	1393,420	768,399
-2,731	14,909	1392,508	768,038
-1,717	14,875	1391,587	767,342
-0,702	14,903	1389,708	766,403
0,313	18,663	1308,937	739,277
1,327	34,910	707,287	437,145
2,342	53,393	124,944	84,634
3,356	2,134	16,755	8,537
4,371	8,691	3,101	1,648
5,386	50,411	0,514	0,344
6,400	-200,000	-0,023	0,159
7,415	-52,912	-0,191	-0,062
8,429	199,870	-0,204	-0,222
9,444	77,053	-0,416	-0,312
10,459	287,725	-0,240	-0,308
11,473	-9,830	-0,326	-0,153
12,488	388,871	-0,202	-0,297
13,502	82,830	-0,291	-0,223
14,517	-44,295	-0,502	-0,177
15,531	96,528	-0,284	-0,229
16,546	127,211	-0,347	-0,311
17,561	163,318	-0,419	-0,417
18,575	117,756	-0,162	-0,141
19,590	177,647	-0,243	-0,251
20,604	118,887	-0,272	-0,237
21,619	-11,450	-0,396	-0,183
22,634	140,470	-0,413	-0,385
23,648	128,347	-0,373	-0,336
24,663	99,697	-0,318	-0,260
25,677	89,230	-0,287	-0,225
26,692	35,158	-0,402	-0,248
27,707	51,852	-0,466	-0,313
28,721	81,888	-0,373	-0,285
29,736	-51,516	-0,468	-0,153
30,750	272,533	-0,246	-0,307
31,765	56,679	-0,369	-0,253
32,780	-8,768	-0,330	-0,156
33,794	39,708	-0,389	-0,246
34,809	95,049	-0,369	-0,297
35,823	20,873	-0,295	-0,168
36,838	505,476	-0,187	-0,307
37,853	-6,869	-0,449	-0,214
38,867	225,376	-0,308	-0,353
39,882	79,455	-0,388	-0,293
40,896	43,882	-0,417	-0,269
41,911	5,452	-0,299	-0,155
42,926	21,492	-0,418	-0,239
43,940	-23,820	-0,428	-0,180
44,955	7,090	-0,408	-0,214
45,969	58,330	-0,396	-0,274
46,984	163,821	-0,293	-0,291
47,999	33,073	-0,279	-0,170
49,013	29,737	-0,323	-0,193
50,028	42,496	-0,372	-0,238
51,042	-63,051	-0,618	-0,179
52,057	55,763	-0,297	-0,203
53,071	29,309	-0,351	-0,209
54,086	93,269	-0,312	-0,248
55,101	131,127	-0,276	-0,250
56,115	38,633	-0,414	-0,260
57,130	84,292	-0,295	-0,227
58,144	24,889	-0,511	-0,297
59,159	180,381	-0,371	-0,383
60,174	40,963	-0,333	-0,211
61,188	131,376	-0,293	-0,266
62,203	98,744	-0,352	-0,286
63,217	183,873	-0,268	-0,279
64,232	81,899	-0,440	-0,335
65,247	36,410	-0,268	-0,166
66,261	59,346	-0,348	-0,241
67,276	171,675	-0,252	-0,255
68,290	95,485	-0,463	-0,371
69,305	122,947	-0,188	-0,166
70,320	84,153	-0,304	-0,233
71,334	85,042	-0,286	-0,220
72,349	162,193	-0,342	-0,338
73,363	151,672	-0,273	-0,262
74,378	44,397	-0,351	-0,226
75,393	113,091	-0,223	-0,190
76,407	-43,090	-0,250	-0,089
77,422	-46,592	-0,333	-0,114
78,436	-31,727	-0,346	-0,136
79,451	340,128	-0,203	-0,279
80,466	31,244	-0,327	-0,197
81,480	-10,869	-0,333	-0,154
82,495	126,174	-0,228	-0,203
83,509	-51,904	-0,299	-0,097
84,524	-65,894	-0,326	-0,091
85,539	558,339	-0,152	-0,259
86,553	16,454	-0,205	-0,113
87,568	-38,429	-0,509	-0,188
88,582	226,215	-0,155	-0,177
89,597	47,172	-0,309	-0,202
90,611	477,306	-0,184	-0,294
91,626	-2,063	-0,303	-0,149
92,641	116,735	-0,176	-0,152
93,655	-88,555	-0,278	-0,058
94,670	199,757	-0,164	-0,176
95,684	226,264	-0,184	-0,210
96,699	71,313	-0,337	-0,245
97,714	-45,727	-0,224	-0,077
98,728	95,562	-0,308	-0,246
99,743	23,929	-0,207	-0,119
100,757	-0,618	-0,280	-0,139
101,772	269,475	-0,251	-0,309
102,787	29,692	-0,424	-0,252
103,801	28,984	-0,321	-0,190
104,816	530,449	-0,199	-0,331
105,830	115,346	-0,222	-0,190
106,845	39,989	-0,249	-0,156
107,860	134,951	-0,225	-0,205
108,874	-27,062	-0,322	-0,131
109,889	10,888	-0,401	-0,214
110,903	219,737	-0,200	-0,225
111,918	68,271	-0,329	-0,236
112,933	-55,463	-0,201	-0,063
113,947	12,443	-0,327	-0,176
114,962	-22,801	-0,152	-0,064
115,976	117,682	-0,188	-0,162
116,991	106,823	-0,305	-0,254
118,006	-30,303	-0,323	-0,128
119,020	55,647	-0,151	-0,102
120,035	22,082	-0,228	-0,130
121,049	-135,858	-0,266	0,022
122,064	14,977	-0,193	-0,106
123,079	217,706	-0,172	-0,192
124,093	228,065	-0,155	-0,177
125,108	188,746	-0,257	-0,269
126,122	70,902	-0,248	-0,179
127,137	123,464	-0,183	-0,160
128,151	67,600	-0,257	-0,183
129,166	67,105	-0,150	-0,107
130,181	110,029	-0,263	-0,221
131,195	6,774	-0,414	-0,215
132,210	286,075	-0,194	-0,246
133,224	28,961	-0,233	-0,138
134,239	29,705	-0,286	-0,170
135,254	97,297	-0,223	-0,179
136,268	99,747	-0,183	-0,148
137,283	117,313	-0,256	-0,220
138,297	95,308	-0,255	-0,203
139,312	30,217	-0,257	-0,153
140,327	219,331	-0,244	-0,273
141,341	106,753	-0,290	-0,240
142,356	165,370	-0,246	-0,243
143,370	537,607	-0,171	-0,284
144,385	123,563	-0,204	-0,179
145,400	234,376	-0,282	-0,326
146,414	686,803	-0,121	-0,222
147,429	-1,273	-0,215	-0,106
148,443	121,472	-0,280	-0,244
149,458	-43,517	-0,266	-0,093
150,473	127,778	-0,181	-0,161
151,487	-34,941	-0,295	-0,112
152,502	-6,513	-0,368	-0,174
153,516	-54,286	-0,327	-0,103
154,531	114,184	-0,259	-0,220
155,546	-23,176	-0,207	-0,087
156,560	-74,091	-0,306	-0,077
157,575	-114,560	-0,174	0,023
158,589	800,000	-0,023	-0,054
159,604	-122,553	-0,302	-0,034
160,619	64,270	-0,319	-0,224
161,633	800,000	-0,129	-0,283
162,648	370,770	-0,202	-0,286
163,662	447,749	-0,137	-0,211
164,677	103,665	-0,212	-0,174
165,692	71,066	-0,214	-0,154
166,706	72,600	-0,245	-0,178
167,721	-104,401	-0,250	-0,040
168,735	533,690	-0,203	-0,337
169,750	121,761	-0,231	-0,201
170,764	32,708	-0,242	-0,146
171,779	-28,289	-0,213	-0,086
172,794	-5,523	-0,278	-0,132
173,808	84,869	-0,264	-0,201
174,823	46,615	-0,224	-0,145
175,837	110,050	-0,258	-0,216
176,852	167,045	-0,247	-0,245
177,867	33,876	-0,241	-0,146
178,881	800,000	-0,090	-0,189
179,896	-96,075	-0,253	-0,046
180,910	800,000	-0,095	-0,215
181,925	205,037	-0,168	-0,181
182,940	181,273	-0,226	-0,232
183,954	55,787	-0,261	-0,176
184,969	800,000	-0,094	-0,187
185,983	151,079	-0,191	-0,181
186,998	461,220	-0,120	-0,186
188,013	42,885	-0,078	-0,049
189,027	145,067	-0,318	-0,297
190,042	207,869	-0,179	-0,195
191,056	19,658	-0,255	-0,142
192,071	-88,690	-0,227	-0,047
193,086	44,143	-0,119	-0,075
194,100	23,627	-0,288	-0,164
195,115	260,867	-0,156	-0,188
196,129	195,657	-0,187	-0,199
197,144	59,124	-0,217	-0,148
198,159	-46,114	-0,253	-0,086
199,173	121,757	-0,205	-0,178
200,188	358,057	-0,107	-0,149
201,202	51,719	-0,165	-0,109
202,217	-28,188	-0,085	-0,034
203,232	111,798	-0,174	-0,146
204,246	75,193	-0,167	-0,122
205,261	65,048	-0,279	-0,196
206,275	183,028	-0,163	-0,168
207,290	452,673	-0,080	-0,123
208,304	25,512	-0,281	-0,162
209,319	552,061	-0,107	-0,179
210,334	29,206	-0,169	-0,099
211,348	300,511	-0,178	-0,228
212,363	321,381	-0,222	-0,294
213,377	110,568	-0,225	-0,188
214,392	-122,548	-0,236	-0,026
215,407	140,743	-0,176	-0,162
216,421	130,441	-0,126	-0,112
217,436	23,258	-0,234	-0,133
218,450	-16,624	-0,232	-0,102
219,465	211,429	-0,110	-0,121
220,480	86,449	-0,297	-0,227
221,494	36,206	-0,217	-0,132
222,509	195,554	-0,089	-0,094
223,523	416,831	-0,196	-0,291
224,538	102,888	-0,197	-0,160
225,553	323,396	-0,125	-0,166
226,567	31,773	-0,229	-0,136
227,582	800,000	-0,101	-0,224
228,596	143,763	-0,242	-0,224
229,611	76,447	-0,259	-0,190
230,626	-64,168	-0,162	-0,045
231,640	75,894	-0,101	-0,074
232,655	117,825	-0,176	-0,150
233,669	177,573	-0,122	-0,123
234,684	114,149	-0,174	-0,147
235,699	50,224	0,016	0,010
236,713	-51,647	-0,207	-0,067
237,728	71,049	-0,123	-0,088
238,742	800,000	-0,050	-0,099
239,757	800,000	-0,088	-0,185
240,772	48,220	-0,123	-0,079
241,786	800,000	-0,056	-0,145
242,801	140,851	-0,235	-0,215
243,815	270,182	-0,205	-0,250
244,830	83,435	-0,120	-0,090
245,844	117,006	-0,135	-0,114
246,859	222,467	-0,141	-0,157
247,874	-29,331	-0,206	-0,081
248,888	223,985	-0,245	-0,275
249,903	21,782	-0,210	-0,118
250,917	-35,829	-0,186	0,070
251,932	-93,379	-0,151	0,029
252,947	92,483	-0,191	-0,149
253,961	142,219	-0,177	-0,162
254,976	-40,414	-0,205	-0,073
255,990	61,817	-0,257	-0,177
257,005	526,186	-0,133	-0,218
258,020	-185,600	-0,202	-0,002
259,034	154,320	-0,232	-0,220
260,049	346,219	-0,207	-0,283
261,063	3,987	-0,205	-0,103
262,078	33,296	-0,224	-0,134
263,093	522,835	-0,149	-0,242
264,107	-200,000	-0,003	-0,118
265,122	-196,079	-0,142	-0,001
266,136	-85,291	-0,220	-0,047
267,151	91,516	-0,210	-0,163
268,166	-34,806	-0,192	-0,072
269,180	-47,726	-0,221	-0,074
270,195	73,300	-0,262	-0,189
271,209	277,170	-0,066	-0,081
272,224	35,256	-0,179	-0,108
273,239	-107,058	-0,148	-0,022
274,253	-21,852	-0,055	-0,023
275,268	-56,562	-0,210	-0,064
276,282	-32,167	-0,193	-0,074
277,297	-100,825	-0,205	-0,035
278,312	219,985	-0,250	-0,277
279,326	800,000	-0,072	-0,168
280,341	94,541	-0,114	-0,090
281,355	661,173	-0,104	-0,186
282,370	-200,000	-0,008	-0,058
283,384	-185,219	-0,164	0,002
284,399	800,000	-0,109	-0,246
285,414	78,191	-0,226	-0,166
286,428	-62,113	-0,185	-0,053
287,443	203,052	-0,165	-0,177
288,457	299,521	-0,103	-0,131
289,472	-102,156	-0,281	-0,046
290,487	-200,000	-0,055	-0,183
291,501	94,146	-0,195	-0,153
292,516	77,102	-0,273	-0,200
293,530	197,402	-0,120	-0,126
294,545	-163,243	-0,180	0,006
295,560	-136,482	-0,178	0,014
296,574	-92,361	-0,141	0,027
297,589	297,135	-0,106	-0,134
298,603	73,013	-0,182	-0,131
299,618	-10,303	-0,199	-0,091
300,633	226,240	-0,227	-0,254
301,647	800,000	-0,100	-0,202
302,662	16,438	-0,182	-0,099
303,676	215,038	-0,107	-0,117
304,691	-89,711	-0,182	-0,037
305,706	-200,000	-0,005	-0,240
306,720	19,482	-0,110	-0,061
307,735	-48,821	-0,122	-0,040
308,749	233,221	-0,240	-0,273
309,764	160,708	-0,103	-0,099
310,779	111,947	-0,076	-0,063
311,793	104,698	-0,079	-0,064
312,808	31,335	-0,234	-0,138
313,822	260,130	-0,115	-0,137
314,837	-87,603	-0,068	0,014
315,852	-5,467	-0,120	-0,057
316,866	-200,000	-0,004	-0,139
317,881	612,942	-0,020	-0,035
318,895	-30,261	-0,204	-0,079
319,910	3,682	-0,122	-0,061
320,925	46,459	-0,136	-0,086
321,939	354,890	-0,138	-0,189
322,954	800,000	-0,098	-0,243
323,968	-143,181	0,092	0,006
324,983	27,975	-0,036	-0,021
325,997	52,618	-0,124	-0,081
327,012	378,478	-0,141	-0,199
328,027	324,596	-0,114	-0,151
329,041	229,978	-0,121	-0,136
330,056	-102,542	-0,107	-0,017
331,070	236,742	-0,109	-0,124
332,085	800,000	-0,069	-0,152
333,100	-200,000	-0,013	-0,072
334,114	-45,436	-0,215	-0,073
335,129	595,752	-0,115	-0,197
336,143	69,017	-0,202	-0,143
337,158	65,173	-0,121	-0,084
338,173	253,121	-0,097	-0,113
339,187	148,107	-0,072	-0,067
340,202	294,598	0,014	0,018
341,216	-0,352	-0,180	-0,088
342,231	44,941	-0,078	0,049
343,246	-36,656	-0,129	-0,047
344,260	-200,000	-0,155	-0,000
345,275	-114,833	-0,189	0,025
346,289	52,804	-0,106	-0,069
347,304	-16,252	-0,215	-0,093
348,319	20,712	-0,155	-0,086
349,333	354,609	-0,078	-0,106
350,348	149,892	-0,168	-0,156
351,362	17,998	-0,183	-0,100
352,377	90,589	-0,171	-0,131
353,392	-95,080	-0,159	-0,029
354,406	-118,368	-0,160	-0,019
355,421	208,806	1316,220	1414,991
356,435	160,682	1477,143	1415,505
