DTS Sentinel unit serial number:	SN410029Multiplexer serial number:	ORYXHardware model number:	OX2-SRSoftware version number:	ORYX F/W v4,00 Oryx Data Collector v3.7.2.0data status	okinstallation	B3 Nyhavnadifferential loss correction	single-endedforward channel	channel 1reverse channel	N/Adate	2023/12/01time	03:37:30forward acquisition time	300,00reverse acquisition time	0,00gamma	499,1914k internal	0,3212k external	0,3212temperature offset calibration	1,0000default loss term (dB/km)	0,3820temperature slope calibration	1,0000multiplexer offset coefficient	1,0000multiplexer slope coefficient	1,0000fibre end	0,00T internal ref (°C)	8,26T ext. ref 1 (°C)	-6,98T ext. ref 2 (°C)	-7,12length (m)	temperature (°C)	Stokes	anti-Stokes-744,400	465,483	-0,124	-0,202
-743,385	-200,000	0,002	0,148
-742,371	800,000	-0,153	-0,352
-741,356	-200,000	-0,080	0,440
-740,342	800,000	-0,117	-0,259
-739,327	800,000	-0,136	0,290
-738,312	44,349	-0,141	-0,093
-737,298	800,000	-0,094	0,252
-736,283	502,896	-0,160	-0,269
-735,269	-200,000	-0,022	0,314
-734,254	50,455	-0,299	-0,204
-733,239	-63,317	-0,242	0,072
-732,225	424,201	-0,113	-0,176
-731,210	-3,895	0,104	0,052
-730,196	360,036	-0,015	0,022
-729,181	-200,000	0,008	-0,075
-728,167	-5,322	0,075	-0,037
-727,152	22,077	-0,098	-0,058
-726,137	-200,000	0,030	0,154
-725,123	-39,979	-0,131	0,049
-724,108	100,255	-0,148	-0,125
-723,094	435,291	-0,045	-0,070
-722,079	800,000	-0,070	-0,161
-721,064	27,980	0,100	0,061
-720,050	304,892	-0,029	-0,039
-719,035	800,000	-0,043	0,089
-718,021	188,805	-0,095	-0,104
-717,006	-200,000	-0,047	-0,156
-715,991	800,000	-0,094	-0,231
-714,977	273,994	-0,114	-0,146
-713,962	226,636	0,058	-0,068
-712,948	0,576	-0,085	-0,044
-711,933	129,278	0,053	0,049
-710,918	253,729	-0,077	0,096
-709,904	44,197	-0,106	0,070
-708,889	-80,332	-0,036	0,009
-707,875	466,088	-0,047	0,076
-706,860	-110,195	-0,146	0,022
-705,845	-114,671	0,042	-0,006
-704,831	800,000	0,040	0,088
-703,816	222,974	0,048	-0,056
-702,802	-49,289	-0,107	0,037
-701,787	-200,000	-0,019	-0,122
-700,772	-174,718	-0,055	0,001
-699,758	357,844	-0,034	0,050
-698,743	-57,119	0,041	0,013
-697,729	-68,700	0,031	-0,009
-696,714	800,000	0,021	0,049
-695,699	-200,000	-0,029	-0,125
-694,685	45,936	0,126	0,084
-693,670	-200,000	-0,031	-0,148
-692,656	80,116	0,023	-0,018
-691,641	800,000	-0,023	-0,072
-690,627	-200,000	-0,011	0,059
-689,612	-64,612	-0,110	0,032
-688,597	-200,000	0,016	-0,061
-687,583	623,416	-0,061	-0,111
-686,568	-200,000	-0,012	0,060
-685,554	293,059	-0,024	-0,031
-684,539	355,658	0,069	-0,100
-683,524	77,092	-0,063	-0,048
-682,510	-200,000	0,001	0,044
-681,495	40,850	-0,058	0,038
-680,481	-9,090	-0,213	-0,103
-679,466	-97,416	-0,140	0,026
-678,451	245,439	-0,103	-0,125
-677,437	-120,061	0,092	-0,011
-676,422	0,393	0,033	-0,017
-675,408	-119,362	-0,051	-0,006
-674,393	-42,101	-0,080	0,029
-673,378	575,452	-0,016	-0,029
-672,364	-156,519	-0,175	-0,008
-671,349	252,360	-0,095	-0,117
-670,335	492,312	-0,070	-0,117
-669,320	60,497	0,087	0,063
-668,305	800,000	-0,042	0,091
-667,291	-200,000	-0,004	-0,055
-666,276	-200,000	-0,015	-0,071
-665,262	-41,666	0,032	0,012
-664,247	-191,405	-0,232	0,002
-663,232	90,923	-0,074	-0,060
-662,218	40,148	-0,068	-0,044
-661,203	-95,356	0,071	0,014
-660,189	800,000	-0,018	0,052
-659,174	-45,533	-0,088	-0,031
-658,159	800,000	-0,042	-0,116
-657,145	396,784	-0,115	-0,174
-656,130	-200,000	0,008	0,045
-655,116	58,746	0,098	0,070
-654,101	96,585	0,074	0,061
-653,086	-200,000	0,001	0,039
-652,072	-200,000	0,013	0,064
-651,057	-200,000	0,020	-0,070
-650,043	-33,572	-0,087	0,034
-649,028	66,101	0,089	0,065
-648,014	66,820	-0,029	0,022
-646,999	25,998	-0,096	-0,058
-645,984	26,551	-0,173	0,105
-644,970	-142,070	-0,073	-0,005
-643,955	348,172	-0,052	0,074
-642,941	263,059	-0,029	-0,036
-641,926	-50,468	0,077	-0,026
-640,911	135,714	-0,111	0,104
-639,897	-15,450	-0,058	-0,027
-638,882	-64,194	-0,085	-0,025
-637,868	-200,000	0,018	-0,081
-636,853	-200,000	-0,009	-0,192
-635,838	800,000	-0,086	-0,208
-634,824	-200,000	-0,041	-0,141
-633,809	-200,000	-0,014	0,049
-632,795	526,022	-0,106	0,180
-631,780	-147,743	0,010	-0,001
-630,765	115,777	-0,078	-0,069
-629,751	95,274	-0,060	0,049
-628,736	-27,941	0,038	0,016
-627,722	63,900	-0,114	0,083
-626,707	800,000	-0,016	-0,039
-625,692	-106,457	0,115	-0,018
-624,678	687,033	-0,066	0,126
-623,663	-51,803	0,091	-0,030
-622,649	144,628	-0,071	0,069
-621,634	-3,679	-0,103	0,052
-620,619	800,000	-0,038	0,121
-619,605	-200,000	-0,011	0,062
-618,590	310,201	-0,030	0,040
-617,576	1,881	0,136	0,071
-616,561	123,533	-0,041	0,037
-615,546	-174,379	-0,139	0,003
-614,532	86,818	-0,176	-0,140
-613,517	187,588	0,070	0,076
-612,503	-134,708	-0,158	-0,014
-611,488	90,972	0,059	0,048
-610,474	-66,871	0,086	-0,024
-609,459	-141,227	-0,075	0,005
-608,444	-44,930	-0,048	-0,017
-607,430	327,551	-0,134	-0,185
-606,415	-72,629	-0,032	0,009
-605,401	98,950	0,103	-0,086
-604,386	213,383	0,033	-0,037
-603,371	96,432	0,030	-0,025
-602,357	-200,000	0,006	0,085
-601,342	-200,000	-0,034	0,146
-600,328	-129,999	0,101	0,010
-599,313	-200,000	0,029	-0,135
-598,298	662,484	-0,025	-0,046
-597,284	-200,000	-0,013	0,059
-596,269	-200,000	0,027	-0,099
-595,255	-80,147	0,048	-0,012
-594,240	-200,000	0,013	0,058
-593,225	61,289	-0,100	-0,071
-592,211	38,890	-0,103	0,066
-591,196	85,725	0,015	-0,012
-590,182	142,399	0,056	-0,054
-589,167	-60,171	-0,065	0,020
-588,152	166,946	-0,081	0,083
-587,138	-200,000	0,010	-0,035
-586,123	253,340	-0,063	-0,077
-585,109	98,765	-0,077	-0,064
-584,094	800,000	-0,023	-0,048
-583,079	88,532	0,086	0,069
-582,065	-72,692	0,104	-0,027
-581,050	-140,720	-0,109	0,008
-580,036	-85,340	0,113	-0,025
-579,021	-200,000	-0,002	-0,066
-578,006	10,324	0,035	-0,019
-576,992	159,114	-0,023	-0,023
-575,977	-200,000	-0,003	-0,033
-574,963	-169,755	0,186	-0,005
-573,948	9,867	-0,111	-0,060
-572,934	-200,000	-0,002	-0,127
-571,919	-167,351	0,141	0,004
-570,904	2,523	-0,115	-0,060
-569,890	-4,152	0,070	0,035
-568,875	-45,610	-0,125	-0,044
-567,861	-200,000	0,001	-0,017
-566,846	-200,000	-0,015	-0,100
-565,831	-200,000	-0,008	0,045
-564,817	2,723	0,061	0,032
-563,802	25,826	-0,101	0,060
-562,788	-108,100	-0,211	0,033
-561,773	454,917	0,011	0,018
-560,758	13,021	0,041	0,023
-559,744	296,443	-0,012	0,015
-558,729	-2,802	0,075	-0,038
-557,715	-93,459	0,163	-0,032
-556,700	-86,156	-0,119	-0,026
-555,685	199,678	-0,083	-0,092
-554,671	800,000	-0,026	-0,074
-553,656	315,290	-0,073	-0,099
-552,642	611,252	0,037	-0,067
-551,627	98,504	0,073	-0,060
-550,612	31,042	-0,095	-0,058
-549,598	130,433	0,024	-0,022
-548,583	-175,470	-0,131	0,003
-547,569	41,810	0,021	-0,013
-546,554	579,635	0,037	-0,066
-545,539	315,476	0,055	-0,074
-544,525	-22,367	0,137	0,060
-543,510	-25,216	-0,142	0,060
-542,496	-200,000	-0,003	-0,047
-541,481	-200,000	0,029	-0,093
-540,466	358,337	0,020	0,029
-539,452	670,885	0,025	-0,047
-538,437	800,000	0,041	0,087
-537,423	800,000	0,054	0,124
-536,408	265,450	-0,106	-0,133
-535,393	-37,749	0,103	0,039
-534,379	-51,180	0,105	-0,035
-533,364	19,816	-0,088	-0,051
-532,350	-95,082	0,021	0,004
-531,335	304,929	0,046	0,061
-530,321	149,590	0,040	0,039
-529,306	-200,000	-0,001	-0,153
-528,291	64,904	0,024	-0,017
-527,277	800,000	-0,046	-0,100
-526,262	-41,038	0,093	-0,035
-525,248	-95,039	0,168	-0,032
-524,233	-200,000	-0,010	-0,064
-523,218	50,916	0,109	-0,074
-522,204	-132,133	-0,098	0,009
-521,189	743,188	0,062	-0,120
-520,175	-27,098	-0,042	0,018
-519,160	-200,000	0,004	0,019
-518,145	-116,922	0,042	-0,005
-517,131	201,553	0,028	0,031
-516,116	800,000	-0,010	-0,022
-515,102	-200,000	-0,019	-0,194
-514,087	-45,548	0,062	0,022
-513,072	-140,801	-0,061	0,004
-512,058	432,134	0,040	-0,063
-511,043	-200,000	0,020	0,088
-510,029	511,883	0,032	-0,054
-509,014	169,277	0,077	-0,079
-507,999	56,543	0,095	0,066
-506,985	800,000	0,024	-0,053
-505,970	25,026	-0,055	-0,033
-504,956	800,000	-0,021	-0,050
-503,941	-25,703	-0,063	0,027
-502,926	-42,946	0,032	-0,012
-501,912	-200,000	0,010	0,066
-500,897	57,864	-0,084	-0,059
-499,883	678,295	0,005	-0,009
-498,868	800,000	-0,034	0,070
-497,853	-48,855	-0,038	0,013
-496,839	-200,000	-0,007	0,167
-495,824	-143,287	0,177	0,012
-494,810	-200,000	0,029	0,175
-493,795	109,114	0,019	0,017
-492,781	-200,000	0,016	-0,079
-491,766	800,000	-0,050	0,102
-490,751	282,072	0,022	0,028
-489,737	355,923	0,074	0,107
-488,722	800,000	-0,047	0,114
-487,708	143,123	0,008	0,008
-486,693	-125,819	-0,148	-0,016
-485,678	-81,773	0,045	-0,010
-484,664	800,000	-0,022	-0,048
-483,649	-200,000	0,013	-0,071
-482,635	144,791	0,097	-0,093
-481,620	-200,000	0,002	-0,027
-480,605	580,843	0,032	0,057
-479,591	-200,000	0,032	-0,156
-478,576	209,358	-0,018	0,020
-477,562	-57,283	-0,095	-0,030
-476,547	-200,000	-0,007	-0,105
-475,532	800,000	-0,057	-0,129
-474,518	-200,000	0,001	0,110
-473,503	450,270	0,073	0,116
-472,489	-200,000	0,019	0,140
-471,474	348,095	-0,070	-0,099
-470,459	42,683	-0,159	-0,104
-469,445	11,077	-0,036	0,020
-468,430	800,000	0,009	0,023
-467,416	-27,428	-0,093	0,039
-466,401	-81,620	0,107	0,025
-465,386	542,873	0,031	-0,053
-464,372	232,206	-0,077	0,091
-463,357	-200,000	0,022	0,147
-462,343	-200,000	-0,009	-0,147
-461,328	115,904	-0,050	0,044
-460,313	431,745	0,030	0,046
-459,299	-200,000	0,021	0,076
-458,284	192,346	0,069	0,075
-457,270	37,552	0,051	0,033
-456,255	-200,000	0,025	0,200
-455,241	-14,751	0,077	0,035
-454,226	-17,693	-0,046	-0,021
-453,211	645,573	-0,085	0,157
-452,197	587,301	-0,061	0,107
-451,182	428,789	0,031	0,048
-450,168	-200,000	0,020	-0,093
-449,153	-200,000	0,027	-0,164
-448,138	-47,033	-0,044	-0,015
-447,124	24,264	-0,046	-0,027
-446,109	800,000	-0,020	-0,061
-445,095	24,476	0,150	0,089
-444,080	33,078	-0,140	-0,087
-443,065	-200,000	0,006	-0,092
-442,051	-14,301	-0,070	-0,032
-441,036	-47,897	-0,064	0,022
-440,022	-96,276	-0,031	-0,006
-439,007	-167,582	-0,167	0,005
-437,992	-200,000	0,023	0,118
-436,978	-37,482	0,114	0,043
-435,963	748,904	-0,048	-0,093
-434,949	-89,604	-0,110	-0,023
-433,934	581,952	0,055	-0,096
-432,919	34,869	0,091	-0,057
-431,905	-143,293	0,033	-0,002
-430,890	-93,464	0,190	-0,037
-429,876	800,000	-0,021	0,061
-428,861	95,961	0,087	0,071
-427,846	800,000	-0,012	0,034
-426,832	63,651	0,017	-0,012
-425,817	11,035	-0,014	0,007
-424,803	189,069	-0,042	-0,045
-423,788	264,970	-0,024	-0,030
-422,773	20,349	0,076	-0,044
-421,759	-168,554	0,113	-0,003
-420,744	501,141	0,092	-0,152
-419,730	244,925	0,056	-0,067
-418,715	348,335	-0,031	0,044
-417,701	-126,896	0,109	0,011
-416,686	508,045	-0,018	-0,030
-415,671	-71,641	-0,063	-0,017
-414,657	-200,000	-0,003	0,102
-413,642	-200,000	0,016	0,112
-412,628	-116,826	0,010	-0,001
-411,613	-200,000	0,008	-0,127
-410,598	191,481	0,030	-0,033
-409,584	292,168	-0,022	-0,028
-408,569	25,854	0,089	-0,053
-407,555	73,320	0,017	-0,013
-406,540	85,684	0,085	-0,066
-405,525	73,460	-0,024	-0,018
-404,511	-16,166	0,069	-0,031
-403,496	3,385	0,052	-0,027
-402,482	-200,000	-0,053	0,249
-401,467	32,003	-0,022	0,014
-400,452	-2,213	-0,034	-0,017
-399,438	-125,994	0,084	-0,009
-398,423	-200,000	0,002	-0,043
-397,409	192,256	0,125	-0,135
-396,394	-200,000	-0,011	-0,126
-395,379	336,116	0,094	-0,131
-394,365	-200,000	-0,018	0,083
-393,350	470,923	0,121	0,195
-392,336	800,000	-0,014	0,029
-391,321	353,202	-0,039	-0,055
-390,306	163,380	-0,072	0,072
-389,292	-42,681	0,052	-0,019
-388,277	419,111	0,051	-0,078
-387,263	800,000	-0,035	0,102
-386,248	-200,000	-0,023	0,137
-385,233	2,684	0,057	-0,029
-384,219	-86,087	0,053	0,012
-383,204	800,000	0,006	0,013
-382,190	-200,000	0,025	0,246
-381,175	-200,000	0,020	-0,068
-380,160	800,000	-0,020	0,042
-379,146	800,000	0,039	0,114
-378,131	-200,000	-0,008	-0,038
-377,117	800,000	-0,054	-0,160
-376,102	573,944	-0,091	-0,160
-375,088	-7,826	0,055	-0,026
-374,073	-139,717	-0,102	-0,008
-373,058	123,467	0,056	0,050
-372,044	800,000	-0,019	-0,058
-371,029	99,341	-0,219	0,181
-370,015	-79,484	-0,099	-0,024
-369,000	-200,000	0,020	-0,144
-367,985	-200,000	-0,002	-0,165
-366,971	-53,470	0,116	-0,038
-365,956	264,529	-0,075	0,093
-364,942	182,721	0,041	0,043
-363,927	-200,000	0,008	0,071
-362,912	-100,664	-0,047	-0,008
-361,898	-110,930	-0,094	-0,014
-360,883	371,873	-0,053	0,077
-359,869	767,270	-0,035	-0,069
-358,854	65,591	0,128	-0,093
-357,839	308,686	0,121	0,162
-356,825	800,000	0,051	-0,127
-355,810	80,141	0,064	0,049
-354,796	800,000	0,020	-0,060
-353,781	-72,644	-0,222	-0,058
-352,766	1,160	0,181	0,092
-351,752	-95,081	0,104	0,020
-350,737	145,991	0,059	0,057
-349,723	-58,644	0,090	0,028
-348,708	-200,000	-0,013	0,107
-347,693	713,368	-0,088	0,167
-346,679	-87,494	-0,004	-0,001
-345,664	129,949	-0,042	-0,038
-344,650	-172,894	-0,160	0,003
-343,635	-200,000	-0,005	0,031
-342,620	800,000	0,032	0,082
-341,606	9,508	-0,124	0,067
-340,591	800,000	-0,011	0,033
-339,577	-200,000	0,010	-0,054
-338,562	800,000	0,029	-0,065
-337,548	159,908	-0,052	-0,052
-336,533	-200,000	-0,026	-0,140
-335,518	-144,433	-0,019	-0,001
-334,504	79,071	0,030	0,023
-333,489	312,134	0,111	0,149
-332,475	-86,403	-0,148	0,032
-331,460	268,794	0,051	0,064
-330,445	-88,788	0,009	-0,002
-329,431	-200,000	-0,007	0,109
-328,416	135,030	0,078	0,073
-327,402	-51,870	0,140	-0,046
-326,387	-200,000	-0,004	0,051
-325,372	260,032	-0,012	-0,014
-324,358	0,888	-0,102	0,052
-323,343	-200,000	-0,012	-0,080
-322,329	-104,918	0,085	0,014
-321,314	-43,049	-0,109	0,039
-320,299	-200,000	0,002	0,189
-319,285	800,000	0,015	-0,036
-318,270	166,575	0,091	-0,092
-317,256	-195,233	0,099	-0,001
-316,241	-200,000	0,002	-0,135
-315,226	335,957	-0,028	0,039
-314,212	-143,079	-0,162	-0,011
-313,197	-69,439	-0,025	0,007
-312,183	800,000	0,028	0,079
-311,168	-82,802	0,121	-0,028
-310,153	-200,000	0,013	-0,055
-309,139	500,518	-0,083	-0,137
-308,124	247,986	-0,095	0,114
-307,110	-85,571	0,077	-0,017
-306,095	123,055	0,037	0,033
-305,080	61,484	-0,074	-0,052
-304,066	469,884	-0,079	-0,127
-303,051	-200,000	-0,031	-0,144
-302,037	-167,244	0,072	-0,002
-301,022	-200,000	-0,037	0,136
-300,008	11,859	0,062	-0,034
-298,993	28,374	0,093	-0,056
-297,978	157,086	0,086	-0,085
-296,964	13,290	-0,048	0,027
-295,949	-54,564	-0,065	0,021
-294,935	384,615	-0,036	-0,053
-293,920	800,000	-0,034	0,069
-292,905	263,101	0,057	0,071
-291,891	-42,848	-0,199	0,072
-290,876	-44,012	0,099	0,035
-289,862	800,000	-0,035	-0,081
-288,847	800,000	0,016	0,034
-287,832	-79,271	-0,054	0,013
-286,818	-25,148	0,064	-0,027
-285,803	-110,702	-0,101	0,015
-284,789	800,000	0,006	0,020
-283,774	800,000	0,019	0,042
-282,759	174,740	-0,041	0,043
-281,745	-200,000	-0,006	-0,062
-280,730	-200,000	0,007	-0,126
-279,716	253,748	-0,065	-0,080
-278,701	-200,000	0,048	0,154
-277,686	409,331	0,037	0,056
-276,672	-89,988	0,008	-0,002
-275,657	-200,000	-0,009	0,089
-274,643	267,268	-0,041	-0,051
-273,628	205,676	-0,075	-0,083
-272,613	800,000	0,059	-0,175
-271,599	208,284	0,075	0,083
-270,584	145,184	0,070	-0,067
-269,570	91,588	0,114	0,091
-268,555	64,520	-0,195	0,140
-267,540	-200,000	0,110	0,000
-266,526	800,000	-0,037	-0,090
-265,511	103,897	0,018	0,015
-264,497	457,873	0,081	-0,129
-263,482	352,279	-0,074	-0,105
-262,467	-134,103	0,139	0,012
-261,453	201,289	-0,073	-0,080
-260,438	800,000	0,012	-0,029
-259,424	-200,000	-0,009	-0,129
-258,409	800,000	-0,034	-0,086
-257,395	-49,471	0,050	0,017
-256,380	273,627	-0,035	-0,045
-255,365	-200,000	0,009	0,106
-254,351	-17,556	-0,151	0,067
-253,336	317,788	-0,034	-0,046
-252,322	800,000	0,041	-0,099
-251,307	789,321	0,016	0,031
-250,292	800,000	-0,043	0,124
-249,278	0,288	0,085	0,043
-248,263	148,271	0,127	-0,122
-247,249	29,045	0,071	-0,043
-246,234	-96,089	0,044	-0,008
-245,219	468,981	-0,033	-0,053
-244,205	-70,796	0,060	-0,016
-243,190	83,246	0,064	0,050
-242,176	-200,000	0,004	0,127
-241,161	-66,491	0,132	-0,037
-240,146	80,451	0,154	0,118
-239,132	-160,818	-0,058	-0,002
-238,117	48,678	-0,048	0,032
-237,103	586,123	0,052	0,091
-236,088	386,137	0,054	-0,079
-235,073	-134,247	0,151	-0,013
-234,059	118,357	-0,066	-0,058
-233,044	-93,740	0,168	0,033
-232,030	-28,542	0,113	-0,046
-231,015	98,708	0,042	0,034
-230,000	800,000	0,011	0,024
-228,986	-200,000	0,005	0,062
-227,971	46,270	0,097	0,064
-226,957	491,912	-0,013	0,021
-225,942	178,579	0,077	0,080
-224,927	-18,471	-0,035	-0,016
-223,913	-200,000	-0,006	-0,037
-222,898	87,116	0,056	0,044
-221,884	-99,981	-0,012	0,002
-220,869	-33,284	0,052	0,020
-219,855	-200,000	0,011	0,046
-218,840	159,033	0,001	0,001
-217,825	105,300	-0,134	0,112
-216,811	-120,354	-0,169	-0,020
-215,796	8,822	-0,024	-0,013
-214,782	481,746	-0,044	-0,071
-213,767	184,866	-0,043	-0,045
-212,752	-112,318	-0,068	-0,010
-211,738	-182,849	0,076	-0,001
-210,723	800,000	-0,051	-0,123
-209,709	-90,321	-0,157	-0,032
-208,694	153,330	-0,073	-0,071
-207,679	-200,000	-0,012	-0,079
-206,665	-70,352	-0,023	-0,006
-205,650	380,846	-0,078	0,113
-204,636	182,720	0,013	0,014
-203,621	391,562	-0,080	0,118
-202,606	367,460	0,041	-0,058
-201,592	-146,172	-0,191	-0,012
-200,577	276,394	-0,090	0,114
-199,563	123,081	-0,055	0,049
-198,548	-150,226	0,140	0,008
-197,533	-200,000	0,019	0,079
-196,519	-200,000	0,030	0,161
-195,504	21,132	-0,111	-0,063
-194,490	800,000	-0,018	0,052
-193,475	-200,000	0,001	-0,103
-192,460	-162,658	-0,045	0,002
-191,446	800,000	-0,037	-0,084
-190,431	14,948	0,146	-0,081
-189,417	63,614	0,145	-0,103
-188,402	42,712	-0,093	-0,060
-187,387	800,000	0,012	-0,032
-186,373	-78,492	0,056	0,014
-185,358	65,104	0,016	0,011
-184,344	104,665	0,112	0,093
-183,329	-32,214	0,145	0,057
-182,315	195,202	-0,076	0,082
-181,300	-43,230	0,052	0,018
-180,285	800,000	0,043	-0,117
-179,271	-146,230	-0,064	0,004
-178,256	501,685	-0,066	0,108
-177,242	-119,831	0,151	-0,018
-176,227	-200,000	-0,001	0,073
-175,212	-43,149	0,026	0,009
-174,198	-100,741	-0,060	0,010
-173,183	503,425	-0,081	-0,133
-172,169	102,438	-0,076	0,063
-171,154	-7,306	0,152	-0,073
-170,139	-21,762	-0,136	0,058
-169,125	800,000	0,074	0,148
-168,110	800,000	-0,021	0,047
-167,096	-200,000	0,012	0,108
-166,081	-16,935	-0,087	0,039
-165,066	30,014	-0,069	0,041
-164,052	-37,879	0,088	-0,033
-163,037	100,580	-0,071	0,059
-162,023	4,045	0,114	0,059
-161,008	700,453	-0,034	0,063
-159,993	-144,109	0,051	-0,003
-158,979	80,568	0,107	0,081
-157,964	-180,046	0,043	-0,001
-156,950	800,000	-0,034	0,098
-155,935	271,023	-0,082	0,102
-154,920	671,671	0,037	0,068
-153,906	800,000	-0,035	0,068
-152,891	116,061	-0,068	0,059
-151,877	-96,151	-0,065	-0,012
-150,862	-200,000	-0,034	-0,117
-149,847	-200,000	-0,004	-0,100
-148,833	-2,537	-0,064	0,032
-147,818	83,691	0,011	-0,008
-146,804	-16,509	-0,025	-0,011
-145,789	800,000	-0,049	0,133
-144,775	149,056	0,089	0,085
-143,760	-125,612	-0,137	0,014
-142,745	-200,000	-0,003	0,048
-141,731	-148,989	0,036	-0,002
-140,716	674,231	-0,019	-0,035
-139,702	-108,667	0,178	0,027
-138,687	575,575	0,065	0,113
-137,672	136,067	-0,149	-0,138
-136,658	800,000	0,047	-0,093
-135,643	76,674	-0,117	0,088
-134,629	-72,016	0,143	0,037
-133,614	-132,849	0,214	-0,019
-132,599	-127,724	-0,071	-0,007
-131,585	133,503	-0,019	-0,017
-130,570	800,000	0,039	-0,077
-129,556	195,584	-0,094	-0,101
-128,541	125,546	-0,044	-0,039
-127,526	6,167	0,055	-0,029
-126,512	-200,000	0,022	0,113
-125,497	-73,436	-0,102	-0,026
-124,483	200,361	-0,022	0,024
-123,468	46,282	-0,178	0,117
-122,453	-90,133	-0,107	0,022
-121,439	122,814	0,029	-0,025
-120,424	186,755	-0,019	-0,020
-119,410	-200,000	0,006	0,116
-118,395	800,000	0,022	0,067
-117,380	-129,010	-0,106	0,010
-116,366	-200,000	0,021	0,112
-115,351	800,000	-0,066	-0,140
-114,337	152,182	-0,047	0,046
-113,322	279,605	0,064	-0,082
-112,307	-29,694	0,086	0,034
-111,293	-138,402	-0,080	0,006
-110,278	85,809	-0,105	0,081
-109,264	-76,559	-0,047	-0,012
-108,249	296,059	0,033	-0,042
-107,234	-4,738	0,022	-0,010
-106,220	299,280	-0,064	0,084
-105,205	101,807	-0,054	0,044
-104,191	-47,664	0,033	0,011
-103,176	94,700	-0,037	0,030
-102,162	145,343	-0,056	-0,053
-101,147	-57,173	-0,161	-0,050
-100,132	800,000	-0,015	0,036
-99,118	-200,000	0,007	-0,063
-98,103	-132,318	0,073	0,007
-97,089	-200,000	-0,008	0,046
-96,074	799,918	0,029	0,058
-95,059	-44,346	0,089	-0,031
-94,045	92,396	-0,071	0,056
-93,030	-147,723	0,068	-0,004
-92,016	4,241	-0,174	-0,090
-91,001	501,897	0,044	-0,072
-89,986	-176,542	-0,062	0,001
-88,972	-200,000	0,030	0,148
-87,957	-200,000	-0,020	0,138
-86,943	92,818	-0,093	-0,074
-85,928	-200,000	-0,040	-0,229
-84,913	535,163	-0,095	0,159
-83,899	-200,000	-0,021	0,110
-82,884	-84,040	0,083	0,018
-81,870	79,538	0,064	-0,048
-80,855	89,769	-0,144	-0,113
-79,840	107,386	0,092	-0,078
-78,826	126,962	-0,100	0,089
-77,811	232,531	0,041	0,048
-76,797	800,000	-0,027	-0,069
-75,782	-63,664	0,159	0,046
-74,767	-42,145	0,123	0,044
-73,753	800,000	-0,028	-0,062
-72,738	-33,427	0,140	-0,054
-71,724	490,386	-0,055	0,088
-70,709	-5,130	-0,142	-0,069
-69,694	-18,595	0,121	-0,053
-68,680	51,320	-0,043	0,029
-67,665	-35,662	0,156	-0,059
-66,651	106,581	0,071	-0,060
-65,636	-158,863	0,043	-0,002
-64,622	151,999	-0,105	-0,101
-63,607	-200,000	-0,002	0,072
-62,592	-69,587	-0,037	0,010
-61,578	44,913	0,133	0,086
-60,563	800,000	-0,041	0,113
-59,549	675,190	-0,037	-0,067
-58,534	72,946	-2,174	-1,601
-57,519	496,825	-1,116	-1,818
-56,505	-200,000	-0,405	-4,778
-55,490	416,948	0,916	1,384
-54,476	800,000	5,401	12,083
-53,461	-200,000	22,435	347,164
-52,446	800,000	757,793	2302,730
-51,432	535,928	1646,194	2766,567
-50,417	68,471	1644,733	1188,184
-49,403	15,918	1521,666	842,785
-48,388	10,144	1447,090	773,729
-47,373	19,256	1439,835	813,276
-46,359	13,576	1428,404	779,955
-45,344	8,446	1424,419	753,469
-44,330	8,374	1422,176	751,912
-43,315	8,337	1420,601	750,874
-42,300	8,342	1418,634	749,830
-41,286	8,361	1417,431	749,253
-40,271	8,355	1416,444	748,675
-39,257	8,360	1415,213	748,018
-38,242	8,359	1413,994	747,340
-37,227	8,385	1412,833	746,817
-36,213	8,356	1411,703	746,054
-35,198	8,373	1410,278	745,350
-34,184	8,411	1409,609	745,147
-33,169	8,321	1408,063	743,875
-32,154	8,309	1407,079	743,272
-31,140	8,290	1405,981	742,571
-30,125	8,361	1404,606	742,147
-29,111	8,377	1403,327	741,518
-28,096	8,332	1402,488	740,838
-27,082	8,294	1401,191	739,942
-26,067	8,265	1400,135	739,220
-25,052	8,287	1399,012	738,701
-24,038	8,300	1398,100	738,252
-23,023	8,264	1397,155	737,557
-22,009	8,291	1396,020	737,052
-20,994	8,286	1395,116	736,525
-19,979	8,290	1394,134	735,994
-18,965	8,264	1393,144	735,323
-17,950	8,221	1392,362	734,682
-16,936	8,238	1391,607	734,332
-15,921	8,194	1390,563	733,548
-14,906	8,218	1389,497	733,070
-13,892	8,213	1388,719	732,606
-12,877	8,206	1387,845	732,082
-11,863	8,204	1387,011	731,604
-10,848	8,192	1386,148	731,064
-9,833	8,145	1385,243	730,342
-8,819	8,115	1384,343	729,701
-7,804	8,080	1383,489	729,061
-6,790	8,059	1382,397	728,359
-5,775	8,101	1381,122	727,850
-4,760	8,150	1380,362	727,648
-3,746	8,136	1379,409	727,050
-2,731	8,109	1378,433	726,384
-1,717	8,149	1377,678	726,143
-0,702	8,153	1375,902	725,193
0,313	12,107	1286,712	696,123
1,327	27,975	678,405	402,443
2,342	43,089	116,762	74,970
3,356	-0,109	16,528	8,266
4,371	-5,810	4,003	1,925
5,386	-20,476	1,294	0,559
6,400	800,000	0,297	0,645
7,415	-29,702	-0,180	-0,072
8,429	288,429	-0,178	-0,228
9,444	147,625	-0,231	-0,219
10,459	19,157	-0,368	-0,208
11,473	-53,170	-0,272	-0,087
12,488	-137,364	-0,319	-0,025
13,502	-80,271	-0,378	-0,088
14,517	-21,743	-0,378	-0,161
15,531	12,347	-0,343	-0,186
16,546	46,074	-0,363	-0,236
17,561	-10,623	-0,483	-0,224
18,575	9,088	-0,275	-0,146
19,590	128,150	-0,194	-0,174
20,604	48,905	-0,239	-0,157
21,619	79,308	-0,411	-0,310
22,634	108,282	-0,396	-0,332
23,648	159,138	-0,297	-0,290
24,663	90,244	-0,408	-0,321
25,677	-17,861	-0,285	-0,125
26,692	89,307	-0,397	-0,311
27,707	75,160	-0,323	-0,239
28,721	-0,314	-0,356	-0,177
29,736	73,837	-0,411	-0,303
30,750	78,380	-0,409	-0,307
31,765	-27,207	-0,389	-0,159
32,780	186,066	-0,355	-0,372
33,794	-57,759	-0,422	-0,129
34,809	9,517	-0,442	-0,235
35,823	-27,189	-0,480	-0,196
36,838	160,206	-0,281	-0,275
37,853	136,671	-0,255	-0,234
38,867	186,794	-0,268	-0,281
39,882	105,603	-0,272	-0,226
40,896	128,443	-0,270	-0,241
41,911	88,122	-0,333	-0,259
42,926	68,421	-0,279	-0,201
43,940	49,332	-0,476	-0,314
44,955	183,442	-0,340	-0,353
45,969	263,483	-0,293	-0,358
46,984	42,249	-0,312	-0,198
47,999	-179,105	-0,389	0,006
49,013	-25,336	-0,265	-0,110
50,028	34,789	-0,307	-0,188
51,042	149,346	-0,371	-0,353
52,057	43,948	-0,376	-0,241
53,071	43,056	-0,335	-0,214
54,086	62,561	-0,352	-0,246
55,101	-9,454	-0,350	-0,163
56,115	-55,464	-0,392	-0,123
57,130	153,007	-0,241	-0,232
58,144	165,962	-0,302	-0,300
59,159	308,469	-0,315	-0,413
60,174	80,845	-0,336	-0,254
61,188	42,078	-0,425	-0,270
62,203	129,927	-0,286	-0,256
63,217	288,075	-0,305	-0,388
64,232	-79,103	-0,344	-0,081
65,247	36,194	-0,445	-0,274
66,261	89,052	-0,231	-0,181
67,276	104,572	-0,292	-0,241
68,290	109,288	-0,246	-0,206
69,305	272,156	-0,253	-0,313
70,320	172,648	-0,242	-0,244
71,334	-25,178	-0,310	-0,128
72,349	20,467	-0,327	-0,185
73,363	7,455	-0,288	-0,151
74,378	93,837	-0,277	-0,220
75,393	-93,310	-0,333	-0,064
76,407	59,649	-0,252	-0,174
77,422	-3,853	-0,330	-0,160
78,436	-23,544	-0,389	-0,163
79,451	35,030	-0,312	-0,191
80,466	111,162	-0,330	-0,279
81,480	381,530	-0,225	-0,325
82,495	296,821	-0,249	-0,321
83,509	141,188	-0,236	-0,219
84,524	800,000	-0,079	-0,166
85,539	-3,124	-0,326	-0,159
86,553	105,679	-0,165	-0,137
87,568	-124,907	-0,286	-0,030
88,582	438,571	-0,160	-0,245
89,597	132,928	-0,342	-0,309
90,611	-13,727	-0,349	-0,157
91,626	800,000	-0,176	-0,345
92,641	79,648	-0,245	-0,184
93,655	23,864	-0,383	-0,220
94,670	78,191	-0,301	-0,225
95,684	-23,719	-0,216	-0,090
96,699	57,267	-0,216	-0,147
97,714	19,772	-0,244	-0,137
98,728	-69,618	-0,154	-0,041
99,743	5,115	-0,231	-0,119
100,757	36,138	-0,263	-0,161
101,772	173,852	-0,347	-0,350
102,787	199,139	-0,265	-0,285
103,801	39,704	-0,343	-0,215
104,816	19,131	-0,311	-0,174
105,830	155,108	-0,223	-0,214
106,845	-175,151	-0,284	-0,005
107,860	-12,864	-0,252	-0,114
108,874	96,497	-0,384	-0,307
109,889	117,662	-0,347	-0,299
110,903	-43,384	-0,309	-0,108
111,918	84,452	-0,284	-0,217
112,933	-78,559	-0,253	-0,060
113,947	-8,038	-0,267	-0,125
114,962	-142,137	-0,270	-0,018
115,976	238,155	-0,239	-0,278
116,991	-15,612	-0,296	-0,131
118,006	100,095	-0,263	-0,212
119,020	800,000	-0,157	-0,307
120,035	103,162	-0,289	-0,236
121,049	94,575	-0,270	-0,214
122,064	-98,455	-0,267	-0,047
123,079	30,729	-0,276	-0,164
124,093	481,133	-0,174	-0,277
125,108	152,669	-0,227	-0,217
126,122	-55,101	-0,349	-0,109
127,137	-52,008	-0,264	-0,085
128,151	-94,426	-0,325	-0,061
129,166	242,606	-0,243	-0,284
130,181	-94,722	-0,273	-0,051
131,195	63,675	-0,326	-0,228
132,210	-28,302	-0,299	-0,120
133,224	600,276	-0,150	-0,261
134,239	6,242	-0,176	-0,091
135,254	-0,389	-0,314	-0,155
136,268	83,540	-0,240	-0,182
137,283	315,091	-0,150	-0,198
138,297	139,001	-0,282	-0,258
139,312	85,291	-0,246	-0,188
140,327	57,921	-0,315	-0,215
141,341	49,841	-0,167	-0,109
142,356	-58,689	-0,203	-0,061
143,370	20,398	-0,255	-0,143
144,385	117,778	-0,200	-0,172
145,400	-195,756	-0,361	0,002
146,414	-16,907	-0,348	-0,152
147,429	245,589	-0,204	-0,240
148,443	784,773	-0,093	-0,179
149,458	5,769	-0,278	-0,143
150,473	117,224	-0,149	-0,128
151,487	54,573	-0,361	-0,242
152,502	78,682	-0,289	-0,215
153,516	20,378	-0,290	-0,162
154,531	117,442	-0,234	-0,200
155,546	-12,480	-0,236	-0,107
156,560	-86,267	-0,261	-0,055
157,575	97,313	-0,277	-0,221
158,589	86,432	-0,227	-0,174
159,604	-75,215	-0,220	-0,054
160,619	161,152	-0,291	-0,283
161,633	32,436	-0,361	-0,216
162,648	2,340	-0,253	-0,127
163,662	-166,599	-0,136	-0,004
164,677	-40,255	-0,188	-0,068
165,692	96,011	-0,187	-0,148
166,706	-12,668	-0,291	-0,131
167,721	394,263	-0,110	-0,160
168,735	86,136	-0,230	-0,175
169,750	-91,615	-0,215	-0,042
170,764	123,540	-0,190	-0,166
171,779	-5,802	-0,267	-0,127
172,794	-116,981	-0,296	-0,037
173,808	35,034	-0,315	-0,191
174,823	79,618	-0,308	-0,229
175,837	186,955	-0,165	-0,171
176,852	-89,967	-0,265	-0,053
177,867	261,942	-0,279	-0,336
178,881	22,960	-0,178	-0,101
179,896	-27,806	-0,268	-0,108
180,910	60,051	-0,111	-0,076
181,925	149,429	-0,189	-0,178
182,940	565,991	-0,076	-0,128
183,954	537,764	-0,136	-0,225
184,969	-66,612	-0,355	-0,097
185,983	21,125	-0,112	-0,063
186,998	46,650	-0,197	-0,127
188,013	800,000	-0,126	-0,244
189,027	300,885	-0,220	-0,283
190,042	-116,539	-0,271	-0,034
191,056	162,915	-0,240	-0,234
192,071	167,695	-0,095	-0,093
193,086	-27,568	-0,155	-0,062
194,100	202,160	-0,132	-0,142
195,115	-5,903	-0,259	-0,122
196,129	52,853	-0,153	-0,101
197,144	9,588	-0,317	-0,166
198,159	254,560	-0,298	-0,354
199,173	87,300	-0,161	-0,123
200,188	343,642	-0,069	-0,093
201,202	800,000	-0,074	-0,183
202,217	-2,211	-0,276	-0,134
203,232	-28,024	-0,340	-0,136
204,246	51,779	-0,235	-0,155
205,261	120,076	-0,247	-0,213
206,275	-200,000	-0,070	-0,289
207,290	588,194	-0,139	-0,238
208,304	164,447	-0,205	-0,200
209,319	105,461	-0,179	-0,146
210,334	-84,531	-0,149	-0,032
211,348	57,505	-0,195	-0,132
212,363	81,867	-0,278	-0,208
213,377	91,199	-0,211	-0,164
214,392	160,349	-0,232	-0,224
215,407	-42,935	-0,118	-0,041
216,421	-17,682	-0,172	-0,074
217,436	400,170	-0,174	-0,253
218,450	656,786	-0,097	-0,174
219,465	-181,868	-0,234	-0,003
220,480	-3,162	-0,133	-0,064
221,494	18,391	-0,115	0,063
222,509	800,000	-0,142	-0,278
223,523	94,935	-0,078	-0,061
224,538	14,666	-0,128	-0,069
225,553	149,318	-0,189	-0,177
226,567	-36,712	-0,271	-0,100
227,582	76,375	-0,121	-0,089
228,596	800,000	-0,128	-0,290
229,611	224,478	-0,112	-0,125
230,626	266,848	-0,151	-0,183
231,640	35,154	-0,214	-0,129
232,655	-5,133	-0,279	-0,132
233,669	211,137	-0,097	-0,106
234,684	800,000	-0,091	-0,245
235,699	-66,540	-0,277	-0,075
236,713	-136,171	-0,179	0,014
237,728	-80,625	-0,137	-0,031
238,742	-180,677	-0,284	0,004
239,757	800,000	-0,154	-0,322
240,772	93,632	-0,300	-0,235
241,786	205,579	-0,124	-0,134
242,801	371,175	-0,125	-0,175
243,815	299,744	-0,087	-0,111
244,830	800,000	-0,062	-0,181
245,844	366,021	-0,102	-0,143
246,859	800,000	-0,111	-0,270
247,874	800,000	-0,157	-0,339
248,888	240,690	-0,145	-0,167
249,903	-11,497	-0,169	-0,076
250,917	800,000	-0,096	-0,184
251,932	168,896	-0,107	-0,105
252,947	-64,923	-0,145	-0,040
253,961	-200,000	-0,070	-0,234
254,976	414,341	-0,209	-0,307
255,990	151,573	-0,171	-0,161
257,005	-200,000	-0,083	-0,299
258,020	-77,505	-0,110	-0,026
259,034	-96,733	-0,148	-0,027
260,049	-55,307	-0,202	-0,062
261,063	193,230	-0,223	-0,232
262,078	428,642	-0,147	-0,220
263,093	15,137	-0,132	-0,071
264,107	178,940	-0,042	-0,043
265,122	6,735	-0,160	-0,082
266,136	266,849	-0,045	-0,055
267,151	-146,812	-0,162	-0,009
268,166	-200,000	0,001	-0,202
269,180	66,051	-0,129	-0,090
270,195	344,235	-0,097	-0,131
271,209	42,880	-0,130	-0,081
272,224	169,923	-0,237	-0,234
273,239	3,787	-0,205	-0,103
274,253	181,953	-0,076	-0,077
275,268	18,437	-0,213	-0,117
276,282	37,776	-0,101	-0,062
277,297	357,708	-0,056	-0,077
278,312	28,924	-0,230	-0,134
279,326	-23,041	-0,203	-0,084
280,341	-36,572	-0,126	0,046
281,355	-21,876	-0,100	0,042
282,370	-13,961	-0,105	-0,047
283,384	-156,895	-0,153	-0,006
284,399	61,080	-0,181	-0,123
285,414	-74,946	-0,275	-0,067
286,428	-200,000	-0,021	-0,124
287,443	166,418	-0,107	-0,104
288,457	17,255	-0,101	-0,055
289,472	110,347	-0,151	-0,125
290,487	-200,000	-0,020	-0,195
291,501	61,255	-0,196	-0,134
292,516	585,208	-0,101	-0,172
293,530	275,196	-0,140	-0,170
294,545	-42,149	-0,097	-0,034
295,560	100,262	-0,186	-0,149
296,574	-125,428	-0,127	-0,013
297,589	55,204	-0,106	-0,070
298,603	150,538	-0,172	-0,161
299,618	219,678	-0,078	-0,086
300,633	-10,560	-0,032	-0,015
301,647	-125,685	-0,151	-0,016
302,662	-91,674	-0,318	-0,062
303,676	116,894	-0,111	-0,093
304,691	-129,529	-0,155	-0,015
305,706	240,376	-0,072	-0,083
306,720	91,545	-0,182	-0,141
307,735	716,569	-0,052	-0,096
308,749	-200,000	-0,018	-0,132
309,764	39,721	-0,175	-0,108
310,779	-200,000	0,021	-0,104
311,793	-73,872	-0,253	-0,063
312,808	656,122	-0,081	-0,143
313,822	46,828	-0,200	-0,127
314,837	142,613	-0,133	-0,121
315,852	-200,000	-0,000	-0,111
316,866	64,371	-0,058	-0,040
317,881	-127,596	-0,192	0,019
318,895	800,000	-0,053	-0,108
319,910	77,855	-0,259	-0,189
320,925	26,209	-0,158	-0,090
321,939	186,704	-0,114	-0,116
322,954	138,658	-0,081	0,073
323,968	23,505	-0,056	-0,031
324,983	14,422	-0,129	-0,069
325,997	-93,449	-0,235	-0,044
327,012	-200,000	-0,068	-0,206
328,027	295,863	-0,182	-0,229
329,041	800,000	-0,096	-0,240
330,056	590,306	-0,137	-0,233
331,070	8,366	-0,150	-0,077
332,085	27,756	-0,030	0,018
333,100	-200,000	-0,019	-0,093
334,114	256,368	-0,093	-0,110
335,129	-127,160	-0,204	-0,020
336,143	-24,902	-0,172	-0,070
337,158	800,000	-0,060	-0,143
338,173	800,000	-0,053	-0,146
339,187	191,454	-0,150	-0,155
340,202	431,381	-0,094	-0,140
341,216	178,168	-0,170	-0,170
342,231	67,048	-0,169	-0,118
343,246	98,626	-0,154	-0,122
344,260	636,849	-0,121	-0,211
345,275	20,746	-0,149	-0,082
346,289	800,000	-0,058	-0,119
347,304	42,308	0,069	-0,043
348,319	400,577	-0,076	-0,110
349,333	162,505	-0,169	-0,162
350,348	-18,457	-0,218	-0,093
351,362	121,761	-0,223	-0,190
352,377	-200,000	-0,007	-0,088
353,392	800,000	-0,057	-0,133
354,406	-200,000	-0,057	-0,215
355,421	207,091	1310,606	1398,567
356,435	159,299	1470,763	1399,024
