DTS Sentinel unit serial number:	SN410029Multiplexer serial number:	ORYXHardware model number:	OX2-SRSoftware version number:	ORYX F/W v4,00 Oryx Data Collector v3.7.2.0data status	okinstallation	B3 Nyhavnadifferential loss correction	single-endedforward channel	channel 1reverse channel	N/Adate	2023/12/04time	11:27:30forward acquisition time	300,00reverse acquisition time	0,00gamma	499,1914k internal	0,3202k external	0,3202temperature offset calibration	1,0000default loss term (dB/km)	0,3820temperature slope calibration	1,0000multiplexer offset coefficient	1,0000multiplexer slope coefficient	1,0000fibre end	0,00T internal ref (°C)	14,01T ext. ref 1 (°C)	-0,31T ext. ref 2 (°C)	-0,34length (m)	temperature (°C)	Stokes	anti-Stokes-744,400	191,127	-0,327	-0,359
-743,385	-200,000	-0,029	0,199
-742,371	-2,468	-0,241	-0,122
-741,356	-200,000	0,009	0,317
-740,342	-57,621	-0,125	-0,040
-739,327	800,000	0,085	0,196
-738,312	134,529	-0,255	-0,240
-737,298	-200,000	0,012	0,159
-736,283	446,863	-0,194	-0,312
-735,269	800,000	0,099	0,277
-734,254	11,308	-0,148	-0,082
-733,239	-129,229	-0,113	-0,011
-732,225	800,000	-0,091	-0,231
-731,210	-37,982	0,175	0,067
-730,196	800,000	0,038	-0,089
-729,181	9,124	-0,101	-0,055
-728,167	289,004	0,052	-0,068
-727,152	-105,340	0,091	0,015
-726,137	800,000	-0,036	-0,096
-725,123	-35,904	-0,175	-0,068
-724,108	-200,000	-0,026	-0,084
-723,094	315,459	-0,041	-0,057
-722,079	-72,822	-0,182	-0,048
-721,064	-65,632	-0,032	0,009
-720,050	-123,815	0,113	0,013
-719,035	800,000	0,020	-0,052
-718,021	-200,000	0,026	-0,149
-717,006	-163,960	-0,119	-0,004
-715,991	39,922	0,047	-0,031
-714,977	367,059	-0,087	-0,128
-713,962	800,000	-0,019	-0,040
-712,948	585,224	0,051	0,091
-711,933	-200,000	0,011	0,106
-710,918	635,302	-0,015	-0,028
-709,904	-200,000	-0,010	0,128
-708,889	-129,189	-0,115	-0,012
-707,875	264,268	-0,047	-0,059
-706,860	481,396	-0,030	0,049
-705,845	155,230	0,056	-0,056
-704,831	-100,665	0,117	0,021
-703,816	-81,876	-0,050	0,012
-702,802	-200,000	-0,001	-0,008
-701,787	197,808	0,057	-0,064
-700,772	-200,000	-0,007	-0,026
-699,758	-200,000	0,039	0,199
-698,743	-200,000	0,008	-0,078
-697,729	-137,666	0,140	-0,011
-696,714	-200,000	0,003	0,011
-695,699	-200,000	-0,017	-0,134
-694,685	-200,000	0,012	0,063
-693,670	-98,517	-0,138	-0,025
-692,656	-150,453	0,102	-0,006
-691,641	20,452	-0,071	0,042
-690,627	-7,811	-0,020	0,010
-689,612	-200,000	0,029	-0,132
-688,597	-200,000	-0,012	0,170
-687,583	77,524	-0,059	-0,045
-686,568	800,000	-0,043	-0,112
-685,554	114,703	0,021	-0,018
-684,539	800,000	0,078	0,161
-683,524	-64,014	-0,017	0,005
-682,510	-5,146	-0,026	0,013
-681,495	-152,980	0,062	-0,003
-680,481	357,864	0,080	-0,116
-679,466	-108,924	-0,121	0,019
-678,451	38,596	-0,049	-0,031
-677,437	-188,584	-0,124	0,001
-676,422	-10,275	0,105	0,050
-675,408	108,061	-0,086	0,074
-674,393	77,052	-0,062	0,048
-673,378	51,177	-0,031	-0,021
-672,364	800,000	-0,023	-0,068
-671,349	54,937	0,110	-0,077
-670,335	75,789	-0,070	0,053
-669,320	409,374	0,014	-0,021
-668,305	800,000	0,026	0,059
-667,291	-200,000	0,022	-0,086
-666,276	583,517	0,021	-0,038
-665,262	-9,646	-0,095	-0,046
-664,247	-200,000	0,040	-0,143
-663,232	-176,124	-0,116	0,002
-662,218	45,671	-0,075	0,050
-661,203	3,285	0,045	-0,024
-660,189	121,817	0,091	0,082
-659,174	-200,000	0,010	0,037
-658,159	-200,000	-0,017	-0,109
-657,145	263,448	0,045	-0,057
-656,130	-175,220	0,035	0,001
-655,116	251,046	0,126	0,155
-654,101	394,812	0,058	0,088
-653,086	800,000	-0,025	0,063
-652,072	261,323	0,062	-0,078
-651,057	800,000	-0,064	-0,166
-650,043	120,795	-0,058	-0,052
-649,028	-40,226	-0,126	0,047
-648,014	-200,000	-0,008	0,034
-646,999	104,976	-0,061	-0,052
-645,984	-200,000	0,020	-0,090
-644,970	549,440	-0,040	-0,070
-643,955	800,000	-0,004	-0,013
-642,941	-195,996	0,110	0,001
-641,926	-200,000	0,025	0,082
-640,911	-200,000	-0,039	0,148
-639,897	-60,715	0,086	0,026
-638,882	-11,434	0,192	-0,091
-637,868	65,141	-0,148	-0,108
-636,853	-104,467	0,021	0,003
-635,838	-1,029	-0,037	-0,019
-634,824	800,000	0,041	-0,114
-633,809	352,767	0,043	0,062
-632,795	305,799	0,076	0,103
-631,780	-200,000	-0,002	0,022
-630,765	90,493	0,068	-0,055
-629,751	455,431	-0,111	-0,179
-628,736	-75,861	-0,050	0,013
-627,722	-56,545	0,044	0,014
-626,707	-30,575	-0,063	0,026
-625,692	-200,000	0,007	-0,108
-624,678	-43,073	0,082	-0,030
-623,663	-200,000	0,015	0,054
-622,649	-97,859	0,086	0,016
-621,634	11,844	-0,114	-0,063
-620,619	10,494	0,063	0,035
-619,605	-80,320	-0,077	0,018
-618,590	-30,461	0,117	-0,048
-617,576	447,494	0,021	0,033
-616,561	-72,504	0,014	0,004
-615,546	722,571	-0,133	-0,258
-614,532	370,087	-0,033	-0,048
-613,517	-145,135	-0,076	-0,005
-612,503	613,540	-0,021	-0,037
-611,488	641,347	-0,015	0,028
-610,474	-81,718	-0,037	-0,009
-609,459	571,734	-0,023	0,040
-608,444	-200,000	-0,011	-0,093
-607,430	-101,550	-0,037	0,006
-606,415	254,602	-0,027	-0,033
-605,401	-96,261	-0,043	-0,008
-604,386	-200,000	-0,015	-0,162
-603,371	79,778	0,071	0,055
-602,357	-200,000	0,017	0,096
-601,342	228,169	0,050	-0,059
-600,328	800,000	0,020	-0,054
-599,313	-40,713	-0,056	-0,021
-598,298	-200,000	-0,024	-0,111
-597,284	106,438	0,118	0,101
-596,269	376,699	0,027	-0,040
-595,255	93,921	0,053	0,044
-594,240	800,000	0,053	-0,130
-593,225	-166,845	-0,125	-0,004
-592,211	49,846	-0,151	-0,103
-591,196	-200,000	0,016	-0,139
-590,182	-33,721	0,095	-0,038
-589,167	-19,330	0,145	0,065
-588,152	302,549	-0,045	0,060
-587,138	-173,848	0,106	-0,002
-586,123	275,288	-0,087	-0,111
-585,109	-10,696	-0,044	0,021
-584,094	553,971	-0,013	-0,022
-583,079	-111,022	-0,066	0,010
-582,065	299,777	0,028	-0,037
-581,050	110,878	0,015	-0,013
-580,036	397,590	-0,059	0,089
-579,021	60,853	-0,101	0,072
-578,006	-200,000	-0,018	-0,094
-576,992	800,000	0,072	-0,174
-575,977	-200,000	0,028	0,135
-574,963	-51,941	0,151	0,050
-573,948	-200,000	-0,016	-0,100
-572,934	208,754	-0,036	0,041
-571,919	-145,196	0,091	0,006
-570,904	-200,000	0,013	-0,115
-569,890	-200,000	-0,002	-0,133
-568,875	187,858	0,017	-0,019
-567,861	-97,270	-0,146	-0,027
-566,846	-50,784	0,035	0,012
-565,831	112,794	-0,085	0,074
-564,817	72,924	0,039	0,030
-563,802	226,398	-0,067	-0,079
-562,788	800,000	-0,039	-0,103
-561,773	800,000	0,040	-0,081
-560,758	501,500	-0,042	0,070
-559,744	-200,000	-0,007	0,058
-558,729	-200,000	0,039	0,153
-557,715	24,908	-0,052	0,031
-556,700	-78,562	-0,084	0,021
-555,685	800,000	0,019	0,052
-554,671	-105,568	-0,030	0,005
-553,656	-200,000	0,017	-0,067
-552,642	-93,786	0,057	-0,011
-551,627	-79,710	-0,111	-0,027
-550,612	72,898	-0,048	0,036
-549,598	800,000	0,060	-0,173
-548,583	-109,619	-0,084	0,013
-547,569	-38,542	-0,095	0,036
-546,554	224,712	0,099	0,116
-545,539	140,151	-0,022	-0,021
-544,525	93,400	-0,079	0,065
-543,510	-200,000	0,027	0,116
-542,496	79,357	-0,015	-0,012
-541,481	119,465	-0,156	-0,140
-540,466	-119,573	-0,045	-0,006
-539,452	-63,871	0,078	0,023
-538,437	-200,000	-0,004	0,077
-537,423	-58,149	0,124	-0,039
-536,408	-113,797	0,091	-0,013
-535,393	-20,253	-0,086	-0,038
-534,379	105,288	-0,074	0,063
-533,364	-119,534	0,072	0,009
-532,350	-154,122	0,203	0,010
-531,335	315,147	-0,063	0,085
-530,321	135,669	-0,068	0,064
-529,306	-144,049	0,118	0,008
-528,291	196,269	-0,105	0,115
-527,277	123,416	0,070	-0,063
-526,262	-200,000	-0,020	0,070
-525,248	-15,194	-0,048	0,022
-524,233	160,271	-0,059	0,060
-523,218	-200,000	0,016	0,194
-522,204	5,353	-0,083	-0,044
-521,189	-12,006	0,085	-0,040
-520,175	647,694	-0,019	-0,036
-519,160	103,572	-0,143	-0,121
-518,145	-200,000	-0,001	-0,026
-517,131	-64,938	0,130	0,038
-516,116	44,534	-0,035	-0,023
-515,102	-200,000	0,026	-0,088
-514,087	149,456	-0,085	-0,083
-513,072	-22,486	-0,168	-0,073
-512,058	47,495	0,087	0,058
-511,043	110,157	-0,039	0,034
-510,029	800,000	-0,054	-0,134
-509,014	-200,000	-0,006	0,081
-507,999	-98,057	-0,196	-0,036
-506,985	-8,259	0,090	0,044
-505,970	8,619	0,101	-0,055
-504,956	77,471	0,082	-0,063
-503,941	192,896	-0,038	0,041
-502,926	-113,968	0,185	0,026
-501,912	800,000	-0,038	-0,082
-500,897	800,000	-0,045	0,135
-499,883	169,241	-0,032	-0,033
-498,868	-19,237	-0,151	0,067
-497,853	800,000	0,043	-0,118
-496,839	-113,893	0,086	0,012
-495,824	-75,457	-0,075	0,019
-494,810	-60,517	-0,021	-0,006
-493,795	-141,855	-0,044	-0,003
-492,781	-74,902	-0,108	-0,028
-491,766	609,363	0,088	0,160
-490,751	800,000	-0,059	-0,139
-489,737	-200,000	-0,009	-0,137
-488,722	-200,000	0,003	-0,060
-487,708	-200,000	0,018	0,127
-486,693	-23,873	0,056	0,024
-485,678	-156,218	-0,033	0,001
-484,664	800,000	-0,053	-0,143
-483,649	-164,379	-0,152	0,005
-482,635	87,494	0,082	-0,065
-481,620	-200,000	0,011	-0,050
-480,605	800,000	0,023	0,069
-479,591	-200,000	0,007	0,076
-478,576	348,167	-0,002	-0,003
-477,562	800,000	-0,049	-0,139
-476,547	236,847	-0,020	-0,023
-475,532	30,034	0,047	0,029
-474,518	800,000	-0,046	-0,108
-473,503	-200,000	-0,010	0,129
-472,489	-6,414	-0,057	-0,028
-471,474	-173,953	-0,164	0,003
-470,459	-200,000	-0,055	0,190
-469,445	800,000	-0,070	-0,145
-468,430	72,070	-0,105	0,078
-467,416	-200,000	-0,005	0,119
-466,401	163,088	0,114	0,115
-465,386	-200,000	0,010	0,046
-464,372	-200,000	0,034	0,127
-463,357	-72,884	-0,093	-0,024
-462,343	314,819	0,066	-0,090
-461,328	-108,102	-0,057	-0,009
-460,313	124,682	0,106	0,096
-459,299	-127,157	-0,049	-0,005
-458,284	394,360	0,047	0,071
-457,270	228,461	-0,048	-0,056
-456,255	-95,902	0,064	0,012
-455,241	791,014	-0,065	-0,128
-454,226	-200,000	0,011	-0,155
-453,211	-126,421	-0,097	-0,010
-452,197	114,915	0,024	-0,021
-451,182	205,494	0,039	-0,044
-450,168	98,783	0,099	0,082
-449,153	-200,000	-0,004	0,061
-448,138	-200,000	-0,002	0,013
-447,124	7,600	0,140	-0,075
-446,109	70,292	-0,049	0,037
-445,095	-103,627	0,095	0,016
-444,080	800,000	0,019	0,047
-443,065	-200,000	-0,021	0,113
-442,051	800,000	0,030	-0,061
-441,036	304,486	0,112	0,150
-440,022	166,722	-0,176	-0,180
-439,007	-75,275	0,160	0,041
-437,992	800,000	0,041	-0,104
-436,978	-200,000	0,009	0,161
-435,963	-200,000	-0,022	0,078
-434,949	-200,000	-0,008	-0,027
-433,934	432,493	-0,022	-0,034
-432,919	-200,000	-0,001	0,003
-431,905	-123,924	-0,158	-0,018
-430,890	-9,521	0,133	-0,063
-429,876	18,673	0,038	0,022
-428,861	24,600	-0,066	-0,039
-427,846	-200,000	0,002	-0,030
-426,832	167,190	-0,050	-0,051
-425,817	800,000	0,032	-0,085
-424,803	228,246	-0,079	-0,093
-423,788	-98,602	-0,071	-0,013
-422,773	256,564	0,035	0,043
-421,759	34,819	0,067	-0,042
-420,744	-117,232	-0,125	0,016
-419,730	-85,736	-0,113	0,025
-418,715	-0,145	-0,083	-0,042
-417,701	430,627	-0,050	0,078
-416,686	166,871	0,065	0,066
-415,671	800,000	-0,030	-0,081
-414,657	445,132	-0,034	0,054
-413,642	-73,231	-0,099	-0,026
-412,628	192,559	0,080	0,086
-411,613	-105,018	-0,086	-0,014
-410,598	-3,374	-0,079	-0,039
-409,584	-200,000	-0,024	-0,099
-408,569	-76,365	0,141	-0,035
-407,555	181,755	-0,049	0,052
-406,540	-27,374	0,206	-0,086
-405,525	-200,000	-0,027	0,105
-404,511	-13,041	0,042	-0,020
-403,496	354,620	0,028	0,040
-402,482	53,365	0,112	-0,077
-401,467	-200,000	-0,021	-0,104
-400,452	-200,000	0,012	-0,087
-399,438	-87,478	0,038	-0,008
-398,423	260,145	-0,038	-0,047
-397,409	695,124	0,047	-0,089
-396,394	361,785	-0,021	-0,030
-395,379	800,000	0,041	0,093
-394,365	712,579	0,049	0,093
-393,350	-200,000	-0,027	0,167
-392,336	-154,332	0,079	-0,004
-391,321	-200,000	0,007	0,067
-390,306	-81,094	0,023	0,005
-389,292	-105,154	-0,063	0,010
-388,277	32,404	0,045	-0,028
-387,263	529,753	0,038	-0,064
-386,248	-200,000	0,020	0,091
-385,233	31,482	0,170	0,104
-384,219	35,375	-0,033	0,021
-383,204	3,358	-0,167	-0,087
-382,190	800,000	0,033	0,101
-381,175	36,830	0,137	-0,087
-380,160	480,173	-0,077	-0,126
-379,146	493,035	-0,023	-0,038
-378,131	161,458	0,087	-0,088
-377,117	197,475	0,042	0,046
-376,102	-200,000	0,016	-0,055
-375,088	-143,269	-0,108	0,007
-374,073	382,505	-0,047	0,070
-373,058	-90,796	-0,060	0,012
-372,044	-200,000	-0,001	0,024
-371,029	-153,515	-0,040	0,002
-370,015	-83,211	0,127	-0,029
-369,000	-86,060	-0,040	0,009
-367,985	449,253	-0,066	-0,105
-366,971	223,200	0,109	-0,126
-365,956	-83,341	0,151	-0,035
-364,942	456,109	-0,049	0,078
-363,927	-200,000	-0,026	0,177
-362,912	101,476	0,037	0,031
-361,898	-78,897	0,087	-0,021
-360,883	-200,000	0,004	-0,014
-359,869	82,666	-0,140	-0,108
-358,854	-200,000	0,023	0,093
-357,839	800,000	0,045	0,099
-356,825	-200,000	-0,027	0,102
-355,810	108,753	0,044	0,037
-354,796	-85,531	0,095	-0,021
-353,781	380,209	0,015	0,023
-352,766	26,218	-0,090	0,054
-351,752	800,000	-0,013	-0,037
-350,737	-10,746	0,086	0,041
-349,723	-200,000	0,030	-0,129
-348,708	800,000	-0,023	0,063
-347,693	-200,000	-0,018	0,185
-346,679	-200,000	-0,001	-0,073
-345,664	-139,985	0,133	-0,010
-344,650	169,981	0,070	0,071
-343,635	-200,000	-0,003	0,084
-342,620	324,812	0,025	-0,034
-341,606	-200,000	0,004	0,053
-340,591	-77,078	0,051	-0,013
-339,577	771,105	0,069	0,136
-338,562	526,005	-0,067	-0,114
-337,548	209,213	-0,073	0,082
-336,533	-200,000	0,044	0,143
-335,518	200,533	0,081	-0,089
-334,504	-100,897	-0,060	-0,010
-333,489	107,876	-0,049	-0,041
-332,475	-200,000	0,049	0,156
-331,460	-200,000	-0,036	0,131
-330,445	602,708	-0,092	-0,164
-329,431	-170,094	0,115	0,003
-328,416	282,900	-0,028	0,036
-327,402	-200,000	0,059	0,201
-326,387	-125,059	0,108	-0,012
-325,372	354,415	-0,098	-0,139
-324,358	2,960	0,048	-0,025
-323,343	381,222	0,034	-0,050
-322,329	-28,411	0,203	-0,083
-321,314	12,170	-0,116	0,063
-320,299	-200,000	-0,002	-0,045
-319,285	236,915	-0,073	0,087
-318,270	13,727	0,129	0,071
-317,256	-200,000	0,015	-0,054
-316,241	800,000	-0,060	0,140
-315,226	-137,677	-0,054	0,004
-314,212	-130,371	-0,141	0,014
-313,197	800,000	-0,054	-0,128
-312,183	-200,000	-0,012	0,065
-311,168	-200,000	-0,002	-0,014
-310,153	-21,550	-0,176	0,077
-309,139	25,027	-0,073	-0,043
-308,124	-200,000	0,004	-0,078
-307,110	239,912	0,051	0,061
-306,095	147,294	-0,086	0,083
-305,080	-81,509	0,086	0,020
-304,066	11,726	-0,155	-0,085
-303,051	-200,000	-0,030	-0,100
-302,037	800,000	-0,019	-0,043
-301,022	-200,000	0,008	0,085
-300,008	-78,320	-0,088	0,021
-298,993	385,941	-0,035	0,052
-297,978	-200,000	0,021	0,165
-296,964	42,574	0,020	0,013
-295,949	-200,000	0,012	-0,047
-294,935	-200,000	-0,001	-0,021
-293,920	800,000	0,028	-0,074
-292,905	112,753	0,124	-0,108
-291,891	-200,000	-0,015	-0,121
-290,876	152,662	-0,076	-0,074
-289,862	146,132	0,153	-0,146
-288,847	289,987	0,108	-0,141
-287,832	-200,000	0,011	0,075
-286,818	297,074	0,066	-0,087
-285,803	800,000	0,009	-0,024
-284,789	-94,510	0,129	-0,025
-283,774	162,637	0,029	-0,029
-282,759	78,930	-0,120	-0,092
-281,745	-118,994	-0,041	-0,005
-280,730	-200,000	-0,019	-0,099
-279,716	800,000	-0,055	0,138
-278,701	91,181	0,087	0,070
-277,686	-200,000	-0,004	0,137
-276,672	-14,311	0,147	0,067
-275,657	8,389	0,092	-0,049
-274,643	27,039	-0,132	-0,079
-273,628	100,332	-0,019	0,016
-272,613	800,000	0,041	-0,093
-271,599	37,266	0,037	-0,023
-270,584	-200,000	-0,012	-0,091
-269,570	-200,000	0,007	0,143
-268,555	218,272	0,063	-0,072
-267,540	-200,000	0,023	-0,110
-266,526	78,731	0,083	0,064
-265,511	800,000	-0,027	0,082
-264,497	-169,415	0,116	-0,003
-263,482	689,559	-0,013	0,025
-262,467	632,430	0,092	-0,168
-261,453	474,570	0,091	-0,146
-260,438	170,274	-0,077	-0,078
-259,424	71,809	-0,079	-0,059
-258,409	275,112	-0,008	0,010
-257,395	-63,196	-0,037	0,011
-256,380	-200,000	0,026	-0,118
-255,365	27,796	0,040	-0,024
-254,351	800,000	0,023	-0,046
-253,336	-69,368	0,070	0,019
-252,322	-136,894	-0,033	0,003
-251,307	85,254	-0,011	0,008
-250,292	76,947	0,065	0,049
-249,278	-200,000	-0,031	0,111
-248,263	-200,000	0,030	0,179
-247,249	599,420	0,038	0,067
-246,234	-200,000	0,011	0,046
-245,219	519,245	-0,073	0,122
-244,205	-69,376	0,096	-0,026
-243,190	-126,728	-0,197	0,021
-242,176	800,000	-0,064	0,184
-241,161	33,516	0,167	0,103
-240,146	800,000	0,013	0,039
-239,132	-22,082	0,059	-0,025
-238,117	800,000	0,017	0,046
-237,103	129,256	0,021	-0,019
-236,088	-12,653	-0,055	-0,026
-235,073	5,909	0,155	0,082
-234,059	-103,870	-0,045	-0,007
-233,044	241,531	0,046	0,055
-232,030	-200,000	-0,021	-0,085
-231,015	364,964	0,075	-0,108
-230,000	54,045	-0,104	-0,071
-228,986	-200,000	-0,019	-0,081
-227,971	-200,000	-0,025	0,097
-226,957	726,132	0,048	-0,092
-225,942	-200,000	-0,007	0,047
-224,927	-58,120	-0,030	-0,009
-223,913	800,000	-0,040	-0,092
-222,898	-79,015	-0,137	-0,033
-221,884	-200,000	0,000	-0,016
-220,869	-93,327	0,065	-0,013
-219,855	-124,476	0,040	0,004
-218,840	349,924	-0,098	0,139
-217,825	151,438	-0,079	0,077
-216,811	800,000	0,021	-0,063
-215,796	800,000	-0,036	-0,081
-214,782	141,066	-0,097	-0,091
-213,767	-47,389	-0,031	-0,011
-212,752	800,000	0,071	0,142
-211,738	502,361	-0,050	-0,082
-210,723	-200,000	0,010	0,035
-209,709	21,018	-0,183	-0,106
-208,694	48,894	0,107	-0,071
-207,679	-200,000	-0,041	0,144
-206,665	25,911	-0,025	0,015
-205,650	-140,845	0,044	-0,003
-204,636	-200,000	0,047	0,241
-203,621	-72,411	0,117	-0,031
-202,606	800,000	-0,040	0,082
-201,592	78,257	-0,100	0,076
-200,577	-13,101	-0,065	-0,030
-199,563	458,088	0,071	-0,112
-198,548	-200,000	0,008	-0,063
-197,533	-200,000	-0,003	0,072
-196,519	-200,000	0,004	0,041
-195,504	643,463	-0,034	-0,063
-194,490	683,783	-0,034	-0,063
-193,475	72,588	0,086	0,064
-192,460	-200,000	0,012	0,097
-191,446	-200,000	0,005	0,163
-190,431	-200,000	-0,015	0,153
-189,417	-200,000	-0,008	0,069
-188,402	40,710	-0,124	0,080
-187,387	-200,000	0,012	-0,057
-186,373	-200,000	-0,004	-0,130
-185,358	800,000	0,058	-0,124
-184,344	-58,784	-0,041	-0,012
-183,329	630,858	-0,101	0,183
-182,315	8,333	-0,098	0,052
-181,300	800,000	-0,029	-0,073
-180,285	-200,000	0,002	-0,065
-179,271	800,000	0,016	0,045
-178,256	-31,414	-0,135	0,054
-177,242	-121,634	0,101	-0,012
-176,227	-54,196	0,104	0,033
-175,212	-200,000	-0,038	0,168
-174,198	-27,147	0,051	0,021
-173,183	149,614	0,067	-0,064
-172,169	-200,000	0,003	0,157
-171,154	125,032	0,070	-0,063
-170,139	34,997	0,139	-0,086
-169,125	154,263	-0,084	-0,082
-168,110	265,681	0,078	0,097
-167,096	308,695	0,061	0,081
-166,081	-71,235	0,045	-0,012
-165,066	-81,857	-0,150	0,035
-164,052	-44,860	-0,080	0,028
-163,037	319,653	-0,026	-0,035
-162,023	-101,346	0,079	0,014
-161,008	163,250	0,129	0,129
-159,993	-95,416	-0,111	-0,021
-158,979	-85,258	-0,138	0,030
-157,964	-120,826	0,087	-0,010
-156,950	-101,576	0,091	-0,016
-155,935	-200,000	-0,006	-0,028
-154,920	477,528	0,083	0,134
-153,906	-134,716	0,112	0,010
-152,891	-200,000	-0,011	0,077
-151,877	-168,188	0,132	-0,004
-150,862	174,858	0,028	0,029
-149,847	-200,000	0,021	-0,128
-148,833	-115,709	0,200	0,026
-147,818	160,794	-0,055	0,054
-146,804	433,556	0,130	0,201
-145,789	-200,000	0,001	0,075
-144,775	555,944	-0,040	-0,069
-143,760	-200,000	-0,023	-0,077
-142,745	225,197	0,072	-0,083
-141,731	-200,000	0,041	-0,139
-140,716	203,303	0,048	0,053
-139,702	-81,655	-0,100	0,023
-138,687	-200,000	-0,006	0,074
-137,672	-132,755	0,064	0,006
-136,658	-200,000	0,014	0,075
-135,643	117,742	-0,068	-0,060
-134,629	-59,895	-0,042	0,013
-133,614	800,000	0,005	-0,012
-132,599	-148,562	0,111	-0,006
-131,585	414,640	-0,005	-0,008
-130,570	266,681	-0,032	-0,039
-129,556	-200,000	-0,009	-0,031
-128,541	-27,659	0,160	-0,066
-127,526	55,505	-0,067	-0,046
-126,512	444,804	0,027	0,042
-125,497	-86,628	0,068	0,015
-124,483	-69,658	-0,046	0,012
-123,468	-200,000	0,030	0,141
-122,453	800,000	-0,052	-0,126
-121,439	-43,464	0,054	-0,019
-120,424	124,848	0,041	-0,037
-119,410	-200,000	0,005	0,123
-118,395	-2,159	-0,059	-0,029
-117,380	628,837	-0,026	0,047
-116,366	22,125	0,047	-0,027
-115,351	-174,213	-0,011	-0,000
-114,337	279,129	-0,032	-0,041
-113,322	766,329	0,104	0,202
-112,307	-72,875	0,098	0,025
-111,293	-43,374	-0,039	0,014
-110,278	64,799	0,112	0,080
-109,264	215,180	0,119	0,134
-108,249	266,249	0,066	-0,082
-107,234	479,783	-0,080	-0,129
-106,220	113,586	-0,174	-0,150
-105,205	-200,000	0,052	-0,219
-104,191	-102,619	0,103	0,017
-103,176	66,518	-0,070	0,051
-102,162	-48,112	0,064	-0,022
-101,147	125,526	-0,090	-0,081
-100,132	626,815	-0,036	-0,064
-99,118	497,708	-0,039	0,063
-98,103	-44,140	-0,166	0,059
-97,089	47,332	0,017	-0,011
-96,074	-126,675	0,039	0,004
-95,059	144,254	0,089	0,084
-94,045	-200,000	-0,012	0,045
-93,030	800,000	-0,035	-0,091
-92,016	-50,066	-0,045	-0,015
-91,001	-100,004	-0,116	0,020
-89,986	-8,690	0,175	-0,083
-88,972	417,564	-0,054	0,082
-87,957	162,957	0,007	-0,007
-86,943	-29,570	0,096	-0,039
-85,928	657,208	0,051	0,094
-84,913	149,042	-0,094	-0,090
-83,899	42,349	-0,076	-0,049
-82,884	-109,552	0,053	-0,008
-81,870	800,000	0,101	0,202
-80,855	214,916	-0,036	0,040
-79,840	-50,681	0,081	0,027
-78,826	-200,000	-0,046	-0,164
-77,811	165,065	-0,049	-0,049
-76,797	79,246	0,032	-0,025
-75,782	-139,978	-0,046	-0,003
-74,767	104,039	0,083	0,069
-73,753	-200,000	-0,042	0,174
-72,738	800,000	-0,015	0,031
-71,724	103,843	0,142	0,118
-70,709	468,361	-0,025	0,040
-69,694	-24,740	0,103	-0,043
-68,680	86,013	0,103	0,080
-67,665	800,000	0,042	0,118
-66,651	49,847	0,080	0,053
-65,636	-63,675	0,159	0,046
-64,622	-146,384	-0,036	0,002
-63,607	800,000	0,038	-0,089
-62,592	30,676	-0,075	-0,045
-61,578	-200,000	0,003	-0,014
-60,563	-178,724	-0,109	0,002
-59,549	-45,661	0,146	0,051
-58,534	-52,299	-1,655	-0,539
-57,519	406,718	-1,399	-2,098
-56,505	-200,000	-0,530	-4,454
-55,490	207,924	1,043	1,154
-54,476	800,000	4,811	11,141
-53,461	-200,000	18,723	305,635
-52,446	800,000	736,707	2293,000
-51,432	566,953	1652,308	2849,539
-50,417	78,902	1669,480	1263,281
-49,403	21,958	1542,396	887,711
-48,388	15,885	1465,086	813,741
-47,373	17,746	1455,173	817,182
-46,359	16,844	1445,501	807,395
-45,344	14,105	1440,885	791,685
-44,330	14,056	1439,045	790,407
-43,315	14,015	1437,350	789,251
-42,300	14,093	1435,728	788,701
-41,286	14,124	1434,391	788,080
-40,271	14,089	1432,925	787,079
-39,257	14,033	1431,846	786,186
-38,242	14,112	1430,433	785,756
-37,227	14,131	1429,378	785,236
-36,213	14,167	1427,871	784,548
-35,198	14,113	1426,912	783,733
-34,184	14,145	1425,780	783,234
-33,169	14,083	1424,618	782,269
-32,154	14,142	1423,707	782,017
-31,140	14,157	1422,136	781,196
-30,125	14,141	1421,022	780,478
-29,111	14,133	1420,109	779,905
-28,096	14,063	1419,028	778,951
-27,082	14,099	1417,706	778,364
-26,067	14,038	1416,820	777,558
-25,052	13,992	1415,787	776,743
-24,038	13,986	1414,759	776,121
-23,023	13,999	1413,688	775,567
-22,009	13,978	1412,847	774,974
-20,994	14,005	1411,793	774,491
-19,979	14,006	1410,898	773,977
-18,965	13,987	1410,017	773,370
-17,950	13,925	1409,062	772,526
-16,936	13,937	1408,189	772,073
-15,921	13,963	1406,846	771,426
-14,906	13,950	1406,147	770,955
-13,892	13,928	1405,137	770,265
-12,877	13,945	1404,383	769,902
-11,863	13,946	1403,467	769,376
-10,848	13,935	1402,437	768,727
-9,833	13,901	1401,604	768,084
-8,819	13,855	1400,989	767,501
-7,804	13,833	1399,846	766,742
-6,790	13,865	1398,775	766,272
-5,775	13,871	1397,568	765,608
-4,760	13,896	1396,657	765,197
-3,746	13,867	1396,027	764,686
-2,731	13,816	1395,245	763,991
-1,717	13,783	1394,466	763,383
-0,702	13,802	1392,600	762,418
0,313	17,702	1310,348	735,428
1,327	34,114	705,408	433,879
2,342	52,270	124,132	83,587
3,356	1,379	16,647	8,434
4,371	11,376	3,280	1,771
5,386	118,508	0,331	0,288
6,400	161,237	0,159	0,157
7,415	43,990	-0,209	-0,135
8,429	66,350	-0,288	-0,207
9,444	-3,832	-0,318	-0,155
10,459	156,341	-0,267	-0,261
11,473	48,287	-0,219	-0,145
12,488	57,395	-0,212	-0,146
13,502	-4,695	-0,315	-0,153
14,517	43,034	-0,258	-0,166
15,531	141,974	-0,279	-0,261
16,546	154,571	-0,191	-0,186
17,561	53,240	-0,229	-0,155
18,575	341,697	-0,116	-0,160
19,590	247,373	-0,162	-0,194
20,604	-104,641	-0,276	0,044
21,619	-24,406	-0,536	-0,224
22,634	68,443	-0,527	-0,381
23,648	72,797	-0,362	-0,267
24,663	55,334	-0,330	-0,225
25,677	328,812	-0,225	-0,306
26,692	23,913	-0,223	-0,129
27,707	-18,549	-0,526	-0,231
28,721	153,282	-0,232	-0,224
29,736	4,620	-0,521	-0,269
30,750	188,500	-0,358	-0,378
31,765	23,791	-0,326	-0,189
32,780	305,605	-0,250	-0,328
33,794	-46,984	-0,340	-0,116
34,809	70,334	-0,343	-0,250
35,823	-10,955	-0,405	-0,188
36,838	191,144	-0,361	-0,384
37,853	128,407	-0,229	-0,206
38,867	-124,725	-0,421	-0,045
39,882	284,646	-0,258	-0,328
40,896	48,435	-0,238	-0,157
41,911	10,302	-0,301	-0,161
42,926	15,448	-0,409	-0,226
43,940	0,410	-0,367	-0,184
44,955	-25,616	-0,406	-0,168
45,969	11,065	-0,384	-0,206
46,984	94,156	-0,270	-0,216
47,999	252,857	-0,239	-0,288
49,013	56,977	-0,403	-0,276
50,028	56,487	-0,361	-0,247
51,042	41,230	-0,421	-0,267
52,057	107,623	-0,368	-0,309
53,071	192,721	-0,303	-0,322
54,086	49,989	-0,266	-0,176
55,101	119,452	-0,215	-0,188
56,115	15,919	-0,477	-0,264
57,130	396,590	-0,219	-0,322
58,144	-18,993	-0,455	-0,198
59,159	-39,691	-0,549	-0,201
60,174	59,538	-0,329	-0,228
61,188	210,435	-0,308	-0,340
62,203	101,071	-0,325	-0,266
63,217	75,701	-0,315	-0,234
64,232	25,644	-0,253	-0,148
65,247	212,521	-0,297	-0,330
66,261	75,805	-0,390	-0,290
67,276	145,767	-0,343	-0,323
68,290	243,682	-0,246	-0,291
69,305	119,417	-0,271	-0,236
70,320	135,244	-0,222	-0,203
71,334	-50,554	-0,477	-0,157
72,349	45,430	-0,266	-0,173
73,363	98,032	-0,229	-0,185
74,378	45,511	-0,420	-0,272
75,393	86,882	-0,372	-0,288
76,407	63,874	-0,318	-0,224
77,422	74,997	-0,231	-0,171
78,436	-141,681	-0,265	-0,018
79,451	-124,743	-0,306	-0,033
80,466	-15,963	-0,294	-0,131
81,480	13,658	-0,256	-0,139
82,495	341,084	-0,174	-0,239
83,509	26,394	-0,292	-0,171
84,524	800,000	-0,190	-0,379
85,539	-67,666	-0,295	-0,080
86,553	-103,942	-0,274	-0,044
87,568	234,228	-0,196	-0,227
88,582	19,986	-0,337	-0,190
89,597	-8,353	-0,332	-0,156
90,611	-63,963	-0,189	-0,054
91,626	14,094	-0,308	-0,168
92,641	48,840	-0,272	-0,179
93,655	-15,908	-0,289	-0,129
94,670	-32,353	-0,346	-0,135
95,684	153,275	-0,282	-0,271
96,699	233,895	-0,168	-0,194
97,714	126,582	-0,247	-0,220
98,728	62,678	-0,276	-0,194
99,743	-2,042	-0,173	-0,085
100,757	44,156	-0,274	-0,176
101,772	36,228	-0,382	-0,235
102,787	164,764	-0,145	-0,144
103,801	27,903	-0,400	-0,236
104,816	280,418	-0,293	-0,368
105,830	116,004	-0,302	-0,259
106,845	90,127	-0,112	-0,088
107,860	-15,685	-0,231	-0,103
108,874	-60,169	-0,344	-0,102
109,889	162,885	-0,275	-0,270
110,903	57,304	-0,222	-0,152
111,918	-143,446	-0,198	-0,013
112,933	206,586	-0,192	-0,210
113,947	-15,829	-0,261	-0,116
114,962	81,419	-0,188	-0,142
115,976	90,622	-0,267	-0,209
116,991	10,262	-0,289	-0,154
118,006	84,158	-0,281	-0,215
119,020	39,226	-0,247	-0,154
120,035	107,976	-0,317	-0,264
121,049	119,678	-0,238	-0,207
122,064	9,515	-0,265	-0,140
123,079	148,301	-0,244	-0,231
124,093	47,509	-0,305	-0,199
125,108	-19,091	-0,251	-0,109
126,122	-5,662	-0,255	-0,122
127,137	-79,769	-0,239	-0,056
128,151	157,162	-0,190	-0,184
129,166	204,997	-0,222	-0,242
130,181	-31,620	-0,177	-0,069
131,195	83,594	-0,209	-0,159
132,210	84,228	-0,266	-0,203
133,224	70,779	-0,264	-0,191
134,239	-70,403	-0,144	-0,038
135,254	9,843	-0,261	-0,138
136,268	125,055	-0,172	-0,151
137,283	190,127	-0,217	-0,228
138,297	3,108	-0,267	-0,135
139,312	45,765	-0,375	-0,242
140,327	94,568	-0,194	-0,154
141,341	-15,642	-0,212	-0,094
142,356	46,847	-0,329	-0,213
143,370	235,067	-0,198	-0,228
144,385	-46,533	-0,313	-0,106
145,400	66,239	-0,274	-0,194
146,414	78,942	-0,254	-0,190
147,429	-0,570	-0,385	-0,190
148,443	16,573	-0,284	-0,156
149,458	800,000	-0,106	-0,235
150,473	106,773	-0,281	-0,233
151,487	377,900	-0,184	-0,263
152,502	800,000	-0,094	-0,217
153,516	245,861	-0,249	-0,293
154,531	122,825	-0,280	-0,245
155,546	223,001	-0,183	-0,206
156,560	-7,356	-0,233	-0,109
157,575	-21,724	-0,249	-0,105
158,589	-102,731	-0,236	-0,039
159,604	46,231	-0,350	-0,226
160,619	-35,804	-0,189	-0,071
161,633	259,735	-0,207	-0,250
162,648	321,325	-0,255	-0,339
163,662	800,000	-0,124	-0,276
164,677	188,917	-0,127	-0,132
165,692	-41,032	-0,205	-0,073
166,706	-33,910	-0,313	-0,119
167,721	10,626	-0,296	-0,157
168,735	-38,937	-0,230	-0,084
169,750	19,399	-0,318	-0,178
170,764	3,993	-0,211	-0,107
171,779	111,897	-0,236	-0,199
172,794	523,084	-0,134	-0,220
173,808	-1,844	-0,285	-0,139
174,823	142,283	-0,242	-0,224
175,837	425,611	-0,195	-0,294
176,852	22,515	-0,230	-0,131
177,867	-66,971	-0,243	-0,066
178,881	-93,402	-0,394	-0,075
179,896	-2,940	-0,191	-0,093
180,910	-17,469	-0,239	-0,104
181,925	171,442	-0,265	-0,265
182,940	636,548	-0,158	-0,281
183,954	25,016	-0,231	-0,133
184,969	380,418	-0,163	-0,233
185,983	0,549	-0,145	-0,072
186,998	41,759	-0,191	-0,120
188,013	21,420	-0,191	-0,108
189,027	25,536	-0,287	-0,166
190,042	463,034	-0,181	-0,282
191,056	77,304	-0,237	-0,175
192,071	19,835	-0,102	-0,057
193,086	78,636	-0,232	-0,172
194,100	56,735	-0,149	-0,101
195,115	-68,139	-0,276	-0,074
196,129	723,133	-0,148	-0,276
197,144	189,419	-0,154	-0,161
198,159	333,777	-0,204	-0,275
199,173	56,903	-0,174	-0,118
200,188	512,935	-0,118	-0,193
201,202	352,854	-0,164	-0,226
202,217	199,482	-0,206	-0,219
203,232	62,804	-0,189	-0,132
204,246	87,841	-0,164	-0,126
205,261	53,761	-0,163	-0,108
206,275	207,750	-0,153	-0,166
207,290	800,000	-0,075	-0,157
208,304	-1,345	-0,221	-0,108
209,319	86,561	-0,130	-0,099
210,334	86,669	-0,192	-0,147
211,348	105,818	-0,184	-0,151
212,363	108,032	-0,200	-0,165
213,377	-61,500	-0,189	0,055
214,392	-77,107	-0,223	-0,054
215,407	800,000	-0,066	-0,137
216,421	309,234	-0,076	-0,099
217,436	121,472	-0,239	-0,207
218,450	-200,000	-0,078	-0,239
219,465	-22,720	-0,174	-0,073
220,480	57,913	-0,158	-0,107
221,494	1,273	-0,300	-0,149
222,509	-200,000	0,003	0,047
223,523	-44,666	-0,194	-0,067
224,538	-11,839	-0,203	-0,092
225,553	21,552	-0,293	-0,165
226,567	800,000	-0,132	-0,294
227,582	-7,143	-0,264	-0,124
228,596	-136,256	-0,202	-0,016
229,611	-59,046	-0,219	-0,065
230,626	520,428	-0,078	-0,127
231,640	-125,504	-0,278	-0,029
232,655	3,068	-0,174	-0,088
233,669	-9,376	-0,290	-0,134
234,684	-200,000	-0,059	-0,217
235,699	110,350	-0,117	-0,097
236,713	-41,454	-0,141	-0,050
237,728	21,925	-0,077	-0,044
238,742	172,515	-0,168	-0,167
239,757	54,810	-0,188	-0,125
240,772	256,488	-0,151	-0,180
241,786	40,850	-0,340	-0,212
242,801	62,116	-0,117	-0,081
243,815	432,963	-0,065	-0,098
244,830	268,593	-0,135	-0,164
245,844	-39,276	-0,119	-0,043
246,859	432,996	-0,144	-0,217
247,874	212,982	-0,094	-0,103
248,888	332,813	-0,192	-0,258
249,903	541,622	-0,149	-0,247
250,917	93,020	-0,046	-0,036
251,932	-64,678	-0,189	-0,053
252,947	13,210	-0,228	-0,122
253,961	595,118	-0,137	-0,236
254,976	-52,693	-0,218	-0,069
255,990	-10,008	-0,193	-0,089
257,005	-65,986	-0,309	-0,085
258,020	178,964	-0,101	-0,102
259,034	40,904	-0,144	-0,089
260,049	129,481	-0,149	-0,132
261,063	-29,876	-0,210	-0,082
262,078	-175,446	-0,152	-0,003
263,093	-110,002	-0,137	-0,020
264,107	-12,136	-0,162	-0,073
265,122	55,592	-0,164	-0,110
266,136	-93,639	-0,122	-0,023
267,151	-86,656	-0,109	-0,023
268,166	60,320	-0,052	0,035
269,180	-112,598	-0,125	-0,017
270,195	-29,233	-0,229	-0,090
271,209	115,557	-0,167	-0,141
272,224	240,936	-0,113	-0,130
273,239	-96,051	-0,128	-0,023
274,253	28,897	-0,201	-0,117
275,268	39,488	-0,244	-0,150
276,282	31,052	-0,256	-0,151
277,297	193,398	-0,201	-0,211
278,312	160,125	-0,140	-0,135
279,326	-52,408	-0,146	-0,046
280,341	-140,052	-0,078	0,006
281,355	-27,997	-0,180	-0,072
282,370	-24,942	-0,238	-0,097
283,384	-55,543	-0,119	-0,037
284,399	-103,384	-0,168	-0,027
285,414	155,613	-0,207	-0,197
286,428	-180,275	-0,146	0,002
287,443	34,948	-0,221	-0,133
288,457	-131,095	-0,139	-0,013
289,472	92,268	-0,096	-0,074
290,487	300,261	-0,162	-0,206
291,501	185,339	-0,133	-0,137
292,516	139,629	-0,205	-0,186
293,530	-23,086	-0,160	-0,066
294,545	411,648	-0,098	-0,144
295,560	312,514	-0,058	-0,075
296,574	-103,298	-0,193	0,031
297,589	607,199	-0,108	-0,187
298,603	-27,283	-0,153	0,061
299,618	-200,000	-0,023	-0,189
300,633	177,708	-0,192	-0,193
301,647	-77,439	-0,244	-0,058
302,662	-56,435	-0,208	0,063
303,676	800,000	-0,088	-0,184
304,691	153,535	-0,088	-0,083
305,706	113,940	-0,153	-0,128
306,720	-40,225	-0,157	-0,056
307,735	400,107	-0,149	-0,215
308,749	8,481	-0,112	-0,058
309,764	-200,000	-0,067	-0,263
310,779	800,000	-0,083	-0,180
311,793	5,589	-0,111	-0,056
312,808	163,814	-0,173	-0,168
313,822	66,281	-0,125	-0,088
314,837	-29,387	-0,185	-0,073
315,852	22,805	-0,118	-0,066
316,866	-1,828	-0,104	0,050
317,881	-42,249	-0,123	0,043
318,895	393,805	-0,104	-0,150
319,910	800,000	-0,055	-0,120
320,925	203,379	-0,115	-0,123
321,939	45,672	-0,105	0,066
322,954	495,029	-0,061	-0,096
323,968	241,830	0,081	-0,093
324,983	800,000	-0,041	-0,123
325,997	462,896	-0,045	-0,070
327,012	800,000	-0,032	-0,071
328,027	125,274	-0,148	-0,128
329,041	110,106	-0,025	-0,020
330,056	-200,000	-0,072	-0,224
331,070	142,693	-0,072	-0,065
332,085	175,508	-0,093	-0,093
333,100	168,438	-0,098	-0,096
334,114	-117,990	-0,099	0,012
335,129	-164,534	-0,092	-0,003
336,143	225,171	-0,180	-0,200
337,158	35,786	-0,080	-0,048
338,173	317,771	-0,176	-0,230
339,187	116,687	-0,165	-0,139
340,202	203,890	-0,152	-0,162
341,216	328,975	-0,113	-0,149
342,231	335,926	-0,132	-0,176
343,246	163,444	-0,172	-0,166
344,260	-40,227	-0,200	-0,071
345,275	-103,292	-0,014	-0,002
346,289	800,000	-0,067	-0,148
347,304	-77,803	-0,135	-0,032
348,319	800,000	-0,119	-0,262
349,333	132,187	-0,154	-0,136
350,348	23,739	-0,095	-0,053
351,362	-115,158	-0,092	0,012
352,377	800,000	-0,056	-0,111
353,392	-85,112	0,032	0,007
354,406	-63,823	-0,150	0,042
355,421	207,820	1317,053	1411,975
356,435	159,877	1478,073	1412,459
