DTS Sentinel unit serial number:	SN410029Multiplexer serial number:	ORYXHardware model number:	OX2-SRSoftware version number:	ORYX F/W v4,00 Oryx Data Collector v3.7.2.0data status	okinstallation	B3 Nyhavnadifferential loss correction	single-endedforward channel	channel 1reverse channel	N/Adate	2023/12/04time	07:02:30forward acquisition time	300,00reverse acquisition time	0,00gamma	499,1914k internal	0,3206k external	0,3206temperature offset calibration	1,0000default loss term (dB/km)	0,3820temperature slope calibration	1,0000multiplexer offset coefficient	1,0000multiplexer slope coefficient	1,0000fibre end	0,00T internal ref (°C)	12,12T ext. ref 1 (°C)	-2,52T ext. ref 2 (°C)	-2,56length (m)	temperature (°C)	Stokes	anti-Stokes-744,400	195,606	-0,113	-0,125
-743,385	-200,000	-0,006	0,196
-742,371	572,611	-0,175	-0,311
-741,356	-200,000	0,000	0,254
-740,342	492,809	-0,093	-0,155
-739,327	-200,000	-0,024	0,235
-738,312	611,815	-0,111	-0,202
-737,298	-200,000	0,004	0,213
-736,283	-2,294	-0,194	-0,098
-735,269	-200,000	-0,013	0,214
-734,254	110,508	-0,152	-0,133
-733,239	-105,930	-0,245	0,040
-732,225	-200,000	0,006	-0,224
-731,210	-109,186	0,178	0,027
-730,196	-130,503	-0,023	0,002
-729,181	-10,083	-0,075	0,036
-728,167	800,000	0,022	-0,046
-727,152	-200,000	-0,001	-0,064
-726,137	-200,000	0,003	-0,128
-725,123	-80,902	0,061	-0,015
-724,108	800,000	-0,044	-0,092
-723,094	-67,323	-0,105	0,030
-722,079	800,000	0,051	-0,119
-721,064	-200,000	0,022	0,084
-720,050	104,566	-0,075	-0,064
-719,035	50,043	0,029	-0,020
-718,021	800,000	-0,016	0,041
-717,006	800,000	-0,015	0,040
-715,991	45,297	-0,132	-0,088
-714,977	-135,814	-0,108	0,009
-713,962	-79,607	0,059	-0,014
-712,948	112,491	-0,032	0,028
-711,933	-183,390	0,126	-0,002
-710,918	-200,000	-0,012	-0,138
-709,904	-200,000	-0,051	-0,171
-708,889	-30,443	-0,063	0,026
-707,875	487,070	-0,034	0,056
-706,860	-76,752	-0,057	0,014
-705,845	-200,000	-0,023	-0,115
-704,831	-94,770	0,189	0,037
-703,816	350,295	0,035	-0,050
-702,802	26,777	-0,053	-0,032
-701,787	108,545	-0,063	-0,054
-700,772	-22,644	-0,086	-0,037
-699,758	-200,000	-0,028	-0,130
-698,743	800,000	0,081	0,163
-697,729	-200,000	-0,023	0,144
-696,714	719,145	-0,007	0,014
-695,699	-118,925	-0,118	-0,015
-694,685	-200,000	0,001	-0,021
-693,670	-24,040	-0,129	-0,056
-692,656	-126,005	0,119	0,013
-691,641	800,000	0,032	-0,066
-690,627	-200,000	-0,023	0,188
-689,612	-200,000	0,024	-0,087
-688,597	12,948	-0,144	-0,080
-687,583	-200,000	0,009	-0,085
-686,568	63,213	0,079	-0,057
-685,554	104,808	0,096	-0,082
-684,539	362,482	-0,100	-0,147
-683,524	65,170	-0,065	0,048
-682,510	4,915	-0,085	0,045
-681,495	19,648	-0,078	-0,046
-680,481	147,017	-0,079	-0,077
-679,466	-123,696	-0,205	-0,023
-678,451	-200,000	-0,029	0,142
-677,437	416,039	-0,051	0,079
-676,422	-200,000	0,016	0,055
-675,408	388,992	0,085	0,128
-674,393	-0,894	-0,068	0,035
-673,378	-200,000	0,013	-0,067
-672,364	330,132	-0,101	-0,141
-671,349	800,000	-0,033	-0,083
-670,335	-36,993	-0,054	0,021
-669,320	800,000	0,036	0,109
-668,305	-33,180	0,010	0,004
-667,291	-200,000	-0,011	0,035
-666,276	187,587	-0,048	0,052
-665,262	-200,000	-0,019	-0,064
-664,247	-20,838	-0,097	-0,043
-663,232	-116,440	-0,124	0,016
-662,218	-200,000	0,003	0,090
-661,203	-75,427	0,046	0,012
-660,189	-82,229	0,132	0,031
-659,174	800,000	-0,036	-0,080
-658,159	-55,670	0,068	-0,022
-657,145	427,547	-0,015	-0,023
-656,130	398,224	-0,073	0,111
-655,116	78,485	0,106	-0,082
-654,101	-200,000	-0,029	-0,099
-653,086	-27,785	-0,136	-0,057
-652,072	-200,000	0,021	-0,121
-651,057	800,000	-0,016	-0,045
-650,043	243,712	0,088	0,107
-649,028	225,128	-0,058	0,068
-648,014	800,000	0,035	0,072
-646,999	-200,000	0,015	-0,059
-645,984	-143,823	-0,097	-0,007
-644,970	-104,265	-0,045	0,007
-643,955	-200,000	0,004	-0,111
-642,941	5,736	-0,067	-0,036
-641,926	-112,632	0,053	0,008
-640,911	-130,669	-0,157	-0,015
-639,897	-81,807	0,166	-0,039
-638,882	-200,000	0,008	-0,049
-637,868	-30,926	0,093	-0,038
-636,853	332,308	-0,032	-0,045
-635,838	-159,335	0,092	0,004
-634,824	-39,556	-0,142	0,053
-633,809	800,000	0,013	0,029
-632,795	12,163	0,085	0,047
-631,780	-184,289	-0,072	0,001
-630,765	-104,881	-0,079	-0,013
-629,751	-200,000	-0,002	0,024
-628,736	-69,531	-0,083	-0,023
-627,722	600,741	0,032	0,059
-626,707	179,035	-0,100	-0,105
-625,692	-18,303	-0,046	0,020
-624,678	800,000	0,009	0,017
-623,663	-54,831	-0,029	0,009
-622,649	-200,000	0,015	-0,069
-621,634	17,285	0,043	-0,025
-620,619	-38,743	0,077	0,029
-619,605	-200,000	0,020	-0,115
-618,590	401,884	-0,039	-0,059
-617,576	800,000	0,042	0,122
-616,561	289,191	0,071	-0,094
-615,546	-200,000	-0,010	0,069
-614,532	99,033	-0,053	-0,044
-613,517	67,751	0,086	-0,064
-612,503	-67,956	0,067	0,019
-611,488	-74,737	0,111	-0,029
-610,474	80,067	-0,051	0,039
-609,459	-52,069	0,139	0,046
-608,444	800,000	-0,043	-0,095
-607,430	-102,365	0,026	0,004
-606,415	800,000	0,040	0,124
-605,401	131,699	0,077	-0,071
-604,386	-200,000	-0,002	0,018
-603,371	-91,531	0,046	-0,009
-602,357	-200,000	0,001	-0,118
-601,342	-28,964	-0,100	0,041
-600,328	-22,410	-0,145	-0,063
-599,313	323,760	-0,046	0,063
-598,298	800,000	0,069	0,152
-597,284	-200,000	-0,011	-0,090
-596,269	117,969	-0,031	-0,027
-595,255	297,414	-0,027	-0,036
-594,240	800,000	-0,049	-0,138
-593,225	374,300	-0,051	0,075
-592,211	800,000	0,022	-0,048
-591,196	50,026	-0,046	0,031
-590,182	-72,074	-0,108	-0,029
-589,167	-170,424	-0,045	-0,001
-588,152	118,363	0,097	0,087
-587,138	116,465	-0,149	-0,131
-586,123	671,082	0,029	-0,055
-585,109	-200,000	0,002	0,044
-584,094	-200,000	-0,031	-0,163
-583,079	0,366	0,064	-0,033
-582,065	800,000	0,023	-0,057
-581,050	-87,690	0,087	-0,019
-580,036	-60,185	-0,019	-0,006
-579,021	103,001	-0,082	-0,069
-578,006	89,742	-0,096	-0,077
-576,992	800,000	-0,015	0,036
-575,977	-89,492	-0,045	-0,009
-574,963	313,560	-0,106	0,144
-573,948	-200,000	0,015	0,093
-572,934	63,668	-0,019	-0,014
-571,919	479,682	-0,043	0,071
-570,904	73,492	-0,063	-0,048
-569,890	-200,000	-0,027	-0,212
-568,875	-35,764	0,085	-0,033
-567,861	-51,077	0,066	0,022
-566,846	-12,059	-0,064	0,030
-565,831	-8,155	-0,161	0,078
-564,817	113,108	0,027	-0,023
-563,802	665,783	0,035	0,066
-562,788	-200,000	-0,070	-0,307
-561,773	-35,256	-0,076	-0,030
-560,758	-87,311	0,098	0,021
-559,744	49,759	-0,081	0,055
-558,729	182,042	-0,046	-0,049
-557,715	-54,317	-0,084	0,027
-556,700	-200,000	0,001	-0,192
-555,685	-5,373	0,115	0,057
-554,671	19,650	-0,030	0,017
-553,656	-123,186	0,045	0,005
-552,642	-30,665	0,117	-0,047
-551,627	800,000	-0,006	-0,018
-550,612	800,000	0,045	0,137
-549,598	-200,000	-0,010	-0,100
-548,583	313,131	0,064	-0,087
-547,569	744,494	-0,018	0,036
-546,554	-61,615	0,043	0,013
-545,539	-13,607	-0,041	0,019
-544,525	-40,562	0,100	-0,037
-543,510	-200,000	-0,000	-0,022
-542,496	800,000	0,026	-0,078
-541,481	-200,000	0,014	-0,051
-540,466	-132,196	-0,123	0,011
-539,452	56,086	0,155	-0,108
-538,437	-62,403	-0,042	-0,013
-537,423	-200,000	0,021	0,164
-536,408	-108,656	-0,051	-0,008
-535,393	800,000	-0,013	0,031
-534,379	-107,088	-0,126	-0,020
-533,364	46,833	0,038	-0,025
-532,350	-112,995	0,074	-0,010
-531,335	-67,806	-0,024	-0,007
-530,321	315,873	0,078	0,106
-529,306	800,000	-0,012	0,038
-528,291	287,892	0,077	-0,100
-527,277	195,304	0,047	-0,051
-526,262	-200,000	0,001	-0,113
-525,248	220,696	-0,151	0,174
-524,233	-117,939	0,117	-0,015
-523,218	-200,000	-0,009	0,056
-522,204	-61,557	0,054	0,016
-521,189	-64,883	0,059	0,017
-520,175	800,000	0,008	0,024
-519,160	-67,994	0,028	0,008
-518,145	-200,000	-0,018	0,092
-517,131	-68,406	-0,078	-0,022
-516,116	800,000	-0,027	0,078
-515,102	800,000	-0,008	0,018
-514,087	-200,000	-0,006	0,067
-513,072	800,000	-0,041	0,127
-512,058	-124,856	0,117	0,013
-511,043	221,665	-0,090	-0,105
-510,029	-200,000	0,000	0,146
-509,014	94,560	0,193	0,158
-507,999	-200,000	0,010	0,077
-506,985	481,967	-0,020	-0,032
-505,970	184,671	-0,055	-0,059
-504,956	-200,000	-0,013	-0,138
-503,941	-67,664	-0,103	-0,029
-502,926	-85,322	0,027	-0,006
-501,912	57,628	-0,075	0,053
-500,897	-7,112	0,064	0,031
-499,883	32,797	-0,023	-0,014
-498,868	454,727	0,014	-0,023
-497,853	83,853	-0,065	0,051
-496,839	253,954	-0,045	0,055
-495,824	-141,215	-0,012	-0,001
-494,810	-118,835	0,135	-0,017
-493,795	417,352	0,023	-0,035
-492,781	8,970	-0,063	-0,034
-491,766	7,364	0,047	0,025
-490,751	339,644	-0,059	-0,083
-489,737	800,000	-0,008	-0,023
-488,722	-4,318	0,204	0,101
-487,708	-200,000	-0,015	0,093
-486,693	-200,000	-0,030	0,111
-485,678	-0,526	-0,050	0,025
-484,664	-107,350	-0,021	0,003
-483,649	-11,278	-0,023	0,011
-482,635	69,436	-0,042	0,031
-481,620	74,449	0,098	-0,074
-480,605	-153,738	0,063	-0,003
-479,591	-134,362	-0,024	-0,002
-478,576	800,000	0,042	-0,113
-477,562	658,361	-0,077	-0,142
-476,547	-200,000	-0,037	-0,197
-475,532	111,226	-0,076	-0,066
-474,518	23,325	0,111	0,065
-473,503	800,000	-0,040	0,119
-472,489	800,000	-0,042	0,110
-471,474	-200,000	0,031	0,197
-470,459	800,000	0,026	0,066
-469,445	-80,860	-0,037	0,009
-468,430	800,000	-0,020	0,054
-467,416	800,000	-0,066	-0,152
-466,401	558,596	0,117	-0,203
-465,386	-28,431	0,019	0,008
-464,372	-64,356	-0,008	-0,002
-463,357	233,228	-0,109	-0,129
-462,343	136,106	-0,061	0,058
-461,328	208,048	0,094	0,106
-460,313	-15,203	0,122	0,056
-459,299	-200,000	0,027	-0,129
-458,284	-124,432	0,158	0,017
-457,270	313,552	0,060	0,081
-456,255	-87,126	-0,094	-0,020
-455,241	770,747	0,052	-0,102
-454,226	37,319	-0,063	0,040
-453,211	-102,669	-0,031	-0,005
-452,197	-134,604	0,064	-0,006
-451,182	-135,254	0,082	0,007
-450,168	-200,000	0,020	-0,137
-449,153	-124,350	0,052	0,006
-448,138	528,925	0,068	-0,116
-447,124	-200,000	0,018	0,113
-446,109	88,399	0,094	0,075
-445,095	-148,819	-0,128	0,007
-444,080	175,188	0,083	0,086
-443,065	-200,000	-0,049	0,220
-442,051	800,000	-0,039	0,084
-441,036	800,000	-0,056	-0,143
-440,022	-200,000	-0,003	-0,214
-439,007	-182,928	0,097	-0,001
-437,992	-200,000	-0,022	0,102
-436,978	674,367	0,031	-0,059
-435,963	-200,000	0,008	0,048
-434,949	115,246	-0,099	-0,087
-433,934	-200,000	0,001	-0,051
-432,919	185,308	-0,071	-0,076
-431,905	-200,000	-0,002	-0,099
-430,890	165,195	-0,051	-0,052
-429,876	800,000	-0,027	0,071
-428,861	145,319	0,061	-0,059
-427,846	-103,973	-0,055	0,009
-426,832	213,586	-0,083	-0,095
-425,817	24,304	-0,193	-0,114
-424,803	466,733	0,054	0,086
-423,788	-14,331	-0,146	0,067
-422,773	118,514	0,050	-0,044
-421,759	87,171	0,059	0,047
-420,744	-18,723	0,031	0,014
-419,730	-40,358	-0,062	-0,023
-418,715	800,000	0,048	0,125
-417,701	64,396	-0,054	-0,039
-416,686	-200,000	0,009	0,067
-415,671	444,669	0,061	-0,097
-414,657	313,573	0,061	0,082
-413,642	800,000	-0,059	0,131
-412,628	-200,000	-0,036	0,114
-411,613	81,485	-0,032	0,025
-410,598	-112,076	-0,039	0,006
-409,584	67,267	0,083	0,060
-408,569	269,110	0,056	0,070
-407,555	749,270	-0,009	-0,018
-406,540	1,042	-0,026	0,013
-405,525	-154,238	0,054	0,003
-404,511	800,000	-0,067	-0,133
-403,496	-16,263	0,117	0,053
-402,482	46,470	0,061	-0,041
-401,467	-104,824	0,113	-0,018
-400,452	417,029	-0,071	0,109
-399,438	45,165	0,175	0,116
-398,423	707,897	0,019	0,036
-397,409	-200,000	0,003	-0,037
-396,394	-200,000	0,017	-0,190
-395,379	-116,598	-0,060	0,008
-394,365	35,399	0,068	0,043
-393,350	-72,538	-0,048	0,013
-392,336	120,436	-0,069	0,062
-391,321	-87,736	0,108	0,023
-390,306	159,052	-0,066	-0,066
-389,292	285,302	0,050	-0,064
-388,277	-145,981	0,080	-0,005
-387,263	800,000	0,047	0,109
-386,248	502,163	0,069	0,114
-385,233	-200,000	0,011	0,040
-384,219	-35,569	0,111	0,043
-383,204	-11,768	0,055	-0,026
-382,190	64,004	0,070	-0,051
-381,175	544,194	-0,041	0,071
-380,160	-200,000	0,003	0,056
-379,146	125,828	0,079	-0,072
-378,131	232,191	0,042	0,049
-377,117	-200,000	0,004	0,061
-376,102	31,421	-0,107	0,066
-375,088	-200,000	-0,002	-0,079
-374,073	-200,000	-0,036	-0,129
-373,058	570,728	-0,048	0,084
-372,044	-200,000	0,031	0,101
-371,029	-200,000	0,015	0,076
-370,015	-10,407	0,018	-0,008
-369,000	-126,444	-0,105	-0,011
-367,985	-151,031	-0,081	0,004
-366,971	-137,646	0,018	0,001
-365,956	-200,000	-0,007	0,027
-364,942	-200,000	-0,033	0,112
-363,927	800,000	0,009	0,023
-362,912	2,262	-0,114	-0,059
-361,898	74,525	-0,164	-0,123
-360,883	-18,516	0,060	-0,027
-359,869	-200,000	-0,001	-0,102
-358,854	800,000	0,017	0,043
-357,839	-200,000	0,025	0,080
-356,825	193,539	-0,067	-0,072
-355,810	14,271	-0,022	0,012
-354,796	-98,197	-0,039	-0,007
-353,781	256,957	-0,062	-0,076
-352,766	-35,489	0,047	-0,018
-351,752	-117,421	-0,015	0,002
-350,737	800,000	0,010	-0,031
-349,723	-44,049	0,090	0,032
-348,708	-141,702	0,134	0,009
-347,693	-200,000	-0,018	-0,069
-346,679	213,912	-0,043	-0,049
-345,664	-45,790	-0,109	-0,038
-344,650	63,002	0,097	-0,069
-343,635	189,469	-0,052	0,056
-342,620	123,952	-0,097	0,088
-341,606	169,697	-0,110	-0,112
-340,591	-69,173	-0,166	-0,045
-339,577	113,987	-0,070	0,061
-338,562	800,000	-0,045	0,131
-337,548	179,876	0,042	-0,044
-336,533	252,787	0,078	0,095
-335,518	800,000	-0,017	-0,040
-334,504	-200,000	0,028	0,109
-333,489	-120,650	-0,070	-0,008
-332,475	-24,317	-0,055	0,024
-331,460	182,295	-0,041	-0,043
-330,445	8,121	-0,054	-0,029
-329,431	800,000	0,023	-0,073
-328,416	719,212	0,031	-0,058
-327,402	-97,115	0,072	0,013
-326,387	529,417	-0,014	0,023
-325,372	-153,417	-0,080	-0,004
-324,358	-191,010	-0,039	0,000
-323,343	-95,122	-0,116	-0,022
-322,329	568,801	-0,058	-0,100
-321,314	146,828	0,039	-0,038
-320,299	9,459	-0,053	-0,028
-319,285	77,933	-0,076	-0,058
-318,270	800,000	-0,050	-0,116
-317,256	-54,297	0,121	0,039
-316,241	-200,000	0,034	-0,135
-315,226	142,008	0,041	0,038
-314,212	-97,786	0,124	-0,023
-313,197	46,723	-0,015	0,010
-312,183	-91,671	0,195	0,039
-311,168	-106,571	0,152	-0,024
-310,153	-200,000	-0,011	-0,041
-309,139	139,227	-0,026	0,025
-308,124	130,206	-0,058	0,053
-307,110	800,000	0,028	0,077
-306,095	-96,691	0,210	-0,039
-305,080	-11,719	0,129	0,060
-304,066	-88,706	-0,038	0,008
-303,051	134,446	-0,040	-0,037
-302,037	71,307	-0,079	0,058
-301,022	-200,000	0,006	-0,032
-300,008	-131,448	-0,046	0,004
-298,993	-164,819	0,042	-0,001
-297,978	-0,244	-0,056	-0,028
-296,964	194,830	0,071	-0,077
-295,949	33,983	0,088	-0,054
-294,935	-200,000	-0,025	-0,153
-293,920	604,096	0,041	-0,073
-292,905	-128,987	0,122	0,012
-291,891	36,055	0,045	0,028
-290,876	-38,398	0,034	-0,013
-289,862	-77,732	-0,070	0,017
-288,847	93,333	0,104	-0,084
-287,832	138,975	0,076	-0,072
-286,818	42,547	-0,071	0,046
-285,803	-200,000	0,020	0,077
-284,789	-200,000	0,005	-0,042
-283,774	-200,000	0,003	0,063
-282,759	65,201	-0,058	-0,042
-281,745	510,446	-0,063	-0,105
-280,730	-66,045	0,109	-0,031
-279,716	97,570	-0,163	0,134
-278,701	-200,000	0,012	0,173
-277,686	113,830	0,043	0,037
-276,672	-86,466	0,155	0,034
-275,657	800,000	0,032	0,070
-274,643	9,069	-0,073	-0,039
-273,628	-106,155	0,074	-0,012
-272,613	-149,424	0,061	-0,003
-271,599	-200,000	0,001	0,031
-270,584	230,898	0,146	0,170
-269,570	-200,000	-0,043	0,160
-268,555	-24,826	0,116	-0,049
-267,540	-200,000	0,023	-0,076
-266,526	-200,000	-0,001	-0,169
-265,511	130,681	-0,035	0,032
-264,497	-96,749	-0,053	0,010
-263,482	-163,639	0,054	0,002
-262,467	-200,000	0,018	0,101
-261,453	-200,000	0,013	0,048
-260,438	-193,124	0,083	0,001
-259,424	285,980	-0,083	-0,107
-258,409	-200,000	-0,022	-0,090
-257,395	17,517	0,050	-0,028
-256,380	800,000	0,006	-0,012
-255,365	-132,762	0,008	-0,001
-254,351	-18,651	0,032	0,014
-253,336	800,000	-0,059	-0,174
-252,322	-200,000	-0,001	0,144
-251,307	50,595	-0,119	-0,080
-250,292	-30,346	-0,064	-0,026
-249,278	-138,903	0,197	-0,015
-248,263	147,323	0,048	-0,046
-247,249	-15,518	-0,083	-0,037
-246,234	657,813	-0,112	-0,205
-245,219	-200,000	0,028	-0,107
-244,205	83,991	-0,094	0,073
-243,190	-200,000	0,020	0,081
-242,176	110,493	0,128	0,109
-241,161	800,000	-0,026	0,064
-240,146	26,220	0,083	0,049
-239,132	701,462	-0,045	-0,084
-238,117	-200,000	-0,027	-0,086
-237,103	10,621	-0,117	0,063
-236,088	147,475	-0,061	0,058
-235,073	-200,000	-0,016	0,055
-234,059	288,486	-0,088	-0,114
-233,044	268,505	0,102	0,127
-232,030	-63,765	0,093	-0,027
-231,015	-200,000	0,012	-0,047
-230,000	800,000	0,040	-0,107
-228,986	-188,193	0,093	0,001
-227,971	-66,182	-0,070	-0,020
-226,957	-200,000	0,015	0,084
-225,942	-200,000	0,006	0,112
-224,927	419,647	-0,033	-0,051
-223,913	-200,000	-0,020	0,110
-222,898	58,223	-0,034	0,024
-221,884	-102,177	-0,096	-0,016
-220,869	-200,000	-0,009	0,031
-219,855	-84,146	-0,017	-0,004
-218,840	-200,000	0,015	0,138
-217,825	800,000	0,036	0,086
-216,811	185,044	0,103	-0,109
-215,796	166,546	0,015	0,015
-214,782	166,538	-0,034	0,034
-213,767	-160,272	0,079	0,003
-212,752	-58,037	0,051	0,016
-211,738	-200,000	-0,003	0,019
-210,723	-94,828	-0,074	-0,014
-209,709	-54,926	-0,144	0,046
-208,694	800,000	-0,038	0,105
-207,679	126,295	-0,129	-0,116
-206,665	-99,128	0,128	0,023
-205,650	77,533	0,166	0,126
-204,636	486,436	-0,058	0,095
-203,621	583,189	-0,056	0,098
-202,606	416,901	0,019	-0,029
-201,592	-196,537	-0,146	-0,001
-200,577	800,000	-0,038	0,094
-199,563	128,128	0,145	0,131
-198,548	-113,773	0,149	-0,020
-197,533	-62,381	-0,053	0,016
-196,519	229,158	0,024	0,027
-195,504	100,288	-0,057	0,047
-194,490	-200,000	0,001	0,008
-193,475	-35,819	0,112	0,043
-192,460	160,404	-0,099	0,098
-191,446	282,401	0,041	-0,052
-190,431	286,456	0,139	0,179
-189,417	-200,000	0,028	0,128
-188,402	-20,987	0,126	-0,055
-187,387	283,772	-0,042	-0,053
-186,373	248,136	-0,072	0,087
-185,358	800,000	0,021	-0,043
-184,344	635,914	0,031	-0,056
-183,329	345,934	-0,077	0,108
-182,315	697,933	0,021	0,039
-181,300	218,004	-0,032	0,036
-180,285	268,325	-0,099	-0,123
-179,271	302,402	-0,101	-0,133
-178,256	328,449	-0,039	-0,053
-177,242	-72,362	0,043	-0,011
-176,227	800,000	0,029	-0,059
-175,212	-200,000	-0,009	0,124
-174,198	-200,000	0,007	-0,148
-173,183	679,357	-0,045	0,083
-172,169	49,307	-0,122	0,081
-171,154	-59,159	-0,063	0,019
-170,139	-17,108	0,078	-0,035
-169,125	23,097	-0,100	0,058
-168,110	-104,704	0,018	-0,003
-167,096	-38,644	-0,057	-0,021
-166,081	-200,000	-0,019	-0,090
-165,066	-3,710	-0,096	0,047
-164,052	141,836	-0,017	-0,016
-163,037	134,284	0,096	0,089
-162,023	4,132	0,087	0,045
-161,008	6,841	-0,080	0,042
-159,993	446,985	0,039	-0,061
-158,979	641,576	-0,051	-0,093
-157,964	-111,033	-0,086	-0,012
-156,950	700,049	-0,095	-0,178
-155,935	327,263	-0,086	0,117
-154,920	28,949	0,083	0,050
-153,906	795,053	0,069	-0,135
-152,891	44,370	-0,075	0,049
-151,877	144,404	0,006	-0,006
-150,862	-61,109	-0,121	-0,036
-149,847	-200,000	-0,011	-0,075
-148,833	800,000	0,040	0,111
-147,818	361,161	0,075	0,107
-146,804	328,080	0,042	0,057
-145,789	80,293	0,169	-0,129
-144,775	20,819	0,085	0,049
-143,760	219,215	0,034	-0,039
-142,745	257,674	0,092	-0,112
-141,731	733,144	0,058	-0,111
-140,716	-150,708	-0,040	0,002
-139,702	-200,000	0,002	-0,034
-138,687	237,686	-0,053	0,062
-137,672	-134,020	-0,067	-0,006
-136,658	-124,856	-0,139	-0,015
-135,643	800,000	-0,084	-0,219
-134,629	-53,825	-0,038	0,012
-133,614	-200,000	0,015	0,074
-132,599	-43,985	-0,113	-0,040
-131,585	442,235	0,076	0,118
-130,570	-91,672	0,126	-0,025
-129,556	232,393	-0,019	-0,022
-128,541	800,000	-0,008	-0,023
-127,526	-112,207	-0,115	0,016
-126,512	102,438	0,040	-0,034
-125,497	-200,000	0,002	0,017
-124,483	-125,103	0,150	-0,016
-123,468	-200,000	0,019	-0,070
-122,453	154,158	-0,109	-0,106
-121,439	-200,000	0,015	-0,194
-120,424	58,321	0,054	-0,037
-119,410	-200,000	-0,015	-0,150
-118,395	751,670	-0,018	-0,034
-117,380	86,356	0,074	0,058
-116,366	674,714	0,026	0,049
-115,351	384,994	-0,067	-0,099
-114,337	-200,000	0,012	-0,075
-113,322	800,000	0,023	0,058
-112,307	-81,946	0,072	-0,016
-111,293	451,645	-0,051	0,080
-110,278	800,000	0,011	-0,030
-109,264	695,953	-0,025	0,047
-108,249	28,128	-0,045	-0,027
-107,234	429,701	0,010	-0,015
-106,220	72,215	0,104	-0,077
-105,205	-200,000	-0,003	0,097
-104,191	793,015	0,062	0,122
-103,176	294,808	0,081	0,105
-102,162	800,000	0,024	0,048
-101,147	800,000	0,038	-0,104
-100,132	-200,000	0,010	-0,151
-99,118	11,822	-0,073	-0,039
-98,103	-163,879	0,062	0,002
-97,089	-74,599	0,171	0,043
-96,074	-200,000	-0,022	0,140
-95,059	800,000	0,026	-0,070
-94,045	-81,909	-0,026	0,006
-93,030	-200,000	-0,017	-0,157
-92,016	-200,000	0,010	-0,101
-91,001	-84,854	0,138	-0,031
-89,986	-200,000	0,021	0,145
-88,972	3,253	-0,106	0,054
-87,957	-200,000	-0,011	-0,059
-86,943	800,000	-0,041	0,090
-85,928	144,489	-0,095	0,090
-84,913	53,467	-0,107	-0,072
-83,899	292,665	0,014	0,018
-82,884	128,829	0,053	0,048
-81,870	240,121	0,005	0,006
-80,855	800,000	-0,049	0,145
-79,840	92,698	-0,005	0,004
-78,826	-200,000	-0,001	0,047
-77,811	-74,330	0,069	0,018
-76,797	100,022	0,059	-0,048
-75,782	-89,847	0,025	-0,005
-74,767	-200,000	-0,010	0,105
-73,753	-200,000	-0,008	-0,051
-72,738	-200,000	0,008	0,158
-71,724	-21,392	-0,112	-0,048
-70,709	-200,000	0,020	-0,075
-69,694	-49,840	-0,126	-0,042
-68,680	3,252	0,093	-0,048
-67,665	724,987	-0,051	0,097
-66,651	128,621	0,082	-0,074
-65,636	463,606	0,019	-0,030
-64,622	272,436	-0,085	0,106
-63,607	709,795	-0,105	0,197
-62,592	222,912	-0,019	-0,022
-61,578	-200,000	-0,008	0,167
-60,563	300,753	0,095	0,124
-59,549	-127,618	-0,057	0,006
-58,534	7,928	-1,742	-0,921
-57,519	386,595	-1,302	-1,907
-56,505	-200,000	-0,512	-4,596
-55,490	296,990	1,042	1,355
-54,476	800,000	4,919	11,064
-53,461	-200,000	20,106	323,949
-52,446	800,000	752,409	2311,323
-51,432	548,824	1663,333	2827,995
-50,417	74,949	1671,763	1243,392
-49,403	19,980	1544,590	877,887
-48,388	13,994	1467,046	804,699
-47,373	18,352	1457,440	820,447
-46,359	16,332	1446,814	804,757
-45,344	12,266	1442,310	782,753
-44,330	12,177	1440,442	781,284
-43,315	12,165	1438,781	780,292
-42,300	12,184	1436,750	779,254
-41,286	12,161	1435,776	778,584
-40,271	12,138	1434,472	777,734
-39,257	12,188	1432,993	777,140
-38,242	12,208	1431,936	776,634
-37,227	12,201	1430,689	775,894
-36,213	12,201	1429,531	775,235
-35,198	12,190	1428,452	774,567
-34,184	12,290	1427,342	774,409
-33,169	12,197	1425,807	773,104
-32,154	12,283	1424,734	772,898
-31,140	12,250	1423,683	772,143
-30,125	12,224	1422,720	771,465
-29,111	12,273	1421,266	770,878
-28,096	12,217	1420,265	770,039
-27,082	12,127	1419,369	769,100
-26,067	12,158	1418,109	768,532
-25,052	12,213	1416,910	768,111
-24,038	12,147	1416,011	767,283
-23,023	12,150	1414,875	766,650
-22,009	12,151	1413,961	766,127
-20,994	12,129	1412,971	765,460
-19,979	12,118	1412,206	764,961
-18,965	12,140	1411,018	764,392
-17,950	12,089	1410,370	763,770
-16,936	12,113	1409,321	763,284
-15,921	12,029	1408,345	762,331
-14,906	12,070	1407,276	761,916
-13,892	12,055	1406,438	761,363
-12,877	12,051	1405,789	760,963
-11,863	12,073	1404,762	760,477
-10,848	12,027	1403,898	759,768
-9,833	12,012	1402,942	759,148
-8,819	11,964	1402,140	758,461
-7,804	11,918	1401,422	757,826
-6,790	11,971	1400,266	757,421
-5,775	11,970	1399,221	756,819
-4,760	12,012	1398,195	756,429
-3,746	11,937	1397,391	755,617
-2,731	11,963	1396,512	755,233
-1,717	11,909	1395,926	754,632
-0,702	11,915	1393,870	753,519
0,313	16,173	1308,722	727,056
1,327	33,003	699,497	427,230
2,342	50,874	121,822	81,399
3,356	2,673	16,454	8,398
4,371	2,426	3,282	1,672
5,386	81,431	0,551	0,421
6,400	800,000	0,138	0,311
7,415	163,220	-0,170	-0,168
8,429	-80,344	-0,156	-0,036
9,444	38,671	-0,288	-0,181
10,459	-101,767	-0,369	-0,062
11,473	-19,349	-0,241	-0,105
12,488	59,585	-0,140	-0,098
13,502	-0,244	-0,302	-0,151
14,517	47,684	-0,302	-0,198
15,531	-7,384	-0,449	-0,214
16,546	184,378	-0,324	-0,339
17,561	32,682	-0,466	-0,284
18,575	-0,170	-0,102	-0,051
19,590	30,796	-0,299	-0,180
20,604	-7,345	-0,182	0,087
21,619	86,659	-0,438	-0,341
22,634	203,583	-0,364	-0,397
23,648	117,698	-0,429	-0,373
24,663	369,770	-0,248	-0,355
25,677	134,458	-0,330	-0,302
26,692	247,015	-0,234	-0,279
27,707	51,390	-0,485	-0,324
28,721	58,767	-0,409	-0,283
29,736	19,891	-0,541	-0,306
30,750	153,164	-0,391	-0,378
31,765	25,683	-0,461	-0,270
32,780	129,430	-0,357	-0,321
33,794	63,923	-0,372	-0,263
34,809	287,662	-0,237	-0,303
35,823	125,583	-0,375	-0,333
36,838	217,559	-0,230	-0,258
37,853	90,078	-0,461	-0,362
38,867	58,122	-0,382	-0,263
39,882	24,753	-0,363	-0,211
40,896	65,601	-0,409	-0,291
41,911	118,467	-0,319	-0,277
42,926	112,294	-0,295	-0,251
43,940	142,579	-0,341	-0,319
44,955	132,698	-0,285	-0,259
45,969	125,565	-0,263	-0,233
46,984	41,336	-0,395	-0,251
47,999	312,245	-0,256	-0,340
49,013	189,487	-0,234	-0,247
50,028	59,117	-0,263	-0,182
51,042	28,255	-0,332	-0,197
52,057	127,063	-0,274	-0,245
53,071	116,655	-0,301	-0,260
54,086	13,867	-0,414	-0,226
55,101	362,264	-0,183	-0,259
56,115	-23,699	-0,365	-0,153
57,130	26,617	-0,430	-0,252
58,144	-40,824	-0,519	-0,188
59,159	338,512	-0,282	-0,387
60,174	55,573	-0,399	-0,271
61,188	140,190	-0,217	-0,201
62,203	95,721	-0,298	-0,239
63,217	270,035	-0,350	-0,433
64,232	241,411	-0,282	-0,331
65,247	67,549	-0,294	-0,211
66,261	79,329	-0,283	-0,213
67,276	76,947	-0,265	-0,197
68,290	67,874	-0,389	-0,279
69,305	177,705	-0,236	-0,242
70,320	113,238	-0,346	-0,295
71,334	-66,592	-0,230	-0,064
72,349	22,212	-0,335	-0,192
73,363	83,484	-0,216	-0,165
74,378	88,851	-0,299	-0,233
75,393	150,769	-0,309	-0,295
76,407	-14,748	-0,377	-0,169
77,422	121,492	-0,240	-0,210
78,436	-18,597	-0,311	-0,135
79,451	426,970	-0,271	-0,412
80,466	10,212	-0,291	-0,155
81,480	20,169	-0,331	-0,187
82,495	-8,883	-0,420	-0,197
83,509	52,544	-0,188	-0,126
84,524	16,960	-0,319	-0,177
85,539	69,299	-0,214	-0,154
86,553	12,749	-0,361	-0,195
87,568	-38,306	-0,341	-0,126
88,582	107,816	-0,273	-0,228
89,597	-8,660	-0,198	-0,093
90,611	166,037	-0,146	-0,145
91,626	-65,927	-0,235	-0,065
92,641	218,086	-0,109	-0,122
93,655	178,454	-0,255	-0,261
94,670	227,218	-0,262	-0,299
95,684	441,629	-0,192	-0,296
96,699	20,084	-0,349	-0,196
97,714	62,324	-0,263	-0,183
98,728	532,439	-0,169	-0,282
99,743	636,601	-0,160	-0,286
100,757	-14,174	-0,328	-0,148
101,772	268,467	-0,249	-0,306
102,787	187,072	-0,297	-0,310
103,801	-12,536	-0,305	-0,139
104,816	-11,081	-0,179	-0,082
105,830	60,879	-0,227	-0,157
106,845	58,921	-0,354	-0,243
107,860	-36,840	-0,276	-0,103
108,874	-38,282	-0,298	-0,110
109,889	270,247	-0,206	-0,254
110,903	-4,543	-0,371	-0,179
111,918	-2,826	-0,218	-0,106
112,933	-17,993	-0,214	-0,093
113,947	19,598	-0,157	-0,088
114,962	-64,648	-0,300	-0,084
115,976	232,888	-0,224	-0,258
116,991	-9,768	-0,250	-0,116
118,006	69,894	-0,208	-0,150
119,020	145,419	-0,164	-0,153
120,035	22,639	-0,165	-0,094
121,049	-32,975	-0,213	-0,082
122,064	95,525	-0,236	-0,188
123,079	15,148	-0,262	-0,143
124,093	21,628	-0,344	-0,195
125,108	-15,624	-0,303	-0,134
126,122	800,000	-0,123	-0,256
127,137	25,161	-0,287	-0,166
128,151	-98,653	-0,243	-0,043
129,166	35,866	-0,301	-0,184
130,181	186,687	-0,246	-0,256
131,195	266,903	-0,178	-0,218
132,210	173,139	-0,366	-0,369
133,224	55,999	-0,259	-0,175
134,239	-17,888	-0,300	-0,131
135,254	-96,683	-0,336	-0,061
136,268	-29,807	-0,291	-0,115
137,283	257,471	-0,175	-0,210
138,297	62,279	-0,269	-0,187
139,312	-13,131	-0,336	-0,152
140,327	131,587	-0,271	-0,244
141,341	50,519	-0,219	-0,144
142,356	238,981	-0,206	-0,240
143,370	-51,536	-0,228	-0,074
144,385	86,420	-0,203	-0,156
145,400	56,073	-0,361	-0,244
146,414	66,771	-0,195	-0,138
147,429	116,797	-0,295	-0,253
148,443	107,799	-0,270	-0,224
149,458	-0,897	-0,195	-0,096
150,473	-129,001	-0,359	-0,035
151,487	183,555	-0,165	-0,171
152,502	16,530	-0,290	-0,160
153,516	279,219	-0,200	-0,249
154,531	309,289	-0,264	-0,345
155,546	60,111	-0,190	-0,131
156,560	-30,743	-0,161	-0,063
157,575	0,561	-0,309	-0,154
158,589	202,922	-0,136	-0,146
159,604	157,925	-0,265	-0,256
160,619	-64,632	-0,325	-0,091
161,633	-4,518	-0,143	-0,069
162,648	37,204	-0,278	-0,171
163,662	-104,068	-0,144	-0,023
164,677	-63,226	-0,213	-0,061
165,692	79,059	-0,279	-0,208
166,706	328,137	-0,159	-0,213
167,721	-31,120	-0,130	-0,051
168,735	102,199	-0,259	-0,210
169,750	61,288	-0,305	-0,211
170,764	227,269	-0,089	-0,100
171,779	-12,366	-0,232	-0,105
172,794	24,721	-0,202	-0,116
173,808	54,812	-0,248	-0,166
174,823	192,218	-0,161	-0,169
175,837	55,560	-0,197	-0,132
176,852	67,597	-0,157	-0,112
177,867	634,892	-0,142	-0,251
178,881	-29,443	-0,363	-0,144
179,896	-83,911	-0,247	-0,054
180,910	70,026	-0,100	-0,071
181,925	100,000	-0,237	-0,191
182,940	391,749	-0,206	-0,299
183,954	151,031	-0,188	-0,178
184,969	83,223	-0,101	-0,076
185,983	-75,163	-0,184	-0,045
186,998	125,813	-0,256	-0,225
188,013	29,706	-0,347	-0,205
189,027	347,672	-0,144	-0,198
190,042	161,825	-0,235	-0,229
191,056	375,235	-0,162	-0,230
192,071	-56,766	-0,261	-0,080
193,086	-158,617	-0,208	-0,008
194,100	24,028	-0,275	-0,157
195,115	92,868	-0,224	-0,176
196,129	-20,060	-0,331	-0,141
197,144	151,017	-0,327	-0,309
198,159	174,603	-0,290	-0,292
199,173	95,082	-0,329	-0,260
200,188	-7,556	-0,210	-0,098
201,202	-94,647	-0,161	-0,030
202,217	88,523	-0,132	-0,102
203,232	-42,800	-0,193	-0,068
204,246	213,748	-0,226	-0,249
205,261	-6,534	-0,269	-0,127
206,275	-25,274	-0,256	-0,104
207,290	465,366	-0,141	-0,220
208,304	-191,725	-0,320	0,002
209,319	96,893	-0,081	-0,064
210,334	176,127	-0,155	-0,156
211,348	575,155	-0,142	-0,241
212,363	-43,065	-0,230	-0,080
213,377	230,779	-0,201	-0,228
214,392	446,447	-0,136	-0,208
215,407	-100,588	-0,247	-0,042
216,421	129,278	-0,215	-0,190
217,436	401,608	-0,175	-0,256
218,450	58,990	-0,254	-0,173
219,465	-24,601	-0,211	-0,087
220,480	-62,211	-0,288	-0,083
221,494	1,392	-0,150	-0,074
222,509	241,419	-0,225	-0,261
223,523	423,202	-0,120	-0,179
224,538	-98,723	-0,223	-0,039
225,553	-21,568	-0,298	-0,125
226,567	105,467	-0,170	-0,139
227,582	589,415	-0,154	-0,263
228,596	-200,000	-0,057	-0,186
229,611	619,357	-0,099	-0,173
230,626	-107,226	-0,083	0,012
231,640	-72,380	-0,272	-0,069
232,655	100,171	-0,109	-0,087
233,669	157,211	-0,242	-0,232
234,684	8,881	-0,350	-0,182
235,699	-130,118	-0,308	0,029
236,713	271,692	-0,093	-0,113
237,728	176,431	-0,192	-0,193
238,742	193,189	-0,205	-0,215
239,757	21,727	-0,245	-0,138
240,772	406,507	-0,139	-0,204
241,786	363,561	-0,178	-0,248
242,801	50,784	-0,050	-0,033
243,815	800,000	-0,019	-0,044
244,830	-123,265	-0,054	-0,006
245,844	473,932	-0,135	-0,211
246,859	-109,634	-0,246	-0,035
247,874	314,203	-0,132	-0,172
248,888	131,150	-0,201	-0,178
249,903	-180,384	-0,180	-0,003
250,917	4,537	-0,203	-0,103
251,932	466,911	-0,113	-0,176
252,947	113,550	-0,132	-0,111
253,961	-129,737	-0,258	-0,024
254,976	76,997	-0,176	-0,129
255,990	120,543	-0,200	-0,172
257,005	800,000	-0,114	-0,257
258,020	31,298	-0,113	-0,067
259,034	-200,000	-0,038	-0,152
260,049	-93,123	-0,194	-0,037
261,063	100,285	-0,192	-0,154
262,078	203,748	-0,187	-0,201
263,093	-21,299	-0,167	-0,070
264,107	50,808	-0,142	-0,092
265,122	92,396	-0,156	-0,121
266,136	800,000	-0,073	-0,151
267,151	312,736	-0,209	-0,272
268,166	274,828	-0,103	-0,127
269,180	-61,964	-0,242	-0,069
270,195	173,284	-0,139	-0,138
271,209	101,688	-0,203	-0,163
272,224	340,790	-0,045	-0,061
273,239	265,903	-0,210	-0,253
274,253	-87,756	-0,229	-0,047
275,268	89,787	-0,199	-0,154
276,282	-27,365	-0,205	-0,082
277,297	-74,014	-0,182	-0,045
278,312	128,892	-0,184	-0,161
279,326	800,000	-0,069	-0,161
280,341	14,809	-0,242	-0,130
281,355	169,570	-0,138	-0,136
282,370	536,803	-0,118	-0,194
283,384	738,092	-0,114	-0,212
284,399	-9,459	-0,226	-0,103
285,414	192,387	-0,192	-0,200
286,428	404,869	-0,144	-0,209
287,443	-107,326	-0,177	0,027
288,457	39,727	-0,201	-0,124
289,472	-17,172	-0,109	-0,047
290,487	800,000	-0,043	-0,106
291,501	100,901	-0,249	-0,199
292,516	-200,000	-0,031	-0,119
293,530	-124,394	-0,143	-0,015
294,545	252,086	-0,224	-0,264
295,560	-59,093	-0,161	-0,048
296,574	-100,404	-0,140	-0,024
297,589	800,000	-0,072	-0,161
298,603	137,107	-0,072	-0,065
299,618	-100,952	-0,305	-0,051
300,633	-4,370	-0,097	-0,046
301,647	488,276	-0,070	-0,111
302,662	212,616	-0,106	-0,115
303,676	-87,920	-0,174	-0,036
304,691	46,480	-0,138	-0,088
305,706	167,419	-0,190	-0,186
306,720	800,000	-0,073	-0,201
307,735	116,858	-0,190	-0,160
308,749	-44,328	-0,094	-0,032
309,764	43,955	-0,172	-0,108
310,779	-106,397	-0,063	-0,010
311,793	-43,564	-0,065	-0,022
312,808	279,183	-0,140	-0,172
313,822	84,964	-0,198	-0,149
314,837	-200,000	0,017	-0,134
315,852	2,103	-0,131	-0,065
316,866	169,088	-0,154	-0,151
317,881	183,574	-0,107	-0,109
318,895	313,031	-0,120	-0,156
319,910	106,316	-0,169	-0,137
320,925	189,013	-0,179	-0,185
321,939	252,229	-0,154	-0,181
322,954	92,663	-0,146	-0,113
323,968	47,285	-0,206	-0,131
324,983	97,233	-0,191	-0,150
325,997	12,535	-0,164	-0,087
327,012	81,036	-0,098	-0,072
328,027	184,719	-0,165	-0,168
329,041	83,641	-0,128	-0,096
330,056	-92,299	-0,107	-0,021
331,070	199,848	-0,015	0,016
332,085	30,289	-0,094	-0,055
333,100	54,139	-0,163	-0,107
334,114	50,180	-0,129	-0,083
335,129	178,486	-0,151	-0,152
336,143	800,000	-0,095	-0,191
337,158	366,848	-0,093	-0,129
338,173	147,717	-0,071	-0,065
339,187	800,000	-0,040	-0,083
340,202	469,584	-0,140	-0,217
341,216	149,795	-0,123	-0,114
342,231	321,943	-0,126	-0,165
343,246	0,514	-0,056	-0,028
344,260	630,797	-0,068	-0,118
345,275	278,876	-0,085	-0,104
346,289	-130,081	-0,104	-0,010
347,304	-139,125	-0,054	-0,004
348,319	800,000	-0,081	-0,161
349,333	800,000	-0,096	-0,185
350,348	98,053	-0,269	-0,212
351,362	800,000	-0,087	-0,197
352,377	800,000	-0,061	-0,123
353,392	-200,000	0,007	-0,075
354,406	-176,635	-0,140	-0,002
355,421	208,569	1313,864	1409,230
356,435	160,490	1474,453	1409,697
