DTS Sentinel unit serial number:	SN410029Multiplexer serial number:	ORYXHardware model number:	OX2-SRSoftware version number:	ORYX F/W v4,00 Oryx Data Collector v3.7.2.0data status	okinstallation	B3 Nyhavnadifferential loss correction	single-endedforward channel	channel 1reverse channel	N/Adate	2023/11/29time	01:52:30forward acquisition time	300,00reverse acquisition time	0,00gamma	499,1914k internal	0,3211k external	0,3211temperature offset calibration	1,0000default loss term (dB/km)	0,3820temperature slope calibration	1,0000multiplexer offset coefficient	1,0000multiplexer slope coefficient	1,0000fibre end	0,00T internal ref (°C)	9,56T ext. ref 1 (°C)	-5,22T ext. ref 2 (°C)	-5,35length (m)	temperature (°C)	Stokes	anti-Stokes-744,400	118,686	-0,308	-0,276
-743,385	-200,000	-0,065	0,227
-742,371	526,743	-0,170	-0,292
-741,356	800,000	0,113	0,276
-740,342	132,941	-0,264	-0,247
-739,327	-200,000	-0,037	0,236
-738,312	-8,024	-0,339	-0,165
-737,298	651,763	-0,116	0,217
-736,283	451,028	-0,139	-0,224
-735,269	800,000	-0,119	0,310
-734,254	-1,668	-0,331	-0,168
-733,239	4,854	-0,211	0,112
-732,225	-200,000	-0,079	-0,309
-731,210	-200,000	0,020	0,243
-730,196	74,038	0,120	0,091
-729,181	-200,000	-0,016	0,068
-728,167	111,930	-0,114	-0,100
-727,152	800,000	-0,044	-0,129
-726,137	-37,940	-0,054	-0,021
-725,123	92,379	-0,101	0,083
-724,108	-119,666	-0,249	-0,031
-723,094	-200,000	-0,011	-0,048
-722,079	-200,000	-0,016	-0,082
-721,064	-1,201	0,084	0,043
-720,050	800,000	0,054	0,128
-719,035	-111,061	-0,083	0,012
-718,021	-67,199	-0,064	0,018
-717,006	489,870	0,078	-0,130
-715,991	771,257	-0,089	-0,176
-714,977	-61,176	-0,133	-0,040
-713,962	800,000	0,019	0,039
-712,948	-91,866	-0,090	0,018
-711,933	24,842	-0,021	0,012
-710,918	-200,000	-0,021	-0,143
-709,904	207,834	0,083	-0,094
-708,889	800,000	0,037	-0,088
-707,875	-200,000	-0,033	-0,113
-706,860	-91,458	0,026	-0,005
-705,845	325,838	-0,046	0,064
-704,831	-200,000	0,032	-0,131
-703,816	-125,124	-0,049	-0,005
-702,802	-5,513	-0,178	-0,088
-701,787	-40,729	0,037	0,014
-700,772	-200,000	0,014	-0,170
-699,758	-81,222	-0,169	-0,040
-698,743	66,212	0,136	0,100
-697,729	-200,000	0,039	0,172
-696,714	-192,327	-0,067	0,000
-695,699	452,281	0,019	-0,031
-694,685	612,182	-0,093	-0,168
-693,670	14,356	-0,041	-0,023
-692,656	249,343	-0,038	-0,047
-691,641	68,446	-0,079	-0,058
-690,627	-200,000	-0,010	-0,119
-689,612	-200,000	-0,001	-0,034
-688,597	-93,605	-0,104	-0,021
-687,583	-200,000	0,021	-0,158
-686,568	800,000	0,043	-0,087
-685,554	101,697	-0,113	-0,095
-684,539	392,430	-0,046	-0,069
-683,524	800,000	0,027	0,079
-682,510	23,949	0,154	0,092
-681,495	-59,281	0,037	0,011
-680,481	-135,881	-0,070	0,006
-679,466	-200,000	0,001	0,046
-678,451	-6,141	-0,159	-0,079
-677,437	-5,078	-0,066	0,033
-676,422	427,808	-0,082	0,129
-675,408	800,000	-0,055	-0,133
-674,393	-83,372	0,030	0,007
-673,378	-140,028	-0,108	0,008
-672,364	-134,803	-0,051	-0,004
-671,349	-52,621	-0,042	0,014
-670,335	-200,000	0,047	-0,213
-669,320	149,055	0,094	-0,092
-668,305	-56,610	-0,076	-0,024
-667,291	2,623	0,044	-0,023
-666,276	-200,000	0,007	-0,092
-665,262	352,378	-0,093	-0,134
-664,247	-200,000	-0,016	-0,140
-663,232	124,383	0,054	0,049
-662,218	-130,024	0,071	0,007
-661,203	178,693	-0,021	-0,022
-660,189	127,436	-0,035	-0,032
-659,174	-117,295	-0,102	-0,013
-658,159	-13,353	-0,090	-0,042
-657,145	566,377	0,018	-0,031
-656,130	-68,267	0,152	-0,042
-655,116	-200,000	-0,032	-0,114
-654,101	130,634	0,130	0,120
-653,086	-200,000	0,002	0,017
-652,072	104,421	-0,062	-0,053
-651,057	225,772	-0,083	-0,098
-650,043	-200,000	0,008	-0,076
-649,028	-200,000	0,006	0,141
-648,014	-200,000	-0,007	-0,046
-646,999	800,000	-0,021	-0,066
-645,984	97,079	0,081	-0,067
-644,970	-200,000	-0,007	0,065
-643,955	533,274	-0,094	-0,161
-642,941	-200,000	0,007	0,037
-641,926	-137,826	0,084	0,007
-640,911	800,000	0,026	-0,054
-639,897	-84,278	0,027	0,006
-638,882	-200,000	0,029	0,122
-637,868	15,373	0,077	0,044
-636,853	269,792	-0,077	-0,098
-635,838	-1,818	-0,074	0,038
-634,824	-164,244	-0,172	-0,006
-633,809	381,954	0,079	0,117
-632,795	-38,080	0,038	-0,015
-631,780	-81,510	-0,090	-0,021
-630,765	-200,000	0,028	-0,093
-629,751	800,000	-0,038	-0,081
-628,736	137,909	0,062	-0,058
-627,722	232,645	-0,118	-0,140
-626,707	91,025	0,102	-0,083
-625,692	-15,982	0,046	-0,021
-624,678	-200,000	0,010	0,133
-623,663	-200,000	0,001	0,012
-622,649	-200,000	-0,016	-0,132
-621,634	-200,000	0,010	-0,121
-620,619	-200,000	-0,008	-0,110
-619,605	-200,000	0,039	-0,154
-618,590	64,641	0,124	-0,090
-617,576	153,116	0,055	0,054
-616,561	369,596	0,071	-0,104
-615,546	586,186	0,005	0,010
-614,532	-36,680	-0,112	0,043
-613,517	167,416	0,069	-0,071
-612,503	-109,968	-0,031	0,005
-611,488	-200,000	-0,001	-0,075
-610,474	-200,000	0,034	0,114
-609,459	-200,000	-0,008	0,103
-608,444	366,891	-0,034	0,049
-607,430	-141,547	-0,088	0,006
-606,415	-200,000	0,017	-0,116
-605,401	-200,000	-0,009	0,037
-604,386	15,084	-0,071	0,040
-603,371	-200,000	0,017	0,068
-602,357	249,760	-0,022	-0,027
-601,342	-154,971	-0,187	-0,009
-600,328	-200,000	-0,002	-0,107
-599,313	313,081	-0,044	0,059
-598,298	800,000	0,020	0,049
-597,284	800,000	0,046	0,107
-596,269	-87,316	-0,059	-0,013
-595,255	-200,000	-0,005	-0,093
-594,240	77,597	-0,148	-0,113
-593,225	607,893	-0,018	0,033
-592,211	-50,690	0,130	-0,044
-591,196	-171,819	0,140	-0,003
-590,182	-22,213	0,006	0,003
-589,167	130,137	0,114	0,105
-588,152	256,519	0,069	0,085
-587,138	-72,279	0,088	-0,023
-586,123	-91,197	-0,188	0,038
-585,109	4,868	0,088	0,046
-584,094	16,171	0,028	-0,016
-583,079	-200,000	0,021	-0,071
-582,065	294,659	-0,081	-0,106
-581,050	-99,752	0,049	-0,009
-580,036	-200,000	0,015	0,061
-579,021	-144,924	-0,100	0,006
-578,006	-81,317	0,061	0,014
-576,992	39,992	0,046	0,030
-575,977	-13,699	-0,061	0,028
-574,963	-200,000	-0,019	0,142
-573,948	241,221	0,104	-0,125
-572,934	800,000	-0,029	-0,078
-571,919	-200,000	0,002	-0,112
-570,904	-200,000	-0,000	-0,153
-569,890	-87,131	0,078	0,017
-568,875	11,510	-0,160	0,088
-567,861	800,000	-0,007	0,020
-566,846	-108,873	0,017	0,003
-565,831	-200,000	-0,008	0,025
-564,817	111,041	-0,085	0,074
-563,802	346,494	-0,061	-0,087
-562,788	91,632	-0,076	-0,062
-561,773	127,391	0,047	-0,043
-560,758	-40,626	0,206	-0,076
-559,744	245,108	-0,033	-0,039
-558,729	-200,000	-0,034	-0,171
-557,715	-27,836	0,096	-0,040
-556,700	273,802	0,072	-0,092
-555,685	-200,000	-0,001	-0,153
-554,671	-185,171	-0,108	-0,001
-553,656	15,718	-0,057	0,032
-552,642	17,000	0,015	-0,009
-551,627	-200,000	0,028	0,152
-550,612	-22,049	-0,110	-0,048
-549,598	800,000	-0,044	-0,138
-548,583	427,625	-0,074	-0,115
-547,569	-45,457	0,062	-0,022
-546,554	-144,527	0,041	0,003
-545,539	-200,000	-0,030	0,182
-544,525	755,819	-0,029	0,056
-543,510	-131,496	0,049	0,005
-542,496	-111,187	-0,079	0,012
-541,481	64,396	-0,102	-0,074
-540,466	400,974	0,096	-0,145
-539,452	800,000	0,050	0,121
-538,437	-83,438	0,110	-0,025
-537,423	90,032	0,053	-0,042
-536,408	-86,702	0,084	0,018
-535,393	-200,000	0,008	-0,106
-534,379	-130,574	-0,196	0,019
-533,364	-200,000	-0,007	-0,027
-532,350	19,833	0,128	0,074
-531,335	-200,000	0,037	0,252
-530,321	-142,458	0,054	0,004
-529,306	800,000	-0,010	0,021
-528,291	-80,589	-0,050	-0,012
-527,277	92,885	-0,093	-0,075
-526,262	-50,489	-0,093	-0,032
-525,248	-20,974	0,026	-0,012
-524,233	345,228	-0,048	0,068
-523,218	-200,000	-0,011	-0,035
-522,204	-200,000	-0,001	0,165
-521,189	800,000	-0,044	-0,104
-520,175	436,344	-0,030	-0,047
-519,160	-68,637	-0,218	-0,060
-518,145	213,936	-0,062	0,071
-517,131	800,000	0,031	0,067
-516,116	16,488	-0,090	0,051
-515,102	162,319	0,103	0,104
-514,087	800,000	0,041	-0,098
-513,072	-16,400	0,142	-0,064
-512,058	44,972	0,038	0,025
-511,043	118,829	-0,027	0,024
-510,029	-31,393	0,063	0,025
-509,014	800,000	-0,057	0,114
-507,999	89,605	-0,033	0,026
-506,985	141,380	0,045	0,042
-505,970	746,911	-0,066	-0,128
-504,956	104,727	-0,068	-0,058
-503,941	182,971	0,062	-0,066
-502,926	495,173	-0,043	0,071
-501,912	-122,898	0,072	-0,008
-500,897	-96,191	-0,159	0,030
-499,883	-11,711	0,053	-0,025
-498,868	-105,810	-0,167	0,027
-497,853	-104,399	-0,167	-0,027
-496,839	68,831	-0,100	0,074
-495,824	-200,000	-0,020	-0,093
-494,810	29,159	0,011	-0,007
-493,795	-30,133	-0,116	-0,047
-492,781	-23,887	-0,076	0,032
-491,766	137,902	-0,068	0,064
-490,751	168,174	-0,030	-0,030
-489,737	-200,000	0,016	0,102
-488,722	-200,000	-0,041	0,201
-487,708	-200,000	0,007	0,032
-486,693	-200,000	-0,014	0,148
-485,678	344,202	0,088	-0,124
-484,664	38,919	0,024	-0,015
-483,649	161,714	-0,007	-0,007
-482,635	-94,821	0,072	0,014
-481,620	800,000	-0,049	0,148
-480,605	149,193	0,054	0,052
-479,591	-200,000	-0,009	0,074
-478,576	-200,000	0,042	-0,154
-477,562	460,161	0,046	-0,073
-476,547	-200,000	-0,017	-0,172
-475,532	-200,000	0,004	0,016
-474,518	-200,000	0,003	0,078
-473,503	525,063	-0,050	0,084
-472,489	413,405	-0,058	-0,089
-471,474	-25,684	0,070	-0,030
-470,459	-200,000	-0,001	-0,025
-469,445	-80,854	-0,027	-0,006
-468,430	-200,000	-0,006	-0,083
-467,416	184,747	-0,088	-0,093
-466,401	-118,117	0,077	0,010
-465,386	-171,557	0,129	-0,003
-464,372	162,621	0,066	-0,066
-463,357	-200,000	-0,007	-0,124
-462,343	-66,443	0,061	0,017
-461,328	-181,426	-0,046	-0,001
-460,313	800,000	-0,026	0,062
-459,299	-200,000	-0,024	-0,108
-458,284	-200,000	0,018	0,119
-457,270	88,215	0,032	0,026
-456,255	11,248	0,131	0,072
-455,241	800,000	-0,047	-0,101
-454,226	69,457	-0,184	-0,136
-453,211	-200,000	-0,008	-0,043
-452,197	154,833	0,138	0,136
-451,182	162,918	0,040	0,040
-450,168	173,910	0,064	-0,066
-449,153	-200,000	0,009	0,062
-448,138	-200,000	0,000	-0,057
-447,124	800,000	0,037	-0,089
-446,109	-128,010	-0,070	-0,007
-445,095	338,648	-0,093	0,130
-444,080	-97,216	-0,109	0,020
-443,065	141,452	-0,035	-0,033
-442,051	800,000	0,027	0,075
-441,036	-49,005	-0,074	-0,025
-440,022	-200,000	-0,015	-0,067
-439,007	-115,829	0,041	0,005
-437,992	-200,000	-0,006	-0,031
-436,978	479,056	0,047	0,077
-435,963	-103,592	0,097	0,016
-434,949	242,141	0,059	0,070
-433,934	-200,000	0,013	-0,062
-432,919	16,252	-0,134	-0,075
-431,905	800,000	0,017	0,036
-430,890	800,000	0,029	0,090
-429,876	1,326	-0,017	0,009
-428,861	243,917	0,047	0,057
-427,846	-200,000	0,012	-0,146
-426,832	-55,655	0,104	0,033
-425,817	574,577	-0,106	-0,185
-424,803	-43,705	-0,055	-0,020
-423,788	-108,154	0,164	0,025
-422,773	-200,000	0,022	0,084
-421,759	-140,286	0,069	0,005
-420,744	-200,000	-0,006	-0,027
-419,730	425,346	-0,042	-0,064
-418,715	177,493	0,063	0,066
-417,701	-200,000	0,009	0,117
-416,686	-200,000	-0,005	0,118
-415,671	126,912	-0,036	0,033
-414,657	800,000	0,023	-0,055
-413,642	-68,683	-0,143	0,039
-412,628	-102,468	0,057	0,010
-411,613	-200,000	-0,010	-0,083
-410,598	-56,182	0,099	0,031
-409,584	152,019	-0,068	-0,066
-408,569	180,359	0,097	0,102
-407,555	263,431	-0,078	0,098
-406,540	-62,867	0,110	-0,032
-405,525	-19,086	-0,071	0,031
-404,511	-200,000	-0,067	-0,219
-403,496	-200,000	-0,005	-0,074
-402,482	-74,558	0,122	-0,031
-401,467	176,614	-0,049	0,051
-400,452	110,613	-0,058	-0,050
-399,438	51,070	-0,051	-0,035
-398,423	-85,413	0,160	0,035
-397,409	205,503	-0,142	0,158
-396,394	800,000	-0,020	0,040
-395,379	7,833	0,061	-0,033
-394,365	-200,000	0,012	-0,109
-393,350	263,325	-0,042	0,052
-392,336	-200,000	0,061	0,196
-391,321	-200,000	0,012	-0,071
-390,306	-23,670	0,136	-0,058
-389,292	-73,891	-0,023	0,006
-388,277	-200,000	-0,013	-0,043
-387,263	-21,510	-0,064	0,028
-386,248	-157,425	0,150	-0,006
-385,233	800,000	0,019	-0,057
-384,219	800,000	-0,003	-0,010
-383,204	-123,889	0,159	-0,018
-382,190	-21,244	0,047	0,020
-381,175	151,170	0,053	0,052
-380,160	-147,824	-0,099	-0,006
-379,146	640,593	0,088	0,161
-378,131	800,000	-0,013	0,041
-377,117	-200,000	0,003	0,117
-376,102	-54,474	-0,154	0,049
-375,088	112,924	-0,037	-0,032
-374,073	-54,402	-0,118	-0,038
-373,058	320,025	0,052	0,070
-372,044	-200,000	-0,003	0,063
-371,029	55,036	0,074	-0,051
-370,015	267,757	0,071	-0,089
-369,000	374,719	-0,058	0,084
-367,985	-126,645	-0,070	-0,007
-366,971	794,960	-0,047	-0,094
-365,956	18,283	0,093	0,053
-364,942	309,985	0,035	-0,047
-363,927	394,004	0,054	-0,080
-362,912	-200,000	-0,016	-0,107
-361,898	-200,000	-0,019	-0,167
-360,883	-200,000	-0,006	-0,032
-359,869	84,154	-0,073	0,057
-358,854	800,000	-0,053	-0,121
-357,839	28,340	0,066	0,040
-356,825	-106,966	-0,140	-0,022
-355,810	-32,574	0,029	-0,011
-354,796	-11,722	-0,113	0,053
-353,781	593,139	-0,058	-0,103
-352,766	-200,000	0,002	-0,037
-351,752	-200,000	0,002	-0,060
-350,737	87,696	0,126	0,099
-349,723	63,226	0,038	-0,027
-348,708	85,066	-0,075	-0,059
-347,693	800,000	-0,038	0,078
-346,679	68,231	-0,165	-0,120
-345,664	52,702	-0,021	0,014
-344,650	-11,151	0,059	-0,028
-343,635	-200,000	0,028	-0,159
-342,620	-61,199	0,017	0,005
-341,606	-93,161	0,081	-0,016
-340,591	-79,043	-0,062	0,015
-339,577	212,051	-0,051	-0,057
-338,562	-200,000	0,009	0,060
-337,548	163,106	-0,119	0,119
-336,533	155,399	-0,008	0,008
-335,518	-70,163	-0,038	-0,010
-334,504	361,763	0,051	-0,074
-333,489	50,844	0,008	-0,005
-332,475	-42,614	0,050	-0,018
-331,460	523,011	-0,043	0,072
-330,445	-40,460	-0,037	-0,014
-329,431	641,612	-0,036	0,066
-328,416	238,937	0,108	0,128
-327,402	800,000	0,010	0,026
-326,387	-17,846	0,084	0,038
-325,372	-90,062	-0,124	-0,025
-324,358	623,474	0,041	-0,074
-323,343	323,505	-0,070	-0,096
-322,329	191,482	-0,020	0,021
-321,314	-200,000	0,015	0,052
-320,299	210,988	0,054	0,060
-319,285	373,354	-0,047	0,068
-318,270	383,591	-0,031	0,046
-317,256	-200,000	-0,010	0,109
-316,241	107,751	0,115	-0,097
-315,226	-12,512	-0,088	0,041
-314,212	-148,557	0,036	0,002
-313,197	373,859	-0,076	0,111
-312,183	-123,996	0,108	0,012
-311,168	-200,000	0,013	-0,088
-310,153	-141,270	0,109	0,008
-309,139	304,462	-0,081	-0,108
-308,124	660,418	0,036	0,067
-307,110	93,429	0,051	0,041
-306,095	-61,161	0,189	0,056
-305,080	98,699	0,137	0,113
-304,066	117,301	-0,030	0,026
-303,051	800,000	0,058	-0,154
-302,037	661,988	-0,053	0,099
-301,022	80,170	-0,095	0,073
-300,008	800,000	0,027	0,058
-298,993	43,367	0,110	0,071
-297,978	325,101	-0,051	0,070
-296,964	212,873	0,089	0,100
-295,949	-8,407	-0,062	-0,030
-294,935	233,171	-0,062	-0,073
-293,920	2,736	0,144	-0,074
-292,905	-107,895	0,061	-0,009
-291,891	-102,535	-0,045	-0,008
-290,876	149,210	0,023	-0,022
-289,862	95,530	-0,086	-0,070
-288,847	-113,118	-0,050	0,007
-287,832	-200,000	0,004	-0,103
-286,818	-200,000	0,016	-0,092
-285,803	-200,000	-0,013	0,061
-284,789	-28,178	-0,055	0,022
-283,774	78,827	-0,039	-0,030
-282,759	-200,000	0,003	0,056
-281,745	-200,000	-0,011	-0,118
-280,730	28,524	-0,027	0,016
-279,716	-88,552	0,092	0,019
-278,701	77,205	-0,115	0,087
-277,686	-93,771	-0,073	-0,014
-276,672	59,709	0,044	0,031
-275,657	-200,000	0,001	0,075
-274,643	562,647	-0,029	-0,051
-273,628	-36,466	-0,109	-0,042
-272,613	-200,000	0,011	-0,084
-271,599	800,000	-0,015	-0,040
-270,584	-135,416	-0,058	-0,005
-269,570	-23,124	-0,063	0,027
-268,555	-175,448	-0,238	-0,005
-267,540	800,000	-0,018	0,053
-266,526	-72,422	-0,021	-0,006
-265,511	800,000	-0,050	0,107
-264,497	-5,278	-0,093	-0,045
-263,482	-109,485	-0,030	-0,005
-262,467	800,000	-0,012	0,032
-261,453	-200,000	0,015	-0,141
-260,438	-155,166	-0,111	-0,005
-259,424	204,150	0,048	-0,053
-258,409	-7,824	0,079	0,038
-257,395	-63,829	0,065	0,019
-256,380	-200,000	0,028	0,141
-255,365	670,455	0,036	0,066
-254,351	12,763	0,035	0,019
-253,336	-200,000	0,010	-0,035
-252,322	-102,763	0,066	-0,011
-251,307	-44,011	-0,154	0,055
-250,292	800,000	-0,032	-0,074
-249,278	54,366	0,110	-0,075
-248,263	141,512	0,073	0,069
-247,249	-200,000	-0,031	0,161
-246,234	-200,000	-0,022	0,099
-245,219	-200,000	-0,018	-0,062
-244,205	-159,059	0,057	-0,002
-243,190	-41,446	0,138	0,050
-242,176	-200,000	-0,018	-0,078
-241,161	109,871	0,057	0,048
-240,146	800,000	0,030	0,076
-239,132	-9,638	-0,045	-0,021
-238,117	800,000	-0,022	0,051
-237,103	-28,698	-0,074	-0,030
-236,088	-200,000	0,001	0,094
-235,073	-95,545	-0,048	-0,009
-234,059	-130,961	0,098	-0,009
-233,044	31,521	0,086	0,052
-232,030	35,074	0,064	-0,040
-231,015	-200,000	-0,018	-0,108
-230,000	-200,000	-0,010	-0,114
-228,986	415,031	0,043	-0,066
-227,971	0,534	-0,071	-0,036
-226,957	800,000	0,028	0,073
-225,942	-36,910	0,009	0,003
-224,927	13,348	0,058	-0,032
-223,913	-178,222	-0,052	-0,001
-222,898	-200,000	-0,018	-0,103
-221,884	-200,000	0,024	-0,117
-220,869	-200,000	0,025	0,137
-219,855	800,000	0,047	0,132
-218,840	800,000	-0,063	0,126
-217,825	-0,001	-0,073	0,037
-216,811	458,524	-0,034	0,054
-215,796	-38,751	0,008	-0,003
-214,782	-107,802	-0,079	-0,012
-213,767	-200,000	-0,018	-0,130
-212,752	800,000	0,067	0,138
-211,738	-67,890	0,030	-0,008
-210,723	-113,859	-0,072	0,010
-209,709	-15,374	-0,079	0,036
-208,694	77,118	-0,139	-0,105
-207,679	800,000	0,035	-0,086
-206,665	-200,000	-0,006	0,112
-205,650	150,361	0,131	0,126
-204,636	71,119	0,039	-0,029
-203,621	352,024	0,026	0,037
-202,606	-98,722	-0,088	-0,016
-201,592	-101,602	0,110	-0,019
-200,577	-200,000	0,012	-0,075
-199,563	4,977	0,019	-0,010
-198,548	-89,552	0,131	-0,027
-197,533	-95,432	0,013	0,002
-196,519	-17,911	-0,083	0,037
-195,504	28,876	0,048	-0,029
-194,490	-10,044	-0,116	-0,055
-193,475	-120,213	0,068	-0,008
-192,460	115,812	0,101	-0,088
-191,446	-153,549	-0,067	-0,003
-190,431	800,000	-0,023	0,065
-189,417	-200,000	0,008	0,087
-188,402	-48,773	0,067	-0,023
-187,387	-200,000	-0,016	0,114
-186,373	-108,648	0,071	-0,011
-185,358	-2,073	0,147	0,073
-184,344	-200,000	-0,002	0,010
-183,329	-200,000	-0,002	0,035
-182,315	23,623	0,124	0,072
-181,300	-200,000	-0,008	0,075
-180,285	297,065	0,020	0,026
-179,271	42,403	0,056	0,036
-178,256	-162,725	-0,052	0,002
-177,242	800,000	0,032	-0,077
-176,227	235,402	0,046	0,054
-175,212	-123,202	0,031	0,003
-174,198	545,384	-0,036	0,061
-173,183	-143,944	-0,209	0,014
-172,169	800,000	-0,022	-0,057
-171,154	-200,000	-0,010	0,098
-170,139	800,000	-0,028	0,072
-169,125	-200,000	-0,040	0,137
-168,110	489,537	0,087	0,142
-167,096	-88,793	-0,092	-0,019
-166,081	88,677	0,062	0,049
-165,066	-200,000	0,037	-0,155
-164,052	800,000	0,035	-0,104
-163,037	132,001	0,021	0,020
-162,023	106,218	0,067	0,057
-161,008	209,353	0,138	0,153
-159,993	800,000	0,027	0,062
-158,979	-200,000	-0,040	-0,175
-157,964	-24,165	0,096	-0,040
-156,950	-117,517	-0,021	0,003
-155,935	-46,464	0,088	-0,031
-154,920	92,073	0,059	0,047
-153,906	32,308	0,029	0,018
-152,891	35,337	-0,068	0,042
-151,877	134,068	-0,135	0,124
-150,862	-48,658	-0,091	0,031
-149,847	-200,000	-0,003	-0,011
-148,833	67,508	-0,060	0,043
-147,818	-200,000	-0,022	0,080
-146,804	42,598	0,053	-0,034
-145,789	-90,256	0,129	-0,026
-144,775	800,000	-0,057	0,122
-143,760	-15,040	0,017	0,008
-142,745	-200,000	-0,001	-0,118
-141,731	-80,505	0,196	-0,046
-140,716	-200,000	0,008	0,058
-139,702	-109,971	-0,043	-0,006
-138,687	-52,185	0,025	-0,008
-137,672	-200,000	0,006	-0,065
-136,658	689,575	-0,063	0,117
-135,643	-200,000	-0,020	-0,102
-134,629	800,000	0,030	-0,075
-133,614	79,850	-0,138	-0,105
-132,599	-200,000	-0,019	0,061
-131,585	-107,217	-0,064	-0,010
-130,570	-63,569	0,177	0,051
-129,556	800,000	-0,046	0,098
-128,541	-200,000	-0,038	0,125
-127,526	153,534	0,047	0,046
-126,512	-200,000	-0,029	0,197
-125,497	264,106	0,031	-0,038
-124,483	-49,755	0,064	0,021
-123,468	36,826	0,025	-0,016
-122,453	47,150	-0,096	0,063
-121,439	-200,000	-0,002	-0,029
-120,424	1,223	-0,048	0,024
-119,410	800,000	-0,033	0,064
-118,395	321,204	0,084	-0,114
-117,380	134,483	0,038	0,035
-116,366	-109,792	0,020	0,003
-115,351	-200,000	0,011	-0,136
-114,337	170,018	-0,038	-0,038
-113,322	-200,000	0,014	0,081
-112,307	-72,376	-0,019	-0,005
-111,293	174,270	0,064	0,066
-110,278	375,542	-0,056	0,081
-109,264	-61,471	0,058	-0,017
-108,249	800,000	0,026	0,061
-107,234	120,685	-0,119	-0,105
-106,220	112,883	-0,082	0,070
-105,205	-200,000	-0,004	-0,044
-104,191	492,034	0,033	0,053
-103,176	-200,000	-0,032	0,168
-102,162	-63,575	0,111	0,032
-101,147	79,474	-0,162	0,122
-100,132	726,250	-0,016	0,031
-99,118	-200,000	0,023	0,092
-98,103	-173,779	-0,104	-0,002
-97,089	40,537	0,088	-0,056
-96,074	-70,859	-0,087	0,023
-95,059	-200,000	-0,003	0,025
-94,045	-200,000	-0,018	-0,182
-93,030	27,177	0,079	0,047
-92,016	-151,914	-0,112	-0,006
-91,001	4,166	-0,052	0,027
-89,986	296,199	0,078	-0,102
-88,972	88,711	0,122	-0,096
-87,957	-200,000	-0,000	-0,177
-86,943	-125,544	0,085	0,009
-85,928	-77,070	-0,190	-0,046
-84,913	-200,000	-0,008	-0,184
-83,899	800,000	-0,036	0,112
-82,884	59,450	0,101	0,071
-81,870	800,000	-0,036	0,096
-80,855	566,644	0,078	0,134
-79,840	-96,028	0,044	0,008
-78,826	800,000	-0,035	-0,079
-77,811	-200,000	0,002	0,049
-76,797	216,775	-0,045	0,051
-75,782	800,000	0,041	-0,098
-74,767	-85,925	0,106	-0,023
-73,753	413,723	-0,048	0,072
-72,738	800,000	-0,065	-0,150
-71,724	-14,043	-0,113	0,051
-70,709	-49,686	-0,039	-0,013
-69,694	134,325	-0,136	0,125
-68,680	-152,770	0,061	-0,003
-67,665	-200,000	0,016	0,051
-66,651	-115,691	-0,027	0,003
-65,636	-49,296	0,042	-0,014
-64,622	315,379	0,038	-0,050
-63,607	352,834	0,029	0,040
-62,592	-57,518	0,043	0,013
-61,578	469,658	-0,020	-0,032
-60,563	257,583	0,072	-0,088
-59,549	-27,705	0,119	0,049
-58,534	32,043	-2,156	-1,309
-57,519	431,130	-1,280	-1,964
-56,505	-200,000	-0,187	-4,175
-55,490	495,189	0,965	1,569
-54,476	800,000	5,082	11,206
-53,461	-200,000	21,682	343,210
-52,446	800,000	762,985	2352,473
-51,432	551,285	1662,470	2826,768
-50,417	72,016	1658,396	1216,405
-49,403	17,350	1532,153	856,015
-48,388	11,375	1455,834	784,513
-47,373	19,395	1447,236	818,278
-46,359	14,915	1436,326	790,809
-45,344	9,680	1432,171	763,602
-44,330	9,694	1430,242	762,607
-43,315	9,584	1428,672	761,218
-42,300	9,603	1426,859	760,313
-41,286	9,657	1425,478	759,803
-40,271	9,651	1424,159	759,038
-39,257	9,601	1423,196	758,259
-38,242	9,637	1422,117	757,826
-37,227	9,616	1420,957	757,079
-36,213	9,657	1419,720	756,584
-35,198	9,646	1418,416	755,805
-34,184	9,678	1417,613	755,497
-33,169	9,618	1416,215	754,440
-32,154	9,640	1415,126	753,937
-31,140	9,604	1414,071	753,176
-30,125	9,709	1412,696	752,904
-29,111	9,664	1411,554	752,057
-28,096	9,640	1410,273	751,230
-27,082	9,611	1409,275	750,531
-26,067	9,621	1408,273	750,015
-25,052	9,620	1407,202	749,412
-24,038	9,584	1406,374	748,774
-23,023	9,560	1405,379	748,102
-22,009	9,581	1404,311	747,600
-20,994	9,601	1403,130	747,035
-19,979	9,558	1402,444	746,442
-18,965	9,545	1401,440	745,817
-17,950	9,540	1400,543	745,287
-16,936	9,530	1399,809	744,819
-15,921	9,511	1398,711	744,117
-14,906	9,515	1397,691	743,563
-13,892	9,554	1396,730	743,203
-12,877	9,543	1395,810	742,633
-11,863	9,485	1395,215	742,019
-10,848	9,478	1394,299	741,469
-9,833	9,432	1393,408	740,752
-8,819	9,454	1392,461	740,322
-7,804	9,403	1391,568	739,580
-6,790	9,415	1390,466	739,024
-5,775	9,406	1389,513	738,443
-4,760	9,372	1388,540	737,742
-3,746	9,440	1387,576	737,513
-2,731	9,404	1386,693	736,850
-1,717	9,403	1385,862	736,374
-0,702	9,447	1383,848	735,477
0,313	13,444	1296,440	707,277
1,327	29,414	687,498	411,146
2,342	45,615	118,716	77,199
3,356	-2,256	16,517	8,143
4,371	-0,655	3,792	1,890
5,386	-12,445	1,112	0,510
6,400	800,000	0,195	0,518
7,415	143,003	-0,170	-0,159
8,429	63,411	-0,232	-0,163
9,444	14,010	-0,265	-0,145
10,459	-1,732	-0,273	-0,135
11,473	-26,434	-0,182	-0,075
12,488	-72,437	-0,306	-0,079
13,502	32,339	-0,311	-0,189
14,517	-10,182	-0,331	-0,154
15,531	147,059	-0,255	-0,241
16,546	-63,325	-0,391	-0,113
17,561	52,047	-0,277	-0,186
18,575	-154,849	-0,203	-0,009
19,590	234,937	-0,240	-0,280
20,604	-127,283	-0,355	-0,036
21,619	347,251	-0,272	-0,378
22,634	84,767	-0,429	-0,331
23,648	47,697	-0,474	-0,311
24,663	307,198	-0,242	-0,318
25,677	199,603	-0,317	-0,343
26,692	14,802	-0,306	-0,168
27,707	96,618	-0,232	-0,187
28,721	21,087	-0,399	-0,227
29,736	18,248	-0,399	-0,224
30,750	175,989	-0,398	-0,407
31,765	175,133	-0,309	-0,315
32,780	168,293	-0,353	-0,353
33,794	69,977	-0,362	-0,262
34,809	-2,114	-0,423	-0,208
35,823	121,826	-0,294	-0,257
36,838	7,151	-0,449	-0,235
37,853	159,210	-0,351	-0,344
38,867	39,767	-0,319	-0,201
39,882	6,689	-0,412	-0,215
40,896	138,796	-0,264	-0,244
41,911	103,261	-0,302	-0,249
42,926	-41,480	-0,392	-0,141
43,940	289,091	-0,244	-0,312
44,955	146,270	-0,267	-0,252
45,969	43,366	-0,323	-0,207
46,984	303,321	-0,270	-0,353
47,999	-45,327	-0,371	-0,129
49,013	-52,464	-0,352	-0,114
50,028	12,765	-0,339	-0,183
51,042	37,826	-0,465	-0,290
52,057	177,718	-0,308	-0,315
53,071	-12,197	-0,266	-0,122
54,086	144,881	-0,241	-0,226
55,101	155,454	-0,196	-0,189
56,115	9,806	-0,398	-0,211
57,130	158,935	-0,345	-0,337
58,144	91,915	-0,365	-0,288
59,159	-1,001	-0,468	-0,232
60,174	230,687	-0,265	-0,305
61,188	114,932	-0,352	-0,301
62,203	147,848	-0,291	-0,276
63,217	39,133	-0,413	-0,259
64,232	-39,223	-0,367	-0,135
65,247	-36,324	-0,315	-0,118
66,261	-17,796	-0,409	-0,179
67,276	555,535	-0,263	-0,446
68,290	194,992	-0,236	-0,252
69,305	88,413	-0,273	-0,213
70,320	-31,619	-0,393	-0,154
71,334	21,838	-0,261	-0,149
72,349	-20,585	-0,364	-0,156
73,363	140,049	-0,159	-0,147
74,378	97,218	-0,245	-0,197
75,393	12,039	-0,406	-0,218
76,407	229,971	-0,220	-0,252
77,422	146,081	-0,196	-0,184
78,436	329,557	-0,229	-0,309
79,451	-29,060	-0,326	-0,130
80,466	59,765	-0,395	-0,273
81,480	42,397	-0,352	-0,224
82,495	83,444	-0,222	-0,169
83,509	508,265	-0,166	-0,270
84,524	109,430	-0,179	-0,150
85,539	40,326	-0,311	-0,196
86,553	16,040	-0,184	-0,101
87,568	291,693	-0,215	-0,275
88,582	157,162	-0,187	-0,181
89,597	26,111	-0,324	-0,189
90,611	75,811	-0,252	-0,186
91,626	20,033	-0,281	-0,158
92,641	93,549	-0,212	-0,167
93,655	-118,213	-0,263	0,032
94,670	-31,575	-0,394	-0,154
95,684	-49,499	-0,414	-0,137
96,699	20,050	-0,307	-0,173
97,714	211,687	-0,242	-0,267
98,728	40,387	-0,187	-0,117
99,743	-161,124	-0,222	-0,008
100,757	186,591	-0,193	-0,202
101,772	159,844	-0,240	-0,234
102,787	97,796	-0,342	-0,274
103,801	171,564	-0,251	-0,252
104,816	434,563	-0,165	-0,252
105,830	-49,222	-0,239	-0,079
106,845	311,762	-0,186	-0,245
107,860	-95,652	-0,327	-0,061
108,874	85,843	-0,222	-0,171
109,889	-7,061	-0,335	-0,158
110,903	-59,791	-0,281	-0,083
111,918	27,669	-0,211	-0,124
112,933	-45,426	-0,245	-0,084
113,947	48,046	-0,107	-0,070
114,962	-58,510	-0,396	-0,119
115,976	151,526	-0,243	-0,231
116,991	237,304	-0,234	-0,271
118,006	528,604	-0,191	-0,316
119,020	25,854	-0,285	-0,165
120,035	26,332	-0,341	-0,198
121,049	5,493	-0,082	-0,042
122,064	-83,693	-0,308	-0,068
123,079	83,506	-0,148	-0,113
124,093	-45,843	-0,297	-0,102
125,108	-2,007	-0,225	-0,110
126,122	49,884	-0,071	-0,047
127,137	-69,733	-0,290	-0,077
128,151	-10,060	-0,226	-0,105
129,166	44,418	-0,235	-0,150
130,181	-35,284	-0,325	-0,123
131,195	120,550	-0,183	-0,158
132,210	108,888	-0,298	-0,249
133,224	353,488	-0,221	-0,307
134,239	27,335	-0,265	-0,155
135,254	208,725	-0,158	-0,173
136,268	211,096	-0,200	-0,220
137,283	98,518	-0,198	-0,159
138,297	34,539	-0,215	-0,130
139,312	-2,693	-0,303	-0,147
140,327	38,467	-0,319	-0,198
141,341	32,394	-0,266	-0,160
142,356	-46,949	-0,226	-0,077
143,370	-147,003	-0,250	-0,015
144,385	176,006	-0,304	-0,308
145,400	286,000	-0,236	-0,297
146,414	62,552	-0,408	-0,283
147,429	20,405	-0,343	-0,193
148,443	-148,165	-0,215	-0,012
149,458	558,134	-0,138	-0,232
150,473	61,284	-0,293	-0,202
151,487	41,290	-0,173	-0,109
152,502	340,853	-0,196	-0,267
153,516	304,815	-0,182	-0,236
154,531	202,867	-0,283	-0,305
155,546	308,555	-0,178	-0,232
156,560	-62,089	-0,228	-0,066
157,575	250,773	-0,227	-0,269
158,589	-68,564	-0,237	-0,063
159,604	73,901	-0,223	-0,163
160,619	52,290	-0,189	-0,125
161,633	145,086	-0,226	-0,211
162,648	115,250	-0,251	-0,213
163,662	-48,472	-0,165	-0,055
164,677	9,130	-0,278	-0,146
165,692	90,528	-0,108	-0,084
166,706	7,761	-0,341	-0,177
167,721	39,418	-0,204	-0,127
168,735	38,917	-0,272	-0,169
169,750	800,000	-0,174	-0,354
170,764	-50,762	-0,115	-0,037
171,779	11,159	-0,241	-0,128
172,794	-39,693	-0,137	-0,049
173,808	206,512	-0,179	-0,194
174,823	-200,000	-0,055	-0,249
175,837	-31,092	-0,294	-0,114
176,852	157,393	-0,189	-0,182
177,867	800,000	-0,131	-0,285
178,881	-200,000	-0,036	-0,142
179,896	45,056	-0,277	-0,177
180,910	86,872	-0,231	-0,177
181,925	-63,568	-0,245	-0,069
182,940	210,198	-0,260	-0,284
183,954	-38,477	-0,256	-0,093
184,969	-122,332	-0,192	-0,021
185,983	464,389	-0,102	-0,158
186,998	30,942	-0,260	-0,154
188,013	711,445	-0,094	-0,174
189,027	-111,869	-0,258	-0,036
190,042	13,877	-0,281	-0,151
191,056	16,583	-0,345	-0,189
192,071	94,525	-0,221	-0,174
193,086	85,994	-0,254	-0,194
194,100	20,436	-0,209	-0,117
195,115	58,460	-0,198	-0,135
196,129	64,044	-0,174	-0,121
197,144	637,251	-0,206	-0,364
198,159	106,337	-0,188	-0,155
199,173	475,582	-0,080	-0,125
200,188	76,762	-0,180	-0,132
201,202	196,630	-0,210	-0,222
202,217	87,465	-0,220	-0,169
203,232	105,236	-0,219	-0,179
204,246	87,397	-0,261	-0,200
205,261	118,001	-0,254	-0,216
206,275	-6,174	-0,267	-0,126
207,290	199,466	-0,071	-0,076
208,304	227,513	-0,195	-0,219
209,319	-60,885	-0,167	-0,049
210,334	148,001	-0,167	-0,156
211,348	47,426	-0,122	0,079
212,363	305,891	-0,096	-0,124
213,377	-74,499	-0,121	-0,030
214,392	-56,252	-0,287	-0,088
215,407	371,977	-0,116	-0,164
216,421	39,786	-0,189	-0,117
217,436	127,658	-0,256	-0,225
218,450	-70,776	-0,187	-0,048
219,465	89,449	-0,204	-0,158
220,480	142,964	-0,103	-0,095
221,494	-14,859	-0,198	-0,087
222,509	48,010	-0,143	-0,092
223,523	315,188	-0,078	-0,101
224,538	-137,159	-0,208	-0,016
225,553	284,793	-0,215	-0,268
226,567	127,757	-0,185	-0,163
227,582	365,397	-0,168	-0,235
228,596	245,219	-0,175	-0,203
229,611	800,000	-0,144	-0,314
230,626	427,837	-0,160	-0,240
231,640	176,748	-0,230	-0,231
232,655	8,572	-0,130	-0,067
233,669	599,938	-0,132	-0,228
234,684	-25,720	-0,251	-0,102
235,699	-10,069	-0,186	-0,085
236,713	-118,580	-0,292	-0,035
237,728	564,367	-0,134	-0,226
238,742	340,317	-0,070	0,094
239,757	-119,683	-0,157	-0,019
240,772	-200,000	-0,040	-0,132
241,786	236,758	-0,243	-0,278
242,801	448,820	-0,148	-0,226
243,815	731,466	-0,101	-0,187
244,830	87,298	-0,199	-0,152
245,844	171,540	-0,198	-0,197
246,859	308,693	-0,227	-0,293
247,874	267,176	-0,248	-0,300
248,888	49,133	-0,212	-0,137
249,903	-53,784	-0,241	-0,076
250,917	619,409	-0,106	-0,184
251,932	107,381	-0,243	-0,199
252,947	318,298	-0,162	-0,212
253,961	12,084	-0,201	-0,106
254,976	157,134	-0,232	-0,221
255,990	76,330	-0,125	-0,091
257,005	102,029	-0,134	-0,108
258,020	-200,000	-0,049	-0,189
259,034	23,165	-0,103	0,058
260,049	800,000	-0,098	-0,267
261,063	49,088	-0,198	-0,128
262,078	479,160	-0,172	-0,270
263,093	365,454	-0,139	-0,194
264,107	679,754	-0,122	-0,221
265,122	320,115	-0,164	-0,214
266,136	-110,248	-0,256	-0,036
267,151	56,625	-0,124	0,083
268,166	137,732	-0,197	-0,178
269,180	-124,227	-0,263	0,028
270,195	238,972	-0,098	-0,113
271,209	104,834	-0,208	-0,169
272,224	800,000	-0,090	-0,195
273,239	109,842	-0,122	-0,101
274,253	178,204	-0,098	-0,099
275,268	11,124	-0,169	-0,089
276,282	168,562	-0,213	-0,209
277,297	111,111	-0,282	-0,234
278,312	189,252	-0,162	-0,167
279,326	-126,274	-0,238	-0,024
280,341	-56,889	-0,101	-0,031
281,355	3,509	-0,117	-0,059
282,370	-21,751	-0,160	-0,067
283,384	-200,000	-0,069	-0,230
284,399	167,349	-0,216	-0,211
285,414	19,192	-0,205	-0,113
286,428	-34,847	-0,216	-0,081
287,443	-163,612	-0,024	0,001
288,457	665,906	-0,086	-0,154
289,472	-36,924	-0,030	0,011
290,487	3,859	-0,193	-0,096
291,501	800,000	-0,106	-0,210
292,516	127,679	-0,120	-0,105
293,530	82,885	-0,176	-0,132
294,545	154,552	-0,210	-0,198
295,560	-66,097	-0,225	0,061
296,574	-23,014	-0,096	-0,039
297,589	-87,840	-0,185	-0,038
298,603	29,492	-0,224	-0,131
299,618	65,348	-0,055	-0,038
300,633	77,301	-0,108	-0,078
301,647	500,714	-0,089	-0,141
302,662	753,953	-0,058	-0,108
303,676	800,000	-0,107	-0,221
304,691	-36,628	-0,168	-0,062
305,706	166,962	-0,181	-0,176
306,720	-48,923	-0,207	-0,068
307,735	-84,297	-0,282	-0,061
308,749	96,362	-0,071	-0,056
309,764	71,150	-0,174	-0,123
310,779	28,060	-0,144	-0,083
311,793	-48,912	-0,231	0,076
312,808	50,470	-0,191	-0,124
313,822	567,520	-0,151	-0,252
314,837	800,000	-0,094	-0,229
315,852	-106,966	-0,190	0,029
316,866	-200,000	-0,028	-0,112
317,881	508,075	-0,107	-0,172
318,895	800,000	-0,035	-0,072
319,910	-127,525	-0,223	-0,022
320,925	59,046	-0,205	-0,138
321,939	118,965	-0,162	-0,137
322,954	137,770	-0,068	0,061
323,968	23,701	-0,130	-0,073
324,983	79,901	-0,101	-0,074
325,997	-2,319	-0,131	-0,063
327,012	5,571	-0,150	-0,076
328,027	-6,704	-0,234	-0,109
329,041	305,119	-0,102	-0,130
330,056	49,433	-0,205	-0,132
331,070	286,578	-0,127	-0,157
332,085	244,798	-0,132	-0,152
333,100	167,388	-0,091	-0,089
334,114	800,000	-0,021	-0,060
335,129	30,016	-0,114	0,066
336,143	-33,906	-0,105	-0,039
337,158	-194,223	-0,074	-0,000
338,173	-94,686	-0,296	0,055
339,187	20,694	-0,108	-0,060
340,202	350,799	-0,128	-0,173
341,216	-35,628	-0,109	0,040
342,231	243,246	-0,119	-0,137
343,246	-200,000	-0,036	-0,230
344,260	467,657	-0,095	-0,147
345,275	439,354	-0,017	0,025
346,289	-98,204	-0,065	0,011
347,304	-86,761	-0,216	-0,045
348,319	-11,219	-0,151	-0,068
349,333	800,000	-0,089	-0,210
350,348	89,837	-0,222	-0,170
351,362	-154,999	-0,155	0,007
352,377	-144,337	-0,155	-0,010
353,392	-77,725	0,032	0,008
354,406	-60,420	-0,229	-0,066
355,421	208,382	1305,640	1397,429
356,435	160,336	1465,245	1397,904
