DTS Sentinel unit serial number:	SN410029Multiplexer serial number:	ORYXHardware model number:	OX2-SRSoftware version number:	ORYX F/W v4,00 Oryx Data Collector v3.7.2.0data status	okinstallation	B3 Nyhavnadifferential loss correction	single-endedforward channel	channel 1reverse channel	N/Adate	2023/12/05time	06:22:30forward acquisition time	300,00reverse acquisition time	0,00gamma	499,1914k internal	0,3201k external	0,3201temperature offset calibration	1,0000default loss term (dB/km)	0,3820temperature slope calibration	1,0000multiplexer offset coefficient	1,0000multiplexer slope coefficient	1,0000fibre end	0,00T internal ref (°C)	13,94T ext. ref 1 (°C)	-1,03T ext. ref 2 (°C)	-1,06length (m)	temperature (°C)	Stokes	anti-Stokes-744,400	370,283	-0,186	-0,275
-743,385	-200,000	-0,056	0,270
-742,371	3,082	-0,290	-0,153
-741,356	-200,000	0,012	0,344
-740,342	57,026	-0,274	-0,194
-739,327	-200,000	-0,007	0,225
-738,312	193,462	-0,157	-0,173
-737,298	-200,000	0,087	0,295
-736,283	348,077	-0,213	-0,306
-735,269	167,948	0,160	0,166
-734,254	-16,285	-0,319	-0,147
-733,239	-67,268	-0,273	0,078
-732,225	379,490	-0,155	-0,231
-731,210	369,909	0,121	0,178
-730,196	441,049	0,028	-0,045
-729,181	-3,395	0,174	0,088
-728,167	-106,291	-0,089	-0,014
-727,152	800,000	0,091	-0,229
-726,137	800,000	-0,049	0,104
-725,123	75,813	-0,096	-0,074
-724,108	-87,767	-0,231	0,050
-723,094	124,472	-0,081	0,074
-722,079	-28,319	0,184	-0,077
-721,064	761,578	0,042	-0,082
-720,050	-1,868	-0,098	-0,050
-719,035	-7,949	-0,047	0,023
-718,021	699,662	-0,086	0,166
-717,006	-10,414	-0,116	-0,056
-715,991	-74,934	-0,149	-0,038
-714,977	-2,009	-0,185	-0,094
-713,962	-51,581	-0,078	-0,026
-712,948	-47,647	0,079	0,028
-711,933	149,791	0,051	-0,050
-710,918	800,000	-0,042	-0,105
-709,904	-200,000	-0,006	-0,032
-708,889	233,515	-0,060	-0,072
-707,875	800,000	-0,045	-0,139
-706,860	326,269	0,087	-0,122
-705,845	-200,000	0,009	0,137
-704,831	-125,396	-0,037	0,004
-703,816	302,631	-0,039	-0,053
-702,802	-135,863	-0,044	-0,004
-701,787	112,470	-0,143	-0,125
-700,772	-31,629	-0,083	-0,034
-699,758	-71,714	-0,078	-0,021
-698,743	-200,000	0,013	-0,076
-697,729	-133,546	-0,036	0,003
-696,714	-200,000	-0,021	0,082
-695,699	9,692	0,116	-0,064
-694,685	109,742	-0,149	-0,129
-693,670	-200,000	0,003	-0,158
-692,656	-37,815	0,124	0,048
-691,641	-200,000	-0,009	-0,081
-690,627	-200,000	-0,006	-0,031
-689,612	-165,064	-0,103	0,003
-688,597	161,328	-0,008	0,008
-687,583	800,000	0,038	0,095
-686,568	-39,288	-0,160	-0,061
-685,554	-157,155	-0,134	-0,006
-684,539	11,803	0,066	-0,037
-683,524	-200,000	-0,001	0,062
-682,510	-42,008	0,046	-0,017
-681,495	-42,300	0,113	-0,042
-680,481	-200,000	-0,030	-0,159
-679,466	120,956	-0,115	-0,104
-678,451	148,806	-0,148	-0,145
-677,437	36,713	-0,051	-0,032
-676,422	800,000	0,019	0,058
-675,408	-200,000	-0,042	0,141
-674,393	499,787	-0,020	0,034
-673,378	-200,000	-0,018	0,116
-672,364	140,225	-0,082	-0,079
-671,349	800,000	-0,034	-0,088
-670,335	800,000	-0,064	0,148
-669,320	128,179	0,078	0,072
-668,305	464,883	0,033	-0,053
-667,291	177,470	-0,073	0,077
-666,276	-200,000	-0,009	-0,046
-665,262	-200,000	-0,045	-0,170
-664,247	311,670	0,043	-0,059
-663,232	46,806	0,085	0,057
-662,218	800,000	-0,017	-0,041
-661,203	270,978	-0,002	-0,002
-660,189	-143,337	0,072	0,005
-659,174	302,125	-0,021	-0,028
-658,159	539,740	-0,048	-0,084
-657,145	151,162	-0,070	-0,069
-656,130	-200,000	-0,019	-0,151
-655,116	-200,000	-0,007	0,111
-654,101	-160,086	-0,019	0,001
-653,086	-34,243	-0,047	0,019
-652,072	48,540	-0,159	-0,108
-651,057	136,885	-0,070	-0,067
-650,043	-200,000	0,009	0,030
-649,028	-200,000	-0,042	-0,157
-648,014	62,579	0,039	0,028
-646,999	-200,000	-0,001	0,040
-645,984	38,751	0,035	0,022
-644,970	110,456	-0,049	0,043
-643,955	12,183	0,013	0,007
-642,941	-93,455	-0,102	0,020
-641,926	-81,198	-0,117	0,028
-640,911	247,682	0,072	0,088
-639,897	-200,000	0,003	0,071
-638,882	-40,768	0,059	-0,022
-637,868	116,627	0,059	0,052
-636,853	-200,000	0,013	-0,086
-635,838	800,000	0,035	-0,100
-634,824	800,000	-0,018	-0,042
-633,809	-129,374	0,146	0,014
-632,795	460,499	0,062	-0,100
-631,780	-39,897	0,158	-0,060
-630,765	68,985	-0,163	-0,121
-629,751	800,000	0,045	-0,120
-628,736	-36,731	-0,068	0,026
-627,722	-85,293	-0,121	-0,027
-626,707	800,000	-0,047	-0,102
-625,692	622,239	0,081	-0,148
-624,678	131,257	0,014	-0,013
-623,663	-43,907	-0,147	0,053
-622,649	225,263	-0,044	0,052
-621,634	207,018	-0,071	-0,080
-620,619	-200,000	-0,009	0,063
-619,605	-52,841	0,035	-0,011
-618,590	94,818	0,098	-0,080
-617,576	612,492	-0,033	-0,060
-616,561	-200,000	-0,010	-0,041
-615,546	309,840	0,046	-0,062
-614,532	-54,935	0,045	-0,015
-613,517	-72,394	-0,094	-0,025
-612,503	-200,000	-0,041	0,133
-611,488	104,655	-0,110	0,094
-610,474	207,543	0,043	-0,049
-609,459	27,241	-0,047	0,029
-608,444	800,000	-0,016	-0,048
-607,430	167,750	-0,064	-0,066
-606,415	-163,345	-0,144	0,005
-605,401	-200,000	0,012	-0,043
-604,386	-200,000	0,008	0,093
-603,371	32,275	0,145	-0,091
-602,357	54,025	0,045	-0,031
-601,342	-85,701	-0,044	0,010
-600,328	-200,000	-0,014	-0,168
-599,313	-200,000	0,032	-0,111
-598,298	230,474	0,046	-0,054
-597,284	-200,000	0,002	-0,042
-596,269	13,894	-0,060	-0,033
-595,255	221,542	-0,032	-0,037
-594,240	-100,515	0,054	0,010
-593,225	327,380	-0,027	-0,037
-592,211	190,866	0,049	0,054
-591,196	-200,000	-0,014	-0,084
-590,182	124,911	-0,033	0,030
-589,167	81,234	-0,046	0,036
-588,152	800,000	0,019	-0,051
-587,138	125,645	-0,047	-0,042
-586,123	-200,000	-0,009	-0,033
-585,109	146,149	-0,058	0,056
-584,094	800,000	-0,048	0,141
-583,079	90,327	-0,008	0,007
-582,065	-200,000	-0,055	0,230
-581,050	-200,000	-0,007	0,115
-580,036	51,504	0,062	0,043
-579,021	7,334	0,064	-0,034
-578,006	329,007	-0,089	-0,124
-576,992	-54,637	-0,087	0,028
-575,977	381,366	0,034	-0,051
-574,963	70,364	0,082	-0,061
-573,948	-121,427	0,051	-0,006
-572,934	800,000	0,032	-0,097
-571,919	552,705	-0,057	-0,099
-570,904	260,998	0,053	0,066
-569,890	149,002	-0,010	0,010
-568,875	368,618	-0,063	0,093
-567,861	-3,789	0,207	0,103
-566,846	436,755	-0,037	0,059
-565,831	-35,231	0,081	0,032
-564,817	-11,496	-0,045	0,021
-563,802	-200,000	-0,020	-0,155
-562,788	800,000	0,054	-0,117
-561,773	-109,910	-0,095	0,014
-560,758	327,161	0,052	0,072
-559,744	99,988	-0,056	0,047
-558,729	643,414	-0,096	0,177
-557,715	-200,000	0,010	0,065
-556,700	-132,536	0,052	0,005
-555,685	-200,000	-0,008	-0,142
-554,671	-200,000	0,014	-0,074
-553,656	800,000	0,030	0,091
-552,642	-36,293	-0,074	-0,029
-551,627	43,390	0,031	0,020
-550,612	44,467	-0,037	-0,025
-549,598	212,679	-0,069	-0,079
-548,583	-6,123	0,043	0,021
-547,569	-89,354	0,037	-0,008
-546,554	-27,197	0,153	-0,064
-545,539	-89,670	0,011	0,002
-544,525	41,360	-0,029	0,019
-543,510	800,000	-0,007	0,016
-542,496	-103,934	0,083	0,014
-541,481	91,193	0,045	0,037
-540,466	38,007	0,101	0,065
-539,452	800,000	0,010	-0,026
-538,437	-104,182	0,099	0,016
-537,423	-200,000	0,002	0,045
-536,408	-200,000	-0,006	0,093
-535,393	-100,651	-0,049	-0,009
-534,379	-200,000	-0,005	-0,024
-533,364	545,161	-0,056	0,097
-532,350	-129,033	0,052	-0,005
-531,335	-200,000	-0,055	0,182
-530,321	-200,000	0,013	0,075
-529,306	-200,000	0,003	0,051
-528,291	-200,000	-0,015	-0,137
-527,277	395,106	-0,028	0,042
-526,262	-57,447	0,091	0,029
-525,248	800,000	-0,029	0,061
-524,233	-200,000	-0,001	0,035
-523,218	-200,000	0,012	-0,046
-522,204	800,000	-0,022	0,063
-521,189	800,000	-0,044	-0,120
-520,175	260,559	0,036	-0,045
-519,160	-200,000	0,036	-0,179
-518,145	-200,000	0,019	-0,064
-517,131	800,000	0,030	0,074
-516,116	-126,254	0,060	-0,006
-515,102	-200,000	-0,022	0,069
-514,087	-133,085	-0,129	0,012
-513,072	160,529	-0,105	-0,106
-512,058	-100,694	0,164	0,029
-511,043	-102,616	-0,038	0,006
-510,029	-106,866	-0,144	-0,023
-509,014	-47,593	0,029	-0,010
-507,999	-200,000	0,005	-0,020
-506,985	117,646	-0,050	0,044
-505,970	507,349	-0,012	-0,021
-504,956	592,744	0,094	-0,168
-503,941	-55,234	0,021	-0,007
-502,926	-17,411	-0,058	-0,026
-501,912	411,388	0,051	0,079
-500,897	231,683	-0,073	0,086
-499,883	22,623	-0,126	-0,074
-498,868	-76,036	-0,020	-0,005
-497,853	-26,712	-0,030	-0,013
-496,839	423,766	0,013	-0,021
-495,824	-66,574	0,099	-0,028
-494,810	-200,000	-0,012	0,039
-493,795	257,694	0,072	-0,090
-492,781	-171,221	-0,108	-0,003
-491,766	228,518	0,080	-0,094
-490,751	193,627	-0,076	0,082
-489,737	-155,472	0,111	-0,005
-488,722	150,776	-0,002	-0,002
-487,708	-63,013	0,125	-0,037
-486,693	-61,300	-0,173	0,052
-485,678	37,767	0,089	-0,057
-484,664	49,189	0,064	0,043
-483,649	-200,000	0,033	-0,190
-482,635	78,337	-0,138	0,106
-481,620	-200,000	-0,053	0,185
-480,605	176,123	0,068	-0,071
-479,591	187,133	-0,019	0,020
-478,576	65,382	-0,128	0,093
-477,562	-62,254	0,054	-0,016
-476,547	800,000	0,024	0,073
-475,532	-37,332	-0,030	0,012
-474,518	-200,000	0,006	-0,080
-473,503	800,000	0,014	0,040
-472,489	-200,000	-0,018	0,203
-471,474	188,634	-0,179	0,193
-470,459	-124,382	0,066	-0,007
-469,445	800,000	-0,039	-0,080
-468,430	800,000	0,022	-0,045
-467,416	-200,000	0,018	-0,072
-466,401	-19,792	0,152	0,067
-465,386	99,483	-0,081	-0,067
-464,372	-200,000	0,002	0,022
-463,357	-200,000	-0,032	-0,140
-462,343	194,559	-0,035	0,038
-461,328	329,696	0,074	0,103
-460,313	-148,221	0,152	0,009
-459,299	81,776	0,064	0,049
-458,284	-200,000	-0,002	0,087
-457,270	-9,846	0,054	-0,026
-456,255	-81,533	-0,161	0,038
-455,241	-55,708	0,024	0,008
-454,226	-200,000	0,024	-0,091
-453,211	148,998	-0,052	0,051
-452,197	176,803	0,104	0,109
-451,182	59,687	-0,057	0,040
-450,168	800,000	-0,026	-0,070
-449,153	-183,178	-0,115	-0,001
-448,138	4,513	-0,088	-0,046
-447,124	-200,000	-0,022	-0,084
-446,109	124,419	0,141	-0,128
-445,095	48,080	0,080	0,054
-444,080	379,806	0,047	-0,070
-443,065	-60,830	0,082	0,025
-442,051	-25,917	-0,162	-0,068
-441,036	106,809	-0,018	0,015
-440,022	164,994	0,086	0,087
-439,007	-200,000	0,038	0,138
-437,992	-200,000	-0,009	0,082
-436,978	-136,473	-0,035	0,003
-435,963	10,794	0,075	-0,041
-434,949	800,000	-0,076	-0,155
-433,934	196,239	-0,066	-0,073
-432,919	-54,771	-0,185	-0,060
-431,905	611,460	0,021	0,038
-430,890	-103,499	0,098	0,016
-429,876	436,139	0,079	-0,124
-428,861	43,884	0,037	-0,024
-427,846	69,120	-0,125	-0,093
-426,832	318,290	-0,026	-0,035
-425,817	-200,000	-0,004	-0,048
-424,803	800,000	-0,028	-0,062
-423,788	800,000	0,062	0,141
-422,773	179,421	0,059	0,062
-421,759	-23,033	0,039	0,017
-420,744	-200,000	0,024	0,089
-419,730	800,000	-0,042	-0,086
-418,715	268,822	0,018	-0,023
-417,701	358,749	-0,053	-0,076
-416,686	-128,563	-0,035	-0,003
-415,671	800,000	0,029	-0,072
-414,657	-200,000	0,017	0,181
-413,642	160,808	-0,088	0,088
-412,628	-200,000	0,025	0,156
-411,613	-32,845	-0,162	0,064
-410,598	-200,000	0,099	0,000
-409,584	-200,000	-0,017	-0,143
-408,569	210,825	-0,008	0,009
-407,555	-69,498	0,123	-0,034
-406,540	800,000	-0,046	0,111
-405,525	63,273	-0,026	-0,018
-404,511	-69,904	0,062	-0,017
-403,496	-47,468	-0,058	-0,020
-402,482	-48,155	0,118	0,041
-401,467	39,606	-0,068	0,044
-400,452	-200,000	-0,053	0,200
-399,438	-200,000	0,000	-0,014
-398,423	800,000	0,046	-0,126
-397,409	715,994	0,031	0,060
-396,394	-103,214	0,042	-0,007
-395,379	-88,710	0,151	-0,032
-394,365	77,484	0,059	0,045
-393,350	800,000	-0,058	0,121
-392,336	-70,290	0,065	0,017
-391,321	-79,647	-0,093	-0,022
-390,306	-15,624	-0,048	-0,022
-389,292	800,000	0,084	-0,180
-388,277	-195,553	-0,025	-0,000
-387,263	800,000	0,045	0,103
-386,248	62,874	0,112	0,080
-385,233	-200,000	-0,001	-0,032
-384,219	-21,387	-0,177	-0,077
-383,204	510,462	-0,054	-0,090
-382,190	-200,000	-0,036	-0,145
-381,175	44,870	0,075	-0,049
-380,160	95,575	-0,042	-0,034
-379,146	367,014	0,043	0,063
-378,131	-78,543	-0,073	0,018
-377,117	800,000	-0,029	-0,072
-376,102	343,469	0,065	-0,091
-375,088	-200,000	0,015	-0,169
-374,073	-200,000	-0,012	-0,149
-373,058	159,578	0,074	-0,074
-372,044	-200,000	0,043	0,196
-371,029	100,459	0,090	-0,075
-370,015	-82,897	-0,160	0,037
-369,000	-200,000	0,028	-0,089
-367,985	-28,035	0,041	0,017
-366,971	211,356	-0,048	0,055
-365,956	-200,000	0,014	-0,075
-364,942	-200,000	0,012	0,081
-363,927	-200,000	-0,019	0,061
-362,912	-200,000	-0,008	-0,117
-361,898	333,161	-0,043	-0,059
-360,883	-200,000	-0,001	-0,035
-359,869	-105,013	0,069	-0,011
-358,854	800,000	0,009	-0,026
-357,839	21,725	0,080	0,047
-356,825	-46,081	0,188	-0,066
-355,810	162,021	-0,084	-0,084
-354,796	800,000	-0,021	0,054
-353,781	-30,009	-0,071	-0,029
-352,766	-81,984	0,036	-0,008
-351,752	-200,000	-0,019	0,091
-350,737	117,646	0,025	0,022
-349,723	-200,000	0,007	0,117
-348,708	-48,402	0,243	0,083
-347,693	-7,340	-0,142	-0,068
-346,679	-167,331	-0,106	-0,003
-345,664	-80,891	-0,190	0,045
-344,650	314,121	0,103	-0,139
-343,635	-59,146	0,141	0,043
-342,620	143,362	-0,115	0,109
-341,606	1,539	0,040	-0,021
-340,591	205,113	-0,026	-0,029
-339,577	211,239	-0,056	-0,063
-338,562	162,687	0,079	-0,080
-337,548	-116,952	0,140	-0,018
-336,533	239,663	-0,079	-0,095
-335,518	-154,397	0,067	-0,003
-334,504	-200,000	-0,001	0,159
-333,489	683,790	-0,075	0,141
-332,475	-200,000	-0,013	0,081
-331,460	800,000	0,037	0,101
-330,445	301,301	-0,043	0,057
-329,431	-200,000	-0,032	0,103
-328,416	6,973	0,100	-0,053
-327,402	-134,762	0,083	-0,007
-326,387	-121,319	0,072	0,008
-325,372	-200,000	-0,012	-0,150
-324,358	154,038	0,059	-0,058
-323,343	66,933	-0,066	-0,048
-322,329	-171,195	0,147	0,003
-321,314	-99,072	0,059	0,011
-320,299	-200,000	-0,004	0,212
-319,285	-200,000	0,000	0,036
-318,270	-48,256	-0,089	0,030
-317,256	-107,859	-0,207	0,032
-316,241	258,103	0,076	-0,093
-315,226	800,000	0,017	-0,035
-314,212	-177,870	0,085	0,001
-313,197	-200,000	-0,018	-0,075
-312,183	184,605	0,062	-0,066
-311,168	-200,000	-0,015	-0,067
-310,153	-200,000	0,021	-0,088
-309,139	-115,083	0,101	0,014
-308,124	163,141	0,099	-0,099
-307,110	161,892	0,043	-0,043
-306,095	-200,000	-0,007	0,156
-305,080	-37,966	-0,088	0,033
-304,066	729,204	-0,061	0,118
-303,051	-200,000	0,009	-0,166
-302,037	1,317	-0,108	0,055
-301,022	-65,449	0,092	0,026
-300,008	-45,998	0,098	-0,034
-298,993	-200,000	0,007	0,097
-297,978	800,000	0,018	-0,055
-296,964	-200,000	-0,027	-0,101
-295,949	-97,527	-0,072	-0,013
-294,935	-67,206	0,010	0,003
-293,920	-200,000	-0,007	0,078
-292,905	-161,907	-0,074	-0,003
-291,891	291,017	-0,018	0,024
-290,876	-184,460	-0,107	-0,001
-289,862	-200,000	-0,020	0,115
-288,847	-84,182	0,043	-0,010
-287,832	-200,000	-0,027	-0,088
-286,818	284,347	-0,061	-0,079
-285,803	800,000	0,014	0,043
-284,789	82,806	0,023	-0,018
-283,774	-200,000	0,001	-0,009
-282,759	270,152	0,031	0,039
-281,745	168,272	-0,057	-0,058
-280,730	9,340	-0,071	-0,038
-279,716	545,549	-0,050	-0,086
-278,701	-200,000	0,013	0,053
-277,686	800,000	0,013	-0,028
-276,672	465,247	-0,063	0,100
-275,657	800,000	0,021	0,058
-274,643	-110,660	0,073	-0,011
-273,628	71,662	-0,039	-0,029
-272,613	137,033	-0,050	-0,046
-271,599	-200,000	-0,002	0,131
-270,584	800,000	0,043	0,098
-269,570	-12,329	-0,140	0,065
-268,555	800,000	-0,049	-0,139
-267,540	11,194	0,170	-0,093
-266,526	5,649	-0,056	0,029
-265,511	-104,220	-0,066	0,011
-264,497	-43,304	-0,068	-0,024
-263,482	-90,928	0,092	-0,019
-262,467	605,850	0,070	0,124
-261,453	-41,675	-0,045	-0,016
-260,438	-43,244	-0,050	-0,018
-259,424	-54,818	0,072	-0,023
-258,409	-10,648	-0,024	-0,011
-257,395	89,114	0,061	0,049
-256,380	-200,000	0,001	0,012
-255,365	-28,860	0,046	-0,019
-254,351	-200,000	-0,102	0,000
-253,336	27,351	-0,155	0,093
-252,322	57,831	-0,007	-0,005
-251,307	14,887	-0,019	-0,011
-250,292	-83,975	0,045	0,010
-249,278	-200,000	0,023	0,136
-248,263	800,000	0,067	0,160
-247,249	-32,378	0,082	0,032
-246,234	800,000	-0,059	-0,118
-245,219	143,035	0,106	-0,101
-244,205	-73,153	0,188	-0,049
-243,190	-200,000	-0,019	-0,139
-242,176	-17,475	-0,045	0,020
-241,161	-200,000	0,008	0,035
-240,146	-23,823	-0,077	0,033
-239,132	800,000	0,028	0,067
-238,117	-109,148	-0,107	-0,016
-237,103	-36,943	0,020	0,008
-236,088	48,207	0,119	0,079
-235,073	-30,238	-0,116	-0,047
-234,059	206,833	-0,090	0,100
-233,044	151,226	0,037	-0,036
-232,030	-200,000	0,004	-0,091
-231,015	-200,000	-0,016	-0,080
-230,000	33,946	-0,081	-0,050
-228,986	-128,726	-0,122	-0,012
-227,971	59,539	0,076	0,054
-226,957	-10,681	0,135	0,063
-225,942	117,833	-0,031	-0,028
-224,927	-200,000	-0,080	0,258
-223,913	-191,376	-0,157	-0,001
-222,898	800,000	-0,026	0,080
-221,884	237,570	-0,031	-0,037
-220,869	-200,000	-0,001	0,026
-219,855	124,243	0,132	0,119
-218,840	116,629	0,077	0,067
-217,825	-133,199	-0,143	0,013
-216,811	19,259	0,081	-0,046
-215,796	-30,956	-0,109	0,044
-214,782	248,791	-0,071	0,086
-213,767	-60,134	-0,032	-0,010
-212,752	175,029	0,058	0,060
-211,738	-110,972	0,063	-0,009
-210,723	-24,705	0,070	0,030
-209,709	141,039	0,046	0,043
-208,694	-97,937	-0,120	0,022
-207,679	758,223	0,047	0,091
-206,665	-97,887	0,084	0,015
-205,650	-200,000	0,010	-0,037
-204,636	800,000	0,051	-0,121
-203,621	560,096	0,025	0,043
-202,606	800,000	-0,008	0,019
-201,592	-200,000	0,034	-0,164
-200,577	27,089	0,145	0,087
-199,563	800,000	-0,004	0,012
-198,548	800,000	0,045	-0,100
-197,533	-48,741	0,181	0,062
-196,519	-200,000	0,018	0,110
-195,504	9,243	-0,118	0,063
-194,490	-78,949	-0,139	-0,033
-193,475	197,002	-0,087	-0,095
-192,460	207,122	0,027	-0,030
-191,446	-200,000	0,003	-0,013
-190,431	-200,000	0,041	0,146
-189,417	800,000	-0,063	0,153
-188,402	260,043	0,027	0,033
-187,387	121,960	-0,103	-0,091
-186,373	-200,000	-0,039	-0,136
-185,358	-73,352	-0,049	-0,013
-184,344	-12,964	-0,047	0,022
-183,329	60,691	0,047	0,033
-182,315	22,266	-0,060	-0,035
-181,300	556,715	0,046	0,080
-180,285	-200,000	0,005	-0,147
-179,271	150,798	0,111	-0,107
-178,256	357,556	-0,074	-0,106
-177,242	128,110	0,102	-0,092
-176,227	21,903	0,073	0,042
-175,212	620,497	-0,034	0,062
-174,198	209,687	-0,059	0,066
-173,183	118,634	0,049	0,043
-172,169	-200,000	-0,034	-0,115
-171,154	800,000	0,077	-0,211
-170,139	151,603	0,101	0,098
-169,125	-52,805	-0,079	0,026
-168,110	-112,131	-0,054	0,008
-167,096	800,000	-0,015	0,043
-166,081	-56,676	0,041	-0,013
-165,066	-200,000	0,001	-0,045
-164,052	-111,120	-0,240	-0,035
-163,037	-200,000	0,005	0,158
-162,023	800,000	0,015	-0,038
-161,008	-200,000	-0,010	0,067
-159,993	-129,140	-0,146	0,014
-158,979	-200,000	-0,005	-0,026
-157,964	-126,389	0,122	0,013
-156,950	-200,000	-0,007	-0,048
-155,935	-200,000	-0,043	0,164
-154,920	800,000	0,080	0,159
-153,906	266,174	0,038	0,048
-152,891	-200,000	0,005	-0,043
-151,877	-136,987	-0,150	-0,012
-150,862	-7,067	-0,101	0,049
-149,847	-93,064	0,091	0,018
-148,833	-124,616	0,019	-0,002
-147,818	-200,000	0,017	-0,067
-146,804	-49,440	0,031	0,011
-145,789	-200,000	-0,011	0,052
-144,775	429,471	0,006	0,009
-143,760	-200,000	-0,003	0,026
-142,745	-57,715	0,047	-0,015
-141,731	-200,000	-0,013	0,080
-140,716	800,000	-0,040	-0,123
-139,702	-200,000	0,032	0,113
-138,687	496,656	-0,031	0,051
-137,672	-87,043	0,067	-0,014
-136,658	-52,006	0,055	0,018
-135,643	675,452	-0,027	0,049
-134,629	311,287	0,029	0,038
-133,614	-1,646	-0,081	0,040
-132,599	-200,000	-0,047	0,152
-131,585	-37,155	-0,182	-0,069
-130,570	98,156	-0,051	-0,042
-129,556	-120,192	-0,146	-0,017
-128,541	199,760	0,012	0,014
-127,526	-200,000	0,010	0,038
-126,512	12,864	-0,121	-0,066
-125,497	-200,000	-0,007	0,105
-124,483	89,118	0,009	-0,007
-123,468	800,000	0,020	0,051
-122,453	169,752	-0,101	-0,103
-121,439	55,333	0,042	-0,028
-120,424	-111,444	-0,077	0,011
-119,410	-125,822	-0,029	0,003
-118,395	-96,509	0,049	0,009
-117,380	-72,326	0,109	0,028
-116,366	-40,521	0,098	-0,036
-115,351	-146,730	0,061	0,004
-114,337	-200,000	-0,002	-0,139
-113,322	221,935	0,022	0,025
-112,307	800,000	0,013	0,038
-111,293	-200,000	0,048	0,211
-110,278	159,071	0,051	-0,051
-109,264	-200,000	-0,031	-0,097
-108,249	27,503	0,038	0,022
-107,234	-200,000	0,005	-0,066
-106,220	181,983	0,028	-0,029
-105,205	216,995	-0,071	-0,081
-104,191	-200,000	0,020	0,085
-103,176	786,491	-0,032	0,063
-102,162	800,000	-0,028	-0,085
-101,147	215,230	-0,140	-0,158
-100,132	-200,000	-0,006	0,141
-99,118	-200,000	-0,026	0,141
-98,103	141,468	-0,101	0,095
-97,089	-10,239	0,030	0,014
-96,074	210,370	-0,054	0,060
-95,059	190,830	-0,057	0,061
-94,045	-42,056	0,092	0,033
-93,030	800,000	-0,033	-0,078
-92,016	-200,000	0,046	-0,169
-91,001	39,097	-0,096	0,061
-89,986	-72,695	-0,050	0,013
-88,972	-200,000	0,006	-0,120
-87,957	215,353	-0,091	0,103
-86,943	377,451	-0,087	-0,126
-85,928	274,667	-0,067	0,084
-84,913	-200,000	0,009	-0,040
-83,899	-200,000	-0,014	-0,076
-82,884	525,765	0,069	0,116
-81,870	33,511	0,122	0,075
-80,855	118,000	0,105	-0,092
-79,840	-200,000	-0,038	-0,122
-78,826	-89,581	-0,117	-0,024
-77,811	-200,000	-0,029	-0,189
-76,797	-200,000	0,025	-0,109
-75,782	-200,000	-0,005	0,126
-74,767	110,823	0,055	0,047
-73,753	800,000	-0,008	0,021
-72,738	-200,000	-0,012	0,111
-71,724	-147,543	-0,020	0,001
-70,709	-150,793	0,078	0,004
-69,694	-185,519	0,111	0,001
-68,680	-153,432	0,177	0,009
-67,665	572,399	0,082	-0,143
-66,651	50,227	0,028	0,019
-65,636	-116,219	0,050	-0,007
-64,622	421,515	-0,073	-0,111
-63,607	-30,435	-0,091	0,036
-62,592	-200,000	0,098	-0,000
-61,578	-72,710	-0,083	-0,022
-60,563	576,873	0,054	-0,094
-59,549	146,640	0,066	0,063
-58,534	-46,597	-1,536	-0,530
-57,519	412,369	-1,278	-1,929
-56,505	-200,000	-0,671	-4,718
-55,490	212,565	0,904	1,011
-54,476	800,000	4,967	11,547
-53,461	-200,000	18,935	309,671
-52,446	-200,000	738,325	2313,109
-51,432	573,609	1654,622	2868,340
-50,417	79,114	1671,070	1266,202
-49,403	21,961	1543,967	889,080
-48,388	15,799	1466,706	814,631
-47,373	17,753	1456,487	818,368
-46,359	16,808	1446,782	808,345
-45,344	14,071	1442,131	792,607
-44,330	13,968	1440,391	791,127
-43,315	14,000	1438,623	790,278
-42,300	14,032	1436,763	789,377
-41,286	14,019	1435,655	788,672
-40,271	13,987	1434,358	787,775
-39,257	14,002	1433,048	787,100
-38,242	14,064	1431,559	786,544
-37,227	14,049	1430,644	785,937
-36,213	14,049	1429,489	785,275
-35,198	14,032	1428,275	784,494
-34,184	14,082	1427,283	784,157
-33,169	13,966	1426,127	782,938
-32,154	14,055	1424,713	782,552
-31,140	14,064	1423,466	781,881
-30,125	14,096	1422,308	781,365
-29,111	14,051	1421,241	780,534
-28,096	14,044	1420,135	779,862
-27,082	13,959	1419,118	778,873
-26,067	13,972	1417,983	778,279
-25,052	13,986	1416,923	777,735
-24,038	13,960	1415,826	776,976
-23,023	13,935	1414,997	776,376
-22,009	13,926	1413,967	775,735
-20,994	13,898	1413,251	775,183
-19,979	13,901	1412,320	774,655
-18,965	13,908	1411,201	774,043
-17,950	13,895	1410,436	773,533
-16,936	13,905	1409,432	772,995
-15,921	13,885	1408,201	772,198
-14,906	13,872	1407,344	771,636
-13,892	13,879	1406,480	771,165
-12,877	13,856	1405,511	770,495
-11,863	13,871	1404,651	770,065
-10,848	13,874	1403,726	769,539
-9,833	13,830	1402,820	768,809
-8,819	13,790	1401,983	768,132
-7,804	13,748	1401,281	767,523
-6,790	13,800	1400,076	767,072
-5,775	13,803	1398,862	766,392
-4,760	13,827	1397,976	765,985
-3,746	13,779	1397,232	765,325
-2,731	13,780	1396,334	764,807
-1,717	13,730	1395,497	764,089
-0,702	13,780	1393,459	763,171
0,313	17,551	1311,554	735,819
1,327	33,896	705,456	433,627
2,342	51,953	124,047	83,447
3,356	2,736	16,647	8,514
4,371	-5,231	3,187	1,544
5,386	-77,862	0,597	0,145
6,400	294,284	0,155	0,201
7,415	-83,174	-0,289	-0,065
8,429	-83,754	-0,341	-0,076
9,444	-36,342	-0,353	-0,134
10,459	6,010	-0,241	-0,126
11,473	52,094	-0,299	-0,201
12,488	-49,775	-0,426	-0,142
13,502	-58,485	-0,430	-0,131
14,517	-63,209	-0,236	-0,068
15,531	26,406	-0,310	-0,183
16,546	102,601	-0,387	-0,320
17,561	86,696	-0,432	-0,337
18,575	-126,528	-0,192	0,020
19,590	320,947	-0,214	-0,289
20,604	-67,516	-0,150	-0,041
21,619	68,746	-0,498	-0,361
22,634	292,342	-0,340	-0,439
23,648	124,068	-0,445	-0,395
24,663	41,769	-0,346	-0,221
25,677	170,993	-0,203	-0,206
26,692	-24,512	-0,468	-0,196
27,707	24,663	-0,310	-0,181
28,721	88,129	-0,372	-0,291
29,736	117,212	-0,376	-0,326
30,750	101,083	-0,348	-0,286
31,765	39,822	-0,397	-0,251
32,780	37,351	-0,398	-0,248
33,794	765,063	-0,116	-0,223
34,809	51,471	-0,382	-0,256
35,823	-68,790	-0,397	-0,107
36,838	62,363	-0,513	-0,361
37,853	76,498	-0,344	-0,257
38,867	93,165	-0,303	-0,241
39,882	356,154	-0,280	-0,395
40,896	13,395	-0,429	-0,234
41,911	-25,753	-0,358	-0,148
42,926	40,329	-0,400	-0,253
43,940	204,736	-0,279	-0,306
44,955	183,472	-0,341	-0,356
45,969	185,859	-0,277	-0,290
46,984	61,399	-0,324	-0,227
47,999	61,829	-0,349	-0,245
49,013	-10,000	-0,352	-0,164
50,028	-11,324	-0,447	-0,207
51,042	165,728	-0,312	-0,311
52,057	48,999	-0,355	-0,234
53,071	142,974	-0,317	-0,297
54,086	121,890	-0,230	-0,202
55,101	42,663	-0,411	-0,263
56,115	106,217	-0,288	-0,240
57,130	96,395	-0,278	-0,224
58,144	47,854	-0,519	-0,341
59,159	28,353	-0,469	-0,278
60,174	-17,090	-0,298	-0,132
61,188	-18,502	-0,445	-0,195
62,203	-21,407	-0,363	-0,155
63,217	26,243	-0,352	-0,207
64,232	800,000	-0,162	-0,345
65,247	-97,290	-0,364	-0,066
66,261	-27,041	-0,407	-0,166
67,276	-54,533	-0,371	-0,117
68,290	-19,316	-0,421	-0,183
69,305	33,707	-0,284	-0,174
70,320	-11,990	-0,302	-0,139
71,334	54,279	-0,239	-0,162
72,349	400,184	-0,211	-0,312
73,363	107,540	-0,374	-0,313
74,378	152,027	-0,395	-0,379
75,393	5,371	-0,345	-0,179
76,407	42,998	-0,240	-0,154
77,422	12,737	-0,267	-0,144
78,436	-0,348	-0,320	-0,159
79,451	109,619	-0,269	-0,226
80,466	-71,434	-0,424	-0,111
81,480	78,128	-0,285	-0,213
82,495	137,279	-0,195	-0,179
83,509	-200,000	-0,075	-0,267
84,524	180,441	-0,236	-0,244
85,539	101,590	-0,285	-0,233
86,553	197,882	-0,277	-0,298
87,568	-55,405	-0,273	-0,086
88,582	-0,492	-0,368	-0,183
89,597	-144,844	-0,302	-0,019
90,611	26,584	-0,238	-0,139
91,626	20,968	-0,233	-0,132
92,641	-1,502	-0,323	-0,159
93,655	54,450	-0,253	-0,171
94,670	33,388	-0,283	-0,172
95,684	154,636	-0,227	-0,219
96,699	86,603	-0,272	-0,210
97,714	-54,562	-0,374	-0,118
98,728	84,326	-0,240	-0,184
99,743	157,188	-0,310	-0,301
100,757	34,018	-0,367	-0,224
101,772	132,300	-0,272	-0,245
102,787	23,062	-0,362	-0,208
103,801	-21,812	-0,184	-0,078
104,816	84,468	-0,150	-0,115
105,830	-99,861	-0,247	-0,043
106,845	-47,184	-0,276	-0,094
107,860	20,427	-0,271	-0,153
108,874	249,413	-0,237	-0,282
109,889	316,329	-0,234	-0,311
110,903	330,639	-0,200	-0,271
111,918	72,559	-0,179	-0,130
112,933	-40,046	-0,340	-0,124
113,947	-78,897	-0,163	-0,039
114,962	-19,682	-0,289	-0,125
115,976	14,651	-0,288	-0,157
116,991	-59,775	-0,165	-0,049
118,006	182,575	-0,275	-0,285
119,020	40,229	-0,301	-0,189
120,035	71,770	-0,273	-0,198
121,049	-107,998	-0,313	-0,047
122,064	116,631	-0,273	-0,235
123,079	52,825	-0,267	-0,179
124,093	-109,801	-0,281	-0,041
125,108	396,527	-0,179	-0,262
126,122	335,421	-0,156	-0,213
127,137	49,066	-0,277	-0,182
128,151	5,335	-0,307	-0,158
129,166	292,316	-0,178	-0,228
130,181	-51,157	-0,338	-0,110
131,195	110,070	-0,329	-0,276
132,210	-178,559	-0,355	-0,006
133,224	122,687	-0,280	-0,245
134,239	673,764	-0,173	-0,316
135,254	81,176	-0,343	-0,259
136,268	498,623	-0,115	-0,185
137,283	14,283	-0,215	-0,117
138,297	177,381	-0,258	-0,263
139,312	71,586	-0,277	-0,201
140,327	-137,518	-0,333	-0,026
141,341	157,584	-0,228	-0,221
142,356	10,328	-0,192	-0,102
143,370	5,907	-0,308	-0,159
144,385	116,978	-0,307	-0,264
145,400	94,910	-0,303	-0,241
146,414	289,414	-0,150	-0,191
147,429	246,079	-0,173	-0,204
148,443	-41,858	-0,245	-0,087
149,458	-67,543	-0,189	-0,051
150,473	75,794	-0,205	-0,151
151,487	-140,872	-0,206	-0,015
152,502	-121,084	-0,255	-0,029
153,516	75,189	-0,278	-0,205
154,531	439,211	-0,192	-0,294
155,546	312,705	-0,205	-0,270
156,560	34,867	-0,259	-0,158
157,575	-5,986	-0,309	-0,147
158,589	145,679	-0,184	-0,172
159,604	37,441	-0,206	-0,127
160,619	139,042	-0,290	-0,266
161,633	764,763	-0,174	-0,331
162,648	250,071	-0,265	-0,314
163,662	285,530	-0,158	-0,200
164,677	72,491	-0,234	-0,170
165,692	134,137	-0,194	-0,175
166,706	74,561	-0,242	-0,177
167,721	277,618	-0,158	-0,196
168,735	-1,366	-0,212	-0,104
169,750	224,405	-0,194	-0,219
170,764	247,289	-0,166	-0,196
171,779	27,808	-0,176	-0,103
172,794	-28,358	-0,231	-0,093
173,808	-150,718	-0,327	0,017
174,823	6,720	-0,312	-0,161
175,837	375,869	-0,190	-0,271
176,852	75,817	-0,219	-0,161
177,867	263,949	-0,263	-0,319
178,881	10,335	-0,327	-0,173
179,896	-42,406	-0,257	-0,091
180,910	132,929	-0,249	-0,224
181,925	96,208	-0,287	-0,229
182,940	119,943	-0,327	-0,282
183,954	73,136	-0,262	-0,190
184,969	35,331	-0,168	-0,102
185,983	165,582	-0,204	-0,201
186,998	386,001	-0,160	-0,230
188,013	800,000	-0,100	-0,252
189,027	-46,867	-0,292	-0,099
190,042	-144,711	-0,218	-0,014
191,056	18,575	-0,240	-0,133
192,071	76,752	-0,241	-0,178
193,086	259,312	-0,135	-0,162
194,100	-13,849	-0,170	-0,076
195,115	22,624	-0,331	-0,188
196,129	170,982	-0,236	-0,235
197,144	235,626	-0,188	-0,216
198,159	57,872	-0,158	-0,107
199,173	51,614	-0,338	-0,223
200,188	-35,148	-0,070	-0,026
201,202	27,382	-0,249	-0,145
202,217	-76,509	-0,239	-0,058
203,232	34,020	-0,235	-0,142
204,246	255,485	-0,176	-0,210
205,261	272,526	-0,130	-0,160
206,275	45,827	-0,139	-0,089
207,290	21,251	-0,283	-0,159
208,304	110,198	-0,181	-0,151
209,319	204,704	-0,150	-0,162
210,334	-156,118	-0,123	-0,005
211,348	59,345	-0,254	-0,174
212,363	36,395	-0,226	-0,138
213,377	-72,517	-0,104	0,026
214,392	800,000	0,027	-0,062
215,407	2,118	-0,125	-0,063
216,421	800,000	-0,061	-0,186
217,436	203,670	-0,147	-0,158
218,450	121,920	-0,236	-0,204
219,465	-131,943	-0,243	-0,022
220,480	348,655	-0,166	-0,229
221,494	467,262	-0,190	-0,297
222,509	-64,151	-0,147	-0,041
223,523	148,664	-0,175	-0,164
224,538	609,683	-0,125	-0,218
225,553	33,473	-0,304	-0,183
226,567	68,234	-0,184	-0,131
227,582	-144,497	-0,275	0,017
228,596	77,425	-0,119	-0,087
229,611	-6,090	-0,170	-0,080
230,626	-68,300	-0,107	0,029
231,640	59,757	-0,231	-0,158
232,655	315,451	-0,168	-0,221
233,669	68,158	-0,276	-0,196
234,684	161,390	-0,197	-0,191
235,699	800,000	-0,046	-0,112
236,713	43,083	-0,072	-0,046
237,728	-10,948	-0,282	-0,128
238,742	-200,000	-0,009	-0,267
239,757	-39,635	-0,216	-0,078
240,772	246,656	-0,194	-0,227
241,786	800,000	-0,067	-0,160
242,801	6,088	-0,213	-0,109
243,815	742,368	-0,116	-0,218
244,830	-200,000	0,022	-0,216
245,844	0,190	-0,210	-0,103
246,859	31,313	-0,087	-0,051
247,874	203,505	-0,180	-0,194
248,888	439,871	-0,144	-0,218
249,903	134,390	-0,200	-0,179
250,917	-61,985	-0,201	0,058
251,932	-86,921	-0,141	-0,030
252,947	36,765	-0,211	-0,129
253,961	254,422	-0,113	-0,135
254,976	-10,900	-0,099	-0,045
255,990	800,000	-0,084	-0,207
257,005	38,766	-0,210	-0,129
258,020	-40,927	-0,128	-0,046
259,034	-0,600	-0,268	-0,131
260,049	152,083	-0,118	-0,111
261,063	13,296	-0,196	-0,105
262,078	199,569	-0,149	-0,158
263,093	42,076	-0,178	-0,111
264,107	335,766	-0,099	-0,133
265,122	46,230	-0,284	-0,182
266,136	380,102	-0,187	-0,266
267,151	800,000	-0,119	-0,253
268,166	-17,666	-0,149	-0,064
269,180	138,430	-0,098	-0,089
270,195	390,085	-0,167	-0,240
271,209	604,995	-0,148	-0,256
272,224	-17,624	-0,269	-0,116
273,239	256,906	-0,133	-0,158
274,253	40,572	-0,181	-0,112
275,268	-134,465	-0,144	0,012
276,282	17,557	-0,195	-0,107
277,297	-93,655	-0,146	-0,028
278,312	-38,636	-0,243	-0,088
279,326	-37,572	-0,249	-0,091
280,341	429,482	-0,126	-0,189
281,355	261,125	-0,154	-0,185
282,370	128,428	-0,127	-0,112
283,384	8,837	-0,215	-0,112
284,399	-33,921	-0,185	-0,070
285,414	20,593	-0,128	-0,071
286,428	16,407	-0,241	-0,131
287,443	275,130	-0,150	-0,184
288,457	107,054	-0,165	-0,135
289,472	88,220	-0,158	-0,121
290,487	146,471	-0,212	-0,197
291,501	800,000	-0,089	-0,172
292,516	-200,000	-0,072	-0,277
293,530	299,777	-0,132	-0,168
294,545	51,340	-0,155	-0,101
295,560	597,825	-0,163	-0,280
296,574	239,961	-0,117	-0,134
297,589	234,356	-0,091	-0,104
298,603	133,695	-0,173	-0,154
299,618	186,464	-0,121	-0,124
300,633	150,659	-0,125	-0,117
301,647	-200,000	-0,029	-0,128
302,662	52,247	-0,193	-0,127
303,676	6,691	-0,196	-0,100
304,691	44,571	-0,083	-0,052
305,706	786,952	-0,108	-0,205
306,720	132,159	-0,096	-0,085
307,735	800,000	-0,056	-0,129
308,749	305,512	-0,015	-0,019
309,764	-80,402	-0,156	-0,036
310,779	2,416	-0,155	-0,077
311,793	-78,869	-0,179	-0,042
312,808	213,060	-0,199	-0,216
313,822	217,454	-0,175	-0,192
314,837	739,901	-0,072	-0,133
315,852	139,473	-0,094	-0,085
316,866	545,474	-0,118	-0,194
317,881	123,256	-0,171	-0,147
318,895	-200,000	-0,063	-0,216
319,910	235,148	-0,154	-0,175
320,925	54,043	-0,146	-0,097
321,939	246,599	-0,070	-0,081
322,954	153,163	-0,105	-0,099
323,968	-198,929	-0,125	-0,000
324,983	276,394	-0,051	-0,062
325,997	146,163	-0,137	-0,127
327,012	-200,000	-0,029	-0,093
328,027	-6,535	-0,116	-0,054
329,041	132,315	-0,096	-0,085
330,056	800,000	-0,068	-0,145
331,070	3,485	-0,086	-0,043
332,085	223,086	-0,118	-0,130
333,100	8,360	-0,069	-0,036
334,114	-64,014	-0,209	-0,058
335,129	800,000	-0,062	-0,120
336,143	7,542	-0,163	-0,084
337,158	5,081	-0,051	-0,026
338,173	-38,111	-0,071	0,026
339,187	379,832	-0,038	-0,054
340,202	-57,029	-0,092	-0,028
341,216	-168,629	-0,113	-0,003
342,231	-33,465	-0,115	-0,043
343,246	-101,064	-0,198	0,033
344,260	-120,472	-0,256	-0,030
345,275	24,177	-0,130	-0,073
346,289	45,418	-0,206	-0,130
347,304	332,009	-0,160	-0,213
348,319	101,729	-0,123	-0,099
349,333	291,439	-0,178	-0,223
350,348	30,119	-0,179	-0,105
351,362	-118,745	-0,142	-0,017
352,377	26,650	-0,159	-0,091
353,392	11,781	-0,123	-0,064
354,406	18,777	-0,100	-0,055
355,421	210,543	1314,765	1418,498
356,435	162,083	1475,494	1418,976
