DTS Sentinel unit serial number:	SN410029Multiplexer serial number:	ORYXHardware model number:	OX2-SRSoftware version number:	ORYX F/W v4,00 Oryx Data Collector v3.7.2.0data status	okinstallation	B3 Nyhavnadifferential loss correction	single-endedforward channel	channel 1reverse channel	N/Adate	2023/12/01time	23:22:30forward acquisition time	300,00reverse acquisition time	0,00gamma	499,1914k internal	0,3196k external	0,3196temperature offset calibration	1,0000default loss term (dB/km)	0,3820temperature slope calibration	1,0000multiplexer offset coefficient	1,0000multiplexer slope coefficient	1,0000fibre end	0,00T internal ref (°C)	15,87T ext. ref 1 (°C)	1,32T ext. ref 2 (°C)	1,31length (m)	temperature (°C)	Stokes	anti-Stokes-744,400	-200,000	-0,053	-0,197
-743,385	-200,000	0,001	0,374
-742,371	764,371	-0,064	-0,127
-741,356	-200,000	0,080	0,311
-740,342	800,000	-0,107	-0,289
-739,327	800,000	0,177	0,435
-738,312	149,187	-0,231	-0,228
-737,298	-200,000	0,116	0,372
-736,283	195,246	-0,210	-0,233
-735,269	-200,000	0,022	0,351
-734,254	140,528	-0,217	-0,209
-733,239	19,931	-0,195	0,114
-732,225	726,537	-0,113	-0,221
-731,210	800,000	0,069	0,172
-730,196	800,000	-0,015	-0,044
-729,181	503,941	0,035	0,059
-728,167	33,856	0,111	0,070
-727,152	800,000	-0,031	-0,092
-726,137	156,419	-0,043	-0,043
-725,123	-200,000	-0,023	-0,133
-724,108	-28,677	-0,043	-0,018
-723,094	304,574	-0,108	-0,146
-722,079	32,344	-0,016	-0,010
-721,064	42,374	0,042	0,028
-720,050	-176,264	-0,160	-0,003
-719,035	165,572	-0,094	0,097
-718,021	-200,000	-0,008	0,064
-717,006	-138,085	-0,065	0,005
-715,991	-53,835	-0,090	-0,030
-714,977	-200,000	0,013	-0,084
-713,962	-200,000	-0,018	-0,098
-712,948	-200,000	-0,001	0,035
-711,933	175,482	0,040	0,043
-710,918	800,000	0,017	0,054
-709,904	-200,000	0,006	-0,077
-708,889	289,407	-0,066	-0,087
-707,875	-76,915	0,164	0,042
-706,860	2,596	-0,140	-0,073
-705,845	-92,456	0,155	0,031
-704,831	672,471	-0,041	0,078
-703,816	-200,000	-0,021	0,079
-702,802	244,719	0,016	0,019
-701,787	-140,249	-0,136	-0,010
-700,772	749,062	-0,056	-0,110
-699,758	687,636	0,048	-0,092
-698,743	-154,273	0,092	-0,004
-697,729	-35,565	0,071	-0,028
-696,714	74,459	-0,053	0,041
-695,699	800,000	-0,074	-0,189
-694,685	-71,166	-0,132	-0,036
-693,670	38,992	-0,135	-0,088
-692,656	800,000	-0,025	-0,064
-691,641	56,796	0,028	-0,020
-690,627	-35,935	-0,064	0,025
-689,612	-67,620	0,077	0,022
-688,597	-200,000	-0,015	0,081
-687,583	181,229	0,047	-0,050
-686,568	26,229	0,019	-0,012
-685,554	800,000	-0,034	-0,077
-684,539	368,827	0,092	-0,136
-683,524	203,672	0,048	0,054
-682,510	-88,466	-0,065	0,014
-681,495	38,090	-0,025	0,016
-680,481	597,773	-0,032	-0,059
-679,466	800,000	0,029	-0,089
-678,451	-69,980	-0,074	-0,020
-677,437	-166,376	0,082	-0,002
-676,422	-200,000	0,008	-0,070
-675,408	-200,000	-0,017	-0,076
-674,393	-100,973	0,037	-0,007
-673,378	-3,166	-0,098	-0,050
-672,364	800,000	0,101	-0,232
-671,349	300,681	-0,022	0,030
-670,335	-200,000	-0,014	0,071
-669,320	95,934	0,088	-0,073
-668,305	139,229	0,092	0,088
-667,291	327,057	-0,042	-0,059
-666,276	10,060	-0,060	0,033
-665,262	-110,288	-0,065	0,010
-664,247	-53,236	-0,112	-0,037
-663,232	49,420	-0,082	0,056
-662,218	-137,224	-0,086	0,007
-661,203	343,166	-0,017	0,025
-660,189	-46,307	-0,097	-0,035
-659,174	-200,000	0,013	0,111
-658,159	-200,000	-0,017	0,057
-657,145	226,767	-0,121	-0,143
-656,130	-68,884	-0,047	0,013
-655,116	-2,632	0,028	0,014
-654,101	-200,000	-0,015	0,056
-653,086	-12,658	0,078	-0,037
-652,072	230,066	-0,046	-0,054
-651,057	219,991	-0,062	-0,072
-650,043	-200,000	0,006	-0,175
-649,028	108,213	-0,111	-0,096
-648,014	-128,735	0,168	-0,017
-646,999	436,441	0,072	-0,114
-645,984	-200,000	0,000	-0,011
-644,970	130,188	-0,084	-0,078
-643,955	254,870	-0,112	-0,140
-642,941	-200,000	0,009	-0,081
-641,926	759,256	0,028	0,056
-640,911	178,165	0,105	-0,111
-639,897	800,000	0,075	-0,217
-638,882	-200,000	-0,012	-0,181
-637,868	-200,000	-0,013	-0,049
-636,853	800,000	-0,029	0,088
-635,838	-200,000	-0,031	-0,265
-634,824	386,721	-0,046	0,069
-633,809	474,675	-0,035	-0,057
-632,795	4,378	0,080	-0,043
-631,780	-200,000	-0,052	0,170
-630,765	-200,000	-0,016	-0,148
-629,751	41,533	-0,145	-0,095
-628,736	92,815	-0,064	-0,052
-627,722	259,102	0,063	-0,079
-626,707	-99,658	0,118	0,021
-625,692	401,610	0,033	0,050
-624,678	740,673	0,039	0,076
-623,663	-82,598	0,039	0,009
-622,649	-75,442	-0,154	-0,040
-621,634	-78,083	-0,076	-0,019
-620,619	800,000	-0,033	-0,085
-619,605	-200,000	-0,024	-0,124
-618,590	157,595	-0,048	0,049
-617,576	222,129	-0,040	-0,047
-616,561	9,947	-0,111	-0,061
-615,546	-200,000	0,018	-0,130
-614,532	262,107	0,085	0,107
-613,517	-200,000	0,003	-0,116
-612,503	-190,689	-0,066	-0,000
-611,488	-200,000	-0,008	0,076
-610,474	3,522	0,153	0,080
-609,459	-60,218	-0,145	-0,044
-608,444	25,567	-0,108	0,065
-607,430	93,334	-0,115	-0,094
-606,415	800,000	-0,088	-0,209
-605,401	-200,000	0,001	-0,079
-604,386	12,578	0,139	0,078
-603,371	-90,011	-0,010	-0,002
-602,357	-6,968	-0,046	-0,023
-601,342	219,192	-0,095	0,110
-600,328	22,123	0,088	-0,052
-599,313	-200,000	-0,029	0,098
-598,298	33,789	0,060	-0,038
-597,284	306,739	0,082	-0,111
-596,269	-200,000	0,021	-0,130
-595,255	568,201	0,049	-0,086
-594,240	72,588	0,022	-0,017
-593,225	-137,904	-0,145	-0,012
-592,211	120,349	0,058	-0,052
-591,196	38,835	0,131	0,084
-590,182	-200,000	-0,020	-0,139
-589,167	-160,639	-0,140	0,005
-588,152	-110,902	0,053	-0,008
-587,138	-63,646	-0,027	0,008
-586,123	226,466	0,040	-0,047
-585,109	-174,587	0,075	0,002
-584,094	-95,163	0,061	-0,012
-583,079	242,528	-0,053	0,065
-582,065	365,174	-0,031	0,045
-581,050	126,270	0,006	0,006
-580,036	169,936	0,108	0,112
-579,021	653,499	-0,066	0,122
-578,006	-66,288	-0,140	-0,040
-576,992	-200,000	-0,003	0,015
-575,977	474,435	-0,045	0,074
-574,963	-55,739	-0,061	0,020
-573,948	-200,000	-0,008	0,044
-572,934	41,911	-0,028	0,018
-571,919	80,795	-0,055	0,043
-570,904	800,000	0,068	-0,180
-569,890	364,395	-0,010	-0,014
-568,875	-200,000	-0,010	-0,036
-567,861	-123,840	-0,058	0,007
-566,846	-4,699	0,201	0,100
-565,831	-20,008	0,040	-0,018
-564,817	-200,000	0,007	-0,053
-563,802	-200,000	0,000	0,035
-562,788	77,084	0,021	0,016
-561,773	-3,139	-0,055	-0,027
-560,758	51,393	-0,069	0,048
-559,744	-200,000	-0,003	0,144
-558,729	800,000	0,038	0,105
-557,715	-132,618	-0,114	0,010
-556,700	200,176	-0,055	-0,061
-555,685	-200,000	0,003	0,123
-554,671	-98,290	0,043	0,008
-553,656	-200,000	-0,022	0,138
-552,642	-33,092	-0,105	0,042
-551,627	-200,000	0,009	0,034
-550,612	800,000	0,019	0,043
-549,598	-200,000	-0,004	-0,025
-548,583	-147,508	0,012	-0,001
-547,569	178,137	-0,093	-0,098
-546,554	-200,000	-0,031	0,177
-545,539	800,000	0,051	0,161
-544,525	365,912	-0,088	0,129
-543,510	348,425	-0,012	-0,018
-542,496	-200,000	-0,031	-0,102
-541,481	330,173	-0,094	-0,131
-540,466	-88,601	-0,084	-0,018
-539,452	-177,792	-0,105	-0,002
-538,437	19,080	0,169	0,098
-537,423	-200,000	0,023	-0,116
-536,408	15,030	0,066	0,037
-535,393	-80,067	-0,087	0,021
-534,379	-200,000	0,012	-0,067
-533,364	-3,340	-0,139	-0,070
-532,350	-37,076	0,113	0,044
-531,335	155,763	0,031	0,030
-530,321	-15,131	-0,029	0,013
-529,306	-138,187	0,062	-0,005
-528,291	249,915	-0,025	-0,031
-527,277	111,061	0,059	-0,051
-526,262	-200,000	0,021	-0,082
-525,248	-200,000	0,004	0,190
-524,233	-68,923	0,102	-0,028
-523,218	4,787	0,128	0,068
-522,204	21,899	0,066	-0,039
-521,189	318,720	-0,044	0,060
-520,175	4,902	-0,091	-0,048
-519,160	325,842	-0,039	-0,054
-518,145	71,835	0,003	0,002
-517,131	239,050	0,044	0,053
-516,116	-200,000	-0,019	0,066
-515,102	-23,350	0,077	-0,033
-514,087	-111,031	0,068	-0,010
-513,072	25,735	0,099	-0,059
-512,058	37,262	-0,103	-0,066
-511,043	159,631	0,074	0,075
-510,029	-141,736	0,057	-0,004
-509,014	-200,000	-0,021	-0,089
-507,999	197,089	0,083	0,091
-506,985	40,729	-0,057	-0,037
-505,970	-139,507	0,096	-0,007
-504,956	800,000	0,053	-0,131
-503,941	38,620	0,081	0,052
-502,926	-200,000	0,004	0,058
-501,912	178,694	0,014	0,015
-500,897	117,777	0,070	0,062
-499,883	-47,206	-0,053	0,019
-498,868	-138,208	-0,076	-0,006
-497,853	170,538	-0,021	-0,022
-496,839	735,846	0,022	0,042
-495,824	-115,807	-0,078	-0,010
-494,810	-84,545	-0,146	0,033
-493,795	58,958	-0,012	-0,009
-492,781	278,801	-0,068	0,088
-491,766	-25,901	-0,027	0,011
-490,751	-200,000	-0,021	0,074
-489,737	-200,000	0,022	-0,099
-488,722	-200,000	-0,006	0,100
-487,708	-86,796	0,160	-0,035
-486,693	278,902	0,128	0,165
-485,678	15,540	-0,073	0,041
-484,664	-6,441	-0,055	-0,027
-483,649	39,602	-0,107	-0,069
-482,635	-200,000	0,008	-0,065
-481,620	-200,000	0,025	-0,101
-480,605	-37,743	-0,130	0,049
-479,591	-200,000	-0,004	0,037
-478,576	57,982	-0,064	-0,045
-477,562	179,334	-0,098	-0,103
-476,547	-200,000	-0,035	-0,230
-475,532	232,511	0,077	-0,091
-474,518	800,000	0,037	-0,089
-473,503	-34,795	0,128	0,050
-472,489	173,495	0,031	0,033
-471,474	-61,721	0,043	-0,013
-470,459	-88,499	-0,181	0,038
-469,445	72,658	0,074	-0,055
-468,430	38,751	0,012	0,007
-467,416	-71,612	0,178	0,048
-466,401	-14,345	-0,071	0,033
-465,386	-125,196	0,206	0,022
-464,372	103,993	-0,049	0,041
-463,357	800,000	-0,032	0,077
-462,343	-112,816	0,018	0,003
-461,328	-200,000	-0,009	-0,081
-460,313	-200,000	0,017	0,084
-459,299	-44,460	-0,117	-0,042
-458,284	-200,000	0,036	0,138
-457,270	800,000	0,038	0,092
-456,255	22,799	0,020	0,012
-455,241	800,000	-0,057	-0,122
-454,226	-150,506	-0,089	-0,005
-453,211	-178,832	0,067	-0,001
-452,197	-187,341	-0,176	0,002
-451,182	-200,000	-0,021	0,087
-450,168	-45,583	0,051	-0,018
-449,153	77,036	0,017	-0,013
-448,138	-200,000	-0,001	0,011
-447,124	70,301	-0,055	-0,041
-446,109	51,561	-0,145	-0,099
-445,095	336,209	-0,103	0,145
-444,080	800,000	0,046	0,116
-443,065	419,153	-0,177	0,273
-442,051	-141,591	0,013	0,001
-441,036	-71,447	0,080	0,021
-440,022	239,591	-0,062	-0,074
-439,007	700,229	0,051	-0,097
-437,992	-200,000	0,021	0,146
-436,978	-200,000	0,010	-0,034
-435,963	94,093	-0,236	0,193
-434,949	800,000	0,022	-0,046
-433,934	-200,000	0,013	-0,137
-432,919	-152,115	-0,152	0,008
-431,905	158,713	0,166	-0,166
-430,890	-200,000	-0,005	-0,036
-429,876	432,966	0,020	0,031
-428,861	23,648	0,102	0,060
-427,846	-74,369	-0,059	0,015
-426,832	-200,000	-0,034	0,122
-425,817	369,720	-0,066	0,096
-424,803	-100,157	-0,187	0,033
-423,788	-31,974	0,100	-0,040
-422,773	-200,000	0,016	0,084
-421,759	139,537	0,095	0,090
-420,744	21,174	0,118	-0,069
-419,730	-58,589	-0,021	-0,007
-418,715	-43,735	-0,048	-0,017
-417,701	-162,665	-0,054	0,002
-416,686	766,476	0,023	-0,046
-415,671	800,000	-0,027	0,059
-414,657	-200,000	0,016	-0,065
-413,642	-200,000	-0,006	0,036
-412,628	85,700	0,072	-0,057
-411,613	800,000	0,033	0,095
-410,598	800,000	-0,087	-0,196
-409,584	-200,000	-0,061	-0,000
-408,569	313,556	0,075	-0,102
-407,555	-41,858	-0,060	0,022
-406,540	104,903	0,059	0,050
-405,525	-39,090	-0,029	-0,011
-404,511	-99,898	-0,029	-0,005
-403,496	-200,000	0,017	-0,090
-402,482	35,541	0,047	0,030
-401,467	65,301	0,038	0,028
-400,452	-200,000	0,005	0,158
-399,438	-200,000	-0,004	-0,080
-398,423	-84,572	0,085	0,019
-397,409	800,000	-0,019	0,057
-396,394	-140,301	-0,080	0,006
-395,379	15,917	-0,070	0,040
-394,365	-138,512	0,042	0,003
-393,350	-200,000	0,016	-0,073
-392,336	537,050	-0,019	0,032
-391,321	61,946	-0,017	-0,012
-390,306	800,000	-0,089	-0,190
-389,292	-115,284	0,091	-0,012
-388,277	-26,047	-0,022	-0,009
-387,263	-200,000	0,000	0,043
-386,248	-93,049	0,164	-0,033
-385,233	-200,000	0,011	-0,097
-384,219	378,717	-0,035	0,051
-383,204	800,000	0,050	-0,127
-382,190	-44,455	-0,119	-0,042
-381,175	104,139	0,017	0,015
-380,160	265,791	0,055	-0,069
-379,146	800,000	-0,072	0,156
-378,131	221,174	0,116	0,134
-377,117	460,041	-0,075	0,120
-376,102	-102,097	-0,052	-0,009
-375,088	-200,000	0,022	-0,078
-374,073	321,655	-0,071	-0,097
-373,058	800,000	-0,051	0,103
-372,044	-190,278	0,069	-0,001
-371,029	-27,191	-0,096	0,040
-370,015	86,067	-0,063	-0,050
-369,000	-92,142	-0,096	-0,019
-367,985	-8,202	-0,183	-0,088
-366,971	200,433	0,122	-0,135
-365,956	-200,000	-0,024	0,086
-364,942	80,988	0,085	0,065
-363,927	-113,171	0,096	-0,013
-362,912	-165,089	0,088	-0,003
-361,898	293,009	0,053	-0,070
-360,883	-200,000	-0,045	-0,186
-359,869	8,813	-0,056	-0,030
-358,854	63,677	-0,093	0,067
-357,839	800,000	0,039	0,120
-356,825	144,677	-0,137	0,132
-355,810	-200,000	0,013	0,184
-354,796	248,291	0,067	-0,081
-353,781	-83,018	-0,069	-0,016
-352,766	-129,042	0,045	-0,004
-351,752	800,000	0,025	-0,070
-350,737	296,914	0,024	-0,032
-349,723	800,000	0,029	0,067
-348,708	800,000	0,028	-0,071
-347,693	151,908	0,029	0,028
-346,679	800,000	0,027	-0,081
-345,664	-20,290	-0,027	-0,012
-344,650	800,000	0,025	0,065
-343,635	-200,000	-0,020	-0,092
-342,620	184,729	0,069	0,073
-341,606	-200,000	0,023	-0,087
-340,591	132,444	0,092	0,085
-339,577	-119,088	-0,039	-0,005
-338,562	800,000	0,039	-0,078
-337,548	-200,000	-0,006	-0,040
-336,533	800,000	0,019	0,052
-335,518	188,894	0,066	0,071
-334,504	407,903	0,061	0,092
-333,489	-60,257	0,031	0,009
-332,475	83,324	0,049	-0,038
-331,460	-155,861	-0,204	-0,009
-330,445	360,280	0,086	-0,124
-329,431	158,206	0,075	0,075
-328,416	159,282	-0,037	-0,037
-327,402	169,417	-0,049	0,050
-326,387	160,195	0,105	0,105
-325,372	-200,000	0,037	-0,127
-324,358	66,454	-0,098	-0,071
-323,343	-200,000	-0,029	-0,211
-322,329	-200,000	-0,007	-0,235
-321,314	88,974	-0,081	0,064
-320,299	-12,349	0,032	0,015
-319,285	800,000	0,064	0,155
-318,270	800,000	-0,064	0,137
-317,256	-27,365	-0,088	0,037
-316,241	-158,073	-0,061	0,003
-315,226	-125,669	-0,089	-0,009
-314,212	35,390	0,148	0,093
-313,197	669,699	0,045	0,084
-312,183	58,413	0,067	0,047
-311,168	422,926	0,050	-0,077
-310,153	553,110	0,063	-0,109
-309,139	-131,178	0,101	0,010
-308,124	800,000	0,077	0,188
-307,110	24,682	0,046	0,027
-306,095	250,678	0,136	0,166
-305,080	-1,899	-0,114	0,057
-304,066	-8,748	0,080	0,038
-303,051	-11,192	-0,096	0,045
-302,037	-70,096	0,136	-0,037
-301,022	800,000	-0,027	-0,073
-300,008	-200,000	0,028	-0,140
-298,993	144,765	0,040	-0,038
-297,978	479,287	0,029	0,048
-296,964	-200,000	-0,011	-0,064
-295,949	800,000	0,073	-0,172
-294,935	-98,936	-0,025	-0,004
-293,920	-200,000	-0,006	0,051
-292,905	692,688	-0,077	0,145
-291,891	482,316	-0,055	-0,090
-290,876	-200,000	-0,025	0,100
-289,862	-45,224	-0,087	0,031
-288,847	-104,950	-0,076	-0,012
-287,832	-27,636	-0,131	-0,054
-286,818	-129,884	-0,032	-0,003
-285,803	-63,843	-0,050	0,015
-284,789	214,424	0,058	0,066
-283,774	41,337	-0,047	-0,030
-282,759	-128,958	-0,108	-0,011
-281,745	-200,000	0,009	-0,031
-280,730	-142,221	-0,063	-0,004
-279,716	94,523	-0,047	0,038
-278,701	-4,437	0,019	0,010
-277,686	-30,712	0,105	-0,042
-276,672	-126,960	-0,142	-0,015
-275,657	800,000	-0,041	0,090
-274,643	56,982	0,109	0,076
-273,628	-200,000	0,030	0,170
-272,613	-61,972	-0,169	0,050
-271,599	69,307	0,059	-0,044
-270,584	-98,806	0,127	-0,023
-269,570	179,907	0,122	-0,127
-268,555	733,226	-0,044	-0,084
-267,540	41,487	0,080	0,051
-266,526	-63,431	0,021	-0,006
-265,511	739,724	-0,040	-0,076
-264,497	-200,000	0,020	0,136
-263,482	179,352	0,116	0,122
-262,467	-85,906	-0,084	0,018
-261,453	-20,108	-0,016	-0,007
-260,438	551,470	0,054	0,092
-259,424	650,434	0,018	-0,032
-258,409	71,476	0,043	-0,032
-257,395	396,128	0,023	-0,035
-256,380	800,000	-0,041	0,087
-255,365	-39,301	0,063	0,023
-254,351	182,746	0,053	0,056
-253,336	-200,000	0,019	-0,079
-252,322	191,059	0,054	0,058
-251,307	510,063	-0,061	0,102
-250,292	-200,000	0,013	0,045
-249,278	185,120	0,077	0,082
-248,263	582,202	0,055	0,097
-247,249	-77,196	0,045	-0,011
-246,234	-200,000	0,035	0,127
-245,219	-200,000	-0,019	0,217
-244,205	165,313	-0,039	-0,040
-243,190	-45,823	-0,124	-0,043
-242,176	90,241	0,102	0,081
-241,161	171,205	-0,064	-0,066
-240,146	-33,600	-0,071	0,028
-239,132	-200,000	-0,024	0,080
-238,117	-200,000	0,001	-0,093
-237,103	214,939	-0,161	-0,182
-236,088	-200,000	-0,016	0,064
-235,073	-22,566	0,191	0,082
-234,059	307,898	0,009	-0,012
-233,044	-37,909	0,006	-0,002
-232,030	349,973	0,083	-0,117
-231,015	-93,370	-0,134	-0,026
-230,000	-13,541	0,124	-0,057
-228,986	519,176	-0,026	-0,043
-227,971	145,082	-0,007	0,007
-226,957	-72,991	0,136	-0,035
-225,942	5,569	-0,041	-0,022
-224,927	133,478	0,065	0,060
-223,913	336,252	-0,039	-0,055
-222,898	-130,115	-0,015	-0,001
-221,884	-200,000	0,018	0,084
-220,869	-200,000	-0,036	0,154
-219,855	97,451	0,026	0,021
-218,840	800,000	-0,016	0,047
-217,825	-190,364	0,044	0,000
-216,811	298,219	-0,081	-0,106
-215,796	-157,528	0,116	0,005
-214,782	-127,805	-0,122	0,012
-213,767	-200,000	0,015	-0,105
-212,752	-34,933	0,188	-0,073
-211,738	405,538	0,112	0,169
-210,723	458,976	-0,040	0,064
-209,709	-102,678	-0,115	0,019
-208,694	51,798	-0,011	0,007
-207,679	-93,248	0,044	-0,009
-206,665	800,000	0,032	-0,071
-205,650	-200,000	0,015	0,121
-204,636	800,000	-0,052	0,150
-203,621	-32,730	0,067	0,026
-202,606	702,855	-0,053	0,101
-201,592	-119,502	-0,078	-0,009
-200,577	131,617	0,051	-0,047
-199,563	-40,288	0,134	-0,049
-198,548	800,000	-0,029	-0,076
-197,533	-20,286	0,073	-0,032
-196,519	542,916	-0,039	-0,067
-195,504	-200,000	0,010	0,104
-194,490	1,759	-0,075	-0,038
-193,475	-200,000	0,008	-0,131
-192,460	-200,000	0,008	-0,125
-191,446	210,814	-0,051	-0,057
-190,431	116,629	0,102	0,090
-189,417	-200,000	0,031	0,259
-188,402	-107,869	0,048	0,007
-187,387	-200,000	0,005	-0,077
-186,373	-39,322	0,084	-0,031
-185,358	-89,478	-0,099	0,021
-184,344	79,736	0,088	-0,067
-183,329	617,321	0,021	-0,038
-182,315	-200,000	-0,003	-0,039
-181,300	-85,643	-0,051	-0,011
-180,285	80,247	-0,010	-0,008
-179,271	-200,000	0,019	0,077
-178,256	800,000	0,040	-0,088
-177,242	-148,689	0,047	-0,003
-176,227	800,000	0,022	0,058
-175,212	-36,019	-0,096	0,037
-174,198	27,171	0,069	0,041
-173,183	21,426	-0,040	0,023
-172,169	-200,000	-0,014	-0,046
-171,154	99,577	-0,080	0,066
-170,139	-94,691	0,166	0,032
-169,125	-66,193	-0,056	-0,016
-168,110	800,000	0,016	0,038
-167,096	-93,492	0,094	0,018
-166,081	142,358	-0,042	0,040
-165,066	93,662	0,029	0,023
-164,052	800,000	-0,075	-0,150
-163,037	115,630	0,057	-0,049
-162,023	-200,000	-0,028	0,125
-161,008	6,185	0,082	-0,043
-159,993	63,039	-0,080	0,057
-158,979	59,451	-0,082	-0,057
-157,964	800,000	-0,034	-0,097
-156,950	36,173	0,049	-0,031
-155,935	-200,000	-0,002	-0,084
-154,920	-200,000	0,004	-0,046
-153,906	398,809	0,027	-0,040
-152,891	-93,625	0,035	-0,007
-151,877	-200,000	0,011	0,037
-150,862	-200,000	-0,031	-0,122
-149,847	7,905	0,054	-0,028
-148,833	593,364	0,016	0,029
-147,818	268,739	0,042	0,052
-146,804	800,000	0,057	0,156
-145,789	5,841	0,063	0,033
-144,775	800,000	-0,015	0,040
-143,760	-5,964	0,100	0,048
-142,745	-200,000	0,017	0,123
-141,731	311,049	-0,049	0,066
-140,716	58,723	-0,017	0,012
-139,702	-200,000	0,027	0,196
-138,687	-3,079	-0,050	0,025
-137,672	2,808	0,080	-0,041
-136,658	-200,000	-0,014	-0,100
-135,643	291,188	0,045	0,058
-134,629	-200,000	-0,006	-0,051
-133,614	53,864	-0,168	-0,114
-132,599	-200,000	-0,011	-0,055
-131,585	-155,752	-0,028	-0,001
-130,570	-68,104	-0,094	-0,026
-129,556	16,492	-0,044	-0,024
-128,541	800,000	-0,037	-0,086
-127,526	-200,000	0,017	-0,080
-126,512	-200,000	0,001	-0,114
-125,497	318,590	-0,079	0,107
-124,483	-200,000	-0,033	0,146
-123,468	-139,733	0,085	0,006
-122,453	-13,308	0,102	-0,047
-121,439	64,445	-0,162	-0,116
-120,424	800,000	-0,013	-0,031
-119,410	-138,104	-0,016	0,001
-118,395	-141,376	-0,014	0,001
-117,380	-200,000	-0,006	0,020
-116,366	-89,539	-0,084	-0,017
-115,351	692,426	-0,055	0,103
-114,337	6,618	-0,031	-0,017
-113,322	-200,000	-0,010	0,091
-112,307	69,307	-0,028	0,020
-111,293	-195,742	0,118	0,001
-110,278	110,251	0,112	0,096
-109,264	-77,061	-0,102	-0,025
-108,249	133,846	-0,036	-0,033
-107,234	800,000	0,062	-0,161
-106,220	-166,345	-0,240	0,007
-105,205	-162,392	0,055	-0,002
-104,191	-200,000	0,035	0,116
-103,176	195,560	0,012	-0,013
-102,162	15,584	-0,023	-0,013
-101,147	-143,161	-0,036	0,002
-100,132	800,000	0,019	-0,050
-99,118	79,936	0,063	-0,048
-98,103	-32,509	-0,014	-0,005
-97,089	-200,000	-0,016	-0,055
-96,074	-106,228	0,027	-0,004
-95,059	20,185	0,076	0,044
-94,045	-200,000	-0,015	0,097
-93,030	-100,746	0,169	-0,029
-92,016	27,533	-0,016	0,010
-91,001	800,000	-0,049	-0,134
-89,986	62,803	0,080	0,057
-88,972	191,026	0,067	-0,072
-87,957	659,725	-0,044	0,081
-86,943	85,294	0,125	0,098
-85,928	-92,925	0,051	-0,010
-84,913	800,000	0,022	-0,066
-83,899	-200,000	0,005	-0,182
-82,884	-36,468	-0,016	-0,006
-81,870	394,644	0,044	0,066
-80,855	-200,000	-0,049	0,155
-79,840	-200,000	-0,024	0,110
-78,826	37,839	-0,098	-0,061
-77,811	-102,693	0,133	-0,022
-76,797	33,725	-0,065	-0,040
-75,782	-78,758	-0,066	-0,016
-74,767	288,935	0,019	0,024
-73,753	800,000	0,015	0,032
-72,738	85,453	-0,167	0,130
-71,724	-200,000	-0,019	-0,210
-70,709	-200,000	-0,002	-0,036
-69,694	446,258	0,031	0,049
-68,680	329,715	0,078	0,107
-67,665	127,204	-0,015	-0,014
-66,651	130,608	0,002	-0,002
-65,636	723,264	-0,063	-0,119
-64,622	-16,247	-0,024	-0,011
-63,607	90,170	0,040	0,032
-62,592	-200,000	-0,001	-0,058
-61,578	800,000	0,035	0,073
-60,563	225,361	0,044	0,051
-59,549	-20,434	-0,078	0,034
-58,534	-55,489	-1,378	-0,435
-57,519	450,303	-1,454	-2,283
-56,505	-200,000	-0,382	-4,408
-55,490	90,647	0,976	0,774
-54,476	800,000	4,850	11,252
-53,461	-200,000	17,681	282,244
-52,446	800,000	720,550	2225,504
-51,432	562,739	1635,091	2816,638
-50,417	80,915	1658,494	1267,477
-49,403	23,762	1532,577	892,827
-48,388	17,714	1456,133	819,117
-47,373	18,171	1445,697	815,410
-46,359	17,782	1436,508	808,337
-45,344	15,972	1431,569	796,920
-44,330	15,915	1429,766	795,613
-43,315	15,963	1427,854	794,748
-42,300	15,937	1426,366	793,762
-41,286	16,012	1425,099	793,383
-40,271	16,008	1423,604	792,501
-39,257	15,958	1422,639	791,692
-38,242	16,009	1421,145	791,073
-37,227	15,989	1419,975	790,297
-36,213	15,985	1418,738	789,559
-35,198	15,924	1417,749	788,686
-34,184	16,017	1416,485	788,392
-33,169	15,915	1415,498	787,328
-32,154	15,983	1414,429	787,025
-31,140	15,966	1412,854	786,035
-30,125	16,023	1411,874	785,727
-29,111	16,033	1410,582	785,024
-28,096	15,975	1409,668	784,213
-27,082	15,913	1408,624	783,312
-26,067	15,908	1407,256	782,496
-25,052	15,908	1406,328	781,948
-24,038	15,891	1405,275	781,254
-23,023	15,870	1404,403	780,637
-22,009	15,858	1403,233	779,903
-20,994	15,848	1402,411	779,370
-19,979	15,838	1401,459	778,759
-18,965	15,823	1400,361	778,049
-17,950	15,833	1399,454	777,561
-16,936	15,878	1398,328	777,116
-15,921	15,841	1397,342	776,363
-14,906	15,829	1396,344	775,721
-13,892	15,868	1395,547	775,432
-12,877	15,832	1394,649	774,731
-11,863	15,801	1393,643	774,001
-10,848	15,803	1392,615	773,410
-9,833	15,749	1391,712	772,626
-8,819	15,744	1390,929	772,138
-7,804	15,703	1389,870	771,329
-6,790	15,689	1388,995	770,751
-5,775	15,701	1387,763	770,089
-4,760	15,679	1387,200	769,648
-3,746	15,718	1386,285	769,288
-2,731	15,668	1385,750	768,731
-1,717	15,665	1384,574	768,033
-0,702	15,697	1382,710	767,115
0,313	19,432	1303,500	740,422
1,327	35,699	706,398	438,941
2,342	54,994	125,042	85,437
3,356	3,652	16,597	8,551
4,371	12,461	2,948	1,606
5,386	27,810	0,495	0,295
6,400	259,664	0,097	0,119
7,415	118,990	-0,194	-0,170
8,429	-3,361	-0,409	-0,201
9,444	63,462	-0,421	-0,299
10,459	281,636	-0,217	-0,276
11,473	231,659	-0,245	-0,284
12,488	-12,200	-0,365	-0,168
13,502	157,701	-0,193	-0,190
14,517	102,059	-0,446	-0,368
15,531	58,082	-0,452	-0,313
16,546	115,750	-0,350	-0,303
17,561	133,440	-0,358	-0,328
18,575	300,431	-0,105	-0,137
19,590	227,952	-0,241	-0,278
20,604	-15,266	-0,219	-0,099
21,619	101,761	-0,437	-0,361
22,634	9,699	-0,485	-0,260
23,648	56,599	-0,468	-0,322
24,663	53,080	-0,399	-0,270
25,677	225,907	-0,216	-0,248
26,692	206,973	-0,334	-0,369
27,707	55,892	-0,343	-0,235
28,721	94,456	-0,337	-0,270
29,736	104,320	-0,479	-0,398
30,750	250,484	-0,413	-0,497
31,765	114,789	-0,388	-0,334
32,780	-5,973	-0,364	-0,175
33,794	100,114	-0,298	-0,244
34,809	3,511	-0,389	-0,200
35,823	114,631	-0,333	-0,287
36,838	60,513	-0,426	-0,298
37,853	145,464	-0,382	-0,361
38,867	47,156	-0,292	-0,192
39,882	399,433	-0,174	-0,259
40,896	57,650	-0,363	-0,250
41,911	-9,211	-0,313	-0,147
42,926	213,138	-0,239	-0,267
43,940	-12,700	-0,418	-0,191
44,955	102,480	-0,318	-0,263
45,969	58,945	-0,331	-0,230
46,984	34,392	-0,377	-0,232
47,999	100,440	-0,194	-0,159
49,013	66,410	-0,255	-0,183
50,028	104,097	-0,314	-0,260
51,042	122,007	-0,395	-0,348
52,057	101,298	-0,319	-0,262
53,071	-11,790	-0,387	-0,178
54,086	53,228	-0,337	-0,227
55,101	85,939	-0,289	-0,224
56,115	-12,417	-0,192	-0,088
57,130	137,168	-0,338	-0,311
58,144	114,541	-0,396	-0,340
59,159	-53,956	-0,485	-0,155
60,174	-25,879	-0,460	-0,190
61,188	51,235	-0,372	-0,248
62,203	37,949	-0,220	-0,138
63,217	-21,489	-0,316	-0,135
64,232	-60,086	-0,409	-0,122
65,247	-60,049	-0,435	-0,130
66,261	140,248	-0,332	-0,309
67,276	14,406	-0,402	-0,220
68,290	143,773	-0,240	-0,225
69,305	122,774	-0,227	-0,200
70,320	16,594	-0,300	-0,166
71,334	15,478	-0,233	-0,128
72,349	530,364	-0,253	-0,422
73,363	-22,472	-0,418	-0,177
74,378	81,389	-0,353	-0,269
75,393	-52,852	-0,454	-0,146
76,407	47,335	-0,355	-0,232
77,422	96,016	-0,243	-0,195
78,436	142,733	-0,235	-0,220
79,451	7,545	-0,333	-0,175
80,466	42,686	-0,397	-0,254
81,480	48,579	-0,329	-0,217
82,495	115,982	-0,214	-0,184
83,509	374,966	-0,148	-0,213
84,524	95,759	-0,229	-0,184
85,539	36,032	-0,314	-0,194
86,553	75,715	-0,202	-0,150
87,568	67,072	-0,282	-0,202
88,582	317,669	-0,294	-0,392
89,597	-14,200	-0,415	-0,187
90,611	240,459	-0,279	-0,328
91,626	-7,429	-0,284	-0,135
92,641	96,266	-0,204	-0,164
93,655	-78,328	-0,313	-0,075
94,670	42,734	-0,275	-0,176
95,684	115,594	-0,164	-0,141
96,699	18,150	-0,226	-0,126
97,714	32,348	-0,310	-0,188
98,728	55,153	-0,276	-0,187
99,743	101,474	-0,229	-0,187
100,757	61,897	-0,181	-0,126
101,772	16,581	-0,370	-0,205
102,787	34,788	-0,340	-0,208
103,801	-101,569	-0,348	-0,059
104,816	-8,683	-0,302	-0,142
105,830	130,142	-0,269	-0,242
106,845	80,573	-0,219	-0,165
107,860	61,949	-0,288	-0,202
108,874	14,873	-0,273	-0,149
109,889	-55,617	-0,311	-0,097
110,903	42,111	-0,308	-0,196
111,918	0,731	-0,322	-0,161
112,933	42,399	-0,202	-0,128
113,947	9,847	-0,295	-0,157
114,962	208,746	-0,302	-0,332
115,976	50,401	-0,295	-0,196
116,991	206,220	-0,180	-0,197
118,006	120,808	-0,283	-0,247
119,020	71,970	-0,194	-0,141
120,035	83,436	-0,150	-0,115
121,049	37,825	-0,274	-0,170
122,064	13,360	-0,218	-0,118
123,079	-18,111	-0,279	-0,122
124,093	61,573	-0,342	-0,238
125,108	16,267	-0,259	-0,143
126,122	135,873	-0,196	-0,179
127,137	153,475	-0,149	-0,143
128,151	573,518	-0,129	-0,222
129,166	-49,296	-0,291	-0,097
130,181	109,776	-0,280	-0,236
131,195	140,951	-0,288	-0,267
132,210	120,153	-0,258	-0,224
133,224	245,861	-0,231	-0,273
134,239	152,545	-0,282	-0,269
135,254	-83,499	-0,271	-0,060
136,268	131,542	-0,250	-0,225
137,283	41,128	-0,290	-0,183
138,297	33,789	-0,228	-0,138
139,312	800,000	-0,139	-0,330
140,327	237,914	-0,268	-0,312
141,341	78,090	-0,362	-0,270
142,356	14,930	-0,246	-0,134
143,370	84,458	-0,171	-0,131
144,385	-20,589	-0,276	-0,118
145,400	43,514	-0,305	-0,195
146,414	-3,486	-0,357	-0,173
147,429	123,522	-0,213	-0,187
148,443	132,675	-0,267	-0,241
149,458	50,655	-0,344	-0,227
150,473	800,000	-0,126	-0,249
151,487	69,431	-0,345	-0,248
152,502	98,798	-0,281	-0,226
153,516	-18,350	-0,264	-0,115
154,531	153,117	-0,307	-0,294
155,546	178,701	-0,240	-0,245
156,560	99,481	-0,312	-0,252
157,575	-53,973	-0,271	-0,086
158,589	-59,358	-0,338	-0,101
159,604	-6,069	-0,215	-0,102
160,619	66,543	-0,253	-0,180
161,633	141,441	-0,274	-0,254
162,648	4,740	-0,261	-0,133
163,662	507,204	-0,077	-0,125
164,677	283,428	-0,110	-0,138
165,692	5,459	-0,343	-0,176
166,706	35,119	-0,252	-0,154
167,721	284,384	-0,167	-0,211
168,735	-69,192	-0,402	-0,107
169,750	71,701	-0,290	-0,210
170,764	-88,807	-0,150	-0,031
171,779	10,516	-0,201	-0,106
172,794	31,198	-0,314	-0,188
173,808	-33,226	-0,237	-0,091
174,823	120,029	-0,277	-0,240
175,837	121,334	-0,275	-0,239
176,852	-41,179	-0,219	-0,078
177,867	250,364	-0,160	-0,190
178,881	-48,054	-0,308	-0,103
179,896	-1,560	-0,184	-0,090
180,910	69,593	-0,246	-0,177
181,925	-25,775	-0,226	-0,092
182,940	328,605	-0,190	-0,255
183,954	135,442	-0,222	-0,201
184,969	800,000	-0,089	-0,189
185,983	266,205	-0,128	-0,156
186,998	-131,880	-0,266	-0,024
188,013	309,726	-0,195	-0,254
189,027	93,065	-0,252	-0,199
190,042	54,266	-0,262	-0,175
191,056	116,787	-0,188	-0,161
192,071	47,793	-0,143	-0,093
193,086	11,057	-0,181	-0,096
194,100	-0,988	-0,203	-0,100
195,115	20,900	-0,200	-0,112
196,129	77,267	-0,213	-0,158
197,144	19,368	-0,261	-0,146
198,159	457,696	-0,169	-0,262
199,173	577,592	-0,097	-0,167
200,188	-170,269	-0,193	-0,005
201,202	108,115	-0,200	-0,166
202,217	225,477	-0,145	-0,164
203,232	-200,000	-0,066	-0,232
204,246	540,343	-0,153	-0,254
205,261	47,920	-0,200	-0,130
206,275	-83,704	-0,275	-0,061
207,290	800,000	-0,074	-0,144
208,304	126,650	-0,138	-0,122
209,319	-200,000	-0,266	0,000
210,334	247,120	-0,083	-0,097
211,348	24,976	-0,203	-0,117
212,363	357,758	-0,105	-0,146
213,377	-13,741	-0,232	-0,104
214,392	800,000	-0,095	-0,245
215,407	-86,302	-0,134	-0,028
216,421	-122,997	-0,122	-0,013
217,436	-78,726	-0,221	-0,052
218,450	96,082	-0,266	-0,212
219,465	185,313	-0,353	-0,365
220,480	-59,826	-0,268	-0,079
221,494	-57,479	-0,151	-0,046
222,509	10,942	-0,221	-0,117
223,523	-79,296	-0,338	-0,079
224,538	105,700	-0,199	-0,163
225,553	80,768	-0,240	-0,180
226,567	121,530	-0,189	-0,163
227,582	-5,989	-0,213	-0,101
228,596	70,334	-0,232	-0,166
229,611	-150,756	-0,151	0,008
230,626	148,133	-0,160	0,150
231,640	204,059	-0,182	-0,196
232,655	-200,000	-0,055	-0,181
233,669	-11,700	-0,142	-0,064
234,684	23,708	-0,146	-0,083
235,699	-57,732	-0,139	-0,042
236,713	-81,765	-0,174	0,039
237,728	67,268	-0,137	-0,097
238,742	113,724	-0,116	-0,098
239,757	212,374	-0,220	-0,241
240,772	-200,000	-0,078	-0,272
241,786	186,022	-0,160	-0,165
242,801	78,201	-0,228	-0,169
243,815	-166,755	-0,205	0,006
244,830	-55,922	-0,158	-0,049
245,844	27,450	-0,220	-0,128
246,859	122,935	-0,230	-0,200
247,874	-92,435	-0,140	0,027
248,888	-1,539	-0,140	-0,068
249,903	486,348	-0,095	-0,151
250,917	150,662	-0,134	-0,126
251,932	76,250	-0,166	-0,122
252,947	-69,750	-0,201	-0,053
253,961	-73,350	-0,195	0,049
254,976	538,758	-0,050	-0,083
255,990	281,824	-0,184	-0,229
257,005	129,677	-0,078	-0,070
258,020	158,384	-0,097	-0,093
259,034	721,121	-0,109	-0,202
260,049	-68,672	-0,097	-0,026
261,063	76,844	-0,253	-0,186
262,078	88,838	-0,216	-0,167
263,093	-63,360	-0,142	-0,040
264,107	187,515	-0,094	-0,097
265,122	103,153	-0,247	-0,200
266,136	800,000	0,039	-0,093
267,151	-145,164	-0,180	-0,011
268,166	-47,873	-0,181	-0,060
269,180	260,056	-0,214	-0,256
270,195	-64,512	-0,295	-0,082
271,209	800,000	-0,045	-0,101
272,224	144,414	-0,102	0,094
273,239	-108,693	-0,182	0,027
274,253	-65,518	-0,175	-0,048
275,268	178,338	-0,144	-0,145
276,282	630,834	-0,164	-0,288
277,297	-184,778	-0,292	0,003
278,312	800,000	-0,080	-0,166
279,326	75,142	-0,098	-0,072
280,341	-174,285	-0,217	0,004
281,355	122,662	-0,067	-0,058
282,370	22,911	-0,136	-0,077
283,384	152,805	-0,268	-0,253
284,399	38,039	-0,173	-0,106
285,414	404,815	-0,104	-0,151
286,428	800,000	-0,092	-0,179
287,443	800,000	-0,102	-0,210
288,457	-39,859	-0,200	-0,072
289,472	83,247	-0,121	-0,091
290,487	78,981	-0,220	-0,163
291,501	220,320	-0,229	-0,254
292,516	119,224	-0,191	-0,163
293,530	82,869	-0,114	-0,086
294,545	480,273	-0,067	-0,106
295,560	800,000	0,058	-0,144
296,574	83,167	-0,159	-0,119
297,589	364,015	-0,030	-0,041
298,603	-8,414	-0,151	-0,070
299,618	130,582	-0,153	-0,136
300,633	0,456	-0,235	-0,116
301,647	23,530	-0,178	-0,101
302,662	-200,000	0,016	-0,193
303,676	378,913	-0,159	-0,225
304,691	330,166	-0,145	-0,193
305,706	-133,296	-0,142	0,012
306,720	68,948	-0,080	-0,057
307,735	-18,252	-0,122	0,052
308,749	52,396	-0,100	-0,066
309,764	193,029	-0,096	-0,101
310,779	365,744	-0,143	-0,199
311,793	245,676	-0,176	-0,204
312,808	153,203	-0,125	-0,118
313,822	800,000	-0,081	-0,158
314,837	99,543	-0,085	-0,068
315,852	95,023	-0,251	-0,197
316,866	-96,789	-0,050	-0,009
317,881	-141,182	-0,132	-0,009
318,895	-28,066	-0,201	-0,080
319,910	2,604	-0,053	-0,027
320,925	433,126	-0,158	-0,237
321,939	379,516	-0,073	-0,103
322,954	223,444	-0,114	-0,127
323,968	800,000	-0,131	-0,257
324,983	13,071	-0,181	-0,096
325,997	-70,021	-0,166	-0,043
327,012	-69,556	-0,169	-0,044
328,027	142,644	-0,157	-0,144
329,041	616,147	-0,013	-0,023
330,056	-100,298	-0,172	-0,029
331,070	-200,000	-0,014	-0,137
332,085	196,373	-0,088	0,093
333,100	10,398	-0,034	0,018
334,114	-13,876	-0,152	-0,067
335,129	-39,287	-0,197	-0,071
336,143	189,670	-0,152	-0,157
337,158	510,607	-0,062	-0,100
338,173	162,524	-0,076	-0,073
339,187	48,966	-0,152	-0,098
340,202	-107,286	-0,150	-0,022
341,216	431,766	-0,118	-0,176
342,231	248,445	-0,106	-0,124
343,246	-44,880	-0,169	-0,058
344,260	214,217	-0,104	-0,114
345,275	47,279	-0,103	-0,066
346,289	-90,914	0,111	-0,022
347,304	-34,379	-0,074	0,028
348,319	378,259	-0,086	-0,121
349,333	-200,000	-0,068	-0,249
350,348	0,706	-0,246	-0,121
351,362	800,000	-0,095	-0,225
352,377	-43,198	-0,156	0,054
353,392	-51,165	-0,180	-0,058
354,406	-5,970	-0,205	-0,096
355,421	209,524	1312,594	1414,986
356,435	161,257	1473,114	1415,511
