DTS Sentinel unit serial number:	SN410029Multiplexer serial number:	ORYXHardware model number:	OX2-SRSoftware version number:	ORYX F/W v4,00 Oryx Data Collector v3.7.2.0data status	okinstallation	B3 Nyhavnadifferential loss correction	single-endedforward channel	channel 1reverse channel	N/Adate	2023/12/02time	12:07:30forward acquisition time	300,00reverse acquisition time	0,00gamma	499,1914k internal	0,3199k external	0,3199temperature offset calibration	1,0000default loss term (dB/km)	0,3820temperature slope calibration	1,0000multiplexer offset coefficient	1,0000multiplexer slope coefficient	1,0000fibre end	0,00T internal ref (°C)	14,00T ext. ref 1 (°C)	-0,89T ext. ref 2 (°C)	-0,90length (m)	temperature (°C)	Stokes	anti-Stokes-744,400	479,157	-0,121	-0,199
-743,385	-200,000	-0,019	0,287
-742,371	202,450	-0,145	-0,163
-741,356	-200,000	-0,045	0,313
-740,342	114,140	-0,149	-0,132
-739,327	-200,000	0,038	0,225
-738,312	82,724	-0,295	-0,233
-737,298	-200,000	0,085	0,309
-736,283	-59,690	-0,278	-0,086
-735,269	-200,000	0,067	0,521
-734,254	83,346	-0,241	-0,191
-733,239	-39,416	-0,297	0,113
-732,225	-200,000	0,044	-0,168
-731,210	-200,000	0,011	-0,063
-730,196	259,210	0,062	-0,079
-729,181	-200,000	-0,014	-0,174
-728,167	800,000	0,033	-0,105
-727,152	115,495	0,077	-0,069
-726,137	-107,223	-0,132	-0,021
-725,123	800,000	-0,041	-0,088
-724,108	362,509	-0,105	-0,154
-723,094	-131,287	-0,030	-0,003
-722,079	-131,535	-0,098	0,009
-721,064	-200,000	0,004	0,088
-720,050	-200,000	-0,007	-0,031
-719,035	-67,839	-0,185	-0,052
-718,021	69,793	-0,051	0,038
-717,006	-19,044	-0,108	0,048
-715,991	-200,000	-0,009	-0,039
-714,977	-67,868	-0,139	-0,039
-713,962	195,874	-0,040	0,045
-712,948	101,927	-0,066	-0,056
-711,933	17,329	0,037	-0,021
-710,918	44,094	-0,050	-0,033
-709,904	125,886	-0,024	-0,022
-708,889	-200,000	-0,004	0,015
-707,875	409,474	-0,042	-0,066
-706,860	-170,071	-0,111	-0,003
-705,845	-60,643	0,142	-0,043
-704,831	163,867	-0,025	0,026
-703,816	-45,486	-0,146	0,052
-702,802	273,182	0,061	-0,078
-701,787	-11,881	-0,080	-0,038
-700,772	-178,919	-0,108	0,002
-699,758	-158,172	-0,127	0,005
-698,743	216,681	-0,023	0,027
-697,729	-200,000	0,019	0,075
-696,714	-29,443	-0,081	0,033
-695,699	-32,263	0,118	0,048
-694,685	-200,000	-0,061	-0,203
-693,670	-200,000	0,026	-0,106
-692,656	52,585	-0,093	-0,064
-691,641	300,098	0,088	0,119
-690,627	3,979	0,012	0,006
-689,612	-200,000	-0,004	-0,022
-688,597	-67,278	-0,096	0,027
-687,583	-1,128	0,100	-0,051
-686,568	-65,425	-0,052	-0,015
-685,554	224,918	-0,013	-0,016
-684,539	800,000	0,005	-0,015
-683,524	-200,000	-0,012	0,076
-682,510	-19,448	0,032	0,014
-681,495	-139,842	-0,101	-0,008
-680,481	-200,000	-0,012	-0,079
-679,466	156,990	-0,150	-0,150
-678,451	-74,781	-0,152	-0,039
-677,437	363,911	-0,063	-0,092
-676,422	-129,292	-0,104	0,010
-675,408	67,335	0,067	0,050
-674,393	-66,073	-0,136	0,039
-673,378	419,390	0,045	-0,070
-672,364	-100,280	-0,097	-0,017
-671,349	567,160	-0,059	-0,105
-670,335	41,810	-0,119	0,078
-669,320	106,842	-0,053	0,045
-668,305	800,000	-0,046	0,116
-667,291	-82,192	0,073	0,017
-666,276	250,018	-0,024	-0,029
-665,262	-200,000	-0,007	-0,045
-664,247	-200,000	0,029	0,096
-663,232	-200,000	-0,001	0,072
-662,218	-200,000	0,014	0,128
-661,203	-166,314	-0,014	-0,000
-660,189	-146,322	-0,143	-0,009
-659,174	141,861	-0,077	-0,074
-658,159	52,828	-0,096	0,067
-657,145	-200,000	0,034	-0,128
-656,130	353,629	-0,095	0,137
-655,116	29,295	0,201	0,124
-654,101	800,000	-0,048	0,106
-653,086	279,199	-0,035	0,045
-652,072	800,000	-0,027	0,073
-651,057	800,000	0,053	0,145
-650,043	-80,578	-0,077	0,018
-649,028	800,000	0,047	-0,138
-648,014	125,487	-0,055	0,051
-646,999	24,555	0,056	-0,034
-645,984	-194,879	0,119	0,001
-644,970	-102,461	-0,091	-0,016
-643,955	-144,601	-0,200	0,013
-642,941	-200,000	-0,030	-0,129
-641,926	498,544	0,020	0,034
-640,911	-24,129	0,072	-0,031
-639,897	534,858	-0,042	0,073
-638,882	-64,469	0,100	0,029
-637,868	397,452	-0,080	-0,121
-636,853	-200,000	-0,023	-0,215
-635,838	3,720	-0,092	-0,048
-634,824	50,401	-0,051	-0,035
-633,809	-2,663	0,056	-0,028
-632,795	-115,113	-0,118	0,016
-631,780	365,382	-0,058	0,084
-630,765	-87,667	0,086	-0,019
-629,751	-94,576	0,049	-0,010
-628,736	-151,218	-0,158	-0,008
-627,722	800,000	-0,045	0,096
-626,707	209,769	-0,059	0,067
-625,692	800,000	0,044	0,091
-624,678	-200,000	0,014	-0,078
-623,663	-129,533	-0,058	0,006
-622,649	546,187	0,024	0,042
-621,634	-93,276	-0,085	0,017
-620,619	2,277	-0,067	0,035
-619,605	413,223	-0,032	-0,049
-618,590	-125,040	0,154	-0,017
-617,576	564,468	0,105	0,185
-616,561	11,984	0,017	-0,010
-615,546	236,721	-0,025	-0,030
-614,532	55,000	-0,154	-0,108
-613,517	800,000	-0,039	-0,081
-612,503	800,000	-0,041	0,119
-611,488	-200,000	0,021	0,091
-610,474	800,000	-0,042	0,109
-609,459	2,040	-0,047	0,025
-608,444	-200,000	0,029	0,183
-607,430	800,000	-0,066	-0,181
-606,415	217,038	-0,046	-0,053
-605,401	286,954	-0,070	-0,092
-604,386	279,789	-0,007	-0,009
-603,371	-105,731	-0,126	-0,020
-602,357	368,721	0,134	0,197
-601,342	-163,952	-0,203	-0,007
-600,328	150,878	0,155	-0,153
-599,313	800,000	0,019	0,040
-598,298	24,224	0,074	-0,044
-597,284	-149,076	0,212	-0,012
-596,269	-89,890	0,035	0,007
-595,255	-200,000	-0,026	0,252
-594,240	89,727	-0,038	-0,030
-593,225	127,037	0,043	-0,039
-592,211	800,000	-0,052	-0,125
-591,196	253,089	0,055	-0,068
-590,182	-72,320	0,053	0,014
-589,167	-200,000	0,000	0,099
-588,152	45,559	-0,096	-0,064
-587,138	61,963	-0,112	-0,081
-586,123	800,000	-0,010	-0,032
-585,109	265,418	-0,040	0,050
-584,094	800,000	0,025	0,073
-583,079	-28,064	0,128	0,053
-582,065	800,000	0,029	0,087
-581,050	800,000	-0,038	0,102
-580,036	521,450	-0,100	0,171
-579,021	-25,216	-0,045	0,019
-578,006	-4,678	-0,124	-0,062
-576,992	599,684	0,035	0,064
-575,977	77,248	0,068	0,052
-574,963	82,799	-0,113	0,089
-573,948	800,000	-0,030	0,066
-572,934	-60,737	0,134	0,041
-571,919	800,000	0,030	0,093
-570,904	-200,000	0,026	-0,103
-569,890	25,469	0,087	-0,052
-568,875	-200,000	-0,039	0,124
-567,861	-200,000	-0,018	0,153
-566,846	53,108	-0,043	-0,030
-565,831	189,916	0,033	0,036
-564,817	-200,000	-0,017	0,084
-563,802	-46,506	-0,139	0,049
-562,788	-200,000	-0,013	-0,064
-561,773	141,371	0,023	-0,022
-560,758	-200,000	0,019	0,121
-559,744	-93,146	-0,037	0,007
-558,729	21,147	-0,030	0,017
-557,715	-73,707	-0,111	-0,029
-556,700	30,888	0,034	-0,021
-555,685	116,125	0,065	0,057
-554,671	-200,000	0,006	-0,064
-553,656	195,693	-0,046	-0,051
-552,642	571,676	0,033	0,059
-551,627	-183,195	0,060	-0,001
-550,612	257,802	0,035	0,043
-549,598	12,313	-0,062	0,035
-548,583	800,000	0,030	-0,090
-547,569	800,000	-0,052	-0,150
-546,554	800,000	0,033	0,069
-545,539	10,384	-0,063	0,035
-544,525	-200,000	-0,007	-0,164
-543,510	800,000	-0,011	-0,022
-542,496	10,936	0,077	-0,042
-541,481	-200,000	-0,014	0,079
-540,466	-83,342	-0,098	0,023
-539,452	699,851	0,021	0,040
-538,437	240,735	0,061	-0,074
-537,423	797,985	0,056	0,113
-536,408	364,329	0,042	-0,061
-535,393	-120,533	-0,254	0,031
-534,379	83,901	-0,091	-0,071
-533,364	139,810	-0,034	-0,032
-532,350	337,911	0,020	0,028
-531,335	-50,584	0,150	-0,051
-530,321	800,000	0,040	0,080
-529,306	610,802	-0,048	-0,087
-528,291	-200,000	0,007	-0,117
-527,277	-185,198	-0,028	-0,000
-526,262	-200,000	-0,018	0,090
-525,248	-83,452	-0,057	0,013
-524,233	-67,324	0,106	-0,030
-523,218	361,237	0,082	-0,119
-522,204	-200,000	-0,005	-0,031
-521,189	280,548	0,077	-0,099
-520,175	79,040	-0,041	-0,032
-519,160	-74,541	-0,171	-0,044
-518,145	696,008	-0,007	0,013
-517,131	94,734	0,127	0,104
-516,116	800,000	-0,024	0,065
-515,102	-66,308	-0,022	0,006
-514,087	-200,000	-0,057	-0,226
-513,072	800,000	0,024	-0,069
-512,058	-130,977	-0,048	0,005
-511,043	-100,572	-0,077	0,014
-510,029	800,000	0,066	0,154
-509,014	800,000	-0,014	0,044
-507,999	-200,000	0,011	0,093
-506,985	-200,000	-0,003	-0,086
-505,970	800,000	0,017	-0,036
-504,956	101,401	-0,027	-0,023
-503,941	-200,000	0,014	-0,105
-502,926	800,000	0,013	0,030
-501,912	214,209	-0,037	0,042
-500,897	-200,000	-0,004	0,085
-499,883	-31,769	-0,045	0,018
-498,868	800,000	0,021	0,060
-497,853	-57,702	-0,129	-0,041
-496,839	256,093	-0,090	-0,112
-495,824	-158,898	0,088	0,004
-494,810	-200,000	-0,006	-0,054
-493,795	-200,000	-0,010	-0,066
-492,781	-200,000	-0,007	-0,084
-491,766	-46,026	0,057	-0,020
-490,751	-200,000	0,009	-0,195
-489,737	451,870	0,024	-0,039
-488,722	-200,000	0,034	0,156
-487,708	-81,289	-0,020	0,005
-486,693	-41,663	0,129	0,047
-485,678	-107,381	0,108	0,017
-484,664	-43,804	-0,043	0,015
-483,649	-200,000	0,001	-0,108
-482,635	336,289	0,041	-0,057
-481,620	-27,071	0,064	-0,027
-480,605	257,964	0,089	-0,111
-479,591	-200,000	-0,019	0,113
-478,576	-200,000	-0,010	0,065
-477,562	-44,512	-0,230	-0,083
-476,547	-57,619	-0,078	-0,024
-475,532	800,000	-0,016	0,033
-474,518	460,679	0,017	0,028
-473,503	17,676	0,055	0,031
-472,489	20,614	-0,057	-0,033
-471,474	-200,000	0,019	-0,061
-470,459	417,961	0,059	-0,090
-469,445	-181,392	0,031	-0,000
-468,430	-124,936	0,113	0,012
-467,416	-200,000	-0,005	-0,033
-466,401	385,883	-0,012	-0,018
-465,386	-200,000	-0,036	0,130
-464,372	-200,000	0,000	-0,030
-463,357	-200,000	0,012	-0,134
-462,343	-19,396	-0,125	-0,055
-461,328	800,000	-0,050	-0,106
-460,313	40,533	-0,156	-0,101
-459,299	191,453	0,009	0,010
-458,284	-200,000	0,035	0,164
-457,270	166,445	0,039	-0,040
-456,255	419,843	-0,070	-0,109
-455,241	-41,694	-0,105	-0,038
-454,226	-149,055	-0,061	0,003
-453,211	-120,188	-0,028	-0,003
-452,197	-70,694	-0,122	0,033
-451,182	-101,339	0,042	-0,007
-450,168	61,800	0,086	0,062
-449,153	203,375	-0,053	0,060
-448,138	-19,491	-0,043	-0,019
-447,124	800,000	0,013	0,035
-446,109	-170,750	-0,081	0,002
-445,095	-200,000	-0,023	0,076
-444,080	-78,501	0,099	0,024
-443,065	-200,000	0,002	0,009
-442,051	-200,000	-0,011	0,121
-441,036	-77,154	0,054	0,013
-440,022	-86,309	-0,127	0,028
-439,007	-82,182	0,066	0,015
-437,992	-200,000	-0,021	0,212
-436,978	-200,000	-0,014	0,089
-435,963	188,788	-0,060	-0,064
-434,949	-71,720	0,136	0,036
-433,934	-200,000	-0,007	-0,038
-432,919	-90,802	-0,171	0,035
-431,905	76,296	0,094	-0,071
-430,890	-113,999	0,036	0,005
-429,876	-200,000	0,013	0,081
-428,861	-200,000	-0,011	0,051
-427,846	142,340	0,035	0,034
-426,832	-60,058	-0,166	-0,051
-425,817	203,916	-0,115	-0,128
-424,803	-21,732	0,059	-0,026
-423,788	-200,000	-0,005	-0,086
-422,773	179,197	0,054	-0,057
-421,759	-116,907	0,149	0,019
-420,744	-19,996	-0,168	0,074
-419,730	800,000	-0,029	-0,061
-418,715	800,000	-0,009	-0,028
-417,701	800,000	0,042	0,109
-416,686	-172,699	-0,044	0,001
-415,671	115,857	-0,044	0,038
-414,657	-200,000	0,003	0,137
-413,642	-200,000	0,023	0,144
-412,628	-200,000	0,049	-0,174
-411,613	643,543	-0,024	-0,044
-410,598	17,579	-0,049	-0,028
-409,584	-200,000	0,020	-0,128
-408,569	111,385	-0,079	0,069
-407,555	362,598	0,052	0,075
-406,540	-200,000	-0,007	0,052
-405,525	-131,660	0,118	-0,011
-404,511	-124,699	0,121	0,013
-403,496	0,595	-0,051	0,026
-402,482	-168,098	-0,039	0,001
-401,467	800,000	-0,033	0,102
-400,452	366,342	-0,041	0,060
-399,438	85,190	0,074	0,058
-398,423	-200,000	0,029	0,094
-397,409	648,128	-0,103	-0,190
-396,394	800,000	-0,006	0,015
-395,379	202,654	0,105	0,117
-394,365	-65,947	0,230	-0,066
-393,350	603,303	-0,041	0,074
-392,336	106,287	-0,078	0,066
-391,321	-200,000	0,007	0,092
-390,306	10,808	0,133	-0,073
-389,292	103,769	-0,116	-0,098
-388,277	-172,618	0,068	0,002
-387,263	-123,338	-0,106	0,012
-386,248	800,000	-0,019	-0,047
-385,233	302,220	-0,059	0,078
-384,219	208,320	0,043	0,049
-383,204	103,236	-0,043	-0,036
-382,190	-79,799	-0,110	-0,026
-381,175	-200,000	-0,006	-0,200
-380,160	64,402	0,079	-0,057
-379,146	377,198	0,018	0,026
-378,131	-133,992	0,096	0,008
-377,117	-181,974	-0,056	-0,001
-376,102	413,188	-0,079	0,121
-375,088	-151,160	0,094	0,005
-374,073	-200,000	-0,020	-0,105
-373,058	57,875	0,130	-0,091
-372,044	-200,000	-0,010	-0,039
-371,029	705,262	0,049	-0,094
-370,015	-200,000	0,026	-0,182
-369,000	103,795	-0,016	0,014
-367,985	-1,834	-0,047	-0,024
-366,971	-4,180	-0,034	-0,017
-365,956	-34,851	0,090	-0,035
-364,942	-200,000	-0,009	0,031
-363,927	-88,911	0,031	-0,007
-362,912	800,000	-0,050	0,131
-361,898	-125,496	-0,057	-0,006
-360,883	-200,000	0,060	-0,000
-359,869	-200,000	-0,016	-0,065
-358,854	74,121	0,048	-0,036
-357,839	-200,000	0,014	-0,095
-356,825	800,000	0,051	0,112
-355,810	800,000	0,006	0,018
-354,796	-72,642	-0,105	-0,028
-353,781	124,993	0,110	0,099
-352,766	69,295	0,023	0,017
-351,752	469,944	-0,074	0,120
-350,737	-182,979	0,111	-0,001
-349,723	99,812	0,111	0,092
-348,708	-200,000	0,030	0,152
-347,693	-158,724	-0,040	0,002
-346,679	-13,014	-0,090	0,042
-345,664	155,280	-0,101	-0,099
-344,650	-200,000	0,017	-0,091
-343,635	-57,412	-0,031	0,010
-342,620	215,540	-0,046	0,052
-341,606	188,407	-0,081	0,087
-340,591	445,207	-0,022	0,035
-339,577	-59,815	0,024	-0,007
-338,562	-200,000	-0,004	0,018
-337,548	236,550	-0,023	0,027
-336,533	191,221	0,129	0,140
-335,518	34,480	0,070	-0,044
-334,504	-19,382	0,019	-0,008
-333,489	800,000	0,011	-0,028
-332,475	-200,000	0,006	-0,044
-331,460	-200,000	-0,021	0,084
-330,445	-200,000	0,004	0,035
-329,431	-200,000	0,006	-0,020
-328,416	-78,212	0,105	0,026
-327,402	59,722	0,071	0,050
-326,387	65,830	-0,139	0,101
-325,372	41,680	0,118	0,077
-324,358	-200,000	-0,008	-0,096
-323,343	800,000	0,029	-0,079
-322,329	5,786	0,089	0,047
-321,314	275,177	-0,028	0,036
-320,299	95,372	-0,038	-0,031
-319,285	706,532	0,026	0,049
-318,270	800,000	-0,042	-0,107
-317,256	-200,000	-0,017	-0,152
-316,241	-63,865	0,047	-0,014
-315,226	-200,000	0,022	-0,125
-314,212	93,183	0,050	0,041
-313,197	85,633	0,146	0,115
-312,183	-200,000	0,032	0,127
-311,168	-200,000	0,014	0,128
-310,153	-200,000	-0,029	-0,187
-309,139	45,838	-0,035	-0,023
-308,124	-200,000	-0,011	0,077
-307,110	800,000	0,035	0,094
-306,095	256,215	-0,029	-0,036
-305,080	91,898	-0,102	0,082
-304,066	-108,061	-0,078	-0,012
-303,051	219,682	-0,091	-0,104
-302,037	27,534	-0,081	-0,048
-301,022	800,000	0,025	-0,065
-300,008	57,694	0,041	0,029
-298,993	38,082	0,132	-0,084
-297,978	47,477	0,124	0,083
-296,964	60,130	0,128	0,090
-295,949	255,924	0,056	-0,069
-294,935	-200,000	0,001	-0,025
-293,920	106,698	-0,045	-0,038
-292,905	-82,261	-0,152	-0,035
-291,891	308,491	0,141	0,188
-290,876	10,602	0,043	0,023
-289,862	181,611	-0,093	-0,098
-288,847	-120,520	-0,083	-0,010
-287,832	-102,374	-0,111	0,019
-286,818	10,648	-0,082	-0,045
-285,803	799,491	0,029	0,058
-284,789	475,482	-0,020	0,033
-283,774	220,000	0,021	0,025
-282,759	-73,806	-0,043	-0,011
-281,745	297,044	-0,133	-0,175
-280,730	165,718	0,105	-0,106
-279,716	-200,000	-0,001	-0,020
-278,701	-114,776	0,083	0,011
-277,686	-200,000	0,001	0,033
-276,672	75,186	-0,056	-0,042
-275,657	423,924	0,045	-0,069
-274,643	-200,000	0,015	0,049
-273,628	-200,000	0,003	-0,028
-272,613	28,835	0,073	-0,044
-271,599	660,796	0,058	0,107
-270,584	303,704	0,064	0,086
-269,570	-24,269	0,116	-0,049
-268,555	69,587	-0,138	0,102
-267,540	149,299	-0,100	-0,097
-266,526	155,532	-0,024	-0,023
-265,511	-160,019	-0,141	-0,005
-264,497	77,137	-0,066	0,050
-263,482	800,000	-0,023	0,058
-262,467	190,033	0,039	-0,042
-261,453	-200,000	0,011	0,066
-260,438	-200,000	-0,026	-0,111
-259,424	-200,000	0,012	0,077
-258,409	-40,507	0,123	-0,045
-257,395	83,977	0,064	-0,050
-256,380	800,000	-0,005	-0,011
-255,365	115,445	0,060	0,052
-254,351	-129,563	-0,048	-0,005
-253,336	81,973	0,105	-0,081
-252,322	-60,919	-0,100	-0,030
-251,307	-35,347	-0,081	-0,031
-250,292	-19,225	0,044	0,019
-249,278	-75,028	0,069	-0,017
-248,263	-170,203	-0,100	0,002
-247,249	-41,753	0,153	0,056
-246,234	134,694	0,049	0,046
-245,219	-140,654	-0,106	0,008
-244,205	-200,000	-0,008	-0,129
-243,190	41,908	0,013	-0,009
-242,176	81,869	0,089	0,069
-241,161	-173,086	0,100	-0,002
-240,146	-24,505	0,186	-0,079
-239,132	-200,000	0,007	-0,056
-238,117	80,771	-0,046	-0,035
-237,103	80,680	-0,080	-0,061
-236,088	-150,107	-0,101	0,006
-235,073	-200,000	-0,002	0,028
-234,059	649,617	-0,068	0,124
-233,044	130,044	-0,060	0,054
-232,030	-181,116	-0,008	-0,000
-231,015	800,000	-0,064	-0,174
-230,000	-200,000	-0,027	-0,212
-228,986	-200,000	0,022	-0,082
-227,971	119,258	-0,106	-0,094
-226,957	-141,052	0,105	-0,008
-225,942	-200,000	0,012	0,096
-224,927	-200,000	-0,001	0,112
-223,913	-200,000	-0,002	-0,176
-222,898	-97,951	0,076	-0,014
-221,884	131,301	0,097	-0,089
-220,869	-108,075	-0,178	-0,027
-219,855	104,713	-0,050	-0,042
-218,840	-20,519	0,031	0,014
-217,825	800,000	0,035	0,109
-216,811	-152,434	0,161	0,008
-215,796	-200,000	0,016	0,107
-214,782	338,183	0,071	0,099
-213,767	-1,922	0,078	0,039
-212,752	778,147	0,084	0,164
-211,738	9,076	0,052	0,028
-210,723	-200,000	-0,004	0,069
-209,709	473,443	0,032	0,052
-208,694	-200,000	-0,004	-0,073
-207,679	-87,777	-0,124	-0,026
-206,665	92,074	-0,057	-0,046
-205,650	168,804	0,041	0,042
-204,636	391,954	0,040	0,060
-203,621	-200,000	-0,011	0,049
-202,606	-55,852	0,039	0,012
-201,592	283,931	-0,065	-0,083
-200,577	73,113	0,126	0,094
-199,563	499,685	0,009	-0,015
-198,548	-200,000	0,037	-0,117
-197,533	-200,000	0,020	0,095
-196,519	800,000	0,037	-0,098
-195,504	-142,865	-0,097	0,007
-194,490	440,867	-0,067	-0,106
-193,475	759,005	0,069	0,134
-192,460	-200,000	0,018	0,247
-191,446	-200,000	-0,013	0,061
-190,431	-96,364	0,101	-0,019
-189,417	-200,000	-0,012	0,059
-188,402	-176,825	-0,140	-0,002
-187,387	800,000	-0,046	-0,093
-186,373	-112,248	-0,098	0,014
-185,358	11,516	0,048	0,026
-184,344	-137,615	-0,138	-0,011
-183,329	439,234	-0,048	-0,075
-182,315	-84,626	0,149	0,033
-181,300	-163,240	0,158	0,005
-180,285	-124,486	-0,143	-0,016
-179,271	800,000	0,078	-0,165
-178,256	-124,734	0,097	0,011
-177,242	179,527	0,123	0,129
-176,227	-79,406	0,016	0,004
-175,212	486,067	0,038	-0,062
-174,198	0,465	-0,115	-0,059
-173,183	166,146	-0,094	-0,095
-172,169	-200,000	-0,021	-0,240
-171,154	800,000	-0,039	-0,092
-170,139	-17,805	0,085	-0,038
-169,125	-145,028	0,142	0,009
-168,110	105,510	0,117	0,098
-167,096	395,998	-0,045	0,068
-166,081	-90,455	-0,061	-0,012
-165,066	-9,563	-0,072	-0,034
-164,052	800,000	0,050	0,121
-163,037	-200,000	-0,004	0,015
-162,023	-80,954	0,095	-0,022
-161,008	-200,000	-0,011	0,084
-159,993	-101,009	0,123	-0,021
-158,979	125,622	0,109	-0,098
-157,964	-38,584	-0,097	-0,036
-156,950	-48,732	0,072	0,024
-155,935	64,799	0,099	-0,071
-154,920	467,991	0,074	-0,119
-153,906	800,000	0,030	0,072
-152,891	800,000	-0,038	0,109
-151,877	254,087	-0,054	0,065
-150,862	156,842	-0,106	-0,105
-149,847	380,788	-0,062	-0,091
-148,833	67,646	-0,070	0,051
-147,818	-151,527	-0,057	0,003
-146,804	-200,000	-0,008	0,054
-145,789	125,461	-0,137	-0,123
-144,775	457,428	-0,061	-0,097
-143,760	261,611	-0,070	-0,086
-142,745	-200,000	0,019	-0,081
-141,731	76,619	0,021	0,015
-140,716	75,174	0,158	0,119
-139,702	208,010	-0,016	-0,018
-138,687	-85,605	-0,090	0,020
-137,672	-98,875	-0,015	-0,003
-136,658	150,065	0,023	0,022
-135,643	257,278	-0,056	0,068
-134,629	-135,275	-0,143	0,012
-133,614	268,067	0,038	0,048
-132,599	-178,218	0,033	-0,001
-131,585	206,543	0,078	0,086
-130,570	-80,540	-0,112	0,026
-129,556	-116,053	-0,047	0,006
-128,541	800,000	0,006	-0,013
-127,526	-200,000	0,011	-0,038
-126,512	180,452	0,053	0,056
-125,497	-200,000	-0,025	0,133
-124,483	800,000	0,026	-0,055
-123,468	-28,186	-0,118	-0,048
-122,453	-35,293	-0,064	0,025
-121,439	-200,000	-0,010	-0,219
-120,424	-41,706	0,045	-0,016
-119,410	-40,574	-0,032	-0,012
-118,395	587,634	-0,045	0,079
-117,380	-200,000	0,009	0,041
-116,366	-200,000	0,014	-0,069
-115,351	535,044	-0,031	-0,053
-114,337	-200,000	-0,054	-0,202
-113,322	-127,903	0,123	-0,012
-112,307	-155,317	-0,074	0,003
-111,293	-200,000	-0,011	0,118
-110,278	150,875	-0,049	0,047
-109,264	247,971	0,032	-0,039
-108,249	14,500	-0,055	-0,030
-107,234	555,355	0,015	-0,026
-106,220	-200,000	0,016	0,129
-105,205	-140,528	-0,099	-0,007
-104,191	38,678	-0,035	-0,022
-103,176	37,150	-0,069	-0,043
-102,162	-200,000	0,006	0,097
-101,147	-70,508	0,049	0,013
-100,132	300,725	-0,077	0,102
-99,118	423,204	-0,038	-0,058
-98,103	289,244	0,025	-0,032
-97,089	415,145	0,093	0,140
-96,074	53,439	0,053	0,036
-95,059	158,100	-0,063	-0,062
-94,045	515,099	-0,033	0,055
-93,030	-17,953	-0,093	0,041
-92,016	800,000	0,011	-0,025
-91,001	512,138	-0,047	0,078
-89,986	800,000	-0,040	-0,086
-88,972	-130,243	0,156	0,015
-87,957	-194,256	-0,058	0,000
-86,943	-133,936	0,009	-0,001
-85,928	-200,000	-0,006	-0,103
-84,913	773,393	0,029	0,056
-83,899	-200,000	0,006	0,076
-82,884	-200,000	0,003	-0,015
-81,870	-168,356	0,109	0,003
-80,855	-200,000	-0,029	0,112
-79,840	-200,000	-0,007	-0,028
-78,826	122,995	0,078	0,069
-77,811	800,000	-0,023	-0,055
-76,797	106,939	-0,062	-0,052
-75,782	51,437	0,068	-0,046
-74,767	-99,826	0,202	-0,035
-73,753	30,204	0,064	0,039
-72,738	163,947	0,096	0,096
-71,724	-200,000	-0,041	0,181
-70,709	152,134	-0,116	0,113
-69,694	-172,716	0,065	0,001
-68,680	177,548	0,102	-0,105
-67,665	800,000	0,052	0,124
-66,651	-11,646	-0,071	0,033
-65,636	629,985	-0,032	0,057
-64,622	119,603	-0,063	-0,055
-63,607	800,000	-0,031	0,071
-62,592	477,379	-0,061	0,099
-61,578	-94,145	0,110	0,021
-60,563	108,657	0,131	0,111
-59,549	-200,000	-0,046	0,279
-58,534	-40,730	-1,502	-0,549
-57,519	389,179	-1,401	-2,062
-56,505	-200,000	-0,565	-4,492
-55,490	194,767	0,958	1,031
-54,476	800,000	4,992	11,425
-53,461	-200,000	18,892	307,976
-52,446	800,000	738,679	2306,590
-51,432	570,392	1654,411	2862,991
-50,417	78,898	1669,998	1264,934
-49,403	21,938	1542,775	888,726
-48,388	15,889	1465,293	814,702
-47,373	17,832	1455,514	818,618
-46,359	16,878	1445,520	808,392
-45,344	14,133	1440,948	792,656
-44,330	14,020	1439,036	791,031
-43,315	14,042	1437,103	790,042
-42,300	14,032	1435,650	789,166
-41,286	14,104	1434,332	788,755
-40,271	14,057	1433,255	787,907
-39,257	14,034	1431,967	787,057
-38,242	14,075	1430,636	786,491
-37,227	14,181	1429,041	786,084
-36,213	14,127	1427,929	785,189
-35,198	14,102	1426,984	784,516
-34,184	14,152	1425,885	784,119
-33,169	14,064	1424,647	782,990
-32,154	14,091	1423,605	782,513
-31,140	14,124	1422,204	781,870
-30,125	14,121	1421,147	781,242
-29,111	14,090	1420,124	780,505
-28,096	14,066	1418,957	779,715
-27,082	14,048	1417,800	778,964
-26,067	14,003	1416,832	778,188
-25,052	14,025	1415,736	777,662
-24,038	14,049	1414,743	777,198
-23,023	13,987	1413,796	776,355
-22,009	13,982	1412,714	775,706
-20,994	13,958	1412,025	775,186
-19,979	14,032	1410,964	774,918
-18,965	13,967	1410,019	774,066
-17,950	13,933	1409,248	773,452
-16,936	14,008	1408,063	773,121
-15,921	13,964	1407,072	772,342
-14,906	13,945	1406,246	771,766
-13,892	13,951	1405,145	771,163
-12,877	13,945	1404,478	770,737
-11,863	13,910	1403,554	770,037
-10,848	13,969	1402,490	769,694
-9,833	13,880	1401,772	768,858
-8,819	13,840	1400,944	768,188
-7,804	13,845	1399,941	767,631
-6,790	13,851	1398,859	767,035
-5,775	13,832	1397,635	766,244
-4,760	13,901	1396,562	765,945
-3,746	13,849	1395,974	765,349
-2,731	13,819	1395,200	764,756
-1,717	13,814	1394,416	764,276
-0,702	13,802	1392,633	763,210
0,313	17,691	1310,383	736,145
1,327	34,097	705,386	434,267
2,342	52,315	123,918	83,545
3,356	6,828	16,499	8,669
4,371	23,043	3,213	1,861
5,386	-74,842	0,524	0,132
6,400	800,000	0,082	0,245
7,415	-77,594	-0,316	-0,077
8,429	-170,332	-0,378	0,009
9,444	57,129	-0,237	-0,163
10,459	112,979	-0,326	-0,279
11,473	94,887	-0,181	-0,146
12,488	-3,520	-0,255	-0,125
13,502	-96,643	-0,258	-0,048
14,517	-38,491	-0,423	-0,157
15,531	225,272	-0,330	-0,378
16,546	280,030	-0,282	-0,357
17,561	401,434	-0,310	-0,462
18,575	116,731	-0,225	-0,195
19,590	344,780	-0,158	-0,219
20,604	43,913	-0,277	-0,179
21,619	74,830	-0,475	-0,353
22,634	51,666	-0,437	-0,293
23,648	150,465	-0,403	-0,387
24,663	121,268	-0,451	-0,397
25,677	113,235	-0,300	-0,257
26,692	5,068	-0,270	-0,140
27,707	41,624	-0,341	-0,218
28,721	63,921	-0,369	-0,262
29,736	54,091	-0,384	-0,261
30,750	65,162	-0,370	-0,264
31,765	0,119	-0,298	-0,149
32,780	126,549	-0,341	-0,305
33,794	35,654	-0,351	-0,217
34,809	143,545	-0,370	-0,348
35,823	57,751	-0,454	-0,313
36,838	261,103	-0,310	-0,380
37,853	163,919	-0,304	-0,303
38,867	570,832	-0,251	-0,432
39,882	91,498	-0,300	-0,238
40,896	43,104	-0,299	-0,192
41,911	69,646	-0,308	-0,224
42,926	118,050	-0,349	-0,303
43,940	89,640	-0,351	-0,276
44,955	225,844	-0,256	-0,293
45,969	76,194	-0,345	-0,257
46,984	202,727	-0,250	-0,273
47,999	113,785	-0,237	-0,203
49,013	195,625	-0,310	-0,333
50,028	-36,418	-0,241	-0,091
51,042	13,649	-0,337	-0,184
52,057	76,188	-0,357	-0,266
53,071	84,890	-0,339	-0,261
54,086	5,903	-0,230	-0,119
55,101	177,110	-0,328	-0,337
56,115	19,281	-0,306	-0,173
57,130	182,029	-0,283	-0,294
58,144	90,687	-0,374	-0,295
59,159	271,608	-0,276	-0,343
60,174	55,741	-0,373	-0,254
61,188	-20,552	-0,372	-0,160
62,203	27,366	-0,382	-0,225
63,217	329,729	-0,205	-0,278
64,232	541,853	-0,197	-0,332
65,247	-33,875	-0,329	-0,127
66,261	-21,111	-0,295	-0,127
67,276	70,193	-0,380	-0,276
68,290	664,172	-0,204	-0,372
69,305	133,046	-0,325	-0,295
70,320	166,791	-0,221	-0,221
71,334	48,013	-0,191	-0,126
72,349	71,160	-0,340	-0,248
73,363	460,244	-0,185	-0,290
74,378	-47,762	-0,384	-0,130
75,393	365,787	-0,308	-0,438
76,407	-49,270	-0,349	-0,117
77,422	101,233	-0,269	-0,221
78,436	50,316	-0,233	-0,155
79,451	-54,138	-0,254	-0,081
80,466	29,381	-0,286	-0,170
81,480	79,203	-0,326	-0,245
82,495	167,783	-0,282	-0,283
83,509	87,123	-0,410	-0,319
84,524	64,410	-0,238	-0,168
85,539	671,738	-0,184	-0,336
86,553	-6,109	-0,364	-0,174
87,568	44,379	-0,339	-0,218
88,582	133,938	-0,312	-0,284
89,597	203,038	-0,266	-0,289
90,611	17,205	-0,306	-0,170
91,626	34,861	-0,287	-0,176
92,641	667,677	-0,117	-0,213
93,655	38,237	-0,237	-0,148
94,670	63,493	-0,338	-0,238
95,684	-169,115	-0,254	0,006
96,699	19,417	-0,344	-0,194
97,714	-24,496	-0,330	-0,137
98,728	-76,209	-0,364	-0,089
99,743	48,045	-0,177	-0,116
100,757	165,384	-0,136	-0,135
101,772	-60,656	-0,266	-0,079
102,787	139,726	-0,302	-0,279
103,801	94,647	-0,341	-0,272
104,816	154,355	-0,285	-0,274
105,830	-91,806	-0,261	0,052
106,845	-79,037	-0,300	-0,071
107,860	-56,539	-0,310	-0,096
108,874	-32,741	-0,437	-0,170
109,889	-1,800	-0,312	-0,154
110,903	39,274	-0,269	-0,169
111,918	111,744	-0,322	-0,273
112,933	-116,407	-0,425	-0,054
113,947	74,103	-0,151	-0,111
114,962	40,069	-0,306	-0,192
115,976	63,366	-0,413	-0,290
116,991	32,018	-0,216	-0,130
118,006	131,040	-0,147	-0,132
119,020	22,635	-0,372	-0,213
120,035	111,991	-0,140	-0,118
121,049	-99,849	-0,189	-0,033
122,064	-60,702	-0,363	-0,107
123,079	800,000	-0,096	-0,252
124,093	158,481	-0,273	-0,266
125,108	117,527	-0,254	-0,219
126,122	85,298	-0,231	-0,178
127,137	-47,262	-0,203	-0,069
128,151	89,970	-0,205	-0,160
129,166	40,335	-0,265	-0,167
130,181	63,978	-0,271	-0,191
131,195	10,707	-0,270	-0,144
132,210	-6,885	-0,303	-0,144
133,224	215,744	-0,262	-0,291
134,239	-23,373	-0,244	-0,102
135,254	-90,873	-0,286	-0,057
136,268	7,862	-0,338	-0,177
137,283	40,387	-0,296	-0,186
138,297	-29,252	-0,207	-0,083
139,312	92,374	-0,262	-0,207
140,327	23,942	-0,292	-0,168
141,341	179,307	-0,184	-0,189
142,356	445,790	-0,178	-0,275
143,370	-23,585	-0,220	-0,092
144,385	130,005	-0,223	-0,200
145,400	15,063	-0,182	-0,099
146,414	142,068	-0,108	-0,100
147,429	-3,758	-0,347	-0,168
148,443	254,585	-0,209	-0,250
149,458	83,566	-0,325	-0,248
150,473	205,949	-0,194	-0,211
151,487	104,537	-0,173	-0,142
152,502	121,717	-0,148	-0,129
153,516	-27,428	-0,348	-0,141
154,531	114,952	-0,230	-0,196
155,546	-50,698	-0,187	-0,061
156,560	-18,777	-0,260	-0,113
157,575	-33,785	-0,291	0,112
158,589	-113,195	-0,354	-0,048
159,604	97,773	-0,184	-0,147
160,619	354,983	-0,218	-0,304
161,633	87,271	-0,319	-0,246
162,648	265,133	-0,165	-0,201
163,662	-16,848	-0,254	-0,111
164,677	51,926	-0,208	-0,138
165,692	437,328	-0,118	-0,181
166,706	5,313	-0,299	-0,153
167,721	68,551	-0,224	-0,160
168,735	109,502	-0,275	-0,230
169,750	69,820	-0,274	-0,197
170,764	145,786	-0,146	-0,137
171,779	-140,758	-0,314	-0,022
172,794	113,045	-0,158	-0,134
173,808	123,464	-0,171	-0,150
174,823	10,676	-0,255	-0,135
175,837	45,677	-0,252	-0,162
176,852	201,395	-0,236	-0,254
177,867	-70,790	-0,227	-0,059
178,881	-118,958	-0,215	-0,026
179,896	-127,020	-0,151	-0,015
180,910	522,190	-0,161	-0,264
181,925	61,791	-0,215	-0,149
182,940	87,522	-0,281	-0,217
183,954	43,983	-0,344	-0,219
184,969	-132,582	-0,248	-0,022
185,983	-161,497	-0,083	-0,003
186,998	71,287	-0,196	-0,141
188,013	33,953	-0,221	-0,134
189,027	800,000	-0,086	-0,171
190,042	382,137	-0,210	-0,301
191,056	396,554	-0,211	-0,308
192,071	24,232	-0,248	-0,142
193,086	-35,951	-0,177	-0,066
194,100	336,511	-0,213	-0,288
195,115	-83,321	-0,231	-0,051
196,129	683,088	-0,132	-0,241
197,144	188,647	-0,212	-0,221
198,159	-35,779	-0,261	-0,098
199,173	-1,272	-0,260	-0,128
200,188	87,515	-0,221	-0,170
201,202	219,025	-0,066	-0,074
202,217	361,453	-0,144	-0,202
203,232	401,428	-0,157	-0,230
204,246	220,739	-0,183	-0,205
205,261	-76,057	-0,240	-0,058
206,275	17,851	-0,322	-0,178
207,290	-35,102	-0,050	-0,019
208,304	62,436	-0,092	-0,064
209,319	81,181	-0,209	-0,157
210,334	173,938	-0,075	-0,076
211,348	133,935	-0,205	-0,185
212,363	18,996	-0,259	-0,144
213,377	-48,760	-0,187	-0,062
214,392	12,230	-0,212	-0,113
215,407	3,174	-0,172	-0,087
216,421	-50,607	-0,291	-0,095
217,436	114,341	-0,256	-0,217
218,450	613,548	-0,109	-0,191
219,465	800,000	-0,134	-0,262
220,480	583,524	-0,114	-0,196
221,494	303,512	-0,135	-0,174
222,509	178,677	-0,104	-0,106
223,523	-18,343	-0,150	-0,065
224,538	-183,727	-0,159	-0,002
225,553	-146,783	-0,277	0,016
226,567	133,137	-0,240	-0,216
227,582	338,516	-0,148	-0,200
228,596	-75,604	-0,129	-0,032
229,611	29,662	-0,087	-0,051
230,626	58,211	-0,076	-0,052
231,640	-1,276	-0,262	-0,128
232,655	63,143	-0,234	-0,162
233,669	134,120	-0,145	-0,130
234,684	191,740	-0,187	-0,195
235,699	-4,850	-0,149	-0,071
236,713	740,188	-0,116	-0,216
237,728	197,114	-0,069	-0,073
238,742	40,171	-0,265	-0,165
239,757	390,750	-0,192	-0,277
240,772	326,190	-0,131	-0,174
241,786	167,861	-0,144	-0,142
242,801	352,035	-0,160	-0,220
243,815	119,710	-0,249	-0,214
244,830	-68,103	-0,196	-0,052
245,844	280,293	-0,087	-0,109
246,859	65,961	-0,243	-0,171
247,874	-38,869	-0,259	-0,094
248,888	134,315	-0,225	-0,202
249,903	-200,000	-0,044	-0,163
250,917	732,775	-0,165	-0,306
251,932	396,644	-0,148	-0,215
252,947	-67,958	-0,178	-0,048
253,961	158,449	-0,176	-0,169
254,976	421,205	-0,151	-0,225
255,990	51,362	-0,276	-0,181
257,005	88,951	-0,209	-0,161
258,020	662,684	-0,087	-0,156
259,034	21,511	-0,101	-0,057
260,049	486,928	-0,073	-0,115
261,063	6,586	-0,222	-0,114
262,078	-7,285	-0,232	-0,108
263,093	49,497	-0,277	-0,180
264,107	46,469	-0,100	-0,064
265,122	800,000	-0,119	-0,254
266,136	278,895	-0,127	-0,158
267,151	-80,915	-0,232	-0,053
268,166	-32,998	-0,214	-0,082
269,180	-34,217	-0,266	-0,100
270,195	96,998	-0,118	-0,094
271,209	800,000	-0,111	-0,219
272,224	11,751	-0,197	-0,104
273,239	-40,591	-0,049	0,017
274,253	50,434	-0,112	-0,073
275,268	95,409	-0,108	-0,085
276,282	-95,356	-0,230	-0,042
277,297	385,996	-0,077	-0,110
278,312	12,101	-0,174	-0,092
279,326	-86,268	-0,205	-0,043
280,341	-4,927	-0,164	-0,078
281,355	100,010	-0,150	-0,120
282,370	123,040	-0,157	-0,136
283,384	-78,541	-0,236	-0,055
284,399	197,982	-0,111	-0,117
285,414	290,267	-0,105	-0,132
286,428	-79,653	-0,159	-0,037
287,443	10,558	-0,096	-0,051
288,457	-159,341	-0,077	0,003
289,472	1,208	-0,232	-0,114
290,487	184,385	-0,160	-0,164
291,501	121,660	-0,192	-0,165
292,516	439,823	-0,097	-0,146
293,530	128,787	-0,130	-0,114
294,545	-162,358	-0,049	0,002
295,560	-23,346	-0,151	-0,062
296,574	785,637	-0,064	-0,121
297,589	151,110	-0,210	-0,197
298,603	-68,925	-0,233	-0,062
299,618	408,690	-0,080	-0,117
300,633	112,321	-0,105	-0,088
301,647	298,802	-0,125	-0,159
302,662	704,728	-0,130	-0,238
303,676	166,824	-0,159	-0,155
304,691	-39,832	-0,173	-0,062
305,706	-39,861	-0,198	-0,071
306,720	-82,529	-0,265	-0,059
307,735	474,906	-0,043	-0,066
308,749	800,000	-0,010	-0,024
309,764	247,341	-0,186	-0,217
310,779	-30,157	-0,201	-0,078
311,793	154,091	-0,116	-0,110
312,808	54,063	-0,230	-0,152
313,822	100,585	-0,151	-0,121
314,837	-148,136	-0,125	0,007
315,852	-200,000	0,006	-0,124
316,866	85,576	-0,153	-0,116
317,881	23,281	-0,123	-0,070
318,895	-41,485	-0,242	-0,085
319,910	18,031	-0,174	-0,095
320,925	91,294	-0,157	-0,121
321,939	202,740	-0,143	-0,153
322,954	214,685	-0,170	-0,186
323,968	-43,792	-0,113	-0,039
324,983	10,704	-0,133	0,069
325,997	-93,021	-0,056	0,011
327,012	-7,363	-0,187	-0,087
328,027	-9,358	-0,181	-0,083
329,041	-200,000	-0,018	-0,154
330,056	223,052	0,032	-0,035
331,070	-44,710	-0,129	0,044
332,085	522,690	-0,043	-0,070
333,100	-118,388	-0,105	-0,013
334,114	128,130	-0,169	-0,148
335,129	-200,000	-0,007	-0,161
336,143	-129,365	-0,186	0,017
337,158	-22,597	-0,037	0,015
338,173	107,178	-0,134	-0,109
339,187	58,035	-0,092	0,062
340,202	800,000	-0,129	-0,257
341,216	-84,776	-0,118	0,025
342,231	-200,000	0,010	-0,051
343,246	-200,000	-0,051	-0,197
344,260	23,296	-0,226	-0,127
345,275	-66,186	-0,066	-0,018
346,289	-14,544	-0,139	-0,061
347,304	272,637	-0,166	-0,202
348,319	800,000	-0,089	-0,224
349,333	213,109	-0,225	-0,244
350,348	-12,112	-0,104	-0,047
351,362	175,005	-0,133	-0,132
352,377	766,795	0,033	-0,062
353,392	800,000	-0,054	-0,121
354,406	800,000	-0,067	-0,179
355,421	209,449	1311,728	1412,633
356,435	161,202	1472,091	1413,131
