DTS Sentinel unit serial number:	SN410029Multiplexer serial number:	ORYXHardware model number:	OX2-SRSoftware version number:	ORYX F/W v4,00 Oryx Data Collector v3.7.2.0data status	okinstallation	B3 Nyhavnadifferential loss correction	single-endedforward channel	channel 1reverse channel	N/Adate	2023/11/30time	04:27:30forward acquisition time	300,00reverse acquisition time	0,00gamma	499,1914k internal	0,3211k external	0,3211temperature offset calibration	1,0000default loss term (dB/km)	0,3820temperature slope calibration	1,0000multiplexer offset coefficient	1,0000multiplexer slope coefficient	1,0000fibre end	0,00T internal ref (°C)	10,13T ext. ref 1 (°C)	-5,35T ext. ref 2 (°C)	-5,45length (m)	temperature (°C)	Stokes	anti-Stokes-744,400	229,820	-0,172	-0,204
-743,385	-200,000	0,052	0,254
-742,371	77,582	-0,175	-0,135
-741,356	-200,000	-0,044	0,231
-740,342	442,420	-0,150	-0,239
-739,327	800,000	0,096	0,279
-738,312	214,948	-0,237	-0,272
-737,298	800,000	-0,084	0,189
-736,283	369,696	-0,134	-0,197
-735,269	-200,000	0,077	0,402
-734,254	800,000	-0,097	-0,195
-733,239	-129,487	-0,274	-0,027
-732,225	239,337	-0,230	-0,278
-731,210	-36,902	0,214	0,083
-730,196	800,000	-0,024	0,051
-729,181	133,179	-0,040	0,038
-728,167	201,813	0,052	-0,058
-727,152	-133,679	0,133	-0,012
-726,137	569,081	-0,044	-0,078
-725,123	-153,468	-0,108	0,005
-724,108	242,991	-0,031	0,037
-723,094	-200,000	-0,006	-0,053
-722,079	-200,000	0,004	-0,072
-721,064	-200,000	-0,018	-0,102
-720,050	-179,275	0,073	0,001
-719,035	-200,000	-0,024	-0,142
-718,021	-200,000	-0,021	-0,074
-717,006	-158,618	-0,253	-0,010
-715,991	71,097	-0,041	-0,030
-714,977	-200,000	0,016	-0,100
-713,962	800,000	0,037	-0,081
-712,948	-19,014	0,081	0,037
-711,933	-18,264	-0,087	0,039
-710,918	35,907	0,064	0,041
-709,904	800,000	-0,029	0,069
-708,889	164,249	-0,056	-0,057
-707,875	6,091	-0,093	-0,050
-706,860	800,000	-0,085	-0,207
-705,845	454,692	-0,027	-0,043
-704,831	800,000	-0,050	0,140
-703,816	653,752	-0,038	0,071
-702,802	14,824	0,099	-0,056
-701,787	800,000	-0,047	-0,098
-700,772	17,592	-0,040	0,023
-699,758	-41,969	0,166	0,061
-698,743	-200,000	-0,020	0,124
-697,729	-155,244	-0,102	0,005
-696,714	800,000	0,067	0,170
-695,699	255,112	-0,139	-0,172
-694,685	-53,196	-0,058	0,019
-693,670	-200,000	0,014	0,056
-692,656	-148,019	0,060	-0,004
-691,641	129,938	-0,094	-0,087
-690,627	-123,496	0,034	0,004
-689,612	-200,000	0,001	0,024
-688,597	447,045	0,018	-0,029
-687,583	576,425	-0,074	-0,131
-686,568	800,000	0,035	-0,108
-685,554	502,257	0,025	-0,043
-684,539	-200,000	-0,026	-0,103
-683,524	-200,000	-0,007	-0,031
-682,510	43,466	0,118	0,078
-681,495	495,336	0,027	-0,044
-680,481	-129,379	-0,111	-0,011
-679,466	-200,000	0,008	0,115
-678,451	-200,000	-0,024	-0,100
-677,437	-18,564	0,148	0,066
-676,422	-200,000	0,008	-0,072
-675,408	-57,425	0,107	-0,034
-674,393	-200,000	-0,018	-0,150
-673,378	800,000	-0,037	-0,091
-672,364	151,326	-0,122	-0,120
-671,349	-200,000	-0,034	-0,204
-670,335	800,000	0,011	0,034
-669,320	-84,614	0,018	0,004
-668,305	582,210	-0,024	-0,043
-667,291	167,316	-0,019	-0,020
-666,276	-114,365	-0,135	0,019
-665,262	800,000	0,045	0,130
-664,247	630,832	-0,037	0,067
-663,232	110,760	0,068	-0,059
-662,218	275,395	-0,039	-0,050
-661,203	100,735	-0,065	0,055
-660,189	-200,000	-0,010	-0,056
-659,174	452,918	-0,063	0,101
-658,159	420,615	-0,045	-0,070
-657,145	45,747	-0,029	0,020
-656,130	-200,000	-0,027	-0,113
-655,116	-200,000	0,005	-0,023
-654,101	-67,044	0,045	0,013
-653,086	800,000	0,017	0,035
-652,072	-200,000	-0,020	-0,066
-651,057	-3,126	-0,151	-0,076
-650,043	-139,955	-0,097	-0,007
-649,028	430,193	0,035	-0,054
-648,014	-133,261	0,174	0,016
-646,999	-110,860	-0,089	-0,013
-645,984	112,035	0,105	-0,091
-644,970	21,242	-0,056	-0,033
-643,955	44,693	0,047	0,031
-642,941	57,835	-0,046	-0,033
-641,926	-200,000	-0,010	-0,141
-640,911	399,850	-0,029	0,044
-639,897	108,812	0,033	0,029
-638,882	-150,214	-0,066	0,004
-637,868	-77,956	-0,081	0,020
-636,853	100,341	0,091	-0,076
-635,838	-47,828	-0,149	0,052
-634,824	263,672	0,032	-0,040
-633,809	-184,850	0,051	0,001
-632,795	-82,629	-0,060	-0,014
-631,780	164,376	0,047	0,048
-630,765	81,223	-0,092	-0,072
-629,751	-200,000	-0,028	-0,288
-628,736	800,000	0,024	-0,064
-627,722	102,214	0,032	-0,027
-626,707	265,703	-0,033	0,042
-625,692	-200,000	0,019	-0,083
-624,678	800,000	-0,010	0,026
-623,663	255,287	0,052	0,064
-622,649	-200,000	0,018	-0,087
-621,634	-200,000	-0,030	-0,206
-620,619	-200,000	0,027	-0,196
-619,605	-188,074	0,087	0,001
-618,590	-5,801	0,059	0,029
-617,576	800,000	0,032	0,098
-616,561	-142,902	-0,104	0,007
-615,546	30,944	-0,059	-0,036
-614,532	64,784	-0,137	-0,100
-613,517	304,126	-0,044	-0,059
-612,503	221,201	0,075	0,087
-611,488	-64,854	0,061	-0,018
-610,474	-154,877	-0,089	0,004
-609,459	-164,895	-0,095	-0,003
-608,444	-200,000	-0,006	-0,081
-607,430	136,696	-0,036	-0,033
-606,415	799,168	-0,061	-0,122
-605,401	-71,890	-0,074	0,020
-604,386	-50,430	0,141	-0,048
-603,371	-200,000	-0,009	0,109
-602,357	-53,131	0,041	-0,014
-601,342	-77,857	-0,080	0,020
-600,328	31,281	-0,094	0,058
-599,313	-45,541	0,043	-0,015
-598,298	-200,000	0,006	-0,052
-597,284	799,103	-0,018	0,036
-596,269	10,695	-0,050	0,027
-595,255	43,788	0,017	0,011
-594,240	-34,386	-0,044	0,017
-593,225	800,000	-0,065	-0,157
-592,211	25,595	-0,067	-0,040
-591,196	-200,000	0,006	-0,064
-590,182	-127,602	0,038	0,004
-589,167	250,341	0,012	-0,014
-588,152	800,000	-0,028	0,072
-587,138	169,869	-0,090	-0,093
-586,123	227,010	-0,094	-0,111
-585,109	327,598	0,092	-0,127
-584,094	800,000	0,010	0,021
-583,079	-135,879	0,058	0,005
-582,065	-68,981	0,145	-0,040
-581,050	30,790	0,027	0,017
-580,036	-200,000	-0,035	0,136
-579,021	-104,781	-0,058	-0,009
-578,006	29,315	-0,155	-0,095
-576,992	800,000	-0,015	-0,036
-575,977	-200,000	0,011	0,034
-574,963	-148,591	0,087	-0,005
-573,948	-61,868	-0,080	-0,024
-572,934	766,043	-0,027	0,053
-571,919	-13,771	0,158	0,074
-570,904	62,353	0,027	0,019
-569,890	65,951	0,019	0,014
-568,875	800,000	0,051	0,154
-567,861	-97,174	0,087	-0,016
-566,846	-84,163	-0,096	0,022
-565,831	-119,215	-0,098	0,012
-564,817	-10,616	0,072	-0,034
-563,802	45,885	-0,079	0,052
-562,788	-200,000	-0,006	-0,045
-561,773	-85,789	0,075	-0,017
-560,758	160,572	-0,077	-0,077
-559,744	64,063	0,018	-0,013
-558,729	-104,241	-0,092	0,015
-557,715	-29,128	0,157	-0,065
-556,700	196,875	-0,097	-0,107
-555,685	-81,305	0,136	0,032
-554,671	284,271	-0,001	0,002
-553,656	-200,000	0,025	0,187
-552,642	800,000	0,037	0,089
-551,627	-200,000	0,001	0,062
-550,612	68,577	-0,135	-0,100
-549,598	64,003	0,039	0,028
-548,583	165,038	-0,070	-0,071
-547,569	-4,885	-0,099	-0,049
-546,554	-200,000	-0,031	-0,121
-545,539	-47,228	-0,032	-0,011
-544,525	-200,000	0,035	0,184
-543,510	82,376	-0,103	0,080
-542,496	-200,000	-0,011	-0,212
-541,481	-132,142	-0,134	0,012
-540,466	108,359	0,021	0,018
-539,452	-200,000	0,004	-0,045
-538,437	224,354	0,039	0,046
-537,423	131,427	-0,056	0,051
-536,408	-62,125	-0,176	0,053
-535,393	-200,000	-0,028	-0,209
-534,379	206,654	0,089	-0,100
-533,364	21,752	-0,104	-0,061
-532,350	-200,000	-0,033	-0,105
-531,335	-120,000	-0,069	-0,008
-530,321	403,748	-0,055	-0,084
-529,306	-65,633	-0,056	-0,016
-528,291	42,520	-0,241	-0,157
-527,277	-200,000	-0,017	0,072
-526,262	331,716	0,033	0,046
-525,248	106,313	0,099	-0,084
-524,233	47,799	0,018	-0,012
-523,218	800,000	-0,029	0,086
-522,204	68,272	0,044	0,032
-521,189	87,413	-0,052	0,041
-520,175	-162,438	-0,075	0,003
-519,160	168,928	0,013	0,013
-518,145	306,612	-0,014	-0,018
-517,131	45,045	-0,018	-0,012
-516,116	-200,000	0,048	0,171
-515,102	800,000	0,034	0,079
-514,087	-37,964	0,061	-0,023
-513,072	-23,943	-0,204	-0,087
-512,058	-131,449	0,049	-0,005
-511,043	780,773	-0,005	0,010
-510,029	800,000	0,048	0,124
-509,014	-200,000	0,024	0,076
-507,999	800,000	0,062	0,132
-506,985	-102,492	-0,099	0,017
-505,970	-200,000	-0,007	-0,062
-504,956	-2,258	-0,053	-0,026
-503,941	104,787	-0,105	0,088
-502,926	-9,246	0,160	-0,076
-501,912	-25,122	-0,089	0,038
-500,897	220,826	-0,025	0,028
-499,883	-138,560	0,025	0,002
-498,868	-200,000	0,007	-0,043
-497,853	133,974	0,026	-0,024
-496,839	640,688	0,045	0,083
-495,824	-200,000	0,001	-0,111
-494,810	-89,704	0,095	0,020
-493,795	800,000	0,008	-0,019
-492,781	115,312	-0,057	0,050
-491,766	-97,454	-0,153	-0,028
-490,751	91,410	-0,121	-0,097
-489,737	-200,000	-0,023	-0,083
-488,722	800,000	0,019	0,042
-487,708	-95,104	0,050	-0,010
-486,693	340,969	-0,036	-0,050
-485,678	92,999	0,063	0,051
-484,664	175,959	-0,045	-0,047
-483,649	-200,000	0,002	0,121
-482,635	-48,491	-0,034	-0,012
-481,620	-200,000	0,009	0,038
-480,605	188,954	0,090	0,097
-479,591	303,066	-0,048	0,064
-478,576	-200,000	0,007	-0,077
-477,562	30,049	-0,104	-0,063
-476,547	-116,522	0,061	-0,008
-475,532	-200,000	-0,003	0,043
-474,518	-111,672	0,057	0,008
-473,503	-38,481	0,049	-0,018
-472,489	68,138	0,043	0,032
-471,474	800,000	0,012	0,030
-470,459	-200,000	0,001	-0,049
-469,445	-181,488	0,061	-0,001
-468,430	-200,000	-0,019	0,097
-467,416	-200,000	0,016	0,058
-466,401	333,894	-0,132	0,184
-465,386	68,750	0,040	0,029
-464,372	47,585	0,116	-0,077
-463,357	217,981	-0,152	0,174
-462,343	-200,000	-0,019	-0,080
-461,328	239,002	-0,033	-0,039
-460,313	46,526	0,065	0,043
-459,299	762,762	-0,010	0,020
-458,284	356,684	0,099	0,142
-457,270	492,555	0,047	0,077
-456,255	14,935	-0,093	0,052
-455,241	607,800	0,056	0,100
-454,226	299,536	-0,025	0,034
-453,211	-149,063	0,069	0,004
-452,197	91,333	0,080	-0,065
-451,182	398,087	-0,074	0,111
-450,168	-200,000	0,005	-0,038
-449,153	459,965	0,074	0,119
-448,138	187,405	-0,064	-0,069
-447,124	-65,010	-0,063	-0,018
-446,109	800,000	0,015	0,041
-445,095	800,000	0,007	-0,016
-444,080	800,000	0,048	0,116
-443,065	66,931	-0,065	0,047
-442,051	-82,692	0,082	-0,019
-441,036	-18,959	0,083	-0,037
-440,022	748,763	0,025	-0,049
-439,007	793,750	-0,036	0,072
-437,992	141,635	0,079	0,075
-436,978	-39,159	0,058	0,022
-435,963	-200,000	0,003	0,118
-434,949	242,485	-0,095	-0,115
-433,934	47,088	-0,082	-0,055
-432,919	2,238	0,171	0,088
-431,905	480,919	0,039	0,063
-430,890	25,004	0,015	-0,009
-429,876	800,000	0,091	0,187
-428,861	735,712	0,031	-0,060
-427,846	-14,535	0,029	-0,013
-426,832	-200,000	0,000	-0,044
-425,817	-97,826	0,090	-0,016
-424,803	-84,258	-0,141	-0,032
-423,788	112,757	-0,010	0,008
-422,773	-200,000	0,020	0,068
-421,759	800,000	-0,025	-0,063
-420,744	-200,000	0,005	0,114
-419,730	502,165	0,035	-0,058
-418,715	-56,933	-0,031	-0,010
-417,701	-77,815	0,053	0,013
-416,686	51,838	-0,038	0,026
-415,671	-28,128	0,110	-0,045
-414,657	287,638	-0,089	-0,115
-413,642	536,785	0,021	0,035
-412,628	30,823	0,089	-0,054
-411,613	-200,000	0,016	-0,083
-410,598	7,697	0,018	0,010
-409,584	82,328	0,079	0,061
-408,569	113,406	-0,074	0,065
-407,555	-102,117	-0,026	-0,004
-406,540	35,129	-0,017	-0,011
-405,525	-200,000	-0,046	0,163
-404,511	-4,443	-0,041	-0,020
-403,496	-200,000	-0,023	-0,111
-402,482	502,115	0,006	0,011
-401,467	-200,000	-0,016	0,075
-400,452	235,998	0,046	-0,054
-399,438	156,687	0,041	-0,041
-398,423	3,097	-0,073	0,038
-397,409	-200,000	0,019	-0,088
-396,394	-200,000	0,018	0,082
-395,379	-2,034	0,173	-0,087
-394,365	-146,230	0,120	-0,007
-393,350	-101,184	0,121	-0,021
-392,336	250,200	-0,047	-0,057
-391,321	380,523	-0,041	-0,060
-390,306	101,420	-0,096	-0,080
-389,292	2,858	-0,122	-0,063
-388,277	202,117	0,109	0,120
-387,263	-132,568	-0,087	-0,008
-386,248	800,000	0,036	0,073
-385,233	-200,000	0,012	-0,062
-384,219	-200,000	0,002	-0,132
-383,204	-200,000	0,012	-0,090
-382,190	26,406	-0,152	-0,090
-381,175	800,000	0,006	-0,018
-380,160	-55,524	0,089	-0,028
-379,146	800,000	0,017	0,039
-378,131	268,346	0,040	0,050
-377,117	-200,000	-0,003	0,063
-376,102	-200,000	0,000	-0,040
-375,088	26,368	-0,112	-0,067
-374,073	-200,000	-0,020	-0,140
-373,058	-70,386	0,113	-0,030
-372,044	-200,000	-0,038	0,178
-371,029	-103,809	-0,068	0,011
-370,015	-35,287	0,068	0,026
-369,000	-200,000	0,030	-0,142
-367,985	14,879	-0,058	-0,032
-366,971	116,938	-0,095	-0,084
-365,956	-200,000	-0,002	-0,018
-364,942	-42,229	0,137	-0,050
-363,927	-200,000	0,004	-0,023
-362,912	-200,000	-0,015	0,130
-361,898	-200,000	0,016	0,053
-360,883	-42,817	0,012	0,004
-359,869	-82,495	-0,072	0,017
-358,854	-200,000	0,028	0,129
-357,839	800,000	0,049	0,100
-356,825	-200,000	0,005	0,087
-355,810	-119,780	0,083	-0,010
-354,796	-200,000	-0,034	-0,210
-353,781	-59,927	-0,115	-0,035
-352,766	-200,000	-0,030	-0,117
-351,752	-32,535	0,005	-0,002
-350,737	205,388	0,042	-0,046
-349,723	-155,399	0,110	0,005
-348,708	800,000	-0,035	0,109
-347,693	324,290	-0,036	-0,050
-346,679	543,084	0,069	-0,118
-345,664	-90,408	0,142	-0,029
-344,650	-200,000	-0,021	-0,072
-343,635	-69,383	0,039	-0,011
-342,620	176,293	0,026	0,027
-341,606	30,110	0,136	-0,082
-340,591	-100,020	0,044	-0,008
-339,577	39,863	0,065	-0,042
-338,562	371,491	-0,051	-0,074
-337,548	-15,672	-0,092	-0,042
-336,533	-42,153	0,121	-0,044
-335,518	245,450	0,026	0,031
-334,504	-173,042	0,127	-0,003
-333,489	63,262	-0,022	-0,016
-332,475	169,836	-0,082	-0,084
-331,460	768,303	0,089	-0,174
-330,445	66,151	0,056	-0,041
-329,431	2,474	-0,093	0,048
-328,416	-33,309	0,080	0,031
-327,402	116,373	0,112	-0,098
-326,387	-200,000	0,023	0,108
-325,372	-200,000	-0,019	0,072
-324,358	293,037	0,023	0,030
-323,343	-200,000	-0,030	-0,103
-322,329	-19,798	0,027	-0,012
-321,314	81,397	0,067	0,051
-320,299	198,528	-0,067	-0,074
-319,285	108,812	0,074	0,063
-318,270	272,399	0,074	-0,093
-317,256	-200,000	-0,025	-0,117
-316,241	800,000	0,046	-0,106
-315,226	-128,434	0,073	-0,007
-314,212	-200,000	0,019	0,159
-313,197	18,608	0,124	0,071
-312,183	-48,531	-0,128	-0,044
-311,168	23,125	-0,118	-0,069
-310,153	-98,540	-0,091	0,016
-309,139	800,000	-0,025	0,070
-308,124	-200,000	0,017	-0,060
-307,110	800,000	-0,033	-0,070
-306,095	-174,304	-0,071	-0,001
-305,080	800,000	-0,013	-0,035
-304,066	460,922	0,036	0,057
-303,051	-35,479	-0,063	-0,024
-302,037	-169,385	-0,023	-0,001
-301,022	-200,000	0,031	-0,187
-300,008	-7,571	-0,085	0,041
-298,993	105,089	0,133	0,112
-297,978	-43,555	-0,064	-0,023
-296,964	-26,548	0,064	0,026
-295,949	-88,099	0,025	0,005
-294,935	86,487	-0,155	0,121
-293,920	161,274	-0,026	0,026
-292,905	-87,689	0,115	-0,025
-291,891	-146,644	0,172	0,010
-290,876	297,786	0,018	-0,024
-289,862	800,000	0,019	0,050
-288,847	161,953	-0,111	0,111
-287,832	696,827	0,018	0,033
-286,818	-200,000	-0,009	0,062
-285,803	800,000	0,032	0,083
-284,789	151,755	0,060	0,058
-283,774	-200,000	-0,029	0,181
-282,759	13,824	0,119	-0,066
-281,745	-107,223	-0,089	-0,014
-280,730	-200,000	-0,001	0,067
-279,716	-133,424	0,102	0,009
-278,701	411,743	-0,071	-0,108
-277,686	256,160	0,098	0,120
-276,672	800,000	-0,019	0,041
-275,657	800,000	-0,021	0,056
-274,643	800,000	-0,032	-0,102
-273,628	52,647	-0,079	0,053
-272,613	416,218	-0,021	0,032
-271,599	-105,190	0,105	-0,017
-270,584	-200,000	0,004	0,079
-269,570	800,000	0,023	0,050
-268,555	-200,000	-0,013	-0,109
-267,540	76,764	-0,068	0,051
-266,526	-200,000	0,004	0,136
-265,511	-200,000	-0,011	-0,173
-264,497	180,906	-0,042	-0,044
-263,482	-77,929	0,081	-0,020
-262,467	-200,000	-0,016	0,110
-261,453	-64,159	-0,065	0,019
-260,438	60,574	-0,071	-0,050
-259,424	104,751	0,057	-0,048
-258,409	-15,707	0,088	-0,040
-257,395	34,969	-0,132	0,082
-256,380	-200,000	0,022	-0,092
-255,365	800,000	-0,024	0,054
-254,351	37,862	-0,066	-0,042
-253,336	167,503	0,072	-0,072
-252,322	190,946	-0,060	0,064
-251,307	-122,042	-0,188	-0,022
-250,292	-13,395	0,109	0,050
-249,278	-140,327	-0,027	-0,002
-248,263	11,216	-0,084	-0,046
-247,249	-58,913	0,112	0,034
-246,234	48,049	0,027	-0,018
-245,219	-15,408	-0,125	-0,057
-244,205	496,182	0,008	-0,014
-243,190	-66,636	-0,097	-0,027
-242,176	79,298	-0,025	0,019
-241,161	94,623	0,060	0,049
-240,146	-57,862	-0,225	-0,069
-239,132	-200,000	0,006	0,026
-238,117	-96,953	-0,078	-0,014
-237,103	92,885	-0,049	0,039
-236,088	-44,902	0,066	0,023
-235,073	800,000	0,058	0,132
-234,059	287,049	0,055	0,071
-233,044	-200,000	0,028	0,103
-232,030	433,354	0,077	-0,119
-231,015	-38,621	-0,146	-0,054
-230,000	-136,805	-0,117	-0,009
-228,986	-36,509	-0,016	-0,006
-227,971	77,400	0,112	-0,085
-226,957	224,993	-0,022	0,025
-225,942	800,000	0,073	0,176
-224,927	800,000	-0,065	0,170
-223,913	240,563	-0,042	-0,050
-222,898	101,122	0,034	-0,028
-221,884	-33,457	-0,014	-0,005
-220,869	-21,273	0,112	0,048
-219,855	-45,015	0,080	0,028
-218,840	302,686	-0,068	0,089
-217,825	-200,000	0,009	0,103
-216,811	-20,284	-0,161	-0,070
-215,796	-111,675	-0,157	-0,022
-214,782	800,000	-0,073	-0,144
-213,767	-200,000	0,013	0,112
-212,752	800,000	0,066	0,175
-211,738	800,000	0,019	0,054
-210,723	138,839	0,043	-0,040
-209,709	274,511	-0,067	0,084
-208,694	114,977	-0,005	0,005
-207,679	626,875	0,068	0,122
-206,665	101,094	0,100	0,082
-205,650	-127,951	0,105	-0,011
-204,636	83,010	0,051	0,039
-203,621	800,000	0,036	0,105
-202,606	-15,970	-0,094	0,042
-201,592	-200,000	-0,000	-0,067
-200,577	204,326	-0,037	-0,041
-199,563	-200,000	-0,012	-0,057
-198,548	-123,571	0,070	-0,008
-197,533	-200,000	-0,008	0,101
-196,519	-178,063	-0,042	-0,001
-195,504	-21,835	0,048	0,021
-194,490	800,000	-0,060	-0,128
-193,475	-152,931	0,058	0,003
-192,460	-84,442	0,048	0,011
-191,446	800,000	0,032	0,078
-190,431	-158,816	0,044	-0,002
-189,417	343,737	0,021	-0,029
-188,402	723,700	-0,025	-0,047
-187,387	-200,000	-0,002	-0,093
-186,373	-200,000	0,016	-0,088
-185,358	-74,452	-0,055	-0,014
-184,344	-76,136	0,150	0,037
-183,329	800,000	0,048	0,099
-182,315	-200,000	-0,002	-0,016
-181,300	-64,843	0,094	0,027
-180,285	179,995	-0,056	0,059
-179,271	-72,098	-0,151	-0,039
-178,256	800,000	-0,009	0,028
-177,242	-18,793	0,052	0,023
-176,227	219,686	0,101	0,115
-175,212	453,038	0,027	0,042
-174,198	-200,000	-0,010	-0,043
-173,183	-200,000	0,004	-0,027
-172,169	-200,000	-0,012	-0,081
-171,154	-39,730	0,068	-0,025
-170,139	-200,000	0,030	-0,156
-169,125	0,345	0,110	0,056
-168,110	800,000	-0,058	0,127
-167,096	800,000	-0,015	0,029
-166,081	180,457	0,015	-0,016
-165,066	78,255	-0,070	0,053
-164,052	800,000	-0,005	-0,012
-163,037	-48,025	0,090	0,031
-162,023	-54,699	0,164	-0,052
-161,008	118,892	0,038	0,034
-159,993	-92,223	-0,119	-0,024
-158,979	-200,000	0,004	-0,058
-157,964	-121,818	0,055	0,006
-156,950	-144,458	-0,086	0,006
-155,935	-200,000	0,077	0,255
-154,920	327,788	-0,104	0,142
-153,906	-200,000	0,002	-0,021
-152,891	169,147	0,032	-0,032
-151,877	-66,444	0,138	-0,038
-150,862	-22,819	-0,188	-0,080
-149,847	-200,000	0,045	0,148
-148,833	800,000	0,080	0,168
-147,818	-4,346	0,194	-0,095
-146,804	248,621	0,044	0,053
-145,789	-76,263	-0,086	-0,021
-144,775	-74,537	-0,099	-0,025
-143,760	-200,000	-0,013	-0,078
-142,745	-36,377	0,077	-0,029
-141,731	-42,939	-0,105	0,037
-140,716	-56,602	0,049	-0,015
-139,702	-200,000	0,025	0,086
-138,687	-200,000	-0,010	0,120
-137,672	236,533	-0,037	0,043
-136,658	-200,000	-0,009	-0,060
-135,643	-98,958	-0,134	-0,024
-134,629	54,074	0,078	-0,053
-133,614	-92,991	0,075	-0,015
-132,599	411,219	0,066	0,099
-131,585	66,975	-0,085	-0,061
-130,570	204,107	-0,104	-0,115
-129,556	376,269	0,057	-0,083
-128,541	-200,000	-0,019	-0,070
-127,526	791,986	-0,094	-0,184
-126,512	-33,276	0,141	0,055
-125,497	-200,000	0,040	0,195
-124,483	559,238	-0,073	0,125
-123,468	-200,000	-0,009	0,136
-122,453	60,355	-0,061	-0,043
-121,439	-200,000	-0,003	0,032
-120,424	95,002	-0,043	0,035
-119,410	800,000	0,049	0,145
-118,395	-13,189	0,107	-0,049
-117,380	-200,000	0,037	0,171
-116,366	49,066	0,099	0,066
-115,351	-50,438	-0,097	-0,032
-114,337	-57,070	-0,095	-0,029
-113,322	46,057	-0,075	-0,049
-112,307	82,117	0,025	-0,019
-111,293	-91,133	0,069	0,014
-110,278	532,324	0,069	0,117
-109,264	-27,114	0,033	0,013
-108,249	-17,770	-0,030	-0,013
-107,234	532,445	-0,117	0,197
-106,220	800,000	0,046	-0,139
-105,205	76,065	0,132	-0,099
-104,191	13,402	0,132	0,072
-103,176	800,000	-0,046	-0,118
-102,162	-200,000	0,028	-0,118
-101,147	310,899	0,024	-0,031
-100,132	255,335	0,023	0,028
-99,118	-200,000	-0,027	-0,118
-98,103	-200,000	-0,005	0,041
-97,089	-200,000	0,021	-0,099
-96,074	-127,607	0,181	0,018
-95,059	785,403	-0,073	0,141
-94,045	-200,000	-0,002	-0,022
-93,030	657,338	0,019	-0,035
-92,016	800,000	-0,088	-0,175
-91,001	86,068	-0,106	-0,082
-89,986	224,395	0,058	-0,066
-88,972	800,000	-0,062	0,170
-87,957	228,688	0,057	0,066
-86,943	15,967	-0,099	0,055
-85,928	80,216	-0,027	-0,020
-84,913	140,596	0,061	-0,057
-83,899	429,068	0,066	0,101
-82,884	-13,691	0,040	0,018
-81,870	257,261	0,138	0,168
-80,855	800,000	0,034	0,078
-79,840	206,751	0,067	-0,074
-78,826	-200,000	-0,005	0,026
-77,811	800,000	0,061	-0,127
-76,797	-142,971	0,131	0,009
-75,782	-200,000	-0,003	0,028
-74,767	-200,000	-0,009	0,069
-73,753	800,000	-0,007	0,021
-72,738	-77,527	0,129	-0,031
-71,724	800,000	-0,011	-0,034
-70,709	75,471	-0,050	0,037
-69,694	-119,883	0,153	0,018
-68,680	244,142	0,033	0,039
-67,665	110,418	0,067	0,057
-66,651	199,775	0,133	0,145
-65,636	777,450	0,046	0,089
-64,622	103,558	0,053	0,044
-63,607	-36,391	-0,085	-0,032
-62,592	-134,546	-0,092	0,008
-61,578	800,000	0,038	-0,107
-60,563	800,000	0,031	-0,061
-59,549	-140,971	0,018	-0,001
-58,534	26,286	-1,950	-1,147
-57,519	431,637	-1,356	-2,082
-56,505	-200,000	-0,381	-4,162
-55,490	637,193	0,942	1,696
-54,476	800,000	5,009	11,257
-53,461	-200,000	21,260	340,370
-52,446	800,000	759,481	2360,561
-51,432	560,333	1662,546	2846,173
-50,417	73,659	1661,641	1227,438
-49,403	18,034	1534,979	861,254
-48,388	11,975	1458,537	789,055
-47,373	19,386	1449,578	819,741
-46,359	15,471	1438,877	795,039
-45,344	10,276	1434,636	767,930
-44,330	10,160	1432,920	766,430
-43,315	10,170	1430,843	765,337
-42,300	10,191	1429,068	764,453
-41,286	10,206	1428,155	764,007
-40,271	10,161	1426,715	762,994
-39,257	10,147	1425,575	762,287
-38,242	10,222	1424,441	762,008
-37,227	10,202	1423,252	761,244
-36,213	10,193	1422,143	760,578
-35,198	10,206	1420,960	759,978
-34,184	10,246	1420,010	759,629
-33,169	10,212	1418,612	758,687
-32,154	10,248	1417,666	758,325
-31,140	10,223	1416,446	757,523
-30,125	10,237	1415,384	756,989
-29,111	10,231	1414,312	756,361
-28,096	10,225	1412,799	755,493
-27,082	10,168	1411,660	754,586
-26,067	10,116	1410,976	753,947
-25,052	10,184	1409,676	753,538
-24,038	10,184	1408,680	752,979
-23,023	10,132	1407,913	752,297
-22,009	10,189	1406,710	751,888
-20,994	10,158	1405,473	751,052
-19,979	10,138	1404,782	750,561
-18,965	10,137	1403,785	749,992
-17,950	10,125	1403,081	749,529
-16,936	10,098	1402,250	748,931
-15,921	10,031	1401,180	748,020
-14,906	10,070	1400,240	747,667
-13,892	10,142	1399,045	747,335
-12,877	10,109	1398,352	746,783
-11,863	10,076	1397,616	746,208
-10,848	10,061	1396,672	745,603
-9,833	9,990	1395,906	744,835
-8,819	9,968	1395,013	744,227
-7,804	9,978	1393,968	743,688
-6,790	9,987	1392,962	743,160
-5,775	9,978	1391,913	742,530
-4,760	9,988	1390,980	742,052
-3,746	9,980	1390,075	741,502
-2,731	9,982	1389,191	741,009
-1,717	9,997	1388,490	740,676
-0,702	9,976	1386,695	739,590
0,313	14,098	1299,501	711,923
1,327	30,381	690,359	415,125
2,342	47,265	119,562	78,397
3,356	0,543	16,546	8,315
4,371	-3,010	3,537	1,735
5,386	-5,172	1,060	0,512
6,400	800,000	0,233	0,552
7,415	27,120	-0,248	-0,146
8,429	105,053	-0,307	-0,255
9,444	294,271	-0,294	-0,380
10,459	82,138	-0,377	-0,288
11,473	9,605	-0,271	-0,144
12,488	-78,621	-0,377	-0,090
13,502	18,510	-0,383	-0,215
14,517	21,523	-0,199	-0,114
15,531	98,089	-0,425	-0,345
16,546	23,506	-0,308	-0,178
17,561	161,200	-0,356	-0,351
18,575	10,603	-0,278	-0,149
19,590	494,482	-0,139	-0,226
20,604	-21,414	-0,246	-0,105
21,619	85,334	-0,313	-0,241
22,634	95,919	-0,517	-0,416
23,648	122,969	-0,418	-0,368
24,663	220,465	-0,253	-0,286
25,677	53,886	-0,342	-0,231
26,692	3,828	-0,373	-0,191
27,707	182,861	-0,249	-0,259
28,721	12,673	-0,508	-0,275
29,736	70,022	-0,378	-0,274
30,750	89,088	-0,337	-0,264
31,765	253,222	-0,321	-0,387
32,780	53,686	-0,469	-0,317
33,794	-56,591	-0,279	-0,086
34,809	94,656	-0,302	-0,241
35,823	46,838	-0,296	-0,193
36,838	202,100	-0,339	-0,368
37,853	475,692	-0,233	-0,371
38,867	56,880	-0,325	-0,222
39,882	-81,475	-0,476	-0,109
40,896	366,634	-0,162	-0,231
41,911	11,519	-0,236	-0,127
42,926	2,842	-0,356	-0,181
43,940	99,762	-0,384	-0,313
44,955	319,155	-0,240	-0,320
45,969	169,305	-0,378	-0,379
46,984	39,253	-0,321	-0,202
47,999	107,951	-0,305	-0,255
49,013	15,054	-0,328	-0,180
50,028	235,920	-0,252	-0,293
51,042	88,206	-0,367	-0,286
52,057	23,420	-0,481	-0,277
53,071	84,325	-0,404	-0,310
54,086	-22,981	-0,230	-0,097
55,101	127,754	-0,390	-0,348
56,115	82,511	-0,254	-0,193
57,130	133,669	-0,333	-0,303
58,144	259,545	-0,204	-0,247
59,159	117,139	-0,334	-0,288
60,174	197,981	-0,310	-0,333
61,188	169,625	-0,226	-0,227
62,203	362,912	-0,209	-0,295
63,217	122,105	-0,374	-0,327
64,232	326,374	-0,210	-0,283
65,247	119,502	-0,314	-0,273
66,261	112,821	-0,272	-0,231
67,276	44,976	-0,353	-0,228
68,290	12,276	-0,278	-0,150
69,305	-62,961	-0,350	-0,101
70,320	-65,382	-0,238	-0,067
71,334	144,290	-0,369	-0,346
72,349	83,865	-0,246	-0,188
73,363	89,158	-0,264	-0,206
74,378	-21,979	-0,306	-0,130
75,393	-5,121	-0,332	-0,159
76,407	-2,447	-0,321	-0,157
77,422	94,988	-0,241	-0,192
78,436	-5,820	-0,317	-0,151
79,451	123,590	-0,328	-0,288
80,466	-11,310	-0,417	-0,192
81,480	174,456	-0,238	-0,241
82,495	72,693	-0,322	-0,235
83,509	5,075	-0,284	-0,146
84,524	107,768	-0,245	-0,204
85,539	-8,435	-0,429	-0,201
86,553	800,000	-0,113	-0,272
87,568	16,908	-0,268	-0,148
88,582	174,458	-0,272	-0,275
89,597	-33,982	-0,291	-0,111
90,611	157,024	-0,111	-0,107
91,626	-55,211	-0,170	-0,053
92,641	130,137	-0,234	-0,210
93,655	125,294	-0,321	-0,283
94,670	40,263	-0,262	-0,165
95,684	22,288	-0,274	-0,156
96,699	16,646	-0,314	-0,173
97,714	-74,461	-0,281	-0,070
98,728	462,831	-0,155	-0,242
99,743	18,404	-0,262	-0,146
100,757	-147,710	-0,229	0,013
101,772	104,934	-0,249	-0,205
102,787	364,772	-0,227	-0,320
103,801	91,872	-0,206	-0,162
104,816	433,488	-0,187	-0,285
105,830	117,848	-0,211	-0,182
106,845	102,962	-0,144	-0,118
107,860	15,482	-0,264	-0,145
108,874	-171,068	-0,306	-0,007
109,889	-107,965	-0,324	-0,049
110,903	297,222	-0,247	-0,318
111,918	55,400	-0,329	-0,222
112,933	64,527	-0,277	-0,195
113,947	-4,349	-0,239	-0,115
114,962	-62,943	-0,349	-0,100
115,976	426,181	-0,128	-0,194
116,991	17,460	-0,305	-0,169
118,006	166,965	-0,270	-0,268
119,020	-80,861	-0,214	-0,049
120,035	48,764	-0,207	-0,135
121,049	54,458	-0,186	-0,125
122,064	70,689	-0,209	-0,151
123,079	-87,348	-0,225	0,047
124,093	9,713	-0,390	-0,206
125,108	216,043	-0,198	-0,220
126,122	168,934	-0,266	-0,265
127,137	100,420	-0,258	-0,209
128,151	96,596	-0,205	-0,164
129,166	197,333	-0,221	-0,235
130,181	36,495	-0,258	-0,158
131,195	-98,794	-0,223	-0,039
132,210	120,552	-0,258	-0,223
133,224	-169,811	-0,223	-0,005
134,239	190,620	-0,141	-0,148
135,254	77,052	-0,181	-0,134
136,268	24,822	-0,212	-0,122
137,283	-9,714	-0,111	-0,051
138,297	53,425	-0,229	-0,153
139,312	16,414	-0,206	-0,113
140,327	196,493	-0,309	-0,328
141,341	184,255	-0,213	-0,220
142,356	800,000	-0,106	-0,292
143,370	62,043	-0,094	-0,065
144,385	72,824	-0,277	-0,201
145,400	124,165	-0,212	-0,186
146,414	258,184	-0,234	-0,281
147,429	-62,483	-0,367	-0,105
148,443	109,985	-0,239	-0,200
149,458	-33,014	-0,209	-0,081
150,473	513,886	-0,063	-0,103
151,487	37,461	-0,339	-0,209
152,502	117,045	-0,247	-0,211
153,516	30,024	-0,238	-0,141
154,531	4,480	-0,277	-0,141
155,546	253,176	-0,213	-0,253
156,560	800,000	-0,109	-0,285
157,575	149,044	-0,256	-0,241
158,589	17,769	-0,417	-0,230
159,604	232,204	-0,243	-0,278
160,619	334,966	-0,213	-0,288
161,633	-80,449	-0,294	-0,068
162,648	22,163	-0,287	-0,163
163,662	154,766	-0,225	-0,216
164,677	394,836	-0,165	-0,240
165,692	100,931	-0,252	-0,204
166,706	-66,771	-0,167	-0,046
167,721	204,077	-0,215	-0,232
168,735	313,386	-0,206	-0,269
169,750	49,081	-0,250	-0,163
170,764	166,757	-0,143	-0,141
171,779	-89,371	-0,310	-0,063
172,794	56,621	-0,226	-0,153
173,808	-46,320	-0,325	-0,110
174,823	452,235	-0,161	-0,249
175,837	330,854	-0,210	-0,281
176,852	161,511	-0,150	-0,146
177,867	184,895	-0,140	-0,144
178,881	-75,177	-0,212	-0,052
179,896	50,312	-0,209	-0,137
180,910	378,249	-0,199	-0,284
181,925	-102,325	-0,211	-0,035
182,940	596,873	-0,181	-0,313
183,954	538,400	-0,147	-0,244
184,969	181,015	-0,180	-0,184
185,983	62,503	-0,288	-0,199
186,998	-26,718	-0,318	-0,128
188,013	81,986	-0,240	-0,180
189,027	-47,589	-0,159	-0,053
190,042	363,061	-0,220	-0,308
191,056	97,769	-0,289	-0,230
192,071	83,469	-0,139	-0,105
193,086	3,286	-0,263	-0,133
194,100	800,000	-0,050	-0,149
195,115	-35,378	-0,159	-0,060
196,129	-65,297	-0,261	-0,072
197,144	47,586	-0,224	-0,144
198,159	48,701	-0,202	-0,131
199,173	98,425	-0,217	-0,173
200,188	391,608	-0,090	-0,130
201,202	439,001	-0,122	-0,185
202,217	240,711	-0,191	-0,221
203,232	91,226	-0,241	-0,187
204,246	-13,144	-0,271	-0,121
205,261	315,518	-0,239	-0,314
206,275	-200,000	-0,094	-0,297
207,290	-101,642	-0,060	-0,010
208,304	15,627	-0,112	-0,061
209,319	250,200	-0,212	-0,250
210,334	800,000	-0,070	-0,147
211,348	291,779	-0,131	-0,166
212,363	-96,136	-0,223	0,041
213,377	54,738	-0,271	-0,181
214,392	-28,702	-0,121	-0,048
215,407	157,172	-0,190	-0,182
216,421	-6,175	-0,181	-0,085
217,436	17,871	-0,341	-0,187
218,450	121,355	-0,274	-0,236
219,465	-76,697	-0,231	-0,056
220,480	684,031	-0,091	-0,165
221,494	800,000	-0,093	-0,277
222,509	101,324	-0,232	-0,187
223,523	60,978	-0,179	-0,123
224,538	114,638	-0,085	-0,072
225,553	-3,017	-0,300	-0,144
226,567	-25,445	-0,300	-0,122
227,582	670,593	-0,199	-0,359
228,596	-103,707	-0,193	-0,031
229,611	273,590	-0,126	-0,154
230,626	30,443	-0,279	-0,165
231,640	-54,582	-0,242	-0,075
232,655	-44,657	-0,132	-0,045
233,669	297,131	-0,163	-0,208
234,684	387,151	-0,184	-0,264
235,699	175,536	-0,200	-0,201
236,713	466,047	-0,117	-0,181
237,728	0,014	-0,183	-0,090
238,742	208,735	-0,132	-0,143
239,757	52,974	-0,227	-0,150
240,772	75,005	-0,224	-0,163
241,786	-200,000	-0,071	-0,255
242,801	-200,000	0,030	-0,164
243,815	-84,746	-0,187	-0,040
244,830	71,193	-0,190	-0,136
245,844	37,116	-0,195	-0,119
246,859	301,932	-0,159	-0,204
247,874	58,193	-0,212	-0,143
248,888	444,964	-0,094	-0,143
249,903	-200,000	-0,041	-0,229
250,917	156,449	-0,146	-0,139
251,932	162,572	-0,191	-0,185
252,947	70,468	-0,115	-0,082
253,961	33,358	-0,173	-0,103
254,976	-99,645	-0,097	-0,017
255,990	372,113	-0,107	-0,150
257,005	121,361	-0,156	-0,134
258,020	-121,991	-0,182	-0,020
259,034	268,815	-0,126	-0,153
260,049	1,988	-0,172	-0,085
261,063	536,360	-0,094	-0,154
262,078	128,163	-0,163	-0,143
263,093	-156,429	-0,292	0,012
264,107	-22,929	-0,146	-0,060
265,122	-141,587	-0,132	-0,009
266,136	-200,000	-0,007	-0,070
267,151	800,000	-0,025	0,050
268,166	-144,599	-0,332	0,021
269,180	37,254	-0,249	-0,151
270,195	-90,366	-0,214	-0,042
271,209	433,368	-0,117	-0,176
272,224	-91,926	-0,177	-0,034
273,239	-11,720	-0,091	0,041
274,253	49,289	-0,101	-0,065
275,268	-31,747	-0,239	-0,092
276,282	69,691	-0,180	-0,127
277,297	135,904	-0,209	-0,188
278,312	92,138	-0,101	-0,078
279,326	-200,000	-0,040	-0,245
280,341	-1,633	-0,088	0,043
281,355	-34,056	-0,177	0,067
282,370	366,058	-0,061	-0,086
283,384	169,306	-0,242	-0,238
284,399	-10,223	-0,150	-0,068
285,414	-24,280	-0,103	0,042
286,428	610,105	-0,056	-0,097
287,443	32,548	-0,156	0,093
288,457	11,143	-0,109	-0,057
289,472	-200,000	-0,101	-0,386
290,487	294,338	-0,168	-0,211
291,501	12,920	-0,253	-0,134
292,516	87,547	-0,225	-0,171
293,530	-200,000	0,020	-0,169
294,545	174,414	-0,063	-0,062
295,560	-107,325	-0,135	0,020
296,574	592,287	-0,118	-0,200
297,589	25,405	-0,119	-0,068
298,603	29,986	-0,208	-0,122
299,618	-90,383	-0,161	0,032
300,633	-111,498	-0,144	-0,020
301,647	63,041	-0,132	0,091
302,662	-200,000	-0,003	-0,019
303,676	181,583	-0,089	-0,090
304,691	115,882	-0,122	-0,102
305,706	58,864	-0,228	-0,154
306,720	-84,088	-0,165	-0,036
307,735	-72,089	-0,100	-0,025
308,749	-55,183	-0,085	0,026
309,764	32,481	-0,136	-0,081
310,779	250,703	-0,135	0,157
311,793	172,710	-0,151	-0,149
312,808	-151,038	-0,101	0,005
313,822	343,390	-0,093	-0,126
314,837	428,031	-0,128	-0,190
315,852	475,518	-0,051	-0,079
316,866	185,031	-0,038	0,038
317,881	-162,509	-0,134	0,004
318,895	-175,366	-0,168	0,003
319,910	121,575	-0,169	-0,145
320,925	-161,837	-0,226	-0,008
321,939	187,242	-0,073	-0,075
322,954	-188,448	-0,082	-0,001
323,968	51,503	-0,109	-0,071
324,983	103,375	-0,085	-0,068
325,997	356,854	-0,090	-0,124
327,012	25,978	-0,228	-0,130
328,027	-62,485	-0,102	0,029
329,041	49,836	-0,141	-0,091
330,056	800,000	-0,026	-0,075
331,070	-114,876	-0,060	0,008
332,085	800,000	-0,086	-0,207
333,100	17,058	-0,198	-0,107
334,114	94,801	-0,172	-0,134
335,129	279,738	-0,151	-0,186
336,143	343,225	-0,096	-0,130
337,158	-115,798	-0,102	-0,013
338,173	-45,663	-0,201	-0,068
339,187	33,855	-0,132	0,078
340,202	-200,000	0,029	-0,126
341,216	-17,706	-0,237	-0,101
342,231	-142,810	-0,131	-0,009
343,246	-14,559	-0,168	-0,074
344,260	67,821	-0,138	-0,096
345,275	14,098	-0,090	-0,048
346,289	-200,000	-0,010	-0,132
347,304	170,636	-0,058	-0,057
348,319	800,000	-0,084	-0,250
349,333	322,261	-0,163	-0,214
350,348	40,912	-0,173	-0,106
351,362	69,568	-0,133	-0,094
352,377	-29,135	-0,184	0,072
353,392	46,996	-0,154	-0,098
354,406	-78,399	-0,242	0,056
355,421	207,587	1310,960	1401,035
356,435	159,688	1471,229	1401,508
