DTS Sentinel unit serial number:	SN410029Multiplexer serial number:	ORYXHardware model number:	OX2-SRSoftware version number:	ORYX F/W v4,00 Oryx Data Collector v3.7.2.0data status	okinstallation	B3 Nyhavnadifferential loss correction	single-endedforward channel	channel 1reverse channel	N/Adate	2023/12/01time	13:32:30forward acquisition time	300,00reverse acquisition time	0,00gamma	499,1914k internal	0,3214k external	0,3214temperature offset calibration	1,0000default loss term (dB/km)	0,3820temperature slope calibration	1,0000multiplexer offset coefficient	1,0000multiplexer slope coefficient	1,0000fibre end	0,00T internal ref (°C)	9,60T ext. ref 1 (°C)	-3,89T ext. ref 2 (°C)	-3,96length (m)	temperature (°C)	Stokes	anti-Stokes-744,400	194,433	-0,186	-0,204
-743,385	800,000	-0,058	0,183
-742,371	-200,000	-0,018	-0,245
-741,356	-200,000	0,047	0,300
-740,342	-72,275	-0,244	-0,065
-739,327	-200,000	-0,006	0,285
-738,312	800,000	-0,078	-0,247
-737,298	800,000	-0,090	0,186
-736,283	518,688	-0,143	-0,244
-735,269	561,738	-0,108	0,190
-734,254	446,678	-0,179	-0,286
-733,239	201,314	-0,204	0,228
-732,225	226,788	-0,144	-0,170
-731,210	800,000	0,018	-0,052
-730,196	-200,000	0,031	-0,115
-729,181	149,575	0,088	-0,086
-728,167	-200,000	-0,056	-0,229
-727,152	-177,888	-0,022	0,000
-726,137	-78,720	0,024	-0,006
-725,123	-200,000	0,007	-0,158
-724,108	800,000	-0,062	-0,125
-723,094	-97,325	-0,099	-0,019
-722,079	-99,810	-0,214	-0,038
-721,064	-200,000	0,015	-0,149
-720,050	800,000	-0,035	0,103
-719,035	26,786	-0,097	-0,059
-718,021	-42,899	-0,191	0,070
-717,006	-159,555	-0,097	0,004
-715,991	-200,000	-0,008	-0,091
-714,977	-168,232	-0,215	-0,006
-713,962	199,480	-0,066	-0,073
-712,948	-124,192	0,025	-0,003
-711,933	-20,016	-0,054	-0,024
-710,918	492,899	-0,001	0,002
-709,904	762,700	-0,059	-0,117
-708,889	-38,748	-0,198	-0,075
-707,875	-200,000	0,007	-0,107
-706,860	534,871	-0,101	-0,174
-705,845	268,809	-0,077	0,098
-704,831	-90,208	0,071	0,015
-703,816	-87,547	-0,118	-0,025
-702,802	99,280	-0,043	0,036
-701,787	-200,000	-0,024	-0,132
-700,772	368,860	-0,088	0,129
-699,758	-142,510	0,038	0,003
-698,743	117,173	0,038	-0,034
-697,729	273,550	-0,030	-0,039
-696,714	103,251	-0,025	-0,021
-695,699	-150,937	0,058	0,003
-694,685	163,282	-0,026	0,027
-693,670	-30,419	-0,046	0,019
-692,656	132,975	0,110	-0,102
-691,641	179,298	0,048	0,051
-690,627	95,432	0,039	0,032
-689,612	-200,000	-0,032	0,122
-688,597	-96,746	-0,145	-0,027
-687,583	495,896	-0,031	-0,051
-686,568	-200,000	0,003	-0,078
-685,554	326,661	-0,049	-0,067
-684,539	-62,627	-0,146	-0,043
-683,524	299,252	-0,092	0,123
-682,510	12,031	-0,163	-0,090
-681,495	800,000	0,007	-0,016
-680,481	67,636	-0,091	-0,067
-679,466	225,308	-0,145	-0,170
-678,451	179,253	-0,037	0,039
-677,437	-200,000	0,010	0,079
-676,422	-200,000	-0,002	0,071
-675,408	123,249	0,018	-0,016
-674,393	290,174	0,053	0,069
-673,378	41,629	-0,067	0,044
-672,364	12,630	-0,100	-0,056
-671,349	-200,000	0,015	-0,052
-670,335	-200,000	-0,029	-0,140
-669,320	-40,571	0,202	0,075
-668,305	0,282	0,031	0,016
-667,291	-59,826	-0,107	0,033
-666,276	93,689	-0,066	-0,054
-665,262	-133,064	-0,076	0,007
-664,247	-200,000	0,048	0,164
-663,232	-109,823	-0,034	0,005
-662,218	41,739	-0,080	-0,052
-661,203	44,664	0,064	-0,043
-660,189	261,072	-0,051	0,063
-659,174	69,693	0,036	0,026
-658,159	-175,081	-0,086	-0,002
-657,145	-200,000	-0,015	-0,069
-656,130	285,628	-0,103	0,134
-655,116	82,009	-0,096	0,075
-654,101	-90,265	0,052	-0,011
-653,086	-200,000	-0,019	-0,063
-652,072	48,058	0,034	0,023
-651,057	26,226	0,084	-0,051
-650,043	-200,000	0,013	-0,115
-649,028	800,000	0,028	0,064
-648,014	-73,551	0,047	0,012
-646,999	74,789	-0,061	0,046
-645,984	114,666	0,079	0,070
-644,970	206,855	-0,114	-0,129
-643,955	-187,638	-0,181	-0,002
-642,941	67,585	-0,088	-0,065
-641,926	-200,000	0,009	0,043
-640,911	7,652	-0,127	0,068
-639,897	212,365	-0,085	0,096
-638,882	-121,978	0,064	0,008
-637,868	695,175	0,075	0,143
-636,853	74,842	-0,061	-0,046
-635,838	-21,092	-0,082	-0,036
-634,824	468,553	-0,055	0,089
-633,809	-41,842	0,112	-0,041
-632,795	-44,622	0,045	0,016
-631,780	800,000	-0,028	0,089
-630,765	-200,000	0,021	-0,071
-629,751	-37,398	-0,002	-0,001
-628,736	800,000	0,028	-0,080
-627,722	800,000	0,071	-0,144
-626,707	-120,357	0,156	-0,019
-625,692	-179,277	-0,023	0,000
-624,678	161,745	0,080	-0,080
-623,663	-200,000	0,017	0,060
-622,649	-84,763	-0,099	-0,022
-621,634	-200,000	-0,012	-0,130
-620,619	800,000	0,062	-0,193
-619,605	-72,620	0,036	-0,009
-618,590	800,000	0,010	-0,031
-617,576	800,000	-0,040	-0,091
-616,561	800,000	-0,012	0,025
-615,546	-69,998	-0,056	0,015
-614,532	-45,439	-0,063	-0,022
-613,517	-9,444	-0,077	0,037
-612,503	-5,455	0,082	0,041
-611,488	-8,479	-0,019	-0,009
-610,474	-200,000	0,052	-0,170
-609,459	45,308	-0,039	0,026
-608,444	484,092	-0,035	0,058
-607,430	176,780	0,015	-0,016
-606,415	56,091	-0,028	0,020
-605,401	-20,353	-0,031	-0,014
-604,386	673,299	-0,086	0,162
-603,371	169,511	-0,055	-0,057
-602,357	-11,367	0,052	0,025
-601,342	-19,189	-0,139	0,062
-600,328	518,894	-0,072	0,121
-599,313	800,000	-0,032	-0,089
-598,298	-200,000	0,019	0,091
-597,284	163,858	-0,133	0,135
-596,269	-9,912	0,243	0,116
-595,255	-200,000	-0,001	0,046
-594,240	-10,841	-0,066	0,031
-593,225	272,286	0,056	-0,072
-592,211	-83,770	0,106	0,024
-591,196	-121,915	0,120	0,014
-590,182	170,277	0,060	-0,062
-589,167	-200,000	-0,007	0,043
-588,152	144,001	-0,065	0,062
-587,138	171,304	-0,049	-0,050
-586,123	-200,000	0,046	0,171
-585,109	250,856	-0,034	0,041
-584,094	-32,728	-0,146	-0,058
-583,079	-83,407	0,063	0,014
-582,065	-61,212	0,015	-0,005
-581,050	-146,956	0,088	0,005
-580,036	-43,333	-0,046	-0,017
-579,021	79,739	-0,122	-0,094
-578,006	437,277	-0,052	0,082
-576,992	32,503	0,070	0,043
-575,977	-64,251	-0,124	0,036
-574,963	298,454	-0,043	0,057
-573,948	458,484	0,033	-0,053
-572,934	-139,962	-0,050	-0,004
-571,919	800,000	-0,084	-0,178
-570,904	-200,000	0,029	-0,120
-569,890	138,824	0,110	-0,104
-568,875	-200,000	-0,010	0,037
-567,861	594,097	-0,044	-0,079
-566,846	-200,000	-0,022	0,151
-565,831	-113,375	0,101	-0,014
-564,817	800,000	-0,054	-0,113
-563,802	432,926	-0,106	-0,166
-562,788	-200,000	0,010	-0,131
-561,773	-151,411	0,062	-0,003
-560,758	-73,173	0,092	-0,024
-559,744	431,586	0,049	0,077
-558,729	203,724	0,046	0,051
-557,715	178,344	0,109	0,114
-556,700	162,306	-0,049	0,050
-555,685	5,827	-0,152	-0,081
-554,671	87,803	0,072	0,057
-553,656	29,083	0,107	0,065
-552,642	800,000	-0,032	-0,067
-551,627	800,000	0,078	0,170
-550,612	-75,233	-0,046	0,012
-549,598	-68,665	0,177	-0,049
-548,583	188,086	-0,101	-0,108
-547,569	561,633	-0,057	0,100
-546,554	78,629	0,047	0,036
-545,539	58,095	0,039	0,028
-544,525	-200,000	0,014	0,163
-543,510	85,127	-0,024	-0,019
-542,496	233,100	0,046	0,055
-541,481	529,620	-0,048	-0,082
-540,466	-47,227	0,121	-0,042
-539,452	82,347	-0,130	-0,102
-538,437	17,469	0,089	0,051
-537,423	-115,324	-0,098	-0,013
-536,408	-96,222	-0,151	-0,029
-535,393	59,775	-0,116	-0,082
-534,379	-63,214	0,075	-0,022
-533,364	-22,131	0,090	0,039
-532,350	-10,980	0,110	0,052
-531,335	-24,659	-0,145	-0,062
-530,321	800,000	0,019	0,041
-529,306	-200,000	0,015	0,052
-528,291	291,092	-0,069	0,090
-527,277	-90,941	-0,044	-0,009
-526,262	-65,329	-0,118	-0,034
-525,248	800,000	-0,052	0,110
-524,233	-200,000	-0,003	0,034
-523,218	-200,000	0,007	0,040
-522,204	-38,713	0,032	0,012
-521,189	-8,216	0,075	-0,036
-520,175	34,067	0,021	-0,013
-519,160	800,000	-0,021	-0,067
-518,145	318,508	0,016	0,021
-517,131	-99,569	-0,042	-0,007
-516,116	800,000	0,058	0,126
-515,102	800,000	-0,032	0,085
-514,087	318,564	-0,030	0,041
-513,072	800,000	0,033	-0,088
-512,058	800,000	0,020	-0,048
-511,043	2,471	0,064	-0,033
-510,029	-155,333	0,168	0,008
-509,014	800,000	0,048	0,119
-507,999	-200,000	-0,004	0,106
-506,985	336,300	-0,034	0,047
-505,970	800,000	-0,030	-0,092
-504,956	306,895	-0,063	0,085
-503,941	0,208	0,132	0,067
-502,926	-49,880	0,098	-0,033
-501,912	-25,540	0,077	-0,033
-500,897	800,000	0,102	-0,208
-499,883	-27,825	0,091	0,038
-498,868	61,585	-0,023	0,017
-497,853	228,301	0,050	0,058
-496,839	6,565	0,077	0,041
-495,824	690,018	-0,088	0,165
-494,810	-80,938	0,049	-0,011
-493,795	-200,000	0,005	0,048
-492,781	-110,913	0,191	0,028
-491,766	-87,419	-0,069	-0,015
-490,751	800,000	-0,055	0,146
-489,737	-120,269	0,108	0,013
-488,722	575,367	-0,021	0,036
-487,708	-200,000	0,023	0,114
-486,693	800,000	0,043	0,132
-485,678	171,811	0,027	-0,028
-484,664	211,950	-0,000	0,000
-483,649	800,000	-0,063	-0,134
-482,635	-16,515	0,074	0,033
-481,620	-45,336	0,048	0,017
-480,605	-200,000	0,001	0,011
-479,591	218,612	0,053	0,061
-478,576	-96,828	-0,130	0,024
-477,562	93,555	0,025	-0,020
-476,547	-58,536	0,204	0,063
-475,532	-131,527	0,044	0,004
-474,518	295,630	0,046	0,060
-473,503	103,710	-0,025	-0,021
-472,489	82,822	-0,074	0,058
-471,474	-200,000	-0,006	-0,107
-470,459	289,209	-0,039	0,050
-469,445	-200,000	0,003	0,032
-468,430	800,000	-0,040	-0,101
-467,416	-61,325	-0,078	-0,023
-466,401	-123,597	0,057	0,006
-465,386	111,043	0,085	0,073
-464,372	-200,000	0,037	0,127
-463,357	105,139	0,171	-0,144
-462,343	-200,000	-0,013	-0,158
-461,328	38,065	-0,097	0,062
-460,313	-143,081	-0,066	0,005
-459,299	159,087	-0,092	0,092
-458,284	-8,163	0,190	0,091
-457,270	-200,000	-0,024	-0,158
-456,255	-149,323	-0,096	0,005
-455,241	159,809	0,025	0,025
-454,226	-200,000	-0,011	0,037
-453,211	154,440	-0,046	0,046
-452,197	-200,000	-0,010	0,094
-451,182	294,159	0,088	0,115
-450,168	93,917	0,051	-0,041
-449,153	18,371	-0,080	-0,046
-448,138	-200,000	0,003	-0,115
-447,124	223,644	0,015	-0,017
-446,109	-160,988	-0,021	-0,001
-445,095	-75,077	0,080	0,020
-444,080	229,169	0,071	0,083
-443,065	-200,000	0,005	-0,154
-442,051	800,000	0,055	0,147
-441,036	-200,000	-0,004	-0,080
-440,022	-72,795	-0,088	-0,023
-439,007	-111,832	-0,073	0,010
-437,992	174,701	-0,057	0,059
-436,978	-200,000	0,025	0,248
-435,963	551,903	0,044	-0,075
-434,949	36,111	-0,053	0,033
-433,934	33,155	-0,028	0,017
-432,919	-35,700	-0,126	0,049
-431,905	-200,000	-0,037	-0,131
-430,890	-21,542	-0,091	0,040
-429,876	-200,000	-0,002	-0,031
-428,861	-47,345	0,079	0,027
-427,846	-200,000	0,003	-0,072
-426,832	-200,000	0,000	0,079
-425,817	340,270	-0,040	-0,056
-424,803	174,597	-0,115	0,119
-423,788	-80,642	0,095	-0,022
-422,773	-200,000	-0,005	0,057
-421,759	-16,787	0,086	0,039
-420,744	-89,872	0,036	0,007
-419,730	337,711	-0,021	-0,030
-418,715	-200,000	-0,026	-0,120
-417,701	50,230	0,014	-0,010
-416,686	-200,000	0,013	0,092
-415,671	239,547	0,093	0,111
-414,657	800,000	0,084	0,192
-413,642	-200,000	-0,011	0,065
-412,628	800,000	-0,036	0,076
-411,613	-85,182	-0,093	-0,021
-410,598	800,000	0,044	0,115
-409,584	130,711	-0,016	0,015
-408,569	-127,089	-0,104	0,011
-407,555	173,552	0,051	0,053
-406,540	-122,815	0,032	0,004
-405,525	-75,035	0,035	0,009
-404,511	800,000	-0,049	-0,099
-403,496	-150,833	-0,049	-0,003
-402,482	800,000	-0,031	0,064
-401,467	134,683	0,122	-0,113
-400,452	-151,982	0,085	0,004
-399,438	-200,000	-0,011	-0,100
-398,423	184,299	0,021	-0,023
-397,409	-104,411	-0,124	0,020
-396,394	-200,000	-0,027	-0,180
-395,379	375,399	-0,093	-0,135
-394,365	329,539	-0,078	-0,107
-393,350	570,066	-0,006	-0,011
-392,336	392,428	-0,027	0,041
-391,321	-73,857	-0,097	-0,025
-390,306	672,717	-0,033	-0,061
-389,292	-200,000	-0,041	0,134
-388,277	143,150	0,124	-0,117
-387,263	800,000	0,038	0,117
-386,248	-80,006	0,057	-0,013
-385,233	800,000	-0,018	0,053
-384,219	58,947	0,120	0,084
-383,204	-200,000	0,011	0,047
-382,190	-200,000	0,009	0,052
-381,175	20,455	-0,060	0,035
-380,160	-9,145	0,155	0,074
-379,146	-200,000	-0,009	-0,069
-378,131	-107,765	-0,071	-0,011
-377,117	201,852	0,114	0,126
-376,102	189,462	-0,145	-0,156
-375,088	183,386	-0,035	0,037
-374,073	54,026	-0,086	-0,059
-373,058	159,865	0,060	0,060
-372,044	-94,677	-0,110	0,021
-371,029	100,205	-0,065	-0,054
-370,015	437,622	0,088	-0,138
-369,000	-200,000	-0,024	-0,152
-367,985	-41,195	0,049	-0,018
-366,971	-200,000	0,019	0,000
-365,956	320,784	-0,080	0,109
-364,942	-200,000	0,006	0,024
-363,927	613,355	0,094	0,168
-362,912	703,417	-0,003	0,006
-361,898	-200,000	-0,012	-0,043
-360,883	-200,000	-0,007	-0,150
-359,869	-169,418	-0,053	-0,001
-358,854	800,000	0,016	-0,049
-357,839	72,742	-0,106	-0,079
-356,825	-200,000	0,012	-0,068
-355,810	-200,000	-0,006	-0,079
-354,796	-138,469	0,115	-0,009
-353,781	639,443	0,041	-0,074
-352,766	374,062	-0,037	0,054
-351,752	-68,817	0,174	-0,048
-350,737	-200,000	-0,011	0,160
-349,723	186,398	0,041	0,043
-348,708	98,532	-0,091	0,075
-347,693	-142,522	0,054	0,004
-346,679	-83,679	-0,124	0,028
-345,664	800,000	0,024	-0,055
-344,650	-200,000	0,019	0,081
-343,635	-34,986	0,083	0,032
-342,620	-92,737	0,136	-0,027
-341,606	23,402	0,070	-0,041
-340,591	196,418	-0,064	0,069
-339,577	567,949	0,057	-0,099
-338,562	409,029	-0,062	-0,094
-337,548	334,873	0,038	-0,053
-336,533	12,047	0,068	-0,037
-335,518	204,007	0,018	0,020
-334,504	-79,433	0,101	-0,024
-333,489	628,337	-0,035	0,063
-332,475	19,440	-0,172	0,098
-331,460	800,000	0,078	-0,198
-330,445	473,818	-0,115	-0,186
-329,431	-200,000	-0,029	0,142
-328,416	800,000	0,062	0,137
-327,402	-101,262	-0,035	0,006
-326,387	26,445	0,044	0,026
-325,372	-5,261	-0,059	-0,029
-324,358	-91,658	0,078	-0,016
-323,343	800,000	0,040	-0,103
-322,329	28,604	0,107	0,064
-321,314	-62,281	0,005	-0,001
-320,299	800,000	-0,027	-0,073
-319,285	800,000	-0,045	0,120
-318,270	-121,184	-0,176	0,021
-317,256	22,509	-0,111	-0,064
-316,241	87,866	-0,044	0,035
-315,226	62,900	-0,039	0,027
-314,212	800,000	0,039	-0,083
-313,197	800,000	0,006	0,014
-312,183	-154,044	-0,014	-0,001
-311,168	41,086	-0,069	-0,044
-310,153	-165,787	-0,094	-0,003
-309,139	236,361	0,164	-0,194
-308,124	800,000	-0,027	-0,073
-307,110	83,427	0,096	-0,074
-306,095	-12,401	-0,076	0,035
-305,080	-189,402	0,035	-0,000
-304,066	-101,769	0,027	0,005
-303,051	-26,945	-0,114	-0,047
-302,037	58,495	-0,043	-0,030
-301,022	-183,791	0,061	-0,001
-300,008	-112,795	0,125	0,017
-298,993	-146,183	0,040	-0,002
-297,978	-147,664	0,099	0,006
-296,964	119,982	0,049	-0,043
-295,949	-169,291	-0,051	-0,001
-294,935	88,567	-0,143	-0,113
-293,920	-200,000	0,006	0,024
-292,905	-177,342	0,135	0,002
-291,891	-200,000	0,015	0,107
-290,876	715,404	-0,087	-0,166
-289,862	101,845	-0,082	-0,068
-288,847	736,122	-0,030	0,057
-287,832	-53,865	0,011	-0,004
-286,818	-87,555	-0,132	0,028
-285,803	800,000	0,065	0,182
-284,789	434,933	0,056	-0,086
-283,774	-116,352	0,209	-0,027
-282,759	-78,040	0,168	-0,041
-281,745	-83,761	0,043	0,010
-280,730	258,758	-0,108	-0,133
-279,716	-62,670	-0,093	0,027
-278,701	532,670	0,067	-0,113
-277,686	800,000	-0,019	0,052
-276,672	-80,144	0,035	-0,008
-275,657	11,761	0,021	0,011
-274,643	122,560	-0,100	-0,089
-273,628	433,675	-0,008	-0,013
-272,613	94,412	-0,035	0,028
-271,599	800,000	0,048	-0,142
-270,584	598,938	-0,036	0,065
-269,570	-38,154	0,097	0,036
-268,555	-200,000	-0,007	0,043
-267,540	-78,863	-0,077	-0,018
-266,526	800,000	-0,036	-0,071
-265,511	-42,588	-0,025	0,009
-264,497	-129,453	0,170	-0,017
-263,482	-200,000	-0,039	0,184
-262,467	135,732	-0,045	0,042
-261,453	130,898	0,093	-0,085
-260,438	800,000	-0,025	-0,050
-259,424	-200,000	0,001	-0,154
-258,409	90,114	0,033	-0,026
-257,395	459,853	-0,078	-0,124
-256,380	332,800	0,159	0,219
-255,365	-156,034	-0,019	0,001
-254,351	72,324	-0,035	-0,026
-253,336	32,771	0,036	-0,022
-252,322	70,792	-0,103	-0,076
-251,307	721,898	0,014	-0,027
-250,292	800,000	0,044	-0,108
-249,278	-86,634	0,007	-0,001
-248,263	254,104	0,106	0,129
-247,249	88,318	-0,066	0,052
-246,234	-117,557	-0,156	0,020
-245,219	-53,126	-0,062	-0,020
-244,205	9,726	0,057	-0,031
-243,190	-62,542	0,024	0,007
-242,176	-152,188	0,085	-0,004
-241,161	-9,373	-0,153	0,072
-240,146	48,622	-0,080	0,053
-239,132	98,915	-0,058	-0,048
-238,117	-140,544	-0,173	0,013
-237,103	34,198	-0,123	-0,076
-236,088	87,575	0,091	-0,072
-235,073	-72,000	0,135	-0,035
-234,059	-79,131	-0,138	-0,033
-233,044	151,075	0,076	-0,073
-232,030	800,000	-0,040	0,101
-231,015	-200,000	0,013	0,055
-230,000	407,693	-0,032	-0,048
-228,986	-129,546	0,029	0,003
-227,971	148,095	0,039	-0,038
-226,957	139,372	0,112	0,104
-225,942	800,000	0,021	0,060
-224,927	45,442	0,069	0,045
-223,913	226,203	-0,080	-0,092
-222,898	252,572	0,027	0,032
-221,884	-200,000	0,027	-0,118
-220,869	-200,000	-0,013	0,093
-219,855	196,525	-0,113	0,122
-218,840	37,495	0,086	0,054
-217,825	-200,000	0,020	0,100
-216,811	-91,240	-0,106	0,021
-215,796	89,963	0,085	-0,067
-214,782	800,000	-0,021	-0,059
-213,767	382,943	0,077	0,113
-212,752	75,061	-0,060	0,045
-211,738	800,000	-0,067	0,165
-210,723	800,000	0,040	-0,085
-209,709	-26,665	-0,056	0,023
-208,694	101,605	-0,041	-0,034
-207,679	-200,000	0,024	-0,091
-206,665	641,200	0,007	-0,013
-205,650	8,532	0,034	-0,018
-204,636	800,000	0,013	0,029
-203,621	-200,000	-0,020	-0,080
-202,606	800,000	-0,023	-0,070
-201,592	800,000	-0,029	-0,091
-200,577	-0,205	-0,126	-0,064
-199,563	800,000	0,040	-0,090
-198,548	-200,000	0,096	0,000
-197,533	4,065	-0,082	-0,042
-196,519	800,000	0,047	0,106
-195,504	800,000	0,047	-0,096
-194,490	-35,071	-0,114	0,044
-193,475	-200,000	-0,004	-0,123
-192,460	-103,136	0,103	-0,017
-191,446	-200,000	-0,031	0,104
-190,431	800,000	0,006	0,013
-189,417	157,444	0,037	-0,036
-188,402	-97,428	-0,041	-0,008
-187,387	-108,997	-0,007	-0,001
-186,373	4,283	-0,097	-0,050
-185,358	-180,160	-0,077	0,001
-184,344	-200,000	-0,002	-0,083
-183,329	-200,000	0,016	0,078
-182,315	800,000	0,035	-0,088
-181,300	-28,408	0,054	0,022
-180,285	-200,000	-0,016	-0,099
-179,271	-128,396	-0,124	-0,012
-178,256	-200,000	-0,019	-0,114
-177,242	107,051	-0,107	0,090
-176,227	-39,836	-0,044	0,016
-175,212	-70,369	0,064	-0,017
-174,198	53,035	-0,039	-0,026
-173,183	-97,349	-0,098	-0,018
-172,169	-19,407	-0,112	-0,049
-171,154	28,469	0,049	0,029
-170,139	-200,000	0,052	0,000
-169,125	-106,654	0,103	0,016
-168,110	-200,000	0,016	0,063
-167,096	-200,000	-0,009	0,149
-166,081	800,000	-0,057	-0,121
-165,066	-200,000	0,006	-0,048
-164,052	99,196	0,022	-0,018
-163,037	-130,045	0,048	0,005
-162,023	-49,518	0,045	-0,015
-161,008	347,364	-0,054	0,076
-159,993	273,307	0,045	-0,056
-158,979	321,563	-0,091	0,123
-157,964	-38,033	-0,098	0,036
-156,950	-64,543	-0,137	-0,039
-155,935	189,403	0,079	-0,084
-154,920	1,795	0,115	-0,058
-153,906	-3,768	0,093	-0,046
-152,891	97,745	0,041	0,034
-151,877	-200,000	-0,010	-0,051
-150,862	-52,941	-0,118	0,038
-149,847	-34,845	0,170	0,065
-148,833	-200,000	0,002	-0,011
-147,818	65,183	-0,063	0,045
-146,804	-59,018	-0,025	-0,008
-145,789	-200,000	-0,023	0,103
-144,775	800,000	-0,061	0,153
-143,760	32,613	-0,149	-0,091
-142,745	59,924	0,054	-0,038
-141,731	333,224	-0,049	0,067
-140,716	708,780	0,046	-0,087
-139,702	800,000	-0,032	-0,064
-138,687	102,312	0,104	0,086
-137,672	-200,000	-0,032	-0,164
-136,658	149,968	0,036	0,035
-135,643	-200,000	-0,020	-0,136
-134,629	-200,000	0,013	0,098
-133,614	235,884	0,092	0,108
-132,599	-41,458	0,119	-0,043
-131,585	13,584	0,074	0,041
-130,570	-200,000	-0,015	0,054
-129,556	142,586	-0,099	-0,093
-128,541	-200,000	-0,017	-0,067
-127,526	-200,000	-0,000	-0,040
-126,512	415,363	-0,038	-0,057
-125,497	115,493	0,163	0,141
-124,483	-200,000	0,022	-0,102
-123,468	73,682	-0,083	-0,061
-122,453	386,971	-0,126	-0,184
-121,439	-200,000	-0,004	-0,019
-120,424	89,383	-0,105	-0,083
-119,410	168,481	0,087	0,088
-118,395	312,415	-0,025	0,033
-117,380	415,898	0,050	-0,076
-116,366	-200,000	0,019	-0,094
-115,351	450,025	0,034	-0,053
-114,337	800,000	-0,035	-0,073
-113,322	800,000	0,030	0,063
-112,307	-51,360	-0,057	-0,019
-111,293	-92,806	-0,059	-0,012
-110,278	800,000	0,030	0,095
-109,264	328,489	-0,055	-0,075
-108,249	74,047	0,085	-0,063
-107,234	-90,326	0,033	0,007
-106,220	800,000	-0,027	-0,068
-105,205	10,651	0,087	0,047
-104,191	278,567	0,046	0,058
-103,176	-200,000	0,071	0,227
-102,162	-5,062	-0,100	0,048
-101,147	117,013	-0,061	-0,053
-100,132	-0,559	-0,078	0,039
-99,118	-101,201	-0,057	-0,010
-98,103	800,000	-0,031	-0,069
-97,089	800,000	0,023	-0,065
-96,074	800,000	0,058	-0,163
-95,059	62,206	0,047	0,033
-94,045	104,553	-0,142	-0,118
-93,030	438,648	-0,081	-0,125
-92,016	454,812	0,019	-0,030
-91,001	64,002	-0,089	0,063
-89,986	-200,000	0,011	0,129
-88,972	800,000	-0,057	0,122
-87,957	-2,792	-0,034	-0,017
-86,943	-200,000	0,012	0,060
-85,928	-68,364	0,118	-0,032
-84,913	800,000	-0,103	-0,202
-83,899	-200,000	0,014	-0,090
-82,884	-91,272	0,077	0,015
-81,870	55,871	0,048	0,033
-80,855	-95,191	0,099	-0,019
-79,840	572,610	0,003	0,006
-78,826	800,000	-0,023	0,056
-77,811	800,000	-0,065	-0,153
-76,797	382,890	-0,021	-0,031
-75,782	452,074	-0,064	-0,100
-74,767	474,668	-0,085	-0,137
-73,753	-200,000	0,031	-0,115
-72,738	20,876	0,135	-0,077
-71,724	48,339	-0,123	-0,081
-70,709	-65,635	0,061	-0,017
-69,694	437,737	0,058	-0,090
-68,680	-65,989	0,105	-0,029
-67,665	-49,561	0,118	0,039
-66,651	785,497	0,062	0,120
-65,636	-136,919	0,029	-0,002
-64,622	-80,299	-0,093	-0,022
-63,607	660,455	-0,085	-0,155
-62,592	15,126	0,175	-0,096
-61,578	-200,000	-0,039	0,000
-60,563	16,012	0,018	0,010
-59,549	778,224	0,014	0,027
-58,534	32,141	-1,887	-1,146
-57,519	614,241	-1,138	-2,018
-56,505	-200,000	-0,405	-4,478
-55,490	597,395	0,921	1,616
-54,476	800,000	5,057	11,314
-53,461	-200,000	21,594	344,531
-52,446	800,000	764,052	2357,492
-51,432	554,063	1664,909	2834,607
-50,417	72,452	1661,957	1220,351
-49,403	17,445	1535,580	857,786
-48,388	11,426	1459,453	786,139
-47,373	19,492	1450,582	820,037
-46,359	15,014	1439,637	792,527
-45,344	9,720	1435,629	765,080
-44,330	9,665	1433,836	763,828
-43,315	9,637	1431,896	762,631
-42,300	9,580	1430,329	761,496
-41,286	9,664	1428,945	761,126
-40,271	9,631	1427,827	760,347
-39,257	9,639	1426,493	759,642
-38,242	9,690	1425,446	759,297
-37,227	9,669	1424,510	758,668
-36,213	9,649	1423,009	757,743
-35,198	9,721	1421,824	757,425
-34,184	9,705	1420,955	756,858
-33,169	9,637	1419,498	755,731
-32,154	9,660	1418,348	755,195
-31,140	9,724	1417,146	754,826
-30,125	9,765	1416,107	754,437
-29,111	9,738	1414,735	753,547
-28,096	9,696	1413,650	752,743
-27,082	9,619	1412,526	751,751
-26,067	9,624	1411,489	751,196
-25,052	9,644	1410,531	750,748
-24,038	9,621	1409,645	750,138
-23,023	9,628	1408,644	749,608
-22,009	9,629	1407,539	748,996
-20,994	9,623	1406,589	748,436
-19,979	9,617	1405,657	747,882
-18,965	9,602	1404,654	747,246
-17,950	9,583	1403,836	746,694
-16,936	9,603	1402,852	746,232
-15,921	9,483	1402,186	745,291
-14,906	9,572	1400,936	745,009
-13,892	9,581	1400,009	744,528
-12,877	9,555	1399,460	744,090
-11,863	9,533	1398,548	743,473
-10,848	9,565	1397,498	743,031
-9,833	9,522	1396,505	742,277
-8,819	9,437	1395,870	741,513
-7,804	9,448	1394,835	740,988
-6,790	9,453	1393,686	740,367
-5,775	9,415	1392,890	739,741
-4,760	9,439	1391,807	739,249
-3,746	9,424	1390,878	738,657
-2,731	9,470	1389,935	738,338
-1,717	9,442	1389,116	737,743
-0,702	9,462	1387,347	736,866
0,313	13,541	1299,480	708,835
1,327	29,511	689,673	412,365
2,342	45,822	119,344	77,630
3,356	-0,529	16,598	8,274
4,371	-0,030	3,606	1,803
5,386	6,717	1,116	0,583
6,400	-200,000	0,168	0,565
7,415	-135,438	-0,287	-0,024
8,429	800,000	-0,169	-0,330
9,444	62,738	-0,295	-0,208
10,459	405,936	-0,219	-0,327
11,473	238,988	-0,233	-0,273
12,488	133,345	-0,260	-0,237
13,502	64,854	-0,266	-0,189
14,517	28,520	-0,271	-0,161
15,531	710,456	-0,179	-0,335
16,546	10,482	-0,356	-0,190
17,561	108,020	-0,321	-0,269
18,575	335,635	-0,064	-0,088
19,590	190,949	-0,307	-0,326
20,604	466,780	-0,136	-0,215
21,619	104,845	-0,452	-0,375
22,634	339,289	-0,347	-0,477
23,648	97,188	-0,443	-0,357
24,663	169,180	-0,391	-0,392
25,677	158,396	-0,283	-0,276
26,692	89,367	-0,312	-0,244
27,707	-10,517	-0,281	-0,130
28,721	335,575	-0,325	-0,444
29,736	234,068	-0,382	-0,443
30,750	89,836	-0,504	-0,395
31,765	64,259	-0,314	-0,222
32,780	152,172	-0,315	-0,302
33,794	-6,288	-0,329	-0,157
34,809	60,943	-0,331	-0,231
35,823	136,213	-0,372	-0,341
36,838	141,100	-0,257	-0,239
37,853	-15,674	-0,462	-0,206
38,867	-3,729	-0,463	-0,225
39,882	78,811	-0,244	-0,183
40,896	82,085	-0,321	-0,244
41,911	35,263	-0,370	-0,227
42,926	153,745	-0,397	-0,382
43,940	124,759	-0,399	-0,353
44,955	148,683	-0,319	-0,303
45,969	91,458	-0,306	-0,241
46,984	-33,747	-0,194	-0,075
47,999	80,194	-0,255	-0,192
49,013	34,274	-0,418	-0,255
50,028	40,844	-0,350	-0,221
51,042	307,308	-0,273	-0,358
52,057	-3,878	-0,379	-0,184
53,071	89,579	-0,294	-0,230
54,086	87,814	-0,239	-0,186
55,101	133,728	-0,301	-0,273
56,115	62,443	-0,238	-0,167
57,130	111,401	-0,417	-0,352
58,144	33,636	-0,374	-0,227
59,159	112,128	-0,410	-0,347
60,174	29,111	-0,451	-0,268
61,188	172,001	-0,205	-0,207
62,203	10,083	-0,311	-0,165
63,217	-24,008	-0,348	-0,145
64,232	-4,774	-0,334	-0,161
65,247	217,209	-0,279	-0,312
66,261	45,662	-0,357	-0,231
67,276	78,060	-0,366	-0,273
68,290	46,734	-0,298	-0,194
69,305	156,916	-0,261	-0,253
70,320	-26,642	-0,202	-0,082
71,334	40,523	-0,314	-0,198
72,349	28,658	-0,289	-0,171
73,363	159,664	-0,315	-0,307
74,378	-43,445	-0,407	-0,143
75,393	140,884	-0,310	-0,287
76,407	-83,979	-0,376	-0,083
77,422	-36,997	-0,342	-0,128
78,436	130,810	-0,226	-0,203
79,451	-65,909	-0,173	-0,048
80,466	1,121	-0,286	-0,143
81,480	331,422	-0,144	-0,195
82,495	-70,578	-0,321	-0,084
83,509	138,758	-0,219	-0,201
84,524	109,908	-0,206	-0,173
85,539	-127,059	-0,333	-0,034
86,553	12,956	-0,176	-0,095
87,568	48,253	-0,296	-0,193
88,582	537,720	-0,222	-0,371
89,597	71,683	-0,212	-0,154
90,611	39,419	-0,300	-0,187
91,626	-19,926	-0,354	-0,152
92,641	108,534	-0,290	-0,242
93,655	420,404	-0,198	-0,297
94,670	-63,361	-0,213	-0,061
95,684	-82,632	-0,334	-0,075
96,699	64,256	-0,412	-0,290
97,714	208,214	-0,114	-0,125
98,728	22,656	-0,327	-0,187
99,743	-29,978	-0,192	-0,076
100,757	201,656	-0,261	-0,281
101,772	395,706	-0,242	-0,354
102,787	169,136	-0,260	-0,259
103,801	4,041	-0,390	-0,198
104,816	31,674	-0,270	-0,162
105,830	310,792	-0,202	-0,265
106,845	-133,320	-0,255	-0,022
107,860	-1,334	-0,305	-0,150
108,874	-12,886	-0,347	-0,157
109,889	492,347	-0,143	-0,230
110,903	173,358	-0,283	-0,286
111,918	68,405	-0,246	-0,176
112,933	387,463	-0,129	-0,186
113,947	2,221	-0,209	-0,105
114,962	113,894	-0,214	-0,182
115,976	-20,159	-0,311	-0,133
116,991	38,445	-0,319	-0,198
118,006	291,278	-0,210	-0,267
119,020	47,814	-0,348	-0,227
120,035	207,265	-0,142	-0,154
121,049	102,560	-0,174	-0,142
122,064	140,645	-0,185	-0,170
123,079	47,472	-0,171	-0,111
124,093	80,016	-0,142	-0,106
125,108	-46,034	-0,439	-0,150
126,122	147,321	-0,275	-0,258
127,137	170,474	-0,211	-0,210
128,151	16,075	-0,211	-0,115
129,166	58,779	-0,249	-0,170
130,181	-48,982	-0,248	-0,082
131,195	-115,656	-0,301	-0,039
132,210	-63,453	-0,334	-0,095
133,224	37,703	-0,281	-0,173
134,239	-200,000	-0,037	-0,163
135,254	111,810	-0,279	-0,234
136,268	398,432	-0,122	-0,179
137,283	125,101	-0,155	-0,136
138,297	100,103	-0,293	-0,236
139,312	77,652	-0,157	-0,117
140,327	123,692	-0,213	-0,186
141,341	197,888	-0,189	-0,201
142,356	63,905	-0,181	-0,126
143,370	12,811	-0,186	-0,100
144,385	334,151	-0,141	-0,191
145,400	-4,988	-0,289	-0,138
146,414	164,308	-0,284	-0,279
147,429	-74,265	-0,289	-0,072
148,443	800,000	-0,096	-0,253
149,458	-19,404	-0,263	-0,113
150,473	-28,700	-0,207	-0,082
151,487	7,978	-0,235	-0,122
152,502	12,516	-0,214	-0,114
153,516	14,767	-0,241	-0,131
154,531	139,065	-0,277	-0,254
155,546	284,654	-0,144	-0,181
156,560	-144,528	-0,232	-0,015
157,575	0,568	-0,177	-0,088
158,589	63,845	-0,231	-0,161
159,604	87,278	-0,212	-0,163
160,619	118,195	-0,260	-0,223
161,633	240,927	-0,257	-0,299
162,648	93,010	-0,262	-0,206
163,662	45,003	-0,272	-0,174
164,677	-40,829	-0,136	-0,049
165,692	-74,859	-0,261	-0,065
166,706	-80,258	-0,344	-0,079
167,721	99,179	-0,171	-0,137
168,735	228,834	-0,240	-0,273
169,750	149,606	-0,163	-0,153
170,764	15,335	-0,164	-0,089
171,779	-36,000	-0,191	-0,071
172,794	509,237	-0,151	-0,244
173,808	161,776	-0,278	-0,271
174,823	115,827	-0,302	-0,256
175,837	121,702	-0,224	-0,194
176,852	352,958	-0,162	-0,224
177,867	257,410	-0,096	-0,115
178,881	38,447	-0,156	-0,096
179,896	-108,790	-0,220	-0,032
180,910	191,224	-0,129	-0,135
181,925	16,278	-0,197	-0,107
182,940	59,373	-0,300	-0,205
183,954	712,704	-0,133	-0,245
184,969	113,274	-0,180	-0,152
185,983	800,000	-0,081	-0,244
186,998	35,491	-0,251	-0,153
188,013	-67,237	-0,301	-0,081
189,027	55,125	-0,351	-0,235
190,042	45,138	-0,303	-0,193
191,056	-23,044	-0,294	-0,122
192,071	29,638	-0,287	-0,169
193,086	91,162	-0,258	-0,201
194,100	3,097	-0,272	-0,137
195,115	-70,213	-0,104	-0,027
196,129	-7,520	-0,306	-0,143
197,144	156,953	-0,246	-0,236
198,159	325,481	-0,155	-0,206
199,173	456,223	-0,097	-0,150
200,188	7,648	-0,202	-0,104
201,202	-170,713	-0,167	-0,004
202,217	63,155	-0,068	-0,047
203,232	102,975	-0,305	-0,248
204,246	305,970	-0,300	-0,387
205,261	98,482	-0,145	-0,116
206,275	72,720	-0,219	-0,158
207,290	46,155	-0,146	-0,093
208,304	1,553	-0,170	-0,084
209,319	-84,634	-0,145	-0,031
210,334	276,523	-0,153	-0,188
211,348	65,861	-0,262	-0,183
212,363	712,208	-0,138	-0,254
213,377	435,192	-0,147	-0,222
214,392	103,381	-0,113	-0,091
215,407	-182,778	-0,071	-0,001
216,421	-61,964	-0,227	-0,065
217,436	800,000	-0,114	-0,261
218,450	599,032	-0,184	-0,317
219,465	8,860	-0,235	-0,122
220,480	-87,114	-0,112	-0,023
221,494	-9,326	-0,149	-0,069
222,509	8,644	-0,158	-0,082
223,523	81,409	-0,127	-0,095
224,538	-54,704	-0,178	-0,055
225,553	197,780	-0,325	-0,343
226,567	234,860	-0,219	-0,250
227,582	-21,951	-0,244	-0,102
228,596	-15,376	-0,190	-0,084
229,611	-11,189	-0,196	-0,089
230,626	-149,743	-0,224	-0,012
231,640	107,335	-0,196	-0,161
232,655	52,045	-0,193	-0,127
233,669	-79,888	-0,143	0,033
234,684	4,192	-0,130	-0,066
235,699	43,322	-0,162	-0,102
236,713	-200,000	0,015	0,063
237,728	-200,000	-0,045	-0,150
238,742	300,350	-0,161	-0,205
239,757	162,709	-0,149	-0,145
240,772	318,546	-0,154	-0,202
241,786	9,897	-0,201	-0,105
242,801	29,546	-0,213	-0,125
243,815	81,651	-0,130	-0,097
244,830	-76,706	-0,199	-0,048
245,844	97,090	-0,219	-0,173
246,859	-87,681	-0,288	-0,059
247,874	800,000	0,009	-0,024
248,888	101,600	-0,234	-0,188
249,903	63,064	-0,221	-0,153
250,917	-93,839	-0,148	-0,028
251,932	800,000	-0,039	-0,100
252,947	-200,000	-0,113	0,000
253,961	85,553	-0,260	-0,197
254,976	20,115	-0,283	-0,157
255,990	-66,459	-0,234	-0,064
257,005	49,145	-0,098	-0,064
258,020	571,095	-0,081	-0,136
259,034	445,137	-0,054	-0,082
260,049	-8,507	-0,136	-0,063
261,063	-13,282	-0,112	-0,050
262,078	74,637	-0,176	-0,128
263,093	125,843	-0,199	-0,173
264,107	-200,000	-0,023	-0,176
265,122	-86,922	-0,223	-0,046
266,136	800,000	-0,082	-0,157
267,151	311,740	-0,145	-0,188
268,166	39,843	-0,241	-0,149
269,180	45,695	-0,245	-0,156
270,195	-9,027	-0,239	-0,110
271,209	-89,746	-0,110	-0,022
272,224	-24,897	-0,170	-0,069
273,239	16,844	-0,122	-0,066
274,253	-64,757	-0,105	0,029
275,268	23,026	-0,302	-0,170
276,282	-28,647	-0,247	-0,097
277,297	-54,843	-0,098	-0,030
278,312	-84,664	-0,267	-0,057
279,326	46,761	-0,180	-0,115
280,341	-200,000	-0,033	-0,126
281,355	-200,000	-0,120	0,000
282,370	108,795	-0,213	-0,175
283,384	-52,954	-0,249	-0,078
284,399	90,687	-0,125	-0,096
285,414	65,921	-0,194	-0,135
286,428	369,031	-0,032	-0,044
287,443	-63,934	-0,141	0,039
288,457	-91,969	-0,149	-0,029
289,472	-15,615	-0,206	-0,090
290,487	-82,472	-0,311	-0,069
291,501	95,231	-0,255	-0,200
292,516	541,995	-0,125	-0,206
293,530	220,495	-0,153	-0,169
294,545	-66,255	-0,094	-0,025
295,560	543,191	-0,125	-0,205
296,574	569,189	-0,082	-0,137
297,589	-77,538	-0,114	-0,027
298,603	463,858	-0,174	-0,268
299,618	-77,614	-0,197	-0,046
300,633	-150,826	-0,241	-0,012
301,647	-98,927	-0,128	-0,022
302,662	800,000	-0,052	-0,151
303,676	43,824	-0,061	-0,038
304,691	-155,626	-0,135	-0,006
305,706	389,377	-0,137	-0,195
306,720	87,929	-0,197	-0,149
307,735	474,350	-0,064	0,100
308,749	633,012	-0,111	0,194
309,764	246,186	-0,071	-0,082
310,779	-132,521	-0,181	-0,016
311,793	100,712	-0,106	-0,085
312,808	158,453	-0,200	-0,190
313,822	161,475	-0,143	-0,137
314,837	-200,000	-0,013	-0,070
315,852	59,255	-0,156	-0,105
316,866	356,983	-0,116	-0,159
317,881	-200,000	0,031	-0,150
318,895	-64,531	-0,173	-0,048
319,910	-31,142	-0,277	0,106
320,925	15,847	-0,208	-0,112
321,939	97,226	-0,143	-0,112
322,954	-135,286	-0,114	-0,009
323,968	-200,000	0,016	-0,076
324,983	170,359	-0,117	0,115
325,997	17,632	-0,241	-0,131
327,012	-65,319	-0,122	-0,033
328,027	2,211	-0,219	-0,108
329,041	100,560	-0,100	-0,079
330,056	4,407	-0,066	-0,033
331,070	372,921	0,083	-0,116
332,085	-136,390	-0,152	0,012
333,100	-42,883	-0,087	-0,030
334,114	-200,000	-0,094	-0,293
335,129	15,447	-0,102	-0,055
336,143	-131,458	-0,169	0,015
337,158	454,069	-0,100	-0,151
338,173	-34,110	-0,170	-0,063
339,187	-75,438	-0,195	-0,047
340,202	11,682	-0,205	-0,107
341,216	203,409	-0,151	-0,160
342,231	-66,025	-0,190	-0,051
343,246	12,584	-0,198	-0,104
344,260	-75,150	-0,174	-0,042
345,275	-90,516	-0,183	-0,036
346,289	-200,000	-0,088	-0,281
347,304	396,609	-0,128	-0,184
348,319	189,461	-0,156	-0,160
349,333	-16,714	-0,239	-0,103
350,348	-188,243	-0,097	-0,001
351,362	-200,000	-0,013	-0,161
352,377	93,765	-0,084	-0,065
353,392	216,325	-0,166	-0,181
354,406	-45,887	0,116	0,039
355,421	208,226	1313,522	1404,369
356,435	160,224	1474,017	1404,829
