DTS Sentinel unit serial number:	SN410029Multiplexer serial number:	ORYXHardware model number:	OX2-SRSoftware version number:	ORYX F/W v4,00 Oryx Data Collector v3.7.2.0data status	okinstallation	B3 Nyhavnadifferential loss correction	single-endedforward channel	channel 1reverse channel	N/Adate	2023/12/04time	09:12:30forward acquisition time	300,00reverse acquisition time	0,00gamma	499,1914k internal	0,3203k external	0,3203temperature offset calibration	1,0000default loss term (dB/km)	0,3820temperature slope calibration	1,0000multiplexer offset coefficient	1,0000multiplexer slope coefficient	1,0000fibre end	0,00T internal ref (°C)	13,04T ext. ref 1 (°C)	-1,31T ext. ref 2 (°C)	-1,34length (m)	temperature (°C)	Stokes	anti-Stokes-744,400	-3,021	-0,411	-0,208
-743,385	800,000	-0,075	0,157
-742,371	-65,838	-0,295	-0,085
-741,356	-200,000	0,109	0,434
-740,342	314,033	-0,122	-0,167
-739,327	-200,000	-0,058	0,324
-738,312	56,750	-0,295	-0,208
-737,298	-200,000	0,063	0,275
-736,283	211,789	-0,279	-0,320
-735,269	-200,000	-0,040	0,303
-734,254	370,167	-0,255	-0,376
-733,239	327,809	-0,077	0,107
-732,225	183,667	-0,051	-0,055
-731,210	0,901	0,152	0,079
-730,196	-108,861	0,055	-0,008
-729,181	208,872	-0,121	-0,138
-728,167	800,000	0,033	-0,091
-727,152	800,000	0,005	0,012
-726,137	-20,204	-0,022	0,010
-725,123	796,270	-0,034	-0,069
-724,108	47,684	-0,043	-0,029
-723,094	192,895	-0,008	0,009
-722,079	-36,428	0,039	-0,015
-721,064	-200,000	0,006	-0,039
-720,050	109,581	0,082	0,071
-719,035	325,068	-0,116	-0,161
-718,021	11,876	-0,133	-0,074
-717,006	-79,349	-0,143	-0,035
-715,991	724,533	-0,030	-0,058
-714,977	-200,000	0,033	-0,113
-713,962	-200,000	0,001	-0,017
-712,948	231,239	0,050	-0,059
-711,933	161,567	0,036	-0,036
-710,918	-96,457	-0,019	0,004
-709,904	-200,000	0,002	-0,068
-708,889	22,154	0,066	0,039
-707,875	-200,000	-0,011	-0,096
-706,860	-55,241	0,103	0,033
-705,845	118,306	-0,096	-0,086
-704,831	-86,300	-0,075	0,017
-703,816	37,206	0,103	0,066
-702,802	42,177	-0,047	-0,031
-701,787	-200,000	-0,011	-0,096
-700,772	-54,149	-0,147	-0,048
-699,758	43,411	-0,062	-0,041
-698,743	-119,194	-0,184	0,023
-697,729	-200,000	-0,008	0,030
-696,714	-200,000	-0,032	0,133
-695,699	736,697	-0,043	-0,085
-694,685	295,247	0,068	-0,091
-693,670	800,000	-0,037	-0,078
-692,656	-200,000	-0,001	0,060
-691,641	37,090	0,111	-0,071
-690,627	-200,000	-0,012	0,102
-689,612	697,382	-0,040	-0,076
-688,597	-200,000	-0,017	0,071
-687,583	453,338	-0,028	-0,046
-686,568	-200,000	0,002	-0,125
-685,554	-200,000	0,038	-0,150
-684,539	-200,000	-0,007	-0,082
-683,524	800,000	-0,009	-0,018
-682,510	-200,000	-0,002	-0,058
-681,495	347,304	-0,089	0,128
-680,481	-200,000	-0,002	-0,035
-679,466	800,000	-0,050	0,116
-678,451	267,652	0,073	-0,093
-677,437	274,118	-0,055	0,071
-676,422	800,000	-0,030	0,075
-675,408	-27,351	0,040	0,017
-674,393	176,505	0,107	0,113
-673,378	-200,000	-0,021	-0,193
-672,364	314,319	0,050	-0,068
-671,349	-3,440	-0,137	-0,069
-670,335	80,679	0,087	0,068
-669,320	262,400	-0,035	0,044
-668,305	800,000	-0,014	-0,039
-667,291	-109,063	-0,136	-0,021
-666,276	-200,000	-0,020	0,076
-665,262	66,608	-0,030	-0,022
-664,247	-28,376	-0,103	-0,043
-663,232	-58,198	0,064	0,020
-662,218	-200,000	0,020	0,000
-661,203	800,000	0,066	-0,172
-660,189	-200,000	0,007	0,128
-659,174	445,013	-0,079	-0,126
-658,159	-84,497	-0,095	0,022
-657,145	241,414	-0,075	-0,091
-656,130	316,643	0,053	0,073
-655,116	439,518	0,089	-0,140
-654,101	688,236	0,025	0,047
-653,086	-136,112	-0,131	0,011
-652,072	-200,000	-0,015	-0,062
-651,057	-200,000	0,027	-0,155
-650,043	-200,000	-0,046	-0,203
-649,028	235,955	0,076	-0,091
-648,014	146,582	0,043	-0,042
-646,999	-200,000	-0,012	-0,075
-645,984	159,696	0,027	0,027
-644,970	-174,095	0,032	-0,001
-643,955	-46,968	-0,057	-0,020
-642,941	263,539	-0,051	-0,065
-641,926	-200,000	0,018	-0,064
-640,911	-61,308	-0,080	0,024
-639,897	68,088	0,068	-0,050
-638,882	-200,000	-0,012	0,086
-637,868	64,672	-0,009	0,007
-636,853	-96,152	-0,100	-0,019
-635,838	800,000	0,016	0,042
-634,824	-200,000	0,030	0,116
-633,809	-123,495	-0,102	-0,012
-632,795	334,642	0,049	0,069
-631,780	308,947	0,092	0,124
-630,765	382,444	0,134	-0,201
-629,751	17,825	-0,050	0,028
-628,736	-98,399	0,052	-0,010
-627,722	-91,063	-0,065	-0,013
-626,707	-200,000	0,024	-0,117
-625,692	30,677	0,009	0,006
-624,678	-200,000	-0,021	0,090
-623,663	-119,025	-0,068	0,009
-622,649	-200,000	0,033	0,118
-621,634	187,723	0,020	0,022
-620,619	-41,926	0,022	0,008
-619,605	0,204	-0,143	-0,074
-618,590	-200,000	0,001	0,064
-617,576	-96,906	-0,148	-0,028
-616,561	-171,172	-0,112	0,003
-615,546	-136,120	-0,195	-0,016
-614,532	548,128	0,042	0,072
-613,517	52,149	-0,069	-0,048
-612,503	-145,288	0,119	-0,008
-611,488	75,947	0,150	-0,115
-610,474	-16,863	0,064	-0,029
-609,459	-68,439	-0,206	-0,057
-608,444	-26,688	-0,055	0,023
-607,430	339,625	-0,072	-0,102
-606,415	25,520	-0,066	0,040
-605,401	7,077	-0,102	-0,055
-604,386	800,000	0,055	0,155
-603,371	56,248	-0,039	-0,027
-602,357	-49,072	0,115	-0,039
-601,342	-200,000	-0,023	-0,085
-600,328	-118,761	0,175	-0,022
-599,313	-120,387	-0,168	0,020
-598,298	-200,000	-0,005	-0,059
-597,284	116,777	-0,057	-0,050
-596,269	513,125	0,068	0,115
-595,255	-33,437	-0,054	0,021
-594,240	-34,646	0,047	0,018
-593,225	177,878	-0,072	0,076
-592,211	-140,441	-0,118	-0,009
-591,196	317,006	-0,016	-0,022
-590,182	-84,617	0,151	0,034
-589,167	330,505	0,097	-0,135
-588,152	800,000	0,059	0,148
-587,138	-62,881	-0,119	0,035
-586,123	-200,000	-0,005	0,085
-585,109	800,000	-0,038	0,097
-584,094	800,000	-0,022	-0,048
-583,079	-141,012	0,123	-0,009
-582,065	68,990	-0,055	0,041
-581,050	-200,000	-0,002	0,042
-580,036	-152,374	-0,125	-0,006
-579,021	-200,000	-0,015	-0,058
-578,006	-134,954	-0,068	-0,006
-576,992	-107,499	-0,080	0,013
-575,977	86,173	0,084	0,066
-574,963	405,190	0,049	0,075
-573,948	-200,000	-0,024	-0,099
-572,934	48,489	-0,034	0,023
-571,919	-200,000	-0,001	-0,232
-570,904	800,000	-0,092	-0,189
-569,890	114,750	0,104	-0,092
-568,875	-152,205	-0,019	-0,001
-567,861	50,392	-0,137	-0,094
-566,846	-107,607	0,117	0,018
-565,831	-73,803	-0,139	-0,036
-564,817	-200,000	0,003	-0,020
-563,802	-15,606	-0,115	-0,053
-562,788	-63,389	0,122	0,036
-561,773	-200,000	-0,012	-0,132
-560,758	636,047	0,068	-0,126
-559,744	-200,000	0,026	0,125
-558,729	-121,341	-0,068	-0,008
-557,715	261,943	-0,032	-0,040
-556,700	-200,000	-0,008	0,032
-555,685	-16,125	-0,149	-0,068
-554,671	409,445	-0,122	-0,188
-553,656	-36,618	0,158	-0,061
-552,642	120,348	-0,073	0,065
-551,627	-40,528	0,075	-0,028
-550,612	151,234	-0,057	-0,056
-549,598	95,682	0,102	0,084
-548,583	681,169	-0,063	-0,119
-547,569	-200,000	0,011	0,058
-546,554	800,000	0,050	0,122
-545,539	175,815	0,050	0,053
-544,525	-48,765	-0,033	-0,011
-543,510	-23,189	-0,127	0,055
-542,496	401,316	-0,068	0,104
-541,481	-3,165	0,094	0,047
-540,466	800,000	0,019	-0,048
-539,452	405,598	0,047	0,072
-538,437	800,000	0,028	0,075
-537,423	165,363	0,072	0,073
-536,408	-200,000	-0,019	0,064
-535,393	260,167	-0,102	-0,127
-534,379	214,645	-0,072	0,083
-533,364	647,553	0,034	0,062
-532,350	149,444	0,096	0,094
-531,335	9,226	0,106	-0,057
-530,321	299,212	-0,068	0,090
-529,306	800,000	-0,035	0,092
-528,291	-200,000	-0,011	-0,044
-527,277	365,402	-0,018	0,026
-526,262	-118,471	-0,113	-0,014
-525,248	-78,417	-0,077	0,019
-524,233	45,069	0,080	0,053
-523,218	53,141	0,068	-0,047
-522,204	-200,000	-0,015	0,052
-521,189	-49,487	-0,147	-0,050
-520,175	237,543	0,056	-0,067
-519,160	-200,000	0,006	-0,180
-518,145	800,000	0,027	0,076
-517,131	29,831	-0,098	0,060
-516,116	-66,839	-0,145	0,041
-515,102	-200,000	-0,028	0,190
-514,087	-68,142	0,069	-0,019
-513,072	331,567	-0,048	-0,067
-512,058	-124,059	0,142	-0,016
-511,043	-147,737	0,100	-0,006
-510,029	800,000	-0,010	-0,020
-509,014	-84,777	0,099	-0,022
-507,999	336,812	-0,068	0,095
-506,985	310,985	-0,041	-0,055
-505,970	45,989	-0,066	-0,044
-504,956	45,958	-0,029	-0,019
-503,941	148,619	0,080	0,078
-502,926	800,000	-0,029	0,086
-501,912	800,000	0,029	-0,064
-500,897	372,658	-0,037	0,054
-499,883	-54,040	0,125	-0,041
-498,868	-200,000	-0,006	-0,178
-497,853	-200,000	0,000	-0,085
-496,839	152,977	0,069	-0,068
-495,824	-36,621	-0,074	0,028
-494,810	-200,000	-0,005	0,169
-493,795	82,528	0,104	0,082
-492,781	36,509	0,078	0,049
-491,766	800,000	-0,027	-0,064
-490,751	16,522	-0,126	-0,072
-489,737	62,943	-0,133	0,096
-488,722	-10,313	0,044	0,021
-487,708	-116,820	0,057	0,007
-486,693	-73,102	0,139	-0,037
-485,678	346,320	0,011	-0,015
-484,664	-200,000	0,017	-0,104
-483,649	5,252	-0,077	-0,040
-482,635	-200,000	-0,019	0,152
-481,620	-78,346	0,042	0,010
-480,605	-200,000	0,005	0,089
-479,591	18,693	0,021	0,012
-478,576	-200,000	0,000	-0,060
-477,562	299,267	0,082	-0,109
-476,547	-98,284	-0,183	-0,033
-475,532	160,533	0,081	-0,081
-474,518	229,421	-0,007	0,008
-473,503	-30,954	0,092	0,037
-472,489	496,908	0,105	0,175
-471,474	-158,895	0,164	-0,007
-470,459	-105,140	-0,169	-0,028
-469,445	-125,525	-0,026	0,003
-468,430	-90,420	-0,089	-0,018
-467,416	-143,345	-0,041	0,003
-466,401	430,753	0,063	-0,098
-465,386	99,288	-0,097	0,081
-464,372	-200,000	0,020	0,067
-463,357	-200,000	0,035	-0,171
-462,343	-32,800	-0,043	0,017
-461,328	-38,748	0,090	-0,034
-460,313	60,831	-0,050	-0,036
-459,299	-79,205	0,032	-0,008
-458,284	800,000	-0,051	0,144
-457,270	6,939	-0,132	-0,070
-456,255	287,567	-0,105	0,136
-455,241	348,589	-0,084	0,120
-454,226	-200,000	-0,040	0,148
-453,211	444,067	-0,043	0,068
-452,197	160,986	0,094	0,094
-451,182	182,154	0,096	0,102
-450,168	-57,251	0,066	0,021
-449,153	112,042	-0,076	0,066
-448,138	800,000	-0,037	-0,107
-447,124	438,770	-0,047	-0,074
-446,109	800,000	-0,017	-0,049
-445,095	-84,725	0,113	-0,025
-444,080	-200,000	-0,004	0,080
-443,065	800,000	0,076	0,153
-442,051	-200,000	0,008	-0,129
-441,036	-200,000	-0,018	-0,096
-440,022	800,000	-0,060	-0,119
-439,007	-200,000	-0,004	-0,080
-437,992	149,056	0,069	0,067
-436,978	800,000	0,021	-0,051
-435,963	261,706	-0,087	-0,109
-434,949	334,081	-0,100	-0,140
-433,934	233,709	-0,067	0,079
-432,919	-0,254	-0,034	0,017
-431,905	-68,021	0,082	-0,023
-430,890	800,000	-0,047	0,146
-429,876	276,038	0,062	-0,080
-428,861	123,770	-0,056	0,051
-427,846	153,158	-0,091	0,090
-426,832	-174,813	0,088	-0,002
-425,817	-15,814	-0,148	-0,068
-424,803	-38,600	0,062	0,023
-423,788	71,664	0,140	-0,105
-422,773	-30,641	0,076	-0,031
-421,759	800,000	0,059	-0,120
-420,744	41,924	-0,055	0,036
-419,730	-156,111	0,032	-0,001
-418,715	800,000	0,004	0,009
-417,701	-200,000	0,023	-0,077
-416,686	754,168	-0,040	0,077
-415,671	7,030	-0,091	-0,048
-414,657	93,412	0,097	-0,079
-413,642	101,207	-0,070	0,058
-412,628	-60,949	0,035	-0,011
-411,613	-80,274	-0,206	-0,049
-410,598	-200,000	-0,000	-0,129
-409,584	800,000	0,033	-0,097
-408,569	168,602	0,024	0,025
-407,555	56,750	0,142	-0,099
-406,540	164,125	0,042	-0,042
-405,525	-75,899	0,073	0,018
-404,511	660,212	-0,026	0,048
-403,496	800,000	0,021	-0,045
-402,482	-73,196	0,085	0,022
-401,467	145,923	0,108	0,104
-400,452	765,885	-0,101	0,197
-399,438	71,673	-0,110	0,082
-398,423	308,687	-0,062	-0,084
-397,409	393,445	0,033	-0,049
-396,394	-200,000	0,022	-0,082
-395,379	177,136	-0,142	-0,148
-394,365	85,938	0,069	0,054
-393,350	150,126	0,088	0,086
-392,336	-68,894	0,072	0,020
-391,321	74,189	0,057	0,043
-390,306	0,553	-0,083	-0,043
-389,292	-200,000	-0,002	-0,159
-388,277	167,449	-0,054	0,055
-387,263	-200,000	0,024	0,139
-386,248	130,484	-0,063	0,058
-385,233	-200,000	-0,004	0,054
-384,219	-76,543	0,062	-0,016
-383,204	-200,000	-0,030	-0,114
-382,190	75,291	0,050	0,038
-381,175	-103,310	0,081	-0,014
-380,160	593,457	0,089	0,158
-379,146	613,003	-0,022	0,040
-378,131	204,610	0,126	0,140
-377,117	31,635	0,031	0,019
-376,102	-163,951	0,152	-0,005
-375,088	800,000	-0,035	-0,108
-374,073	-200,000	-0,000	0,123
-373,058	-200,000	-0,018	-0,164
-372,044	-69,063	0,062	0,017
-371,029	-137,261	-0,078	0,006
-370,015	91,026	-0,043	-0,034
-369,000	119,705	0,061	-0,054
-367,985	3,466	-0,074	-0,038
-366,971	800,000	0,005	-0,012
-365,956	800,000	-0,026	0,068
-364,942	-12,948	0,115	-0,054
-363,927	10,865	0,046	0,025
-362,912	-200,000	0,011	0,053
-361,898	215,847	0,049	0,056
-360,883	800,000	0,021	-0,053
-359,869	-71,943	0,062	0,016
-358,854	9,076	0,104	-0,056
-357,839	241,282	0,076	0,091
-356,825	-200,000	-0,003	0,013
-355,810	-200,000	0,035	-0,138
-354,796	-51,263	0,058	-0,019
-353,781	189,093	0,068	-0,073
-352,766	297,645	0,041	-0,053
-351,752	652,816	-0,045	0,083
-350,737	308,661	0,086	-0,115
-349,723	124,822	-0,180	0,162
-348,708	800,000	0,063	0,146
-347,693	-19,126	-0,183	0,081
-346,679	299,967	-0,016	0,021
-345,664	-200,000	0,018	-0,119
-344,650	-200,000	-0,008	0,055
-343,635	458,621	0,077	-0,123
-342,620	616,991	0,063	0,113
-341,606	472,911	-0,043	0,070
-340,591	5,924	-0,083	-0,044
-339,577	-200,000	-0,006	0,112
-338,562	23,056	-0,030	-0,018
-337,548	-200,000	0,003	-0,103
-336,533	217,085	0,028	0,032
-335,518	198,428	-0,028	-0,031
-334,504	171,417	0,033	-0,034
-333,489	-44,018	-0,035	0,013
-332,475	156,245	-0,096	-0,095
-331,460	-200,000	0,001	-0,092
-330,445	-200,000	0,018	-0,082
-329,431	800,000	0,061	-0,139
-328,416	256,049	0,079	-0,098
-327,402	-176,663	0,133	-0,002
-326,387	-62,154	0,066	-0,020
-325,372	-85,160	-0,099	-0,022
-324,358	65,004	-0,016	0,011
-323,343	552,766	0,060	-0,103
-322,329	279,093	-0,053	0,068
-321,314	-98,340	0,119	0,022
-320,299	-137,639	-0,048	-0,004
-319,285	-200,000	-0,011	0,176
-318,270	4,854	-0,020	-0,011
-317,256	-153,105	-0,037	0,002
-316,241	66,708	0,083	-0,060
-315,226	-55,987	0,098	0,031
-314,212	29,030	0,134	0,081
-313,197	800,000	-0,018	0,036
-312,183	58,248	0,102	0,071
-311,168	-119,567	-0,140	-0,017
-310,153	-200,000	-0,001	-0,108
-309,139	800,000	-0,032	0,065
-308,124	-106,473	-0,021	0,003
-307,110	-16,537	0,230	-0,104
-306,095	800,000	0,013	0,034
-305,080	72,978	-0,043	-0,032
-304,066	584,164	0,031	-0,055
-303,051	357,720	-0,058	0,082
-302,037	174,545	0,016	0,017
-301,022	800,000	-0,034	-0,094
-300,008	-103,537	0,106	0,018
-298,993	800,000	0,020	-0,059
-297,978	-200,000	-0,001	-0,012
-296,964	800,000	-0,052	-0,113
-295,949	4,957	0,117	-0,061
-294,935	-200,000	-0,007	0,048
-293,920	-128,644	-0,062	0,006
-292,905	-117,695	0,082	0,010
-291,891	-100,820	-0,063	0,011
-290,876	-200,000	0,012	0,077
-289,862	-200,000	0,012	0,142
-288,847	294,351	0,047	0,062
-287,832	-1,465	-0,109	-0,055
-286,818	41,464	0,097	-0,062
-285,803	-127,615	-0,064	-0,006
-284,789	79,436	0,124	0,095
-283,774	-1,974	-0,109	0,055
-282,759	-162,168	-0,092	0,003
-281,745	-200,000	0,008	-0,067
-280,730	107,975	-0,078	-0,067
-279,716	171,848	0,042	0,043
-278,701	-105,276	0,098	-0,016
-277,686	22,947	0,076	0,044
-276,672	-153,591	0,114	0,006
-275,657	28,545	-0,094	0,056
-274,643	45,664	-0,021	0,014
-273,628	-69,783	-0,160	-0,043
-272,613	-1,143	-0,152	-0,077
-271,599	-130,090	-0,163	0,016
-270,584	-126,782	0,061	-0,006
-269,570	-143,567	0,092	-0,006
-268,555	797,130	0,015	-0,029
-267,540	87,711	0,077	0,061
-266,526	268,270	0,066	-0,083
-265,511	-68,456	-0,051	0,014
-264,497	-100,070	0,095	-0,017
-263,482	299,560	0,063	0,083
-262,467	-200,000	-0,006	0,078
-261,453	-131,411	0,061	-0,006
-260,438	588,288	-0,054	-0,095
-259,424	-32,558	-0,068	0,027
-258,409	-144,900	-0,057	-0,004
-257,395	219,738	-0,044	0,050
-256,380	-200,000	-0,005	-0,081
-255,365	288,538	-0,137	0,178
-254,351	-77,977	0,038	-0,009
-253,336	-117,674	0,179	0,023
-252,322	-200,000	0,019	0,077
-251,307	362,356	-0,051	-0,074
-250,292	435,485	0,015	-0,024
-249,278	-200,000	0,050	-0,206
-248,263	150,055	0,079	0,077
-247,249	-88,311	-0,189	0,040
-246,234	55,756	-0,124	0,086
-245,219	89,688	-0,062	0,050
-244,205	-58,374	0,133	0,041
-243,190	-102,159	0,156	0,026
-242,176	287,757	0,022	-0,028
-241,161	-45,556	-0,027	-0,009
-240,146	-33,269	0,051	-0,020
-239,132	-200,000	0,024	0,082
-238,117	-118,825	-0,022	0,003
-237,103	88,000	-0,038	0,030
-236,088	-153,559	0,078	0,004
-235,073	-200,000	0,011	0,034
-234,059	-110,807	-0,088	-0,013
-233,044	-84,082	-0,053	-0,012
-232,030	16,621	-0,025	-0,014
-231,015	252,256	-0,066	-0,080
-230,000	-49,266	-0,105	0,035
-228,986	-153,522	0,066	0,003
-227,971	68,218	-0,122	0,089
-226,957	251,775	0,116	0,141
-225,942	-129,836	0,107	-0,010
-224,927	-200,000	0,008	0,153
-223,913	-116,158	-0,107	-0,014
-222,898	-63,656	-0,053	-0,015
-221,884	387,695	0,089	0,131
-220,869	-200,000	0,009	0,089
-219,855	21,155	-0,100	0,058
-218,840	172,399	-0,019	0,020
-217,825	626,275	-0,038	-0,069
-216,811	570,574	-0,055	-0,095
-215,796	465,463	-0,089	-0,142
-214,782	-26,348	-0,243	-0,101
-213,767	-200,000	0,010	0,062
-212,752	665,153	0,096	0,177
-211,738	-200,000	-0,014	0,130
-210,723	92,189	-0,165	0,132
-209,709	800,000	0,021	0,052
-208,694	83,538	0,066	-0,051
-207,679	-57,151	-0,110	-0,034
-206,665	-30,957	-0,048	-0,019
-205,650	27,203	-0,091	-0,054
-204,636	-200,000	-0,012	-0,038
-203,621	384,331	0,053	-0,078
-202,606	55,745	-0,150	-0,103
-201,592	2,505	0,087	0,045
-200,577	212,293	-0,048	0,054
-199,563	-130,260	0,154	0,015
-198,548	-54,289	-0,026	0,008
-197,533	-161,010	0,112	0,004
-196,519	79,428	-0,087	0,067
-195,504	-135,342	0,167	-0,014
-194,490	-200,000	0,016	0,062
-193,475	-142,770	-0,101	-0,007
-192,460	274,577	0,115	-0,146
-191,446	-32,297	0,069	-0,027
-190,431	429,167	-0,031	0,048
-189,417	-57,448	0,085	0,026
-188,402	171,734	0,175	-0,179
-187,387	800,000	0,015	0,042
-186,373	58,565	0,110	0,077
-185,358	-105,209	0,179	-0,029
-184,344	-69,349	-0,041	0,011
-183,329	-31,973	0,027	0,011
-182,315	-121,481	0,099	0,012
-181,300	-76,586	0,023	0,006
-180,285	75,675	-0,040	-0,030
-179,271	-200,000	0,016	-0,090
-178,256	97,578	0,119	-0,097
-177,242	56,902	-0,041	-0,028
-176,227	49,579	-0,104	0,070
-175,212	800,000	0,036	0,078
-174,198	-90,650	-0,095	0,019
-173,183	17,158	0,085	-0,048
-172,169	-200,000	-0,013	0,053
-171,154	-200,000	0,022	-0,107
-170,139	-92,733	0,171	-0,034
-169,125	570,082	0,031	0,054
-168,110	800,000	-0,012	0,025
-167,096	-200,000	0,003	0,060
-166,081	6,838	0,037	0,020
-165,066	-200,000	-0,019	-0,138
-164,052	-38,460	-0,072	-0,027
-163,037	-43,186	-0,082	-0,029
-162,023	256,518	-0,066	0,080
-161,008	543,851	-0,076	0,130
-159,993	-200,000	0,001	-0,133
-158,979	68,398	-0,059	-0,043
-157,964	-129,339	0,035	-0,003
-156,950	-200,000	0,011	-0,119
-155,935	173,888	0,022	-0,023
-154,920	-200,000	0,010	0,177
-153,906	-9,228	-0,086	0,040
-152,891	100,682	-0,106	-0,087
-151,877	528,983	0,047	0,079
-150,862	-45,331	-0,178	-0,062
-149,847	35,417	-0,058	-0,036
-148,833	800,000	0,071	-0,166
-147,818	-110,682	0,016	-0,002
-146,804	-200,000	0,015	0,086
-145,789	-200,000	0,005	0,159
-144,775	14,691	0,123	0,068
-143,760	-200,000	0,001	0,006
-142,745	-119,777	-0,056	-0,007
-141,731	-200,000	-0,003	0,053
-140,716	228,479	0,064	-0,074
-139,702	149,572	-0,027	0,026
-138,687	172,706	0,044	-0,045
-137,672	-200,000	-0,011	0,070
-136,658	-7,190	-0,068	0,032
-135,643	-92,518	0,041	0,008
-134,629	44,642	0,011	0,007
-133,614	-200,000	-0,018	-0,061
-132,599	800,000	-0,030	-0,083
-131,585	64,858	-0,080	0,057
-130,570	14,407	0,063	0,035
-129,556	-200,000	0,006	0,062
-128,541	-200,000	-0,003	-0,018
-127,526	-27,411	-0,114	0,047
-126,512	148,928	0,034	-0,033
-125,497	-200,000	-0,005	-0,037
-124,483	156,937	-0,088	-0,086
-123,468	207,135	0,125	-0,138
-122,453	-16,678	-0,130	-0,058
-121,439	185,451	0,005	-0,005
-120,424	33,366	-0,086	0,053
-119,410	623,538	0,082	0,148
-118,395	50,981	0,014	-0,009
-117,380	-200,000	0,022	0,109
-116,366	48,267	0,143	-0,094
-115,351	284,572	-0,053	-0,068
-114,337	-174,104	0,027	-0,001
-113,322	-7,305	-0,115	-0,055
-112,307	-47,770	0,121	-0,041
-111,293	339,091	-0,026	-0,036
-110,278	508,283	0,019	-0,031
-109,264	-200,000	0,011	0,111
-108,249	-200,000	0,005	0,064
-107,234	81,003	0,027	0,020
-106,220	800,000	0,066	-0,147
-105,205	-33,629	0,127	0,049
-104,191	-200,000	-0,006	0,109
-103,176	119,555	-0,094	0,083
-102,162	513,195	0,172	0,286
-101,147	-98,360	-0,036	-0,006
-100,132	-200,000	-0,013	-0,046
-99,118	-124,671	-0,045	0,005
-98,103	-127,522	0,076	-0,008
-97,089	370,533	-0,022	-0,032
-96,074	-200,000	0,010	-0,070
-95,059	-18,151	0,045	0,020
-94,045	-200,000	0,019	0,070
-93,030	287,775	-0,032	-0,041
-92,016	-120,321	0,081	-0,010
-91,001	-200,000	0,028	0,124
-89,986	-200,000	0,021	0,120
-88,972	-200,000	0,002	0,026
-87,957	-7,084	0,076	-0,037
-86,943	588,548	-0,044	0,078
-85,928	540,871	0,039	-0,067
-84,913	197,396	0,022	-0,023
-83,899	132,226	-0,019	0,017
-82,884	85,073	0,024	-0,019
-81,870	-172,867	0,070	-0,002
-80,855	6,197	-0,108	0,057
-79,840	-105,491	-0,196	-0,031
-78,826	-200,000	0,004	0,028
-77,811	800,000	0,022	0,048
-76,797	214,851	0,143	0,161
-75,782	117,350	0,061	0,053
-74,767	800,000	0,056	0,176
-73,753	-157,850	0,123	-0,005
-72,738	-36,234	0,098	-0,037
-71,724	279,405	-0,068	-0,086
-70,709	785,235	-0,032	-0,062
-69,694	800,000	0,035	-0,071
-68,680	-200,000	-0,026	0,172
-67,665	800,000	0,049	0,115
-66,651	-60,474	-0,101	-0,030
-65,636	-86,707	-0,042	-0,009
-64,622	-112,281	-0,130	-0,018
-63,607	-12,956	0,065	-0,030
-62,592	-200,000	0,006	-0,083
-61,578	320,890	0,041	-0,056
-60,563	800,000	-0,031	0,067
-59,549	800,000	-0,009	-0,020
-58,534	-34,769	-1,656	-0,637
-57,519	415,985	-1,302	-1,971
-56,505	-200,000	-0,453	-4,413
-55,490	318,407	1,015	1,364
-54,476	800,000	4,845	11,055
-53,461	-200,000	19,327	320,905
-52,446	-200,000	742,151	2331,609
-51,432	571,341	1655,581	2863,296
-50,417	77,798	1670,558	1258,157
-49,403	21,032	1543,764	883,559
-48,388	14,930	1466,254	809,537
-47,373	17,973	1456,345	818,730
-46,359	16,563	1446,205	806,241
-45,344	13,139	1441,790	787,354
-44,330	13,028	1439,878	785,748
-43,315	13,088	1438,024	784,989
-42,300	13,074	1436,362	783,986
-41,286	13,090	1435,210	783,402
-40,271	13,093	1433,815	782,623
-39,257	13,041	1432,292	781,513
-38,242	13,123	1431,106	781,225
-37,227	13,107	1429,996	780,514
-36,213	13,140	1428,619	779,885
-35,198	13,133	1427,241	779,069
-34,184	13,161	1426,444	778,735
-33,169	13,075	1425,101	777,567
-32,154	13,122	1424,184	777,254
-31,140	13,153	1422,871	776,656
-30,125	13,190	1421,702	776,162
-29,111	13,172	1420,797	775,550
-28,096	13,204	1419,458	774,943
-27,082	13,095	1418,518	773,882
-26,067	13,091	1417,142	773,083
-25,052	13,107	1416,113	772,567
-24,038	13,056	1415,221	771,806
-23,023	13,064	1414,073	771,188
-22,009	13,089	1413,143	770,767
-20,994	13,010	1412,508	770,021
-19,979	13,046	1411,512	769,617
-18,965	13,037	1410,676	769,089
-17,950	13,039	1409,525	768,440
-16,936	13,041	1408,721	767,979
-15,921	12,975	1407,559	767,009
-14,906	12,958	1406,912	766,543
-13,892	12,993	1405,652	765,991
-12,877	12,959	1404,997	765,443
-11,863	12,982	1403,967	764,964
-10,848	12,971	1403,159	764,441
-9,833	12,928	1402,304	763,742
-8,819	12,929	1401,400	763,227
-7,804	12,860	1400,543	762,408
-6,790	12,892	1399,615	762,022
-5,775	12,884	1398,457	761,324
-4,760	12,883	1397,457	760,744
-3,746	12,900	1396,525	760,285
-2,731	12,876	1395,752	759,721
-1,717	12,810	1394,966	758,960
-0,702	12,831	1393,109	758,015
0,313	16,912	1309,387	731,278
1,327	33,489	702,510	430,559
2,342	51,942	122,926	82,626
3,356	2,669	16,596	8,478
4,371	6,750	3,285	1,723
5,386	1,353	0,629	0,319
6,400	800,000	0,123	0,330
7,415	-9,667	-0,111	0,052
8,429	178,101	-0,260	-0,268
9,444	-17,031	-0,314	-0,139
10,459	35,336	-0,349	-0,216
11,473	256,382	-0,172	-0,209
12,488	27,437	-0,234	-0,138
13,502	-55,846	-0,311	-0,098
14,517	22,148	-0,404	-0,233
15,531	-50,527	-0,438	-0,145
16,546	99,900	-0,280	-0,229
17,561	276,559	-0,255	-0,320
18,575	323,222	-0,204	-0,276
19,590	210,940	-0,189	-0,210
20,604	-91,882	-0,357	-0,071
21,619	49,199	-0,487	-0,323
22,634	110,124	-0,404	-0,342
23,648	87,855	-0,365	-0,285
24,663	77,950	-0,350	-0,263
25,677	293,299	-0,279	-0,360
26,692	40,912	-0,315	-0,200
27,707	60,033	-0,304	-0,212
28,721	70,722	-0,276	-0,202
29,736	-0,405	-0,427	-0,213
30,750	-7,055	-0,405	-0,193
31,765	142,048	-0,299	-0,280
32,780	179,049	-0,240	-0,248
33,794	49,314	-0,324	-0,215
34,809	-23,203	-0,382	-0,162
35,823	5,672	-0,535	-0,278
36,838	75,175	-0,353	-0,262
37,853	169,297	-0,328	-0,330
38,867	163,116	-0,329	-0,326
39,882	56,034	-0,409	-0,280
40,896	17,695	-0,328	-0,184
41,911	92,987	-0,286	-0,227
42,926	124,263	-0,268	-0,237
43,940	32,062	-0,441	-0,267
44,955	33,094	-0,462	-0,282
45,969	131,612	-0,313	-0,283
46,984	53,402	-0,414	-0,279
47,999	165,628	-0,236	-0,235
49,013	28,356	-0,401	-0,238
50,028	248,821	-0,248	-0,296
51,042	153,400	-0,284	-0,274
52,057	68,915	-0,232	-0,168
53,071	277,622	-0,255	-0,320
54,086	118,610	-0,314	-0,272
55,101	27,861	-0,317	-0,188
56,115	218,219	-0,276	-0,311
57,130	-18,936	-0,299	-0,131
58,144	257,783	-0,343	-0,416
59,159	21,120	-0,450	-0,256
60,174	139,245	-0,370	-0,343
61,188	131,694	-0,295	-0,267
62,203	25,917	-0,451	-0,264
63,217	124,023	-0,287	-0,254
64,232	54,217	-0,305	-0,206
65,247	7,022	-0,315	-0,165
66,261	307,854	-0,273	-0,359
67,276	45,932	-0,379	-0,246
68,290	116,143	-0,207	-0,179
69,305	-123,849	-0,270	-0,030
70,320	-45,580	-0,347	-0,120
71,334	-11,814	-0,386	-0,177
72,349	55,578	-0,345	-0,235
73,363	58,064	-0,334	-0,230
74,378	8,915	-0,388	-0,205
75,393	109,486	-0,192	-0,162
76,407	199,095	-0,205	-0,221
77,422	1,027	-0,348	-0,175
78,436	-21,969	-0,305	-0,130
79,451	12,459	-0,265	-0,143
80,466	30,960	-0,268	-0,161
81,480	101,874	-0,295	-0,241
82,495	-27,944	-0,462	-0,187
83,509	203,421	-0,214	-0,233
84,524	53,221	-0,250	-0,168
85,539	71,659	-0,369	-0,269
86,553	-65,367	-0,264	-0,074
87,568	45,568	-0,271	-0,175
88,582	82,703	-0,359	-0,273
89,597	281,189	-0,230	-0,290
90,611	232,405	-0,228	-0,263
91,626	6,261	-0,256	-0,133
92,641	-13,670	-0,271	-0,123
93,655	-35,187	-0,280	-0,106
94,670	-15,186	-0,351	-0,157
95,684	57,677	-0,302	-0,207
96,699	-33,215	-0,355	-0,137
97,714	16,039	-0,335	-0,185
98,728	195,722	-0,114	-0,122
99,743	39,283	-0,301	-0,188
100,757	-69,916	-0,275	-0,073
101,772	84,536	-0,321	-0,246
102,787	195,941	-0,184	-0,197
103,801	-1,631	-0,316	-0,156
104,816	1,166	-0,191	-0,096
105,830	-48,354	-0,388	-0,130
106,845	283,961	-0,227	-0,286
107,860	254,599	-0,123	-0,148
108,874	800,000	-0,089	-0,254
109,889	17,396	-0,265	-0,147
110,903	138,974	-0,222	-0,204
111,918	144,630	-0,186	-0,174
112,933	112,815	-0,226	-0,192
113,947	25,519	-0,268	-0,156
114,962	30,559	-0,265	-0,158
115,976	126,887	-0,282	-0,250
116,991	273,014	-0,242	-0,300
118,006	282,615	-0,243	-0,306
119,020	119,226	-0,255	-0,221
120,035	211,829	-0,245	-0,270
121,049	170,996	-0,237	-0,238
122,064	51,945	-0,285	-0,189
123,079	117,924	-0,201	-0,173
124,093	366,508	-0,209	-0,296
125,108	149,896	-0,208	-0,198
126,122	75,036	-0,294	-0,217
127,137	66,252	-0,270	-0,192
128,151	131,420	-0,307	-0,276
129,166	27,005	-0,320	-0,187
130,181	-15,406	-0,303	-0,135
131,195	350,608	-0,224	-0,311
132,210	124,214	-0,286	-0,251
133,224	145,647	-0,263	-0,246
134,239	-131,727	-0,190	0,017
135,254	77,396	-0,144	-0,107
136,268	363,101	-0,186	-0,262
137,283	2,705	-0,294	-0,149
138,297	158,422	-0,252	-0,245
139,312	200,658	-0,257	-0,276
140,327	230,410	-0,093	-0,106
141,341	-132,010	-0,221	-0,020
142,356	155,858	-0,211	-0,203
143,370	-8,903	-0,288	-0,134
144,385	339,509	-0,081	-0,111
145,400	-17,510	-0,321	-0,140
146,414	214,028	-0,273	-0,302
147,429	3,876	-0,238	-0,121
148,443	-33,117	-0,266	-0,103
149,458	50,789	-0,119	-0,079
150,473	-16,944	-0,272	-0,120
151,487	482,286	-0,116	-0,185
152,502	-35,698	-0,294	-0,111
153,516	36,656	-0,418	-0,257
154,531	305,010	-0,127	-0,164
155,546	187,829	-0,316	-0,329
156,560	105,267	-0,258	-0,213
157,575	-119,269	-0,143	-0,017
158,589	317,622	-0,171	-0,226
159,604	29,193	-0,289	-0,170
160,619	-41,538	-0,268	-0,096
161,633	8,813	-0,345	-0,181
162,648	195,954	-0,181	-0,192
163,662	-86,275	-0,300	-0,064
164,677	7,468	-0,257	-0,134
165,692	195,703	-0,083	-0,089
166,706	33,516	-0,226	-0,137
167,721	124,597	-0,163	-0,143
168,735	40,696	-0,296	-0,186
169,750	28,434	-0,188	-0,111
170,764	492,042	-0,159	-0,254
171,779	-56,374	-0,196	-0,060
172,794	128,337	-0,194	-0,172
173,808	800,000	-0,104	-0,237
174,823	115,995	-0,250	-0,213
175,837	259,849	-0,232	-0,279
176,852	13,494	-0,213	-0,115
177,867	84,962	-0,269	-0,205
178,881	151,046	-0,159	-0,150
179,896	663,665	-0,105	-0,190
180,910	-81,999	-0,153	-0,035
181,925	142,611	-0,186	-0,172
182,940	800,000	-0,137	-0,374
183,954	151,401	-0,228	-0,216
184,969	153,233	-0,121	-0,115
185,983	-111,980	-0,234	-0,032
186,998	-136,630	-0,263	-0,021
188,013	116,326	-0,153	-0,130
189,027	105,096	-0,236	-0,194
190,042	-11,355	-0,379	-0,173
191,056	93,455	-0,204	-0,160
192,071	39,026	-0,243	-0,151
193,086	167,161	-0,145	-0,143
194,100	800,000	-0,151	-0,293
195,115	4,482	-0,300	-0,153
196,129	-89,882	-0,376	-0,076
197,144	152,201	-0,210	-0,200
198,159	273,178	-0,203	-0,250
199,173	32,377	-0,193	-0,116
200,188	122,890	-0,143	-0,124
201,202	106,041	-0,193	-0,159
202,217	-84,355	-0,178	-0,039
203,232	748,418	-0,177	-0,332
204,246	219,880	-0,198	-0,221
205,261	-69,164	-0,245	-0,065
206,275	-7,421	-0,145	-0,068
207,290	8,392	-0,152	-0,079
208,304	19,175	-0,164	-0,091
209,319	19,732	-0,201	-0,112
210,334	-36,280	-0,219	-0,082
211,348	48,874	-0,103	-0,067
212,363	-28,165	-0,285	-0,114
213,377	-13,380	-0,181	-0,081
214,392	42,000	-0,156	-0,098
215,407	50,078	-0,236	-0,154
216,421	761,788	-0,108	-0,204
217,436	504,339	-0,097	-0,157
218,450	-69,059	-0,179	-0,048
219,465	182,137	-0,159	-0,163
220,480	800,000	-0,172	-0,342
221,494	49,035	-0,266	-0,173
222,509	-163,512	-0,057	-0,002
223,523	432,250	-0,123	-0,186
224,538	-66,674	-0,149	-0,041
225,553	131,068	-0,270	-0,240
226,567	124,159	-0,183	-0,160
227,582	-70,572	-0,168	-0,044
228,596	247,758	-0,118	-0,139
229,611	112,628	-0,187	-0,157
230,626	-26,285	-0,221	-0,090
231,640	-94,803	-0,260	-0,048
232,655	218,763	-0,167	-0,185
233,669	-48,384	-0,279	-0,092
234,684	128,728	-0,063	-0,055
235,699	30,285	-0,217	-0,128
236,713	202,509	-0,121	-0,130
237,728	87,457	-0,177	-0,136
238,742	-200,000	-0,028	0,093
239,757	-80,210	-0,167	-0,038
240,772	241,655	-0,213	-0,247
241,786	-200,000	-0,054	-0,169
242,801	-66,822	-0,110	-0,030
243,815	56,378	-0,174	-0,117
244,830	-109,302	-0,256	-0,037
245,844	145,209	-0,140	-0,130
246,859	-52,263	-0,126	0,040
247,874	54,799	-0,207	-0,138
248,888	439,931	-0,153	-0,232
249,903	70,949	-0,202	-0,144
250,917	494,491	-0,132	-0,210
251,932	-23,264	-0,187	-0,078
252,947	-74,447	-0,133	-0,033
253,961	-45,352	-0,282	-0,096
254,976	-12,264	-0,199	-0,090
255,990	367,070	-0,182	-0,255
257,005	73,646	-0,138	-0,100
258,020	-143,081	-0,200	0,013
259,034	9,319	-0,109	0,057
260,049	240,006	-0,067	-0,077
261,063	-61,228	-0,247	-0,072
262,078	147,005	-0,135	-0,126
263,093	800,000	-0,123	-0,252
264,107	207,966	-0,110	-0,118
265,122	-96,810	-0,142	-0,026
266,136	-200,000	-0,055	-0,202
267,151	51,576	-0,194	0,127
268,166	-50,429	-0,164	-0,053
269,180	-3,992	-0,216	-0,103
270,195	-66,093	-0,170	-0,046
271,209	109,161	-0,079	-0,066
272,224	800,000	-0,099	-0,246
273,239	7,240	-0,147	-0,076
274,253	-106,390	-0,240	0,037
275,268	-169,454	-0,183	0,005
276,282	-85,393	-0,197	-0,042
277,297	-88,772	-0,141	-0,029
278,312	800,000	-0,097	-0,230
279,326	91,506	-0,114	-0,088
280,341	36,651	-0,110	-0,067
281,355	-18,639	-0,057	-0,024
282,370	139,010	-0,191	-0,173
283,384	1,516	-0,155	-0,077
284,399	221,511	-0,129	-0,143
285,414	0,052	-0,222	-0,109
286,428	-200,000	0,012	-0,193
287,443	23,212	-0,214	-0,121
288,457	324,683	-0,162	-0,214
289,472	-163,437	-0,232	-0,007
290,487	209,201	-0,202	-0,219
291,501	87,364	-0,204	-0,156
292,516	579,058	-0,188	-0,319
293,530	-146,360	-0,155	0,009
294,545	-200,000	-0,039	-0,131
295,560	279,974	-0,080	-0,099
296,574	800,000	-0,078	-0,194
297,589	105,579	-0,116	-0,094
298,603	745,441	-0,167	-0,312
299,618	-113,596	-0,182	0,024
300,633	59,218	-0,125	-0,084
301,647	97,427	-0,114	-0,090
302,662	385,072	-0,033	-0,047
303,676	-189,316	-0,165	-0,001
304,691	335,207	-0,144	-0,192
305,706	260,507	-0,132	-0,157
306,720	48,820	-0,155	-0,100
307,735	-200,000	-0,009	-0,185
308,749	-200,000	-0,027	-0,230
309,764	-22,498	-0,164	-0,068
310,779	-141,172	-0,119	-0,008
311,793	-81,507	-0,128	-0,029
312,808	39,724	-0,156	-0,096
313,822	-58,553	-0,204	-0,060
314,837	59,961	-0,145	-0,099
315,852	800,000	-0,071	-0,150
316,866	29,380	-0,115	-0,067
317,881	800,000	-0,078	-0,199
318,895	380,060	-0,135	-0,191
319,910	-200,000	-0,023	-0,181
320,925	-33,846	-0,288	-0,109
321,939	235,424	-0,135	-0,154
322,954	47,100	-0,223	-0,143
323,968	21,308	0,035	0,020
324,983	217,833	-0,051	0,056
325,997	-74,408	-0,165	-0,040
327,012	235,609	-0,204	-0,232
328,027	-109,238	-0,153	-0,022
329,041	-86,357	-0,134	0,028
330,056	337,371	-0,063	0,084
331,070	61,380	-0,081	-0,055
332,085	139,537	-0,113	-0,102
333,100	91,352	-0,174	-0,134
334,114	62,890	-0,200	-0,137
335,129	-6,090	-0,292	-0,137
336,143	193,068	-0,125	-0,130
337,158	-4,196	-0,139	-0,066
338,173	108,877	-0,102	-0,084
339,187	800,000	0,006	-0,018
340,202	339,144	-0,180	-0,241
341,216	267,405	-0,083	-0,100
342,231	27,453	-0,114	-0,066
343,246	91,629	-0,064	-0,049
344,260	72,697	-0,124	-0,088
345,275	-200,000	-0,010	0,043
346,289	-108,650	-0,099	-0,014
347,304	52,263	-0,115	-0,075
348,319	44,824	-0,134	-0,084
349,333	350,291	-0,159	-0,216
350,348	800,000	-0,083	-0,200
351,362	-86,899	-0,183	-0,038
352,377	497,766	-0,052	-0,083
353,392	254,695	-0,079	-0,092
354,406	172,526	-0,079	-0,078
355,421	208,366	1316,671	1412,873
356,435	160,324	1477,626	1413,355
