DTS Sentinel unit serial number:	SN410029Multiplexer serial number:	ORYXHardware model number:	OX2-SRSoftware version number:	ORYX F/W v4,00 Oryx Data Collector v3.7.2.0data status	okinstallation	B3 Nyhavnadifferential loss correction	single-endedforward channel	channel 1reverse channel	N/Adate	2023/12/03time	15:17:30forward acquisition time	300,00reverse acquisition time	0,00gamma	499,1914k internal	0,3196k external	0,3196temperature offset calibration	1,0000default loss term (dB/km)	0,3820temperature slope calibration	1,0000multiplexer offset coefficient	1,0000multiplexer slope coefficient	1,0000fibre end	0,00T internal ref (°C)	15,82T ext. ref 1 (°C)	0,54T ext. ref 2 (°C)	0,54length (m)	temperature (°C)	Stokes	anti-Stokes-744,400	401,611	-0,095	-0,146
-743,385	-200,000	-0,024	0,235
-742,371	800,000	-0,057	-0,161
-741,356	-200,000	0,011	0,330
-740,342	375,284	-0,205	-0,305
-739,327	239,821	0,174	0,211
-738,312	276,363	-0,205	-0,266
-737,298	-200,000	-0,015	0,324
-736,283	530,273	-0,091	-0,158
-735,269	-200,000	0,030	0,414
-734,254	-30,403	-0,232	-0,095
-733,239	162,641	-0,107	0,110
-732,225	89,541	-0,110	-0,090
-731,210	-152,012	0,141	0,007
-730,196	396,209	-0,040	-0,061
-729,181	-200,000	-0,012	0,099
-728,167	6,035	0,055	-0,030
-727,152	366,298	0,093	0,137
-726,137	-133,976	0,033	0,003
-725,123	-46,243	0,054	-0,019
-724,108	800,000	-0,024	0,074
-723,094	-4,282	-0,075	0,038
-722,079	-107,663	-0,039	-0,006
-721,064	800,000	0,027	-0,073
-720,050	-75,877	-0,048	-0,012
-719,035	-3,935	-0,047	-0,024
-718,021	295,395	-0,066	-0,089
-717,006	10,012	-0,229	-0,126
-715,991	-200,000	-0,002	-0,096
-714,977	163,178	-0,099	0,102
-713,962	88,645	-0,049	-0,040
-712,948	-70,865	0,047	0,013
-711,933	800,000	-0,018	0,045
-710,918	-61,647	-0,040	-0,012
-709,904	-200,000	0,003	-0,072
-708,889	-29,565	-0,193	-0,080
-707,875	-200,000	-0,019	-0,090
-706,860	-21,143	-0,056	-0,025
-705,845	-86,251	0,068	-0,015
-704,831	-77,029	-0,046	0,012
-703,816	241,199	0,025	-0,030
-702,802	-3,207	-0,088	-0,045
-701,787	112,175	-0,048	-0,042
-700,772	156,073	0,045	-0,045
-699,758	800,000	0,038	-0,077
-698,743	758,546	-0,006	0,013
-697,729	484,382	-0,070	0,116
-696,714	175,292	-0,084	0,088
-695,699	800,000	0,054	-0,121
-694,685	131,101	0,069	-0,065
-693,670	29,982	0,009	0,005
-692,656	-75,119	-0,038	0,010
-691,641	-6,637	-0,055	-0,027
-690,627	140,251	0,060	-0,058
-689,612	71,814	0,089	-0,067
-688,597	-200,000	-0,043	-0,151
-687,583	-200,000	0,025	0,134
-686,568	340,661	-0,076	-0,109
-685,554	258,768	-0,041	-0,051
-684,539	-68,014	0,050	0,014
-683,524	10,942	-0,138	0,076
-682,510	-200,000	0,004	-0,026
-681,495	-9,136	0,067	-0,032
-680,481	-200,000	-0,002	-0,073
-679,466	-200,000	-0,005	-0,087
-678,451	-200,000	0,019	0,111
-677,437	-92,302	-0,074	-0,015
-676,422	-200,000	-0,034	0,113
-675,408	-72,154	-0,130	0,035
-674,393	231,701	0,087	-0,104
-673,378	-67,595	-0,190	-0,054
-672,364	137,125	-0,112	-0,107
-671,349	-200,000	-0,043	-0,186
-670,335	-41,584	-0,130	0,048
-669,320	-114,398	0,052	-0,007
-668,305	-200,000	0,005	-0,069
-667,291	20,390	0,044	-0,026
-666,276	-200,000	-0,015	0,138
-665,262	299,876	-0,015	0,021
-664,247	-164,370	0,074	0,002
-663,232	-200,000	0,008	-0,033
-662,218	-200,000	-0,019	-0,134
-661,203	-200,000	-0,002	0,036
-660,189	800,000	0,060	0,160
-659,174	800,000	-0,006	-0,014
-658,159	-8,584	0,014	-0,007
-657,145	-51,721	-0,113	0,038
-656,130	37,093	-0,023	-0,015
-655,116	101,059	-0,100	0,084
-654,101	-77,753	0,094	0,023
-653,086	-183,419	0,068	-0,001
-652,072	-200,000	-0,001	-0,018
-651,057	570,836	0,030	0,053
-650,043	800,000	0,032	-0,093
-649,028	296,632	-0,023	0,031
-648,014	-200,000	0,031	0,112
-646,999	-35,632	0,117	0,046
-645,984	155,794	0,003	0,003
-644,970	-200,000	0,005	0,020
-643,955	141,492	-0,125	-0,121
-642,941	-200,000	0,027	-0,111
-641,926	-104,028	-0,114	-0,019
-640,911	800,000	-0,012	-0,029
-639,897	800,000	0,058	0,132
-638,882	-200,000	0,007	-0,029
-637,868	800,000	-0,021	0,055
-636,853	272,546	0,044	0,056
-635,838	198,716	-0,095	-0,106
-634,824	-103,652	-0,110	-0,019
-633,809	-72,996	0,016	-0,004
-632,795	-156,310	0,207	-0,009
-631,780	-183,505	0,179	0,002
-630,765	-200,000	-0,006	-0,056
-629,751	-107,539	0,093	-0,015
-628,736	-76,471	-0,157	-0,040
-627,722	-200,000	-0,008	-0,053
-626,707	-200,000	-0,006	-0,032
-625,692	-110,458	0,043	-0,006
-624,678	40,949	-0,129	0,084
-623,663	-200,000	-0,011	0,053
-622,649	-200,000	0,005	0,153
-621,634	542,517	-0,047	-0,081
-620,619	178,392	-0,080	-0,085
-619,605	69,391	-0,118	-0,088
-618,590	-87,576	0,131	-0,028
-617,576	-200,000	0,002	0,092
-616,561	-200,000	0,016	-0,153
-615,546	-48,415	0,099	-0,034
-614,532	-41,014	-0,217	-0,081
-613,517	211,959	0,025	-0,029
-612,503	148,823	0,055	-0,054
-611,488	800,000	0,041	0,097
-610,474	-139,352	-0,042	-0,003
-609,459	188,764	0,029	0,031
-608,444	-14,016	-0,068	-0,032
-607,430	85,228	-0,196	-0,156
-606,415	124,204	-0,071	-0,065
-605,401	-94,326	0,054	-0,011
-604,386	84,310	0,039	-0,031
-603,371	-200,000	0,008	-0,032
-602,357	-144,685	-0,101	0,007
-601,342	37,237	-0,061	0,039
-600,328	86,557	-0,149	0,119
-599,313	800,000	0,009	-0,024
-598,298	605,457	-0,075	-0,136
-597,284	800,000	-0,042	0,088
-596,269	-200,000	0,007	0,135
-595,255	-0,422	-0,147	-0,075
-594,240	-46,047	-0,056	-0,020
-593,225	68,954	0,034	0,026
-592,211	800,000	0,062	-0,148
-591,196	-108,781	0,092	-0,014
-590,182	-85,528	0,152	0,034
-589,167	-46,917	0,082	0,029
-588,152	-10,694	0,142	0,068
-587,138	-11,158	-0,102	0,049
-586,123	-44,720	-0,078	-0,028
-585,109	-19,024	-0,193	0,087
-584,094	800,000	-0,057	-0,136
-583,079	147,903	0,051	0,050
-582,065	-200,000	0,015	0,111
-581,050	53,435	0,034	0,024
-580,036	290,853	-0,073	0,096
-579,021	-66,277	-0,125	-0,036
-578,006	-66,602	0,059	-0,017
-576,992	114,702	0,010	-0,009
-575,977	57,687	-0,080	-0,057
-574,963	-63,891	-0,096	0,028
-573,948	745,811	0,064	0,125
-572,934	169,164	0,053	-0,055
-571,919	-200,000	-0,032	-0,134
-570,904	800,000	0,024	0,052
-569,890	208,948	0,055	0,063
-568,875	-200,000	-0,042	0,145
-567,861	138,678	0,066	0,063
-566,846	-21,228	0,107	0,047
-565,831	45,612	0,051	-0,034
-564,817	800,000	0,017	0,049
-563,802	141,393	-0,059	0,057
-562,788	-195,490	0,120	-0,001
-561,773	-200,000	-0,019	-0,145
-560,758	141,897	-0,085	-0,081
-559,744	43,972	0,116	-0,077
-558,729	-200,000	0,033	-0,150
-557,715	164,609	-0,080	-0,081
-556,700	10,909	-0,225	-0,124
-555,685	-2,805	-0,030	-0,015
-554,671	13,251	0,092	-0,051
-553,656	162,597	-0,108	-0,110
-552,642	317,504	0,041	0,056
-551,627	800,000	0,042	-0,086
-550,612	-11,321	0,067	-0,032
-549,598	-200,000	-0,015	0,064
-548,583	-200,000	-0,017	-0,067
-547,569	12,840	-0,028	-0,016
-546,554	207,233	-0,093	0,105
-545,539	59,633	0,039	-0,028
-544,525	466,082	0,009	-0,014
-543,510	-200,000	0,040	-0,171
-542,496	800,000	-0,106	-0,223
-541,481	-200,000	-0,010	-0,096
-540,466	-200,000	-0,033	-0,141
-539,452	504,721	-0,043	-0,073
-538,437	800,000	0,064	0,135
-537,423	235,592	0,047	-0,056
-536,408	350,914	0,014	-0,020
-535,393	47,297	-0,091	0,061
-534,379	526,692	-0,031	0,052
-533,364	-14,035	-0,166	-0,077
-532,350	98,162	-0,044	0,037
-531,335	-129,714	0,035	0,003
-530,321	418,319	0,018	0,028
-529,306	42,549	-0,081	-0,053
-528,291	103,150	0,051	0,043
-527,277	123,621	0,035	0,032
-526,262	299,303	-0,066	-0,088
-525,248	800,000	0,061	-0,148
-524,233	-200,000	-0,024	0,158
-523,218	185,451	-0,045	-0,048
-522,204	63,026	-0,060	0,043
-521,189	-200,000	0,006	-0,065
-520,175	263,529	0,020	0,025
-519,160	17,959	-0,086	-0,049
-518,145	-200,000	0,032	-0,146
-517,131	-33,150	0,088	0,035
-516,116	292,152	-0,046	0,061
-515,102	-0,759	0,064	0,033
-514,087	800,000	-0,027	-0,074
-513,072	800,000	-0,018	0,044
-512,058	-200,000	-0,007	-0,055
-511,043	-200,000	0,035	0,132
-510,029	89,102	0,065	0,053
-509,014	557,766	0,033	0,057
-507,999	-200,000	-0,000	-0,045
-506,985	800,000	0,022	0,069
-505,970	-34,470	-0,054	0,021
-504,956	42,890	-0,067	-0,044
-503,941	800,000	-0,047	0,099
-502,926	196,927	-0,076	0,084
-501,912	-200,000	-0,021	-0,141
-500,897	-146,498	-0,043	-0,003
-499,883	-113,614	-0,067	0,009
-498,868	800,000	0,052	-0,123
-497,853	-70,387	0,042	-0,011
-496,839	-101,757	0,060	-0,010
-495,824	518,645	-0,019	-0,032
-494,810	287,771	-0,089	0,116
-493,795	-47,735	0,118	0,041
-492,781	67,054	0,030	-0,022
-491,766	62,239	-0,071	-0,051
-490,751	800,000	-0,020	-0,052
-489,737	195,537	0,053	0,058
-488,722	-36,110	-0,102	0,039
-487,708	413,072	0,091	-0,140
-486,693	240,837	0,035	0,043
-485,678	111,929	0,097	-0,084
-484,664	-98,698	-0,024	0,004
-483,649	-200,000	0,018	-0,080
-482,635	-200,000	0,015	-0,053
-481,620	488,808	-0,004	-0,007
-480,605	770,674	0,056	-0,110
-479,591	290,048	0,037	-0,048
-478,576	222,544	0,047	0,055
-477,562	-200,000	0,012	0,100
-476,547	-54,184	0,069	0,023
-475,532	-42,799	-0,093	0,034
-474,518	-200,000	0,010	0,158
-473,503	-48,922	0,030	0,010
-472,489	-95,609	-0,017	-0,003
-471,474	13,106	0,030	0,017
-470,459	337,192	0,017	-0,024
-469,445	-200,000	0,000	0,039
-468,430	121,954	-0,035	-0,031
-467,416	224,284	-0,065	-0,076
-466,401	-142,184	0,177	0,012
-465,386	-200,000	0,017	-0,072
-464,372	800,000	0,029	-0,084
-463,357	-200,000	0,015	-0,095
-462,343	-173,715	-0,063	0,001
-461,328	-20,076	0,041	0,018
-460,313	-200,000	0,005	0,156
-459,299	800,000	-0,031	-0,089
-458,284	-143,781	0,048	-0,003
-457,270	-200,000	0,007	0,198
-456,255	305,079	-0,040	-0,053
-455,241	-135,903	-0,146	0,012
-454,226	14,796	-0,197	-0,111
-453,211	46,589	0,109	0,073
-452,197	-200,000	-0,002	0,009
-451,182	104,155	0,159	0,134
-450,168	15,865	0,045	0,025
-449,153	306,372	0,087	0,117
-448,138	-97,092	-0,040	0,007
-447,124	-50,750	0,040	-0,013
-446,109	317,171	-0,111	-0,151
-445,095	52,155	0,079	-0,054
-444,080	222,556	0,071	0,082
-443,065	115,974	-0,030	0,026
-442,051	-59,493	-0,064	-0,020
-441,036	800,000	0,028	0,081
-440,022	411,556	0,077	0,118
-439,007	42,631	0,058	-0,038
-437,992	372,428	-0,044	0,065
-436,978	-200,000	0,033	0,116
-435,963	327,577	-0,101	0,139
-434,949	-88,983	0,085	-0,018
-433,934	47,536	-0,070	-0,047
-432,919	609,733	0,059	-0,107
-431,905	115,176	-0,103	-0,090
-430,890	610,492	0,044	0,079
-429,876	329,026	0,070	-0,096
-428,861	-83,211	0,155	-0,036
-427,846	70,427	0,090	-0,067
-426,832	79,341	-0,057	0,044
-425,817	800,000	-0,047	-0,103
-424,803	-200,000	0,015	-0,136
-423,788	338,928	0,056	0,079
-422,773	-200,000	-0,005	0,029
-421,759	292,469	-0,017	-0,022
-420,744	-112,968	-0,095	0,013
-419,730	149,081	0,004	-0,004
-418,715	168,942	-0,073	-0,074
-417,701	-162,618	-0,069	0,002
-416,686	29,497	-0,112	0,068
-415,671	-151,092	0,169	0,009
-414,657	35,547	0,175	0,111
-413,642	-143,641	-0,037	0,003
-412,628	33,746	-0,063	0,040
-411,613	-15,468	-0,041	-0,019
-410,598	171,966	-0,088	-0,091
-409,584	-112,831	0,084	-0,012
-408,569	800,000	-0,039	0,079
-407,555	-2,053	0,105	-0,053
-406,540	-200,000	0,006	0,073
-405,525	45,075	0,063	0,042
-404,511	-200,000	0,010	-0,134
-403,496	89,700	0,077	-0,062
-402,482	-200,000	0,043	-0,171
-401,467	-61,869	0,086	0,026
-400,452	633,004	-0,067	0,122
-399,438	33,079	-0,164	0,102
-398,423	771,480	0,021	0,041
-397,409	165,587	-0,059	-0,060
-396,394	-27,071	0,063	-0,026
-395,379	-81,802	-0,106	0,025
-394,365	-27,341	0,102	-0,042
-393,350	800,000	0,039	0,093
-392,336	303,256	-0,059	0,079
-391,321	23,182	0,097	-0,057
-390,306	-200,000	-0,053	-0,185
-389,292	23,596	0,149	0,088
-388,277	0,920	-0,138	-0,071
-387,263	763,991	0,060	0,117
-386,248	-200,000	0,061	0,212
-385,233	-88,907	-0,074	-0,016
-384,219	342,375	-0,099	-0,139
-383,204	800,000	-0,025	-0,065
-382,190	290,123	0,029	-0,037
-381,175	229,402	-0,059	0,070
-380,160	-41,373	0,050	-0,018
-379,146	800,000	0,022	-0,050
-378,131	-200,000	0,012	-0,094
-377,117	-200,000	-0,003	-0,046
-376,102	447,083	-0,031	0,048
-375,088	800,000	-0,012	-0,031
-374,073	745,034	-0,073	0,141
-373,058	148,452	-0,033	0,032
-372,044	-200,000	0,045	0,148
-371,029	88,698	-0,137	0,109
-370,015	781,125	-0,035	0,068
-369,000	-65,635	-0,030	0,009
-367,985	800,000	-0,035	0,089
-366,971	-200,000	-0,002	-0,013
-365,956	423,107	0,057	-0,088
-364,942	-200,000	-0,005	0,031
-363,927	-185,768	0,049	-0,001
-362,912	800,000	0,043	0,118
-361,898	123,976	-0,084	0,076
-360,883	-72,736	-0,062	-0,016
-359,869	389,560	-0,005	-0,008
-358,854	197,046	0,073	0,080
-357,839	-15,212	-0,028	-0,013
-356,825	-27,587	0,194	0,081
-355,810	15,243	0,005	0,003
-354,796	-200,000	-0,014	0,095
-353,781	534,954	-0,063	-0,108
-352,766	114,553	-0,056	0,049
-351,752	-64,568	0,135	0,039
-350,737	-135,972	0,020	-0,002
-349,723	-53,385	0,055	-0,018
-348,708	10,541	-0,070	0,038
-347,693	223,972	-0,081	-0,094
-346,679	592,055	-0,024	-0,043
-345,664	-117,132	-0,171	0,022
-344,650	-200,000	-0,003	-0,020
-343,635	117,301	0,063	0,056
-342,620	238,973	0,071	0,085
-341,606	649,990	-0,019	-0,035
-340,591	-118,159	-0,068	0,009
-339,577	218,525	-0,069	0,080
-338,562	587,109	-0,055	0,098
-337,548	-200,000	-0,013	0,045
-336,533	66,980	0,131	0,095
-335,518	-200,000	-0,016	0,072
-334,504	-107,065	-0,170	-0,027
-333,489	800,000	-0,016	0,042
-332,475	-21,789	0,111	-0,048
-331,460	279,061	-0,052	-0,067
-330,445	-186,675	0,179	0,002
-329,431	237,027	-0,048	0,057
-328,416	-6,830	0,031	-0,015
-327,402	-87,505	0,140	-0,030
-326,387	371,996	0,068	0,099
-325,372	28,180	0,127	0,076
-324,358	18,387	0,129	0,074
-323,343	234,057	0,027	-0,032
-322,329	-200,000	0,023	-0,110
-321,314	-200,000	-0,027	0,189
-320,299	504,007	0,024	0,040
-319,285	11,495	-0,060	-0,033
-318,270	800,000	-0,044	-0,126
-317,256	535,931	-0,053	-0,091
-316,241	229,407	0,056	0,065
-315,226	-200,000	0,024	0,103
-314,212	208,993	0,036	0,040
-313,197	223,584	0,059	0,068
-312,183	-63,064	-0,124	0,037
-311,168	251,242	0,118	-0,144
-310,153	800,000	-0,056	-0,161
-309,139	241,743	-0,061	-0,073
-308,124	234,089	-0,048	0,057
-307,110	-70,528	0,104	0,028
-306,095	-200,000	-0,002	0,038
-305,080	54,428	0,064	0,044
-304,066	-200,000	0,008	-0,103
-303,051	-200,000	0,002	-0,071
-302,037	130,167	-0,103	-0,095
-301,022	-63,987	-0,065	-0,019
-300,008	-39,685	0,176	-0,066
-298,993	-45,616	0,057	-0,020
-297,978	-26,880	0,248	0,103
-296,964	131,784	-0,110	0,102
-295,949	186,912	-0,049	0,053
-294,935	280,547	-0,039	0,050
-293,920	-80,043	0,112	0,027
-292,905	800,000	-0,017	-0,043
-291,891	295,436	0,133	-0,175
-290,876	-95,900	0,102	0,019
-289,862	-110,835	-0,213	0,031
-288,847	-5,892	0,021	0,010
-287,832	-200,000	0,014	-0,195
-286,818	144,762	-0,070	-0,067
-285,803	800,000	-0,023	-0,054
-284,789	-90,194	0,022	-0,005
-283,774	-168,334	0,065	0,002
-282,759	71,476	-0,087	-0,064
-281,745	486,633	-0,040	0,066
-280,730	182,438	-0,085	-0,090
-279,716	-200,000	-0,010	0,079
-278,701	62,503	0,101	-0,072
-277,686	800,000	0,086	0,213
-276,672	-118,093	-0,122	0,015
-275,657	800,000	0,053	0,121
-274,643	-38,962	0,114	0,043
-273,628	224,903	0,035	-0,040
-272,613	149,572	-0,110	-0,106
-271,599	8,719	-0,078	-0,042
-270,584	-200,000	-0,007	0,098
-269,570	264,738	0,078	0,098
-268,555	-200,000	-0,016	0,089
-267,540	-200,000	0,012	0,068
-266,526	-161,872	-0,108	-0,004
-265,511	8,364	-0,107	-0,057
-264,497	452,512	-0,059	0,094
-263,482	157,815	-0,086	0,085
-262,467	308,623	0,016	-0,022
-261,453	28,084	0,132	0,080
-260,438	-17,661	-0,039	0,018
-259,424	-200,000	-0,004	-0,120
-258,409	389,014	0,091	-0,135
-257,395	800,000	-0,008	0,017
-256,380	-186,961	0,132	-0,001
-255,365	-112,595	0,106	-0,015
-254,351	291,159	-0,057	0,074
-253,336	-167,516	-0,219	-0,006
-252,322	352,394	-0,038	0,054
-251,307	-151,769	0,064	-0,003
-250,292	-200,000	-0,019	-0,060
-249,278	17,947	0,046	0,026
-248,263	451,470	-0,084	0,133
-247,249	-200,000	0,009	0,202
-246,234	-9,911	0,122	0,058
-245,219	27,814	0,051	0,031
-244,205	-200,000	-0,080	0,000
-243,190	800,000	-0,032	0,094
-242,176	359,571	-0,095	-0,136
-241,161	1,199	0,133	-0,068
-240,146	146,431	0,074	-0,071
-239,132	350,614	-0,075	-0,106
-238,117	8,696	-0,115	0,062
-237,103	-200,000	0,014	0,061
-236,088	58,109	-0,039	0,027
-235,073	6,684	0,092	-0,049
-234,059	-128,108	0,141	-0,014
-233,044	470,338	0,049	-0,079
-232,030	283,967	0,077	-0,100
-231,015	-11,426	-0,077	0,036
-230,000	-200,000	0,018	-0,096
-228,986	-109,641	-0,084	0,013
-227,971	75,781	0,043	-0,033
-226,957	48,281	0,160	0,107
-225,942	299,002	-0,047	0,063
-224,927	-6,342	-0,033	-0,016
-223,913	67,460	0,035	-0,026
-222,898	-200,000	-0,013	-0,126
-221,884	-43,822	0,074	0,026
-220,869	-200,000	-0,027	-0,106
-219,855	95,954	0,097	0,079
-218,840	800,000	0,057	0,162
-217,825	-61,527	0,096	0,029
-216,811	67,878	0,015	0,011
-215,796	334,508	-0,059	-0,082
-214,782	35,087	-0,069	0,043
-213,767	-156,030	-0,067	-0,003
-212,752	-186,153	0,056	0,001
-211,738	-42,020	0,077	0,028
-210,723	-200,000	-0,032	0,158
-209,709	83,283	0,164	0,127
-208,694	251,027	0,031	0,038
-207,679	420,857	-0,046	-0,071
-206,665	245,659	0,048	-0,058
-205,650	-38,629	0,062	-0,023
-204,636	800,000	-0,017	-0,040
-203,621	17,209	0,077	0,043
-202,606	17,616	-0,068	0,038
-201,592	-200,000	0,002	-0,040
-200,577	684,284	-0,031	-0,059
-199,563	417,668	-0,034	-0,052
-198,548	-71,977	0,123	0,032
-197,533	-200,000	-0,010	0,051
-196,519	52,196	-0,066	0,045
-195,504	143,355	-0,024	-0,022
-194,490	537,984	-0,042	-0,072
-193,475	-81,269	-0,088	0,020
-192,460	800,000	-0,016	-0,036
-191,446	-200,000	0,011	-0,093
-190,431	800,000	-0,048	0,140
-189,417	-144,207	0,093	0,006
-188,402	-200,000	0,015	0,063
-187,387	283,797	0,012	-0,015
-186,373	38,898	-0,138	-0,088
-185,358	-49,438	-0,106	-0,036
-184,344	-200,000	0,014	0,056
-183,329	800,000	0,070	0,173
-182,315	34,265	-0,049	0,031
-181,300	301,374	-0,092	-0,121
-180,285	-140,737	-0,041	0,003
-179,271	-32,987	0,139	0,055
-178,256	-62,605	-0,096	-0,028
-177,242	-53,373	0,107	-0,035
-176,227	-117,323	0,150	-0,019
-175,212	-143,396	0,168	0,011
-174,198	-131,333	0,025	0,002
-173,183	250,002	-0,044	-0,053
-172,169	223,626	-0,022	-0,026
-171,154	-46,087	-0,132	-0,046
-170,139	643,555	-0,045	-0,082
-169,125	36,743	0,090	-0,056
-168,110	143,417	-0,065	0,062
-167,096	800,000	-0,016	0,040
-166,081	-200,000	0,003	-0,164
-165,066	107,188	-0,060	-0,051
-164,052	93,539	-0,052	-0,042
-163,037	-200,000	0,014	-0,065
-162,023	-111,581	-0,045	0,007
-161,008	89,912	-0,040	-0,032
-159,993	116,051	-0,016	0,014
-158,979	-200,000	0,009	0,096
-157,964	578,413	-0,032	0,055
-156,950	-59,952	-0,119	-0,036
-155,935	-128,770	0,155	0,015
-154,920	-200,000	0,027	0,093
-153,906	-12,882	0,028	0,013
-152,891	11,348	-0,095	0,052
-151,877	232,899	-0,031	-0,036
-150,862	-181,542	-0,210	0,003
-149,847	31,810	0,097	-0,059
-148,833	-200,000	0,008	-0,149
-147,818	85,641	0,160	0,125
-146,804	800,000	-0,029	0,087
-145,789	-200,000	0,045	0,181
-144,775	-29,338	0,040	-0,016
-143,760	420,261	-0,036	0,055
-142,745	-200,000	-0,013	0,137
-141,731	-175,904	0,043	0,001
-140,716	652,052	-0,066	0,121
-139,702	644,639	-0,039	0,072
-138,687	148,209	0,074	0,071
-137,672	51,320	-0,043	0,029
-136,658	83,880	0,062	0,048
-135,643	235,462	0,022	0,026
-134,629	-200,000	-0,011	0,050
-133,614	-200,000	-0,004	-0,024
-132,599	-0,141	0,051	0,026
-131,585	-200,000	0,026	0,099
-130,570	-129,271	-0,025	0,002
-129,556	88,685	0,021	-0,016
-128,541	5,646	0,023	-0,012
-127,526	-10,253	-0,069	-0,032
-126,512	31,402	-0,028	-0,017
-125,497	-136,963	0,124	0,010
-124,483	-200,000	-0,012	-0,058
-123,468	-120,061	-0,070	-0,008
-122,453	477,090	-0,039	-0,062
-121,439	-200,000	-0,024	-0,088
-120,424	800,000	-0,050	-0,119
-119,410	-200,000	-0,026	0,083
-118,395	99,191	0,153	0,126
-117,380	-18,416	-0,058	0,026
-116,366	421,650	-0,031	-0,047
-115,351	-200,000	-0,003	0,058
-114,337	37,809	0,147	0,093
-113,322	-200,000	0,004	0,067
-112,307	-111,533	-0,055	-0,008
-111,293	-32,617	0,056	-0,022
-110,278	215,140	0,102	0,115
-109,264	291,618	0,027	0,035
-108,249	35,197	0,099	0,061
-107,234	47,904	-0,058	-0,039
-106,220	-129,783	0,146	-0,014
-105,205	-200,000	-0,006	-0,076
-104,191	-65,922	-0,020	0,006
-103,176	159,324	0,043	0,043
-102,162	800,000	0,015	-0,035
-101,147	201,504	0,058	-0,063
-100,132	800,000	0,102	-0,209
-99,118	475,684	0,060	0,097
-98,103	-200,000	-0,013	0,130
-97,089	-148,703	0,090	0,005
-96,074	-200,000	-0,009	0,029
-95,059	-200,000	0,005	0,026
-94,045	205,731	-0,086	-0,095
-93,030	800,000	-0,061	-0,141
-92,016	10,550	-0,064	-0,034
-91,001	233,498	0,046	0,054
-89,986	-200,000	-0,017	0,059
-88,972	374,557	0,034	0,050
-87,957	206,181	0,018	-0,020
-86,943	800,000	-0,024	-0,075
-85,928	-151,736	0,068	0,003
-84,913	-154,888	-0,139	0,006
-83,899	-200,000	0,019	-0,098
-82,884	-9,143	-0,011	0,005
-81,870	-85,988	0,113	-0,025
-80,855	-200,000	0,016	-0,069
-79,840	-200,000	-0,023	0,124
-78,826	-200,000	0,026	-0,090
-77,811	115,786	-0,167	-0,145
-76,797	-200,000	0,001	-0,093
-75,782	-200,000	0,037	-0,125
-74,767	-194,027	0,062	0,000
-73,753	5,930	0,139	0,073
-72,738	-64,969	-0,082	-0,023
-71,724	-200,000	0,002	-0,120
-70,709	-119,184	-0,103	-0,013
-69,694	-34,522	0,021	-0,008
-68,680	800,000	0,029	-0,063
-67,665	596,476	-0,080	0,142
-66,651	-165,024	0,109	0,003
-65,636	138,798	0,048	0,045
-64,622	-66,389	-0,161	-0,045
-63,607	562,971	0,046	-0,080
-62,592	-200,000	0,012	-0,072
-61,578	10,147	0,035	0,019
-60,563	-200,000	0,013	0,058
-59,549	-47,044	-0,057	-0,020
-58,534	-50,074	-1,482	-0,495
-57,519	365,040	-1,541	-2,208
-56,505	-200,000	-0,558	-4,633
-55,490	193,892	0,945	1,016
-54,476	800,000	4,557	10,935
-53,461	-200,000	17,831	285,060
-52,446	800,000	722,310	2233,941
-51,432	562,628	1637,123	2820,333
-50,417	80,858	1660,294	1268,753
-49,403	23,659	1534,112	893,332
-48,388	17,673	1457,412	819,762
-47,373	18,174	1447,139	816,355
-46,359	17,791	1437,655	809,149
-45,344	15,936	1433,129	797,736
-44,330	15,843	1431,229	796,205
-43,315	15,892	1429,559	795,475
-42,300	15,902	1427,863	794,549
-41,286	15,929	1426,426	793,846
-40,271	15,899	1425,343	793,068
-39,257	15,873	1424,153	792,253
-38,242	15,947	1422,806	791,821
-37,227	15,915	1421,598	790,967
-36,213	15,918	1420,268	790,210
-35,198	15,925	1418,840	789,417
-34,184	15,920	1418,188	788,998
-33,169	15,826	1417,128	787,934
-32,154	15,956	1415,655	787,699
-31,140	15,910	1414,435	786,772
-30,125	15,957	1413,369	786,366
-29,111	15,958	1412,242	785,715
-28,096	15,922	1411,144	784,903
-27,082	15,850	1410,037	783,918
-26,067	15,821	1408,838	783,084
-25,052	15,891	1407,731	782,767
-24,038	15,867	1406,904	782,160
-23,023	15,830	1405,847	781,373
-22,009	15,836	1404,997	780,895
-20,994	15,818	1403,792	780,111
-19,979	15,780	1403,179	779,560
-18,965	15,773	1402,041	778,868
-17,950	15,788	1400,885	778,264
-16,936	15,792	1400,128	777,831
-15,921	15,768	1398,836	776,971
-14,906	15,710	1397,984	776,197
-13,892	15,790	1396,947	775,960
-12,877	15,726	1396,261	775,254
-11,863	15,753	1395,314	774,821
-10,848	15,752	1394,399	774,278
-9,833	15,724	1393,483	773,609
-8,819	15,731	1392,192	772,893
-7,804	15,676	1391,350	772,142
-6,790	15,650	1390,465	771,501
-5,775	15,622	1389,498	770,804
-4,760	15,628	1388,787	770,405
-3,746	15,605	1388,000	769,835
-2,731	15,657	1387,061	769,520
-1,717	15,599	1385,978	768,623
-0,702	15,633	1384,161	767,739
0,313	19,419	1304,527	741,056
1,327	35,636	706,749	439,078
2,342	54,941	125,077	85,453
3,356	5,429	16,438	8,569
4,371	-3,969	3,201	1,567
5,386	-61,993	0,616	0,181
6,400	102,571	0,134	-0,111
7,415	182,556	-0,147	-0,153
8,429	-45,857	-0,237	-0,082
9,444	87,093	-0,321	-0,251
10,459	19,703	-0,275	-0,156
11,473	42,195	-0,392	-0,252
12,488	39,854	-0,228	-0,145
13,502	-55,579	-0,345	-0,109
14,517	-92,356	-0,361	-0,071
15,531	264,070	-0,228	-0,282
16,546	45,874	-0,325	-0,212
17,561	70,920	-0,401	-0,294
18,575	1,858	-0,201	-0,102
19,590	57,552	-0,233	-0,161
20,604	-118,091	-0,283	-0,035
21,619	122,577	-0,370	-0,327
22,634	176,344	-0,359	-0,369
23,648	85,099	-0,378	-0,293
24,663	71,929	-0,390	-0,287
25,677	98,739	-0,308	-0,251
26,692	214,786	-0,266	-0,299
27,707	2,122	-0,352	-0,179
28,721	72,029	-0,261	-0,192
29,736	126,302	-0,396	-0,355
30,750	1,317	-0,486	-0,246
31,765	93,656	-0,433	-0,346
32,780	135,224	-0,364	-0,334
33,794	187,282	-0,363	-0,383
34,809	115,887	-0,420	-0,363
35,823	-25,060	-0,390	-0,163
36,838	75,939	-0,391	-0,292
37,853	56,816	-0,456	-0,313
38,867	66,780	-0,503	-0,361
39,882	11,993	-0,364	-0,197
40,896	123,022	-0,281	-0,249
41,911	-15,104	-0,356	-0,161
42,926	143,322	-0,256	-0,240
43,940	162,789	-0,377	-0,374
44,955	107,654	-0,418	-0,351
45,969	-6,163	-0,314	-0,151
46,984	-7,323	-0,325	-0,155
47,999	800,000	-0,229	-0,461
49,013	800,000	-0,129	-0,291
50,028	17,251	-0,221	-0,124
51,042	-14,151	-0,371	-0,168
52,057	5,284	-0,360	-0,187
53,071	-78,784	-0,421	-0,101
54,086	317,642	-0,204	-0,273
55,101	-50,410	-0,446	-0,148
56,115	12,306	-0,283	-0,153
57,130	9,060	-0,305	-0,162
58,144	143,045	-0,247	-0,232
59,159	5,610	-0,397	-0,206
60,174	-15,825	-0,344	-0,154
61,188	85,696	-0,317	-0,246
62,203	302,843	-0,195	-0,255
63,217	123,157	-0,263	-0,232
64,232	35,163	-0,281	-0,173
65,247	80,116	-0,347	-0,263
66,261	145,350	-0,413	-0,389
67,276	83,608	-0,332	-0,255
68,290	81,318	-0,228	-0,173
69,305	52,662	-0,287	-0,193
70,320	-23,014	-0,379	-0,160
71,334	113,113	-0,277	-0,237
72,349	98,085	-0,377	-0,305
73,363	-69,120	-0,440	-0,118
74,378	-5,577	-0,479	-0,230
75,393	-115,553	-0,379	-0,050
76,407	111,909	-0,243	-0,206
77,422	-108,216	-0,319	-0,048
78,436	-37,218	-0,141	-0,053
79,451	90,107	-0,283	-0,223
80,466	-43,805	-0,333	-0,117
81,480	54,329	-0,316	-0,214
82,495	61,228	-0,363	-0,253
83,509	4,340	-0,367	-0,189
84,524	26,287	-0,372	-0,218
85,539	54,257	-0,296	-0,200
86,553	27,414	-0,263	-0,155
87,568	-62,969	-0,239	-0,069
88,582	-100,136	-0,427	-0,074
89,597	10,218	-0,265	-0,142
90,611	800,000	-0,125	-0,247
91,626	-147,022	-0,240	-0,014
92,641	49,190	-0,234	-0,154
93,655	44,083	-0,338	-0,218
94,670	34,295	-0,354	-0,217
95,684	127,048	-0,288	-0,257
96,699	156,769	-0,311	-0,302
97,714	114,805	-0,325	-0,279
98,728	-2,019	-0,237	-0,117
99,743	-56,752	-0,292	-0,090
100,757	160,942	-0,257	-0,253
101,772	5,570	-0,314	-0,162
102,787	42,595	-0,205	-0,131
103,801	398,472	-0,257	-0,379
104,816	89,181	-0,293	-0,229
105,830	210,514	-0,113	-0,125
106,845	173,391	-0,194	-0,196
107,860	156,137	-0,170	-0,165
108,874	285,953	-0,284	-0,361
109,889	31,923	-0,449	-0,271
110,903	800,000	-0,122	-0,299
111,918	61,926	-0,300	-0,209
112,933	111,133	-0,300	-0,254
113,947	165,446	-0,268	-0,266
114,962	-81,369	-0,238	-0,055
115,976	19,040	-0,209	-0,117
116,991	26,470	-0,202	-0,118
118,006	-29,880	-0,363	-0,144
119,020	309,496	-0,135	-0,177
120,035	-47,744	-0,325	-0,110
121,049	-130,807	-0,238	-0,022
122,064	43,392	-0,124	0,079
123,079	90,109	-0,222	-0,174
124,093	59,438	-0,237	-0,164
125,108	49,603	-0,297	-0,196
126,122	87,807	-0,275	-0,213
127,137	28,908	-0,207	-0,123
128,151	-35,631	-0,088	-0,033
129,166	127,155	-0,231	-0,205
130,181	-52,440	-0,329	-0,106
131,195	33,418	-0,160	-0,097
132,210	180,938	-0,207	-0,213
133,224	395,532	-0,151	-0,221
134,239	57,768	-0,266	-0,182
135,254	-149,627	-0,330	0,018
136,268	-109,125	-0,244	-0,036
137,283	53,088	-0,356	-0,238
138,297	85,988	-0,273	-0,210
139,312	200,041	-0,237	-0,255
140,327	178,777	-0,222	-0,227
141,341	417,248	-0,137	-0,206
142,356	109,899	-0,251	-0,210
143,370	85,659	-0,219	-0,168
144,385	-10,035	-0,216	-0,100
145,400	136,787	-0,308	-0,281
146,414	38,137	-0,388	-0,241
147,429	-26,668	-0,230	-0,094
148,443	74,039	-0,260	-0,191
149,458	14,445	-0,293	-0,160
150,473	4,530	-0,191	-0,098
151,487	-18,656	-0,192	-0,083
152,502	-32,838	-0,176	-0,068
153,516	155,964	-0,239	-0,231
154,531	527,709	-0,169	-0,280
155,546	38,616	-0,237	-0,148
156,560	118,070	-0,139	-0,120
157,575	207,728	-0,123	-0,134
158,589	369,560	-0,137	-0,194
159,604	-71,227	-0,208	-0,054
160,619	-85,588	-0,343	-0,074
161,633	445,566	-0,138	-0,213
162,648	108,762	-0,237	-0,198
163,662	130,100	-0,200	-0,178
164,677	204,700	-0,125	-0,136
165,692	-3,200	-0,249	-0,121
166,706	23,699	-0,305	-0,175
167,721	14,401	-0,306	-0,166
168,735	76,477	-0,219	-0,162
169,750	507,082	-0,168	-0,273
170,764	82,746	-0,253	-0,192
171,779	-44,506	-0,264	-0,092
172,794	203,706	-0,211	-0,229
173,808	72,075	-0,228	-0,166
174,823	45,294	-0,314	-0,202
175,837	161,086	-0,235	-0,229
176,852	153,014	-0,253	-0,242
177,867	-48,897	-0,155	-0,051
178,881	347,341	-0,130	-0,179
179,896	-4,632	-0,167	-0,080
180,910	140,226	-0,206	-0,190
181,925	62,323	-0,243	-0,169
182,940	113,203	-0,287	-0,242
183,954	-46,080	-0,159	0,054
184,969	-47,850	-0,270	-0,091
185,983	-80,941	-0,258	-0,059
186,998	74,733	-0,240	-0,176
188,013	-51,722	-0,387	-0,125
189,027	-112,818	-0,260	-0,036
190,042	98,764	-0,227	-0,182
191,056	113,277	-0,251	-0,212
192,071	333,668	-0,127	-0,172
193,086	78,299	-0,140	-0,104
194,100	-26,441	-0,176	-0,071
195,115	51,536	-0,162	-0,107
196,129	1,030	-0,348	-0,173
197,144	146,101	-0,252	-0,236
198,159	561,288	-0,140	-0,236
199,173	-91,719	-0,234	-0,046
200,188	253,399	-0,133	-0,158
201,202	31,779	-0,212	-0,127
202,217	76,111	-0,165	-0,121
203,232	-51,306	-0,347	-0,112
204,246	204,852	-0,206	-0,223
205,261	449,605	-0,154	-0,237
206,275	-31,962	-0,134	-0,052
207,290	395,043	-0,054	-0,078
208,304	-136,251	-0,223	-0,018
209,319	51,349	-0,150	-0,099
210,334	800,000	-0,148	-0,291
211,348	300,080	-0,071	-0,091
212,363	29,411	-0,288	-0,170
213,377	62,419	-0,238	-0,165
214,392	-135,528	-0,244	-0,020
215,407	-9,154	-0,188	-0,087
216,421	6,829	-0,179	-0,092
217,436	360,207	-0,127	-0,178
218,450	-200,000	-0,044	-0,262
219,465	191,776	-0,144	-0,151
220,480	800,000	-0,107	-0,262
221,494	-45,064	-0,222	-0,076
222,509	11,334	-0,236	-0,125
223,523	7,361	-0,188	-0,097
224,538	-78,640	-0,144	-0,034
225,553	64,949	-0,140	-0,098
226,567	38,512	-0,221	-0,137
227,582	520,659	-0,140	-0,229
228,596	206,936	-0,149	-0,162
229,611	556,632	-0,081	-0,136
230,626	312,130	-0,078	-0,101
231,640	167,146	-0,170	-0,167
232,655	73,591	-0,226	-0,164
233,669	-113,623	-0,171	-0,023
234,684	-79,577	-0,171	-0,040
235,699	155,767	-0,192	-0,184
236,713	-107,991	-0,195	-0,029
237,728	46,880	-0,028	0,018
238,742	465,327	-0,134	-0,209
239,757	109,824	-0,295	-0,245
240,772	266,850	-0,117	-0,142
241,786	15,461	-0,287	-0,156
242,801	174,568	-0,188	-0,189
243,815	-68,140	-0,154	-0,041
244,830	-40,305	-0,162	-0,058
245,844	46,067	-0,190	-0,122
246,859	103,253	-0,211	-0,172
247,874	134,362	-0,197	-0,178
248,888	800,000	-0,131	-0,308
249,903	-30,815	-0,233	-0,091
250,917	41,810	-0,192	-0,120
251,932	111,907	-0,266	-0,223
252,947	800,000	-0,108	-0,250
253,961	290,349	-0,164	-0,207
254,976	-88,014	-0,270	-0,056
255,990	-192,982	-0,209	-0,001
257,005	-28,944	-0,177	-0,070
258,020	-35,003	-0,236	0,089
259,034	-13,461	-0,117	-0,052
260,049	-98,730	-0,219	-0,038
261,063	469,873	-0,108	-0,169
262,078	100,996	-0,274	-0,220
263,093	800,000	-0,151	-0,349
264,107	800,000	-0,068	-0,156
265,122	-143,850	-0,146	-0,009
266,136	446,297	-0,068	-0,105
267,151	-80,572	-0,220	-0,050
268,166	-103,771	-0,110	-0,018
269,180	78,071	-0,241	-0,177
270,195	98,698	-0,176	-0,140
271,209	800,000	-0,158	-0,313
272,224	-64,987	-0,237	-0,066
273,239	-121,443	-0,108	-0,012
274,253	554,297	-0,064	-0,106
275,268	59,916	-0,255	-0,174
276,282	-18,747	-0,390	-0,167
277,297	68,050	-0,220	-0,155
278,312	226,253	-0,044	-0,049
279,326	-112,866	-0,202	-0,027
280,341	-31,560	-0,166	-0,064
281,355	-144,024	-0,207	-0,013
282,370	259,544	-0,102	-0,122
283,384	67,726	-0,243	-0,172
284,399	-97,418	-0,293	-0,052
285,414	-94,195	-0,146	-0,027
286,428	800,000	-0,088	-0,196
287,443	-61,942	-0,196	-0,056
288,457	98,777	-0,068	-0,054
289,472	616,595	-0,079	-0,137
290,487	22,711	-0,099	-0,056
291,501	800,000	-0,129	-0,248
292,516	-200,000	-0,019	-0,188
293,530	-139,578	-0,196	-0,014
294,545	28,813	-0,089	-0,052
295,560	-200,000	-0,017	-0,134
296,574	800,000	-0,020	-0,040
297,589	90,654	-0,155	-0,120
298,603	305,317	-0,131	-0,169
299,618	595,080	-0,136	-0,233
300,633	93,225	-0,224	-0,175
301,647	218,871	-0,144	-0,159
302,662	-11,076	-0,217	-0,098
303,676	-24,351	-0,138	-0,056
304,691	800,000	-0,048	-0,122
305,706	-131,419	-0,073	-0,007
306,720	170,527	-0,158	-0,156
307,735	-200,000	0,003	-0,157
308,749	-47,849	-0,118	-0,039
309,764	48,493	-0,142	0,092
310,779	800,000	-0,054	-0,160
311,793	-200,000	-0,009	-0,029
312,808	800,000	-0,133	-0,264
313,822	38,499	-0,222	-0,136
314,837	-200,000	-0,006	-0,063
315,852	-101,530	-0,071	0,012
316,866	-200,000	0,007	-0,083
317,881	210,770	-0,154	-0,167
318,895	-42,048	-0,212	-0,074
319,910	800,000	-0,078	-0,152
320,925	-94,075	-0,262	-0,049
321,939	11,578	-0,165	-0,087
322,954	-70,554	-0,180	-0,047
323,968	-77,909	-0,031	-0,007
324,983	58,446	-0,130	-0,088
325,997	-20,789	-0,198	-0,083
327,012	-72,819	-0,099	-0,025
328,027	671,741	-0,103	-0,185
329,041	452,549	-0,112	-0,171
330,056	-91,931	-0,116	-0,022
331,070	800,000	-0,069	-0,141
332,085	202,643	-0,061	-0,065
333,100	91,572	-0,116	-0,090
334,114	80,109	-0,226	-0,167
335,129	43,756	-0,170	-0,107
336,143	-97,267	-0,127	-0,023
337,158	-200,000	-0,053	-0,193
338,173	-65,186	-0,123	-0,034
339,187	-126,645	-0,107	0,011
340,202	113,190	-0,235	-0,196
341,216	-44,677	-0,142	-0,048
342,231	65,446	-0,237	-0,165
343,246	67,536	-0,111	-0,078
344,260	260,488	-0,134	-0,160
345,275	-97,907	-0,052	0,009
346,289	9,088	-0,057	0,029
347,304	9,000	-0,178	-0,092
348,319	-91,456	-0,036	-0,007
349,333	800,000	-0,084	-0,194
350,348	309,916	-0,112	-0,145
351,362	114,758	-0,176	-0,147
352,377	-200,000	0,042	-0,190
353,392	204,695	-0,040	0,043
354,406	29,463	-0,278	-0,162
355,421	209,458	1315,041	1417,635
356,435	161,199	1475,860	1418,143
