DTS Sentinel unit serial number:	SN410029Multiplexer serial number:	ORYXHardware model number:	OX2-SRSoftware version number:	ORYX F/W v4,00 Oryx Data Collector v3.7.2.0data status	okinstallation	B3 Nyhavnadifferential loss correction	single-endedforward channel	channel 1reverse channel	N/Adate	2023/12/01time	08:17:30forward acquisition time	300,00reverse acquisition time	0,00gamma	499,1914k internal	0,3213k external	0,3213temperature offset calibration	1,0000default loss term (dB/km)	0,3820temperature slope calibration	1,0000multiplexer offset coefficient	1,0000multiplexer slope coefficient	1,0000fibre end	0,00T internal ref (°C)	8,01T ext. ref 1 (°C)	-6,51T ext. ref 2 (°C)	-6,65length (m)	temperature (°C)	Stokes	anti-Stokes-744,400	800,000	-0,063	-0,188
-743,385	-200,000	-0,079	0,385
-742,371	58,282	-0,259	-0,184
-741,356	-200,000	0,048	0,357
-740,342	-87,514	-0,161	-0,035
-739,327	-200,000	0,075	0,320
-738,312	118,945	-0,245	-0,219
-737,298	-200,000	-0,014	0,208
-736,283	74,843	-0,112	-0,085
-735,269	800,000	-0,081	0,185
-734,254	-200,000	-0,017	-0,132
-733,239	-121,913	-0,245	0,029
-732,225	33,632	-0,184	-0,115
-731,210	93,137	0,091	0,074
-730,196	-64,528	0,064	0,019
-729,181	259,260	-0,009	-0,011
-728,167	158,280	-0,032	0,032
-727,152	800,000	-0,018	0,039
-726,137	73,165	-0,079	-0,060
-725,123	-108,521	-0,103	-0,016
-724,108	-119,576	-0,232	0,029
-723,094	800,000	-0,079	-0,195
-722,079	19,864	0,047	-0,027
-721,064	-60,930	-0,080	-0,024
-720,050	714,992	0,102	-0,198
-719,035	262,347	-0,092	-0,115
-718,021	-100,540	-0,086	0,015
-717,006	-5,857	0,061	0,030
-715,991	-29,717	-0,207	0,085
-714,977	412,240	-0,043	-0,066
-713,962	85,094	0,090	-0,072
-712,948	-5,501	-0,066	0,033
-711,933	-200,000	0,001	0,035
-710,918	-200,000	0,009	0,078
-709,904	429,369	-0,056	-0,088
-708,889	-200,000	-0,062	-0,235
-707,875	-200,000	-0,027	-0,128
-706,860	67,123	-0,029	-0,021
-705,845	-56,694	0,074	0,024
-704,831	15,991	-0,069	-0,039
-703,816	-200,000	-0,000	0,008
-702,802	48,463	-0,070	0,047
-701,787	800,000	-0,021	-0,056
-700,772	-200,000	-0,031	-0,100
-699,758	90,471	0,113	-0,092
-698,743	-81,564	-0,067	-0,016
-697,729	20,438	0,070	0,041
-696,714	-15,779	-0,086	-0,039
-695,699	-59,578	-0,080	0,025
-694,685	-86,884	-0,083	-0,018
-693,670	-200,000	0,043	-0,149
-692,656	48,092	-0,100	-0,067
-691,641	-17,365	0,100	-0,046
-690,627	-66,787	-0,108	-0,031
-689,612	-51,739	0,111	-0,037
-688,597	70,105	-0,083	-0,062
-687,583	31,565	0,023	-0,014
-686,568	-200,000	0,036	-0,124
-685,554	-42,347	0,073	0,027
-684,539	-200,000	0,036	-0,156
-683,524	-59,922	0,143	-0,044
-682,510	-19,749	0,077	0,034
-681,495	97,039	-0,053	0,044
-680,481	411,682	-0,051	-0,079
-679,466	-116,183	-0,082	-0,011
-678,451	305,287	0,054	-0,073
-677,437	-200,000	0,013	0,063
-676,422	800,000	0,010	-0,026
-675,408	-80,704	0,120	0,029
-674,393	-200,000	0,006	0,043
-673,378	-200,000	-0,172	0,000
-672,364	364,055	0,109	-0,159
-671,349	-37,635	-0,196	0,075
-670,335	270,699	-0,114	-0,145
-669,320	524,181	-0,057	0,098
-668,305	-184,933	-0,170	-0,002
-667,291	-200,000	-0,001	-0,140
-666,276	-35,685	-0,126	-0,049
-665,262	62,826	-0,133	-0,096
-664,247	800,000	0,046	-0,108
-663,232	-2,390	-0,140	0,071
-662,218	54,999	0,032	0,022
-661,203	350,198	-0,017	0,025
-660,189	-200,000	-0,036	-0,161
-659,174	-200,000	-0,005	-0,128
-658,159	117,729	-0,108	-0,096
-657,145	800,000	-0,036	-0,102
-656,130	-51,074	-0,036	-0,012
-655,116	-131,382	0,116	-0,011
-654,101	800,000	0,022	-0,057
-653,086	24,696	-0,061	-0,037
-652,072	-16,744	-0,090	-0,041
-651,057	-45,968	0,031	-0,011
-650,043	5,833	0,148	-0,079
-649,028	800,000	-0,020	0,051
-648,014	-200,000	-0,001	-0,062
-646,999	-161,098	0,018	-0,001
-645,984	-125,016	0,054	0,006
-644,970	130,878	-0,125	-0,115
-643,955	49,449	-0,079	-0,054
-642,941	-39,116	-0,037	0,014
-641,926	98,774	-0,068	0,057
-640,911	-200,000	0,009	0,057
-639,897	-105,620	0,060	-0,010
-638,882	-200,000	-0,004	-0,062
-637,868	74,947	-0,036	0,027
-636,853	-200,000	0,003	-0,064
-635,838	131,291	-0,083	0,077
-634,824	36,013	0,075	-0,047
-633,809	40,725	-0,043	-0,028
-632,795	343,370	-0,156	0,221
-631,780	-200,000	0,013	0,147
-630,765	-115,170	0,099	0,013
-629,751	724,647	0,034	0,065
-628,736	-181,719	-0,093	0,001
-627,722	800,000	-0,056	-0,136
-626,707	-200,000	-0,024	-0,096
-625,692	800,000	-0,032	0,068
-624,678	-200,000	0,026	-0,091
-623,663	57,144	-0,015	-0,011
-622,649	800,000	-0,056	-0,127
-621,634	-43,240	-0,109	-0,040
-620,619	800,000	-0,044	-0,117
-619,605	31,147	-0,068	-0,042
-618,590	800,000	0,075	0,172
-617,576	80,907	-0,026	-0,021
-616,561	-127,746	-0,117	-0,012
-615,546	230,801	-0,054	-0,063
-614,532	-43,489	-0,047	0,017
-613,517	-200,000	-0,009	-0,108
-612,503	-43,282	0,038	-0,014
-611,488	-200,000	-0,013	-0,045
-610,474	800,000	0,024	0,061
-609,459	112,712	-0,061	-0,053
-608,444	486,591	-0,065	-0,108
-607,430	724,667	-0,075	-0,144
-606,415	-200,000	0,000	-0,126
-605,401	800,000	0,072	0,200
-604,386	-200,000	0,035	0,195
-603,371	640,983	-0,013	0,024
-602,357	-200,000	0,001	0,016
-601,342	-147,780	-0,025	0,001
-600,328	88,441	0,019	-0,015
-599,313	159,790	0,089	-0,089
-598,298	126,984	-0,031	-0,028
-597,284	-200,000	0,001	0,177
-596,269	-21,835	0,057	0,025
-595,255	-66,337	-0,167	-0,047
-594,240	309,249	-0,017	0,022
-593,225	-84,480	-0,095	0,021
-592,211	-125,560	0,070	-0,008
-591,196	-200,000	0,046	-0,161
-590,182	289,629	0,098	0,129
-589,167	-105,560	-0,107	0,017
-588,152	-112,289	0,062	0,009
-587,138	354,723	0,017	-0,025
-586,123	-200,000	-0,028	-0,133
-585,109	-200,000	-0,003	0,068
-584,094	56,135	-0,123	0,086
-583,079	-200,000	-0,006	0,076
-582,065	-200,000	-0,014	0,124
-581,050	800,000	-0,054	0,166
-580,036	423,372	-0,059	-0,091
-579,021	-200,000	0,003	-0,022
-578,006	-81,626	-0,092	0,022
-576,992	800,000	0,011	0,026
-575,977	-183,262	0,199	0,002
-574,963	800,000	-0,059	-0,142
-573,948	-99,065	0,183	0,033
-572,934	142,123	-0,018	-0,017
-571,919	-104,933	-0,163	0,027
-570,904	474,383	0,005	0,008
-569,890	-144,437	0,093	-0,006
-568,875	-133,613	-0,083	0,007
-567,861	345,783	-0,021	-0,030
-566,846	326,647	0,059	0,082
-565,831	147,015	0,093	0,090
-564,817	92,700	-0,039	-0,031
-563,802	70,619	0,130	-0,097
-562,788	45,963	0,027	0,018
-561,773	44,417	0,071	0,047
-560,758	276,810	-0,044	0,056
-559,744	153,219	-0,107	-0,106
-558,729	107,847	0,081	0,069
-557,715	-200,000	0,033	-0,143
-556,700	75,427	-0,091	0,069
-555,685	-7,784	0,025	-0,012
-554,671	334,254	0,047	0,065
-553,656	800,000	0,033	0,073
-552,642	59,597	-0,103	-0,073
-551,627	-45,789	0,054	-0,019
-550,612	44,909	-0,094	0,062
-549,598	76,602	0,094	0,072
-548,583	-155,951	0,122	-0,005
-547,569	-48,387	-0,080	0,028
-546,554	-10,240	0,046	0,022
-545,539	181,465	0,023	-0,024
-544,525	21,038	-0,103	-0,060
-543,510	306,908	-0,037	-0,050
-542,496	-85,298	-0,102	-0,023
-541,481	-200,000	-0,014	-0,059
-540,466	3,039	-0,010	0,005
-539,452	800,000	0,018	-0,044
-538,437	-123,353	0,013	0,001
-537,423	347,516	0,052	-0,074
-536,408	204,771	-0,110	0,122
-535,393	-200,000	0,018	-0,066
-534,379	-13,273	-0,118	-0,055
-533,364	442,621	-0,050	0,079
-532,350	-24,308	0,055	-0,024
-531,335	800,000	-0,014	0,034
-530,321	-195,161	0,092	0,000
-529,306	-115,188	0,041	0,006
-528,291	380,041	-0,089	-0,132
-527,277	310,700	0,037	-0,050
-526,262	8,441	0,063	-0,034
-525,248	800,000	0,057	0,125
-524,233	2,504	-0,026	-0,013
-523,218	560,333	0,105	-0,183
-522,204	123,862	0,048	0,043
-521,189	800,000	0,018	-0,051
-520,175	499,752	-0,025	-0,042
-519,160	-139,874	0,052	-0,004
-518,145	95,433	0,188	-0,154
-517,131	-166,610	0,069	0,002
-516,116	-200,000	0,008	0,147
-515,102	86,683	-0,107	-0,085
-514,087	95,104	0,095	-0,078
-513,072	31,492	-0,058	0,036
-512,058	149,222	0,139	-0,135
-511,043	-200,000	0,007	0,045
-510,029	198,856	0,085	0,094
-509,014	-176,192	0,186	0,003
-507,999	145,661	-0,103	-0,099
-506,985	236,576	0,062	0,074
-505,970	-99,766	-0,123	-0,022
-504,956	-200,000	-0,038	-0,170
-503,941	735,465	-0,067	0,129
-502,926	-164,776	-0,028	-0,001
-501,912	-200,000	-0,006	0,047
-500,897	-200,000	0,002	0,020
-499,883	800,000	-0,017	-0,048
-498,868	104,374	-0,099	-0,084
-497,853	185,042	-0,118	-0,126
-496,839	-4,959	-0,050	0,024
-495,824	-200,000	0,029	-0,100
-494,810	84,146	0,108	-0,085
-493,795	-109,808	0,033	0,005
-492,781	-200,000	0,027	0,090
-491,766	338,100	-0,025	-0,035
-490,751	-71,613	-0,111	0,030
-489,737	-98,843	-0,107	0,019
-488,722	21,133	0,038	0,022
-487,708	62,601	0,093	0,067
-486,693	-200,000	-0,049	0,186
-485,678	66,264	-0,003	-0,002
-484,664	800,000	-0,047	-0,135
-483,649	48,832	-0,111	-0,074
-482,635	2,990	0,080	-0,041
-481,620	-106,918	0,031	0,005
-480,605	800,000	0,017	0,042
-479,591	150,818	0,055	-0,054
-478,576	0,824	-0,073	0,037
-477,562	334,296	-0,025	0,035
-476,547	-114,779	-0,082	-0,011
-475,532	-200,000	-0,009	0,072
-474,518	800,000	0,031	-0,083
-473,503	-63,992	0,316	0,092
-472,489	292,406	-0,051	0,066
-471,474	-127,505	-0,074	-0,008
-470,459	9,912	-0,025	-0,013
-469,445	800,000	0,054	-0,111
-468,430	-200,000	0,017	-0,056
-467,416	-200,000	0,006	0,049
-466,401	55,331	0,062	-0,043
-465,386	78,024	0,040	-0,030
-464,372	-200,000	-0,010	0,033
-463,357	-20,468	-0,078	0,034
-462,343	-64,073	0,011	-0,003
-461,328	-158,058	0,095	-0,004
-460,313	431,947	0,030	0,047
-459,299	7,616	0,108	-0,058
-458,284	-200,000	0,002	-0,027
-457,270	213,116	0,033	0,037
-456,255	318,943	0,074	-0,101
-455,241	-40,621	-0,090	0,033
-454,226	-66,034	0,118	-0,034
-453,211	113,483	0,146	0,127
-452,197	465,651	0,059	0,095
-451,182	800,000	0,049	-0,145
-450,168	669,346	0,051	-0,094
-449,153	180,678	-0,127	-0,134
-448,138	800,000	-0,057	-0,159
-447,124	42,023	0,053	-0,035
-446,109	-200,000	0,014	-0,065
-445,095	-200,000	0,029	0,111
-444,080	-200,000	0,019	0,089
-443,065	-200,000	-0,005	-0,055
-442,051	800,000	0,057	0,120
-441,036	-55,275	-0,039	-0,012
-440,022	-200,000	0,013	-0,111
-439,007	242,768	0,016	-0,019
-437,992	-200,000	0,011	0,075
-436,978	13,237	-0,057	0,031
-435,963	-200,000	0,018	0,150
-434,949	-132,087	-0,092	-0,008
-433,934	68,739	-0,069	-0,051
-432,919	115,553	-0,058	-0,051
-431,905	-200,000	-0,004	-0,056
-430,890	47,813	-0,126	0,084
-429,876	800,000	-0,006	0,013
-428,861	508,633	0,060	0,100
-427,846	182,236	0,011	0,012
-426,832	11,211	-0,115	-0,063
-425,817	800,000	-0,033	-0,104
-424,803	-132,692	0,042	-0,004
-423,788	264,347	-0,018	-0,023
-422,773	-200,000	-0,029	0,136
-421,759	-200,000	0,001	-0,029
-420,744	-200,000	0,009	0,190
-419,730	226,105	-0,049	-0,057
-418,715	320,737	-0,066	-0,089
-417,701	-200,000	-0,012	0,102
-416,686	-12,291	-0,042	0,019
-415,671	-200,000	0,020	0,083
-414,657	397,682	-0,109	0,164
-413,642	-200,000	-0,026	0,138
-412,628	800,000	-0,058	0,162
-411,613	800,000	-0,036	0,090
-410,598	35,429	-0,138	-0,087
-409,584	-89,085	0,123	0,026
-408,569	800,000	-0,038	-0,080
-407,555	-200,000	0,029	0,136
-406,540	-200,000	0,005	-0,164
-405,525	-200,000	-0,017	0,104
-404,511	800,000	0,065	-0,186
-403,496	627,823	0,046	-0,084
-402,482	-48,016	0,091	0,031
-401,467	-27,262	0,131	0,054
-400,452	221,762	0,071	-0,082
-399,438	-200,000	0,026	0,089
-398,423	-20,367	0,088	0,039
-397,409	354,909	0,058	-0,083
-396,394	-200,000	0,002	0,019
-395,379	184,451	-0,012	0,012
-394,365	-24,794	0,042	0,018
-393,350	373,145	0,024	0,034
-392,336	35,953	-0,074	-0,046
-391,321	49,565	-0,197	-0,132
-390,306	800,000	-0,044	-0,116
-389,292	-43,345	0,029	0,010
-388,277	-30,066	0,080	-0,033
-387,263	151,913	-0,015	0,014
-386,248	-29,860	0,039	-0,016
-385,233	463,625	-0,063	-0,101
-384,219	8,552	-0,083	-0,045
-383,204	-200,000	-0,002	0,018
-382,190	-200,000	0,006	-0,104
-381,175	-115,812	0,065	0,009
-380,160	30,085	0,071	-0,043
-379,146	-42,030	-0,068	-0,025
-378,131	83,823	0,148	0,115
-377,117	401,102	0,074	-0,112
-376,102	191,315	-0,154	-0,166
-375,088	621,415	0,036	-0,065
-374,073	496,281	0,034	-0,055
-373,058	-200,000	-0,000	-0,086
-372,044	80,357	-0,048	0,037
-371,029	-22,633	-0,035	-0,015
-370,015	141,567	0,113	-0,107
-369,000	-67,736	-0,112	0,031
-367,985	375,583	0,048	0,070
-366,971	-158,963	-0,020	-0,001
-365,956	40,563	0,070	0,045
-364,942	-200,000	0,026	0,112
-363,927	-21,486	0,032	0,014
-362,912	24,688	-0,057	0,034
-361,898	-24,349	0,089	-0,038
-360,883	-200,000	-0,000	-0,131
-359,869	-26,920	-0,105	0,044
-358,854	800,000	0,066	0,141
-357,839	-32,001	0,060	0,024
-356,825	-200,000	-0,030	0,117
-355,810	-200,000	-0,002	0,084
-354,796	-90,725	0,019	-0,004
-353,781	-66,009	0,117	-0,033
-352,766	-67,442	-0,126	0,035
-351,752	-118,294	0,027	0,003
-350,737	142,259	0,050	0,047
-349,723	-200,000	0,032	0,158
-348,708	-79,853	-0,076	0,018
-347,693	-105,384	-0,080	0,013
-346,679	500,729	-0,061	0,101
-345,664	-82,481	0,080	0,018
-344,650	-164,806	-0,119	0,004
-343,635	-93,928	0,106	0,021
-342,620	-200,000	-0,009	-0,055
-341,606	-82,841	-0,181	0,041
-340,591	-200,000	-0,010	-0,121
-339,577	-105,195	-0,119	-0,019
-338,562	113,816	-0,052	-0,045
-337,548	379,108	0,009	0,013
-336,533	-18,003	-0,046	0,020
-335,518	-42,007	-0,043	-0,015
-334,504	458,090	0,050	0,080
-333,489	102,327	-0,066	0,055
-332,475	101,693	0,066	-0,055
-331,460	308,774	-0,082	-0,109
-330,445	-145,397	-0,167	0,011
-329,431	-102,849	0,018	-0,003
-328,416	-134,842	0,076	-0,007
-327,402	-200,000	-0,009	-0,029
-326,387	180,462	-0,052	0,054
-325,372	800,000	-0,030	0,072
-324,358	-200,000	0,001	-0,005
-323,343	-200,000	0,033	0,109
-322,329	-100,422	0,033	-0,006
-321,314	-84,099	0,074	-0,017
-320,299	218,995	-0,034	-0,039
-319,285	-109,565	-0,071	0,011
-318,270	800,000	0,029	-0,090
-317,256	-200,000	0,006	-0,132
-316,241	243,893	-0,072	-0,086
-315,226	399,873	-0,051	0,076
-314,212	-72,147	0,247	0,065
-313,197	693,366	-0,039	-0,074
-312,183	203,767	0,055	-0,061
-311,168	-200,000	-0,003	0,053
-310,153	70,630	0,038	0,028
-309,139	563,423	-0,047	-0,082
-308,124	-57,736	0,061	-0,019
-307,110	132,202	-0,133	0,122
-306,095	107,065	0,059	-0,050
-305,080	-54,402	-0,113	-0,036
-304,066	-195,281	-0,098	0,001
-303,051	-5,582	0,155	-0,076
-302,037	-132,309	-0,113	0,010
-301,022	183,353	0,062	-0,065
-300,008	800,000	0,031	0,068
-298,993	-109,273	0,152	0,023
-297,978	101,252	0,067	-0,055
-296,964	57,660	0,061	0,042
-295,949	115,906	-0,063	0,055
-294,935	156,496	-0,150	-0,147
-293,920	800,000	0,011	-0,028
-292,905	174,604	0,082	0,085
-291,891	123,634	-0,086	-0,077
-290,876	96,292	0,088	0,072
-289,862	800,000	0,061	-0,133
-288,847	383,517	-0,093	-0,137
-287,832	-170,393	-0,063	-0,002
-286,818	-200,000	-0,028	-0,105
-285,803	-121,604	0,087	-0,010
-284,789	-90,601	0,073	-0,015
-283,774	800,000	0,078	0,222
-282,759	-200,000	-0,009	0,069
-281,745	-200,000	-0,026	-0,108
-280,730	-49,448	-0,076	-0,026
-279,716	63,568	-0,108	0,077
-278,701	-162,068	0,217	0,008
-277,686	800,000	0,027	0,066
-276,672	-43,624	0,040	0,014
-275,657	-64,872	0,064	0,018
-274,643	-113,257	0,082	0,011
-273,628	296,678	-0,068	-0,089
-272,613	800,000	0,022	-0,046
-271,599	800,000	-0,038	-0,081
-270,584	-47,613	0,034	-0,012
-269,570	99,399	0,104	0,085
-268,555	-200,000	-0,016	-0,200
-267,540	384,449	0,015	0,022
-266,526	608,614	0,035	-0,062
-265,511	418,894	-0,051	0,078
-264,497	-35,101	0,094	-0,036
-263,482	-200,000	-0,025	0,105
-262,467	86,081	0,034	-0,027
-261,453	-68,741	-0,037	-0,010
-260,438	-200,000	0,013	-0,071
-259,424	800,000	0,051	-0,118
-258,409	-105,078	0,083	0,013
-257,395	6,293	-0,005	0,002
-256,380	45,174	0,056	-0,037
-255,365	800,000	-0,012	-0,033
-254,351	-53,377	0,017	-0,005
-253,336	800,000	0,039	-0,095
-252,322	800,000	-0,010	0,022
-251,307	321,102	-0,098	-0,132
-250,292	-122,735	0,134	-0,015
-249,278	114,379	0,141	0,122
-248,263	516,441	0,064	0,106
-247,249	-200,000	-0,044	0,174
-246,234	-200,000	-0,012	-0,087
-245,219	44,757	-0,039	0,025
-244,205	-180,207	-0,063	0,001
-243,190	59,693	-0,089	0,062
-242,176	4,178	0,125	-0,065
-241,161	-200,000	0,030	0,189
-240,146	-200,000	0,033	0,132
-239,132	112,861	-0,130	-0,112
-238,117	11,604	0,117	-0,064
-237,103	296,965	0,031	-0,040
-236,088	-34,788	0,042	0,016
-235,073	-200,000	-0,011	0,133
-234,059	-200,000	0,027	0,090
-233,044	-93,098	-0,062	-0,012
-232,030	60,159	-0,109	0,077
-231,015	-10,738	-0,140	0,065
-230,000	-2,732	0,065	0,032
-228,986	-83,625	0,103	0,023
-227,971	501,288	-0,081	0,134
-226,957	7,010	0,115	0,061
-225,942	288,939	0,078	0,101
-224,927	526,722	-0,012	-0,021
-223,913	800,000	-0,036	-0,072
-222,898	-200,000	0,008	-0,166
-221,884	-114,737	0,068	-0,009
-220,869	-200,000	0,049	-0,156
-219,855	-200,000	0,026	0,107
-218,840	-64,155	-0,228	0,066
-217,825	-200,000	0,033	0,169
-216,811	-200,000	0,017	-0,100
-215,796	800,000	-0,033	-0,081
-214,782	-200,000	0,003	-0,101
-213,767	54,927	0,113	0,077
-212,752	-200,000	0,030	0,095
-211,738	-22,975	0,102	0,043
-210,723	210,806	0,020	0,022
-209,709	41,856	-0,050	0,032
-208,694	147,305	-0,205	-0,196
-207,679	-32,933	-0,007	-0,003
-206,665	800,000	0,069	0,151
-205,650	571,678	0,059	0,103
-204,636	22,449	0,048	0,028
-203,621	800,000	-0,053	0,127
-202,606	649,170	-0,032	-0,059
-201,592	-200,000	-0,008	-0,060
-200,577	535,554	-0,051	0,086
-199,563	428,026	-0,133	-0,204
-198,548	-132,349	0,156	-0,014
-197,533	159,549	-0,078	0,077
-196,519	91,963	0,080	0,064
-195,504	76,680	0,052	-0,039
-194,490	-153,057	-0,014	-0,001
-193,475	-108,761	-0,095	-0,014
-192,460	36,537	-0,150	0,094
-191,446	67,501	0,048	-0,035
-190,431	-200,000	-0,018	0,132
-189,417	63,552	-0,118	0,084
-188,402	112,172	0,042	-0,036
-187,387	-200,000	-0,002	-0,092
-186,373	-200,000	0,006	-0,117
-185,358	-50,925	-0,091	-0,030
-184,344	-30,667	-0,068	-0,027
-183,329	184,777	0,100	0,105
-182,315	323,358	-0,040	-0,054
-181,300	-200,000	0,012	0,055
-180,285	301,027	0,035	0,046
-179,271	-200,000	-0,013	-0,095
-178,256	-200,000	-0,033	-0,200
-177,242	137,618	-0,099	0,092
-176,227	-200,000	0,009	0,127
-175,212	-116,249	0,063	0,008
-174,198	-200,000	-0,003	-0,070
-173,183	136,052	-0,116	-0,107
-172,169	-83,057	-0,134	-0,030
-171,154	101,086	0,043	-0,035
-170,139	-200,000	0,002	0,035
-169,125	304,129	0,081	0,106
-168,110	-200,000	-0,033	0,126
-167,096	-18,426	0,073	0,032
-166,081	-200,000	0,022	0,097
-165,066	-17,667	-0,042	0,019
-164,052	300,719	-0,097	0,127
-163,037	-62,232	-0,083	0,024
-162,023	215,767	0,066	0,075
-161,008	-133,466	0,098	0,009
-159,993	-93,671	0,137	0,027
-158,979	-200,000	-0,061	0,000
-157,964	-200,000	0,014	-0,133
-156,950	98,144	-0,050	0,041
-155,935	-200,000	0,004	0,021
-154,920	-11,029	0,099	-0,046
-153,906	-200,000	0,004	0,025
-152,891	204,713	0,177	0,194
-151,877	-101,821	0,149	0,025
-150,862	800,000	-0,025	-0,075
-149,847	379,557	-0,041	0,059
-148,833	-49,296	0,096	0,032
-147,818	275,843	-0,080	0,101
-146,804	20,775	0,077	0,044
-145,789	800,000	-0,036	0,101
-144,775	-16,235	-0,079	0,035
-143,760	23,055	-0,087	-0,050
-142,745	-200,000	-0,001	0,014
-141,731	-62,070	0,041	0,012
-140,716	296,392	-0,052	0,067
-139,702	646,006	0,044	-0,080
-138,687	235,090	0,038	0,044
-137,672	-172,374	-0,087	0,002
-136,658	-89,408	0,112	-0,023
-135,643	800,000	-0,026	-0,072
-134,629	22,668	-0,022	-0,013
-133,614	558,828	-0,010	-0,017
-132,599	-38,487	0,054	0,020
-131,585	-72,360	-0,098	-0,025
-130,570	243,440	0,072	0,085
-129,556	233,617	-0,052	0,060
-128,541	244,618	-0,140	-0,167
-127,526	-200,000	0,001	0,069
-126,512	524,783	-0,018	0,030
-125,497	619,074	0,050	0,089
-124,483	-200,000	0,175	0,001
-123,468	251,345	-0,041	0,050
-122,453	-83,523	-0,204	0,046
-121,439	-150,657	-0,132	0,007
-120,424	-200,000	0,004	0,016
-119,410	7,644	0,067	0,035
-118,395	-14,048	0,140	0,063
-117,380	-18,196	-0,046	-0,020
-116,366	-97,388	0,103	-0,019
-115,351	-6,512	-0,056	0,027
-114,337	-200,000	-0,037	-0,184
-113,322	800,000	-0,036	-0,089
-112,307	302,287	0,042	-0,055
-111,293	-102,898	0,208	0,035
-110,278	-200,000	0,005	0,092
-109,264	800,000	0,009	0,022
-108,249	11,465	-0,090	-0,049
-107,234	-200,000	-0,005	0,090
-106,220	107,668	-0,122	0,103
-105,205	325,198	-0,051	0,069
-104,191	800,000	-0,015	-0,038
-103,176	308,702	0,070	-0,092
-102,162	-33,217	0,101	0,039
-101,147	89,134	0,090	-0,071
-100,132	-200,000	0,020	-0,125
-99,118	10,321	-0,080	-0,043
-98,103	-200,000	-0,004	-0,090
-97,089	3,140	0,086	0,044
-96,074	-78,562	-0,109	-0,026
-95,059	-200,000	0,006	0,099
-94,045	800,000	-0,047	-0,143
-93,030	-200,000	0,016	0,063
-92,016	-200,000	-0,036	0,146
-91,001	276,932	-0,026	0,032
-89,986	49,781	0,061	-0,041
-88,972	-200,000	-0,001	0,155
-87,957	711,986	0,032	0,059
-86,943	43,011	0,114	-0,073
-85,928	387,236	-0,046	-0,067
-84,913	800,000	0,025	-0,072
-83,899	-82,154	0,045	0,010
-82,884	97,534	-0,079	0,064
-81,870	158,006	0,055	0,054
-80,855	3,993	-0,067	0,034
-79,840	200,621	-0,013	-0,014
-78,826	800,000	-0,020	-0,041
-77,811	800,000	-0,045	-0,101
-76,797	290,016	0,029	-0,037
-75,782	590,303	0,047	0,081
-74,767	-200,000	-0,012	0,212
-73,753	278,279	-0,019	0,024
-72,738	-115,849	0,163	-0,021
-71,724	55,498	-0,056	-0,038
-70,709	223,397	-0,066	-0,075
-69,694	800,000	0,052	-0,154
-68,680	279,418	0,115	0,146
-67,665	-81,181	-0,093	-0,021
-66,651	-39,001	0,071	0,026
-65,636	484,255	-0,031	-0,050
-64,622	-107,011	-0,091	-0,014
-63,607	-200,000	0,001	0,055
-62,592	-200,000	-0,018	-0,084
-61,578	360,263	0,047	-0,067
-60,563	-200,000	0,025	0,180
-59,549	-200,000	0,066	0,206
-58,534	66,892	-2,139	-1,535
-57,519	566,610	-1,046	-1,797
-56,505	-200,000	-0,447	-4,463
-55,490	623,210	0,933	1,666
-54,476	800,000	5,343	11,444
-53,461	-200,000	22,508	346,682
-52,446	800,000	757,443	2293,095
-51,432	533,041	1644,046	2756,368
-50,417	67,912	1642,621	1183,606
-49,403	15,670	1519,967	840,446
-48,388	9,913	1445,820	771,803
-47,373	19,292	1438,564	812,583
-46,359	13,325	1427,358	778,060
-45,344	8,199	1422,933	751,381
-44,330	8,097	1421,229	749,965
-43,315	8,119	1419,316	749,031
-42,300	8,067	1417,730	747,921
-41,286	8,166	1416,186	747,543
-40,271	8,113	1415,238	746,761
-39,257	8,088	1413,928	745,923
-38,242	8,146	1412,767	745,553
-37,227	8,137	1411,803	744,975
-36,213	8,099	1410,432	744,044
-35,198	8,100	1409,280	743,412
-34,184	8,085	1408,542	742,920
-33,169	8,081	1406,862	741,986
-32,154	8,090	1406,017	741,554
-31,140	8,109	1404,802	740,974
-30,125	8,078	1403,733	740,232
-29,111	8,105	1402,387	739,619
-28,096	8,115	1401,307	739,068
-27,082	8,027	1400,194	738,043
-26,067	8,026	1399,196	737,482
-25,052	8,070	1397,903	736,976
-24,038	8,061	1396,873	736,360
-23,023	7,996	1396,262	735,709
-22,009	8,030	1394,966	735,156
-20,994	8,021	1394,148	734,653
-19,979	8,020	1393,118	734,075
-18,965	7,999	1392,112	733,418
-17,950	7,992	1391,088	732,820
-16,936	7,970	1390,446	732,350
-15,921	7,913	1389,349	731,480
-14,906	7,975	1388,349	731,210
-13,892	7,942	1387,472	730,568
-12,877	7,986	1386,659	730,310
-11,863	7,876	1386,035	729,447
-10,848	7,966	1384,955	729,267
-9,833	7,924	1383,957	728,517
-8,819	7,897	1383,109	727,917
-7,804	7,866	1382,155	727,246
-6,790	7,835	1381,345	726,646
-5,775	7,835	1380,254	726,046
-4,760	7,885	1379,286	725,735
-3,746	7,897	1378,360	725,273
-2,731	7,910	1377,282	724,738
-1,717	7,886	1376,652	724,270
-0,702	7,828	1375,004	723,109
0,313	11,787	1285,072	693,751
1,327	27,434	677,086	400,394
2,342	42,842	116,412	74,640
3,356	-0,667	16,579	8,259
4,371	-7,649	3,938	1,869
5,386	-1,593	1,312	0,650
6,400	800,000	0,285	0,641
7,415	-80,932	-0,102	-0,024
8,429	766,942	-0,089	-0,171
9,444	178,978	-0,248	-0,255
10,459	-122,538	-0,311	-0,035
11,473	-200,000	0,005	-0,166
12,488	-19,767	-0,336	-0,146
13,502	10,752	-0,246	-0,132
14,517	94,761	-0,312	-0,250
15,531	132,795	-0,358	-0,325
16,546	-33,031	-0,285	-0,111
17,561	226,491	-0,286	-0,327
18,575	152,512	-0,176	-0,170
19,590	47,075	-0,225	-0,147
20,604	-42,546	-0,283	-0,101
21,619	74,590	-0,454	-0,335
22,634	410,342	-0,337	-0,505
23,648	109,617	-0,447	-0,377
24,663	53,501	-0,333	-0,224
25,677	-53,694	-0,304	-0,097
26,692	6,302	-0,354	-0,184
27,707	-5,806	-0,371	-0,178
28,721	38,325	-0,316	-0,197
29,736	-5,815	-0,403	-0,193
30,750	48,099	-0,375	-0,246
31,765	33,970	-0,412	-0,252
32,780	33,441	-0,499	-0,304
33,794	97,130	-0,253	-0,204
34,809	-19,503	-0,356	-0,154
35,823	19,652	-0,442	-0,249
36,838	194,537	-0,342	-0,365
37,853	282,737	-0,225	-0,285
38,867	-48,846	-0,413	-0,138
39,882	235,507	-0,311	-0,361
40,896	10,670	-0,402	-0,215
41,911	-18,796	-0,345	-0,150
42,926	89,056	-0,336	-0,263
43,940	395,856	-0,184	-0,271
44,955	-29,052	-0,402	-0,161
45,969	75,224	-0,459	-0,340
46,984	47,950	-0,370	-0,242
47,999	-0,872	-0,242	-0,120
49,013	83,757	-0,217	-0,166
50,028	101,372	-0,338	-0,276
51,042	138,706	-0,262	-0,241
52,057	-34,463	-0,336	-0,129
53,071	68,343	-0,366	-0,263
54,086	294,173	-0,236	-0,303
55,101	72,549	-0,311	-0,227
56,115	9,341	-0,366	-0,194
57,130	1,850	-0,338	-0,171
58,144	32,210	-0,302	-0,182
59,159	83,550	-0,379	-0,290
60,174	-26,887	-0,402	-0,164
61,188	149,581	-0,281	-0,267
62,203	-2,421	-0,328	-0,161
63,217	26,030	-0,420	-0,245
64,232	13,696	-0,344	-0,187
65,247	124,466	-0,230	-0,203
66,261	88,302	-0,445	-0,346
67,276	571,599	-0,237	-0,406
68,290	-63,574	-0,220	-0,063
69,305	70,401	-0,198	-0,143
70,320	-84,001	-0,286	-0,063
71,334	343,957	-0,198	-0,272
72,349	743,385	-0,180	-0,340
73,363	48,762	-0,521	-0,342
74,378	-65,429	-0,452	-0,127
75,393	55,465	-0,307	-0,208
76,407	-200,000	-0,090	-0,282
77,422	735,597	-0,151	-0,284
78,436	-41,380	-0,336	-0,120
79,451	197,299	-0,288	-0,308
80,466	76,807	-0,324	-0,240
81,480	280,822	-0,338	-0,424
82,495	13,293	-0,342	-0,185
83,509	71,779	-0,254	-0,185
84,524	-4,006	-0,262	-0,127
85,539	-59,706	-0,443	-0,132
86,553	800,000	-0,097	-0,259
87,568	97,389	-0,287	-0,231
88,582	43,121	-0,384	-0,245
89,597	37,017	-0,303	-0,187
90,611	259,345	-0,168	-0,203
91,626	120,250	-0,275	-0,238
92,641	125,677	-0,248	-0,219
93,655	-86,224	-0,361	-0,077
94,670	75,193	-0,365	-0,269
95,684	80,733	-0,334	-0,252
96,699	2,483	-0,330	-0,167
97,714	107,892	-0,237	-0,197
98,728	-47,630	-0,267	-0,090
99,743	-103,274	-0,261	-0,043
100,757	540,238	-0,174	-0,291
101,772	-2,082	-0,218	-0,107
102,787	55,732	-0,332	-0,224
103,801	97,506	-0,291	-0,234
104,816	38,254	-0,325	-0,202
105,830	-96,754	-0,297	-0,054
106,845	-9,990	-0,185	-0,085
107,860	-41,579	-0,245	-0,088
108,874	85,879	-0,288	-0,221
109,889	69,272	-0,272	-0,195
110,903	-94,991	-0,299	-0,056
111,918	-42,148	-0,346	-0,123
112,933	158,265	-0,134	-0,130
113,947	91,319	-0,195	-0,153
114,962	239,476	-0,198	-0,231
115,976	37,007	-0,398	-0,245
116,991	307,440	-0,174	-0,227
118,006	497,846	-0,159	-0,256
119,020	195,400	-0,176	-0,187
120,035	30,748	-0,244	-0,146
121,049	1,095	-0,207	-0,103
122,064	294,584	-0,073	-0,093
123,079	39,016	-0,292	-0,182
124,093	-4,455	-0,176	-0,084
125,108	117,123	-0,261	-0,224
126,122	221,407	-0,146	-0,164
127,137	306,005	-0,125	-0,162
128,151	262,681	-0,156	-0,189
129,166	-154,797	-0,266	-0,012
130,181	98,056	-0,084	-0,068
131,195	66,922	-0,281	-0,199
132,210	192,626	-0,328	-0,346
133,224	141,505	-0,253	-0,233
134,239	133,101	-0,181	-0,163
135,254	-118,208	-0,169	-0,021
136,268	-45,868	-0,211	-0,072
137,283	-63,881	-0,390	-0,110
138,297	26,859	-0,218	-0,127
139,312	288,648	-0,116	-0,146
140,327	-31,451	-0,271	-0,105
141,341	130,818	-0,244	-0,218
142,356	800,000	-0,096	-0,209
143,370	337,910	-0,109	-0,149
144,385	-15,809	-0,197	-0,087
145,400	-61,094	-0,308	-0,090
146,414	228,692	-0,237	-0,269
147,429	91,296	-0,313	-0,244
148,443	383,752	-0,160	-0,229
149,458	-159,164	-0,257	-0,010
150,473	3,068	-0,228	-0,115
151,487	-68,727	-0,272	-0,073
152,502	51,948	-0,354	-0,234
153,516	-54,497	-0,252	-0,079
154,531	160,040	-0,185	-0,180
155,546	50,573	-0,364	-0,239
156,560	-19,398	-0,234	-0,100
157,575	284,045	-0,113	-0,142
158,589	60,513	-0,189	-0,130
159,604	382,900	-0,265	-0,379
160,619	-1,994	-0,298	-0,145
161,633	75,638	-0,289	-0,212
162,648	324,498	-0,135	-0,180
163,662	203,886	-0,140	-0,151
164,677	347,577	-0,270	-0,370
165,692	259,741	-0,204	-0,245
166,706	800,000	-0,150	-0,403
167,721	320,019	-0,179	-0,236
168,735	145,230	-0,275	-0,256
169,750	-49,142	-0,138	-0,046
170,764	-1,804	-0,151	-0,073
171,779	94,170	-0,156	-0,123
172,794	103,160	-0,208	-0,169
173,808	797,658	-0,142	-0,273
174,823	-24,155	-0,348	-0,144
175,837	235,352	-0,200	-0,229
176,852	184,149	-0,213	-0,219
177,867	-30,306	-0,315	-0,123
178,881	557,072	-0,082	-0,138
179,896	100,551	-0,135	-0,109
180,910	-27,127	-0,163	-0,066
181,925	155,909	-0,239	-0,228
182,940	93,557	-0,208	-0,163
183,954	-5,220	-0,267	-0,127
184,969	46,683	-0,284	-0,182
185,983	-52,646	-0,170	-0,054
186,998	-131,007	-0,211	-0,019
188,013	636,770	-0,058	-0,102
189,027	7,905	-0,308	-0,160
190,042	230,318	-0,156	-0,177
191,056	50,015	-0,222	-0,145
192,071	5,431	-0,171	-0,087
193,086	112,255	-0,196	-0,164
194,100	575,288	-0,090	-0,153
195,115	52,720	-0,242	-0,160
196,129	50,283	-0,238	-0,156
197,144	-68,979	-0,176	-0,047
198,159	343,252	-0,157	-0,213
199,173	14,339	-0,247	-0,133
200,188	-15,092	-0,105	-0,046
201,202	800,000	-0,098	-0,229
202,217	-16,296	-0,165	-0,072
203,232	180,478	-0,158	-0,161
204,246	800,000	-0,086	-0,204
205,261	-200,000	-0,074	-0,299
206,275	104,101	-0,161	-0,131
207,290	55,683	-0,244	-0,163
208,304	203,255	-0,089	-0,095
209,319	506,745	-0,168	-0,270
210,334	98,273	-0,175	-0,139
211,348	1,607	-0,255	-0,127
212,363	-3,977	-0,124	-0,059
213,377	378,882	-0,118	-0,168
214,392	-200,000	-0,042	-0,233
215,407	-18,281	-0,168	-0,073
216,421	417,171	-0,121	-0,179
217,436	-3,542	-0,216	-0,104
218,450	274,170	-0,152	-0,186
219,465	375,329	-0,124	-0,175
220,480	-31,231	-0,295	-0,114
221,494	-9,255	-0,231	-0,106
222,509	637,211	-0,110	-0,194
223,523	324,095	-0,108	-0,143
224,538	108,738	-0,115	-0,095
225,553	-128,418	-0,208	-0,020
226,567	179,287	-0,180	-0,182
227,582	472,098	-0,168	-0,262
228,596	216,111	-0,213	-0,235
229,611	800,000	-0,112	-0,238
230,626	94,376	-0,183	-0,143
231,640	127,332	-0,140	-0,123
232,655	142,056	-0,174	-0,159
233,669	800,000	-0,125	-0,374
234,684	123,253	-0,218	-0,188
235,699	80,506	-0,268	-0,199
236,713	27,975	-0,198	-0,115
237,728	202,580	-0,073	-0,077
238,742	266,184	-0,118	-0,143
239,757	9,887	-0,239	-0,125
240,772	481,547	-0,142	-0,224
241,786	160,043	-0,164	-0,157
242,801	466,185	-0,119	-0,185
243,815	65,720	-0,197	-0,138
244,830	-70,975	-0,101	-0,026
245,844	800,000	-0,099	-0,216
246,859	34,118	-0,200	-0,120
247,874	58,419	-0,232	-0,157
248,888	667,234	-0,140	-0,250
249,903	219,465	-0,229	-0,253
250,917	201,608	-0,095	-0,101
251,932	287,690	-0,101	-0,126
252,947	65,271	-0,195	-0,136
253,961	122,441	-0,189	-0,163
254,976	96,821	-0,185	-0,146
255,990	-200,000	-0,065	-0,276
257,005	800,000	-0,060	-0,160
258,020	-200,000	-0,021	-0,070
259,034	291,749	-0,181	-0,228
260,049	-200,000	-0,029	-0,168
261,063	-153,463	-0,171	0,008
262,078	-6,656	-0,195	-0,091
263,093	31,439	-0,232	-0,137
264,107	41,784	-0,206	-0,128
265,122	-200,000	-0,120	0,000
266,136	-25,651	-0,146	0,059
267,151	712,921	-0,120	-0,221
268,166	-114,689	-0,073	0,009
269,180	-41,654	-0,341	-0,120
270,195	800,000	-0,086	-0,221
271,209	146,391	-0,178	-0,164
272,224	-62,054	-0,185	-0,053
273,239	800,000	-0,088	-0,183
274,253	-3,966	-0,153	-0,073
275,268	57,378	-0,152	0,102
276,282	168,918	-0,149	-0,146
277,297	-12,350	-0,105	-0,047
278,312	-16,716	-0,131	-0,057
279,326	38,283	-0,104	-0,064
280,341	-200,000	-0,038	-0,118
281,355	-25,262	-0,160	0,065
282,370	29,823	-0,162	-0,094
283,384	800,000	-0,124	-0,295
284,399	800,000	-0,053	-0,121
285,414	254,952	-0,093	-0,110
286,428	184,824	-0,152	-0,155
287,443	649,572	-0,161	-0,284
288,457	-74,073	-0,192	-0,048
289,472	-3,052	-0,196	-0,094
290,487	-175,382	-0,125	-0,002
291,501	162,803	-0,086	-0,083
292,516	0,626	-0,172	-0,084
293,530	305,290	-0,095	-0,121
294,545	129,775	-0,184	-0,162
295,560	75,923	-0,079	0,057
296,574	74,626	-0,175	-0,126
297,589	354,958	-0,086	-0,117
298,603	742,834	-0,122	-0,227
299,618	-200,000	-0,038	-0,137
300,633	63,320	-0,088	-0,060
301,647	-1,344	-0,162	-0,078
302,662	4,353	-0,160	-0,080
303,676	147,765	-0,153	-0,142
304,691	-147,835	-0,164	0,009
305,706	181,101	-0,166	-0,167
306,720	-200,000	-0,073	-0,292
307,735	-27,198	-0,155	-0,062
308,749	24,295	-0,159	-0,090
309,764	-128,132	-0,133	-0,013
310,779	75,128	-0,136	-0,098
311,793	145,600	-0,154	-0,142
312,808	39,320	-0,134	-0,082
313,822	-200,000	-0,069	-0,239
314,837	310,345	-0,119	-0,154
315,852	800,000	-0,072	-0,206
316,866	-200,000	-0,022	-0,254
317,881	-200,000	0,018	-0,128
318,895	90,792	-0,073	0,056
319,910	192,103	-0,103	-0,107
320,925	91,111	-0,195	-0,150
321,939	-200,000	0,005	-0,023
322,954	37,246	-0,167	-0,101
323,968	-65,616	-0,146	-0,040
324,983	-60,120	-0,066	0,019
325,997	-200,000	-0,035	-0,159
327,012	800,000	-0,068	-0,151
328,027	153,011	-0,146	-0,137
329,041	-109,390	-0,173	-0,025
330,056	800,000	-0,027	-0,055
331,070	-200,000	-0,006	-0,108
332,085	-200,000	-0,010	-0,082
333,100	800,000	-0,062	-0,169
334,114	800,000	-0,133	-0,315
335,129	-8,312	-0,178	-0,081
336,143	-96,303	-0,240	0,043
337,158	800,000	-0,082	-0,205
338,173	-200,000	-0,011	-0,165
339,187	-14,236	-0,056	-0,025
340,202	291,013	-0,056	-0,070
341,216	424,189	-0,128	-0,189
342,231	93,648	-0,175	-0,136
343,246	299,912	-0,083	-0,105
344,260	229,249	-0,103	-0,115
345,275	95,552	-0,065	-0,051
346,289	-116,421	-0,215	-0,027
347,304	-60,812	-0,091	-0,026
348,319	249,259	-0,066	-0,077
349,333	468,430	-0,131	-0,201
350,348	800,000	-0,089	-0,196
351,362	800,000	-0,057	-0,138
352,377	-64,259	-0,021	0,006
353,392	348,501	-0,093	0,126
354,406	329,626	-0,037	-0,049
355,421	207,137	1310,368	1398,203
356,435	159,331	1470,486	1398,631
