DTS Sentinel unit serial number:	SN410029Multiplexer serial number:	ORYXHardware model number:	OX2-SRSoftware version number:	ORYX F/W v4,00 Oryx Data Collector v3.7.2.0data status	okinstallation	B3 Nyhavnadifferential loss correction	single-endedforward channel	channel 1reverse channel	N/Adate	2023/12/02time	09:42:30forward acquisition time	300,00reverse acquisition time	0,00gamma	499,1914k internal	0,3196k external	0,3196temperature offset calibration	1,0000default loss term (dB/km)	0,3820temperature slope calibration	1,0000multiplexer offset coefficient	1,0000multiplexer slope coefficient	1,0000fibre end	0,00T internal ref (°C)	14,97T ext. ref 1 (°C)	-0,70T ext. ref 2 (°C)	-0,71length (m)	temperature (°C)	Stokes	anti-Stokes-744,400	800,000	-0,130	-0,263
-743,385	-200,000	-0,026	0,322
-742,371	292,030	-0,278	-0,370
-741,356	-200,000	-0,034	0,349
-740,342	188,764	-0,116	-0,127
-739,327	-200,000	-0,041	0,367
-738,312	372,948	-0,193	-0,287
-737,298	800,000	-0,084	0,266
-736,283	800,000	-0,126	-0,256
-735,269	-200,000	0,092	0,322
-734,254	226,784	-0,162	-0,191
-733,239	-8,968	-0,221	0,107
-732,225	-200,000	0,052	-0,284
-731,210	-13,201	0,049	0,023
-730,196	44,814	0,126	-0,084
-729,181	178,882	-0,096	-0,102
-728,167	-200,000	-0,006	-0,102
-727,152	-163,182	0,054	0,002
-726,137	94,257	0,022	-0,018
-725,123	-106,439	-0,072	-0,012
-724,108	72,462	-0,158	0,120
-723,094	-173,939	-0,221	-0,005
-722,079	-200,000	0,011	-0,167
-721,064	-61,569	-0,062	0,019
-720,050	130,416	0,063	-0,058
-719,035	-64,402	-0,136	-0,040
-718,021	-7,017	-0,216	-0,106
-717,006	800,000	0,052	-0,153
-715,991	-200,000	-0,007	-0,150
-714,977	271,518	-0,054	-0,069
-713,962	13,975	-0,109	-0,062
-712,948	94,663	0,008	0,006
-711,933	35,558	-0,028	0,018
-710,918	162,477	-0,047	-0,048
-709,904	137,536	0,087	-0,082
-708,889	62,250	0,077	-0,056
-707,875	-200,000	-0,001	-0,112
-706,860	-200,000	-0,005	-0,076
-705,845	123,973	0,088	0,080
-704,831	777,053	-0,068	0,136
-703,816	-96,914	0,039	0,007
-702,802	-64,035	-0,035	0,010
-701,787	800,000	-0,051	-0,112
-700,772	463,300	-0,065	-0,105
-699,758	-200,000	0,048	-0,199
-698,743	-27,227	0,132	-0,056
-697,729	-200,000	0,011	-0,059
-696,714	-32,882	0,026	0,010
-695,699	72,588	-0,011	0,008
-694,685	7,498	-0,107	-0,058
-693,670	21,180	0,058	0,034
-692,656	-65,891	-0,033	0,009
-691,641	800,000	0,009	0,019
-690,627	-3,519	0,116	0,059
-689,612	-167,328	0,100	-0,003
-688,597	22,693	-0,032	-0,019
-687,583	-200,000	0,035	-0,148
-686,568	773,077	0,076	0,151
-685,554	-102,522	0,097	0,017
-684,539	800,000	-0,072	-0,175
-683,524	-200,000	-0,001	-0,020
-682,510	-200,000	0,003	-0,022
-681,495	-200,000	0,009	-0,100
-680,481	-200,000	-0,008	0,061
-679,466	800,000	-0,092	-0,194
-678,451	248,820	0,044	0,055
-677,437	11,464	-0,024	-0,013
-676,422	-200,000	0,015	0,071
-675,408	89,476	-0,156	0,126
-674,393	228,543	-0,082	0,097
-673,378	56,326	0,036	0,025
-672,364	362,866	-0,048	-0,071
-671,349	-200,000	0,004	-0,074
-670,335	62,393	0,041	-0,030
-669,320	-13,362	0,102	0,048
-668,305	800,000	0,036	0,089
-667,291	-200,000	-0,001	0,010
-666,276	3,971	-0,258	-0,136
-665,262	-21,401	0,116	-0,051
-664,247	-88,779	-0,271	-0,058
-663,232	-200,000	-0,008	-0,057
-662,218	800,000	0,048	0,115
-661,203	-46,020	-0,087	0,031
-660,189	473,853	-0,047	-0,077
-659,174	-200,000	-0,002	-0,039
-658,159	-98,360	-0,042	0,008
-657,145	-91,849	-0,103	0,021
-656,130	729,554	0,029	0,056
-655,116	136,816	-0,069	-0,065
-654,101	622,263	-0,035	-0,064
-653,086	423,994	-0,044	-0,069
-652,072	2,517	-0,039	-0,020
-651,057	-200,000	-0,020	-0,092
-650,043	-200,000	-0,010	-0,067
-649,028	-64,395	-0,062	0,018
-648,014	800,000	0,081	0,173
-646,999	550,627	0,054	0,094
-645,984	-200,000	-0,003	-0,119
-644,970	51,039	0,093	-0,064
-643,955	-168,025	0,121	0,003
-642,941	-45,137	-0,081	-0,029
-641,926	800,000	-0,037	0,103
-640,911	-51,481	0,064	0,021
-639,897	655,645	-0,024	0,044
-638,882	33,285	-0,175	0,110
-637,868	-116,568	-0,115	0,015
-636,853	-72,015	-0,085	-0,023
-635,838	201,926	0,108	-0,121
-634,824	132,906	0,088	0,082
-633,809	-200,000	0,037	0,155
-632,795	-172,662	0,123	0,003
-631,780	-60,905	-0,012	-0,004
-630,765	-128,012	-0,107	0,011
-629,751	81,523	-0,108	-0,084
-628,736	35,687	-0,036	0,023
-627,722	800,000	0,035	0,085
-626,707	102,467	-0,067	0,057
-625,692	209,022	-0,040	0,045
-624,678	25,405	0,059	0,035
-623,663	-200,000	-0,006	-0,030
-622,649	-52,783	-0,054	-0,018
-621,634	511,428	0,080	-0,135
-620,619	-200,000	-0,015	-0,057
-619,605	280,882	0,030	-0,040
-618,590	469,790	-0,025	-0,041
-617,576	74,855	0,062	0,047
-616,561	800,000	-0,032	-0,094
-615,546	0,060	0,027	-0,014
-614,532	-200,000	-0,019	-0,155
-613,517	29,926	-0,171	-0,105
-612,503	3,790	0,106	0,056
-611,488	-107,352	0,095	-0,015
-610,474	65,665	-0,055	-0,040
-609,459	-200,000	0,000	-0,029
-608,444	48,551	-0,067	0,046
-607,430	-200,000	-0,000	-0,016
-606,415	175,937	-0,176	-0,186
-605,401	-200,000	-0,013	-0,167
-604,386	-200,000	-0,006	0,126
-603,371	374,249	-0,047	0,069
-602,357	-113,017	-0,050	0,007
-601,342	-77,979	-0,124	-0,031
-600,328	126,585	-0,101	-0,092
-599,313	-200,000	0,005	-0,035
-598,298	800,000	-0,040	0,095
-597,284	44,230	0,099	0,065
-596,269	-200,000	0,001	-0,033
-595,255	-164,121	0,072	-0,002
-594,240	136,511	-0,117	0,111
-593,225	174,519	-0,041	0,043
-592,211	-69,712	-0,075	0,021
-591,196	-200,000	0,022	-0,127
-590,182	-200,000	-0,005	-0,075
-589,167	403,861	0,082	0,125
-588,152	-59,612	0,179	0,055
-587,138	-200,000	0,002	-0,028
-586,123	193,670	-0,046	-0,050
-585,109	-200,000	-0,034	-0,115
-584,094	643,016	-0,062	0,114
-583,079	-200,000	0,005	0,092
-582,065	-200,000	0,005	0,022
-581,050	82,621	0,057	0,045
-580,036	55,141	0,035	0,024
-579,021	800,000	-0,022	0,046
-578,006	407,397	-0,016	0,025
-576,992	-36,368	0,084	-0,033
-575,977	-36,918	0,051	0,020
-574,963	75,988	0,154	0,118
-573,948	272,347	-0,055	-0,070
-572,934	-200,000	-0,018	-0,059
-571,919	25,368	-0,068	0,041
-570,904	92,012	-0,118	-0,096
-569,890	-200,000	-0,002	-0,082
-568,875	128,120	-0,065	-0,060
-567,861	315,257	0,067	0,092
-566,846	196,319	0,015	-0,017
-565,831	8,846	0,064	0,035
-564,817	248,655	-0,083	-0,102
-563,802	-200,000	-0,022	-0,172
-562,788	120,778	-0,069	0,062
-561,773	-141,703	-0,022	0,002
-560,758	-19,616	-0,054	0,024
-559,744	7,665	0,058	0,032
-558,729	-200,000	-0,020	0,083
-557,715	-200,000	-0,001	-0,032
-556,700	-200,000	0,011	-0,077
-555,685	-200,000	-0,019	-0,079
-554,671	800,000	0,017	0,037
-553,656	79,593	-0,102	-0,079
-552,642	530,906	-0,016	0,027
-551,627	-38,888	-0,038	0,015
-550,612	99,950	-0,053	-0,044
-549,598	78,549	-0,143	-0,110
-548,583	87,458	-0,054	0,043
-547,569	-39,299	0,081	-0,031
-546,554	-7,908	-0,139	-0,067
-545,539	-47,317	0,040	-0,014
-544,525	412,502	-0,058	0,090
-543,510	70,418	-0,113	0,085
-542,496	-200,000	0,009	-0,091
-541,481	-200,000	-0,016	-0,150
-540,466	-200,000	-0,018	-0,099
-539,452	544,299	-0,059	-0,102
-538,437	-200,000	0,018	0,177
-537,423	435,785	-0,063	0,099
-536,408	81,323	0,066	-0,052
-535,393	-40,002	-0,128	-0,048
-534,379	-200,000	0,001	-0,115
-533,364	79,849	0,116	-0,090
-532,350	-200,000	0,015	0,155
-531,335	423,053	0,038	-0,059
-530,321	-114,970	-0,042	0,006
-529,306	-200,000	0,019	-0,069
-528,291	1,104	-0,096	0,049
-527,277	-65,075	0,104	0,030
-526,262	644,437	0,050	-0,093
-525,248	-4,572	0,005	-0,003
-524,233	216,309	-0,055	-0,063
-523,218	-200,000	0,085	-0,000
-522,204	-200,000	-0,017	-0,072
-521,189	-97,497	-0,131	-0,024
-520,175	689,753	0,045	-0,085
-519,160	10,288	-0,177	-0,097
-518,145	793,184	-0,037	-0,074
-517,131	-200,000	-0,024	0,149
-516,116	800,000	-0,039	0,117
-515,102	-200,000	0,022	0,098
-514,087	202,995	-0,054	0,060
-513,072	800,000	-0,051	-0,130
-512,058	-200,000	-0,004	-0,039
-511,043	-126,002	0,033	-0,004
-510,029	-108,046	0,051	-0,008
-509,014	-81,816	-0,128	0,030
-507,999	-200,000	-0,016	0,096
-506,985	123,175	0,082	0,074
-505,970	719,885	-0,051	-0,099
-504,956	800,000	0,039	-0,098
-503,941	-200,000	-0,013	-0,102
-502,926	-200,000	-0,018	-0,099
-501,912	147,208	0,024	0,024
-500,897	-200,000	-0,017	0,084
-499,883	800,000	-0,066	-0,191
-498,868	-200,000	0,012	-0,058
-497,853	-200,000	-0,012	0,101
-496,839	-142,407	0,041	0,003
-495,824	800,000	-0,020	-0,044
-494,810	10,558	0,078	-0,043
-493,795	-42,045	0,078	-0,029
-492,781	800,000	-0,056	-0,117
-491,766	800,000	-0,068	-0,210
-490,751	-195,278	-0,110	0,001
-489,737	94,485	0,107	-0,087
-488,722	371,779	0,047	0,068
-487,708	-123,972	0,026	0,003
-486,693	59,850	-0,019	-0,013
-485,678	-200,000	0,005	-0,140
-484,664	-82,825	-0,146	-0,034
-483,649	-200,000	-0,001	0,186
-482,635	-15,947	-0,052	-0,024
-481,620	778,829	0,078	0,155
-480,605	-200,000	0,049	0,161
-479,591	-58,276	-0,049	0,015
-478,576	-200,000	-0,110	0,000
-477,562	127,809	-0,076	0,069
-476,547	-168,367	-0,189	-0,005
-475,532	223,852	0,014	0,016
-474,518	-145,332	0,065	0,004
-473,503	800,000	0,026	0,083
-472,489	800,000	0,066	0,144
-471,474	-109,106	-0,033	-0,005
-470,459	62,880	-0,136	-0,098
-469,445	-200,000	-0,003	0,015
-468,430	-200,000	-0,017	0,120
-467,416	64,649	-0,120	0,087
-466,401	61,343	0,144	-0,103
-465,386	-200,000	-0,001	-0,054
-464,372	471,969	0,020	-0,033
-463,357	33,202	-0,161	-0,101
-462,343	-85,538	-0,025	0,006
-461,328	-119,352	-0,132	0,016
-460,313	52,810	-0,016	0,011
-459,299	202,492	0,022	-0,025
-458,284	-138,314	-0,071	0,006
-457,270	800,000	0,026	0,066
-456,255	60,305	-0,093	-0,066
-455,241	-18,359	-0,098	-0,044
-454,226	598,798	-0,078	0,141
-453,211	318,338	0,006	-0,009
-452,197	113,851	0,076	0,066
-451,182	25,305	-0,008	-0,005
-450,168	-180,178	0,236	0,003
-449,153	266,089	-0,065	-0,081
-448,138	-38,028	-0,078	0,030
-447,124	-154,834	0,074	-0,003
-446,109	-19,797	0,085	-0,038
-445,095	-193,204	0,089	0,001
-444,080	-42,505	-0,057	-0,021
-443,065	-200,000	-0,036	0,188
-442,051	600,656	-0,049	0,088
-441,036	138,116	-0,065	0,061
-440,022	144,734	-0,037	-0,036
-439,007	94,598	0,043	0,035
-437,992	-200,000	0,032	0,127
-436,978	105,008	0,065	0,055
-435,963	277,597	0,092	0,118
-434,949	17,356	-0,096	0,055
-433,934	-200,000	-0,010	-0,071
-432,919	349,309	0,049	-0,069
-431,905	510,504	-0,095	-0,159
-430,890	800,000	0,011	0,029
-429,876	74,789	0,095	-0,072
-428,861	800,000	-0,072	0,145
-427,846	77,242	-0,036	0,027
-426,832	-48,929	-0,119	0,041
-425,817	132,650	-0,056	-0,052
-424,803	178,680	-0,040	-0,042
-423,788	569,776	0,045	-0,078
-422,773	58,714	-0,041	0,029
-421,759	-200,000	0,000	-0,055
-420,744	-200,000	0,021	0,127
-419,730	-22,308	-0,100	-0,043
-418,715	-200,000	0,016	-0,132
-417,701	-200,000	-0,056	-0,229
-416,686	90,522	0,211	0,170
-415,671	-200,000	-0,004	0,031
-414,657	-112,920	0,008	-0,001
-413,642	-49,809	-0,043	0,015
-412,628	-200,000	-0,004	-0,032
-411,613	-27,046	0,022	0,009
-410,598	-24,307	0,062	-0,026
-409,584	-200,000	0,036	-0,198
-408,569	-200,000	0,011	-0,074
-407,555	96,520	-0,063	0,052
-406,540	-200,000	-0,012	0,198
-405,525	800,000	0,027	0,074
-404,511	-63,276	0,030	-0,009
-403,496	-200,000	0,000	-0,019
-402,482	104,139	0,037	0,031
-401,467	167,262	0,144	-0,148
-400,452	95,736	0,085	0,070
-399,438	-200,000	0,022	0,193
-398,423	-58,498	-0,060	-0,019
-397,409	800,000	0,019	-0,055
-396,394	-200,000	-0,026	-0,150
-395,379	800,000	0,009	0,021
-394,365	-200,000	-0,002	0,110
-393,350	64,902	0,200	0,145
-392,336	-4,056	0,108	0,054
-391,321	-159,592	0,065	-0,003
-390,306	-171,932	-0,076	0,002
-389,292	-52,972	-0,066	-0,022
-388,277	-108,106	0,102	0,016
-387,263	-84,636	0,134	0,030
-386,248	-36,150	0,095	-0,036
-385,233	-200,000	0,015	0,195
-384,219	-139,723	-0,156	-0,012
-383,204	-200,000	0,008	0,062
-382,190	505,925	-0,049	-0,081
-381,175	-128,681	-0,077	-0,008
-380,160	-9,481	-0,061	0,029
-379,146	453,997	-0,041	-0,065
-378,131	40,976	0,119	-0,077
-377,117	-79,873	-0,137	-0,033
-376,102	406,950	-0,075	0,114
-375,088	-200,000	-0,046	-0,209
-374,073	-200,000	-0,003	0,026
-373,058	103,491	0,056	0,047
-372,044	85,304	0,075	-0,059
-371,029	303,311	0,132	-0,175
-370,015	-200,000	-0,006	-0,136
-369,000	-12,370	0,121	-0,057
-367,985	109,292	-0,093	-0,080
-366,971	428,063	-0,027	-0,042
-365,956	22,178	0,039	0,023
-364,942	-18,867	0,079	0,035
-363,927	-161,706	0,057	-0,002
-362,912	800,000	0,042	0,091
-361,898	800,000	0,030	-0,074
-360,883	-99,159	0,080	-0,014
-359,869	110,618	-0,048	0,042
-358,854	-200,000	0,015	0,076
-357,839	24,527	-0,031	-0,018
-356,825	800,000	-0,016	0,048
-355,810	195,393	-0,040	-0,044
-354,796	-89,595	-0,033	0,007
-353,781	-200,000	0,012	-0,102
-352,766	193,377	0,134	-0,145
-351,752	-26,589	0,021	0,009
-350,737	-103,531	0,081	-0,014
-349,723	-89,551	0,136	0,028
-348,708	68,846	0,029	0,021
-347,693	-200,000	-0,028	0,098
-346,679	333,795	0,052	-0,073
-345,664	-200,000	-0,014	-0,060
-344,650	123,830	0,120	-0,109
-343,635	213,702	0,031	0,035
-342,620	83,610	-0,078	0,061
-341,606	55,363	0,104	-0,072
-340,591	484,329	-0,028	-0,046
-339,577	284,914	-0,045	0,059
-338,562	-140,640	0,103	-0,008
-337,548	52,548	0,073	0,050
-336,533	-200,000	-0,012	-0,067
-335,518	-76,797	0,082	-0,020
-334,504	236,768	0,087	-0,104
-333,489	194,046	-0,036	0,040
-332,475	366,056	-0,090	-0,131
-331,460	131,598	-0,091	-0,084
-330,445	141,130	-0,052	-0,049
-329,431	-53,437	0,217	0,071
-328,416	-28,720	0,032	0,013
-327,402	705,283	-0,030	0,058
-326,387	-33,837	0,091	0,036
-325,372	800,000	0,015	0,044
-324,358	108,655	-0,055	-0,047
-323,343	-30,231	0,137	-0,055
-322,329	-96,967	-0,062	-0,012
-321,314	-200,000	-0,010	-0,079
-320,299	136,170	0,091	0,085
-319,285	-108,148	0,146	0,022
-318,270	-113,587	-0,213	0,030
-317,256	562,220	0,021	-0,036
-316,241	-200,000	0,019	0,064
-315,226	-116,323	0,105	-0,014
-314,212	-200,000	0,006	0,067
-313,197	760,694	-0,032	-0,062
-312,183	-200,000	0,019	0,093
-311,168	-200,000	-0,010	-0,084
-310,153	-98,273	-0,107	-0,019
-309,139	-200,000	-0,004	0,060
-308,124	-85,499	0,258	0,057
-307,110	185,597	0,076	0,081
-306,095	427,367	0,052	0,081
-305,080	-200,000	0,019	-0,087
-304,066	-127,806	0,095	0,010
-303,051	-200,000	-0,003	-0,117
-302,037	167,436	-0,072	-0,074
-301,022	-4,174	0,123	0,061
-300,008	-9,811	0,045	0,021
-298,993	-200,000	0,006	0,157
-297,978	-124,798	0,093	0,010
-296,964	-79,826	-0,071	-0,017
-295,949	-89,220	-0,073	-0,015
-294,935	-169,372	0,093	0,002
-293,920	-68,146	0,027	-0,008
-292,905	-200,000	-0,003	-0,036
-291,891	80,006	0,051	-0,039
-290,876	-19,792	0,134	0,059
-289,862	800,000	0,045	-0,094
-288,847	298,530	-0,104	-0,137
-287,832	93,437	-0,118	-0,095
-286,818	536,456	-0,073	-0,125
-285,803	-23,865	0,108	0,046
-284,789	-200,000	-0,037	0,177
-283,774	800,000	0,058	0,131
-282,759	705,097	0,068	0,128
-281,745	727,413	0,026	0,050
-280,730	-200,000	-0,008	0,032
-279,716	659,596	-0,044	-0,081
-278,701	142,415	0,079	0,075
-277,686	337,066	0,078	0,108
-276,672	-200,000	-0,007	-0,026
-275,657	13,478	-0,052	0,029
-274,643	57,872	0,044	-0,031
-273,628	-59,278	0,039	-0,012
-272,613	-200,000	-0,035	-0,123
-271,599	-95,710	0,166	0,031
-270,584	275,400	-0,029	0,037
-269,570	800,000	-0,003	0,007
-268,555	-200,000	0,033	0,157
-267,540	317,525	0,057	0,077
-266,526	-139,535	-0,059	0,004
-265,511	800,000	-0,045	0,093
-264,497	201,241	-0,042	0,046
-263,482	683,767	-0,080	0,150
-262,467	120,937	0,070	0,062
-261,453	229,121	0,013	0,015
-260,438	-126,665	-0,082	0,009
-259,424	-30,628	0,118	-0,047
-258,409	-107,224	-0,101	0,016
-257,395	-200,000	0,033	0,119
-256,380	37,957	-0,113	0,072
-255,365	738,932	0,022	0,042
-254,351	-84,976	-0,134	-0,030
-253,336	800,000	0,037	-0,084
-252,322	-50,568	0,050	-0,017
-251,307	-31,831	0,006	0,002
-250,292	23,962	0,041	-0,024
-249,278	144,634	-0,060	-0,057
-248,263	64,111	0,070	0,050
-247,249	-102,218	-0,104	0,018
-246,234	-200,000	-0,053	0,215
-245,219	-10,941	-0,169	0,079
-244,205	310,757	-0,028	-0,038
-243,190	-43,893	0,071	0,025
-242,176	800,000	0,039	0,093
-241,161	423,831	0,039	0,061
-240,146	15,838	0,124	0,070
-239,132	800,000	0,026	-0,060
-238,117	496,026	0,019	0,032
-237,103	146,839	0,033	-0,031
-236,088	192,168	0,076	0,082
-235,073	-97,605	0,028	-0,005
-234,059	67,381	-0,005	0,004
-233,044	-48,350	0,184	0,063
-232,030	-21,939	0,013	-0,006
-231,015	-200,000	0,017	-0,059
-230,000	-14,286	0,085	-0,039
-228,986	-200,000	-0,005	0,132
-227,971	-71,400	-0,133	-0,035
-226,957	-58,028	0,159	-0,049
-225,942	125,974	0,036	-0,033
-224,927	-200,000	-0,005	-0,023
-223,913	367,669	-0,146	-0,211
-222,898	-132,502	-0,076	-0,007
-221,884	800,000	0,047	0,148
-220,869	-90,832	-0,121	-0,025
-219,855	187,299	-0,073	0,078
-218,840	-89,768	0,058	0,012
-217,825	163,075	0,051	0,051
-216,811	-200,000	-0,013	-0,058
-215,796	488,592	-0,057	-0,093
-214,782	-200,000	-0,004	-0,040
-213,767	15,731	-0,051	-0,029
-212,752	444,276	0,032	0,050
-211,738	-150,188	0,105	0,006
-210,723	495,283	0,065	0,107
-209,709	-126,888	-0,064	0,007
-208,694	139,064	-0,094	-0,089
-207,679	800,000	0,033	-0,098
-206,665	800,000	-0,058	0,135
-205,650	-93,459	0,046	0,009
-204,636	-66,848	-0,059	-0,017
-203,621	344,082	-0,052	-0,072
-202,606	-60,908	0,049	0,015
-201,592	-86,213	-0,102	-0,022
-200,577	63,306	-0,174	0,124
-199,563	42,571	-0,094	0,061
-198,548	-147,678	0,092	0,005
-197,533	9,620	-0,002	-0,001
-196,519	-200,000	0,011	0,084
-195,504	-110,705	-0,091	-0,013
-194,490	-200,000	0,042	-0,273
-193,475	-119,312	0,041	-0,005
-192,460	800,000	-0,038	-0,094
-191,446	214,411	0,052	-0,059
-190,431	-200,000	0,030	-0,102
-189,417	-166,244	0,088	-0,003
-188,402	-143,907	-0,128	0,008
-187,387	280,200	0,034	0,044
-186,373	172,301	0,058	-0,059
-185,358	-200,000	0,029	-0,112
-184,344	-200,000	-0,002	0,068
-183,329	83,241	-0,091	0,070
-182,315	32,239	0,035	-0,022
-181,300	800,000	-0,013	0,029
-180,285	118,607	0,024	0,022
-179,271	63,657	-0,061	0,043
-178,256	707,132	-0,067	0,126
-177,242	-200,000	-0,048	-0,198
-176,227	-200,000	0,003	0,040
-175,212	-34,449	0,230	-0,089
-174,198	228,923	-0,039	0,046
-173,183	-200,000	0,008	-0,075
-172,169	-142,754	0,029	-0,002
-171,154	800,000	0,038	-0,115
-170,139	45,349	0,092	0,061
-169,125	-200,000	-0,040	0,141
-168,110	-10,030	-0,059	0,028
-167,096	369,152	-0,057	-0,082
-166,081	260,114	-0,075	0,093
-165,066	-200,000	-0,009	0,049
-164,052	171,856	0,115	0,118
-163,037	-15,873	-0,070	0,032
-162,023	800,000	-0,023	0,067
-161,008	7,103	0,132	-0,070
-159,993	295,401	-0,042	0,054
-158,979	262,937	0,050	-0,062
-157,964	-99,768	-0,028	0,005
-156,950	-200,000	-0,010	0,150
-155,935	-30,926	0,114	0,046
-154,920	45,072	-0,128	0,083
-153,906	-89,969	0,030	0,006
-152,891	-200,000	-0,005	-0,122
-151,877	-86,520	0,096	0,021
-150,862	-29,521	-0,101	-0,041
-149,847	312,492	-0,071	0,095
-148,833	-111,806	-0,147	0,021
-147,818	-200,000	0,064	0,217
-146,804	273,636	-0,112	0,142
-145,789	-200,000	0,012	0,061
-144,775	97,407	0,134	0,109
-143,760	74,046	-0,116	-0,087
-142,745	62,285	-0,070	-0,050
-141,731	-95,700	0,083	0,016
-140,716	-200,000	0,050	0,180
-139,702	-55,980	0,113	0,036
-138,687	-90,450	-0,068	0,014
-137,672	800,000	-0,044	-0,109
-136,658	367,250	0,020	-0,029
-135,643	-200,000	0,003	0,053
-134,629	2,961	-0,052	0,027
-133,614	152,440	0,015	-0,015
-132,599	-128,209	0,102	-0,010
-131,585	800,000	-0,017	-0,039
-130,570	800,000	0,041	0,087
-129,556	-200,000	0,007	-0,075
-128,541	449,118	0,023	0,036
-127,526	800,000	-0,014	0,038
-126,512	-200,000	-0,003	0,100
-125,497	638,903	0,033	-0,060
-124,483	231,461	-0,076	0,088
-123,468	20,649	0,194	0,111
-122,453	263,680	0,043	0,054
-121,439	-94,215	0,093	0,018
-120,424	299,671	-0,089	-0,117
-119,410	-92,205	-0,024	-0,005
-118,395	381,364	-0,018	-0,026
-117,380	26,072	0,149	0,088
-116,366	-200,000	0,024	0,141
-115,351	139,350	-0,087	-0,082
-114,337	-200,000	0,003	-0,162
-113,322	7,860	0,165	0,088
-112,307	241,052	0,036	-0,043
-111,293	197,366	0,074	-0,080
-110,278	-151,366	-0,189	-0,010
-109,264	-84,709	0,146	0,032
-108,249	800,000	-0,034	-0,097
-107,234	702,762	-0,018	-0,035
-106,220	547,719	-0,044	-0,076
-105,205	-32,637	0,022	0,009
-104,191	105,762	-0,044	0,037
-103,176	-94,898	0,108	0,021
-102,162	36,912	0,022	0,014
-101,147	-99,087	0,077	-0,014
-100,132	67,596	-0,038	-0,027
-99,118	-138,334	-0,125	0,010
-98,103	-157,274	-0,054	-0,002
-97,089	-200,000	0,007	-0,063
-96,074	72,032	0,049	0,036
-95,059	689,796	0,051	0,096
-94,045	328,131	0,049	-0,067
-93,030	-65,354	-0,101	-0,029
-92,016	-121,965	0,051	0,006
-91,001	83,772	0,103	0,080
-89,986	-114,611	0,083	-0,011
-88,972	-200,000	0,023	0,138
-87,957	142,347	-0,037	0,035
-86,943	-125,910	-0,117	0,012
-85,928	800,000	-0,019	0,049
-84,913	214,184	0,054	-0,061
-83,899	248,876	-0,064	0,077
-82,884	105,709	0,040	0,033
-81,870	-118,654	0,024	-0,003
-80,855	-200,000	-0,002	-0,048
-79,840	-76,270	-0,131	0,033
-78,826	800,000	0,043	0,089
-77,811	249,144	-0,013	0,016
-76,797	532,738	0,027	-0,046
-75,782	800,000	-0,037	0,096
-74,767	-93,336	-0,072	-0,014
-73,753	-200,000	-0,009	0,103
-72,738	38,105	0,081	-0,051
-71,724	-200,000	0,025	-0,081
-70,709	644,389	0,075	-0,137
-69,694	-91,029	0,064	-0,013
-68,680	93,787	-0,046	0,037
-67,665	-19,627	0,103	0,045
-66,651	450,699	-0,064	0,101
-65,636	373,090	-0,068	0,098
-64,622	-200,000	0,036	-0,157
-63,607	285,573	-0,026	0,033
-62,592	-200,000	-0,032	-0,189
-61,578	134,724	-0,061	-0,056
-60,563	800,000	0,071	0,154
-59,549	-17,151	-0,111	0,049
-58,534	-59,951	-1,475	-0,444
-57,519	362,246	-1,581	-2,257
-56,505	-200,000	-0,581	-4,510
-55,490	208,859	0,869	0,966
-54,476	800,000	4,825	11,236
-53,461	-200,000	18,231	288,104
-52,446	800,000	727,801	2234,084
-51,432	557,806	1643,654	2822,019
-50,417	79,170	1664,871	1263,789
-49,403	22,824	1538,416	891,672
-48,388	16,835	1461,415	818,010
-47,373	17,866	1451,561	817,433
-46,359	17,231	1442,066	809,017
-45,344	15,069	1437,295	795,974
-44,330	14,989	1435,444	794,535
-43,315	15,001	1433,723	793,609
-42,300	14,981	1432,314	792,702
-41,286	15,066	1430,979	792,338
-40,271	15,021	1429,692	791,377
-39,257	14,993	1428,480	790,544
-38,242	15,089	1426,912	790,099
-37,227	15,100	1425,760	789,484
-36,213	15,109	1424,387	788,735
-35,198	15,057	1423,315	787,862
-34,184	15,121	1422,396	787,625
-33,169	14,989	1421,255	786,338
-32,154	15,083	1420,388	786,271
-31,140	15,066	1418,920	785,348
-30,125	15,133	1417,653	784,931
-29,111	15,109	1416,524	784,160
-28,096	15,071	1415,547	783,410
-27,082	15,005	1414,488	782,484
-26,067	15,016	1413,317	781,856
-25,052	14,968	1412,353	781,066
-24,038	14,972	1411,380	780,518
-23,023	14,959	1410,367	779,862
-22,009	14,968	1409,102	779,177
-20,994	14,942	1408,302	778,579
-19,979	14,945	1407,401	778,067
-18,965	14,928	1406,280	777,334
-17,950	14,946	1405,443	776,925
-16,936	14,908	1404,587	776,243
-15,921	14,906	1403,410	775,556
-14,906	14,902	1402,577	775,043
-13,892	14,926	1401,561	774,564
-12,877	14,888	1400,902	773,992
-11,863	14,866	1399,900	773,304
-10,848	14,883	1399,141	772,933
-9,833	14,805	1398,285	772,070
-8,819	14,834	1397,159	771,553
-7,804	14,824	1396,192	770,939
-6,790	14,859	1395,219	770,532
-5,775	14,806	1394,052	769,616
-4,760	14,815	1393,029	769,061
-3,746	14,806	1392,318	768,593
-2,731	14,804	1391,586	768,149
-1,717	14,816	1390,596	767,629
-0,702	14,797	1388,717	766,476
0,313	18,501	1308,189	739,217
1,327	34,704	706,116	436,580
2,342	52,814	124,623	84,308
3,356	3,930	16,550	8,545
4,371	4,117	3,195	1,652
5,386	36,304	0,504	0,314
6,400	-200,000	0,015	0,194
7,415	18,101	-0,127	-0,071
8,429	11,590	-0,325	-0,176
9,444	-69,456	-0,278	-0,075
10,459	-20,002	-0,394	-0,171
11,473	-165,642	-0,363	0,011
12,488	32,150	-0,167	-0,102
13,502	44,043	-0,392	-0,254
14,517	61,222	-0,259	-0,182
15,531	54,890	-0,301	-0,205
16,546	-68,967	-0,392	-0,106
17,561	270,703	-0,288	-0,360
18,575	359,383	-0,142	-0,201
19,590	198,357	-0,180	-0,196
20,604	-49,962	-0,360	-0,120
21,619	127,371	-0,400	-0,360
22,634	60,320	-0,515	-0,360
23,648	139,186	-0,403	-0,375
24,663	204,225	-0,248	-0,272
25,677	57,717	-0,399	-0,276
26,692	-9,220	-0,326	-0,154
27,707	-23,343	-0,459	-0,194
28,721	133,067	-0,335	-0,306
29,736	87,411	-0,510	-0,398
30,750	205,975	-0,406	-0,447
31,765	102,156	-0,384	-0,317
32,780	276,659	-0,311	-0,391
33,794	11,500	-0,443	-0,239
34,809	-58,340	-0,466	-0,142
35,823	16,427	-0,506	-0,282
36,838	-0,523	-0,454	-0,227
37,853	12,568	-0,384	-0,209
38,867	124,858	-0,298	-0,265
39,882	-42,614	-0,402	-0,144
40,896	22,026	-0,495	-0,284
41,911	251,058	-0,200	-0,241
42,926	41,626	-0,390	-0,249
43,940	130,118	-0,320	-0,289
44,955	460,248	-0,177	-0,279
45,969	65,339	-0,423	-0,301
46,984	80,036	-0,348	-0,264
47,999	-17,998	-0,380	-0,167
49,013	64,260	-0,330	-0,234
50,028	73,858	-0,298	-0,220
51,042	199,179	-0,237	-0,256
52,057	60,956	-0,371	-0,259
53,071	105,421	-0,360	-0,300
54,086	53,882	-0,302	-0,204
55,101	65,058	-0,282	-0,201
56,115	95,580	-0,389	-0,313
57,130	-29,135	-0,436	-0,175
58,144	60,804	-0,296	-0,207
59,159	49,105	-0,366	-0,242
60,174	18,807	-0,503	-0,283
61,188	24,394	-0,335	-0,195
62,203	14,398	-0,296	-0,162
63,217	-95,380	-0,204	-0,038
64,232	-18,363	-0,391	-0,172
65,247	168,006	-0,359	-0,360
66,261	253,438	-0,330	-0,398
67,276	273,462	-0,303	-0,378
68,290	431,602	-0,203	-0,311
69,305	498,478	-0,140	-0,229
70,320	177,751	-0,329	-0,338
71,334	33,355	-0,402	-0,245
72,349	42,140	-0,291	-0,186
73,363	41,322	-0,372	-0,237
74,378	97,760	-0,296	-0,239
75,393	179,440	-0,319	-0,330
76,407	-5,584	-0,384	-0,185
77,422	108,745	-0,208	-0,175
78,436	122,167	-0,256	-0,225
79,451	107,861	-0,305	-0,255
80,466	44,312	-0,295	-0,191
81,480	22,036	-0,441	-0,252
82,495	-30,803	-0,327	-0,129
83,509	-103,619	-0,270	-0,044
84,524	-78,936	-0,361	-0,086
85,539	-181,570	-0,141	0,002
86,553	-16,641	-0,303	-0,134
87,568	-6,640	-0,377	-0,180
88,582	9,448	-0,272	-0,145
89,597	43,601	-0,230	-0,148
90,611	58,546	-0,254	-0,175
91,626	1,423	-0,225	-0,113
92,641	-110,414	-0,183	-0,026
93,655	19,231	-0,340	-0,191
94,670	238,078	-0,224	-0,262
95,684	318,268	-0,289	-0,386
96,699	-13,286	-0,337	-0,153
97,714	180,293	-0,205	-0,212
98,728	-130,727	-0,319	-0,030
99,743	-108,964	-0,313	-0,046
100,757	88,978	-0,284	-0,222
101,772	146,695	-0,244	-0,230
102,787	-30,503	-0,524	-0,208
103,801	-30,062	-0,423	-0,168
104,816	59,170	-0,248	-0,171
105,830	24,414	-0,196	-0,114
106,845	-39,489	-0,406	-0,149
107,860	-56,486	-0,405	-0,125
108,874	12,811	-0,291	-0,158
109,889	16,182	-0,273	-0,151
110,903	22,833	-0,440	-0,252
111,918	57,457	-0,153	-0,105
112,933	26,422	-0,206	-0,121
113,947	37,202	-0,291	-0,181
114,962	81,831	-0,296	-0,225
115,976	122,120	-0,201	-0,176
116,991	278,881	-0,242	-0,304
118,006	-64,667	-0,334	-0,094
119,020	114,758	-0,264	-0,226
120,035	24,927	-0,240	-0,139
121,049	61,751	-0,210	-0,146
122,064	-48,364	-0,279	-0,094
123,079	111,307	-0,197	-0,167
124,093	104,094	-0,320	-0,264
125,108	61,058	-0,268	-0,186
126,122	184,244	-0,261	-0,271
127,137	-68,373	-0,337	-0,091
128,151	40,079	-0,204	-0,128
129,166	394,201	-0,186	-0,272
130,181	351,849	-0,186	-0,259
131,195	-7,415	-0,307	-0,145
132,210	201,639	-0,245	-0,264
133,224	119,932	-0,250	-0,217
134,239	-125,009	-0,222	0,024
135,254	-200,000	-0,011	-0,065
136,268	51,844	-0,164	-0,109
137,283	5,205	-0,269	-0,138
138,297	-17,291	-0,279	-0,123
139,312	363,477	-0,241	-0,339
140,327	800,000	-0,092	-0,196
141,341	20,780	-0,249	-0,141
142,356	182,854	-0,224	-0,232
143,370	800,000	-0,049	-0,100
144,385	-184,245	-0,188	-0,002
145,400	28,449	-0,383	-0,226
146,414	144,007	-0,290	-0,271
147,429	235,043	-0,312	-0,361
148,443	160,584	-0,203	-0,198
149,458	120,658	-0,195	-0,170
150,473	800,000	-0,094	-0,232
151,487	72,241	-0,250	-0,182
152,502	45,407	-0,220	-0,142
153,516	-138,971	-0,245	-0,018
154,531	58,641	-0,268	-0,184
155,546	-13,153	-0,211	-0,095
156,560	82,670	-0,215	-0,163
157,575	-58,846	-0,259	-0,078
158,589	-175,134	-0,378	0,007
159,604	224,639	-0,277	-0,313
160,619	288,950	-0,183	-0,233
161,633	47,864	-0,353	-0,230
162,648	95,319	-0,262	-0,208
163,662	-11,038	-0,184	-0,085
164,677	182,552	-0,166	-0,171
165,692	-26,778	-0,165	-0,067
166,706	-31,740	-0,189	-0,074
167,721	-26,282	-0,241	-0,098
168,735	12,960	-0,387	-0,208
169,750	9,386	-0,223	-0,118
170,764	-25,354	-0,209	-0,086
171,779	-60,160	-0,092	-0,027
172,794	-80,071	-0,271	-0,063
173,808	29,689	-0,267	-0,158
174,823	381,059	-0,225	-0,323
175,837	106,956	-0,184	-0,152
176,852	185,337	-0,140	-0,145
177,867	-19,640	-0,306	-0,132
178,881	-57,638	-0,167	-0,051
179,896	287,227	-0,180	-0,228
180,910	73,584	-0,225	-0,164
181,925	800,000	-0,100	-0,212
182,940	388,039	-0,170	-0,246
183,954	-7,935	-0,252	-0,118
184,969	-59,957	-0,176	-0,052
185,983	2,521	-0,211	-0,106
186,998	15,146	-0,221	-0,120
188,013	641,123	-0,078	-0,140
189,027	21,952	-0,295	-0,167
190,042	70,639	-0,228	-0,164
191,056	-138,877	-0,206	-0,015
192,071	128,255	-0,171	-0,152
193,086	304,203	-0,109	-0,142
194,100	-67,777	-0,208	-0,056
195,115	179,417	-0,201	-0,205
196,129	-52,520	-0,308	-0,098
197,144	363,695	-0,183	-0,257
198,159	308,663	-0,109	-0,143
199,173	-15,488	-0,231	-0,102
200,188	98,428	-0,167	-0,134
201,202	17,017	-0,166	-0,091
202,217	2,477	-0,083	-0,042
203,232	-10,613	-0,160	-0,073
204,246	34,014	-0,197	-0,119
205,261	689,563	-0,125	-0,229
206,275	204,355	-0,198	-0,214
207,290	-17,329	-0,255	-0,111
208,304	202,099	-0,139	-0,149
209,319	415,943	-0,142	-0,211
210,334	540,190	-0,048	-0,079
211,348	71,709	-0,217	-0,157
212,363	203,834	-0,234	-0,252
213,377	438,778	-0,120	-0,182
214,392	251,083	-0,105	-0,125
215,407	-0,146	-0,057	-0,028
216,421	296,495	-0,114	-0,146
217,436	60,031	-0,197	-0,135
218,450	97,947	-0,212	-0,169
219,465	226,886	-0,156	-0,177
220,480	239,194	-0,261	-0,302
221,494	27,006	-0,221	-0,129
222,509	-2,686	-0,246	-0,119
223,523	-58,010	-0,316	-0,095
224,538	-17,413	-0,234	-0,102
225,553	568,493	-0,130	-0,220
226,567	526,742	-0,208	-0,342
227,582	150,412	-0,220	-0,208
228,596	-14,885	-0,287	-0,128
229,611	39,811	-0,213	-0,132
230,626	27,362	-0,314	-0,183
231,640	57,639	-0,205	-0,139
232,655	75,890	-0,157	-0,115
233,669	168,461	-0,218	-0,216
234,684	255,677	-0,161	-0,192
235,699	463,846	-0,127	-0,197
236,713	-30,391	-0,137	0,054
237,728	-33,807	-0,211	0,080
238,742	15,199	-0,142	-0,077
239,757	-49,618	-0,123	-0,040
240,772	67,038	-0,198	-0,140
241,786	-200,000	-0,074	-0,235
242,801	122,015	-0,135	-0,117
243,815	-22,392	-0,194	-0,081
244,830	626,568	-0,082	-0,143
245,844	212,577	-0,093	-0,101
246,859	-31,273	-0,137	-0,053
247,874	-200,000	0,002	-0,172
248,888	92,726	-0,203	-0,159
249,903	800,000	-0,027	-0,083
250,917	-99,135	-0,263	-0,046
251,932	220,452	-0,199	-0,221
252,947	-61,898	-0,268	-0,077
253,961	206,708	-0,201	-0,218
254,976	25,369	-0,192	-0,111
255,990	112,081	-0,191	-0,160
257,005	-84,038	-0,137	-0,030
258,020	86,292	-0,115	-0,088
259,034	32,532	-0,195	-0,117
260,049	-63,550	-0,264	-0,074
261,063	20,809	-0,268	-0,150
262,078	4,908	-0,107	-0,054
263,093	106,757	-0,221	-0,182
264,107	228,994	-0,169	-0,191
265,122	-156,679	-0,270	0,011
266,136	173,411	-0,149	-0,148
267,151	-86,820	-0,199	-0,042
268,166	414,931	-0,148	-0,219
269,180	-200,000	-0,093	-0,295
270,195	140,269	-0,166	-0,152
271,209	-56,061	-0,226	-0,069
272,224	600,577	-0,078	-0,134
273,239	-51,136	-0,212	-0,068
274,253	176,423	-0,116	-0,117
275,268	-25,897	-0,158	-0,064
276,282	17,446	-0,177	-0,097
277,297	-9,105	-0,282	-0,130
278,312	35,046	-0,282	-0,171
279,326	113,318	-0,129	-0,108
280,341	-115,821	-0,221	-0,028
281,355	-80,396	-0,217	-0,050
282,370	-4,844	-0,303	-0,144
283,384	191,758	-0,257	-0,268
284,399	-6,081	-0,205	-0,097
285,414	158,344	-0,092	-0,088
286,428	800,000	-0,073	-0,152
287,443	88,784	-0,097	-0,074
288,457	-59,335	-0,078	-0,023
289,472	41,575	-0,135	-0,084
290,487	-200,000	-0,060	-0,205
291,501	-65,634	-0,152	-0,042
292,516	270,517	-0,092	-0,112
293,530	107,932	-0,112	-0,092
294,545	-200,000	-0,008	-0,117
295,560	26,609	-0,246	-0,142
296,574	19,215	-0,110	-0,061
297,589	-110,596	-0,199	-0,028
298,603	-200,000	-0,043	-0,140
299,618	377,148	-0,139	-0,197
300,633	551,144	-0,111	-0,185
301,647	76,364	-0,181	-0,132
302,662	106,240	-0,084	-0,068
303,676	-60,615	-0,284	-0,083
304,691	103,463	-0,181	-0,147
305,706	800,000	-0,111	-0,218
306,720	-87,669	-0,162	-0,034
307,735	-200,000	-0,083	-0,274
308,749	-19,826	-0,085	-0,036
309,764	133,675	-0,176	-0,157
310,779	97,027	-0,073	0,058
311,793	9,644	-0,032	-0,017
312,808	285,201	-0,203	-0,253
313,822	54,499	-0,203	-0,135
314,837	156,207	-0,228	-0,217
315,852	-200,000	-0,020	-0,120
316,866	-200,000	-0,019	-0,085
317,881	48,229	-0,104	-0,067
318,895	76,204	-0,180	-0,131
319,910	-37,685	-0,077	-0,028
320,925	800,000	-0,095	-0,274
321,939	188,687	-0,049	-0,051
322,954	244,587	-0,130	-0,150
323,968	158,194	-0,068	-0,065
324,983	-200,000	0,011	-0,143
325,997	-88,807	-0,177	0,036
327,012	-94,855	-0,215	-0,040
328,027	-135,227	-0,225	-0,018
329,041	-146,596	-0,107	0,006
330,056	295,616	-0,119	-0,150
331,070	800,000	0,056	-0,148
332,085	209,649	-0,060	0,065
333,100	-12,348	-0,246	-0,110
334,114	112,001	-0,106	-0,088
335,129	341,320	-0,133	-0,179
336,143	800,000	-0,057	-0,123
337,158	404,527	-0,039	-0,057
338,173	-200,000	-0,019	-0,148
339,187	-200,000	-0,007	-0,124
340,202	-84,609	-0,133	0,029
341,216	8,598	-0,135	-0,070
342,231	55,088	-0,188	-0,125
343,246	130,049	-0,119	-0,105
344,260	639,534	0,040	-0,071
345,275	-52,503	-0,097	-0,031
346,289	547,657	-0,059	-0,097
347,304	245,581	-0,118	-0,137
348,319	-70,357	-0,190	0,049
349,333	46,677	-0,078	-0,050
350,348	7,750	-0,088	-0,045
351,362	54,994	-0,160	-0,106
352,377	16,419	-0,028	-0,015
353,392	-8,974	-0,188	-0,086
354,406	458,185	-0,072	-0,111
355,421	210,461	1310,999	1416,426
356,435	162,028	1471,268	1416,945
