DTS Sentinel unit serial number:	SN410029Multiplexer serial number:	ORYXHardware model number:	OX2-SRSoftware version number:	ORYX F/W v4,00 Oryx Data Collector v3.7.2.0data status	okinstallation	B3 Nyhavnadifferential loss correction	single-endedforward channel	channel 1reverse channel	N/Adate	2023/12/02time	11:32:30forward acquisition time	300,00reverse acquisition time	0,00gamma	499,1914k internal	0,3198k external	0,3198temperature offset calibration	1,0000default loss term (dB/km)	0,3820temperature slope calibration	1,0000multiplexer offset coefficient	1,0000multiplexer slope coefficient	1,0000fibre end	0,00T internal ref (°C)	14,05T ext. ref 1 (°C)	-1,35T ext. ref 2 (°C)	-1,39length (m)	temperature (°C)	Stokes	anti-Stokes-744,400	800,000	-0,186	-0,380
-743,385	99,308	-0,190	0,159
-742,371	-200,000	-0,054	-0,186
-741,356	-200,000	0,091	0,454
-740,342	243,264	-0,189	-0,231
-739,327	800,000	0,091	0,202
-738,312	-37,087	-0,192	-0,074
-737,298	-200,000	0,015	0,246
-736,283	191,094	-0,158	-0,174
-735,269	-200,000	-0,078	0,413
-734,254	9,566	-0,208	-0,114
-733,239	187,034	-0,121	0,132
-732,225	800,000	-0,068	-0,180
-731,210	-200,000	0,030	0,161
-730,196	-107,485	-0,113	0,018
-729,181	-159,852	-0,061	-0,002
-728,167	185,165	-0,039	-0,042
-727,152	-72,929	-0,090	-0,024
-726,137	-96,049	-0,062	0,012
-725,123	359,646	-0,038	-0,055
-724,108	-51,049	-0,124	-0,042
-723,094	422,364	0,026	-0,041
-722,079	12,190	-0,067	0,037
-721,064	405,699	0,079	-0,122
-720,050	-172,468	0,109	-0,002
-719,035	800,000	-0,027	-0,075
-718,021	-126,988	-0,198	-0,021
-717,006	65,728	-0,048	-0,036
-715,991	-114,356	-0,157	-0,022
-714,977	800,000	-0,078	-0,164
-713,962	205,697	-0,101	-0,114
-712,948	-153,425	-0,092	-0,005
-711,933	87,063	0,109	0,088
-710,918	648,406	-0,061	-0,113
-709,904	-54,422	-0,078	0,026
-708,889	800,000	-0,044	-0,095
-707,875	-72,013	-0,053	0,014
-706,860	212,207	0,108	0,124
-705,845	106,503	0,053	-0,046
-704,831	52,825	-0,064	0,045
-703,816	-200,000	0,028	-0,102
-702,802	14,778	-0,108	0,061
-701,787	94,450	-0,034	-0,028
-700,772	-48,945	-0,079	-0,027
-699,758	-73,077	-0,055	0,015
-698,743	-200,000	-0,014	0,065
-697,729	800,000	0,029	0,064
-696,714	-23,004	0,036	-0,016
-695,699	-67,199	-0,047	0,013
-694,685	-48,351	-0,090	0,031
-693,670	-130,511	-0,141	-0,014
-692,656	367,334	0,006	0,009
-691,641	228,708	-0,058	0,069
-690,627	319,859	0,009	0,013
-689,612	-200,000	-0,066	0,220
-688,597	5,984	0,052	0,028
-687,583	-9,067	-0,204	-0,099
-686,568	-200,000	-0,017	-0,094
-685,554	800,000	-0,015	-0,040
-684,539	800,000	0,009	0,026
-683,524	-2,402	-0,060	0,030
-682,510	-44,347	-0,003	0,001
-681,495	-64,938	-0,197	-0,057
-680,481	-47,993	-0,161	0,056
-679,466	53,777	-0,043	-0,030
-678,451	310,295	0,036	-0,049
-677,437	-50,620	-0,050	0,017
-676,422	131,389	0,032	0,030
-675,408	26,348	-0,121	-0,073
-674,393	211,083	0,110	-0,126
-673,378	795,156	-0,059	-0,118
-672,364	41,583	-0,205	-0,135
-671,349	800,000	-0,005	-0,011
-670,335	800,000	0,050	0,105
-669,320	-200,000	-0,023	0,088
-668,305	-200,000	0,003	-0,099
-667,291	-200,000	0,040	-0,130
-666,276	61,168	-0,121	-0,087
-665,262	800,000	-0,022	-0,063
-664,247	-200,000	0,008	0,034
-663,232	143,772	-0,050	0,049
-662,218	260,211	-0,038	-0,048
-661,203	329,537	-0,089	0,125
-660,189	94,542	-0,062	0,051
-659,174	113,170	0,055	0,048
-658,159	89,257	-0,078	-0,063
-657,145	478,954	-0,034	-0,056
-656,130	-94,393	0,101	0,020
-655,116	364,375	-0,018	-0,026
-654,101	-23,543	-0,020	-0,009
-653,086	800,000	0,055	0,136
-652,072	-200,000	0,022	0,098
-651,057	468,528	-0,047	-0,077
-650,043	-200,000	-0,013	-0,082
-649,028	-62,140	-0,083	0,025
-648,014	-120,411	-0,048	0,006
-646,999	800,000	-0,049	0,102
-645,984	-110,761	0,107	-0,016
-644,970	108,936	0,118	-0,103
-643,955	800,000	-0,030	-0,086
-642,941	800,000	-0,035	-0,105
-641,926	800,000	0,113	-0,267
-640,911	-105,743	0,109	0,018
-639,897	402,429	-0,091	0,139
-638,882	-53,879	0,048	-0,016
-637,868	-57,235	0,027	0,009
-636,853	-200,000	0,009	-0,075
-635,838	-200,000	0,005	0,018
-634,824	-32,098	-0,046	-0,019
-633,809	42,360	0,071	-0,047
-632,795	-15,231	-0,041	-0,019
-631,780	47,551	-0,097	0,066
-630,765	-117,993	-0,119	-0,015
-629,751	633,714	-0,020	0,037
-628,736	-200,000	0,020	0,074
-627,722	-56,843	-0,059	-0,019
-626,707	92,446	-0,038	0,031
-625,692	181,869	0,129	0,138
-624,678	-114,378	0,113	0,016
-623,663	-200,000	-0,006	0,098
-622,649	800,000	0,015	-0,033
-621,634	244,872	-0,082	0,100
-620,619	134,408	-0,093	-0,087
-619,605	-72,649	-0,118	0,031
-618,590	800,000	0,062	-0,131
-617,576	-200,000	-0,039	0,172
-616,561	112,489	-0,136	0,120
-615,546	248,898	0,042	0,051
-614,532	-0,185	-0,060	0,031
-613,517	-142,108	-0,212	-0,015
-612,503	-200,000	0,002	0,066
-611,488	-200,000	-0,024	-0,096
-610,474	-200,000	-0,039	0,156
-609,459	142,409	-0,055	0,053
-608,444	1,244	0,023	-0,012
-607,430	-200,000	-0,018	-0,148
-606,415	570,434	-0,053	0,093
-605,401	-59,940	0,148	-0,045
-604,386	800,000	-0,008	-0,023
-603,371	611,710	0,058	0,105
-602,357	216,075	0,047	0,054
-601,342	-84,268	-0,195	0,044
-600,328	171,239	-0,154	-0,160
-599,313	290,777	0,170	-0,224
-598,298	-200,000	0,010	-0,053
-597,284	-47,508	0,059	0,020
-596,269	800,000	-0,062	0,146
-595,255	420,451	-0,067	-0,105
-594,240	-45,449	0,025	0,009
-593,225	800,000	-0,058	-0,132
-592,211	800,000	-0,018	-0,045
-591,196	-200,000	0,005	-0,125
-590,182	800,000	-0,026	0,076
-589,167	620,911	0,041	0,075
-588,152	-57,226	0,097	-0,031
-587,138	282,437	0,035	-0,046
-586,123	-200,000	0,034	-0,130
-585,109	586,962	0,025	0,044
-584,094	-74,886	0,063	0,016
-583,079	800,000	0,074	0,188
-582,065	-200,000	-0,028	0,103
-581,050	-158,300	0,052	0,002
-580,036	286,756	-0,060	0,079
-579,021	800,000	0,023	0,055
-578,006	434,186	-0,091	-0,143
-576,992	-200,000	0,050	-0,184
-575,977	754,627	-0,102	0,201
-574,963	382,611	-0,027	0,040
-573,948	-93,211	0,026	0,005
-572,934	52,163	-0,080	0,055
-571,919	88,966	-0,088	0,071
-570,904	493,238	-0,063	0,105
-569,890	800,000	0,032	0,070
-568,875	-16,877	0,113	0,051
-567,861	-36,135	0,057	0,022
-566,846	50,700	0,126	0,086
-565,831	299,631	-0,021	0,028
-564,817	-159,394	0,106	0,004
-563,802	123,403	-0,107	-0,097
-562,788	-80,153	0,123	0,030
-561,773	316,701	-0,085	-0,116
-560,758	-200,000	0,015	0,201
-559,744	785,018	0,115	0,228
-558,729	335,004	-0,035	0,049
-557,715	243,410	0,050	0,061
-556,700	88,529	0,054	-0,044
-555,685	138,590	-0,034	0,033
-554,671	16,786	-0,052	-0,030
-553,656	380,263	0,096	0,143
-552,642	-200,000	0,021	0,088
-551,627	-77,483	0,039	-0,010
-550,612	-200,000	-0,013	-0,045
-549,598	8,828	-0,115	-0,062
-548,583	-186,394	-0,094	0,001
-547,569	425,919	0,088	0,137
-546,554	10,861	0,165	-0,091
-545,539	-200,000	-0,022	0,125
-544,525	-200,000	-0,011	0,065
-543,510	-75,565	-0,182	-0,047
-542,496	-200,000	-0,002	0,083
-541,481	14,161	-0,049	-0,028
-540,466	-200,000	-0,000	0,058
-539,452	-8,203	0,046	-0,022
-538,437	-200,000	0,019	0,071
-537,423	-65,867	0,112	0,032
-536,408	79,132	-0,037	0,028
-535,393	800,000	-0,027	-0,076
-534,379	567,942	0,021	0,037
-533,364	390,063	-0,071	0,106
-532,350	-124,930	0,094	-0,010
-531,335	800,000	0,036	0,109
-530,321	800,000	0,025	0,058
-529,306	322,746	0,099	-0,137
-528,291	-200,000	-0,015	-0,123
-527,277	-200,000	0,020	-0,065
-526,262	465,468	-0,076	-0,123
-525,248	-100,937	-0,181	-0,032
-524,233	121,502	0,118	0,106
-523,218	-200,000	0,013	0,159
-522,204	800,000	0,017	-0,051
-521,189	269,572	-0,050	-0,064
-520,175	85,271	-0,093	-0,074
-519,160	-149,176	0,029	0,002
-518,145	800,000	-0,030	-0,085
-517,131	-200,000	0,006	0,065
-516,116	-200,000	-0,001	0,151
-515,102	191,954	-0,099	0,108
-514,087	455,298	0,023	-0,037
-513,072	800,000	0,010	-0,028
-512,058	-8,519	0,187	-0,090
-511,043	277,235	-0,064	-0,083
-510,029	86,380	-0,071	0,057
-509,014	-2,559	0,030	-0,015
-507,999	139,981	-0,036	-0,034
-506,985	179,497	-0,120	-0,127
-505,970	-200,000	-0,013	-0,117
-504,956	197,086	0,070	-0,078
-503,941	25,522	0,149	0,089
-502,926	91,179	0,069	-0,056
-501,912	113,552	-0,141	0,124
-500,897	129,037	0,072	0,066
-499,883	-76,148	-0,047	-0,012
-498,868	800,000	-0,054	-0,140
-497,853	-82,725	-0,191	-0,044
-496,839	-20,598	0,138	-0,061
-495,824	-60,712	0,090	-0,027
-494,810	122,379	0,060	-0,054
-493,795	47,838	-0,059	0,040
-492,781	-64,719	0,042	0,012
-491,766	149,726	0,026	-0,026
-490,751	240,417	-0,097	0,117
-489,737	-200,000	-0,019	-0,178
-488,722	-60,437	-0,020	-0,006
-487,708	800,000	0,025	-0,065
-486,693	-65,423	-0,060	-0,017
-485,678	126,004	-0,044	0,040
-484,664	800,000	-0,079	-0,177
-483,649	-200,000	-0,010	0,051
-482,635	582,881	0,025	0,044
-481,620	-126,690	0,168	-0,018
-480,605	-200,000	-0,002	0,129
-479,591	-200,000	0,002	-0,096
-478,576	101,104	-0,087	-0,073
-477,562	388,042	-0,017	-0,025
-476,547	-189,722	-0,131	-0,001
-475,532	-121,591	0,097	-0,011
-474,518	364,489	-0,080	0,117
-473,503	21,122	0,110	0,064
-472,489	28,729	0,160	0,097
-471,474	800,000	-0,012	0,037
-470,459	356,043	-0,091	-0,131
-469,445	220,089	-0,057	-0,066
-468,430	-127,026	0,251	-0,026
-467,416	-57,305	-0,038	-0,012
-466,401	-1,690	0,070	0,035
-465,386	-168,988	-0,017	-0,000
-464,372	-51,291	0,093	0,031
-463,357	-200,000	0,008	-0,091
-462,343	-200,000	0,021	-0,069
-461,328	-46,825	0,055	-0,019
-460,313	-200,000	-0,023	0,154
-459,299	276,041	0,119	0,152
-458,284	150,426	0,068	-0,067
-457,270	-156,544	0,099	-0,004
-456,255	259,238	0,009	-0,011
-455,241	-200,000	0,017	0,055
-454,226	17,349	0,061	0,035
-453,211	-113,605	0,070	0,010
-452,197	-52,305	0,049	0,016
-451,182	-76,618	0,116	0,029
-450,168	-112,532	0,193	-0,027
-449,153	294,268	-0,084	-0,111
-448,138	-200,000	0,002	-0,057
-447,124	-200,000	0,013	-0,098
-446,109	-101,009	-0,099	-0,017
-445,095	538,302	-0,021	0,035
-444,080	-65,534	0,101	-0,029
-443,065	800,000	0,021	0,042
-442,051	11,123	-0,023	0,013
-441,036	15,513	0,086	-0,048
-440,022	-200,000	-0,011	0,061
-439,007	-200,000	0,039	0,000
-437,992	11,396	0,116	0,064
-436,978	24,912	-0,072	0,043
-435,963	-200,000	0,014	-0,068
-434,949	-189,719	0,084	-0,001
-433,934	486,493	-0,096	-0,157
-432,919	-200,000	0,009	0,084
-431,905	137,903	0,060	-0,056
-430,890	-40,645	-0,032	0,012
-429,876	-200,000	0,018	0,271
-428,861	800,000	0,043	0,124
-427,846	-200,000	-0,002	-0,006
-426,832	156,299	0,081	-0,081
-425,817	-27,957	-0,141	-0,059
-424,803	800,000	-0,074	0,159
-423,788	170,426	-0,086	0,088
-422,773	200,022	0,077	0,085
-421,759	395,804	0,046	0,069
-420,744	-175,468	-0,146	0,003
-419,730	250,175	-0,034	-0,042
-418,715	-200,000	0,008	-0,153
-417,701	291,755	-0,083	-0,109
-416,686	316,648	-0,042	-0,057
-415,671	800,000	-0,018	0,056
-414,657	-59,871	0,083	0,025
-413,642	282,747	0,012	0,016
-412,628	-200,000	-0,022	-0,094
-411,613	-200,000	0,035	-0,244
-410,598	800,000	-0,030	-0,064
-409,584	-83,313	0,051	0,012
-408,569	-181,359	0,049	-0,001
-407,555	16,341	0,138	0,078
-406,540	42,845	-0,110	0,072
-405,525	-155,513	-0,086	0,004
-404,511	-32,363	-0,034	0,013
-403,496	187,213	-0,070	0,075
-402,482	598,990	0,038	0,068
-401,467	295,089	0,066	0,086
-400,452	800,000	-0,035	0,102
-399,438	30,188	-0,059	-0,036
-398,423	-80,541	0,066	-0,016
-397,409	166,039	0,088	-0,089
-396,394	-200,000	-0,031	0,113
-395,379	-146,458	0,051	0,003
-394,365	218,523	-0,040	-0,046
-393,350	169,066	-0,021	0,021
-392,336	32,288	0,008	0,005
-391,321	-200,000	-0,010	-0,037
-390,306	-151,601	0,018	0,001
-389,292	234,492	0,115	-0,137
-388,277	205,261	-0,119	0,133
-387,263	-200,000	0,019	0,125
-386,248	-200,000	-0,002	0,010
-385,233	800,000	-0,041	0,110
-384,219	25,556	-0,068	-0,040
-383,204	239,117	0,024	0,029
-382,190	697,231	-0,072	-0,137
-381,175	-200,000	-0,016	-0,265
-380,160	20,353	0,046	-0,027
-379,146	800,000	0,037	-0,079
-378,131	-107,250	0,044	-0,007
-377,117	414,303	-0,040	-0,061
-376,102	-127,099	-0,156	-0,016
-375,088	56,492	0,080	-0,056
-374,073	183,189	-0,111	-0,118
-373,058	49,795	-0,022	-0,015
-372,044	488,869	0,022	0,036
-371,029	493,117	0,092	0,152
-370,015	-200,000	-0,006	-0,052
-369,000	-200,000	-0,011	-0,121
-367,985	550,160	-0,073	-0,125
-366,971	-51,081	-0,077	0,026
-365,956	-77,507	-0,079	0,020
-364,942	-200,000	-0,007	0,102
-363,927	-150,894	0,093	-0,005
-362,912	-200,000	0,023	0,106
-361,898	54,799	-0,098	-0,067
-360,883	457,092	0,032	0,052
-359,869	800,000	0,010	-0,025
-358,854	-200,000	-0,007	-0,086
-357,839	106,530	0,107	0,091
-356,825	-39,448	-0,012	-0,005
-355,810	800,000	0,024	-0,061
-354,796	-200,000	-0,027	-0,118
-353,781	-29,533	0,170	-0,069
-352,766	-170,225	0,086	-0,002
-351,752	-114,764	0,093	0,013
-350,737	-18,329	0,107	-0,048
-349,723	-190,759	-0,099	0,001
-348,708	-9,870	0,046	-0,022
-347,693	-200,000	-0,014	-0,059
-346,679	417,441	-0,057	-0,088
-345,664	557,170	0,071	0,122
-344,650	800,000	-0,046	-0,105
-343,635	-179,525	0,090	0,001
-342,620	800,000	0,008	-0,025
-341,606	44,251	-0,060	-0,039
-340,591	50,888	0,093	0,063
-339,577	-200,000	0,022	-0,125
-338,562	278,782	-0,056	0,071
-337,548	-200,000	-0,026	-0,147
-336,533	800,000	-0,013	0,039
-335,518	165,162	0,072	-0,073
-334,504	647,905	-0,028	0,052
-333,489	800,000	-0,009	-0,029
-332,475	-65,044	0,077	-0,022
-331,460	1,391	0,019	-0,010
-330,445	-29,168	-0,085	-0,035
-329,431	800,000	0,009	0,028
-328,416	-200,000	-0,002	0,134
-327,402	-200,000	0,029	-0,096
-326,387	520,071	0,057	0,096
-325,372	-13,673	-0,093	0,043
-324,358	-200,000	0,007	-0,115
-323,343	444,574	0,053	0,084
-322,329	-39,564	0,173	-0,064
-321,314	2,410	-0,030	0,016
-320,299	-120,439	0,097	0,012
-319,285	86,687	0,061	0,048
-318,270	-139,937	-0,169	-0,013
-317,256	244,641	-0,065	0,079
-316,241	333,285	0,065	0,090
-315,226	-104,279	-0,020	0,003
-314,212	800,000	0,019	-0,039
-313,197	800,000	0,003	-0,010
-312,183	45,313	0,085	-0,056
-311,168	-185,960	0,207	0,002
-310,153	-200,000	-0,025	-0,170
-309,139	14,476	-0,073	-0,041
-308,124	-148,652	-0,126	-0,007
-307,110	60,586	0,041	0,029
-306,095	800,000	-0,018	0,055
-305,080	800,000	-0,006	-0,016
-304,066	-144,662	-0,217	-0,014
-303,051	-160,127	-0,084	0,003
-302,037	98,720	-0,027	-0,022
-301,022	38,919	0,085	0,054
-300,008	-91,482	0,100	-0,020
-298,993	-123,046	-0,022	-0,003
-297,978	83,636	0,045	-0,035
-296,964	-24,587	-0,037	0,016
-295,949	800,000	0,008	0,023
-294,935	-200,000	-0,042	-0,150
-293,920	547,962	-0,038	0,065
-292,905	800,000	-0,049	0,133
-291,891	-167,809	0,083	0,002
-290,876	-23,234	-0,135	0,058
-289,862	64,714	0,062	-0,045
-288,847	-91,955	-0,044	-0,009
-287,832	16,180	-0,125	0,070
-286,818	800,000	-0,029	-0,068
-285,803	-200,000	0,001	-0,037
-284,789	-200,000	0,029	0,104
-283,774	254,196	-0,034	0,041
-282,759	28,289	-0,169	-0,102
-281,745	-160,095	0,100	0,004
-280,730	282,127	-0,084	-0,108
-279,716	176,549	-0,049	-0,051
-278,701	-200,000	-0,023	0,101
-277,686	68,590	-0,026	0,019
-276,672	-72,434	0,050	-0,013
-275,657	674,157	-0,031	0,058
-274,643	80,926	-0,066	0,051
-273,628	-28,624	-0,130	-0,053
-272,613	26,170	-0,096	-0,057
-271,599	80,902	-0,068	-0,052
-270,584	31,096	0,082	0,050
-269,570	800,000	-0,017	-0,044
-268,555	397,633	0,078	-0,117
-267,540	253,368	0,046	-0,056
-266,526	174,812	-0,123	-0,127
-265,511	1,842	0,048	0,025
-264,497	-200,000	-0,045	0,160
-263,482	36,528	-0,115	0,073
-262,467	128,202	0,056	0,051
-261,453	495,941	0,032	0,053
-260,438	-118,087	-0,077	-0,010
-259,424	-125,844	-0,088	-0,009
-258,409	169,339	0,082	-0,083
-257,395	-109,874	0,016	0,002
-256,380	800,000	0,007	-0,023
-255,365	-125,768	0,187	-0,020
-254,351	-200,000	0,004	-0,114
-253,336	-22,071	0,095	0,041
-252,322	-200,000	0,024	0,163
-251,307	793,618	0,061	-0,120
-250,292	-200,000	-0,003	-0,016
-249,278	-200,000	-0,022	0,080
-248,263	87,095	-0,046	0,036
-247,249	-200,000	-0,013	0,087
-246,234	-200,000	-0,012	-0,178
-245,219	-147,920	-0,169	-0,010
-244,205	-47,493	-0,065	0,022
-243,190	487,753	-0,030	0,050
-242,176	-51,498	0,044	0,014
-241,161	800,000	0,014	0,034
-240,146	-27,183	0,055	0,023
-239,132	-200,000	0,007	-0,051
-238,117	292,757	-0,038	-0,049
-237,103	-18,705	-0,121	-0,054
-236,088	240,683	0,012	0,014
-235,073	16,284	-0,050	-0,028
-234,059	59,667	0,051	-0,036
-233,044	-115,770	-0,004	-0,001
-232,030	-144,688	0,064	-0,004
-231,015	20,179	-0,149	-0,085
-230,000	800,000	0,020	-0,058
-228,986	-200,000	-0,001	-0,046
-227,971	-200,000	0,012	0,069
-226,957	-70,986	0,228	-0,061
-225,942	-147,424	0,096	0,006
-224,927	102,115	0,081	0,068
-223,913	25,529	0,098	-0,058
-222,898	351,142	-0,031	-0,043
-221,884	-77,424	0,152	-0,037
-220,869	244,241	0,091	0,109
-219,855	32,230	0,063	0,039
-218,840	-200,000	0,008	0,129
-217,825	-31,992	-0,037	0,015
-216,811	182,377	-0,050	-0,053
-215,796	-32,763	-0,043	0,017
-214,782	145,569	-0,127	0,121
-213,767	-61,137	-0,161	0,048
-212,752	-45,067	0,108	0,038
-211,738	632,019	0,032	0,058
-210,723	-55,112	-0,131	0,042
-209,709	400,986	-0,035	0,053
-208,694	-200,000	0,024	0,088
-207,679	370,075	-0,024	0,035
-206,665	-60,450	-0,106	-0,032
-205,650	454,170	-0,035	0,055
-204,636	-200,000	-0,022	0,139
-203,621	800,000	0,029	-0,064
-202,606	290,057	-0,116	-0,151
-201,592	546,177	-0,051	0,087
-200,577	-23,948	0,063	-0,027
-199,563	119,819	-0,119	-0,106
-198,548	89,579	0,069	-0,055
-197,533	8,150	0,055	-0,029
-196,519	21,045	0,117	-0,067
-195,504	800,000	0,034	-0,080
-194,490	130,447	-0,077	-0,070
-193,475	124,689	-0,080	0,072
-192,460	-12,316	0,102	0,047
-191,446	-200,000	0,034	0,133
-190,431	47,006	-0,109	-0,072
-189,417	800,000	-0,037	-0,081
-188,402	104,203	0,030	0,025
-187,387	800,000	-0,025	0,055
-186,373	-200,000	-0,029	-0,139
-185,358	-76,489	-0,144	-0,036
-184,344	-9,643	0,036	0,017
-183,329	-200,000	-0,021	-0,082
-182,315	-200,000	-0,011	0,114
-181,300	800,000	-0,029	-0,077
-180,285	-200,000	-0,022	-0,071
-179,271	341,708	-0,038	0,053
-178,256	-147,926	-0,053	-0,003
-177,242	311,431	-0,081	0,108
-176,227	-67,295	0,087	0,024
-175,212	800,000	0,029	-0,080
-174,198	-200,000	-0,000	-0,069
-173,183	800,000	0,021	0,058
-172,169	378,768	0,065	-0,094
-171,154	-127,985	-0,069	-0,007
-170,139	800,000	-0,028	-0,060
-169,125	-135,294	0,133	0,011
-168,110	800,000	0,026	0,067
-167,096	800,000	-0,043	-0,129
-166,081	-67,912	0,102	-0,028
-165,066	800,000	-0,041	-0,109
-164,052	490,426	-0,047	-0,076
-163,037	108,848	0,006	-0,005
-162,023	-83,410	0,107	0,024
-161,008	-200,000	0,015	0,058
-159,993	800,000	0,030	0,093
-158,979	-25,975	-0,088	0,036
-157,964	-131,840	-0,022	0,002
-156,950	409,286	-0,079	0,119
-155,935	596,064	0,015	-0,026
-154,920	453,996	0,012	0,019
-153,906	-200,000	0,030	0,133
-152,891	579,568	0,060	0,105
-151,877	800,000	-0,021	0,057
-150,862	-200,000	0,005	0,105
-149,847	305,370	0,073	-0,097
-148,833	800,000	-0,047	-0,111
-147,818	347,366	0,028	0,040
-146,804	203,437	0,067	0,074
-145,789	800,000	0,015	0,040
-144,775	-33,168	0,051	0,020
-143,760	800,000	-0,004	0,012
-142,745	-29,949	-0,045	-0,018
-141,731	187,906	0,033	-0,035
-140,716	-200,000	0,010	0,082
-139,702	-139,489	0,057	0,004
-138,687	527,663	0,107	0,180
-137,672	-200,000	0,015	-0,065
-136,658	186,866	0,119	-0,126
-135,643	207,755	-0,071	0,078
-134,629	7,063	0,062	0,033
-133,614	-200,000	-0,015	0,074
-132,599	800,000	0,024	0,068
-131,585	-47,098	-0,127	0,044
-130,570	-10,807	0,034	-0,016
-129,556	76,461	-0,025	-0,019
-128,541	800,000	0,036	-0,093
-127,526	800,000	-0,037	0,094
-126,512	800,000	-0,109	0,248
-125,497	294,658	-0,079	0,103
-124,483	-200,000	0,019	0,122
-123,468	800,000	0,045	0,118
-122,453	45,136	-0,158	0,103
-121,439	-40,915	0,151	-0,055
-120,424	203,294	-0,093	0,103
-119,410	800,000	0,013	0,036
-118,395	-98,890	-0,071	0,013
-117,380	-100,081	-0,068	-0,012
-116,366	-33,590	-0,048	-0,019
-115,351	-29,972	-0,063	-0,025
-114,337	73,589	-0,072	-0,053
-113,322	-200,000	-0,013	0,097
-112,307	-41,805	0,095	0,034
-111,293	21,489	-0,134	0,077
-110,278	371,495	0,054	-0,078
-109,264	82,161	-0,038	0,029
-108,249	14,499	-0,145	0,080
-107,234	444,545	0,069	0,107
-106,220	-15,586	-0,115	0,052
-105,205	-200,000	-0,027	0,148
-104,191	-200,000	0,022	-0,126
-103,176	27,713	-0,054	0,032
-102,162	-30,830	-0,104	-0,042
-101,147	465,617	-0,018	-0,028
-100,132	-200,000	-0,016	0,068
-99,118	176,316	-0,077	0,079
-98,103	-200,000	-0,007	0,152
-97,089	-96,146	0,041	-0,008
-96,074	-200,000	-0,046	0,230
-95,059	-200,000	-0,015	0,098
-94,045	800,000	-0,026	-0,076
-93,030	-18,360	-0,126	0,056
-92,016	800,000	0,060	0,123
-91,001	-200,000	-0,031	0,291
-89,986	800,000	-0,068	0,198
-88,972	-200,000	0,000	-0,011
-87,957	380,598	-0,044	-0,064
-86,943	-174,034	-0,118	0,002
-85,928	-200,000	0,016	0,072
-84,913	20,562	-0,107	-0,061
-83,899	67,960	0,099	-0,072
-82,884	-200,000	-0,019	-0,058
-81,870	-155,491	0,055	0,002
-80,855	-115,282	0,032	0,004
-79,840	602,571	-0,051	-0,091
-78,826	-152,107	-0,195	0,010
-77,811	-115,680	-0,054	0,007
-76,797	402,929	-0,027	0,040
-75,782	-50,323	0,102	0,034
-74,767	482,509	0,091	0,147
-73,753	-46,725	-0,229	0,079
-72,738	264,243	0,083	0,103
-71,724	105,185	0,015	-0,012
-70,709	-97,413	-0,167	-0,031
-69,694	-200,000	-0,010	-0,038
-68,680	232,527	0,048	0,056
-67,665	800,000	0,074	0,216
-66,651	-200,000	-0,002	0,087
-65,636	800,000	0,050	0,155
-64,622	800,000	-0,032	-0,079
-63,607	-200,000	-0,005	0,107
-62,592	86,138	-0,148	0,115
-61,578	2,957	-0,112	0,057
-60,563	301,176	-0,088	0,115
-59,549	-200,000	-0,006	0,101
-58,534	-26,518	-1,623	-0,671
-57,519	444,627	-1,325	-2,067
-56,505	-200,000	-0,360	-4,526
-55,490	265,499	0,956	1,184
-54,476	800,000	4,883	11,520
-53,461	-200,000	18,847	307,276
-52,446	800,000	738,478	2303,887
-51,432	569,203	1654,440	2861,223
-50,417	78,881	1669,934	1265,053
-49,403	22,010	1542,799	889,289
-48,388	15,925	1465,431	815,117
-47,373	17,824	1455,629	818,809
-46,359	16,875	1445,757	808,669
-45,344	14,168	1441,046	793,039
-44,330	14,050	1439,303	791,480
-43,315	14,078	1437,479	790,581
-42,300	14,112	1435,696	789,731
-41,286	14,180	1434,196	789,199
-40,271	14,114	1433,062	788,231
-39,257	14,068	1432,074	787,438
-38,242	14,167	1430,530	787,025
-37,227	14,141	1429,494	786,302
-36,213	14,135	1428,175	785,519
-35,198	14,178	1426,955	785,021
-34,184	14,216	1425,954	784,619
-33,169	14,113	1425,019	783,582
-32,154	14,192	1423,682	783,193
-31,140	14,198	1422,416	782,490
-30,125	14,178	1421,219	781,707
-29,111	14,161	1420,210	781,043
-28,096	14,144	1419,080	780,308
-27,082	14,073	1418,005	779,354
-26,067	14,059	1416,900	778,647
-25,052	14,050	1415,780	777,961
-24,038	13,996	1415,151	777,329
-23,023	14,040	1413,966	776,856
-22,009	14,060	1412,934	776,349
-20,994	14,037	1411,864	775,623
-19,979	14,071	1411,034	775,294
-18,965	13,998	1410,173	774,449
-17,950	14,032	1409,184	774,037
-16,936	13,997	1408,343	773,378
-15,921	13,994	1407,096	772,647
-14,906	13,980	1406,312	772,121
-13,892	13,972	1405,183	771,436
-12,877	13,978	1404,428	771,017
-11,863	14,022	1403,448	770,654
-10,848	13,970	1402,767	770,008
-9,833	13,909	1402,160	769,360
-8,819	13,900	1400,879	768,583
-7,804	13,937	1399,807	768,137
-6,790	13,907	1398,855	767,445
-5,775	13,858	1398,025	766,730
-4,760	13,875	1397,060	766,252
-3,746	13,838	1396,200	765,575
-2,731	13,881	1395,392	765,305
-1,717	13,878	1394,447	764,739
-0,702	13,858	1392,570	763,586
0,313	17,652	1310,599	736,248
1,327	33,928	705,393	433,971
2,342	52,038	123,837	83,399
3,356	1,889	16,632	8,466
4,371	-6,066	3,339	1,610
5,386	1,437	0,507	0,257
6,400	-200,000	0,015	0,151
7,415	277,117	-0,179	-0,226
8,429	74,132	-0,384	-0,285
9,444	584,034	-0,191	-0,334
10,459	64,637	-0,263	-0,187
11,473	37,552	-0,318	-0,199
12,488	-18,103	-0,269	-0,119
13,502	522,097	-0,187	-0,312
14,517	-68,305	-0,266	-0,073
15,531	127,704	-0,392	-0,353
16,546	25,485	-0,397	-0,233
17,561	-19,652	-0,309	-0,134
18,575	-92,267	-0,221	-0,044
19,590	8,972	-0,308	-0,164
20,604	3,199	-0,242	-0,124
21,619	56,849	-0,414	-0,284
22,634	188,770	-0,312	-0,330
23,648	40,260	-0,421	-0,267
24,663	196,201	-0,285	-0,307
25,677	-0,467	-0,351	-0,175
26,692	430,203	-0,198	-0,304
27,707	0,833	-0,406	-0,205
28,721	118,828	-0,328	-0,286
29,736	0,093	-0,491	-0,246
30,750	64,270	-0,437	-0,310
31,765	66,333	-0,441	-0,316
32,780	54,644	-0,394	-0,268
33,794	37,219	-0,305	-0,190
34,809	27,703	-0,330	-0,196
35,823	96,826	-0,310	-0,251
36,838	157,448	-0,300	-0,293
37,853	88,183	-0,406	-0,318
38,867	43,187	-0,494	-0,317
39,882	29,313	-0,338	-0,202
40,896	202,605	-0,251	-0,274
41,911	-55,012	-0,397	-0,125
42,926	203,734	-0,239	-0,262
43,940	104,338	-0,354	-0,294
44,955	132,441	-0,338	-0,308
45,969	-33,466	-0,397	-0,154
46,984	297,701	-0,257	-0,334
47,999	55,932	-0,293	-0,200
49,013	94,867	-0,258	-0,207
50,028	24,868	-0,317	-0,185
51,042	98,355	-0,385	-0,313
52,057	392,522	-0,210	-0,309
53,071	-49,426	-0,436	-0,146
54,086	-55,630	-0,302	-0,095
55,101	123,388	-0,259	-0,229
56,115	-39,045	-0,331	-0,122
57,130	34,818	-0,365	-0,224
58,144	70,915	-0,327	-0,238
59,159	-58,480	-0,454	-0,138
60,174	167,116	-0,231	-0,231
61,188	-0,528	-0,368	-0,183
62,203	-8,962	-0,341	-0,160
63,217	65,679	-0,248	-0,177
64,232	-5,688	-0,345	-0,166
65,247	79,251	-0,312	-0,235
66,261	127,982	-0,355	-0,318
67,276	151,275	-0,363	-0,348
68,290	114,138	-0,320	-0,274
69,305	219,132	-0,201	-0,226
70,320	114,781	-0,218	-0,187
71,334	35,525	-0,292	-0,180
72,349	157,019	-0,335	-0,326
73,363	48,300	-0,260	-0,171
74,378	48,196	-0,343	-0,225
75,393	-10,214	-0,381	-0,177
76,407	-38,996	-0,392	-0,144
77,422	77,212	-0,178	-0,133
78,436	-37,037	-0,384	-0,144
79,451	201,469	-0,236	-0,256
80,466	50,211	-0,258	-0,171
81,480	128,997	-0,386	-0,346
82,495	11,823	-0,226	-0,122
83,509	190,335	-0,152	-0,160
84,524	-0,988	-0,180	-0,089
85,539	36,337	-0,349	-0,216
86,553	1,157	-0,272	-0,137
87,568	-84,188	-0,304	-0,067
88,582	-35,261	-0,367	-0,140
89,597	-55,069	-0,318	-0,100
90,611	-79,903	-0,354	-0,083
91,626	89,730	-0,320	-0,251
92,641	68,088	-0,303	-0,218
93,655	249,496	-0,189	-0,226
94,670	80,630	-0,340	-0,257
95,684	190,592	-0,240	-0,253
96,699	-38,925	-0,322	-0,118
97,714	119,054	-0,325	-0,282
98,728	432,009	-0,198	-0,303
99,743	67,887	-0,293	-0,210
100,757	127,808	-0,245	-0,219
101,772	52,558	-0,238	-0,159
102,787	108,872	-0,349	-0,293
103,801	194,103	-0,246	-0,262
104,816	-200,000	-0,042	-0,310
105,830	-97,604	-0,314	-0,057
106,845	349,677	-0,198	-0,275
107,860	-21,464	-0,290	-0,123
108,874	133,551	-0,244	-0,221
109,889	97,723	-0,293	-0,236
110,903	75,352	-0,321	-0,238
111,918	108,938	-0,207	-0,174
112,933	13,471	-0,242	-0,131
113,947	-30,722	-0,273	-0,108
114,962	18,229	-0,183	-0,102
115,976	-57,232	-0,321	-0,098
116,991	11,020	-0,366	-0,196
118,006	33,863	-0,316	-0,192
119,020	122,442	-0,215	-0,188
120,035	118,162	-0,181	-0,156
121,049	201,700	-0,219	-0,237
122,064	171,318	-0,146	-0,147
123,079	-101,014	-0,289	-0,049
124,093	184,055	-0,218	-0,227
125,108	-71,279	-0,241	-0,063
126,122	11,798	-0,260	-0,139
127,137	272,332	-0,303	-0,375
128,151	-40,533	-0,259	-0,094
129,166	11,800	-0,141	-0,076
130,181	301,043	-0,203	-0,263
131,195	16,147	-0,284	-0,156
132,210	62,960	-0,192	-0,135
133,224	113,034	-0,154	-0,131
134,239	141,903	-0,211	-0,196
135,254	14,783	-0,256	-0,139
136,268	159,740	-0,168	-0,164
137,283	64,992	-0,235	-0,166
138,297	72,988	-0,333	-0,243
139,312	-9,564	-0,198	-0,092
140,327	-21,443	-0,280	-0,119
141,341	95,296	-0,103	-0,082
142,356	-90,777	-0,185	-0,037
143,370	-77,625	-0,172	-0,041
144,385	136,203	-0,246	-0,224
145,400	6,191	-0,227	-0,117
146,414	45,285	-0,297	-0,191
147,429	267,575	-0,241	-0,295
148,443	56,212	-0,193	-0,131
149,458	-82,087	-0,213	-0,048
150,473	-74,414	-0,238	-0,060
151,487	135,507	-0,151	-0,137
152,502	-83,350	-0,341	-0,076
153,516	32,525	-0,400	-0,241
154,531	-35,974	-0,208	-0,078
155,546	456,889	-0,197	-0,307
156,560	570,654	-0,159	-0,272
157,575	184,086	-0,130	-0,134
158,589	-24,939	-0,316	-0,130
159,604	394,898	-0,182	-0,265
160,619	94,311	-0,272	-0,216
161,633	-5,006	-0,354	-0,170
162,648	176,542	-0,246	-0,250
163,662	800,000	-0,116	-0,245
164,677	34,277	-0,149	-0,091
165,692	350,005	-0,183	-0,253
166,706	48,858	-0,269	-0,176
167,721	172,906	-0,237	-0,238
168,735	597,666	-0,122	-0,212
169,750	800,000	-0,141	-0,324
170,764	-98,859	-0,217	-0,038
171,779	137,092	-0,102	-0,093
172,794	-200,000	0,027	-0,208
173,808	260,655	-0,149	-0,180
174,823	251,207	-0,190	-0,225
175,837	324,565	-0,201	-0,268
176,852	744,114	-0,153	-0,289
177,867	123,280	-0,189	-0,165
178,881	-69,365	-0,193	-0,051
179,896	-77,509	-0,224	-0,054
180,910	-104,707	-0,269	-0,043
181,925	425,246	-0,256	-0,386
182,940	3,081	-0,336	-0,169
183,954	130,998	-0,220	-0,197
184,969	466,361	-0,169	-0,264
185,983	-73,147	-0,214	-0,054
186,998	-20,240	-0,249	-0,106
188,013	-41,125	-0,235	-0,084
189,027	-59,050	-0,250	-0,075
190,042	314,616	-0,225	-0,296
191,056	118,271	-0,200	-0,172
192,071	659,646	-0,161	-0,290
193,086	221,530	-0,121	-0,135
194,100	85,195	-0,192	-0,146
195,115	-91,855	-0,306	-0,060
196,129	194,943	-0,192	-0,204
197,144	92,919	-0,279	-0,219
198,159	-102,083	-0,189	-0,031
199,173	121,347	-0,073	0,063
200,188	36,700	-0,188	-0,115
201,202	116,344	-0,104	-0,089
202,217	-166,834	-0,143	-0,004
203,232	800,000	-0,124	-0,250
204,246	-42,727	-0,216	-0,076
205,261	263,739	-0,219	-0,265
206,275	800,000	-0,070	-0,149
207,290	329,980	-0,106	-0,142
208,304	47,492	-0,121	-0,078
209,319	2,561	-0,275	-0,138
210,334	89,871	-0,197	-0,153
211,348	120,088	-0,082	-0,070
212,363	222,044	-0,232	-0,260
213,377	85,127	-0,218	-0,166
214,392	213,145	-0,127	-0,139
215,407	-32,380	-0,259	-0,100
216,421	-93,294	-0,274	-0,052
217,436	217,361	-0,118	-0,131
218,450	-115,247	-0,153	-0,020
219,465	15,141	-0,322	-0,175
220,480	14,402	-0,159	-0,086
221,494	227,420	-0,112	-0,127
222,509	42,607	-0,179	-0,113
223,523	-43,464	-0,268	-0,093
224,538	800,000	-0,084	-0,194
225,553	94,440	-0,185	-0,146
226,567	84,823	-0,179	-0,136
227,582	-200,000	-0,015	-0,244
228,596	-27,483	-0,226	-0,091
229,611	14,361	-0,092	-0,050
230,626	-0,015	-0,213	-0,105
231,640	144,720	-0,122	-0,114
232,655	146,887	-0,141	-0,131
233,669	42,419	-0,231	-0,145
234,684	800,000	-0,080	-0,164
235,699	217,879	-0,139	-0,154
236,713	65,287	-0,175	-0,122
237,728	92,876	-0,156	-0,122
238,742	-57,439	-0,231	-0,070
239,757	117,021	-0,211	-0,180
240,772	89,914	-0,231	-0,179
241,786	248,094	-0,184	-0,216
242,801	16,998	-0,234	-0,128
243,815	-13,870	-0,179	-0,080
244,830	-111,893	-0,172	-0,024
245,844	51,940	-0,256	-0,169
246,859	52,352	-0,218	-0,144
247,874	53,349	-0,117	-0,078
248,888	121,231	-0,127	-0,110
249,903	483,908	-0,096	-0,152
250,917	90,691	-0,151	-0,117
251,932	-47,915	-0,218	-0,073
252,947	-125,666	-0,227	-0,024
253,961	102,056	-0,207	-0,167
254,976	-200,000	-0,037	-0,128
255,990	118,221	-0,166	-0,142
257,005	800,000	-0,098	-0,273
258,020	-30,892	-0,202	-0,079
259,034	-200,000	-0,042	-0,180
260,049	-24,985	-0,197	-0,081
261,063	-131,635	-0,145	-0,013
262,078	14,357	-0,154	-0,083
263,093	14,759	-0,163	-0,088
264,107	266,747	-0,095	-0,115
265,122	9,278	-0,122	-0,064
266,136	-64,472	-0,168	-0,047
267,151	54,858	-0,181	-0,121
268,166	153,967	-0,224	-0,213
269,180	83,346	-0,177	-0,133
270,195	37,398	-0,215	-0,131
271,209	-5,231	-0,173	-0,082
272,224	800,000	-0,071	-0,160
273,239	11,061	-0,116	-0,061
274,253	320,052	-0,068	-0,089
275,268	28,627	-0,282	-0,165
276,282	-57,170	-0,189	-0,057
277,297	-24,337	-0,259	-0,106
278,312	26,506	-0,195	-0,113
279,326	-19,320	-0,209	-0,089
280,341	79,506	-0,099	-0,073
281,355	-144,120	-0,200	-0,013
282,370	93,503	-0,094	-0,074
283,384	365,585	-0,152	-0,211
284,399	108,481	-0,180	-0,148
285,414	107,311	-0,072	-0,059
286,428	214,770	-0,114	-0,124
287,443	723,440	-0,058	-0,107
288,457	-137,005	-0,173	-0,013
289,472	70,685	-0,184	-0,131
290,487	-42,597	-0,296	-0,104
291,501	-44,976	-0,091	0,031
292,516	-124,296	-0,161	-0,017
293,530	800,000	-0,022	-0,057
294,545	120,062	-0,149	-0,127
295,560	782,626	-0,060	-0,115
296,574	171,403	-0,159	-0,157
297,589	135,306	-0,140	-0,125
298,603	87,446	-0,155	-0,118
299,618	-151,061	-0,201	0,010
300,633	-6,120	-0,235	-0,110
301,647	800,000	-0,061	-0,160
302,662	37,173	-0,193	-0,117
303,676	96,408	-0,078	-0,062
304,691	800,000	-0,083	-0,238
305,706	-170,968	-0,217	-0,005
306,720	51,191	-0,226	-0,148
307,735	-110,764	-0,197	-0,028
308,749	-200,000	0,010	-0,032
309,764	800,000	-0,113	-0,238
310,779	427,342	-0,092	-0,138
311,793	-76,748	-0,279	-0,067
312,808	143,068	-0,213	-0,195
313,822	80,114	-0,054	-0,040
314,837	91,132	-0,129	-0,100
315,852	694,378	-0,103	-0,187
316,866	-20,738	-0,062	-0,026
317,881	-5,228	-0,239	-0,113
318,895	313,871	-0,098	-0,127
319,910	167,445	-0,155	-0,152
320,925	-94,127	-0,210	-0,039
321,939	-62,351	-0,197	-0,056
322,954	-88,973	0,068	-0,014
323,968	111,239	-0,096	-0,080
324,983	-124,680	-0,249	-0,026
325,997	-62,205	-0,083	-0,024
327,012	-8,624	-0,221	-0,102
328,027	-118,422	-0,172	0,021
329,041	48,446	-0,159	-0,102
330,056	402,808	-0,089	-0,130
331,070	-119,537	-0,063	-0,007
332,085	719,846	-0,081	-0,149
333,100	31,271	-0,168	-0,099
334,114	194,851	-0,107	-0,112
335,129	317,188	-0,125	-0,163
336,143	-68,732	-0,228	-0,060
337,158	-15,747	-0,115	-0,050
338,173	226,524	-0,023	-0,026
339,187	205,404	-0,092	-0,098
340,202	-46,877	-0,119	-0,040
341,216	-88,630	-0,115	-0,023
342,231	106,949	-0,192	-0,157
343,246	-50,894	-0,329	-0,106
344,260	800,000	-0,040	-0,103
345,275	800,000	-0,045	-0,097
346,289	271,088	-0,099	-0,120
347,304	-128,164	-0,110	0,011
348,319	60,772	-0,200	-0,136
349,333	193,711	-0,219	-0,228
350,348	259,812	-0,185	-0,219
351,362	-200,000	0,009	-0,153
352,377	42,922	-0,153	-0,095
353,392	-53,724	-0,117	0,036
354,406	27,962	-0,119	-0,069
355,421	208,498	1311,714	1410,019
356,435	160,427	1472,095	1410,518
