DTS Sentinel unit serial number:	SN410029Multiplexer serial number:	ORYXHardware model number:	OX2-SRSoftware version number:	ORYX F/W v4,00 Oryx Data Collector v3.7.2.0data status	okinstallation	B3 Nyhavnadifferential loss correction	single-endedforward channel	channel 1reverse channel	N/Adate	2023/12/03time	22:12:30forward acquisition time	300,00reverse acquisition time	0,00gamma	499,1914k internal	0,3200k external	0,3200temperature offset calibration	1,0000default loss term (dB/km)	0,3820temperature slope calibration	1,0000multiplexer offset coefficient	1,0000multiplexer slope coefficient	1,0000fibre end	0,00T internal ref (°C)	13,31T ext. ref 1 (°C)	-2,04T ext. ref 2 (°C)	-2,07length (m)	temperature (°C)	Stokes	anti-Stokes-744,400	-200,000	-0,103	-0,378
-743,385	542,170	0,161	0,280
-742,371	150,578	-0,232	-0,230
-741,356	-200,000	-0,035	0,239
-740,342	241,731	-0,159	-0,194
-739,327	649,155	0,129	0,242
-738,312	134,082	-0,245	-0,231
-737,298	-200,000	-0,052	0,249
-736,283	470,112	-0,206	-0,338
-735,269	-200,000	0,138	0,491
-734,254	800,000	-0,095	-0,218
-733,239	264,648	-0,162	0,206
-732,225	243,645	-0,143	-0,175
-731,210	64,571	0,068	-0,050
-730,196	-9,260	0,043	0,021
-729,181	-200,000	0,022	-0,131
-728,167	800,000	-0,056	-0,134
-727,152	800,000	-0,011	0,025
-726,137	483,071	-0,051	-0,084
-725,123	-193,042	-0,114	-0,001
-724,108	193,169	-0,092	0,101
-723,094	248,448	-0,036	0,044
-722,079	491,002	-0,054	-0,090
-721,064	-200,000	-0,019	-0,167
-720,050	800,000	-0,090	-0,187
-719,035	6,247	0,055	0,030
-718,021	-143,119	-0,112	0,008
-717,006	800,000	-0,044	-0,110
-715,991	-40,923	-0,089	0,033
-714,977	51,196	0,109	-0,075
-713,962	397,491	0,085	-0,130
-712,948	504,849	-0,038	0,065
-711,933	-34,681	0,088	0,035
-710,918	-200,000	-0,034	0,145
-709,904	-53,695	-0,033	0,011
-708,889	109,177	-0,030	-0,026
-707,875	51,151	-0,043	-0,030
-706,860	-200,000	0,024	-0,085
-705,845	414,188	-0,058	-0,090
-704,831	79,091	0,084	0,065
-703,816	-200,000	-0,025	0,152
-702,802	-200,000	-0,024	0,091
-701,787	38,126	-0,079	0,051
-700,772	800,000	-0,027	-0,057
-699,758	-168,827	-0,136	0,004
-698,743	-105,770	0,097	-0,016
-697,729	225,938	-0,051	0,060
-696,714	403,343	0,081	0,125
-695,699	-200,000	-0,009	-0,135
-694,685	-200,000	-0,014	0,079
-693,670	-59,348	0,033	-0,010
-692,656	265,196	0,035	-0,045
-691,641	-89,836	0,147	-0,031
-690,627	49,783	0,081	0,055
-689,612	-88,404	0,087	0,019
-688,597	74,118	-0,058	-0,044
-687,583	-200,000	-0,016	0,068
-686,568	371,787	0,041	-0,061
-685,554	207,751	0,098	-0,111
-684,539	-156,482	-0,031	-0,001
-683,524	-200,000	-0,030	0,244
-682,510	33,289	0,090	-0,057
-681,495	180,701	-0,033	0,035
-680,481	22,265	0,110	-0,065
-679,466	-200,000	0,005	-0,050
-678,451	258,295	-0,057	-0,071
-677,437	-200,000	0,002	0,047
-676,422	-200,000	-0,020	0,118
-675,408	-113,686	0,087	0,012
-674,393	-200,000	0,015	-0,076
-673,378	305,975	-0,091	-0,123
-672,364	-200,000	0,025	-0,140
-671,349	141,618	-0,128	-0,123
-670,335	-200,000	0,020	0,119
-669,320	136,808	0,033	0,032
-668,305	166,586	-0,110	0,113
-667,291	800,000	0,036	0,074
-666,276	174,794	-0,059	-0,062
-665,262	256,871	-0,022	0,028
-664,247	280,716	0,042	0,054
-663,232	-61,012	-0,016	-0,005
-662,218	90,413	0,036	-0,030
-661,203	751,282	-0,012	0,023
-660,189	461,406	0,028	0,045
-659,174	-92,861	-0,006	0,001
-658,159	274,781	-0,126	-0,162
-657,145	-59,268	-0,092	-0,029
-656,130	-106,177	0,094	-0,015
-655,116	23,043	0,082	-0,049
-654,101	-79,298	-0,053	0,013
-653,086	111,652	-0,037	0,033
-652,072	46,304	-0,126	-0,085
-651,057	800,000	0,017	-0,043
-650,043	410,021	0,049	0,076
-649,028	402,039	-0,025	-0,039
-648,014	-200,000	-0,078	0,000
-646,999	800,000	0,016	-0,040
-645,984	-48,158	-0,153	0,053
-644,970	79,656	0,032	-0,025
-643,955	800,000	-0,061	-0,177
-642,941	-137,683	-0,178	0,014
-641,926	-33,673	0,197	0,078
-640,911	278,685	-0,054	-0,070
-639,897	-200,000	-0,016	0,168
-638,882	800,000	0,024	0,047
-637,868	74,357	0,039	0,030
-636,853	280,944	-0,113	0,147
-635,838	-200,000	0,001	0,053
-634,824	-59,519	0,117	0,036
-633,809	463,654	0,065	0,106
-632,795	-153,240	-0,203	-0,010
-631,780	312,139	0,082	-0,112
-630,765	-117,329	-0,078	-0,010
-629,751	147,121	-0,010	0,010
-628,736	64,422	-0,045	-0,033
-627,722	-174,640	-0,100	-0,002
-626,707	-200,000	0,001	-0,154
-625,692	-200,000	0,016	-0,083
-624,678	-1,565	0,034	0,017
-623,663	-200,000	0,006	0,025
-622,649	466,069	-0,020	-0,033
-621,634	324,217	-0,034	-0,047
-620,619	800,000	-0,043	-0,112
-619,605	-200,000	-0,028	-0,143
-618,590	-25,210	-0,048	-0,020
-617,576	-70,146	-0,076	0,021
-616,561	0,965	-0,254	-0,131
-615,546	800,000	-0,047	-0,120
-614,532	-4,864	0,140	-0,069
-613,517	-200,000	-0,016	0,074
-612,503	-200,000	-0,049	-0,193
-611,488	375,677	0,054	0,080
-610,474	-200,000	-0,040	0,197
-609,459	338,920	0,034	0,048
-608,444	-71,794	-0,022	0,006
-607,430	-35,231	-0,127	-0,050
-606,415	-89,121	-0,165	0,035
-605,401	800,000	-0,031	-0,095
-604,386	282,955	-0,044	-0,058
-603,371	800,000	0,062	0,158
-602,357	-112,035	-0,037	-0,005
-601,342	323,304	0,062	-0,086
-600,328	-200,000	-0,015	-0,064
-599,313	499,238	-0,069	-0,116
-598,298	260,795	0,113	-0,142
-597,284	800,000	0,069	0,161
-596,269	800,000	-0,024	-0,070
-595,255	116,700	0,089	-0,079
-594,240	-61,745	0,106	0,032
-593,225	9,011	-0,047	0,026
-592,211	-200,000	0,023	-0,075
-591,196	800,000	0,006	0,017
-590,182	-200,000	-0,012	0,136
-589,167	-55,256	-0,027	0,009
-588,152	-109,977	-0,116	-0,017
-587,138	-71,262	0,084	-0,023
-586,123	-200,000	-0,010	0,089
-585,109	800,000	-0,069	-0,167
-584,094	800,000	-0,044	0,136
-583,079	-200,000	0,000	-0,052
-582,065	261,385	0,103	0,130
-581,050	55,181	-0,041	-0,029
-580,036	-200,000	0,015	-0,081
-579,021	-63,602	0,096	-0,028
-578,006	-200,000	-0,018	-0,059
-576,992	800,000	0,055	-0,121
-575,977	-172,007	-0,126	0,003
-574,963	-200,000	0,016	0,105
-573,948	149,494	-0,087	0,085
-572,934	-61,851	0,049	-0,015
-571,919	240,226	-0,082	0,099
-570,904	398,902	-0,080	0,121
-569,890	800,000	0,043	0,100
-568,875	-200,000	-0,017	0,094
-567,861	-41,039	0,097	-0,036
-566,846	800,000	0,041	0,095
-565,831	800,000	0,061	0,125
-564,817	-200,000	-0,012	0,109
-563,802	156,807	0,052	-0,052
-562,788	199,946	0,081	-0,090
-561,773	800,000	0,029	0,072
-560,758	800,000	0,036	0,078
-559,744	-200,000	-0,006	-0,086
-558,729	265,882	-0,023	-0,029
-557,715	84,050	0,059	-0,046
-556,700	800,000	-0,022	0,060
-555,685	-12,542	-0,051	-0,024
-554,671	-13,892	-0,187	-0,087
-553,656	301,025	0,062	0,083
-552,642	132,459	0,050	0,047
-551,627	-200,000	0,026	-0,195
-550,612	-20,394	0,068	-0,030
-549,598	302,196	-0,062	-0,082
-548,583	-86,404	-0,113	0,025
-547,569	480,258	-0,074	0,121
-546,554	-200,000	-0,001	0,005
-545,539	-98,840	-0,041	0,008
-544,525	-200,000	-0,005	-0,066
-543,510	800,000	0,028	0,082
-542,496	626,271	-0,026	-0,048
-541,481	435,488	-0,044	0,070
-540,466	-105,293	-0,112	-0,018
-539,452	800,000	-0,017	0,036
-538,437	-200,000	-0,001	0,008
-537,423	220,503	-0,082	0,095
-536,408	487,110	-0,059	0,098
-535,393	502,629	0,027	-0,046
-534,379	322,669	-0,006	0,008
-533,364	-78,204	0,099	0,024
-532,350	-149,323	0,121	0,007
-531,335	12,733	-0,020	0,011
-530,321	800,000	0,032	0,066
-529,306	-200,000	0,019	-0,094
-528,291	-200,000	0,016	-0,109
-527,277	159,858	-0,136	-0,137
-526,262	182,331	-0,107	-0,114
-525,248	746,059	0,025	-0,049
-524,233	-94,937	0,040	-0,008
-523,218	137,732	-0,058	0,055
-522,204	-105,766	0,089	0,014
-521,189	182,438	-0,095	0,101
-520,175	-52,863	-0,054	0,018
-519,160	290,503	-0,028	0,037
-518,145	-200,000	0,008	0,051
-517,131	37,911	0,077	-0,049
-516,116	800,000	-0,030	0,067
-515,102	40,775	-0,066	-0,043
-514,087	108,093	-0,062	-0,053
-513,072	7,596	-0,033	0,018
-512,058	-119,950	-0,066	0,008
-511,043	26,705	0,074	-0,044
-510,029	307,615	0,042	0,057
-509,014	-200,000	-0,033	0,161
-507,999	32,531	0,106	0,066
-506,985	110,411	-0,095	-0,082
-505,970	-200,000	0,034	-0,122
-504,956	-110,430	-0,061	0,009
-503,941	361,678	-0,015	0,022
-502,926	25,195	0,084	0,050
-501,912	-9,441	0,124	0,060
-500,897	786,006	0,070	0,139
-499,883	-62,971	-0,142	-0,042
-498,868	123,585	0,059	0,053
-497,853	17,492	0,041	0,024
-496,839	800,000	-0,039	-0,083
-495,824	10,044	-0,048	0,026
-494,810	800,000	0,038	0,088
-493,795	-69,263	-0,066	0,018
-492,781	93,862	-0,135	-0,110
-491,766	-183,028	0,072	0,001
-490,751	-132,027	-0,117	-0,011
-489,737	177,784	-0,050	0,052
-488,722	-200,000	0,013	0,065
-487,708	800,000	-0,060	0,135
-486,693	-66,334	0,128	-0,036
-485,678	47,002	-0,047	0,031
-484,664	710,364	-0,035	0,067
-483,649	800,000	-0,014	0,036
-482,635	800,000	0,014	-0,030
-481,620	-55,283	0,105	0,034
-480,605	800,000	-0,038	0,098
-479,591	-1,499	0,091	0,046
-478,576	-200,000	0,047	0,203
-477,562	800,000	-0,040	-0,110
-476,547	249,694	0,103	-0,126
-475,532	12,876	0,085	-0,047
-474,518	258,575	0,081	0,100
-473,503	-200,000	-0,024	0,102
-472,489	359,189	-0,074	0,107
-471,474	53,400	-0,014	0,010
-470,459	-34,346	-0,140	-0,055
-469,445	-200,000	-0,012	-0,052
-468,430	-51,121	0,053	0,018
-467,416	-53,426	0,123	0,040
-466,401	-200,000	0,017	-0,089
-465,386	214,013	-0,063	0,072
-464,372	82,887	-0,145	-0,113
-463,357	-163,552	-0,248	-0,008
-462,343	44,708	-0,164	-0,108
-461,328	287,757	0,037	-0,048
-460,313	800,000	-0,042	-0,086
-459,299	-200,000	0,025	0,117
-458,284	-47,511	0,038	-0,013
-457,270	-52,366	0,072	-0,024
-456,255	165,696	-0,056	0,057
-455,241	-117,497	0,017	0,002
-454,226	-200,000	0,015	-0,062
-453,211	-200,000	-0,014	0,079
-452,197	542,922	0,065	0,113
-451,182	-200,000	0,003	-0,025
-450,168	-85,319	-0,106	0,024
-449,153	21,076	0,029	0,017
-448,138	-96,080	-0,036	0,007
-447,124	169,038	-0,036	-0,037
-446,109	-200,000	-0,013	0,081
-445,095	-200,000	0,005	0,085
-444,080	212,007	-0,067	0,076
-443,065	267,446	0,084	0,105
-442,051	-200,000	0,001	0,053
-441,036	800,000	0,049	-0,128
-440,022	-121,255	-0,093	-0,011
-439,007	800,000	0,031	0,069
-437,992	-156,855	0,080	-0,003
-436,978	-80,031	0,066	0,016
-435,963	-61,428	-0,023	-0,007
-434,949	221,238	0,046	-0,053
-433,934	-200,000	-0,010	-0,062
-432,919	-200,000	-0,048	-0,192
-431,905	164,610	0,070	-0,071
-430,890	-32,661	0,057	0,023
-429,876	800,000	0,047	0,100
-428,861	389,858	0,017	-0,025
-427,846	21,387	-0,055	-0,032
-426,832	217,960	-0,077	-0,088
-425,817	95,516	0,111	0,091
-424,803	-84,348	-0,073	0,016
-423,788	-200,000	-0,029	-0,095
-422,773	-200,000	0,013	-0,068
-421,759	11,034	-0,075	-0,041
-420,744	-42,370	-0,078	-0,029
-419,730	-200,000	0,002	0,060
-418,715	-83,074	-0,117	0,027
-417,701	-110,572	-0,036	-0,005
-416,686	-200,000	-0,011	-0,124
-415,671	244,990	-0,065	-0,079
-414,657	193,139	0,036	-0,039
-413,642	800,000	-0,063	-0,129
-412,628	-89,080	-0,010	0,002
-411,613	800,000	0,040	-0,100
-410,598	-10,978	-0,028	-0,013
-409,584	-73,591	0,031	-0,008
-408,569	800,000	0,022	0,050
-407,555	-35,725	0,066	-0,026
-406,540	617,165	0,050	-0,090
-405,525	248,733	-0,102	0,125
-404,511	90,431	-0,087	-0,070
-403,496	-200,000	0,012	0,073
-402,482	501,922	0,030	-0,050
-401,467	800,000	-0,013	0,039
-400,452	-175,100	0,135	0,003
-399,438	746,988	0,032	0,062
-398,423	800,000	0,042	-0,113
-397,409	501,626	-0,023	-0,039
-396,394	-72,529	-0,053	0,014
-395,379	-90,234	0,072	-0,015
-394,365	-178,326	-0,002	0,000
-393,350	-200,000	0,016	0,061
-392,336	-17,125	0,085	0,038
-391,321	-53,832	-0,095	-0,031
-390,306	74,808	-0,073	-0,055
-389,292	176,810	-0,061	-0,064
-388,277	98,749	0,024	0,020
-387,263	13,220	0,047	0,026
-386,248	17,020	0,006	-0,004
-385,233	268,702	-0,037	0,047
-384,219	-200,000	-0,017	-0,159
-383,204	49,036	0,080	-0,054
-382,190	800,000	0,053	-0,115
-381,175	-200,000	0,002	-0,061
-380,160	265,819	0,075	-0,094
-379,146	67,399	0,090	0,066
-378,131	800,000	0,030	0,073
-377,117	-200,000	0,015	0,048
-376,102	-200,000	0,016	-0,118
-375,088	800,000	0,007	-0,015
-374,073	-200,000	0,021	0,085
-373,058	217,108	0,074	0,084
-372,044	-200,000	-0,029	0,175
-371,029	-200,000	0,014	-0,123
-370,015	800,000	0,049	0,108
-369,000	143,723	-0,051	-0,049
-367,985	-151,565	-0,084	0,004
-366,971	800,000	0,060	0,135
-365,956	-46,407	0,158	0,055
-364,942	800,000	0,037	0,114
-363,927	-113,848	-0,112	-0,015
-362,912	800,000	0,018	-0,041
-361,898	-101,711	0,086	0,015
-360,883	-95,438	-0,025	-0,005
-359,869	22,048	0,018	0,011
-358,854	-51,178	0,074	-0,025
-357,839	247,019	0,038	-0,047
-356,825	11,963	-0,087	-0,048
-355,810	81,176	0,033	0,025
-354,796	-73,737	0,059	-0,015
-353,781	-119,442	-0,129	-0,016
-352,766	-200,000	-0,008	-0,184
-351,752	-200,000	0,017	0,160
-350,737	114,828	-0,048	0,042
-349,723	632,963	-0,018	0,033
-348,708	237,788	-0,154	0,184
-347,693	25,310	-0,119	-0,071
-346,679	5,146	0,058	-0,030
-345,664	10,067	-0,097	0,053
-344,650	496,100	-0,059	-0,098
-343,635	493,727	-0,042	0,070
-342,620	-200,000	0,029	0,137
-341,606	-67,038	-0,103	0,029
-340,591	-85,723	-0,157	-0,035
-339,577	-32,019	0,147	-0,059
-338,562	-82,636	-0,109	-0,025
-337,548	123,779	0,047	-0,042
-336,533	4,780	0,049	0,026
-335,518	767,561	-0,049	-0,097
-334,504	7,202	-0,128	-0,068
-333,489	-200,000	-0,011	0,036
-332,475	-106,302	-0,079	-0,013
-331,460	-57,041	-0,147	-0,046
-330,445	-94,986	-0,047	0,009
-329,431	800,000	-0,039	0,078
-328,416	-16,747	-0,077	-0,035
-327,402	-123,838	0,113	0,013
-326,387	294,508	0,113	-0,149
-325,372	-200,000	-0,024	-0,077
-324,358	77,015	-0,091	0,069
-323,343	36,266	0,049	-0,031
-322,329	34,453	0,091	0,057
-321,314	132,104	-0,065	0,060
-320,299	-161,569	0,100	-0,004
-319,285	-21,381	-0,068	0,030
-318,270	67,067	0,077	0,056
-317,256	308,426	0,092	-0,123
-316,241	-98,203	-0,041	-0,007
-315,226	-200,000	-0,031	-0,128
-314,212	-65,076	-0,062	0,018
-313,197	-200,000	-0,005	0,106
-312,183	800,000	-0,024	0,059
-311,168	-181,437	0,100	-0,001
-310,153	382,680	0,107	-0,158
-309,139	-200,000	-0,004	-0,142
-308,124	-31,406	0,123	-0,049
-307,110	221,069	-0,032	-0,037
-306,095	49,005	0,124	0,083
-305,080	800,000	0,036	0,095
-304,066	114,111	-0,023	-0,020
-303,051	529,831	0,030	0,051
-302,037	538,789	0,037	-0,063
-301,022	-81,205	-0,064	-0,015
-300,008	-67,612	0,058	0,016
-298,993	-118,454	0,042	-0,005
-297,978	4,014	0,142	-0,074
-296,964	-99,829	-0,100	-0,018
-295,949	-194,257	0,044	-0,000
-294,935	138,946	0,149	-0,140
-293,920	579,473	0,039	0,068
-292,905	308,145	0,080	-0,106
-291,891	800,000	-0,009	0,028
-290,876	800,000	0,057	0,113
-289,862	12,032	-0,071	0,039
-288,847	-200,000	0,019	0,127
-287,832	364,208	0,027	0,039
-286,818	800,000	0,041	-0,097
-285,803	14,465	0,138	0,077
-284,789	-58,478	0,026	0,008
-283,774	66,595	0,140	0,102
-282,759	-159,915	0,085	0,003
-281,745	-200,000	0,027	-0,133
-280,730	144,308	0,068	0,065
-279,716	-200,000	-0,017	0,107
-278,701	-148,600	0,191	0,011
-277,686	-200,000	0,010	0,055
-276,672	-200,000	0,036	0,120
-275,657	58,300	0,056	-0,039
-274,643	-200,000	-0,018	-0,075
-273,628	168,842	-0,204	0,208
-272,613	-200,000	0,004	0,124
-271,599	-104,568	-0,063	0,010
-270,584	125,282	0,045	0,040
-269,570	-13,961	0,099	-0,046
-268,555	404,666	-0,032	0,048
-267,540	-200,000	-0,002	0,055
-266,526	-57,894	-0,149	-0,046
-265,511	474,863	-0,070	0,114
-264,497	-36,922	0,072	0,027
-263,482	-143,991	0,162	-0,011
-262,467	619,162	0,118	-0,212
-261,453	-200,000	-0,009	-0,152
-260,438	-200,000	0,006	0,028
-259,424	54,535	0,106	-0,073
-258,409	-200,000	-0,021	-0,126
-257,395	-200,000	-0,006	-0,024
-256,380	119,948	-0,059	0,052
-255,365	314,815	0,098	0,132
-254,351	422,975	0,011	0,017
-253,336	25,298	-0,124	-0,073
-252,322	-200,000	0,022	-0,076
-251,307	613,373	0,054	0,097
-250,292	-71,844	0,082	0,022
-249,278	3,121	0,077	0,040
-248,263	181,555	0,042	0,045
-247,249	213,646	0,044	0,050
-246,234	638,720	-0,059	-0,108
-245,219	800,000	0,019	-0,059
-244,205	-173,611	-0,131	0,003
-243,190	-20,255	0,083	0,036
-242,176	-47,150	0,142	0,049
-241,161	-156,810	0,167	0,007
-240,146	-200,000	-0,011	0,057
-239,132	-172,125	0,022	0,001
-238,117	-200,000	0,026	-0,130
-237,103	-8,829	0,049	-0,023
-236,088	-40,858	-0,083	0,031
-235,073	93,366	0,082	0,066
-234,059	-200,000	-0,024	0,142
-233,044	-200,000	0,005	0,102
-232,030	95,065	0,081	0,066
-231,015	-45,772	-0,132	-0,046
-230,000	-200,000	0,011	0,200
-228,986	323,185	-0,123	-0,167
-227,971	-6,119	-0,024	-0,012
-226,957	105,387	0,134	-0,113
-225,942	-200,000	0,011	-0,034
-224,927	-143,570	0,136	-0,009
-223,913	14,605	-0,161	-0,089
-222,898	-200,000	0,004	0,070
-221,884	-200,000	-0,004	0,127
-220,869	59,386	0,112	0,079
-219,855	-200,000	0,001	0,023
-218,840	-200,000	0,020	0,101
-217,825	-113,274	-0,128	-0,018
-216,811	355,422	0,040	0,057
-215,796	-58,903	-0,094	-0,029
-214,782	-4,302	0,022	0,011
-213,767	81,358	-0,108	0,083
-212,752	-85,506	-0,034	0,007
-211,738	-200,000	-0,055	0,232
-210,723	-38,615	0,076	0,029
-209,709	76,498	-0,092	-0,069
-208,694	-200,000	-0,002	0,021
-207,679	107,365	0,115	0,098
-206,665	600,176	0,079	-0,141
-205,650	800,000	0,007	0,014
-204,636	215,509	-0,139	-0,157
-203,621	121,886	-0,097	0,087
-202,606	-200,000	-0,011	-0,041
-201,592	-200,000	0,006	-0,068
-200,577	-200,000	0,014	-0,115
-199,563	-125,182	-0,070	0,007
-198,548	776,354	0,036	-0,071
-197,533	221,107	0,037	-0,043
-196,519	-200,000	0,018	-0,069
-195,504	-48,255	-0,101	-0,035
-194,490	244,137	0,053	-0,064
-193,475	762,472	-0,112	-0,217
-192,460	24,080	0,016	-0,009
-191,446	-200,000	0,008	-0,098
-190,431	306,570	0,050	-0,067
-189,417	800,000	-0,017	0,041
-188,402	-200,000	-0,009	0,066
-187,387	800,000	-0,048	-0,148
-186,373	-200,000	-0,047	-0,169
-185,358	-200,000	-0,078	0,000
-184,344	620,292	-0,017	0,031
-183,329	570,051	-0,019	0,034
-182,315	1,029	0,083	0,042
-181,300	800,000	0,036	0,095
-180,285	52,052	-0,079	-0,053
-179,271	-41,619	-0,073	0,026
-178,256	-161,244	0,120	-0,004
-177,242	-34,531	0,085	0,033
-176,227	454,482	0,078	0,123
-175,212	-27,567	0,032	0,013
-174,198	41,594	0,092	-0,059
-173,183	334,071	-0,033	-0,045
-172,169	483,703	-0,009	-0,015
-171,154	-200,000	-0,002	0,012
-170,139	326,843	0,086	0,118
-169,125	21,266	0,094	0,054
-168,110	800,000	0,049	-0,140
-167,096	-129,593	0,043	-0,004
-166,081	672,532	0,027	0,050
-165,066	-162,827	0,046	-0,002
-164,052	800,000	-0,038	-0,108
-163,037	636,199	-0,037	-0,067
-162,023	-200,000	-0,005	-0,034
-161,008	99,923	0,034	-0,028
-159,993	193,628	-0,020	0,022
-158,979	-200,000	0,002	-0,052
-157,964	800,000	0,036	-0,071
-156,950	-115,890	0,184	-0,024
-155,935	-200,000	-0,018	0,056
-154,920	800,000	0,024	-0,050
-153,906	800,000	-0,052	0,105
-152,891	-200,000	-0,003	0,101
-151,877	114,315	0,036	-0,031
-150,862	-156,378	0,070	0,003
-149,847	-65,894	0,072	0,020
-148,833	-149,876	-0,114	-0,006
-147,818	800,000	0,058	-0,135
-146,804	-12,456	0,122	-0,057
-145,789	111,701	-0,134	0,115
-144,775	800,000	-0,033	-0,096
-143,760	-200,000	0,007	-0,065
-142,745	678,992	-0,047	-0,087
-141,731	-200,000	0,017	0,108
-140,716	-44,311	-0,099	-0,035
-139,702	109,791	0,089	-0,076
-138,687	216,529	-0,008	-0,009
-137,672	-200,000	0,019	0,074
-136,658	121,198	-0,099	-0,088
-135,643	-200,000	-0,014	0,070
-134,629	800,000	0,043	-0,094
-133,614	4,789	0,118	-0,061
-132,599	-22,875	-0,082	0,035
-131,585	-130,932	-0,063	0,006
-130,570	-200,000	0,032	-0,124
-129,556	-17,844	-0,050	0,022
-128,541	-118,380	-0,090	-0,011
-127,526	336,650	0,079	0,110
-126,512	-22,347	0,076	-0,033
-125,497	10,840	0,110	0,059
-124,483	-200,000	0,005	0,082
-123,468	-200,000	0,003	-0,124
-122,453	-61,025	-0,112	-0,033
-121,439	-200,000	-0,008	-0,149
-120,424	11,699	-0,115	-0,063
-119,410	800,000	0,106	0,305
-118,395	-92,858	0,126	0,025
-117,380	-31,420	-0,006	-0,002
-116,366	8,575	0,079	-0,042
-115,351	-46,060	-0,116	-0,040
-114,337	-23,222	-0,134	-0,057
-113,322	-144,749	-0,051	-0,003
-112,307	447,278	-0,071	-0,111
-111,293	-162,793	0,090	-0,003
-110,278	223,527	0,093	0,106
-109,264	62,468	-0,008	0,005
-108,249	-200,000	0,002	-0,172
-107,234	-155,227	-0,091	-0,004
-106,220	609,156	0,033	-0,059
-105,205	-103,463	-0,042	0,007
-104,191	3,850	0,130	0,067
-103,176	210,949	0,089	0,100
-102,162	-34,630	0,047	0,018
-101,147	121,352	-0,057	-0,051
-100,132	800,000	-0,048	0,135
-99,118	-47,860	-0,069	0,024
-98,103	800,000	0,030	0,072
-97,089	343,424	-0,069	0,097
-96,074	34,317	0,074	-0,046
-95,059	38,404	0,026	0,016
-94,045	-133,271	-0,190	0,017
-93,030	800,000	0,039	-0,087
-92,016	21,943	0,086	-0,049
-91,001	7,637	0,093	0,049
-89,986	800,000	-0,076	0,154
-88,972	-83,888	-0,115	0,026
-87,957	-143,752	-0,155	-0,010
-86,943	800,000	-0,051	-0,125
-85,928	-80,711	-0,031	0,007
-84,913	-119,704	-0,080	0,010
-83,899	-200,000	-0,004	-0,087
-82,884	316,661	0,021	-0,029
-81,870	800,000	0,011	-0,025
-80,855	20,850	0,068	-0,039
-79,840	800,000	-0,046	0,133
-78,826	196,996	-0,119	-0,129
-77,811	-147,445	-0,118	-0,007
-76,797	217,906	0,016	0,018
-75,782	-54,099	-0,044	0,014
-74,767	-57,081	0,017	-0,005
-73,753	-200,000	0,012	-0,098
-72,738	141,240	-0,017	0,016
-71,724	-200,000	0,007	-0,118
-70,709	-12,724	-0,071	-0,033
-69,694	-77,370	-0,087	0,021
-68,680	100,005	0,024	0,019
-67,665	800,000	-0,040	-0,108
-66,651	-72,493	-0,083	0,022
-65,636	435,671	-0,004	0,007
-64,622	-200,000	0,030	-0,102
-63,607	45,014	-0,055	0,036
-62,592	-200,000	-0,001	-0,069
-61,578	132,817	0,097	-0,089
-60,563	-200,000	0,013	0,155
-59,549	-109,779	0,115	0,017
-58,534	-23,876	-1,569	-0,662
-57,519	337,421	-1,432	-1,977
-56,505	-200,000	-0,498	-4,580
-55,490	332,907	0,956	1,312
-54,476	800,000	4,875	11,192
-53,461	-200,000	19,300	320,123
-52,446	-200,000	741,427	2334,466
-51,432	572,463	1656,367	2869,671
-50,417	78,276	1671,618	1262,610
-49,403	21,280	1544,862	886,306
-48,388	15,162	1467,331	812,046
-47,373	18,012	1457,341	820,270
-46,359	16,673	1447,301	808,158
-45,344	13,395	1442,872	789,932
-44,330	13,342	1440,641	788,426
-43,315	13,376	1438,862	787,586
-42,300	13,413	1437,276	786,864
-41,286	13,370	1436,120	785,993
-40,271	13,330	1434,765	785,031
-39,257	13,340	1433,582	784,397
-38,242	13,376	1432,001	783,671
-37,227	13,365	1430,965	783,021
-36,213	13,432	1429,575	782,551
-35,198	13,423	1428,216	781,732
-34,184	13,452	1427,403	781,392
-33,169	13,351	1426,138	780,191
-32,154	13,383	1425,196	779,796
-31,140	13,405	1423,972	779,203
-30,125	13,425	1422,781	778,610
-29,111	13,430	1421,492	777,898
-28,096	13,400	1420,467	777,166
-27,082	13,358	1419,379	776,341
-26,067	13,318	1418,513	775,651
-25,052	13,357	1416,939	774,941
-24,038	13,317	1416,126	774,278
-23,023	13,315	1415,299	773,785
-22,009	13,286	1414,234	773,034
-20,994	13,320	1413,172	772,583
-19,979	13,318	1412,444	772,145
-18,965	13,313	1411,283	771,459
-17,950	13,227	1410,627	770,666
-16,936	13,286	1409,677	770,392
-15,921	13,221	1408,425	769,372
-14,906	13,251	1407,480	768,966
-13,892	13,267	1406,624	768,545
-12,877	13,286	1405,640	768,063
-11,863	13,264	1404,711	767,424
-10,848	13,238	1403,999	766,882
-9,833	13,217	1403,062	766,239
-8,819	13,175	1402,481	765,699
-7,804	13,117	1401,515	764,870
-6,790	13,182	1400,120	764,382
-5,775	13,135	1399,346	763,710
-4,760	13,164	1398,230	763,205
-3,746	13,142	1397,423	762,633
-2,731	13,094	1396,857	762,069
-1,717	13,099	1395,733	761,449
-0,702	13,069	1393,968	760,316
0,313	16,923	1310,699	732,766
1,327	33,181	703,896	431,120
2,342	50,787	123,288	82,497
3,356	2,647	16,572	8,473
4,371	12,928	3,192	1,741
5,386	-15,733	0,627	0,281
6,400	-200,000	0,041	0,263
7,415	-200,000	-0,049	-0,236
8,429	244,349	-0,207	-0,247
9,444	195,023	-0,293	-0,316
10,459	131,898	-0,138	-0,126
11,473	-48,452	-0,333	-0,113
12,488	59,986	-0,242	-0,169
13,502	-101,084	-0,251	-0,043
14,517	3,038	-0,346	-0,177
15,531	178,187	-0,318	-0,328
16,546	26,327	-0,419	-0,247
17,561	152,898	-0,319	-0,308
18,575	364,810	-0,116	-0,165
19,590	89,074	-0,328	-0,258
20,604	31,164	-0,353	-0,213
21,619	94,574	-0,406	-0,326
22,634	72,230	-0,427	-0,314
23,648	43,233	-0,421	-0,271
24,663	162,790	-0,321	-0,319
25,677	141,486	-0,380	-0,355
26,692	155,926	-0,313	-0,305
27,707	-10,092	-0,452	-0,211
28,721	93,072	-0,383	-0,306
29,736	31,267	-0,350	-0,212
30,750	139,074	-0,439	-0,408
31,765	137,609	-0,331	-0,306
32,780	-23,848	-0,382	-0,161
33,794	-38,018	-0,536	-0,200
34,809	84,477	-0,379	-0,292
35,823	-7,981	-0,430	-0,204
36,838	124,985	-0,326	-0,290
37,853	121,299	-0,312	-0,274
38,867	17,970	-0,393	-0,220
39,882	78,704	-0,333	-0,251
40,896	58,380	-0,261	-0,180
41,911	4,890	-0,323	-0,167
42,926	10,630	-0,445	-0,239
43,940	53,596	-0,404	-0,273
44,955	125,085	-0,360	-0,320
45,969	102,945	-0,360	-0,297
46,984	115,759	-0,304	-0,262
47,999	210,962	-0,290	-0,322
49,013	147,446	-0,280	-0,265
50,028	61,217	-0,378	-0,264
51,042	278,875	-0,245	-0,309
52,057	13,476	-0,388	-0,212
53,071	3,436	-0,325	-0,166
54,086	36,947	-0,349	-0,217
55,101	149,605	-0,236	-0,226
56,115	139,771	-0,264	-0,245
57,130	5,569	-0,403	-0,209
58,144	111,433	-0,306	-0,260
59,159	127,840	-0,370	-0,331
60,174	43,278	-0,346	-0,222
61,188	29,839	-0,456	-0,273
62,203	133,143	-0,278	-0,252
63,217	55,396	-0,290	-0,197
64,232	339,737	-0,202	-0,278
65,247	-42,481	-0,314	-0,112
66,261	33,826	-0,385	-0,235
67,276	116,038	-0,352	-0,303
68,290	-3,370	-0,376	-0,183
69,305	228,376	-0,262	-0,301
70,320	-9,050	-0,406	-0,190
71,334	44,943	-0,294	-0,190
72,349	142,055	-0,283	-0,264
73,363	67,470	-0,380	-0,272
74,378	143,882	-0,240	-0,226
75,393	154,781	-0,247	-0,239
76,407	96,795	-0,338	-0,272
77,422	68,336	-0,240	-0,173
78,436	402,252	-0,227	-0,336
79,451	-38,461	-0,256	-0,095
80,466	54,867	-0,412	-0,279
81,480	62,710	-0,248	-0,174
82,495	-7,434	-0,365	-0,173
83,509	34,381	-0,282	-0,172
84,524	18,443	-0,195	-0,109
85,539	169,039	-0,251	-0,251
86,553	73,283	-0,335	-0,246
87,568	-78,798	-0,380	-0,090
88,582	28,720	-0,250	-0,148
89,597	89,460	-0,383	-0,300
90,611	66,566	-0,393	-0,280
91,626	79,281	-0,272	-0,205
92,641	-83,053	-0,279	-0,062
93,655	-34,205	-0,400	-0,153
94,670	-142,130	-0,259	-0,018
95,684	-31,615	-0,243	-0,095
96,699	158,532	-0,268	-0,261
97,714	412,993	-0,216	-0,324
98,728	62,422	-0,359	-0,251
99,743	46,874	-0,398	-0,259
100,757	63,493	-0,260	-0,183
101,772	-61,178	-0,376	-0,111
102,787	67,661	-0,261	-0,187
103,801	30,429	-0,325	-0,194
104,816	24,409	-0,293	-0,169
105,830	40,132	-0,341	-0,215
106,845	75,357	-0,211	-0,156
107,860	150,195	-0,246	-0,235
108,874	116,367	-0,242	-0,208
109,889	120,511	-0,325	-0,283
110,903	121,032	-0,262	-0,229
111,918	64,025	-0,220	-0,155
112,933	102,735	-0,178	-0,146
113,947	218,182	-0,193	-0,216
114,962	20,879	-0,331	-0,187
115,976	45,104	-0,264	-0,170
116,991	131,242	-0,352	-0,316
118,006	-18,148	-0,308	-0,134
119,020	129,876	-0,157	-0,141
120,035	252,729	-0,123	-0,147
121,049	800,000	-0,096	-0,266
122,064	31,596	-0,190	-0,114
123,079	-5,342	-0,341	-0,164
124,093	22,874	-0,415	-0,238
125,108	225,078	-0,205	-0,232
126,122	10,543	-0,301	-0,160
127,137	230,630	-0,168	-0,193
128,151	-5,174	-0,179	-0,086
129,166	-88,153	-0,208	-0,043
130,181	-124,760	-0,318	-0,034
131,195	-74,844	-0,272	-0,068
132,210	132,867	-0,245	-0,221
133,224	114,323	-0,252	-0,215
134,239	155,484	-0,199	-0,192
135,254	-48,631	-0,271	-0,091
136,268	37,862	-0,257	-0,159
137,283	64,217	-0,282	-0,198
138,297	1,178	-0,400	-0,200
139,312	707,562	-0,157	-0,292
140,327	96,731	-0,213	-0,171
141,341	358,426	-0,162	-0,227
142,356	28,118	-0,297	-0,175
143,370	-9,901	-0,261	-0,121
144,385	113,706	-0,236	-0,201
145,400	22,969	-0,208	-0,119
146,414	109,912	-0,189	-0,158
147,429	-107,259	-0,384	-0,058
148,443	134,013	-0,169	-0,153
149,458	175,740	-0,219	-0,222
150,473	-158,694	-0,271	0,011
151,487	-36,137	-0,322	-0,121
152,502	77,173	-0,208	-0,154
153,516	216,569	-0,202	-0,225
154,531	198,258	-0,228	-0,244
155,546	111,455	-0,263	-0,221
156,560	1,531	-0,359	-0,180
157,575	785,946	-0,145	-0,278
158,589	49,634	-0,229	-0,150
159,604	223,731	-0,213	-0,240
160,619	173,794	-0,217	-0,219
161,633	87,958	-0,266	-0,206
162,648	116,512	-0,292	-0,250
163,662	253,690	-0,208	-0,249
164,677	244,638	-0,183	-0,215
165,692	47,003	-0,302	-0,195
166,706	355,013	-0,181	-0,252
167,721	95,759	-0,268	-0,213
168,735	424,254	-0,222	-0,334
169,750	52,668	-0,252	-0,168
170,764	83,081	-0,204	-0,154
171,779	-29,637	-0,117	-0,047
172,794	37,967	-0,249	-0,154
173,808	63,891	-0,240	-0,168
174,823	-19,869	-0,299	-0,128
175,837	225,044	-0,270	-0,305
176,852	312,900	-0,167	-0,219
177,867	-14,377	-0,179	-0,080
178,881	73,467	-0,201	-0,147
179,896	-4,799	-0,245	-0,117
180,910	100,248	-0,172	-0,139
181,925	800,000	-0,130	-0,280
182,940	-54,401	-0,229	-0,072
183,954	469,992	-0,132	-0,207
184,969	336,600	-0,217	-0,294
185,983	215,551	-0,116	-0,128
186,998	16,108	-0,262	-0,143
188,013	58,779	-0,268	-0,183
189,027	19,876	-0,136	-0,076
190,042	54,750	-0,351	-0,236
191,056	-47,235	-0,299	-0,101
192,071	242,528	-0,163	-0,190
193,086	-150,717	-0,154	-0,008
194,100	93,647	-0,305	-0,240
195,115	11,551	-0,306	-0,163
196,129	278,000	-0,160	-0,198
197,144	308,178	-0,161	-0,209
198,159	44,088	-0,271	-0,173
199,173	22,274	-0,131	-0,074
200,188	99,422	-0,175	-0,141
201,202	82,019	-0,208	-0,157
202,217	192,116	-0,202	-0,212
203,232	33,459	-0,282	-0,170
204,246	55,488	-0,234	-0,157
205,261	55,452	-0,143	-0,096
206,275	130,676	-0,209	-0,186
207,290	109,777	-0,199	-0,166
208,304	-123,368	-0,295	0,032
209,319	187,605	-0,203	-0,211
210,334	-3,213	-0,239	-0,115
211,348	288,017	-0,161	-0,203
212,363	-97,583	-0,238	-0,043
213,377	20,099	-0,204	-0,114
214,392	66,125	-0,176	-0,124
215,407	-20,935	-0,188	-0,080
216,421	238,365	-0,128	-0,148
217,436	-44,184	-0,193	-0,067
218,450	-24,151	-0,255	-0,105
219,465	116,528	-0,150	-0,127
220,480	91,154	-0,254	-0,198
221,494	157,204	-0,175	-0,168
222,509	-73,395	-0,154	-0,039
223,523	800,000	-0,108	-0,250
224,538	520,811	-0,100	-0,163
225,553	33,612	-0,298	-0,179
226,567	414,241	-0,149	-0,220
227,582	174,238	-0,112	-0,113
228,596	148,247	-0,218	-0,204
229,611	252,628	-0,167	-0,198
230,626	97,222	-0,208	-0,166
231,640	196,640	-0,180	-0,191
232,655	306,573	-0,181	-0,235
233,669	279,263	-0,134	-0,166
234,684	715,434	-0,092	-0,169
235,699	316,620	-0,167	-0,220
236,713	-30,874	-0,191	-0,075
237,728	146,262	-0,050	-0,046
238,742	90,565	-0,199	-0,155
239,757	134,266	-0,245	-0,220
240,772	-56,203	-0,210	-0,064
241,786	157,790	-0,154	-0,148
242,801	158,275	-0,198	-0,191
243,815	65,762	-0,197	-0,138
244,830	213,752	-0,209	-0,229
245,844	120,776	-0,173	-0,149
246,859	-53,201	-0,182	-0,057
247,874	54,903	-0,170	-0,114
248,888	-11,211	-0,211	-0,096
249,903	401,594	-0,123	-0,179
250,917	-123,421	-0,133	-0,015
251,932	51,603	-0,176	-0,116
252,947	-70,426	-0,057	-0,015
253,961	-40,201	-0,279	-0,100
254,976	47,433	-0,282	-0,182
255,990	2,928	-0,292	-0,146
257,005	95,896	-0,222	-0,175
258,020	252,471	-0,126	-0,149
259,034	10,941	-0,247	-0,130
260,049	243,533	-0,177	-0,206
261,063	-188,168	-0,197	-0,002
262,078	40,667	-0,173	-0,107
263,093	310,037	-0,138	-0,179
264,107	103,112	-0,164	-0,133
265,122	131,260	-0,157	-0,140
266,136	-32,804	-0,222	-0,085
267,151	7,917	-0,168	0,087
268,166	762,225	-0,130	-0,244
269,180	29,890	-0,238	-0,140
270,195	94,285	-0,190	-0,149
271,209	148,971	-0,215	-0,201
272,224	34,216	-0,100	-0,060
273,239	-133,618	-0,182	-0,016
274,253	96,535	-0,143	-0,113
275,268	360,741	-0,149	-0,206
276,282	0,674	-0,194	-0,096
277,297	234,904	-0,217	-0,248
278,312	302,004	-0,109	-0,140
279,326	81,597	-0,179	-0,134
280,341	-68,837	-0,195	-0,052
281,355	-92,796	-0,094	-0,018
282,370	-168,654	-0,275	-0,007
283,384	18,677	-0,185	-0,102
284,399	139,092	-0,196	-0,178
285,414	13,366	-0,234	-0,125
286,428	-145,302	-0,157	-0,010
287,443	182,747	-0,116	-0,119
288,457	143,422	-0,098	-0,090
289,472	395,542	-0,051	-0,073
290,487	5,835	-0,222	-0,113
291,501	-15,005	-0,251	-0,110
292,516	647,859	-0,122	-0,216
293,530	-105,468	-0,162	-0,025
294,545	-87,046	-0,090	-0,019
295,560	-200,000	0,007	-0,150
296,574	92,500	-0,129	-0,100
297,589	-156,637	-0,223	-0,009
298,603	354,411	-0,207	-0,285
299,618	-13,054	-0,114	0,051
300,633	256,318	-0,152	-0,180
301,647	-4,536	-0,160	-0,076
302,662	645,309	-0,108	-0,190
303,676	-28,561	-0,229	-0,090
304,691	-200,000	0,004	-0,111
305,706	231,226	-0,144	-0,162
306,720	387,693	-0,130	-0,185
307,735	-173,230	-0,129	-0,003
308,749	-130,579	-0,180	0,016
309,764	516,422	-0,047	-0,076
310,779	96,176	-0,117	-0,092
311,793	-197,249	-0,246	-0,001
312,808	74,595	-0,139	-0,100
313,822	8,425	-0,202	-0,104
314,837	-68,272	-0,142	-0,038
315,852	-45,634	-0,118	0,040
316,866	-133,247	-0,144	0,012
317,881	-143,245	-0,161	0,011
318,895	690,687	-0,087	-0,158
319,910	-12,090	-0,216	-0,097
320,925	-16,662	-0,169	-0,073
321,939	407,799	-0,145	-0,211
322,954	-200,000	-0,035	-0,167
323,968	39,792	-0,063	-0,039
324,983	-86,849	-0,088	0,018
325,997	-35,890	-0,101	0,037
327,012	-57,907	-0,224	-0,067
328,027	-78,552	-0,106	-0,025
329,041	280,876	-0,152	-0,188
330,056	54,289	-0,191	-0,127
331,070	-172,596	-0,093	-0,002
332,085	-104,988	-0,312	-0,049
333,100	163,220	-0,157	-0,152
334,114	247,491	-0,178	-0,208
335,129	627,574	-0,134	-0,233
336,143	168,496	-0,228	-0,223
337,158	419,289	-0,140	-0,206
338,173	-200,000	-0,036	-0,136
339,187	69,561	-0,141	-0,100
340,202	5,053	-0,204	-0,103
341,216	-149,364	-0,242	-0,013
342,231	89,854	-0,165	-0,127
343,246	-61,216	-0,059	-0,017
344,260	-59,865	-0,146	0,043
345,275	-200,000	-0,015	-0,089
346,289	-200,000	-0,015	-0,140
347,304	275,793	-0,144	-0,176
348,319	5,671	-0,267	-0,135
349,333	222,986	-0,130	-0,144
350,348	71,593	-0,118	-0,084
351,362	31,472	-0,051	-0,030
352,377	3,192	-0,147	-0,073
353,392	-123,366	-0,142	-0,015
354,406	93,265	-0,052	-0,040
355,421	207,946	1315,295	1411,481
356,435	159,986	1476,075	1411,968
