DTS Sentinel unit serial number:	SN410029Multiplexer serial number:	ORYXHardware model number:	OX2-SRSoftware version number:	ORYX F/W v4,00 Oryx Data Collector v3.7.2.0data status	okinstallation	B3 Nyhavnadifferential loss correction	single-endedforward channel	channel 1reverse channel	N/Adate	2023/12/05time	02:52:30forward acquisition time	300,00reverse acquisition time	0,00gamma	499,1914k internal	0,3201k external	0,3201temperature offset calibration	1,0000default loss term (dB/km)	0,3820temperature slope calibration	1,0000multiplexer offset coefficient	1,0000multiplexer slope coefficient	1,0000fibre end	0,00T internal ref (°C)	14,03T ext. ref 1 (°C)	-0,67T ext. ref 2 (°C)	-0,69length (m)	temperature (°C)	Stokes	anti-Stokes-744,400	-200,000	-0,036	-0,184
-743,385	-200,000	0,023	0,187
-742,371	225,880	-0,199	-0,235
-741,356	474,425	0,095	0,157
-740,342	85,320	-0,258	-0,205
-739,327	-200,000	0,007	0,169
-738,312	72,954	-0,343	-0,260
-737,298	-200,000	-0,001	0,277
-736,283	208,215	-0,137	-0,156
-735,269	-200,000	0,099	0,349
-734,254	7,546	-0,299	-0,162
-733,239	411,411	-0,112	0,173
-732,225	603,800	-0,083	-0,151
-731,210	-200,000	0,018	0,131
-730,196	213,231	-0,060	-0,069
-729,181	117,060	-0,058	-0,052
-728,167	258,042	0,046	-0,057
-727,152	-72,429	-0,094	-0,025
-726,137	636,215	0,040	0,074
-725,123	49,616	-0,084	-0,058
-724,108	-108,356	-0,138	0,021
-723,094	-9,659	-0,050	-0,024
-722,079	-200,000	0,008	-0,103
-721,064	-10,736	-0,042	0,020
-720,050	-200,000	-0,014	0,044
-719,035	-66,654	-0,088	-0,025
-718,021	370,883	-0,033	-0,049
-717,006	39,008	-0,054	-0,035
-715,991	450,300	0,029	-0,047
-714,977	-200,000	-0,022	-0,204
-713,962	25,104	0,035	-0,021
-712,948	-200,000	0,042	0,138
-711,933	-200,000	0,039	0,136
-710,918	-200,000	-0,008	-0,031
-709,904	-47,303	-0,128	-0,045
-708,889	800,000	0,042	0,089
-707,875	486,264	-0,042	-0,069
-706,860	13,072	-0,112	0,063
-705,845	103,938	0,066	-0,056
-704,831	-13,402	0,099	0,047
-703,816	-96,187	-0,137	-0,026
-702,802	-200,000	0,007	-0,139
-701,787	800,000	-0,083	-0,169
-700,772	197,756	-0,032	-0,035
-699,758	394,743	-0,019	-0,028
-698,743	-35,247	-0,086	-0,034
-697,729	-113,137	-0,096	0,014
-696,714	-200,000	-0,005	0,054
-695,699	91,687	0,096	0,079
-694,685	50,083	-0,174	-0,119
-693,670	-184,609	0,071	-0,001
-692,656	577,671	0,069	0,123
-691,641	-67,039	0,129	0,037
-690,627	3,869	0,041	-0,022
-689,612	-39,254	-0,130	0,049
-688,597	800,000	0,022	-0,051
-687,583	47,203	-0,130	-0,088
-686,568	800,000	0,021	-0,054
-685,554	135,890	-0,041	-0,039
-684,539	-159,599	-0,081	0,003
-683,524	-200,000	-0,002	0,122
-682,510	-200,000	0,021	0,165
-681,495	164,745	-0,050	-0,051
-680,481	79,139	-0,045	-0,035
-679,466	800,000	0,035	-0,108
-678,451	52,490	0,026	-0,018
-677,437	-10,178	0,077	0,037
-676,422	112,794	0,079	-0,069
-675,408	-200,000	0,026	0,091
-674,393	-17,764	-0,129	-0,059
-673,378	613,133	0,024	-0,044
-672,364	-200,000	-0,008	-0,025
-671,349	80,349	-0,049	0,039
-670,335	800,000	-0,039	-0,101
-669,320	-104,335	0,170	-0,028
-668,305	-200,000	-0,011	0,129
-667,291	-73,057	-0,072	-0,019
-666,276	155,527	-0,037	0,037
-665,262	-100,872	-0,016	0,003
-664,247	-200,000	-0,012	0,046
-663,232	35,347	-0,080	-0,051
-662,218	36,865	0,087	0,055
-661,203	-200,000	0,047	0,172
-660,189	-200,000	0,026	0,105
-659,174	139,498	-0,083	-0,079
-658,159	-117,116	-0,086	0,011
-657,145	63,877	-0,116	0,084
-656,130	17,019	-0,052	0,030
-655,116	-200,000	-0,001	0,055
-654,101	72,413	0,015	0,011
-653,086	-152,380	0,108	0,006
-652,072	624,180	0,071	-0,130
-651,057	-4,790	-0,165	-0,082
-650,043	-200,000	-0,039	-0,140
-649,028	101,075	-0,049	0,041
-648,014	155,651	0,054	-0,054
-646,999	-200,000	0,002	0,020
-645,984	-45,102	0,101	-0,036
-644,970	34,866	-0,061	0,039
-643,955	14,576	-0,151	0,085
-642,941	-200,000	-0,003	-0,145
-641,926	32,680	-0,152	0,095
-640,911	-129,089	-0,071	-0,007
-639,897	69,446	0,082	-0,061
-638,882	-88,481	-0,063	-0,013
-637,868	377,477	-0,113	-0,168
-636,853	0,632	-0,072	-0,037
-635,838	800,000	-0,024	-0,072
-634,824	800,000	0,019	0,060
-633,809	149,430	0,019	0,019
-632,795	29,893	0,060	-0,037
-631,780	-28,512	0,130	0,054
-630,765	361,306	-0,066	-0,097
-629,751	-200,000	0,014	0,059
-628,736	-200,000	-0,015	0,073
-627,722	-200,000	0,001	-0,125
-626,707	-200,000	-0,005	0,141
-625,692	-200,000	0,028	0,127
-624,678	800,000	0,033	0,105
-623,663	-95,408	0,086	-0,017
-622,649	-70,231	0,069	0,019
-621,634	-88,952	-0,211	0,045
-620,619	-200,000	-0,001	0,125
-619,605	292,660	0,040	-0,052
-618,590	800,000	-0,023	-0,063
-617,576	273,541	0,093	0,119
-616,561	173,939	-0,024	0,025
-615,546	56,742	-0,045	0,032
-614,532	179,827	-0,085	-0,090
-613,517	800,000	0,063	0,132
-612,503	800,000	0,040	-0,092
-611,488	66,543	-0,061	-0,045
-610,474	-88,157	0,133	0,029
-609,459	157,042	0,039	-0,039
-608,444	-73,333	-0,147	0,038
-607,430	-57,311	-0,094	-0,030
-606,415	-200,000	-0,007	-0,049
-605,401	-200,000	-0,011	-0,106
-604,386	800,000	0,044	0,092
-603,371	800,000	0,071	0,142
-602,357	-200,000	0,018	0,191
-601,342	-23,308	-0,075	0,033
-600,328	800,000	0,018	-0,044
-599,313	378,585	-0,052	-0,078
-598,298	-200,000	-0,026	0,124
-597,284	-50,062	0,128	-0,043
-596,269	106,503	0,081	-0,069
-595,255	800,000	0,036	0,113
-594,240	-104,483	0,013	0,002
-593,225	-200,000	0,015	-0,054
-592,211	800,000	-0,017	0,040
-591,196	-200,000	-0,014	0,107
-590,182	800,000	-0,044	-0,118
-589,167	-104,327	0,073	0,012
-588,152	-200,000	0,022	0,230
-587,138	-28,582	-0,024	-0,010
-586,123	57,484	-0,142	-0,100
-585,109	128,521	0,056	-0,051
-584,094	800,000	0,002	0,007
-583,079	800,000	0,010	0,022
-582,065	-200,000	-0,000	-0,111
-581,050	-116,232	0,140	-0,019
-580,036	31,076	-0,100	-0,062
-579,021	-200,000	0,054	-0,174
-578,006	-200,000	-0,043	-0,154
-576,992	-200,000	-0,011	0,101
-575,977	1,841	-0,083	0,043
-574,963	-115,271	0,106	0,014
-573,948	20,165	0,054	0,031
-572,934	-32,725	0,135	-0,054
-571,919	-63,792	-0,092	0,027
-570,904	299,202	0,020	-0,027
-569,890	800,000	0,076	-0,184
-568,875	-200,000	-0,004	0,235
-567,861	-200,000	-0,004	0,029
-566,846	143,506	-0,093	0,089
-565,831	332,383	-0,056	0,079
-564,817	-200,000	0,010	-0,097
-563,802	800,000	-0,021	-0,043
-562,788	271,497	0,082	0,104
-561,773	-119,910	-0,169	-0,021
-560,758	303,010	-0,046	0,062
-559,744	-182,921	-0,055	0,001
-558,729	-200,000	0,027	0,093
-557,715	403,584	0,079	0,120
-556,700	-52,051	-0,110	-0,037
-555,685	-200,000	0,036	-0,134
-554,671	-200,000	-0,007	0,041
-553,656	-200,000	0,081	0,000
-552,642	-11,668	-0,101	0,048
-551,627	510,476	-0,010	-0,017
-550,612	521,901	-0,037	-0,063
-549,598	800,000	-0,053	0,136
-548,583	754,987	-0,056	0,110
-547,569	-200,000	0,002	0,043
-546,554	-200,000	-0,017	0,112
-545,539	-200,000	0,013	0,048
-544,525	665,115	-0,052	0,096
-543,510	800,000	-0,035	-0,104
-542,496	69,777	-0,095	-0,071
-541,481	63,905	0,082	-0,060
-540,466	-177,978	0,124	-0,002
-539,452	82,503	0,007	-0,005
-538,437	65,039	0,103	0,075
-537,423	-200,000	-0,048	0,174
-536,408	230,169	-0,011	0,013
-535,393	224,797	-0,142	-0,166
-534,379	763,236	0,112	-0,219
-533,364	-103,886	-0,067	0,011
-532,350	-200,000	0,020	0,064
-531,335	-200,000	-0,014	-0,145
-530,321	159,829	0,047	-0,048
-529,306	-2,158	-0,044	-0,022
-528,291	58,280	-0,078	-0,055
-527,277	-38,654	-0,044	-0,017
-526,262	152,127	0,025	-0,025
-525,248	62,241	0,087	0,063
-524,233	159,463	0,017	0,017
-523,218	23,427	-0,067	0,039
-522,204	41,700	-0,126	0,082
-521,189	342,802	0,033	0,046
-520,175	-112,297	-0,196	0,028
-519,160	800,000	0,038	0,108
-518,145	-116,749	0,061	0,008
-517,131	0,903	0,059	-0,031
-516,116	-74,295	-0,075	0,019
-515,102	-200,000	-0,025	-0,114
-514,087	164,643	0,072	0,073
-513,072	330,801	-0,050	0,069
-512,058	-200,000	-0,020	0,080
-511,043	-117,027	0,106	-0,014
-510,029	-166,200	-0,059	-0,002
-509,014	-100,622	0,082	-0,014
-507,999	249,468	-0,113	0,138
-506,985	170,004	-0,077	-0,079
-505,970	-200,000	-0,004	-0,044
-504,956	-200,000	0,015	-0,096
-503,941	-128,828	0,059	-0,006
-502,926	-60,583	0,139	0,042
-501,912	393,638	0,039	0,058
-500,897	-39,503	-0,089	-0,033
-499,883	-39,131	0,059	-0,022
-498,868	-174,761	-0,084	0,002
-497,853	-200,000	-0,028	-0,110
-496,839	455,725	-0,070	-0,112
-495,824	-200,000	-0,020	-0,082
-494,810	544,610	0,088	0,152
-493,795	-200,000	-0,010	0,111
-492,781	118,914	0,037	0,033
-491,766	74,071	0,066	-0,050
-490,751	55,936	-0,055	-0,038
-489,737	-43,412	0,029	0,010
-488,722	254,761	-0,044	0,054
-487,708	199,985	-0,049	-0,054
-486,693	-200,000	0,036	0,133
-485,678	448,545	0,116	0,185
-484,664	-14,478	-0,153	-0,071
-483,649	800,000	0,006	-0,014
-482,635	361,260	-0,076	-0,110
-481,620	-200,000	0,016	-0,089
-480,605	-200,000	-0,012	0,112
-479,591	-6,535	0,094	0,046
-478,576	-200,000	0,008	-0,114
-477,562	-24,659	-0,036	0,015
-476,547	189,565	0,021	-0,023
-475,532	-200,000	0,017	-0,161
-474,518	-136,807	-0,075	-0,006
-473,503	-200,000	-0,035	0,124
-472,489	-200,000	-0,011	0,046
-471,474	-22,202	-0,070	-0,031
-470,459	63,517	0,034	-0,024
-469,445	21,682	-0,141	-0,082
-468,430	225,683	0,064	0,074
-467,416	800,000	0,056	0,119
-466,401	-200,000	-0,019	-0,082
-465,386	-200,000	-0,003	-0,109
-464,372	-200,000	-0,009	0,115
-463,357	-200,000	0,024	-0,156
-462,343	164,186	0,044	0,044
-461,328	514,021	-0,029	-0,049
-460,313	768,325	0,038	-0,075
-459,299	800,000	0,033	0,103
-458,284	-200,000	-0,017	0,116
-457,270	423,975	0,008	0,012
-456,255	36,237	0,135	0,085
-455,241	206,839	-0,090	-0,102
-454,226	-95,319	-0,072	-0,014
-453,211	166,672	-0,014	0,014
-452,197	125,413	-0,041	0,037
-451,182	-200,000	-0,035	-0,117
-450,168	138,585	-0,042	0,040
-449,153	-200,000	-0,012	-0,060
-448,138	-42,478	-0,151	0,055
-447,124	174,587	-0,038	-0,040
-446,109	800,000	0,041	0,088
-445,095	-200,000	0,006	0,133
-444,080	-200,000	0,012	0,071
-443,065	312,512	0,042	-0,056
-442,051	202,781	-0,082	-0,092
-441,036	123,331	-0,079	0,071
-440,022	66,062	0,099	-0,072
-439,007	-37,025	0,059	0,022
-437,992	634,718	0,027	-0,049
-436,978	-116,159	-0,028	0,004
-435,963	154,969	0,040	0,040
-434,949	91,242	-0,069	-0,056
-433,934	-200,000	-0,002	-0,053
-432,919	15,920	-0,161	0,091
-431,905	198,961	0,034	0,037
-430,890	-25,824	0,077	-0,033
-429,876	234,000	0,052	-0,062
-428,861	7,475	0,174	0,093
-427,846	425,737	-0,035	0,054
-426,832	451,539	-0,088	0,141
-425,817	395,778	-0,048	-0,073
-424,803	26,658	0,088	-0,053
-423,788	432,042	0,016	0,025
-422,773	730,193	-0,044	-0,086
-421,759	-84,266	0,033	-0,007
-420,744	-16,805	-0,113	-0,051
-419,730	800,000	-0,013	0,027
-418,715	800,000	-0,071	-0,156
-417,701	-200,000	-0,005	-0,074
-416,686	51,032	-0,072	-0,049
-415,671	-200,000	-0,002	-0,081
-414,657	714,008	0,035	-0,067
-413,642	42,760	0,010	-0,007
-412,628	11,096	0,054	-0,030
-411,613	98,297	-0,079	-0,065
-410,598	-102,823	0,014	0,002
-409,584	-62,746	-0,117	-0,035
-408,569	48,382	0,033	0,022
-407,555	383,706	-0,035	-0,053
-406,540	-200,000	-0,012	0,057
-405,525	-36,570	-0,064	-0,025
-404,511	-200,000	-0,008	-0,085
-403,496	-57,564	0,044	-0,014
-402,482	-200,000	0,005	0,036
-401,467	760,943	0,022	0,042
-400,452	463,803	0,124	0,200
-399,438	-102,617	-0,072	-0,012
-398,423	-151,032	0,052	-0,003
-397,409	-200,000	-0,053	-0,183
-396,394	-172,311	-0,161	-0,004
-395,379	800,000	0,061	0,136
-394,365	-152,064	0,131	-0,007
-393,350	-49,028	0,079	-0,027
-392,336	800,000	-0,014	0,031
-391,321	27,765	0,073	-0,044
-390,306	-30,228	-0,125	-0,051
-389,292	-44,988	-0,113	-0,040
-388,277	-61,848	0,140	-0,042
-387,263	331,718	-0,056	-0,078
-386,248	37,573	-0,106	0,067
-385,233	41,254	-0,091	0,059
-384,219	355,489	0,083	0,119
-383,204	-200,000	0,000	0,048
-382,190	-200,000	-0,013	-0,167
-381,175	-200,000	-0,008	-0,084
-380,160	-31,963	0,160	-0,064
-379,146	-22,686	0,138	0,060
-378,131	-52,538	0,037	0,012
-377,117	-64,800	-0,025	-0,007
-376,102	238,714	0,041	-0,049
-375,088	800,000	0,072	-0,144
-374,073	89,217	0,102	0,081
-373,058	-24,659	0,028	-0,012
-372,044	107,331	0,052	-0,044
-371,029	-93,169	0,048	0,009
-370,015	-130,425	-0,091	0,009
-369,000	-200,000	-0,001	0,018
-367,985	-88,592	-0,121	0,026
-366,971	-14,139	-0,153	0,071
-365,956	22,941	-0,106	-0,062
-364,942	72,027	0,071	0,053
-363,927	129,826	0,083	0,076
-362,912	-23,706	-0,098	-0,042
-361,898	162,864	-0,107	0,108
-360,883	151,122	-0,064	-0,063
-359,869	419,005	-0,011	-0,017
-358,854	-72,775	-0,097	0,025
-357,839	373,911	-0,068	0,100
-356,825	198,406	0,044	0,048
-355,810	-26,185	0,051	-0,021
-354,796	800,000	0,050	-0,139
-353,781	344,029	0,030	-0,042
-352,766	-86,233	-0,044	0,010
-351,752	257,602	0,029	-0,036
-350,737	30,820	0,094	0,058
-349,723	-200,000	-0,009	0,106
-348,708	-200,000	-0,018	0,096
-347,693	-200,000	0,033	-0,138
-346,679	596,057	-0,116	-0,207
-345,664	284,156	-0,051	-0,065
-344,650	800,000	0,034	-0,079
-343,635	-139,563	0,148	-0,011
-342,620	1,312	-0,050	-0,026
-341,606	-0,488	0,076	0,038
-340,591	-31,994	0,052	-0,021
-339,577	800,000	-0,049	-0,112
-338,562	-172,022	0,045	-0,001
-337,548	-76,665	-0,047	-0,012
-336,533	1,475	0,103	0,053
-335,518	-200,000	0,019	0,077
-334,504	-175,547	0,105	-0,002
-333,489	-200,000	0,032	0,125
-332,475	-158,294	0,070	0,003
-331,460	-119,250	-0,183	-0,023
-330,445	-112,021	-0,058	0,008
-329,431	209,067	0,046	0,051
-328,416	-157,040	0,069	-0,003
-327,402	107,732	0,037	-0,031
-326,387	-119,306	0,035	0,004
-325,372	175,662	-0,057	-0,059
-324,358	97,316	0,030	-0,024
-323,343	-124,213	0,146	-0,016
-322,329	-200,000	0,012	0,089
-321,314	29,267	0,045	-0,027
-320,299	4,284	0,102	0,053
-319,285	15,956	-0,204	-0,115
-318,270	-200,000	-0,138	0,000
-317,256	194,473	0,078	-0,085
-316,241	-200,000	0,058	-0,189
-315,226	34,227	-0,118	-0,073
-314,212	-110,860	0,112	0,016
-313,197	284,179	0,121	0,156
-312,183	800,000	-0,046	0,119
-311,168	800,000	-0,010	0,026
-310,153	-200,000	-0,017	-0,123
-309,139	800,000	0,025	0,074
-308,124	-200,000	-0,037	0,157
-307,110	-35,459	0,234	0,091
-306,095	800,000	-0,036	-0,077
-305,080	800,000	0,007	-0,020
-304,066	-85,460	-0,107	0,024
-303,051	800,000	-0,049	-0,112
-302,037	65,970	0,019	-0,014
-301,022	136,279	0,058	0,054
-300,008	800,000	-0,025	-0,057
-298,993	800,000	0,010	0,023
-297,978	800,000	0,019	0,044
-296,964	341,250	-0,055	0,078
-295,949	524,395	-0,030	0,050
-294,935	-114,406	-0,041	0,006
-293,920	-2,386	0,125	0,062
-292,905	174,661	-0,033	0,034
-291,891	82,863	0,030	0,023
-290,876	800,000	0,023	-0,071
-289,862	-200,000	0,009	-0,076
-288,847	800,000	0,043	-0,108
-287,832	136,656	-0,053	0,049
-286,818	-200,000	-0,030	0,115
-285,803	-100,935	0,125	-0,022
-284,789	-69,689	0,128	0,035
-283,774	348,375	0,162	0,229
-282,759	-161,152	0,200	0,007
-281,745	800,000	-0,066	0,153
-280,730	-200,000	-0,034	-0,147
-279,716	-200,000	0,009	-0,082
-278,701	360,527	-0,041	0,058
-277,686	513,980	0,052	-0,087
-276,672	800,000	-0,022	-0,066
-275,657	-200,000	0,010	0,073
-274,643	93,798	-0,094	0,076
-273,628	336,891	-0,027	0,038
-272,613	-200,000	0,001	-0,092
-271,599	522,047	-0,041	-0,069
-270,584	-177,601	-0,030	0,001
-269,570	-200,000	0,000	0,098
-268,555	-105,399	0,094	-0,015
-267,540	-200,000	-0,006	-0,069
-266,526	85,242	0,027	-0,021
-265,511	-55,512	-0,030	-0,009
-264,497	-200,000	-0,016	-0,073
-263,482	800,000	0,027	0,069
-262,467	45,701	0,031	0,020
-261,453	-33,885	-0,079	0,031
-260,438	-200,000	0,001	-0,078
-259,424	800,000	-0,062	-0,127
-258,409	148,697	0,042	-0,041
-257,395	-33,525	0,101	-0,039
-256,380	-200,000	0,016	0,064
-255,365	94,991	0,054	0,044
-254,351	-200,000	-0,019	-0,067
-253,336	-52,955	-0,087	-0,028
-252,322	-200,000	-0,011	-0,073
-251,307	179,380	0,054	0,057
-250,292	-200,000	0,018	0,143
-249,278	-91,498	0,021	0,004
-248,263	253,322	0,026	0,031
-247,249	-23,722	-0,032	-0,014
-246,234	206,586	-0,047	0,052
-245,219	-9,060	-0,076	-0,036
-244,205	715,052	0,060	-0,114
-243,190	59,896	-0,028	0,020
-242,176	-130,847	-0,064	0,006
-241,161	800,000	0,023	0,059
-240,146	-200,000	0,042	0,163
-239,132	800,000	0,018	0,044
-238,117	-29,550	-0,094	0,038
-237,103	12,387	0,076	-0,042
-236,088	800,000	0,025	0,060
-235,073	247,627	0,028	0,034
-234,059	30,992	0,091	0,056
-233,044	-200,000	-0,016	0,194
-232,030	-200,000	0,003	-0,016
-231,015	-124,165	-0,079	0,009
-230,000	120,213	0,074	0,066
-228,986	54,907	-0,044	0,030
-227,971	211,182	0,031	-0,035
-226,957	-116,034	0,131	-0,017
-225,942	-48,847	-0,094	0,032
-224,927	713,880	0,025	0,048
-223,913	292,800	-0,040	-0,053
-222,898	-30,660	-0,183	-0,073
-221,884	633,839	-0,022	0,039
-220,869	800,000	0,030	0,067
-219,855	159,154	-0,045	-0,045
-218,840	-200,000	0,024	0,088
-217,825	-148,389	-0,079	-0,005
-216,811	13,393	-0,115	-0,064
-215,796	-49,688	-0,051	-0,017
-214,782	268,543	-0,138	0,173
-213,767	354,478	0,115	-0,163
-212,752	-114,736	-0,077	0,010
-211,738	-200,000	-0,038	0,136
-210,723	78,986	0,152	-0,115
-209,709	-107,882	-0,096	-0,015
-208,694	-200,000	0,014	0,067
-207,679	-200,000	-0,036	-0,139
-206,665	-3,563	0,123	-0,061
-205,650	285,904	0,022	0,028
-204,636	251,044	0,068	0,082
-203,621	-200,000	-0,005	0,037
-202,606	385,278	-0,055	-0,081
-201,592	434,855	-0,027	-0,042
-200,577	-79,448	-0,064	-0,015
-199,563	579,434	-0,063	-0,109
-198,548	358,882	0,101	0,144
-197,533	-200,000	-0,000	0,041
-196,519	-200,000	0,017	0,145
-195,504	-200,000	-0,006	-0,057
-194,490	146,968	0,118	-0,113
-193,475	63,900	-0,177	-0,127
-192,460	-200,000	0,052	-0,000
-191,446	258,754	0,130	0,160
-190,431	-200,000	0,025	0,111
-189,417	-200,000	0,009	0,109
-188,402	13,520	0,124	-0,068
-187,387	-200,000	-0,130	0,000
-186,373	-200,000	0,007	-0,105
-185,358	421,601	-0,031	-0,047
-184,344	-51,808	0,147	0,049
-183,329	152,342	-0,036	0,035
-182,315	374,599	0,024	-0,036
-181,300	-200,000	-0,001	-0,069
-180,285	43,334	0,078	0,051
-179,271	-30,866	-0,107	-0,043
-178,256	177,420	0,052	-0,054
-177,242	-64,032	0,093	-0,027
-176,227	-68,707	-0,082	0,022
-175,212	800,000	-0,026	0,072
-174,198	371,950	-0,055	-0,080
-173,183	-88,853	-0,105	-0,022
-172,169	-200,000	0,022	-0,139
-171,154	-200,000	-0,004	-0,091
-170,139	271,882	0,045	-0,056
-169,125	-50,059	0,083	0,028
-168,110	3,802	0,056	-0,029
-167,096	97,160	-0,046	-0,038
-166,081	-116,314	0,110	0,014
-165,066	-8,356	-0,111	-0,053
-164,052	289,405	0,018	0,023
-163,037	764,365	0,031	0,061
-162,023	-73,646	0,101	-0,026
-161,008	-200,000	-0,016	-0,071
-159,993	-139,203	-0,081	-0,006
-158,979	-200,000	0,003	-0,083
-157,964	-200,000	0,015	-0,067
-156,950	-118,758	-0,023	-0,003
-155,935	750,842	0,056	-0,108
-154,920	27,075	0,040	-0,024
-153,906	-109,080	0,087	0,013
-152,891	-173,772	0,206	-0,004
-151,877	338,932	-0,087	-0,120
-150,862	-200,000	0,006	-0,042
-149,847	-79,661	-0,047	-0,011
-148,833	800,000	-0,040	0,101
-147,818	800,000	0,026	0,070
-146,804	198,858	0,039	0,043
-145,789	477,783	-0,057	-0,092
-144,775	98,906	0,027	-0,022
-143,760	800,000	-0,020	-0,060
-142,745	-51,476	-0,031	-0,010
-141,731	77,274	0,128	-0,097
-140,716	-69,330	0,136	-0,037
-139,702	324,209	0,051	0,070
-138,687	-200,000	0,012	0,055
-137,672	9,384	-0,072	-0,039
-136,658	-116,964	-0,077	-0,010
-135,643	-90,780	0,091	0,018
-134,629	-200,000	-0,016	-0,076
-133,614	-36,648	0,049	0,019
-132,599	-179,869	0,092	0,001
-131,585	-102,791	0,116	-0,019
-130,570	62,109	-0,106	-0,075
-129,556	-98,404	-0,201	-0,036
-128,541	508,952	-0,098	-0,162
-127,526	-47,299	-0,059	0,020
-126,512	-200,000	-0,020	-0,066
-125,497	-200,000	0,007	-0,058
-124,483	800,000	0,040	0,103
-123,468	-162,054	0,116	-0,004
-122,453	-48,335	-0,042	-0,014
-121,439	-155,698	-0,153	0,007
-120,424	438,070	-0,037	-0,058
-119,410	358,073	-0,057	-0,080
-118,395	-50,224	-0,073	0,024
-117,380	-200,000	-0,027	0,098
-116,366	27,390	-0,156	-0,093
-115,351	-200,000	0,015	0,166
-114,337	-200,000	0,005	-0,091
-113,322	-73,265	-0,092	0,024
-112,307	732,815	0,029	-0,055
-111,293	-200,000	0,006	0,075
-110,278	-121,447	0,050	0,006
-109,264	391,550	0,037	0,055
-108,249	443,965	0,026	0,040
-107,234	241,378	-0,185	-0,219
-106,220	800,000	-0,017	-0,034
-105,205	483,915	-0,024	-0,038
-104,191	-146,478	-0,088	-0,005
-103,176	-200,000	0,038	0,132
-102,162	159,781	0,050	0,050
-101,147	-200,000	0,009	0,099
-100,132	-110,826	-0,174	-0,025
-99,118	-89,186	0,008	0,002
-98,103	59,592	-0,077	0,054
-97,089	-96,673	0,039	0,007
-96,074	-200,000	0,036	0,205
-95,059	295,630	-0,091	-0,119
-94,045	48,170	-0,124	0,082
-93,030	391,469	-0,049	-0,072
-92,016	-200,000	-0,022	-0,092
-91,001	800,000	-0,017	0,049
-89,986	-200,000	0,010	0,038
-88,972	-76,727	-0,086	-0,021
-87,957	-200,000	-0,067	0,250
-86,943	-66,763	-0,057	0,016
-85,928	284,957	-0,108	-0,138
-84,913	-200,000	-0,008	-0,046
-83,899	-200,000	0,021	0,093
-82,884	-200,000	-0,001	-0,088
-81,870	-200,000	0,040	0,136
-80,855	-72,703	0,076	0,020
-79,840	46,531	-0,133	-0,087
-78,826	800,000	-0,083	-0,219
-77,811	-176,606	-0,083	0,001
-76,797	20,265	-0,104	0,060
-75,782	-105,396	-0,056	0,009
-74,767	-22,514	0,121	-0,052
-73,753	-94,110	0,045	0,009
-72,738	440,916	-0,089	-0,139
-71,724	105,956	0,051	0,043
-70,709	-200,000	0,018	0,104
-69,694	34,990	0,022	0,014
-68,680	105,399	0,100	-0,084
-67,665	-200,000	0,013	0,072
-66,651	276,802	0,073	0,092
-65,636	800,000	-0,042	0,118
-64,622	167,806	-0,043	0,044
-63,607	-135,091	-0,116	0,010
-62,592	800,000	-0,027	-0,074
-61,578	71,747	-0,078	0,057
-60,563	-200,000	0,043	0,225
-59,549	51,502	-0,134	0,090
-58,534	-32,562	-1,616	-0,634
-57,519	364,747	-1,397	-1,997
-56,505	-200,000	-0,587	-4,741
-55,490	142,350	1,001	0,941
-54,476	800,000	4,963	11,442
-53,461	-200,000	18,882	307,497
-52,446	800,000	737,573	2301,357
-51,432	569,503	1653,298	2857,168
-50,417	79,010	1670,246	1264,757
-49,403	21,977	1543,227	888,528
-48,388	15,921	1465,932	814,609
-47,373	17,758	1456,010	817,936
-46,359	16,804	1446,227	807,834
-45,344	14,194	1441,355	792,589
-44,330	14,088	1439,708	791,146
-43,315	14,052	1438,036	790,022
-42,300	14,059	1436,387	789,116
-41,286	14,105	1435,177	788,638
-40,271	14,106	1433,788	787,849
-39,257	14,050	1432,571	786,882
-38,242	14,136	1431,399	786,619
-37,227	14,174	1429,925	785,955
-36,213	14,166	1428,656	785,193
-35,198	14,150	1427,570	784,489
-34,184	14,181	1426,626	784,083
-33,169	14,101	1425,377	782,990
-32,154	14,115	1424,244	782,400
-31,140	14,122	1422,977	781,708
-30,125	14,198	1421,845	781,411
-29,111	14,162	1420,679	780,572
-28,096	14,122	1419,782	779,858
-27,082	14,054	1418,581	778,849
-26,067	14,067	1417,328	778,188
-25,052	14,050	1416,391	777,565
-24,038	14,032	1415,560	776,991
-23,023	14,043	1414,364	776,358
-22,009	14,065	1413,295	775,841
-20,994	13,986	1412,620	775,069
-19,979	13,990	1411,617	774,508
-18,965	14,029	1410,660	774,134
-17,950	14,020	1409,738	773,555
-16,936	13,987	1408,696	772,799
-15,921	13,928	1407,814	772,007
-14,906	13,962	1406,885	771,627
-13,892	13,988	1405,702	771,069
-12,877	13,964	1404,974	770,526
-11,863	13,904	1404,241	769,817
-10,848	13,907	1403,421	769,349
-9,833	13,919	1402,375	768,802
-8,819	13,889	1401,365	768,079
-7,804	13,875	1400,586	767,553
-6,790	13,872	1399,612	766,977
-5,775	13,893	1398,254	766,302
-4,760	13,890	1397,431	765,804
-3,746	13,855	1396,778	765,254
-2,731	13,852	1396,022	764,797
-1,717	13,853	1395,091	764,257
-0,702	13,866	1393,218	763,265
0,313	17,691	1310,771	735,821
1,327	34,024	705,395	433,784
2,342	52,450	123,877	83,509
3,356	2,994	16,558	8,481
4,371	8,503	3,234	1,716
5,386	16,908	0,584	0,326
6,400	57,170	0,093	0,064
7,415	-5,255	-0,223	-0,108
8,429	-12,769	-0,526	-0,242
9,444	141,470	-0,328	-0,307
10,459	-59,406	-0,353	-0,107
11,473	113,405	-0,177	-0,152
12,488	60,433	-0,292	-0,204
13,502	0,372	-0,433	-0,218
14,517	138,482	-0,383	-0,356
15,531	0,407	-0,413	-0,208
16,546	90,673	-0,374	-0,296
17,561	144,350	-0,415	-0,392
18,575	151,923	-0,192	-0,185
19,590	75,032	-0,376	-0,280
20,604	52,534	-0,229	-0,154
21,619	33,606	-0,455	-0,279
22,634	112,655	-0,405	-0,346
23,648	251,934	-0,319	-0,385
24,663	134,130	-0,379	-0,347
25,677	52,863	-0,413	-0,278
26,692	92,582	-0,318	-0,253
27,707	202,801	-0,248	-0,271
28,721	72,373	-0,345	-0,253
29,736	147,775	-0,363	-0,345
30,750	115,667	-0,426	-0,368
31,765	120,616	-0,311	-0,272
32,780	125,273	-0,349	-0,310
33,794	104,211	-0,371	-0,308
34,809	50,260	-0,433	-0,288
35,823	330,353	-0,223	-0,304
36,838	295,232	-0,226	-0,292
37,853	158,179	-0,357	-0,349
38,867	96,278	-0,409	-0,329
39,882	14,065	-0,468	-0,256
40,896	88,202	-0,383	-0,300
41,911	74,921	-0,348	-0,258
42,926	39,974	-0,355	-0,224
43,940	99,047	-0,339	-0,276
44,955	236,688	-0,282	-0,329
45,969	376,518	-0,279	-0,403
46,984	205,094	-0,250	-0,274
47,999	36,934	-0,414	-0,258
49,013	134,059	-0,370	-0,337
50,028	-40,113	-0,419	-0,153
51,042	-12,266	-0,493	-0,226
52,057	59,026	-0,244	-0,169
53,071	118,174	-0,317	-0,275
54,086	128,757	-0,344	-0,308
55,101	169,628	-0,289	-0,291
56,115	-90,628	-0,313	-0,063
57,130	-21,226	-0,365	-0,157
58,144	76,597	-0,425	-0,317
59,159	-10,003	-0,390	-0,182
60,174	57,655	-0,351	-0,241
61,188	1,404	-0,432	-0,218
62,203	107,432	-0,270	-0,226
63,217	44,135	-0,336	-0,216
64,232	-97,003	-0,441	-0,080
65,247	146,762	-0,400	-0,378
66,261	-36,662	-0,405	-0,152
67,276	111,882	-0,345	-0,293
68,290	316,000	-0,306	-0,407
69,305	-15,049	-0,177	-0,079
70,320	-77,717	-0,380	-0,092
71,334	114,263	-0,355	-0,304
72,349	32,669	-0,271	-0,164
73,363	24,545	-0,339	-0,197
74,378	209,611	-0,228	-0,252
75,393	59,980	-0,338	-0,234
76,407	-8,948	-0,210	-0,099
77,422	-29,284	-0,376	-0,151
78,436	-62,771	-0,385	-0,111
79,451	-43,870	-0,352	-0,124
80,466	-57,627	-0,415	-0,127
81,480	18,106	-0,358	-0,200
82,495	-56,322	-0,269	-0,084
83,509	178,807	-0,186	-0,192
84,524	107,199	-0,294	-0,245
85,539	-28,478	-0,308	-0,124
86,553	15,990	-0,284	-0,157
87,568	78,915	-0,350	-0,263
88,582	46,139	-0,262	-0,170
89,597	-55,122	-0,315	-0,099
90,611	85,551	-0,328	-0,253
91,626	121,378	-0,203	-0,177
92,641	32,054	-0,246	-0,149
93,655	42,049	-0,231	-0,147
94,670	-78,597	-0,247	-0,059
95,684	-7,972	-0,212	-0,100
96,699	94,321	-0,306	-0,244
97,714	68,281	-0,229	-0,165
98,728	612,698	-0,099	-0,174
99,743	130,436	-0,261	-0,234
100,757	-28,762	-0,275	-0,110
101,772	143,121	-0,225	-0,210
102,787	98,106	-0,347	-0,280
103,801	-54,925	-0,264	-0,083
104,816	88,884	-0,266	-0,207
105,830	-33,735	-0,290	-0,112
106,845	94,872	-0,200	-0,159
107,860	58,004	-0,274	-0,188
108,874	149,942	-0,285	-0,271
109,889	102,058	-0,313	-0,256
110,903	203,731	-0,218	-0,237
111,918	167,708	-0,171	-0,171
112,933	-24,191	-0,190	-0,079
113,947	430,639	-0,150	-0,228
114,962	-26,737	-0,312	-0,127
115,976	147,031	-0,231	-0,218
116,991	320,567	-0,216	-0,288
118,006	60,839	-0,254	-0,176
119,020	708,472	-0,119	-0,222
120,035	18,154	-0,250	-0,139
121,049	124,942	-0,209	-0,184
122,064	115,246	-0,287	-0,245
123,079	581,802	-0,162	-0,279
124,093	216,349	-0,270	-0,300
125,108	120,546	-0,239	-0,208
126,122	36,211	-0,316	-0,195
127,137	800,000	-0,110	-0,231
128,151	-200,000	-0,022	-0,171
129,166	551,557	-0,144	-0,243
130,181	-26,560	-0,307	-0,125
131,195	232,519	-0,164	-0,189
132,210	27,965	-0,304	-0,179
133,224	97,919	-0,291	-0,234
134,239	-49,572	-0,312	-0,103
135,254	-49,859	-0,257	-0,085
136,268	-126,050	-0,223	-0,023
137,283	67,008	-0,280	-0,199
138,297	130,609	-0,237	-0,212
139,312	146,521	-0,265	-0,249
140,327	56,591	-0,295	-0,201
141,341	271,988	-0,179	-0,221
142,356	224,378	-0,268	-0,303
143,370	-41,016	-0,210	-0,076
144,385	196,701	-0,175	-0,187
145,400	47,251	-0,339	-0,220
146,414	27,409	-0,340	-0,199
147,429	-71,451	-0,295	-0,076
148,443	305,495	-0,158	-0,205
149,458	56,816	-0,274	-0,186
150,473	147,439	-0,226	-0,212
151,487	7,340	-0,293	-0,152
152,502	-45,613	-0,291	-0,100
153,516	6,456	-0,181	-0,094
154,531	259,762	-0,191	-0,231
155,546	368,229	-0,230	-0,325
156,560	67,307	-0,196	-0,139
157,575	-33,951	-0,253	-0,097
158,589	125,895	-0,168	-0,149
159,604	315,462	-0,067	-0,088
160,619	462,160	-0,211	-0,329
161,633	142,454	-0,229	-0,212
162,648	-9,746	-0,258	-0,119
163,662	356,545	-0,159	-0,221
164,677	203,432	-0,119	-0,128
165,692	-122,216	-0,243	-0,027
166,706	26,298	-0,268	-0,156
167,721	-111,169	-0,201	-0,028
168,735	195,905	-0,256	-0,271
169,750	178,502	-0,135	-0,137
170,764	197,621	-0,172	-0,184
171,779	-15,184	-0,219	-0,097
172,794	240,713	-0,197	-0,230
173,808	0,169	-0,277	-0,137
174,823	-19,840	-0,334	-0,143
175,837	93,586	-0,245	-0,194
176,852	-152,975	-0,220	0,011
177,867	92,058	-0,209	-0,164
178,881	182,522	-0,179	-0,184
179,896	-109,072	-0,131	-0,019
180,910	-18,356	-0,225	-0,098
181,925	-65,149	-0,096	0,027
182,940	451,999	-0,119	-0,184
183,954	0,894	-0,139	-0,069
184,969	-5,646	-0,198	-0,094
185,983	601,480	-0,100	-0,173
186,998	9,270	-0,257	-0,135
188,013	-0,349	-0,298	-0,147
189,027	164,523	-0,180	-0,177
190,042	61,242	-0,306	-0,211
191,056	138,124	-0,212	-0,193
192,071	-16,038	-0,258	-0,114
193,086	1,228	-0,157	-0,078
194,100	155,014	-0,108	-0,103
195,115	243,207	-0,111	-0,129
196,129	55,100	-0,303	-0,203
197,144	-37,235	-0,278	-0,103
198,159	45,112	-0,258	-0,165
199,173	133,626	-0,164	-0,148
200,188	-110,211	-0,209	0,030
201,202	227,101	-0,129	-0,146
202,217	-17,468	-0,179	-0,078
203,232	204,985	-0,138	-0,149
204,246	119,049	-0,188	-0,162
205,261	298,226	-0,182	-0,233
206,275	92,934	-0,283	-0,222
207,290	767,289	-0,075	-0,142
208,304	23,895	-0,231	-0,132
209,319	-116,623	-0,190	0,024
210,334	-15,537	-0,193	-0,085
211,348	119,862	-0,258	-0,222
212,363	138,227	-0,289	-0,263
213,377	460,045	-0,170	-0,263
214,392	-34,875	-0,159	-0,060
215,407	69,420	-0,250	-0,178
216,421	177,095	-0,171	-0,173
217,436	90,488	-0,177	-0,138
218,450	173,358	-0,239	-0,239
219,465	49,766	-0,317	-0,207
220,480	10,191	-0,120	-0,063
221,494	17,279	-0,202	-0,111
222,509	-74,802	-0,181	-0,045
223,523	64,225	-0,137	-0,095
224,538	90,804	-0,252	-0,196
225,553	90,865	-0,253	-0,197
226,567	461,038	-0,199	-0,308
227,582	-12,073	-0,341	-0,154
228,596	-41,889	-0,223	-0,079
229,611	-99,256	-0,223	-0,039
230,626	350,242	-0,183	-0,252
231,640	800,000	-0,164	-0,349
232,655	58,026	-0,220	-0,149
233,669	-3,786	-0,270	-0,129
234,684	44,928	-0,186	-0,118
235,699	-200,000	0,044	-0,154
236,713	153,898	-0,113	-0,108
237,728	-56,311	-0,218	-0,067
238,742	-200,000	-0,022	-0,156
239,757	132,683	-0,177	-0,159
240,772	13,476	-0,159	-0,085
241,786	800,000	-0,128	-0,266
242,801	-148,263	-0,204	-0,011
243,815	-102,363	-0,174	0,029
244,830	63,089	-0,162	-0,112
245,844	-162,394	-0,248	-0,008
246,859	438,481	-0,101	-0,153
247,874	47,831	-0,286	-0,185
248,888	-15,296	-0,208	-0,092
249,903	419,284	-0,121	-0,180
250,917	-91,477	-0,123	0,024
251,932	715,642	-0,071	-0,131
252,947	282,123	-0,061	-0,075
253,961	-49,077	-0,205	-0,067
254,976	246,990	-0,184	-0,216
255,990	-200,000	-0,055	-0,214
257,005	650,950	-0,089	-0,158
258,020	145,625	-0,126	-0,117
259,034	-15,529	-0,078	0,034
260,049	15,274	-0,131	-0,071
261,063	-134,873	-0,181	-0,015
262,078	229,241	-0,225	-0,254
263,093	280,027	-0,108	-0,134
264,107	-78,505	-0,161	0,038
265,122	155,064	-0,161	-0,153
266,136	30,672	-0,084	-0,050
267,151	138,709	-0,126	-0,114
268,166	-185,638	-0,218	-0,002
269,180	4,672	-0,243	-0,123
270,195	81,956	-0,225	-0,168
271,209	800,000	-0,091	-0,268
272,224	-126,571	-0,133	-0,013
273,239	109,980	-0,187	-0,155
274,253	-71,697	-0,149	0,038
275,268	135,377	-0,161	-0,145
276,282	-18,735	-0,248	-0,106
277,297	390,808	-0,131	-0,188
278,312	288,856	-0,191	-0,239
279,326	800,000	-0,054	-0,158
280,341	-127,511	-0,153	-0,015
281,355	163,057	-0,115	-0,111
282,370	104,255	-0,118	-0,095
283,384	248,852	-0,178	-0,209
284,399	1,836	-0,198	-0,098
285,414	281,048	-0,147	-0,181
286,428	-6,866	-0,301	-0,141
287,443	100,407	-0,091	-0,073
288,457	-200,000	-0,000	-0,043
289,472	800,000	-0,118	-0,256
290,487	52,429	-0,145	-0,095
291,501	315,659	-0,077	-0,101
292,516	800,000	-0,125	-0,300
293,530	-85,742	-0,195	-0,041
294,545	-69,547	-0,111	-0,029
295,560	76,785	-0,132	-0,097
296,574	23,612	-0,137	-0,077
297,589	-8,996	-0,226	-0,104
298,603	-1,129	-0,085	-0,041
299,618	-96,023	-0,145	-0,026
300,633	484,906	-0,054	-0,085
301,647	412,631	-0,145	-0,213
302,662	-1,559	-0,149	-0,072
303,676	-39,447	-0,118	-0,042
304,691	449,861	-0,092	-0,141
305,706	157,760	-0,230	-0,220
306,720	-80,438	-0,209	-0,048
307,735	156,948	-0,139	-0,132
308,749	-200,000	-0,028	-0,119
309,764	-56,245	-0,081	-0,025
310,779	-118,219	-0,106	-0,013
311,793	172,571	-0,077	-0,076
312,808	119,186	-0,174	-0,148
313,822	274,576	-0,079	-0,096
314,837	109,336	-0,172	-0,142
315,852	-122,471	-0,282	-0,031
316,866	-16,690	-0,155	-0,067
317,881	-200,000	-0,016	-0,112
318,895	800,000	-0,053	-0,153
319,910	-106,912	-0,152	-0,023
320,925	23,281	-0,195	-0,110
321,939	655,386	-0,110	-0,194
322,954	800,000	-0,079	-0,184
323,968	159,784	-0,064	-0,061
324,983	800,000	-0,087	-0,177
325,997	-16,026	-0,149	-0,065
327,012	245,696	-0,128	-0,149
328,027	-200,000	-0,098	-0,300
329,041	732,834	-0,110	-0,203
330,056	-184,370	-0,161	-0,002
331,070	226,275	-0,095	-0,106
332,085	-200,000	0,000	-0,083
333,100	9,027	-0,139	-0,072
334,114	-55,160	-0,192	-0,059
335,129	-26,764	-0,221	-0,088
336,143	134,876	-0,119	-0,106
337,158	139,700	-0,028	-0,026
338,173	-1,368	-0,147	-0,071
339,187	-37,632	-0,081	0,030
340,202	-151,721	-0,033	-0,002
341,216	314,207	-0,042	-0,054
342,231	800,000	-0,049	-0,123
343,246	-200,000	-0,030	-0,115
344,260	13,491	-0,071	-0,038
345,275	-200,000	-0,070	-0,219
346,289	-200,000	-0,008	-0,161
347,304	24,791	-0,197	-0,112
348,319	-76,967	-0,196	0,047
349,333	139,632	-0,173	-0,156
350,348	143,417	-0,123	-0,113
351,362	-20,514	-0,134	-0,056
352,377	556,449	-0,077	-0,128
353,392	45,822	-0,178	-0,113
354,406	104,715	-0,093	-0,075
355,421	207,836	1315,761	1411,028
356,435	159,897	1476,604	1411,521
