DTS Sentinel unit serial number:	SN410029Multiplexer serial number:	ORYXHardware model number:	OX2-SRSoftware version number:	ORYX F/W v4,00 Oryx Data Collector v3.7.2.0data status	okinstallation	B3 Nyhavnadifferential loss correction	single-endedforward channel	channel 1reverse channel	N/Adate	2023/12/04time	14:32:30forward acquisition time	300,00reverse acquisition time	0,00gamma	499,1914k internal	0,3200k external	0,3200temperature offset calibration	1,0000default loss term (dB/km)	0,3820temperature slope calibration	1,0000multiplexer offset coefficient	1,0000multiplexer slope coefficient	1,0000fibre end	0,00T internal ref (°C)	15,00T ext. ref 1 (°C)	0,22T ext. ref 2 (°C)	0,20length (m)	temperature (°C)	Stokes	anti-Stokes-744,400	341,235	-0,194	-0,277
-743,385	-200,000	0,049	0,390
-742,371	141,370	-0,211	-0,204
-741,356	-200,000	0,020	0,206
-740,342	800,000	-0,090	-0,220
-739,327	-200,000	0,063	0,282
-738,312	800,000	-0,096	-0,201
-737,298	-200,000	-0,001	0,180
-736,283	289,270	-0,212	-0,281
-735,269	-200,000	0,068	0,295
-734,254	362,954	-0,161	-0,236
-733,239	-110,010	-0,201	0,030
-732,225	361,131	-0,203	-0,297
-731,210	-4,428	0,240	0,120
-730,196	42,785	-0,070	0,046
-729,181	54,688	-0,167	-0,117
-728,167	-200,000	0,008	-0,036
-727,152	-126,805	0,067	0,007
-726,137	133,241	-0,092	0,086
-725,123	-41,916	-0,136	-0,051
-724,108	800,000	-0,037	-0,099
-723,094	327,028	-0,022	0,031
-722,079	32,383	-0,173	-0,108
-721,064	800,000	-0,018	0,044
-720,050	-79,977	0,111	0,027
-719,035	369,607	0,029	0,042
-718,021	-200,000	0,025	0,109
-717,006	-200,000	0,032	-0,199
-715,991	237,256	-0,102	-0,124
-714,977	211,940	-0,073	-0,083
-713,962	800,000	-0,003	-0,010
-712,948	-141,206	-0,129	-0,009
-711,933	241,226	0,084	0,102
-710,918	-0,777	0,069	-0,035
-709,904	800,000	0,054	0,135
-708,889	-97,513	-0,077	0,014
-707,875	17,283	0,070	-0,040
-706,860	33,968	0,079	0,050
-705,845	-6,266	-0,067	0,033
-704,831	-20,674	0,095	-0,042
-703,816	-133,103	-0,137	0,012
-702,802	785,221	0,051	-0,101
-701,787	358,987	0,074	0,108
-700,772	-200,000	0,007	-0,064
-699,758	279,636	0,132	-0,171
-698,743	45,133	-0,117	0,078
-697,729	439,410	0,076	0,121
-696,714	66,628	-0,006	0,004
-695,699	140,608	-0,107	0,103
-694,685	-0,525	-0,036	0,019
-693,670	800,000	-0,028	0,082
-692,656	800,000	-0,027	0,066
-691,641	619,920	-0,051	-0,094
-690,627	800,000	-0,032	-0,090
-689,612	65,275	-0,087	0,064
-688,597	226,006	0,087	-0,103
-687,583	484,605	0,035	-0,059
-686,568	407,362	0,047	-0,072
-685,554	41,765	-0,136	-0,089
-684,539	-114,431	0,054	0,007
-683,524	-8,600	0,102	0,049
-682,510	178,552	0,033	0,035
-681,495	484,622	0,030	-0,049
-680,481	49,899	-0,073	0,050
-679,466	360,059	-0,128	-0,186
-678,451	-164,797	-0,160	-0,005
-677,437	90,171	0,047	0,038
-676,422	461,695	-0,038	-0,061
-675,408	57,911	0,044	-0,031
-674,393	741,073	0,030	-0,058
-673,378	-200,000	-0,013	-0,054
-672,364	292,682	-0,068	-0,091
-671,349	76,517	0,028	-0,021
-670,335	-200,000	-0,014	-0,062
-669,320	319,627	0,047	-0,065
-668,305	205,302	-0,032	-0,036
-667,291	-200,000	-0,024	0,084
-666,276	37,250	-0,094	0,060
-665,262	179,461	0,043	0,046
-664,247	168,224	0,057	0,059
-663,232	-200,000	0,037	-0,261
-662,218	97,179	0,192	0,160
-661,203	122,235	0,064	0,058
-660,189	-14,466	-0,065	-0,030
-659,174	-44,204	-0,175	0,063
-658,159	90,636	-0,058	-0,047
-657,145	-200,000	-0,006	-0,061
-656,130	315,789	0,042	0,058
-655,116	308,590	0,053	0,072
-654,101	44,004	-0,118	0,079
-653,086	758,518	-0,065	0,128
-652,072	76,763	-0,140	-0,107
-651,057	63,133	0,141	-0,102
-650,043	800,000	0,049	-0,152
-649,028	72,356	-0,084	0,063
-648,014	55,299	0,056	0,039
-646,999	-200,000	0,007	-0,053
-645,984	-85,796	-0,184	0,041
-644,970	276,717	-0,068	-0,088
-643,955	-85,830	-0,056	0,012
-642,941	235,059	0,055	0,065
-641,926	-3,937	0,113	-0,056
-640,911	1,381	0,128	-0,066
-639,897	800,000	-0,037	0,078
-638,882	800,000	-0,018	0,043
-637,868	-200,000	-0,000	-0,068
-636,853	204,233	-0,137	-0,154
-635,838	800,000	0,007	-0,018
-634,824	319,227	0,063	-0,086
-633,809	-200,000	-0,025	-0,090
-632,795	-200,000	0,014	0,105
-631,780	158,856	0,086	0,087
-630,765	157,443	-0,104	-0,104
-629,751	-200,000	0,007	-0,176
-628,736	800,000	0,042	-0,108
-627,722	710,612	0,038	-0,074
-626,707	-200,000	0,061	0,000
-625,692	-107,521	0,068	0,011
-624,678	746,853	-0,028	0,054
-623,663	207,550	-0,114	0,130
-622,649	206,174	0,054	-0,061
-621,634	800,000	-0,048	-0,145
-620,619	-162,970	0,160	-0,006
-619,605	-73,746	-0,075	-0,019
-618,590	800,000	0,026	0,054
-617,576	-1,139	-0,048	-0,024
-616,561	-105,765	0,019	-0,003
-615,546	87,573	0,075	-0,060
-614,532	-200,000	0,010	-0,130
-613,517	208,122	0,087	-0,099
-612,503	190,028	-0,008	0,009
-611,488	203,297	-0,083	0,093
-610,474	537,882	0,078	-0,135
-609,459	-200,000	-0,001	0,081
-608,444	36,780	-0,078	-0,050
-607,430	-79,617	-0,068	0,017
-606,415	800,000	-0,038	-0,107
-605,401	-200,000	0,006	-0,047
-604,386	-200,000	0,029	0,151
-603,371	-112,493	0,066	0,009
-602,357	800,000	0,044	0,119
-601,342	284,534	0,014	-0,018
-600,328	-200,000	-0,002	0,099
-599,313	-200,000	0,023	-0,089
-598,298	-3,174	-0,114	0,057
-597,284	-200,000	0,004	0,041
-596,269	-200,000	0,019	-0,109
-595,255	500,601	0,067	0,112
-594,240	296,323	-0,090	0,120
-593,225	105,211	0,073	-0,062
-592,211	59,052	0,031	-0,022
-591,196	800,000	0,048	0,114
-590,182	-200,000	-0,031	0,113
-589,167	-100,440	0,070	0,012
-588,152	469,630	0,022	0,035
-587,138	449,723	-0,070	0,112
-586,123	291,809	0,031	-0,041
-585,109	800,000	-0,025	-0,078
-584,094	-83,378	-0,052	0,012
-583,079	392,172	-0,061	0,092
-582,065	-112,593	0,114	0,016
-581,050	-200,000	-0,007	-0,143
-580,036	-94,583	-0,104	-0,020
-579,021	-200,000	0,016	-0,082
-578,006	-12,369	-0,036	0,017
-576,992	-200,000	-0,019	0,067
-575,977	518,759	0,035	-0,059
-574,963	10,057	0,107	0,059
-573,948	1,791	0,012	-0,006
-572,934	-45,190	-0,117	-0,042
-571,919	-200,000	0,010	-0,084
-570,904	-102,702	-0,242	-0,041
-569,890	-83,029	0,100	-0,023
-568,875	247,129	0,062	0,075
-567,861	800,000	-0,034	0,104
-566,846	92,865	0,121	0,099
-565,831	800,000	-0,045	0,141
-564,817	800,000	0,039	-0,083
-563,802	-18,595	-0,056	0,025
-562,788	74,539	-0,084	-0,064
-561,773	-21,555	0,126	-0,055
-560,758	-128,387	0,071	-0,007
-559,744	-200,000	0,042	-0,169
-558,729	348,044	-0,068	-0,097
-557,715	800,000	-0,024	-0,072
-556,700	573,131	-0,085	-0,150
-555,685	-73,906	-0,095	-0,025
-554,671	276,875	-0,019	-0,024
-553,656	260,214	0,062	0,078
-552,642	800,000	0,051	0,157
-551,627	-200,000	0,011	0,040
-550,612	-125,236	-0,144	-0,016
-549,598	-200,000	0,003	-0,143
-548,583	73,085	0,047	-0,035
-547,569	-54,625	0,079	0,026
-546,554	126,703	0,030	-0,027
-545,539	-200,000	0,017	0,056
-544,525	-4,798	-0,188	0,093
-543,510	-66,833	-0,135	-0,038
-542,496	100,878	-0,118	-0,099
-541,481	800,000	0,017	0,044
-540,466	-112,943	-0,039	0,005
-539,452	-200,000	-0,003	0,170
-538,437	-84,917	0,070	0,016
-537,423	90,031	-0,086	0,070
-536,408	-117,862	0,020	-0,003
-535,393	-200,000	0,007	-0,022
-534,379	-49,218	-0,126	-0,043
-533,364	-22,331	-0,058	-0,025
-532,350	21,904	0,065	-0,038
-531,335	-92,544	-0,060	0,012
-530,321	-89,017	-0,033	-0,007
-529,306	-200,000	0,021	-0,143
-528,291	-200,000	0,002	0,129
-527,277	128,006	0,025	0,023
-526,262	800,000	0,029	-0,072
-525,248	-6,484	0,174	-0,085
-524,233	386,023	-0,079	0,118
-523,218	800,000	0,009	0,026
-522,204	106,466	-0,075	0,064
-521,189	19,688	-0,118	-0,068
-520,175	153,654	0,034	-0,033
-519,160	403,965	-0,112	0,171
-518,145	-200,000	-0,006	0,069
-517,131	-3,841	0,139	0,069
-516,116	-80,004	-0,016	0,004
-515,102	800,000	0,019	0,060
-514,087	445,002	-0,028	-0,044
-513,072	26,271	-0,033	-0,020
-512,058	205,029	-0,054	-0,061
-511,043	511,712	0,039	-0,066
-510,029	-169,293	0,106	0,003
-509,014	-66,123	-0,086	-0,025
-507,999	800,000	-0,013	0,031
-506,985	-200,000	0,013	-0,043
-505,970	-200,000	-0,011	0,046
-504,956	800,000	-0,031	-0,063
-503,941	-123,474	0,078	0,009
-502,926	-200,000	0,017	-0,087
-501,912	-43,516	0,024	-0,009
-500,897	-160,194	0,122	-0,005
-499,883	-200,000	-0,034	-0,113
-498,868	445,166	0,038	-0,060
-497,853	-118,104	-0,067	0,008
-496,839	70,155	-0,042	-0,032
-495,824	800,000	-0,057	0,127
-494,810	-200,000	0,016	0,226
-493,795	800,000	-0,067	0,206
-492,781	192,735	-0,042	0,046
-491,766	237,488	-0,086	-0,103
-490,751	-37,070	0,077	0,029
-489,737	-65,353	-0,116	-0,033
-488,722	212,092	0,096	-0,109
-487,708	800,000	0,023	0,048
-486,693	141,900	0,105	-0,101
-485,678	32,675	-0,081	-0,050
-484,664	-200,000	-0,013	-0,058
-483,649	139,068	-0,028	-0,026
-482,635	-68,220	0,051	-0,014
-481,620	-200,000	-0,007	0,059
-480,605	289,466	-0,101	0,132
-479,591	214,994	0,152	0,174
-478,576	-134,658	-0,088	-0,008
-477,562	403,159	0,025	0,039
-476,547	308,846	-0,049	-0,066
-475,532	220,309	0,050	-0,058
-474,518	-16,255	-0,093	-0,042
-473,503	-141,780	0,026	-0,002
-472,489	-10,667	0,083	0,039
-471,474	-200,000	-0,007	0,064
-470,459	800,000	-0,030	-0,077
-469,445	-200,000	-0,003	-0,024
-468,430	800,000	-0,013	-0,035
-467,416	-144,698	-0,090	0,006
-466,401	-152,435	0,070	-0,004
-465,386	-112,375	0,105	0,015
-464,372	491,677	0,040	0,066
-463,357	-200,000	-0,022	-0,175
-462,343	-200,000	-0,025	-0,083
-461,328	-117,730	0,162	-0,021
-460,313	87,070	-0,052	0,041
-459,299	-32,103	0,104	-0,042
-458,284	520,595	0,097	0,164
-457,270	117,210	0,104	-0,092
-456,255	123,919	-0,039	-0,035
-455,241	237,557	-0,017	-0,020
-454,226	62,414	0,056	-0,041
-453,211	-134,214	0,118	-0,010
-452,197	-200,000	0,025	0,203
-451,182	-0,382	0,011	-0,005
-450,168	99,210	-0,077	0,064
-449,153	429,255	-0,046	-0,071
-448,138	30,805	0,124	0,076
-447,124	-200,000	-0,015	-0,067
-446,109	654,276	0,051	-0,094
-445,095	531,153	-0,051	-0,086
-444,080	-200,000	0,019	0,176
-443,065	800,000	-0,017	0,043
-442,051	25,479	-0,067	-0,040
-441,036	403,893	-0,075	-0,115
-440,022	-200,000	-0,024	-0,107
-439,007	-1,507	-0,043	0,022
-437,992	13,068	0,056	0,031
-436,978	142,141	0,041	0,039
-435,963	16,019	0,022	-0,012
-434,949	-200,000	-0,007	0,097
-433,934	-200,000	-0,012	-0,110
-432,919	234,051	0,122	-0,145
-431,905	-200,000	0,016	-0,077
-430,890	426,963	-0,029	0,044
-429,876	-200,000	0,022	-0,104
-428,861	471,126	0,056	0,091
-427,846	-56,175	0,092	-0,029
-426,832	297,726	-0,052	-0,069
-425,817	226,672	-0,081	-0,094
-424,803	-146,110	0,056	-0,004
-423,788	42,756	0,142	0,093
-422,773	-53,803	-0,059	0,019
-421,759	800,000	-0,021	0,045
-420,744	367,113	-0,084	0,122
-419,730	800,000	-0,076	0,238
-418,715	-200,000	-0,007	0,023
-417,701	-200,000	-0,001	0,071
-416,686	-93,950	0,103	-0,020
-415,671	-39,159	-0,039	0,015
-414,657	69,474	-0,070	0,052
-413,642	-200,000	-0,009	-0,071
-412,628	-200,000	-0,005	-0,118
-411,613	-84,233	-0,127	-0,029
-410,598	-32,247	-0,056	0,022
-409,584	367,697	0,063	0,092
-408,569	356,431	0,085	-0,122
-407,555	141,361	0,059	0,056
-406,540	39,259	-0,196	0,126
-405,525	76,542	0,026	-0,019
-404,511	-200,000	0,010	-0,050
-403,496	-200,000	0,011	-0,111
-402,482	16,226	0,145	0,082
-401,467	-62,864	-0,075	-0,022
-400,452	-83,775	0,073	0,016
-399,438	-136,809	0,069	0,006
-398,423	177,159	-0,029	-0,031
-397,409	454,212	-0,069	-0,109
-396,394	-92,821	-0,175	-0,035
-395,379	800,000	0,008	-0,022
-394,365	-138,080	0,208	0,016
-393,350	-200,000	-0,005	0,027
-392,336	48,035	-0,083	0,056
-391,321	-200,000	0,001	-0,034
-390,306	800,000	0,011	0,027
-389,292	-200,000	-0,001	0,021
-388,277	-200,000	0,007	0,045
-387,263	-200,000	0,000	0,003
-386,248	-200,000	0,002	0,079
-385,233	73,101	0,037	0,027
-384,219	-151,458	0,178	-0,009
-383,204	-142,022	-0,095	-0,007
-382,190	-69,014	-0,117	-0,032
-381,175	800,000	0,056	0,123
-380,160	-200,000	0,006	-0,057
-379,146	-200,000	-0,009	0,080
-378,131	-200,000	0,020	0,148
-377,117	-159,499	0,080	0,003
-376,102	94,515	0,027	-0,022
-375,088	-146,278	-0,056	-0,003
-374,073	238,452	-0,086	-0,102
-373,058	2,010	-0,046	0,024
-372,044	75,251	0,047	0,035
-371,029	-200,000	-0,008	0,199
-370,015	30,343	-0,056	0,035
-369,000	132,901	0,036	0,034
-367,985	-200,000	-0,009	0,038
-366,971	365,796	0,063	-0,091
-365,956	0,128	0,097	-0,050
-364,942	135,911	-0,016	-0,015
-363,927	-200,000	-0,001	0,055
-362,912	240,553	0,026	0,031
-361,898	173,323	-0,117	-0,121
-360,883	611,301	-0,088	-0,159
-359,869	468,606	-0,026	-0,042
-358,854	320,789	-0,011	-0,015
-357,839	117,437	0,094	-0,083
-356,825	800,000	0,033	0,095
-355,810	800,000	0,022	0,054
-354,796	800,000	0,064	0,152
-353,781	-200,000	-0,014	-0,087
-352,766	-200,000	0,011	-0,049
-351,752	800,000	-0,032	0,089
-350,737	127,066	0,113	0,103
-349,723	-200,000	-0,035	-0,113
-348,708	-200,000	0,000	0,148
-347,693	248,313	0,062	0,076
-346,679	-200,000	0,018	-0,184
-345,664	-200,000	0,010	-0,071
-344,650	243,366	-0,029	-0,035
-343,635	164,344	0,048	0,049
-342,620	-147,931	0,129	-0,008
-341,606	297,323	0,013	-0,018
-340,591	173,498	0,060	0,062
-339,577	11,065	-0,127	-0,069
-338,562	-149,421	-0,118	0,007
-337,548	800,000	-0,053	0,121
-336,533	102,406	-0,094	0,079
-335,518	-200,000	0,023	0,121
-334,504	800,000	-0,047	0,131
-333,489	41,773	-0,079	-0,051
-332,475	-200,000	0,010	-0,058
-331,460	-57,314	0,015	-0,005
-330,445	286,520	0,116	-0,150
-329,431	-145,879	0,143	0,009
-328,416	49,840	0,069	-0,047
-327,402	-12,742	-0,059	0,028
-326,387	-200,000	0,017	-0,068
-325,372	-61,045	-0,233	-0,070
-324,358	-85,557	0,171	-0,038
-323,343	-63,230	0,044	-0,013
-322,329	800,000	-0,020	-0,063
-321,314	-200,000	-0,042	0,141
-320,299	-36,773	0,069	0,026
-319,285	800,000	0,037	0,092
-318,270	353,836	-0,037	0,053
-317,256	800,000	0,068	-0,140
-316,241	-96,045	-0,101	0,019
-315,226	-105,001	0,088	0,014
-314,212	-197,136	0,174	-0,001
-313,197	800,000	0,005	0,010
-312,183	-200,000	-0,025	0,109
-311,168	-72,934	0,060	0,016
-310,153	77,285	-0,061	-0,046
-309,139	-200,000	-0,002	0,005
-308,124	3,085	0,103	0,053
-307,110	280,612	0,052	-0,067
-306,095	722,627	0,074	-0,141
-305,080	-200,000	0,022	-0,074
-304,066	-32,161	0,080	-0,032
-303,051	-158,403	0,062	-0,003
-302,037	-200,000	-0,018	-0,094
-301,022	-16,278	-0,027	0,012
-300,008	112,817	-0,027	-0,023
-298,993	-158,942	0,064	0,003
-297,978	-57,341	0,103	0,032
-296,964	162,622	0,124	-0,125
-295,949	127,457	0,041	-0,037
-294,935	-162,237	-0,140	0,005
-293,920	800,000	-0,015	-0,029
-292,905	433,520	-0,056	0,087
-291,891	15,651	-0,140	0,079
-290,876	575,776	-0,013	0,023
-289,862	-147,501	-0,052	0,003
-288,847	58,589	-0,028	0,020
-287,832	17,751	0,083	-0,047
-286,818	390,499	-0,033	0,049
-285,803	599,222	-0,040	0,071
-284,789	-31,007	0,120	-0,048
-283,774	372,218	0,023	0,033
-282,759	800,000	-0,019	-0,059
-281,745	113,385	-0,127	-0,110
-280,730	95,303	-0,108	0,088
-279,716	201,137	-0,079	-0,087
-278,701	93,300	0,031	-0,025
-277,686	612,004	0,049	0,088
-276,672	75,074	0,083	0,063
-275,657	42,357	-0,038	0,025
-274,643	-200,000	0,011	-0,065
-273,628	-36,157	-0,071	-0,027
-272,613	-200,000	0,001	-0,020
-271,599	37,177	0,109	0,069
-270,584	206,443	0,078	0,086
-269,570	382,094	0,013	0,020
-268,555	800,000	-0,043	0,113
-267,540	-26,612	0,021	0,009
-266,526	-61,051	-0,071	-0,021
-265,511	140,593	-0,033	0,031
-264,497	200,103	0,028	-0,031
-263,482	261,497	0,067	0,083
-262,467	475,406	0,064	0,103
-261,453	178,140	-0,106	0,110
-260,438	125,464	-0,075	-0,067
-259,424	-200,000	-0,002	0,052
-258,409	-200,000	0,002	-0,042
-257,395	800,000	-0,024	-0,075
-256,380	-200,000	0,014	-0,079
-255,365	800,000	0,002	-0,004
-254,351	-200,000	0,033	0,160
-253,336	103,911	-0,033	-0,027
-252,322	800,000	-0,030	-0,091
-251,307	-25,138	-0,033	0,014
-250,292	189,036	0,067	-0,072
-249,278	-111,439	-0,180	-0,026
-248,263	-112,294	-0,066	-0,009
-247,249	385,086	0,037	0,055
-246,234	222,133	0,009	-0,010
-245,219	76,163	-0,146	-0,110
-244,205	-64,442	0,026	0,008
-243,190	489,743	-0,020	-0,032
-242,176	226,101	0,092	-0,107
-241,161	371,404	0,044	0,063
-240,146	286,880	0,043	-0,055
-239,132	170,542	-0,086	0,088
-238,117	-200,000	-0,008	0,037
-237,103	-117,255	-0,065	0,008
-236,088	145,860	0,023	0,022
-235,073	-17,522	0,070	0,031
-234,059	307,972	0,093	0,124
-233,044	630,221	0,026	0,048
-232,030	391,374	0,048	-0,072
-231,015	800,000	-0,023	0,064
-230,000	-83,796	-0,106	-0,024
-228,986	609,298	0,049	-0,087
-227,971	61,895	0,048	0,034
-226,957	-74,118	0,059	-0,015
-225,942	-200,000	-0,034	0,125
-224,927	341,797	-0,029	-0,040
-223,913	-80,761	-0,111	0,026
-222,898	263,313	-0,091	-0,112
-221,884	-200,000	0,008	0,052
-220,869	-200,000	0,003	0,128
-219,855	616,554	0,044	0,078
-218,840	44,311	0,080	0,052
-217,825	678,738	-0,011	-0,021
-216,811	-175,895	-0,162	0,003
-215,796	-200,000	-0,033	-0,106
-214,782	621,636	-0,017	-0,030
-213,767	111,482	-0,073	-0,063
-212,752	7,332	-0,050	0,027
-211,738	376,663	0,046	0,067
-210,723	368,706	-0,088	-0,127
-209,709	-200,000	0,005	0,033
-208,694	-200,000	-0,046	0,161
-207,679	409,050	-0,112	0,170
-206,665	800,000	0,043	-0,126
-205,650	56,519	0,077	0,053
-204,636	436,046	0,053	0,083
-203,621	800,000	-0,035	-0,072
-202,606	33,488	0,063	0,039
-201,592	-200,000	0,004	-0,033
-200,577	-120,130	-0,130	-0,016
-199,563	-200,000	-0,009	-0,156
-198,548	80,398	-0,082	0,063
-197,533	128,708	-0,020	0,019
-196,519	-141,746	-0,113	0,008
-195,504	32,007	0,075	-0,046
-194,490	461,813	0,058	-0,092
-193,475	-138,279	0,090	0,007
-192,460	-200,000	-0,012	0,050
-191,446	-138,016	-0,030	-0,002
-190,431	557,501	0,055	0,095
-189,417	119,782	0,157	0,139
-188,402	83,869	-0,048	-0,037
-187,387	98,407	-0,078	-0,064
-186,373	-200,000	-0,016	-0,134
-185,358	800,000	-0,038	-0,080
-184,344	34,852	0,073	0,046
-183,329	229,203	0,045	-0,052
-182,315	750,995	0,046	-0,088
-181,300	800,000	0,009	-0,024
-180,285	90,693	0,013	-0,010
-179,271	-200,000	0,004	0,053
-178,256	-200,000	-0,008	0,026
-177,242	-200,000	0,006	0,097
-176,227	-69,525	0,082	-0,022
-175,212	192,848	0,090	-0,097
-174,198	-200,000	0,014	0,167
-173,183	367,118	-0,096	0,138
-172,169	-101,088	-0,049	0,008
-171,154	800,000	-0,018	0,055
-170,139	-200,000	-0,016	-0,072
-169,125	263,647	0,089	0,110
-168,110	605,958	0,036	-0,063
-167,096	-87,097	0,148	-0,032
-166,081	-122,680	-0,094	-0,011
-165,066	404,551	0,081	-0,122
-164,052	-99,249	-0,080	0,014
-163,037	-109,409	-0,066	-0,010
-162,023	312,848	0,042	0,056
-161,008	800,000	0,018	0,037
-159,993	-3,744	-0,106	0,052
-158,979	-38,612	-0,047	-0,017
-157,964	800,000	-0,092	-0,195
-156,950	31,019	-0,106	-0,064
-155,935	-200,000	0,011	-0,095
-154,920	-200,000	0,029	0,129
-153,906	285,566	0,073	-0,094
-152,891	16,592	0,029	-0,016
-151,877	745,152	-0,044	0,084
-150,862	523,259	-0,017	0,028
-149,847	738,548	-0,023	-0,045
-148,833	-87,648	-0,113	0,024
-147,818	-200,000	0,001	-0,079
-146,804	-200,000	-0,017	0,069
-145,789	-147,044	-0,101	-0,006
-144,775	220,332	-0,057	-0,065
-143,760	-200,000	-0,010	0,068
-142,745	800,000	-0,042	-0,101
-141,731	-200,000	0,016	-0,109
-140,716	-200,000	-0,006	0,026
-139,702	212,672	-0,075	0,085
-138,687	-200,000	-0,004	-0,025
-137,672	183,744	-0,027	-0,029
-136,658	-200,000	0,010	-0,065
-135,643	-200,000	-0,004	0,139
-134,629	-87,836	-0,102	0,022
-133,614	-105,386	0,140	0,022
-132,599	-200,000	0,018	0,056
-131,585	-61,717	0,060	-0,018
-130,570	-200,000	-0,028	-0,136
-129,556	-154,573	0,054	-0,002
-128,541	-200,000	0,014	-0,107
-127,526	43,331	-0,086	0,056
-126,512	43,171	0,116	0,075
-125,497	-200,000	0,000	0,087
-124,483	620,306	0,050	0,089
-123,468	33,180	0,062	0,038
-122,453	-76,206	-0,080	-0,020
-121,439	-200,000	0,026	-0,082
-120,424	14,483	0,017	-0,010
-119,410	626,009	-0,030	-0,053
-118,395	-23,953	0,081	-0,034
-117,380	73,731	-0,031	-0,023
-116,366	-200,000	0,012	-0,080
-115,351	-200,000	0,010	-0,099
-114,337	289,256	0,029	-0,037
-113,322	-165,980	-0,106	-0,003
-112,307	-200,000	0,034	-0,119
-111,293	236,462	0,128	0,150
-110,278	42,937	0,078	0,050
-109,264	145,595	-0,109	0,104
-108,249	115,217	-0,073	0,063
-107,234	800,000	-0,040	-0,114
-106,220	14,872	-0,014	-0,008
-105,205	575,481	-0,060	-0,105
-104,191	-200,000	-0,029	-0,133
-103,176	-15,276	0,098	-0,044
-102,162	-200,000	-0,007	0,053
-101,147	366,374	0,087	0,125
-100,132	-77,205	-0,124	-0,030
-99,118	-77,782	0,062	0,015
-98,103	170,246	-0,045	0,045
-97,089	324,176	0,037	-0,050
-96,074	17,932	0,067	-0,038
-95,059	90,826	0,155	0,123
-94,045	-85,255	-0,107	-0,024
-93,030	18,661	-0,024	-0,014
-92,016	719,840	-0,035	-0,067
-91,001	800,000	0,034	0,092
-89,986	-200,000	-0,009	-0,037
-88,972	163,564	0,120	0,120
-87,957	-33,038	0,068	-0,027
-86,943	-27,517	0,048	-0,020
-85,928	318,731	0,073	-0,098
-84,913	299,984	-0,076	-0,099
-83,899	800,000	0,041	0,105
-82,884	800,000	-0,012	0,029
-81,870	6,793	0,056	0,030
-80,855	-200,000	-0,004	0,141
-79,840	-86,424	0,045	-0,010
-78,826	-200,000	-0,018	-0,087
-77,811	22,174	0,043	0,025
-76,797	-200,000	0,012	0,123
-75,782	22,749	-0,083	0,048
-74,767	68,050	0,078	-0,057
-73,753	20,540	0,098	-0,056
-72,738	-17,944	0,083	0,037
-71,724	15,990	-0,147	-0,082
-70,709	-200,000	0,001	0,050
-69,694	800,000	-0,013	0,035
-68,680	-36,175	-0,023	0,009
-67,665	-183,398	0,085	-0,001
-66,651	-70,574	-0,096	0,026
-65,636	267,084	0,040	0,050
-64,622	133,040	0,066	-0,060
-63,607	-200,000	-0,030	-0,104
-62,592	800,000	0,005	0,012
-61,578	164,497	-0,137	-0,137
-60,563	34,334	-0,074	-0,046
-59,549	441,527	-0,094	0,146
-58,534	-42,301	-1,447	-0,520
-57,519	390,832	-1,470	-2,167
-56,505	-200,000	-0,378	-4,517
-55,490	164,566	0,918	0,918
-54,476	800,000	4,888	11,408
-53,461	-200,000	18,212	287,167
-52,446	800,000	727,400	2227,466
-51,432	554,465	1643,214	2810,191
-50,417	79,234	1665,367	1262,585
-49,403	22,916	1539,002	891,132
-48,388	16,883	1462,231	817,468
-47,373	17,825	1452,266	816,404
-46,359	17,281	1442,564	808,312
-45,344	15,153	1438,011	795,572
-44,330	15,066	1436,052	794,044
-43,315	15,055	1434,358	793,020
-42,300	15,079	1432,855	792,274
-41,286	15,089	1431,702	791,654
-40,271	15,076	1430,386	790,833
-39,257	15,060	1429,499	790,234
-38,242	15,106	1427,966	789,575
-37,227	15,118	1426,497	788,789
-36,213	15,144	1425,423	788,283
-35,198	15,105	1424,263	787,427
-34,184	15,122	1423,446	787,024
-33,169	15,086	1421,939	785,991
-32,154	15,075	1421,108	785,447
-31,140	15,166	1419,594	785,008
-30,125	15,179	1418,600	784,489
-29,111	15,129	1417,449	783,588
-28,096	15,089	1416,476	782,829
-27,082	15,027	1415,372	781,895
-26,067	15,051	1414,199	781,333
-25,052	14,997	1413,264	780,530
-24,038	15,031	1412,128	780,031
-23,023	15,021	1411,096	779,383
-22,009	14,995	1410,155	778,711
-20,994	14,962	1409,307	778,058
-19,979	14,979	1408,437	777,626
-18,965	14,946	1407,345	776,836
-17,950	14,933	1406,427	776,240
-16,936	15,000	1405,238	775,863
-15,921	14,910	1404,131	774,804
-14,906	14,950	1403,347	774,524
-13,892	14,940	1402,524	773,995
-12,877	14,939	1401,526	773,408
-11,863	14,935	1400,656	772,876
-10,848	14,946	1399,854	772,458
-9,833	14,895	1398,790	771,603
-8,819	14,836	1397,924	770,819
-7,804	14,862	1397,055	770,429
-6,790	14,838	1396,115	769,770
-5,775	14,884	1394,895	769,280
-4,760	14,832	1394,138	768,592
-3,746	14,811	1393,394	768,052
-2,731	14,846	1392,418	767,647
-1,717	14,852	1391,408	767,088
-0,702	14,858	1389,744	766,168
0,313	18,552	1308,982	738,771
1,327	34,642	707,136	436,408
2,342	53,269	124,814	84,491
3,356	0,389	16,672	8,397
4,371	13,006	3,142	1,715
5,386	-12,626	0,554	0,254
6,400	-200,000	0,004	0,179
7,415	-10,474	-0,272	-0,127
8,429	46,979	-0,273	-0,179
9,444	30,267	-0,352	-0,212
10,459	56,590	-0,297	-0,204
11,473	-88,547	-0,339	-0,071
12,488	172,837	-0,330	-0,336
13,502	91,175	-0,280	-0,222
14,517	53,134	-0,308	-0,208
15,531	-102,995	-0,395	-0,066
16,546	154,072	-0,364	-0,353
17,561	335,447	-0,297	-0,407
18,575	207,826	-0,158	-0,174
19,590	124,290	-0,250	-0,222
20,604	-64,650	-0,279	-0,079
21,619	299,488	-0,366	-0,477
22,634	119,979	-0,358	-0,314
23,648	23,954	-0,503	-0,292
24,663	90,499	-0,436	-0,344
25,677	43,158	-0,429	-0,276
26,692	35,383	-0,425	-0,263
27,707	412,280	-0,277	-0,417
28,721	201,799	-0,303	-0,330
29,736	158,929	-0,363	-0,357
30,750	105,885	-0,437	-0,365
31,765	66,753	-0,430	-0,309
32,780	57,408	-0,341	-0,235
33,794	35,561	-0,384	-0,238
34,809	5,210	-0,294	-0,152
35,823	94,124	-0,428	-0,342
36,838	523,100	-0,211	-0,351
37,853	115,084	-0,320	-0,276
38,867	208,321	-0,324	-0,357
39,882	107,204	-0,347	-0,291
40,896	120,946	-0,364	-0,319
41,911	108,820	-0,343	-0,289
42,926	51,968	-0,426	-0,285
43,940	24,934	-0,398	-0,232
44,955	204,249	-0,307	-0,336
45,969	29,088	-0,464	-0,277
46,984	75,632	-0,234	-0,174
47,999	-99,723	-0,344	-0,060
49,013	128,011	-0,203	-0,182
50,028	-55,012	-0,413	-0,130
51,042	136,581	-0,248	-0,228
52,057	275,150	-0,316	-0,395
53,071	310,439	-0,268	-0,354
54,086	-38,142	-0,268	-0,100
55,101	225,822	-0,243	-0,278
56,115	-17,148	-0,369	-0,163
57,130	77,526	-0,332	-0,249
58,144	72,805	-0,350	-0,257
59,159	212,904	-0,256	-0,285
60,174	50,699	-0,425	-0,283
61,188	78,239	-0,221	-0,166
62,203	171,824	-0,345	-0,349
63,217	37,665	-0,333	-0,208
64,232	-5,136	-0,498	-0,240
65,247	177,189	-0,264	-0,271
66,261	143,100	-0,343	-0,321
67,276	21,474	-0,392	-0,224
68,290	1,851	-0,390	-0,197
69,305	-84,810	-0,258	-0,056
70,320	170,393	-0,214	-0,216
71,334	-41,461	-0,305	-0,110
72,349	114,387	-0,291	-0,249
73,363	1,019	-0,301	-0,152
74,378	152,368	-0,460	-0,442
75,393	800,000	-0,147	-0,342
76,407	-71,314	-0,281	-0,073
77,422	30,700	-0,239	-0,144
78,436	191,760	-0,270	-0,287
79,451	-40,440	-0,294	-0,107
80,466	97,019	-0,343	-0,276
81,480	106,528	-0,300	-0,250
82,495	86,994	-0,292	-0,226
83,509	328,650	-0,157	-0,213
84,524	151,075	-0,284	-0,272
85,539	15,620	-0,338	-0,186
86,553	67,467	-0,224	-0,161
87,568	134,781	-0,278	-0,253
88,582	-18,119	-0,279	-0,122
89,597	71,237	-0,253	-0,184
90,611	-10,087	-0,217	-0,101
91,626	304,292	-0,263	-0,343
92,641	105,061	-0,376	-0,311
93,655	155,178	-0,195	-0,188
94,670	-57,063	-0,399	-0,123
95,684	23,207	-0,382	-0,220
96,699	106,170	-0,258	-0,214
97,714	144,093	-0,233	-0,218
98,728	117,400	-0,303	-0,261
99,743	-2,289	-0,273	-0,134
100,757	242,313	-0,260	-0,306
101,772	474,736	-0,203	-0,323
102,787	-56,186	-0,371	-0,115
103,801	-1,571	-0,404	-0,199
104,816	160,374	-0,276	-0,270
105,830	98,049	-0,109	-0,088
106,845	-12,550	-0,269	-0,123
107,860	150,269	-0,278	-0,265
108,874	404,694	-0,135	-0,200
109,889	36,309	-0,306	-0,189
110,903	79,364	-0,243	-0,183
111,918	140,533	-0,286	-0,264
112,933	111,623	-0,256	-0,216
113,947	108,101	-0,249	-0,208
114,962	11,647	-0,278	-0,149
115,976	-64,760	-0,302	-0,085
116,991	800,000	-0,150	-0,389
118,006	564,894	-0,128	-0,219
119,020	241,833	-0,127	-0,149
120,035	162,957	-0,327	-0,321
121,049	311,701	-0,147	-0,194
122,064	108,361	-0,200	-0,167
123,079	14,776	-0,264	-0,144
124,093	127,580	-0,189	-0,168
125,108	410,113	-0,227	-0,338
126,122	-77,452	-0,228	-0,055
127,137	216,321	-0,159	-0,177
128,151	53,508	-0,194	-0,130
129,166	-42,040	-0,209	-0,075
130,181	-67,292	-0,241	-0,066
131,195	311,333	-0,178	-0,234
132,210	-116,917	-0,318	-0,040
133,224	573,492	-0,135	-0,232
134,239	106,800	-0,351	-0,291
135,254	308,140	-0,097	-0,127
136,268	143,243	-0,168	-0,156
137,283	415,639	-0,226	-0,338
138,297	196,758	-0,231	-0,246
139,312	184,704	-0,189	-0,197
140,327	183,220	-0,300	-0,310
141,341	7,052	-0,266	-0,138
142,356	800,000	-0,084	-0,184
143,370	80,922	-0,217	-0,163
144,385	203,101	-0,147	-0,159
145,400	248,982	-0,208	-0,247
146,414	72,370	-0,212	-0,154
147,429	117,294	-0,184	-0,158
148,443	223,506	-0,286	-0,323
149,458	-51,676	-0,217	-0,070
150,473	-200,000	-0,075	-0,247
151,487	315,393	-0,188	-0,248
152,502	138,108	-0,273	-0,250
153,516	123,958	-0,305	-0,268
154,531	105,824	-0,254	-0,210
155,546	108,504	-0,262	-0,218
156,560	72,736	-0,189	-0,137
157,575	-43,453	-0,197	-0,069
158,589	-9,040	-0,268	-0,125
159,604	280,938	-0,184	-0,231
160,619	115,391	-0,316	-0,269
161,633	800,000	-0,166	-0,346
162,648	641,347	-0,112	-0,199
163,662	113,718	-0,121	-0,103
164,677	-47,618	-0,267	-0,090
165,692	-122,251	-0,206	-0,023
166,706	146,349	-0,166	-0,156
167,721	67,517	-0,279	-0,199
168,735	-59,206	-0,173	-0,052
169,750	21,755	-0,329	-0,186
170,764	244,055	-0,101	-0,119
171,779	-55,831	-0,189	-0,058
172,794	-41,563	-0,205	-0,073
173,808	-154,395	-0,184	-0,008
174,823	6,684	-0,348	-0,180
175,837	32,110	-0,249	-0,149
176,852	179,191	-0,217	-0,221
177,867	58,004	-0,273	-0,186
178,881	67,350	-0,191	-0,135
179,896	584,908	-0,078	-0,134
180,910	-166,798	-0,176	0,005
181,925	182,537	-0,266	-0,273
182,940	28,703	-0,287	-0,169
183,954	129,444	-0,240	-0,213
184,969	48,921	-0,242	-0,158
185,983	419,548	-0,192	-0,287
186,998	800,000	-0,102	-0,221
188,013	234,423	-0,181	-0,208
189,027	289,453	-0,201	-0,255
190,042	240,329	-0,197	-0,229
191,056	4,409	-0,201	-0,102
192,071	-15,198	-0,126	-0,056
193,086	177,634	-0,134	-0,136
194,100	-3,378	-0,153	-0,074
195,115	46,708	-0,190	-0,123
196,129	28,332	-0,198	-0,116
197,144	144,688	-0,186	-0,173
198,159	69,831	-0,094	-0,067
199,173	92,768	-0,188	-0,148
200,188	800,000	-0,105	-0,206
201,202	71,370	-0,239	-0,173
202,217	29,695	-0,183	-0,108
203,232	519,469	-0,093	-0,152
204,246	62,964	-0,228	-0,158
205,261	144,671	-0,139	-0,129
206,275	800,000	-0,102	-0,202
207,290	390,381	-0,197	-0,285
208,304	253,050	-0,164	-0,195
209,319	36,001	-0,232	-0,141
210,334	-41,984	-0,240	-0,085
211,348	21,233	-0,221	-0,124
212,363	105,214	-0,232	-0,190
213,377	462,760	-0,101	-0,157
214,392	-83,053	-0,160	-0,036
215,407	-65,479	-0,173	-0,048
216,421	172,410	-0,180	-0,180
217,436	-200,000	-0,076	-0,260
218,450	257,134	-0,168	-0,200
219,465	191,346	-0,156	-0,163
220,480	-40,731	-0,104	-0,037
221,494	107,911	-0,219	-0,181
222,509	66,877	-0,071	-0,050
223,523	-13,645	-0,200	-0,090
224,538	272,081	-0,142	-0,175
225,553	45,678	-0,197	-0,126
226,567	770,713	-0,122	-0,232
227,582	800,000	-0,090	-0,236
228,596	571,322	-0,129	-0,219
229,611	-49,860	-0,259	-0,085
230,626	89,107	-0,184	-0,142
231,640	117,145	-0,297	-0,253
232,655	141,816	-0,181	-0,167
233,669	12,064	-0,293	-0,156
234,684	373,231	-0,148	-0,209
235,699	-55,464	-0,301	-0,093
236,713	-82,092	-0,162	-0,036
237,728	-155,811	-0,231	0,010
238,742	-79,766	-0,107	-0,025
239,757	9,817	-0,299	-0,156
240,772	270,544	-0,170	-0,207
241,786	54,060	-0,170	-0,113
242,801	336,984	-0,117	-0,158
243,815	-141,733	-0,150	0,010
244,830	-77,406	-0,199	-0,048
245,844	800,000	-0,114	-0,226
246,859	56,652	-0,211	-0,142
247,874	56,846	-0,325	-0,219
248,888	74,188	-0,134	-0,097
249,903	-109,304	-0,036	0,005
250,917	-9,618	-0,233	-0,107
251,932	-9,135	-0,204	-0,094
252,947	92,307	-0,248	-0,193
253,961	800,000	-0,040	-0,108
254,976	36,427	-0,277	-0,169
255,990	270,989	-0,160	-0,195
257,005	169,995	-0,179	-0,177
258,020	39,486	-0,156	-0,096
259,034	213,663	-0,152	-0,167
260,049	29,421	-0,199	-0,117
261,063	48,051	-0,119	-0,077
262,078	294,546	-0,099	-0,126
263,093	-200,000	-0,068	-0,212
264,107	358,238	-0,176	-0,244
265,122	107,282	-0,116	-0,095
266,136	71,930	-0,171	-0,123
267,151	-127,879	-0,220	-0,022
268,166	-42,084	-0,295	-0,104
269,180	-79,864	-0,179	-0,041
270,195	-157,468	-0,188	-0,008
271,209	24,587	-0,253	-0,144
272,224	-46,554	-0,071	-0,024
273,239	-31,183	-0,195	-0,076
274,253	142,248	-0,179	-0,164
275,268	215,585	-0,143	-0,157
276,282	47,227	-0,126	-0,081
277,297	210,224	-0,169	-0,184
278,312	-106,311	-0,180	-0,028
279,326	-200,000	-0,060	-0,196
280,341	-54,386	-0,214	-0,067
281,355	-50,433	-0,124	-0,040
282,370	11,943	-0,179	-0,095
283,384	78,837	-0,145	-0,107
284,399	91,176	-0,235	-0,182
285,414	202,068	-0,108	-0,115
286,428	122,453	-0,068	0,059
287,443	55,068	-0,181	-0,121
288,457	354,267	-0,211	-0,290
289,472	374,068	-0,139	-0,195
290,487	659,997	-0,111	-0,197
291,501	305,593	-0,069	-0,089
292,516	467,386	-0,144	-0,224
293,530	367,503	-0,127	-0,178
294,545	590,326	-0,111	-0,190
295,560	41,594	-0,195	-0,122
296,574	795,946	-0,148	-0,282
297,589	268,803	-0,199	-0,242
298,603	260,599	-0,138	-0,165
299,618	800,000	-0,050	-0,110
300,633	227,565	-0,183	-0,205
301,647	99,837	-0,099	-0,079
302,662	-200,000	-0,003	-0,113
303,676	-30,129	-0,270	-0,105
304,691	-56,241	-0,084	-0,026
305,706	329,895	-0,205	-0,273
306,720	103,933	-0,187	-0,152
307,735	-200,000	0,014	-0,099
308,749	-200,000	0,012	-0,182
309,764	35,276	-0,166	0,100
310,779	-68,346	-0,192	-0,051
311,793	330,299	-0,118	-0,157
312,808	800,000	-0,069	-0,137
313,822	223,467	-0,163	-0,181
314,837	6,287	-0,112	-0,057
315,852	-200,000	-0,010	-0,108
316,866	-14,458	0,016	-0,007
317,881	64,527	-0,145	-0,100
318,895	39,748	-0,104	-0,064
319,910	33,300	-0,154	-0,092
320,925	-200,000	-0,040	-0,197
321,939	338,952	-0,152	-0,204
322,954	800,000	-0,075	-0,153
323,968	-52,771	-0,153	-0,048
324,983	452,630	-0,109	-0,167
325,997	522,207	-0,094	-0,153
327,012	653,047	-0,101	-0,179
328,027	-200,000	-0,018	-0,196
329,041	121,454	-0,216	-0,185
330,056	-6,300	-0,137	-0,064
331,070	-86,067	-0,243	-0,051
332,085	214,320	-0,131	-0,143
333,100	-58,568	-0,181	0,054
334,114	420,653	-0,090	-0,132
335,129	302,788	-0,208	-0,266
336,143	82,014	-0,117	-0,087
337,158	457,481	-0,094	-0,143
338,173	-166,578	-0,052	-0,001
339,187	765,881	-0,084	-0,157
340,202	169,164	-0,163	-0,159
341,216	800,000	-0,081	-0,163
342,231	800,000	-0,082	-0,169
343,246	271,941	-0,147	-0,178
344,260	800,000	-0,021	-0,060
345,275	36,390	-0,064	-0,038
346,289	130,234	-0,064	-0,056
347,304	720,831	-0,037	-0,068
348,319	133,653	-0,182	-0,161
349,333	13,918	-0,094	0,050
350,348	36,380	-0,180	-0,109
351,362	286,868	-0,082	-0,101
352,377	800,000	-0,086	-0,200
353,392	49,556	-0,131	-0,085
354,406	-168,247	-0,176	-0,005
355,421	209,578	1314,766	1415,682
356,435	161,303	1475,514	1416,181
