DTS Sentinel unit serial number:	SN410029Multiplexer serial number:	ORYXHardware model number:	OX2-SRSoftware version number:	ORYX F/W v4,00 Oryx Data Collector v3.7.2.0data status	okinstallation	B3 Nyhavnadifferential loss correction	single-endedforward channel	channel 1reverse channel	N/Adate	2023/11/29time	03:27:30forward acquisition time	300,00reverse acquisition time	0,00gamma	499,1914k internal	0,3211k external	0,3211temperature offset calibration	1,0000default loss term (dB/km)	0,3820temperature slope calibration	1,0000multiplexer offset coefficient	1,0000multiplexer slope coefficient	1,0000fibre end	0,00T internal ref (°C)	9,50T ext. ref 1 (°C)	-5,86T ext. ref 2 (°C)	-5,99length (m)	temperature (°C)	Stokes	anti-Stokes-744,400	688,825	-0,127	-0,243
-743,385	800,000	-0,101	0,258
-742,371	-200,000	-0,042	-0,229
-741,356	800,000	-0,096	0,270
-740,342	82,896	-0,180	-0,142
-739,327	456,168	0,108	0,175
-738,312	335,292	-0,185	-0,261
-737,298	-200,000	-0,018	0,260
-736,283	800,000	-0,137	-0,293
-735,269	-200,000	-0,029	0,328
-734,254	667,804	-0,137	-0,258
-733,239	-107,751	-0,285	0,045
-732,225	-200,000	-0,013	-0,283
-731,210	335,874	0,170	0,240
-730,196	800,000	-0,045	0,100
-729,181	61,971	0,049	-0,036
-728,167	148,199	-0,084	-0,082
-727,152	800,000	-0,013	-0,032
-726,137	19,769	0,041	-0,024
-725,123	96,131	-0,167	-0,138
-724,108	-200,000	-0,019	-0,149
-723,094	-99,204	0,040	-0,007
-722,079	150,891	-0,073	-0,072
-721,064	15,169	-0,070	-0,040
-720,050	-103,679	0,020	-0,003
-719,035	-75,782	0,187	0,048
-718,021	-15,502	-0,157	-0,073
-717,006	-200,000	-0,001	-0,075
-715,991	282,514	-0,119	-0,156
-714,977	109,981	-0,168	-0,146
-713,962	-200,000	-0,007	-0,131
-712,948	-200,000	0,004	0,040
-711,933	143,175	-0,080	-0,077
-710,918	118,454	0,012	0,010
-709,904	366,325	-0,051	0,075
-708,889	800,000	-0,007	-0,020
-707,875	-200,000	0,013	0,098
-706,860	-200,000	0,007	-0,124
-705,845	248,969	0,116	0,143
-704,831	95,849	-0,122	0,101
-703,816	-76,811	0,131	-0,033
-702,802	-79,625	-0,069	0,017
-701,787	108,474	-0,155	-0,134
-700,772	8,827	0,148	-0,080
-699,758	-200,000	0,013	0,047
-698,743	306,710	-0,078	0,106
-697,729	3,959	0,072	-0,038
-696,714	179,913	-0,071	0,075
-695,699	-200,000	0,010	-0,159
-694,685	473,826	0,039	0,064
-693,670	63,584	-0,083	-0,060
-692,656	69,642	0,023	0,017
-691,641	498,758	-0,038	-0,064
-690,627	-200,000	0,008	0,186
-689,612	304,033	-0,049	0,066
-688,597	-61,097	-0,117	-0,035
-687,583	-163,567	0,052	-0,002
-686,568	125,418	0,068	-0,062
-685,554	800,000	-0,029	0,075
-684,539	205,178	-0,106	-0,119
-683,524	336,079	-0,051	-0,072
-682,510	800,000	0,047	-0,124
-681,495	-136,771	-0,140	0,012
-680,481	135,223	-0,112	-0,105
-679,466	800,000	0,048	-0,147
-678,451	286,701	-0,033	-0,043
-677,437	769,804	0,050	-0,098
-676,422	-63,081	-0,070	-0,021
-675,408	-63,422	0,165	-0,049
-674,393	118,395	-0,088	-0,078
-673,378	-17,333	-0,132	-0,060
-672,364	0,436	0,046	-0,024
-671,349	40,527	0,057	-0,037
-670,335	159,683	-0,034	-0,035
-669,320	-200,000	-0,017	0,136
-668,305	-200,000	0,015	0,087
-667,291	800,000	0,037	-0,077
-666,276	-86,759	-0,058	0,013
-665,262	-200,000	-0,009	-0,105
-664,247	-164,463	0,082	-0,003
-663,232	471,977	0,067	-0,110
-662,218	46,577	0,026	-0,017
-661,203	800,000	-0,032	0,068
-660,189	-10,179	-0,149	-0,071
-659,174	-200,000	0,015	-0,085
-658,159	800,000	-0,054	-0,132
-657,145	800,000	0,037	-0,096
-656,130	-164,767	0,157	-0,005
-655,116	-200,000	0,004	0,095
-654,101	-61,640	-0,119	0,036
-653,086	667,494	-0,069	-0,129
-652,072	105,542	0,050	-0,043
-651,057	224,752	-0,086	-0,101
-650,043	136,301	-0,007	-0,006
-649,028	-200,000	-0,006	-0,101
-648,014	284,430	0,110	0,143
-646,999	122,768	0,043	0,039
-645,984	800,000	0,053	0,143
-644,970	382,038	0,107	-0,159
-643,955	4,656	-0,015	-0,008
-642,941	8,210	-0,134	-0,073
-641,926	-200,000	0,014	-0,134
-640,911	-178,763	0,092	0,001
-639,897	15,411	-0,157	-0,089
-638,882	40,477	-0,071	0,046
-637,868	-200,000	-0,006	0,044
-636,853	38,993	-0,099	0,064
-635,838	299,170	-0,046	-0,061
-634,824	-26,194	0,114	-0,048
-633,809	712,010	-0,089	0,171
-632,795	-200,000	-0,035	0,179
-631,780	-16,764	0,126	0,058
-630,765	-59,611	-0,112	0,035
-629,751	-53,690	0,012	-0,004
-628,736	-4,753	-0,078	0,039
-627,722	-200,000	0,002	-0,042
-626,707	148,344	0,051	-0,050
-625,692	-83,269	-0,049	-0,011
-624,678	-41,001	-0,062	0,023
-623,663	-150,646	-0,137	0,007
-622,649	426,413	-0,025	-0,040
-621,634	123,690	-0,045	-0,041
-620,619	-200,000	-0,060	-0,227
-619,605	26,263	0,063	0,038
-618,590	-200,000	-0,013	0,051
-617,576	-9,792	-0,150	-0,072
-616,561	800,000	-0,034	0,108
-615,546	-48,714	-0,152	-0,052
-614,532	-80,145	0,029	-0,007
-613,517	19,071	0,087	-0,050
-612,503	800,000	-0,045	0,093
-611,488	230,978	-0,060	0,072
-610,474	800,000	-0,052	0,105
-609,459	-200,000	-0,000	0,119
-608,444	15,040	-0,112	-0,063
-607,430	130,729	-0,034	0,031
-606,415	-32,430	0,031	0,012
-605,401	338,856	0,059	0,083
-604,386	800,000	0,039	0,112
-603,371	-200,000	0,018	-0,068
-602,357	221,884	-0,044	-0,052
-601,342	-200,000	0,014	0,161
-600,328	800,000	-0,027	-0,083
-599,313	-103,894	-0,094	-0,016
-598,298	-76,846	-0,103	-0,026
-597,284	384,439	-0,055	-0,082
-596,269	454,649	-0,063	0,101
-595,255	-200,000	-0,046	0,188
-594,240	-123,901	-0,047	0,005
-593,225	-51,006	-0,084	-0,028
-592,211	-200,000	-0,020	0,127
-591,196	800,000	-0,056	0,143
-590,182	-132,845	0,099	0,009
-589,167	-74,944	0,090	0,023
-588,152	-200,000	-0,024	-0,077
-587,138	-200,000	-0,009	0,038
-586,123	573,231	-0,052	0,092
-585,109	171,723	-0,064	-0,067
-584,094	-170,233	0,116	0,003
-583,079	475,632	-0,105	-0,171
-582,065	128,041	-0,076	-0,070
-581,050	-153,009	-0,045	0,002
-580,036	-124,799	0,088	-0,010
-579,021	800,000	-0,083	-0,167
-578,006	800,000	0,014	0,037
-576,992	-164,778	-0,087	0,003
-575,977	-27,210	0,072	0,030
-574,963	90,336	0,107	0,086
-573,948	-131,307	-0,083	0,008
-572,934	17,759	0,087	-0,050
-571,919	2,682	0,083	-0,043
-570,904	-101,871	-0,161	0,028
-569,890	4,600	0,061	-0,032
-568,875	-108,507	0,062	-0,009
-567,861	800,000	0,007	0,015
-566,846	-200,000	0,022	0,099
-565,831	-120,533	0,052	0,006
-564,817	68,350	-0,078	-0,057
-563,802	792,844	-0,062	-0,124
-562,788	-200,000	-0,009	0,039
-561,773	-40,275	0,074	-0,028
-560,758	86,646	0,062	-0,049
-559,744	99,047	0,057	-0,048
-558,729	-200,000	0,024	0,162
-557,715	-30,805	-0,163	0,066
-556,700	40,206	-0,065	-0,042
-555,685	-200,000	-0,011	-0,079
-554,671	-36,194	0,103	0,040
-553,656	197,511	-0,034	0,038
-552,642	-28,394	-0,042	-0,017
-551,627	800,000	0,026	0,074
-550,612	-200,000	-0,015	0,109
-549,598	-200,000	0,017	-0,103
-548,583	59,223	-0,027	0,019
-547,569	191,986	-0,044	-0,048
-546,554	-19,815	0,165	-0,073
-545,539	-107,395	-0,088	0,014
-544,525	-152,124	0,235	0,012
-543,510	197,980	-0,064	0,070
-542,496	-200,000	0,004	-0,049
-541,481	-200,000	-0,016	-0,064
-540,466	-200,000	0,027	0,107
-539,452	140,761	0,040	0,038
-538,437	-31,947	-0,046	-0,018
-537,423	800,000	-0,014	-0,041
-536,408	-200,000	-0,033	0,120
-535,393	-200,000	-0,002	-0,108
-534,379	53,602	-0,181	0,125
-533,364	-95,324	0,108	-0,021
-532,350	-32,070	0,060	0,024
-531,335	-81,748	0,093	0,022
-530,321	-200,000	-0,012	0,059
-529,306	5,651	-0,097	0,051
-528,291	194,611	0,064	0,070
-527,277	-94,859	-0,070	-0,014
-526,262	554,647	-0,022	-0,038
-525,248	126,242	0,028	0,025
-524,233	-200,000	0,008	0,035
-523,218	754,381	0,012	0,024
-522,204	-200,000	-0,023	0,108
-521,189	5,289	-0,039	0,021
-520,175	498,689	0,038	-0,062
-519,160	-200,000	-0,011	0,058
-518,145	257,590	-0,096	-0,119
-517,131	-53,916	-0,065	-0,021
-516,116	-15,507	0,122	0,056
-515,102	158,268	-0,054	0,054
-514,087	694,168	0,051	-0,097
-513,072	-200,000	-0,001	-0,079
-512,058	145,683	0,061	-0,058
-511,043	-156,533	0,075	-0,003
-510,029	-132,031	0,084	0,008
-509,014	26,200	0,073	-0,044
-507,999	-98,601	-0,051	-0,009
-506,985	469,979	-0,021	0,035
-505,970	416,695	-0,057	-0,088
-504,956	262,315	0,097	-0,122
-503,941	518,779	-0,018	-0,031
-502,926	773,235	0,120	0,237
-501,912	-200,000	0,007	0,075
-500,897	-128,388	0,140	-0,014
-499,883	-200,000	-0,012	-0,119
-498,868	-19,162	-0,068	-0,030
-497,853	102,596	-0,104	0,087
-496,839	-145,299	0,080	-0,005
-495,824	41,989	0,069	0,045
-494,810	-192,870	-0,132	0,001
-493,795	-39,404	-0,034	-0,013
-492,781	123,676	0,098	0,088
-491,766	89,445	-0,147	-0,117
-490,751	219,925	-0,101	-0,117
-489,737	-157,990	0,085	0,004
-488,722	55,515	-0,095	0,066
-487,708	-89,634	0,165	0,035
-486,693	800,000	-0,041	-0,109
-485,678	-65,334	-0,074	-0,021
-484,664	-79,751	-0,015	-0,004
-483,649	57,258	-0,043	0,030
-482,635	-200,000	-0,010	-0,092
-481,620	-200,000	-0,001	-0,053
-480,605	230,993	-0,072	-0,085
-479,591	800,000	-0,037	0,086
-478,576	-200,000	-0,016	-0,101
-477,562	-200,000	0,006	-0,091
-476,547	275,538	-0,076	0,097
-475,532	800,000	-0,014	0,040
-474,518	800,000	0,035	-0,072
-473,503	364,371	-0,070	0,101
-472,489	286,948	-0,057	-0,074
-471,474	800,000	0,014	-0,032
-470,459	407,402	0,024	-0,037
-469,445	45,768	0,045	-0,030
-468,430	252,424	0,091	-0,112
-467,416	-35,263	0,155	0,060
-466,401	175,319	0,083	-0,087
-465,386	237,733	-0,062	-0,074
-464,372	85,817	-0,048	0,038
-463,357	-200,000	0,019	-0,184
-462,343	560,421	0,040	-0,070
-461,328	-200,000	0,012	-0,038
-460,313	339,033	0,054	0,076
-459,299	-200,000	0,035	0,125
-458,284	800,000	0,025	0,061
-457,270	800,000	0,037	0,106
-456,255	-94,884	-0,084	0,016
-455,241	-200,000	-0,005	0,045
-454,226	-130,366	0,078	-0,007
-453,211	-74,095	0,040	0,010
-452,197	307,981	-0,103	-0,138
-451,182	-92,275	-0,064	0,013
-450,168	-73,715	0,095	0,025
-449,153	-200,000	0,018	0,089
-448,138	-158,895	-0,130	-0,005
-447,124	393,448	0,080	-0,119
-446,109	-177,225	-0,160	0,003
-445,095	-200,000	0,008	0,073
-444,080	77,391	0,187	-0,142
-443,065	800,000	-0,039	0,096
-442,051	42,158	-0,067	0,043
-441,036	800,000	-0,082	-0,183
-440,022	80,635	-0,084	0,065
-439,007	100,552	0,007	-0,006
-437,992	197,195	-0,103	0,112
-436,978	561,098	0,006	0,010
-435,963	-200,000	-0,008	0,075
-434,949	-200,000	-0,003	-0,070
-433,934	-59,233	-0,094	-0,029
-432,919	475,332	0,063	-0,102
-431,905	361,778	0,076	0,110
-430,890	122,342	-0,055	0,049
-429,876	800,000	0,029	0,087
-428,861	800,000	-0,016	-0,038
-427,846	-200,000	-0,036	-0,144
-426,832	-200,000	0,009	-0,092
-425,817	800,000	-0,030	-0,079
-424,803	162,055	-0,121	0,121
-423,788	-101,662	0,075	-0,013
-422,773	800,000	-0,065	0,184
-421,759	325,150	0,065	0,089
-420,744	134,190	-0,073	0,068
-419,730	800,000	-0,010	-0,026
-418,715	259,612	-0,044	0,054
-417,701	-200,000	-0,002	-0,016
-416,686	-59,287	0,079	-0,024
-415,671	-200,000	0,011	0,079
-414,657	113,715	-0,028	-0,024
-413,642	68,625	-0,037	-0,027
-412,628	-200,000	-0,001	-0,081
-411,613	-27,977	-0,061	-0,025
-410,598	-153,981	0,127	-0,006
-409,584	-103,589	0,083	-0,014
-408,569	-49,930	0,158	0,053
-407,555	208,693	-0,186	0,209
-406,540	-200,000	0,002	0,086
-405,525	-136,361	-0,112	-0,009
-404,511	-111,714	-0,086	0,012
-403,496	-200,000	0,007	0,078
-402,482	-78,941	-0,031	0,008
-401,467	529,035	-0,019	-0,032
-400,452	-200,000	-0,001	0,092
-399,438	-53,280	-0,137	-0,045
-398,423	-200,000	0,008	-0,089
-397,409	629,694	-0,043	-0,079
-396,394	-130,769	-0,143	0,014
-395,379	-200,000	-0,007	0,038
-394,365	-200,000	0,006	-0,111
-393,350	0,956	0,012	0,006
-392,336	-23,602	0,047	-0,020
-391,321	-46,762	0,064	0,022
-390,306	352,023	-0,069	-0,098
-389,292	-200,000	-0,007	-0,039
-388,277	507,489	-0,033	-0,054
-387,263	800,000	-0,036	-0,104
-386,248	330,300	0,041	-0,056
-385,233	800,000	0,017	0,055
-384,219	795,376	-0,057	0,114
-383,204	400,384	-0,072	-0,108
-382,190	-200,000	-0,009	-0,122
-381,175	286,883	-0,005	-0,006
-380,160	-200,000	0,034	0,113
-379,146	800,000	0,027	0,082
-378,131	-136,132	0,116	0,010
-377,117	84,085	0,097	-0,076
-376,102	-45,378	-0,071	0,025
-375,088	271,977	-0,075	0,095
-374,073	94,068	-0,054	-0,044
-373,058	-200,000	0,037	0,134
-372,044	180,088	0,054	-0,057
-371,029	-159,399	0,111	-0,004
-370,015	-35,794	-0,064	-0,025
-369,000	-19,958	-0,026	0,012
-367,985	-200,000	0,002	-0,022
-366,971	-200,000	-0,017	-0,059
-365,956	-83,099	-0,177	0,040
-364,942	34,507	0,115	-0,071
-363,927	800,000	-0,025	0,078
-362,912	227,277	0,042	0,049
-361,898	-200,000	0,005	-0,160
-360,883	37,414	-0,038	0,024
-359,869	114,589	0,086	-0,075
-358,854	-113,093	0,076	0,011
-357,839	800,000	0,033	-0,079
-356,825	-48,006	0,081	-0,028
-355,810	714,466	0,062	-0,119
-354,796	145,588	0,030	-0,028
-353,781	277,723	0,069	0,088
-352,766	36,803	-0,189	0,119
-351,752	381,642	0,052	0,076
-350,737	-200,000	0,011	-0,111
-349,723	268,155	0,034	0,043
-348,708	800,000	0,007	0,017
-347,693	66,621	0,098	0,071
-346,679	800,000	-0,045	-0,122
-345,664	435,481	-0,015	-0,023
-344,650	-36,440	0,111	-0,042
-343,635	-69,922	0,090	-0,024
-342,620	800,000	0,056	0,126
-341,606	800,000	0,039	-0,078
-340,591	279,728	0,078	-0,100
-339,577	473,213	0,038	-0,061
-338,562	92,846	-0,046	0,037
-337,548	-200,000	0,012	0,056
-336,533	-200,000	0,007	0,070
-335,518	-70,167	-0,077	0,021
-334,504	-200,000	-0,038	-0,124
-333,489	-200,000	-0,136	-0,000
-332,475	-20,963	-0,056	0,024
-331,460	-41,315	0,052	-0,019
-330,445	800,000	-0,041	-0,117
-329,431	164,846	0,037	0,037
-328,416	30,958	0,069	0,042
-327,402	161,039	-0,028	-0,028
-326,387	-32,302	0,099	0,039
-325,372	27,002	-0,164	-0,098
-324,358	-111,588	0,161	0,023
-323,343	800,000	0,022	0,061
-322,329	178,326	0,031	-0,033
-321,314	-52,809	0,147	-0,048
-320,299	800,000	0,062	-0,128
-319,285	-78,489	-0,154	0,037
-318,270	-128,776	-0,051	0,005
-317,256	-119,734	0,115	-0,014
-316,241	-118,438	0,141	0,018
-315,226	263,109	-0,080	-0,099
-314,212	187,010	0,078	-0,083
-313,197	78,866	0,069	0,052
-312,183	-105,184	0,044	-0,007
-311,168	178,038	-0,062	0,065
-310,153	-98,342	-0,047	-0,009
-309,139	-15,765	-0,067	-0,030
-308,124	100,674	-0,065	0,054
-307,110	277,441	0,149	0,190
-306,095	800,000	0,068	0,184
-305,080	800,000	-0,055	0,125
-304,066	-22,722	-0,128	-0,055
-303,051	-106,979	-0,099	-0,015
-302,037	584,636	-0,027	0,047
-301,022	159,778	0,089	-0,089
-300,008	621,914	0,066	0,119
-298,993	800,000	-0,026	0,064
-297,978	119,901	0,069	0,061
-296,964	-200,000	-0,008	-0,047
-295,949	800,000	-0,023	-0,065
-294,935	325,393	-0,063	0,086
-293,920	-200,000	-0,017	-0,054
-292,905	213,800	0,032	0,036
-291,891	11,708	-0,038	0,020
-290,876	9,152	0,059	-0,031
-289,862	63,926	-0,068	-0,049
-288,847	800,000	-0,031	-0,070
-287,832	-200,000	-0,044	-0,181
-286,818	474,768	-0,045	0,073
-285,803	86,040	-0,038	0,030
-284,789	105,153	0,030	0,025
-283,774	-112,864	0,105	-0,015
-282,759	5,909	0,108	0,057
-281,745	151,267	-0,047	0,046
-280,730	339,334	0,041	-0,057
-279,716	288,324	-0,046	-0,060
-278,701	208,507	0,049	0,055
-277,686	157,224	0,085	0,084
-276,672	14,900	0,117	0,065
-275,657	-200,000	0,016	0,060
-274,643	735,718	-0,096	0,184
-273,628	800,000	-0,008	0,021
-272,613	19,022	0,084	0,048
-271,599	-87,871	0,055	0,012
-270,584	-137,077	0,125	0,010
-269,570	475,539	-0,062	0,100
-268,555	361,606	-0,052	0,074
-267,540	-4,848	-0,090	0,044
-266,526	55,381	0,030	-0,020
-265,511	-119,186	-0,056	0,007
-264,497	158,788	0,074	0,073
-263,482	12,050	0,072	0,039
-262,467	43,574	-0,074	0,048
-261,453	-200,000	-0,030	-0,123
-260,438	317,269	-0,087	-0,117
-259,424	-200,000	-0,010	0,053
-258,409	-69,142	-0,076	0,021
-257,395	172,737	0,048	-0,049
-256,380	75,914	0,129	-0,097
-255,365	800,000	0,018	-0,048
-254,351	-142,847	-0,085	0,006
-253,336	-76,704	-0,081	-0,020
-252,322	123,958	-0,107	-0,096
-251,307	-53,272	-0,088	-0,029
-250,292	246,844	-0,054	0,065
-249,278	195,318	0,092	0,099
-248,263	-95,897	0,071	0,013
-247,249	-21,762	-0,033	0,014
-246,234	85,214	0,135	-0,105
-245,219	155,798	-0,042	-0,042
-244,205	71,532	0,111	-0,082
-243,190	37,975	-0,074	0,047
-242,176	-200,000	0,025	0,140
-241,161	-75,839	0,035	-0,009
-240,146	59,525	0,113	0,079
-239,132	-200,000	-0,018	0,062
-238,117	126,949	-0,062	-0,056
-237,103	197,596	-0,104	-0,113
-236,088	-200,000	0,005	-0,065
-235,073	192,093	0,117	-0,125
-234,059	-28,364	0,062	0,025
-233,044	78,831	-0,060	0,046
-232,030	800,000	0,069	-0,189
-231,015	-200,000	-0,018	-0,065
-230,000	800,000	0,050	-0,127
-228,986	-200,000	0,017	0,105
-227,971	30,862	-0,076	-0,046
-226,957	-42,023	0,096	-0,035
-225,942	14,512	-0,101	0,056
-224,927	2,940	0,088	0,045
-223,913	12,764	-0,144	0,079
-222,898	36,692	-0,134	0,084
-221,884	-140,463	0,125	0,009
-220,869	-200,000	0,039	0,133
-219,855	30,212	0,120	-0,072
-218,840	113,069	-0,070	0,060
-217,825	88,829	-0,027	0,022
-216,811	50,404	-0,038	-0,026
-215,796	-136,263	-0,137	0,011
-214,782	-30,397	-0,033	0,013
-213,767	-200,000	-0,021	0,084
-212,752	-42,376	0,092	0,033
-211,738	-40,452	0,057	-0,021
-210,723	-18,238	-0,131	0,058
-209,709	5,919	0,078	-0,041
-208,694	-158,262	-0,144	-0,006
-207,679	-200,000	0,002	-0,039
-206,665	-124,467	0,146	0,016
-205,650	-55,611	0,096	0,030
-204,636	800,000	0,075	0,219
-203,621	-200,000	0,017	-0,060
-202,606	12,373	0,065	-0,035
-201,592	-172,334	-0,060	-0,001
-200,577	333,086	-0,063	-0,087
-199,563	164,936	-0,014	-0,014
-198,548	39,313	0,141	0,089
-197,533	494,251	-0,029	0,047
-196,519	-200,000	0,009	-0,085
-195,504	800,000	-0,055	-0,162
-194,490	7,150	0,045	-0,024
-193,475	286,536	0,032	-0,041
-192,460	800,000	0,038	0,087
-191,446	41,755	0,072	0,046
-190,431	-48,784	0,076	0,026
-189,417	-200,000	-0,026	0,082
-188,402	82,903	-0,034	0,026
-187,387	-200,000	-0,018	-0,067
-186,373	64,701	0,082	0,059
-185,358	-200,000	0,017	-0,085
-184,344	699,287	0,124	0,233
-183,329	455,423	-0,013	0,021
-182,315	-103,618	0,150	-0,025
-181,300	539,918	-0,086	-0,145
-180,285	-200,000	-0,017	-0,061
-179,271	-104,184	-0,158	-0,026
-178,256	800,000	0,046	0,096
-177,242	119,382	-0,070	0,062
-176,227	-29,944	0,192	-0,077
-175,212	-200,000	-0,009	-0,168
-174,198	179,242	0,026	-0,027
-173,183	-200,000	0,002	-0,070
-172,169	-125,848	-0,085	0,009
-171,154	481,452	0,085	-0,137
-170,139	-148,667	0,009	0,001
-169,125	180,777	0,006	-0,006
-168,110	593,011	0,041	-0,072
-167,096	257,925	0,041	0,050
-166,081	-200,000	-0,006	-0,034
-165,066	-200,000	0,022	-0,081
-164,052	-58,630	-0,102	-0,031
-163,037	9,242	0,015	-0,008
-162,023	195,773	0,092	-0,099
-161,008	-132,784	0,193	0,017
-159,993	-5,762	-0,091	0,044
-158,979	-5,084	0,078	-0,038
-157,964	-200,000	-0,036	-0,119
-156,950	129,280	0,073	-0,066
-155,935	-95,385	0,192	-0,036
-154,920	128,821	-0,133	0,120
-153,906	-178,560	-0,018	0,000
-152,891	219,523	0,058	-0,066
-151,877	-200,000	-0,015	0,054
-150,862	17,317	-0,140	-0,078
-149,847	-200,000	0,006	-0,150
-148,833	-200,000	0,017	0,118
-147,818	-57,303	0,035	0,011
-146,804	185,059	0,088	0,093
-145,789	-200,000	-0,009	0,071
-144,775	393,216	0,068	-0,101
-143,760	-45,481	-0,091	-0,032
-142,745	5,800	0,073	0,038
-141,731	133,505	-0,114	-0,105
-140,716	-26,484	0,093	0,039
-139,702	-19,225	-0,147	-0,064
-138,687	261,729	0,073	0,090
-137,672	-200,000	0,003	0,064
-136,658	-130,699	-0,155	0,015
-135,643	335,565	0,028	-0,038
-134,629	-16,918	-0,080	0,036
-133,614	145,681	0,076	-0,072
-132,599	-200,000	-0,015	0,101
-131,585	-200,000	-0,016	-0,089
-130,570	-177,035	0,114	-0,002
-129,556	-49,847	-0,037	-0,012
-128,541	-37,204	0,063	-0,024
-127,526	-92,384	-0,134	-0,026
-126,512	-200,000	-0,030	-0,143
-125,497	-200,000	-0,020	-0,175
-124,483	-200,000	-0,018	0,088
-123,468	-112,412	-0,069	0,010
-122,453	-200,000	0,015	-0,103
-121,439	258,588	-0,079	-0,096
-120,424	800,000	-0,003	-0,006
-119,410	-162,499	0,127	-0,004
-118,395	-197,830	0,042	0,000
-117,380	-56,355	0,112	0,035
-116,366	-200,000	-0,007	-0,118
-115,351	-7,812	0,098	0,047
-114,337	523,500	-0,129	-0,215
-113,322	800,000	-0,048	0,098
-112,307	-100,082	-0,115	0,020
-111,293	-200,000	0,021	0,070
-110,278	-200,000	-0,023	0,125
-109,264	-139,077	-0,048	0,004
-108,249	-57,320	0,042	0,013
-107,234	800,000	0,015	-0,042
-106,220	104,672	-0,141	-0,118
-105,205	-90,133	0,055	0,011
-104,191	33,085	-0,039	0,024
-103,176	160,918	0,126	0,125
-102,162	-164,973	0,131	-0,004
-101,147	111,603	0,024	0,020
-100,132	-35,699	-0,052	0,020
-99,118	208,461	-0,037	0,041
-98,103	-101,647	-0,169	0,029
-97,089	156,569	0,046	-0,045
-96,074	595,774	-0,031	-0,055
-95,059	-200,000	0,023	0,105
-94,045	183,168	0,020	-0,021
-93,030	-8,691	-0,021	0,010
-92,016	-88,379	0,131	0,027
-91,001	166,707	0,042	-0,042
-89,986	-72,269	0,066	0,017
-88,972	321,765	-0,039	0,053
-87,957	113,621	0,023	-0,020
-86,943	-200,000	-0,025	-0,128
-85,928	40,546	-0,150	0,095
-84,913	682,786	-0,027	-0,050
-83,899	61,765	-0,094	0,066
-82,884	-200,000	-0,012	0,113
-81,870	-72,576	0,110	0,028
-80,855	521,420	-0,024	0,039
-79,840	38,185	0,091	0,057
-78,826	-158,408	-0,114	-0,005
-77,811	309,830	0,100	-0,133
-76,797	-200,000	-0,024	-0,101
-75,782	800,000	-0,013	0,039
-74,767	-200,000	0,027	0,117
-73,753	-200,000	0,013	0,092
-72,738	-200,000	-0,026	0,133
-71,724	4,274	-0,083	0,043
-70,709	-200,000	-0,011	-0,114
-69,694	82,807	-0,132	0,101
-68,680	-60,205	0,051	-0,015
-67,665	707,901	0,092	0,173
-66,651	-61,458	0,020	-0,006
-65,636	12,810	-0,159	-0,086
-64,622	253,534	-0,013	0,016
-63,607	693,967	-0,019	0,035
-62,592	345,447	0,079	-0,109
-61,578	-200,000	0,026	-0,089
-60,563	-200,000	0,004	0,054
-59,549	224,271	-0,044	0,050
-58,534	77,336	-1,868	-1,401
-57,519	511,391	-1,147	-1,892
-56,505	-200,000	-0,335	-4,391
-55,490	614,847	0,956	1,698
-54,476	800,000	5,108	11,132
-53,461	-200,000	21,710	343,009
-52,446	800,000	762,707	2344,269
-51,432	547,866	1661,228	2818,045
-50,417	71,538	1657,188	1213,300
-49,403	17,316	1530,410	855,019
-48,388	11,331	1454,741	783,854
-47,373	19,357	1446,118	817,610
-46,359	14,821	1435,214	789,891
-45,344	9,640	1431,164	763,008
-44,330	9,550	1429,429	761,624
-43,315	9,550	1427,475	760,553
-42,300	9,580	1425,721	759,735
-41,286	9,599	1424,415	759,095
-40,271	9,542	1423,248	758,175
-39,257	9,551	1422,185	757,622
-38,242	9,593	1420,999	757,158
-37,227	9,587	1419,821	756,472
-36,213	9,609	1418,459	755,819
-35,198	9,620	1417,588	755,377
-34,184	9,610	1416,444	754,692
-33,169	9,532	1414,979	753,515
-32,154	9,591	1413,988	753,231
-31,140	9,578	1412,819	752,520
-30,125	9,637	1411,658	752,147
-29,111	9,579	1410,481	751,217
-28,096	9,590	1409,397	750,666
-27,082	9,509	1408,182	749,609
-26,067	9,515	1407,062	749,011
-25,052	9,559	1406,143	748,696
-24,038	9,525	1405,190	748,003
-23,023	9,583	1404,173	747,702
-22,009	9,576	1403,078	747,056
-20,994	9,547	1402,043	746,340
-19,979	9,530	1401,420	745,898
-18,965	9,490	1400,377	745,128
-17,950	9,496	1399,389	744,599
-16,936	9,481	1398,684	744,128
-15,921	9,420	1397,673	743,273
-14,906	9,466	1396,736	742,962
-13,892	9,493	1395,602	742,452
-12,877	9,461	1395,029	741,969
-11,863	9,481	1393,951	741,460
-10,848	9,397	1393,335	740,714
-9,833	9,380	1392,265	740,037
-8,819	9,341	1391,523	739,432
-7,804	9,313	1390,546	738,753
-6,790	9,332	1389,522	738,269
-5,775	9,279	1388,385	737,394
-4,760	9,351	1387,193	737,063
-3,746	9,369	1386,395	736,688
-2,731	9,365	1385,681	736,262
-1,717	9,365	1384,720	735,724
-0,702	9,328	1382,962	734,591
0,313	13,355	1295,428	706,469
1,327	29,375	686,663	410,634
2,342	45,767	118,390	77,059
3,356	-1,222	16,437	8,162
4,371	4,603	3,629	1,873
5,386	-10,379	1,125	0,524
6,400	800,000	0,332	0,718
7,415	-82,020	-0,231	-0,053
8,429	225,194	-0,255	-0,292
9,444	-14,514	-0,466	-0,211
10,459	-91,683	-0,406	-0,081
11,473	52,417	-0,304	-0,204
12,488	-40,173	-0,341	-0,124
13,502	-52,634	-0,250	-0,081
14,517	-90,457	-0,296	-0,060
15,531	-12,765	-0,443	-0,203
16,546	207,236	-0,288	-0,317
17,561	63,690	-0,304	-0,215
18,575	-15,386	-0,145	-0,065
19,590	250,949	-0,234	-0,281
20,604	222,396	-0,191	-0,217
21,619	27,152	-0,505	-0,298
22,634	42,046	-0,460	-0,293
23,648	3,649	-0,390	-0,200
24,663	36,131	-0,396	-0,245
25,677	235,326	-0,196	-0,228
26,692	157,481	-0,282	-0,275
27,707	57,465	-0,343	-0,235
28,721	140,240	-0,272	-0,252
29,736	11,995	-0,315	-0,170
30,750	153,850	-0,340	-0,328
31,765	8,145	-0,445	-0,234
32,780	54,345	-0,397	-0,268
33,794	58,734	-0,261	-0,180
34,809	-14,518	-0,397	-0,179
35,823	85,700	-0,325	-0,251
36,838	-18,211	-0,301	-0,132
37,853	317,171	-0,307	-0,409
38,867	-17,686	-0,410	-0,181
39,882	132,933	-0,285	-0,259
40,896	77,324	-0,272	-0,203
41,911	104,720	-0,280	-0,232
42,926	23,585	-0,304	-0,175
43,940	195,593	-0,370	-0,396
44,955	48,595	-0,373	-0,245
45,969	91,111	-0,329	-0,259
46,984	-36,278	-0,345	-0,130
47,999	74,703	-0,450	-0,333
49,013	86,717	-0,311	-0,241
50,028	150,077	-0,318	-0,304
51,042	105,980	-0,345	-0,287
52,057	62,489	-0,356	-0,249
53,071	-4,038	-0,310	-0,150
54,086	5,477	-0,295	-0,153
55,101	210,522	-0,222	-0,245
56,115	82,656	-0,261	-0,199
57,130	90,909	-0,251	-0,198
58,144	51,221	-0,317	-0,211
59,159	84,109	-0,365	-0,279
60,174	107,772	-0,439	-0,367
61,188	67,324	-0,326	-0,233
62,203	42,513	-0,344	-0,219
63,217	201,790	-0,210	-0,227
64,232	151,386	-0,376	-0,359
65,247	22,639	-0,330	-0,189
66,261	299,026	-0,313	-0,405
67,276	129,216	-0,345	-0,309
68,290	223,008	-0,211	-0,239
69,305	23,940	-0,287	-0,165
70,320	273,108	-0,185	-0,230
71,334	-112,889	-0,368	-0,051
72,349	243,987	-0,213	-0,251
73,363	-144,212	-0,304	-0,020
74,378	-0,607	-0,344	-0,170
75,393	167,118	-0,328	-0,326
76,407	-97,961	-0,418	-0,075
77,422	148,600	-0,284	-0,269
78,436	44,667	-0,262	-0,168
79,451	-71,967	-0,414	-0,107
80,466	-10,969	-0,366	-0,169
81,480	140,878	-0,325	-0,301
82,495	91,528	-0,335	-0,263
83,509	24,854	-0,280	-0,162
84,524	194,081	-0,138	-0,147
85,539	68,727	-0,364	-0,261
86,553	-80,947	-0,280	-0,065
87,568	18,933	-0,193	-0,108
88,582	421,445	-0,179	-0,270
89,597	145,461	-0,235	-0,220
90,611	129,969	-0,327	-0,293
91,626	57,076	-0,281	-0,192
92,641	-79,168	-0,323	-0,076
93,655	-52,762	-0,386	-0,124
94,670	161,586	-0,290	-0,284
95,684	77,990	-0,326	-0,243
96,699	42,822	-0,255	-0,162
97,714	-27,312	-0,310	-0,126
98,728	-45,896	-0,365	-0,125
99,743	100,356	-0,190	-0,154
100,757	-62,738	-0,309	-0,089
101,772	180,138	-0,281	-0,288
102,787	280,750	-0,314	-0,394
103,801	252,359	-0,240	-0,286
104,816	83,510	-0,215	-0,164
105,830	-126,352	-0,147	0,015
106,845	-19,010	-0,260	-0,113
107,860	-125,397	-0,274	0,029
108,874	174,482	-0,102	-0,103
109,889	16,828	-0,269	-0,149
110,903	-9,606	-0,340	-0,158
111,918	108,024	-0,314	-0,262
112,933	-84,923	-0,225	-0,049
113,947	-39,740	-0,297	-0,108
114,962	-77,744	-0,240	-0,058
115,976	109,975	-0,221	-0,185
116,991	30,226	-0,397	-0,236
118,006	88,678	-0,173	-0,134
119,020	50,860	-0,296	-0,195
120,035	-15,749	-0,339	-0,150
121,049	104,492	-0,173	-0,142
122,064	-68,456	-0,244	-0,066
123,079	-185,106	-0,250	0,003
124,093	98,905	-0,247	-0,199
125,108	306,387	-0,193	-0,251
126,122	-6,117	-0,346	-0,164
127,137	-89,053	-0,281	-0,057
128,151	-104,064	-0,199	-0,032
129,166	83,100	-0,107	-0,081
130,181	-25,316	-0,315	-0,129
131,195	100,665	-0,277	-0,224
132,210	37,860	-0,150	-0,092
133,224	55,281	-0,256	-0,172
134,239	17,177	-0,422	-0,233
135,254	124,974	-0,198	-0,174
136,268	-60,147	-0,319	-0,094
137,283	-151,572	-0,350	-0,018
138,297	90,144	-0,253	-0,197
139,312	101,849	-0,261	-0,212
140,327	127,496	-0,249	-0,220
141,341	21,605	-0,267	-0,151
142,356	-103,850	-0,237	-0,038
143,370	-101,708	-0,276	-0,046
144,385	73,368	-0,187	-0,136
145,400	121,436	-0,174	-0,151
146,414	10,557	-0,256	-0,135
147,429	106,903	-0,235	-0,194
148,443	358,020	-0,208	-0,290
149,458	-157,163	-0,087	0,004
150,473	61,517	-0,324	-0,224
151,487	392,153	-0,145	-0,211
152,502	-103,718	-0,310	-0,050
153,516	-29,035	-0,347	-0,138
154,531	386,850	-0,224	-0,323
155,546	-56,781	-0,274	-0,084
156,560	-1,912	-0,239	-0,116
157,575	-25,952	-0,190	-0,077
158,589	-11,116	-0,227	-0,104
159,604	70,985	-0,291	-0,209
160,619	38,683	-0,400	-0,248
161,633	-34,007	-0,285	-0,108
162,648	30,234	-0,309	-0,183
163,662	213,868	-0,156	-0,172
164,677	149,967	-0,166	-0,157
165,692	-43,009	-0,306	-0,108
166,706	152,374	-0,192	-0,182
167,721	-47,413	-0,279	-0,094
168,735	-23,882	-0,289	-0,120
169,750	-93,875	-0,234	-0,044
170,764	249,833	-0,190	-0,224
171,779	61,295	-0,163	-0,112
172,794	-14,232	-0,256	-0,114
173,808	-126,478	-0,232	-0,024
174,823	145,517	-0,259	-0,241
175,837	131,349	-0,206	-0,184
176,852	-128,870	-0,129	-0,012
177,867	769,976	-0,110	-0,209
178,881	213,313	-0,157	-0,172
179,896	343,055	-0,072	-0,099
180,910	-104,445	-0,294	-0,047
181,925	120,211	-0,219	-0,189
182,940	-113,151	-0,151	-0,020
183,954	333,364	-0,122	-0,164
184,969	105,667	-0,283	-0,232
185,983	-70,039	-0,165	0,043
186,998	-92,845	-0,157	-0,030
188,013	143,805	-0,146	-0,135
189,027	132,534	-0,140	-0,125
190,042	-13,741	-0,273	-0,122
191,056	275,559	-0,188	-0,232
192,071	399,953	-0,131	-0,190
193,086	152,148	-0,167	-0,158
194,100	35,167	-0,182	-0,110
195,115	495,956	-0,143	-0,229
196,129	-21,265	-0,264	-0,111
197,144	145,486	-0,193	-0,179
198,159	524,111	-0,151	-0,247
199,173	185,291	-0,220	-0,227
200,188	230,605	-0,165	-0,188
201,202	80,382	-0,174	-0,129
202,217	800,000	-0,132	-0,273
203,232	185,685	-0,175	-0,181
204,246	525,227	-0,245	-0,401
205,261	730,666	-0,138	-0,257
206,275	394,367	-0,172	-0,250
207,290	13,932	-0,209	-0,112
208,304	-11,339	-0,183	-0,083
209,319	470,610	-0,095	-0,149
210,334	69,530	-0,218	-0,155
211,348	118,879	-0,324	-0,278
212,363	52,116	-0,092	-0,061
213,377	97,416	-0,216	-0,172
214,392	193,662	-0,236	-0,248
215,407	230,599	-0,097	-0,110
216,421	77,444	-0,128	-0,094
217,436	225,482	-0,177	-0,199
218,450	122,358	-0,246	-0,213
219,465	-200,000	-0,081	-0,285
220,480	174,160	-0,158	-0,158
221,494	288,222	-0,139	-0,175
222,509	-83,551	-0,296	-0,065
223,523	119,576	-0,101	-0,087
224,538	227,952	-0,081	-0,091
225,553	22,450	-0,343	-0,194
226,567	60,251	-0,192	-0,131
227,582	412,221	-0,200	-0,295
228,596	36,260	-0,129	-0,078
229,611	-128,017	-0,195	0,019
230,626	49,281	-0,157	-0,102
231,640	-62,426	-0,224	-0,064
232,655	28,438	-0,228	-0,133
233,669	61,357	-0,212	-0,146
234,684	196,071	-0,182	-0,192
235,699	486,954	-0,175	-0,277
236,713	107,547	-0,179	-0,147
237,728	113,532	-0,161	-0,135
238,742	108,343	-0,272	-0,224
239,757	19,493	-0,258	-0,143
240,772	141,214	-0,181	-0,166
241,786	-90,326	-0,145	-0,029
242,801	-188,770	-0,218	0,002
243,815	51,119	-0,107	-0,070
244,830	-129,006	-0,134	0,013
245,844	85,963	-0,170	-0,129
246,859	405,516	-0,168	-0,245
247,874	-31,072	-0,186	-0,072
248,888	-11,543	-0,183	-0,083
249,903	78,307	-0,281	-0,207
250,917	479,143	-0,165	-0,259
251,932	49,142	-0,188	-0,122
252,947	-22,025	-0,269	-0,112
253,961	286,508	-0,102	-0,127
254,976	147,022	-0,203	-0,188
255,990	-133,956	-0,218	-0,018
257,005	-125,055	-0,119	-0,012
258,020	800,000	-0,040	-0,121
259,034	-21,771	-0,193	-0,081
260,049	-121,594	-0,202	-0,023
261,063	68,699	-0,101	-0,071
262,078	1,871	-0,158	-0,078
263,093	-63,563	-0,117	0,033
264,107	-28,933	-0,218	-0,086
265,122	592,414	-0,084	-0,143
266,136	97,465	-0,116	-0,092
267,151	-128,454	-0,214	0,021
268,166	19,456	-0,091	-0,050
269,180	30,875	-0,225	-0,133
270,195	800,000	-0,117	-0,245
271,209	35,915	-0,186	-0,113
272,224	65,941	-0,233	-0,163
273,239	-200,000	0,005	-0,042
274,253	1,535	-0,068	-0,034
275,268	-140,333	-0,150	0,011
276,282	-74,734	-0,131	-0,032
277,297	-18,073	-0,205	-0,088
278,312	-23,559	-0,164	-0,068
279,326	178,371	-0,172	-0,173
280,341	-82,845	-0,043	-0,010
281,355	-1,177	-0,252	-0,122
282,370	28,745	-0,179	-0,104
283,384	-157,939	-0,335	0,013
284,399	105,101	-0,174	-0,142
285,414	-200,000	-0,032	-0,188
286,428	-109,782	-0,027	0,004
287,443	146,350	-0,088	0,082
288,457	-55,680	-0,213	-0,065
289,472	122,029	-0,196	-0,168
290,487	89,564	-0,259	-0,199
291,501	-156,341	-0,160	0,007
292,516	-106,521	-0,149	-0,023
293,530	104,432	-0,098	-0,079
294,545	128,339	-0,075	-0,066
295,560	48,122	-0,162	-0,104
296,574	172,851	-0,082	-0,081
297,589	-75,354	-0,180	-0,044
298,603	177,408	-0,177	-0,177
299,618	-65,451	-0,115	-0,031
300,633	106,983	-0,104	-0,085
301,647	-32,078	-0,184	-0,070
302,662	-108,963	-0,185	0,027
303,676	74,514	-0,188	-0,136
304,691	163,636	-0,114	-0,111
305,706	114,893	-0,146	-0,122
306,720	593,980	-0,136	-0,232
307,735	119,639	-0,130	-0,111
308,749	800,000	-0,066	-0,131
309,764	-93,859	-0,089	-0,017
310,779	800,000	-0,065	-0,196
311,793	162,245	-0,082	-0,079
312,808	19,707	-0,181	-0,100
313,822	139,432	-0,146	-0,132
314,837	800,000	-0,089	-0,187
315,852	202,879	-0,081	0,086
316,866	-101,579	-0,062	-0,010
317,881	-29,099	-0,107	-0,042
318,895	-168,882	-0,149	0,004
319,910	277,680	-0,146	-0,178
320,925	-117,376	-0,125	-0,015
321,939	-159,858	-0,098	-0,004
322,954	-81,150	-0,248	-0,056
323,968	-8,145	-0,150	-0,069
324,983	-73,201	-0,201	-0,050
325,997	-76,095	-0,120	-0,029
327,012	-34,562	-0,103	-0,039
328,027	800,000	-0,038	-0,098
329,041	-105,093	-0,168	-0,026
330,056	184,007	-0,044	0,045
331,070	-34,578	0,037	-0,014
332,085	-70,227	-0,103	-0,027
333,100	226,383	-0,081	-0,091
334,114	479,355	-0,118	-0,183
335,129	119,461	-0,161	-0,136
336,143	-200,000	-0,023	-0,172
337,158	36,953	-0,155	-0,094
338,173	-39,548	-0,091	0,033
339,187	-144,977	-0,187	-0,011
340,202	233,251	-0,128	-0,145
341,216	189,580	-0,124	-0,128
342,231	-73,833	-0,052	-0,013
343,246	127,485	-0,122	-0,106
344,260	-77,656	-0,132	-0,031
345,275	204,038	-0,167	-0,177
346,289	132,760	-0,132	-0,116
347,304	326,767	-0,128	-0,169
348,319	249,243	-0,072	-0,084
349,333	2,756	-0,290	-0,143
350,348	2,241	-0,214	-0,106
351,362	291,808	-0,140	-0,174
352,377	-173,187	-0,213	-0,004
353,392	-80,276	-0,188	-0,043
354,406	91,096	-0,128	-0,098
355,421	207,783	1306,066	1396,330
356,435	159,857	1465,701	1396,808
