DTS Sentinel unit serial number:	SN410029Multiplexer serial number:	ORYXHardware model number:	OX2-SRSoftware version number:	ORYX F/W v4,00 Oryx Data Collector v3.7.2.0data status	okinstallation	B3 Nyhavnadifferential loss correction	single-endedforward channel	channel 1reverse channel	N/Adate	2023/12/02time	06:47:30forward acquisition time	300,00reverse acquisition time	0,00gamma	499,1914k internal	0,3194k external	0,3194temperature offset calibration	1,0000default loss term (dB/km)	0,3820temperature slope calibration	1,0000multiplexer offset coefficient	1,0000multiplexer slope coefficient	1,0000fibre end	0,00T internal ref (°C)	15,85T ext. ref 1 (°C)	0,51T ext. ref 2 (°C)	0,49length (m)	temperature (°C)	Stokes	anti-Stokes-744,400	87,587	-0,272	-0,219
-743,385	-200,000	0,122	0,413
-742,371	-30,469	-0,248	-0,102
-741,356	-200,000	0,046	0,340
-740,342	148,359	-0,158	-0,155
-739,327	-200,000	0,096	0,335
-738,312	71,422	-0,225	-0,170
-737,298	-200,000	0,036	0,118
-736,283	-13,188	-0,238	-0,112
-735,269	-200,000	0,025	0,382
-734,254	47,509	-0,306	-0,207
-733,239	112,885	-0,198	0,175
-732,225	-200,000	0,006	-0,161
-731,210	134,945	0,167	0,158
-730,196	-139,439	-0,060	0,005
-729,181	-140,776	-0,060	-0,004
-728,167	87,521	0,120	-0,097
-727,152	21,152	0,051	-0,030
-726,137	-200,000	-0,005	-0,129
-725,123	-200,000	-0,028	-0,118
-724,108	-200,000	0,006	-0,169
-723,094	800,000	-0,062	-0,143
-722,079	63,507	-0,025	-0,018
-721,064	87,333	-0,143	-0,115
-720,050	184,822	-0,044	0,047
-719,035	6,974	-0,050	-0,027
-718,021	233,810	-0,027	-0,032
-717,006	212,424	0,054	-0,062
-715,991	94,472	-0,126	-0,104
-714,977	800,000	0,065	-0,147
-713,962	-160,265	-0,065	-0,003
-712,948	800,000	-0,027	-0,062
-711,933	-31,459	-0,139	-0,057
-710,918	-25,862	0,057	0,024
-709,904	630,574	-0,051	-0,094
-708,889	91,584	-0,078	0,064
-707,875	-99,274	-0,163	0,030
-706,860	217,621	-0,044	0,051
-705,845	332,619	0,073	-0,103
-704,831	127,120	0,066	0,061
-703,816	465,186	-0,087	0,142
-702,802	192,991	0,095	-0,105
-701,787	58,141	-0,045	0,032
-700,772	23,929	-0,043	0,026
-699,758	13,482	-0,112	-0,063
-698,743	125,197	0,039	-0,036
-697,729	-200,000	-0,024	0,089
-696,714	800,000	-0,009	0,027
-695,699	-144,432	-0,167	0,011
-694,685	-138,346	-0,045	-0,004
-693,670	-200,000	0,010	-0,067
-692,656	16,710	-0,058	-0,033
-691,641	23,501	0,044	-0,026
-690,627	-93,357	-0,125	0,025
-689,612	7,578	-0,112	0,061
-688,597	-178,693	-0,042	-0,001
-687,583	269,394	-0,030	-0,038
-686,568	480,845	0,012	-0,019
-685,554	-99,918	-0,093	-0,017
-684,539	-200,000	0,006	0,074
-683,524	-200,000	0,017	-0,090
-682,510	800,000	0,055	0,146
-681,495	800,000	0,043	0,106
-680,481	21,178	0,062	-0,037
-679,466	39,583	-0,123	-0,080
-678,451	-200,000	0,006	-0,105
-677,437	40,268	-0,028	-0,018
-676,422	189,983	0,095	0,104
-675,408	338,865	0,112	0,159
-674,393	800,000	0,008	-0,018
-673,378	-163,425	-0,065	-0,002
-672,364	-200,000	-0,010	-0,097
-671,349	-8,645	-0,110	-0,053
-670,335	32,528	-0,072	-0,045
-669,320	-116,906	0,131	0,017
-668,305	-176,279	-0,124	-0,002
-667,291	-200,000	-0,004	-0,085
-666,276	178,772	-0,117	-0,125
-665,262	-103,167	-0,188	0,032
-664,247	-150,589	0,056	-0,003
-663,232	-121,625	-0,056	-0,007
-662,218	-45,171	-0,067	-0,024
-661,203	101,292	0,035	0,030
-660,189	339,264	-0,017	0,024
-659,174	800,000	-0,038	0,106
-658,159	-66,470	0,066	-0,019
-657,145	800,000	-0,055	0,119
-656,130	-26,233	0,020	0,008
-655,116	152,511	0,139	0,138
-654,101	-60,588	-0,061	0,019
-653,086	-15,813	-0,078	0,036
-652,072	37,492	-0,081	0,052
-651,057	-16,564	-0,091	-0,042
-650,043	800,000	0,034	0,070
-649,028	-200,000	-0,018	-0,063
-648,014	740,657	0,026	0,051
-646,999	-200,000	0,001	0,172
-645,984	-200,000	-0,022	-0,082
-644,970	800,000	-0,025	0,067
-643,955	-14,157	0,116	0,054
-642,941	-200,000	-0,011	-0,041
-641,926	800,000	0,045	0,094
-640,911	153,614	0,059	-0,059
-639,897	143,730	-0,054	0,052
-638,882	84,289	-0,052	0,042
-637,868	294,389	-0,042	0,055
-636,853	48,144	-0,115	-0,078
-635,838	800,000	-0,078	-0,190
-634,824	628,463	-0,028	-0,052
-633,809	-200,000	-0,001	0,042
-632,795	134,829	0,104	0,098
-631,780	22,024	-0,034	0,020
-630,765	800,000	-0,056	0,137
-629,751	766,367	-0,092	-0,182
-628,736	-65,062	0,070	-0,020
-627,722	-200,000	0,007	-0,132
-626,707	-118,569	0,038	-0,005
-625,692	19,355	0,108	0,063
-624,678	375,151	0,077	0,114
-623,663	-48,194	0,137	0,048
-622,649	-200,000	0,019	-0,095
-621,634	-72,107	-0,251	0,067
-620,619	135,086	0,035	-0,033
-619,605	530,606	-0,074	-0,127
-618,590	-12,471	0,092	0,043
-617,576	256,979	-0,049	0,061
-616,561	24,621	0,004	-0,003
-615,546	-200,000	-0,136	0,000
-614,532	800,000	-0,045	0,105
-613,517	171,226	-0,031	0,033
-612,503	185,900	-0,020	0,022
-611,488	800,000	-0,029	0,079
-610,474	800,000	0,048	-0,112
-609,459	84,446	0,043	-0,034
-608,444	-200,000	0,005	0,016
-607,430	-134,677	-0,100	-0,009
-606,415	-6,637	-0,160	-0,079
-605,401	30,473	0,053	-0,033
-604,386	-21,064	-0,098	-0,043
-603,371	158,314	-0,134	0,135
-602,357	30,866	0,023	-0,014
-601,342	-38,520	0,157	0,060
-600,328	-62,381	0,032	0,010
-599,313	-200,000	-0,032	0,116
-598,298	121,073	-0,061	0,055
-597,284	7,117	-0,041	0,022
-596,269	-200,000	-0,006	0,051
-595,255	293,872	0,097	0,129
-594,240	13,774	-0,146	-0,082
-593,225	800,000	-0,046	-0,132
-592,211	137,737	-0,110	-0,104
-591,196	-200,000	0,015	0,051
-590,182	800,000	-0,054	-0,120
-589,167	-56,399	-0,145	0,046
-588,152	83,415	-0,057	0,045
-587,138	-85,237	-0,127	-0,028
-586,123	321,291	-0,053	0,074
-585,109	800,000	0,039	0,105
-584,094	184,276	0,076	-0,082
-583,079	-200,000	0,009	-0,096
-582,065	-9,015	0,059	-0,028
-581,050	-81,516	0,100	0,024
-580,036	92,256	0,027	0,022
-579,021	-200,000	0,012	-0,126
-578,006	-186,267	-0,089	-0,001
-576,992	424,986	-0,070	0,110
-575,977	292,394	0,042	0,055
-574,963	106,224	0,069	0,060
-573,948	-41,482	0,044	0,016
-572,934	-151,480	0,131	-0,007
-571,919	800,000	-0,066	-0,138
-570,904	-21,062	0,097	0,043
-569,890	518,805	-0,051	-0,086
-568,875	-27,231	0,164	0,069
-567,861	-59,420	-0,071	-0,022
-566,846	800,000	0,042	0,103
-565,831	-140,229	0,027	-0,002
-564,817	-32,364	-0,066	-0,026
-563,802	158,396	-0,073	-0,073
-562,788	-17,582	0,042	-0,019
-561,773	-200,000	0,004	0,061
-560,758	62,658	0,101	-0,073
-559,744	-123,497	0,112	-0,013
-558,729	-39,495	0,034	0,013
-557,715	316,357	-0,128	0,175
-556,700	349,485	0,064	-0,092
-555,685	17,440	-0,057	-0,033
-554,671	128,210	-0,048	0,044
-553,656	-80,581	-0,038	-0,009
-552,642	135,853	-0,026	0,025
-551,627	-84,593	0,037	-0,008
-550,612	-200,000	0,001	0,090
-549,598	-31,623	-0,091	0,037
-548,583	-154,252	-0,056	0,003
-547,569	800,000	0,062	-0,130
-546,554	-200,000	0,012	0,085
-545,539	35,598	-0,010	-0,006
-544,525	-200,000	-0,008	0,055
-543,510	800,000	-0,064	-0,162
-542,496	-136,596	-0,112	-0,009
-541,481	-200,000	0,027	-0,167
-540,466	395,215	-0,052	-0,079
-539,452	199,245	0,045	-0,050
-538,437	-106,538	0,102	-0,016
-537,423	85,986	-0,057	0,045
-536,408	546,994	0,040	-0,070
-535,393	-33,001	-0,128	-0,051
-534,379	285,124	-0,017	0,022
-533,364	-5,226	-0,048	-0,024
-532,350	22,205	-0,073	0,043
-531,335	82,129	-0,029	-0,023
-530,321	-86,089	0,045	0,010
-529,306	-200,000	-0,021	-0,092
-528,291	800,000	0,012	-0,036
-527,277	425,697	0,023	-0,036
-526,262	39,947	0,086	-0,055
-525,248	-166,394	0,103	-0,003
-524,233	800,000	0,024	-0,077
-523,218	-200,000	0,005	-0,045
-522,204	-2,897	-0,011	0,006
-521,189	360,404	-0,026	0,038
-520,175	-24,415	-0,069	-0,030
-519,160	-145,140	-0,011	-0,001
-518,145	800,000	-0,028	-0,063
-517,131	-156,982	0,198	-0,009
-516,116	-200,000	0,009	-0,051
-515,102	758,109	0,024	-0,048
-514,087	-29,208	-0,066	0,027
-513,072	314,780	-0,071	-0,097
-512,058	421,400	0,049	-0,077
-511,043	-49,210	0,110	-0,038
-510,029	179,608	0,021	0,022
-509,014	0,009	0,106	0,054
-507,999	-94,964	0,053	-0,010
-506,985	800,000	-0,026	-0,053
-505,970	187,214	-0,122	-0,132
-504,956	-116,575	-0,162	-0,021
-503,941	-200,000	0,003	-0,046
-502,926	-200,000	0,000	0,044
-501,912	306,199	0,024	-0,032
-500,897	-78,329	0,114	-0,028
-499,883	800,000	-0,066	-0,166
-498,868	61,400	-0,057	0,041
-497,853	-200,000	0,002	-0,065
-496,839	-0,869	-0,063	0,032
-495,824	368,700	0,070	0,103
-494,810	-37,903	0,069	0,026
-493,795	240,635	-0,049	0,059
-492,781	-200,000	-0,006	-0,066
-491,766	-21,873	-0,136	-0,059
-490,751	-42,679	-0,070	0,025
-489,737	-200,000	-0,008	0,044
-488,722	87,576	0,017	0,014
-487,708	-5,965	-0,056	0,027
-486,693	-35,951	0,090	-0,035
-485,678	-113,586	-0,055	0,008
-484,664	247,187	-0,030	0,036
-483,649	-200,000	-0,029	0,141
-482,635	-71,535	-0,105	0,028
-481,620	-200,000	-0,004	-0,016
-480,605	-118,943	0,135	-0,017
-479,591	440,078	0,054	0,086
-478,576	695,244	0,045	0,085
-477,562	-51,917	0,110	-0,037
-476,547	-200,000	-0,006	0,060
-475,532	-75,375	0,119	-0,030
-474,518	-43,220	-0,099	0,036
-473,503	-91,503	-0,021	-0,004
-472,489	466,900	0,058	-0,094
-471,474	-200,000	-0,007	-0,031
-470,459	-200,000	0,006	0,050
-469,445	413,102	-0,060	-0,092
-468,430	218,608	0,158	-0,183
-467,416	129,008	-0,099	0,091
-466,401	-154,116	0,118	0,006
-465,386	-2,634	0,044	-0,022
-464,372	800,000	-0,025	-0,051
-463,357	-200,000	0,005	-0,045
-462,343	184,559	-0,080	0,086
-461,328	800,000	0,059	-0,121
-460,313	-104,229	0,161	0,027
-459,299	-81,410	0,108	0,025
-458,284	632,058	0,007	0,012
-457,270	345,845	0,019	0,028
-456,255	178,504	-0,094	0,099
-455,241	5,126	-0,036	0,019
-454,226	-161,258	0,090	0,003
-453,211	-56,341	-0,257	0,082
-452,197	387,290	0,056	0,083
-451,182	-193,375	0,083	0,001
-450,168	-16,438	-0,060	-0,027
-449,153	-200,000	0,006	0,059
-448,138	-200,000	-0,012	-0,045
-447,124	-132,141	-0,113	0,010
-446,109	14,692	0,080	-0,045
-445,095	346,257	0,093	-0,132
-444,080	640,020	0,075	0,137
-443,065	71,376	-0,082	0,062
-442,051	596,527	-0,034	0,062
-441,036	-43,774	0,073	-0,026
-440,022	228,302	-0,040	0,047
-439,007	-200,000	-0,023	-0,078
-437,992	32,472	0,035	0,022
-436,978	236,956	-0,018	0,021
-435,963	-200,000	-0,019	-0,153
-434,949	-143,765	-0,123	0,008
-433,934	126,329	-0,111	0,101
-432,919	-200,000	-0,007	-0,110
-431,905	-93,382	-0,141	-0,028
-430,890	643,793	0,047	0,087
-429,876	509,460	0,057	-0,096
-428,861	-8,173	0,038	0,018
-427,846	-200,000	-0,016	-0,060
-426,832	800,000	-0,046	-0,122
-425,817	337,115	0,060	-0,084
-424,803	-200,000	0,013	-0,069
-423,788	227,423	0,043	-0,051
-422,773	-4,274	0,089	0,044
-421,759	800,000	0,038	0,088
-420,744	162,480	-0,062	0,063
-419,730	104,182	0,051	-0,043
-418,715	800,000	0,015	0,036
-417,701	14,415	-0,172	0,096
-416,686	-144,695	0,074	0,005
-415,671	-47,338	0,166	-0,058
-414,657	800,000	0,015	-0,033
-413,642	362,420	-0,066	0,095
-412,628	-200,000	0,001	-0,084
-411,613	-172,517	-0,022	0,000
-410,598	-7,253	-0,058	-0,028
-409,584	-19,348	-0,054	-0,024
-408,569	310,019	-0,031	-0,042
-407,555	-200,000	-0,032	-0,177
-406,540	800,000	-0,046	0,094
-405,525	164,383	-0,062	-0,062
-404,511	-75,318	-0,147	-0,037
-403,496	-63,608	-0,088	-0,026
-402,482	167,194	0,022	0,022
-401,467	143,000	-0,041	-0,040
-400,452	-200,000	-0,012	0,043
-399,438	-59,929	0,096	0,029
-398,423	-109,871	0,037	0,006
-397,409	-71,976	-0,062	-0,016
-396,394	-200,000	0,013	-0,055
-395,379	-65,893	-0,061	0,017
-394,365	-200,000	0,017	-0,109
-393,350	88,537	0,018	-0,014
-392,336	800,000	0,024	-0,047
-391,321	800,000	-0,019	-0,048
-390,306	-132,725	-0,130	-0,012
-389,292	82,117	-0,089	-0,069
-388,277	24,786	0,113	-0,067
-387,263	-115,583	0,088	-0,012
-386,248	800,000	-0,024	0,052
-385,233	309,661	0,148	0,200
-384,219	166,481	-0,075	-0,077
-383,204	-37,544	-0,058	-0,022
-382,190	17,067	0,132	-0,075
-381,175	395,141	-0,022	0,033
-380,160	-3,835	0,162	-0,081
-379,146	-25,253	0,083	0,035
-378,131	-200,000	0,012	0,155
-377,117	121,285	0,066	0,059
-376,102	508,800	0,023	-0,039
-375,088	172,544	-0,106	-0,110
-374,073	-8,292	0,050	0,024
-373,058	-200,000	0,020	0,166
-372,044	-137,161	0,191	0,015
-371,029	-0,719	0,037	0,019
-370,015	-142,825	0,123	0,008
-369,000	692,866	0,050	0,095
-367,985	-35,239	-0,126	0,049
-366,971	22,751	-0,023	-0,013
-365,956	316,442	0,069	0,094
-364,942	58,248	0,177	-0,124
-363,927	82,993	0,149	0,116
-362,912	29,608	0,094	0,057
-361,898	-49,316	-0,102	0,035
-360,883	-200,000	-0,015	-0,087
-359,869	-18,446	0,062	0,028
-358,854	141,105	0,014	0,013
-357,839	191,013	-0,016	0,017
-356,825	800,000	0,037	-0,092
-355,810	104,401	0,074	0,063
-354,796	-117,768	-0,064	-0,008
-353,781	149,746	-0,066	0,064
-352,766	302,215	-0,072	-0,096
-351,752	86,549	0,082	-0,065
-350,737	93,239	0,087	0,070
-349,723	-200,000	0,012	0,064
-348,708	-200,000	0,014	0,090
-347,693	800,000	-0,032	0,078
-346,679	-200,000	0,040	-0,167
-345,664	621,473	0,066	-0,119
-344,650	6,026	-0,054	-0,028
-343,635	800,000	0,048	0,143
-342,620	-116,911	-0,107	0,014
-341,606	-67,291	-0,053	0,015
-340,591	-3,220	-0,025	0,013
-339,577	761,486	0,059	-0,115
-338,562	-200,000	-0,004	-0,145
-337,548	-158,348	0,004	0,000
-336,533	-32,749	0,231	0,092
-335,518	-200,000	-0,011	0,128
-334,504	800,000	-0,094	0,217
-333,489	61,437	-0,031	0,022
-332,475	46,432	-0,025	-0,016
-331,460	269,389	0,057	-0,071
-330,445	-200,000	0,022	-0,091
-329,431	92,378	0,033	-0,027
-328,416	39,460	-0,025	-0,016
-327,402	-200,000	-0,012	0,137
-326,387	-200,000	0,033	0,170
-325,372	800,000	-0,011	-0,031
-324,358	-200,000	-0,022	-0,112
-323,343	79,974	-0,062	0,048
-322,329	-200,000	-0,002	-0,008
-321,314	52,026	0,152	-0,103
-320,299	428,823	-0,044	0,068
-319,285	-125,832	0,055	-0,006
-318,270	-136,675	-0,083	0,007
-317,256	402,534	0,057	0,086
-316,241	800,000	-0,069	-0,163
-315,226	-100,438	0,070	0,012
-314,212	800,000	-0,019	0,054
-313,197	38,029	0,179	0,114
-312,183	-200,000	-0,026	0,096
-311,168	2,482	-0,062	-0,032
-310,153	105,089	0,067	0,057
-309,139	-86,216	-0,132	0,029
-308,124	-200,000	0,006	-0,085
-307,110	800,000	-0,014	-0,031
-306,095	-169,253	-0,064	-0,002
-305,080	-200,000	-0,009	0,206
-304,066	244,341	-0,062	-0,075
-303,051	271,661	-0,042	0,054
-302,037	-200,000	0,029	-0,157
-301,022	800,000	-0,022	-0,047
-300,008	53,150	0,072	0,049
-298,993	-106,396	0,069	-0,011
-297,978	-53,726	0,159	0,052
-296,964	-65,788	-0,130	0,037
-295,949	-3,114	-0,098	0,049
-294,935	-64,480	-0,190	-0,055
-293,920	2,466	0,151	0,078
-292,905	-200,000	-0,011	0,080
-291,891	-105,458	-0,037	0,006
-290,876	-114,950	-0,116	0,016
-289,862	172,664	-0,094	0,097
-288,847	-31,863	-0,108	0,043
-287,832	-131,846	0,084	0,008
-286,818	327,633	0,046	-0,063
-285,803	242,787	0,062	0,074
-284,789	-43,927	0,151	0,054
-283,774	-50,310	0,082	-0,028
-282,759	-164,343	0,174	0,006
-281,745	309,427	-0,075	-0,101
-280,730	800,000	0,030	-0,093
-279,716	167,557	0,044	-0,044
-278,701	6,210	0,050	-0,027
-277,686	800,000	-0,023	0,045
-276,672	-154,779	0,103	-0,005
-275,657	-136,243	-0,053	-0,004
-274,643	162,160	-0,074	-0,074
-273,628	-200,000	-0,012	0,075
-272,613	159,084	-0,083	-0,082
-271,599	-200,000	0,027	0,153
-270,584	439,271	-0,069	0,108
-269,570	-200,000	0,008	0,129
-268,555	267,307	-0,031	0,039
-267,540	21,564	-0,020	-0,012
-266,526	120,515	0,045	-0,040
-265,511	-200,000	0,002	0,009
-264,497	147,882	-0,042	-0,040
-263,482	-200,000	-0,016	0,097
-262,467	41,283	-0,028	0,018
-261,453	-167,430	0,101	-0,003
-260,438	-28,055	0,056	0,023
-259,424	-200,000	-0,001	-0,029
-258,409	250,066	-0,065	-0,079
-257,395	800,000	-0,008	0,017
-256,380	800,000	-0,045	0,116
-255,365	219,077	0,051	0,058
-254,351	-171,960	0,058	-0,001
-253,336	-115,224	-0,147	-0,020
-252,322	800,000	-0,073	-0,166
-251,307	431,543	-0,046	-0,072
-250,292	800,000	0,031	-0,073
-249,278	-200,000	-0,003	-0,017
-248,263	67,938	0,056	-0,041
-247,249	402,129	0,031	0,046
-246,234	800,000	-0,047	0,098
-245,219	235,412	-0,016	0,019
-244,205	378,045	-0,070	-0,102
-243,190	51,804	0,120	0,082
-242,176	-123,463	-0,233	-0,026
-241,161	713,837	-0,058	0,111
-240,146	-134,371	-0,016	0,001
-239,132	-105,271	-0,162	0,026
-238,117	85,029	-0,034	-0,026
-237,103	10,680	0,085	-0,046
-236,088	457,100	-0,089	-0,142
-235,073	-149,016	0,066	-0,004
-234,059	57,670	-0,056	0,039
-233,044	5,375	0,113	0,059
-232,030	800,000	-0,032	-0,098
-231,015	-34,507	-0,078	-0,030
-230,000	422,067	-0,067	-0,103
-228,986	340,538	-0,073	0,102
-227,971	-10,325	-0,062	-0,029
-226,957	-42,218	0,146	0,053
-225,942	-55,028	0,118	0,038
-224,927	-200,000	0,007	-0,086
-223,913	-78,732	0,075	0,018
-222,898	94,597	-0,159	-0,129
-221,884	155,398	0,046	-0,045
-220,869	-16,816	-0,008	0,004
-219,855	155,348	-0,046	0,045
-218,840	-76,357	0,141	0,035
-217,825	-200,000	-0,014	-0,105
-216,811	-200,000	0,006	-0,024
-215,796	800,000	0,020	-0,041
-214,782	646,602	-0,052	0,095
-213,767	-200,000	-0,001	0,072
-212,752	800,000	0,060	0,163
-211,738	-200,000	0,020	0,132
-210,723	-60,589	-0,124	-0,037
-209,709	800,000	-0,033	-0,071
-208,694	305,119	-0,041	-0,055
-207,679	800,000	-0,016	0,049
-206,665	-200,000	-0,032	-0,107
-205,650	-20,415	0,111	-0,049
-204,636	800,000	0,045	-0,093
-203,621	151,676	-0,036	0,035
-202,606	328,900	-0,054	0,075
-201,592	360,375	0,056	-0,080
-200,577	-68,839	-0,025	-0,007
-199,563	61,921	0,076	-0,054
-198,548	-200,000	0,001	0,092
-197,533	157,689	0,083	0,082
-196,519	-130,450	0,097	-0,009
-195,504	-148,485	0,016	0,001
-194,490	625,082	0,076	-0,138
-193,475	11,959	-0,140	0,077
-192,460	-63,005	0,008	-0,002
-191,446	41,778	0,094	0,061
-190,431	800,000	-0,052	-0,141
-189,417	773,111	0,057	-0,112
-188,402	256,429	-0,113	-0,138
-187,387	-33,854	-0,063	0,024
-186,373	-200,000	0,023	0,099
-185,358	-56,342	-0,043	-0,013
-184,344	-200,000	0,021	0,077
-183,329	-200,000	0,051	0,178
-182,315	-53,509	0,120	-0,039
-181,300	-200,000	0,015	-0,099
-180,285	800,000	0,062	0,131
-179,271	-200,000	0,018	-0,061
-178,256	457,291	-0,052	-0,083
-177,242	99,047	0,065	0,053
-176,227	93,357	-0,042	-0,034
-175,212	68,781	0,095	0,070
-174,198	498,911	0,045	0,074
-173,183	167,874	0,037	-0,038
-172,169	-100,788	-0,099	-0,017
-171,154	-200,000	-0,017	-0,059
-170,139	334,248	-0,056	-0,077
-169,125	-200,000	0,008	-0,053
-168,110	-94,956	0,157	0,030
-167,096	169,703	-0,045	0,045
-166,081	-108,204	0,027	0,004
-165,066	-200,000	0,021	0,081
-164,052	149,895	-0,057	-0,055
-163,037	-20,616	0,094	0,041
-162,023	-200,000	0,001	0,102
-161,008	101,783	0,072	0,060
-159,993	-68,479	0,100	0,027
-158,979	-126,670	-0,105	-0,011
-157,964	-200,000	-0,016	0,168
-156,950	-45,723	-0,100	-0,035
-155,935	-112,996	0,049	-0,007
-154,920	122,898	-0,080	-0,072
-153,906	-200,000	-0,021	0,174
-152,891	-54,058	-0,064	-0,021
-151,877	264,151	-0,041	0,051
-150,862	-62,639	0,064	0,019
-149,847	46,282	0,037	-0,024
-148,833	-5,502	0,127	-0,062
-147,818	-200,000	0,024	-0,100
-146,804	77,982	-0,039	0,030
-145,789	-200,000	0,010	0,092
-144,775	-200,000	-0,008	-0,085
-143,760	800,000	-0,055	-0,173
-142,745	-200,000	0,011	-0,138
-141,731	-13,940	0,033	-0,015
-140,716	800,000	0,041	0,087
-139,702	335,005	0,012	0,017
-138,687	204,193	0,051	-0,056
-137,672	131,645	-0,063	-0,058
-136,658	-33,502	-0,040	0,016
-135,643	-200,000	0,001	-0,123
-134,629	-62,717	-0,070	0,020
-133,614	-77,189	-0,051	0,012
-132,599	-0,055	0,130	-0,066
-131,585	-200,000	-0,005	0,061
-130,570	21,877	-0,084	-0,049
-129,556	-200,000	0,030	0,149
-128,541	-200,000	0,033	-0,117
-127,526	-122,117	-0,062	-0,007
-126,512	-200,000	0,003	0,014
-125,497	-200,000	0,004	-0,071
-124,483	-200,000	0,038	-0,184
-123,468	-200,000	0,005	0,051
-122,453	538,540	0,037	-0,063
-121,439	25,757	-0,137	0,081
-120,424	800,000	0,075	-0,201
-119,410	-37,452	-0,060	-0,023
-118,395	-37,980	0,095	0,036
-117,380	800,000	0,031	-0,074
-116,366	96,404	0,105	0,085
-115,351	-29,601	-0,134	0,054
-114,337	-200,000	0,000	-0,087
-113,322	459,490	0,042	-0,067
-112,307	-200,000	0,014	0,101
-111,293	191,683	-0,109	0,117
-110,278	602,767	-0,071	0,126
-109,264	-161,101	0,076	0,003
-108,249	-200,000	-0,024	-0,079
-107,234	204,743	-0,018	-0,020
-106,220	-14,142	-0,059	0,027
-105,205	20,798	0,077	0,044
-104,191	69,169	0,132	-0,096
-103,176	-6,597	0,078	-0,037
-102,162	-98,269	0,027	0,005
-101,147	-27,659	0,134	0,055
-100,132	169,164	-0,032	-0,033
-99,118	-200,000	-0,010	-0,108
-98,103	-33,388	-0,059	0,023
-97,089	82,524	0,043	-0,033
-96,074	298,905	0,067	-0,087
-95,059	82,624	0,069	0,053
-94,045	-84,035	-0,128	0,029
-93,030	-200,000	-0,004	0,015
-92,016	-200,000	-0,000	-0,103
-91,001	800,000	-0,075	-0,160
-89,986	-20,902	0,103	-0,045
-88,972	-114,550	0,100	-0,013
-87,957	131,098	-0,072	0,065
-86,943	589,101	-0,073	0,128
-85,928	-200,000	-0,047	-0,150
-84,913	-31,242	-0,050	0,020
-83,899	492,282	0,031	-0,051
-82,884	409,546	-0,045	-0,068
-81,870	-200,000	0,000	0,060
-80,855	-110,898	0,076	-0,011
-79,840	-89,687	-0,118	-0,024
-78,826	-24,416	-0,102	-0,043
-77,811	-71,856	0,056	-0,015
-76,797	-200,000	-0,034	-0,159
-75,782	345,065	-0,020	-0,029
-74,767	-50,445	0,128	0,043
-73,753	-130,985	0,110	-0,010
-72,738	-200,000	-0,001	0,030
-71,724	-200,000	0,018	-0,077
-70,709	-200,000	0,004	-0,037
-69,694	81,049	0,023	-0,018
-68,680	-128,016	-0,101	0,010
-67,665	795,243	0,045	0,088
-66,651	-24,603	0,199	0,084
-65,636	70,593	0,068	-0,050
-64,622	58,870	-0,111	0,077
-63,607	-200,000	-0,015	0,095
-62,592	800,000	-0,078	-0,176
-61,578	-6,938	0,099	-0,047
-60,563	271,411	0,105	0,131
-59,549	159,082	-0,111	0,109
-58,534	-79,715	-1,350	-0,320
-57,519	328,176	-1,624	-2,218
-56,505	-200,000	-0,439	-4,427
-55,490	162,044	0,878	0,874
-54,476	800,000	4,796	11,270
-53,461	-200,000	17,803	284,293
-52,446	800,000	721,135	2232,878
-51,432	565,368	1636,141	2825,782
-50,417	80,984	1659,908	1269,829
-49,403	23,730	1533,900	894,085
-48,388	17,676	1457,217	820,139
-47,373	18,270	1446,654	817,017
-46,359	17,812	1437,278	809,502
-45,344	15,951	1432,772	798,072
-44,330	15,915	1430,750	796,742
-43,315	15,912	1429,027	795,735
-42,300	15,896	1427,525	794,790
-41,286	15,991	1426,287	794,521
-40,271	15,954	1424,875	793,530
-39,257	15,934	1423,687	792,740
-38,242	16,022	1422,054	792,214
-37,227	16,006	1420,882	791,455
-36,213	15,915	1419,975	790,488
-35,198	15,916	1418,705	789,757
-34,184	16,000	1417,499	789,448
-33,169	15,901	1416,561	788,429
-32,154	15,990	1415,296	788,111
-31,140	15,966	1414,049	787,275
-30,125	15,976	1412,886	786,639
-29,111	15,997	1411,698	786,047
-28,096	15,981	1410,716	785,396
-27,082	15,898	1409,497	784,296
-26,067	15,860	1408,489	783,525
-25,052	15,920	1407,459	783,204
-24,038	15,862	1406,549	782,394
-23,023	15,854	1405,527	781,756
-22,009	15,867	1404,463	781,192
-20,994	15,803	1403,637	780,405
-19,979	15,814	1402,556	779,826
-18,965	15,808	1401,601	779,235
-17,950	15,779	1400,660	778,544
-16,936	15,878	1399,389	778,267
-15,921	15,781	1398,489	777,287
-14,906	15,780	1397,500	776,701
-13,892	15,811	1396,664	776,349
-12,877	15,745	1395,747	775,502
-11,863	15,769	1394,796	775,058
-10,848	15,760	1393,862	774,465
-9,833	15,788	1392,914	774,034
-8,819	15,688	1391,965	773,017
-7,804	15,728	1391,104	772,691
-6,790	15,699	1389,944	771,883
-5,775	15,657	1388,864	771,060
-4,760	15,660	1388,434	770,804
-3,746	15,679	1387,446	770,313
-2,731	15,621	1386,675	769,587
-1,717	15,613	1385,627	768,939
-0,702	15,652	1383,810	768,077
0,313	19,469	1304,222	741,528
1,327	35,799	707,024	439,879
2,342	54,842	125,276	85,599
3,356	4,342	16,640	8,618
4,371	12,054	3,055	1,661
5,386	40,287	0,472	0,300
6,400	-200,000	0,027	0,181
7,415	126,809	-0,204	-0,183
8,429	276,831	-0,172	-0,217
9,444	123,162	-0,314	-0,279
10,459	-26,262	-0,328	-0,136
11,473	29,952	-0,306	-0,184
12,488	14,525	-0,236	-0,130
13,502	27,209	-0,307	-0,182
14,517	-55,585	-0,392	-0,123
15,531	13,203	-0,417	-0,228
16,546	6,894	-0,341	-0,180
17,561	68,162	-0,370	-0,268
18,575	342,570	-0,043	-0,059
19,590	225,143	-0,283	-0,325
20,604	-42,326	-0,233	-0,084
21,619	133,906	-0,449	-0,411
22,634	89,758	-0,457	-0,361
23,648	139,824	-0,479	-0,447
24,663	64,640	-0,524	-0,373
25,677	420,626	-0,223	-0,339
26,692	13,127	-0,356	-0,195
27,707	-89,740	-0,299	-0,061
28,721	39,168	-0,453	-0,286
29,736	116,735	-0,385	-0,334
30,750	29,679	-0,416	-0,250
31,765	36,109	-0,598	-0,372
32,780	87,172	-0,440	-0,344
33,794	6,110	-0,312	-0,163
34,809	16,893	-0,320	-0,178
35,823	20,124	-0,282	-0,161
36,838	101,683	-0,334	-0,275
37,853	0,855	-0,321	-0,162
38,867	72,070	-0,385	-0,283
39,882	68,563	-0,321	-0,232
40,896	3,103	-0,366	-0,188
41,911	113,648	-0,318	-0,273
42,926	100,649	-0,271	-0,222
43,940	-15,657	-0,387	-0,173
44,955	181,102	-0,416	-0,432
45,969	96,717	-0,343	-0,277
46,984	109,988	-0,276	-0,234
47,999	579,860	-0,200	-0,347
49,013	83,222	-0,390	-0,300
50,028	-47,950	-0,271	-0,092
51,042	225,071	-0,245	-0,280
52,057	133,359	-0,364	-0,332
53,071	-15,473	-0,347	-0,156
54,086	39,182	-0,285	-0,179
55,101	-147,997	-0,238	-0,014
56,115	-9,282	-0,296	-0,139
57,130	451,651	-0,203	-0,317
58,144	76,143	-0,424	-0,316
59,159	188,724	-0,326	-0,345
60,174	174,440	-0,313	-0,320
61,188	91,809	-0,372	-0,295
62,203	172,034	-0,336	-0,341
63,217	390,271	-0,238	-0,349
64,232	148,913	-0,284	-0,271
65,247	229,286	-0,339	-0,391
66,261	73,127	-0,256	-0,188
67,276	87,235	-0,343	-0,267
68,290	249,768	-0,284	-0,341
69,305	179,836	-0,340	-0,352
70,320	53,103	-0,386	-0,260
71,334	43,878	-0,439	-0,283
72,349	145,352	-0,251	-0,237
73,363	446,204	-0,260	-0,404
74,378	285,340	-0,218	-0,277
75,393	78,635	-0,321	-0,241
76,407	81,050	-0,286	-0,218
77,422	100,971	-0,332	-0,272
78,436	-69,867	-0,420	-0,112
79,451	42,003	-0,379	-0,242
80,466	-42,883	-0,359	-0,128
81,480	15,120	-0,365	-0,201
82,495	76,753	-0,396	-0,295
83,509	66,283	-0,260	-0,186
84,524	333,394	-0,139	-0,190
85,539	63,187	-0,229	-0,161
86,553	-151,650	-0,250	-0,013
87,568	184,371	-0,308	-0,321
88,582	-64,552	-0,407	-0,116
89,597	-5,658	-0,343	-0,165
90,611	-17,640	-0,447	-0,197
91,626	114,853	-0,267	-0,229
92,641	210,271	-0,201	-0,222
93,655	148,720	-0,302	-0,287
94,670	156,915	-0,244	-0,237
95,684	-66,692	-0,301	-0,083
96,699	56,022	-0,324	-0,221
97,714	99,188	-0,280	-0,227
98,728	-119,244	-0,372	-0,045
99,743	-19,750	-0,200	-0,087
100,757	-35,272	-0,327	-0,124
101,772	107,155	-0,418	-0,349
102,787	-4,966	-0,320	-0,154
103,801	73,142	-0,271	-0,199
104,816	335,283	-0,197	-0,269
105,830	-51,218	-0,329	-0,108
106,845	184,932	-0,183	-0,191
107,860	-43,220	-0,284	-0,101
108,874	238,984	-0,211	-0,247
109,889	348,211	-0,198	-0,275
110,903	-13,285	-0,301	-0,137
111,918	153,364	-0,201	-0,193
112,933	-132,295	-0,199	-0,018
113,947	-50,482	-0,162	-0,053
114,962	183,158	-0,182	-0,189
115,976	30,423	-0,288	-0,172
116,991	-6,549	-0,244	-0,116
118,006	50,625	-0,310	-0,205
119,020	300,966	-0,260	-0,338
120,035	124,011	-0,155	-0,137
121,049	13,759	-0,233	-0,127
122,064	245,948	-0,116	-0,137
123,079	-50,428	-0,430	-0,142
124,093	-1,078	-0,333	-0,165
125,108	304,701	-0,187	-0,244
126,122	228,146	-0,210	-0,240
127,137	800,000	-0,104	-0,236
128,151	54,009	-0,363	-0,244
129,166	-10,502	-0,190	-0,088
130,181	800,000	-0,150	-0,311
131,195	-92,337	-0,454	-0,089
132,210	14,724	-0,302	-0,165
133,224	175,295	-0,258	-0,262
134,239	315,257	-0,210	-0,278
135,254	-145,565	-0,312	0,019
136,268	-68,196	-0,327	-0,089
137,283	93,968	-0,155	-0,123
138,297	800,000	-0,149	-0,310
139,312	70,512	-0,305	-0,221
140,327	6,273	-0,334	-0,173
141,341	44,761	-0,295	-0,190
142,356	64,088	-0,177	-0,125
143,370	-172,743	-0,208	-0,004
144,385	-41,984	-0,274	-0,098
145,400	-58,909	-0,324	-0,098
146,414	51,038	-0,259	-0,172
147,429	800,000	-0,110	-0,227
148,443	-39,562	-0,286	-0,104
149,458	-78,310	-0,192	-0,046
150,473	15,396	-0,311	-0,170
151,487	-42,971	-0,250	-0,088
152,502	562,768	-0,141	-0,241
153,516	65,775	-0,296	-0,209
154,531	8,667	-0,356	-0,187
155,546	32,042	-0,191	-0,115
156,560	3,685	-0,121	-0,062
157,575	800,000	-0,060	-0,164
158,589	118,787	-0,212	-0,183
159,604	418,522	-0,169	-0,254
160,619	279,067	-0,200	-0,250
161,633	43,626	-0,346	-0,221
162,648	795,549	-0,121	-0,235
163,662	112,824	-0,137	-0,116
164,677	-33,877	-0,341	-0,131
165,692	22,977	-0,182	-0,104
166,706	99,176	-0,211	-0,171
167,721	404,425	-0,191	-0,282
168,735	289,331	-0,267	-0,340
169,750	241,239	-0,214	-0,250
170,764	32,482	-0,257	-0,155
171,779	-153,240	-0,262	-0,013
172,794	82,685	-0,299	-0,227
173,808	10,713	-0,199	-0,106
174,823	15,772	-0,156	-0,085
175,837	48,802	-0,237	-0,155
176,852	-104,482	-0,280	-0,045
177,867	84,926	-0,101	-0,077
178,881	-97,593	-0,194	0,035
179,896	2,605	-0,204	-0,103
180,910	226,002	-0,291	-0,329
181,925	-80,236	-0,260	-0,060
182,940	-30,597	-0,316	-0,124
183,954	256,825	-0,061	-0,074
184,969	67,296	-0,246	-0,175
185,983	215,377	-0,147	-0,163
186,998	253,283	-0,144	-0,172
188,013	171,000	-0,208	-0,208
189,027	79,263	-0,221	-0,165
190,042	63,074	-0,233	-0,162
191,056	254,043	-0,207	-0,247
192,071	678,296	-0,105	-0,191
193,086	131,145	-0,176	-0,157
194,100	76,890	-0,234	-0,173
195,115	65,109	-0,157	-0,110
196,129	-85,080	-0,240	-0,052
197,144	-14,061	-0,274	-0,123
198,159	8,695	-0,304	-0,159
199,173	43,112	-0,214	-0,136
200,188	-200,000	0,018	-0,104
201,202	486,836	-0,146	-0,232
202,217	132,686	-0,087	-0,078
203,232	248,735	-0,177	-0,209
204,246	-14,713	-0,275	-0,122
205,261	800,000	-0,121	-0,239
206,275	-106,160	-0,191	-0,030
207,290	514,810	-0,158	-0,257
208,304	-35,387	-0,249	-0,094
209,319	137,302	-0,091	-0,082
210,334	159,580	-0,181	-0,175
211,348	22,839	-0,276	-0,157
212,363	43,523	-0,285	-0,181
213,377	42,823	-0,239	-0,151
214,392	-80,458	-0,197	-0,045
215,407	69,351	-0,300	-0,215
216,421	39,976	-0,185	-0,115
217,436	183,857	-0,152	-0,157
218,450	187,591	-0,215	-0,224
219,465	33,254	-0,279	-0,168
220,480	8,548	-0,239	-0,125
221,494	219,358	0,062	-0,069
222,509	-188,966	-0,300	0,002
223,523	212,539	-0,092	-0,101
224,538	471,677	-0,110	-0,172
225,553	119,501	-0,236	-0,204
226,567	178,784	-0,143	-0,145
227,582	800,000	-0,141	-0,329
228,596	22,157	-0,297	-0,168
229,611	524,603	-0,135	-0,221
230,626	-98,093	-0,239	-0,042
231,640	800,000	-0,050	-0,137
232,655	64,008	-0,154	-0,107
233,669	11,319	-0,241	-0,128
234,684	329,995	-0,236	-0,316
235,699	-30,180	-0,177	-0,070
236,713	-105,610	-0,057	0,009
237,728	96,886	-0,154	-0,123
238,742	-93,454	-0,248	-0,047
239,757	138,898	-0,211	-0,193
240,772	74,655	-0,212	-0,155
241,786	73,980	-0,191	-0,139
242,801	473,664	-0,097	-0,153
243,815	192,456	-0,130	-0,137
244,830	-24,630	-0,242	-0,099
245,844	-102,299	-0,128	-0,021
246,859	316,176	-0,115	-0,150
247,874	145,251	-0,199	-0,185
248,888	36,734	-0,286	-0,175
249,903	208,301	-0,277	-0,301
250,917	-200,000	-0,042	-0,184
251,932	470,418	-0,089	-0,139
252,947	104,957	-0,197	-0,161
253,961	800,000	-0,082	-0,176
254,976	630,635	-0,150	-0,265
255,990	315,714	-0,106	-0,138
257,005	164,346	-0,201	-0,197
258,020	800,000	-0,094	-0,233
259,034	170,923	-0,091	-0,091
260,049	94,029	-0,120	-0,094
261,063	-51,649	-0,153	-0,049
262,078	258,100	-0,202	-0,241
263,093	87,257	-0,202	-0,154
264,107	63,954	-0,193	-0,134
265,122	27,924	-0,238	-0,138
266,136	217,184	-0,075	-0,083
267,151	-14,371	-0,205	-0,091
268,166	148,797	-0,207	-0,194
269,180	249,184	-0,116	-0,136
270,195	155,217	-0,215	-0,205
271,209	2,025	-0,168	-0,084
272,224	279,839	-0,147	-0,183
273,239	220,391	-0,130	-0,145
274,253	-126,758	-0,107	-0,011
275,268	-10,540	-0,094	-0,043
276,282	43,695	-0,169	-0,107
277,297	460,617	-0,084	-0,129
278,312	-20,983	-0,113	-0,048
279,326	498,607	-0,081	-0,130
280,341	98,220	-0,148	-0,118
281,355	314,637	-0,107	-0,140
282,370	90,641	-0,152	-0,118
283,384	626,623	-0,127	-0,223
284,399	-200,000	-0,059	-0,206
285,414	-38,049	-0,212	-0,077
286,428	140,472	-0,182	-0,166
287,443	31,104	-0,089	0,053
288,457	-15,088	-0,079	-0,035
289,472	16,877	-0,146	-0,080
290,487	800,000	-0,114	-0,226
291,501	12,504	-0,265	-0,141
292,516	-32,160	-0,212	-0,082
293,530	66,650	-0,114	-0,080
294,545	223,512	-0,132	-0,147
295,560	-5,472	-0,078	-0,037
296,574	-55,314	-0,263	-0,081
297,589	800,000	-0,074	0,149
298,603	266,386	-0,168	-0,203
299,618	72,726	-0,151	-0,109
300,633	800,000	-0,117	-0,287
301,647	100,538	-0,037	-0,029
302,662	221,975	-0,165	-0,183
303,676	-200,000	0,019	-0,066
304,691	29,544	-0,172	-0,101
305,706	-21,155	-0,215	-0,091
306,720	80,230	-0,198	-0,147
307,735	-2,830	-0,101	-0,049
308,749	91,002	-0,122	-0,094
309,764	-43,586	-0,125	-0,043
310,779	451,687	-0,156	-0,239
311,793	800,000	0,063	-0,128
312,808	-200,000	-0,041	-0,153
313,822	-57,253	-0,121	-0,037
314,837	0,658	-0,091	-0,045
315,852	315,184	-0,075	-0,098
316,866	6,198	-0,084	-0,043
317,881	800,000	-0,039	-0,116
318,895	303,724	-0,118	-0,151
319,910	235,707	-0,097	-0,110
320,925	209,174	-0,181	-0,195
321,939	21,466	-0,125	-0,070
322,954	311,283	-0,170	-0,220
323,968	800,000	-0,063	-0,158
324,983	-200,000	0,004	-0,085
325,997	458,736	-0,156	-0,240
327,012	-72,442	-0,214	-0,054
328,027	-40,255	-0,305	-0,109
329,041	57,306	-0,137	-0,092
330,056	-23,268	-0,147	-0,061
331,070	-45,048	-0,275	-0,094
332,085	800,000	-0,017	0,046
333,100	-45,552	-0,216	-0,073
334,114	570,759	-0,105	-0,177
335,129	28,537	-0,206	-0,120
336,143	800,000	-0,098	-0,214
337,158	-60,993	-0,098	-0,028
338,173	-115,889	-0,092	0,012
339,187	142,807	-0,188	-0,172
340,202	51,273	-0,066	-0,043
341,216	-96,632	-0,146	-0,026
342,231	268,174	-0,194	-0,235
343,246	800,000	-0,046	-0,111
344,260	263,994	-0,098	-0,117
345,275	115,235	-0,188	-0,158
346,289	344,184	-0,080	-0,108
347,304	-84,355	-0,150	-0,032
348,319	525,799	-0,106	-0,173
349,333	-146,025	-0,132	-0,008
350,348	-30,712	-0,066	0,025
351,362	31,977	-0,180	-0,107
352,377	97,436	-0,133	-0,105
353,392	135,086	-0,135	-0,121
354,406	115,346	-0,128	-0,107
355,421	209,001	1313,230	1415,111
356,435	160,837	1473,814	1415,638
