DTS Sentinel unit serial number:	SN410029Multiplexer serial number:	ORYXHardware model number:	OX2-SRSoftware version number:	ORYX F/W v4,00 Oryx Data Collector v3.7.2.0data status	okinstallation	B3 Nyhavnadifferential loss correction	single-endedforward channel	channel 1reverse channel	N/Adate	2023/12/02time	20:42:30forward acquisition time	300,00reverse acquisition time	0,00gamma	499,1914k internal	0,3201k external	0,3201temperature offset calibration	1,0000default loss term (dB/km)	0,3820temperature slope calibration	1,0000multiplexer offset coefficient	1,0000multiplexer slope coefficient	1,0000fibre end	0,00T internal ref (°C)	13,27T ext. ref 1 (°C)	-1,76T ext. ref 2 (°C)	-1,78length (m)	temperature (°C)	Stokes	anti-Stokes-744,400	37,085	-0,184	-0,118
-743,385	800,000	0,107	0,291
-742,371	-146,770	-0,297	-0,018
-741,356	-200,000	0,066	0,229
-740,342	5,205	-0,261	-0,139
-739,327	482,884	-0,114	0,188
-738,312	-80,563	-0,191	-0,046
-737,298	-200,000	0,067	0,321
-736,283	258,105	-0,100	-0,126
-735,269	-200,000	-0,029	0,278
-734,254	336,605	-0,203	-0,287
-733,239	234,689	-0,127	0,152
-732,225	800,000	-0,123	-0,276
-731,210	-154,752	0,183	-0,009
-730,196	800,000	-0,054	-0,141
-729,181	23,519	0,028	-0,017
-728,167	-95,013	-0,052	0,010
-727,152	68,743	-0,090	-0,067
-726,137	393,509	0,015	-0,022
-725,123	800,000	-0,052	0,140
-724,108	-163,753	-0,151	0,005
-723,094	270,451	-0,064	-0,081
-722,079	-35,950	-0,017	-0,007
-721,064	-200,000	0,000	-0,084
-720,050	-140,727	0,031	-0,002
-719,035	-46,998	0,039	-0,014
-718,021	-142,366	-0,020	0,001
-717,006	634,491	0,077	0,143
-715,991	-35,037	-0,121	-0,048
-714,977	10,873	0,076	0,042
-713,962	117,518	0,037	-0,033
-712,948	-151,457	0,051	0,003
-711,933	-77,398	-0,067	-0,017
-710,918	54,862	-0,181	0,127
-709,904	-16,486	-0,041	0,019
-708,889	-4,828	-0,085	-0,042
-707,875	65,040	-0,081	0,059
-706,860	-200,000	0,002	0,048
-705,845	-0,132	0,029	0,015
-704,831	-200,000	-0,005	0,091
-703,816	362,462	0,060	0,088
-702,802	39,516	-0,103	-0,067
-701,787	495,374	-0,018	-0,031
-700,772	2,249	-0,101	-0,053
-699,758	308,037	-0,058	-0,079
-698,743	800,000	-0,041	0,105
-697,729	196,347	-0,053	0,059
-696,714	137,202	0,020	-0,019
-695,699	800,000	0,057	0,130
-694,685	214,117	-0,050	-0,057
-693,670	-200,000	0,035	-0,122
-692,656	-200,000	-0,005	0,038
-691,641	800,000	0,025	0,073
-690,627	-96,117	0,050	-0,010
-689,612	175,755	0,050	0,053
-688,597	29,962	-0,043	0,026
-687,583	795,011	-0,061	-0,122
-686,568	800,000	0,050	-0,159
-685,554	84,045	-0,050	0,040
-684,539	800,000	-0,011	-0,023
-683,524	800,000	0,071	0,151
-682,510	36,611	0,080	-0,051
-681,495	49,398	-0,106	-0,072
-680,481	800,000	0,008	-0,025
-679,466	146,383	-0,107	-0,105
-678,451	800,000	-0,014	-0,031
-677,437	800,000	-0,018	-0,046
-676,422	-116,421	-0,070	-0,009
-675,408	78,664	0,052	-0,040
-674,393	778,643	0,025	0,050
-673,378	-200,000	-0,025	0,106
-672,364	210,054	-0,095	-0,109
-671,349	-164,847	-0,125	-0,004
-670,335	712,768	0,081	-0,157
-669,320	-200,000	0,003	0,036
-668,305	129,495	0,030	-0,028
-667,291	52,250	0,059	0,041
-666,276	-13,210	-0,061	0,029
-665,262	599,159	-0,077	-0,139
-664,247	-200,000	-0,003	-0,153
-663,232	-200,000	0,007	0,094
-662,218	-45,169	0,127	0,045
-661,203	-21,386	-0,191	0,084
-660,189	268,611	-0,014	-0,017
-659,174	563,236	0,045	0,079
-658,159	75,566	-0,208	-0,159
-657,145	800,000	-0,059	-0,124
-656,130	180,523	0,046	-0,049
-655,116	-200,000	-0,029	-0,139
-654,101	-99,086	0,093	0,017
-653,086	397,787	-0,026	0,040
-652,072	412,639	-0,049	-0,076
-651,057	27,904	-0,067	-0,041
-650,043	64,999	0,049	0,036
-649,028	-120,471	0,070	0,009
-648,014	800,000	-0,014	-0,029
-646,999	800,000	-0,026	0,069
-645,984	670,185	0,061	0,114
-644,970	800,000	-0,009	-0,020
-643,955	-150,369	-0,077	-0,004
-642,941	-200,000	-0,006	-0,062
-641,926	-200,000	-0,010	-0,108
-640,911	-41,402	0,152	0,056
-639,897	290,863	0,015	0,020
-638,882	-200,000	0,003	0,116
-637,868	190,322	-0,063	0,069
-636,853	-200,000	0,008	0,062
-635,838	-200,000	-0,008	-0,035
-634,824	117,315	0,076	0,067
-633,809	151,058	-0,036	0,036
-632,795	-29,460	-0,007	-0,003
-631,780	204,742	-0,030	0,033
-630,765	-200,000	0,013	0,099
-629,751	-200,000	-0,003	0,033
-628,736	-28,477	-0,086	0,036
-627,722	-193,331	-0,054	-0,000
-626,707	-98,545	0,062	-0,011
-625,692	-89,264	0,046	-0,010
-624,678	-200,000	0,004	0,023
-623,663	-200,000	0,008	-0,046
-622,649	252,968	0,060	-0,074
-621,634	-200,000	0,027	-0,162
-620,619	-200,000	-0,036	-0,146
-619,605	-149,936	0,196	-0,011
-618,590	416,300	-0,115	0,178
-617,576	229,870	0,121	0,144
-616,561	-200,000	-0,005	0,108
-615,546	-32,670	-0,101	-0,041
-614,532	-49,398	0,129	-0,044
-613,517	-89,446	-0,047	-0,010
-612,503	2,663	-0,197	0,103
-611,488	45,526	0,097	0,065
-610,474	-200,000	-0,022	0,080
-609,459	150,467	0,054	0,053
-608,444	-28,306	-0,034	0,014
-607,430	-6,831	-0,085	-0,042
-606,415	-59,905	-0,122	-0,038
-605,401	-70,415	0,126	-0,034
-604,386	-200,000	-0,001	-0,028
-603,371	-200,000	-0,001	-0,083
-602,357	-64,470	-0,139	-0,041
-601,342	-200,000	0,001	-0,104
-600,328	142,821	-0,029	-0,028
-599,313	800,000	-0,029	-0,064
-598,298	-104,526	0,060	0,010
-597,284	-200,000	0,029	0,127
-596,269	-200,000	0,011	0,102
-595,255	-54,288	0,142	0,046
-594,240	-112,655	-0,053	0,008
-593,225	-90,164	-0,090	-0,019
-592,211	-85,380	-0,041	0,009
-591,196	12,662	-0,092	-0,051
-590,182	49,168	-0,078	0,053
-589,167	-200,000	0,023	0,121
-588,152	-28,925	-0,056	-0,023
-587,138	-200,000	-0,006	-0,075
-586,123	65,753	-0,099	-0,073
-585,109	30,353	-0,086	0,053
-584,094	56,308	-0,055	-0,038
-583,079	-100,102	0,139	0,025
-582,065	-200,000	0,019	0,082
-581,050	-200,000	-0,027	0,220
-580,036	-200,000	0,005	-0,050
-579,021	-200,000	0,006	-0,070
-578,006	-200,000	-0,037	-0,140
-576,992	638,761	-0,026	0,048
-575,977	228,096	0,050	0,059
-574,963	-200,000	-0,012	0,089
-573,948	553,750	0,027	0,048
-572,934	-86,236	0,089	-0,020
-571,919	-142,899	0,147	0,010
-570,904	-200,000	-0,006	-0,169
-569,890	36,794	-0,002	-0,001
-568,875	520,551	0,011	-0,019
-567,861	-19,118	0,087	-0,039
-566,846	-200,000	0,011	-0,101
-565,831	114,651	-0,040	0,035
-564,817	262,823	0,045	0,057
-563,802	-200,000	-0,007	0,097
-562,788	-139,361	-0,116	0,009
-561,773	410,614	-0,061	-0,094
-560,758	-30,524	0,153	-0,063
-559,744	167,519	-0,090	0,093
-558,729	658,447	-0,037	0,068
-557,715	-106,824	0,054	-0,009
-556,700	-122,384	-0,135	-0,016
-555,685	-200,000	-0,010	-0,120
-554,671	800,000	0,064	0,131
-553,656	-48,832	-0,123	0,042
-552,642	443,896	-0,070	-0,112
-551,627	-39,490	-0,048	-0,018
-550,612	800,000	-0,040	0,088
-549,598	227,147	-0,079	0,093
-548,583	800,000	-0,025	-0,052
-547,569	161,193	0,057	0,057
-546,554	65,855	0,107	0,078
-545,539	-61,563	0,097	0,029
-544,525	3,526	-0,157	0,082
-543,510	-52,367	0,080	-0,026
-542,496	30,863	-0,243	-0,150
-541,481	-152,937	0,099	0,005
-540,466	18,041	-0,072	-0,041
-539,452	428,180	0,043	-0,067
-538,437	-61,537	0,049	0,015
-537,423	433,716	0,042	0,065
-536,408	276,339	-0,047	-0,060
-535,393	-74,754	0,032	-0,008
-534,379	90,182	-0,037	0,030
-533,364	-162,958	0,069	0,002
-532,350	37,482	0,110	0,070
-531,335	189,824	0,042	-0,045
-530,321	800,000	0,027	0,069
-529,306	-200,000	-0,038	0,162
-528,291	-145,901	-0,077	0,005
-527,277	286,270	0,066	0,086
-526,262	-200,000	0,000	0,062
-525,248	800,000	-0,047	-0,114
-524,233	185,681	0,052	-0,055
-523,218	-143,423	0,119	-0,008
-522,204	218,105	0,062	0,071
-521,189	800,000	0,056	-0,150
-520,175	-200,000	-0,012	0,053
-519,160	-59,008	-0,059	-0,018
-518,145	-58,905	0,047	0,014
-517,131	-45,959	0,053	0,019
-516,116	-24,580	0,119	-0,051
-515,102	-200,000	-0,019	0,234
-514,087	800,000	-0,048	-0,143
-513,072	374,220	-0,024	-0,036
-512,058	-200,000	0,030	-0,110
-511,043	61,684	0,064	-0,046
-510,029	54,446	0,155	0,108
-509,014	662,772	-0,039	0,073
-507,999	40,824	-0,051	-0,033
-506,985	-200,000	-0,012	0,163
-505,970	-200,000	-0,010	-0,164
-504,956	-200,000	-0,009	-0,182
-503,941	325,832	-0,095	-0,131
-502,926	-57,774	0,128	0,040
-501,912	155,467	0,121	-0,120
-500,897	-200,000	-0,013	-0,082
-499,883	2,592	0,058	-0,030
-498,868	474,150	-0,089	0,145
-497,853	-50,047	-0,170	0,058
-496,839	800,000	0,024	-0,058
-495,824	67,254	-0,066	0,048
-494,810	-29,720	0,044	-0,018
-493,795	-148,845	-0,083	0,005
-492,781	800,000	0,048	0,119
-491,766	-200,000	0,017	-0,131
-490,751	-145,335	0,051	-0,003
-489,737	-81,383	0,107	-0,025
-488,722	792,115	0,007	0,013
-487,708	648,748	0,099	0,182
-486,693	162,171	0,068	-0,069
-485,678	567,354	0,046	0,081
-484,664	-200,000	-0,018	0,099
-483,649	14,579	-0,074	-0,042
-482,635	-112,747	0,182	0,026
-481,620	800,000	0,064	0,131
-480,605	219,506	0,131	0,151
-479,591	111,535	-0,007	0,006
-478,576	-155,328	0,099	-0,005
-477,562	107,699	0,046	0,039
-476,547	-200,000	0,033	-0,165
-475,532	325,555	-0,057	-0,079
-474,518	-54,538	0,050	0,016
-473,503	-0,564	0,181	0,092
-472,489	231,372	0,088	0,104
-471,474	-28,020	-0,214	-0,089
-470,459	21,836	-0,168	0,098
-469,445	-72,095	-0,044	-0,012
-468,430	-28,412	0,137	-0,056
-467,416	-100,589	0,129	-0,023
-466,401	-97,097	-0,068	-0,013
-465,386	360,435	-0,035	-0,051
-464,372	-40,914	0,039	0,014
-463,357	120,560	-0,046	-0,041
-462,343	-60,251	-0,129	-0,039
-461,328	-82,982	-0,065	0,015
-460,313	-200,000	0,010	0,102
-459,299	308,877	0,060	-0,081
-458,284	-99,530	0,076	-0,014
-457,270	-200,000	0,026	0,162
-456,255	225,775	-0,056	0,065
-455,241	800,000	-0,080	0,166
-454,226	4,681	0,054	-0,028
-453,211	-80,874	0,093	0,022
-452,197	8,591	0,088	0,048
-451,182	477,539	0,108	0,177
-450,168	48,724	-0,166	0,112
-449,153	45,593	-0,120	-0,080
-448,138	-86,446	0,034	-0,007
-447,124	800,000	0,024	-0,069
-446,109	-73,515	0,128	-0,033
-445,095	87,642	0,054	0,043
-444,080	96,781	0,051	-0,042
-443,065	-121,294	0,028	-0,003
-442,051	-36,834	-0,216	-0,083
-441,036	149,661	0,048	-0,046
-440,022	49,434	0,065	-0,044
-439,007	26,261	0,033	-0,020
-437,992	800,000	0,044	0,100
-436,978	-103,269	0,121	0,020
-435,963	101,561	0,038	-0,032
-434,949	113,734	-0,012	0,010
-433,934	-87,898	0,064	0,014
-432,919	-165,416	-0,102	-0,003
-431,905	-200,000	-0,019	-0,171
-430,890	-200,000	-0,023	-0,195
-429,876	-200,000	-0,028	0,149
-428,861	-200,000	0,019	0,080
-427,846	3,090	-0,036	0,019
-426,832	590,556	0,040	0,070
-425,817	800,000	0,050	-0,144
-424,803	-54,856	0,029	-0,009
-423,788	-50,521	-0,091	-0,031
-422,773	452,042	0,062	0,098
-421,759	153,938	-0,076	0,075
-420,744	-200,000	-0,001	0,025
-419,730	-200,000	0,021	-0,112
-418,715	-200,000	0,009	0,033
-417,701	-200,000	-0,029	-0,100
-416,686	-90,925	0,125	0,026
-415,671	-107,703	0,118	0,018
-414,657	800,000	0,009	0,018
-413,642	-63,825	-0,103	-0,030
-412,628	131,076	-0,135	0,125
-411,613	193,484	0,046	-0,050
-410,598	800,000	0,044	-0,123
-409,584	-200,000	0,022	-0,081
-408,569	23,764	0,051	0,030
-407,555	-125,141	-0,008	-0,001
-406,540	508,648	-0,020	-0,033
-405,525	-200,000	-0,027	-0,150
-404,511	800,000	-0,028	-0,065
-403,496	-200,000	-0,040	-0,141
-402,482	712,615	-0,050	0,095
-401,467	502,465	0,033	-0,054
-400,452	0,060	0,119	0,061
-399,438	52,722	-0,095	-0,065
-398,423	44,169	-0,087	-0,057
-397,409	-61,430	0,093	-0,028
-396,394	150,399	-0,064	0,062
-395,379	204,296	0,170	-0,190
-394,365	-161,523	0,095	0,003
-393,350	505,403	-0,097	0,161
-392,336	-38,637	0,084	0,032
-391,321	108,057	-0,150	-0,128
-390,306	-48,182	-0,123	-0,042
-389,292	323,041	0,051	0,070
-388,277	-200,000	0,030	-0,126
-387,263	-56,217	0,110	-0,035
-386,248	-200,000	-0,013	-0,093
-385,233	-200,000	0,016	0,058
-384,219	3,672	0,063	0,033
-383,204	115,630	-0,084	-0,074
-382,190	-71,054	-0,194	-0,052
-381,175	12,776	-0,026	-0,014
-380,160	800,000	0,026	-0,065
-379,146	179,374	0,077	0,081
-378,131	226,383	0,043	0,050
-377,117	-200,000	0,005	-0,034
-376,102	371,711	0,059	-0,086
-375,088	-99,953	-0,080	-0,014
-374,073	-141,863	-0,092	-0,006
-373,058	558,006	-0,034	-0,059
-372,044	-98,250	0,159	0,029
-371,029	62,412	0,036	0,026
-370,015	-92,025	-0,035	0,007
-369,000	215,495	-0,064	-0,073
-367,985	-200,000	0,019	-0,080
-366,971	50,806	0,101	0,069
-365,956	-200,000	-0,004	-0,047
-364,942	800,000	-0,018	0,038
-363,927	395,297	0,015	0,023
-362,912	800,000	-0,043	0,136
-361,898	-43,049	-0,052	-0,019
-360,883	-71,135	-0,078	-0,021
-359,869	-92,470	-0,077	0,015
-358,854	768,509	-0,046	0,091
-357,839	800,000	-0,018	0,048
-356,825	800,000	0,012	0,036
-355,810	13,031	-0,080	0,044
-354,796	-139,208	-0,095	0,007
-353,781	-200,000	-0,002	-0,160
-352,766	-200,000	0,066	-0,217
-351,752	68,864	-0,030	-0,022
-350,737	-200,000	-0,014	0,046
-349,723	8,370	-0,088	0,047
-348,708	-18,015	0,130	0,058
-347,693	800,000	-0,055	0,125
-346,679	117,058	0,051	0,045
-345,664	349,845	0,049	0,070
-344,650	761,040	0,030	0,059
-343,635	81,603	0,053	-0,041
-342,620	-112,491	0,152	0,021
-341,606	-200,000	-0,007	-0,034
-340,591	-124,464	-0,114	-0,013
-339,577	280,329	0,058	-0,075
-338,562	800,000	0,023	0,065
-337,548	-136,332	0,030	0,002
-336,533	800,000	-0,025	0,077
-335,518	-200,000	-0,008	-0,076
-334,504	-110,067	-0,149	0,022
-333,489	45,632	-0,089	-0,059
-332,475	58,936	-0,066	0,046
-331,460	-200,000	0,016	0,061
-330,445	-200,000	-0,008	-0,082
-329,431	-105,248	-0,107	-0,017
-328,416	29,767	0,033	0,020
-327,402	800,000	0,027	-0,058
-326,387	-11,730	-0,099	0,046
-325,372	545,768	-0,077	-0,133
-324,358	800,000	-0,033	-0,077
-323,343	-200,000	0,005	0,103
-322,329	-200,000	-0,008	0,060
-321,314	522,510	0,031	0,052
-320,299	499,803	0,101	0,167
-319,285	76,104	0,091	0,069
-318,270	127,794	-0,085	0,077
-317,256	56,246	-0,136	-0,094
-316,241	147,669	0,032	-0,031
-315,226	5,696	-0,048	0,025
-314,212	119,449	0,124	0,110
-313,197	738,208	0,095	0,183
-312,183	-200,000	-0,057	0,188
-311,168	-146,372	-0,045	0,003
-310,153	-152,162	-0,045	-0,002
-309,139	342,451	0,067	-0,094
-308,124	253,833	-0,034	-0,041
-307,110	800,000	-0,026	0,072
-306,095	-179,270	0,076	0,001
-305,080	800,000	0,024	0,070
-304,066	-51,293	-0,058	-0,019
-303,051	-200,000	0,003	-0,073
-302,037	-15,123	-0,129	-0,059
-301,022	-71,868	-0,037	-0,010
-300,008	300,682	0,034	0,045
-298,993	800,000	-0,026	-0,061
-297,978	-200,000	-0,002	-0,091
-296,964	398,870	0,031	0,046
-295,949	325,230	-0,116	-0,159
-294,935	456,271	0,097	-0,154
-293,920	43,067	-0,074	0,048
-292,905	800,000	0,021	-0,056
-291,891	160,290	0,034	0,034
-290,876	-4,147	0,105	-0,052
-289,862	800,000	-0,026	-0,069
-288,847	411,561	-0,061	0,093
-287,832	273,783	-0,071	-0,090
-286,818	-92,838	0,094	-0,019
-285,803	-200,000	-0,018	-0,079
-284,789	223,131	-0,023	0,026
-283,774	-84,786	0,143	-0,032
-282,759	800,000	-0,013	0,033
-281,745	-200,000	-0,000	0,072
-280,730	48,600	-0,082	-0,055
-279,716	-27,767	-0,075	-0,031
-278,701	202,722	0,064	0,070
-277,686	349,821	-0,041	-0,058
-276,672	211,526	-0,092	-0,104
-275,657	404,530	-0,097	0,146
-274,643	-200,000	0,010	0,094
-273,628	800,000	-0,003	0,010
-272,613	800,000	0,040	-0,121
-271,599	463,438	0,101	-0,162
-270,584	-200,000	-0,002	0,057
-269,570	800,000	0,024	0,069
-268,555	-200,000	0,024	-0,079
-267,540	-200,000	-0,006	-0,053
-266,526	-15,732	-0,133	0,060
-265,511	-200,000	0,014	-0,056
-264,497	-116,799	0,153	0,020
-263,482	-0,855	-0,215	0,108
-262,467	-200,000	0,033	0,109
-261,453	460,904	-0,051	0,081
-260,438	39,815	0,034	0,022
-259,424	259,475	-0,040	-0,049
-258,409	9,866	-0,024	-0,013
-257,395	97,640	0,108	-0,088
-256,380	800,000	0,057	0,116
-255,365	-200,000	0,041	0,148
-254,351	-200,000	0,007	0,086
-253,336	-200,000	-0,004	-0,085
-252,322	450,903	0,050	-0,079
-251,307	-14,733	0,035	-0,016
-250,292	-14,447	-0,030	-0,014
-249,278	280,725	0,070	0,090
-248,263	-200,000	-0,025	0,109
-247,249	7,863	-0,052	-0,028
-246,234	112,333	-0,048	0,041
-245,219	16,557	0,045	-0,025
-244,205	-124,961	-0,080	0,009
-243,190	800,000	0,069	-0,162
-242,176	-7,260	0,110	-0,053
-241,161	104,899	0,045	-0,037
-240,146	295,692	0,064	0,083
-239,132	42,610	0,012	-0,008
-238,117	800,000	-0,063	-0,130
-237,103	-22,726	-0,079	0,034
-236,088	800,000	0,008	0,017
-235,073	20,958	0,075	0,043
-234,059	800,000	0,034	-0,079
-233,044	-62,276	-0,020	-0,006
-232,030	-164,399	-0,135	0,004
-231,015	-200,000	-0,009	-0,060
-230,000	280,390	-0,045	-0,058
-228,986	238,681	0,015	-0,018
-227,971	183,126	0,149	0,157
-226,957	135,273	-0,011	-0,010
-225,942	76,752	0,065	0,049
-224,927	259,533	0,039	-0,048
-223,913	-99,262	-0,076	-0,014
-222,898	487,164	0,061	-0,099
-221,884	-20,625	-0,135	-0,059
-220,869	-28,645	-0,036	0,015
-219,855	52,100	0,124	0,084
-218,840	436,567	-0,041	-0,064
-217,825	-3,009	-0,100	0,049
-216,811	-80,788	-0,117	-0,028
-215,796	-200,000	-0,015	-0,078
-214,782	-144,888	-0,039	0,002
-213,767	-111,637	-0,054	0,008
-212,752	120,214	0,097	0,086
-211,738	-171,990	0,067	-0,002
-210,723	-200,000	0,030	-0,124
-209,709	-4,438	0,065	-0,032
-208,694	794,523	-0,005	-0,010
-207,679	-27,072	0,058	0,024
-206,665	-200,000	0,019	0,127
-205,650	800,000	-0,012	-0,025
-204,636	241,733	0,044	-0,053
-203,621	-47,782	0,074	0,025
-202,606	481,409	-0,108	-0,175
-201,592	705,650	-0,037	-0,070
-200,577	800,000	0,008	-0,021
-199,563	-93,165	-0,095	-0,019
-198,548	-200,000	-0,015	0,080
-197,533	800,000	-0,014	-0,031
-196,519	206,948	-0,069	-0,076
-195,504	178,774	-0,058	-0,061
-194,490	213,777	-0,081	-0,091
-193,475	-71,646	0,130	0,034
-192,460	800,000	-0,048	-0,117
-191,446	10,933	-0,062	0,033
-190,431	-200,000	-0,018	-0,136
-189,417	198,034	0,101	-0,110
-188,402	-200,000	-0,027	0,125
-187,387	156,848	-0,121	0,120
-186,373	85,000	-0,031	-0,025
-185,358	800,000	0,022	0,063
-184,344	291,215	0,071	-0,092
-183,329	51,667	-0,037	0,025
-182,315	20,655	0,063	-0,036
-181,300	-200,000	-0,010	-0,033
-180,285	-200,000	-0,001	-0,156
-179,271	800,000	-0,091	-0,226
-178,256	-106,079	0,057	-0,009
-177,242	800,000	-0,035	0,100
-176,227	-200,000	0,027	0,137
-175,212	-200,000	-0,018	0,174
-174,198	-39,955	-0,064	-0,024
-173,183	-128,056	0,093	0,009
-172,169	-38,449	-0,129	-0,048
-171,154	500,070	-0,036	-0,060
-170,139	-133,987	0,139	0,012
-169,125	519,068	-0,054	0,090
-168,110	-180,209	0,089	-0,001
-167,096	606,710	-0,024	0,042
-166,081	-200,000	-0,006	0,076
-165,066	-200,000	0,017	-0,095
-164,052	632,954	-0,062	0,111
-163,037	-44,803	-0,096	-0,034
-162,023	574,949	-0,033	0,057
-161,008	-17,857	-0,091	0,040
-159,993	-82,034	-0,137	0,032
-158,979	-200,000	-0,024	-0,116
-157,964	-200,000	-0,004	0,031
-156,950	-200,000	-0,009	-0,038
-155,935	-48,467	0,148	-0,050
-154,920	257,431	0,020	0,025
-153,906	-123,700	-0,022	0,002
-152,891	-84,181	0,020	-0,005
-151,877	-200,000	0,005	-0,116
-150,862	26,436	-0,069	0,041
-149,847	96,223	0,050	-0,040
-148,833	-122,063	0,010	-0,001
-147,818	800,000	0,050	0,148
-146,804	85,564	0,138	-0,108
-145,789	-200,000	0,031	0,120
-144,775	-200,000	-0,008	-0,150
-143,760	-106,647	-0,213	0,033
-142,745	-200,000	-0,053	-0,180
-141,731	115,971	0,070	0,061
-140,716	-32,749	-0,159	0,063
-139,702	-200,000	0,012	-0,047
-138,687	-200,000	0,002	-0,112
-137,672	27,208	-0,130	-0,078
-136,658	800,000	-0,060	-0,127
-135,643	499,596	-0,033	-0,054
-134,629	-200,000	0,030	-0,169
-133,614	800,000	-0,005	0,012
-132,599	-200,000	0,004	0,052
-131,585	272,940	0,046	0,058
-130,570	454,035	0,057	0,089
-129,556	-200,000	-0,008	-0,028
-128,541	-43,831	0,114	0,041
-127,526	89,452	-0,078	0,062
-126,512	800,000	-0,031	-0,065
-125,497	-200,000	-0,006	-0,055
-124,483	-200,000	0,029	0,140
-123,468	251,674	-0,054	-0,065
-122,453	236,045	-0,048	-0,057
-121,439	11,774	-0,164	-0,089
-120,424	-78,066	0,144	0,035
-119,410	592,838	-0,040	0,070
-118,395	-123,280	0,109	0,012
-117,380	-200,000	0,004	0,019
-116,366	800,000	-0,022	-0,061
-115,351	-150,481	-0,200	-0,011
-114,337	-61,629	-0,096	-0,029
-113,322	182,398	-0,073	-0,076
-112,307	-200,000	-0,015	-0,091
-111,293	298,872	0,115	0,150
-110,278	-147,011	0,015	-0,001
-109,264	-200,000	0,011	-0,050
-108,249	28,868	0,107	-0,064
-107,234	-200,000	0,000	0,071
-106,220	289,189	0,071	0,091
-105,205	-200,000	0,005	0,059
-104,191	-60,271	0,150	-0,045
-103,176	360,258	-0,059	-0,084
-102,162	-72,256	-0,043	-0,011
-101,147	481,068	-0,032	-0,052
-100,132	-84,191	-0,052	0,012
-99,118	414,962	-0,045	-0,069
-98,103	244,246	0,107	-0,127
-97,089	-200,000	0,001	-0,068
-96,074	233,072	0,110	0,129
-95,059	-200,000	0,010	-0,098
-94,045	389,468	0,060	-0,088
-93,030	-43,868	-0,087	-0,031
-92,016	164,134	0,071	-0,071
-91,001	-27,042	0,042	0,017
-89,986	800,000	-0,038	-0,119
-88,972	-112,900	0,122	-0,017
-87,957	-74,578	0,064	-0,016
-86,943	-30,119	-0,019	0,008
-85,928	185,264	-0,130	-0,137
-84,913	-200,000	0,055	-0,196
-83,899	357,247	0,066	-0,094
-82,884	347,820	0,038	0,053
-81,870	-124,092	-0,066	0,007
-80,855	-200,000	-0,034	0,183
-79,840	9,228	-0,095	0,051
-78,826	-40,046	0,076	-0,028
-77,811	606,841	-0,045	-0,080
-76,797	730,524	-0,073	-0,138
-75,782	-104,397	0,157	0,025
-74,767	692,616	-0,037	-0,068
-73,753	321,175	0,060	-0,081
-72,738	-16,252	0,053	0,024
-71,724	-38,714	-0,064	-0,024
-70,709	-154,565	0,126	-0,006
-69,694	7,943	0,074	-0,039
-68,680	-189,819	-0,109	0,001
-67,665	-92,912	0,048	0,009
-66,651	120,678	0,165	0,145
-65,636	-6,126	0,026	0,013
-64,622	114,159	0,049	-0,042
-63,607	-0,459	-0,102	-0,051
-62,592	-56,680	0,169	0,053
-61,578	800,000	-0,023	-0,047
-60,563	-200,000	0,001	-0,041
-59,549	-108,185	0,023	0,003
-58,534	-0,661	-1,548	-0,775
-57,519	412,557	-1,351	-2,039
-56,505	-200,000	-0,679	-4,491
-55,490	191,736	1,017	1,086
-54,476	800,000	5,063	11,390
-53,461	-200,000	19,261	320,831
-52,446	-200,000	741,617	2335,077
-51,432	572,398	1656,029	2868,246
-50,417	78,156	1671,142	1261,324
-49,403	21,276	1544,160	885,663
-48,388	15,101	1466,541	811,112
-47,373	17,991	1456,830	819,676
-46,359	16,683	1446,704	807,674
-45,344	13,348	1442,161	789,126
-44,330	13,324	1439,976	787,783
-43,315	13,336	1438,407	786,952
-42,300	13,333	1436,543	785,884
-41,286	13,359	1435,394	785,349
-40,271	13,285	1434,313	784,372
-39,257	13,324	1432,786	783,692
-38,242	13,348	1431,576	783,116
-37,227	13,359	1430,383	782,482
-36,213	13,336	1428,883	781,522
-35,198	13,348	1427,650	780,875
-34,184	13,368	1426,883	780,516
-33,169	13,356	1425,382	779,610
-32,154	13,407	1424,248	779,199
-31,140	13,430	1422,991	778,588
-30,125	13,419	1421,999	777,962
-29,111	13,405	1420,969	777,306
-28,096	13,381	1419,870	776,559
-27,082	13,343	1418,654	775,684
-26,067	13,273	1417,648	774,771
-25,052	13,329	1416,445	774,350
-24,038	13,296	1415,601	773,703
-23,023	13,299	1414,410	773,035
-22,009	13,269	1413,575	772,405
-20,994	13,234	1412,678	771,721
-19,979	13,264	1411,606	771,243
-18,965	13,263	1410,726	770,728
-17,950	13,227	1409,950	770,103
-16,936	13,257	1409,080	769,739
-15,921	13,235	1407,805	768,909
-14,906	13,202	1407,083	768,332
-13,892	13,209	1406,052	767,772
-12,877	13,247	1405,040	767,362
-11,863	13,230	1404,141	766,762
-10,848	13,206	1403,427	766,230
-9,833	13,119	1402,703	765,401
-8,819	13,148	1401,591	764,896
-7,804	13,148	1400,634	764,344
-6,790	13,114	1399,584	763,584
-5,775	13,103	1398,704	763,024
-4,760	13,160	1397,215	762,443
-3,746	13,116	1396,786	761,975
-2,731	13,068	1396,033	761,312
-1,717	13,048	1395,097	760,679
-0,702	13,103	1393,120	759,823
0,313	16,960	1310,023	732,368
1,327	33,275	703,580	431,036
2,342	51,432	123,208	82,676
3,356	4,330	16,675	8,618
4,371	10,225	3,177	1,704
5,386	16,480	0,682	0,380
6,400	-200,000	0,094	0,381
7,415	24,854	-0,337	-0,197
8,429	3,093	-0,380	-0,195
9,444	26,475	-0,233	-0,138
10,459	58,695	-0,342	-0,237
11,473	156,463	-0,219	-0,214
12,488	-63,029	-0,245	-0,071
13,502	148,400	-0,189	-0,180
14,517	8,934	-0,304	-0,162
15,531	13,196	-0,350	-0,191
16,546	-32,016	-0,471	-0,185
17,561	79,463	-0,323	-0,244
18,575	201,252	-0,218	-0,237
19,590	21,129	-0,253	-0,145
20,604	93,543	-0,263	-0,211
21,619	91,487	-0,408	-0,323
22,634	59,849	-0,453	-0,315
23,648	150,173	-0,348	-0,334
24,663	125,743	-0,428	-0,381
25,677	72,214	-0,379	-0,278
26,692	162,347	-0,320	-0,317
27,707	133,547	-0,393	-0,359
28,721	86,558	-0,278	-0,216
29,736	44,067	-0,483	-0,312
30,750	22,250	-0,471	-0,271
31,765	364,858	-0,257	-0,366
32,780	86,175	-0,391	-0,304
33,794	-54,373	-0,282	-0,090
34,809	232,785	-0,262	-0,304
35,823	157,909	-0,294	-0,288
36,838	80,304	-0,416	-0,315
37,853	212,621	-0,374	-0,417
38,867	65,353	-0,361	-0,257
39,882	42,086	-0,351	-0,224
40,896	157,519	-0,242	-0,236
41,911	52,874	-0,445	-0,299
42,926	90,602	-0,341	-0,269
43,940	-36,316	-0,407	-0,154
44,955	220,959	-0,220	-0,249
45,969	-15,674	-0,409	-0,183
46,984	-103,204	-0,322	-0,053
47,999	800,000	-0,153	-0,332
49,013	197,447	-0,206	-0,222
50,028	49,380	-0,266	-0,176
51,042	42,178	-0,346	-0,221
52,057	53,660	-0,358	-0,242
53,071	-28,414	-0,335	-0,136
54,086	54,851	-0,284	-0,193
55,101	117,725	-0,309	-0,267
56,115	15,202	-0,458	-0,252
57,130	-45,962	-0,374	-0,129
58,144	33,022	-0,437	-0,266
59,159	6,376	-0,387	-0,202
60,174	261,807	-0,375	-0,458
61,188	81,575	-0,374	-0,285
62,203	149,296	-0,256	-0,244
63,217	108,946	-0,346	-0,291
64,232	3,671	-0,362	-0,185
65,247	6,926	-0,370	-0,194
66,261	48,773	-0,374	-0,246
67,276	81,414	-0,419	-0,319
68,290	331,368	-0,193	-0,262
69,305	71,115	-0,305	-0,222
70,320	-22,201	-0,252	-0,107
71,334	-86,744	-0,250	-0,053
72,349	169,687	-0,233	-0,235
73,363	-86,747	-0,521	-0,111
74,378	-16,266	-0,440	-0,195
75,393	800,000	-0,118	-0,280
76,407	81,621	-0,338	-0,257
77,422	3,771	-0,333	-0,170
78,436	-112,623	-0,197	-0,027
79,451	197,326	-0,133	-0,143
80,466	94,985	-0,308	-0,246
81,480	56,043	-0,478	-0,325
82,495	81,854	-0,314	-0,239
83,509	-3,905	-0,364	-0,177
84,524	13,321	-0,232	-0,126
85,539	81,145	-0,279	-0,211
86,553	63,279	-0,298	-0,210
87,568	97,636	-0,280	-0,226
88,582	464,613	-0,254	-0,401
89,597	-8,766	-0,293	-0,138
90,611	-33,330	-0,316	-0,122
91,626	82,183	-0,278	-0,211
92,641	243,432	-0,249	-0,294
93,655	-14,948	-0,221	-0,099
94,670	-84,074	-0,386	-0,085
95,684	138,104	-0,298	-0,275
96,699	-25,784	-0,291	-0,120
97,714	92,033	-0,284	-0,224
98,728	37,153	-0,225	-0,140
99,743	237,018	-0,188	-0,219
100,757	-19,282	-0,342	-0,148
101,772	137,958	-0,245	-0,225
102,787	129,462	-0,204	-0,183
103,801	-17,620	-0,369	-0,162
104,816	187,594	-0,140	-0,147
105,830	39,642	-0,155	-0,097
106,845	66,728	-0,254	-0,181
107,860	9,445	-0,282	-0,149
108,874	159,205	-0,185	-0,181
109,889	203,279	-0,265	-0,288
110,903	149,655	-0,166	-0,158
111,918	9,227	-0,253	-0,134
112,933	48,791	-0,203	-0,133
113,947	73,085	-0,268	-0,196
114,962	-24,634	-0,270	-0,112
115,976	-39,156	-0,288	-0,106
116,991	32,458	-0,361	-0,218
118,006	189,655	-0,281	-0,296
119,020	150,875	-0,219	-0,209
120,035	105,299	-0,266	-0,220
121,049	16,543	-0,296	-0,163
122,064	-12,415	-0,266	-0,121
123,079	266,844	-0,169	-0,208
124,093	61,713	-0,248	-0,172
125,108	102,827	-0,263	-0,216
126,122	24,996	-0,277	-0,160
127,137	147,378	-0,182	-0,172
128,151	390,741	-0,104	-0,152
129,166	30,226	-0,251	-0,149
130,181	-153,858	-0,317	0,015
131,195	-101,475	-0,420	-0,071
132,210	58,482	-0,269	-0,184
133,224	80,829	-0,206	-0,155
134,239	23,181	-0,285	-0,163
135,254	360,896	-0,156	-0,220
136,268	68,635	-0,253	-0,181
137,283	-119,738	-0,361	-0,043
138,297	59,608	-0,348	-0,240
139,312	58,321	-0,181	-0,124
140,327	119,807	-0,326	-0,282
141,341	31,057	-0,337	-0,202
142,356	54,171	-0,227	-0,152
143,370	29,916	-0,243	-0,144
144,385	17,680	-0,169	-0,094
145,400	53,125	-0,232	-0,155
146,414	131,989	-0,194	-0,175
147,429	1,758	-0,339	-0,170
148,443	65,470	-0,164	-0,116
149,458	479,713	-0,145	-0,230
150,473	281,362	-0,116	-0,145
151,487	107,658	-0,199	-0,165
152,502	-97,312	-0,193	-0,035
153,516	621,337	-0,185	-0,327
154,531	800,000	-0,188	-0,382
155,546	189,464	-0,210	-0,220
156,560	120,548	-0,193	-0,168
157,575	182,334	-0,136	-0,140
158,589	-25,990	-0,282	-0,115
159,604	257,067	-0,241	-0,289
160,619	122,588	-0,223	-0,195
161,633	18,116	-0,260	-0,144
162,648	32,349	-0,346	-0,208
163,662	224,276	-0,159	-0,179
164,677	725,319	-0,098	-0,183
165,692	448,696	-0,085	-0,132
166,706	-16,692	-0,241	-0,106
167,721	-32,099	-0,271	-0,105
168,735	-16,105	-0,175	-0,077
169,750	95,363	-0,155	-0,123
170,764	8,588	-0,260	-0,136
171,779	2,738	-0,173	-0,087
172,794	-29,953	-0,196	-0,077
173,808	173,411	-0,253	-0,254
174,823	305,631	-0,151	-0,196
175,837	337,000	-0,200	-0,271
176,852	-18,382	-0,258	-0,112
177,867	136,786	-0,089	-0,081
178,881	800,000	-0,119	-0,286
179,896	242,931	-0,191	-0,224
180,910	146,866	-0,191	-0,179
181,925	150,387	-0,207	-0,196
182,940	53,324	-0,221	-0,147
183,954	107,985	-0,270	-0,224
184,969	-17,638	-0,216	-0,094
185,983	277,332	-0,132	-0,164
186,998	28,624	-0,289	-0,170
188,013	-144,708	-0,269	0,017
189,027	107,882	-0,263	-0,218
190,042	43,499	-0,194	-0,123
191,056	-111,513	-0,211	-0,029
192,071	800,000	-0,110	-0,300
193,086	800,000	-0,084	-0,189
194,100	130,790	-0,162	-0,144
195,115	496,814	-0,059	-0,094
196,129	100,191	-0,213	-0,172
197,144	-105,553	-0,238	0,037
198,159	-45,588	-0,253	-0,087
199,173	-100,914	-0,297	-0,050
200,188	-33,526	-0,232	-0,089
201,202	31,897	-0,191	-0,114
202,217	24,462	-0,126	-0,072
203,232	226,673	-0,216	-0,245
204,246	57,943	-0,253	-0,172
205,261	124,913	-0,245	-0,214
206,275	93,719	-0,265	-0,208
207,290	124,819	-0,178	-0,155
208,304	-200,000	-0,001	-0,227
209,319	384,965	-0,180	-0,258
210,334	39,549	-0,116	-0,072
211,348	76,342	-0,347	-0,255
212,363	584,941	-0,147	-0,251
213,377	7,697	-0,180	-0,093
214,392	-97,129	-0,189	-0,034
215,407	-15,431	-0,163	-0,072
216,421	54,284	-0,166	-0,111
217,436	67,856	-0,185	-0,131
218,450	225,176	-0,201	-0,227
219,465	29,228	-0,261	-0,153
220,480	800,000	-0,077	-0,153
221,494	-200,000	-0,080	-0,260
222,509	-200,000	-0,020	-0,076
223,523	294,433	-0,138	-0,175
224,538	126,118	-0,201	-0,177
225,553	-58,246	-0,199	-0,060
226,567	-110,316	-0,222	0,032
227,582	204,160	-0,134	-0,144
228,596	668,954	-0,111	-0,200
229,611	-16,162	-0,220	-0,097
230,626	800,000	0,066	-0,140
231,640	27,550	-0,194	-0,113
232,655	228,569	-0,185	-0,210
233,669	247,879	-0,181	-0,212
234,684	171,832	-0,142	-0,141
235,699	46,957	-0,148	-0,095
236,713	46,211	-0,196	-0,125
237,728	-116,922	-0,135	0,017
238,742	161,359	-0,215	-0,209
239,757	477,109	-0,122	-0,192
240,772	290,659	-0,164	-0,207
241,786	102,806	-0,153	-0,124
242,801	60,439	-0,220	-0,151
243,815	209,718	-0,056	0,061
244,830	-30,062	-0,215	-0,084
245,844	-160,985	-0,291	-0,010
246,859	325,124	-0,190	-0,252
247,874	108,678	-0,244	-0,202
248,888	800,000	-0,137	-0,312
249,903	119,776	-0,157	-0,134
250,917	-2,473	-0,151	-0,073
251,932	-30,694	-0,139	-0,054
252,947	362,773	-0,070	-0,098
253,961	-85,077	-0,202	-0,044
254,976	39,018	-0,156	-0,096
255,990	24,502	-0,190	-0,108
257,005	157,591	-0,193	-0,185
258,020	497,106	-0,093	-0,148
259,034	-200,000	0,029	-0,170
260,049	51,808	-0,225	-0,148
261,063	185,671	-0,200	-0,206
262,078	68,612	-0,280	-0,198
263,093	56,778	-0,139	-0,093
264,107	-41,070	-0,276	-0,098
265,122	66,717	-0,096	-0,068
266,136	-200,000	-0,042	-0,132
267,151	-6,900	-0,196	-0,092
268,166	800,000	-0,058	-0,119
269,180	-153,538	-0,182	-0,009
270,195	-88,947	-0,188	-0,038
271,209	-55,687	-0,290	-0,089
272,224	535,772	-0,069	0,114
273,239	-200,000	-0,053	-0,238
274,253	120,147	-0,118	-0,101
275,268	-44,994	-0,227	-0,078
276,282	35,771	-0,164	-0,099
277,297	443,064	-0,189	-0,287
278,312	15,816	-0,111	-0,060
279,326	-77,178	-0,184	-0,044
280,341	-186,089	-0,153	0,002
281,355	134,908	-0,058	-0,052
282,370	800,000	-0,080	-0,206
283,384	-1,406	-0,208	-0,101
284,399	-64,893	-0,116	-0,032
285,414	208,477	-0,202	-0,218
286,428	488,637	0,119	-0,189
287,443	-154,722	-0,247	-0,011
288,457	-33,793	-0,102	0,039
289,472	-1,463	-0,117	-0,057
290,487	43,244	-0,173	-0,109
291,501	-200,000	-0,097	-0,322
292,516	-26,327	-0,149	-0,060
293,530	-14,253	-0,088	-0,039
294,545	10,728	-0,173	-0,091
295,560	391,567	-0,079	-0,114
296,574	24,660	-0,109	-0,062
297,589	192,452	-0,135	-0,141
298,603	-56,370	-0,197	0,060
299,618	65,664	-0,159	-0,111
300,633	-101,824	-0,167	-0,028
301,647	40,715	-0,074	-0,046
302,662	-200,000	-0,014	-0,056
303,676	-200,000	-0,011	-0,211
304,691	-89,331	-0,153	-0,031
305,706	61,101	-0,264	-0,181
306,720	75,888	-0,071	-0,051
307,735	634,305	-0,079	-0,139
308,749	-200,000	-0,045	-0,220
309,764	-200,000	0,045	-0,198
310,779	46,501	-0,158	-0,101
311,793	-200,000	-0,009	-0,150
312,808	123,556	-0,183	-0,158
313,822	591,910	-0,036	-0,062
314,837	-79,760	-0,128	-0,029
315,852	37,069	-0,137	-0,084
316,866	170,205	-0,140	-0,138
317,881	-200,000	-0,066	-0,206
318,895	223,278	-0,141	-0,157
319,910	109,021	-0,163	-0,134
320,925	-73,895	-0,145	-0,036
321,939	-137,316	-0,121	-0,009
322,954	123,553	-0,154	-0,133
323,968	43,129	-0,063	-0,040
324,983	-56,010	-0,236	-0,072
325,997	11,287	-0,114	-0,060
327,012	125,784	-0,128	-0,111
328,027	86,916	-0,214	-0,162
329,041	98,416	-0,075	-0,060
330,056	35,381	-0,076	-0,046
331,070	-47,887	0,024	-0,008
332,085	115,283	-0,092	-0,077
333,100	32,446	-0,193	-0,114
334,114	56,502	-0,127	-0,085
335,129	25,533	-0,158	-0,090
336,143	128,877	-0,135	-0,119
337,158	219,005	-0,090	-0,099
338,173	-14,144	0,014	-0,006
339,187	-50,035	-0,139	-0,045
340,202	181,193	-0,101	-0,102
341,216	800,000	-0,083	-0,229
342,231	73,435	-0,165	-0,118
343,246	-200,000	-0,030	-0,225
344,260	-32,671	-0,111	-0,042
345,275	-200,000	-0,039	-0,140
346,289	367,457	-0,074	-0,103
347,304	800,000	-0,043	-0,102
348,319	-62,158	-0,085	0,024
349,333	-33,454	-0,110	-0,042
350,348	-200,000	-0,041	-0,163
351,362	800,000	0,046	-0,115
352,377	-107,505	-0,184	-0,027
353,392	39,368	-0,152	-0,093
354,406	-71,608	-0,189	0,048
355,421	209,475	1313,533	1413,884
356,435	161,217	1474,128	1414,368
