DTS Sentinel unit serial number:	SN410029Multiplexer serial number:	ORYXHardware model number:	OX2-SRSoftware version number:	ORYX F/W v4,00 Oryx Data Collector v3.7.2.0data status	okinstallation	B3 Nyhavnadifferential loss correction	single-endedforward channel	channel 1reverse channel	N/Adate	2023/11/30time	19:52:30forward acquisition time	300,00reverse acquisition time	0,00gamma	499,1914k internal	0,3207k external	0,3207temperature offset calibration	1,0000default loss term (dB/km)	0,3820temperature slope calibration	1,0000multiplexer offset coefficient	1,0000multiplexer slope coefficient	1,0000fibre end	0,00T internal ref (°C)	11,69T ext. ref 1 (°C)	-3,69T ext. ref 2 (°C)	-3,82length (m)	temperature (°C)	Stokes	anti-Stokes-744,400	800,000	-0,108	-0,294
-743,385	-200,000	-0,030	0,228
-742,371	-133,275	-0,122	-0,011
-741,356	-200,000	0,028	0,225
-740,342	327,610	-0,230	-0,321
-739,327	-200,000	0,092	0,414
-738,312	202,231	-0,250	-0,280
-737,298	-200,000	0,069	0,245
-736,283	218,512	-0,249	-0,289
-735,269	800,000	0,127	0,271
-734,254	-200,000	-0,039	-0,222
-733,239	-116,527	-0,237	-0,031
-732,225	800,000	-0,086	-0,182
-731,210	-200,000	-0,008	0,100
-730,196	617,547	-0,022	-0,040
-729,181	-200,000	0,000	0,090
-728,167	236,954	0,089	-0,107
-727,152	-141,363	-0,118	-0,009
-726,137	-200,000	0,008	-0,079
-725,123	250,824	-0,030	0,037
-724,108	-200,000	-0,028	-0,146
-723,094	391,526	-0,044	-0,067
-722,079	692,685	-0,062	-0,118
-721,064	243,607	-0,071	-0,086
-720,050	-149,362	-0,110	0,006
-719,035	-117,241	0,148	0,019
-718,021	355,578	-0,073	-0,105
-717,006	-200,000	-0,018	-0,192
-715,991	8,089	-0,212	-0,115
-714,977	527,917	0,034	-0,059
-713,962	-185,438	0,010	-0,000
-712,948	-133,185	-0,088	-0,008
-711,933	-125,937	-0,058	-0,006
-710,918	800,000	0,056	-0,123
-709,904	13,878	0,071	-0,040
-708,889	-171,376	-0,161	-0,004
-707,875	-59,098	-0,034	-0,010
-706,860	21,831	-0,080	-0,047
-705,845	800,000	0,035	0,093
-704,831	194,442	0,079	0,087
-703,816	-200,000	-0,038	-0,141
-702,802	61,216	-0,113	-0,081
-701,787	800,000	-0,033	-0,084
-700,772	570,514	-0,027	0,048
-699,758	-200,000	-0,009	0,085
-698,743	-76,924	0,109	0,027
-697,729	-61,626	0,112	-0,034
-696,714	-200,000	-0,000	-0,062
-695,699	800,000	-0,064	-0,198
-694,685	-12,240	-0,041	-0,019
-693,670	-110,769	-0,158	0,023
-692,656	167,225	0,102	-0,105
-691,641	286,112	0,022	-0,029
-690,627	574,821	0,017	0,031
-689,612	574,008	0,074	0,132
-688,597	-200,000	0,009	0,099
-687,583	351,330	-0,129	-0,186
-686,568	260,807	0,134	-0,168
-685,554	639,574	0,032	-0,060
-684,539	294,690	-0,065	0,086
-683,524	144,276	-0,086	0,083
-682,510	-26,833	-0,118	-0,050
-681,495	7,391	-0,075	-0,040
-680,481	451,957	0,052	-0,083
-679,466	69,998	-0,209	-0,156
-678,451	-153,400	0,041	0,002
-677,437	800,000	0,050	-0,140
-676,422	-200,000	0,011	-0,050
-675,408	800,000	-0,032	0,090
-674,393	-200,000	0,003	0,116
-673,378	80,938	-0,102	-0,080
-672,364	143,902	0,069	-0,066
-671,349	193,119	-0,123	-0,135
-670,335	73,190	0,059	-0,045
-669,320	-200,000	0,001	-0,046
-668,305	800,000	-0,032	0,097
-667,291	-200,000	-0,012	-0,074
-666,276	800,000	-0,094	-0,215
-665,262	800,000	0,046	-0,103
-664,247	69,551	-0,125	-0,093
-663,232	439,418	-0,091	-0,144
-662,218	-200,000	-0,042	0,165
-661,203	-200,000	-0,008	-0,081
-660,189	-74,293	0,123	0,032
-659,174	37,003	0,074	0,047
-658,159	743,452	-0,046	-0,091
-657,145	263,839	0,032	0,040
-656,130	-7,209	-0,107	-0,052
-655,116	-98,863	0,088	0,016
-654,101	144,024	0,011	0,011
-653,086	800,000	0,031	0,070
-652,072	-200,000	-0,017	-0,203
-651,057	800,000	-0,041	-0,116
-650,043	381,413	0,031	-0,046
-649,028	664,572	0,051	-0,095
-648,014	-200,000	0,010	-0,060
-646,999	-200,000	0,005	-0,043
-645,984	152,467	0,109	-0,107
-644,970	-62,663	-0,143	-0,043
-643,955	34,523	-0,049	0,031
-642,941	-142,273	-0,083	-0,006
-641,926	-200,000	0,013	0,050
-640,911	96,738	0,068	0,056
-639,897	73,832	-0,129	0,098
-638,882	-27,250	-0,138	-0,058
-637,868	-52,026	-0,013	-0,004
-636,853	-200,000	0,015	0,093
-635,838	-200,000	-0,014	-0,107
-634,824	349,082	-0,058	0,083
-633,809	-33,097	0,115	-0,046
-632,795	800,000	-0,018	0,049
-631,780	789,943	0,042	0,083
-630,765	102,997	-0,042	0,036
-629,751	-200,000	-0,008	-0,071
-628,736	391,231	-0,097	-0,146
-627,722	800,000	-0,057	-0,150
-626,707	638,859	-0,024	0,044
-625,692	129,348	0,071	0,066
-624,678	800,000	-0,040	-0,079
-623,663	-200,000	-0,008	-0,036
-622,649	45,874	-0,111	-0,074
-621,634	-36,282	-0,097	-0,038
-620,619	-55,000	0,054	-0,018
-619,605	-200,000	-0,004	-0,023
-618,590	93,960	0,111	0,091
-617,576	2,180	0,142	-0,074
-616,561	-2,138	-0,164	-0,083
-615,546	62,790	0,053	-0,038
-614,532	427,297	0,023	-0,037
-613,517	-66,694	-0,140	0,040
-612,503	-25,532	0,162	-0,069
-611,488	13,556	-0,106	-0,059
-610,474	800,000	-0,019	0,048
-609,459	-200,000	0,013	0,073
-608,444	117,059	0,070	-0,062
-607,430	-26,970	-0,066	0,028
-606,415	483,733	0,034	0,056
-605,401	102,939	0,033	-0,028
-604,386	800,000	0,031	0,087
-603,371	-42,893	0,072	-0,026
-602,357	-200,000	0,013	0,063
-601,342	-39,637	-0,113	-0,042
-600,328	-50,460	-0,065	-0,022
-599,313	-200,000	0,022	0,075
-598,298	-98,372	-0,083	-0,015
-597,284	800,000	0,067	0,136
-596,269	800,000	-0,028	-0,080
-595,255	-200,000	-0,004	-0,021
-594,240	-182,769	-0,059	0,001
-593,225	-83,191	-0,069	-0,016
-592,211	-200,000	0,007	-0,049
-591,196	187,594	0,145	-0,156
-590,182	-200,000	-0,014	0,046
-589,167	-200,000	0,031	0,123
-588,152	501,894	0,068	-0,114
-587,138	-57,621	-0,107	0,034
-586,123	124,948	-0,100	-0,091
-585,109	-200,000	-0,001	0,068
-584,094	-46,846	0,035	-0,012
-583,079	-69,630	0,048	0,013
-582,065	-109,807	-0,082	0,012
-581,050	800,000	-0,014	-0,031
-580,036	-2,148	0,058	0,029
-579,021	-122,569	0,081	-0,009
-578,006	59,439	-0,141	-0,100
-576,992	-200,000	-0,006	0,050
-575,977	-96,307	0,042	-0,008
-574,963	-200,000	-0,013	0,052
-573,948	-200,000	-0,065	0,212
-572,934	-200,000	0,007	0,125
-571,919	-37,729	-0,053	-0,020
-570,904	55,760	-0,068	-0,048
-569,890	-200,000	0,016	-0,057
-568,875	181,148	-0,113	0,120
-567,861	242,479	-0,061	0,074
-566,846	-200,000	0,005	0,026
-565,831	800,000	0,043	-0,113
-564,817	-8,542	-0,032	0,016
-563,802	-53,239	-0,090	0,030
-562,788	49,253	0,085	-0,058
-561,773	262,915	0,033	-0,041
-560,758	-165,157	-0,040	0,001
-559,744	340,256	0,038	0,054
-558,729	800,000	-0,049	0,126
-557,715	64,135	-0,078	-0,057
-556,700	19,935	-0,068	-0,039
-555,685	800,000	0,024	0,048
-554,671	-200,000	0,009	0,131
-553,656	-48,648	-0,087	0,030
-552,642	-200,000	0,006	0,115
-551,627	50,400	0,055	-0,037
-550,612	-200,000	-0,035	-0,127
-549,598	-122,147	-0,081	0,010
-548,583	574,149	-0,026	0,045
-547,569	-200,000	-0,001	-0,008
-546,554	-200,000	0,015	0,115
-545,539	-200,000	-0,028	0,206
-544,525	-200,000	0,008	-0,071
-543,510	234,199	-0,046	0,054
-542,496	-144,093	-0,098	-0,007
-541,481	145,518	-0,022	-0,021
-540,466	-200,000	-0,005	0,079
-539,452	-200,000	0,018	0,086
-538,437	280,057	0,045	0,058
-537,423	-20,253	-0,072	-0,032
-536,408	662,645	-0,067	-0,124
-535,393	582,445	0,056	-0,099
-534,379	-101,461	-0,102	-0,018
-533,364	-200,000	0,007	-0,111
-532,350	8,834	-0,043	-0,023
-531,335	15,769	0,124	-0,070
-530,321	556,539	-0,038	0,067
-529,306	640,866	0,067	-0,123
-528,291	5,894	-0,160	0,085
-527,277	-38,182	-0,106	-0,040
-526,262	227,971	-0,052	0,061
-525,248	-173,032	0,065	-0,001
-524,233	-107,535	0,078	0,012
-523,218	11,132	0,042	0,023
-522,204	-200,000	0,049	-0,185
-521,189	-91,889	-0,148	-0,030
-520,175	-200,000	0,018	0,101
-519,160	459,193	-0,014	-0,022
-518,145	-150,806	-0,194	0,010
-517,131	34,756	-0,083	-0,052
-516,116	263,108	-0,016	-0,020
-515,102	-61,958	0,034	0,010
-514,087	-200,000	0,001	-0,043
-513,072	-200,000	-0,009	-0,133
-512,058	-200,000	-0,057	-0,202
-511,043	508,811	0,016	0,027
-510,029	189,263	0,025	-0,027
-509,014	21,835	-0,229	0,134
-507,999	281,743	-0,098	-0,126
-506,985	-20,344	-0,127	0,056
-505,970	170,291	-0,074	0,077
-504,956	347,014	-0,028	-0,040
-503,941	-200,000	-0,008	-0,051
-502,926	-200,000	-0,040	0,132
-501,912	800,000	0,032	0,068
-500,897	49,582	-0,129	-0,087
-499,883	-200,000	0,031	-0,114
-498,868	182,326	-0,088	0,093
-497,853	-18,606	-0,085	-0,038
-496,839	-200,000	-0,014	-0,172
-495,824	442,246	0,070	-0,110
-494,810	144,727	0,086	0,083
-493,795	53,275	-0,059	0,040
-492,781	69,141	0,116	-0,086
-491,766	-200,000	0,006	0,037
-490,751	257,786	-0,023	-0,028
-489,737	748,059	-0,063	0,122
-488,722	-200,000	0,024	-0,138
-487,708	-200,000	0,029	0,172
-486,693	518,811	0,053	0,090
-485,678	-106,601	0,064	-0,010
-484,664	209,572	-0,122	-0,138
-483,649	-100,627	0,041	-0,007
-482,635	-200,000	0,012	-0,150
-481,620	-136,868	0,136	-0,011
-480,605	-200,000	-0,007	-0,074
-479,591	-141,242	-0,076	0,005
-478,576	-107,611	0,121	0,019
-477,562	-107,969	-0,105	0,016
-476,547	-170,713	-0,129	0,003
-475,532	-65,912	0,130	-0,037
-474,518	800,000	0,015	-0,041
-473,503	66,867	0,077	-0,056
-472,489	3,540	0,221	0,115
-471,474	152,828	-0,136	0,134
-470,459	303,756	-0,030	-0,040
-469,445	244,583	-0,073	-0,088
-468,430	-69,651	0,040	0,011
-467,416	800,000	0,043	-0,109
-466,401	262,230	0,111	0,139
-465,386	-200,000	-0,003	0,086
-464,372	104,091	-0,072	-0,060
-463,357	331,951	-0,036	-0,051
-462,343	-104,885	-0,048	0,008
-461,328	-200,000	-0,004	0,016
-460,313	800,000	-0,032	-0,067
-459,299	218,124	0,113	0,130
-458,284	-200,000	-0,007	0,201
-457,270	800,000	0,013	-0,040
-456,255	-82,136	0,137	-0,032
-455,241	571,600	-0,117	-0,206
-454,226	-200,000	-0,028	-0,152
-453,211	-42,489	0,044	0,016
-452,197	490,524	0,057	0,094
-451,182	111,318	-0,123	-0,106
-450,168	-87,610	0,046	0,010
-449,153	-200,000	-0,004	-0,023
-448,138	-200,000	0,015	-0,077
-447,124	468,696	-0,129	-0,209
-446,109	530,599	-0,025	-0,043
-445,095	97,235	0,051	-0,042
-444,080	800,000	0,016	-0,039
-443,065	226,535	0,070	0,081
-442,051	544,050	0,044	-0,076
-441,036	209,229	-0,054	-0,061
-440,022	352,429	-0,082	-0,116
-439,007	-200,000	-0,049	0,000
-437,992	800,000	-0,035	0,101
-436,978	64,998	0,064	0,046
-435,963	-200,000	-0,018	-0,076
-434,949	-129,486	-0,120	-0,012
-433,934	800,000	-0,022	0,057
-432,919	277,908	-0,090	-0,115
-431,905	203,309	-0,067	-0,075
-430,890	-26,057	0,127	0,053
-429,876	-200,000	0,009	0,116
-428,861	-200,000	0,014	0,153
-427,846	-0,170	-0,100	0,051
-426,832	-200,000	-0,014	0,060
-425,817	28,826	-0,082	0,050
-424,803	800,000	0,023	-0,058
-423,788	471,659	0,096	0,156
-422,773	33,090	-0,035	0,022
-421,759	800,000	0,066	-0,159
-420,744	-92,242	0,195	0,039
-419,730	151,679	0,066	0,064
-418,715	8,770	-0,095	-0,051
-417,701	49,932	0,083	0,056
-416,686	109,345	0,023	0,020
-415,671	-41,074	0,202	-0,075
-414,657	800,000	0,071	0,155
-413,642	63,252	0,068	-0,049
-412,628	-72,191	-0,173	0,046
-411,613	-137,554	0,167	-0,013
-410,598	-200,000	-0,004	0,036
-409,584	168,853	-0,047	0,048
-408,569	-121,377	0,147	-0,017
-407,555	-29,053	0,117	0,048
-406,540	-23,268	0,206	0,089
-405,525	679,229	-0,042	-0,079
-404,511	-13,931	0,136	0,063
-403,496	159,121	-0,138	0,138
-402,482	-121,019	0,170	-0,020
-401,467	-35,361	0,109	0,042
-400,452	16,404	0,016	-0,009
-399,438	77,398	0,085	0,064
-398,423	-200,000	0,007	-0,068
-397,409	-103,125	0,123	0,021
-396,394	428,141	0,048	0,074
-395,379	3,147	0,062	0,032
-394,365	35,644	0,055	-0,035
-393,350	-100,748	0,136	0,024
-392,336	800,000	-0,007	0,014
-391,321	-200,000	-0,003	-0,070
-390,306	402,290	0,045	-0,068
-389,292	245,024	-0,095	-0,115
-388,277	-119,982	0,139	-0,017
-387,263	-43,008	0,080	0,029
-386,248	-50,168	-0,092	0,031
-385,233	45,225	-0,118	-0,078
-384,219	80,203	-0,045	0,034
-383,204	800,000	-0,046	-0,143
-382,190	298,152	-0,048	-0,064
-381,175	800,000	0,022	-0,045
-380,160	-183,347	0,109	-0,001
-379,146	-200,000	-0,008	-0,062
-378,131	-51,554	0,067	0,022
-377,117	0,096	0,167	0,085
-376,102	303,523	0,026	-0,035
-375,088	666,082	-0,050	0,093
-374,073	-4,595	0,106	0,052
-373,058	-200,000	-0,014	-0,083
-372,044	-200,000	-0,017	0,176
-371,029	186,333	0,105	0,112
-370,015	6,014	-0,024	0,013
-369,000	562,138	-0,055	-0,096
-367,985	-135,247	0,026	0,002
-366,971	201,113	-0,098	-0,108
-365,956	20,592	0,131	0,075
-364,942	-3,203	0,176	0,087
-363,927	36,333	-0,075	0,047
-362,912	-200,000	0,006	0,162
-361,898	-77,182	0,077	-0,019
-360,883	-200,000	-0,014	0,062
-359,869	-10,773	0,042	-0,020
-358,854	745,907	0,029	-0,056
-357,839	382,772	0,055	0,081
-356,825	81,892	0,092	0,071
-355,810	-200,000	-0,003	0,056
-354,796	-200,000	0,009	-0,048
-353,781	-3,731	0,059	-0,029
-352,766	40,627	-0,050	0,032
-351,752	-107,861	0,054	0,008
-350,737	212,799	-0,049	0,055
-349,723	313,031	0,054	-0,072
-348,708	326,017	0,053	0,073
-347,693	-116,838	0,029	-0,004
-346,679	-165,862	0,133	0,004
-345,664	-200,000	-0,048	0,198
-344,650	-200,000	0,011	0,042
-343,635	-106,954	0,155	0,024
-342,620	-38,177	0,107	0,040
-341,606	-200,000	0,000	-0,054
-340,591	93,899	-0,021	-0,017
-339,577	69,081	-0,078	0,057
-338,562	-26,547	-0,038	-0,016
-337,548	308,171	0,023	-0,031
-336,533	-200,000	0,020	0,122
-335,518	800,000	-0,006	0,011
-334,504	-53,522	0,072	0,024
-333,489	-34,797	-0,048	-0,019
-332,475	-197,028	-0,096	0,000
-331,460	79,028	0,075	0,058
-330,445	-200,000	-0,013	0,053
-329,431	-200,000	-0,011	0,159
-328,416	-161,175	0,115	0,004
-327,402	-200,000	-0,006	0,153
-326,387	508,534	-0,048	0,079
-325,372	-114,531	-0,058	-0,008
-324,358	-200,000	0,000	-0,041
-323,343	-42,382	0,153	-0,055
-322,329	-76,515	-0,062	0,015
-321,314	-88,649	0,091	0,019
-320,299	800,000	-0,059	0,173
-319,285	-200,000	0,015	0,087
-318,270	-144,438	0,066	-0,004
-317,256	55,095	-0,085	-0,058
-316,241	176,331	0,054	0,056
-315,226	-101,461	0,078	0,013
-314,212	-153,717	0,056	-0,003
-313,197	-200,000	0,022	0,095
-312,183	394,487	-0,039	0,058
-311,168	-200,000	0,012	-0,054
-310,153	-200,000	0,023	-0,087
-309,139	136,409	-0,125	-0,117
-308,124	-164,218	-0,057	-0,002
-307,110	-200,000	-0,009	0,043
-306,095	-200,000	-0,004	0,080
-305,080	8,249	-0,069	-0,037
-304,066	76,868	-0,088	-0,067
-303,051	60,329	-0,046	0,033
-302,037	171,174	-0,084	-0,086
-301,022	-96,826	0,132	-0,025
-300,008	557,389	-0,048	0,082
-298,993	-144,180	0,203	0,013
-297,978	-187,326	0,081	-0,001
-296,964	234,674	-0,022	0,026
-295,949	320,330	-0,020	0,028
-294,935	14,811	0,172	-0,096
-293,920	800,000	-0,032	-0,068
-292,905	800,000	-0,019	0,044
-291,891	-200,000	0,002	0,051
-290,876	172,091	-0,010	-0,011
-289,862	-135,430	-0,090	-0,008
-288,847	-139,614	0,116	-0,009
-287,832	173,849	-0,112	-0,115
-286,818	-200,000	-0,010	-0,095
-285,803	18,876	0,075	-0,043
-284,789	-163,712	-0,097	0,003
-283,774	61,200	-0,099	0,070
-282,759	221,006	0,057	0,066
-281,745	506,673	-0,015	-0,025
-280,730	-82,764	-0,032	-0,007
-279,716	-109,584	0,133	0,020
-278,701	-200,000	0,021	-0,065
-277,686	138,579	-0,063	0,059
-276,672	-44,649	0,136	-0,048
-275,657	-61,840	-0,118	0,035
-274,643	250,595	0,061	-0,074
-273,628	79,290	-0,148	-0,113
-272,613	800,000	-0,031	-0,097
-271,599	330,382	0,088	0,121
-270,584	800,000	-0,013	-0,028
-269,570	379,980	0,039	-0,058
-268,555	-136,367	-0,147	0,012
-267,540	-63,788	0,155	0,045
-266,526	435,721	0,082	-0,128
-265,511	-128,588	-0,145	-0,014
-264,497	-140,782	0,027	-0,002
-263,482	9,366	0,126	-0,068
-262,467	409,128	0,039	0,059
-261,453	800,000	-0,018	0,039
-260,438	-147,980	-0,049	-0,003
-259,424	221,104	-0,064	0,074
-258,409	-93,020	0,033	0,007
-257,395	-200,000	0,008	0,060
-256,380	198,295	-0,022	0,024
-255,365	2,208	-0,024	-0,012
-254,351	-86,725	-0,117	-0,025
-253,336	-124,769	-0,033	0,004
-252,322	-133,572	-0,080	-0,007
-251,307	-30,432	0,128	0,051
-250,292	-117,743	0,059	0,008
-249,278	-200,000	0,006	-0,117
-248,263	-200,000	0,002	0,084
-247,249	-200,000	-0,012	0,050
-246,234	-200,000	0,015	-0,102
-245,219	-200,000	-0,022	-0,165
-244,205	-200,000	-0,040	0,000
-243,190	-59,244	-0,028	0,009
-242,176	96,632	-0,053	0,043
-241,161	-200,000	0,026	0,107
-240,146	-67,759	0,172	-0,048
-239,132	-93,289	0,056	-0,011
-238,117	-200,000	-0,222	0,001
-237,103	-200,000	-0,021	0,111
-236,088	-200,000	-0,012	-0,047
-235,073	277,533	0,059	-0,075
-234,059	1,094	-0,063	0,032
-233,044	269,488	-0,062	-0,078
-232,030	-200,000	0,012	-0,070
-231,015	534,206	0,010	-0,016
-230,000	-68,979	-0,042	0,011
-228,986	-76,293	0,083	-0,021
-227,971	735,248	-0,016	-0,030
-226,957	248,357	-0,102	0,122
-225,942	324,705	0,061	0,083
-224,927	800,000	0,046	0,098
-223,913	123,022	-0,034	0,030
-222,898	-200,000	0,008	-0,057
-221,884	-200,000	-0,002	0,048
-220,869	-152,687	0,121	-0,006
-219,855	-200,000	0,037	0,172
-218,840	800,000	0,095	0,210
-217,825	-39,327	-0,109	-0,041
-216,811	800,000	-0,058	-0,127
-215,796	-39,045	-0,121	-0,045
-214,782	-101,265	0,007	0,001
-213,767	800,000	0,037	-0,110
-212,752	2,590	0,179	0,092
-211,738	156,892	0,075	0,074
-210,723	109,362	-0,123	-0,105
-209,709	545,028	-0,150	-0,255
-208,694	10,274	-0,159	-0,086
-207,679	-41,864	0,014	0,005
-206,665	693,510	-0,019	0,036
-205,650	800,000	0,085	0,224
-204,636	32,940	0,014	0,009
-203,621	45,446	-0,168	0,110
-202,606	-132,584	-0,110	-0,010
-201,592	-200,000	-0,019	-0,147
-200,577	360,801	-0,024	0,034
-199,563	-200,000	0,006	-0,051
-198,548	-84,659	0,124	0,028
-197,533	800,000	-0,027	0,062
-196,519	393,347	-0,058	-0,085
-195,504	251,107	-0,115	-0,139
-194,490	117,976	0,060	0,052
-193,475	146,505	-0,123	-0,117
-192,460	-200,000	-0,000	-0,030
-191,446	132,701	0,117	-0,107
-190,431	-200,000	0,044	-0,168
-189,417	800,000	-0,026	0,059
-188,402	773,655	0,046	0,090
-187,387	-200,000	-0,047	-0,243
-186,373	-200,000	0,015	0,133
-185,358	139,934	0,097	-0,091
-184,344	145,494	0,132	0,125
-183,329	-200,000	0,003	0,033
-182,315	800,000	0,040	0,086
-181,300	-107,477	-0,173	-0,027
-180,285	-92,093	-0,184	0,037
-179,271	-192,662	-0,091	-0,001
-178,256	-12,448	0,031	0,014
-177,242	-200,000	-0,003	-0,050
-176,227	85,240	-0,070	-0,055
-175,212	-31,590	0,064	0,026
-174,198	-17,533	-0,067	-0,030
-173,183	-106,299	0,043	-0,007
-172,169	-90,692	-0,053	-0,011
-171,154	800,000	0,038	-0,086
-170,139	-183,678	0,137	-0,002
-169,125	-41,751	0,110	0,040
-168,110	-200,000	-0,001	0,019
-167,096	800,000	0,074	0,152
-166,081	-0,989	-0,077	-0,039
-165,066	800,000	-0,051	-0,115
-164,052	-200,000	-0,006	-0,032
-163,037	-72,643	0,082	-0,021
-162,023	-46,159	0,062	-0,021
-161,008	27,056	-0,163	0,097
-159,993	31,494	0,031	0,019
-158,979	-4,902	0,015	-0,007
-157,964	-200,000	0,009	-0,098
-156,950	268,777	-0,023	-0,029
-155,935	-165,921	0,160	-0,005
-154,920	746,966	0,057	0,108
-153,906	-154,184	0,037	0,002
-152,891	-140,583	-0,120	-0,009
-151,877	-73,890	0,184	0,047
-150,862	-77,560	-0,091	0,022
-149,847	62,100	-0,041	-0,029
-148,833	800,000	-0,016	-0,034
-147,818	-200,000	0,003	0,046
-146,804	169,182	-0,148	0,150
-145,789	800,000	0,035	0,069
-144,775	673,479	0,041	-0,075
-143,760	-52,043	-0,020	0,007
-142,745	0,091	0,116	0,058
-141,731	177,837	0,078	0,080
-140,716	-40,672	0,167	0,061
-139,702	-200,000	0,015	-0,079
-138,687	-129,347	0,110	-0,011
-137,672	68,411	-0,016	-0,012
-136,658	301,012	-0,058	-0,076
-135,643	-200,000	-0,019	-0,171
-134,629	-107,925	0,139	0,021
-133,614	6,316	-0,112	0,059
-132,599	-200,000	-0,012	-0,069
-131,585	-200,000	-0,029	-0,241
-130,570	-200,000	-0,013	-0,069
-129,556	-200,000	0,001	0,069
-128,541	-200,000	-0,007	-0,072
-127,526	-76,330	-0,165	-0,041
-126,512	156,802	0,078	0,076
-125,497	178,932	0,085	-0,088
-124,483	800,000	-0,041	-0,122
-123,468	20,050	0,068	-0,039
-122,453	214,902	-0,056	-0,063
-121,439	-200,000	-0,008	-0,140
-120,424	-200,000	0,005	-0,140
-119,410	166,732	-0,035	-0,036
-118,395	683,670	0,047	-0,087
-117,380	-164,347	0,092	0,003
-116,366	-134,067	-0,086	0,007
-115,351	192,602	-0,082	0,088
-114,337	118,617	0,068	0,060
-113,322	319,236	-0,023	-0,031
-112,307	800,000	-0,064	-0,152
-111,293	-62,802	-0,062	-0,018
-110,278	800,000	0,022	-0,049
-109,264	100,448	-0,050	0,041
-108,249	-55,276	-0,134	0,043
-107,234	103,377	-0,036	-0,030
-106,220	-118,787	-0,038	-0,005
-105,205	-78,476	-0,134	0,032
-104,191	800,000	0,018	-0,053
-103,176	527,150	0,012	0,020
-102,162	-90,693	0,074	0,015
-101,147	29,370	0,044	0,026
-100,132	-129,062	-0,177	0,017
-99,118	-78,893	-0,081	-0,019
-98,103	800,000	0,050	0,114
-97,089	124,276	-0,035	0,031
-96,074	-4,776	0,026	-0,013
-95,059	-43,812	0,087	-0,031
-94,045	-200,000	-0,012	-0,067
-93,030	-200,000	-0,011	-0,117
-92,016	-200,000	0,068	0,000
-91,001	-200,000	0,166	0,001
-89,986	-200,000	0,005	-0,167
-88,972	-200,000	-0,006	0,033
-87,957	800,000	0,014	-0,029
-86,943	-179,659	-0,029	0,000
-85,928	358,989	-0,020	0,028
-84,913	-63,893	-0,050	-0,014
-83,899	-115,806	0,068	-0,009
-82,884	800,000	-0,017	-0,043
-81,870	800,000	0,019	0,059
-80,855	800,000	-0,027	0,060
-79,840	800,000	0,029	0,058
-78,826	-200,000	-0,004	0,046
-77,811	-200,000	0,011	-0,152
-76,797	87,901	-0,067	0,052
-75,782	-200,000	0,013	0,073
-74,767	177,194	0,078	0,081
-73,753	275,357	-0,059	0,074
-72,738	60,511	-0,074	-0,052
-71,724	66,836	-0,043	-0,031
-70,709	-200,000	0,003	-0,183
-69,694	544,909	-0,030	-0,050
-68,680	-200,000	-0,006	0,024
-67,665	-200,000	-0,004	0,013
-66,651	177,171	-0,038	0,040
-65,636	-122,074	-0,076	-0,009
-64,622	94,822	-0,103	-0,083
-63,607	-200,000	-0,007	-0,052
-62,592	-200,000	-0,008	0,085
-61,578	-159,878	0,030	0,001
-60,563	800,000	0,017	-0,040
-59,549	-200,000	0,001	0,024
-58,534	5,613	-1,872	-0,974
-57,519	414,398	-1,402	-2,116
-56,505	-200,000	-0,317	-4,286
-55,490	399,404	0,908	1,349
-54,476	800,000	5,021	11,411
-53,461	-200,000	20,521	329,432
-52,446	800,000	752,307	2316,113
-51,432	550,671	1659,483	2824,385
-50,417	74,401	1666,515	1236,291
-49,403	19,563	1539,759	872,739
-48,388	13,496	1462,425	799,489
-47,373	18,926	1452,962	820,418
-46,359	16,417	1442,310	802,401
-45,344	11,814	1437,955	777,978
-44,330	11,731	1436,250	776,631
-43,315	11,735	1434,368	775,599
-42,300	11,753	1432,612	774,708
-41,286	11,802	1431,362	774,230
-40,271	11,670	1430,250	772,972
-39,257	11,681	1429,104	772,374
-38,242	11,780	1427,623	772,013
-37,227	11,731	1426,648	771,221
-36,213	11,779	1425,202	770,635
-35,198	11,768	1424,073	769,943
-34,184	11,832	1423,241	769,769
-33,169	11,760	1421,791	768,613
-32,154	11,793	1420,717	768,156
-31,140	11,809	1419,568	767,580
-30,125	11,846	1418,318	767,047
-29,111	11,798	1417,201	766,189
-28,096	11,797	1416,092	765,551
-27,082	11,735	1414,973	764,625
-26,067	11,705	1413,953	763,902
-25,052	11,730	1412,961	763,456
-24,038	11,735	1411,709	762,771
-23,023	11,686	1410,877	762,062
-22,009	11,673	1409,941	761,468
-20,994	11,702	1409,012	761,070
-19,979	11,749	1407,929	760,673
-18,965	11,653	1407,006	759,696
-17,950	11,693	1406,157	759,394
-16,936	11,697	1405,206	758,870
-15,921	11,644	1404,132	758,014
-14,906	11,605	1403,447	757,429
-13,892	11,670	1402,437	757,157
-12,877	11,619	1401,899	756,600
-11,863	11,613	1400,822	755,962
-10,848	11,645	1399,633	755,440
-9,833	11,557	1399,019	754,669
-8,819	11,555	1398,028	754,093
-7,804	11,511	1397,322	753,479
-6,790	11,530	1396,254	752,960
-5,775	11,537	1395,012	752,292
-4,760	11,540	1394,043	751,757
-3,746	11,592	1393,218	751,521
-2,731	11,567	1392,475	750,973
-1,717	11,504	1391,582	750,171
-0,702	11,497	1389,811	749,155
0,313	15,421	1304,327	721,133
1,327	31,667	696,450	422,203
2,342	49,316	121,205	80,360
3,356	2,057	16,474	8,372
4,371	16,860	3,203	1,785
5,386	8,047	0,606	0,320
6,400	-200,000	0,089	0,465
7,415	24,053	-0,209	-0,121
8,429	-69,792	-0,305	-0,082
9,444	-13,522	-0,262	-0,119
10,459	108,383	-0,204	-0,172
11,473	31,510	-0,312	-0,189
12,488	-34,558	-0,269	-0,103
13,502	109,875	-0,270	-0,228
14,517	171,303	-0,258	-0,262
15,531	128,118	-0,276	-0,248
16,546	70,113	-0,323	-0,235
17,561	114,408	-0,383	-0,329
18,575	384,105	-0,132	-0,192
19,590	228,803	-0,164	-0,189
20,604	-50,241	-0,323	-0,107
21,619	45,432	-0,578	-0,376
22,634	73,234	-0,416	-0,307
23,648	57,139	-0,300	-0,206
24,663	261,594	-0,340	-0,417
25,677	464,329	-0,199	-0,315
26,692	249,300	-0,238	-0,285
27,707	500,562	-0,205	-0,334
28,721	208,390	-0,335	-0,369
29,736	59,178	-0,423	-0,293
30,750	62,715	-0,475	-0,334
31,765	9,157	-0,415	-0,220
32,780	78,471	-0,306	-0,230
33,794	185,641	-0,287	-0,301
34,809	93,638	-0,221	-0,176
35,823	39,866	-0,315	-0,199
36,838	-20,581	-0,410	-0,177
37,853	84,326	-0,297	-0,228
38,867	248,912	-0,255	-0,305
39,882	123,162	-0,339	-0,299
40,896	61,239	-0,280	-0,196
41,911	36,976	-0,355	-0,220
42,926	121,231	-0,422	-0,370
43,940	38,815	-0,348	-0,218
44,955	-16,605	-0,467	-0,207
45,969	116,518	-0,405	-0,349
46,984	525,528	-0,209	-0,347
47,999	59,518	-0,304	-0,211
49,013	125,914	-0,234	-0,208
50,028	44,918	-0,359	-0,232
51,042	94,922	-0,268	-0,214
52,057	37,410	-0,368	-0,229
53,071	19,906	-0,356	-0,201
54,086	10,721	-0,329	-0,176
55,101	-4,420	-0,292	-0,141
56,115	-8,419	-0,309	-0,146
57,130	1,118	-0,359	-0,181
58,144	57,454	-0,252	-0,173
59,159	33,821	-0,433	-0,264
60,174	216,699	-0,229	-0,256
61,188	-15,712	-0,313	-0,140
62,203	348,058	-0,206	-0,287
63,217	-16,489	-0,282	-0,125
64,232	18,836	-0,327	-0,183
65,247	22,622	-0,471	-0,270
66,261	17,025	-0,372	-0,206
67,276	127,793	-0,239	-0,213
68,290	68,280	-0,288	-0,207
69,305	25,673	-0,211	-0,123
70,320	-110,024	-0,333	-0,048
71,334	-37,251	-0,260	-0,097
72,349	12,416	-0,380	-0,205
73,363	-63,975	-0,451	-0,129
74,378	44,123	-0,359	-0,231
75,393	-67,522	-0,438	-0,120
76,407	454,695	-0,142	-0,222
77,422	118,490	-0,333	-0,288
78,436	7,286	-0,312	-0,163
79,451	55,845	-0,273	-0,185
80,466	64,410	-0,375	-0,264
81,480	222,467	-0,275	-0,311
82,495	31,189	-0,334	-0,201
83,509	106,653	-0,287	-0,239
84,524	-44,055	-0,195	-0,068
85,539	69,835	-0,250	-0,180
86,553	15,746	-0,158	-0,087
87,568	159,670	-0,327	-0,319
88,582	515,207	-0,189	-0,311
89,597	62,396	-0,332	-0,232
90,611	62,789	-0,260	-0,182
91,626	71,841	-0,266	-0,193
92,641	-93,185	-0,371	-0,072
93,655	-30,909	-0,421	-0,166
94,670	-63,028	-0,360	-0,103
95,684	60,298	-0,433	-0,300
96,699	721,537	-0,181	-0,339
97,714	291,773	-0,211	-0,270
98,728	205,956	-0,144	-0,157
99,743	25,003	-0,260	-0,151
100,757	146,485	-0,281	-0,264
101,772	95,408	-0,336	-0,268
102,787	57,469	-0,328	-0,224
103,801	46,411	-0,341	-0,221
104,816	-33,636	-0,288	-0,111
105,830	46,003	-0,175	-0,113
106,845	-39,842	-0,210	-0,076
107,860	423,129	-0,146	-0,220
108,874	198,169	-0,179	-0,192
109,889	76,011	-0,218	-0,161
110,903	34,606	-0,352	-0,215
111,918	-33,591	-0,333	-0,128
112,933	-54,533	-0,244	-0,077
113,947	-76,133	-0,267	-0,065
114,962	154,862	-0,138	-0,133
115,976	112,091	-0,203	-0,171
116,991	800,000	-0,110	-0,223
118,006	416,961	-0,239	-0,358
119,020	43,544	-0,142	-0,091
120,035	-70,281	-0,189	-0,050
121,049	-6,962	-0,237	-0,112
122,064	-124,905	-0,234	0,025
123,079	49,250	-0,274	-0,180
124,093	88,269	-0,243	-0,188
125,108	213,264	-0,260	-0,288
126,122	36,764	-0,313	-0,193
127,137	800,000	-0,100	-0,244
128,151	416,944	-0,164	-0,245
129,166	-26,242	-0,164	-0,067
130,181	188,175	-0,231	-0,242
131,195	638,794	-0,175	-0,311
132,210	117,959	-0,314	-0,270
133,224	232,685	-0,221	-0,253
134,239	-4,851	-0,224	-0,107
135,254	93,311	-0,153	-0,121
136,268	-28,617	-0,331	-0,132
137,283	-102,275	-0,299	-0,050
138,297	-36,470	-0,246	-0,092
139,312	153,036	-0,277	-0,264
140,327	411,036	-0,176	-0,261
141,341	800,000	-0,104	-0,224
142,356	-28,519	-0,310	-0,124
143,370	326,509	-0,153	-0,205
144,385	-47,173	-0,283	-0,096
145,400	242,489	-0,165	-0,193
146,414	12,490	-0,380	-0,204
147,429	338,621	-0,131	-0,178
148,443	496,088	-0,155	-0,250
149,458	119,862	-0,219	-0,189
150,473	251,220	-0,162	-0,193
151,487	659,591	-0,114	-0,205
152,502	21,716	-0,234	-0,133
153,516	257,403	-0,119	-0,143
154,531	-23,190	-0,276	-0,115
155,546	232,906	-0,269	-0,309
156,560	0,677	-0,253	-0,125
157,575	124,626	-0,293	-0,257
158,589	243,856	-0,221	-0,259
159,604	-53,189	-0,386	-0,123
160,619	-26,727	-0,253	-0,103
161,633	67,470	-0,292	-0,207
162,648	28,152	-0,195	-0,114
163,662	156,351	-0,168	-0,162
164,677	56,348	-0,217	-0,147
165,692	-13,889	-0,237	-0,106
166,706	716,838	-0,142	-0,263
167,721	-47,306	-0,290	-0,098
168,735	-113,250	-0,227	-0,031
169,750	27,335	-0,194	-0,113
170,764	149,865	-0,244	-0,230
171,779	50,079	-0,342	-0,224
172,794	-23,758	-0,295	-0,122
173,808	-78,713	-0,313	-0,074
174,823	3,300	-0,351	-0,177
175,837	414,416	-0,211	-0,313
176,852	257,166	-0,121	-0,145
177,867	-141,709	-0,032	-0,002
178,881	-8,791	-0,206	-0,095
179,896	712,958	-0,179	-0,331
180,910	226,931	-0,169	-0,192
181,925	94,803	-0,271	-0,214
182,940	382,230	-0,111	-0,159
183,954	294,951	-0,193	-0,246
184,969	-50,228	-0,136	-0,045
185,983	462,467	-0,114	-0,177
186,998	3,219	-0,135	-0,068
188,013	-78,045	-0,249	-0,059
189,027	66,993	-0,325	-0,230
190,042	173,506	-0,162	-0,163
191,056	-66,027	-0,243	-0,067
192,071	55,238	-0,119	-0,080
193,086	55,498	-0,189	-0,127
194,100	-42,207	-0,158	-0,056
195,115	148,535	-0,289	-0,272
196,129	135,618	-0,158	-0,143
197,144	62,739	-0,374	-0,260
198,159	-46,813	-0,243	-0,082
199,173	525,750	-0,135	-0,222
200,188	18,889	-0,247	-0,137
201,202	73,638	-0,302	-0,219
202,217	-53,089	-0,267	-0,084
203,232	57,884	-0,270	-0,183
204,246	150,582	-0,211	-0,199
205,261	-116,022	-0,338	-0,043
206,275	68,812	-0,273	-0,194
207,290	80,145	-0,127	-0,094
208,304	57,259	-0,130	-0,088
209,319	99,257	-0,128	-0,103
210,334	94,574	-0,141	-0,111
211,348	98,505	-0,283	-0,226
212,363	70,450	-0,155	-0,111
213,377	755,038	-0,149	-0,280
214,392	430,277	-0,188	-0,283
215,407	-200,000	-0,071	-0,224
216,421	-47,681	-0,177	-0,059
217,436	67,035	-0,208	-0,147
218,450	283,341	-0,126	-0,157
219,465	700,696	-0,157	-0,288
220,480	-81,041	-0,124	-0,028
221,494	110,034	-0,229	-0,191
222,509	80,767	-0,210	-0,157
223,523	147,644	-0,146	-0,137
224,538	800,000	-0,103	-0,271
225,553	155,736	-0,157	-0,150
226,567	308,065	-0,119	-0,155
227,582	45,981	-0,242	-0,155
228,596	-83,034	-0,204	-0,045
229,611	-117,688	-0,087	0,011
230,626	-61,938	-0,076	-0,022
231,640	800,000	-0,071	-0,148
232,655	494,787	-0,120	-0,192
233,669	100,595	-0,279	-0,224
234,684	213,479	-0,093	-0,102
235,699	-112,983	-0,202	0,027
236,713	-5,447	-0,128	-0,061
237,728	261,470	-0,186	-0,224
238,742	800,000	-0,088	-0,198
239,757	87,583	-0,278	-0,212
240,772	-3,840	-0,136	-0,065
241,786	105,953	-0,169	-0,139
242,801	756,281	-0,114	-0,214
243,815	20,899	-0,167	-0,093
244,830	113,940	-0,092	0,077
245,844	264,547	-0,137	-0,165
246,859	337,722	-0,145	-0,196
247,874	236,051	-0,187	-0,214
248,888	-141,093	-0,272	-0,019
249,903	212,499	-0,210	-0,229
250,917	-4,500	-0,210	-0,100
251,932	-41,436	-0,132	-0,047
252,947	111,464	-0,199	-0,165
253,961	32,096	-0,229	-0,136
254,976	486,816	-0,157	-0,249
255,990	702,790	-0,129	-0,235
257,005	121,607	-0,203	-0,175
258,020	144,441	-0,116	-0,107
259,034	-29,311	-0,086	-0,034
260,049	-28,421	-0,260	-0,103
261,063	79,395	-0,080	0,059
262,078	188,996	-0,152	-0,157
263,093	800,000	-0,065	-0,164
264,107	78,569	-0,174	-0,128
265,122	-46,637	-0,206	0,069
266,136	21,695	-0,050	0,028
267,151	4,750	-0,143	-0,072
268,166	112,846	-0,157	-0,131
269,180	-5,141	-0,232	-0,110
270,195	225,152	-0,200	-0,224
271,209	142,142	-0,120	-0,110
272,224	233,362	-0,145	-0,165
273,239	-200,000	0,012	-0,089
274,253	261,963	-0,092	-0,110
275,268	-33,282	-0,275	-0,104
276,282	-30,553	-0,141	-0,055
277,297	-200,000	-0,003	-0,196
278,312	120,355	-0,187	-0,160
279,326	17,534	-0,116	-0,063
280,341	248,186	-0,124	-0,145
281,355	-89,399	-0,113	0,023
282,370	110,909	-0,174	-0,145
283,384	174,167	-0,163	-0,162
284,399	221,871	-0,165	-0,183
285,414	800,000	-0,140	-0,289
286,428	258,231	-0,110	-0,131
287,443	-118,007	-0,114	-0,014
288,457	57,072	-0,195	-0,131
289,472	188,455	-0,178	-0,184
290,487	-182,550	-0,254	0,003
291,501	414,837	-0,127	-0,187
292,516	107,213	-0,177	-0,145
293,530	-81,362	-0,198	-0,045
294,545	-130,890	-0,183	0,017
295,560	-39,534	-0,279	-0,100
296,574	4,537	-0,162	-0,081
297,589	315,924	-0,151	-0,197
298,603	148,496	-0,220	-0,205
299,618	81,010	-0,214	-0,158
300,633	372,394	-0,144	-0,201
301,647	-146,945	-0,147	-0,009
302,662	-62,088	-0,232	-0,066
303,676	-33,057	-0,241	0,092
304,691	84,236	-0,123	-0,092
305,706	9,591	-0,178	-0,092
306,720	-200,000	-0,021	-0,075
307,735	304,300	-0,138	-0,176
308,749	-200,000	-0,022	-0,182
309,764	-35,583	-0,103	-0,038
310,779	2,146	-0,136	-0,067
311,793	800,000	-0,136	-0,329
312,808	745,388	-0,194	-0,360
313,822	203,681	-0,166	-0,177
314,837	95,203	-0,144	-0,112
315,852	-111,390	-0,255	0,035
316,866	106,818	-0,095	-0,077
317,881	-134,790	-0,112	-0,009
318,895	800,000	-0,099	-0,215
319,910	413,154	-0,103	-0,150
320,925	480,600	-0,099	-0,155
321,939	-112,105	-0,105	-0,014
322,954	150,211	-0,114	-0,107
323,968	-200,000	-0,012	-0,077
324,983	455,098	-0,069	-0,106
325,997	-105,407	-0,218	-0,034
327,012	123,044	-0,210	-0,180
328,027	55,367	-0,124	-0,082
329,041	264,572	-0,143	-0,171
330,056	-151,977	-0,067	0,003
331,070	93,306	-0,133	-0,103
332,085	-200,000	0,020	-0,084
333,100	322,743	-0,110	-0,144
334,114	-107,042	-0,239	-0,036
335,129	2,729	-0,204	-0,101
336,143	267,555	-0,052	-0,063
337,158	-200,000	0,022	-0,113
338,173	8,245	-0,056	-0,029
339,187	317,684	-0,061	-0,079
340,202	655,743	-0,078	-0,137
341,216	255,670	-0,112	-0,132
342,231	330,702	-0,204	-0,270
343,246	-89,213	-0,066	-0,013
344,260	47,165	-0,104	0,066
345,275	28,739	-0,135	-0,078
346,289	-34,991	-0,147	-0,055
347,304	-71,001	-0,172	-0,044
348,319	572,605	-0,100	-0,168
349,333	191,849	-0,139	-0,143
350,348	-80,111	-0,113	-0,026
351,362	473,401	-0,099	-0,154
352,377	800,000	-0,060	-0,123
353,392	-44,077	0,059	-0,020
354,406	-62,303	-0,220	-0,062
355,421	207,669	1312,649	1404,749
356,435	159,757	1473,132	1405,238
