DTS Sentinel unit serial number:	SN410029Multiplexer serial number:	ORYXHardware model number:	OX2-SRSoftware version number:	ORYX F/W v4,00 Oryx Data Collector v3.7.2.0data status	okinstallation	B3 Nyhavnadifferential loss correction	single-endedforward channel	channel 1reverse channel	N/Adate	2023/12/02time	07:27:30forward acquisition time	300,00reverse acquisition time	0,00gamma	499,1914k internal	0,3194k external	0,3194temperature offset calibration	1,0000default loss term (dB/km)	0,3820temperature slope calibration	1,0000multiplexer offset coefficient	1,0000multiplexer slope coefficient	1,0000fibre end	0,00T internal ref (°C)	15,66T ext. ref 1 (°C)	0,43T ext. ref 2 (°C)	0,42length (m)	temperature (°C)	Stokes	anti-Stokes-744,400	314,727	-0,151	-0,207
-743,385	-200,000	0,073	0,287
-742,371	800,000	-0,130	-0,354
-741,356	724,893	0,193	0,376
-740,342	800,000	-0,091	-0,270
-739,327	-200,000	0,056	0,315
-738,312	171,649	-0,217	-0,227
-737,298	-200,000	0,000	0,396
-736,283	-39,302	-0,356	-0,136
-735,269	-200,000	0,083	0,434
-734,254	-200,000	-0,017	-0,288
-733,239	110,945	-0,191	0,168
-732,225	233,841	-0,195	-0,235
-731,210	118,754	0,069	-0,062
-730,196	-24,953	0,035	-0,015
-729,181	800,000	-0,023	-0,065
-728,167	79,956	-0,055	-0,043
-727,152	-117,079	0,097	0,013
-726,137	-28,617	-0,199	-0,083
-725,123	117,088	-0,064	0,058
-724,108	-104,829	-0,149	-0,025
-723,094	263,209	0,027	-0,034
-722,079	-158,257	-0,118	-0,005
-721,064	16,508	-0,154	0,088
-720,050	-91,483	0,020	-0,004
-719,035	-200,000	-0,023	-0,091
-718,021	-108,061	-0,167	-0,026
-717,006	-200,000	0,051	-0,214
-715,991	-88,018	-0,113	-0,025
-714,977	4,459	0,007	0,004
-713,962	270,099	0,062	-0,080
-712,948	-4,544	-0,086	-0,043
-711,933	307,246	-0,091	0,124
-710,918	-200,000	0,032	0,155
-709,904	800,000	0,064	-0,185
-708,889	668,178	-0,033	-0,062
-707,875	111,344	-0,047	-0,041
-706,860	800,000	0,059	-0,170
-705,845	781,539	0,054	0,108
-704,831	256,687	0,059	0,074
-703,816	-102,304	-0,091	-0,016
-702,802	-200,000	-0,004	-0,152
-701,787	-200,000	-0,046	-0,184
-700,772	240,557	-0,117	-0,143
-699,758	-200,000	0,003	-0,048
-698,743	800,000	0,043	-0,106
-697,729	-8,285	-0,122	-0,060
-696,714	-200,000	-0,015	0,068
-695,699	484,636	-0,086	-0,142
-694,685	-154,402	-0,108	0,005
-693,670	660,019	-0,096	-0,181
-692,656	600,942	0,052	0,095
-691,641	536,206	0,023	0,040
-690,627	-59,369	-0,074	0,023
-689,612	-200,000	-0,009	0,136
-688,597	-200,000	-0,014	-0,149
-687,583	800,000	-0,086	-0,212
-686,568	-18,821	0,081	-0,036
-685,554	-163,115	-0,130	0,004
-684,539	800,000	0,046	0,096
-683,524	-200,000	0,037	0,123
-682,510	42,712	0,197	-0,130
-681,495	-27,530	0,006	-0,002
-680,481	-200,000	0,003	-0,035
-679,466	-82,380	-0,073	0,017
-678,451	360,573	-0,072	-0,105
-677,437	-59,126	-0,071	-0,022
-676,422	165,589	0,074	-0,076
-675,408	31,073	-0,026	-0,016
-674,393	-71,927	-0,074	-0,020
-673,378	346,069	0,051	0,073
-672,364	120,566	-0,068	-0,062
-671,349	-200,000	0,024	0,083
-670,335	286,746	0,021	0,027
-669,320	93,681	0,069	-0,057
-668,305	145,070	0,064	-0,062
-667,291	-115,809	0,068	-0,009
-666,276	17,464	-0,067	-0,038
-665,262	-111,561	0,051	-0,008
-664,247	800,000	-0,049	0,113
-663,232	72,312	0,101	-0,077
-662,218	800,000	0,057	0,127
-661,203	-200,000	0,018	-0,067
-660,189	-76,500	-0,066	-0,017
-659,174	-67,260	-0,148	-0,042
-658,159	565,352	-0,019	0,034
-657,145	201,011	0,051	-0,057
-656,130	-200,000	0,006	-0,028
-655,116	94,020	0,084	-0,069
-654,101	-63,806	0,025	-0,007
-653,086	800,000	0,036	0,072
-652,072	-42,501	0,009	-0,003
-651,057	-200,000	-0,022	-0,119
-650,043	-159,891	-0,083	-0,003
-649,028	-44,242	-0,101	-0,037
-648,014	-2,209	0,041	-0,021
-646,999	16,617	0,040	0,023
-645,984	-34,215	0,059	0,023
-644,970	-76,492	-0,059	0,015
-643,955	800,000	0,047	-0,111
-642,941	-21,146	0,044	0,020
-641,926	168,190	-0,087	-0,090
-640,911	-200,000	-0,016	-0,059
-639,897	485,303	-0,048	0,079
-638,882	800,000	0,035	0,070
-637,868	382,062	0,051	-0,076
-636,853	-105,279	0,143	-0,023
-635,838	-200,000	-0,006	0,035
-634,824	-200,000	0,058	-0,241
-633,809	3,420	0,130	0,069
-632,795	40,449	0,018	0,012
-631,780	800,000	0,013	0,040
-630,765	530,731	0,038	0,065
-629,751	-99,330	-0,155	0,028
-628,736	183,204	-0,149	-0,160
-627,722	800,000	-0,043	-0,097
-626,707	-56,030	-0,100	-0,032
-625,692	280,823	0,062	0,081
-624,678	364,239	-0,030	-0,043
-623,663	187,673	0,055	-0,060
-622,649	-155,425	0,083	-0,004
-621,634	-57,549	-0,166	-0,053
-620,619	133,756	-0,036	0,034
-619,605	260,527	-0,062	0,077
-618,590	-145,104	0,082	0,005
-617,576	800,000	0,008	-0,022
-616,561	280,194	-0,077	0,100
-615,546	485,467	-0,066	0,109
-614,532	-200,000	0,028	-0,151
-613,517	-18,455	-0,155	-0,070
-612,503	347,851	0,049	-0,070
-611,488	-200,000	0,004	0,042
-610,474	-2,654	-0,091	-0,046
-609,459	-73,160	0,156	0,041
-608,444	-200,000	0,003	-0,056
-607,430	-177,862	-0,126	0,002
-606,415	609,072	-0,080	-0,146
-605,401	-56,901	0,059	-0,019
-604,386	-200,000	-0,013	0,094
-603,371	93,647	0,074	0,061
-602,357	-14,680	0,084	-0,039
-601,342	-200,000	0,015	-0,053
-600,328	73,256	0,098	0,074
-599,313	397,023	-0,063	-0,096
-598,298	-200,000	-0,001	-0,005
-597,284	220,892	0,108	0,126
-596,269	-200,000	0,000	0,111
-595,255	-54,860	0,073	0,024
-594,240	-200,000	-0,003	-0,028
-593,225	-200,000	0,035	-0,120
-592,211	-14,001	-0,135	0,063
-591,196	800,000	-0,052	0,123
-590,182	430,620	-0,043	0,068
-589,167	-154,957	-0,096	0,005
-588,152	-200,000	0,013	-0,078
-587,138	254,538	0,028	-0,034
-586,123	800,000	0,033	-0,083
-585,109	253,902	-0,050	0,061
-584,094	-200,000	-0,001	-0,127
-583,079	800,000	0,019	-0,049
-582,065	473,959	0,048	0,078
-581,050	-13,020	0,128	-0,060
-580,036	800,000	-0,044	-0,115
-579,021	-118,506	-0,109	0,014
-578,006	-112,998	0,054	0,008
-576,992	69,790	-0,051	-0,038
-575,977	800,000	0,031	0,088
-574,963	-151,008	0,077	-0,004
-573,948	-200,000	0,002	0,167
-572,934	-200,000	0,001	0,108
-571,919	47,972	-0,045	0,030
-570,904	551,758	0,062	-0,108
-569,890	-200,000	0,030	0,098
-568,875	68,689	-0,100	0,074
-567,861	-200,000	0,012	0,162
-566,846	-200,000	-0,033	0,173
-565,831	-125,326	0,086	-0,009
-564,817	800,000	-0,043	0,088
-563,802	54,501	-0,078	-0,054
-562,788	176,171	-0,046	0,049
-561,773	56,637	-0,024	0,017
-560,758	48,392	0,069	0,046
-559,744	-200,000	0,010	-0,071
-558,729	320,361	0,070	-0,096
-557,715	635,051	-0,074	0,136
-556,700	800,000	-0,036	-0,081
-555,685	62,148	-0,044	-0,032
-554,671	84,780	0,092	0,073
-553,656	606,446	0,013	0,023
-552,642	-98,183	-0,136	0,025
-551,627	-129,689	-0,038	0,004
-550,612	800,000	-0,047	-0,104
-549,598	-134,178	-0,108	-0,009
-548,583	800,000	-0,048	-0,109
-547,569	152,784	-0,101	-0,099
-546,554	-170,420	-0,069	0,002
-545,539	-21,563	0,106	-0,047
-544,525	4,873	-0,047	0,025
-543,510	800,000	0,017	-0,047
-542,496	584,779	-0,076	-0,136
-541,481	-200,000	0,031	-0,165
-540,466	117,895	0,076	-0,068
-539,452	-127,131	-0,077	0,008
-538,437	92,478	0,217	0,177
-537,423	-167,450	-0,032	0,001
-536,408	-200,000	0,018	-0,072
-535,393	-167,416	0,124	-0,004
-534,379	800,000	0,031	-0,093
-533,364	74,872	-0,033	0,025
-532,350	-200,000	-0,037	0,133
-531,335	72,843	-0,145	0,110
-530,321	-200,000	-0,006	-0,037
-529,306	119,956	-0,082	-0,074
-528,291	-10,213	-0,069	-0,033
-527,277	229,878	-0,045	0,054
-526,262	75,046	-0,080	-0,061
-525,248	-87,508	0,132	0,029
-524,233	-200,000	0,008	0,040
-523,218	-200,000	-0,039	0,185
-522,204	-103,316	0,049	-0,008
-521,189	458,062	-0,074	-0,119
-520,175	-200,000	0,038	-0,185
-519,160	270,441	0,051	-0,065
-518,145	24,202	0,104	0,062
-517,131	108,756	0,019	-0,016
-516,116	553,716	-0,088	0,153
-515,102	128,234	0,071	0,065
-514,087	800,000	0,042	0,098
-513,072	-42,823	-0,071	-0,026
-512,058	341,552	0,077	-0,110
-511,043	18,880	-0,085	0,049
-510,029	-14,241	-0,095	0,044
-509,014	-15,597	-0,055	0,025
-507,999	-200,000	-0,035	0,136
-506,985	629,567	-0,025	0,045
-505,970	-165,645	-0,064	-0,002
-504,956	-39,210	-0,087	-0,033
-503,941	-61,167	0,076	0,023
-502,926	479,593	-0,031	-0,050
-501,912	156,278	-0,128	0,128
-500,897	408,096	0,065	-0,099
-499,883	30,498	-0,161	-0,099
-498,868	-200,000	-0,018	0,180
-497,853	800,000	0,076	0,168
-496,839	800,000	0,002	0,006
-495,824	37,447	-0,104	-0,067
-494,810	-120,713	-0,083	0,010
-493,795	-11,674	-0,073	-0,034
-492,781	123,569	-0,110	0,100
-491,766	-200,000	-0,013	-0,068
-490,751	-24,697	0,057	-0,024
-489,737	-31,398	-0,009	-0,004
-488,722	42,743	0,108	-0,071
-487,708	701,990	-0,016	0,030
-486,693	-100,313	-0,050	0,009
-485,678	-200,000	0,004	-0,085
-484,664	751,293	0,061	0,118
-483,649	-56,910	-0,039	-0,012
-482,635	-200,000	-0,012	-0,049
-481,620	-11,954	0,057	0,027
-480,605	-200,000	-0,042	0,146
-479,591	97,117	-0,079	0,065
-478,576	-200,000	0,005	0,062
-477,562	185,925	-0,095	-0,102
-476,547	-103,739	-0,182	-0,031
-475,532	48,315	-0,101	-0,068
-474,518	230,708	-0,027	-0,032
-473,503	312,665	0,058	0,079
-472,489	-105,956	-0,139	0,022
-471,474	166,923	0,093	-0,096
-470,459	206,891	-0,165	0,186
-469,445	316,956	0,037	0,051
-468,430	307,575	-0,116	-0,156
-467,416	-200,000	-0,014	0,057
-466,401	246,194	0,050	-0,061
-465,386	-182,835	0,126	0,002
-464,372	-114,026	0,143	0,020
-463,357	243,653	-0,029	-0,035
-462,343	-134,685	-0,188	0,016
-461,328	363,985	-0,033	-0,048
-460,313	209,835	0,057	-0,064
-459,299	800,000	0,022	0,066
-458,284	275,017	0,043	0,055
-457,270	800,000	0,023	0,059
-456,255	-200,000	0,001	-0,062
-455,241	-119,228	-0,054	-0,007
-454,226	203,902	-0,060	-0,067
-453,211	-200,000	-0,016	0,180
-452,197	-28,432	0,094	0,039
-451,182	513,636	0,038	-0,065
-450,168	800,000	0,046	0,130
-449,153	178,356	-0,064	-0,068
-448,138	548,437	0,029	-0,050
-447,124	800,000	-0,056	-0,136
-446,109	-9,527	0,179	0,086
-445,095	106,322	-0,121	0,104
-444,080	-81,555	0,037	0,009
-443,065	117,648	0,093	0,082
-442,051	75,548	-0,045	-0,034
-441,036	-147,253	-0,147	-0,009
-440,022	-5,186	-0,072	-0,035
-439,007	-200,000	0,015	0,062
-437,992	800,000	0,047	0,116
-436,978	-41,084	0,120	0,044
-435,963	-11,256	0,115	-0,054
-434,949	656,508	-0,064	0,118
-433,934	-200,000	-0,042	0,181
-432,919	384,294	0,044	-0,065
-431,905	-200,000	0,001	0,042
-430,890	-200,000	-0,015	0,050
-429,876	800,000	0,084	0,207
-428,861	-41,615	0,034	0,013
-427,846	-144,482	-0,081	0,005
-426,832	-200,000	-0,013	-0,093
-425,817	-200,000	-0,010	-0,144
-424,803	684,473	0,096	-0,181
-423,788	800,000	-0,025	0,056
-422,773	618,302	0,100	0,181
-421,759	-35,561	-0,075	0,029
-420,744	172,612	-0,110	-0,114
-419,730	788,212	-0,028	-0,055
-418,715	-200,000	-0,026	-0,100
-417,701	244,845	-0,027	0,033
-416,686	-23,577	-0,076	-0,033
-415,671	117,971	0,045	0,040
-414,657	-86,605	0,106	-0,023
-413,642	51,648	-0,144	0,099
-412,628	-200,000	-0,007	-0,084
-411,613	-200,000	0,044	-0,181
-410,598	98,568	0,089	0,074
-409,584	367,392	0,044	0,064
-408,569	-200,000	0,020	0,130
-407,555	-153,142	-0,014	-0,001
-406,540	-7,814	0,088	-0,042
-405,525	-131,775	0,015	-0,001
-404,511	82,721	-0,063	-0,049
-403,496	168,364	0,070	-0,072
-402,482	-200,000	0,012	-0,041
-401,467	800,000	-0,016	-0,042
-400,452	-191,152	0,063	-0,000
-399,438	800,000	-0,065	0,145
-398,423	64,633	0,037	0,027
-397,409	-74,006	0,047	0,012
-396,394	344,995	-0,087	-0,123
-395,379	-157,544	-0,088	0,004
-394,365	758,804	-0,031	0,061
-393,350	-163,250	0,047	-0,002
-392,336	-69,570	0,061	0,017
-391,321	-38,388	-0,048	-0,018
-390,306	-58,280	0,059	-0,018
-389,292	800,000	0,035	-0,082
-388,277	800,000	-0,026	0,066
-387,263	-162,258	0,093	0,003
-386,248	-19,393	0,182	0,081
-385,233	612,057	-0,039	0,071
-384,219	-200,000	0,026	0,123
-383,204	396,271	0,051	0,077
-382,190	9,278	0,055	0,030
-381,175	203,150	0,016	0,018
-380,160	289,042	0,111	-0,145
-379,146	87,579	0,066	0,052
-378,131	-19,693	0,015	0,007
-377,117	-200,000	0,003	-0,047
-376,102	800,000	-0,094	-0,225
-375,088	-102,843	0,116	-0,020
-374,073	71,478	-0,122	-0,091
-373,058	107,805	-0,046	-0,040
-372,044	-148,609	0,017	-0,001
-371,029	-86,206	-0,052	0,011
-370,015	78,942	-0,085	0,065
-369,000	473,126	0,057	-0,093
-367,985	-200,000	-0,016	-0,080
-366,971	-13,120	-0,015	0,007
-365,956	218,742	-0,039	0,044
-364,942	3,781	-0,098	-0,051
-363,927	-33,407	0,035	0,014
-362,912	292,125	0,014	-0,018
-361,898	-200,000	-0,008	-0,042
-360,883	-200,000	0,000	-0,081
-359,869	-200,000	0,004	0,057
-358,854	-97,449	0,105	0,019
-357,839	-115,330	0,112	0,015
-356,825	-73,727	0,110	-0,028
-355,810	551,833	-0,058	0,101
-354,796	-135,324	-0,021	-0,002
-353,781	96,037	0,121	-0,099
-352,766	9,479	0,026	-0,014
-351,752	21,756	0,129	-0,075
-350,737	-10,736	-0,043	0,021
-349,723	-5,441	0,142	0,070
-348,708	-193,939	-0,119	0,001
-347,693	73,055	-0,039	-0,029
-346,679	-200,000	0,002	-0,062
-345,664	477,513	-0,052	-0,085
-344,650	-13,222	0,123	-0,057
-343,635	-84,047	0,039	0,009
-342,620	317,854	-0,003	0,004
-341,606	800,000	0,049	-0,131
-340,591	84,244	0,076	-0,059
-339,577	-42,356	-0,028	-0,010
-338,562	194,793	-0,009	-0,010
-337,548	727,972	0,018	-0,034
-336,533	-200,000	0,009	0,105
-335,518	-200,000	-0,014	0,097
-334,504	556,716	0,027	0,046
-333,489	-200,000	-0,000	0,129
-332,475	43,533	-0,063	0,041
-331,460	447,742	-0,074	-0,117
-330,445	800,000	0,015	-0,045
-329,431	-200,000	-0,011	0,056
-328,416	11,704	0,185	0,102
-327,402	-200,000	0,026	-0,118
-326,387	-200,000	0,035	-0,135
-325,372	87,096	-0,062	-0,049
-324,358	-164,954	-0,094	0,003
-323,343	140,143	-0,013	-0,012
-322,329	2,379	0,150	0,078
-321,314	57,356	0,017	0,012
-320,299	706,385	-0,049	0,094
-319,285	164,705	-0,073	0,074
-318,270	207,902	-0,059	-0,066
-317,256	163,874	-0,057	0,058
-316,241	-27,762	0,011	-0,005
-315,226	800,000	0,013	0,031
-314,212	-200,000	0,007	0,025
-313,197	-200,000	-0,017	-0,064
-312,183	409,284	0,012	0,018
-311,168	608,519	-0,080	-0,144
-310,153	-29,745	-0,076	-0,031
-309,139	800,000	0,043	0,089
-308,124	482,197	0,076	0,123
-307,110	59,048	-0,060	0,042
-306,095	163,485	0,029	-0,030
-305,080	800,000	-0,042	0,103
-304,066	243,233	-0,048	-0,058
-303,051	96,873	-0,088	-0,072
-302,037	-200,000	0,000	-0,045
-301,022	-57,168	-0,020	0,006
-300,008	-200,000	0,022	0,074
-298,993	92,198	0,130	0,105
-297,978	0,085	-0,038	0,019
-296,964	155,904	-0,173	-0,171
-295,949	184,396	0,103	-0,110
-294,935	-100,983	-0,130	0,023
-293,920	-26,358	-0,114	0,048
-292,905	416,885	0,060	0,092
-291,891	-3,118	0,052	-0,026
-290,876	242,834	0,050	-0,060
-289,862	-92,841	-0,128	0,025
-288,847	-200,000	0,000	-0,051
-287,832	-200,000	0,004	-0,198
-286,818	-200,000	0,021	0,070
-285,803	20,249	0,088	0,051
-284,789	139,458	0,059	-0,055
-283,774	36,383	0,061	0,039
-282,759	514,756	0,032	0,054
-281,745	30,868	-0,142	-0,087
-280,730	-124,710	-0,129	-0,014
-279,716	272,948	0,098	0,125
-278,701	-70,012	0,015	0,004
-277,686	-112,300	-0,119	0,017
-276,672	25,789	0,034	0,020
-275,657	-200,000	0,024	0,083
-274,643	-200,000	0,006	-0,046
-273,628	-200,000	-0,061	-0,218
-272,613	-200,000	0,011	-0,114
-271,599	-200,000	0,008	-0,059
-270,584	775,580	0,051	-0,100
-269,570	51,776	0,063	0,043
-268,555	45,175	-0,046	-0,030
-267,540	800,000	-0,037	-0,083
-266,526	689,688	-0,088	-0,165
-265,511	64,147	0,087	0,063
-264,497	352,794	0,046	-0,065
-263,482	800,000	0,030	0,093
-262,467	-200,000	0,018	0,253
-261,453	-30,672	-0,157	0,063
-260,438	-110,752	-0,121	-0,018
-259,424	-136,271	-0,095	-0,008
-258,409	153,710	0,106	-0,104
-257,395	220,924	-0,052	0,060
-256,380	319,020	0,073	0,099
-255,365	149,786	0,139	0,135
-254,351	-200,000	0,010	-0,063
-253,336	57,155	0,044	-0,030
-252,322	411,148	0,037	-0,057
-251,307	800,000	0,025	-0,059
-250,292	-200,000	0,009	-0,095
-249,278	-8,253	-0,047	0,023
-248,263	91,277	0,075	0,060
-247,249	-165,270	0,061	0,002
-246,234	23,745	-0,094	-0,055
-245,219	800,000	0,017	-0,040
-244,205	21,942	-0,093	-0,054
-243,190	168,741	-0,016	-0,016
-242,176	90,323	0,112	-0,089
-241,161	-200,000	0,019	0,104
-240,146	-200,000	0,034	0,216
-239,132	367,296	-0,051	-0,074
-238,117	729,575	-0,041	-0,078
-237,103	508,045	-0,087	-0,145
-236,088	-200,000	-0,023	-0,140
-235,073	256,402	0,052	0,064
-234,059	-67,509	0,093	0,026
-233,044	-28,145	0,014	-0,006
-232,030	106,254	0,028	0,024
-231,015	-134,176	-0,097	0,008
-230,000	23,366	-0,045	-0,026
-228,986	5,999	0,113	0,060
-227,971	-102,040	0,138	-0,024
-226,957	421,572	0,051	0,078
-225,942	227,123	0,097	0,112
-224,927	-140,790	0,046	-0,003
-223,913	66,929	-0,129	0,094
-222,898	800,000	-0,007	-0,020
-221,884	-200,000	-0,021	-0,115
-220,869	-22,078	0,089	-0,038
-219,855	265,629	0,042	0,052
-218,840	-200,000	-0,018	0,103
-217,825	240,238	0,062	0,074
-216,811	800,000	-0,036	0,089
-215,796	-200,000	-0,004	-0,132
-214,782	-128,416	0,061	0,006
-213,767	800,000	0,040	0,115
-212,752	800,000	-0,021	0,045
-211,738	46,426	0,090	0,059
-210,723	381,856	-0,064	-0,095
-209,709	296,830	0,025	0,032
-208,694	-21,020	0,057	-0,025
-207,679	-200,000	-0,010	-0,089
-206,665	167,110	-0,084	-0,085
-205,650	94,766	-0,055	-0,044
-204,636	800,000	-0,014	0,038
-203,621	-130,144	0,091	-0,009
-202,606	81,943	-0,109	-0,084
-201,592	-200,000	-0,009	-0,127
-200,577	42,742	0,106	-0,069
-199,563	-200,000	-0,008	0,038
-198,548	800,000	0,028	-0,067
-197,533	800,000	0,034	-0,072
-196,519	-88,666	0,080	-0,017
-195,504	-200,000	0,000	-0,049
-194,490	-200,000	-0,010	-0,049
-193,475	800,000	-0,030	0,082
-192,460	266,719	-0,039	-0,049
-191,446	-36,554	0,154	-0,059
-190,431	142,911	0,029	-0,027
-189,417	-200,000	0,009	0,051
-188,402	800,000	0,024	0,050
-187,387	140,060	-0,063	0,060
-186,373	214,196	0,084	-0,095
-185,358	126,027	-0,091	0,082
-184,344	318,067	0,087	0,118
-183,329	-53,449	0,164	0,053
-182,315	-200,000	-0,002	0,105
-181,300	800,000	-0,019	0,045
-180,285	-33,248	0,100	-0,039
-179,271	27,080	-0,046	0,028
-178,256	-79,139	0,041	-0,010
-177,242	800,000	-0,018	0,042
-176,227	263,092	-0,034	0,042
-175,212	-200,000	0,057	0,200
-174,198	-36,915	0,088	-0,033
-173,183	-23,806	0,076	0,032
-172,169	800,000	0,027	-0,074
-171,154	-77,562	-0,099	-0,024
-170,139	18,954	-0,069	-0,039
-169,125	800,000	0,025	0,056
-168,110	-200,000	-0,007	0,038
-167,096	17,363	-0,036	0,020
-166,081	-200,000	0,012	-0,235
-165,066	57,124	-0,057	0,040
-164,052	-200,000	0,020	-0,077
-163,037	-7,286	-0,089	0,043
-162,023	-200,000	0,003	-0,010
-161,008	-85,472	0,029	-0,006
-159,993	-200,000	0,009	0,125
-158,979	-155,097	0,085	-0,004
-157,964	78,672	-0,071	-0,054
-156,950	-33,849	-0,009	0,004
-155,935	177,217	0,100	0,104
-154,920	-200,000	0,008	0,099
-153,906	14,667	0,074	-0,041
-152,891	-152,119	-0,051	-0,003
-151,877	232,300	0,082	-0,096
-150,862	-195,896	0,114	-0,001
-149,847	44,496	-0,027	0,018
-148,833	115,105	0,067	0,059
-147,818	-200,000	0,000	0,069
-146,804	-68,628	0,053	0,015
-145,789	-200,000	0,021	0,112
-144,775	393,619	0,072	0,107
-143,760	800,000	-0,047	-0,145
-142,745	57,796	-0,072	0,050
-141,731	16,960	-0,120	0,067
-140,716	33,611	0,062	0,038
-139,702	-177,911	0,113	0,002
-138,687	-74,184	0,097	-0,025
-137,672	-200,000	-0,017	0,067
-136,658	-20,707	-0,142	0,062
-135,643	73,946	0,086	0,064
-134,629	2,659	-0,159	0,082
-133,614	387,301	-0,090	-0,133
-132,599	-88,968	-0,217	-0,045
-131,585	74,634	0,128	0,096
-130,570	103,067	-0,016	-0,013
-129,556	800,000	-0,059	0,140
-128,541	-114,257	-0,156	0,021
-127,526	-200,000	-0,001	-0,020
-126,512	-62,968	0,087	-0,026
-125,497	17,348	-0,044	0,025
-124,483	133,007	-0,089	0,082
-123,468	800,000	0,019	-0,039
-122,453	447,896	0,063	-0,099
-121,439	800,000	-0,062	-0,181
-120,424	-108,663	0,095	-0,014
-119,410	-200,000	0,050	0,180
-118,395	-200,000	-0,010	0,044
-117,380	-20,310	-0,075	-0,033
-116,366	-69,533	-0,088	0,024
-115,351	-94,414	-0,089	-0,017
-114,337	36,605	-0,038	-0,024
-113,322	117,396	-0,091	0,080
-112,307	-25,010	0,044	0,018
-111,293	-200,000	-0,020	0,189
-110,278	-200,000	-0,050	0,183
-109,264	478,491	0,078	0,126
-108,249	441,822	0,072	-0,113
-107,234	800,000	0,037	0,077
-106,220	412,503	0,084	-0,128
-105,205	-200,000	-0,014	0,065
-104,191	169,937	-0,085	-0,087
-103,176	94,635	0,039	-0,031
-102,162	159,025	-0,051	-0,051
-101,147	323,111	0,069	-0,094
-100,132	325,214	-0,090	-0,123
-99,118	35,843	-0,086	0,054
-98,103	800,000	-0,007	0,020
-97,089	-200,000	0,003	0,136
-96,074	-200,000	-0,020	0,162
-95,059	352,693	-0,054	0,076
-94,045	284,329	0,012	-0,015
-93,030	480,455	-0,028	-0,045
-92,016	800,000	-0,043	0,095
-91,001	-200,000	0,044	0,153
-89,986	170,971	-0,152	0,155
-88,972	-117,161	0,073	-0,009
-87,957	12,017	-0,132	0,072
-86,943	-75,245	-0,155	0,039
-85,928	122,946	-0,025	-0,022
-84,913	-25,011	0,066	-0,028
-83,899	757,175	-0,092	-0,177
-82,884	-45,546	-0,041	0,014
-81,870	320,065	0,092	0,124
-80,855	-200,000	-0,013	-0,064
-79,840	-200,000	-0,008	-0,044
-78,826	91,758	0,042	-0,034
-77,811	57,714	-0,037	-0,026
-76,797	392,422	-0,060	0,089
-75,782	23,256	0,077	-0,045
-74,767	-95,296	-0,127	0,024
-73,753	58,684	0,054	-0,038
-72,738	800,000	0,026	-0,053
-71,724	-200,000	-0,025	-0,140
-70,709	-200,000	-0,048	-0,161
-69,694	800,000	0,032	-0,091
-68,680	-10,855	0,073	0,034
-67,665	86,318	0,084	-0,066
-66,651	-39,565	-0,097	-0,036
-65,636	280,985	-0,070	-0,089
-64,622	455,357	0,037	-0,058
-63,607	7,085	0,051	-0,027
-62,592	-109,316	-0,114	-0,017
-61,578	206,238	0,055	-0,061
-60,563	-64,810	0,108	-0,031
-59,549	81,723	-0,061	0,047
-58,534	-55,110	-1,387	-0,440
-57,519	367,692	-1,510	-2,171
-56,505	-200,000	-0,538	-4,484
-55,490	90,940	1,011	0,804
-54,476	800,000	4,671	11,162
-53,461	-200,000	17,977	285,290
-52,446	800,000	723,100	2231,301
-51,432	562,582	1638,081	2823,170
-50,417	80,492	1661,112	1268,098
-49,403	23,534	1534,871	893,545
-48,388	17,526	1458,078	819,796
-47,373	18,150	1448,015	817,106
-46,359	17,651	1438,526	809,333
-45,344	15,804	1433,775	797,828
-44,330	15,719	1431,605	796,182
-43,315	15,704	1430,254	795,328
-42,300	15,723	1428,545	794,438
-41,286	15,786	1427,300	794,011
-40,271	15,743	1425,961	793,032
-39,257	15,704	1424,883	792,217
-38,242	15,806	1423,343	791,812
-37,227	15,764	1422,357	791,033
-36,213	15,762	1421,032	790,255
-35,198	15,727	1419,924	789,440
-34,184	15,749	1418,961	788,981
-33,169	15,703	1417,700	788,031
-32,154	15,804	1416,589	787,858
-31,140	15,794	1415,287	787,057
-30,125	15,818	1414,097	786,476
-29,111	15,776	1412,963	785,616
-28,096	15,766	1411,854	784,919
-27,082	15,691	1410,837	783,971
-26,067	15,714	1409,624	783,375
-25,052	15,687	1408,635	782,669
-24,038	15,702	1407,485	782,069
-23,023	15,678	1406,703	781,489
-22,009	15,624	1405,840	780,727
-20,994	15,592	1404,880	780,015
-19,979	15,600	1403,835	779,441
-18,965	15,623	1402,816	778,951
-17,950	15,651	1401,690	778,423
-16,936	15,646	1400,854	777,905
-15,921	15,649	1399,606	777,197
-14,906	15,578	1398,809	776,392
-13,892	15,632	1397,718	776,005
-12,877	15,606	1396,713	775,300
-11,863	15,630	1395,943	774,953
-10,848	15,593	1395,118	774,289
-9,833	15,550	1394,229	773,567
-8,819	15,527	1393,076	772,788
-7,804	15,538	1392,233	772,341
-6,790	15,487	1391,237	771,523
-5,775	15,497	1390,299	771,018
-4,760	15,521	1389,252	770,518
-3,746	15,484	1388,631	769,972
-2,731	15,480	1387,904	769,519
-1,717	15,467	1386,795	768,814
-0,702	15,461	1385,089	767,811
0,313	19,174	1305,341	740,794
1,327	35,309	707,004	438,683
2,342	54,417	125,069	85,278
3,356	3,761	16,443	8,483
4,371	8,058	3,096	1,642
5,386	43,803	0,449	0,291
6,400	-200,000	-0,007	0,180
7,415	152,276	-0,174	-0,169
8,429	48,501	-0,292	-0,193
9,444	45,328	-0,256	-0,167
10,459	91,459	-0,323	-0,257
11,473	392,618	-0,170	-0,252
12,488	18,128	-0,364	-0,205
13,502	18,389	-0,306	-0,172
14,517	75,407	-0,245	-0,183
15,531	91,890	-0,330	-0,263
16,546	51,825	-0,399	-0,268
17,561	156,030	-0,381	-0,372
18,575	145,018	-0,183	-0,173
19,590	196,713	-0,277	-0,299
20,604	31,476	-0,278	-0,169
21,619	-46,874	-0,570	-0,196
22,634	16,500	-0,513	-0,286
23,648	139,167	-0,425	-0,396
24,663	79,653	-0,361	-0,274
25,677	185,059	-0,343	-0,361
26,692	27,743	-0,351	-0,208
27,707	2,834	-0,334	-0,171
28,721	182,391	-0,332	-0,346
29,736	172,711	-0,274	-0,279
30,750	-96,458	-0,453	-0,084
31,765	106,750	-0,341	-0,286
32,780	235,617	-0,279	-0,327
33,794	471,137	-0,176	-0,281
34,809	159,707	-0,313	-0,308
35,823	47,687	-0,358	-0,236
36,838	-27,950	-0,350	-0,143
37,853	31,075	-0,418	-0,253
38,867	115,773	-0,271	-0,234
39,882	14,883	-0,419	-0,231
40,896	-11,565	-0,428	-0,198
41,911	-79,555	-0,351	-0,083
42,926	75,161	-0,416	-0,309
43,940	172,580	-0,334	-0,340
44,955	151,579	-0,392	-0,377
45,969	232,286	-0,312	-0,362
46,984	56,330	-0,304	-0,209
47,999	136,986	-0,320	-0,296
49,013	189,711	-0,335	-0,355
50,028	4,838	-0,426	-0,220
51,042	-29,261	-0,372	-0,150
52,057	194,430	-0,281	-0,301
53,071	9,539	-0,392	-0,209
54,086	112,844	-0,421	-0,360
55,101	22,172	-0,331	-0,190
56,115	-67,353	-0,269	-0,074
57,130	-119,930	-0,331	-0,040
58,144	74,684	-0,401	-0,297
59,159	121,342	-0,377	-0,331
60,174	150,304	-0,332	-0,318
61,188	182,430	-0,216	-0,225
62,203	181,393	-0,269	-0,280
63,217	-7,682	-0,321	-0,153
64,232	109,194	-0,365	-0,308
65,247	95,546	-0,343	-0,276
66,261	43,409	-0,445	-0,286
67,276	52,317	-0,319	-0,214
68,290	119,467	-0,303	-0,265
69,305	141,236	-0,343	-0,320
70,320	37,944	-0,232	-0,145
71,334	57,409	-0,346	-0,238
72,349	168,249	-0,241	-0,242
73,363	-15,058	-0,373	-0,168
74,378	53,568	-0,398	-0,269
75,393	97,373	-0,240	-0,194
76,407	122,793	-0,287	-0,253
77,422	48,368	-0,198	-0,131
78,436	-56,954	-0,347	-0,107
79,451	47,940	-0,237	-0,156
80,466	-21,285	-0,235	-0,101
81,480	21,059	-0,301	-0,171
82,495	1,279	-0,292	-0,147
83,509	-50,784	-0,289	-0,095
84,524	336,654	-0,281	-0,386
85,539	-79,997	-0,332	-0,078
86,553	-18,622	-0,357	-0,156
87,568	-45,107	-0,319	-0,111
88,582	324,658	-0,169	-0,228
89,597	62,392	-0,375	-0,263
90,611	-109,510	-0,326	-0,048
91,626	-41,990	-0,384	-0,137
92,641	260,448	-0,192	-0,234
93,655	173,702	-0,295	-0,300
94,670	192,602	-0,284	-0,302
95,684	148,221	-0,246	-0,234
96,699	18,724	-0,434	-0,244
97,714	195,680	-0,296	-0,317
98,728	223,473	-0,161	-0,183
99,743	171,670	-0,246	-0,249
100,757	37,297	-0,268	-0,167
101,772	192,681	-0,282	-0,299
102,787	58,656	-0,275	-0,190
103,801	-13,264	-0,379	-0,172
104,816	134,282	-0,297	-0,271
105,830	25,254	-0,283	-0,165
106,845	82,424	-0,327	-0,249
107,860	376,858	-0,156	-0,225
108,874	81,546	-0,269	-0,204
109,889	-14,870	-0,275	-0,124
110,903	121,563	-0,279	-0,244
111,918	81,060	-0,238	-0,180
112,933	59,784	-0,200	-0,139
113,947	-32,543	-0,175	0,068
114,962	-40,111	-0,208	-0,076
115,976	110,902	-0,203	-0,172
116,991	79,339	-0,291	-0,219
118,006	44,443	-0,295	-0,190
119,020	139,538	-0,232	-0,214
120,035	1,131	-0,271	-0,136
121,049	560,568	-0,101	-0,172
122,064	-3,142	-0,276	-0,135
123,079	15,262	-0,241	-0,132
124,093	252,324	-0,225	-0,269
125,108	102,675	-0,286	-0,234
126,122	-6,968	-0,273	-0,130
127,137	-43,536	-0,167	-0,059
128,151	190,509	-0,244	-0,257
129,166	387,285	-0,204	-0,297
130,181	40,591	-0,274	-0,173
131,195	141,224	-0,238	-0,221
132,210	41,806	-0,321	-0,203
133,224	66,347	-0,187	-0,133
134,239	298,002	-0,167	-0,216
135,254	-44,214	-0,270	-0,094
136,268	116,509	-0,234	-0,201
137,283	-28,005	-0,407	-0,164
138,297	-63,215	-0,376	-0,108
139,312	1,533	-0,246	-0,124
140,327	19,975	-0,301	-0,170
141,341	-38,419	-0,296	-0,109
142,356	106,410	-0,203	-0,168
143,370	73,504	-0,231	-0,169
144,385	173,851	-0,286	-0,289
145,400	89,579	-0,220	-0,172
146,414	800,000	-0,138	-0,320
147,429	385,776	-0,231	-0,335
148,443	-26,307	-0,222	-0,091
149,458	-37,271	-0,196	-0,073
150,473	-63,111	-0,295	-0,085
151,487	213,626	-0,207	-0,229
152,502	135,192	-0,241	-0,220
153,516	24,214	-0,284	-0,164
154,531	62,978	-0,188	-0,131
155,546	293,572	-0,171	-0,219
156,560	516,799	-0,141	-0,231
157,575	288,205	-0,100	-0,126
158,589	135,685	-0,189	-0,172
159,604	-21,856	-0,285	-0,121
160,619	22,418	-0,171	-0,097
161,633	27,167	-0,142	-0,083
162,648	-5,645	-0,352	-0,168
163,662	92,461	-0,184	-0,145
164,677	305,752	-0,104	-0,135
165,692	-83,795	-0,334	-0,074
166,706	800,000	-0,077	-0,220
167,721	50,291	-0,322	-0,212
168,735	48,015	-0,286	-0,186
169,750	186,029	-0,208	-0,216
170,764	800,000	-0,099	-0,214
171,779	46,594	-0,197	-0,127
172,794	73,269	-0,303	-0,221
173,808	232,911	-0,166	-0,191
174,823	99,996	-0,165	-0,133
175,837	-99,466	-0,282	-0,049
176,852	285,118	-0,129	-0,163
177,867	15,745	-0,262	-0,144
178,881	-30,474	-0,148	-0,058
179,896	12,255	-0,119	-0,064
180,910	5,043	-0,240	-0,123
181,925	17,298	-0,330	-0,182
182,940	63,276	-0,275	-0,192
183,954	121,998	-0,274	-0,238
184,969	118,653	-0,292	-0,251
185,983	197,888	-0,241	-0,257
186,998	92,997	-0,207	-0,163
188,013	18,261	-0,198	-0,110
189,027	-101,992	-0,221	-0,037
190,042	-51,748	-0,243	-0,078
191,056	181,164	-0,219	-0,225
192,071	-85,140	-0,200	0,043
193,086	54,593	-0,087	-0,058
194,100	639,848	-0,121	-0,215
195,115	6,924	-0,317	-0,164
196,129	-67,175	-0,145	0,040
197,144	-71,865	-0,274	-0,071
198,159	146,755	-0,103	-0,097
199,173	-79,957	-0,290	-0,067
200,188	220,933	-0,201	-0,226
201,202	325,459	-0,156	-0,209
202,217	784,860	-0,040	-0,077
203,232	-47,619	-0,230	-0,077
204,246	800,000	-0,164	-0,388
205,261	203,760	-0,234	-0,253
206,275	341,102	-0,172	-0,235
207,290	85,998	-0,128	-0,098
208,304	-71,490	-0,204	-0,053
209,319	246,723	-0,155	-0,183
210,334	-4,495	-0,253	-0,121
211,348	348,198	-0,112	-0,154
212,363	274,608	-0,225	-0,277
213,377	392,072	-0,189	-0,274
214,392	-80,629	-0,170	-0,039
215,407	-53,367	-0,133	-0,042
216,421	85,893	-0,209	-0,160
217,436	350,807	-0,162	-0,223
218,450	159,022	-0,097	-0,094
219,465	104,715	-0,258	-0,211
220,480	-29,967	-0,258	-0,102
221,494	-56,639	-0,121	-0,037
222,509	286,981	-0,117	-0,148
223,523	800,000	-0,062	-0,185
224,538	413,909	-0,076	-0,113
225,553	17,683	-0,269	-0,148
226,567	31,133	-0,284	-0,169
227,582	31,122	-0,203	-0,121
228,596	-9,915	-0,285	-0,131
229,611	79,738	-0,206	-0,154
230,626	15,760	-0,153	-0,083
231,640	155,926	-0,175	-0,168
232,655	165,945	-0,182	-0,179
233,669	303,200	-0,132	-0,170
234,684	26,647	-0,166	-0,096
235,699	154,293	-0,142	-0,135
236,713	40,320	-0,143	-0,089
237,728	-200,000	-0,044	-0,207
238,742	0,297	-0,276	-0,137
239,757	111,725	-0,221	-0,185
240,772	346,257	-0,126	-0,173
241,786	-0,723	-0,141	-0,069
242,801	240,545	-0,205	-0,238
243,815	-200,000	-0,062	-0,253
244,830	129,788	-0,216	-0,192
245,844	327,038	-0,134	-0,179
246,859	-99,772	-0,158	-0,027
247,874	-83,898	-0,303	-0,066
248,888	45,428	-0,163	-0,104
249,903	120,712	-0,180	-0,155
250,917	800,000	-0,108	-0,223
251,932	-20,201	-0,161	-0,068
252,947	62,101	-0,121	-0,084
253,961	728,083	-0,085	-0,157
254,976	59,503	-0,260	-0,177
255,990	134,195	-0,166	-0,149
257,005	75,868	-0,102	-0,075
258,020	174,683	-0,135	-0,136
259,034	138,812	-0,149	-0,136
260,049	177,828	-0,083	-0,084
261,063	800,000	-0,026	-0,057
262,078	-9,638	-0,339	-0,156
263,093	286,699	-0,129	-0,162
264,107	614,174	-0,090	-0,156
265,122	-55,682	-0,251	-0,077
266,136	-52,737	-0,142	0,045
267,151	800,000	-0,059	-0,139
268,166	196,082	-0,143	-0,151
269,180	318,674	-0,083	-0,109
270,195	117,533	-0,125	-0,107
271,209	222,644	-0,134	-0,150
272,224	-200,000	-0,019	0,105
273,239	174,642	-0,062	-0,063
274,253	-20,095	-0,089	-0,038
275,268	213,209	-0,194	-0,212
276,282	-12,764	-0,212	-0,095
277,297	45,374	-0,224	-0,143
278,312	43,288	-0,079	-0,050
279,326	-140,751	-0,177	-0,012
280,341	130,334	-0,137	-0,122
281,355	-158,582	-0,195	0,008
282,370	-200,000	-0,019	-0,188
283,384	91,615	-0,114	-0,089
284,399	29,733	-0,201	-0,118
285,414	207,442	-0,136	-0,147
286,428	-200,000	-0,030	-0,191
287,443	312,542	-0,106	-0,138
288,457	283,173	-0,136	-0,169
289,472	-100,390	-0,125	-0,021
290,487	-40,208	-0,285	-0,102
291,501	311,376	-0,123	-0,160
292,516	-200,000	-0,037	-0,174
293,530	222,802	-0,165	-0,184
294,545	75,813	-0,222	-0,162
295,560	288,462	-0,093	-0,116
296,574	-123,038	-0,075	-0,008
297,589	800,000	-0,071	-0,157
298,603	800,000	-0,107	-0,224
299,618	65,533	-0,252	-0,176
300,633	-23,029	-0,151	-0,062
301,647	308,360	-0,075	-0,096
302,662	471,634	-0,093	-0,146
303,676	48,544	-0,125	-0,081
304,691	19,655	-0,202	-0,112
305,706	-200,000	-0,001	-0,079
306,720	-128,150	-0,138	-0,013
307,735	58,325	-0,200	-0,135
308,749	-200,000	-0,015	-0,114
309,764	-153,328	-0,183	-0,009
310,779	-66,862	-0,239	-0,065
311,793	77,081	-0,263	-0,193
312,808	-135,630	-0,217	0,018
313,822	415,842	-0,171	-0,252
314,837	-64,516	-0,136	-0,038
315,852	261,927	-0,137	-0,165
316,866	-100,341	-0,122	0,021
317,881	-59,587	-0,169	-0,050
318,895	800,000	-0,071	-0,157
319,910	55,610	-0,203	-0,135
320,925	42,241	-0,138	-0,086
321,939	-107,737	-0,195	-0,029
322,954	261,304	-0,124	-0,148
323,968	79,179	-0,093	-0,068
324,983	167,936	-0,117	-0,115
325,997	311,591	-0,081	-0,105
327,012	118,455	-0,143	-0,122
328,027	201,799	-0,101	-0,107
329,041	339,718	-0,058	-0,078
330,056	-50,647	-0,148	-0,048
331,070	-124,126	-0,110	0,012
332,085	100,203	-0,014	0,011
333,100	-115,970	-0,206	0,026
334,114	320,998	-0,199	-0,261
335,129	800,000	-0,073	-0,156
336,143	54,453	-0,121	-0,080
337,158	-200,000	-0,043	-0,133
338,173	800,000	-0,053	-0,108
339,187	100,452	-0,132	-0,105
340,202	800,000	-0,050	-0,143
341,216	495,461	-0,118	-0,188
342,231	-99,844	-0,171	-0,029
343,246	800,000	-0,070	-0,212
344,260	17,390	-0,134	-0,073
345,275	62,187	-0,111	-0,076
346,289	-108,842	-0,142	0,021
347,304	800,000	-0,048	-0,101
348,319	245,931	-0,174	-0,202
349,333	319,904	-0,115	-0,150
350,348	54,976	-0,171	-0,113
351,362	-29,773	-0,217	-0,085
352,377	-142,661	-0,150	-0,010
353,392	104,127	-0,160	-0,129
354,406	64,066	-0,151	-0,104
355,421	208,666	1314,342	1415,112
356,435	160,564	1475,058	1415,629
