DTS Sentinel unit serial number:	SN410029Multiplexer serial number:	ORYXHardware model number:	OX2-SRSoftware version number:	ORYX F/W v4,00 Oryx Data Collector v3.7.2.0data status	okinstallation	B3 Nyhavnadifferential loss correction	single-endedforward channel	channel 1reverse channel	N/Adate	2023/12/03time	10:57:30forward acquisition time	300,00reverse acquisition time	0,00gamma	499,1914k internal	0,3200k external	0,3200temperature offset calibration	1,0000default loss term (dB/km)	0,3820temperature slope calibration	1,0000multiplexer offset coefficient	1,0000multiplexer slope coefficient	1,0000fibre end	0,00T internal ref (°C)	13,44T ext. ref 1 (°C)	-1,35T ext. ref 2 (°C)	-1,34length (m)	temperature (°C)	Stokes	anti-Stokes-744,400	228,153	-0,191	-0,226
-743,385	242,993	0,163	0,199
-742,371	343,457	-0,185	-0,264
-741,356	-200,000	-0,048	0,286
-740,342	72,195	-0,219	-0,166
-739,327	-200,000	0,060	0,359
-738,312	-195,059	-0,195	-0,001
-737,298	-200,000	0,032	0,294
-736,283	64,270	-0,260	-0,190
-735,269	-200,000	0,084	0,354
-734,254	-32,059	-0,214	-0,086
-733,239	800,000	-0,039	0,094
-732,225	674,077	-0,125	-0,237
-731,210	244,422	0,106	0,130
-730,196	107,844	-0,048	0,042
-729,181	-200,000	-0,010	-0,087
-728,167	430,999	-0,046	0,072
-727,152	-200,000	-0,001	-0,077
-726,137	-56,071	-0,071	0,023
-725,123	800,000	-0,038	-0,117
-724,108	800,000	0,009	-0,019
-723,094	572,337	-0,070	-0,124
-722,079	-84,396	-0,108	-0,025
-721,064	409,497	-0,042	-0,066
-720,050	344,656	-0,079	-0,113
-719,035	752,557	0,110	-0,218
-718,021	-1,681	0,052	0,027
-717,006	358,699	0,020	-0,029
-715,991	798,362	-0,013	0,025
-714,977	62,373	-0,133	0,096
-713,962	498,302	-0,053	-0,090
-712,948	-85,783	-0,161	0,036
-711,933	800,000	-0,034	0,075
-710,918	99,423	-0,094	0,079
-709,904	21,310	-0,094	0,055
-708,889	421,023	-0,044	-0,069
-707,875	657,306	-0,046	-0,086
-706,860	-66,297	0,038	-0,011
-705,845	-5,472	0,070	0,035
-704,831	-200,000	0,013	-0,055
-703,816	-200,000	-0,012	0,049
-702,802	-30,502	-0,155	-0,064
-701,787	19,876	-0,006	-0,003
-700,772	-8,281	-0,113	-0,055
-699,758	800,000	-0,046	-0,109
-698,743	725,867	0,054	-0,105
-697,729	15,768	0,050	0,029
-696,714	101,149	-0,148	-0,125
-695,699	-48,830	-0,099	-0,034
-694,685	296,175	-0,057	-0,075
-693,670	800,000	-0,021	-0,060
-692,656	-100,919	0,150	0,026
-691,641	-200,000	-0,007	0,027
-690,627	58,426	-0,084	0,060
-689,612	69,978	-0,045	0,034
-688,597	-200,000	0,003	-0,080
-687,583	-67,136	-0,180	-0,051
-686,568	-200,000	-0,007	-0,086
-685,554	507,735	-0,013	0,023
-684,539	-146,005	0,068	-0,004
-683,524	-200,000	-0,017	0,191
-682,510	194,085	-0,050	0,056
-681,495	-139,425	-0,121	-0,009
-680,481	-123,409	-0,253	-0,029
-679,466	41,782	-0,056	-0,036
-678,451	-200,000	0,012	0,136
-677,437	304,195	-0,038	-0,051
-676,422	48,093	-0,156	-0,105
-675,408	-158,131	0,033	-0,001
-674,393	-41,315	-0,076	-0,028
-673,378	122,064	-0,037	-0,034
-672,364	171,546	-0,069	-0,072
-671,349	-93,064	-0,140	0,028
-670,335	-200,000	-0,001	0,002
-669,320	-34,325	0,081	-0,032
-668,305	-200,000	-0,010	-0,050
-667,291	-200,000	0,011	-0,083
-666,276	-200,000	-0,055	-0,210
-665,262	273,079	-0,073	0,093
-664,247	-200,000	-0,017	-0,063
-663,232	20,701	0,097	-0,057
-662,218	93,931	-0,143	-0,118
-661,203	-16,023	-0,030	-0,014
-660,189	-22,298	-0,112	-0,049
-659,174	568,397	0,073	-0,129
-658,159	114,424	-0,114	-0,101
-657,145	800,000	-0,022	0,067
-656,130	-200,000	-0,035	0,120
-655,116	435,795	0,032	0,050
-654,101	35,908	0,168	0,107
-653,086	139,020	-0,064	-0,061
-652,072	11,984	0,064	-0,035
-651,057	169,554	-0,099	-0,103
-650,043	118,827	-0,054	0,048
-649,028	800,000	-0,055	-0,116
-648,014	-25,651	0,026	-0,011
-646,999	126,845	-0,230	0,211
-645,984	-40,553	0,060	0,022
-644,970	800,000	0,043	-0,117
-643,955	-35,174	-0,090	-0,035
-642,941	-200,000	-0,005	-0,193
-641,926	288,887	0,072	-0,095
-640,911	-200,000	-0,015	-0,062
-639,897	-27,239	0,060	0,025
-638,882	-200,000	0,011	0,165
-637,868	-200,000	0,014	-0,055
-636,853	800,000	0,027	0,080
-635,838	-107,737	-0,046	-0,007
-634,824	-76,787	0,134	0,034
-633,809	631,723	-0,085	0,157
-632,795	-200,000	-0,001	0,194
-631,780	-74,887	-0,023	-0,006
-630,765	-109,294	-0,067	0,010
-629,751	278,807	-0,071	-0,092
-628,736	194,241	-0,048	-0,053
-627,722	-139,842	-0,174	-0,013
-626,707	-47,731	0,073	0,026
-625,692	234,000	0,074	-0,088
-624,678	-200,000	0,005	-0,055
-623,663	-200,000	0,003	-0,020
-622,649	-200,000	-0,002	0,021
-621,634	47,060	-0,149	-0,100
-620,619	-143,749	-0,136	0,009
-619,605	-57,277	-0,041	-0,013
-618,590	-200,000	-0,058	-0,206
-617,576	80,140	0,051	-0,039
-616,561	155,368	0,070	-0,070
-615,546	-200,000	-0,021	0,086
-614,532	423,611	-0,055	-0,086
-613,517	113,522	-0,070	-0,062
-612,503	-100,977	-0,118	-0,021
-611,488	-79,536	0,041	-0,010
-610,474	-136,162	-0,042	0,003
-609,459	-200,000	-0,006	0,033
-608,444	-77,879	-0,118	0,029
-607,430	-200,000	0,022	-0,084
-606,415	70,805	-0,102	0,076
-605,401	-60,665	-0,101	0,031
-604,386	-169,672	0,062	-0,002
-603,371	800,000	0,039	0,099
-602,357	111,734	-0,084	0,073
-601,342	-200,000	0,001	-0,068
-600,328	5,689	0,045	0,024
-599,313	65,552	-0,035	0,025
-598,298	-57,048	0,063	-0,020
-597,284	476,260	0,061	0,100
-596,269	71,988	0,045	0,034
-595,255	545,233	0,029	-0,050
-594,240	418,850	0,039	-0,060
-593,225	204,730	-0,080	-0,089
-592,211	-109,243	0,153	-0,023
-591,196	-106,148	0,081	0,013
-590,182	-200,000	-0,003	0,088
-589,167	800,000	-0,047	0,145
-588,152	-58,153	0,032	0,010
-587,138	800,000	-0,038	-0,099
-586,123	384,498	-0,092	-0,137
-585,109	-200,000	-0,006	-0,071
-584,094	73,185	-0,179	-0,135
-583,079	476,593	-0,020	0,032
-582,065	800,000	-0,028	0,075
-581,050	-92,924	0,125	0,025
-580,036	-200,000	-0,039	-0,140
-579,021	-200,000	-0,001	0,018
-578,006	-200,000	-0,008	-0,077
-576,992	-200,000	0,005	0,064
-575,977	-26,937	0,255	0,107
-574,963	93,499	0,052	-0,042
-573,948	77,232	-0,058	-0,044
-572,934	14,445	0,126	-0,071
-571,919	-95,050	0,146	-0,028
-570,904	33,486	-0,077	-0,048
-569,890	114,887	-0,077	0,067
-568,875	154,880	-0,053	-0,052
-567,861	42,265	0,081	0,053
-566,846	800,000	-0,028	-0,071
-565,831	800,000	-0,025	0,076
-564,817	800,000	-0,012	-0,036
-563,802	-2,247	-0,085	0,043
-562,788	-118,216	-0,009	0,001
-561,773	-103,440	0,043	0,007
-560,758	-18,454	-0,117	0,052
-559,744	370,422	0,053	0,078
-558,729	-200,000	-0,001	0,068
-557,715	-200,000	-0,012	0,039
-556,700	202,928	-0,061	-0,068
-555,685	-200,000	-0,020	0,086
-554,671	-22,425	0,073	0,032
-553,656	87,019	0,056	-0,045
-552,642	-200,000	0,002	-0,048
-551,627	-200,000	0,000	-0,021
-550,612	-90,852	0,058	-0,012
-549,598	743,657	0,019	-0,037
-548,583	-12,909	-0,191	0,090
-547,569	-165,621	0,036	0,001
-546,554	-200,000	-0,002	0,150
-545,539	33,216	0,199	0,125
-544,525	-200,000	-0,041	0,164
-543,510	190,626	-0,066	-0,071
-542,496	-42,099	0,059	0,022
-541,481	595,475	-0,041	0,073
-540,466	800,000	0,031	0,088
-539,452	344,582	0,073	0,104
-538,437	394,899	0,063	0,096
-537,423	-49,333	0,073	-0,025
-536,408	-200,000	0,001	-0,003
-535,393	-200,000	-0,011	-0,125
-534,379	-70,652	-0,184	-0,050
-533,364	800,000	0,032	0,076
-532,350	-193,228	0,071	0,000
-531,335	-200,000	0,100	-0,000
-530,321	-200,000	0,006	0,053
-529,306	-200,000	0,075	0,000
-528,291	-200,000	0,018	-0,141
-527,277	-200,000	-0,034	-0,153
-526,262	-200,000	0,010	-0,160
-525,248	12,382	0,079	-0,044
-524,233	-54,784	0,133	-0,043
-523,218	-27,065	0,062	0,026
-522,204	-123,618	0,096	-0,011
-521,189	17,573	-0,166	-0,095
-520,175	523,648	-0,070	0,119
-519,160	-36,665	0,055	-0,021
-518,145	800,000	0,052	0,141
-517,131	-200,000	0,004	0,049
-516,116	-200,000	-0,025	0,223
-515,102	-36,774	0,070	0,027
-514,087	-200,000	-0,004	0,039
-513,072	-108,910	0,033	-0,005
-512,058	-200,000	-0,008	0,065
-511,043	276,422	-0,060	0,077
-510,029	90,388	-0,021	-0,017
-509,014	219,210	-0,021	-0,024
-507,999	100,058	-0,096	-0,081
-506,985	1,371	0,009	-0,005
-505,970	-48,008	-0,201	-0,070
-504,956	-108,671	-0,088	0,013
-503,941	210,193	0,045	-0,051
-502,926	207,627	0,075	-0,085
-501,912	-115,113	0,051	-0,007
-500,897	142,267	0,145	-0,138
-499,883	-200,000	0,069	0,000
-498,868	-200,000	-0,005	-0,071
-497,853	-200,000	-0,004	-0,046
-496,839	800,000	0,015	-0,045
-495,824	-58,599	0,118	0,037
-494,810	21,629	-0,084	0,049
-493,795	-200,000	0,008	0,040
-492,781	-200,000	0,000	0,069
-491,766	-200,000	-0,009	0,111
-490,751	-136,873	-0,102	-0,008
-489,737	-69,685	-0,049	0,013
-488,722	195,512	0,010	0,011
-487,708	-200,000	-0,005	-0,036
-486,693	800,000	-0,034	-0,103
-485,678	-94,881	-0,183	0,035
-484,664	395,996	0,003	-0,005
-483,649	325,151	0,059	-0,082
-482,635	-200,000	-0,002	0,018
-481,620	97,391	-0,059	0,049
-480,605	-200,000	-0,016	0,090
-479,591	162,076	0,123	0,124
-478,576	162,517	0,121	-0,122
-477,562	53,707	-0,108	-0,075
-476,547	45,673	-0,083	0,055
-475,532	67,853	-0,089	0,066
-474,518	281,845	-0,115	0,148
-473,503	800,000	-0,018	-0,050
-472,489	86,340	-0,130	0,103
-471,474	-146,643	0,179	0,011
-470,459	786,778	0,045	-0,090
-469,445	155,718	0,057	-0,057
-468,430	146,209	-0,050	-0,048
-467,416	200,875	0,084	0,093
-466,401	331,744	0,102	0,142
-465,386	245,287	-0,036	-0,044
-464,372	31,868	-0,126	0,078
-463,357	-200,000	-0,037	-0,150
-462,343	60,381	0,122	0,087
-461,328	-200,000	-0,001	0,114
-460,313	140,064	-0,097	-0,092
-459,299	-200,000	-0,002	0,082
-458,284	800,000	0,090	0,190
-457,270	-93,747	-0,083	-0,016
-456,255	388,011	-0,019	-0,029
-455,241	800,000	-0,087	-0,181
-454,226	407,165	0,032	0,049
-453,211	169,431	0,104	0,107
-452,197	210,743	0,091	0,103
-451,182	-200,000	0,015	-0,049
-450,168	-200,000	-0,010	0,063
-449,153	-151,672	0,114	0,006
-448,138	-115,653	-0,109	0,015
-447,124	-5,025	0,042	-0,021
-446,109	-64,352	-0,166	-0,048
-445,095	800,000	-0,046	0,127
-444,080	-45,477	0,090	-0,032
-443,065	-200,000	-0,003	0,090
-442,051	119,710	0,068	0,060
-441,036	52,273	0,018	0,012
-440,022	55,466	-0,095	-0,066
-439,007	-85,084	0,095	-0,021
-437,992	412,863	-0,032	-0,049
-436,978	-83,727	0,161	0,037
-435,963	271,315	-0,005	-0,006
-434,949	-44,650	0,175	0,062
-433,934	-86,655	-0,071	0,015
-432,919	-34,085	0,078	-0,031
-431,905	-200,000	0,021	-0,105
-430,890	42,087	0,082	-0,054
-429,876	272,201	-0,069	-0,088
-428,861	1,819	0,052	-0,027
-427,846	-94,625	-0,078	0,015
-426,832	-200,000	-0,014	-0,048
-425,817	-125,469	-0,076	0,008
-424,803	-126,994	-0,106	-0,011
-423,788	-74,597	-0,050	-0,013
-422,773	-74,544	0,007	-0,002
-421,759	486,345	-0,062	-0,103
-420,744	213,892	0,145	0,166
-419,730	-126,348	0,021	0,002
-418,715	-101,654	-0,132	-0,023
-417,701	81,968	0,007	0,005
-416,686	87,497	0,051	0,041
-415,671	-200,000	0,011	-0,043
-414,657	-200,000	-0,014	-0,082
-413,642	-136,068	-0,069	-0,006
-412,628	361,347	-0,028	0,040
-411,613	-169,109	-0,081	-0,002
-410,598	-200,000	-0,006	0,035
-409,584	-138,285	0,166	0,013
-408,569	-200,000	-0,009	0,101
-407,555	-90,328	-0,062	0,013
-406,540	-200,000	0,017	-0,094
-405,525	-200,000	0,011	-0,160
-404,511	22,121	-0,173	-0,101
-403,496	76,560	-0,090	-0,068
-402,482	11,082	-0,037	0,020
-401,467	-105,022	0,079	-0,013
-400,452	-196,331	0,044	-0,000
-399,438	634,752	-0,055	0,101
-398,423	-200,000	0,003	0,067
-397,409	-78,503	-0,173	-0,042
-396,394	-143,210	0,151	0,010
-395,379	-1,989	0,057	0,029
-394,365	-33,269	0,118	0,047
-393,350	-74,641	0,134	-0,034
-392,336	-105,859	-0,086	0,014
-391,321	177,814	-0,095	-0,099
-390,306	55,403	0,113	-0,078
-389,292	98,244	0,144	-0,119
-388,277	800,000	0,035	0,099
-387,263	499,946	0,019	-0,032
-386,248	-200,000	0,011	-0,061
-385,233	51,675	0,086	-0,059
-384,219	350,285	-0,100	-0,142
-383,204	800,000	0,028	-0,067
-382,190	17,150	-0,087	-0,050
-381,175	-124,376	0,063	-0,007
-380,160	23,104	0,049	0,029
-379,146	14,647	-0,105	0,059
-378,131	343,315	0,099	0,139
-377,117	-121,543	0,099	-0,012
-376,102	718,225	0,024	-0,046
-375,088	123,422	-0,051	-0,046
-374,073	-200,000	0,034	-0,126
-373,058	179,501	-0,059	0,062
-372,044	78,131	0,096	0,073
-371,029	405,777	0,069	-0,105
-370,015	-109,335	0,067	0,010
-369,000	-62,902	0,124	-0,037
-367,985	-41,910	-0,069	0,025
-366,971	-116,027	0,174	0,023
-365,956	40,744	-0,073	0,047
-364,942	181,551	0,046	0,048
-363,927	240,161	0,076	-0,091
-362,912	-200,000	0,010	0,107
-361,898	-140,113	-0,170	-0,013
-360,883	800,000	-0,030	-0,064
-359,869	-200,000	-0,001	-0,052
-358,854	552,361	-0,070	0,121
-357,839	16,141	0,032	0,018
-356,825	-58,100	0,109	0,034
-355,810	81,696	0,074	-0,058
-354,796	-78,221	0,041	0,010
-353,781	14,963	-0,125	-0,070
-352,766	106,149	0,107	-0,091
-351,752	800,000	0,047	0,098
-350,737	800,000	0,056	0,128
-349,723	-200,000	0,007	-0,026
-348,708	326,915	-0,030	0,042
-347,693	168,272	-0,057	-0,058
-346,679	800,000	-0,041	-0,093
-345,664	-77,403	0,025	0,006
-344,650	-128,627	-0,072	-0,007
-343,635	15,106	0,095	0,053
-342,620	224,708	0,055	0,064
-341,606	701,807	0,029	0,055
-340,591	-159,028	-0,115	0,005
-339,577	-5,451	-0,116	0,057
-338,562	-200,000	-0,051	-0,213
-337,548	-200,000	-0,005	0,059
-336,533	800,000	0,058	0,157
-335,518	201,727	0,064	0,071
-334,504	262,783	0,054	0,067
-333,489	6,739	-0,096	0,051
-332,475	-130,702	-0,137	-0,013
-331,460	800,000	0,029	-0,083
-330,445	800,000	-0,026	-0,053
-329,431	-128,679	-0,081	-0,008
-328,416	127,516	0,069	0,063
-327,402	-18,467	0,111	-0,050
-326,387	178,996	-0,066	0,069
-325,372	3,389	-0,159	-0,083
-324,358	-101,026	-0,114	0,020
-323,343	800,000	-0,030	0,075
-322,329	-71,115	-0,095	0,025
-321,314	800,000	-0,024	-0,048
-320,299	41,850	-0,041	0,027
-319,285	800,000	0,022	-0,049
-318,270	70,762	0,070	-0,052
-317,256	142,628	-0,090	0,085
-316,241	222,919	-0,013	0,015
-315,226	-97,205	0,059	0,011
-314,212	11,503	0,154	-0,084
-313,197	362,427	0,071	-0,103
-312,183	350,936	0,084	-0,119
-311,168	-200,000	-0,035	0,122
-310,153	293,425	-0,067	-0,088
-309,139	800,000	-0,027	-0,055
-308,124	-200,000	0,021	0,083
-307,110	24,433	0,038	-0,022
-306,095	29,219	0,139	-0,084
-305,080	800,000	-0,036	-0,110
-304,066	800,000	0,047	0,103
-303,051	-37,273	-0,055	0,021
-302,037	89,055	-0,109	-0,086
-301,022	-200,000	-0,012	0,039
-300,008	238,719	-0,060	-0,071
-298,993	-200,000	0,020	-0,064
-297,978	-200,000	-0,010	0,070
-296,964	-35,125	0,118	0,046
-295,949	281,744	0,077	-0,099
-294,935	204,862	-0,101	0,112
-293,920	-127,801	0,102	-0,010
-292,905	-200,000	-0,005	-0,076
-291,891	-45,398	0,100	0,035
-290,876	-200,000	-0,005	0,207
-289,862	800,000	0,047	0,125
-288,847	11,940	-0,142	-0,078
-287,832	71,652	-0,082	0,061
-286,818	800,000	0,018	-0,044
-285,803	-124,951	0,173	0,019
-284,789	315,437	0,024	0,033
-283,774	-23,126	0,093	-0,040
-282,759	171,654	-0,088	-0,090
-281,745	800,000	0,074	-0,197
-280,730	56,597	-0,058	-0,040
-279,716	800,000	0,023	-0,069
-278,701	-1,615	0,095	0,048
-277,686	-35,541	0,113	0,044
-276,672	558,582	0,052	0,090
-275,657	41,634	0,065	0,042
-274,643	-189,314	-0,120	0,001
-273,628	-4,157	-0,053	-0,026
-272,613	523,913	0,102	0,172
-271,599	374,146	-0,094	0,137
-270,584	-132,877	-0,031	-0,003
-269,570	-62,983	-0,155	0,045
-268,555	121,059	-0,067	0,059
-267,540	-183,560	-0,075	0,001
-266,526	-200,000	-0,012	0,053
-265,511	800,000	-0,020	-0,040
-264,497	166,848	0,079	0,080
-263,482	68,976	0,098	0,072
-262,467	-107,326	0,040	-0,006
-261,453	627,346	-0,035	0,063
-260,438	494,446	-0,074	-0,122
-259,424	-200,000	-0,014	-0,057
-258,409	-129,527	0,050	0,005
-257,395	-200,000	-0,002	0,131
-256,380	-112,435	0,112	0,016
-255,365	-6,541	-0,049	-0,024
-254,351	45,656	-0,022	-0,014
-253,336	50,110	-0,013	0,009
-252,322	236,432	-0,066	-0,078
-251,307	-200,000	0,021	-0,171
-250,292	226,280	0,081	-0,094
-249,278	-200,000	-0,003	-0,134
-248,263	-47,019	0,068	-0,024
-247,249	-200,000	0,018	0,133
-246,234	800,000	-0,056	-0,113
-245,219	-124,176	-0,032	-0,004
-244,205	-55,019	0,047	-0,015
-243,190	-200,000	0,018	-0,123
-242,176	-79,502	0,089	0,021
-241,161	-50,296	-0,107	-0,036
-240,146	60,543	0,056	0,040
-239,132	800,000	-0,046	0,102
-238,117	-131,242	-0,111	-0,010
-237,103	-22,609	-0,073	0,031
-236,088	48,160	-0,084	0,056
-235,073	-200,000	0,017	-0,060
-234,059	-200,000	-0,026	-0,121
-233,044	21,443	0,014	-0,008
-232,030	-200,000	-0,005	0,058
-231,015	-200,000	-0,010	-0,083
-230,000	800,000	0,052	-0,128
-228,986	-117,611	-0,140	0,018
-227,971	800,000	-0,099	0,227
-226,957	208,588	0,103	0,115
-225,942	289,778	-0,039	0,051
-224,927	-64,861	0,091	0,026
-223,913	333,323	-0,030	-0,041
-222,898	800,000	-0,065	-0,164
-221,884	800,000	-0,031	-0,071
-220,869	-200,000	0,012	0,088
-219,855	-85,631	-0,110	-0,024
-218,840	50,882	0,150	0,101
-217,825	-97,409	-0,090	0,017
-216,811	-123,773	-0,201	0,022
-215,796	-200,000	-0,021	-0,096
-214,782	-64,679	0,129	0,037
-213,767	-200,000	-0,005	-0,063
-212,752	-200,000	0,013	0,089
-211,738	562,026	0,060	0,103
-210,723	-200,000	0,009	0,084
-209,709	-200,000	0,008	-0,106
-208,694	-200,000	-0,012	-0,048
-207,679	-91,567	0,063	-0,013
-206,665	-104,022	-0,031	-0,005
-205,650	486,394	-0,019	0,031
-204,636	800,000	-0,052	0,131
-203,621	-137,579	0,146	-0,012
-202,606	-145,672	-0,098	-0,006
-201,592	424,485	-0,056	-0,087
-200,577	-24,645	-0,064	-0,027
-199,563	-200,000	-0,039	-0,131
-198,548	-200,000	-0,016	0,090
-197,533	-1,703	0,062	-0,031
-196,519	-97,252	-0,115	0,021
-195,504	101,906	0,101	0,084
-194,490	491,264	-0,008	0,013
-193,475	-200,000	0,002	-0,010
-192,460	-73,177	-0,059	-0,015
-191,446	-92,524	-0,039	-0,008
-190,431	-150,010	0,082	0,004
-189,417	-200,000	-0,009	0,081
-188,402	110,750	-0,092	-0,079
-187,387	-200,000	0,012	0,041
-186,373	28,028	0,155	0,093
-185,358	212,783	-0,041	0,046
-184,344	110,051	0,025	-0,021
-183,329	412,072	0,067	-0,102
-182,315	-122,801	-0,147	0,017
-181,300	-83,314	0,042	0,010
-180,285	245,112	-0,040	-0,048
-179,271	-122,716	-0,065	-0,007
-178,256	800,000	0,020	0,055
-177,242	800,000	-0,049	0,127
-176,227	-200,000	-0,007	0,083
-175,212	80,215	0,071	0,054
-174,198	800,000	0,027	-0,070
-173,183	-23,419	-0,089	-0,038
-172,169	-23,020	0,075	0,032
-171,154	725,371	0,040	-0,076
-170,139	480,338	0,021	-0,033
-169,125	-200,000	0,012	-0,102
-168,110	-10,573	0,076	0,035
-167,096	-200,000	-0,001	-0,019
-166,081	316,796	-0,071	-0,096
-165,066	50,622	-0,094	-0,063
-164,052	279,730	-0,053	0,068
-163,037	-200,000	0,037	-0,140
-162,023	199,605	0,074	-0,081
-161,008	-200,000	0,018	0,205
-159,993	-200,000	0,003	0,031
-158,979	-125,956	0,065	-0,007
-157,964	36,501	-0,024	-0,015
-156,950	800,000	0,031	-0,093
-155,935	-200,000	-0,000	-0,028
-154,920	-98,411	-0,022	0,004
-153,906	72,996	0,160	0,119
-152,891	-34,853	0,067	-0,026
-151,877	800,000	-0,059	-0,128
-150,862	163,240	0,066	-0,066
-149,847	409,462	-0,023	0,035
-148,833	34,424	0,039	-0,024
-147,818	-72,046	0,083	0,022
-146,804	187,582	-0,107	0,113
-145,789	800,000	0,034	0,089
-144,775	145,181	0,069	0,066
-143,760	-200,000	-0,038	-0,128
-142,745	-58,171	0,062	-0,019
-141,731	-200,000	-0,009	0,083
-140,716	542,917	-0,035	-0,060
-139,702	-103,082	0,167	-0,028
-138,687	-117,348	0,134	0,017
-137,672	231,308	-0,083	0,097
-136,658	-200,000	0,038	-0,138
-135,643	800,000	-0,009	0,021
-134,629	394,771	-0,084	0,125
-133,614	-66,290	0,089	0,025
-132,599	-163,888	0,133	-0,004
-131,585	-150,650	0,118	0,006
-130,570	66,593	0,041	0,029
-129,556	48,083	0,033	0,022
-128,541	240,232	0,055	-0,065
-127,526	271,958	-0,074	0,093
-126,512	-200,000	0,002	-0,119
-125,497	275,671	-0,054	-0,068
-124,483	-200,000	0,033	0,168
-123,468	-98,498	0,107	-0,019
-122,453	-76,552	-0,039	0,010
-121,439	-43,912	-0,146	-0,052
-120,424	-200,000	-0,014	0,054
-119,410	800,000	-0,013	0,040
-118,395	42,701	0,057	0,037
-117,380	173,358	0,048	-0,050
-116,366	-200,000	-0,041	0,132
-115,351	-200,000	0,003	-0,048
-114,337	-200,000	-0,009	-0,034
-113,322	-200,000	0,003	-0,145
-112,307	-60,145	-0,093	0,028
-111,293	-92,658	0,232	-0,046
-110,278	593,476	-0,041	-0,072
-109,264	102,566	-0,051	0,043
-108,249	341,090	-0,028	-0,039
-107,234	-180,470	-0,153	0,002
-106,220	-200,000	-0,006	-0,089
-105,205	210,750	0,065	-0,072
-104,191	-58,423	-0,138	-0,042
-103,176	786,594	0,054	0,105
-102,162	301,705	0,036	0,048
-101,147	-31,740	-0,017	-0,007
-100,132	126,065	-0,093	0,084
-99,118	-55,743	-0,132	0,042
-98,103	310,808	0,064	0,086
-97,089	97,551	-0,025	0,020
-96,074	-70,334	-0,068	0,018
-95,059	15,668	-0,018	-0,010
-94,045	-158,483	-0,056	-0,002
-93,030	-42,421	-0,032	0,011
-92,016	-54,756	-0,041	-0,013
-91,001	-9,521	0,168	-0,079
-89,986	-200,000	-0,002	-0,061
-88,972	800,000	0,025	-0,061
-87,957	-200,000	-0,010	-0,043
-86,943	-200,000	-0,012	0,072
-85,928	-92,526	-0,168	-0,033
-84,913	-13,265	0,105	-0,048
-83,899	304,890	0,067	0,088
-82,884	-138,814	0,098	0,007
-81,870	-200,000	-0,007	-0,100
-80,855	-154,802	-0,119	-0,005
-79,840	240,866	-0,074	-0,087
-78,826	354,391	0,065	-0,092
-77,811	-51,970	-0,144	-0,047
-76,797	24,433	-0,086	0,050
-75,782	800,000	0,009	0,020
-74,767	105,651	0,121	0,101
-73,753	-200,000	0,025	0,089
-72,738	-11,120	0,073	-0,034
-71,724	-154,859	-0,031	0,001
-70,709	-44,303	-0,093	0,033
-69,694	242,446	0,042	0,050
-68,680	48,254	-0,134	0,089
-67,665	800,000	0,028	-0,075
-66,651	-69,830	-0,138	0,037
-65,636	-43,395	0,033	-0,012
-64,622	375,067	0,033	-0,047
-63,607	-200,000	-0,066	-0,218
-62,592	-1,427	-0,084	-0,042
-61,578	26,703	0,100	0,059
-60,563	76,266	0,040	0,030
-59,549	-98,516	-0,126	-0,023
-58,534	-41,857	-1,558	-0,563
-57,519	476,746	-1,231	-1,978
-56,505	-200,000	-0,631	-4,575
-55,490	269,941	1,089	1,358
-54,476	800,000	4,833	10,939
-53,461	-200,000	19,057	318,510
-52,446	-200,000	739,566	2334,774
-51,432	575,638	1655,073	2873,553
-50,417	78,551	1670,978	1263,432
-49,403	21,402	1543,844	886,278
-48,388	15,316	1466,120	812,065
-47,373	17,906	1456,463	819,199
-46,359	16,721	1446,291	807,764
-45,344	13,512	1441,802	789,849
-44,330	13,436	1440,073	788,509
-43,315	13,427	1438,153	787,382
-42,300	13,471	1436,273	786,534
-41,286	13,535	1434,942	786,075
-40,271	13,470	1433,777	785,099
-39,257	13,506	1432,464	784,521
-38,242	13,512	1431,402	783,935
-37,227	13,516	1430,105	783,213
-36,213	13,584	1428,647	782,707
-35,198	13,530	1427,702	781,902
-34,184	13,558	1426,715	781,461
-33,169	13,455	1425,283	780,161
-32,154	13,573	1424,076	780,028
-31,140	13,547	1422,844	779,198
-30,125	13,512	1421,901	778,485
-29,111	13,539	1420,667	777,906
-28,096	13,541	1419,612	777,304
-27,082	13,473	1418,389	776,285
-26,067	13,430	1417,579	775,610
-25,052	13,443	1416,373	774,981
-24,038	13,475	1415,219	774,466
-23,023	13,445	1414,296	773,788
-22,009	13,427	1413,102	773,024
-20,994	13,409	1412,465	772,557
-19,979	13,422	1411,817	772,235
-18,965	13,436	1410,433	771,510
-17,950	13,425	1409,638	770,994
-16,936	13,408	1408,728	770,387
-15,921	13,385	1407,510	769,581
-14,906	13,372	1406,833	769,122
-13,892	13,423	1405,609	768,661
-12,877	13,366	1404,815	767,928
-11,863	13,354	1403,964	767,376
-10,848	13,390	1403,071	767,028
-9,833	13,362	1402,313	766,454
-8,819	13,312	1401,360	765,668
-7,804	13,283	1400,412	764,983
-6,790	13,314	1399,269	764,473
-5,775	13,284	1398,360	763,806
-4,760	13,277	1397,607	763,331
-3,746	13,270	1396,431	762,628
-2,731	13,282	1395,574	762,185
-1,717	13,267	1394,739	761,631
-0,702	13,227	1393,080	760,507
0,313	17,231	1310,002	733,661
1,327	33,692	703,914	432,271
2,342	51,835	123,507	83,049
3,356	0,457	16,727	8,429
4,371	6,123	3,300	1,725
5,386	-10,837	0,665	0,310
6,400	-200,000	0,032	0,371
7,415	340,434	-0,103	-0,143
8,429	228,094	-0,270	-0,311
9,444	4,805	-0,427	-0,221
10,459	97,098	-0,263	-0,213
11,473	-7,655	-0,312	-0,149
12,488	201,754	-0,196	-0,214
13,502	28,707	-0,322	-0,193
14,517	-9,380	-0,432	-0,203
15,531	131,240	-0,415	-0,377
16,546	-9,403	-0,414	-0,195
17,561	88,825	-0,375	-0,295
18,575	139,781	-0,233	-0,217
19,590	66,772	-0,253	-0,181
20,604	-9,048	-0,379	-0,179
21,619	-2,518	-0,462	-0,228
22,634	59,929	-0,418	-0,291
23,648	113,207	-0,418	-0,358
24,663	89,250	-0,343	-0,270
25,677	43,901	-0,327	-0,211
26,692	-33,258	-0,423	-0,165
27,707	36,293	-0,417	-0,259
28,721	-60,888	-0,362	-0,108
29,736	-6,208	-0,525	-0,252
30,750	242,921	-0,238	-0,282
31,765	133,613	-0,368	-0,336
32,780	159,409	-0,357	-0,351
33,794	92,412	-0,370	-0,294
34,809	-82,826	-0,401	-0,091
35,823	24,175	-0,289	-0,168
36,838	62,262	-0,383	-0,269
37,853	66,073	-0,400	-0,286
38,867	29,417	-0,355	-0,212
39,882	181,494	-0,375	-0,389
40,896	97,755	-0,302	-0,245
41,911	48,595	-0,402	-0,265
42,926	60,469	-0,414	-0,289
43,940	187,040	-0,318	-0,335
44,955	72,764	-0,381	-0,280
45,969	107,663	-0,387	-0,325
46,984	-18,832	-0,337	-0,147
47,999	108,941	-0,233	-0,197
49,013	73,621	-0,320	-0,236
50,028	152,525	-0,298	-0,287
51,042	210,920	-0,301	-0,334
52,057	1,333	-0,351	-0,177
53,071	60,265	-0,391	-0,272
54,086	68,912	-0,444	-0,321
55,101	45,254	-0,436	-0,283
56,115	46,517	-0,336	-0,219
57,130	-17,085	-0,413	-0,183
58,144	88,667	-0,391	-0,306
59,159	-36,889	-0,289	-0,109
60,174	36,197	-0,387	-0,240
61,188	-19,647	-0,404	-0,175
62,203	-53,516	-0,464	-0,149
63,217	57,914	-0,359	-0,247
64,232	-53,636	-0,356	-0,114
65,247	45,150	-0,317	-0,205
66,261	121,237	-0,328	-0,287
67,276	30,968	-0,424	-0,255
68,290	113,610	-0,342	-0,292
69,305	251,769	-0,240	-0,287
70,320	106,545	-0,293	-0,244
71,334	74,289	-0,345	-0,254
72,349	43,149	-0,362	-0,232
73,363	48,986	-0,375	-0,247
74,378	44,027	-0,294	-0,189
75,393	217,254	-0,269	-0,302
76,407	182,092	-0,241	-0,250
77,422	71,950	-0,268	-0,196
78,436	-11,328	-0,246	-0,113
79,451	279,303	-0,184	-0,231
80,466	33,398	-0,291	-0,177
81,480	35,340	-0,371	-0,228
82,495	78,782	-0,321	-0,241
83,509	-120,556	-0,133	0,016
84,524	144,352	-0,151	-0,142
85,539	-5,967	-0,346	-0,166
86,553	-81,969	-0,412	-0,094
87,568	41,975	-0,359	-0,228
88,582	65,034	-0,397	-0,282
89,597	-31,328	-0,379	-0,149
90,611	86,418	-0,225	-0,174
91,626	61,879	-0,309	-0,216
92,641	332,778	-0,172	-0,235
93,655	88,916	-0,193	-0,151
94,670	-148,390	-0,160	0,009
95,684	101,278	-0,261	-0,213
96,699	-67,943	-0,330	-0,090
97,714	48,710	-0,302	-0,198
98,728	21,941	-0,233	-0,133
99,743	-61,092	-0,313	-0,092
100,757	-29,491	-0,251	-0,100
101,772	800,000	-0,143	-0,313
102,787	187,263	-0,234	-0,245
103,801	51,876	-0,336	-0,224
104,816	214,504	-0,261	-0,291
105,830	544,677	-0,107	-0,180
106,845	25,252	-0,195	-0,113
107,860	67,301	-0,160	-0,114
108,874	44,704	-0,237	-0,153
109,889	72,987	-0,192	-0,140
110,903	33,625	-0,331	-0,201
111,918	5,178	-0,372	-0,191
112,933	44,487	-0,202	-0,130
113,947	276,078	-0,157	-0,196
114,962	-87,009	-0,415	-0,088
115,976	214,092	-0,185	-0,205
116,991	170,719	-0,272	-0,274
118,006	92,890	-0,297	-0,235
119,020	66,152	-0,256	-0,182
120,035	54,217	-0,330	-0,222
121,049	63,471	-0,302	-0,212
122,064	108,226	-0,316	-0,264
123,079	100,928	-0,190	-0,155
124,093	311,198	-0,222	-0,292
125,108	140,778	-0,206	-0,191
126,122	42,988	-0,326	-0,208
127,137	322,431	-0,117	-0,156
128,151	197,449	-0,168	-0,179
129,166	115,265	-0,252	-0,215
130,181	79,809	-0,270	-0,203
131,195	53,753	-0,141	-0,095
132,210	34,045	-0,222	-0,135
133,224	-85,386	-0,339	-0,073
134,239	207,766	-0,301	-0,329
135,254	-71,859	-0,265	-0,068
136,268	-51,501	-0,285	-0,093
137,283	174,427	-0,208	-0,210
138,297	154,052	-0,203	-0,195
139,312	163,369	-0,294	-0,289
140,327	15,646	-0,199	-0,109
141,341	144,215	-0,145	-0,135
142,356	-33,486	-0,276	-0,106
143,370	656,438	-0,079	-0,142
144,385	8,107	-0,305	-0,160
145,400	-22,929	-0,199	-0,084
146,414	195,163	-0,261	-0,277
147,429	-66,700	-0,323	-0,089
148,443	-92,054	-0,205	-0,040
149,458	63,570	-0,219	-0,154
150,473	-33,589	-0,214	-0,082
151,487	339,341	-0,198	-0,271
152,502	82,171	-0,297	-0,225
153,516	-5,147	-0,302	-0,145
154,531	49,647	-0,216	-0,142
155,546	-67,977	-0,248	-0,067
156,560	-16,859	-0,256	-0,113
157,575	-27,757	-0,337	-0,136
158,589	143,329	-0,213	-0,198
159,604	-15,938	-0,299	-0,132
160,619	-81,200	-0,371	-0,085
161,633	79,900	-0,219	-0,164
162,648	4,160	-0,210	-0,107
163,662	24,001	-0,304	-0,175
164,677	-3,440	-0,386	-0,187
165,692	43,344	-0,199	-0,126
166,706	770,419	-0,115	-0,219
167,721	176,236	-0,180	-0,182
168,735	25,754	-0,295	-0,171
169,750	127,309	-0,239	-0,211
170,764	749,890	-0,155	-0,292
171,779	258,555	-0,114	-0,137
172,794	101,649	-0,189	-0,153
173,808	206,684	-0,176	-0,192
174,823	102,817	-0,281	-0,229
175,837	61,173	-0,286	-0,198
176,852	10,947	-0,295	-0,157
177,867	-20,371	-0,311	-0,133
178,881	234,604	-0,238	-0,274
179,896	98,898	-0,200	-0,161
180,910	160,959	-0,215	-0,209
181,925	-2,839	-0,288	-0,140
182,940	189,626	-0,209	-0,219
183,954	76,265	-0,220	-0,162
184,969	800,000	-0,085	-0,197
185,983	101,697	-0,271	-0,220
186,998	108,933	-0,244	-0,203
188,013	-23,201	-0,215	-0,090
189,027	288,491	-0,232	-0,293
190,042	62,439	-0,231	-0,161
191,056	-35,024	-0,202	-0,076
192,071	-32,489	-0,300	-0,116
193,086	96,522	-0,183	-0,146
194,100	-8,245	-0,213	-0,099
195,115	257,836	-0,183	-0,219
196,129	541,298	-0,183	-0,305
197,144	-64,115	-0,385	-0,109
198,159	299,687	-0,146	-0,188
199,173	-21,293	-0,235	-0,099
200,188	230,971	-0,206	-0,235
201,202	40,372	-0,175	-0,110
202,217	-46,076	-0,151	-0,052
203,232	-55,379	-0,267	-0,083
204,246	61,667	-0,212	-0,146
205,261	800,000	-0,162	-0,337
206,275	222,746	-0,176	-0,198
207,290	66,552	-0,208	-0,147
208,304	-135,061	-0,278	-0,023
209,319	-12,493	-0,245	-0,111
210,334	800,000	-0,140	-0,308
211,348	184,690	-0,172	-0,177
212,363	166,744	-0,262	-0,258
213,377	486,503	-0,170	-0,270
214,392	-129,074	-0,173	-0,017
215,407	-91,433	-0,077	0,015
216,421	-29,803	-0,168	-0,066
217,436	201,863	-0,265	-0,284
218,450	25,426	-0,257	-0,148
219,465	206,151	-0,188	-0,204
220,480	-124,484	-0,221	-0,024
221,494	-1,706	-0,266	-0,129
222,509	-75,166	-0,165	-0,041
223,523	-101,571	-0,242	-0,040
224,538	31,692	-0,173	-0,103
225,553	14,177	-0,211	-0,114
226,567	59,027	-0,161	-0,110
227,582	269,329	-0,227	-0,277
228,596	264,890	-0,148	-0,180
229,611	-116,337	-0,105	-0,013
230,626	-53,725	-0,210	-0,066
231,640	-35,874	-0,147	-0,055
232,655	790,909	-0,154	-0,294
233,669	-173,253	-0,301	-0,006
234,684	-117,464	-0,207	0,026
235,699	-17,423	-0,226	-0,098
236,713	-142,802	-0,141	0,009
237,728	800,000	-0,073	-0,195
238,742	144,583	-0,189	-0,175
239,757	-36,215	-0,169	-0,063
240,772	192,182	-0,168	-0,176
241,786	-67,237	-0,117	-0,032
242,801	800,000	-0,089	-0,180
243,815	-57,396	-0,151	-0,046
244,830	9,913	-0,284	-0,149
245,844	-6,914	-0,152	-0,071
246,859	641,109	-0,097	-0,171
247,874	104,262	-0,199	-0,162
248,888	49,858	-0,284	-0,185
249,903	-46,386	-0,130	-0,044
250,917	-200,000	-0,013	-0,078
251,932	552,352	-0,072	-0,120
252,947	459,505	-0,081	-0,125
253,961	-9,157	-0,286	-0,132
254,976	73,747	-0,276	-0,200
255,990	93,321	-0,242	-0,189
257,005	800,000	-0,073	-0,193
258,020	-57,944	-0,189	-0,057
259,034	-45,757	-0,179	-0,061
260,049	-1,244	-0,212	-0,103
261,063	800,000	-0,075	-0,194
262,078	-72,591	-0,272	-0,069
263,093	-26,567	-0,272	-0,110
264,107	-25,238	-0,293	-0,119
265,122	-60,037	-0,142	-0,042
266,136	82,999	-0,140	-0,105
267,151	351,088	-0,126	-0,173
268,166	-200,000	-0,072	-0,277
269,180	800,000	-0,141	-0,305
270,195	800,000	-0,099	-0,299
271,209	29,750	-0,193	-0,113
272,224	-12,271	-0,194	-0,087
273,239	-16,021	-0,082	-0,036
274,253	-200,000	-0,021	-0,083
275,268	398,195	-0,137	-0,198
276,282	106,774	-0,201	-0,165
277,297	110,430	-0,155	-0,129
278,312	800,000	-0,133	-0,259
279,326	399,178	-0,061	-0,088
280,341	149,540	-0,148	0,139
281,355	-200,000	0,023	-0,106
282,370	-39,601	-0,117	-0,042
283,384	-3,460	-0,276	-0,132
284,399	102,833	-0,100	-0,081
285,414	65,647	-0,238	-0,166
286,428	693,530	-0,099	-0,179
287,443	-135,001	-0,134	-0,011
288,457	-80,139	-0,270	0,062
289,472	-1,658	-0,144	-0,070
290,487	800,000	-0,071	-0,156
291,501	5,027	-0,090	-0,046
292,516	9,595	-0,162	-0,085
293,530	68,719	-0,105	-0,074
294,545	-11,266	-0,165	-0,074
295,560	-200,000	0,014	-0,190
296,574	800,000	-0,091	-0,253
297,589	303,334	-0,143	-0,183
298,603	378,205	-0,126	-0,178
299,618	48,542	-0,188	-0,121
300,633	254,160	-0,128	-0,152
301,647	-100,144	-0,142	0,024
302,662	-114,929	-0,103	-0,013
303,676	102,583	-0,166	-0,133
304,691	78,370	-0,052	-0,038
305,706	-149,324	-0,196	-0,011
306,720	404,972	-0,156	-0,227
307,735	-68,596	-0,119	0,032
308,749	13,736	-0,163	-0,087
309,764	-99,121	-0,061	-0,011
310,779	-200,000	-0,026	-0,084
311,793	-14,725	-0,077	-0,034
312,808	-45,076	-0,162	-0,055
313,822	44,199	-0,245	-0,154
314,837	192,032	-0,231	-0,240
315,852	-59,609	-0,087	-0,026
316,866	-64,269	-0,135	-0,038
317,881	130,818	-0,125	-0,110
318,895	12,369	-0,089	-0,047
319,910	111,656	-0,141	-0,117
320,925	121,304	-0,136	-0,117
321,939	281,039	-0,139	-0,172
322,954	-200,000	0,008	-0,105
323,968	551,423	-0,130	-0,216
324,983	-53,508	-0,114	-0,036
325,997	348,629	-0,143	-0,194
327,012	800,000	-0,112	-0,245
328,027	800,000	-0,030	-0,079
329,041	273,719	-0,122	-0,149
330,056	-56,156	-0,202	-0,061
331,070	800,000	0,022	-0,059
332,085	-39,574	-0,129	0,046
333,100	-200,000	-0,068	-0,228
334,114	-17,994	-0,193	-0,083
335,129	353,598	-0,090	-0,123
336,143	97,881	0,060	-0,047
337,158	36,515	-0,095	-0,058
338,173	-86,020	-0,104	-0,022
339,187	148,428	-0,044	-0,040
340,202	-184,752	-0,243	0,003
341,216	800,000	-0,053	-0,126
342,231	-55,569	-0,117	-0,036
343,246	-200,000	0,001	-0,110
344,260	284,667	-0,098	-0,121
345,275	190,168	-0,061	-0,063
346,289	-6,591	-0,235	-0,109
347,304	-4,466	-0,206	-0,097
348,319	88,046	-0,121	-0,092
349,333	62,937	-0,175	0,120
350,348	800,000	-0,075	-0,185
351,362	-200,000	0,007	-0,090
352,377	-52,661	-0,059	-0,018
353,392	800,000	-0,048	-0,109
354,406	136,914	-0,192	-0,172
355,421	209,426	1314,711	1415,246
356,435	161,180	1475,443	1415,735
