DTS Sentinel unit serial number:	SN410029Multiplexer serial number:	ORYXHardware model number:	OX2-SRSoftware version number:	ORYX F/W v4,00 Oryx Data Collector v3.7.2.0data status	okinstallation	B3 Nyhavnadifferential loss correction	single-endedforward channel	channel 1reverse channel	N/Adate	2023/12/05time	06:32:30forward acquisition time	300,00reverse acquisition time	0,00gamma	499,1914k internal	0,3201k external	0,3201temperature offset calibration	1,0000default loss term (dB/km)	0,3820temperature slope calibration	1,0000multiplexer offset coefficient	1,0000multiplexer slope coefficient	1,0000fibre end	0,00T internal ref (°C)	13,93T ext. ref 1 (°C)	-0,98T ext. ref 2 (°C)	-1,00length (m)	temperature (°C)	Stokes	anti-Stokes-744,400	6,342	-0,204	-0,110
-743,385	800,000	0,065	0,191
-742,371	1,796	-0,075	-0,039
-741,356	-200,000	0,044	0,412
-740,342	254,862	-0,164	-0,204
-739,327	-200,000	-0,028	0,344
-738,312	120,035	-0,214	-0,193
-737,298	-200,000	-0,028	0,242
-736,283	800,000	-0,092	-0,292
-735,269	-200,000	0,015	0,430
-734,254	121,409	-0,167	-0,152
-733,239	-84,289	-0,238	0,054
-732,225	-200,000	0,027	-0,187
-731,210	59,760	0,107	0,077
-730,196	-90,655	-0,092	-0,019
-729,181	800,000	-0,010	0,026
-728,167	57,789	-0,129	-0,092
-727,152	1,977	0,010	0,005
-726,137	104,811	-0,063	-0,054
-725,123	-59,954	-0,096	-0,030
-724,108	-99,130	-0,093	0,017
-723,094	-200,000	0,029	-0,176
-722,079	800,000	0,047	0,125
-721,064	-200,000	-0,010	-0,031
-720,050	-200,000	0,016	0,093
-719,035	337,011	0,066	-0,093
-718,021	800,000	-0,034	0,076
-717,006	-13,308	-0,006	-0,003
-715,991	189,431	-0,056	-0,061
-714,977	-9,500	-0,097	0,047
-713,962	800,000	0,062	0,129
-712,948	72,717	0,123	-0,093
-711,933	-198,654	0,066	-0,000
-710,918	-200,000	0,010	-0,121
-709,904	129,771	-0,097	0,090
-708,889	800,000	-0,053	-0,149
-707,875	130,708	-0,036	-0,034
-706,860	326,620	0,070	0,098
-705,845	76,733	0,099	-0,076
-704,831	-60,606	-0,207	0,063
-703,816	74,794	-0,033	-0,025
-702,802	8,175	-0,081	0,044
-701,787	-11,570	-0,106	0,051
-700,772	-200,000	-0,034	-0,129
-699,758	-78,346	0,106	-0,026
-698,743	-200,000	-0,027	-0,144
-697,729	-151,625	0,079	0,004
-696,714	-112,455	-0,066	-0,010
-695,699	-34,143	-0,156	-0,062
-694,685	-79,731	-0,063	0,015
-693,670	-200,000	0,036	0,147
-692,656	800,000	0,020	0,050
-691,641	53,297	-0,116	0,081
-690,627	-200,000	0,022	0,147
-689,612	-200,000	0,010	0,096
-688,597	442,794	-0,048	-0,077
-687,583	328,900	-0,030	-0,042
-686,568	-200,000	-0,044	-0,153
-685,554	-189,557	-0,087	0,001
-684,539	-94,452	0,077	-0,015
-683,524	597,309	0,007	0,013
-682,510	330,576	0,018	0,025
-681,495	108,659	-0,114	0,099
-680,481	800,000	0,020	-0,044
-679,466	-200,000	0,011	-0,108
-678,451	107,303	-0,036	-0,031
-677,437	36,116	0,062	-0,040
-676,422	187,833	-0,018	-0,019
-675,408	78,577	-0,176	-0,137
-674,393	498,636	0,022	-0,037
-673,378	-58,052	-0,036	0,011
-672,364	56,844	-0,079	-0,056
-671,349	-104,960	-0,043	0,007
-670,335	-83,791	0,190	0,044
-669,320	-200,000	0,013	0,073
-668,305	-121,592	0,081	0,010
-667,291	46,162	-0,074	0,050
-666,276	103,979	0,005	0,004
-665,262	-200,000	-0,007	-0,106
-664,247	36,114	0,070	-0,044
-663,232	-151,010	-0,176	0,009
-662,218	-41,040	0,092	0,034
-661,203	-49,774	-0,152	-0,052
-660,189	-200,000	0,048	-0,163
-659,174	-200,000	0,009	-0,093
-658,159	-59,354	-0,175	-0,054
-657,145	496,462	0,033	-0,055
-656,130	-200,000	-0,010	0,058
-655,116	706,322	0,030	0,058
-654,101	13,441	0,077	0,043
-653,086	-200,000	-0,004	0,013
-652,072	-200,000	0,020	0,081
-651,057	-67,125	-0,119	0,034
-650,043	-78,501	-0,079	0,019
-649,028	192,830	0,053	-0,058
-648,014	0,566	0,104	-0,054
-646,999	-108,715	0,097	0,015
-645,984	145,425	0,010	0,010
-644,970	800,000	0,020	-0,057
-643,955	-200,000	-0,001	-0,122
-642,941	-200,000	-0,021	-0,084
-641,926	-25,088	-0,080	-0,034
-640,911	-106,762	0,047	0,007
-639,897	800,000	0,020	-0,064
-638,882	299,718	0,038	0,051
-637,868	-48,532	-0,049	-0,017
-636,853	-200,000	-0,030	-0,123
-635,838	588,017	0,011	-0,019
-634,824	800,000	0,035	-0,108
-633,809	88,980	0,040	-0,032
-632,795	-6,522	0,101	0,050
-631,780	196,005	0,059	0,065
-630,765	43,558	-0,170	-0,112
-629,751	-200,000	-0,009	-0,030
-628,736	-101,031	0,102	-0,018
-627,722	-95,373	0,128	0,025
-626,707	-32,871	-0,012	0,005
-625,692	467,118	-0,060	0,098
-624,678	-71,648	0,079	0,021
-623,663	-58,062	0,098	-0,031
-622,649	473,500	-0,063	-0,103
-621,634	800,000	-0,033	-0,084
-620,619	-16,540	-0,073	-0,033
-619,605	180,594	-0,056	-0,059
-618,590	-4,820	0,131	0,065
-617,576	83,786	0,090	0,071
-616,561	-62,199	-0,038	-0,011
-615,546	800,000	0,016	-0,036
-614,532	-191,753	-0,087	0,001
-613,517	75,383	-0,084	0,064
-612,503	7,059	0,037	-0,020
-611,488	-200,000	-0,013	0,094
-610,474	-106,725	0,237	0,038
-609,459	518,949	0,067	0,113
-608,444	800,000	-0,061	-0,174
-607,430	-166,739	-0,163	-0,005
-606,415	517,507	-0,058	0,099
-605,401	4,762	-0,032	-0,017
-604,386	-15,033	0,090	0,041
-603,371	573,783	0,083	0,148
-602,357	540,858	-0,114	0,198
-601,342	800,000	0,054	-0,149
-600,328	-200,000	-0,005	-0,188
-599,313	800,000	-0,020	-0,060
-598,298	303,970	-0,112	-0,151
-597,284	-122,623	0,063	-0,007
-596,269	800,000	0,034	0,070
-595,255	-200,000	0,034	0,203
-594,240	-59,186	-0,218	-0,067
-593,225	114,546	0,068	-0,060
-592,211	800,000	-0,019	-0,046
-591,196	97,346	0,050	-0,042
-590,182	800,000	0,074	-0,165
-589,167	-36,956	-0,063	-0,024
-588,152	800,000	0,037	0,085
-587,138	-30,954	-0,047	-0,019
-586,123	800,000	0,047	-0,112
-585,109	223,287	-0,079	0,092
-584,094	245,844	-0,060	0,073
-583,079	-183,629	0,118	-0,001
-582,065	-12,649	0,017	0,008
-581,050	800,000	0,023	-0,047
-580,036	800,000	0,011	0,029
-579,021	-131,585	0,162	0,015
-578,006	-200,000	0,003	-0,076
-576,992	181,770	0,033	-0,035
-575,977	160,549	-0,073	0,074
-574,963	93,883	0,085	0,070
-573,948	-200,000	0,012	0,059
-572,934	158,248	-0,128	0,128
-571,919	-200,000	-0,019	-0,079
-570,904	-123,075	-0,107	-0,012
-569,890	-11,533	-0,047	-0,022
-568,875	-200,000	0,020	-0,070
-567,861	558,319	0,040	0,071
-566,846	800,000	0,008	0,022
-565,831	1,452	0,085	-0,044
-564,817	-200,000	-0,017	-0,108
-563,802	280,773	-0,045	-0,058
-562,788	46,001	-0,035	-0,023
-561,773	-93,885	0,080	-0,016
-560,758	-200,000	0,003	0,113
-559,744	29,300	0,185	-0,113
-558,729	-200,000	-0,018	-0,066
-557,715	56,523	0,061	-0,043
-556,700	148,665	-0,019	-0,019
-555,685	800,000	-0,008	0,017
-554,671	128,762	-0,023	-0,022
-553,656	-46,647	-0,078	-0,027
-552,642	-200,000	0,033	0,174
-551,627	3,113	0,100	-0,053
-550,612	-29,066	-0,056	-0,023
-549,598	155,084	-0,064	-0,064
-548,583	74,887	-0,092	0,070
-547,569	800,000	-0,033	0,100
-546,554	-3,270	0,092	0,046
-545,539	87,938	-0,089	-0,071
-544,525	-200,000	0,017	0,060
-543,510	30,311	0,088	0,054
-542,496	106,617	0,066	-0,057
-541,481	-200,000	-0,002	0,041
-540,466	65,881	-0,025	0,018
-539,452	32,147	-0,082	-0,051
-538,437	-41,651	-0,092	0,034
-537,423	-200,000	-0,018	0,074
-536,408	86,334	-0,122	-0,097
-535,393	-86,354	-0,031	0,007
-534,379	577,546	-0,034	0,059
-533,364	-138,464	-0,215	-0,017
-532,350	-200,000	0,000	0,057
-531,335	237,226	-0,136	0,163
-530,321	-200,000	0,016	-0,061
-529,306	800,000	0,027	-0,059
-528,291	376,018	0,113	-0,167
-527,277	-92,964	-0,098	0,020
-526,262	203,051	-0,041	-0,045
-525,248	287,978	0,068	0,089
-524,233	-200,000	0,001	0,074
-523,218	243,487	0,073	0,088
-522,204	-200,000	0,009	-0,056
-521,189	-200,000	-0,008	-0,076
-520,175	283,261	-0,042	-0,054
-519,160	71,859	-0,064	-0,048
-518,145	162,090	0,052	0,052
-517,131	-200,000	-0,032	0,175
-516,116	171,687	0,073	-0,076
-515,102	-104,728	0,092	0,015
-514,087	773,807	-0,016	-0,032
-513,072	133,672	-0,068	-0,063
-512,058	81,592	-0,041	0,032
-511,043	254,868	0,053	-0,065
-510,029	-200,000	-0,023	0,076
-509,014	665,745	0,074	0,139
-507,999	-119,822	-0,097	0,012
-506,985	348,590	0,034	-0,049
-505,970	76,674	-0,107	-0,082
-504,956	101,520	-0,035	-0,029
-503,941	800,000	-0,021	0,045
-502,926	51,267	0,062	-0,042
-501,912	262,746	0,087	0,109
-500,897	-185,509	0,176	-0,002
-499,883	16,628	-0,054	0,031
-498,868	791,931	-0,070	0,140
-497,853	161,669	0,062	0,063
-496,839	-200,000	-0,010	-0,063
-495,824	137,936	0,116	0,109
-494,810	776,421	0,078	-0,154
-493,795	-150,149	-0,061	0,003
-492,781	721,248	0,017	-0,033
-491,766	800,000	-0,024	0,055
-490,751	-24,180	-0,079	-0,034
-489,737	800,000	0,021	-0,064
-488,722	169,705	0,057	0,059
-487,708	800,000	-0,015	0,045
-486,693	1,854	0,047	0,025
-485,678	-200,000	-0,007	0,025
-484,664	-200,000	-0,029	0,130
-483,649	-193,106	-0,119	0,001
-482,635	30,592	0,110	0,068
-481,620	-200,000	0,017	0,100
-480,605	13,418	0,200	0,111
-479,591	13,070	0,124	-0,069
-478,576	-7,251	-0,071	0,035
-477,562	9,348	-0,102	0,055
-476,547	46,697	-0,056	0,038
-475,532	-122,619	-0,088	-0,010
-474,518	-155,684	-0,078	0,004
-473,503	-59,898	0,162	-0,050
-472,489	115,252	-0,081	-0,071
-471,474	56,691	-0,099	0,070
-470,459	151,364	-0,115	-0,112
-469,445	-184,058	-0,183	0,002
-468,430	347,399	-0,070	0,099
-467,416	-58,560	0,116	0,036
-466,401	335,267	-0,092	0,129
-465,386	-200,000	0,009	0,037
-464,372	160,945	-0,094	-0,095
-463,357	720,447	-0,018	-0,034
-462,343	221,848	-0,051	0,059
-461,328	-29,688	0,051	-0,021
-460,313	51,853	0,077	0,053
-459,299	345,217	-0,064	0,090
-458,284	-200,000	0,018	0,103
-457,270	-200,000	0,018	-0,164
-456,255	378,444	-0,075	-0,110
-455,241	19,414	-0,075	-0,043
-454,226	745,356	-0,039	0,077
-453,211	-53,311	-0,143	-0,047
-452,197	-51,885	0,148	0,049
-451,182	-8,963	0,118	0,056
-450,168	-200,000	-0,011	0,057
-449,153	-200,000	-0,001	-0,125
-448,138	800,000	-0,097	-0,222
-447,124	-57,296	0,140	-0,044
-446,109	432,195	-0,031	-0,049
-445,095	-65,529	0,090	0,026
-444,080	800,000	0,062	0,152
-443,065	-114,715	0,066	0,009
-442,051	800,000	0,047	0,119
-441,036	-67,856	-0,118	0,033
-440,022	-156,672	-0,083	-0,004
-439,007	49,250	0,141	-0,095
-437,992	-144,748	-0,052	-0,003
-436,978	-3,174	0,176	0,088
-435,963	-200,000	0,007	0,157
-434,949	-200,000	0,018	0,155
-433,934	342,329	0,034	-0,047
-432,919	-49,047	0,174	-0,060
-431,905	-34,804	0,066	0,026
-430,890	-169,929	0,009	-0,000
-429,876	82,887	0,140	0,110
-428,861	-200,000	0,018	0,084
-427,846	35,219	-0,073	0,046
-426,832	671,037	-0,065	-0,122
-425,817	800,000	-0,022	0,048
-424,803	-107,447	-0,064	0,010
-423,788	-60,566	-0,057	0,017
-422,773	800,000	0,075	0,183
-421,759	-31,542	0,132	0,053
-420,744	-104,831	0,014	0,002
-419,730	800,000	0,035	-0,099
-418,715	-200,000	0,017	-0,077
-417,701	82,520	0,037	-0,029
-416,686	-24,105	-0,127	0,054
-415,671	-185,754	0,037	0,000
-414,657	-200,000	0,009	0,057
-413,642	800,000	0,010	0,025
-412,628	800,000	-0,021	-0,053
-411,613	800,000	0,030	0,062
-410,598	39,116	0,027	-0,018
-409,584	-200,000	-0,021	-0,158
-408,569	75,235	0,084	0,063
-407,555	55,532	0,240	0,166
-406,540	284,787	-0,021	0,027
-405,525	-200,000	0,001	-0,026
-404,511	-114,810	-0,063	-0,009
-403,496	800,000	-0,051	-0,102
-402,482	10,616	0,065	-0,035
-401,467	800,000	-0,019	0,041
-400,452	108,836	0,107	-0,092
-399,438	-5,867	-0,140	0,068
-398,423	-200,000	0,028	-0,129
-397,409	205,712	0,093	-0,104
-396,394	-45,592	-0,043	-0,015
-395,379	482,797	-0,041	-0,068
-394,365	12,431	0,083	0,046
-393,350	-171,546	0,076	-0,002
-392,336	-16,157	-0,030	-0,013
-391,321	79,943	0,084	-0,065
-390,306	214,698	-0,091	-0,104
-389,292	73,950	-0,057	-0,043
-388,277	-200,000	-0,010	0,087
-387,263	-200,000	0,011	0,079
-386,248	150,957	-0,055	-0,054
-385,233	167,036	0,056	-0,057
-384,219	-80,789	-0,150	-0,035
-383,204	8,579	0,138	-0,074
-382,190	716,295	-0,014	-0,027
-381,175	152,443	-0,085	-0,083
-380,160	-86,826	0,048	-0,010
-379,146	-115,679	0,018	-0,002
-378,131	800,000	0,033	0,087
-377,117	742,090	0,060	0,117
-376,102	-136,603	-0,090	0,007
-375,088	82,838	-0,041	-0,032
-374,073	800,000	-0,032	0,084
-373,058	507,089	0,046	0,076
-372,044	-105,067	0,142	-0,023
-371,029	156,529	-0,087	0,086
-370,015	103,120	-0,164	0,138
-369,000	314,852	-0,068	-0,092
-367,985	-200,000	-0,007	-0,100
-366,971	800,000	0,060	-0,181
-365,956	672,950	-0,044	-0,081
-364,942	-42,240	0,050	-0,018
-363,927	426,925	0,024	0,038
-362,912	-200,000	0,013	-0,107
-361,898	685,210	0,050	0,095
-360,883	286,159	-0,021	-0,027
-359,869	7,626	-0,084	-0,045
-358,854	-200,000	0,028	0,095
-357,839	-200,000	-0,001	0,086
-356,825	14,044	-0,040	-0,022
-355,810	165,007	0,093	-0,094
-354,796	800,000	0,027	-0,066
-353,781	-77,191	-0,099	-0,024
-352,766	62,514	-0,011	0,008
-351,752	-62,343	0,147	-0,043
-350,737	17,569	0,065	0,037
-349,723	-162,956	0,161	0,005
-348,708	138,282	-0,138	-0,130
-347,693	-25,157	-0,056	-0,024
-346,679	-135,182	0,085	0,007
-345,664	800,000	0,025	0,071
-344,650	-125,092	0,068	0,007
-343,635	-200,000	-0,021	-0,099
-342,620	800,000	0,041	0,094
-341,606	-200,000	0,034	0,112
-340,591	-9,792	0,032	-0,015
-339,577	-34,821	-0,130	-0,051
-338,562	-56,152	0,088	-0,028
-337,548	64,712	-0,107	0,077
-336,533	-19,270	-0,120	0,053
-335,518	-126,876	0,143	0,015
-334,504	344,862	-0,033	-0,046
-333,489	26,032	-0,172	-0,102
-332,475	-82,323	0,015	0,003
-331,460	-188,063	-0,010	0,000
-330,445	800,000	0,018	-0,045
-329,431	386,749	-0,030	0,045
-328,416	-175,743	0,025	-0,000
-327,402	-200,000	-0,009	-0,063
-326,387	800,000	-0,054	0,128
-325,372	-200,000	0,001	-0,180
-324,358	-200,000	0,009	-0,092
-323,343	14,439	-0,062	0,035
-322,329	-31,151	-0,079	-0,032
-321,314	-200,000	-0,061	0,210
-320,299	390,456	0,066	0,099
-319,285	37,757	-0,042	0,027
-318,270	167,387	-0,007	-0,007
-317,256	-200,000	-0,009	-0,036
-316,241	-105,775	-0,102	-0,016
-315,226	-200,000	0,034	0,189
-314,212	-200,000	-0,004	0,237
-313,197	-59,085	0,081	-0,025
-312,183	-17,870	-0,030	0,013
-311,168	-200,000	-0,014	0,072
-310,153	800,000	0,034	0,069
-309,139	227,711	0,058	-0,067
-308,124	-33,871	-0,086	0,034
-307,110	-200,000	0,026	-0,092
-306,095	151,260	0,050	0,048
-305,080	-153,183	0,039	0,002
-304,066	-200,000	-0,003	-0,127
-303,051	198,973	0,027	-0,030
-302,037	800,000	-0,047	0,125
-301,022	786,159	0,007	-0,014
-300,008	-200,000	-0,008	0,063
-298,993	315,617	0,063	0,085
-297,978	190,335	-0,067	0,072
-296,964	-103,687	-0,034	-0,006
-295,949	-97,984	0,078	0,014
-294,935	800,000	0,028	-0,074
-293,920	61,464	-0,023	-0,016
-292,905	-200,000	-0,023	0,104
-291,891	181,458	0,058	0,061
-290,876	611,901	0,094	0,169
-289,862	720,276	0,054	0,103
-288,847	101,568	-0,046	0,038
-287,832	442,908	-0,065	-0,101
-286,818	-111,714	-0,063	0,009
-285,803	-23,437	0,085	0,036
-284,789	-137,026	0,103	0,008
-283,774	221,495	-0,023	0,027
-282,759	433,137	-0,073	-0,113
-281,745	-37,977	-0,081	-0,031
-280,730	-181,745	-0,224	0,003
-279,716	-200,000	0,011	0,069
-278,701	84,239	-0,150	0,117
-277,686	153,060	-0,028	-0,028
-276,672	-87,712	-0,087	0,019
-275,657	-200,000	-0,023	0,100
-274,643	-200,000	-0,002	-0,033
-273,628	-9,362	0,034	0,016
-272,613	54,386	-0,134	-0,092
-271,599	582,224	0,026	0,046
-270,584	-163,612	0,169	0,006
-269,570	15,016	0,070	0,039
-268,555	-200,000	-0,000	0,123
-267,540	800,000	-0,034	-0,104
-266,526	114,361	-0,079	-0,068
-265,511	-200,000	-0,023	-0,105
-264,497	-200,000	-0,002	-0,114
-263,482	741,266	-0,071	0,137
-262,467	800,000	0,017	-0,048
-261,453	131,956	-0,061	0,056
-260,438	-35,287	-0,055	0,021
-259,424	800,000	-0,026	-0,069
-258,409	-200,000	-0,024	0,105
-257,395	45,149	0,015	-0,010
-256,380	-40,326	0,094	-0,035
-255,365	-112,641	0,037	0,005
-254,351	800,000	0,035	0,072
-253,336	800,000	-0,031	0,089
-252,322	28,568	-0,085	0,051
-251,307	246,035	-0,050	-0,061
-250,292	124,406	0,141	0,126
-249,278	446,973	0,061	0,097
-248,263	800,000	0,015	0,030
-247,249	800,000	0,092	0,196
-246,234	-47,648	-0,066	0,023
-245,219	-200,000	0,007	-0,088
-244,205	-200,000	-0,010	-0,063
-243,190	210,375	-0,073	-0,082
-242,176	-35,671	0,041	0,016
-241,161	-200,000	0,008	0,046
-240,146	368,842	-0,039	-0,056
-239,132	-200,000	-0,013	-0,077
-238,117	-200,000	-0,007	-0,032
-237,103	-32,164	-0,089	-0,035
-236,088	536,188	-0,028	-0,048
-235,073	358,527	0,058	0,083
-234,059	-200,000	-0,005	-0,071
-233,044	733,064	-0,035	0,067
-232,030	-147,308	0,105	0,006
-231,015	-200,000	0,019	-0,128
-230,000	-200,000	-0,018	-0,193
-228,986	-172,178	-0,045	-0,001
-227,971	42,873	0,071	-0,046
-226,957	535,696	-0,050	-0,086
-225,942	-127,453	0,014	-0,001
-224,927	-6,164	-0,122	-0,059
-223,913	141,828	0,127	-0,120
-222,898	87,609	0,150	-0,118
-221,884	64,130	-0,048	-0,034
-220,869	-18,411	0,028	0,012
-219,855	244,947	-0,034	0,041
-218,840	254,186	0,022	-0,027
-217,825	12,642	-0,093	0,051
-216,811	131,738	-0,076	-0,070
-215,796	67,298	-0,104	-0,076
-214,782	722,944	-0,025	0,048
-213,767	-162,511	0,072	-0,003
-212,752	116,062	0,070	0,061
-211,738	800,000	0,056	0,149
-210,723	37,469	0,059	0,037
-209,709	159,150	0,030	-0,029
-208,694	-160,036	-0,072	-0,003
-207,679	-77,696	-0,088	-0,022
-206,665	284,393	-0,037	0,048
-205,650	-158,248	-0,077	-0,003
-204,636	16,699	0,039	-0,022
-203,621	41,867	0,026	-0,017
-202,606	800,000	-0,038	-0,089
-201,592	94,558	-0,052	0,042
-200,577	136,145	-0,035	-0,032
-199,563	-25,854	-0,102	-0,042
-198,548	-5,071	-0,058	-0,028
-197,533	-8,485	0,135	-0,064
-196,519	800,000	-0,044	0,110
-195,504	25,906	-0,023	-0,014
-194,490	479,701	0,023	0,037
-193,475	-80,493	-0,106	-0,025
-192,460	-200,000	0,026	-0,143
-191,446	291,689	-0,016	0,020
-190,431	800,000	-0,026	0,074
-189,417	-200,000	0,004	0,026
-188,402	-200,000	-0,063	-0,222
-187,387	39,188	-0,144	-0,091
-186,373	344,125	-0,010	-0,014
-185,358	800,000	-0,022	-0,050
-184,344	543,898	-0,063	0,108
-183,329	-200,000	-0,021	0,101
-182,315	-62,042	0,088	-0,026
-181,300	-200,000	0,007	0,023
-180,285	309,599	0,045	-0,059
-179,271	154,109	-0,010	-0,010
-178,256	-200,000	-0,021	-0,077
-177,242	22,375	0,151	0,088
-176,227	436,049	-0,022	0,035
-175,212	7,385	0,060	0,032
-174,198	774,845	0,034	0,067
-173,183	-200,000	-0,014	-0,092
-172,169	18,332	-0,089	-0,050
-171,154	-200,000	0,043	-0,167
-170,139	119,419	0,124	0,109
-169,125	34,637	0,158	-0,098
-168,110	23,622	-0,081	-0,047
-167,096	-45,121	0,178	0,063
-166,081	338,143	-0,037	-0,051
-165,066	-200,000	0,001	-0,096
-164,052	-200,000	0,026	0,092
-163,037	19,726	0,142	0,081
-162,023	84,968	0,060	-0,046
-161,008	-137,561	-0,077	-0,006
-159,993	800,000	0,055	-0,112
-158,979	-200,000	-0,010	-0,033
-157,964	-66,264	-0,139	0,039
-156,950	-200,000	-0,026	-0,111
-155,935	800,000	-0,025	0,071
-154,920	-107,307	0,028	0,004
-153,906	97,512	0,055	-0,045
-152,891	-70,399	-0,108	0,029
-151,877	-106,134	-0,084	-0,013
-150,862	-72,114	-0,100	-0,026
-149,847	-154,417	-0,095	-0,004
-148,833	800,000	0,040	-0,101
-147,818	69,346	0,119	-0,087
-146,804	-200,000	-0,029	0,091
-145,789	398,536	0,028	-0,042
-144,775	617,161	-0,043	0,077
-143,760	800,000	-0,048	0,145
-142,745	-200,000	0,000	-0,090
-141,731	69,501	-0,064	0,047
-140,716	-200,000	-0,019	0,062
-139,702	-200,000	-0,022	0,083
-138,687	711,542	0,045	0,085
-137,672	-200,000	0,006	0,072
-136,658	-200,000	0,014	0,097
-135,643	-142,623	-0,016	-0,001
-134,629	154,085	-0,054	0,052
-133,614	74,493	0,098	0,073
-132,599	-200,000	-0,009	0,126
-131,585	-200,000	-0,038	0,158
-130,570	-200,000	-0,001	0,005
-129,556	800,000	-0,021	-0,063
-128,541	-200,000	0,009	0,050
-127,526	-5,174	-0,164	-0,080
-126,512	3,139	0,054	-0,028
-125,497	-41,865	0,054	0,020
-124,483	-90,626	0,092	0,019
-123,468	293,336	0,032	-0,042
-122,453	-200,000	-0,001	0,014
-121,439	800,000	-0,036	-0,097
-120,424	800,000	-0,066	-0,140
-119,410	54,099	0,125	0,085
-118,395	728,867	-0,053	0,101
-117,380	-200,000	-0,004	-0,044
-116,366	77,886	0,078	-0,059
-115,351	292,811	-0,037	-0,048
-114,337	184,612	0,064	0,067
-113,322	151,933	-0,061	-0,059
-112,307	442,377	-0,091	0,142
-111,293	103,714	0,196	-0,163
-110,278	-200,000	-0,014	0,115
-109,264	15,338	-0,047	0,026
-108,249	206,211	0,076	0,084
-107,234	531,771	0,038	-0,063
-106,220	109,558	-0,076	-0,064
-105,205	-200,000	0,033	-0,138
-104,191	-200,000	-0,031	0,104
-103,176	-151,708	0,154	-0,008
-102,162	48,252	-0,074	-0,049
-101,147	118,546	0,114	0,100
-100,132	800,000	0,019	0,043
-99,118	126,326	0,047	-0,042
-98,103	-5,332	0,044	0,022
-97,089	-7,375	-0,071	0,034
-96,074	-200,000	-0,042	-0,159
-95,059	-200,000	0,006	0,125
-94,045	-200,000	-0,010	-0,170
-93,030	54,820	-0,120	-0,082
-92,016	800,000	-0,020	0,043
-91,001	800,000	-0,026	0,053
-89,986	362,340	0,090	0,129
-88,972	-200,000	0,046	0,150
-87,957	-161,995	-0,056	-0,002
-86,943	407,612	-0,014	-0,021
-85,928	97,826	-0,067	-0,054
-84,913	289,969	-0,031	-0,039
-83,899	-62,682	0,053	0,016
-82,884	-103,833	0,042	-0,007
-81,870	-200,000	-0,014	-0,066
-80,855	-200,000	-0,004	-0,032
-79,840	800,000	-0,015	0,032
-78,826	131,193	-0,071	-0,065
-77,811	-200,000	0,026	0,109
-76,797	78,302	-0,078	0,059
-75,782	39,558	-0,072	0,046
-74,767	0,355	0,145	0,073
-73,753	-97,869	-0,042	-0,008
-72,738	-26,312	-0,047	0,019
-71,724	215,910	0,062	-0,070
-70,709	262,872	-0,034	-0,042
-69,694	-75,172	0,100	0,025
-68,680	-57,038	0,038	0,012
-67,665	-86,371	0,142	0,031
-66,651	-81,217	0,091	0,021
-65,636	15,115	0,090	-0,050
-64,622	-77,151	0,061	0,015
-63,607	30,016	0,054	0,032
-62,592	-200,000	0,001	-0,058
-61,578	10,164	-0,079	-0,042
-60,563	-200,000	0,017	0,094
-59,549	800,000	0,038	0,076
-58,534	-32,974	-1,618	-0,633
-57,519	384,838	-1,435	-2,101
-56,505	-200,000	-0,639	-4,599
-55,490	132,856	1,072	0,980
-54,476	800,000	4,862	11,511
-53,461	-200,000	19,065	310,107
-52,446	-200,000	738,201	2314,214
-51,432	573,272	1654,667	2867,538
-50,417	79,116	1671,351	1266,334
-49,403	21,945	1543,875	888,881
-48,388	15,789	1466,695	814,521
-47,373	17,788	1456,869	818,689
-46,359	16,818	1447,089	808,511
-45,344	14,100	1442,260	792,762
-44,330	14,007	1440,220	791,162
-43,315	13,976	1438,619	790,100
-42,300	14,042	1436,905	789,447
-41,286	14,004	1435,719	788,580
-40,271	14,009	1434,345	787,817
-39,257	14,024	1432,876	787,050
-38,242	14,046	1431,768	786,518
-37,227	14,053	1430,525	785,837
-36,213	14,040	1429,324	785,084
-35,198	14,003	1428,153	784,232
-34,184	14,024	1427,386	783,883
-33,169	14,038	1425,934	783,121
-32,154	14,073	1424,851	782,657
-31,140	14,049	1423,390	781,710
-30,125	14,035	1422,522	781,139
-29,111	14,061	1421,347	780,584
-28,096	14,011	1420,417	779,807
-27,082	14,001	1419,142	779,026
-26,067	13,962	1418,056	778,217
-25,052	13,943	1417,018	777,528
-24,038	13,942	1416,082	776,977
-23,023	13,985	1414,833	776,464
-22,009	13,960	1414,090	775,910
-20,994	13,932	1413,062	775,181
-19,979	13,947	1412,130	774,708
-18,965	13,890	1411,225	773,916
-17,950	13,872	1410,415	773,356
-16,936	13,892	1409,392	772,857
-15,921	13,864	1408,213	772,051
-14,906	13,836	1407,610	771,556
-13,892	13,880	1406,479	771,111
-12,877	13,884	1405,547	770,591
-11,863	13,880	1404,660	770,055
-10,848	13,835	1404,010	769,456
-9,833	13,827	1402,895	768,780
-8,819	13,840	1402,159	768,405
-7,804	13,766	1401,120	767,460
-6,790	13,734	1400,176	766,764
-5,775	13,776	1399,026	766,301
-4,760	13,787	1398,131	765,832
-3,746	13,786	1397,083	765,221
-2,731	13,777	1396,342	764,742
-1,717	13,757	1395,586	764,205
-0,702	13,750	1393,683	763,100
0,313	17,546	1311,429	735,676
1,327	33,713	705,826	433,404
2,342	51,947	123,889	83,333
3,356	1,897	16,668	8,478
4,371	3,905	3,101	1,598
5,386	7,610	0,553	0,292
6,400	-200,000	-0,017	0,214
7,415	146,723	-0,236	-0,225
8,429	5,894	-0,279	-0,146
9,444	52,967	-0,348	-0,235
10,459	-177,367	-0,244	-0,004
11,473	140,088	-0,192	-0,179
12,488	388,476	-0,203	-0,297
13,502	121,726	-0,255	-0,225
14,517	-133,282	-0,226	-0,020
15,531	88,569	-0,353	-0,277
16,546	-7,207	-0,331	-0,158
17,561	277,223	-0,281	-0,354
18,575	-116,197	-0,109	-0,014
19,590	31,499	-0,233	-0,141
20,604	11,349	-0,220	-0,119
21,619	118,134	-0,441	-0,384
22,634	127,318	-0,423	-0,380
23,648	42,948	-0,425	-0,273
24,663	122,867	-0,322	-0,285
25,677	170,912	-0,299	-0,303
26,692	-14,524	-0,418	-0,189
27,707	33,409	-0,314	-0,192
28,721	-1,729	-0,495	-0,245
29,736	121,221	-0,397	-0,349
30,750	32,804	-0,349	-0,213
31,765	70,621	-0,347	-0,253
32,780	38,976	-0,371	-0,234
33,794	53,183	-0,284	-0,192
34,809	344,105	-0,296	-0,411
35,823	272,248	-0,300	-0,374
36,838	49,254	-0,414	-0,274
37,853	81,038	-0,435	-0,331
38,867	9,635	-0,339	-0,181
39,882	29,288	-0,341	-0,204
40,896	40,849	-0,360	-0,229
41,911	85,606	-0,313	-0,242
42,926	-75,981	-0,320	-0,079
43,940	63,245	-0,238	-0,168
44,955	-37,287	-0,451	-0,169
45,969	70,746	-0,411	-0,300
46,984	165,439	-0,239	-0,239
47,999	-20,523	-0,368	-0,159
49,013	71,522	-0,353	-0,258
50,028	111,615	-0,270	-0,229
51,042	-46,713	-0,376	-0,129
52,057	65,382	-0,341	-0,243
53,071	98,187	-0,197	-0,160
54,086	111,966	-0,320	-0,272
55,101	11,294	-0,324	-0,174
56,115	-111,848	-0,326	-0,046
57,130	138,711	-0,309	-0,286
58,144	-32,260	-0,338	-0,132
59,159	103,480	-0,335	-0,277
60,174	27,037	-0,442	-0,260
61,188	87,250	-0,344	-0,267
62,203	137,458	-0,153	-0,141
63,217	-55,826	-0,397	-0,124
64,232	6,788	-0,338	-0,176
65,247	-65,093	-0,307	-0,087
66,261	48,581	-0,248	-0,163
67,276	55,838	-0,308	-0,209
68,290	7,848	-0,343	-0,180
69,305	368,732	-0,208	-0,297
70,320	-23,145	-0,293	-0,124
71,334	-30,632	-0,193	-0,077
72,349	25,475	-0,277	-0,161
73,363	-43,044	-0,452	-0,160
74,378	203,034	-0,302	-0,329
75,393	352,680	-0,189	-0,265
76,407	5,842	-0,284	-0,147
77,422	-140,904	-0,204	-0,015
78,436	35,059	-0,310	-0,191
79,451	-14,288	-0,254	-0,115
80,466	94,005	-0,269	-0,214
81,480	92,307	-0,289	-0,229
82,495	62,260	-0,309	-0,217
83,509	-16,006	-0,269	-0,120
84,524	-80,240	-0,316	-0,074
85,539	-118,079	-0,410	-0,051
86,553	57,167	-0,214	-0,146
87,568	-0,182	-0,343	-0,171
88,582	639,522	-0,130	-0,234
89,597	408,373	-0,245	-0,365
90,611	47,980	-0,235	-0,154
91,626	191,061	-0,270	-0,286
92,641	77,950	-0,228	-0,170
93,655	7,719	-0,230	-0,120
94,670	170,149	-0,195	-0,196
95,684	-93,279	-0,437	-0,084
96,699	189,478	-0,273	-0,287
97,714	170,452	-0,280	-0,282
98,728	51,117	-0,259	-0,172
99,743	183,965	-0,231	-0,240
100,757	95,094	-0,362	-0,289
101,772	50,946	-0,308	-0,204
102,787	67,598	-0,294	-0,210
103,801	99,934	-0,247	-0,201
104,816	-24,613	-0,210	-0,087
105,830	289,611	-0,204	-0,260
106,845	-32,221	-0,126	-0,049
107,860	-17,508	-0,289	-0,127
108,874	222,948	-0,124	-0,140
109,889	-103,756	-0,246	0,040
110,903	47,557	-0,316	-0,206
111,918	38,313	-0,246	-0,153
112,933	34,381	-0,251	-0,153
113,947	3,340	-0,200	-0,102
114,962	-114,791	-0,186	-0,025
115,976	37,092	-0,138	-0,085
116,991	6,057	-0,288	-0,149
118,006	74,250	-0,224	-0,165
119,020	-10,903	-0,331	-0,152
120,035	28,753	-0,210	-0,124
121,049	293,763	-0,148	-0,190
122,064	103,637	-0,316	-0,260
123,079	292,495	-0,262	-0,336
124,093	180,801	-0,278	-0,287
125,108	135,799	-0,219	-0,200
126,122	577,586	-0,145	-0,250
127,137	178,726	-0,203	-0,208
128,151	197,313	-0,171	-0,183
129,166	0,885	-0,199	-0,099
130,181	11,052	-0,286	-0,152
131,195	479,245	-0,188	-0,299
132,210	-15,606	-0,361	-0,161
133,224	205,924	-0,108	-0,117
134,239	22,495	-0,246	-0,140
135,254	75,410	-0,161	-0,118
136,268	49,859	-0,156	-0,103
137,283	-19,003	-0,276	-0,119
138,297	10,157	-0,268	-0,142
139,312	626,036	-0,204	-0,361
140,327	27,300	-0,336	-0,197
141,341	-117,087	-0,310	-0,039
142,356	-52,156	-0,311	-0,100
143,370	51,164	-0,238	-0,157
144,385	111,079	-0,263	-0,222
145,400	279,246	-0,188	-0,235
146,414	203,374	-0,294	-0,319
147,429	56,006	-0,176	-0,119
148,443	186,736	-0,153	-0,159
149,458	-200,000	-0,095	-0,297
150,473	99,183	-0,224	-0,181
151,487	265,777	-0,151	-0,184
152,502	91,931	-0,194	-0,152
153,516	363,438	-0,178	-0,251
154,531	-90,624	-0,204	-0,041
155,546	16,311	-0,285	-0,156
156,560	179,099	-0,259	-0,264
157,575	-13,669	-0,365	-0,164
158,589	-73,169	-0,402	-0,102
159,604	-7,431	-0,334	-0,157
160,619	-9,633	-0,335	-0,155
161,633	205,986	-0,247	-0,268
162,648	688,093	-0,155	-0,283
163,662	86,737	-0,153	-0,118
164,677	-151,117	-0,259	0,013
165,692	227,687	-0,126	-0,143
166,706	368,383	-0,130	-0,184
167,721	75,120	-0,223	-0,164
168,735	121,744	-0,277	-0,241
169,750	800,000	-0,079	-0,201
170,764	409,572	-0,172	-0,255
171,779	-38,344	-0,173	-0,064
172,794	-40,640	-0,235	-0,084
173,808	-14,153	-0,233	-0,104
174,823	165,989	-0,297	-0,293
175,837	533,309	-0,135	-0,224
176,852	548,780	-0,129	-0,216
177,867	-200,000	-0,105	-0,455
178,881	21,651	-0,198	-0,112
179,896	39,551	-0,128	-0,080
180,910	30,590	-0,191	-0,113
181,925	49,312	-0,208	-0,136
182,940	329,395	-0,169	-0,227
183,954	49,245	-0,271	-0,177
184,969	44,968	-0,221	-0,141
185,983	194,728	-0,090	-0,095
186,998	-20,608	-0,265	-0,113
188,013	-97,589	-0,331	-0,059
189,027	-42,106	-0,308	-0,109
190,042	15,210	-0,276	-0,150
191,056	62,649	-0,306	-0,212
192,071	102,750	-0,120	-0,098
193,086	35,547	-0,200	-0,122
194,100	115,220	-0,125	-0,106
195,115	30,867	-0,206	-0,122
196,129	-39,987	-0,190	-0,068
197,144	-43,582	-0,228	-0,080
198,159	181,483	-0,171	-0,175
199,173	121,460	-0,197	-0,170
200,188	-5,189	-0,268	-0,128
201,202	46,858	-0,260	-0,168
202,217	776,654	-0,068	-0,130
203,232	218,327	-0,194	-0,215
204,246	800,000	-0,046	-0,129
205,261	-28,001	-0,317	-0,127
206,275	12,200	-0,165	-0,088
207,290	-39,293	-0,218	-0,079
208,304	800,000	-0,071	-0,150
209,319	-148,203	-0,254	0,014
210,334	520,285	-0,108	-0,176
211,348	42,756	-0,162	0,103
212,363	83,275	-0,186	-0,141
213,377	316,644	-0,139	-0,183
214,392	800,000	-0,082	-0,171
215,407	-200,000	-0,077	-0,277
216,421	167,952	-0,076	-0,075
217,436	98,141	-0,109	-0,087
218,450	-200,000	-0,061	-0,214
219,465	-7,166	-0,272	-0,127
220,480	508,085	-0,110	-0,177
221,494	19,765	-0,129	-0,072
222,509	658,528	-0,083	-0,149
223,523	-40,774	-0,219	-0,078
224,538	117,303	-0,126	-0,107
225,553	232,310	-0,172	-0,197
226,567	411,851	-0,192	-0,284
227,582	65,261	-0,287	-0,201
228,596	138,920	-0,294	-0,268
229,611	800,000	-0,124	-0,269
230,626	132,894	-0,127	-0,114
231,640	-38,943	-0,182	-0,066
232,655	129,808	-0,219	-0,194
233,669	247,931	-0,141	-0,165
234,684	145,769	-0,216	-0,200
235,699	-47,878	-0,249	-0,083
236,713	-200,000	-0,011	-0,084
237,728	448,018	-0,141	-0,216
238,742	45,378	-0,181	-0,116
239,757	-53,873	-0,145	-0,046
240,772	117,512	-0,034	-0,029
241,786	193,527	-0,191	-0,201
242,801	-92,038	-0,244	-0,047
243,815	-18,897	-0,222	-0,095
244,830	132,270	-0,185	-0,165
245,844	-69,410	-0,277	-0,073
246,859	-4,859	-0,228	-0,108
247,874	216,685	-0,155	-0,171
248,888	394,469	-0,192	-0,277
249,903	243,998	-0,069	-0,080
250,917	4,523	-0,077	0,039
251,932	-40,199	-0,217	-0,078
252,947	51,741	-0,214	-0,141
253,961	-2,650	-0,090	-0,044
254,976	-200,000	-0,018	-0,157
255,990	-83,724	-0,310	-0,068
257,005	108,517	-0,235	-0,194
258,020	790,405	-0,076	-0,144
259,034	129,732	-0,160	-0,141
260,049	8,137	-0,297	-0,154
261,063	96,225	-0,161	-0,127
262,078	278,621	-0,103	-0,127
263,093	179,484	-0,146	-0,148
264,107	75,273	-0,230	-0,167
265,122	15,530	-0,107	-0,058
266,136	-200,000	-0,025	-0,198
267,151	40,545	-0,259	-0,161
268,166	71,579	-0,140	-0,100
269,180	52,628	-0,101	-0,067
270,195	18,157	-0,208	-0,115
271,209	-200,000	-0,037	-0,148
272,224	-34,943	-0,245	-0,092
273,239	239,110	-0,174	-0,200
274,253	89,401	-0,078	-0,060
275,268	-117,846	-0,179	-0,022
276,282	231,157	-0,191	-0,216
277,297	-69,620	-0,282	-0,074
278,312	55,834	-0,190	0,127
279,326	-184,421	-0,070	-0,001
280,341	75,699	-0,199	-0,145
281,355	800,000	-0,066	0,131
282,370	25,510	-0,216	-0,123
283,384	107,988	-0,196	-0,161
284,399	37,862	-0,095	-0,058
285,414	-200,000	-0,082	-0,339
286,428	255,269	-0,170	-0,202
287,443	64,241	-0,127	-0,088
288,457	-86,457	-0,193	0,041
289,472	423,628	-0,085	-0,126
290,487	-28,546	-0,233	-0,092
291,501	-200,000	-0,056	-0,338
292,516	216,310	-0,184	-0,202
293,530	-81,509	-0,071	0,016
294,545	716,990	-0,069	-0,128
295,560	321,423	-0,125	-0,164
296,574	-13,568	-0,126	-0,056
297,589	-136,160	-0,235	-0,019
298,603	79,472	-0,160	-0,118
299,618	-64,599	-0,262	0,073
300,633	171,023	-0,146	-0,144
301,647	-107,070	-0,111	-0,017
302,662	-62,583	-0,170	-0,048
303,676	10,280	-0,193	0,101
304,691	-56,831	-0,135	0,041
305,706	-31,834	-0,044	0,017
306,720	473,763	-0,123	-0,192
307,735	78,395	-0,132	-0,097
308,749	-127,950	-0,262	-0,026
309,764	-168,671	-0,161	-0,004
310,779	64,741	-0,121	-0,084
311,793	197,447	-0,132	-0,139
312,808	140,405	-0,192	-0,174
313,822	-56,316	-0,173	-0,053
314,837	800,000	-0,070	-0,139
315,852	800,000	-0,045	-0,096
316,866	-200,000	-0,011	-0,176
317,881	-200,000	-0,028	-0,087
318,895	74,131	-0,141	-0,102
319,910	46,913	-0,210	-0,134
320,925	550,608	-0,066	-0,110
321,939	-200,000	-0,068	-0,217
322,954	-200,000	-0,051	-0,180
323,968	0,881	-0,127	-0,063
324,983	-87,199	-0,077	-0,016
325,997	106,806	-0,180	-0,147
327,012	662,969	-0,119	-0,212
328,027	212,260	-0,087	-0,095
329,041	-37,909	-0,128	-0,047
330,056	457,723	-0,130	-0,199
331,070	-200,000	-0,012	-0,048
332,085	-169,987	-0,140	-0,003
333,100	48,827	-0,150	-0,097
334,114	-99,293	-0,143	-0,025
335,129	311,043	-0,111	-0,143
336,143	-50,655	-0,109	-0,035
337,158	-13,903	-0,125	-0,055
338,173	800,000	-0,094	-0,185
339,187	-52,262	-0,094	-0,030
340,202	16,634	-0,211	-0,114
341,216	-122,312	-0,125	-0,014
342,231	64,845	-0,135	-0,094
343,246	-60,096	-0,223	-0,065
344,260	444,550	-0,131	-0,198
345,275	62,159	-0,151	0,103
346,289	-91,266	-0,168	0,033
347,304	129,987	-0,102	-0,089
348,319	174,900	-0,103	-0,102
349,333	245,820	-0,120	-0,139
350,348	-192,693	-0,232	-0,001
351,362	219,369	-0,157	0,173
352,377	373,958	-0,043	0,060
353,392	451,680	-0,028	-0,043
354,406	191,517	-0,110	-0,113
355,421	209,636	1313,929	1414,749
356,435	161,346	1474,574	1415,233
