DTS Sentinel unit serial number:	SN410029Multiplexer serial number:	ORYXHardware model number:	OX2-SRSoftware version number:	ORYX F/W v4,00 Oryx Data Collector v3.7.2.0data status	okinstallation	B3 Nyhavnadifferential loss correction	single-endedforward channel	channel 1reverse channel	N/Adate	2023/12/04time	10:07:30forward acquisition time	300,00reverse acquisition time	0,00gamma	499,1914k internal	0,3203k external	0,3203temperature offset calibration	1,0000default loss term (dB/km)	0,3820temperature slope calibration	1,0000multiplexer offset coefficient	1,0000multiplexer slope coefficient	1,0000fibre end	0,00T internal ref (°C)	13,43T ext. ref 1 (°C)	-1,00T ext. ref 2 (°C)	-1,05length (m)	temperature (°C)	Stokes	anti-Stokes-744,400	800,000	-0,084	-0,190
-743,385	-200,000	0,078	0,304
-742,371	33,302	-0,123	-0,078
-741,356	-200,000	-0,019	0,365
-740,342	245,362	-0,120	-0,148
-739,327	-200,000	0,009	0,394
-738,312	100,916	-0,164	-0,139
-737,298	-200,000	-0,026	0,203
-736,283	174,251	-0,167	-0,176
-735,269	-200,000	0,059	0,280
-734,254	234,606	-0,213	-0,255
-733,239	-7,437	-0,108	0,053
-732,225	-200,000	-0,071	-0,282
-731,210	282,824	0,076	0,100
-730,196	-200,000	-0,003	-0,019
-729,181	84,150	-0,040	0,032
-728,167	28,535	-0,104	-0,064
-727,152	800,000	0,013	-0,033
-726,137	800,000	0,034	-0,091
-725,123	-16,434	0,016	0,007
-724,108	595,828	0,007	0,013
-723,094	-200,000	-0,001	-0,059
-722,079	-179,842	-0,142	0,002
-721,064	217,703	0,060	-0,069
-720,050	-200,000	-0,006	-0,071
-719,035	388,967	-0,089	-0,134
-718,021	184,832	0,052	-0,056
-717,006	-63,367	-0,078	-0,023
-715,991	106,164	-0,122	-0,105
-714,977	730,725	0,038	0,074
-713,962	-11,018	-0,057	-0,027
-712,948	-177,084	-0,040	0,001
-711,933	-200,000	0,004	0,025
-710,918	800,000	0,045	-0,136
-709,904	800,000	-0,056	-0,147
-708,889	-68,196	-0,162	-0,045
-707,875	117,556	-0,093	-0,083
-706,860	-88,897	0,053	0,011
-705,845	408,841	0,057	-0,087
-704,831	219,241	-0,071	-0,083
-703,816	154,362	-0,084	0,084
-702,802	731,471	-0,054	0,105
-701,787	-200,000	0,027	-0,099
-700,772	130,745	-0,126	-0,117
-699,758	7,339	0,052	0,028
-698,743	133,919	-0,132	-0,124
-697,729	-17,057	-0,082	0,037
-696,714	-1,412	-0,159	0,081
-695,699	269,599	0,083	-0,106
-694,685	789,330	-0,075	-0,151
-693,670	-106,205	-0,119	-0,019
-692,656	176,743	-0,049	-0,052
-691,641	43,253	0,068	-0,045
-690,627	-200,000	0,010	-0,130
-689,612	73,775	0,082	-0,062
-688,597	-150,250	0,034	0,002
-687,583	-200,000	-0,020	-0,142
-686,568	-98,566	0,041	-0,007
-685,554	-81,571	0,120	-0,028
-684,539	78,642	-0,109	-0,084
-683,524	24,885	-0,011	0,007
-682,510	260,607	0,071	0,089
-681,495	610,586	-0,039	-0,071
-680,481	-157,386	-0,089	-0,004
-679,466	-0,154	0,058	-0,030
-678,451	-200,000	-0,022	-0,089
-677,437	180,602	0,111	0,119
-676,422	184,969	0,041	0,045
-675,408	-200,000	0,040	0,182
-674,393	-200,000	-0,001	-0,072
-673,378	-116,350	-0,154	-0,020
-672,364	-165,858	0,016	-0,000
-671,349	800,000	-0,046	-0,132
-670,335	157,908	0,026	-0,026
-669,320	690,890	0,006	-0,011
-668,305	739,158	-0,034	-0,066
-667,291	-27,919	0,090	-0,038
-666,276	4,902	-0,093	-0,049
-665,262	-83,057	-0,080	-0,019
-664,247	52,082	-0,059	-0,041
-663,232	421,593	0,042	-0,065
-662,218	315,584	0,043	0,059
-661,203	-200,000	0,011	-0,188
-660,189	-200,000	0,010	-0,047
-659,174	-59,176	-0,044	0,014
-658,159	89,066	-0,075	-0,060
-657,145	-31,963	0,050	-0,020
-656,130	-41,908	0,108	-0,040
-655,116	16,579	0,098	0,056
-654,101	-200,000	0,002	-0,012
-653,086	-118,299	-0,088	0,011
-652,072	800,000	-0,043	0,126
-651,057	-38,028	0,019	-0,007
-650,043	-83,505	-0,102	0,023
-649,028	29,601	-0,029	0,018
-648,014	-200,000	0,034	-0,124
-646,999	800,000	0,017	-0,037
-645,984	-200,000	-0,032	0,217
-644,970	800,000	0,027	-0,081
-643,955	-200,000	-0,020	-0,122
-642,941	135,806	0,079	0,074
-641,926	-141,773	-0,124	-0,009
-640,911	-145,890	-0,104	0,007
-639,897	1,214	0,154	0,080
-638,882	-200,000	-0,014	-0,153
-637,868	-60,744	0,078	-0,024
-636,853	-32,037	-0,160	0,064
-635,838	-85,119	-0,119	0,027
-634,824	-47,129	0,069	-0,024
-633,809	800,000	0,058	-0,149
-632,795	89,138	-0,052	-0,042
-631,780	392,525	-0,054	0,082
-630,765	-197,006	0,117	-0,001
-629,751	-126,174	-0,136	-0,015
-628,736	46,051	0,080	-0,053
-627,722	28,866	-0,081	-0,050
-626,707	-161,512	-0,118	0,004
-625,692	-13,467	0,091	0,042
-624,678	-4,271	0,075	0,037
-623,663	386,325	0,025	-0,037
-622,649	164,408	-0,080	-0,082
-621,634	166,520	0,050	-0,052
-620,619	111,664	0,130	-0,114
-619,605	-200,000	-0,026	0,146
-618,590	-200,000	0,014	0,062
-617,576	245,703	-0,080	0,097
-616,561	-200,000	-0,018	0,119
-615,546	271,151	-0,075	-0,096
-614,532	-200,000	0,009	-0,093
-613,517	-89,625	0,104	0,022
-612,503	23,353	0,053	0,031
-611,488	-113,125	0,129	0,018
-610,474	800,000	-0,007	0,017
-609,459	-200,000	-0,003	-0,027
-608,444	-200,000	-0,019	-0,103
-607,430	262,349	-0,100	-0,126
-606,415	-82,825	-0,055	0,013
-605,401	-200,000	0,031	-0,115
-604,386	147,313	0,068	0,066
-603,371	-104,347	0,102	0,017
-602,357	-200,000	0,023	0,113
-601,342	609,325	-0,046	0,084
-600,328	-77,760	-0,078	-0,019
-599,313	-200,000	0,008	-0,063
-598,298	174,043	-0,044	0,046
-597,284	-200,000	0,025	0,159
-596,269	29,851	0,058	0,036
-595,255	-20,918	-0,034	0,015
-594,240	66,274	-0,011	0,008
-593,225	800,000	-0,056	-0,130
-592,211	284,760	0,083	-0,108
-591,196	534,738	0,077	-0,132
-590,182	104,784	0,095	-0,081
-589,167	250,880	0,074	0,091
-588,152	245,472	-0,130	0,158
-587,138	-11,180	0,021	0,010
-586,123	-30,294	-0,161	-0,066
-585,109	143,497	0,036	0,035
-584,094	-89,508	0,057	0,012
-583,079	-69,797	-0,092	0,025
-582,065	498,852	0,011	-0,019
-581,050	800,000	0,049	0,123
-580,036	-200,000	-0,012	-0,174
-579,021	-200,000	-0,016	-0,059
-578,006	800,000	-0,007	-0,016
-576,992	216,740	0,024	-0,027
-575,977	96,045	-0,026	0,021
-574,963	-200,000	0,039	0,272
-573,948	86,908	0,040	0,032
-572,934	519,938	0,049	0,083
-571,919	71,161	-0,103	-0,077
-570,904	800,000	-0,033	-0,070
-569,890	119,306	-0,072	-0,064
-568,875	-200,000	0,022	-0,113
-567,861	432,324	0,029	0,045
-566,846	-200,000	0,026	-0,106
-565,831	-200,000	0,015	0,097
-564,817	-29,727	0,120	-0,049
-563,802	398,956	0,080	-0,121
-562,788	59,546	-0,028	-0,020
-561,773	-200,000	-0,021	0,093
-560,758	800,000	-0,053	0,126
-559,744	-200,000	-0,003	0,067
-558,729	800,000	0,019	-0,045
-557,715	-147,217	-0,045	0,003
-556,700	-37,510	-0,073	-0,028
-555,685	188,227	0,122	0,132
-554,671	-200,000	0,005	-0,031
-553,656	800,000	0,055	-0,115
-552,642	-200,000	-0,043	0,173
-551,627	664,531	0,094	0,176
-550,612	-196,366	-0,149	0,001
-549,598	-171,795	-0,116	-0,003
-548,583	-200,000	0,001	0,051
-547,569	80,011	-0,148	0,115
-546,554	-45,679	0,131	-0,046
-545,539	52,221	0,070	0,048
-544,525	579,075	-0,061	0,108
-543,510	-162,202	0,082	-0,003
-542,496	-200,000	-0,049	-0,187
-541,481	800,000	-0,008	-0,022
-540,466	243,703	-0,087	0,106
-539,452	-79,190	0,048	-0,012
-538,437	194,627	0,008	0,009
-537,423	7,131	-0,127	0,068
-536,408	-79,444	-0,182	-0,044
-535,393	-200,000	0,002	0,139
-534,379	-200,000	-0,016	-0,072
-533,364	117,829	0,115	0,102
-532,350	800,000	-0,051	0,146
-531,335	800,000	0,062	0,197
-530,321	506,265	-0,035	0,059
-529,306	-97,832	0,071	-0,013
-528,291	17,989	-0,068	0,039
-527,277	-200,000	-0,045	-0,168
-526,262	-115,561	-0,004	-0,000
-525,248	221,655	-0,057	0,066
-524,233	-200,000	0,031	0,117
-523,218	-14,302	0,066	-0,030
-522,204	250,816	-0,039	0,048
-521,189	213,995	-0,041	-0,046
-520,175	127,292	-0,018	0,016
-519,160	-62,021	0,050	-0,015
-518,145	-74,412	0,118	0,030
-517,131	-131,108	0,072	-0,007
-516,116	-53,599	0,088	0,029
-515,102	-200,000	-0,184	-0,000
-514,087	-200,000	-0,003	-0,132
-513,072	152,562	-0,067	-0,066
-512,058	-77,751	-0,060	-0,015
-511,043	-8,674	0,087	0,042
-510,029	566,947	0,089	0,156
-509,014	-27,691	-0,026	0,011
-507,999	4,254	0,031	0,016
-506,985	274,556	-0,090	-0,115
-505,970	394,842	0,074	-0,111
-504,956	-200,000	0,010	-0,033
-503,941	-127,081	0,108	0,011
-502,926	800,000	0,034	0,093
-501,912	-200,000	0,024	0,082
-500,897	-200,000	0,034	0,191
-499,883	-46,757	0,106	0,037
-498,868	-200,000	-0,017	-0,086
-497,853	122,806	0,079	-0,072
-496,839	373,518	0,060	-0,088
-495,824	-200,000	-0,027	0,199
-494,810	-200,000	0,008	0,121
-493,795	-200,000	-0,038	0,140
-492,781	-200,000	-0,015	0,179
-491,766	-48,268	-0,063	0,022
-490,751	236,562	-0,087	-0,104
-489,737	387,128	0,070	0,104
-488,722	374,654	-0,032	-0,047
-487,708	-200,000	-0,004	-0,063
-486,693	156,517	0,068	-0,067
-485,678	-200,000	-0,010	-0,150
-484,664	23,728	-0,052	-0,031
-483,649	-200,000	0,000	-0,066
-482,635	323,221	0,098	0,135
-481,620	-200,000	-0,016	-0,080
-480,605	-200,000	-0,006	-0,031
-479,591	-200,000	0,021	0,082
-478,576	525,112	0,022	0,037
-477,562	-42,973	0,157	-0,057
-476,547	342,689	-0,161	-0,227
-475,532	-89,934	0,130	-0,027
-474,518	194,126	0,091	0,099
-473,503	135,677	-0,009	-0,009
-472,489	-62,240	-0,085	-0,025
-471,474	-20,561	0,140	0,062
-470,459	521,953	-0,049	-0,083
-469,445	-200,000	0,016	-0,108
-468,430	800,000	0,019	-0,042
-467,416	-98,506	-0,116	-0,021
-466,401	50,437	0,104	0,071
-465,386	66,377	0,060	0,044
-464,372	-97,267	0,047	-0,009
-463,357	-200,000	-0,033	-0,179
-462,343	-200,000	0,011	-0,111
-461,328	145,123	-0,033	-0,032
-460,313	372,611	0,039	0,058
-459,299	-200,000	-0,009	-0,037
-458,284	-200,000	0,001	0,038
-457,270	800,000	0,039	0,104
-456,255	600,306	-0,017	0,030
-455,241	-200,000	-0,007	0,070
-454,226	-115,563	-0,140	0,019
-453,211	49,890	-0,029	0,020
-452,197	-200,000	-0,017	0,089
-451,182	620,378	0,040	0,073
-450,168	153,177	-0,031	-0,030
-449,153	-132,995	0,080	-0,007
-448,138	-42,313	-0,095	0,035
-447,124	-54,536	0,025	-0,008
-446,109	-200,000	0,014	0,057
-445,095	-200,000	-0,010	0,102
-444,080	293,112	-0,103	-0,135
-443,065	120,583	-0,081	-0,072
-442,051	-52,902	-0,130	0,043
-441,036	-144,919	0,105	0,007
-440,022	-78,958	-0,165	0,040
-439,007	-118,006	-0,093	0,012
-437,992	259,403	0,124	0,154
-436,978	800,000	0,033	0,076
-435,963	-100,566	-0,065	-0,011
-434,949	-200,000	-0,010	0,079
-433,934	800,000	0,050	-0,138
-432,919	-200,000	-0,012	-0,081
-431,905	-95,465	-0,154	0,029
-430,890	-84,520	0,090	-0,020
-429,876	132,927	0,047	-0,044
-428,861	579,616	0,044	0,078
-427,846	-200,000	0,001	-0,078
-426,832	110,663	0,077	0,067
-425,817	-176,376	-0,248	-0,005
-424,803	800,000	-0,079	-0,164
-423,788	-200,000	0,005	-0,054
-422,773	-91,476	0,125	-0,025
-421,759	184,876	0,055	-0,059
-420,744	-200,000	0,006	-0,053
-419,730	800,000	-0,035	-0,099
-418,715	408,376	0,006	0,010
-417,701	-1,705	-0,110	0,055
-416,686	-200,000	0,081	-0,000
-415,671	-18,004	0,051	0,023
-414,657	-145,850	0,054	-0,003
-413,642	8,511	-0,112	0,060
-412,628	554,642	0,042	0,073
-411,613	115,288	-0,139	-0,122
-410,598	800,000	0,022	0,067
-409,584	-52,176	0,048	0,016
-408,569	-200,000	-0,018	-0,080
-407,555	161,898	-0,089	0,090
-406,540	-42,594	0,053	-0,019
-405,525	-137,145	0,032	0,003
-404,511	-200,000	-0,001	-0,135
-403,496	47,016	-0,075	-0,050
-402,482	-200,000	-0,016	-0,093
-401,467	177,536	-0,116	0,121
-400,452	-200,000	0,021	-0,087
-399,438	-38,854	0,061	-0,023
-398,423	-200,000	0,007	0,046
-397,409	-200,000	0,010	0,038
-396,394	800,000	0,011	-0,029
-395,379	12,687	0,075	-0,041
-394,365	4,631	-0,093	-0,049
-393,350	-64,704	0,096	-0,028
-392,336	112,097	-0,055	0,048
-391,321	-200,000	-0,010	-0,070
-390,306	-200,000	-0,018	0,066
-389,292	-108,287	0,056	-0,009
-388,277	-102,363	-0,156	0,027
-387,263	-83,761	0,148	0,034
-386,248	-105,661	0,059	0,009
-385,233	-200,000	0,035	0,160
-384,219	-103,897	-0,122	0,020
-383,204	280,080	0,089	0,114
-382,190	800,000	-0,043	0,112
-381,175	-73,868	0,012	0,003
-380,160	-200,000	-0,005	0,051
-379,146	-45,365	0,066	-0,023
-378,131	-200,000	0,011	0,035
-377,117	-94,170	-0,067	0,013
-376,102	-200,000	0,001	-0,096
-375,088	-200,000	0,031	-0,194
-374,073	491,533	0,046	-0,076
-373,058	-200,000	0,001	-0,025
-372,044	-129,879	-0,025	-0,002
-371,029	-200,000	0,017	-0,100
-370,015	-200,000	-0,001	0,021
-369,000	-78,060	0,087	-0,021
-367,985	-72,786	-0,090	0,024
-366,971	-200,000	-0,003	-0,027
-365,956	800,000	0,028	-0,069
-364,942	34,182	-0,079	0,049
-363,927	97,423	0,121	0,100
-362,912	762,318	-0,102	0,200
-361,898	800,000	-0,041	0,112
-360,883	-200,000	-0,005	-0,095
-359,869	56,826	0,071	-0,049
-358,854	-200,000	-0,001	-0,083
-357,839	-9,513	0,083	0,039
-356,825	136,033	0,130	0,122
-355,810	488,400	0,016	0,026
-354,796	122,737	-0,118	0,105
-353,781	800,000	-0,012	0,035
-352,766	-72,158	0,108	0,028
-351,752	-21,025	-0,028	-0,012
-350,737	-200,000	0,004	0,057
-349,723	-200,000	0,015	-0,120
-348,708	83,138	0,152	-0,118
-347,693	-0,090	-0,082	-0,042
-346,679	26,876	-0,166	0,099
-345,664	800,000	0,058	0,144
-344,650	-128,322	-0,056	0,006
-343,635	27,610	0,036	0,022
-342,620	-200,000	0,049	0,160
-341,606	-83,030	-0,090	-0,021
-340,591	800,000	0,028	0,086
-339,577	-200,000	0,007	-0,053
-338,562	-200,000	-0,023	-0,195
-337,548	-200,000	-0,031	-0,111
-336,533	148,012	0,058	0,056
-335,518	64,568	-0,056	0,040
-334,504	-200,000	0,024	0,119
-333,489	570,378	0,006	-0,010
-332,475	-200,000	-0,025	0,085
-331,460	800,000	0,029	0,071
-330,445	93,272	-0,071	-0,058
-329,431	-4,182	0,033	0,016
-328,416	-200,000	0,017	-0,062
-327,402	352,154	-0,024	0,033
-326,387	800,000	-0,043	0,088
-325,372	228,661	-0,032	0,037
-324,358	800,000	0,035	-0,107
-323,343	401,722	-0,010	-0,015
-322,329	118,999	0,055	-0,049
-321,314	519,434	0,030	-0,050
-320,299	659,325	-0,057	0,105
-319,285	-200,000	-0,010	0,051
-318,270	-200,000	-0,004	-0,016
-317,256	221,766	-0,048	-0,056
-316,241	204,603	-0,112	-0,124
-315,226	-119,022	-0,094	-0,012
-314,212	-200,000	-0,072	0,000
-313,197	-158,755	-0,028	0,001
-312,183	42,464	0,117	0,076
-311,168	108,278	0,148	-0,126
-310,153	-133,315	-0,117	-0,010
-309,139	302,520	-0,045	0,060
-308,124	581,342	0,064	0,112
-307,110	317,918	0,061	0,082
-306,095	-200,000	0,023	0,129
-305,080	256,100	-0,056	0,069
-304,066	-169,941	-0,061	0,002
-303,051	-200,000	0,003	-0,022
-302,037	-31,235	0,119	-0,048
-301,022	-200,000	-0,001	0,107
-300,008	800,000	0,010	-0,032
-298,993	442,998	0,017	0,027
-297,978	800,000	0,030	-0,067
-296,964	-70,056	-0,126	0,034
-295,949	450,678	0,053	-0,084
-294,935	-70,277	-0,082	0,022
-293,920	-200,000	-0,014	0,057
-292,905	-200,000	0,025	0,114
-291,891	-45,713	0,045	-0,016
-290,876	-200,000	-0,016	-0,111
-289,862	48,475	-0,024	-0,016
-288,847	-5,003	-0,043	-0,021
-287,832	139,311	-0,046	-0,043
-286,818	37,035	0,072	0,046
-285,803	-8,745	0,096	-0,046
-284,789	105,152	0,116	0,097
-283,774	-200,000	0,033	0,208
-282,759	-56,340	0,111	-0,035
-281,745	416,206	-0,061	-0,093
-280,730	113,770	-0,027	0,023
-279,716	18,185	0,099	0,056
-278,701	800,000	-0,032	-0,079
-277,686	-55,299	0,095	-0,030
-276,672	-200,000	-0,010	0,044
-275,657	53,776	0,066	-0,045
-274,643	-136,497	-0,108	-0,009
-273,628	-163,230	-0,055	0,002
-272,613	-200,000	0,003	-0,081
-271,599	800,000	0,040	-0,113
-270,584	-130,189	0,045	-0,004
-269,570	-146,243	-0,063	-0,004
-268,555	284,615	0,056	0,072
-267,540	800,000	-0,014	-0,038
-266,526	230,042	0,053	-0,062
-265,511	-200,000	-0,004	-0,028
-264,497	96,049	0,086	-0,070
-263,482	-170,181	0,022	0,001
-262,467	58,983	-0,017	-0,012
-261,453	-128,563	-0,131	-0,013
-260,438	628,969	0,041	-0,073
-259,424	362,049	0,078	-0,112
-258,409	-200,000	-0,001	0,010
-257,395	-22,754	-0,048	0,021
-256,380	-138,227	0,067	0,005
-255,365	-200,000	0,002	0,075
-254,351	-200,000	-0,004	-0,058
-253,336	-4,279	0,127	0,063
-252,322	487,684	-0,052	0,084
-251,307	-92,632	0,119	-0,024
-250,292	-200,000	0,008	-0,125
-249,278	20,153	0,106	-0,061
-248,263	308,603	0,043	-0,058
-247,249	800,000	-0,022	-0,045
-246,234	800,000	0,008	0,018
-245,219	-200,000	0,016	-0,126
-244,205	13,555	-0,050	-0,028
-243,190	455,220	-0,053	0,084
-242,176	110,145	-0,055	-0,047
-241,161	800,000	-0,044	0,118
-240,146	-200,000	0,028	0,111
-239,132	333,971	-0,033	0,045
-238,117	32,752	0,057	-0,035
-237,103	528,776	-0,024	-0,040
-236,088	472,495	-0,042	0,068
-235,073	-200,000	0,001	0,185
-234,059	-200,000	0,002	0,079
-233,044	-131,381	-0,073	-0,007
-232,030	-92,267	0,159	0,032
-231,015	-136,545	-0,143	0,012
-230,000	800,000	-0,028	-0,082
-228,986	-103,276	0,121	-0,020
-227,971	800,000	0,017	-0,035
-226,957	279,323	0,051	0,065
-225,942	83,189	0,127	-0,098
-224,927	438,499	0,014	0,022
-223,913	-200,000	-0,023	-0,168
-222,898	10,656	0,046	-0,025
-221,884	-200,000	0,014	-0,049
-220,869	90,967	-0,045	0,036
-219,855	-200,000	-0,003	0,096
-218,840	80,846	-0,054	0,041
-217,825	-114,142	-0,143	-0,019
-216,811	116,282	-0,078	-0,068
-215,796	366,110	-0,057	0,082
-214,782	547,961	-0,051	-0,087
-213,767	482,792	-0,047	-0,077
-212,752	-200,000	0,022	-0,101
-211,738	-66,188	-0,140	-0,039
-210,723	-200,000	-0,007	0,041
-209,709	-26,165	0,048	-0,020
-208,694	800,000	-0,007	-0,016
-207,679	-116,510	-0,077	-0,010
-206,665	-200,000	-0,004	0,116
-205,650	-13,220	0,090	0,042
-204,636	145,429	0,103	0,098
-203,621	20,695	-0,035	-0,020
-202,606	-200,000	-0,018	-0,298
-201,592	531,922	-0,057	-0,096
-200,577	-200,000	-0,024	-0,146
-199,563	386,035	-0,034	-0,050
-198,548	-37,968	0,049	0,018
-197,533	-200,000	-0,012	0,055
-196,519	17,920	0,060	-0,034
-195,504	800,000	-0,026	-0,081
-194,490	800,000	-0,023	0,048
-193,475	-200,000	-0,011	-0,081
-192,460	270,800	-0,022	0,028
-191,446	221,491	-0,049	0,056
-190,431	534,265	-0,083	0,141
-189,417	800,000	0,037	0,078
-188,402	-88,509	0,090	-0,019
-187,387	271,634	-0,098	-0,124
-186,373	66,096	-0,081	-0,058
-185,358	800,000	-0,033	-0,070
-184,344	185,986	0,099	0,104
-183,329	-200,000	0,019	0,114
-182,315	349,133	0,067	0,094
-181,300	800,000	-0,053	-0,113
-180,285	-200,000	-0,010	-0,067
-179,271	-200,000	-0,037	-0,118
-178,256	55,886	-0,128	-0,088
-177,242	800,000	0,021	0,043
-176,227	-120,472	0,131	0,016
-175,212	-122,183	-0,045	-0,005
-174,198	34,133	0,031	-0,019
-173,183	-140,593	-0,036	-0,003
-172,169	259,344	-0,055	-0,068
-171,154	548,945	0,073	-0,124
-170,139	131,430	0,011	-0,010
-169,125	216,089	0,088	0,099
-168,110	523,813	-0,043	0,072
-167,096	800,000	-0,032	0,068
-166,081	-200,000	0,023	-0,115
-165,066	-5,180	-0,096	-0,047
-164,052	-27,317	0,134	-0,055
-163,037	800,000	-0,026	0,081
-162,023	565,507	-0,030	0,052
-161,008	-120,186	-0,140	-0,017
-159,993	-68,381	0,126	-0,035
-158,979	-6,092	-0,181	-0,087
-157,964	800,000	0,064	-0,146
-156,950	800,000	-0,057	-0,114
-155,935	417,329	0,047	-0,072
-154,920	82,018	0,145	0,111
-153,906	800,000	0,030	-0,082
-152,891	302,852	-0,030	0,040
-151,877	-200,000	-0,016	-0,089
-150,862	-200,000	-0,014	0,066
-149,847	748,327	0,073	0,141
-148,833	403,414	0,102	0,152
-147,818	-98,025	-0,058	0,010
-146,804	139,894	0,028	-0,027
-145,789	-200,000	-0,021	0,071
-144,775	-200,000	-0,014	0,054
-143,760	88,390	-0,059	0,047
-142,745	27,168	0,031	0,018
-141,731	429,904	-0,111	0,171
-140,716	-200,000	0,006	0,043
-139,702	-67,080	0,090	-0,025
-138,687	-107,544	0,071	-0,011
-137,672	142,362	-0,063	0,059
-136,658	-200,000	-0,001	-0,023
-135,643	155,562	0,027	0,026
-134,629	234,551	-0,043	0,050
-133,614	800,000	-0,021	0,055
-132,599	105,152	0,073	0,061
-131,585	-200,000	0,034	-0,134
-130,570	-57,325	0,049	0,015
-129,556	217,855	-0,034	-0,039
-128,541	-118,079	-0,062	-0,008
-127,526	-200,000	-0,010	-0,078
-126,512	33,053	0,156	-0,095
-125,497	415,432	0,064	0,097
-124,483	800,000	0,036	0,081
-123,468	800,000	-0,032	-0,068
-122,453	-58,890	-0,102	-0,031
-121,439	6,678	0,020	0,010
-120,424	252,496	0,088	-0,107
-119,410	19,661	-0,057	0,033
-118,395	87,710	-0,053	0,042
-117,380	-200,000	0,014	0,079
-116,366	167,418	-0,098	0,099
-115,351	-200,000	0,002	-0,124
-114,337	93,631	0,055	-0,044
-113,322	-80,170	-0,045	-0,011
-112,307	-200,000	0,025	0,182
-111,293	800,000	0,032	0,070
-110,278	606,046	-0,060	0,106
-109,264	-200,000	0,003	-0,173
-108,249	67,152	-0,136	-0,098
-107,234	256,568	-0,082	-0,100
-106,220	-126,485	-0,045	0,005
-105,205	245,815	-0,080	0,095
-104,191	-89,228	0,148	0,031
-103,176	-200,000	0,007	-0,126
-102,162	93,854	0,111	-0,089
-101,147	-185,024	0,039	-0,000
-100,132	83,631	-0,173	-0,134
-99,118	-200,000	0,000	-0,068
-98,103	-63,028	-0,025	0,007
-97,089	800,000	0,014	0,041
-96,074	-76,686	0,022	0,005
-95,059	88,673	0,029	0,023
-94,045	-200,000	0,007	-0,079
-93,030	-49,349	-0,058	0,020
-92,016	753,947	-0,046	-0,089
-91,001	-200,000	-0,033	-0,111
-89,986	312,011	0,100	0,134
-88,972	800,000	-0,017	0,046
-87,957	-200,000	0,014	0,077
-86,943	-116,814	0,140	0,018
-85,928	528,776	-0,104	-0,174
-84,913	-68,703	-0,077	-0,021
-83,899	-200,000	-0,011	0,036
-82,884	499,973	-0,034	0,056
-81,870	800,000	-0,018	0,039
-80,855	474,012	0,068	0,109
-79,840	-106,053	-0,076	0,012
-78,826	800,000	0,018	-0,043
-77,811	28,960	0,086	-0,051
-76,797	282,883	0,121	-0,154
-75,782	22,389	0,055	0,032
-74,767	121,378	-0,087	0,076
-73,753	56,849	0,164	-0,113
-72,738	495,866	-0,076	0,125
-71,724	-148,186	-0,054	0,003
-70,709	64,686	0,017	-0,012
-69,694	-26,356	0,148	-0,061
-68,680	120,089	-0,036	-0,032
-67,665	103,948	0,111	0,093
-66,651	-200,000	0,043	0,178
-65,636	-45,871	0,056	-0,019
-64,622	-58,894	0,067	-0,021
-63,607	-200,000	-0,047	-0,164
-62,592	30,525	-0,106	-0,064
-61,578	56,129	0,058	0,040
-60,563	169,479	0,050	-0,051
-59,549	72,246	-0,120	0,088
-58,534	-47,441	-1,693	-0,579
-57,519	490,064	-1,204	-1,956
-56,505	-200,000	-0,586	-4,551
-55,490	253,110	1,034	1,251
-54,476	800,000	4,818	10,894
-53,461	-200,000	19,185	318,302
-52,446	-200,000	739,800	2333,837
-51,432	575,765	1654,862	2871,158
-50,417	78,600	1670,709	1262,479
-49,403	21,440	1543,720	885,696
-48,388	15,314	1466,168	811,437
-47,373	17,874	1456,356	818,338
-46,359	16,648	1446,131	806,682
-45,344	13,531	1441,975	789,412
-44,330	13,469	1439,798	787,887
-43,315	13,471	1438,166	786,973
-42,300	13,514	1436,557	786,268
-41,286	13,521	1435,222	785,539
-40,271	13,457	1433,640	784,337
-39,257	13,452	1432,648	783,741
-38,242	13,512	1431,262	783,237
-37,227	13,499	1430,131	782,526
-36,213	13,534	1428,789	781,927
-35,198	13,523	1427,575	781,178
-34,184	13,568	1426,560	780,804
-33,169	13,490	1425,492	779,819
-32,154	13,559	1424,185	779,401
-31,140	13,537	1423,124	778,686
-30,125	13,565	1421,869	778,098
-29,111	13,511	1420,765	777,207
-28,096	13,562	1419,650	776,811
-27,082	13,444	1418,674	775,690
-26,067	13,450	1417,699	775,151
-25,052	13,461	1416,532	774,534
-24,038	13,474	1415,406	773,952
-23,023	13,444	1414,453	773,257
-22,009	13,437	1413,373	772,602
-20,994	13,406	1412,388	771,889
-19,979	13,420	1411,670	771,533
-18,965	13,401	1410,707	770,886
-17,950	13,407	1409,830	770,403
-16,936	13,423	1408,920	769,952
-15,921	13,404	1407,659	769,140
-14,906	13,349	1406,821	768,395
-13,892	13,388	1405,917	768,056
-12,877	13,384	1404,710	767,347
-11,863	13,326	1404,189	766,761
-10,848	13,367	1403,291	766,430
-9,833	13,328	1402,285	765,669
-8,819	13,320	1401,372	765,102
-7,804	13,272	1400,620	764,437
-6,790	13,283	1399,613	763,908
-5,775	13,297	1398,297	763,224
-4,760	13,276	1397,470	762,649
-3,746	13,284	1396,791	762,283
-2,731	13,261	1395,929	761,678
-1,717	13,231	1395,006	761,001
-0,702	13,235	1393,226	760,022
0,313	17,097	1310,045	732,520
1,327	33,405	703,763	431,178
2,342	51,341	123,304	82,653
3,356	3,371	16,599	8,520
4,371	19,521	3,175	1,800
5,386	1,342	0,628	0,318
6,400	-200,000	0,052	0,286
7,415	8,191	-0,252	-0,133
8,429	144,961	-0,273	-0,258
9,444	29,557	-0,433	-0,260
10,459	-31,164	-0,229	-0,091
11,473	15,081	-0,269	-0,149
12,488	41,697	-0,213	-0,136
13,502	379,415	-0,197	-0,285
14,517	109,246	-0,402	-0,340
15,531	36,314	-0,373	-0,232
16,546	56,259	-0,481	-0,330
17,561	173,621	-0,294	-0,300
18,575	60,952	-0,204	-0,142
19,590	26,390	-0,349	-0,206
20,604	-101,970	-0,345	-0,058
21,619	46,431	-0,545	-0,356
22,634	75,672	-0,399	-0,297
23,648	72,605	-0,353	-0,259
24,663	32,744	-0,467	-0,285
25,677	24,610	-0,362	-0,211
26,692	149,773	-0,269	-0,258
27,707	-42,281	-0,344	-0,123
28,721	-34,287	-0,322	-0,124
29,736	28,465	-0,346	-0,206
30,750	68,214	-0,414	-0,299
31,765	132,436	-0,351	-0,320
32,780	251,153	-0,233	-0,280
33,794	88,063	-0,348	-0,272
34,809	-40,282	-0,429	-0,157
35,823	11,032	-0,401	-0,215
36,838	257,976	-0,345	-0,420
37,853	-25,303	-0,538	-0,223
38,867	49,805	-0,499	-0,331
39,882	46,958	-0,443	-0,290
40,896	217,660	-0,309	-0,347
41,911	-122,682	-0,428	-0,048
42,926	-35,863	-0,350	-0,133
43,940	26,386	-0,444	-0,261
44,955	76,350	-0,285	-0,212
45,969	158,464	-0,404	-0,395
46,984	-0,153	-0,266	-0,133
47,999	99,432	-0,211	-0,172
49,013	1,505	-0,366	-0,185
50,028	30,910	-0,363	-0,219
51,042	-6,136	-0,302	-0,145
52,057	46,489	-0,406	-0,264
53,071	15,258	-0,482	-0,265
54,086	231,081	-0,220	-0,254
55,101	156,555	-0,321	-0,312
56,115	330,279	-0,182	-0,248
57,130	45,872	-0,378	-0,246
58,144	35,196	-0,296	-0,182
59,159	-28,672	-0,449	-0,181
60,174	118,104	-0,327	-0,283
61,188	59,753	-0,435	-0,302
62,203	20,846	-0,289	-0,164
63,217	12,213	-0,381	-0,206
64,232	9,706	-0,270	-0,144
65,247	118,108	-0,271	-0,235
66,261	160,790	-0,384	-0,378
67,276	100,076	-0,345	-0,281
68,290	-20,810	-0,397	-0,171
69,305	90,193	-0,295	-0,231
70,320	35,069	-0,280	-0,172
71,334	-83,798	-0,344	-0,077
72,349	103,558	-0,429	-0,353
73,363	-4,077	-0,449	-0,218
74,378	-43,991	-0,419	-0,147
75,393	137,160	-0,334	-0,307
76,407	89,204	-0,334	-0,261
77,422	58,587	-0,208	-0,143
78,436	-63,592	-0,241	-0,069
79,451	90,504	-0,261	-0,205
80,466	-3,498	-0,266	-0,129
81,480	-6,604	-0,218	-0,104
82,495	119,929	-0,213	-0,186
83,509	23,072	-0,277	-0,159
84,524	-37,613	-0,233	-0,087
85,539	-47,198	-0,292	-0,099
86,553	-9,877	-0,287	-0,133
87,568	51,718	-0,300	-0,200
88,582	84,092	-0,308	-0,236
89,597	-23,225	-0,291	-0,122
90,611	-142,320	-0,420	-0,029
91,626	-20,250	-0,302	-0,130
92,641	-17,763	-0,428	-0,188
93,655	120,672	-0,305	-0,266
94,670	104,463	-0,278	-0,229
95,684	116,948	-0,251	-0,216
96,699	67,095	-0,328	-0,234
97,714	224,047	-0,215	-0,244
98,728	61,193	-0,263	-0,183
99,743	263,653	-0,211	-0,258
100,757	79,996	-0,351	-0,264
101,772	-110,272	-0,205	-0,030
102,787	28,136	-0,335	-0,198
103,801	3,425	-0,257	-0,131
104,816	205,064	-0,270	-0,294
105,830	333,202	-0,121	-0,165
106,845	75,892	-0,152	-0,113
107,860	-25,099	-0,244	-0,101
108,874	-15,730	-0,313	-0,139
109,889	9,629	-0,326	-0,173
110,903	361,929	-0,142	-0,200
111,918	272,274	-0,199	-0,246
112,933	-63,238	-0,212	-0,061
113,947	13,162	-0,247	-0,134
114,962	-150,421	-0,226	0,012
115,976	13,348	-0,182	-0,098
116,991	133,621	-0,275	-0,249
118,006	93,212	-0,284	-0,225
119,020	344,593	-0,168	-0,231
120,035	188,831	-0,246	-0,258
121,049	244,547	-0,249	-0,293
122,064	21,613	-0,266	-0,151
123,079	171,985	-0,270	-0,271
124,093	99,819	-0,252	-0,204
125,108	165,546	-0,335	-0,331
126,122	-91,762	-0,312	-0,061
127,137	162,002	-0,184	-0,180
128,151	70,540	-0,255	-0,184
129,166	20,120	-0,199	-0,112
130,181	-88,441	-0,383	-0,079
131,195	47,185	-0,377	-0,245
132,210	495,219	-0,145	-0,234
133,224	137,852	-0,314	-0,288
134,239	58,597	-0,230	-0,157
135,254	46,888	-0,223	-0,145
136,268	38,439	-0,280	-0,174
137,283	-141,959	-0,281	-0,019
138,297	36,508	-0,328	-0,202
139,312	56,107	-0,248	-0,168
140,327	363,092	-0,241	-0,339
141,341	-68,255	-0,318	-0,086
142,356	239,215	-0,243	-0,282
143,370	-161,831	-0,138	-0,005
144,385	97,806	-0,295	-0,237
145,400	381,536	-0,178	-0,256
146,414	-34,076	-0,304	-0,116
147,429	689,559	-0,159	-0,291
148,443	258,551	-0,208	-0,251
149,458	-200,000	-0,028	-0,094
150,473	-41,686	-0,297	-0,106
151,487	56,799	-0,261	-0,177
152,502	88,279	-0,291	-0,226
153,516	102,747	-0,302	-0,246
154,531	800,000	-0,106	-0,250
155,546	14,188	-0,361	-0,196
156,560	373,079	-0,133	-0,189
157,575	463,745	-0,125	-0,196
158,589	-31,574	-0,298	-0,116
159,604	506,179	-0,160	-0,260
160,619	237,368	-0,238	-0,275
161,633	126,036	-0,332	-0,293
162,648	384,858	-0,314	-0,452
163,662	251,683	-0,178	-0,212
164,677	-94,616	-0,219	-0,041
165,692	-127,377	-0,199	0,020
166,706	444,864	-0,125	-0,192
167,721	241,854	-0,198	-0,231
168,735	27,819	-0,323	-0,189
169,750	37,863	-0,219	-0,135
170,764	66,880	-0,234	-0,166
171,779	57,518	-0,200	-0,136
172,794	-61,968	-0,231	-0,067
173,808	57,607	-0,239	-0,162
174,823	9,703	-0,209	-0,110
175,837	287,168	-0,238	-0,300
176,852	212,943	-0,238	-0,262
177,867	21,004	-0,195	-0,110
178,881	-115,240	-0,217	-0,028
179,896	13,327	-0,258	-0,139
180,910	-9,590	-0,266	-0,123
181,925	-15,332	-0,304	-0,135
182,940	569,478	-0,148	-0,251
183,954	169,588	-0,122	-0,121
184,969	202,876	-0,167	-0,180
185,983	111,376	-0,200	-0,168
186,998	-99,522	-0,196	-0,034
188,013	47,798	-0,286	-0,186
189,027	123,810	-0,223	-0,195
190,042	413,245	-0,178	-0,265
191,056	680,979	-0,138	-0,252
192,071	-26,273	-0,279	-0,113
193,086	9,838	-0,293	-0,154
194,100	98,835	-0,187	-0,150
195,115	22,393	-0,230	-0,131
196,129	-10,712	-0,247	-0,113
197,144	-70,800	-0,144	-0,037
198,159	-122,485	-0,284	-0,032
199,173	55,767	-0,152	-0,102
200,188	-52,147	-0,299	-0,096
201,202	345,522	-0,136	-0,186
202,217	23,467	-0,120	-0,068
203,232	255,450	-0,201	-0,239
204,246	44,165	-0,238	-0,151
205,261	75,968	-0,190	-0,139
206,275	-35,899	-0,203	-0,076
207,290	111,686	-0,140	-0,117
208,304	163,443	-0,115	-0,113
209,319	166,667	-0,120	-0,118
210,334	800,000	-0,093	-0,255
211,348	300,271	-0,199	-0,255
212,363	465,051	-0,168	-0,262
213,377	-76,362	-0,167	0,041
214,392	413,140	-0,214	-0,317
215,407	94,905	-0,179	-0,141
216,421	800,000	-0,136	-0,315
217,436	247,640	-0,069	-0,081
218,450	786,922	-0,083	-0,159
219,465	-38,979	-0,221	-0,080
220,480	-30,710	-0,192	-0,075
221,494	800,000	-0,099	-0,209
222,509	-200,000	-0,042	-0,162
223,523	-84,769	-0,148	-0,032
224,538	236,751	-0,152	-0,175
225,553	666,378	-0,063	-0,113
226,567	35,961	-0,249	-0,152
227,582	146,659	-0,145	-0,135
228,596	800,000	-0,095	-0,201
229,611	357,404	-0,168	-0,232
230,626	-11,484	-0,217	-0,099
231,640	617,222	-0,114	-0,199
232,655	-23,837	-0,262	-0,108
233,669	113,693	-0,260	-0,219
234,684	47,786	-0,333	-0,215
235,699	126,027	-0,168	-0,147
236,713	7,530	-0,091	-0,047
237,728	121,839	-0,155	-0,134
238,742	800,000	-0,103	-0,200
239,757	-2,508	-0,306	-0,148
240,772	-125,834	-0,217	-0,022
241,786	-21,346	-0,253	-0,107
242,801	298,097	-0,139	-0,177
243,815	800,000	-0,085	-0,173
244,830	263,663	-0,178	-0,215
245,844	-25,795	-0,224	-0,091
246,859	-15,349	-0,208	-0,092
247,874	232,485	-0,257	-0,293
248,888	179,580	-0,196	-0,199
249,903	362,626	-0,198	-0,276
250,917	800,000	-0,082	-0,163
251,932	155,437	-0,141	-0,135
252,947	359,539	-0,120	-0,166
253,961	800,000	-0,117	-0,313
254,976	800,000	-0,136	-0,291
255,990	-12,284	-0,164	-0,074
257,005	139,948	-0,139	-0,127
258,020	47,466	-0,161	-0,104
259,034	123,700	-0,154	-0,134
260,049	-41,630	-0,132	-0,047
261,063	-17,072	-0,253	-0,110
262,078	-14,285	-0,145	-0,064
263,093	3,849	-0,198	-0,100
264,107	288,547	-0,120	-0,150
265,122	181,276	-0,095	-0,096
266,136	220,839	-0,082	-0,091
267,151	-74,247	-0,155	0,039
268,166	-141,463	-0,075	-0,005
269,180	215,302	-0,133	-0,146
270,195	-38,378	-0,208	-0,076
271,209	248,208	-0,142	-0,167
272,224	-7,960	-0,250	-0,116
273,239	-103,448	-0,088	-0,014
274,253	-200,000	-0,018	-0,063
275,268	59,605	-0,182	-0,124
276,282	270,241	-0,107	-0,130
277,297	141,281	-0,200	-0,182
278,312	-26,767	-0,255	-0,102
279,326	-1,496	-0,103	0,050
280,341	-134,788	-0,158	0,013
281,355	198,361	-0,121	-0,128
282,370	36,373	-0,165	-0,100
283,384	26,030	-0,200	-0,115
284,399	149,060	-0,099	-0,093
285,414	-157,421	-0,088	-0,004
286,428	-159,175	-0,158	-0,006
287,443	-200,000	-0,119	0,000
288,457	-200,000	0,006	0,059
289,472	240,995	-0,110	-0,126
290,487	30,449	-0,200	-0,118
291,501	289,305	-0,142	-0,178
292,516	800,000	-0,106	-0,261
293,530	733,006	-0,072	-0,134
294,545	-6,813	-0,206	-0,096
295,560	-157,470	-0,150	-0,006
296,574	20,175	-0,108	-0,060
297,589	-154,655	-0,219	-0,010
298,603	-200,000	-0,021	-0,216
299,618	-63,966	-0,180	-0,050
300,633	80,224	-0,145	-0,107
301,647	-78,312	-0,137	-0,032
302,662	-200,000	0,008	-0,148
303,676	214,509	-0,194	-0,212
304,691	255,176	-0,216	-0,256
305,706	82,033	-0,163	-0,122
306,720	288,534	-0,151	-0,188
307,735	-115,605	-0,098	0,012
308,749	-84,529	-0,226	-0,049
309,764	-35,691	-0,219	-0,081
310,779	135,385	-0,107	-0,096
311,793	140,418	-0,106	-0,096
312,808	-133,543	-0,145	-0,012
313,822	6,273	-0,164	-0,083
314,837	249,158	-0,157	-0,183
315,852	166,535	-0,142	-0,138
316,866	-110,230	-0,132	-0,019
317,881	304,212	-0,118	-0,151
318,895	128,548	-0,198	-0,173
319,910	-71,783	-0,170	-0,043
320,925	91,054	-0,151	-0,117
321,939	328,734	0,027	-0,036
322,954	278,035	-0,096	-0,117
323,968	-200,000	-0,036	-0,129
324,983	376,939	-0,152	-0,214
325,997	-101,022	-0,190	-0,032
327,012	362,316	-0,216	-0,299
328,027	800,000	-0,120	-0,239
329,041	-37,055	-0,149	-0,054
330,056	95,828	-0,135	-0,106
331,070	162,251	-0,148	-0,143
332,085	-44,847	-0,146	0,050
333,100	-13,483	-0,095	0,042
334,114	-85,668	-0,289	-0,061
335,129	-39,247	-0,126	-0,045
336,143	-200,000	-0,068	-0,237
337,158	-7,711	-0,040	-0,019
338,173	180,709	-0,079	-0,080
339,187	25,716	-0,061	0,035
340,202	-47,486	-0,185	-0,061
341,216	130,402	-0,099	-0,087
342,231	-0,210	-0,179	-0,087
343,246	-144,150	-0,261	0,017
344,260	40,584	-0,119	-0,074
345,275	-124,950	-0,112	-0,012
346,289	7,256	-0,134	-0,068
347,304	385,898	-0,096	-0,136
348,319	205,549	-0,036	-0,039
349,333	800,000	-0,044	-0,125
350,348	61,732	-0,143	-0,097
351,362	194,731	-0,053	0,055
352,377	119,612	-0,066	0,056
353,392	-200,000	0,028	-0,132
354,406	6,923	-0,156	-0,080
355,421	208,301	1315,703	1411,771
356,435	160,269	1476,550	1412,256
