DTS Sentinel unit serial number:	SN410029Multiplexer serial number:	ORYXHardware model number:	OX2-SRSoftware version number:	ORYX F/W v4,00 Oryx Data Collector v3.7.2.0data status	okinstallation	B3 Nyhavnadifferential loss correction	single-endedforward channel	channel 1reverse channel	N/Adate	2023/12/02time	10:47:30forward acquisition time	300,00reverse acquisition time	0,00gamma	499,1914k internal	0,3197k external	0,3197temperature offset calibration	1,0000default loss term (dB/km)	0,3820temperature slope calibration	1,0000multiplexer offset coefficient	1,0000multiplexer slope coefficient	1,0000fibre end	0,00T internal ref (°C)	14,36T ext. ref 1 (°C)	-1,25T ext. ref 2 (°C)	-1,26length (m)	temperature (°C)	Stokes	anti-Stokes-744,400	31,388	-0,292	-0,182
-743,385	-200,000	-0,059	0,357
-742,371	281,658	-0,198	-0,259
-741,356	-200,000	-0,012	0,228
-740,342	69,435	-0,123	-0,092
-739,327	-200,000	-0,032	0,341
-738,312	-200,000	-0,080	-0,294
-737,298	-200,000	-0,071	0,356
-736,283	226,001	-0,203	-0,240
-735,269	-200,000	0,102	0,352
-734,254	69,100	-0,213	-0,160
-733,239	-129,464	-0,207	-0,021
-732,225	-32,654	-0,298	-0,120
-731,210	235,089	0,034	0,040
-730,196	-52,834	-0,128	-0,043
-729,181	800,000	-0,047	0,141
-728,167	25,837	0,003	-0,002
-727,152	-200,000	0,027	-0,135
-726,137	-39,641	-0,146	-0,055
-725,123	-200,000	-0,010	-0,076
-724,108	-189,901	-0,180	0,001
-723,094	-106,138	-0,110	0,018
-722,079	-106,979	-0,141	0,022
-721,064	-10,728	0,033	0,016
-720,050	95,671	-0,083	-0,069
-719,035	74,396	-0,181	-0,138
-718,021	-200,000	0,003	0,049
-717,006	100,479	-0,117	-0,099
-715,991	-87,061	-0,086	-0,019
-714,977	505,854	0,052	-0,088
-713,962	-200,000	-0,006	-0,148
-712,948	800,000	0,020	-0,061
-711,933	341,085	-0,105	-0,149
-710,918	-200,000	-0,027	0,091
-709,904	-73,789	-0,056	-0,015
-708,889	-163,258	-0,076	0,003
-707,875	-181,070	0,132	0,002
-706,860	507,280	-0,056	-0,095
-705,845	-200,000	0,016	0,100
-704,831	-200,000	-0,034	0,153
-703,816	62,732	0,079	0,057
-702,802	800,000	-0,028	-0,068
-701,787	20,407	0,062	0,037
-700,772	121,698	-0,103	-0,094
-699,758	800,000	0,034	0,087
-698,743	640,753	-0,045	0,084
-697,729	-184,856	0,051	0,001
-696,714	-18,819	-0,136	-0,061
-695,699	285,539	-0,011	-0,014
-694,685	-30,901	-0,081	-0,033
-693,670	11,560	-0,111	-0,062
-692,656	323,033	-0,098	-0,136
-691,641	-17,824	-0,039	0,018
-690,627	156,583	0,109	0,110
-689,612	-119,869	0,064	-0,008
-688,597	643,435	0,036	-0,067
-687,583	-157,600	-0,047	-0,002
-686,568	-75,592	-0,268	-0,069
-685,554	800,000	0,037	0,094
-684,539	800,000	0,074	-0,159
-683,524	16,271	0,028	0,016
-682,510	800,000	0,034	0,100
-681,495	800,000	0,037	0,088
-680,481	-200,000	-0,031	-0,100
-679,466	-200,000	-0,004	-0,035
-678,451	-200,000	0,029	-0,194
-677,437	-100,390	-0,076	-0,014
-676,422	-200,000	-0,010	-0,088
-675,408	-49,107	-0,045	-0,016
-674,393	-66,846	-0,044	-0,013
-673,378	347,918	-0,104	-0,150
-672,364	-200,000	-0,002	-0,106
-671,349	207,172	-0,027	-0,031
-670,335	-200,000	-0,002	-0,076
-669,320	287,590	0,096	-0,127
-668,305	-133,660	-0,165	-0,015
-667,291	800,000	-0,039	-0,123
-666,276	571,621	0,010	-0,017
-665,262	314,752	-0,044	-0,061
-664,247	1,163	-0,060	-0,031
-663,232	261,665	0,085	-0,107
-662,218	197,637	0,018	-0,020
-661,203	58,203	0,050	-0,035
-660,189	-105,646	0,128	0,021
-659,174	722,886	0,035	-0,067
-658,159	800,000	-0,049	-0,106
-657,145	-166,112	-0,099	-0,003
-656,130	-200,000	0,025	-0,114
-655,116	-17,977	-0,124	0,056
-654,101	26,289	-0,152	0,092
-653,086	-56,125	-0,032	-0,010
-652,072	-200,000	-0,015	0,166
-651,057	-111,694	0,055	-0,008
-650,043	800,000	-0,049	0,151
-649,028	-12,050	0,048	0,023
-648,014	-37,652	0,150	0,058
-646,999	31,084	-0,011	-0,007
-645,984	94,775	0,028	-0,023
-644,970	-200,000	-0,002	-0,020
-643,955	-200,000	-0,011	-0,127
-642,941	-153,913	0,081	0,004
-641,926	800,000	-0,012	0,029
-640,911	354,315	0,046	-0,066
-639,897	-63,879	0,092	-0,027
-638,882	-36,918	0,094	0,037
-637,868	119,318	0,053	0,048
-636,853	25,035	-0,096	0,058
-635,838	800,000	-0,029	-0,060
-634,824	37,604	0,086	-0,055
-633,809	800,000	-0,037	-0,092
-632,795	-144,191	0,098	0,007
-631,780	437,698	0,022	-0,035
-630,765	-2,693	-0,133	-0,067
-629,751	88,541	-0,087	-0,070
-628,736	192,667	0,054	-0,060
-627,722	-101,896	0,182	0,032
-626,707	262,307	-0,023	0,029
-625,692	-77,606	0,108	0,027
-624,678	128,334	0,209	0,193
-623,663	26,241	0,040	-0,024
-622,649	543,472	-0,060	-0,104
-621,634	-186,378	-0,098	0,001
-620,619	800,000	0,033	0,078
-619,605	81,947	-0,028	-0,022
-618,590	437,286	0,075	-0,119
-617,576	790,974	-0,072	0,144
-616,561	283,822	-0,102	0,133
-615,546	-20,795	-0,113	0,050
-614,532	-82,067	-0,037	-0,009
-613,517	-129,794	-0,087	0,009
-612,503	-125,645	0,060	0,007
-611,488	-119,166	-0,082	0,010
-610,474	-2,096	0,018	0,009
-609,459	-23,314	0,044	0,019
-608,444	-200,000	0,045	0,000
-607,430	4,082	-0,093	-0,049
-606,415	-196,381	-0,128	-0,001
-605,401	800,000	-0,018	0,051
-604,386	82,462	-0,015	-0,012
-603,371	-76,742	-0,018	-0,005
-602,357	282,808	0,074	-0,096
-601,342	-0,517	-0,076	-0,039
-600,328	-180,730	-0,132	-0,002
-599,313	-23,434	-0,087	-0,038
-598,298	95,300	-0,067	-0,055
-597,284	-50,016	-0,038	0,013
-596,269	30,615	0,036	0,022
-595,255	-200,000	0,019	0,071
-594,240	-73,377	0,087	0,023
-593,225	-200,000	-0,020	-0,135
-592,211	-40,897	0,056	0,021
-591,196	43,096	0,046	0,030
-590,182	-200,000	0,011	-0,115
-589,167	-200,000	0,010	0,061
-588,152	-171,073	0,051	0,001
-587,138	-114,202	-0,118	-0,016
-586,123	-200,000	0,022	-0,116
-585,109	667,199	0,048	-0,091
-584,094	800,000	0,030	0,085
-583,079	-136,737	0,041	0,003
-582,065	24,662	-0,065	0,039
-581,050	54,890	0,033	0,023
-580,036	-173,519	-0,118	0,003
-579,021	66,236	-0,030	-0,022
-578,006	106,001	0,116	-0,099
-576,992	157,987	0,150	-0,150
-575,977	-99,652	0,156	0,028
-574,963	-44,442	0,083	0,030
-573,948	264,656	0,117	0,148
-572,934	-200,000	-0,002	0,018
-571,919	-181,038	0,041	0,001
-570,904	41,649	-0,082	0,053
-569,890	739,413	-0,017	-0,034
-568,875	-7,023	0,119	0,058
-567,861	-151,679	-0,078	-0,004
-566,846	47,567	0,041	-0,028
-565,831	-122,732	0,123	-0,014
-564,817	-200,000	0,031	-0,103
-563,802	800,000	0,055	0,136
-562,788	548,642	-0,026	-0,045
-561,773	-118,018	0,034	-0,004
-560,758	589,198	0,039	0,070
-559,744	-200,000	-0,013	0,135
-558,729	-34,000	-0,023	0,009
-557,715	800,000	-0,056	0,142
-556,700	800,000	-0,008	-0,017
-555,685	497,064	0,079	0,131
-554,671	-133,647	0,092	-0,008
-553,656	101,369	-0,009	-0,008
-552,642	-74,249	0,057	0,015
-551,627	41,018	0,084	-0,055
-550,612	121,714	0,136	-0,122
-549,598	466,418	-0,087	0,141
-548,583	-31,298	0,040	-0,016
-547,569	11,830	-0,088	-0,049
-546,554	-136,761	0,123	0,010
-545,539	-200,000	-0,003	0,084
-544,525	-200,000	0,013	0,061
-543,510	-199,662	-0,130	0,000
-542,496	-10,728	0,025	-0,012
-541,481	796,386	-0,044	-0,088
-540,466	-122,367	-0,123	-0,014
-539,452	-200,000	0,015	0,130
-538,437	-139,812	0,182	0,014
-537,423	-200,000	0,009	0,045
-536,408	-200,000	-0,020	-0,084
-535,393	800,000	0,032	0,076
-534,379	676,740	-0,040	0,075
-533,364	-200,000	-0,024	-0,125
-532,350	157,498	0,060	0,060
-531,335	132,842	-0,090	0,084
-530,321	8,951	-0,007	-0,004
-529,306	-61,761	0,099	0,030
-528,291	-184,214	-0,076	0,001
-527,277	-99,252	-0,153	-0,028
-526,262	503,390	0,041	0,069
-525,248	-90,894	-0,009	-0,002
-524,233	450,251	0,117	0,187
-523,218	387,421	-0,033	0,050
-522,204	-95,609	-0,131	0,025
-521,189	800,000	-0,049	-0,105
-520,175	-157,973	0,173	-0,007
-519,160	5,840	-0,048	0,026
-518,145	406,794	0,057	-0,087
-517,131	-200,000	0,000	0,091
-516,116	-87,065	0,048	-0,011
-515,102	36,162	-0,085	0,054
-514,087	-155,620	0,159	0,007
-513,072	-18,732	-0,145	0,065
-512,058	-129,529	-0,113	-0,011
-511,043	-200,000	-0,005	-0,068
-510,029	-102,114	-0,113	-0,019
-509,014	-3,121	0,048	0,024
-507,999	7,912	0,079	-0,043
-506,985	-200,000	0,034	-0,123
-505,970	800,000	-0,060	-0,168
-504,956	203,021	-0,049	0,054
-503,941	-24,157	0,090	0,039
-502,926	-200,000	-0,021	0,103
-501,912	-182,646	0,058	-0,001
-500,897	-29,606	0,086	0,035
-499,883	-200,000	-0,006	-0,039
-498,868	-200,000	-0,004	-0,107
-497,853	179,480	-0,055	0,058
-496,839	654,734	0,060	-0,112
-495,824	-200,000	-0,001	0,042
-494,810	308,287	-0,040	-0,054
-493,795	695,563	-0,034	0,065
-492,781	118,220	0,118	-0,105
-491,766	-96,110	-0,072	-0,014
-490,751	250,593	-0,107	0,131
-489,737	23,694	0,064	-0,038
-488,722	-135,068	0,099	0,008
-487,708	290,837	0,101	0,132
-486,693	95,390	0,079	-0,065
-485,678	393,879	-0,103	-0,155
-484,664	-200,000	0,007	-0,137
-483,649	-200,000	0,006	0,068
-482,635	-15,854	-0,077	0,035
-481,620	-141,531	-0,035	0,003
-480,605	-200,000	-0,003	0,040
-479,591	-164,277	0,146	-0,005
-478,576	-19,785	-0,092	-0,041
-477,562	162,213	-0,096	-0,097
-476,547	-2,011	0,027	0,014
-475,532	758,944	0,033	0,064
-474,518	-200,000	0,013	0,071
-473,503	93,255	0,042	0,034
-472,489	635,045	-0,035	-0,064
-471,474	-141,865	-0,135	-0,010
-470,459	140,264	0,118	-0,112
-469,445	-60,470	-0,110	-0,033
-468,430	34,889	0,027	-0,017
-467,416	-200,000	0,019	0,067
-466,401	-200,000	-0,005	-0,087
-465,386	272,626	0,041	-0,052
-464,372	-124,584	-0,146	0,016
-463,357	136,546	-0,167	-0,157
-462,343	800,000	0,026	0,065
-461,328	252,113	-0,011	-0,013
-460,313	204,960	0,058	0,065
-459,299	-90,470	-0,040	0,008
-458,284	800,000	0,047	0,113
-457,270	-81,606	0,146	-0,034
-456,255	-200,000	-0,019	-0,127
-455,241	-117,811	-0,129	0,017
-454,226	437,026	-0,044	0,069
-453,211	625,962	0,049	-0,090
-452,197	800,000	-0,048	0,109
-451,182	-200,000	-0,103	-0,000
-450,168	-200,000	0,006	0,062
-449,153	-38,954	-0,078	-0,029
-448,138	-59,031	0,066	-0,020
-447,124	285,446	-0,028	-0,037
-446,109	-200,000	-0,008	-0,097
-445,095	-200,000	-0,001	-0,007
-444,080	-200,000	-0,005	-0,086
-443,065	9,292	-0,112	0,061
-442,051	-70,529	-0,056	0,015
-441,036	-200,000	0,021	-0,085
-440,022	-15,784	-0,126	0,058
-439,007	34,371	-0,047	0,029
-437,992	-200,000	-0,005	0,090
-436,978	-43,240	-0,069	0,025
-435,963	800,000	0,022	-0,067
-434,949	-200,000	-0,016	-0,084
-433,934	-15,593	-0,108	-0,049
-432,919	-200,000	-0,006	0,031
-431,905	303,274	0,109	-0,146
-430,890	463,053	-0,044	0,071
-429,876	180,695	-0,086	-0,091
-428,861	67,477	0,060	-0,044
-427,846	145,345	-0,055	0,053
-426,832	506,943	0,049	-0,083
-425,817	16,569	-0,133	0,075
-424,803	800,000	0,046	-0,128
-423,788	800,000	-0,052	-0,136
-422,773	-192,076	0,029	-0,000
-421,759	-200,000	0,032	0,153
-420,744	100,160	0,082	0,068
-419,730	698,846	-0,023	0,043
-418,715	-145,013	-0,093	-0,006
-417,701	-200,000	-0,037	-0,123
-416,686	261,090	0,038	-0,047
-415,671	-86,149	-0,062	0,014
-414,657	153,571	0,013	0,013
-413,642	208,538	0,061	-0,069
-412,628	319,143	-0,070	0,095
-411,613	-200,000	0,008	0,092
-410,598	-125,449	-0,082	-0,009
-409,584	480,009	-0,038	-0,062
-408,569	-108,532	0,159	-0,024
-407,555	405,724	-0,024	0,036
-406,540	-200,000	-0,009	0,055
-405,525	-143,578	-0,086	0,006
-404,511	89,515	0,031	-0,025
-403,496	34,940	-0,018	0,011
-402,482	-200,000	-0,011	0,040
-401,467	-39,980	0,013	0,005
-400,452	800,000	-0,059	0,121
-399,438	404,581	0,028	-0,043
-398,423	-73,563	-0,118	-0,031
-397,409	32,120	0,083	0,051
-396,394	-200,000	-0,025	-0,134
-395,379	648,258	0,045	0,084
-394,365	-91,048	-0,081	-0,017
-393,350	34,866	0,021	0,013
-392,336	-110,135	-0,092	-0,014
-391,321	-200,000	-0,008	-0,117
-390,306	-189,284	-0,129	-0,001
-389,292	168,913	-0,054	0,055
-388,277	355,860	0,015	0,022
-387,263	61,877	-0,039	-0,028
-386,248	-47,182	0,121	0,042
-385,233	-154,232	-0,074	-0,004
-384,219	261,997	0,064	-0,079
-383,204	-51,548	0,088	-0,029
-382,190	54,834	-0,074	-0,051
-381,175	-35,023	-0,035	0,014
-380,160	-200,000	0,027	0,216
-379,146	-200,000	0,039	-0,125
-378,131	-45,024	0,052	-0,018
-377,117	0,889	0,044	0,023
-376,102	800,000	-0,027	0,056
-375,088	767,756	0,042	-0,082
-374,073	414,936	-0,054	-0,083
-373,058	-60,766	0,150	-0,045
-372,044	-200,000	-0,008	0,148
-371,029	-137,258	0,072	-0,006
-370,015	-200,000	-0,036	-0,121
-369,000	-34,147	-0,197	-0,078
-367,985	125,921	-0,210	-0,191
-366,971	800,000	0,062	-0,126
-365,956	-45,363	0,038	0,013
-364,942	800,000	-0,051	0,106
-363,927	45,417	-0,069	-0,045
-362,912	-200,000	-0,001	0,088
-361,898	-200,000	0,019	0,239
-360,883	-128,999	-0,037	0,004
-359,869	308,043	0,098	0,131
-358,854	-200,000	-0,015	-0,091
-357,839	107,272	-0,070	0,060
-356,825	-200,000	0,018	0,060
-355,810	-90,133	0,142	-0,029
-354,796	-10,898	-0,050	0,024
-353,781	-200,000	-0,018	0,165
-352,766	141,675	0,015	0,014
-351,752	800,000	0,057	-0,144
-350,737	-200,000	0,002	0,086
-349,723	70,407	0,059	0,044
-348,708	134,919	0,030	0,028
-347,693	143,872	-0,033	-0,031
-346,679	-132,478	0,022	0,002
-345,664	-200,000	0,008	-0,132
-344,650	-168,629	0,147	0,004
-343,635	212,876	0,109	0,123
-342,620	-105,612	0,031	-0,005
-341,606	247,797	0,028	0,034
-340,591	779,369	0,015	0,029
-339,577	-200,000	0,011	0,081
-338,562	234,897	0,084	0,100
-337,548	-53,487	0,032	0,010
-336,533	-200,000	-0,033	0,113
-335,518	227,932	0,046	0,054
-334,504	800,000	0,082	0,203
-333,489	-200,000	-0,057	0,000
-332,475	-200,000	0,003	-0,020
-331,460	-200,000	0,020	-0,097
-330,445	-188,287	-0,249	0,002
-329,431	800,000	0,066	0,165
-328,416	156,847	0,088	-0,088
-327,402	-200,000	-0,015	0,128
-326,387	800,000	0,028	-0,082
-325,372	800,000	-0,021	-0,051
-324,358	128,951	-0,070	0,064
-323,343	230,728	0,109	0,127
-322,329	-62,427	-0,060	-0,018
-321,314	800,000	0,043	0,093
-320,299	-200,000	-0,050	0,176
-319,285	-200,000	-0,021	0,099
-318,270	-199,444	-0,080	-0,000
-317,256	-185,326	-0,028	-0,000
-316,241	-89,798	-0,142	0,029
-315,226	75,434	0,085	0,064
-314,212	-24,320	0,044	0,019
-313,197	68,445	0,027	0,020
-312,183	-200,000	0,002	0,037
-311,168	93,807	0,036	-0,029
-310,153	800,000	-0,062	0,153
-309,139	63,891	-0,107	-0,077
-308,124	-83,820	-0,063	-0,014
-307,110	49,633	-0,068	0,046
-306,095	93,810	-0,071	-0,058
-305,080	43,826	-0,063	0,041
-304,066	253,787	-0,074	0,090
-303,051	-179,469	-0,149	0,002
-302,037	-67,715	-0,082	-0,023
-301,022	149,351	0,027	0,027
-300,008	146,816	-0,045	0,043
-298,993	800,000	0,006	0,012
-297,978	-27,349	0,140	-0,058
-296,964	103,416	0,026	-0,021
-295,949	26,335	-0,122	-0,073
-294,935	489,578	-0,031	-0,050
-293,920	-19,977	-0,125	0,055
-292,905	111,806	0,114	0,098
-291,891	357,787	-0,043	0,061
-290,876	800,000	-0,015	-0,039
-289,862	476,416	0,095	0,155
-288,847	203,732	-0,126	-0,139
-287,832	-73,508	0,152	-0,039
-286,818	-60,601	0,106	0,032
-285,803	723,789	-0,025	-0,048
-284,789	-12,056	0,095	-0,044
-283,774	-95,677	0,153	0,029
-282,759	-200,000	-0,005	0,120
-281,745	-168,433	0,071	-0,002
-280,730	-125,660	0,107	-0,011
-279,716	-26,013	-0,146	-0,061
-278,701	-171,743	-0,081	0,002
-277,686	-38,935	0,053	-0,020
-276,672	-200,000	0,004	0,027
-275,657	42,850	-0,103	-0,067
-274,643	51,272	-0,155	-0,105
-273,628	800,000	0,022	0,064
-272,613	-200,000	0,021	0,099
-271,599	800,000	-0,033	0,092
-270,584	578,920	0,043	-0,076
-269,570	702,705	-0,075	-0,142
-268,555	-62,204	-0,083	-0,024
-267,540	201,064	-0,136	-0,150
-266,526	-94,439	0,130	0,025
-265,511	800,000	-0,032	-0,067
-264,497	389,786	0,055	-0,081
-263,482	132,494	0,104	-0,096
-262,467	313,777	0,044	0,060
-261,453	-131,574	-0,004	0,000
-260,438	43,810	-0,031	-0,020
-259,424	-200,000	-0,025	-0,183
-258,409	-85,656	0,042	0,009
-257,395	140,198	-0,047	-0,045
-256,380	438,494	0,064	0,099
-255,365	800,000	-0,016	0,038
-254,351	-70,903	-0,096	0,026
-253,336	-26,346	-0,150	0,062
-252,322	-84,040	-0,018	0,004
-251,307	-200,000	0,028	-0,184
-250,292	-200,000	-0,010	-0,055
-249,278	93,655	-0,016	0,013
-248,263	-141,103	0,070	-0,005
-247,249	-200,000	0,008	-0,037
-246,234	-200,000	-0,015	-0,090
-245,219	171,993	0,095	0,098
-244,205	311,409	-0,068	0,092
-243,190	206,032	-0,080	0,089
-242,176	-200,000	0,003	-0,041
-241,161	-200,000	-0,032	0,102
-240,146	-200,000	0,007	0,059
-239,132	-200,000	-0,004	-0,079
-238,117	-200,000	-0,005	-0,028
-237,103	240,789	0,038	0,045
-236,088	800,000	-0,011	-0,029
-235,073	-115,837	-0,102	-0,013
-234,059	-29,957	0,144	0,058
-233,044	14,667	-0,118	-0,065
-232,030	-79,332	0,198	0,047
-231,015	70,283	-0,056	-0,041
-230,000	-200,000	-0,009	-0,033
-228,986	177,870	0,086	-0,090
-227,971	706,382	0,030	-0,057
-226,957	-57,167	0,117	-0,037
-225,942	-75,772	0,054	-0,013
-224,927	800,000	0,017	-0,046
-223,913	424,360	0,025	0,039
-222,898	-5,603	-0,137	-0,067
-221,884	-17,608	-0,153	0,068
-220,869	-56,585	0,078	0,024
-219,855	-58,995	-0,075	-0,023
-218,840	139,858	0,060	0,056
-217,825	-200,000	0,020	0,180
-216,811	-200,000	-0,010	-0,099
-215,796	78,470	-0,027	0,020
-214,782	-107,674	0,009	-0,001
-213,767	-118,754	-0,074	-0,009
-212,752	-54,476	0,137	0,044
-211,738	198,106	-0,033	-0,036
-210,723	628,724	0,142	0,258
-209,709	800,000	-0,053	-0,127
-208,694	800,000	0,020	-0,043
-207,679	647,630	-0,030	-0,055
-206,665	-200,000	-0,009	-0,090
-205,650	306,787	0,036	0,047
-204,636	335,530	-0,078	-0,108
-203,621	-200,000	0,000	-0,072
-202,606	88,975	0,054	0,043
-201,592	-102,519	-0,091	0,015
-200,577	-200,000	-0,021	-0,143
-199,563	194,093	0,040	0,043
-198,548	-200,000	0,026	0,100
-197,533	-110,431	-0,113	0,017
-196,519	393,110	0,075	0,111
-195,504	252,899	-0,048	0,059
-194,490	-120,116	-0,050	-0,006
-193,475	-115,839	-0,017	-0,002
-192,460	0,719	0,026	-0,013
-191,446	83,487	-0,024	-0,018
-190,431	41,845	0,095	-0,062
-189,417	-56,439	-0,048	0,015
-188,402	-96,002	0,084	-0,016
-187,387	143,648	-0,102	-0,097
-186,373	-200,000	0,006	-0,031
-185,358	159,370	-0,053	0,052
-184,344	-79,525	0,074	-0,018
-183,329	215,634	-0,017	-0,019
-182,315	32,538	0,048	0,029
-181,300	62,619	-0,096	0,069
-180,285	-113,278	-0,143	-0,020
-179,271	143,117	-0,061	-0,058
-178,256	134,298	0,103	0,095
-177,242	-200,000	0,009	-0,040
-176,227	347,226	0,091	0,128
-175,212	80,430	-0,022	0,017
-174,198	800,000	-0,032	0,075
-173,183	-38,069	-0,099	0,037
-172,169	-200,000	0,042	-0,194
-171,154	-86,108	0,060	-0,013
-170,139	-170,543	-0,028	0,001
-169,125	800,000	0,078	0,202
-168,110	112,356	0,131	0,113
-167,096	88,104	0,066	-0,052
-166,081	-200,000	-0,011	-0,117
-165,066	-200,000	0,030	-0,146
-164,052	-82,392	0,173	0,040
-163,037	318,953	0,074	-0,100
-162,023	111,623	-0,065	-0,056
-161,008	-114,739	0,182	0,025
-159,993	118,915	-0,066	-0,058
-158,979	-104,271	0,011	0,002
-157,964	-200,000	-0,039	-0,223
-156,950	-200,000	-0,007	-0,116
-155,935	45,995	0,148	0,097
-154,920	9,384	-0,111	-0,059
-153,906	389,279	0,059	-0,088
-152,891	800,000	0,048	-0,125
-151,877	-43,131	-0,158	-0,057
-150,862	392,973	0,043	-0,064
-149,847	-79,213	-0,137	0,033
-148,833	-125,709	-0,027	0,003
-147,818	5,436	-0,089	0,047
-146,804	-53,860	0,229	-0,074
-145,789	-108,075	-0,059	0,009
-144,775	-125,353	-0,103	0,011
-143,760	800,000	-0,069	-0,152
-142,745	-200,000	0,009	0,070
-141,731	404,560	0,073	-0,110
-140,716	-200,000	-0,008	0,050
-139,702	334,787	0,161	0,222
-138,687	460,425	-0,012	-0,019
-137,672	800,000	-0,033	-0,081
-136,658	11,996	-0,086	0,047
-135,643	-130,061	-0,124	-0,012
-134,629	49,131	-0,113	-0,075
-133,614	-200,000	-0,026	-0,113
-132,599	-200,000	-0,002	-0,055
-131,585	88,702	-0,054	-0,043
-130,570	191,642	0,062	0,066
-129,556	-25,246	-0,105	0,044
-128,541	-55,003	-0,144	0,046
-127,526	-200,000	0,010	-0,054
-126,512	-167,255	0,145	-0,004
-125,497	-14,276	-0,036	-0,017
-124,483	205,246	0,127	0,141
-123,468	133,412	0,110	0,101
-122,453	-5,979	-0,053	-0,026
-121,439	-106,173	0,095	0,015
-120,424	-200,000	0,027	-0,084
-119,410	218,746	0,057	0,065
-118,395	-102,963	-0,050	0,008
-117,380	800,000	0,044	0,093
-116,366	203,390	0,034	0,037
-115,351	800,000	-0,065	0,129
-114,337	12,954	0,014	-0,008
-113,322	800,000	-0,076	-0,153
-112,307	171,147	-0,080	-0,082
-111,293	197,908	0,076	0,082
-110,278	-65,921	0,067	-0,019
-109,264	63,699	-0,061	0,043
-108,249	800,000	-0,041	0,100
-107,234	87,427	-0,046	-0,036
-106,220	250,887	0,084	-0,101
-105,205	279,827	-0,029	-0,036
-104,191	800,000	-0,068	0,145
-103,176	-8,796	0,048	-0,023
-102,162	314,225	0,035	-0,047
-101,147	544,188	0,037	-0,063
-100,132	-95,245	-0,031	0,006
-99,118	41,106	-0,157	0,100
-98,103	589,570	-0,034	-0,059
-97,089	800,000	-0,009	-0,024
-96,074	270,083	0,051	0,063
-95,059	-161,701	-0,043	0,002
-94,045	259,940	0,111	-0,137
-93,030	-200,000	-0,031	0,102
-92,016	51,399	0,097	0,066
-91,001	-200,000	-0,009	0,091
-89,986	666,900	0,036	0,067
-88,972	-200,000	-0,015	0,159
-87,957	-200,000	-0,043	0,138
-86,943	-145,023	0,131	0,008
-85,928	-200,000	-0,003	-0,072
-84,913	-200,000	0,007	-0,057
-83,899	19,101	0,159	0,090
-82,884	-200,000	0,008	-0,051
-81,870	-200,000	0,016	0,054
-80,855	31,177	-0,112	0,068
-79,840	-200,000	0,049	-0,178
-78,826	-200,000	-0,021	-0,112
-77,811	-200,000	-0,009	-0,207
-76,797	65,051	-0,036	-0,026
-75,782	-44,231	0,019	-0,007
-74,767	-200,000	0,064	0,203
-73,753	-200,000	0,006	-0,096
-72,738	-93,228	-0,113	0,022
-71,724	-22,260	-0,052	0,022
-70,709	280,281	-0,052	-0,066
-69,694	800,000	-0,038	-0,076
-68,680	-21,908	0,059	-0,025
-67,665	-0,711	-0,058	0,029
-66,651	364,459	-0,073	0,104
-65,636	38,125	0,084	-0,053
-64,622	439,465	0,047	0,073
-63,607	800,000	0,051	-0,139
-62,592	597,193	-0,040	-0,071
-61,578	-0,133	-0,083	-0,042
-60,563	13,673	-0,064	-0,035
-59,549	-46,463	-0,176	0,061
-58,534	-61,060	-1,574	-0,468
-57,519	406,851	-1,404	-2,109
-56,505	-200,000	-0,554	-4,570
-55,490	164,031	0,850	0,849
-54,476	800,000	4,869	11,392
-53,461	-200,000	18,669	299,276
-52,446	800,000	734,051	2270,184
-51,432	562,248	1650,413	2841,416
-50,417	78,769	1668,134	1263,654
-49,403	22,278	1541,228	890,119
-48,388	16,218	1464,186	816,192
-47,373	17,818	1453,866	818,132
-46,359	16,995	1444,317	808,780
-45,344	14,519	1439,601	794,259
-44,330	14,408	1437,735	792,668
-43,315	14,436	1435,996	791,811
-42,300	14,434	1434,480	790,935
-41,286	14,489	1433,134	790,425
-40,271	14,427	1431,919	789,424
-39,257	14,423	1430,709	788,710
-38,242	14,507	1429,332	788,319
-37,227	14,551	1428,062	787,795
-36,213	14,459	1426,923	786,702
-35,198	14,494	1425,717	786,169
-34,184	14,526	1424,737	785,750
-33,169	14,443	1423,479	784,629
-32,154	14,482	1422,314	784,142
-31,140	14,463	1421,117	783,360
-30,125	14,502	1419,752	782,760
-29,111	14,463	1418,729	781,981
-28,096	14,411	1417,747	781,165
-27,082	14,420	1416,708	780,605
-26,067	14,409	1415,451	779,829
-25,052	14,391	1414,516	779,198
-24,038	14,366	1413,493	778,488
-23,023	14,353	1412,556	777,880
-22,009	14,399	1411,376	777,416
-20,994	14,354	1410,682	776,789
-19,979	14,315	1409,874	776,129
-18,965	14,287	1408,847	775,406
-17,950	14,292	1407,650	774,737
-16,936	14,322	1406,881	774,422
-15,921	14,292	1405,728	773,618
-14,906	14,293	1404,798	773,080
-13,892	14,299	1403,962	772,615
-12,877	14,278	1403,078	772,002
-11,863	14,255	1401,989	771,264
-10,848	14,307	1401,057	770,963
-9,833	14,266	1400,263	770,308
-8,819	14,212	1399,580	769,648
-7,804	14,207	1398,642	769,079
-6,790	14,197	1397,498	768,374
-5,775	14,234	1396,331	767,872
-4,760	14,160	1395,611	767,104
-3,746	14,176	1394,852	766,730
-2,731	14,195	1393,941	766,287
-1,717	14,169	1393,015	765,627
-0,702	14,207	1391,021	764,677
0,313	17,947	1309,514	737,230
1,327	34,285	705,542	435,065
2,342	52,364	123,976	83,656
3,356	2,019	16,641	8,481
4,371	6,086	3,120	1,633
5,386	-66,021	0,589	0,165
6,400	731,827	0,117	0,222
7,415	144,425	-0,276	-0,261
8,429	42,720	-0,296	-0,191
9,444	126,595	-0,228	-0,204
10,459	12,019	-0,391	-0,212
11,473	4,795	-0,329	-0,170
12,488	-133,970	-0,240	-0,021
13,502	-20,086	-0,408	-0,177
14,517	-14,722	-0,224	-0,101
15,531	66,324	-0,422	-0,303
16,546	57,053	-0,287	-0,198
17,561	153,761	-0,325	-0,315
18,575	-13,638	-0,342	-0,156
19,590	365,578	-0,142	-0,203
20,604	3,286	-0,222	-0,114
21,619	109,733	-0,431	-0,366
22,634	107,689	-0,389	-0,327
23,648	105,283	-0,410	-0,342
24,663	97,595	-0,460	-0,373
25,677	146,487	-0,304	-0,289
26,692	19,441	-0,313	-0,177
27,707	34,794	-0,453	-0,280
28,721	157,898	-0,278	-0,273
29,736	149,150	-0,417	-0,399
30,750	158,843	-0,301	-0,295
31,765	226,655	-0,360	-0,413
32,780	148,919	-0,288	-0,275
33,794	90,469	-0,452	-0,357
34,809	137,053	-0,359	-0,332
35,823	2,299	-0,463	-0,236
36,838	178,040	-0,439	-0,453
37,853	68,867	-0,327	-0,237
38,867	193,171	-0,365	-0,390
39,882	31,161	-0,436	-0,263
40,896	-52,520	-0,378	-0,123
41,911	78,024	-0,342	-0,257
42,926	7,007	-0,404	-0,212
43,940	20,964	-0,451	-0,258
44,955	42,904	-0,466	-0,299
45,969	52,535	-0,361	-0,243
46,984	207,176	-0,298	-0,328
47,999	32,981	-0,262	-0,160
49,013	81,088	-0,345	-0,263
50,028	304,543	-0,182	-0,239
51,042	72,223	-0,374	-0,274
52,057	227,892	-0,343	-0,394
53,071	60,090	-0,432	-0,301
54,086	321,586	-0,277	-0,372
55,101	39,062	-0,314	-0,198
56,115	99,030	-0,354	-0,288
57,130	67,549	-0,401	-0,288
58,144	114,668	-0,256	-0,220
59,159	97,823	-0,375	-0,304
60,174	152,268	-0,288	-0,277
61,188	-128,440	-0,414	-0,041
62,203	145,836	-0,238	-0,225
63,217	58,504	-0,299	-0,207
64,232	47,220	-0,306	-0,200
65,247	75,001	-0,359	-0,266
66,261	-16,387	-0,486	-0,217
67,276	68,292	-0,346	-0,249
68,290	45,736	-0,227	-0,147
69,305	-75,431	-0,419	-0,104
70,320	-39,942	-0,251	-0,092
71,334	43,480	-0,413	-0,265
72,349	134,876	-0,285	-0,261
73,363	75,893	-0,372	-0,277
74,378	-52,055	-0,491	-0,160
75,393	15,840	-0,395	-0,218
76,407	43,830	-0,289	-0,186
77,422	46,728	-0,242	-0,158
78,436	-16,089	-0,275	-0,122
79,451	91,827	-0,302	-0,239
80,466	-21,453	-0,402	-0,172
81,480	59,572	-0,299	-0,207
82,495	404,977	-0,186	-0,277
83,509	153,177	-0,242	-0,233
84,524	-19,938	-0,292	-0,126
85,539	176,907	-0,273	-0,280
86,553	-57,529	-0,251	-0,077
87,568	-44,552	-0,328	-0,115
88,582	35,441	-0,288	-0,177
89,597	530,190	-0,161	-0,269
90,611	135,301	-0,167	-0,152
91,626	-55,573	-0,166	0,052
92,641	32,507	-0,129	-0,078
93,655	-23,881	-0,395	-0,165
94,670	101,322	-0,292	-0,239
95,684	353,486	-0,166	-0,233
96,699	155,776	-0,187	-0,181
97,714	73,868	-0,317	-0,233
98,728	63,987	-0,263	-0,186
99,743	-16,602	-0,342	-0,151
100,757	66,202	-0,156	-0,111
101,772	153,050	-0,378	-0,363
102,787	117,662	-0,225	-0,194
103,801	-23,770	-0,376	-0,157
104,816	98,068	-0,292	-0,236
105,830	8,797	-0,274	-0,145
106,845	148,546	-0,176	-0,167
107,860	48,264	-0,294	-0,193
108,874	80,772	-0,374	-0,283
109,889	105,649	-0,198	-0,164
110,903	16,682	-0,305	-0,169
111,918	8,620	-0,271	-0,143
112,933	83,527	-0,167	-0,127
113,947	155,886	-0,255	-0,247
114,962	69,788	-0,196	-0,141
115,976	-108,457	-0,436	-0,065
116,991	56,442	-0,312	-0,213
118,006	193,980	-0,296	-0,315
119,020	167,348	-0,247	-0,247
120,035	352,768	-0,174	-0,243
121,049	-52,179	-0,109	-0,035
122,064	-105,798	-0,356	-0,056
123,079	133,634	-0,233	-0,211
124,093	145,473	-0,244	-0,229
125,108	-44,872	-0,387	-0,134
126,122	79,254	-0,302	-0,227
127,137	431,323	-0,114	-0,173
128,151	147,736	-0,195	-0,184
129,166	201,502	-0,237	-0,257
130,181	162,672	-0,226	-0,223
131,195	-26,935	-0,427	-0,174
132,210	335,722	-0,233	-0,318
133,224	34,574	-0,273	-0,166
134,239	158,904	-0,158	-0,154
135,254	-101,710	-0,236	-0,040
136,268	-21,496	-0,223	-0,095
137,283	56,514	-0,322	-0,219
138,297	73,281	-0,407	-0,298
139,312	135,529	-0,272	-0,248
140,327	800,000	-0,117	-0,279
141,341	-6,182	-0,329	-0,157
142,356	73,360	-0,255	-0,186
143,370	-15,706	-0,200	-0,089
144,385	47,395	-0,217	-0,141
145,400	-149,616	-0,243	0,013
146,414	80,546	-0,282	-0,212
147,429	208,286	-0,249	-0,272
148,443	285,007	-0,271	-0,342
149,458	67,114	-0,176	-0,125
150,473	82,022	-0,227	-0,172
151,487	101,184	-0,236	-0,192
152,502	-35,372	-0,280	-0,106
153,516	211,408	-0,231	-0,254
154,531	-97,728	-0,303	-0,054
155,546	-7,282	-0,212	-0,100
156,560	798,143	-0,132	-0,255
157,575	153,660	-0,195	-0,187
158,589	15,851	-0,244	-0,134
159,604	111,834	-0,265	-0,223
160,619	1,064	-0,322	-0,161
161,633	248,651	-0,157	-0,186
162,648	47,000	-0,382	-0,248
163,662	63,298	-0,241	-0,168
164,677	-14,142	-0,249	-0,112
165,692	142,018	-0,193	-0,179
166,706	237,605	-0,241	-0,279
167,721	283,614	-0,162	-0,204
168,735	35,314	-0,264	-0,161
169,750	529,194	-0,147	-0,243
170,764	196,077	-0,201	-0,214
171,779	2,924	-0,142	-0,072
172,794	-64,285	-0,287	-0,081
173,808	-183,896	-0,309	-0,004
174,823	402,816	-0,240	-0,353
175,837	66,598	-0,232	-0,165
176,852	37,088	-0,202	-0,124
177,867	88,503	-0,261	-0,202
178,881	433,007	-0,127	-0,192
179,896	59,127	-0,224	-0,153
180,910	-34,445	-0,298	-0,113
181,925	152,587	-0,254	-0,242
182,940	170,355	-0,255	-0,254
183,954	207,704	-0,191	-0,208
184,969	232,551	-0,271	-0,311
185,983	20,763	-0,242	-0,136
186,998	409,066	-0,110	-0,163
188,013	260,816	-0,185	-0,223
189,027	22,997	-0,146	-0,083
190,042	445,709	-0,190	-0,291
191,056	-41,128	-0,234	-0,084
192,071	68,602	-0,284	-0,202
193,086	24,761	-0,249	-0,143
194,100	790,688	-0,089	-0,172
195,115	-70,506	-0,274	0,072
196,129	-72,401	-0,237	-0,061
197,144	98,549	-0,158	-0,127
198,159	82,360	-0,216	-0,163
199,173	104,761	-0,165	-0,135
200,188	-104,280	-0,209	0,033
201,202	-40,366	-0,170	0,061
202,217	271,550	-0,150	-0,185
203,232	800,000	-0,076	-0,186
204,246	-107,452	-0,282	-0,043
205,261	153,663	-0,219	-0,209
206,275	125,885	-0,099	-0,087
207,290	251,963	-0,191	-0,227
208,304	102,928	-0,235	-0,191
209,319	91,830	-0,203	-0,159
210,334	384,704	-0,149	-0,215
211,348	289,441	-0,172	-0,218
212,363	308,700	-0,116	-0,151
213,377	-200,000	-0,078	-0,255
214,392	-103,212	-0,292	-0,047
215,407	-78,367	-0,239	-0,057
216,421	450,950	-0,128	-0,197
217,436	216,930	-0,194	-0,215
218,450	-15,336	-0,309	-0,137
219,465	-88,226	-0,279	-0,058
220,480	-200,000	-0,024	-0,168
221,494	800,000	-0,124	-0,255
222,509	19,601	-0,259	-0,144
223,523	13,955	-0,254	-0,137
224,538	374,089	-0,129	-0,183
225,553	107,859	-0,155	-0,128
226,567	0,950	-0,237	-0,117
227,582	180,534	-0,191	-0,195
228,596	-26,118	-0,168	-0,068
229,611	-4,931	-0,138	-0,066
230,626	-200,000	-0,238	0,001
231,640	191,877	-0,148	-0,155
232,655	-94,026	-0,229	-0,043
233,669	81,664	-0,201	-0,151
234,684	153,237	-0,216	-0,205
235,699	-162,732	-0,273	0,009
236,713	800,000	-0,047	-0,119
237,728	31,066	-0,156	-0,093
238,742	-143,430	-0,225	-0,015
239,757	174,215	-0,179	-0,180
240,772	27,375	-0,279	-0,162
241,786	308,554	-0,163	-0,212
242,801	-36,604	-0,170	-0,063
243,815	524,057	-0,102	-0,168
244,830	70,732	-0,224	-0,161
245,844	-115,087	-0,129	-0,017
246,859	426,498	-0,119	-0,179
247,874	274,042	-0,155	-0,191
248,888	-37,472	-0,184	-0,068
249,903	279,253	-0,178	-0,221
250,917	-85,917	-0,102	0,022
251,932	-17,996	-0,192	-0,083
252,947	83,068	-0,230	-0,173
253,961	75,284	-0,240	-0,175
254,976	202,094	-0,201	-0,215
255,990	109,191	-0,230	-0,190
257,005	77,008	-0,218	-0,160
258,020	162,601	-0,160	-0,155
259,034	364,257	-0,140	-0,195
260,049	-86,419	-0,153	0,032
261,063	-64,119	-0,116	-0,033
262,078	85,308	-0,201	-0,152
263,093	146,384	-0,209	-0,195
264,107	180,919	-0,164	-0,167
265,122	582,803	-0,044	-0,074
266,136	-155,903	-0,264	-0,011
267,151	50,028	-0,202	-0,131
268,166	-34,069	-0,281	-0,107
269,180	315,078	-0,165	-0,216
270,195	414,318	-0,122	-0,181
271,209	56,867	-0,267	-0,180
272,224	44,870	-0,122	-0,077
273,239	221,442	-0,169	-0,188
274,253	761,933	-0,088	-0,166
275,268	800,000	-0,050	-0,142
276,282	16,424	-0,307	-0,167
277,297	800,000	-0,132	-0,266
278,312	162,442	-0,200	-0,194
279,326	-116,407	-0,035	-0,004
280,341	51,804	-0,235	-0,154
281,355	-14,153	-0,239	-0,106
282,370	516,182	-0,138	-0,224
283,384	47,447	-0,178	-0,115
284,399	-200,000	-0,033	-0,185
285,414	124,017	-0,166	-0,144
286,428	-45,516	-0,271	-0,092
287,443	-13,310	-0,134	-0,060
288,457	-47,893	-0,129	-0,043
289,472	-58,684	-0,077	0,023
290,487	150,683	-0,248	-0,233
291,501	-67,768	-0,220	-0,059
292,516	122,704	-0,209	-0,180
293,530	72,947	-0,141	-0,102
294,545	-87,439	-0,050	0,010
295,560	800,000	-0,051	-0,141
296,574	596,613	-0,077	-0,131
297,589	55,015	-0,080	-0,054
298,603	-112,336	-0,223	0,030
299,618	168,225	-0,211	-0,208
300,633	-61,306	-0,099	-0,028
301,647	372,432	-0,134	-0,189
302,662	-154,457	-0,173	-0,008
303,676	800,000	-0,050	-0,145
304,691	-5,954	-0,192	-0,090
305,706	-67,615	-0,187	-0,050
306,720	62,791	-0,138	-0,095
307,735	178,121	-0,220	-0,222
308,749	800,000	-0,020	-0,047
309,764	-119,046	-0,133	-0,016
310,779	-28,847	-0,240	-0,095
311,793	168,068	-0,233	-0,228
312,808	-67,884	-0,230	-0,061
313,822	-58,777	-0,316	-0,094
314,837	-130,110	-0,247	0,023
315,852	-82,450	-0,249	-0,055
316,866	-140,084	-0,079	0,006
317,881	189,093	-0,034	0,035
318,895	107,764	-0,198	-0,163
319,910	800,000	-0,161	-0,311
320,925	298,144	-0,175	-0,222
321,939	27,896	-0,085	-0,049
322,954	-99,702	-0,071	-0,012
323,968	-200,000	-0,037	-0,134
324,983	-200,000	-0,008	-0,098
325,997	-200,000	-0,020	-0,229
327,012	-3,882	-0,168	-0,080
328,027	-142,219	-0,221	0,015
329,041	400,768	-0,148	-0,214
330,056	-91,875	-0,108	0,021
331,070	-53,666	-0,129	-0,040
332,085	-61,621	-0,212	-0,061
333,100	406,299	0,031	-0,045
334,114	-49,785	-0,188	-0,061
335,129	-111,170	-0,180	-0,025
336,143	50,515	-0,219	-0,142
337,158	230,759	-0,134	-0,151
338,173	375,289	-0,050	0,070
339,187	660,981	-0,102	-0,182
340,202	377,831	-0,044	-0,061
341,216	39,096	-0,207	-0,127
342,231	800,000	-0,121	-0,237
343,246	800,000	-0,067	-0,140
344,260	800,000	-0,097	-0,225
345,275	800,000	-0,072	-0,139
346,289	-15,453	-0,175	-0,076
347,304	-132,826	-0,254	-0,022
348,319	-40,068	-0,141	-0,050
349,333	140,369	-0,164	-0,149
350,348	18,719	-0,209	-0,114
351,362	319,082	-0,122	-0,159
352,377	-147,017	-0,172	0,010
353,392	209,294	-0,100	-0,107
354,406	-145,828	-0,105	0,006
355,421	209,159	1311,955	1412,881
356,435	160,965	1472,363	1413,387
