DTS Sentinel unit serial number:	SN410029Multiplexer serial number:	ORYXHardware model number:	OX2-SRSoftware version number:	ORYX F/W v4,00 Oryx Data Collector v3.7.2.0data status	okinstallation	B3 Nyhavnadifferential loss correction	single-endedforward channel	channel 1reverse channel	N/Adate	2023/12/01time	03:27:30forward acquisition time	300,00reverse acquisition time	0,00gamma	499,1914k internal	0,3212k external	0,3212temperature offset calibration	1,0000default loss term (dB/km)	0,3820temperature slope calibration	1,0000multiplexer offset coefficient	1,0000multiplexer slope coefficient	1,0000fibre end	0,00T internal ref (°C)	8,31T ext. ref 1 (°C)	-6,95T ext. ref 2 (°C)	-7,08length (m)	temperature (°C)	Stokes	anti-Stokes-744,400	594,190	-0,101	-0,181
-743,385	800,000	-0,125	0,353
-742,371	292,854	-0,142	-0,188
-741,356	229,555	-0,136	0,162
-740,342	800,000	-0,088	-0,196
-739,327	-200,000	0,062	0,345
-738,312	639,469	-0,168	-0,311
-737,298	800,000	-0,106	0,283
-736,283	800,000	-0,097	-0,231
-735,269	-200,000	0,013	0,240
-734,254	172,171	-0,207	-0,215
-733,239	-9,646	-0,176	0,085
-732,225	-200,000	-0,019	-0,269
-731,210	-200,000	-0,006	0,110
-730,196	800,000	-0,035	0,083
-729,181	800,000	-0,009	-0,027
-728,167	98,140	-0,077	0,064
-727,152	362,929	-0,074	0,107
-726,137	-64,048	0,163	-0,048
-725,123	-79,957	-0,132	0,032
-724,108	-167,974	-0,060	0,002
-723,094	-130,039	-0,114	-0,011
-722,079	-0,355	-0,081	-0,042
-721,064	-116,409	-0,035	0,005
-720,050	-200,000	0,012	0,098
-719,035	117,397	-0,047	-0,042
-718,021	-200,000	-0,004	0,071
-717,006	800,000	-0,035	-0,097
-715,991	59,734	-0,063	-0,045
-714,977	52,131	-0,125	0,086
-713,962	790,182	-0,073	0,147
-712,948	-200,000	0,031	0,145
-711,933	-200,000	-0,018	0,102
-710,918	800,000	-0,015	-0,034
-709,904	800,000	-0,023	0,072
-708,889	800,000	0,049	-0,118
-707,875	-131,219	-0,043	0,004
-706,860	800,000	-0,037	-0,118
-705,845	20,732	-0,024	0,014
-704,831	-200,000	0,022	0,098
-703,816	61,777	0,015	-0,011
-702,802	800,000	-0,035	0,088
-701,787	85,576	-0,121	-0,096
-700,772	-84,993	0,062	-0,014
-699,758	195,230	-0,115	-0,127
-698,743	746,962	-0,027	-0,053
-697,729	-0,787	0,036	0,018
-696,714	177,740	-0,051	0,053
-695,699	-92,130	0,022	0,004
-694,685	240,221	-0,072	-0,088
-693,670	104,440	-0,147	-0,125
-692,656	48,468	-0,033	-0,022
-691,641	800,000	0,009	0,021
-690,627	289,783	0,035	0,046
-689,612	-5,508	-0,155	-0,077
-688,597	-196,720	-0,076	0,000
-687,583	1,684	0,052	-0,027
-686,568	-200,000	0,010	0,064
-685,554	160,196	-0,070	0,070
-684,539	800,000	-0,069	0,140
-683,524	135,728	-0,089	-0,084
-682,510	-200,000	-0,013	-0,105
-681,495	193,806	-0,048	-0,053
-680,481	214,187	-0,069	-0,079
-679,466	800,000	0,057	-0,122
-678,451	-200,000	0,001	-0,134
-677,437	-16,314	0,096	-0,044
-676,422	-200,000	0,012	0,064
-675,408	-200,000	0,005	-0,098
-674,393	-141,874	-0,187	0,013
-673,378	800,000	-0,019	-0,056
-672,364	-144,749	-0,110	-0,007
-671,349	150,056	-0,058	0,057
-670,335	19,714	0,061	-0,035
-669,320	-200,000	0,011	-0,111
-668,305	-34,583	-0,089	0,035
-667,291	178,164	-0,029	0,030
-666,276	-35,328	-0,169	-0,066
-665,262	-132,007	-0,061	0,006
-664,247	254,188	0,003	0,004
-663,232	257,556	0,047	0,058
-662,218	-200,000	0,015	-0,099
-661,203	-44,263	-0,084	-0,030
-660,189	800,000	0,014	0,038
-659,174	10,491	0,023	0,012
-658,159	-200,000	-0,006	-0,025
-657,145	-200,000	0,010	0,105
-656,130	-200,000	0,029	0,112
-655,116	60,473	-0,151	0,108
-654,101	-44,187	0,076	0,027
-653,086	-200,000	-0,002	0,129
-652,072	408,298	0,018	0,027
-651,057	479,687	-0,105	-0,173
-650,043	151,838	-0,112	-0,110
-649,028	-81,483	-0,035	-0,008
-648,014	800,000	0,055	0,124
-646,999	132,200	0,045	0,042
-645,984	800,000	0,028	-0,073
-644,970	57,577	-0,109	-0,077
-643,955	-200,000	-0,018	-0,122
-642,941	357,543	-0,059	0,086
-641,926	-134,373	0,089	-0,008
-640,911	294,520	-0,005	-0,006
-639,897	-100,674	0,081	0,014
-638,882	-200,000	-0,002	-0,050
-637,868	159,988	-0,036	0,036
-636,853	163,947	-0,050	-0,051
-635,838	-72,925	-0,226	0,059
-634,824	322,626	-0,028	0,038
-633,809	26,807	0,031	-0,018
-632,795	800,000	-0,056	-0,115
-631,780	-121,729	0,047	0,006
-630,765	78,207	0,077	0,060
-629,751	800,000	0,023	-0,072
-628,736	-200,000	0,016	-0,113
-627,722	388,937	0,019	-0,028
-626,707	1,840	0,097	0,050
-625,692	-91,990	-0,063	0,013
-624,678	-51,330	0,075	0,025
-623,663	-200,000	-0,011	0,040
-622,649	-29,777	-0,094	-0,039
-621,634	314,605	-0,063	0,085
-620,619	207,595	-0,070	0,079
-619,605	800,000	0,044	0,115
-618,590	339,821	0,042	0,059
-617,576	109,134	-0,068	-0,059
-616,561	105,569	0,058	-0,049
-615,546	15,051	-0,089	-0,050
-614,532	800,000	-0,056	-0,119
-613,517	-200,000	0,004	-0,081
-612,503	249,472	0,165	0,202
-611,488	-200,000	-0,024	0,210
-610,474	387,337	0,053	0,079
-609,459	624,304	-0,022	-0,040
-608,444	800,000	-0,021	-0,042
-607,430	800,000	0,099	-0,274
-606,415	800,000	0,035	-0,080
-605,401	800,000	-0,032	0,073
-604,386	-200,000	-0,012	0,102
-603,371	800,000	0,009	-0,023
-602,357	58,131	0,103	0,072
-601,342	-200,000	0,009	0,088
-600,328	-43,453	-0,088	-0,032
-599,313	-109,303	-0,053	-0,008
-598,298	800,000	0,054	-0,129
-597,284	-200,000	0,035	0,130
-596,269	-200,000	-0,010	0,130
-595,255	85,617	0,132	-0,104
-594,240	800,000	0,019	0,046
-593,225	91,080	-0,108	-0,087
-592,211	234,471	0,076	-0,091
-591,196	800,000	0,046	0,131
-590,182	-117,922	-0,230	0,029
-589,167	190,756	0,025	-0,027
-588,152	543,361	0,038	0,066
-587,138	597,631	0,033	-0,060
-586,123	-181,131	-0,128	-0,002
-585,109	116,147	-0,026	-0,023
-584,094	-120,040	-0,046	-0,006
-583,079	-200,000	-0,024	-0,110
-582,065	800,000	-0,061	0,146
-581,050	-200,000	-0,014	0,179
-580,036	-200,000	-0,004	0,171
-579,021	-165,154	-0,022	0,001
-578,006	-200,000	0,014	-0,135
-576,992	-200,000	0,021	0,084
-575,977	-200,000	0,010	-0,131
-574,963	516,601	0,080	0,134
-573,948	220,324	-0,046	0,054
-572,934	83,868	0,098	-0,077
-571,919	-100,092	-0,065	-0,012
-570,904	7,367	-0,060	-0,032
-569,890	-78,468	0,114	-0,028
-568,875	536,526	-0,029	0,049
-567,861	192,380	0,073	0,079
-566,846	-200,000	0,016	0,069
-565,831	800,000	-0,063	0,128
-564,817	-200,000	-0,032	-0,116
-563,802	-12,831	-0,091	0,043
-562,788	-69,407	-0,103	-0,028
-561,773	-21,613	0,088	0,038
-560,758	58,676	0,071	0,050
-559,744	307,177	-0,014	0,019
-558,729	-200,000	-0,029	-0,147
-557,715	448,973	-0,024	-0,038
-556,700	-91,530	-0,085	0,017
-555,685	800,000	-0,094	-0,195
-554,671	-33,546	-0,110	0,044
-553,656	14,062	-0,028	0,016
-552,642	41,135	0,138	0,089
-551,627	150,131	0,019	0,018
-550,612	-17,691	-0,130	0,059
-549,598	-200,000	-0,016	-0,139
-548,583	9,960	-0,055	0,030
-547,569	45,368	0,064	-0,043
-546,554	800,000	0,028	-0,062
-545,539	-67,955	0,094	0,026
-544,525	-200,000	-0,007	0,031
-543,510	-200,000	0,025	-0,134
-542,496	-200,000	-0,014	0,085
-541,481	-109,767	-0,065	-0,010
-540,466	168,749	-0,032	-0,032
-539,452	800,000	0,058	-0,126
-538,437	-200,000	-0,043	-0,138
-537,423	-200,000	-0,012	-0,132
-536,408	-12,588	-0,062	-0,029
-535,393	-33,393	-0,057	-0,023
-534,379	254,166	0,037	-0,045
-533,364	-200,000	-0,006	0,067
-532,350	-51,157	0,048	-0,016
-531,335	-200,000	0,031	0,140
-530,321	800,000	-0,011	0,030
-529,306	525,927	-0,032	-0,055
-528,291	71,136	-0,069	0,052
-527,277	106,491	-0,009	-0,008
-526,262	152,328	0,027	0,027
-525,248	477,843	0,107	0,175
-524,233	-71,544	-0,063	0,017
-523,218	-200,000	0,006	0,056
-522,204	-133,511	-0,093	0,008
-521,189	-157,947	-0,188	-0,008
-520,175	800,000	0,046	-0,100
-519,160	-12,040	0,111	0,052
-518,145	118,475	-0,051	0,045
-517,131	-200,000	0,049	0,210
-516,116	-15,458	0,088	-0,040
-515,102	-126,551	-0,086	-0,009
-514,087	82,689	-0,039	0,030
-513,072	800,000	-0,035	0,090
-512,058	150,882	-0,073	-0,071
-511,043	57,881	-0,073	0,051
-510,029	501,823	-0,042	0,070
-509,014	104,199	-0,093	0,079
-507,999	800,000	0,037	0,079
-506,985	-39,848	0,090	-0,033
-505,970	-78,383	0,100	0,024
-504,956	-200,000	-0,015	-0,098
-503,941	800,000	-0,010	0,027
-502,926	-167,729	-0,141	0,004
-501,912	435,252	0,078	0,122
-500,897	-200,000	0,062	-0,209
-499,883	-200,000	0,005	0,062
-498,868	-200,000	-0,005	-0,055
-497,853	-200,000	0,000	0,010
-496,839	167,233	0,064	-0,066
-495,824	-34,997	0,034	-0,013
-494,810	112,673	0,187	0,162
-493,795	-13,972	0,136	0,063
-492,781	223,190	-0,032	-0,037
-491,766	-52,655	-0,075	0,025
-490,751	129,748	0,085	-0,078
-489,737	-107,942	0,096	-0,015
-488,722	-124,211	-0,038	-0,004
-487,708	516,119	-0,095	0,161
-486,693	442,982	-0,043	-0,067
-485,678	-164,418	-0,140	-0,005
-484,664	-200,000	-0,053	-0,171
-483,649	-200,000	-0,014	0,160
-482,635	-43,220	-0,010	0,004
-481,620	-200,000	-0,005	0,030
-480,605	77,805	0,092	0,070
-479,591	-31,806	0,044	-0,017
-478,576	-126,476	0,057	-0,006
-477,562	-200,000	0,008	-0,064
-476,547	-200,000	-0,039	-0,124
-475,532	800,000	-0,019	-0,042
-474,518	800,000	-0,033	0,085
-473,503	-200,000	0,036	-0,180
-472,489	-200,000	0,004	0,050
-471,474	-77,796	-0,093	0,023
-470,459	-200,000	0,025	-0,152
-469,445	85,193	-0,072	-0,057
-468,430	675,125	0,078	-0,146
-467,416	-165,229	0,135	-0,004
-466,401	110,200	0,069	-0,059
-465,386	627,058	0,054	0,099
-464,372	223,030	0,027	0,032
-463,357	180,809	0,023	0,024
-462,343	451,356	-0,069	-0,110
-461,328	-131,890	-0,138	0,013
-460,313	-1,273	0,062	0,031
-459,299	-23,697	0,017	0,007
-458,284	800,000	0,052	0,105
-457,270	327,775	-0,044	0,061
-456,255	4,582	-0,107	0,056
-455,241	800,000	-0,028	0,084
-454,226	405,668	0,025	-0,037
-453,211	-200,000	-0,016	0,128
-452,197	10,897	-0,063	-0,035
-451,182	70,478	0,065	0,048
-450,168	-200,000	0,006	-0,053
-449,153	-200,000	0,020	0,115
-448,138	524,196	-0,048	-0,081
-447,124	-200,000	-0,036	-0,179
-446,109	-200,000	0,029	-0,107
-445,095	129,785	0,113	0,104
-444,080	91,707	0,037	-0,029
-443,065	368,078	-0,088	0,127
-442,051	-107,383	-0,038	-0,006
-441,036	579,494	-0,092	-0,162
-440,022	-125,446	0,091	0,010
-439,007	-138,736	-0,095	-0,007
-437,992	7,103	0,189	0,101
-436,978	1,994	-0,103	-0,053
-435,963	-4,040	0,024	-0,012
-434,949	681,909	0,019	-0,036
-433,934	34,495	-0,201	0,126
-432,919	433,203	-0,010	0,016
-431,905	-200,000	-0,024	0,104
-430,890	-200,000	0,061	0,000
-429,876	-129,568	0,042	-0,004
-428,861	800,000	-0,058	0,167
-427,846	153,214	0,072	0,070
-426,832	91,943	-0,112	-0,090
-425,817	-88,595	-0,103	0,022
-424,803	64,278	0,053	0,038
-423,788	-63,885	-0,088	0,026
-422,773	8,507	0,053	0,029
-421,759	-159,819	-0,121	0,005
-420,744	101,007	-0,124	0,103
-419,730	-200,000	-0,006	-0,035
-418,715	-17,867	0,189	0,085
-417,701	-200,000	0,009	-0,120
-416,686	-200,000	-0,007	-0,104
-415,671	141,340	0,099	0,094
-414,657	800,000	0,046	0,138
-413,642	-20,159	-0,044	0,019
-412,628	608,726	0,106	-0,191
-411,613	27,224	-0,116	0,070
-410,598	-78,243	0,052	0,013
-409,584	22,840	0,110	-0,064
-408,569	7,487	0,114	-0,061
-407,555	-200,000	0,027	0,141
-406,540	332,829	0,052	0,072
-405,525	655,996	-0,032	-0,059
-404,511	-200,000	-0,063	-0,251
-403,496	124,099	0,054	-0,049
-402,482	-61,103	-0,064	0,019
-401,467	-150,711	0,132	-0,007
-400,452	16,446	0,057	-0,032
-399,438	800,000	-0,055	0,132
-398,423	101,388	0,091	0,076
-397,409	419,495	-0,063	-0,096
-396,394	-200,000	-0,001	-0,058
-395,379	-200,000	0,010	-0,054
-394,365	-8,558	-0,157	0,075
-393,350	-145,362	0,038	-0,002
-392,336	475,844	0,085	0,138
-391,321	178,239	-0,099	-0,104
-390,306	-200,000	0,021	-0,078
-389,292	-132,755	-0,115	0,010
-388,277	-29,386	0,137	-0,056
-387,263	326,520	0,058	0,079
-386,248	-163,928	0,085	-0,003
-385,233	-97,926	0,107	-0,020
-384,219	32,445	-0,018	-0,011
-383,204	16,720	0,051	0,029
-382,190	-161,680	-0,100	0,004
-381,175	212,507	0,024	0,027
-380,160	-200,000	0,028	-0,112
-379,146	-115,835	0,150	0,020
-378,131	579,658	0,021	-0,036
-377,117	-200,000	0,010	0,045
-376,102	-40,682	0,127	0,047
-375,088	110,559	-0,068	0,059
-374,073	585,702	0,026	-0,045
-373,058	-200,000	-0,009	-0,031
-372,044	-70,462	0,081	-0,022
-371,029	2,642	-0,065	0,033
-370,015	-85,223	-0,103	-0,023
-369,000	800,000	-0,041	-0,088
-367,985	107,379	-0,037	-0,031
-366,971	-200,000	0,019	-0,094
-365,956	800,000	-0,042	0,089
-364,942	142,083	0,066	-0,062
-363,927	75,676	0,116	0,087
-362,912	31,902	-0,069	-0,042
-361,898	97,995	-0,113	-0,093
-360,883	-200,000	0,009	-0,035
-359,869	-200,000	-0,021	-0,229
-358,854	800,000	0,013	0,028
-357,839	-200,000	0,001	-0,087
-356,825	-59,774	-0,040	-0,012
-355,810	-51,798	0,164	-0,054
-354,796	-200,000	0,008	-0,027
-353,781	81,623	-0,070	0,054
-352,766	48,537	-0,008	0,005
-351,752	-200,000	0,021	0,000
-350,737	-200,000	-0,019	0,079
-349,723	-26,085	0,073	0,031
-348,708	36,589	-0,035	-0,022
-347,693	-200,000	-0,030	-0,099
-346,679	146,023	0,064	-0,061
-345,664	-50,136	-0,014	-0,005
-344,650	-129,742	0,130	0,013
-343,635	-200,000	-0,024	0,128
-342,620	800,000	0,056	0,117
-341,606	-200,000	0,009	0,037
-340,591	394,470	-0,075	0,112
-339,577	-200,000	-0,081	0,000
-338,562	-15,092	0,061	0,028
-337,548	-200,000	-0,044	-0,155
-336,533	-117,748	0,045	-0,006
-335,518	-103,944	0,133	-0,022
-334,504	800,000	-0,100	-0,205
-333,489	209,465	-0,048	0,054
-332,475	-200,000	-0,009	-0,046
-331,460	-200,000	0,024	-0,082
-330,445	-46,296	0,069	0,024
-329,431	-200,000	-0,033	0,117
-328,416	800,000	0,006	-0,015
-327,402	401,018	-0,071	-0,107
-326,387	6,843	0,038	-0,020
-325,372	63,586	0,052	-0,037
-324,358	654,254	0,086	-0,158
-323,343	115,711	0,050	-0,044
-322,329	-157,524	0,096	0,004
-321,314	400,870	0,041	0,061
-320,299	-200,000	0,002	0,224
-319,285	-66,683	-0,078	0,022
-318,270	800,000	-0,034	0,071
-317,256	472,855	-0,039	0,063
-316,241	223,929	-0,041	-0,047
-315,226	-90,114	-0,046	0,009
-314,212	-200,000	0,191	0,001
-313,197	467,093	0,064	0,103
-312,183	800,000	-0,046	0,139
-311,168	88,899	-0,064	-0,051
-310,153	-57,938	-0,085	-0,026
-309,139	-77,827	0,123	-0,030
-308,124	-200,000	0,022	-0,080
-307,110	-200,000	0,006	0,040
-306,095	-107,255	0,088	0,014
-305,080	-200,000	-0,027	-0,089
-304,066	316,827	-0,051	0,068
-303,051	738,909	-0,062	-0,119
-302,037	-132,071	0,035	-0,003
-301,022	-200,000	-0,007	-0,104
-300,008	66,379	-0,066	0,048
-298,993	311,541	0,073	0,098
-297,978	-49,053	0,141	-0,048
-296,964	800,000	-0,012	-0,027
-295,949	-62,455	-0,078	-0,023
-294,935	253,513	-0,052	-0,063
-293,920	129,700	-0,101	0,092
-292,905	-104,087	0,094	0,015
-291,891	-186,263	-0,071	-0,001
-290,876	-46,588	-0,034	-0,012
-289,862	-200,000	-0,020	-0,114
-288,847	-200,000	0,021	-0,104
-287,832	-145,141	-0,050	-0,003
-286,818	-106,785	0,102	0,016
-285,803	-13,859	-0,171	-0,078
-284,789	502,214	0,060	0,099
-283,774	-100,420	0,047	0,008
-282,759	-66,192	-0,090	-0,025
-281,745	-20,116	-0,042	-0,019
-280,730	64,271	-0,054	0,039
-279,716	391,615	0,012	0,017
-278,701	-200,000	-0,008	-0,042
-277,686	-62,064	-0,058	0,017
-276,672	-200,000	0,014	0,090
-275,657	-47,015	-0,147	-0,051
-274,643	-87,273	0,150	-0,032
-273,628	83,435	-0,062	0,048
-272,613	27,879	0,129	-0,077
-271,599	563,187	-0,062	-0,107
-270,584	168,660	-0,066	0,067
-269,570	-162,047	-0,051	-0,002
-268,555	47,042	-0,074	-0,049
-267,540	-61,298	-0,058	0,017
-266,526	-200,000	-0,002	-0,015
-265,511	-62,387	-0,055	0,016
-264,497	-200,000	0,007	-0,170
-263,482	246,071	0,051	0,061
-262,467	316,132	-0,043	0,058
-261,453	-200,000	0,009	0,057
-260,438	388,166	-0,054	-0,080
-259,424	-170,312	0,117	0,003
-258,409	-73,434	0,182	0,047
-257,395	-200,000	0,006	-0,033
-256,380	-200,000	0,008	0,069
-255,365	-113,291	-0,025	0,004
-254,351	413,007	0,092	-0,139
-253,336	447,659	0,058	-0,092
-252,322	-200,000	0,002	-0,037
-251,307	800,000	0,047	-0,104
-250,292	663,193	-0,019	-0,036
-249,278	-94,319	0,172	0,033
-248,263	-1,805	0,056	0,028
-247,249	-200,000	-0,005	-0,138
-246,234	800,000	0,008	-0,022
-245,219	-131,590	-0,243	-0,022
-244,205	800,000	-0,039	-0,102
-243,190	139,987	0,050	-0,047
-242,176	324,165	-0,034	-0,046
-241,161	540,682	0,017	0,030
-240,146	-185,102	-0,073	0,001
-239,132	414,364	0,050	-0,075
-238,117	5,643	-0,099	-0,052
-237,103	152,641	0,110	-0,107
-236,088	106,232	0,098	-0,083
-235,073	-45,397	-0,160	-0,056
-234,059	97,961	-0,065	-0,053
-233,044	19,190	0,047	0,027
-232,030	-21,410	-0,074	0,032
-231,015	-200,000	0,022	0,096
-230,000	-167,128	-0,056	-0,002
-228,986	-32,489	0,026	-0,010
-227,971	238,762	0,063	0,075
-226,957	-49,324	-0,138	0,047
-225,942	-89,364	0,212	0,044
-224,927	-200,000	-0,123	0,000
-223,913	-200,000	-0,001	0,049
-222,898	-134,610	-0,066	-0,006
-221,884	85,335	0,135	-0,105
-220,869	481,223	0,084	0,135
-219,855	-22,455	0,155	0,066
-218,840	-200,000	-0,025	0,154
-217,825	-17,210	0,090	0,040
-216,811	224,315	0,050	0,057
-215,796	26,760	-0,108	-0,064
-214,782	800,000	0,018	-0,035
-213,767	800,000	-0,060	0,128
-212,752	58,646	-0,048	0,033
-211,738	-96,419	-0,039	-0,007
-210,723	-200,000	0,025	0,116
-209,709	354,423	-0,048	0,068
-208,694	-200,000	-0,017	-0,123
-207,679	-154,320	-0,094	-0,004
-206,665	-185,924	0,038	-0,000
-205,650	-161,451	0,162	-0,006
-204,636	-69,362	0,098	0,026
-203,621	800,000	0,053	0,114
-202,606	94,395	0,124	-0,100
-201,592	-61,425	-0,160	0,047
-200,577	-200,000	-0,004	0,118
-199,563	33,535	0,223	0,137
-198,548	-84,858	0,083	-0,018
-197,533	518,322	0,013	0,021
-196,519	-57,647	-0,125	-0,039
-195,504	800,000	-0,045	0,141
-194,490	-62,220	-0,112	0,033
-193,475	255,512	-0,174	-0,212
-192,460	351,873	0,037	0,052
-191,446	3,730	0,072	0,037
-190,431	543,454	0,024	0,041
-189,417	-117,200	-0,134	0,017
-188,402	800,000	0,070	0,179
-187,387	28,486	-0,081	0,049
-186,373	389,990	0,068	-0,100
-185,358	4,105	0,026	-0,014
-184,344	-89,791	0,047	0,010
-183,329	-200,000	0,010	-0,137
-182,315	573,461	0,074	0,128
-181,300	-115,485	-0,057	-0,008
-180,285	-109,429	0,068	-0,010
-179,271	-78,031	-0,154	-0,037
-178,256	141,784	-0,117	-0,110
-177,242	-137,112	0,082	-0,007
-176,227	267,684	0,033	0,041
-175,212	800,000	-0,037	0,105
-174,198	-200,000	-0,026	0,118
-173,183	67,157	-0,056	-0,040
-172,169	487,157	-0,032	0,051
-171,154	-200,000	0,011	-0,046
-170,139	-108,402	0,158	0,024
-169,125	-200,000	0,003	0,035
-168,110	21,043	-0,074	0,043
-167,096	195,122	-0,070	0,075
-166,081	-18,828	0,109	0,048
-165,066	-117,123	-0,050	-0,006
-164,052	752,439	-0,081	-0,155
-163,037	-200,000	0,016	0,081
-162,023	-200,000	0,006	0,056
-161,008	-40,556	0,102	0,037
-159,993	-42,138	-0,055	-0,020
-158,979	196,461	-0,104	-0,112
-157,964	800,000	-0,018	-0,054
-156,950	800,000	-0,012	-0,033
-155,935	-200,000	-0,015	-0,109
-154,920	-200,000	-0,014	-0,062
-153,906	-200,000	-0,002	0,060
-152,891	-3,311	0,095	-0,047
-151,877	174,273	0,065	0,067
-150,862	-200,000	0,021	0,113
-149,847	234,077	-0,111	-0,130
-148,833	59,570	-0,070	-0,049
-147,818	-43,578	0,083	0,029
-146,804	-94,898	0,079	0,015
-145,789	209,805	0,080	0,089
-144,775	-57,840	0,010	0,003
-143,760	-200,000	-0,019	-0,064
-142,745	-200,000	0,002	-0,151
-141,731	427,387	-0,025	0,038
-140,716	152,241	-0,142	0,138
-139,702	-200,000	0,001	0,074
-138,687	77,589	0,071	-0,054
-137,672	-157,120	0,106	-0,004
-136,658	264,213	-0,042	0,052
-135,643	800,000	-0,056	-0,130
-134,629	-200,000	0,017	-0,061
-133,614	-3,348	0,041	0,020
-132,599	16,787	-0,040	0,022
-131,585	-3,905	0,073	-0,036
-130,570	783,862	-0,014	-0,026
-129,556	800,000	0,033	-0,100
-128,541	-6,864	-0,114	-0,055
-127,526	360,177	0,030	0,043
-126,512	445,977	-0,076	-0,119
-125,497	163,165	0,085	-0,085
-124,483	484,976	0,094	0,151
-123,468	92,598	0,052	-0,041
-122,453	-200,000	-0,020	0,150
-121,439	-107,729	-0,058	0,009
-120,424	-200,000	0,033	-0,107
-119,410	-127,172	0,126	0,013
-118,395	-200,000	0,018	-0,072
-117,380	800,000	-0,031	0,094
-116,366	-159,632	-0,095	-0,004
-115,351	-200,000	0,041	-0,133
-114,337	42,397	-0,121	-0,078
-113,322	300,628	0,088	0,115
-112,307	5,747	-0,140	-0,073
-111,293	255,242	0,045	-0,055
-110,278	273,182	0,106	-0,133
-109,264	355,581	0,106	0,150
-108,249	-200,000	-0,003	0,024
-107,234	165,415	0,052	-0,052
-106,220	373,638	-0,083	0,119
-105,205	800,000	-0,032	-0,079
-104,191	-24,058	0,086	-0,036
-103,176	73,627	0,085	0,063
-102,162	387,913	-0,086	0,126
-101,147	-16,514	-0,026	0,011
-100,132	161,366	-0,105	-0,104
-99,118	800,000	-0,047	0,131
-98,103	-53,482	0,080	0,026
-97,089	22,542	0,103	0,059
-96,074	-29,502	-0,052	0,021
-95,059	291,709	-0,027	-0,034
-94,045	-63,654	-0,129	-0,037
-93,030	-43,986	-0,129	0,046
-92,016	392,125	-0,072	-0,106
-91,001	800,000	0,061	0,136
-89,986	-18,294	0,035	0,016
-88,972	-200,000	-0,023	0,195
-87,957	-95,759	-0,128	0,024
-86,943	-5,535	-0,091	0,044
-85,928	800,000	0,043	0,093
-84,913	165,337	-0,113	-0,113
-83,899	800,000	-0,007	-0,018
-82,884	-105,917	0,076	-0,012
-81,870	800,000	-0,007	0,020
-80,855	-200,000	-0,007	-0,059
-79,840	411,038	0,042	-0,063
-78,826	-78,653	-0,090	-0,022
-77,811	-200,000	0,027	-0,092
-76,797	-200,000	0,004	-0,096
-75,782	800,000	0,022	-0,053
-74,767	735,900	0,010	0,020
-73,753	-200,000	0,012	0,062
-72,738	-200,000	-0,004	-0,031
-71,724	-200,000	-0,003	-0,026
-70,709	-200,000	-0,004	-0,152
-69,694	66,490	0,103	-0,074
-68,680	-25,024	-0,023	0,010
-67,665	-128,619	0,119	-0,012
-66,651	67,179	0,144	0,104
-65,636	-200,000	0,001	-0,065
-64,622	15,280	-0,086	-0,047
-63,607	-200,000	-0,006	0,025
-62,592	800,000	0,008	0,023
-61,578	228,060	0,139	0,160
-60,563	-129,562	0,080	0,008
-59,549	72,017	0,116	-0,085
-58,534	47,911	-2,243	-1,477
-57,519	456,852	-1,054	-1,658
-56,505	-200,000	-0,332	-4,647
-55,490	442,185	0,871	1,350
-54,476	800,000	5,464	12,112
-53,461	-200,000	22,332	347,163
-52,446	800,000	758,342	2304,403
-51,432	536,240	1646,977	2768,823
-50,417	68,622	1645,264	1189,456
-49,403	15,957	1521,932	843,216
-48,388	10,096	1447,869	773,996
-47,373	19,211	1440,123	813,308
-46,359	13,589	1428,776	780,302
-45,344	8,514	1424,674	754,004
-44,330	8,442	1422,839	752,662
-43,315	8,383	1420,956	751,357
-42,300	8,397	1418,967	750,343
-41,286	8,422	1417,998	749,916
-40,271	8,386	1416,651	749,005
-39,257	8,424	1415,610	748,603
-38,242	8,448	1414,367	748,030
-37,227	8,391	1413,537	747,291
-36,213	8,415	1412,012	746,570
-35,198	8,398	1410,646	745,738
-34,184	8,453	1409,848	745,543
-33,169	8,353	1408,589	744,380
-32,154	8,402	1407,600	744,058
-31,140	8,349	1406,281	743,081
-30,125	8,429	1405,072	742,790
-29,111	8,409	1403,880	742,036
-28,096	8,383	1402,914	741,374
-27,082	8,339	1401,560	740,424
-26,067	8,316	1400,461	739,706
-25,052	8,329	1399,581	739,275
-24,038	8,331	1398,564	738,714
-23,023	8,343	1397,471	738,166
-22,009	8,343	1396,508	737,626
-20,994	8,288	1395,497	736,810
-19,979	8,254	1394,760	736,232
-18,965	8,301	1393,778	735,903
-17,950	8,315	1392,706	735,373
-16,936	8,259	1391,687	734,545
-15,921	8,233	1390,848	733,955
-14,906	8,232	1389,952	733,445
-13,892	8,292	1388,820	733,098
-12,877	8,331	1388,062	732,851
-11,863	8,233	1387,563	732,103
-10,848	8,258	1386,400	731,575
-9,833	8,231	1385,535	730,965
-8,819	8,160	1384,728	730,186
-7,804	8,167	1383,689	729,643
-6,790	8,183	1382,681	729,152
-5,775	8,164	1381,805	728,574
-4,760	8,249	1380,683	728,346
-3,746	8,198	1379,624	727,522
-2,731	8,178	1378,805	726,971
-1,717	8,159	1378,132	726,499
-0,702	8,186	1376,184	725,567
0,313	12,218	1286,890	696,766
1,327	28,227	678,516	403,108
2,342	43,815	116,786	75,265
3,356	2,222	16,424	8,343
4,371	-5,325	3,828	1,848
5,386	-28,004	1,393	0,566
6,400	551,379	0,393	0,668
7,415	-76,425	-0,374	-0,092
8,429	110,388	-0,279	-0,236
9,444	137,353	-0,314	-0,290
10,459	91,064	-0,257	-0,203
11,473	-47,283	-0,331	-0,113
12,488	-75,839	-0,314	-0,078
13,502	-110,947	-0,326	-0,047
14,517	20,080	-0,301	-0,171
15,531	189,306	-0,327	-0,345
16,546	103,327	-0,310	-0,256
17,561	141,535	-0,341	-0,318
18,575	-28,850	-0,227	-0,091
19,590	166,967	-0,301	-0,301
20,604	47,291	-0,165	-0,108
21,619	178,703	-0,302	-0,311
22,634	77,321	-0,447	-0,334
23,648	120,271	-0,395	-0,345
24,663	100,057	-0,436	-0,355
25,677	112,730	-0,230	-0,196
26,692	62,148	-0,255	-0,178
27,707	-127,762	-0,342	-0,034
28,721	13,931	-0,413	-0,225
29,736	200,469	-0,343	-0,372
30,750	83,801	-0,351	-0,269
31,765	67,509	-0,334	-0,239
32,780	51,925	-0,342	-0,229
33,794	27,150	-0,339	-0,199
34,809	-13,445	-0,293	-0,133
35,823	169,662	-0,251	-0,252
36,838	173,343	-0,324	-0,329
37,853	259,594	-0,375	-0,456
38,867	113,048	-0,275	-0,234
39,882	123,172	-0,307	-0,271
40,896	50,130	-0,359	-0,238
41,911	52,329	-0,301	-0,202
42,926	-1,281	-0,396	-0,196
43,940	63,923	-0,359	-0,253
44,955	193,749	-0,332	-0,353
45,969	15,272	-0,576	-0,316
46,984	62,890	-0,306	-0,215
47,999	55,313	-0,309	-0,210
49,013	216,382	-0,307	-0,344
50,028	-37,771	-0,349	-0,130
51,042	51,886	-0,367	-0,245
52,057	114,970	-0,340	-0,292
53,071	-19,873	-0,421	-0,182
54,086	-5,124	-0,345	-0,166
55,101	34,299	-0,318	-0,194
56,115	48,238	-0,243	-0,159
57,130	-49,203	-0,336	-0,112
58,144	40,885	-0,433	-0,274
59,159	64,975	-0,419	-0,296
60,174	19,117	-0,340	-0,191
61,188	42,236	-0,302	-0,192
62,203	56,367	-0,348	-0,237
63,217	-64,260	-0,367	-0,104
64,232	-24,163	-0,281	-0,117
65,247	30,569	-0,417	-0,249
66,261	46,980	-0,406	-0,264
67,276	116,652	-0,301	-0,259
68,290	5,954	-0,480	-0,249
69,305	208,923	-0,203	-0,224
70,320	29,891	-0,308	-0,184
71,334	79,278	-0,349	-0,262
72,349	-194,342	-0,309	-0,002
73,363	102,005	-0,320	-0,262
74,378	76,516	-0,349	-0,259
75,393	-77,630	-0,312	-0,075
76,407	84,753	-0,283	-0,217
77,422	125,889	-0,286	-0,253
78,436	160,728	-0,194	-0,190
79,451	-42,695	-0,347	-0,123
80,466	-10,637	-0,306	-0,141
81,480	312,974	-0,248	-0,327
82,495	-72,961	-0,348	-0,089
83,509	71,184	-0,409	-0,297
84,524	100,483	-0,136	-0,111
85,539	68,798	-0,293	-0,210
86,553	125,935	-0,189	-0,167
87,568	21,708	-0,260	-0,148
88,582	32,424	-0,324	-0,195
89,597	-1,471	-0,402	-0,198
90,611	288,146	-0,184	-0,233
91,626	23,590	-0,299	-0,172
92,641	30,202	-0,314	-0,187
93,655	35,398	-0,318	-0,195
94,670	-101,901	-0,354	-0,059
95,684	-89,857	-0,417	-0,085
96,699	-13,910	-0,280	-0,126
97,714	165,884	-0,124	-0,123
98,728	46,844	-0,201	-0,131
99,743	14,196	-0,375	-0,204
100,757	226,344	-0,208	-0,236
101,772	32,038	-0,288	-0,173
102,787	20,154	-0,271	-0,152
103,801	164,997	-0,252	-0,249
104,816	75,757	-0,284	-0,210
105,830	10,317	-0,372	-0,197
106,845	89,493	-0,188	-0,147
107,860	376,543	-0,166	-0,238
108,874	48,732	-0,219	-0,143
109,889	165,025	-0,272	-0,269
110,903	39,005	-0,366	-0,228
111,918	-21,803	-0,328	-0,139
112,933	-177,904	-0,197	-0,003
113,947	-60,435	-0,156	-0,046
114,962	-48,610	-0,104	-0,035
115,976	637,591	-0,076	-0,136
116,991	21,916	-0,411	-0,233
118,006	42,885	-0,315	-0,200
119,020	-152,407	-0,288	-0,014
120,035	31,393	-0,188	-0,112
121,049	-61,468	-0,199	-0,058
122,064	-59,068	-0,207	-0,062
123,079	167,255	-0,230	-0,228
124,093	342,081	-0,297	-0,407
125,108	23,731	-0,391	-0,224
126,122	37,735	-0,293	-0,181
127,137	239,658	-0,065	-0,075
128,151	219,396	-0,158	-0,177
129,166	371,163	-0,148	-0,209
130,181	129,481	-0,244	-0,217
131,195	414,449	-0,157	-0,233
132,210	106,234	-0,212	-0,175
133,224	106,375	-0,252	-0,208
134,239	122,373	-0,173	-0,150
135,254	92,466	-0,260	-0,204
136,268	278,072	-0,216	-0,269
137,283	47,623	-0,271	-0,176
138,297	57,092	-0,266	-0,180
139,312	0,882	-0,274	-0,136
140,327	-2,464	-0,217	-0,106
141,341	-118,072	-0,344	0,042
142,356	-200,000	-0,080	-0,278
143,370	-90,958	-0,201	0,040
144,385	145,119	-0,289	-0,269
145,400	67,180	-0,366	-0,259
146,414	69,322	-0,233	-0,167
147,429	233,600	-0,304	-0,349
148,443	49,464	-0,146	-0,096
149,458	277,186	-0,134	-0,166
150,473	206,286	-0,142	-0,154
151,487	25,092	-0,229	-0,132
152,502	223,179	-0,226	-0,254
153,516	54,742	-0,215	-0,144
154,531	318,535	-0,151	-0,199
155,546	49,654	-0,319	-0,209
156,560	94,960	-0,224	-0,177
157,575	226,916	-0,109	-0,123
158,589	151,293	-0,171	-0,162
159,604	405,536	-0,121	-0,179
160,619	-18,858	-0,355	-0,153
161,633	280,860	-0,271	-0,338
162,648	-2,535	-0,267	-0,130
163,662	-94,365	-0,220	-0,041
164,677	-123,961	-0,185	-0,020
165,692	-14,105	-0,233	-0,104
166,706	208,126	-0,200	-0,218
167,721	40,973	-0,160	-0,100
168,735	20,224	-0,305	-0,171
169,750	71,754	-0,271	-0,195
170,764	-29,774	-0,121	0,048
171,779	-33,532	-0,183	-0,070
172,794	-28,185	-0,241	-0,096
173,808	296,117	-0,137	-0,175
174,823	125,955	-0,278	-0,244
175,837	173,914	-0,206	-0,206
176,852	170,272	-0,133	-0,132
177,867	38,452	-0,230	-0,142
178,881	-72,572	-0,179	-0,045
179,896	233,124	-0,228	-0,260
180,910	-88,140	-0,300	-0,062
181,925	190,951	-0,204	-0,213
182,940	137,920	-0,215	-0,196
183,954	120,184	-0,164	-0,142
184,969	-68,915	-0,161	-0,043
185,983	136,859	-0,206	-0,187
186,998	-116,469	-0,232	-0,029
188,013	99,386	-0,202	-0,162
189,027	219,868	-0,155	-0,172
190,042	57,597	-0,262	-0,178
191,056	-37,665	-0,158	-0,058
192,071	0,286	-0,290	-0,143
193,086	63,498	-0,211	-0,146
194,100	595,302	-0,180	-0,310
195,115	90,835	-0,269	-0,209
196,129	235,891	-0,164	-0,188
197,144	83,661	-0,331	-0,250
198,159	13,721	-0,200	-0,107
199,173	58,892	-0,177	-0,120
200,188	-18,919	-0,201	-0,086
201,202	30,123	-0,201	-0,119
202,217	30,411	-0,271	-0,160
203,232	2,734	-0,226	-0,113
204,246	517,939	-0,130	-0,211
205,261	34,089	-0,120	-0,072
206,275	-63,297	-0,186	-0,053
207,290	692,472	-0,127	-0,231
208,304	531,779	-0,094	-0,154
209,319	-92,348	-0,331	-0,064
210,334	73,891	-0,251	-0,182
211,348	729,705	-0,174	-0,323
212,363	800,000	-0,083	-0,172
213,377	29,011	-0,131	-0,077
214,392	265,346	-0,141	-0,170
215,407	800,000	-0,044	-0,115
216,421	377,721	-0,061	-0,086
217,436	-5,632	-0,107	-0,051
218,450	129,156	-0,201	-0,177
219,465	181,560	-0,172	-0,175
220,480	147,942	-0,237	-0,221
221,494	-31,392	-0,217	-0,084
222,509	203,412	-0,089	-0,096
223,523	-19,450	-0,142	-0,061
224,538	36,514	-0,058	0,035
225,553	223,906	-0,115	-0,128
226,567	21,847	-0,157	-0,088
227,582	92,085	-0,176	-0,137
228,596	42,077	-0,159	-0,100
229,611	800,000	-0,133	-0,267
230,626	712,040	-0,170	-0,313
231,640	-76,940	-0,285	-0,068
232,655	-112,739	-0,234	-0,032
233,669	168,629	-0,208	-0,204
234,684	705,693	-0,132	-0,241
235,699	800,000	-0,129	-0,274
236,713	-200,000	0,003	-0,146
237,728	250,189	-0,129	-0,152
238,742	376,246	-0,181	-0,256
239,757	169,955	-0,167	-0,165
240,772	-42,994	-0,277	-0,096
241,786	91,889	-0,196	-0,152
242,801	12,943	-0,242	-0,129
243,815	16,647	-0,102	-0,056
244,830	12,398	-0,208	-0,111
245,844	-5,509	-0,168	-0,079
246,859	-115,775	-0,273	0,035
247,874	131,144	-0,177	-0,157
248,888	117,821	-0,219	-0,186
249,903	-84,167	-0,102	-0,022
250,917	-33,344	-0,222	-0,084
251,932	-97,788	-0,065	0,011
252,947	178,416	-0,140	-0,141
253,961	322,405	-0,089	-0,117
254,976	-82,696	-0,330	-0,073
255,990	68,765	-0,269	-0,190
257,005	97,695	-0,137	-0,109
258,020	104,977	-0,176	-0,143
259,034	-29,778	-0,166	-0,065
260,049	35,534	-0,239	-0,144
261,063	800,000	-0,087	-0,186
262,078	303,059	-0,122	-0,155
263,093	56,135	-0,314	-0,209
264,107	166,210	-0,170	-0,166
265,122	-126,526	-0,217	-0,022
266,136	97,478	-0,160	-0,127
267,151	52,389	-0,186	-0,122
268,166	451,164	-0,101	-0,155
269,180	257,237	-0,189	-0,224
270,195	800,000	-0,055	-0,133
271,209	93,066	-0,203	-0,158
272,224	-91,833	-0,141	-0,027
273,239	1,434	-0,051	-0,025
274,253	-200,000	-0,006	-0,195
275,268	148,163	-0,047	-0,043
276,282	41,896	-0,185	-0,115
277,297	7,989	-0,285	-0,147
278,312	35,502	-0,193	-0,117
279,326	1,894	-0,227	-0,112
280,341	372,417	-0,089	-0,124
281,355	-20,001	-0,181	-0,077
282,370	800,000	-0,101	-0,208
283,384	132,532	-0,232	-0,206
284,399	61,496	-0,192	-0,131
285,414	-21,893	-0,194	-0,081
286,428	-16,005	-0,142	-0,062
287,443	-151,811	-0,089	-0,004
288,457	-181,538	-0,228	-0,003
289,472	-61,206	-0,140	0,040
290,487	-171,033	-0,163	0,004
291,501	241,856	-0,093	-0,107
292,516	271,828	-0,090	-0,110
293,530	94,147	-0,128	-0,100
294,545	221,800	-0,131	-0,145
295,560	174,671	-0,188	-0,187
296,574	62,801	-0,194	-0,133
297,589	-32,747	-0,282	-0,107
298,603	-200,000	-0,049	-0,286
299,618	86,708	-0,243	-0,184
300,633	210,008	-0,052	-0,056
301,647	94,618	-0,178	-0,139
302,662	-28,541	-0,031	-0,012
303,676	-200,000	-0,055	-0,184
304,691	309,477	-0,158	-0,203
305,706	228,166	-0,147	-0,164
306,720	15,836	-0,182	-0,098
307,735	800,000	-0,056	-0,121
308,749	554,603	-0,057	-0,094
309,764	-173,279	-0,083	-0,002
310,779	25,303	-0,109	-0,062
311,793	-49,291	-0,129	-0,042
312,808	67,021	-0,212	-0,148
313,822	-145,494	-0,241	0,015
314,837	44,048	-0,173	0,108
315,852	-86,611	-0,107	-0,022
316,866	189,208	-0,150	-0,154
317,881	0,030	-0,158	-0,077
318,895	800,000	-0,062	-0,127
319,910	-200,000	-0,038	-0,199
320,925	-32,237	-0,220	-0,084
321,939	55,509	-0,154	-0,102
322,954	-132,059	-0,177	0,016
323,968	-20,290	-0,083	0,035
324,983	136,857	-0,179	-0,161
325,997	31,438	-0,131	-0,077
327,012	-144,751	-0,056	0,004
328,027	-11,022	-0,070	-0,032
329,041	79,123	-0,216	-0,159
330,056	-23,035	-0,223	-0,092
331,070	-172,588	-0,074	-0,002
332,085	-156,270	-0,159	0,007
333,100	1,800	-0,209	0,103
334,114	-119,081	-0,082	-0,010
335,129	-46,024	-0,185	-0,062
336,143	796,665	-0,114	-0,216
337,158	-124,494	-0,145	0,015
338,173	326,337	-0,048	-0,063
339,187	203,126	-0,129	-0,136
340,202	71,079	-0,156	-0,111
341,216	-148,413	-0,093	-0,005
342,231	131,803	-0,156	-0,137
343,246	-200,000	0,019	-0,195
344,260	235,318	-0,059	-0,067
345,275	-11,557	-0,100	-0,045
346,289	-101,721	-0,118	-0,019
347,304	800,000	-0,034	0,096
348,319	108,629	-0,226	-0,185
349,333	-7,145	-0,114	-0,053
350,348	1,949	-0,287	-0,141
351,362	800,000	-0,049	-0,131
352,377	421,334	-0,050	-0,073
353,392	-200,000	-0,045	-0,146
354,406	65,516	-0,195	-0,135
355,421	207,187	1310,900	1399,315
356,435	159,372	1471,094	1399,756
