DTS Sentinel unit serial number:	SN410029Multiplexer serial number:	ORYXHardware model number:	OX2-SRSoftware version number:	ORYX F/W v4,00 Oryx Data Collector v3.7.2.0data status	okinstallation	B3 Nyhavnadifferential loss correction	single-endedforward channel	channel 1reverse channel	N/Adate	2023/12/02time	09:17:30forward acquisition time	300,00reverse acquisition time	0,00gamma	499,1914k internal	0,3196k external	0,3196temperature offset calibration	1,0000default loss term (dB/km)	0,3820temperature slope calibration	1,0000multiplexer offset coefficient	1,0000multiplexer slope coefficient	1,0000fibre end	0,00T internal ref (°C)	15,16T ext. ref 1 (°C)	-0,24T ext. ref 2 (°C)	-0,25length (m)	temperature (°C)	Stokes	anti-Stokes-744,400	-12,143	-0,306	-0,145
-743,385	-200,000	0,057	0,260
-742,371	84,645	-0,228	-0,182
-741,356	-200,000	0,059	0,316
-740,342	800,000	-0,093	-0,195
-739,327	-200,000	0,031	0,349
-738,312	243,526	-0,215	-0,263
-737,298	-200,000	0,048	0,262
-736,283	278,750	-0,264	-0,344
-735,269	-200,000	0,037	0,367
-734,254	167,162	-0,229	-0,237
-733,239	-51,398	-0,150	0,051
-732,225	26,268	-0,233	-0,141
-731,210	-64,027	0,054	-0,016
-730,196	71,627	-0,079	0,060
-729,181	-200,000	0,007	-0,064
-728,167	-23,833	-0,198	0,086
-727,152	-137,670	-0,074	-0,006
-726,137	465,046	0,042	-0,069
-725,123	-76,908	-0,101	0,025
-724,108	2,729	-0,112	0,059
-723,094	364,151	-0,042	-0,062
-722,079	-200,000	0,026	-0,198
-721,064	-200,000	-0,022	-0,081
-720,050	84,110	0,119	-0,095
-719,035	-85,663	-0,067	-0,015
-718,021	130,202	-0,055	-0,051
-717,006	-107,121	-0,118	0,019
-715,991	-200,000	-0,023	-0,107
-714,977	175,754	-0,064	-0,068
-713,962	31,031	0,029	0,018
-712,948	67,206	-0,055	0,041
-711,933	-6,249	0,064	0,032
-710,918	85,496	-0,090	-0,072
-709,904	87,800	-0,064	-0,052
-708,889	-200,000	-0,019	-0,118
-707,875	207,385	0,113	-0,128
-706,860	800,000	0,024	-0,069
-705,845	800,000	-0,097	-0,228
-704,831	-65,703	0,122	0,035
-703,816	141,507	-0,146	-0,141
-702,802	800,000	-0,005	0,014
-701,787	800,000	-0,063	-0,171
-700,772	476,426	-0,028	-0,046
-699,758	160,579	0,089	-0,090
-698,743	-200,000	0,003	-0,023
-697,729	800,000	0,038	-0,078
-696,714	-200,000	-0,005	0,043
-695,699	-200,000	0,022	-0,080
-694,685	-200,000	-0,019	-0,083
-693,670	-200,000	-0,043	-0,179
-692,656	-200,000	0,002	-0,068
-691,641	-151,980	0,066	0,003
-690,627	17,717	0,147	0,085
-689,612	-200,000	0,002	0,022
-688,597	800,000	-0,042	-0,087
-687,583	587,870	-0,004	0,007
-686,568	536,019	-0,030	-0,053
-685,554	363,332	0,042	-0,062
-684,539	261,016	-0,040	0,051
-683,524	-200,000	-0,030	0,128
-682,510	-64,116	-0,024	-0,007
-681,495	38,722	-0,075	-0,049
-680,481	-200,000	0,029	-0,197
-679,466	-14,514	-0,120	-0,056
-678,451	-150,173	-0,109	-0,006
-677,437	800,000	-0,030	0,085
-676,422	457,517	-0,114	-0,185
-675,408	167,294	0,026	-0,027
-674,393	-127,960	-0,101	-0,010
-673,378	141,616	-0,043	0,042
-672,364	426,490	0,056	-0,088
-671,349	-31,155	-0,091	-0,037
-670,335	800,000	-0,058	-0,124
-669,320	172,954	0,070	-0,074
-668,305	800,000	-0,033	0,070
-667,291	261,251	-0,077	-0,098
-666,276	159,394	-0,065	-0,066
-665,262	-200,000	0,005	-0,036
-664,247	-200,000	0,050	-0,188
-663,232	-200,000	0,011	-0,098
-662,218	743,856	-0,050	-0,099
-661,203	187,143	-0,006	-0,007
-660,189	215,086	-0,065	0,075
-659,174	-7,634	0,128	-0,063
-658,159	-200,000	-0,018	-0,158
-657,145	-105,203	-0,046	0,008
-656,130	-200,000	0,024	0,088
-655,116	-182,327	0,129	0,002
-654,101	-11,841	-0,098	0,047
-653,086	-16,473	-0,057	-0,026
-652,072	-200,000	0,011	0,059
-651,057	211,993	-0,179	-0,205
-650,043	163,088	-0,130	-0,133
-649,028	-107,982	0,051	-0,008
-648,014	505,673	0,019	-0,032
-646,999	-47,600	-0,068	0,024
-645,984	-58,446	0,110	0,034
-644,970	23,145	0,081	-0,048
-643,955	16,546	-0,112	0,064
-642,941	-179,206	0,011	0,000
-641,926	800,000	0,033	-0,069
-640,911	-200,000	-0,018	-0,071
-639,897	75,558	-0,101	0,078
-638,882	-117,261	-0,048	-0,006
-637,868	-200,000	-0,016	-0,096
-636,853	-95,252	-0,125	-0,024
-635,838	-137,627	0,084	0,007
-634,824	-200,000	0,028	-0,122
-633,809	-200,000	-0,019	-0,105
-632,795	-144,570	-0,061	-0,004
-631,780	-70,754	-0,035	-0,009
-630,765	-200,000	-0,020	-0,090
-629,751	-120,010	0,088	-0,011
-628,736	-200,000	-0,057	-0,184
-627,722	800,000	-0,076	-0,167
-626,707	1,544	0,054	-0,028
-625,692	-92,350	-0,084	0,017
-624,678	91,942	-0,030	0,024
-623,663	-200,000	-0,019	-0,103
-622,649	-37,139	-0,054	-0,021
-621,634	-96,433	-0,006	-0,001
-620,619	79,580	-0,054	0,042
-619,605	-200,000	-0,037	0,128
-618,590	-200,000	0,007	0,034
-617,576	800,000	0,024	0,053
-616,561	-200,000	0,004	-0,025
-615,546	-198,040	-0,028	-0,000
-614,532	381,805	0,063	0,094
-613,517	76,649	0,055	-0,042
-612,503	800,000	-0,023	-0,055
-611,488	244,252	0,087	0,106
-610,474	-29,804	-0,160	-0,066
-609,459	800,000	0,017	0,046
-608,444	32,511	-0,105	-0,066
-607,430	-200,000	-0,017	-0,093
-606,415	-200,000	0,002	-0,152
-605,401	-76,271	0,016	0,004
-604,386	-200,000	0,013	0,165
-603,371	179,393	0,148	-0,157
-602,357	800,000	-0,049	-0,100
-601,342	-132,464	-0,195	-0,018
-600,328	800,000	0,012	0,025
-599,313	28,586	0,092	-0,056
-598,298	800,000	0,015	0,042
-597,284	239,968	0,030	0,036
-596,269	478,420	0,078	-0,128
-595,255	-200,000	0,001	-0,027
-594,240	150,047	-0,070	0,069
-593,225	800,000	0,026	0,064
-592,211	-50,608	-0,134	-0,045
-591,196	800,000	0,012	0,027
-590,182	-104,353	0,046	-0,008
-589,167	131,866	-0,034	-0,031
-588,152	18,427	-0,084	-0,049
-587,138	-65,559	-0,141	-0,041
-586,123	158,988	-0,057	-0,057
-585,109	-39,198	0,059	-0,022
-584,094	-73,646	-0,082	0,022
-583,079	-61,778	-0,041	-0,012
-582,065	-5,000	-0,100	-0,050
-581,050	70,101	0,054	-0,040
-580,036	426,059	-0,051	-0,080
-579,021	-40,890	0,026	-0,010
-578,006	162,049	-0,114	-0,115
-576,992	-200,000	0,027	-0,137
-575,977	127,790	-0,063	0,058
-574,963	-62,003	0,197	0,059
-573,948	-200,000	0,008	-0,035
-572,934	-157,253	0,025	-0,001
-571,919	186,513	-0,139	0,150
-570,904	724,221	0,032	-0,061
-569,890	800,000	-0,040	0,088
-568,875	800,000	0,040	0,103
-567,861	327,484	-0,078	0,109
-566,846	-129,457	0,034	-0,003
-565,831	433,420	0,070	-0,111
-564,817	800,000	-0,042	0,128
-563,802	-70,559	-0,107	-0,029
-562,788	116,398	0,074	-0,066
-561,773	-200,000	0,000	-0,006
-560,758	-0,886	-0,112	-0,057
-559,744	-200,000	-0,024	-0,095
-558,729	800,000	-0,033	-0,081
-557,715	-153,194	-0,025	0,001
-556,700	-11,142	-0,059	0,028
-555,685	-200,000	0,017	-0,149
-554,671	-94,593	-0,112	-0,022
-553,656	-200,000	0,008	0,046
-552,642	78,529	-0,068	0,053
-551,627	-200,000	-0,012	0,063
-550,612	58,608	-0,051	0,036
-549,598	97,413	0,099	0,082
-548,583	119,328	-0,094	-0,084
-547,569	800,000	-0,017	-0,038
-546,554	-200,000	0,017	0,110
-545,539	800,000	0,046	0,095
-544,525	494,623	-0,089	-0,149
-543,510	45,286	-0,106	-0,071
-542,496	-166,824	-0,189	-0,006
-541,481	-153,742	0,017	0,001
-540,466	-200,000	-0,002	-0,118
-539,452	389,990	0,062	-0,094
-538,437	146,981	-0,037	0,036
-537,423	-177,247	0,113	-0,002
-536,408	-137,585	-0,090	-0,007
-535,393	-66,904	-0,029	-0,008
-534,379	800,000	-0,045	-0,128
-533,364	-40,403	-0,098	0,037
-532,350	800,000	0,098	0,236
-531,335	-200,000	-0,006	0,133
-530,321	-200,000	-0,009	0,091
-529,306	800,000	0,052	0,148
-528,291	-200,000	0,012	-0,082
-527,277	135,859	0,015	-0,014
-526,262	-92,849	-0,083	0,017
-525,248	72,606	-0,056	0,042
-524,233	-200,000	0,018	0,117
-523,218	773,725	-0,082	0,163
-522,204	-200,000	-0,008	0,064
-521,189	34,850	-0,044	0,028
-520,175	-167,139	-0,177	-0,005
-519,160	800,000	0,026	-0,067
-518,145	-70,975	-0,064	0,017
-517,131	33,562	0,031	0,019
-516,116	-94,836	0,037	-0,007
-515,102	-200,000	-0,012	-0,062
-514,087	800,000	0,041	0,096
-513,072	-200,000	-0,002	-0,027
-512,058	-200,000	0,017	-0,098
-511,043	800,000	-0,029	-0,058
-510,029	800,000	0,028	-0,089
-509,014	-168,476	0,075	0,002
-507,999	-200,000	-0,015	0,064
-506,985	-200,000	0,024	0,094
-505,970	754,460	-0,026	0,051
-504,956	-200,000	0,005	-0,116
-503,941	800,000	0,028	-0,067
-502,926	441,328	0,124	0,196
-501,912	-43,225	-0,068	0,025
-500,897	205,576	-0,051	-0,057
-499,883	-200,000	-0,020	0,086
-498,868	-61,545	-0,068	0,020
-497,853	-200,000	-0,008	0,078
-496,839	48,760	0,073	0,050
-495,824	43,331	0,052	0,034
-494,810	-200,000	-0,008	-0,068
-493,795	2,555	0,057	0,030
-492,781	75,672	0,044	0,034
-491,766	-200,000	-0,016	0,064
-490,751	-200,000	0,003	0,023
-489,737	-200,000	-0,017	-0,070
-488,722	800,000	-0,026	0,061
-487,708	-200,000	-0,024	-0,104
-486,693	259,034	0,045	0,056
-485,678	125,573	-0,106	-0,097
-484,664	-122,718	0,117	0,013
-483,649	111,692	-0,032	-0,028
-482,635	239,325	-0,093	-0,112
-481,620	-109,456	0,131	0,020
-480,605	-163,545	0,053	-0,002
-479,591	-88,725	0,057	0,012
-478,576	282,371	-0,069	-0,090
-477,562	-21,898	-0,108	-0,047
-476,547	-200,000	0,003	-0,025
-475,532	-107,945	-0,130	-0,020
-474,518	-79,033	0,090	0,022
-473,503	-90,743	-0,022	0,005
-472,489	221,425	0,057	-0,067
-471,474	-33,778	-0,129	-0,051
-470,459	14,468	0,014	-0,008
-469,445	-77,747	-0,020	-0,005
-468,430	-200,000	0,006	0,039
-467,416	256,401	-0,051	0,063
-466,401	329,381	0,020	-0,028
-465,386	219,291	0,023	0,027
-464,372	-200,000	0,029	0,124
-463,357	155,659	0,045	0,044
-462,343	-127,450	0,074	0,008
-461,328	-200,000	0,034	-0,115
-460,313	-200,000	-0,005	-0,065
-459,299	333,566	-0,008	0,011
-458,284	-20,693	-0,060	0,026
-457,270	166,896	0,044	-0,045
-456,255	277,462	-0,071	0,091
-455,241	800,000	0,038	0,088
-454,226	-74,775	0,127	-0,033
-453,211	2,059	0,059	0,031
-452,197	-9,171	0,124	0,059
-451,182	55,775	0,120	0,083
-450,168	229,633	0,118	0,139
-449,153	75,016	0,015	0,011
-448,138	-95,342	0,053	0,010
-447,124	-131,456	-0,055	-0,005
-446,109	-0,659	0,044	-0,022
-445,095	127,124	0,076	0,069
-444,080	-100,608	0,155	-0,027
-443,065	-88,774	0,057	-0,012
-442,051	135,591	0,067	0,062
-441,036	-200,000	-0,022	-0,091
-440,022	90,155	-0,044	-0,035
-439,007	-13,524	-0,046	0,022
-437,992	800,000	-0,012	-0,037
-436,978	-89,106	0,015	-0,003
-435,963	61,325	0,042	-0,030
-434,949	-58,341	-0,092	-0,029
-433,934	-42,277	0,073	-0,027
-432,919	123,159	0,048	0,043
-431,905	-200,000	-0,004	0,066
-430,890	656,317	0,031	0,057
-429,876	15,121	0,094	0,053
-428,861	-200,000	-0,027	0,086
-427,846	-200,000	-0,009	0,072
-426,832	-164,518	-0,128	-0,004
-425,817	371,142	-0,034	0,049
-424,803	244,060	0,120	-0,145
-423,788	-80,784	0,112	0,027
-422,773	212,766	0,131	0,149
-421,759	762,938	-0,104	0,204
-420,744	139,102	0,076	0,072
-419,730	80,022	0,020	0,015
-418,715	-54,580	-0,145	0,047
-417,701	149,834	-0,081	-0,079
-416,686	-9,767	0,120	-0,057
-415,671	119,664	-0,076	-0,067
-414,657	84,538	0,149	0,117
-413,642	800,000	0,017	-0,052
-412,628	-108,678	-0,226	0,035
-411,613	369,358	-0,031	-0,046
-410,598	72,910	0,080	-0,060
-409,584	109,111	-0,092	0,079
-408,569	-30,752	0,041	0,017
-407,555	-200,000	0,011	0,061
-406,540	-200,000	-0,001	-0,098
-405,525	86,929	0,050	0,040
-404,511	800,000	-0,067	-0,149
-403,496	42,477	-0,099	-0,065
-402,482	34,280	0,050	0,031
-401,467	-91,393	0,150	0,031
-400,452	17,775	0,067	0,038
-399,438	-90,040	0,087	-0,018
-398,423	251,461	0,027	0,034
-397,409	-12,479	-0,126	-0,059
-396,394	-32,439	0,035	0,014
-395,379	-200,000	-0,028	0,142
-394,365	283,899	-0,034	-0,044
-393,350	351,556	-0,072	0,103
-392,336	-38,844	-0,057	-0,021
-391,321	-82,385	-0,149	0,035
-390,306	376,416	-0,053	-0,079
-389,292	-53,452	-0,089	0,029
-388,277	-90,031	0,145	-0,030
-387,263	54,639	0,034	0,023
-386,248	-200,000	-0,028	0,100
-385,233	800,000	-0,065	0,136
-384,219	113,827	-0,050	0,044
-383,204	349,972	-0,070	-0,100
-382,190	-9,378	0,022	0,010
-381,175	203,497	-0,071	0,079
-380,160	49,793	0,071	0,048
-379,146	-21,181	0,009	-0,004
-378,131	511,967	0,059	0,099
-377,117	800,000	0,029	-0,065
-376,102	449,857	-0,015	0,024
-375,088	-72,061	-0,023	-0,006
-374,073	442,014	-0,063	-0,099
-373,058	-84,415	0,088	-0,020
-372,044	-113,916	0,103	0,014
-371,029	512,037	-0,059	-0,100
-370,015	421,873	-0,023	-0,035
-369,000	800,000	-0,028	-0,084
-367,985	97,968	0,097	0,080
-366,971	68,672	-0,011	-0,008
-365,956	41,474	-0,068	-0,044
-364,942	-74,711	0,207	-0,053
-363,927	426,331	0,113	0,175
-362,912	-86,308	-0,073	0,016
-361,898	467,186	0,090	0,145
-360,883	-200,000	0,002	0,018
-359,869	-200,000	-0,038	0,135
-358,854	0,757	0,082	-0,042
-357,839	800,000	0,014	0,029
-356,825	2,770	0,149	0,077
-355,810	397,063	-0,091	0,136
-354,796	471,877	-0,054	-0,087
-353,781	-200,000	0,004	-0,078
-352,766	-200,000	-0,016	-0,065
-351,752	138,055	0,036	0,034
-350,737	-200,000	-0,008	-0,055
-349,723	-62,887	0,071	-0,021
-348,708	289,254	-0,071	-0,093
-347,693	-200,000	-0,049	-0,162
-346,679	-150,316	0,011	0,001
-345,664	272,574	0,048	-0,061
-344,650	-200,000	0,024	0,092
-343,635	113,696	0,101	-0,088
-342,620	186,774	0,056	-0,060
-341,606	-129,331	0,195	0,019
-340,591	116,294	0,077	-0,067
-339,577	-41,332	0,027	-0,010
-338,562	-123,880	0,074	0,008
-337,548	183,715	-0,068	-0,072
-336,533	-200,000	-0,023	-0,092
-335,518	-200,000	0,009	-0,038
-334,504	134,084	0,085	0,079
-333,489	-18,684	-0,047	-0,021
-332,475	800,000	0,089	-0,179
-331,460	800,000	-0,022	0,050
-330,445	-28,263	-0,078	0,032
-329,431	800,000	-0,025	0,073
-328,416	-200,000	0,037	0,151
-327,402	206,658	-0,003	0,004
-326,387	-200,000	0,007	0,142
-325,372	800,000	0,030	-0,072
-324,358	-200,000	-0,002	-0,103
-323,343	-3,886	-0,087	-0,043
-322,329	-200,000	-0,002	0,044
-321,314	58,768	0,084	-0,059
-320,299	32,194	-0,043	0,026
-319,285	24,832	-0,030	-0,018
-318,270	-87,187	0,062	0,013
-317,256	69,910	-0,071	0,052
-316,241	312,924	-0,058	-0,079
-315,226	4,739	0,194	0,102
-314,212	13,656	0,029	0,016
-313,197	-138,084	-0,047	0,004
-312,183	-200,000	0,013	0,121
-311,168	-145,697	-0,144	0,009
-310,153	-28,255	0,127	-0,052
-309,139	-200,000	0,004	-0,080
-308,124	800,000	0,013	-0,036
-307,110	15,298	0,074	-0,041
-306,095	-200,000	0,018	-0,089
-305,080	488,352	-0,071	0,116
-304,066	10,834	-0,045	0,025
-303,051	115,167	-0,136	-0,119
-302,037	-88,163	0,120	-0,026
-301,022	54,619	0,109	-0,075
-300,008	-200,000	0,007	-0,022
-298,993	-106,824	0,048	-0,008
-297,978	-200,000	-0,004	-0,103
-296,964	611,091	-0,055	-0,099
-295,949	-111,259	-0,111	-0,016
-294,935	-104,356	0,134	-0,022
-293,920	555,663	0,076	-0,132
-292,905	-80,209	0,057	0,014
-291,891	213,124	0,207	-0,234
-290,876	183,952	-0,052	-0,055
-289,862	-8,070	0,106	0,051
-288,847	-142,467	-0,087	0,006
-287,832	35,156	-0,087	-0,054
-286,818	-200,000	-0,019	0,100
-285,803	-200,000	0,004	-0,100
-284,789	743,239	0,069	-0,133
-283,774	160,831	-0,065	0,065
-282,759	349,017	0,050	-0,070
-281,745	800,000	-0,030	0,063
-280,730	66,145	-0,156	-0,113
-279,716	22,847	0,084	-0,049
-278,701	580,428	0,038	-0,067
-277,686	-14,428	-0,166	0,076
-276,672	196,936	0,011	0,012
-275,657	208,428	-0,031	0,035
-274,643	606,773	-0,011	0,019
-273,628	178,222	-0,038	-0,039
-272,613	-84,038	0,075	-0,017
-271,599	-200,000	-0,004	0,038
-270,584	-200,000	0,013	0,177
-269,570	52,559	-0,075	0,051
-268,555	-200,000	-0,029	0,116
-267,540	-176,012	-0,072	-0,001
-266,526	278,988	-0,016	-0,021
-265,511	6,432	0,059	0,031
-264,497	56,469	0,100	0,069
-263,482	-32,033	0,132	-0,053
-262,467	-200,000	0,009	0,129
-261,453	359,001	0,057	0,082
-260,438	-0,861	-0,068	-0,035
-259,424	194,138	0,045	0,049
-258,409	-51,347	0,063	-0,021
-257,395	295,996	0,053	0,070
-256,380	749,605	-0,023	0,045
-255,365	147,818	0,083	0,080
-254,351	-200,000	-0,007	0,173
-253,336	-64,705	-0,068	-0,020
-252,322	-200,000	0,001	0,031
-251,307	800,000	0,023	0,055
-250,292	34,733	-0,043	0,027
-249,278	73,110	0,088	0,066
-248,263	127,878	0,042	0,038
-247,249	8,785	0,197	-0,106
-246,234	47,380	-0,093	-0,062
-245,219	-200,000	0,039	-0,126
-244,205	-87,956	-0,089	0,019
-243,190	800,000	-0,027	0,072
-242,176	123,488	-0,008	0,007
-241,161	16,367	0,069	0,039
-240,146	-93,331	-0,058	0,011
-239,132	-74,627	-0,119	-0,030
-238,117	106,138	0,043	-0,037
-237,103	252,293	-0,058	-0,071
-236,088	-17,540	-0,136	-0,061
-235,073	135,157	-0,097	0,090
-234,059	800,000	0,006	-0,015
-233,044	-71,808	0,110	-0,029
-232,030	-50,560	0,011	-0,004
-231,015	305,800	-0,041	0,055
-230,000	800,000	0,007	-0,018
-228,986	-57,479	-0,115	0,036
-227,971	-74,086	0,030	-0,008
-226,957	644,333	0,113	0,207
-225,942	600,593	-0,048	-0,085
-224,927	-200,000	0,030	0,103
-223,913	-33,630	-0,121	-0,048
-222,898	142,019	-0,059	0,056
-221,884	45,822	0,132	-0,087
-220,869	-133,734	-0,158	0,014
-219,855	45,820	0,025	-0,016
-218,840	-69,972	0,149	0,040
-217,825	-200,000	0,063	0,000
-216,811	153,413	-0,072	0,071
-215,796	-200,000	-0,006	0,028
-214,782	115,080	-0,040	0,035
-213,767	-87,594	0,038	-0,008
-212,752	-200,000	-0,021	-0,159
-211,738	-114,069	0,149	-0,020
-210,723	800,000	-0,032	0,075
-209,709	-200,000	0,004	-0,019
-208,694	-8,208	-0,041	0,020
-207,679	-171,449	-0,153	0,004
-206,665	215,696	-0,014	0,016
-205,650	-83,389	0,041	-0,009
-204,636	-200,000	0,010	0,083
-203,621	-200,000	0,004	-0,017
-202,606	800,000	-0,037	-0,097
-201,592	465,925	-0,011	-0,017
-200,577	516,430	0,044	-0,074
-199,563	308,087	-0,046	0,062
-198,548	193,700	-0,040	0,043
-197,533	202,124	0,077	0,085
-196,519	-200,000	0,002	0,085
-195,504	-164,247	-0,158	-0,005
-194,490	0,091	-0,008	-0,004
-193,475	-94,482	0,130	-0,025
-192,460	-90,823	-0,075	0,015
-191,446	377,234	0,052	0,076
-190,431	374,676	-0,102	-0,149
-189,417	800,000	0,044	0,098
-188,402	293,031	0,096	0,125
-187,387	325,317	0,075	-0,102
-186,373	-126,289	-0,132	-0,014
-185,358	-200,000	-0,048	-0,156
-184,344	800,000	0,031	-0,089
-183,329	-45,291	0,113	0,040
-182,315	-21,037	0,094	0,041
-181,300	-53,690	-0,094	0,030
-180,285	-200,000	0,005	-0,027
-179,271	-139,065	0,088	0,007
-178,256	-200,000	0,054	-0,214
-177,242	-24,851	0,095	0,040
-176,227	-80,277	0,107	0,025
-175,212	800,000	-0,064	0,153
-174,198	65,126	0,011	-0,008
-173,183	-200,000	-0,004	-0,019
-172,169	800,000	-0,014	0,044
-171,154	778,304	-0,039	0,075
-170,139	-200,000	-0,016	0,129
-169,125	-11,845	0,224	0,104
-168,110	329,209	-0,011	-0,015
-167,096	-33,444	0,079	0,031
-166,081	257,423	-0,023	0,029
-165,066	800,000	-0,060	-0,149
-164,052	148,414	0,160	-0,154
-163,037	-78,991	-0,131	0,031
-162,023	373,446	-0,062	0,091
-161,008	800,000	-0,027	-0,084
-159,993	-71,605	0,054	0,014
-158,979	-200,000	-0,012	-0,122
-157,964	800,000	0,073	-0,190
-156,950	127,207	-0,047	0,043
-155,935	175,896	-0,117	0,121
-154,920	71,923	-0,058	0,043
-153,906	185,728	-0,022	0,023
-152,891	-21,093	-0,109	-0,047
-151,877	221,997	0,078	0,090
-150,862	-200,000	-0,006	-0,073
-149,847	-165,933	-0,099	-0,003
-148,833	284,016	0,092	0,118
-147,818	800,000	-0,013	0,028
-146,804	-123,042	0,115	-0,013
-145,789	-68,704	-0,136	0,037
-144,775	-200,000	-0,016	-0,088
-143,760	-200,000	-0,111	0,000
-142,745	-50,969	-0,078	0,026
-141,731	-80,658	0,080	0,019
-140,716	95,388	0,121	-0,098
-139,702	-200,000	0,000	0,006
-138,687	657,621	-0,018	0,032
-137,672	33,675	-0,064	-0,040
-136,658	-77,045	-0,092	0,023
-135,643	105,749	-0,020	-0,017
-134,629	261,006	-0,082	-0,101
-133,614	-2,113	0,121	-0,060
-132,599	-200,000	0,002	0,051
-131,585	-200,000	0,015	0,098
-130,570	165,837	-0,040	0,041
-129,556	-200,000	0,003	0,108
-128,541	-8,395	0,155	-0,074
-127,526	800,000	-0,017	0,049
-126,512	595,504	-0,030	-0,054
-125,497	-18,210	0,056	0,025
-124,483	204,400	0,046	0,051
-123,468	138,014	-0,057	0,054
-122,453	-200,000	0,005	-0,048
-121,439	-89,198	0,075	-0,016
-120,424	-200,000	-0,011	0,091
-119,410	733,690	-0,024	0,046
-118,395	287,238	0,041	0,052
-117,380	177,354	0,036	-0,037
-116,366	405,149	-0,067	-0,101
-115,351	91,061	-0,072	-0,057
-114,337	41,147	0,102	0,066
-113,322	-32,496	-0,192	-0,076
-112,307	-200,000	0,013	0,061
-111,293	12,175	-0,073	0,040
-110,278	-200,000	0,017	0,136
-109,264	41,150	0,092	0,059
-108,249	-38,240	0,129	-0,048
-107,234	-200,000	-0,011	-0,128
-106,220	800,000	0,029	0,081
-105,205	260,692	0,015	0,018
-104,191	-36,651	0,043	-0,017
-103,176	468,886	-0,011	-0,017
-102,162	-161,137	0,119	-0,004
-101,147	-131,439	0,198	0,018
-100,132	800,000	0,018	-0,043
-99,118	-108,894	0,046	-0,007
-98,103	-89,791	-0,034	0,007
-97,089	-104,233	0,161	0,026
-96,074	64,906	-0,119	0,085
-95,059	55,860	-0,046	0,031
-94,045	-37,975	-0,127	-0,048
-93,030	800,000	-0,035	-0,075
-92,016	66,956	0,078	-0,056
-91,001	-64,860	0,047	0,013
-89,986	266,208	0,047	0,059
-88,972	269,376	0,074	0,092
-87,957	800,000	0,010	-0,022
-86,943	800,000	-0,016	0,032
-85,928	-200,000	0,030	0,102
-84,913	27,577	-0,029	-0,017
-83,899	21,096	0,041	0,024
-82,884	-200,000	0,022	0,079
-81,870	-200,000	0,014	0,149
-80,855	-9,903	0,022	0,010
-79,840	-200,000	0,018	-0,126
-78,826	-200,000	-0,026	0,113
-77,811	-12,375	-0,113	-0,052
-76,797	-200,000	0,007	0,095
-75,782	187,879	0,055	0,058
-74,767	0,982	-0,058	0,029
-73,753	-200,000	0,023	0,166
-72,738	800,000	-0,030	0,091
-71,724	-200,000	-0,007	-0,128
-70,709	232,830	0,031	-0,037
-69,694	800,000	0,061	0,141
-68,680	-140,950	-0,040	0,003
-67,665	-19,361	-0,013	0,006
-66,651	-200,000	-0,005	0,162
-65,636	-39,683	-0,133	-0,049
-64,622	-200,000	0,010	-0,053
-63,607	-200,000	0,004	0,021
-62,592	49,536	0,121	-0,081
-61,578	155,457	0,056	0,055
-60,563	-45,850	0,064	0,022
-59,549	800,000	-0,035	0,104
-58,534	-22,212	-1,507	-0,646
-57,519	366,717	-1,576	-2,262
-56,505	-200,000	-0,532	-4,462
-55,490	144,553	0,945	0,896
-54,476	800,000	4,790	11,378
-53,461	-200,000	18,129	286,247
-52,446	800,000	726,719	2225,570
-51,432	556,643	1642,339	2817,198
-50,417	79,406	1663,862	1264,132
-49,403	23,032	1537,704	892,254
-48,388	17,020	1460,836	818,529
-47,373	17,968	1450,815	817,449
-46,359	17,384	1441,510	809,380
-45,344	15,315	1436,651	796,739
-44,330	15,193	1434,705	795,047
-43,315	15,263	1432,918	794,357
-42,300	15,215	1431,479	793,299
-41,286	15,280	1430,142	792,840
-40,271	15,220	1428,990	791,882
-39,257	15,208	1427,740	791,102
-38,242	15,263	1426,471	790,630
-37,227	15,287	1425,086	789,944
-36,213	15,288	1423,710	789,152
-35,198	15,265	1422,667	788,437
-34,184	15,304	1421,771	788,090
-33,169	15,244	1420,352	786,989
-32,154	15,297	1419,523	786,748
-31,140	15,288	1418,029	785,850
-30,125	15,315	1417,016	785,384
-29,111	15,290	1415,778	784,546
-28,096	15,249	1414,682	783,717
-27,082	15,184	1413,858	782,924
-26,067	15,141	1412,705	782,052
-25,052	15,202	1411,509	781,646
-24,038	15,109	1410,832	780,802
-23,023	15,174	1409,425	780,299
-22,009	15,145	1408,672	779,715
-20,994	15,120	1407,857	779,113
-19,979	15,115	1406,783	778,467
-18,965	15,140	1405,726	777,965
-17,950	15,154	1404,562	777,357
-16,936	15,141	1403,826	776,860
-15,921	15,134	1402,550	776,088
-14,906	15,089	1401,797	775,430
-13,892	15,045	1400,926	774,714
-12,877	15,062	1400,150	774,334
-11,863	15,097	1399,072	773,869
-10,848	15,021	1398,481	773,158
-9,833	15,052	1397,097	772,508
-8,819	14,998	1396,503	771,896
-7,804	14,980	1395,554	771,260
-6,790	15,028	1394,416	770,822
-5,775	15,028	1393,156	770,096
-4,760	14,988	1392,427	769,478
-3,746	15,026	1391,661	769,199
-2,731	14,955	1390,903	768,420
-1,717	14,959	1390,134	767,985
-0,702	14,970	1388,152	766,907
0,313	18,762	1307,810	740,086
1,327	35,245	707,271	438,510
2,342	54,225	124,880	85,036
3,356	4,307	16,637	8,610
4,371	7,516	3,190	1,685
5,386	-108,066	0,714	0,109
6,400	613,970	0,085	0,151
7,415	26,909	-0,329	-0,195
8,429	17,823	-0,402	-0,226
9,444	591,685	-0,225	-0,396
10,459	133,705	-0,230	-0,211
11,473	-27,552	-0,343	-0,140
12,488	205,106	-0,219	-0,241
13,502	-4,019	-0,302	-0,148
14,517	34,925	-0,337	-0,209
15,531	30,469	-0,416	-0,251
16,546	-53,733	-0,290	-0,093
17,561	611,802	-0,231	-0,410
18,575	-92,033	-0,209	-0,042
19,590	323,854	-0,185	-0,250
20,604	-48,120	-0,131	-0,045
21,619	33,687	-0,408	-0,250
22,634	42,709	-0,377	-0,242
23,648	57,813	-0,419	-0,289
24,663	180,790	-0,371	-0,385
25,677	120,845	-0,244	-0,215
26,692	156,263	-0,311	-0,303
27,707	-36,425	-0,408	-0,154
28,721	102,553	-0,424	-0,350
29,736	87,369	-0,428	-0,335
30,750	40,360	-0,372	-0,236
31,765	43,413	-0,405	-0,261
32,780	94,736	-0,436	-0,350
33,794	-18,904	-0,310	-0,136
34,809	32,964	-0,507	-0,310
35,823	326,443	-0,311	-0,422
36,838	685,965	-0,267	-0,494
37,853	230,510	-0,321	-0,372
38,867	140,364	-0,323	-0,302
39,882	152,296	-0,302	-0,291
40,896	67,352	-0,335	-0,241
41,911	96,944	-0,270	-0,218
42,926	84,812	-0,369	-0,285
43,940	406,787	-0,312	-0,467
44,955	95,644	-0,258	-0,208
45,969	221,543	-0,288	-0,327
46,984	119,277	-0,291	-0,254
47,999	-34,782	-0,510	-0,196
49,013	27,309	-0,313	-0,185
50,028	27,733	-0,327	-0,194
51,042	255,178	-0,281	-0,340
52,057	89,900	-0,392	-0,308
53,071	89,652	-0,294	-0,231
54,086	129,176	-0,249	-0,224
55,101	341,401	-0,161	-0,222
56,115	-49,245	-0,394	-0,132
57,130	83,381	-0,342	-0,263
58,144	-15,862	-0,407	-0,182
59,159	3,690	-0,408	-0,209
60,174	29,388	-0,314	-0,188
61,188	-11,425	-0,333	-0,154
62,203	-59,725	-0,446	-0,134
63,217	249,214	-0,206	-0,246
64,232	109,910	-0,329	-0,278
65,247	60,375	-0,344	-0,240
66,261	206,238	-0,238	-0,262
67,276	130,330	-0,357	-0,322
68,290	-19,083	-0,280	-0,122
69,305	30,149	-0,250	-0,150
70,320	95,051	-0,228	-0,183
71,334	132,768	-0,237	-0,215
72,349	-80,813	-0,252	-0,059
73,363	90,011	-0,334	-0,263
74,378	-59,767	-0,383	-0,115
75,393	9,388	-0,400	-0,212
76,407	328,887	-0,272	-0,369
77,422	9,079	-0,295	-0,157
78,436	-20,399	-0,300	-0,129
79,451	-100,885	-0,361	-0,062
80,466	205,808	-0,280	-0,307
81,480	53,767	-0,398	-0,269
82,495	70,722	-0,335	-0,244
83,509	80,541	-0,228	-0,172
84,524	800,000	-0,116	-0,241
85,539	73,465	-0,196	-0,144
86,553	69,669	-0,346	-0,250
87,568	462,990	-0,163	-0,256
88,582	89,248	-0,371	-0,290
89,597	57,221	-0,328	-0,224
90,611	14,887	-0,358	-0,197
91,626	43,826	-0,261	-0,167
92,641	23,023	-0,315	-0,181
93,655	12,795	-0,311	-0,168
94,670	63,563	-0,235	-0,165
95,684	31,587	-0,424	-0,256
96,699	-70,123	-0,386	-0,102
97,714	71,101	-0,201	-0,147
98,728	84,453	-0,247	-0,189
99,743	66,583	-0,301	-0,214
100,757	266,062	-0,176	-0,216
101,772	478,557	-0,195	-0,311
102,787	55,192	-0,307	-0,208
103,801	144,545	-0,302	-0,284
104,816	16,129	-0,285	-0,158
105,830	3,191	-0,206	-0,105
106,845	94,580	-0,189	-0,151
107,860	18,205	-0,313	-0,175
108,874	504,357	-0,197	-0,321
109,889	192,769	-0,177	-0,187
110,903	-71,535	-0,263	-0,069
111,918	561,833	-0,151	-0,258
112,933	107,017	-0,178	-0,149
113,947	71,308	-0,321	-0,233
114,962	186,984	-0,234	-0,245
115,976	68,555	-0,277	-0,199
116,991	297,063	-0,195	-0,252
118,006	103,624	-0,224	-0,184
119,020	44,482	-0,356	-0,229
120,035	53,647	-0,350	-0,235
121,049	34,090	-0,214	-0,131
122,064	3,040	-0,239	-0,122
123,079	369,029	-0,190	-0,270
124,093	58,722	-0,193	-0,133
125,108	59,530	-0,249	-0,172
126,122	7,716	-0,299	-0,157
127,137	-31,536	-0,281	-0,110
128,151	180,824	-0,195	-0,201
129,166	612,298	-0,149	-0,263
130,181	47,564	-0,189	-0,123
131,195	76,329	-0,381	-0,283
132,210	218,006	-0,211	-0,236
133,224	-48,403	-0,248	-0,083
134,239	66,507	-0,310	-0,221
135,254	38,464	-0,292	-0,182
136,268	52,863	-0,210	-0,141
137,283	54,111	-0,218	-0,147
138,297	36,712	-0,262	-0,162
139,312	160,931	-0,168	-0,165
140,327	-62,708	-0,279	-0,080
141,341	96,702	-0,302	-0,242
142,356	-7,374	-0,276	-0,131
143,370	40,816	-0,248	-0,156
144,385	-23,093	-0,333	-0,140
145,400	78,948	-0,274	-0,205
146,414	45,615	-0,337	-0,218
147,429	-35,495	-0,294	-0,111
148,443	12,941	-0,208	-0,112
149,458	-16,083	-0,354	-0,157
150,473	90,624	-0,278	-0,218
151,487	-33,535	-0,329	-0,127
152,502	59,706	-0,206	-0,142
153,516	146,985	-0,233	-0,220
154,531	137,816	-0,217	-0,199
155,546	90,662	-0,270	-0,211
156,560	215,325	-0,176	-0,196
157,575	-24,203	-0,308	-0,128
158,589	-71,505	-0,271	-0,070
159,604	210,988	-0,232	-0,255
160,619	-44,212	-0,303	-0,106
161,633	90,762	-0,307	-0,240
162,648	174,651	-0,230	-0,232
163,662	402,108	-0,188	-0,277
164,677	79,850	-0,341	-0,256
165,692	25,887	-0,237	-0,137
166,706	52,055	-0,267	-0,178
167,721	-2,303	-0,314	-0,153
168,735	25,108	-0,276	-0,159
169,750	73,243	-0,341	-0,249
170,764	354,420	-0,158	-0,220
171,779	-59,199	-0,204	-0,061
172,794	-54,918	-0,251	-0,078
173,808	149,671	-0,154	-0,146
174,823	79,631	-0,251	-0,188
175,837	111,842	-0,194	-0,163
176,852	6,908	-0,251	-0,130
177,867	-4,385	-0,187	-0,090
178,881	-52,092	-0,291	-0,094
179,896	266,831	-0,182	-0,222
180,910	26,948	-0,290	-0,169
181,925	-61,585	-0,313	-0,091
182,940	51,913	-0,415	-0,275
183,954	351,709	-0,159	-0,220
184,969	30,807	-0,092	-0,055
185,983	-49,522	-0,254	-0,084
186,998	123,339	-0,248	-0,217
188,013	-200,000	-0,038	-0,166
189,027	110,953	-0,301	-0,253
190,042	-1,942	-0,198	-0,097
191,056	274,611	-0,115	-0,142
192,071	-49,617	-0,377	-0,124
193,086	-71,701	-0,142	-0,037
194,100	-27,260	-0,152	-0,061
195,115	7,412	-0,156	-0,081
196,129	125,056	-0,188	-0,165
197,144	-200,000	-0,106	-0,341
198,159	26,359	-0,384	-0,223
199,173	354,366	-0,203	-0,281
200,188	-37,823	-0,236	-0,087
201,202	-200,000	-0,043	-0,166
202,217	-118,658	-0,051	0,006
203,232	521,979	-0,152	-0,249
204,246	311,532	-0,233	-0,304
205,261	16,609	-0,179	-0,098
206,275	800,000	-0,074	-0,226
207,290	255,454	-0,137	-0,164
208,304	81,788	-0,213	-0,160
209,319	-77,981	-0,282	-0,067
210,334	145,610	-0,176	-0,164
211,348	36,071	-0,284	-0,173
212,363	-1,700	-0,290	-0,141
213,377	-18,798	-0,164	-0,071
214,392	76,818	-0,374	-0,276
215,407	-200,000	-0,037	-0,198
216,421	466,886	-0,096	-0,150
217,436	800,000	-0,124	-0,300
218,450	-48,805	-0,224	-0,074
219,465	210,738	-0,224	-0,245
220,480	-200,000	-0,023	-0,170
221,494	55,563	-0,158	-0,106
222,509	36,063	-0,124	-0,076
223,523	-28,973	-0,188	-0,075
224,538	-15,965	-0,112	-0,049
225,553	121,173	-0,187	-0,161
226,567	164,476	-0,224	-0,220
227,582	800,000	-0,095	-0,272
228,596	5,569	-0,211	-0,108
229,611	-157,495	-0,126	0,005
230,626	265,926	-0,186	-0,226
231,640	-200,000	-0,028	-0,120
232,655	-74,616	-0,268	-0,067
233,669	25,401	-0,187	-0,108
234,684	-104,701	-0,138	-0,022
235,699	-1,114	-0,243	-0,119
236,713	-29,800	-0,221	-0,087
237,728	-13,511	-0,169	-0,076
238,742	-29,617	-0,212	-0,084
239,757	800,000	-0,061	-0,148
240,772	272,738	-0,181	-0,222
241,786	119,250	-0,227	-0,195
242,801	54,219	-0,142	-0,095
243,815	-75,768	-0,153	-0,037
244,830	-20,389	-0,279	-0,118
245,844	24,362	-0,217	-0,124
246,859	-173,156	-0,224	-0,005
247,874	124,543	-0,250	-0,218
248,888	641,438	-0,150	-0,265
249,903	324,013	-0,169	-0,224
250,917	184,272	-0,177	-0,182
251,932	-98,625	-0,110	-0,019
252,947	773,571	-0,063	-0,119
253,961	276,248	-0,117	-0,145
254,976	-163,910	-0,280	-0,009
255,990	16,002	-0,309	-0,168
257,005	99,970	-0,075	-0,060
258,020	-50,590	-0,194	-0,063
259,034	-14,907	-0,182	-0,080
260,049	89,209	-0,241	-0,186
261,063	-81,639	-0,246	-0,056
262,078	0,228	-0,180	-0,089
263,093	159,404	-0,179	-0,172
264,107	-67,109	-0,118	-0,032
265,122	419,556	-0,124	-0,184
266,136	-29,383	-0,121	-0,048
267,151	-105,096	-0,207	0,032
268,166	-23,601	-0,315	-0,130
269,180	211,000	-0,178	-0,194
270,195	133,576	-0,181	-0,162
271,209	97,278	-0,112	-0,089
272,224	264,864	-0,169	-0,205
273,239	800,000	-0,043	-0,096
274,253	302,896	-0,071	-0,091
275,268	-57,047	-0,339	-0,103
276,282	-100,604	-0,053	-0,009
277,297	232,509	-0,177	-0,202
278,312	131,810	-0,218	-0,194
279,326	52,147	-0,190	-0,125
280,341	21,184	-0,183	-0,102
281,355	244,458	-0,121	-0,141
282,370	656,413	-0,129	-0,230
283,384	103,696	-0,126	-0,102
284,399	523,142	-0,135	-0,220
285,414	204,569	-0,054	-0,058
286,428	115,881	-0,136	-0,115
287,443	-74,348	-0,179	-0,044
288,457	7,647	-0,160	-0,082
289,472	-29,368	-0,163	-0,064
290,487	235,003	-0,141	-0,161
291,501	68,263	-0,333	-0,236
292,516	479,081	-0,115	-0,181
293,530	-75,012	-0,143	-0,035
294,545	-2,255	-0,094	-0,045
295,560	-200,000	-0,030	-0,113
296,574	262,728	-0,144	-0,172
297,589	-119,498	-0,205	-0,024
298,603	268,136	-0,076	-0,092
299,618	78,015	-0,169	-0,125
300,633	-31,397	-0,248	0,096
301,647	66,245	-0,188	-0,131
302,662	334,238	-0,065	-0,087
303,676	311,345	-0,093	-0,120
304,691	-94,090	-0,217	-0,041
305,706	421,544	-0,150	-0,222
306,720	307,128	-0,196	-0,252
307,735	134,744	-0,137	-0,122
308,749	-10,743	-0,128	-0,058
309,764	14,396	-0,195	-0,105
310,779	322,777	-0,175	-0,231
311,793	193,216	-0,105	-0,110
312,808	-31,240	-0,209	-0,081
313,822	-180,829	-0,284	0,004
314,837	600,414	-0,032	-0,055
315,852	-129,765	-0,066	-0,006
316,866	800,000	-0,019	-0,044
317,881	-91,878	-0,132	-0,026
318,895	341,634	-0,047	-0,063
319,910	246,724	-0,172	-0,200
320,925	-51,266	-0,199	-0,064
321,939	539,398	-0,090	-0,148
322,954	-34,462	-0,161	0,061
323,968	-200,000	0,014	-0,154
324,983	154,887	-0,256	-0,243
325,997	26,513	-0,188	-0,108
327,012	91,337	-0,172	-0,133
328,027	-9,103	-0,124	-0,057
329,041	228,320	-0,158	-0,178
330,056	45,291	-0,145	-0,092
331,070	18,456	-0,158	-0,087
332,085	89,988	-0,084	0,065
333,100	550,846	-0,116	-0,192
334,114	190,732	-0,099	-0,102
335,129	800,000	-0,104	-0,230
336,143	753,434	-0,107	-0,200
337,158	140,986	-0,139	-0,126
338,173	605,272	-0,135	-0,232
339,187	-146,174	-0,094	0,006
340,202	800,000	-0,101	-0,220
341,216	462,217	-0,159	-0,246
342,231	147,245	-0,120	-0,111
343,246	800,000	-0,056	-0,129
344,260	19,171	-0,153	-0,084
345,275	-62,596	-0,156	0,044
346,289	8,390	-0,148	0,076
347,304	176,202	-0,082	-0,082
348,319	193,778	-0,105	-0,110
349,333	577,747	-0,105	-0,177
350,348	-118,001	-0,091	-0,011
351,362	99,165	-0,164	-0,130
352,377	194,215	-0,032	0,034
353,392	0,089	-0,061	0,030
354,406	-49,606	-0,063	-0,021
355,421	209,783	1312,655	1416,066
356,435	161,476	1473,140	1416,587
