DTS Sentinel unit serial number:	SN410029Multiplexer serial number:	ORYXHardware model number:	OX2-SRSoftware version number:	ORYX F/W v4,00 Oryx Data Collector v3.7.2.0data status	okinstallation	B3 Nyhavnadifferential loss correction	single-endedforward channel	channel 1reverse channel	N/Adate	2023/12/01time	10:32:30forward acquisition time	300,00reverse acquisition time	0,00gamma	499,1914k internal	0,3213k external	0,3213temperature offset calibration	1,0000default loss term (dB/km)	0,3820temperature slope calibration	1,0000multiplexer offset coefficient	1,0000multiplexer slope coefficient	1,0000fibre end	0,00T internal ref (°C)	8,07T ext. ref 1 (°C)	-6,32T ext. ref 2 (°C)	-6,42length (m)	temperature (°C)	Stokes	anti-Stokes-744,400	565,009	-0,162	-0,285
-743,385	215,950	-0,216	0,249
-742,371	533,860	-0,116	-0,201
-741,356	-200,000	-0,008	0,196
-740,342	-41,125	-0,152	-0,057
-739,327	-200,000	-0,019	0,220
-738,312	75,954	-0,289	-0,221
-737,298	239,794	-0,163	0,197
-736,283	73,401	-0,265	-0,201
-735,269	403,882	0,062	0,095
-734,254	363,073	-0,116	-0,169
-733,239	-104,034	-0,157	0,026
-732,225	-200,000	0,016	-0,255
-731,210	800,000	0,105	0,258
-730,196	-200,000	-0,007	-0,027
-729,181	23,922	-0,127	-0,076
-728,167	800,000	0,047	-0,134
-727,152	-200,000	-0,012	0,054
-726,137	-105,514	-0,129	-0,021
-725,123	23,717	0,142	-0,085
-724,108	-200,000	-0,042	-0,150
-723,094	-55,062	-0,162	0,052
-722,079	-200,000	0,032	-0,178
-721,064	91,754	-0,050	0,040
-720,050	-157,401	-0,020	-0,001
-719,035	245,491	0,051	0,062
-718,021	-2,447	-0,071	0,036
-717,006	-200,000	0,003	0,066
-715,991	105,256	-0,084	-0,072
-714,977	-200,000	0,014	-0,056
-713,962	196,537	-0,064	0,070
-712,948	-200,000	0,015	-0,063
-711,933	-200,000	-0,024	-0,132
-710,918	193,959	-0,027	-0,030
-709,904	408,491	-0,030	-0,047
-708,889	-200,000	-0,020	-0,121
-707,875	310,196	0,043	-0,058
-706,860	439,212	-0,026	0,041
-705,845	-92,900	0,100	0,020
-704,831	-200,000	0,003	-0,087
-703,816	-130,067	0,125	-0,012
-702,802	-19,241	-0,090	-0,040
-701,787	558,324	-0,027	0,048
-700,772	23,071	-0,077	0,046
-699,758	-103,853	-0,073	0,012
-698,743	581,889	0,074	0,132
-697,729	-85,428	-0,031	-0,007
-696,714	-200,000	-0,002	-0,075
-695,699	-87,127	-0,126	-0,027
-694,685	-200,000	-0,026	-0,136
-693,670	-200,000	-0,016	-0,150
-692,656	49,199	-0,097	0,066
-691,641	239,536	0,095	0,115
-690,627	-200,000	-0,003	-0,048
-689,612	-2,780	-0,078	-0,040
-688,597	-200,000	0,005	-0,019
-687,583	5,465	-0,083	-0,044
-686,568	-9,261	-0,067	-0,032
-685,554	-200,000	0,022	-0,071
-684,539	145,013	-0,081	-0,078
-683,524	34,486	-0,073	-0,046
-682,510	-200,000	0,018	0,075
-681,495	513,037	-0,048	-0,082
-680,481	431,797	-0,068	0,107
-679,466	168,971	-0,076	-0,079
-678,451	-200,000	0,021	-0,107
-677,437	-58,640	0,038	-0,012
-676,422	83,627	-0,057	0,045
-675,408	-200,000	0,021	0,175
-674,393	375,179	-0,055	-0,081
-673,378	-87,092	-0,086	-0,019
-672,364	800,000	-0,005	0,016
-671,349	-200,000	-0,033	-0,105
-670,335	-24,451	0,156	-0,067
-669,320	-155,856	-0,065	-0,003
-668,305	73,699	0,091	0,069
-667,291	-32,613	-0,152	0,061
-666,276	65,953	-0,092	-0,067
-665,262	213,391	-0,076	-0,087
-664,247	-165,672	0,061	0,002
-663,232	24,484	-0,100	-0,060
-662,218	21,014	-0,119	-0,070
-661,203	615,540	0,011	0,020
-660,189	-200,000	-0,005	-0,070
-659,174	800,000	0,014	-0,029
-658,159	32,925	0,074	-0,046
-657,145	-200,000	0,025	-0,119
-656,130	800,000	-0,050	0,101
-655,116	66,876	-0,075	-0,055
-654,101	46,179	0,089	0,060
-653,086	412,859	0,045	-0,069
-652,072	-51,521	-0,187	-0,063
-651,057	-110,784	-0,135	-0,020
-650,043	-98,130	0,125	-0,023
-649,028	-154,505	-0,087	-0,004
-648,014	-200,000	0,003	0,122
-646,999	800,000	0,041	0,125
-645,984	800,000	-0,023	-0,054
-644,970	335,000	0,027	-0,038
-643,955	-9,340	-0,115	-0,055
-642,941	220,151	-0,127	-0,147
-641,926	252,333	0,130	-0,160
-640,911	800,000	0,040	-0,082
-639,897	2,123	0,028	0,014
-638,882	-33,736	-0,221	-0,088
-637,868	130,945	0,077	0,071
-636,853	207,896	-0,090	-0,102
-635,838	31,692	0,080	-0,050
-634,824	52,407	-0,121	-0,083
-633,809	-200,000	-0,021	0,102
-632,795	-200,000	0,042	0,140
-631,780	85,285	0,084	0,066
-630,765	775,949	-0,027	-0,053
-629,751	127,171	-0,068	0,063
-628,736	193,703	-0,076	0,083
-627,722	168,670	0,062	-0,064
-626,707	-1,333	-0,133	-0,068
-625,692	23,707	0,115	-0,068
-624,678	-32,690	-0,025	0,010
-623,663	-84,900	-0,101	0,023
-622,649	20,356	-0,107	-0,062
-621,634	800,000	-0,018	0,039
-620,619	255,352	0,023	-0,029
-619,605	175,332	0,020	-0,021
-618,590	-162,925	0,063	-0,002
-617,576	-66,730	-0,093	0,026
-616,561	800,000	0,040	-0,108
-615,546	104,604	-0,118	-0,100
-614,532	-200,000	-0,007	-0,095
-613,517	800,000	-0,076	-0,169
-612,503	-200,000	0,020	0,067
-611,488	433,266	0,026	0,042
-610,474	203,517	-0,127	-0,142
-609,459	-28,683	-0,051	-0,021
-608,444	102,432	-0,074	0,063
-607,430	112,080	-0,134	0,116
-606,415	107,158	-0,045	0,038
-605,401	-200,000	-0,003	0,022
-604,386	-200,000	0,002	0,087
-603,371	706,813	0,052	0,099
-602,357	-93,734	0,154	-0,030
-601,342	5,916	-0,090	0,048
-600,328	800,000	0,082	-0,208
-599,313	-149,357	-0,020	0,001
-598,298	-104,816	-0,060	0,010
-597,284	-200,000	0,009	-0,085
-596,269	1,451	-0,035	-0,018
-595,255	4,407	0,016	0,009
-594,240	-200,000	0,021	-0,108
-593,225	51,840	-0,120	-0,082
-592,211	161,058	-0,081	-0,081
-591,196	231,417	0,100	-0,118
-590,182	800,000	-0,021	-0,046
-589,167	299,413	-0,057	-0,076
-588,152	25,527	-0,042	0,025
-587,138	-16,606	-0,113	-0,051
-586,123	258,963	-0,051	-0,064
-585,109	-200,000	-0,001	-0,066
-584,094	-63,314	-0,093	-0,027
-583,079	800,000	-0,029	-0,065
-582,065	-200,000	-0,004	0,158
-581,050	352,282	0,028	0,040
-580,036	296,355	0,027	0,035
-579,021	-15,596	-0,046	0,021
-578,006	68,021	0,121	-0,089
-576,992	73,366	-0,200	-0,150
-575,977	-29,965	0,118	0,048
-574,963	-200,000	0,017	0,085
-573,948	-113,721	0,154	-0,021
-572,934	-200,000	0,007	-0,074
-571,919	-119,649	0,025	-0,003
-570,904	-108,347	-0,024	0,004
-569,890	114,960	0,138	-0,121
-568,875	-99,601	-0,046	-0,008
-567,861	-80,304	0,034	-0,008
-566,846	76,342	0,068	0,052
-565,831	341,247	0,038	-0,053
-564,817	416,289	0,025	-0,038
-563,802	-200,000	0,026	-0,113
-562,788	800,000	0,089	0,211
-561,773	-160,126	-0,025	0,001
-560,758	-139,773	0,100	0,007
-559,744	-200,000	-0,023	0,090
-558,729	-68,681	-0,025	0,007
-557,715	76,647	-0,087	-0,066
-556,700	-128,667	-0,156	-0,016
-555,685	26,379	0,057	0,034
-554,671	-200,000	-0,027	0,109
-553,656	211,297	0,135	0,153
-552,642	-200,000	-0,006	0,063
-551,627	-115,532	-0,078	0,010
-550,612	398,215	0,037	-0,056
-549,598	-52,705	0,063	-0,021
-548,583	-200,000	0,021	-0,228
-547,569	180,695	-0,048	-0,051
-546,554	-159,200	-0,034	-0,001
-545,539	800,000	-0,023	0,059
-544,525	461,474	-0,049	0,079
-543,510	272,977	0,075	-0,096
-542,496	-200,000	0,009	-0,074
-541,481	-72,375	-0,198	-0,052
-540,466	-200,000	0,024	-0,101
-539,452	-200,000	0,005	0,082
-538,437	-200,000	0,014	0,098
-537,423	-200,000	-0,017	0,061
-536,408	800,000	-0,019	-0,047
-535,393	-200,000	-0,014	-0,284
-534,379	-46,649	-0,151	-0,053
-533,364	-55,322	-0,033	-0,010
-532,350	-41,925	0,071	0,026
-531,335	187,432	0,050	-0,053
-530,321	-200,000	-0,017	-0,075
-529,306	-52,147	-0,084	-0,028
-528,291	335,998	-0,080	-0,112
-527,277	286,227	0,007	0,009
-526,262	800,000	-0,023	-0,062
-525,248	241,112	0,018	-0,022
-524,233	284,272	0,050	0,065
-523,218	-139,450	-0,110	-0,008
-522,204	302,094	-0,079	-0,105
-521,189	-109,951	-0,184	-0,027
-520,175	800,000	0,027	-0,076
-519,160	800,000	-0,027	0,078
-518,145	434,190	-0,056	0,088
-517,131	-18,288	-0,098	0,044
-516,116	20,695	0,059	-0,034
-515,102	265,196	-0,038	-0,047
-514,087	-185,322	-0,115	0,001
-513,072	-200,000	0,031	-0,159
-512,058	-12,222	-0,064	-0,030
-511,043	755,683	0,046	0,090
-510,029	401,013	0,025	-0,038
-509,014	15,645	0,137	0,077
-507,999	-27,621	0,223	-0,093
-506,985	408,267	-0,081	-0,123
-505,970	800,000	0,036	-0,101
-504,956	333,965	0,045	-0,062
-503,941	38,538	0,074	0,047
-502,926	-22,617	0,033	-0,014
-501,912	-44,887	0,114	-0,040
-500,897	23,761	0,148	-0,087
-499,883	-200,000	-0,033	-0,186
-498,868	-200,000	-0,024	-0,093
-497,853	-200,000	0,021	-0,173
-496,839	232,251	-0,092	-0,109
-495,824	72,953	0,166	0,124
-494,810	111,775	-0,109	0,095
-493,795	-200,000	-0,001	0,162
-492,781	-142,512	-0,184	0,013
-491,766	-200,000	0,004	0,051
-490,751	-200,000	0,005	0,085
-489,737	800,000	-0,058	-0,148
-488,722	-44,476	0,165	0,059
-487,708	-110,679	-0,178	-0,026
-486,693	143,478	0,047	-0,045
-485,678	800,000	0,040	-0,099
-484,664	-24,384	0,052	0,022
-483,649	-104,093	-0,204	-0,034
-482,635	-22,611	0,075	-0,032
-481,620	-97,418	0,174	-0,032
-480,605	242,941	0,088	0,106
-479,591	-200,000	0,016	0,120
-478,576	800,000	0,035	0,096
-477,562	174,539	-0,109	-0,113
-476,547	-37,648	-0,052	-0,020
-475,532	123,623	-0,014	-0,012
-474,518	-96,404	0,151	-0,028
-473,503	-200,000	-0,002	0,019
-472,489	-65,188	-0,084	0,024
-471,474	-200,000	0,001	-0,150
-470,459	800,000	-0,029	-0,091
-469,445	105,259	-0,015	-0,013
-468,430	-158,377	-0,076	0,003
-467,416	629,301	-0,008	0,014
-466,401	800,000	-0,025	-0,078
-465,386	800,000	0,094	0,191
-464,372	407,823	-0,048	0,073
-463,357	-200,000	0,023	0,075
-462,343	17,807	-0,045	-0,026
-461,328	52,848	-0,085	-0,058
-460,313	97,394	-0,099	0,081
-459,299	46,425	0,171	0,114
-458,284	-77,057	0,108	0,027
-457,270	-175,717	-0,054	0,001
-456,255	-49,624	0,091	0,031
-455,241	279,434	-0,024	-0,030
-454,226	-200,000	-0,024	0,092
-453,211	-108,526	0,111	-0,017
-452,197	-200,000	-0,010	0,039
-451,182	-200,000	0,007	0,112
-450,168	32,783	0,042	-0,026
-449,153	800,000	0,028	-0,071
-448,138	-200,000	-0,053	-0,180
-447,124	-59,270	0,045	0,014
-446,109	37,976	-0,140	-0,089
-445,095	-120,333	0,114	-0,014
-444,080	-200,000	-0,023	0,194
-443,065	351,682	-0,070	0,099
-442,051	102,598	0,106	-0,089
-441,036	-200,000	-0,029	-0,138
-440,022	800,000	-0,033	-0,091
-439,007	167,010	-0,040	0,041
-437,992	23,794	0,057	0,034
-436,978	666,377	0,060	-0,112
-435,963	800,000	0,058	0,149
-434,949	-200,000	-0,003	0,012
-433,934	-70,679	-0,176	-0,047
-432,919	-4,757	0,039	-0,019
-431,905	-200,000	0,002	-0,155
-430,890	-200,000	-0,026	0,092
-429,876	83,459	0,112	0,087
-428,861	473,615	0,110	0,179
-427,846	49,654	-0,045	-0,030
-426,832	-200,000	-0,019	-0,138
-425,817	-200,000	0,013	-0,135
-424,803	584,505	0,076	-0,134
-423,788	166,348	0,071	0,072
-422,773	-200,000	-0,001	-0,029
-421,759	-2,592	-0,032	-0,016
-420,744	143,401	-0,107	0,102
-419,730	-53,317	-0,062	-0,020
-418,715	-48,813	-0,066	-0,023
-417,701	-48,823	0,109	-0,037
-416,686	320,354	-0,071	0,097
-415,671	-152,488	0,077	-0,004
-414,657	800,000	0,043	0,122
-413,642	-200,000	0,023	0,144
-412,628	800,000	-0,052	0,117
-411,613	10,760	-0,095	-0,052
-410,598	800,000	-0,005	-0,011
-409,584	102,079	-0,028	-0,023
-408,569	-140,498	0,054	-0,004
-407,555	-200,000	0,000	0,018
-406,540	492,247	0,030	-0,050
-405,525	-88,941	-0,101	0,021
-404,511	-139,612	-0,022	-0,002
-403,496	243,135	-0,041	0,049
-402,482	217,715	-0,105	0,120
-401,467	400,785	-0,024	-0,037
-400,452	-200,000	0,010	0,179
-399,438	110,926	0,054	0,046
-398,423	-93,323	-0,059	-0,012
-397,409	605,036	0,034	0,061
-396,394	-200,000	-0,008	-0,031
-395,379	-128,995	0,080	0,008
-394,365	108,703	0,065	0,055
-393,350	-4,139	0,077	0,038
-392,336	681,659	-0,026	-0,048
-391,321	-200,000	-0,001	0,133
-390,306	165,575	-0,138	0,139
-389,292	-31,369	0,060	-0,024
-388,277	128,233	-0,057	-0,052
-387,263	-9,141	0,080	-0,038
-386,248	307,575	-0,015	0,019
-385,233	412,346	0,037	0,057
-384,219	-135,373	-0,139	-0,012
-383,204	-200,000	-0,053	-0,178
-382,190	147,309	-0,082	0,079
-381,175	800,000	0,040	0,084
-380,160	318,081	0,071	0,096
-379,146	-200,000	-0,023	-0,079
-378,131	462,735	-0,066	-0,105
-377,117	-197,571	0,049	0,000
-376,102	752,823	0,039	-0,076
-375,088	163,689	0,071	-0,071
-374,073	-166,905	0,032	0,001
-373,058	304,832	-0,034	0,045
-372,044	-57,908	0,180	-0,056
-371,029	7,667	-0,035	-0,019
-370,015	-13,555	0,104	-0,048
-369,000	800,000	-0,030	0,061
-367,985	243,543	0,120	0,144
-366,971	-200,000	0,004	-0,039
-365,956	-44,450	0,125	0,044
-364,942	-200,000	-0,013	0,043
-363,927	800,000	-0,075	0,193
-362,912	32,439	-0,026	-0,016
-361,898	-171,913	-0,026	0,001
-360,883	53,586	0,054	0,037
-359,869	87,411	0,099	0,078
-358,854	-196,551	-0,002	0,000
-357,839	-200,000	0,012	-0,053
-356,825	800,000	0,006	0,016
-355,810	-200,000	-0,005	0,136
-354,796	800,000	-0,069	0,190
-353,781	538,458	0,022	0,037
-352,766	-200,000	0,018	0,062
-351,752	95,370	0,022	-0,018
-350,737	-200,000	-0,019	0,170
-349,723	-99,756	0,185	-0,033
-348,708	800,000	0,044	-0,105
-347,693	396,806	-0,016	0,025
-346,679	315,053	-0,068	-0,091
-345,664	-30,740	-0,037	0,015
-344,650	478,522	0,063	0,102
-343,635	800,000	0,016	0,044
-342,620	85,918	0,106	0,083
-341,606	199,452	-0,125	0,137
-340,591	800,000	0,050	0,117
-339,577	388,776	0,019	-0,028
-338,562	50,072	-0,134	-0,090
-337,548	89,542	-0,031	0,025
-336,533	-103,810	0,058	-0,010
-335,518	232,737	0,061	0,071
-334,504	380,531	0,070	-0,103
-333,489	357,147	-0,139	-0,199
-332,475	-200,000	-0,004	-0,203
-331,460	18,098	-0,122	-0,069
-330,445	42,732	0,050	-0,032
-329,431	800,000	-0,026	-0,055
-328,416	800,000	0,061	0,164
-327,402	800,000	0,041	0,094
-326,387	-126,106	-0,150	0,016
-325,372	-200,000	0,038	-0,169
-324,358	-200,000	0,037	0,152
-323,343	-68,895	0,067	0,018
-322,329	0,150	0,056	-0,029
-321,314	2,617	0,124	0,064
-320,299	716,977	0,013	0,024
-319,285	800,000	-0,052	-0,139
-318,270	-200,000	-0,021	0,070
-317,256	-29,896	0,101	0,041
-316,241	436,150	-0,040	-0,063
-315,226	-49,843	0,075	0,025
-314,212	7,129	0,027	-0,014
-313,197	800,000	0,067	0,147
-312,183	89,109	-0,129	-0,102
-311,168	771,161	0,107	-0,208
-310,153	-104,372	0,081	0,013
-309,139	463,557	-0,070	-0,112
-308,124	-200,000	-0,011	-0,064
-307,110	-55,570	0,057	0,018
-306,095	-200,000	0,033	0,186
-305,080	-80,464	-0,043	-0,010
-304,066	14,096	-0,088	0,048
-303,051	800,000	0,051	-0,148
-302,037	800,000	-0,039	-0,104
-301,022	-200,000	-0,012	0,075
-300,008	-200,000	0,000	0,144
-298,993	-89,332	-0,146	0,030
-297,978	-200,000	0,014	-0,049
-296,964	800,000	0,015	0,031
-295,949	-47,034	-0,063	-0,022
-294,935	-8,790	-0,133	-0,063
-293,920	20,249	0,142	-0,081
-292,905	-196,692	0,034	0,000
-291,891	-184,494	0,087	-0,001
-290,876	-200,000	-0,017	-0,147
-289,862	90,509	-0,092	-0,073
-288,847	69,320	-0,043	0,032
-287,832	92,806	-0,053	0,043
-286,818	-200,000	0,007	0,054
-285,803	213,418	-0,038	-0,043
-284,789	263,131	0,056	0,070
-283,774	-200,000	0,019	-0,087
-282,759	324,320	0,028	0,038
-281,745	-200,000	0,011	0,104
-280,730	-200,000	0,008	-0,027
-279,716	-45,288	0,124	-0,044
-278,701	7,758	0,056	-0,030
-277,686	723,118	0,022	0,042
-276,672	-200,000	-0,031	0,204
-275,657	-160,526	0,104	-0,004
-274,643	14,940	-0,155	-0,086
-273,628	122,091	-0,067	0,060
-272,613	-200,000	0,005	0,069
-271,599	-151,376	0,133	-0,007
-270,584	706,710	-0,034	-0,064
-269,570	800,000	0,026	0,081
-268,555	-165,726	0,095	-0,003
-267,540	42,589	0,043	-0,028
-266,526	-31,810	0,088	-0,035
-265,511	-26,535	-0,105	-0,044
-264,497	-91,249	0,092	-0,019
-263,482	129,066	-0,021	0,019
-262,467	134,025	0,083	0,076
-261,453	10,534	0,053	-0,029
-260,438	124,109	0,073	0,066
-259,424	239,633	-0,043	-0,051
-258,409	800,000	-0,049	0,133
-257,395	35,897	0,080	0,050
-256,380	69,897	0,087	0,064
-255,365	248,481	-0,064	0,077
-254,351	800,000	0,071	0,147
-253,336	-98,663	-0,174	0,031
-252,322	63,560	-0,067	-0,048
-251,307	263,157	0,101	-0,126
-250,292	62,810	0,072	-0,051
-249,278	-183,032	0,131	0,002
-248,263	142,731	0,065	0,062
-247,249	290,986	-0,066	0,085
-246,234	-200,000	0,027	0,089
-245,219	-132,086	0,078	0,007
-244,205	75,506	-0,097	-0,073
-243,190	30,760	0,175	-0,106
-242,176	800,000	0,044	0,113
-241,161	108,488	0,094	0,080
-240,146	-165,447	-0,030	-0,001
-239,132	-7,624	-0,067	-0,032
-238,117	-200,000	-0,010	0,127
-237,103	800,000	0,019	0,051
-236,088	-118,278	0,045	0,006
-235,073	-200,000	-0,010	0,152
-234,059	-24,474	0,117	0,049
-233,044	-61,801	0,145	-0,043
-232,030	3,714	0,161	0,083
-231,015	137,161	-0,083	-0,077
-230,000	-200,000	-0,016	-0,083
-228,986	-51,002	0,021	-0,007
-227,971	-175,008	0,159	0,003
-226,957	-200,000	0,009	0,122
-225,942	15,830	0,056	-0,031
-224,927	103,369	-0,109	-0,091
-223,913	550,289	-0,055	-0,093
-222,898	294,515	-0,079	0,102
-221,884	303,347	0,088	0,116
-220,869	-200,000	-0,036	0,119
-219,855	-200,000	0,000	0,063
-218,840	-36,179	0,111	-0,042
-217,825	-200,000	0,003	0,054
-216,811	167,279	0,056	0,056
-215,796	800,000	-0,059	-0,153
-214,782	-84,676	-0,104	-0,023
-213,767	135,574	0,030	-0,028
-212,752	643,067	-0,036	-0,066
-211,738	152,580	-0,038	-0,037
-210,723	-200,000	-0,030	0,150
-209,709	525,360	-0,024	0,041
-208,694	782,093	-0,025	-0,049
-207,679	-200,000	-0,012	-0,176
-206,665	201,563	0,044	0,048
-205,650	-200,000	-0,022	0,073
-204,636	35,427	-0,007	0,004
-203,621	800,000	0,033	-0,073
-202,606	800,000	-0,062	0,130
-201,592	27,254	0,077	-0,046
-200,577	-200,000	-0,024	-0,102
-199,563	-70,225	0,041	0,011
-198,548	-53,105	-0,073	0,024
-197,533	800,000	-0,038	-0,078
-196,519	-200,000	-0,023	0,079
-195,504	-200,000	0,001	0,010
-194,490	303,857	0,070	0,092
-193,475	45,907	0,101	-0,066
-192,460	64,525	0,048	0,034
-191,446	-200,000	0,005	0,140
-190,431	-200,000	-0,011	0,115
-189,417	-13,122	-0,040	0,018
-188,402	74,917	0,143	0,107
-187,387	246,503	-0,066	-0,079
-186,373	-38,529	0,129	0,048
-185,358	2,894	-0,128	-0,066
-184,344	800,000	0,032	0,067
-183,329	-200,000	-0,005	0,056
-182,315	-96,405	0,001	0,000
-181,300	-4,334	-0,158	0,077
-180,285	-91,429	-0,066	0,013
-179,271	-159,267	-0,189	0,007
-178,256	-89,825	0,075	-0,015
-177,242	800,000	-0,004	-0,012
-176,227	-200,000	-0,016	0,077
-175,212	-200,000	-0,005	0,129
-174,198	-200,000	0,016	-0,089
-173,183	800,000	0,022	-0,044
-172,169	319,806	-0,021	-0,029
-171,154	-73,820	-0,070	0,018
-170,139	-200,000	0,015	-0,064
-169,125	113,097	0,059	0,050
-168,110	123,845	0,151	0,134
-167,096	95,149	-0,090	0,072
-166,081	-33,937	0,015	-0,006
-165,066	90,162	-0,083	-0,066
-164,052	-93,734	0,084	-0,016
-163,037	76,663	0,052	0,039
-162,023	82,210	-0,044	0,034
-161,008	53,736	-0,144	-0,098
-159,993	-17,812	-0,112	-0,049
-158,979	800,000	-0,017	0,047
-157,964	283,660	-0,061	-0,078
-156,950	-200,000	0,022	-0,115
-155,935	139,508	-0,056	0,052
-154,920	-167,706	-0,072	0,002
-153,906	-4,453	-0,100	0,049
-152,891	-106,167	0,048	0,008
-151,877	-26,337	0,055	-0,023
-150,862	-200,000	-0,004	-0,095
-149,847	115,746	-0,075	-0,065
-148,833	-200,000	0,010	-0,050
-147,818	-106,928	0,075	-0,012
-146,804	29,605	-0,069	0,042
-145,789	29,829	-0,131	0,079
-144,775	-197,351	-0,164	-0,001
-143,760	577,393	0,093	-0,162
-142,745	187,112	-0,168	-0,177
-141,731	-91,314	0,064	-0,013
-140,716	800,000	0,031	0,076
-139,702	-42,880	-0,019	-0,007
-138,687	195,835	0,112	0,121
-137,672	-69,164	0,133	-0,036
-136,658	72,532	-0,059	-0,043
-135,643	143,227	0,093	-0,088
-134,629	-200,000	0,020	-0,069
-133,614	-102,727	-0,127	0,021
-132,599	-72,249	0,158	-0,041
-131,585	54,016	0,055	0,037
-130,570	-78,021	-0,152	-0,037
-129,556	44,148	-0,047	-0,031
-128,541	-200,000	-0,036	0,140
-127,526	-10,059	0,092	-0,043
-126,512	-200,000	0,001	-0,144
-125,497	-104,232	0,096	-0,016
-124,483	-166,503	0,095	-0,003
-123,468	-32,910	-0,137	-0,054
-122,453	208,586	-0,110	-0,122
-121,439	-200,000	0,027	0,110
-120,424	-200,000	0,004	-0,083
-119,410	-144,964	0,047	0,003
-118,395	-200,000	0,002	0,022
-117,380	800,000	-0,021	0,058
-116,366	256,688	0,010	0,012
-115,351	-200,000	-0,011	-0,099
-114,337	140,726	-0,063	-0,059
-113,322	279,923	-0,023	-0,029
-112,307	98,124	0,166	0,135
-111,293	18,513	-0,081	0,046
-110,278	800,000	-0,029	-0,084
-109,264	800,000	0,058	0,120
-108,249	-16,222	0,106	-0,047
-107,234	544,620	-0,051	-0,087
-106,220	17,898	-0,089	0,050
-105,205	-200,000	-0,033	0,108
-104,191	-200,000	0,030	-0,162
-103,176	-200,000	-0,032	-0,107
-102,162	348,132	-0,039	0,054
-101,147	35,004	0,146	-0,090
-100,132	26,315	0,078	-0,046
-99,118	51,094	0,077	0,052
-98,103	-114,616	0,024	-0,003
-97,089	-200,000	0,014	-0,107
-96,074	800,000	0,017	-0,050
-95,059	-70,735	0,129	-0,034
-94,045	-31,710	-0,141	0,056
-93,030	324,656	-0,034	-0,046
-92,016	800,000	0,080	0,170
-91,001	26,187	0,047	0,028
-89,986	-200,000	0,013	-0,047
-88,972	-71,794	0,101	0,026
-87,957	800,000	-0,032	-0,078
-86,943	64,884	0,008	-0,006
-85,928	-200,000	0,009	0,055
-84,913	-2,386	-0,053	-0,026
-83,899	-35,643	-0,058	0,022
-82,884	-140,079	0,180	-0,013
-81,870	-200,000	-0,003	0,101
-80,855	155,731	-0,063	-0,061
-79,840	47,321	-0,098	-0,064
-78,826	-12,417	0,139	-0,064
-77,811	-110,064	0,079	0,012
-76,797	264,103	-0,045	-0,055
-75,782	555,652	0,107	0,182
-74,767	800,000	-0,035	0,069
-73,753	-11,676	-0,136	0,063
-72,738	-114,969	-0,043	0,006
-71,724	165,684	0,048	0,048
-70,709	-46,204	-0,193	-0,067
-69,694	-200,000	-0,008	0,106
-68,680	-49,559	0,128	-0,043
-67,665	-200,000	-0,023	0,096
-66,651	123,823	-0,120	0,106
-65,636	-200,000	-0,020	0,066
-64,622	800,000	-0,065	-0,153
-63,607	-200,000	-0,032	-0,199
-62,592	-200,000	-0,001	-0,042
-61,578	-200,000	-0,005	-0,023
-60,563	93,201	0,103	0,082
-59,549	-200,000	0,013	-0,072
-58,534	54,731	-2,133	-1,449
-57,519	508,775	-1,065	-1,751
-56,505	-200,000	-0,482	-4,564
-55,490	742,046	0,881	1,677
-54,476	800,000	5,153	11,468
-53,461	-200,000	22,431	346,878
-52,446	800,000	758,216	2296,456
-51,432	534,234	1645,181	2760,227
-50,417	68,094	1643,985	1185,270
-49,403	15,751	1520,880	841,184
-48,388	9,917	1447,055	772,321
-47,373	19,275	1439,521	812,874
-46,359	13,443	1427,673	778,630
-45,344	8,258	1423,706	751,911
-44,330	8,209	1421,837	750,663
-43,315	8,157	1420,084	749,460
-42,300	8,152	1418,403	748,524
-41,286	8,204	1417,246	748,125
-40,271	8,150	1415,782	747,069
-39,257	8,164	1414,773	746,574
-38,242	8,158	1413,677	745,937
-37,227	8,208	1412,358	745,448
-36,213	8,157	1411,218	744,577
-35,198	8,148	1409,882	743,797
-34,184	8,187	1409,102	743,539
-33,169	8,107	1407,756	742,424
-32,154	8,134	1406,943	742,094
-31,140	8,140	1405,506	741,334
-30,125	8,185	1404,219	740,837
-29,111	8,203	1403,147	740,324
-28,096	8,177	1402,137	739,645
-27,082	8,103	1400,718	738,520
-26,067	8,101	1399,877	738,037
-25,052	8,136	1398,652	737,525
-24,038	8,080	1397,712	736,740
-23,023	8,105	1396,795	736,344
-22,009	8,090	1395,708	735,674
-20,994	8,051	1394,913	735,042
-19,979	8,088	1393,691	734,540
-18,965	8,054	1392,827	733,901
-17,950	8,056	1391,928	733,406
-16,936	8,029	1390,917	732,721
-15,921	7,981	1390,156	732,068
-14,906	8,001	1389,172	731,611
-13,892	8,075	1387,873	731,241
-12,877	8,030	1387,371	730,738
-11,863	7,992	1386,780	730,225
-10,848	8,021	1385,620	729,717
-9,833	7,953	1384,852	728,972
-8,819	7,912	1383,916	728,263
-7,804	7,909	1383,012	727,743
-6,790	7,923	1381,931	727,208
-5,775	7,919	1381,009	726,677
-4,760	7,958	1380,087	726,343
-3,746	7,941	1379,119	725,724
-2,731	7,950	1378,093	725,197
-1,717	7,913	1377,379	724,622
-0,702	7,940	1375,564	723,763
0,313	11,877	1286,137	694,563
1,327	27,544	677,833	400,996
2,342	42,678	116,655	74,719
3,356	-0,508	16,583	8,268
4,371	-4,961	3,927	1,899
5,386	-2,146	1,352	0,667
6,400	800,000	0,315	0,721
7,415	-129,742	-0,247	-0,024
8,429	-31,147	-0,368	-0,145
9,444	86,035	-0,290	-0,224
10,459	291,880	-0,182	-0,234
11,473	-40,487	-0,230	-0,084
12,488	-79,925	-0,268	-0,063
13,502	47,280	-0,305	-0,200
14,517	3,607	-0,235	-0,120
15,531	258,556	-0,299	-0,363
16,546	96,863	-0,317	-0,256
17,561	147,729	-0,366	-0,348
18,575	-143,828	-0,355	-0,023
19,590	30,630	-0,331	-0,199
20,604	-49,879	-0,280	-0,093
21,619	55,340	-0,412	-0,280
22,634	34,075	-0,602	-0,368
23,648	94,693	-0,333	-0,266
24,663	126,246	-0,348	-0,310
25,677	316,000	-0,378	-0,502
26,692	-10,917	-0,322	-0,149
27,707	50,487	-0,373	-0,248
28,721	-13,429	-0,477	-0,217
29,736	69,006	-0,385	-0,278
30,750	74,236	-0,400	-0,295
31,765	13,858	-0,503	-0,274
32,780	18,956	-0,350	-0,197
33,794	124,117	-0,306	-0,270
34,809	150,296	-0,331	-0,316
35,823	98,994	-0,421	-0,342
36,838	124,226	-0,419	-0,370
37,853	51,269	-0,432	-0,288
38,867	265,507	-0,283	-0,347
39,882	96,787	-0,330	-0,265
40,896	84,579	-0,338	-0,260
41,911	95,448	-0,311	-0,249
42,926	117,728	-0,284	-0,246
43,940	158,830	-0,292	-0,285
44,955	129,288	-0,364	-0,326
45,969	73,314	-0,278	-0,204
46,984	101,311	-0,306	-0,250
47,999	29,524	-0,257	-0,153
49,013	108,869	-0,211	-0,177
50,028	89,739	-0,323	-0,253
51,042	90,251	-0,264	-0,207
52,057	78,558	-0,321	-0,240
53,071	108,853	-0,391	-0,328
54,086	103,422	-0,311	-0,256
55,101	91,312	-0,273	-0,215
56,115	153,066	-0,202	-0,194
57,130	21,772	-0,388	-0,221
58,144	26,541	-0,404	-0,237
59,159	53,254	-0,282	-0,189
60,174	-56,667	-0,521	-0,161
61,188	170,983	-0,336	-0,338
62,203	-3,117	-0,407	-0,198
63,217	208,853	-0,260	-0,286
64,232	134,180	-0,245	-0,223
65,247	47,205	-0,389	-0,253
66,261	91,255	-0,273	-0,215
67,276	90,265	-0,305	-0,239
68,290	2,247	-0,283	-0,143
69,305	205,959	-0,232	-0,253
70,320	2,749	-0,389	-0,197
71,334	-17,215	-0,301	-0,133
72,349	-31,917	-0,343	-0,134
73,363	-52,723	-0,349	-0,112
74,378	-3,528	-0,393	-0,191
75,393	-65,179	-0,295	-0,083
76,407	19,362	-0,345	-0,193
77,422	224,084	-0,250	-0,284
78,436	-14,304	-0,316	-0,142
79,451	69,214	-0,281	-0,202
80,466	-18,687	-0,311	-0,135
81,480	-14,514	-0,300	-0,135
82,495	55,968	-0,285	-0,193
83,509	-21,165	-0,296	-0,126
84,524	553,565	-0,144	-0,244
85,539	103,707	-0,141	-0,116
86,553	86,851	-0,339	-0,262
87,568	-52,399	-0,392	-0,126
88,582	-6,846	-0,267	-0,127
89,597	85,412	-0,332	-0,255
90,611	185,376	-0,213	-0,221
91,626	183,550	-0,240	-0,249
92,641	-80,988	-0,323	-0,074
93,655	4,125	-0,326	-0,166
94,670	-25,914	-0,356	-0,146
95,684	330,711	-0,228	-0,307
96,699	124,038	-0,209	-0,183
97,714	71,886	-0,273	-0,199
98,728	-86,040	-0,243	-0,052
99,743	30,509	-0,186	-0,111
100,757	2,668	-0,318	-0,160
101,772	104,666	-0,337	-0,278
102,787	-6,308	-0,292	-0,139
103,801	-24,796	-0,239	-0,099
104,816	-46,253	-0,170	-0,058
105,830	84,640	-0,219	-0,167
106,845	41,546	-0,243	-0,153
107,860	-41,749	-0,251	-0,089
108,874	389,761	-0,172	-0,250
109,889	53,105	-0,175	-0,117
110,903	39,399	-0,183	-0,114
111,918	112,585	-0,166	-0,140
112,933	-72,526	-0,326	-0,083
113,947	52,676	-0,086	-0,058
114,962	78,160	-0,270	-0,201
115,976	52,391	-0,173	-0,115
116,991	-55,038	-0,227	-0,071
118,006	220,665	-0,272	-0,305
119,020	25,130	-0,376	-0,217
120,035	150,963	-0,229	-0,218
121,049	260,052	-0,185	-0,223
122,064	444,821	-0,146	-0,224
123,079	66,052	-0,222	-0,157
124,093	148,024	-0,329	-0,309
125,108	106,269	-0,344	-0,284
126,122	-33,508	-0,215	-0,083
127,137	-11,563	-0,245	-0,112
128,151	148,867	-0,201	-0,189
129,166	257,805	-0,141	-0,170
130,181	75,477	-0,251	-0,185
131,195	14,434	-0,188	-0,102
132,210	-93,081	-0,276	-0,053
133,224	288,475	-0,150	-0,190
134,239	260,903	-0,179	-0,217
135,254	-35,192	-0,239	-0,090
136,268	-29,902	-0,244	-0,097
137,283	88,921	-0,188	-0,145
138,297	99,513	-0,340	-0,274
139,312	141,472	-0,245	-0,226
140,327	186,541	-0,266	-0,276
141,341	167,388	-0,261	-0,259
142,356	59,470	-0,218	-0,150
143,370	130,182	-0,203	-0,181
144,385	41,441	-0,248	-0,156
145,400	25,918	-0,306	-0,177
146,414	372,250	-0,122	-0,172
147,429	-60,393	-0,222	-0,065
148,443	47,298	-0,190	-0,123
149,458	640,344	-0,131	-0,232
150,473	-35,691	-0,284	-0,107
151,487	268,120	-0,193	-0,235
152,502	288,680	-0,219	-0,277
153,516	531,321	-0,174	-0,286
154,531	254,227	-0,202	-0,241
155,546	800,000	-0,124	-0,341
156,560	40,157	-0,180	-0,113
157,575	147,591	-0,117	-0,110
158,589	134,207	-0,170	-0,153
159,604	-59,780	-0,162	-0,048
160,619	468,690	-0,175	-0,273
161,633	71,653	-0,277	-0,200
162,648	68,399	-0,304	-0,216
163,662	82,664	-0,241	-0,182
164,677	800,000	-0,080	-0,177
165,692	-13,557	-0,336	-0,151
166,706	478,138	-0,279	-0,441
167,721	92,318	-0,304	-0,238
168,735	7,047	-0,297	-0,153
169,750	306,014	-0,192	-0,249
170,764	227,355	-0,168	-0,189
171,779	10,730	-0,315	-0,166
172,794	-5,871	-0,237	-0,112
173,808	324,143	-0,246	-0,327
174,823	800,000	-0,141	-0,291
175,837	317,282	-0,158	-0,208
176,852	318,299	-0,198	-0,261
177,867	82,573	-0,219	-0,165
178,881	106,631	-0,194	-0,160
179,896	-12,824	-0,249	-0,112
180,910	86,009	-0,209	-0,160
181,925	88,493	-0,284	-0,219
182,940	607,188	-0,170	-0,296
183,954	-71,361	-0,350	-0,090
184,969	86,543	-0,179	-0,137
185,983	-6,309	-0,359	-0,169
186,998	-129,270	-0,194	-0,018
188,013	-23,214	-0,291	-0,121
189,027	-54,881	-0,248	-0,077
190,042	52,996	-0,209	-0,138
191,056	184,608	-0,214	-0,220
192,071	394,121	-0,130	-0,189
193,086	2,228	-0,075	-0,037
194,100	-28,847	-0,206	-0,082
195,115	-10,277	-0,213	-0,097
196,129	54,621	-0,397	-0,265
197,144	-160,554	-0,232	-0,008
198,159	701,004	-0,135	-0,247
199,173	261,183	-0,132	-0,159
200,188	720,265	-0,072	-0,132
201,202	43,272	-0,172	-0,109
202,217	-14,611	-0,184	-0,082
203,232	-73,254	-0,182	-0,046
204,246	66,667	0,055	-0,039
205,261	129,383	-0,323	-0,285
206,275	427,961	-0,134	-0,200
207,290	108,934	-0,215	-0,178
208,304	169,672	-0,199	-0,197
209,319	177,795	-0,221	-0,223
210,334	0,557	-0,138	-0,068
211,348	28,842	-0,230	-0,135
212,363	103,505	-0,159	-0,129
213,377	195,362	-0,189	-0,199
214,392	-104,549	-0,178	-0,028
215,407	504,818	-0,096	-0,154
216,421	-2,760	-0,187	-0,090
217,436	83,339	-0,124	-0,093
218,450	-17,821	-0,410	-0,177
219,465	36,083	-0,205	-0,125
220,480	154,730	-0,157	-0,149
221,494	-11,966	-0,174	-0,078
222,509	-11,283	-0,086	-0,039
223,523	167,095	-0,191	-0,188
224,538	350,616	-0,103	-0,141
225,553	162,335	-0,180	-0,175
226,567	51,179	-0,243	-0,159
227,582	-49,644	-0,291	-0,095
228,596	117,421	-0,201	-0,171
229,611	93,938	-0,105	-0,082
230,626	-200,000	0,013	-0,095
231,640	50,077	-0,195	-0,127
232,655	139,669	-0,192	-0,175
233,669	800,000	-0,113	-0,240
234,684	47,657	-0,202	-0,130
235,699	117,433	-0,225	-0,191
236,713	398,702	-0,138	-0,200
237,728	114,123	-0,181	-0,152
238,742	107,897	-0,217	-0,178
239,757	800,000	-0,101	-0,205
240,772	88,372	-0,153	-0,117
241,786	29,185	-0,247	-0,144
242,801	-82,934	-0,193	-0,043
243,815	-200,000	-0,039	-0,292
244,830	-126,330	-0,133	-0,014
245,844	45,624	-0,187	-0,119
246,859	-178,568	-0,114	0,002
247,874	-12,698	-0,231	-0,103
248,888	229,158	-0,243	-0,274
249,903	-72,222	-0,220	-0,056
250,917	-88,671	-0,198	-0,040
251,932	-105,121	-0,183	-0,029
252,947	687,297	-0,039	-0,070
253,961	15,991	-0,230	-0,124
254,976	157,522	-0,221	-0,211
255,990	-91,384	-0,301	-0,059
257,005	-98,161	-0,160	-0,028
258,020	211,267	-0,193	-0,210
259,034	-28,567	-0,120	-0,048
260,049	702,958	-0,078	-0,143
261,063	-170,929	-0,134	-0,003
262,078	-48,750	-0,298	-0,098
263,093	-51,974	-0,211	-0,067
264,107	364,481	-0,172	-0,239
265,122	256,580	-0,082	-0,097
266,136	-200,000	-0,064	-0,204
267,151	-56,123	-0,155	-0,047
268,166	-22,825	-0,188	-0,078
269,180	-145,454	-0,270	-0,016
270,195	-200,000	-0,063	-0,291
271,209	-53,925	-0,122	-0,038
272,224	91,739	-0,223	-0,172
273,239	553,686	-0,063	0,105
274,253	32,806	-0,209	-0,124
275,268	36,848	-0,259	-0,157
276,282	-117,256	-0,232	-0,029
277,297	-121,837	-0,130	0,015
278,312	118,050	-0,129	-0,110
279,326	-128,541	-0,069	-0,007
280,341	-9,176	-0,158	-0,073
281,355	158,451	-0,097	-0,093
282,370	800,000	-0,112	-0,215
283,384	84,659	-0,213	-0,160
284,399	-58,469	-0,163	0,048
285,414	-50,532	-0,173	-0,056
286,428	322,289	-0,157	-0,206
287,443	-154,088	-0,195	-0,009
288,457	-108,323	-0,124	-0,018
289,472	-108,374	-0,201	-0,029
290,487	136,626	-0,043	-0,039
291,501	800,000	-0,099	-0,189
292,516	800,000	-0,058	-0,116
293,530	-63,670	-0,243	-0,068
294,545	76,002	-0,040	-0,029
295,560	-130,920	-0,104	-0,009
296,574	-57,028	-0,234	-0,071
297,589	-36,973	-0,119	-0,044
298,603	412,936	-0,122	-0,178
299,618	36,618	-0,146	-0,088
300,633	95,703	-0,191	-0,149
301,647	-96,948	-0,151	-0,027
302,662	-51,853	-0,114	-0,036
303,676	-138,456	-0,240	-0,018
304,691	-80,691	-0,254	-0,058
305,706	-36,114	-0,124	-0,046
306,720	197,119	-0,149	-0,156
307,735	-45,112	-0,217	0,074
308,749	31,300	-0,117	0,069
309,764	-109,365	-0,086	0,012
310,779	76,028	-0,095	-0,069
311,793	-200,000	-0,027	-0,088
312,808	543,124	-0,091	-0,150
313,822	70,676	-0,173	-0,123
314,837	-200,000	-0,013	-0,082
315,852	11,153	-0,158	0,083
316,866	-65,714	-0,101	0,028
317,881	506,487	-0,112	-0,178
318,895	168,572	-0,166	-0,163
319,910	800,000	-0,084	-0,202
320,925	153,056	-0,235	-0,221
321,939	-63,102	-0,245	-0,069
322,954	203,264	-0,064	0,068
323,968	-114,060	-0,085	0,011
324,983	-94,403	-0,062	-0,012
325,997	160,631	-0,163	-0,156
327,012	264,053	-0,083	-0,100
328,027	637,559	-0,176	-0,307
329,041	800,000	-0,061	-0,142
330,056	-165,730	-0,225	0,007
331,070	515,282	-0,100	-0,160
332,085	-200,000	-0,002	-0,061
333,100	281,451	-0,112	-0,137
334,114	292,376	-0,135	-0,169
335,129	-42,261	-0,175	-0,061
336,143	-97,619	-0,217	-0,038
337,158	-74,648	-0,140	-0,034
338,173	-157,689	-0,044	0,002
339,187	-16,944	-0,159	-0,068
340,202	430,205	-0,089	-0,133
341,216	1,141	-0,210	-0,103
342,231	-200,000	-0,078	-0,238
343,246	148,900	-0,092	-0,085
344,260	206,486	-0,128	0,136
345,275	800,000	-0,046	-0,103
346,289	87,357	-0,083	-0,063
347,304	-9,828	-0,131	-0,060
348,319	-70,819	-0,088	0,022
349,333	414,583	-0,123	-0,179
350,348	483,524	-0,069	-0,108
351,362	361,780	-0,067	-0,092
352,377	50,758	-0,210	-0,135
353,392	800,000	-0,033	-0,069
354,406	-98,050	-0,164	-0,029
355,421	207,978	1310,938	1401,068
356,435	160,011	1471,149	1401,513
