DTS Sentinel unit serial number:	SN410029Multiplexer serial number:	ORYXHardware model number:	OX2-SRSoftware version number:	ORYX F/W v4,00 Oryx Data Collector v3.7.2.0data status	okinstallation	B3 Nyhavnadifferential loss correction	single-endedforward channel	channel 1reverse channel	N/Adate	2023/12/03time	14:57:30forward acquisition time	300,00reverse acquisition time	0,00gamma	499,1914k internal	0,3196k external	0,3196temperature offset calibration	1,0000default loss term (dB/km)	0,3820temperature slope calibration	1,0000multiplexer offset coefficient	1,0000multiplexer slope coefficient	1,0000fibre end	0,00T internal ref (°C)	15,88T ext. ref 1 (°C)	0,78T ext. ref 2 (°C)	0,79length (m)	temperature (°C)	Stokes	anti-Stokes-744,400	286,280	-0,167	-0,221
-743,385	-200,000	0,010	0,408
-742,371	406,018	-0,141	-0,217
-741,356	-200,000	0,012	0,421
-740,342	272,031	-0,220	-0,283
-739,327	800,000	-0,078	0,223
-738,312	-200,000	-0,040	-0,206
-737,298	800,000	-0,090	0,199
-736,283	800,000	-0,120	-0,260
-735,269	-200,000	-0,009	0,423
-734,254	52,698	-0,198	-0,137
-733,239	53,422	-0,245	0,171
-732,225	218,838	-0,245	-0,285
-731,210	-18,486	0,085	-0,038
-730,196	-200,000	-0,004	0,065
-729,181	-35,157	-0,112	-0,044
-728,167	800,000	0,086	-0,192
-727,152	223,371	-0,049	-0,058
-726,137	-127,823	0,110	-0,011
-725,123	-36,108	-0,017	-0,007
-724,108	-26,398	-0,286	-0,121
-723,094	270,250	0,108	-0,138
-722,079	-64,791	-0,058	-0,017
-721,064	800,000	0,034	-0,100
-720,050	-200,000	0,004	-0,063
-719,035	-90,736	-0,061	0,013
-718,021	-148,440	0,052	0,003
-717,006	5,587	-0,104	0,056
-715,991	7,969	-0,186	-0,101
-714,977	394,248	-0,109	-0,166
-713,962	800,000	-0,028	-0,077
-712,948	52,524	-0,067	0,047
-711,933	228,912	-0,065	-0,078
-710,918	-200,000	-0,001	0,021
-709,904	-43,124	-0,131	0,048
-708,889	197,106	-0,095	-0,106
-707,875	53,981	0,063	-0,044
-706,860	713,858	0,022	-0,042
-705,845	-55,237	0,083	0,027
-704,831	-14,371	0,081	0,038
-703,816	-200,000	0,009	-0,113
-702,802	328,050	-0,091	-0,127
-701,787	-200,000	-0,017	-0,055
-700,772	-0,604	-0,140	0,072
-699,758	-200,000	-0,002	-0,008
-698,743	145,937	0,026	0,025
-697,729	-34,372	-0,069	-0,027
-696,714	71,843	0,137	0,103
-695,699	-200,000	-0,021	0,104
-694,685	746,638	-0,040	-0,079
-693,670	800,000	0,021	-0,063
-692,656	-200,000	0,044	-0,143
-691,641	-200,000	-0,006	0,122
-690,627	569,339	-0,036	-0,063
-689,612	-144,027	-0,061	-0,004
-688,597	-200,000	0,006	-0,054
-687,583	210,374	-0,128	-0,146
-686,568	-200,000	0,011	0,051
-685,554	-123,523	0,138	0,016
-684,539	-200,000	-0,011	0,060
-683,524	800,000	0,023	0,064
-682,510	14,743	-0,183	0,104
-681,495	-200,000	-0,008	-0,033
-680,481	-65,076	-0,117	-0,034
-679,466	-63,448	0,070	0,021
-678,451	800,000	-0,036	0,098
-677,437	0,721	-0,131	-0,068
-676,422	36,383	-0,120	0,077
-675,408	-200,000	-0,042	0,136
-674,393	800,000	-0,036	-0,086
-673,378	71,993	0,003	0,003
-672,364	192,408	-0,046	0,050
-671,349	800,000	-0,055	-0,114
-670,335	-8,260	-0,045	-0,022
-669,320	-200,000	0,011	-0,037
-668,305	192,590	-0,052	0,058
-667,291	154,236	0,073	0,073
-666,276	-115,976	-0,132	-0,018
-665,262	-200,000	0,004	-0,062
-664,247	-176,696	0,175	0,003
-663,232	-200,000	-0,008	-0,047
-662,218	343,653	0,021	0,029
-661,203	-61,433	0,101	-0,031
-660,189	-80,426	0,052	0,013
-659,174	800,000	-0,032	-0,077
-658,159	-27,819	0,101	0,042
-657,145	304,072	0,049	0,065
-656,130	800,000	-0,046	0,098
-655,116	277,706	-0,027	-0,035
-654,101	-54,055	0,057	0,019
-653,086	375,417	0,030	-0,045
-652,072	-19,734	0,157	-0,070
-651,057	-148,800	-0,229	-0,013
-650,043	-127,604	0,091	0,009
-649,028	231,514	-0,063	0,075
-648,014	800,000	0,020	-0,049
-646,999	800,000	-0,007	0,015
-645,984	800,000	-0,016	-0,044
-644,970	182,661	0,013	-0,014
-643,955	7,021	-0,035	-0,019
-642,941	-200,000	-0,019	0,077
-641,926	-13,083	-0,102	-0,048
-640,911	800,000	0,027	-0,057
-639,897	755,966	-0,027	-0,054
-638,882	-99,181	-0,225	0,041
-637,868	800,000	0,054	0,133
-636,853	-30,247	-0,059	-0,024
-635,838	-200,000	-0,020	-0,108
-634,824	196,379	0,026	-0,029
-633,809	-200,000	-0,001	0,146
-632,795	-8,561	0,095	0,046
-631,780	791,532	0,031	0,063
-630,765	334,794	-0,110	-0,154
-629,751	-95,480	0,070	-0,014
-628,736	16,436	0,060	-0,034
-627,722	-200,000	-0,007	0,072
-626,707	326,336	-0,057	0,079
-625,692	-136,101	-0,146	0,012
-624,678	800,000	-0,041	0,105
-623,663	173,929	0,001	0,001
-622,649	319,538	-0,018	-0,025
-621,634	-78,447	0,081	0,020
-620,619	-200,000	-0,008	0,111
-619,605	800,000	-0,043	0,123
-618,590	50,150	-0,023	0,016
-617,576	-98,227	0,135	-0,025
-616,561	-119,099	0,050	-0,006
-615,546	-100,841	-0,206	-0,036
-614,532	-19,529	0,113	-0,050
-613,517	-52,867	-0,077	-0,025
-612,503	-200,000	0,010	-0,049
-611,488	114,903	0,026	0,023
-610,474	-28,419	0,080	0,033
-609,459	23,166	-0,095	-0,057
-608,444	375,278	-0,039	0,058
-607,430	49,283	-0,044	0,030
-606,415	800,000	-0,054	-0,142
-605,401	235,291	-0,025	0,030
-604,386	144,266	0,054	-0,052
-603,371	-200,000	-0,031	-0,104
-602,357	60,485	-0,153	0,110
-601,342	352,399	0,034	0,049
-600,328	-200,000	0,004	-0,102
-599,313	156,704	-0,063	-0,063
-598,298	449,315	0,012	0,020
-597,284	-40,712	0,136	0,051
-596,269	20,904	-0,031	-0,018
-595,255	-33,777	-0,061	0,024
-594,240	364,918	-0,048	-0,070
-593,225	800,000	-0,038	0,117
-592,211	-200,000	0,007	0,033
-591,196	-131,355	0,121	-0,011
-590,182	-200,000	-0,013	0,073
-589,167	-150,333	0,078	0,004
-588,152	2,755	-0,100	0,052
-587,138	75,656	-0,065	-0,049
-586,123	-93,193	0,174	0,035
-585,109	115,414	-0,066	0,058
-584,094	186,664	0,108	-0,117
-583,079	-200,000	0,018	-0,062
-582,065	-200,000	-0,011	-0,059
-581,050	-200,000	0,003	-0,203
-580,036	415,413	-0,057	-0,089
-579,021	-200,000	0,021	-0,075
-578,006	558,739	0,025	0,043
-576,992	458,505	-0,033	-0,054
-575,977	-200,000	-0,002	0,027
-574,963	264,431	0,018	-0,023
-573,948	-200,000	0,014	-0,076
-572,934	-200,000	0,002	-0,134
-571,919	800,000	-0,011	-0,025
-570,904	279,230	-0,031	-0,040
-569,890	-40,326	0,088	0,033
-568,875	-11,326	-0,051	0,024
-567,861	-200,000	0,001	0,146
-566,846	-200,000	0,001	0,044
-565,831	800,000	-0,029	0,070
-564,817	201,325	0,083	0,092
-563,802	-170,026	-0,020	-0,001
-562,788	220,660	-0,025	-0,029
-561,773	-200,000	-0,004	0,031
-560,758	10,839	0,238	-0,131
-559,744	800,000	-0,025	-0,073
-558,729	32,115	0,104	0,065
-557,715	153,155	-0,029	0,029
-556,700	84,303	0,148	-0,117
-555,685	-115,245	-0,144	-0,019
-554,671	56,065	-0,051	-0,035
-553,656	-5,298	-0,116	-0,057
-552,642	743,592	-0,029	0,056
-551,627	55,380	0,069	0,049
-550,612	800,000	-0,043	-0,101
-549,598	-200,000	-0,006	-0,128
-548,583	800,000	0,069	-0,145
-547,569	800,000	-0,018	0,046
-546,554	-200,000	-0,009	0,102
-545,539	-117,273	0,098	0,013
-544,525	1,153	-0,139	0,072
-543,510	-76,209	-0,152	0,039
-542,496	-14,616	-0,110	-0,051
-541,481	723,844	-0,039	-0,076
-540,466	-104,795	0,072	0,012
-539,452	-22,011	-0,161	-0,070
-538,437	80,883	0,112	-0,087
-537,423	-87,395	0,187	-0,041
-536,408	-200,000	0,003	-0,096
-535,393	-200,000	-0,010	-0,062
-534,379	-200,000	0,004	-0,101
-533,364	-42,792	-0,146	-0,053
-532,350	-200,000	0,008	-0,100
-531,335	-94,508	0,140	0,027
-530,321	316,571	0,010	-0,014
-529,306	699,021	-0,075	-0,142
-528,291	777,222	0,031	0,062
-527,277	-45,084	-0,080	-0,029
-526,262	-200,000	-0,002	-0,049
-525,248	-200,000	0,005	0,123
-524,233	-200,000	0,015	0,083
-523,218	70,490	-0,046	0,034
-522,204	128,323	-0,068	0,062
-521,189	-200,000	-0,000	0,046
-520,175	444,974	0,010	0,016
-519,160	92,421	0,048	-0,039
-518,145	-200,000	0,029	0,101
-517,131	-101,494	0,111	0,019
-516,116	198,129	0,068	0,075
-515,102	-200,000	-0,019	0,159
-514,087	-52,750	-0,094	-0,031
-513,072	-6,670	0,039	-0,019
-512,058	-28,624	0,051	-0,021
-511,043	472,558	-0,065	0,106
-510,029	31,425	0,065	0,040
-509,014	-167,231	-0,146	-0,004
-507,999	50,491	-0,089	0,060
-506,985	138,860	-0,030	-0,028
-505,970	122,341	-0,133	-0,120
-504,956	21,309	-0,085	0,050
-503,941	-98,048	0,102	0,019
-502,926	254,080	0,083	-0,102
-501,912	-128,972	0,047	-0,005
-500,897	49,771	0,095	0,064
-499,883	124,730	0,072	0,065
-498,868	126,942	0,087	-0,079
-497,853	-200,000	-0,012	0,107
-496,839	165,776	0,026	0,026
-495,824	-200,000	-0,008	-0,145
-494,810	-147,530	0,131	-0,008
-493,795	-20,975	0,032	0,014
-492,781	280,180	-0,044	-0,057
-491,766	800,000	0,044	0,100
-490,751	-200,000	-0,015	-0,077
-489,737	7,398	-0,110	-0,059
-488,722	800,000	-0,016	0,034
-487,708	295,563	0,053	-0,070
-486,693	-200,000	-0,001	0,111
-485,678	-149,582	0,163	-0,009
-484,664	-200,000	-0,020	-0,128
-483,649	400,983	0,043	-0,066
-482,635	-12,679	-0,122	0,057
-481,620	285,077	0,102	0,133
-480,605	101,676	0,104	-0,088
-479,591	-53,976	-0,049	0,016
-478,576	-200,000	-0,021	0,182
-477,562	800,000	-0,023	0,046
-476,547	800,000	-0,057	-0,127
-475,532	-200,000	0,002	0,042
-474,518	-200,000	0,006	0,060
-473,503	-8,478	-0,040	-0,019
-472,489	130,581	0,058	0,054
-471,474	800,000	0,024	0,076
-470,459	-53,807	0,058	0,019
-469,445	-17,837	0,088	-0,040
-468,430	39,396	-0,054	-0,035
-467,416	-200,000	-0,004	-0,023
-466,401	-200,000	0,048	-0,166
-465,386	-200,000	-0,021	0,134
-464,372	-200,000	0,001	-0,117
-463,357	350,338	-0,052	-0,074
-462,343	-200,000	0,025	-0,121
-461,328	36,827	-0,055	-0,035
-460,313	34,881	0,061	-0,039
-459,299	800,000	-0,025	-0,055
-458,284	800,000	0,057	0,131
-457,270	800,000	0,030	-0,062
-456,255	136,428	-0,049	-0,046
-455,241	85,262	0,017	-0,013
-454,226	236,488	0,021	-0,025
-453,211	800,000	0,037	-0,102
-452,197	-36,694	-0,114	-0,044
-451,182	-200,000	-0,043	0,164
-450,168	-98,236	0,123	0,023
-449,153	-200,000	-0,016	0,123
-448,138	387,537	-0,052	0,078
-447,124	-200,000	-0,005	-0,131
-446,109	-200,000	0,004	0,052
-445,095	196,915	-0,080	0,088
-444,080	-200,000	-0,018	0,091
-443,065	162,876	0,030	0,030
-442,051	760,474	0,032	-0,062
-441,036	-200,000	-0,030	0,156
-440,022	111,063	0,014	-0,012
-439,007	-39,625	-0,079	0,030
-437,992	54,350	0,039	0,027
-436,978	-74,892	0,117	-0,030
-435,963	-200,000	0,007	-0,042
-434,949	-12,839	-0,064	0,030
-433,934	55,017	0,077	0,053
-432,919	-102,438	0,173	0,030
-431,905	-170,862	-0,055	0,001
-430,890	-46,340	0,064	-0,022
-429,876	463,963	0,055	0,088
-428,861	29,994	0,010	0,006
-427,846	-200,000	0,007	-0,051
-426,832	49,374	-0,109	0,074
-425,817	800,000	-0,104	-0,233
-424,803	680,722	0,052	0,098
-423,788	-143,894	0,025	0,002
-422,773	334,944	-0,044	-0,062
-421,759	-197,573	-0,157	0,001
-420,744	-200,000	0,021	0,085
-419,730	-113,594	-0,102	0,014
-418,715	89,040	0,077	-0,062
-417,701	-25,026	0,082	0,035
-416,686	167,512	0,054	-0,055
-415,671	10,527	-0,079	-0,043
-414,657	713,357	0,049	0,094
-413,642	151,305	0,068	0,066
-412,628	300,277	-0,070	-0,093
-411,613	106,250	0,057	0,048
-410,598	800,000	-0,063	0,155
-409,584	-200,000	-0,025	0,111
-408,569	-54,456	0,015	0,005
-407,555	14,719	0,018	-0,010
-406,540	745,513	0,025	-0,048
-405,525	750,073	-0,074	-0,144
-404,511	-59,978	-0,046	-0,014
-403,496	189,636	-0,008	-0,009
-402,482	-200,000	-0,012	-0,093
-401,467	11,770	0,146	0,080
-400,452	-76,748	0,090	0,022
-399,438	800,000	0,039	0,100
-398,423	-200,000	0,020	0,129
-397,409	-67,240	-0,082	-0,023
-396,394	508,460	-0,065	-0,109
-395,379	64,005	0,035	-0,025
-394,365	-97,882	0,115	-0,021
-393,350	-31,825	0,016	-0,006
-392,336	-200,000	-0,033	-0,150
-391,321	-200,000	-0,016	0,111
-390,306	-149,247	-0,064	-0,004
-389,292	-171,030	-0,067	-0,002
-388,277	258,004	0,047	-0,058
-387,263	431,972	-0,040	-0,062
-386,248	-200,000	0,004	-0,062
-385,233	-16,295	-0,057	-0,026
-384,219	132,928	0,035	0,033
-383,204	800,000	0,023	-0,051
-382,190	-157,499	-0,068	-0,003
-381,175	-129,812	0,145	-0,014
-380,160	-200,000	0,005	-0,135
-379,146	-114,339	0,111	-0,015
-378,131	-200,000	0,018	-0,061
-377,117	-75,058	0,126	0,032
-376,102	683,594	0,043	0,081
-375,088	86,936	-0,083	0,065
-374,073	25,468	0,167	-0,099
-373,058	-200,000	-0,027	-0,127
-372,044	-142,569	0,172	0,012
-371,029	-114,624	-0,187	-0,025
-370,015	800,000	0,010	-0,024
-369,000	-200,000	0,006	-0,154
-367,985	-189,116	-0,018	0,000
-366,971	-1,328	0,121	-0,061
-365,956	-200,000	-0,012	-0,052
-364,942	58,269	0,012	-0,009
-363,927	-200,000	-0,012	-0,064
-362,912	-65,838	0,084	-0,024
-361,898	800,000	-0,016	-0,039
-360,883	800,000	0,037	-0,099
-359,869	8,242	-0,100	-0,054
-358,854	20,501	0,106	-0,062
-357,839	-200,000	0,024	-0,104
-356,825	2,121	0,131	-0,068
-355,810	-55,035	-0,045	-0,014
-354,796	247,576	-0,080	0,097
-353,781	80,241	-0,055	-0,043
-352,766	-67,908	0,121	-0,034
-351,752	74,775	0,069	0,052
-350,737	-62,018	0,120	0,036
-349,723	800,000	0,032	0,066
-348,708	-200,000	0,001	0,025
-347,693	800,000	-0,029	-0,063
-346,679	93,403	-0,108	-0,087
-345,664	86,698	-0,077	-0,061
-344,650	-200,000	0,024	0,084
-343,635	-76,640	-0,040	-0,010
-342,620	-200,000	0,003	-0,059
-341,606	-81,175	0,090	-0,021
-340,591	-124,414	0,166	0,018
-339,577	800,000	-0,022	-0,057
-338,562	-111,191	-0,031	0,005
-337,548	-200,000	-0,009	-0,135
-336,533	216,836	0,120	0,138
-335,518	-51,357	0,060	0,020
-334,504	25,201	-0,034	0,020
-333,489	189,188	-0,104	0,112
-332,475	44,341	-0,065	-0,043
-331,460	13,229	-0,094	-0,052
-330,445	-71,556	0,089	0,024
-329,431	68,002	0,134	0,098
-328,416	356,412	-0,019	-0,028
-327,402	-200,000	-0,045	0,193
-326,387	800,000	0,025	-0,067
-325,372	800,000	-0,041	0,090
-324,358	-173,996	-0,067	-0,001
-323,343	772,340	-0,064	0,126
-322,329	105,067	-0,038	-0,032
-321,314	-80,246	0,043	0,010
-320,299	-200,000	-0,017	-0,105
-319,285	-145,995	-0,068	0,004
-318,270	800,000	-0,070	-0,180
-317,256	619,516	0,053	-0,097
-316,241	-200,000	0,007	-0,078
-315,226	490,868	0,048	-0,079
-314,212	13,236	0,086	0,048
-313,197	-200,000	-0,012	0,043
-312,183	-102,177	0,047	0,008
-311,168	-34,405	-0,084	-0,033
-310,153	-200,000	-0,006	-0,043
-309,139	107,089	0,066	0,056
-308,124	-151,354	0,092	-0,005
-307,110	285,811	0,121	0,156
-306,095	-114,727	-0,095	0,013
-305,080	-200,000	-0,011	0,075
-304,066	3,777	-0,167	-0,087
-303,051	-54,866	0,046	-0,015
-302,037	326,274	-0,005	0,007
-301,022	191,125	-0,067	-0,072
-300,008	-200,000	-0,003	0,030
-298,993	126,991	0,050	-0,045
-297,978	-92,921	-0,103	-0,020
-296,964	654,798	-0,034	0,064
-295,949	-25,364	-0,075	0,031
-294,935	-51,304	0,055	-0,018
-293,920	-10,198	0,048	-0,023
-292,905	-200,000	0,014	-0,150
-291,891	304,078	0,051	0,068
-290,876	-153,615	0,083	0,004
-289,862	-200,000	0,019	-0,190
-288,847	-3,911	-0,145	0,072
-287,832	800,000	0,028	-0,068
-286,818	800,000	-0,018	0,054
-285,803	8,205	0,005	0,003
-284,789	-25,780	0,022	-0,009
-283,774	75,932	0,062	0,047
-282,759	330,072	0,067	-0,092
-281,745	-63,057	-0,067	-0,020
-280,730	800,000	-0,028	0,083
-279,716	800,000	0,023	-0,072
-278,701	-75,961	0,034	0,009
-277,686	-11,121	-0,094	-0,044
-276,672	-101,819	0,066	0,011
-275,657	-200,000	-0,022	0,147
-274,643	-102,955	-0,097	0,016
-273,628	-60,004	0,097	0,030
-272,613	452,387	0,047	-0,075
-271,599	117,494	-0,169	0,148
-270,584	0,140	0,136	0,069
-269,570	101,281	-0,090	-0,075
-268,555	344,559	-0,047	0,066
-267,540	595,478	-0,053	0,093
-266,526	-188,580	-0,220	-0,002
-265,511	-157,362	0,127	-0,005
-264,497	-200,000	0,006	0,038
-263,482	247,311	0,087	0,105
-262,467	208,876	0,055	0,061
-261,453	87,674	0,117	0,092
-260,438	642,581	-0,038	0,070
-259,424	-85,271	-0,071	0,016
-258,409	-32,682	-0,102	0,040
-257,395	-200,000	0,014	0,122
-256,380	-111,362	-0,092	-0,013
-255,365	-76,127	-0,010	-0,002
-254,351	800,000	-0,109	0,227
-253,336	-200,000	-0,017	0,110
-252,322	704,528	0,029	-0,055
-251,307	-86,705	-0,107	-0,023
-250,292	-48,124	0,051	0,018
-249,278	800,000	0,053	0,118
-248,263	282,260	-0,053	0,068
-247,249	-142,666	0,128	0,009
-246,234	800,000	-0,010	-0,031
-245,219	143,621	-0,025	-0,024
-244,205	239,961	0,076	-0,090
-243,190	245,090	0,143	0,172
-242,176	-39,642	-0,035	0,013
-241,161	137,802	0,093	0,087
-240,146	-5,291	-0,094	0,046
-239,132	20,241	-0,096	-0,055
-238,117	-200,000	-0,017	0,126
-237,103	-48,209	-0,045	0,015
-236,088	573,753	0,035	0,062
-235,073	800,000	-0,019	0,054
-234,059	-42,742	0,053	0,019
-233,044	800,000	-0,023	0,056
-232,030	-61,425	0,096	-0,029
-231,015	-1,924	-0,072	0,036
-230,000	-112,515	-0,135	-0,019
-228,986	-40,284	0,156	0,058
-227,971	-180,381	0,011	0,000
-226,957	234,718	0,092	0,109
-225,942	-200,000	0,001	0,219
-224,927	-13,795	-0,022	0,010
-223,913	-80,514	-0,153	-0,036
-222,898	800,000	0,031	-0,082
-221,884	-96,184	-0,065	-0,012
-220,869	-200,000	0,013	0,099
-219,855	-150,214	0,037	0,002
-218,840	117,295	0,069	0,061
-217,825	72,072	-0,006	0,004
-216,811	-200,000	-0,001	-0,053
-215,796	-200,000	-0,025	-0,135
-214,782	337,827	0,023	-0,032
-213,767	-1,046	0,123	-0,062
-212,752	-53,743	-0,119	-0,039
-211,738	-200,000	-0,017	-0,059
-210,723	289,234	0,033	-0,043
-209,709	-12,274	-0,063	0,029
-208,694	-83,558	0,023	0,005
-207,679	-53,210	-0,198	-0,064
-206,665	-200,000	0,016	0,066
-205,650	800,000	0,054	0,111
-204,636	429,347	0,036	-0,055
-203,621	603,281	0,075	0,133
-202,606	-90,037	-0,095	0,020
-201,592	-176,952	0,003	0,000
-200,577	496,626	-0,027	-0,044
-199,563	800,000	0,054	-0,116
-198,548	800,000	0,038	0,089
-197,533	-200,000	-0,017	-0,133
-196,519	-139,676	-0,093	0,007
-195,504	800,000	0,035	0,080
-194,490	-162,175	-0,104	-0,004
-193,475	800,000	-0,033	-0,094
-192,460	-56,955	-0,056	0,018
-191,446	648,342	0,051	0,094
-190,431	-72,071	0,134	0,035
-189,417	-104,206	0,189	0,031
-188,402	20,606	0,048	-0,027
-187,387	-106,033	-0,168	-0,027
-186,373	581,528	-0,066	-0,115
-185,358	87,760	0,011	0,009
-184,344	-59,879	-0,081	-0,025
-183,329	-52,977	0,141	0,046
-182,315	40,103	0,062	-0,040
-181,300	-55,556	-0,045	-0,014
-180,285	-200,000	-0,010	0,055
-179,271	-200,000	-0,014	-0,054
-178,256	-48,954	-0,073	-0,025
-177,242	-123,146	-0,058	-0,007
-176,227	476,944	0,044	-0,070
-175,212	-84,911	0,064	-0,014
-174,198	-165,185	0,041	-0,001
-173,183	-145,723	-0,101	0,006
-172,169	130,340	-0,190	-0,173
-171,154	319,584	0,044	-0,059
-170,139	800,000	0,058	0,153
-169,125	331,035	0,050	0,068
-168,110	-200,000	0,011	0,042
-167,096	73,566	0,038	0,029
-166,081	-200,000	-0,002	-0,097
-165,066	-86,862	-0,093	0,020
-164,052	38,290	-0,067	-0,042
-163,037	19,910	-0,042	-0,024
-162,023	-10,915	0,130	0,061
-161,008	-52,647	0,080	-0,026
-159,993	231,408	-0,123	0,144
-158,979	272,505	-0,112	-0,140
-157,964	-159,049	-0,098	-0,004
-156,950	-99,997	-0,038	0,007
-155,935	91,924	0,048	0,039
-154,920	36,422	-0,010	0,006
-153,906	82,308	0,164	0,127
-152,891	-28,837	-0,140	0,057
-151,877	-117,353	0,072	0,009
-150,862	238,085	-0,046	-0,055
-149,847	133,875	-0,032	-0,029
-148,833	14,406	-0,087	-0,048
-147,818	-94,613	-0,031	0,006
-146,804	800,000	0,064	0,171
-145,789	800,000	-0,053	0,121
-144,775	75,378	0,031	0,023
-143,760	279,490	-0,041	-0,053
-142,745	-120,951	0,169	-0,020
-141,731	68,930	-0,116	0,085
-140,716	-125,234	0,133	-0,014
-139,702	2,103	0,161	-0,082
-138,687	80,172	0,022	0,017
-137,672	-52,532	0,108	0,035
-136,658	-127,135	-0,066	0,007
-135,643	15,283	-0,090	-0,050
-134,629	82,890	-0,136	-0,105
-133,614	369,428	-0,028	0,041
-132,599	6,245	0,078	0,041
-131,585	-61,312	-0,181	-0,054
-130,570	258,051	0,061	0,075
-129,556	83,550	-0,107	-0,083
-128,541	-70,377	0,018	0,005
-127,526	422,850	0,065	0,100
-126,512	591,261	0,021	0,037
-125,497	-200,000	-0,012	-0,098
-124,483	128,981	0,053	0,048
-123,468	-200,000	0,012	0,038
-122,453	458,976	-0,094	-0,149
-121,439	174,822	0,082	-0,084
-120,424	275,242	0,014	0,018
-119,410	-200,000	-0,013	0,089
-118,395	151,505	0,033	-0,032
-117,380	800,000	-0,044	0,108
-116,366	-16,848	0,132	0,059
-115,351	155,207	-0,034	0,033
-114,337	-200,000	-0,002	-0,013
-113,322	100,781	-0,026	-0,022
-112,307	-189,807	0,184	0,001
-111,293	145,039	-0,070	0,066
-110,278	36,916	0,035	-0,022
-109,264	-76,238	-0,120	0,030
-108,249	-200,000	-0,005	-0,036
-107,234	800,000	-0,033	-0,095
-106,220	-200,000	0,031	-0,135
-105,205	-166,112	-0,076	-0,002
-104,191	16,374	0,066	0,037
-103,176	800,000	-0,056	0,153
-102,162	-37,291	-0,134	0,051
-101,147	-91,967	0,120	0,024
-100,132	43,707	-0,110	-0,071
-99,118	-109,862	-0,088	-0,013
-98,103	177,274	-0,085	-0,088
-97,089	9,328	0,138	0,074
-96,074	342,134	0,064	0,088
-95,059	-200,000	0,005	0,102
-94,045	234,941	-0,009	-0,011
-93,030	92,954	0,050	-0,040
-92,016	-27,129	0,072	-0,030
-91,001	-117,715	0,082	-0,010
-89,986	-68,199	-0,073	-0,020
-88,972	-64,961	-0,145	-0,041
-87,957	-200,000	0,004	-0,069
-86,943	267,686	0,062	-0,078
-85,928	-20,766	0,020	-0,008
-84,913	-47,865	-0,145	-0,050
-83,899	36,305	-0,144	0,090
-82,884	82,473	0,053	0,041
-81,870	-200,000	0,009	0,037
-80,855	-137,203	0,261	-0,021
-79,840	800,000	-0,044	-0,102
-78,826	90,139	-0,121	-0,096
-77,811	193,349	-0,062	-0,066
-76,797	-118,164	-0,147	0,018
-75,782	582,738	-0,050	-0,088
-74,767	-58,666	-0,047	0,014
-73,753	-200,000	-0,024	0,077
-72,738	30,936	-0,049	0,030
-71,724	-21,395	-0,160	-0,069
-70,709	-200,000	0,020	-0,071
-69,694	-3,179	-0,093	0,046
-68,680	203,001	-0,087	0,096
-67,665	-49,097	0,187	-0,063
-66,651	-200,000	-0,001	0,027
-65,636	367,415	-0,007	-0,010
-64,622	137,015	0,038	0,036
-63,607	-200,000	0,003	0,011
-62,592	293,250	-0,075	-0,097
-61,578	-89,986	0,099	-0,020
-60,563	335,408	0,014	0,019
-59,549	303,622	-0,074	0,098
-58,534	-72,595	-1,567	-0,407
-57,519	413,720	-1,427	-2,160
-56,505	-200,000	-0,668	-4,423
-55,490	144,465	0,975	0,924
-54,476	800,000	4,593	10,979
-53,461	-200,000	17,791	283,570
-52,446	800,000	720,969	2230,241
-51,432	563,049	1635,724	2818,648
-50,417	81,121	1659,512	1269,426
-49,403	23,750	1533,657	893,488
-48,388	17,684	1457,055	819,577
-47,373	18,206	1446,604	816,172
-46,359	17,824	1436,924	808,855
-45,344	15,972	1432,448	797,492
-44,330	15,905	1430,486	796,050
-43,315	15,923	1428,844	795,190
-42,300	15,946	1427,156	794,328
-41,286	15,989	1426,028	793,874
-40,271	15,995	1424,467	792,999
-39,257	15,933	1423,544	792,163
-38,242	16,027	1421,891	791,655
-37,227	16,008	1421,039	791,059
-36,213	15,964	1419,649	790,048
-35,198	15,971	1418,520	789,421
-34,184	15,989	1417,353	788,824
-33,169	15,937	1416,249	787,936
-32,154	16,010	1415,231	787,678
-31,140	16,004	1413,858	786,856
-30,125	16,002	1412,579	786,102
-29,111	15,983	1411,618	785,450
-28,096	15,940	1410,760	784,740
-27,082	15,896	1409,569	783,841
-26,067	15,971	1408,023	783,298
-25,052	15,947	1407,162	782,675
-24,038	15,915	1406,209	781,968
-23,023	15,917	1404,934	781,234
-22,009	15,869	1404,174	780,556
-20,994	15,853	1403,287	779,961
-19,979	15,835	1402,528	779,424
-18,965	15,798	1401,399	778,592
-17,950	15,803	1400,514	778,095
-16,936	15,880	1399,379	777,791
-15,921	15,820	1398,248	776,852
-14,906	15,810	1397,137	776,158
-13,892	15,851	1396,526	775,975
-12,877	15,841	1395,380	775,260
-11,863	15,800	1394,607	774,614
-10,848	15,783	1393,780	774,044
-9,833	15,799	1392,650	773,458
-8,819	15,791	1391,620	772,820
-7,804	15,751	1390,773	772,134
-6,790	15,694	1389,905	771,357
-5,775	15,721	1388,913	770,904
-4,760	15,679	1388,089	770,222
-3,746	15,721	1387,108	769,837
-2,731	15,690	1386,392	769,270
-1,717	15,708	1385,344	768,740
-0,702	15,662	1383,693	767,582
0,313	19,461	1304,099	740,962
1,327	35,682	707,022	439,334
2,342	54,609	125,384	85,527
3,356	3,150	16,591	8,521
4,371	7,900	3,129	1,657
5,386	-37,621	0,572	0,215
6,400	-200,000	-0,027	0,136
7,415	-77,480	-0,344	-0,084
8,429	124,191	-0,230	-0,204
9,444	415,686	-0,207	-0,314
10,459	-16,221	-0,340	-0,152
11,473	228,457	-0,212	-0,245
12,488	47,319	-0,311	-0,205
13,502	310,023	-0,180	-0,239
14,517	-52,139	-0,340	-0,111
15,531	196,654	-0,331	-0,358
16,546	245,535	-0,210	-0,250
17,561	143,209	-0,332	-0,313
18,575	36,509	-0,119	-0,074
19,590	148,234	-0,311	-0,297
20,604	64,463	-0,289	-0,206
21,619	138,225	-0,443	-0,411
22,634	47,041	-0,484	-0,318
23,648	-40,341	-0,401	-0,147
24,663	-26,282	-0,387	-0,160
25,677	89,908	-0,301	-0,238
26,692	98,592	-0,308	-0,251
27,707	-53,886	-0,423	-0,135
28,721	21,060	-0,324	-0,186
29,736	229,330	-0,326	-0,377
30,750	330,442	-0,274	-0,373
31,765	-41,966	-0,479	-0,172
32,780	20,074	-0,448	-0,255
33,794	113,845	-0,370	-0,318
34,809	158,090	-0,266	-0,261
35,823	114,116	-0,361	-0,310
36,838	81,262	-0,434	-0,331
37,853	260,625	-0,423	-0,517
38,867	-44,966	-0,357	-0,125
39,882	-85,634	-0,287	-0,062
40,896	8,461	-0,333	-0,177
41,911	800,000	-0,214	-0,501
42,926	33,168	-0,363	-0,222
43,940	382,967	-0,263	-0,384
44,955	93,887	-0,375	-0,300
45,969	216,299	-0,288	-0,324
46,984	9,974	-0,339	-0,181
47,999	708,563	-0,180	-0,337
49,013	88,636	-0,332	-0,260
50,028	8,761	-0,467	-0,247
51,042	94,570	-0,298	-0,239
52,057	307,011	-0,289	-0,381
53,071	34,656	-0,381	-0,234
54,086	28,082	-0,217	-0,129
55,101	56,233	-0,343	-0,234
56,115	54,782	-0,210	-0,142
57,130	120,258	-0,357	-0,313
58,144	46,686	-0,290	-0,189
59,159	-33,851	-0,360	-0,139
60,174	274,581	-0,269	-0,336
61,188	202,764	-0,234	-0,255
62,203	-53,769	-0,466	-0,149
63,217	193,773	-0,259	-0,276
64,232	48,483	-0,308	-0,203
65,247	50,753	-0,289	-0,193
66,261	57,704	-0,372	-0,256
67,276	-2,692	-0,373	-0,183
68,290	298,667	-0,289	-0,376
69,305	5,438	-0,276	-0,143
70,320	-145,024	-0,228	-0,014
71,334	-58,945	-0,317	-0,096
72,349	309,404	-0,297	-0,392
73,363	332,359	-0,199	-0,271
74,378	34,502	-0,382	-0,234
75,393	27,945	-0,276	-0,163
76,407	-57,498	-0,273	-0,084
77,422	46,503	-0,228	-0,149
78,436	35,250	-0,316	-0,194
79,451	208,111	-0,197	-0,217
80,466	36,835	-0,294	-0,182
81,480	23,597	-0,285	-0,165
82,495	248,623	-0,299	-0,357
83,509	800,000	-0,159	-0,335
84,524	-0,881	-0,283	-0,140
85,539	34,424	-0,259	-0,159
86,553	65,736	-0,336	-0,239
87,568	112,980	-0,351	-0,299
88,582	105,816	-0,327	-0,272
89,597	100,469	-0,215	-0,176
90,611	41,616	-0,255	-0,162
91,626	374,206	-0,137	-0,197
92,641	23,199	-0,314	-0,181
93,655	33,107	-0,300	-0,182
94,670	398,266	-0,261	-0,385
95,684	-112,868	-0,349	-0,048
96,699	137,440	-0,321	-0,295
97,714	57,777	-0,340	-0,233
98,728	56,016	-0,272	-0,185
99,743	-58,442	-0,323	-0,098
100,757	-62,875	-0,220	-0,064
101,772	95,659	-0,269	-0,215
102,787	167,314	-0,228	-0,228
103,801	7,529	-0,245	-0,128
104,816	-16,284	-0,298	-0,132
105,830	82,670	-0,261	-0,199
106,845	21,536	-0,228	-0,130
107,860	-89,720	-0,226	-0,046
108,874	141,975	-0,266	-0,248
109,889	67,801	-0,442	-0,317
110,903	5,985	-0,301	-0,156
111,918	40,848	-0,350	-0,221
112,933	443,044	-0,157	-0,243
113,947	280,829	-0,153	-0,193
114,962	207,738	-0,156	-0,171
115,976	40,800	-0,248	-0,157
116,991	17,933	-0,371	-0,207
118,006	83,297	-0,331	-0,253
119,020	7,940	-0,226	-0,119
120,035	127,277	-0,251	-0,224
121,049	-9,650	-0,212	-0,099
122,064	557,812	-0,118	-0,200
123,079	104,979	-0,272	-0,225
124,093	117,339	-0,305	-0,263
125,108	33,415	-0,255	-0,155
126,122	-7,202	-0,356	-0,169
127,137	-114,950	-0,311	-0,041
128,151	-46,783	-0,208	-0,071
129,166	-73,476	-0,289	-0,074
130,181	111,771	-0,201	-0,170
131,195	114,032	-0,230	-0,196
132,210	31,907	-0,345	-0,208
133,224	117,952	-0,253	-0,219
134,239	-53,319	-0,255	-0,082
135,254	76,103	-0,278	-0,206
136,268	-94,064	-0,406	-0,077
137,283	28,856	-0,134	-0,080
138,297	800,000	-0,079	-0,217
139,312	77,839	-0,199	-0,149
140,327	257,085	-0,169	-0,203
141,341	22,580	-0,353	-0,202
142,356	168,009	-0,186	-0,186
143,370	85,354	-0,121	-0,093
144,385	-10,280	-0,372	-0,172
145,400	-72,621	-0,243	-0,062
146,414	204,894	-0,222	-0,242
147,429	222,902	-0,134	-0,151
148,443	225,558	-0,164	-0,187
149,458	-98,557	-0,211	-0,037
150,473	99,573	-0,212	-0,172
151,487	35,069	-0,292	-0,179
152,502	-66,269	-0,225	-0,062
153,516	154,033	-0,122	-0,117
154,531	123,068	-0,321	-0,281
155,546	24,313	-0,250	-0,144
156,560	-63,397	-0,361	-0,103
157,575	0,043	-0,256	-0,127
158,589	214,649	-0,252	-0,280
159,604	131,151	-0,169	-0,152
160,619	-75,784	-0,280	-0,069
161,633	183,067	-0,234	-0,242
162,648	146,457	-0,253	-0,238
163,662	121,957	-0,255	-0,223
164,677	241,422	-0,154	-0,180
165,692	-1,066	-0,233	-0,115
166,706	-50,142	-0,229	-0,075
167,721	277,927	-0,247	-0,307
168,735	5,089	-0,263	-0,135
169,750	-63,647	-0,181	0,052
170,764	596,980	-0,145	-0,252
171,779	-73,952	-0,178	-0,045
172,794	800,000	-0,086	-0,174
173,808	-145,449	-0,219	0,014
174,823	50,941	-0,269	-0,177
175,837	68,867	-0,239	-0,171
176,852	491,148	-0,125	-0,201
177,867	-12,417	-0,177	-0,081
178,881	56,117	-0,182	-0,123
179,896	13,250	-0,298	-0,161
180,910	47,458	-0,212	-0,137
181,925	345,644	-0,108	-0,149
182,940	155,968	-0,169	-0,163
183,954	-67,586	-0,176	-0,048
184,969	48,591	-0,168	-0,109
185,983	-141,297	-0,129	-0,009
186,998	-31,137	-0,143	0,056
188,013	-200,000	-0,041	-0,151
189,027	149,426	-0,223	-0,210
190,042	104,052	-0,199	-0,163
191,056	127,762	-0,138	-0,122
192,071	400,184	-0,128	-0,188
193,086	221,471	-0,190	-0,213
194,100	-114,389	-0,226	-0,030
195,115	59,428	-0,141	-0,097
196,129	-87,348	-0,290	-0,061
197,144	300,887	-0,060	-0,077
198,159	185,698	-0,202	-0,209
199,173	172,118	-0,173	-0,174
200,188	-17,162	-0,187	0,082
201,202	43,867	-0,193	-0,123
202,217	343,833	-0,112	-0,154
203,232	800,000	-0,096	-0,285
204,246	-39,029	-0,210	-0,077
205,261	173,604	-0,239	-0,240
206,275	537,439	-0,140	-0,232
207,290	84,033	-0,255	-0,194
208,304	-10,935	-0,152	-0,069
209,319	115,850	-0,104	-0,088
210,334	-200,000	-0,206	0,000
211,348	80,879	-0,281	-0,211
212,363	-80,991	-0,340	-0,078
213,377	39,302	-0,152	-0,094
214,392	277,378	-0,148	-0,184
215,407	49,005	-0,162	-0,106
216,421	418,422	-0,104	-0,156
217,436	248,276	-0,163	-0,192
218,450	800,000	-0,112	-0,240
219,465	753,940	-0,158	-0,298
220,480	112,562	-0,195	-0,164
221,494	-56,343	-0,210	-0,064
222,509	126,101	-0,200	-0,176
223,523	147,895	-0,185	-0,174
224,538	-3,723	-0,266	-0,128
225,553	26,508	-0,184	-0,107
226,567	156,163	-0,315	-0,302
227,582	-67,116	-0,272	-0,074
228,596	39,835	-0,314	-0,196
229,611	-94,268	-0,180	0,034
230,626	-200,000	0,021	-0,087
231,640	266,460	-0,116	-0,141
232,655	-69,799	-0,274	-0,072
233,669	285,039	-0,195	-0,245
234,684	129,070	-0,093	-0,082
235,699	33,732	-0,241	-0,145
236,713	-64,441	-0,110	-0,031
237,728	225,382	-0,190	-0,214
238,742	-2,665	-0,086	-0,042
239,757	25,364	-0,255	-0,147
240,772	-103,560	-0,309	-0,050
241,786	244,964	-0,182	-0,212
242,801	-3,985	-0,341	-0,164
243,815	18,141	-0,233	-0,129
244,830	134,440	-0,155	-0,139
245,844	-10,178	-0,209	-0,096
246,859	-200,000	-0,015	-0,175
247,874	34,074	-0,375	-0,226
248,888	306,843	-0,216	-0,280
249,903	-116,686	-0,235	0,030
250,917	800,000	-0,091	-0,201
251,932	63,140	-0,198	-0,138
252,947	-79,165	-0,158	-0,037
253,961	97,256	-0,110	-0,087
254,976	-0,109	-0,333	-0,164
255,990	116,404	-0,215	-0,183
257,005	123,590	-0,259	-0,225
258,020	22,330	-0,174	-0,098
259,034	496,152	-0,144	-0,230
260,049	-4,635	-0,181	-0,086
261,063	-28,554	-0,251	-0,100
262,078	121,315	-0,210	-0,181
263,093	315,719	-0,105	-0,138
264,107	-7,492	-0,218	-0,102
265,122	18,226	-0,181	-0,100
266,136	-34,345	-0,236	-0,089
267,151	-150,679	-0,234	0,012
268,166	-40,305	-0,231	-0,083
269,180	481,563	-0,107	-0,168
270,195	265,378	-0,112	-0,135
271,209	204,730	-0,195	-0,210
272,224	74,068	-0,201	-0,146
273,239	-143,171	-0,174	-0,011
274,253	33,700	-0,098	-0,059
275,268	-119,268	-0,143	-0,017
276,282	101,583	-0,176	-0,142
277,297	31,520	-0,252	-0,150
278,312	-200,000	-0,016	-0,299
279,326	168,048	-0,107	-0,105
280,341	395,827	-0,131	-0,190
281,355	75,197	-0,264	-0,193
282,370	22,238	-0,292	-0,164
283,384	-79,298	-0,239	-0,056
284,399	138,168	-0,205	-0,186
285,414	-148,197	-0,134	-0,008
286,428	-168,793	-0,174	0,004
287,443	-134,016	-0,147	-0,012
288,457	142,655	-0,166	-0,152
289,472	455,889	-0,071	-0,110
290,487	40,527	-0,121	-0,075
291,501	119,911	-0,200	-0,172
292,516	-16,447	-0,209	-0,091
293,530	402,317	-0,096	-0,140
294,545	93,798	-0,036	-0,028
295,560	-200,000	0,026	-0,094
296,574	17,717	-0,109	-0,059
297,589	4,194	-0,150	-0,075
298,603	800,000	-0,053	-0,152
299,618	450,284	-0,096	-0,147
300,633	800,000	-0,098	-0,207
301,647	136,163	-0,089	-0,080
302,662	347,385	-0,067	-0,091
303,676	114,823	-0,187	-0,158
304,691	8,606	-0,241	-0,125
305,706	276,357	-0,100	-0,123
306,720	800,000	-0,100	-0,281
307,735	-200,000	-0,039	-0,125
308,749	-121,416	-0,097	-0,011
309,764	800,000	-0,018	-0,040
310,779	368,061	-0,138	-0,194
311,793	-71,314	-0,207	-0,053
312,808	-92,057	-0,151	-0,029
313,822	109,863	-0,177	-0,146
314,837	726,429	-0,107	-0,198
315,852	25,444	-0,057	-0,032
316,866	-53,805	-0,118	-0,037
317,881	-105,522	-0,113	0,017
318,895	-71,409	-0,074	0,019
319,910	-200,000	-0,041	-0,283
320,925	-31,728	-0,209	-0,081
321,939	800,000	-0,047	-0,118
322,954	624,847	-0,084	-0,147
323,968	800,000	-0,092	-0,187
324,983	-200,000	-0,018	-0,284
325,997	107,701	-0,163	-0,134
327,012	800,000	-0,080	-0,181
328,027	-43,015	-0,201	0,070
329,041	-94,222	-0,147	-0,027
330,056	119,672	-0,127	-0,108
331,070	105,725	-0,128	-0,104
332,085	39,716	-0,201	-0,124
333,100	215,798	-0,067	-0,073
334,114	-5,336	-0,154	-0,073
335,129	800,000	-0,076	-0,174
336,143	-93,162	-0,181	0,034
337,158	207,254	-0,166	-0,178
338,173	-74,205	-0,145	-0,036
339,187	507,335	-0,095	-0,153
340,202	28,833	-0,113	-0,066
341,216	110,057	-0,070	-0,058
342,231	89,446	-0,176	-0,135
343,246	84,564	-0,122	-0,092
344,260	94,987	-0,183	-0,143
345,275	286,267	-0,136	-0,169
346,289	-200,000	-0,015	-0,048
347,304	414,085	-0,182	-0,267
348,319	-137,139	-0,226	-0,017
349,333	449,202	-0,064	-0,098
350,348	440,641	-0,092	-0,138
351,362	-200,000	-0,037	-0,137
352,377	800,000	-0,018	-0,048
353,392	140,175	-0,114	-0,103
354,406	346,700	-0,118	-0,160
355,421	209,969	1313,571	1417,537
356,435	161,620	1474,191	1418,052
