DTS Sentinel unit serial number:	SN410029Multiplexer serial number:	ORYXHardware model number:	OX2-SRSoftware version number:	ORYX F/W v4,00 Oryx Data Collector v3.7.2.0data status	okinstallation	B3 Nyhavnadifferential loss correction	single-endedforward channel	channel 1reverse channel	N/Adate	2023/12/02time	22:27:30forward acquisition time	300,00reverse acquisition time	0,00gamma	499,1914k internal	0,3201k external	0,3201temperature offset calibration	1,0000default loss term (dB/km)	0,3820temperature slope calibration	1,0000multiplexer offset coefficient	1,0000multiplexer slope coefficient	1,0000fibre end	0,00T internal ref (°C)	13,20T ext. ref 1 (°C)	-1,81T ext. ref 2 (°C)	-1,83length (m)	temperature (°C)	Stokes	anti-Stokes-744,400	238,976	-0,267	-0,324
-743,385	-200,000	-0,035	0,312
-742,371	-200,000	0,030	-0,149
-741,356	-200,000	0,056	0,439
-740,342	800,000	-0,086	-0,240
-739,327	-200,000	-0,065	0,346
-738,312	259,060	-0,240	-0,302
-737,298	-200,000	-0,072	0,364
-736,283	337,759	-0,197	-0,279
-735,269	-200,000	-0,027	0,350
-734,254	79,648	-0,190	-0,148
-733,239	8,075	-0,205	0,112
-732,225	800,000	-0,139	-0,315
-731,210	68,044	0,054	0,040
-730,196	800,000	-0,031	0,070
-729,181	-200,000	-0,012	0,145
-728,167	-88,315	-0,031	-0,007
-727,152	-200,000	-0,012	0,143
-726,137	800,000	-0,015	-0,029
-725,123	112,906	-0,155	-0,136
-724,108	65,863	-0,049	-0,036
-723,094	-100,985	-0,117	-0,021
-722,079	10,548	-0,184	-0,102
-721,064	800,000	-0,017	-0,038
-720,050	65,716	-0,049	-0,036
-719,035	-77,538	-0,131	-0,033
-718,021	-93,450	0,074	-0,015
-717,006	104,298	-0,115	-0,098
-715,991	372,610	-0,027	-0,040
-714,977	-200,000	0,012	0,116
-713,962	100,703	-0,087	0,073
-712,948	-17,013	0,066	-0,030
-711,933	440,867	0,075	0,120
-710,918	51,425	-0,129	-0,089
-709,904	-187,325	-0,047	-0,000
-708,889	587,263	0,025	-0,045
-707,875	-90,265	-0,131	0,027
-706,860	233,580	-0,056	0,067
-705,845	289,363	0,098	-0,130
-704,831	171,413	-0,058	-0,060
-703,816	800,000	0,012	-0,033
-702,802	12,964	0,038	0,021
-701,787	-181,129	-0,068	0,001
-700,772	-110,692	-0,108	0,016
-699,758	-200,000	0,004	0,027
-698,743	-109,695	0,050	-0,008
-697,729	429,256	0,063	0,100
-696,714	17,287	-0,081	-0,047
-695,699	362,672	0,008	-0,012
-694,685	5,861	0,082	-0,044
-693,670	-124,393	-0,113	0,013
-692,656	-200,000	0,028	0,160
-691,641	-200,000	0,004	-0,060
-690,627	288,831	0,085	0,112
-689,612	-200,000	0,001	0,072
-688,597	3,144	0,041	-0,022
-687,583	7,465	0,031	-0,017
-686,568	221,717	0,055	-0,064
-685,554	-52,571	0,053	0,018
-684,539	-200,000	-0,017	-0,086
-683,524	-200,000	0,001	0,023
-682,510	-200,000	-0,027	0,148
-681,495	-200,000	-0,032	0,138
-680,481	-200,000	-0,015	-0,096
-679,466	148,537	0,069	-0,068
-678,451	40,124	-0,132	-0,086
-677,437	800,000	-0,050	-0,134
-676,422	-142,165	-0,108	0,008
-675,408	111,366	-0,049	0,042
-674,393	-43,241	-0,095	0,035
-673,378	-200,000	-0,023	-0,123
-672,364	139,310	-0,048	-0,045
-671,349	-84,995	-0,162	-0,037
-670,335	-140,195	0,114	0,009
-669,320	-200,000	-0,013	-0,046
-668,305	640,816	0,024	0,045
-667,291	573,190	-0,101	0,179
-666,276	548,935	-0,025	-0,043
-665,262	-200,000	-0,005	-0,160
-664,247	517,010	-0,055	0,094
-663,232	-58,273	0,037	-0,012
-662,218	-96,407	0,097	-0,018
-661,203	555,268	-0,028	0,049
-660,189	-29,030	0,035	0,015
-659,174	-200,000	-0,021	-0,088
-658,159	1,116	-0,152	-0,079
-657,145	-200,000	-0,012	-0,044
-656,130	122,679	0,076	-0,069
-655,116	-54,850	-0,105	-0,034
-654,101	560,865	-0,065	0,114
-653,086	-24,505	-0,106	-0,046
-652,072	-200,000	0,009	0,077
-651,057	13,436	-0,049	0,027
-650,043	-200,000	-0,017	0,068
-649,028	-28,388	0,126	-0,052
-648,014	-151,874	0,110	0,006
-646,999	-200,000	-0,005	-0,038
-645,984	-102,331	0,099	0,017
-644,970	100,153	-0,020	-0,017
-643,955	-80,106	0,024	-0,006
-642,941	-200,000	0,004	-0,055
-641,926	-99,099	-0,079	-0,014
-640,911	512,253	0,075	0,126
-639,897	-200,000	-0,002	0,015
-638,882	241,296	-0,059	0,071
-637,868	784,640	-0,084	-0,167
-636,853	-200,000	-0,023	-0,102
-635,838	141,521	-0,069	-0,066
-634,824	-96,224	-0,067	0,013
-633,809	800,000	0,036	0,084
-632,795	436,154	0,045	0,071
-631,780	-39,113	-0,039	0,015
-630,765	-200,000	0,011	0,037
-629,751	-158,586	0,032	0,001
-628,736	-200,000	-0,004	-0,069
-627,722	238,641	0,009	-0,011
-626,707	800,000	-0,033	0,097
-625,692	-108,411	0,076	0,012
-624,678	102,480	-0,111	0,094
-623,663	800,000	-0,032	0,099
-622,649	800,000	-0,043	-0,095
-621,634	800,000	-0,031	-0,083
-620,619	-45,667	-0,133	0,047
-619,605	-73,437	-0,078	0,021
-618,590	-71,386	-0,120	0,032
-617,576	-71,192	0,194	0,052
-616,561	-200,000	0,012	0,123
-615,546	-18,777	-0,037	-0,017
-614,532	800,000	-0,046	-0,104
-613,517	-200,000	0,020	-0,124
-612,503	-151,926	0,147	0,008
-611,488	-194,242	-0,113	-0,001
-610,474	-59,446	-0,049	-0,015
-609,459	-200,000	-0,010	0,049
-608,444	89,121	0,037	-0,030
-607,430	240,033	-0,150	-0,181
-606,415	343,002	-0,118	-0,168
-605,401	800,000	-0,032	-0,087
-604,386	454,049	-0,054	0,086
-603,371	800,000	0,058	0,156
-602,357	-73,745	0,024	0,006
-601,342	631,006	-0,059	0,108
-600,328	-14,227	0,066	-0,031
-599,313	-19,909	-0,077	-0,034
-598,298	-200,000	0,011	0,058
-597,284	-14,767	-0,016	-0,007
-596,269	400,531	-0,078	-0,118
-595,255	-26,685	0,008	-0,003
-594,240	-200,000	0,020	-0,094
-593,225	-200,000	0,022	-0,207
-592,211	-75,446	-0,098	-0,025
-591,196	-61,664	0,061	-0,018
-590,182	-140,596	0,042	0,003
-589,167	244,275	0,138	0,168
-588,152	138,716	-0,156	0,148
-587,138	-200,000	-0,001	0,084
-586,123	-62,737	-0,111	-0,033
-585,109	204,657	-0,024	-0,027
-584,094	-77,509	-0,129	0,032
-583,079	-48,289	-0,079	0,027
-582,065	-4,939	0,153	0,076
-581,050	800,000	-0,035	0,072
-580,036	-200,000	-0,024	-0,175
-579,021	-74,385	-0,058	-0,015
-578,006	-63,339	-0,207	-0,061
-576,992	24,653	0,080	0,048
-575,977	616,677	0,064	0,116
-574,963	194,748	0,039	-0,043
-573,948	50,957	-0,076	0,052
-572,934	-164,795	0,224	-0,007
-571,919	800,000	-0,055	-0,112
-570,904	-78,854	-0,128	-0,031
-569,890	268,768	-0,034	0,043
-568,875	-200,000	0,016	-0,073
-567,861	800,000	0,016	-0,046
-566,846	-125,609	0,095	0,010
-565,831	800,000	-0,033	-0,083
-564,817	7,191	-0,108	-0,058
-563,802	-200,000	-0,007	-0,066
-562,788	800,000	0,023	-0,048
-561,773	418,934	0,020	0,031
-560,758	-200,000	0,003	0,075
-559,744	-200,000	0,028	0,180
-558,729	-34,611	-0,109	-0,043
-557,715	111,605	-0,069	0,060
-556,700	800,000	0,031	0,081
-555,685	214,979	-0,028	-0,032
-554,671	46,993	-0,089	0,060
-553,656	159,659	0,046	-0,046
-552,642	382,624	0,047	0,070
-551,627	800,000	0,044	-0,116
-550,612	800,000	-0,022	0,054
-549,598	179,357	-0,084	-0,089
-548,583	276,165	0,051	-0,066
-547,569	-22,203	0,055	0,024
-546,554	800,000	-0,061	0,142
-545,539	55,058	-0,107	0,075
-544,525	-200,000	-0,026	-0,124
-543,510	-32,008	-0,061	0,025
-542,496	190,785	-0,116	0,126
-541,481	-88,209	-0,034	-0,007
-540,466	64,649	0,134	0,097
-539,452	-200,000	0,017	0,064
-538,437	-200,000	0,018	-0,083
-537,423	-147,427	-0,051	-0,003
-536,408	-68,912	-0,023	-0,006
-535,393	800,000	0,023	0,068
-534,379	-200,000	0,005	-0,051
-533,364	800,000	0,057	0,119
-532,350	800,000	-0,032	-0,086
-531,335	-49,829	0,099	0,034
-530,321	127,078	-0,104	0,095
-529,306	-200,000	-0,018	-0,150
-528,291	-112,949	0,045	0,006
-527,277	556,739	-0,040	-0,070
-526,262	88,912	0,056	-0,045
-525,248	30,257	-0,061	-0,038
-524,233	800,000	-0,042	-0,086
-523,218	-85,927	0,116	-0,026
-522,204	-200,000	0,008	0,119
-521,189	-44,504	-0,128	-0,046
-520,175	-200,000	0,009	-0,066
-519,160	-14,813	-0,057	-0,026
-518,145	-88,469	0,112	0,024
-517,131	800,000	-0,068	-0,151
-516,116	635,633	-0,055	-0,101
-515,102	-28,072	-0,042	0,018
-514,087	-36,073	0,078	0,030
-513,072	-200,000	-0,015	-0,080
-512,058	-7,915	-0,070	-0,034
-511,043	-118,150	-0,071	-0,009
-510,029	-140,385	0,342	0,025
-509,014	82,257	0,061	-0,048
-507,999	580,987	-0,026	0,047
-506,985	556,646	0,045	0,078
-505,970	-117,911	0,066	-0,008
-504,956	245,815	-0,054	-0,066
-503,941	117,088	-0,071	0,063
-502,926	800,000	0,062	-0,147
-501,912	187,837	-0,084	-0,090
-500,897	800,000	0,037	0,095
-499,883	800,000	0,037	0,106
-498,868	392,326	-0,044	0,065
-497,853	-65,413	-0,151	-0,044
-496,839	188,605	-0,082	0,088
-495,824	800,000	0,065	0,151
-494,810	-64,355	0,102	0,030
-493,795	-200,000	-0,032	0,114
-492,781	-165,068	-0,087	-0,003
-491,766	-200,000	-0,000	0,015
-490,751	65,120	0,066	-0,048
-489,737	-200,000	0,045	0,190
-488,722	-136,481	0,098	-0,008
-487,708	66,063	0,080	-0,058
-486,693	106,395	0,051	0,044
-485,678	-4,271	-0,016	0,008
-484,664	571,436	-0,099	-0,174
-483,649	-200,000	0,030	-0,144
-482,635	525,847	0,092	-0,156
-481,620	-94,671	-0,053	-0,010
-480,605	-4,898	0,132	0,065
-479,591	800,000	0,014	-0,033
-478,576	-200,000	0,035	-0,174
-477,562	-42,445	-0,120	0,044
-476,547	-200,000	-0,002	0,009
-475,532	-5,146	-0,065	0,032
-474,518	492,933	0,051	-0,084
-473,503	-200,000	-0,007	0,042
-472,489	-119,544	0,057	-0,007
-471,474	-200,000	0,027	-0,096
-470,459	-200,000	0,004	-0,025
-469,445	800,000	-0,057	-0,171
-468,430	58,748	0,045	-0,032
-467,416	-55,941	0,189	0,060
-466,401	-126,579	0,013	-0,001
-465,386	-9,262	-0,028	-0,014
-464,372	800,000	-0,057	0,157
-463,357	800,000	-0,044	-0,121
-462,343	-19,661	-0,079	-0,035
-461,328	401,758	0,076	0,115
-460,313	247,720	0,123	0,150
-459,299	-120,899	0,166	0,020
-458,284	-200,000	-0,028	-0,116
-457,270	800,000	0,020	-0,059
-456,255	-200,000	-0,012	-0,060
-455,241	-81,788	-0,077	-0,018
-454,226	728,627	0,044	-0,086
-453,211	169,645	0,096	0,098
-452,197	-65,799	0,079	0,023
-451,182	-200,000	0,002	-0,081
-450,168	-120,818	-0,123	-0,015
-449,153	139,671	-0,035	-0,033
-448,138	-200,000	0,018	0,148
-447,124	609,364	0,025	-0,045
-446,109	-124,431	0,071	0,008
-445,095	-16,877	0,128	0,058
-444,080	800,000	0,044	0,133
-443,065	88,171	0,044	0,035
-442,051	-200,000	0,014	0,086
-441,036	239,471	0,063	-0,076
-440,022	-112,400	-0,075	0,011
-439,007	134,280	0,048	0,044
-437,992	39,270	-0,053	0,034
-436,978	29,413	0,097	0,059
-435,963	339,757	0,056	-0,078
-434,949	-95,807	-0,105	-0,020
-433,934	-200,000	-0,002	-0,118
-432,919	-200,000	-0,003	-0,053
-431,905	686,666	-0,051	-0,095
-430,890	-151,495	-0,072	-0,004
-429,876	96,750	0,106	0,088
-428,861	269,418	0,080	0,101
-427,846	-33,287	-0,025	-0,010
-426,832	44,743	-0,102	-0,067
-425,817	-200,000	0,003	-0,032
-424,803	-200,000	-0,047	0,168
-423,788	-96,660	0,207	0,039
-422,773	800,000	0,064	0,145
-421,759	800,000	0,010	-0,025
-420,744	-38,573	0,112	0,042
-419,730	-200,000	-0,001	-0,024
-418,715	133,460	-0,103	-0,096
-417,701	-34,111	-0,147	-0,058
-416,686	-200,000	0,043	-0,142
-415,671	288,060	0,048	0,062
-414,657	257,200	-0,104	0,129
-413,642	-200,000	0,000	0,057
-412,628	38,870	-0,072	-0,046
-411,613	240,261	-0,075	-0,090
-410,598	-200,000	0,008	0,113
-409,584	-83,928	-0,077	0,017
-408,569	-200,000	-0,004	-0,047
-407,555	665,949	0,066	0,122
-406,540	-200,000	0,003	0,016
-405,525	-163,252	-0,022	0,001
-404,511	-200,000	-0,011	-0,078
-403,496	-86,558	-0,104	-0,023
-402,482	46,310	0,082	-0,055
-401,467	-200,000	0,005	-0,048
-400,452	-200,000	0,031	0,138
-399,438	39,652	-0,040	-0,026
-398,423	-94,193	0,089	-0,017
-397,409	-200,000	0,027	0,111
-396,394	-200,000	-0,018	-0,087
-395,379	-94,285	-0,118	-0,023
-394,365	-200,000	-0,033	0,115
-393,350	26,635	0,141	0,084
-392,336	135,574	0,116	0,108
-391,321	-200,000	0,010	-0,093
-390,306	56,628	-0,030	-0,021
-389,292	333,834	-0,074	-0,104
-388,277	-71,956	-0,049	-0,013
-387,263	-200,000	0,008	0,069
-386,248	-200,000	-0,011	0,087
-385,233	-32,543	-0,027	-0,011
-384,219	-191,797	-0,142	0,001
-383,204	77,565	-0,061	-0,046
-382,190	800,000	0,021	-0,042
-381,175	104,117	-0,158	-0,133
-380,160	216,026	0,080	0,092
-379,146	-200,000	0,005	-0,148
-378,131	-2,966	0,048	-0,024
-377,117	-200,000	0,007	-0,133
-376,102	40,093	0,095	-0,061
-375,088	800,000	-0,043	-0,092
-374,073	165,555	0,068	-0,069
-373,058	-146,303	-0,077	0,005
-372,044	147,881	0,095	-0,092
-371,029	15,022	-0,039	-0,022
-370,015	800,000	-0,034	0,106
-369,000	-95,946	-0,072	0,014
-367,985	-200,000	-0,008	-0,141
-366,971	-26,064	0,160	0,067
-365,956	-67,452	-0,039	0,011
-364,942	0,025	0,116	0,059
-363,927	286,816	0,066	0,085
-362,912	-200,000	-0,003	-0,049
-361,898	-200,000	0,008	-0,091
-360,883	457,460	0,046	-0,074
-359,869	-88,782	-0,049	-0,010
-358,854	45,847	0,041	-0,027
-357,839	263,458	0,055	0,068
-356,825	-51,880	0,183	0,061
-355,810	87,736	0,062	0,049
-354,796	-200,000	0,050	0,178
-353,781	-163,699	-0,052	-0,002
-352,766	-183,219	0,115	-0,001
-351,752	-200,000	-0,002	-0,085
-350,737	392,950	0,012	0,019
-349,723	800,000	0,003	0,007
-348,708	105,177	0,035	-0,029
-347,693	-200,000	0,010	0,071
-346,679	-114,496	0,024	-0,003
-345,664	-42,754	-0,121	-0,044
-344,650	-64,850	0,101	-0,029
-343,635	535,020	0,028	0,047
-342,620	-200,000	-0,011	-0,037
-341,606	-200,000	0,022	0,075
-340,591	397,864	0,044	0,066
-339,577	515,794	-0,038	-0,064
-338,562	-5,131	-0,121	0,059
-337,548	-113,633	-0,127	0,018
-336,533	491,197	0,028	-0,046
-335,518	-60,797	-0,065	-0,020
-334,504	800,000	0,065	0,148
-333,489	196,856	-0,061	-0,066
-332,475	-200,000	0,053	0,169
-331,460	800,000	-0,078	0,186
-330,445	12,560	0,097	-0,053
-329,431	30,792	-0,078	-0,047
-328,416	27,629	0,065	-0,039
-327,402	-165,370	-0,056	0,002
-326,387	701,665	-0,028	-0,053
-325,372	391,226	-0,104	-0,155
-324,358	-200,000	-0,023	-0,106
-323,343	27,727	-0,037	0,022
-322,329	800,000	-0,043	0,092
-321,314	123,386	0,041	0,037
-320,299	-165,268	-0,018	-0,001
-319,285	-111,502	0,097	0,014
-318,270	206,681	-0,138	0,154
-317,256	131,584	-0,080	-0,073
-316,241	-19,448	0,128	-0,057
-315,226	-132,586	-0,091	-0,008
-314,212	106,028	0,045	-0,038
-313,197	116,163	-0,071	0,063
-312,183	96,543	0,072	-0,059
-311,168	15,418	-0,045	-0,025
-310,153	-200,000	0,024	0,113
-309,139	83,244	-0,123	-0,095
-308,124	-5,013	-0,075	-0,037
-307,110	-200,000	0,006	0,039
-306,095	191,672	0,037	0,040
-305,080	-51,677	-0,092	0,030
-304,066	-200,000	0,016	-0,081
-303,051	271,418	-0,061	-0,076
-302,037	137,725	-0,021	0,020
-301,022	-28,366	0,033	0,013
-300,008	731,504	-0,040	-0,077
-298,993	281,299	0,052	-0,067
-297,978	38,765	-0,066	0,042
-296,964	-200,000	0,016	-0,097
-295,949	800,000	0,052	-0,123
-294,935	244,086	-0,156	-0,188
-293,920	57,718	-0,014	0,010
-292,905	-63,374	0,034	-0,010
-291,891	-200,000	0,007	0,072
-290,876	-69,617	0,144	0,039
-289,862	142,441	-0,039	0,037
-288,847	-6,661	-0,126	-0,061
-287,832	-156,887	-0,106	-0,005
-286,818	82,214	0,016	0,012
-285,803	-200,000	-0,004	-0,182
-284,789	-200,000	0,013	0,054
-283,774	97,587	-0,006	0,005
-282,759	-125,773	0,136	0,014
-281,745	-200,000	-0,012	0,056
-280,730	-122,395	-0,120	0,014
-279,716	-200,000	-0,011	0,044
-278,701	58,312	0,077	0,054
-277,686	1,685	0,032	-0,017
-276,672	183,974	0,065	0,069
-275,657	-188,504	-0,110	0,001
-274,643	-57,121	-0,030	-0,009
-273,628	-48,073	-0,119	0,041
-272,613	800,000	-0,050	-0,099
-271,599	800,000	-0,012	0,037
-270,584	-200,000	0,017	-0,096
-269,570	800,000	0,023	-0,060
-268,555	142,843	0,124	0,117
-267,540	282,626	0,039	0,049
-266,526	800,000	-0,081	-0,162
-265,511	163,280	0,111	0,112
-264,497	120,268	0,091	-0,081
-263,482	15,631	0,075	0,042
-262,467	800,000	0,014	0,036
-261,453	162,775	0,050	0,050
-260,438	20,127	-0,057	0,033
-259,424	-200,000	0,000	0,001
-258,409	764,429	0,020	0,040
-257,395	-200,000	-0,041	-0,136
-256,380	800,000	0,033	0,078
-255,365	177,079	-0,086	0,090
-254,351	-17,688	0,063	-0,028
-253,336	-200,000	0,008	-0,149
-252,322	-200,000	0,005	-0,031
-251,307	800,000	0,086	-0,176
-250,292	-189,178	-0,065	-0,001
-249,278	-200,000	-0,006	0,189
-248,263	-17,720	0,029	0,013
-247,249	-62,148	0,063	-0,019
-246,234	327,019	-0,030	0,041
-245,219	-200,000	-0,153	0,000
-244,205	-200,000	-0,042	-0,141
-243,190	127,111	-0,093	0,085
-242,176	122,888	0,158	0,141
-241,161	410,958	-0,039	0,059
-240,146	-200,000	0,027	0,127
-239,132	-89,634	-0,089	-0,018
-238,117	-200,000	0,008	-0,161
-237,103	-200,000	0,002	-0,062
-236,088	265,851	-0,035	-0,044
-235,073	8,469	0,108	-0,058
-234,059	193,589	-0,058	0,063
-233,044	-200,000	0,001	0,121
-232,030	619,358	0,039	0,071
-231,015	528,078	0,020	-0,035
-230,000	800,000	0,063	-0,133
-228,986	-85,127	0,025	-0,006
-227,971	800,000	-0,041	-0,100
-226,957	-1,772	0,128	0,064
-225,942	482,321	-0,101	-0,165
-224,927	100,628	-0,072	-0,059
-223,913	546,368	-0,074	-0,126
-222,898	-112,074	-0,037	-0,005
-221,884	800,000	0,042	-0,095
-220,869	-115,702	0,071	0,009
-219,855	-200,000	0,039	0,128
-218,840	-200,000	0,023	0,128
-217,825	800,000	-0,031	0,080
-216,811	29,383	-0,046	-0,028
-215,796	230,643	-0,098	-0,114
-214,782	-200,000	0,006	0,064
-213,767	-200,000	0,006	-0,026
-212,752	800,000	0,042	0,094
-211,738	-40,511	0,019	-0,007
-210,723	-200,000	-0,036	-0,123
-209,709	-89,002	-0,055	0,011
-208,694	-200,000	-0,008	0,025
-207,679	-200,000	0,002	-0,123
-206,665	-200,000	0,003	0,087
-205,650	86,120	0,063	-0,049
-204,636	-200,000	-0,034	0,109
-203,621	162,439	-0,006	0,006
-202,606	279,611	0,080	0,102
-201,592	-50,579	0,097	-0,032
-200,577	216,936	-0,065	-0,074
-199,563	-67,212	-0,028	0,008
-198,548	193,977	0,086	0,093
-197,533	46,997	0,082	0,054
-196,519	800,000	0,031	-0,090
-195,504	-5,851	0,082	0,040
-194,490	-154,371	-0,069	0,003
-193,475	-4,790	-0,060	-0,029
-192,460	800,000	0,048	0,132
-191,446	-87,128	0,076	0,016
-190,431	-40,285	-0,048	-0,018
-189,417	-200,000	-0,023	0,153
-188,402	-105,388	-0,091	0,015
-187,387	800,000	0,038	-0,092
-186,373	41,582	0,090	-0,058
-185,358	-200,000	-0,017	-0,092
-184,344	-72,709	-0,055	0,014
-183,329	800,000	0,044	0,113
-182,315	-92,173	0,009	0,002
-181,300	-45,802	-0,038	0,013
-180,285	-200,000	-0,006	0,061
-179,271	-200,000	-0,012	-0,052
-178,256	800,000	0,013	-0,028
-177,242	-112,960	-0,047	-0,006
-176,227	-32,922	0,025	0,010
-175,212	-144,085	0,049	0,003
-174,198	-120,284	0,202	-0,024
-173,183	2,851	0,026	0,013
-172,169	343,324	-0,074	-0,104
-171,154	-26,585	-0,080	-0,033
-170,139	352,652	0,068	-0,096
-169,125	114,430	0,061	0,053
-168,110	-200,000	0,002	0,099
-167,096	-200,000	0,029	0,110
-166,081	64,195	0,022	0,016
-165,066	-97,388	0,013	0,002
-164,052	-200,000	-0,024	0,160
-163,037	398,822	-0,057	0,085
-162,023	-200,000	0,130	0,000
-161,008	-51,566	-0,094	-0,031
-159,993	-200,000	0,037	0,128
-158,979	15,641	-0,124	0,069
-157,964	-50,080	0,115	-0,038
-156,950	179,442	0,091	0,095
-155,935	368,603	0,070	0,102
-154,920	800,000	-0,068	0,138
-153,906	45,641	0,064	0,042
-152,891	169,729	0,086	0,087
-151,877	-36,009	-0,165	0,063
-150,862	166,680	-0,025	-0,025
-149,847	-200,000	0,024	-0,087
-148,833	5,105	0,055	-0,029
-147,818	-200,000	-0,012	0,044
-146,804	671,452	0,048	0,089
-145,789	576,430	0,128	0,224
-144,775	-133,892	-0,061	0,005
-143,760	-164,827	-0,051	0,002
-142,745	641,000	-0,029	-0,054
-141,731	136,213	0,075	0,069
-140,716	109,580	-0,096	0,082
-139,702	576,104	0,018	-0,031
-138,687	-76,513	-0,104	-0,026
-137,672	-70,916	-0,088	-0,023
-136,658	253,996	0,087	-0,106
-135,643	800,000	-0,039	-0,083
-134,629	800,000	-0,028	-0,067
-133,614	-200,000	0,005	0,097
-132,599	28,853	-0,187	0,112
-131,585	800,000	-0,040	0,114
-130,570	84,637	0,057	-0,044
-129,556	-200,000	0,008	-0,069
-128,541	247,425	-0,082	-0,099
-127,526	49,066	0,072	0,048
-126,512	-137,073	-0,011	-0,001
-125,497	54,129	0,128	0,087
-124,483	482,489	-0,060	0,098
-123,468	-97,826	-0,057	0,010
-122,453	109,151	-0,043	0,036
-121,439	486,775	-0,073	0,119
-120,424	475,284	-0,015	-0,024
-119,410	-200,000	0,023	-0,119
-118,395	-200,000	0,000	-0,016
-117,380	-200,000	-0,004	0,036
-116,366	-200,000	0,005	-0,033
-115,351	18,822	-0,028	0,016
-114,337	800,000	0,037	-0,100
-113,322	-200,000	0,014	-0,103
-112,307	168,748	-0,070	0,071
-111,293	163,778	0,086	-0,086
-110,278	-63,569	-0,063	-0,018
-109,264	149,810	0,080	0,077
-108,249	-77,067	-0,031	-0,008
-107,234	15,156	-0,118	0,066
-106,220	14,416	0,070	-0,038
-105,205	105,497	-0,010	0,008
-104,191	91,809	-0,027	-0,022
-103,176	-200,000	0,019	0,116
-102,162	-200,000	0,054	0,176
-101,147	-44,748	0,096	0,034
-100,132	-142,423	-0,144	0,010
-99,118	22,111	-0,122	0,070
-98,103	-88,659	-0,108	0,023
-97,089	174,308	-0,048	0,049
-96,074	223,389	0,081	0,093
-95,059	-14,810	0,080	-0,036
-94,045	-200,000	0,038	-0,123
-93,030	-107,982	-0,172	-0,026
-92,016	426,317	0,049	0,075
-91,001	-200,000	0,004	0,078
-89,986	127,825	0,145	0,131
-88,972	146,807	-0,057	0,054
-87,957	65,600	0,058	-0,042
-86,943	544,693	0,050	-0,085
-85,928	-200,000	0,008	0,099
-84,913	-95,300	-0,095	-0,018
-83,899	-125,570	-0,129	-0,014
-82,884	35,769	0,018	-0,011
-81,870	800,000	-0,046	0,091
-80,855	-200,000	-0,018	-0,104
-79,840	281,592	-0,063	-0,080
-78,826	80,763	0,045	0,034
-77,811	-200,000	0,010	0,044
-76,797	-200,000	-0,004	0,059
-75,782	-200,000	0,010	0,089
-74,767	-55,086	0,146	-0,046
-73,753	201,483	-0,082	-0,089
-72,738	800,000	-0,045	0,090
-71,724	6,341	0,027	0,014
-70,709	-38,051	0,130	0,049
-69,694	299,204	-0,099	-0,129
-68,680	422,279	-0,040	0,060
-67,665	-200,000	-0,004	0,137
-66,651	800,000	0,045	0,110
-65,636	-95,306	-0,085	-0,016
-64,622	800,000	-0,045	0,102
-63,607	443,765	-0,074	0,115
-62,592	-127,603	-0,093	-0,009
-61,578	-200,000	0,002	0,018
-60,563	-88,902	-0,083	-0,017
-59,549	-200,000	0,033	0,124
-58,534	-16,725	-1,609	-0,718
-57,519	468,971	-1,282	-2,045
-56,505	-200,000	-0,598	-4,606
-55,490	226,152	0,918	1,056
-54,476	800,000	5,015	11,439
-53,461	-200,000	19,312	321,151
-52,446	-200,000	741,914	2334,477
-51,432	572,117	1656,149	2867,439
-50,417	78,018	1671,205	1260,470
-49,403	21,217	1543,988	885,123
-48,388	15,045	1466,609	810,745
-47,373	18,020	1456,699	819,612
-46,359	16,648	1446,709	807,380
-45,344	13,304	1441,950	788,675
-44,330	13,272	1439,787	787,305
-43,315	13,264	1438,177	786,355
-42,300	13,244	1436,541	785,333
-41,286	13,273	1435,470	784,856
-40,271	13,233	1433,987	783,823
-39,257	13,283	1432,637	783,292
-38,242	13,294	1431,419	782,649
-37,227	13,269	1430,199	781,831
-36,213	13,248	1428,999	781,046
-35,198	13,286	1427,785	780,530
-34,184	13,349	1426,698	780,204
-33,169	13,283	1425,570	779,244
-32,154	13,334	1424,241	778,725
-31,140	13,327	1423,082	778,027
-30,125	13,332	1422,162	777,517
-29,111	13,337	1420,669	776,694
-28,096	13,273	1419,718	775,841
-27,082	13,247	1418,629	775,096
-26,067	13,221	1417,674	774,419
-25,052	13,213	1416,627	773,779
-24,038	13,187	1415,688	773,113
-23,023	13,185	1414,592	772,476
-22,009	13,167	1413,673	771,856
-20,994	13,177	1412,836	771,417
-19,979	13,202	1411,806	770,939
-18,965	13,181	1410,788	770,255
-17,950	13,193	1409,889	769,793
-16,936	13,158	1408,908	769,062
-15,921	13,178	1407,671	768,448
-14,906	13,151	1407,100	767,980
-13,892	13,152	1405,963	767,332
-12,877	13,141	1405,144	766,806
-11,863	13,139	1404,225	766,262
-10,848	13,118	1403,367	765,668
-9,833	13,113	1402,559	765,170
-8,819	13,039	1401,799	764,384
-7,804	13,035	1400,898	763,842
-6,790	13,082	1399,623	763,336
-5,775	13,045	1398,763	762,664
-4,760	13,016	1397,864	762,008
-3,746	13,029	1396,750	761,432
-2,731	13,018	1396,072	760,983
-1,717	13,026	1395,076	760,444
-0,702	13,012	1393,191	759,321
0,313	17,015	1309,861	732,402
1,327	33,564	703,196	431,393
2,342	51,803	123,015	82,678
3,356	0,859	16,660	8,414
4,371	6,056	3,250	1,698
5,386	11,431	0,540	0,292
6,400	-200,000	0,010	0,315
7,415	-42,989	-0,192	-0,068
8,429	505,465	-0,138	-0,227
9,444	208,683	-0,187	-0,208
10,459	-9,886	-0,269	-0,126
11,473	94,392	-0,319	-0,256
12,488	269,030	-0,173	-0,215
13,502	-15,635	-0,226	-0,101
14,517	-2,929	-0,405	-0,199
15,531	-74,883	-0,280	-0,071
16,546	46,782	-0,292	-0,191
17,561	78,467	-0,462	-0,348
18,575	-21,607	-0,206	-0,088
19,590	47,134	-0,205	-0,135
20,604	428,044	-0,185	-0,284
21,619	42,887	-0,433	-0,278
22,634	33,121	-0,595	-0,363
23,648	70,149	-0,325	-0,237
24,663	109,108	-0,393	-0,332
25,677	-34,855	-0,363	-0,139
26,692	61,714	-0,392	-0,275
27,707	76,616	-0,280	-0,209
28,721	307,492	-0,267	-0,353
29,736	179,560	-0,313	-0,323
30,750	-21,012	-0,468	-0,201
31,765	29,852	-0,536	-0,322
32,780	-5,639	-0,495	-0,238
33,794	55,586	-0,296	-0,202
34,809	111,086	-0,398	-0,338
35,823	-36,806	-0,411	-0,155
36,838	132,167	-0,363	-0,330
37,853	6,423	-0,316	-0,165
38,867	90,429	-0,369	-0,291
39,882	69,547	-0,333	-0,241
40,896	133,633	-0,312	-0,284
41,911	90,718	-0,310	-0,245
42,926	39,046	-0,336	-0,211
43,940	117,488	-0,406	-0,352
44,955	34,548	-0,467	-0,287
45,969	87,330	-0,369	-0,288
46,984	42,407	-0,281	-0,180
47,999	-21,783	-0,296	-0,126
49,013	89,944	-0,346	-0,272
50,028	271,851	-0,189	-0,235
51,042	178,235	-0,373	-0,384
52,057	278,888	-0,241	-0,304
53,071	1,173	-0,438	-0,221
54,086	119,770	-0,342	-0,298
55,101	129,527	-0,265	-0,238
56,115	-65,461	-0,334	-0,094
57,130	-96,469	-0,337	-0,062
58,144	12,641	-0,515	-0,279
59,159	-9,658	-0,397	-0,186
60,174	360,822	-0,271	-0,383
61,188	206,213	-0,311	-0,341
62,203	38,842	-0,409	-0,256
63,217	50,529	-0,337	-0,224
64,232	-17,276	-0,273	-0,121
65,247	-85,027	-0,443	-0,097
66,261	50,302	-0,312	-0,207
67,276	57,095	-0,282	-0,193
68,290	66,972	-0,324	-0,232
69,305	192,106	-0,262	-0,278
70,320	24,783	-0,340	-0,197
71,334	115,648	-0,143	-0,123
72,349	211,882	-0,246	-0,272
73,363	-75,289	-0,379	-0,094
74,378	130,453	-0,289	-0,261
75,393	-5,347	-0,301	-0,145
76,407	-39,934	-0,361	-0,132
77,422	14,611	-0,293	-0,161
78,436	60,449	-0,265	-0,184
79,451	9,168	-0,315	-0,167
80,466	105,848	-0,277	-0,230
81,480	87,845	-0,386	-0,300
82,495	-41,035	-0,406	-0,147
83,509	-51,033	-0,308	-0,101
84,524	129,136	-0,247	-0,221
85,539	360,585	-0,123	-0,174
86,553	138,524	-0,239	-0,220
87,568	39,236	-0,337	-0,211
88,582	121,101	-0,292	-0,255
89,597	56,615	-0,501	-0,342
90,611	86,645	-0,260	-0,201
91,626	-40,690	-0,245	-0,089
92,641	161,121	-0,172	-0,169
93,655	53,446	-0,282	-0,190
94,670	207,566	-0,266	-0,292
95,684	183,215	-0,240	-0,249
96,699	-86,991	-0,357	-0,076
97,714	38,540	-0,310	-0,194
98,728	24,605	-0,214	-0,124
99,743	143,094	-0,233	-0,218
100,757	66,541	-0,285	-0,203
101,772	-38,318	-0,214	-0,079
102,787	69,648	-0,180	-0,130
103,801	92,389	-0,256	-0,202
104,816	-8,150	-0,301	-0,142
105,830	82,951	-0,249	-0,190
106,845	62,066	-0,230	-0,161
107,860	-67,614	-0,355	-0,097
108,874	-4,605	-0,312	-0,151
109,889	-99,392	-0,272	-0,048
110,903	531,505	-0,156	-0,259
111,918	70,533	-0,213	-0,154
112,933	-49,683	-0,313	-0,104
113,947	-164,118	-0,217	0,007
114,962	99,625	-0,139	-0,113
115,976	140,695	-0,140	-0,129
116,991	19,854	-0,308	-0,173
118,006	124,981	-0,220	-0,194
119,020	570,527	-0,107	-0,183
120,035	33,119	-0,301	-0,182
121,049	54,510	-0,168	-0,113
122,064	-117,191	-0,203	-0,026
123,079	46,632	-0,270	-0,175
124,093	71,778	-0,239	-0,174
125,108	-31,182	-0,287	-0,113
126,122	38,455	-0,361	-0,225
127,137	99,220	-0,252	-0,204
128,151	71,790	-0,240	-0,175
129,166	101,165	-0,258	-0,210
130,181	-35,458	-0,312	-0,118
131,195	13,861	-0,217	-0,117
132,210	-53,510	-0,273	-0,087
133,224	-81,680	-0,264	-0,060
134,239	800,000	-0,102	-0,205
135,254	573,003	-0,172	-0,295
136,268	82,349	-0,270	-0,205
137,283	-40,109	-0,308	-0,111
138,297	18,156	-0,308	-0,171
139,312	287,885	-0,271	-0,343
140,327	334,851	-0,237	-0,321
141,341	26,502	-0,288	-0,168
142,356	-43,875	-0,200	-0,070
143,370	-38,176	-0,287	-0,106
144,385	159,680	-0,294	-0,286
145,400	185,925	-0,239	-0,248
146,414	651,488	-0,169	-0,304
147,429	-16,066	-0,246	-0,109
148,443	800,000	-0,126	-0,313
149,458	275,532	-0,172	-0,214
150,473	800,000	-0,138	-0,301
151,487	-1,169	-0,184	-0,091
152,502	-40,314	-0,385	-0,139
153,516	-41,036	-0,301	-0,108
154,531	16,073	-0,333	-0,183
155,546	-48,536	-0,346	-0,116
156,560	-38,050	-0,161	0,059
157,575	-127,749	-0,232	0,023
158,589	312,075	-0,188	-0,247
159,604	-65,933	-0,276	-0,077
160,619	49,233	-0,239	-0,156
161,633	67,354	-0,202	-0,144
162,648	237,831	-0,178	-0,206
163,662	23,427	-0,247	-0,142
164,677	1,281	-0,276	-0,138
165,692	-35,847	-0,345	-0,130
166,706	-8,580	-0,311	-0,145
167,721	424,228	-0,137	-0,206
168,735	48,495	-0,298	-0,195
169,750	23,595	-0,302	-0,173
170,764	82,129	-0,267	-0,202
171,779	235,403	-0,146	-0,168
172,794	341,101	-0,123	-0,168
173,808	-69,638	-0,376	-0,100
174,823	1,290	-0,213	-0,106
175,837	140,360	-0,241	-0,222
176,852	227,844	-0,161	-0,182
177,867	800,000	-0,108	-0,218
178,881	140,993	-0,212	-0,195
179,896	170,350	-0,158	-0,158
180,910	46,460	-0,175	-0,113
181,925	224,606	-0,269	-0,303
182,940	800,000	-0,106	-0,266
183,954	132,198	-0,300	-0,269
184,969	112,941	-0,201	-0,170
185,983	126,388	-0,157	-0,138
186,998	98,923	-0,187	-0,151
188,013	194,278	-0,090	-0,095
189,027	215,256	-0,234	-0,259
190,042	47,505	-0,229	-0,148
191,056	105,552	-0,313	-0,258
192,071	-18,226	-0,311	-0,135
193,086	60,712	-0,174	-0,120
194,100	113,844	-0,227	-0,192
195,115	433,452	-0,194	-0,294
196,129	197,731	-0,177	-0,188
197,144	118,026	-0,258	-0,221
198,159	409,208	-0,217	-0,321
199,173	-34,353	-0,254	-0,096
200,188	50,803	-0,193	-0,127
201,202	-52,357	-0,204	-0,065
202,217	-56,190	-0,164	0,050
203,232	55,789	-0,203	-0,137
204,246	11,901	-0,285	-0,152
205,261	-200,000	-0,075	-0,333
206,275	548,664	-0,141	-0,236
207,290	-92,184	-0,225	-0,044
208,304	744,187	-0,110	-0,207
209,319	-6,074	-0,078	-0,037
210,334	34,385	-0,256	-0,155
211,348	40,935	-0,177	-0,111
212,363	607,047	-0,115	-0,200
213,377	800,000	-0,083	-0,248
214,392	183,411	-0,180	-0,185
215,407	169,163	-0,158	-0,157
216,421	-94,845	-0,118	-0,022
217,436	130,346	-0,162	-0,144
218,450	21,807	-0,239	-0,135
219,465	162,685	-0,129	-0,126
220,480	40,854	-0,201	-0,126
221,494	41,147	-0,228	-0,143
222,509	-194,970	-0,251	-0,001
223,523	111,895	-0,134	-0,113
224,538	162,748	-0,223	-0,217
225,553	19,020	-0,125	-0,069
226,567	-67,827	-0,209	0,056
227,582	-200,000	-0,061	-0,252
228,596	-83,204	-0,134	-0,030
229,611	-42,825	-0,238	-0,083
230,626	-39,463	-0,231	-0,084
231,640	36,742	-0,284	-0,174
232,655	6,401	-0,161	-0,082
233,669	800,000	-0,098	-0,229
234,684	-47,836	-0,128	-0,043
235,699	-200,000	-0,059	-0,235
236,713	44,040	-0,190	-0,120
237,728	135,518	-0,156	-0,140
238,742	303,773	-0,108	-0,139
239,757	-44,058	-0,244	-0,085
240,772	175,153	-0,258	-0,259
241,786	71,987	-0,201	-0,145
242,801	-113,542	-0,180	-0,024
243,815	-63,423	-0,141	-0,040
244,830	-133,331	-0,189	-0,016
245,844	-127,587	-0,195	-0,019
246,859	192,865	-0,183	-0,192
247,874	137,889	-0,241	-0,219
248,888	306,220	-0,139	-0,179
249,903	130,351	-0,223	-0,198
250,917	743,931	-0,070	-0,131
251,932	160,296	-0,172	-0,166
252,947	145,927	-0,188	-0,175
253,961	259,362	-0,166	-0,199
254,976	-8,069	-0,212	-0,098
255,990	-120,848	-0,279	-0,032
257,005	800,000	-0,053	-0,115
258,020	-98,102	-0,163	-0,029
259,034	-78,979	-0,182	-0,042
260,049	-0,105	-0,213	-0,105
261,063	37,211	-0,279	-0,170
262,078	315,286	-0,118	-0,154
263,093	176,075	-0,251	-0,252
264,107	98,234	-0,198	-0,158
265,122	304,204	-0,088	-0,113
266,136	-43,241	-0,281	-0,098
267,151	131,568	-0,159	-0,142
268,166	36,780	-0,235	-0,143
269,180	71,227	-0,164	-0,117
270,195	-84,707	-0,223	-0,048
271,209	139,313	-0,152	-0,139
272,224	-18,128	-0,197	-0,085
273,239	94,583	-0,143	-0,112
274,253	196,553	-0,186	-0,196
275,268	-37,059	-0,163	-0,060
276,282	56,623	-0,161	-0,108
277,297	184,773	-0,162	-0,166
278,312	752,017	-0,132	-0,247
279,326	109,016	-0,206	-0,170
280,341	136,941	-0,134	-0,121
281,355	168,121	-0,097	-0,096
282,370	385,651	-0,267	-0,382
283,384	242,922	-0,177	-0,205
284,399	523,341	-0,126	-0,205
285,414	251,413	-0,170	-0,200
286,428	-200,000	-0,046	-0,183
287,443	226,720	-0,095	-0,107
288,457	-138,322	-0,101	-0,008
289,472	412,561	-0,088	-0,130
290,487	-46,601	-0,108	-0,036
291,501	-183,992	-0,153	0,002
292,516	800,000	-0,074	-0,222
293,530	207,040	-0,100	-0,108
294,545	-47,256	-0,108	-0,036
295,560	2,593	-0,091	0,045
296,574	75,633	-0,150	-0,109
297,589	91,805	-0,148	-0,114
298,603	-122,995	-0,190	-0,021
299,618	268,110	-0,114	-0,138
300,633	800,000	-0,066	-0,128
301,647	404,669	-0,118	-0,172
302,662	800,000	-0,092	-0,206
303,676	800,000	-0,075	-0,202
304,691	97,785	-0,192	-0,152
305,706	-45,294	-0,220	-0,075
306,720	-99,377	-0,280	-0,048
307,735	488,503	-0,084	-0,133
308,749	-69,173	-0,176	0,046
309,764	76,098	-0,100	-0,073
310,779	-84,029	-0,104	-0,023
311,793	-200,000	-0,028	-0,126
312,808	298,284	-0,166	-0,210
313,822	49,130	-0,211	-0,136
314,837	-45,034	-0,212	-0,072
315,852	104,551	-0,056	0,045
316,866	96,471	-0,007	0,006
317,881	-63,124	-0,146	-0,041
318,895	28,297	-0,231	-0,134
319,910	-48,672	-0,211	-0,069
320,925	18,258	-0,189	-0,104
321,939	169,460	-0,091	-0,090
322,954	197,456	-0,073	-0,076
323,968	-200,000	-0,004	0,128
324,983	506,840	-0,098	-0,157
325,997	-200,000	-0,017	-0,141
327,012	112,729	-0,143	-0,119
328,027	276,819	-0,133	-0,162
329,041	507,658	-0,145	-0,233
330,056	633,989	-0,044	-0,076
331,070	-200,000	-0,018	-0,071
332,085	-58,563	-0,095	-0,028
333,100	102,517	-0,127	-0,102
334,114	-83,315	0,085	0,019
335,129	473,315	-0,136	-0,212
336,143	-14,483	-0,129	-0,057
337,158	-24,172	-0,128	-0,052
338,173	362,911	-0,067	-0,093
339,187	-25,475	-0,143	0,058
340,202	-12,194	-0,084	0,038
341,216	-200,000	-0,061	-0,242
342,231	-121,632	-0,133	-0,015
343,246	-177,545	-0,151	0,002
344,260	147,948	-0,053	-0,049
345,275	-200,000	-0,019	-0,105
346,289	-200,000	-0,011	-0,200
347,304	35,967	-0,077	-0,047
348,319	-35,525	-0,121	-0,045
349,333	-131,543	-0,120	-0,011
350,348	-50,620	-0,211	-0,068
351,362	-33,848	-0,169	-0,063
352,377	-200,000	-0,033	-0,188
353,392	-123,872	0,014	-0,002
354,406	-163,305	-0,211	-0,007
355,421	210,638	1313,223	1416,843
356,435	162,162	1473,784	1417,346
