DTS Sentinel unit serial number:	SN410029Multiplexer serial number:	ORYXHardware model number:	OX2-SRSoftware version number:	ORYX F/W v4,00 Oryx Data Collector v3.7.2.0data status	okinstallation	B3 Nyhavnadifferential loss correction	single-endedforward channel	channel 1reverse channel	N/Adate	2023/12/05time	01:22:30forward acquisition time	300,00reverse acquisition time	0,00gamma	499,1914k internal	0,3201k external	0,3201temperature offset calibration	1,0000default loss term (dB/km)	0,3820temperature slope calibration	1,0000multiplexer offset coefficient	1,0000multiplexer slope coefficient	1,0000fibre end	0,00T internal ref (°C)	13,81T ext. ref 1 (°C)	-1,00T ext. ref 2 (°C)	-1,02length (m)	temperature (°C)	Stokes	anti-Stokes-744,400	139,786	-0,238	-0,228
-743,385	186,382	-0,110	0,119
-742,371	107,066	-0,252	-0,218
-741,356	-200,000	0,118	0,416
-740,342	251,775	-0,174	-0,216
-739,327	800,000	-0,107	0,290
-738,312	171,359	-0,246	-0,257
-737,298	800,000	-0,073	0,223
-736,283	379,855	-0,123	-0,183
-735,269	800,000	0,080	0,235
-734,254	53,368	-0,232	-0,161
-733,239	91,671	-0,206	0,168
-732,225	-200,000	-0,022	-0,175
-731,210	-200,000	0,039	0,130
-730,196	-125,570	0,066	-0,007
-729,181	-200,000	0,009	0,169
-728,167	437,168	-0,054	-0,086
-727,152	-47,578	-0,070	-0,025
-726,137	-200,000	-0,015	-0,157
-725,123	800,000	-0,064	-0,141
-724,108	-200,000	-0,001	-0,184
-723,094	800,000	0,005	-0,012
-722,079	-56,753	-0,172	-0,055
-721,064	524,223	-0,087	0,149
-720,050	-5,235	0,055	0,028
-719,035	-88,347	-0,040	0,009
-718,021	631,254	-0,014	0,026
-717,006	-71,642	-0,103	0,028
-715,991	10,903	0,072	-0,040
-714,977	-142,251	-0,130	-0,009
-713,962	267,552	-0,088	-0,112
-712,948	564,177	0,046	-0,081
-711,933	89,741	0,032	0,026
-710,918	-200,000	-0,006	0,048
-709,904	-13,460	-0,058	-0,027
-708,889	64,953	-0,148	-0,108
-707,875	-53,857	-0,077	0,025
-706,860	-44,362	-0,045	-0,016
-705,845	800,000	0,047	0,126
-704,831	-200,000	0,005	0,053
-703,816	-83,486	0,086	0,020
-702,802	217,384	-0,063	-0,073
-701,787	456,858	-0,026	-0,042
-700,772	178,027	0,024	0,026
-699,758	-78,923	-0,073	0,018
-698,743	800,000	-0,028	0,059
-697,729	-37,354	0,074	0,029
-696,714	800,000	0,023	0,057
-695,699	-180,646	-0,028	-0,000
-694,685	239,632	-0,088	-0,107
-693,670	-200,000	0,009	0,050
-692,656	-90,990	-0,070	0,015
-691,641	-86,845	-0,004	-0,001
-690,627	-74,095	0,139	0,036
-689,612	-152,432	-0,136	-0,007
-688,597	-0,076	-0,036	-0,019
-687,583	458,579	-0,034	-0,056
-686,568	-200,000	0,009	-0,079
-685,554	237,143	-0,017	0,020
-684,539	-102,071	-0,033	0,006
-683,524	420,170	-0,043	-0,067
-682,510	800,000	0,042	-0,121
-681,495	-200,000	0,034	-0,119
-680,481	800,000	-0,033	-0,090
-679,466	165,352	-0,086	0,088
-678,451	86,166	-0,023	0,019
-677,437	-45,778	-0,104	-0,037
-676,422	90,264	-0,048	0,039
-675,408	-134,411	0,107	0,009
-674,393	330,940	0,058	-0,081
-673,378	-120,290	-0,077	0,009
-672,364	-88,310	-0,108	-0,023
-671,349	-200,000	-0,005	-0,096
-670,335	-200,000	-0,000	0,069
-669,320	-94,161	0,101	0,020
-668,305	800,000	-0,019	0,043
-667,291	-140,223	-0,097	0,007
-666,276	-183,602	-0,111	0,001
-665,262	-200,000	0,019	-0,116
-664,247	-200,000	-0,021	-0,280
-663,232	-72,529	-0,089	0,024
-662,218	494,963	-0,057	-0,095
-661,203	-72,723	0,123	0,033
-660,189	-200,000	0,020	-0,108
-659,174	490,485	0,054	-0,090
-658,159	-200,000	-0,005	-0,109
-657,145	-200,000	-0,017	-0,147
-656,130	-200,000	-0,002	0,108
-655,116	46,253	0,150	0,101
-654,101	-200,000	-0,009	0,067
-653,086	-200,000	0,038	0,127
-652,072	-81,109	-0,135	-0,032
-651,057	-42,942	-0,094	-0,034
-650,043	103,343	-0,061	-0,052
-649,028	-200,000	0,007	-0,071
-648,014	9,254	0,073	0,040
-646,999	-186,647	0,165	0,002
-645,984	133,258	0,032	-0,030
-644,970	405,944	0,024	-0,036
-643,955	29,587	-0,104	-0,064
-642,941	121,546	-0,119	-0,107
-641,926	26,994	0,033	-0,020
-640,911	-16,044	0,092	0,042
-639,897	-22,538	-0,077	0,034
-638,882	72,476	-0,069	0,052
-637,868	-194,830	0,089	0,000
-636,853	135,586	0,042	0,040
-635,838	51,656	-0,064	-0,044
-634,824	240,893	-0,048	-0,059
-633,809	800,000	0,042	0,101
-632,795	-80,423	0,031	-0,007
-631,780	-116,081	-0,069	-0,009
-630,765	-37,218	0,040	0,015
-629,751	240,805	-0,073	0,088
-628,736	463,155	-0,097	-0,158
-627,722	800,000	0,055	-0,130
-626,707	-171,559	0,075	0,002
-625,692	-72,049	0,085	0,023
-624,678	800,000	0,071	0,203
-623,663	-167,034	-0,174	-0,005
-622,649	-200,000	0,033	-0,140
-621,634	23,628	-0,147	-0,087
-620,619	-200,000	0,012	0,055
-619,605	-103,106	0,088	0,015
-618,590	561,639	-0,058	0,101
-617,576	-47,011	-0,056	0,020
-616,561	532,901	-0,048	-0,082
-615,546	52,993	-0,024	-0,017
-614,532	61,081	0,076	-0,055
-613,517	-15,437	0,092	0,042
-612,503	800,000	0,006	-0,015
-611,488	353,511	0,104	0,149
-610,474	670,304	0,027	0,052
-609,459	742,169	-0,057	-0,112
-608,444	-200,000	-0,044	-0,152
-607,430	-200,000	0,020	-0,090
-606,415	317,125	0,023	-0,031
-605,401	-200,000	0,034	0,111
-604,386	283,723	-0,091	0,119
-603,371	-33,998	0,019	-0,007
-602,357	-10,173	0,023	-0,011
-601,342	-200,000	-0,034	0,130
-600,328	96,281	0,090	-0,075
-599,313	630,065	-0,009	-0,016
-598,298	726,847	0,062	-0,121
-597,284	-37,012	-0,135	0,052
-596,269	626,883	0,070	0,127
-595,255	-200,000	-0,001	0,044
-594,240	366,065	0,020	-0,030
-593,225	-34,906	-0,086	0,034
-592,211	-107,043	-0,067	-0,011
-591,196	171,322	-0,044	-0,045
-590,182	101,716	0,017	0,015
-589,167	-10,168	-0,132	0,063
-588,152	-148,333	-0,113	0,007
-587,138	-200,000	0,004	-0,141
-586,123	5,333	-0,065	0,035
-585,109	39,966	0,067	0,043
-584,094	640,021	-0,009	-0,017
-583,079	800,000	0,052	-0,113
-582,065	59,792	0,040	0,029
-581,050	-21,001	-0,070	0,031
-580,036	344,682	0,067	0,096
-579,021	419,754	0,029	-0,045
-578,006	-12,283	0,052	0,025
-576,992	257,208	0,032	0,040
-575,977	322,228	0,089	0,123
-574,963	98,552	-0,052	0,043
-573,948	-96,943	0,119	-0,022
-572,934	-12,573	-0,153	0,072
-571,919	-200,000	0,038	0,125
-570,904	33,280	0,094	-0,059
-569,890	24,826	-0,148	-0,088
-568,875	-105,269	-0,049	-0,008
-567,861	85,476	0,178	0,141
-566,846	-32,140	0,103	0,041
-565,831	800,000	0,013	0,030
-564,817	142,420	-0,177	0,170
-563,802	-51,542	-0,098	0,033
-562,788	-200,000	0,011	-0,044
-561,773	59,217	-0,054	-0,039
-560,758	-200,000	-0,041	0,173
-559,744	-47,033	0,117	0,041
-558,729	800,000	0,038	-0,090
-557,715	307,961	-0,027	0,037
-556,700	-60,003	-0,168	-0,052
-555,685	157,133	0,057	0,057
-554,671	-200,000	0,008	-0,083
-553,656	106,251	-0,096	0,082
-552,642	7,445	0,128	0,069
-551,627	-37,490	0,057	0,022
-550,612	-200,000	0,008	0,125
-549,598	415,331	-0,012	-0,018
-548,583	800,000	0,078	-0,181
-547,569	-20,179	0,169	0,075
-546,554	-156,171	0,028	-0,001
-545,539	-19,330	-0,079	-0,035
-544,525	134,726	-0,030	0,028
-543,510	800,000	0,028	-0,082
-542,496	-105,096	-0,238	0,039
-541,481	159,427	-0,062	0,063
-540,466	-77,534	-0,050	0,012
-539,452	-200,000	0,009	0,045
-538,437	-200,000	0,013	0,053
-537,423	800,000	-0,009	0,028
-536,408	800,000	-0,048	0,097
-535,393	-200,000	0,019	-0,074
-534,379	51,796	-0,009	-0,006
-533,364	144,800	-0,047	0,045
-532,350	-200,000	-0,005	-0,041
-531,335	-31,668	-0,052	0,021
-530,321	-200,000	-0,001	0,018
-529,306	-200,000	0,002	-0,073
-528,291	-55,737	-0,063	-0,020
-527,277	-200,000	0,020	-0,094
-526,262	13,876	0,057	0,032
-525,248	-179,657	-0,086	0,001
-524,233	220,182	0,015	-0,018
-523,218	338,817	0,033	0,047
-522,204	-42,915	0,261	-0,095
-521,189	475,693	-0,058	0,095
-520,175	-101,227	0,036	0,006
-519,160	112,633	0,016	0,014
-518,145	84,899	0,103	0,081
-517,131	-200,000	0,000	0,034
-516,116	13,293	0,075	0,042
-515,102	-131,907	0,065	-0,006
-514,087	77,763	0,064	-0,049
-513,072	444,236	-0,029	0,045
-512,058	800,000	0,019	-0,042
-511,043	-200,000	0,021	-0,093
-510,029	275,188	0,069	-0,089
-509,014	714,189	-0,048	0,092
-507,999	800,000	0,067	0,147
-506,985	-48,678	-0,115	-0,040
-505,970	-36,167	0,108	-0,042
-504,956	800,000	0,029	0,087
-503,941	-200,000	-0,015	0,131
-502,926	-143,072	0,052	0,004
-501,912	32,072	0,037	-0,023
-500,897	193,902	-0,103	0,112
-499,883	34,915	-0,045	-0,028
-498,868	31,794	-0,025	0,015
-497,853	324,546	0,027	0,038
-496,839	138,468	0,049	0,046
-495,824	104,429	0,034	0,029
-494,810	800,000	0,047	0,094
-493,795	-35,973	-0,022	-0,008
-492,781	-100,497	-0,064	0,011
-491,766	-13,421	0,048	-0,022
-490,751	-200,000	0,002	0,045
-489,737	-200,000	0,010	0,037
-488,722	130,659	-0,118	-0,109
-487,708	302,476	0,035	0,047
-486,693	-1,531	0,080	-0,040
-485,678	-178,986	0,133	-0,002
-484,664	800,000	-0,050	-0,103
-483,649	-200,000	0,015	-0,051
-482,635	639,575	0,041	0,076
-481,620	216,437	-0,106	-0,122
-480,605	351,365	-0,078	0,112
-479,591	-49,031	0,221	0,076
-478,576	-200,000	-0,014	0,060
-477,562	-194,039	-0,028	0,000
-476,547	694,930	0,027	-0,051
-475,532	800,000	-0,010	-0,021
-474,518	-200,000	-0,021	-0,172
-473,503	-78,353	-0,233	-0,057
-472,489	-200,000	0,009	-0,091
-471,474	800,000	-0,035	0,100
-470,459	-200,000	-0,007	-0,024
-469,445	656,689	-0,090	-0,167
-468,430	195,639	-0,060	0,065
-467,416	0,256	0,073	0,037
-466,401	112,357	0,027	0,023
-465,386	-4,454	0,075	0,037
-464,372	-2,467	-0,026	-0,013
-463,357	134,620	-0,087	-0,082
-462,343	140,120	-0,108	-0,102
-461,328	203,481	0,026	0,029
-460,313	192,664	0,020	-0,022
-459,299	-200,000	0,005	-0,078
-458,284	173,248	-0,093	0,097
-457,270	-73,584	0,068	-0,018
-456,255	-140,092	-0,061	-0,005
-455,241	78,650	-0,090	-0,069
-454,226	-200,000	0,003	-0,033
-453,211	-200,000	-0,004	0,086
-452,197	-28,278	0,054	0,022
-451,182	-200,000	0,028	-0,090
-450,168	31,423	0,134	0,083
-449,153	-135,203	0,018	0,002
-448,138	-200,000	-0,000	0,003
-447,124	-200,000	-0,006	-0,140
-446,109	32,572	0,118	-0,073
-445,095	480,164	0,019	-0,032
-444,080	62,943	0,029	0,021
-443,065	99,933	-0,027	-0,023
-442,051	-200,000	0,001	-0,075
-441,036	-200,000	0,038	-0,132
-440,022	-200,000	0,007	-0,056
-439,007	-100,159	-0,047	-0,008
-437,992	-17,467	-0,035	0,016
-436,978	-53,965	0,075	0,024
-435,963	97,912	-0,062	0,052
-434,949	-200,000	0,000	-0,038
-433,934	-151,530	-0,090	-0,005
-432,919	203,496	0,054	-0,060
-431,905	-147,945	-0,037	0,002
-430,890	-55,363	0,052	-0,017
-429,876	-200,000	0,012	-0,078
-428,861	-200,000	-0,010	-0,131
-427,846	-200,000	0,018	-0,081
-426,832	96,195	-0,044	-0,036
-425,817	-59,375	-0,208	-0,064
-424,803	36,172	0,060	-0,038
-423,788	59,610	-0,103	-0,073
-422,773	-200,000	-0,008	0,064
-421,759	-200,000	0,023	0,181
-420,744	14,736	-0,055	0,031
-419,730	3,179	-0,123	-0,064
-418,715	321,712	0,071	-0,097
-417,701	-200,000	0,001	-0,038
-416,686	-84,735	0,098	-0,022
-415,671	235,330	0,050	-0,059
-414,657	-65,425	0,087	-0,025
-413,642	800,000	-0,024	-0,063
-412,628	-200,000	0,009	0,150
-411,613	-116,792	0,070	-0,009
-410,598	217,191	-0,133	0,152
-409,584	-185,056	-0,091	0,001
-408,569	800,000	0,051	0,129
-407,555	-200,000	0,033	0,154
-406,540	-32,360	-0,060	0,024
-405,525	-65,204	-0,120	0,034
-404,511	-160,874	-0,060	0,002
-403,496	-200,000	-0,026	-0,105
-402,482	-200,000	0,033	0,113
-401,467	-200,000	0,013	-0,068
-400,452	414,365	0,127	0,195
-399,438	-200,000	-0,008	0,047
-398,423	-200,000	0,011	0,114
-397,409	-200,000	0,010	0,114
-396,394	-200,000	0,027	-0,099
-395,379	800,000	0,025	-0,055
-394,365	17,765	0,070	-0,040
-393,350	-90,955	0,087	0,018
-392,336	689,531	0,052	-0,097
-391,321	-11,844	-0,119	-0,056
-390,306	800,000	-0,052	0,133
-389,292	-45,808	0,025	0,009
-388,277	800,000	0,052	-0,163
-387,263	295,243	-0,057	-0,074
-386,248	-151,354	0,079	0,004
-385,233	-95,983	-0,025	0,005
-384,219	-200,000	-0,017	0,125
-383,204	189,069	-0,058	0,063
-382,190	-200,000	-0,038	-0,157
-381,175	277,894	0,073	-0,093
-380,160	-27,730	0,121	-0,050
-379,146	-111,171	0,180	0,026
-378,131	-200,000	0,010	0,048
-377,117	573,449	-0,034	0,060
-376,102	-33,366	-0,072	-0,028
-375,088	-200,000	-0,006	-0,074
-374,073	366,799	0,062	-0,089
-373,058	-23,767	0,073	0,031
-372,044	538,309	-0,050	0,085
-371,029	417,646	0,125	0,192
-370,015	276,964	-0,043	-0,054
-369,000	-200,000	-0,004	-0,092
-367,985	800,000	-0,041	0,123
-366,971	-200,000	-0,030	-0,181
-365,956	800,000	-0,039	0,120
-364,942	29,151	0,110	0,067
-363,927	-7,723	0,059	0,028
-362,912	-200,000	0,006	0,062
-361,898	-93,811	-0,106	0,021
-360,883	387,804	-0,047	-0,070
-359,869	170,692	0,041	-0,043
-358,854	-50,060	0,127	0,043
-357,839	71,337	-0,041	0,031
-356,825	218,552	-0,095	0,109
-355,810	347,963	0,019	0,027
-354,796	-200,000	0,044	-0,143
-353,781	480,856	-0,006	0,009
-352,766	590,861	-0,096	-0,170
-351,752	-6,166	-0,135	-0,066
-350,737	100,143	0,063	-0,052
-349,723	-200,000	0,027	0,091
-348,708	-200,000	-0,034	0,123
-347,693	-113,174	-0,096	-0,013
-346,679	-47,420	-0,069	-0,024
-345,664	-86,909	0,090	-0,019
-344,650	168,231	0,080	-0,082
-343,635	-86,364	0,027	0,006
-342,620	-200,000	0,015	-0,092
-341,606	-174,618	0,111	0,002
-340,591	0,803	0,053	0,027
-339,577	5,364	-0,112	-0,059
-338,562	-53,621	-0,197	-0,064
-337,548	-68,593	0,039	-0,011
-336,533	49,020	0,043	0,029
-335,518	800,000	0,011	0,024
-334,504	-200,000	-0,035	-0,143
-333,489	18,867	-0,051	-0,029
-332,475	-200,000	0,001	-0,040
-331,460	4,601	0,116	-0,061
-330,445	73,388	-0,082	-0,062
-329,431	-200,000	-0,003	0,051
-328,416	-64,660	-0,124	-0,036
-327,402	-78,731	0,086	0,021
-326,387	800,000	0,037	0,080
-325,372	-159,749	-0,160	-0,006
-324,358	648,450	0,094	0,173
-323,343	-16,261	-0,131	0,059
-322,329	569,539	0,046	-0,080
-321,314	-22,644	-0,102	-0,044
-320,299	308,188	0,044	0,059
-319,285	800,000	-0,076	-0,152
-318,270	706,056	0,096	-0,182
-317,256	-200,000	0,017	-0,079
-316,241	48,126	0,036	-0,024
-315,226	216,358	0,048	0,054
-314,212	-30,306	0,060	0,024
-313,197	-200,000	-0,003	-0,100
-312,183	737,765	-0,034	0,065
-311,168	18,291	-0,043	-0,024
-310,153	150,010	0,054	-0,053
-309,139	266,785	-0,032	-0,040
-308,124	195,451	0,080	0,088
-307,110	12,367	-0,110	-0,061
-306,095	-38,816	0,076	-0,028
-305,080	-84,697	0,076	-0,017
-304,066	108,327	-0,119	-0,101
-303,051	184,065	-0,105	-0,111
-302,037	171,914	-0,051	-0,053
-301,022	-200,000	0,014	0,135
-300,008	-60,185	-0,067	-0,020
-298,993	-200,000	0,017	0,075
-297,978	-146,411	-0,032	0,002
-296,964	-39,969	-0,050	-0,019
-295,949	176,924	0,032	-0,033
-294,935	800,000	-0,009	-0,027
-293,920	800,000	-0,036	0,107
-292,905	-200,000	-0,043	0,147
-291,891	155,599	-0,090	-0,089
-290,876	533,719	0,068	-0,116
-289,862	-200,000	0,005	0,058
-288,847	170,150	-0,096	-0,098
-287,832	293,410	-0,015	0,020
-286,818	-200,000	-0,015	-0,093
-285,803	552,290	0,025	-0,043
-284,789	-23,314	0,086	0,037
-283,774	539,071	-0,079	0,135
-282,759	-200,000	0,026	-0,138
-281,745	312,226	-0,015	-0,021
-280,730	-200,000	0,039	-0,235
-279,716	-200,000	-0,007	0,027
-278,701	-200,000	0,005	0,081
-277,686	-20,580	0,084	-0,037
-276,672	-104,457	-0,064	0,011
-275,657	-200,000	0,008	-0,095
-274,643	800,000	0,036	-0,114
-273,628	367,967	0,050	0,072
-272,613	-105,576	-0,110	-0,018
-271,599	106,442	0,055	-0,046
-270,584	41,618	0,059	0,038
-269,570	-200,000	0,029	0,126
-268,555	-200,000	-0,009	-0,043
-267,540	800,000	0,006	0,017
-266,526	-10,516	-0,116	0,055
-265,511	540,401	-0,017	-0,028
-264,497	-75,602	0,115	0,029
-263,482	-24,253	-0,062	0,026
-262,467	-73,656	0,160	-0,041
-261,453	49,582	-0,097	0,065
-260,438	-113,434	-0,110	0,015
-259,424	-139,527	0,135	-0,010
-258,409	164,281	-0,057	-0,058
-257,395	199,074	0,018	0,019
-256,380	800,000	0,068	0,145
-255,365	38,815	-0,068	-0,043
-254,351	-198,626	0,042	-0,000
-253,336	105,939	-0,109	-0,092
-252,322	-200,000	0,022	-0,106
-251,307	-200,000	-0,003	0,054
-250,292	73,158	-0,046	0,035
-249,278	-200,000	-0,006	0,096
-248,263	800,000	0,053	0,111
-247,249	289,770	0,091	0,118
-246,234	-37,915	0,096	-0,036
-245,219	492,964	-0,126	-0,207
-244,205	140,426	0,064	-0,060
-243,190	-200,000	-0,000	-0,105
-242,176	800,000	0,057	0,136
-241,161	127,483	0,053	0,048
-240,146	252,267	0,042	0,051
-239,132	-200,000	0,010	-0,070
-238,117	-12,917	-0,119	-0,055
-237,103	800,000	-0,050	-0,111
-236,088	-18,528	0,129	0,057
-235,073	-200,000	-0,014	-0,138
-234,059	-118,851	0,204	-0,025
-233,044	800,000	0,018	0,045
-232,030	-200,000	-0,001	0,128
-231,015	800,000	-0,030	-0,067
-230,000	-18,719	0,125	-0,055
-228,986	36,751	-0,060	-0,038
-227,971	800,000	-0,067	0,140
-226,957	-200,000	-0,012	0,169
-225,942	-200,000	-0,040	-0,135
-224,927	-74,903	0,149	-0,038
-223,913	800,000	-0,063	0,150
-222,898	-0,813	-0,083	0,042
-221,884	186,728	-0,139	-0,147
-220,869	-200,000	0,013	0,192
-219,855	14,859	-0,045	-0,025
-218,840	148,150	0,048	-0,046
-217,825	544,859	-0,034	-0,057
-216,811	184,054	-0,029	0,030
-215,796	-200,000	-0,005	-0,045
-214,782	-33,662	0,080	0,031
-213,767	-200,000	-0,009	-0,144
-212,752	100,552	0,138	0,114
-211,738	351,751	-0,088	0,125
-210,723	-118,343	0,160	0,020
-209,709	-200,000	0,011	-0,135
-208,694	417,870	0,009	-0,014
-207,679	800,000	0,048	0,151
-206,665	22,121	-0,051	0,029
-205,650	54,028	0,077	-0,052
-204,636	-18,652	-0,053	-0,024
-203,621	-200,000	0,021	0,067
-202,606	166,771	-0,067	0,068
-201,592	-75,708	-0,239	0,060
-200,577	-200,000	0,030	-0,158
-199,563	90,685	-0,035	-0,028
-198,548	738,971	-0,086	-0,166
-197,533	-38,217	0,148	0,056
-196,519	-126,286	0,100	-0,010
-195,504	29,031	-0,151	-0,091
-194,490	-14,546	-0,268	0,122
-193,475	257,842	-0,076	-0,093
-192,460	-200,000	0,004	0,019
-191,446	-200,000	-0,008	-0,049
-190,431	85,117	0,098	0,077
-189,417	-87,306	0,023	0,005
-188,402	235,484	-0,110	-0,130
-187,387	-92,924	-0,075	0,015
-186,373	800,000	0,029	-0,058
-185,358	-65,440	-0,013	-0,004
-184,344	-89,760	0,196	0,040
-183,329	800,000	0,059	0,127
-182,315	379,269	0,108	0,158
-181,300	704,264	-0,035	0,067
-180,285	13,393	-0,050	-0,027
-179,271	159,380	-0,029	-0,028
-178,256	256,263	-0,042	0,051
-177,242	-9,096	0,090	-0,043
-176,227	-64,344	0,076	0,022
-175,212	156,697	0,088	0,086
-174,198	105,009	-0,050	-0,042
-173,183	-38,911	-0,144	0,054
-172,169	96,685	-0,067	-0,054
-171,154	-121,280	0,127	0,015
-170,139	800,000	-0,036	-0,090
-169,125	538,211	-0,011	-0,019
-168,110	15,289	0,109	0,061
-167,096	57,650	0,113	0,078
-166,081	-200,000	-0,033	0,119
-165,066	-10,131	-0,049	-0,023
-164,052	-131,952	-0,036	-0,003
-163,037	165,656	-0,059	-0,059
-162,023	800,000	-0,036	0,113
-161,008	-200,000	0,015	0,116
-159,993	-200,000	0,020	0,067
-158,979	24,150	0,007	0,004
-157,964	-200,000	-0,015	-0,093
-156,950	-125,624	-0,076	-0,008
-155,935	-24,903	0,058	-0,024
-154,920	-93,486	0,145	0,028
-153,906	613,273	0,054	0,096
-152,891	788,650	-0,060	0,117
-151,877	-38,110	-0,125	-0,047
-150,862	-183,840	-0,060	0,001
-149,847	0,333	0,027	0,014
-148,833	104,183	0,009	-0,007
-147,818	800,000	-0,028	0,062
-146,804	33,929	0,098	0,061
-145,789	313,701	-0,138	0,185
-144,775	-30,604	0,059	-0,024
-143,760	-113,273	-0,092	0,013
-142,745	800,000	0,021	-0,063
-141,731	218,071	0,030	-0,034
-140,716	128,097	-0,068	-0,062
-139,702	49,000	0,105	-0,070
-138,687	-58,920	0,061	0,019
-137,672	250,057	0,082	0,099
-136,658	789,588	-0,062	-0,121
-135,643	-200,000	-0,009	-0,060
-134,629	-182,845	-0,109	-0,001
-133,614	294,406	0,137	0,178
-132,599	208,927	-0,060	0,067
-131,585	189,402	-0,089	0,094
-130,570	-44,733	0,014	0,005
-129,556	0,053	0,049	-0,025
-128,541	-200,000	0,046	-0,165
-127,526	274,925	-0,099	-0,125
-126,512	776,438	0,066	-0,128
-125,497	-67,563	0,023	-0,006
-124,483	800,000	0,044	0,097
-123,468	211,569	-0,044	0,049
-122,453	49,227	0,142	-0,094
-121,439	-200,000	-0,049	-0,179
-120,424	461,199	-0,056	-0,089
-119,410	640,947	0,046	0,084
-118,395	55,149	0,093	0,064
-117,380	-200,000	0,020	0,072
-116,366	-117,519	-0,044	0,006
-115,351	-200,000	-0,003	0,029
-114,337	800,000	-0,061	0,142
-113,322	-200,000	0,031	0,106
-112,307	254,959	-0,127	0,155
-111,293	31,184	0,117	-0,071
-110,278	800,000	-0,049	-0,122
-109,264	-200,000	0,015	-0,056
-108,249	565,214	-0,024	-0,041
-107,234	-149,156	-0,148	-0,008
-106,220	-200,000	-0,019	-0,120
-105,205	800,000	0,039	0,106
-104,191	-136,681	0,023	-0,002
-103,176	-88,440	0,124	-0,026
-102,162	-94,856	0,028	-0,005
-101,147	-200,000	-0,020	-0,077
-100,132	-68,473	-0,041	0,011
-99,118	-71,210	-0,009	-0,002
-98,103	376,824	0,044	0,063
-97,089	598,833	0,088	0,155
-96,074	-87,713	0,124	-0,026
-95,059	-200,000	0,007	-0,074
-94,045	-200,000	-0,020	0,107
-93,030	-53,552	0,072	0,023
-92,016	167,329	0,021	-0,021
-91,001	-140,354	-0,079	0,006
-89,986	260,273	0,115	0,142
-88,972	23,729	0,078	0,045
-87,957	93,785	-0,025	-0,020
-86,943	209,597	-0,032	0,036
-85,928	50,087	-0,090	-0,060
-84,913	-200,000	0,001	-0,198
-83,899	65,448	-0,114	-0,082
-82,884	280,943	-0,093	-0,118
-81,870	-200,000	0,003	0,022
-80,855	-200,000	-0,039	0,194
-79,840	800,000	-0,028	-0,074
-78,826	-49,833	0,028	0,009
-77,811	800,000	0,036	-0,082
-76,797	-200,000	-0,030	-0,112
-75,782	-88,115	-0,084	-0,018
-74,767	-200,000	0,014	-0,118
-73,753	-120,052	0,029	-0,004
-72,738	172,517	0,056	0,057
-71,724	-200,000	-0,016	-0,095
-70,709	694,466	-0,050	0,094
-69,694	12,228	-0,102	-0,055
-68,680	-8,131	0,120	0,057
-67,665	-65,823	-0,053	-0,015
-66,651	336,945	-0,058	0,080
-65,636	-86,095	-0,144	-0,031
-64,622	-89,059	0,082	0,017
-63,607	-164,735	-0,136	-0,004
-62,592	381,635	0,103	0,151
-61,578	800,000	0,023	0,054
-60,563	354,533	-0,097	0,137
-59,549	307,018	0,052	0,069
-58,534	-38,636	-1,615	-0,601
-57,519	411,935	-1,355	-2,044
-56,505	-200,000	-0,527	-4,558
-55,490	242,823	0,863	1,025
-54,476	800,000	5,133	11,422
-53,461	-200,000	18,938	312,996
-52,446	-200,000	738,985	2324,495
-51,432	575,473	1655,430	2873,439
-50,417	79,150	1671,833	1266,956
-49,403	21,829	1544,574	888,748
-48,388	15,698	1466,969	814,279
-47,373	17,882	1457,051	819,298
-46,359	16,849	1447,156	808,747
-45,344	13,910	1442,595	792,083
-44,330	13,849	1440,716	790,730
-43,315	13,873	1439,134	789,945
-42,300	13,853	1437,234	788,773
-41,286	13,895	1436,024	788,280
-40,271	13,815	1434,833	787,212
-39,257	13,796	1433,567	786,395
-38,242	13,870	1432,274	786,008
-37,227	13,945	1430,998	785,631
-36,213	13,937	1429,621	784,808
-35,198	13,887	1428,443	783,893
-34,184	13,957	1427,531	783,693
-33,169	13,859	1426,416	782,586
-32,154	13,938	1425,046	782,176
-31,140	13,927	1423,640	781,324
-30,125	13,917	1422,759	780,762
-29,111	13,907	1421,787	780,150
-28,096	13,878	1420,647	779,354
-27,082	13,852	1419,502	778,572
-26,067	13,829	1418,268	777,755
-25,052	13,842	1417,346	777,284
-24,038	13,798	1416,190	776,411
-23,023	13,811	1415,146	775,866
-22,009	13,792	1414,351	775,310
-20,994	13,847	1413,401	775,018
-19,979	13,779	1412,591	774,224
-18,965	13,784	1411,494	773,616
-17,950	13,779	1410,750	773,156
-16,936	13,780	1409,848	772,636
-15,921	13,756	1408,738	771,880
-14,906	13,739	1407,767	771,242
-13,892	13,787	1406,701	770,849
-12,877	13,787	1405,870	770,364
-11,863	13,804	1404,868	769,862
-10,848	13,734	1404,188	769,134
-9,833	13,668	1403,219	768,266
-8,819	13,640	1402,454	767,685
-7,804	13,662	1401,495	767,231
-6,790	13,676	1400,135	766,524
-5,775	13,691	1399,185	766,042
-4,760	13,673	1398,403	765,501
-3,746	13,641	1397,550	764,854
-2,731	13,622	1396,828	764,339
-1,717	13,603	1395,894	763,709
-0,702	13,684	1393,962	762,998
0,313	17,350	1311,798	735,080
1,327	33,408	705,927	432,791
2,342	51,085	124,009	83,079
3,356	1,061	16,716	8,456
4,371	5,291	3,214	1,671
5,386	-44,750	0,539	0,189
6,400	-200,000	0,009	0,134
7,415	64,721	-0,239	-0,170
8,429	75,124	-0,305	-0,227
9,444	231,548	-0,314	-0,365
10,459	58,170	-0,227	-0,157
11,473	404,481	-0,226	-0,338
12,488	-24,598	-0,319	-0,134
13,502	7,989	-0,299	-0,158
14,517	27,689	-0,338	-0,201
15,531	113,546	-0,272	-0,233
16,546	68,235	-0,302	-0,218
17,561	25,898	-0,438	-0,257
18,575	88,304	-0,116	-0,091
19,590	25,316	-0,268	-0,157
20,604	-22,023	-0,283	-0,121
21,619	62,209	-0,497	-0,350
22,634	11,503	-0,520	-0,281
23,648	30,339	-0,538	-0,324
24,663	130,702	-0,317	-0,287
25,677	155,037	-0,332	-0,323
26,692	85,409	-0,263	-0,203
27,707	251,153	-0,309	-0,372
28,721	123,904	-0,403	-0,357
29,736	48,870	-0,476	-0,315
30,750	92,094	-0,305	-0,242
31,765	16,001	-0,455	-0,252
32,780	106,221	-0,263	-0,220
33,794	-32,628	-0,507	-0,198
34,809	317,025	-0,243	-0,325
35,823	114,838	-0,272	-0,234
36,838	149,074	-0,391	-0,373
37,853	144,235	-0,300	-0,282
38,867	214,200	-0,402	-0,450
39,882	120,620	-0,377	-0,330
40,896	149,410	-0,273	-0,261
41,911	20,381	-0,237	-0,135
42,926	113,055	-0,388	-0,331
43,940	98,281	-0,229	-0,186
44,955	76,380	-0,437	-0,326
45,969	24,193	-0,342	-0,199
46,984	6,971	-0,423	-0,222
47,999	-38,379	-0,241	-0,089
49,013	112,941	-0,313	-0,267
50,028	90,675	-0,271	-0,214
51,042	-7,254	-0,297	-0,141
52,057	148,123	-0,217	-0,207
53,071	-39,196	-0,246	-0,091
54,086	-21,020	-0,395	-0,169
55,101	98,184	-0,294	-0,239
56,115	153,789	-0,306	-0,296
57,130	5,398	-0,369	-0,191
58,144	2,158	-0,427	-0,217
59,159	58,222	-0,311	-0,214
60,174	41,124	-0,415	-0,263
61,188	63,087	-0,395	-0,278
62,203	45,719	-0,306	-0,199
63,217	82,847	-0,302	-0,231
64,232	-1,826	-0,234	-0,116
65,247	71,164	-0,228	-0,167
66,261	158,152	-0,338	-0,330
67,276	-1,064	-0,494	-0,245
68,290	33,744	-0,300	-0,183
69,305	171,953	-0,275	-0,278
70,320	19,685	-0,281	-0,159
71,334	226,185	-0,197	-0,225
72,349	63,014	-0,257	-0,181
73,363	131,902	-0,268	-0,243
74,378	0,565	-0,413	-0,207
75,393	110,029	-0,242	-0,204
76,407	-13,493	-0,338	-0,154
77,422	-15,632	-0,268	-0,120
78,436	0,778	-0,288	-0,144
79,451	117,585	-0,297	-0,257
80,466	43,101	-0,418	-0,268
81,480	143,997	-0,216	-0,203
82,495	-24,892	-0,265	-0,110
83,509	-66,360	-0,291	-0,081
84,524	9,698	-0,245	-0,130
85,539	277,996	-0,239	-0,300
86,553	1,717	-0,186	-0,094
87,568	116,294	-0,360	-0,310
88,582	130,615	-0,379	-0,341
89,597	7,857	-0,338	-0,178
90,611	-60,546	-0,286	-0,085
91,626	9,483	-0,245	-0,130
92,641	-37,570	-0,403	-0,150
93,655	129,638	-0,290	-0,260
94,670	-65,158	-0,255	-0,072
95,684	44,691	-0,439	-0,283
96,699	138,087	-0,186	-0,171
97,714	-7,524	-0,225	-0,106
98,728	2,341	-0,258	-0,131
99,743	65,992	-0,232	-0,165
100,757	-57,054	-0,354	-0,109
101,772	129,192	-0,328	-0,294
102,787	507,110	-0,206	-0,336
103,801	121,509	-0,324	-0,283
104,816	80,686	-0,255	-0,193
105,830	121,292	-0,175	-0,153
106,845	23,162	-0,336	-0,193
107,860	14,604	-0,246	-0,134
108,874	-77,769	-0,214	-0,051
109,889	12,915	-0,399	-0,216
110,903	230,523	-0,336	-0,386
111,918	81,491	-0,186	-0,141
112,933	-141,230	-0,145	0,010
113,947	-60,307	-0,241	-0,071
114,962	-31,096	-0,134	-0,053
115,976	96,443	-0,235	-0,188
116,991	-6,401	-0,354	-0,169
118,006	193,663	-0,307	-0,325
119,020	83,773	-0,293	-0,224
120,035	156,466	-0,202	-0,195
121,049	9,355	-0,284	-0,150
122,064	-72,427	-0,395	-0,102
123,079	-21,875	-0,320	-0,136
124,093	-7,304	-0,309	-0,146
125,108	326,444	-0,228	-0,307
126,122	800,000	-0,080	-0,190
127,137	430,198	-0,129	-0,197
128,151	-16,346	-0,274	-0,121
129,166	56,914	-0,221	-0,150
130,181	128,103	-0,305	-0,271
131,195	161,002	-0,316	-0,309
132,210	800,000	-0,137	-0,363
133,224	275,211	-0,266	-0,330
134,239	192,229	-0,245	-0,259
135,254	158,643	-0,214	-0,208
136,268	-45,006	-0,173	-0,060
137,283	800,000	-0,090	-0,182
138,297	57,458	-0,303	-0,206
139,312	76,984	-0,418	-0,310
140,327	94,883	-0,245	-0,194
141,341	39,672	-0,227	-0,142
142,356	37,342	-0,123	-0,076
143,370	213,138	-0,223	-0,246
144,385	21,270	-0,159	-0,090
145,400	189,405	-0,196	-0,206
146,414	120,868	-0,188	-0,163
147,429	12,144	-0,241	-0,129
148,443	674,648	-0,139	-0,253
149,458	138,501	-0,270	-0,247
150,473	375,089	-0,242	-0,346
151,487	290,751	-0,170	-0,216
152,502	193,129	-0,253	-0,268
153,516	105,243	-0,225	-0,185
154,531	72,322	-0,252	-0,183
155,546	4,548	-0,245	-0,125
156,560	71,749	-0,175	-0,127
157,575	-80,343	-0,219	-0,051
158,589	152,094	-0,253	-0,241
159,604	28,954	-0,164	-0,097
160,619	-47,636	-0,303	-0,102
161,633	107,788	-0,215	-0,179
162,648	115,046	-0,222	-0,189
163,662	499,659	-0,159	-0,257
164,677	13,064	-0,198	-0,106
165,692	174,082	-0,175	-0,176
166,706	160,679	-0,202	-0,197
167,721	217,819	-0,202	-0,225
168,735	26,970	-0,310	-0,181
169,750	-13,802	-0,235	-0,106
170,764	-200,000	-0,194	0,001
171,779	-6,323	-0,149	-0,071
172,794	11,461	-0,208	-0,111
173,808	613,177	-0,179	-0,313
174,823	50,155	-0,260	-0,171
175,837	59,685	-0,308	-0,212
176,852	126,670	-0,232	-0,205
177,867	-43,478	-0,243	-0,085
178,881	-106,956	-0,169	-0,026
179,896	800,000	-0,059	-0,139
180,910	265,608	-0,087	-0,106
181,925	-51,223	-0,162	-0,052
182,940	-61,263	-0,214	-0,063
183,954	17,138	-0,255	-0,140
184,969	199,777	-0,113	-0,121
185,983	125,433	-0,208	-0,183
186,998	-45,568	-0,155	-0,053
188,013	-45,734	-0,196	-0,067
189,027	-22,072	-0,295	-0,124
190,042	49,457	-0,229	-0,150
191,056	34,317	-0,238	-0,144
192,071	313,511	-0,156	-0,205
193,086	800,000	-0,137	-0,326
194,100	465,842	-0,108	-0,170
195,115	-64,452	-0,176	-0,049
196,129	663,788	-0,098	-0,176
197,144	327,684	-0,192	-0,257
198,159	219,001	-0,182	-0,202
199,173	-4,976	-0,268	-0,128
200,188	-200,000	-0,001	-0,236
201,202	30,348	-0,308	-0,183
202,217	-3,916	-0,343	-0,165
203,232	-112,622	-0,197	-0,027
204,246	201,579	-0,189	-0,203
205,261	332,938	-0,156	-0,210
206,275	147,620	-0,099	-0,093
207,290	-41,654	-0,228	-0,081
208,304	47,623	-0,046	0,030
209,319	-200,000	-0,032	-0,242
210,334	339,279	-0,174	-0,236
211,348	51,389	-0,198	-0,131
212,363	-132,782	-0,228	-0,020
213,377	138,505	-0,207	-0,189
214,392	544,424	-0,106	-0,176
215,407	66,873	-0,115	-0,081
216,421	61,494	-0,204	-0,141
217,436	226,129	-0,111	-0,125
218,450	130,600	-0,162	-0,144
219,465	56,104	-0,194	-0,131
220,480	132,572	-0,212	-0,190
221,494	49,694	-0,165	-0,108
222,509	0,032	-0,250	-0,123
223,523	299,319	-0,194	-0,249
224,538	74,700	-0,070	-0,051
225,553	800,000	-0,133	-0,269
226,567	800,000	-0,060	-0,153
227,582	109,717	-0,214	-0,178
228,596	124,074	-0,094	-0,082
229,611	612,496	-0,157	-0,273
230,626	250,092	-0,188	-0,221
231,640	48,254	-0,118	-0,076
232,655	107,743	-0,165	-0,136
233,669	-31,308	-0,219	-0,085
234,684	106,558	-0,190	-0,156
235,699	-68,503	-0,161	-0,043
236,713	-200,000	-0,036	-0,131
237,728	91,191	-0,163	-0,127
238,742	-22,365	-0,167	-0,070
239,757	65,483	-0,328	-0,230
240,772	800,000	-0,158	-0,350
241,786	260,462	-0,146	-0,175
242,801	252,267	-0,191	-0,225
243,815	209,986	-0,219	-0,239
244,830	-47,421	-0,128	-0,043
245,844	315,579	-0,151	-0,198
246,859	209,702	-0,139	-0,151
247,874	22,401	-0,219	-0,124
248,888	781,497	-0,137	-0,260
249,903	-92,253	-0,176	-0,034
250,917	-109,489	-0,206	-0,030
251,932	725,744	-0,080	-0,148
252,947	220,170	-0,124	-0,138
253,961	186,325	-0,185	-0,191
254,976	-200,000	-0,025	-0,082
255,990	-105,237	-0,285	-0,044
257,005	108,827	-0,125	-0,104
258,020	-105,865	-0,157	0,024
259,034	30,643	-0,203	-0,120
260,049	444,946	-0,033	0,050
261,063	-77,071	-0,188	-0,045
262,078	-95,111	-0,243	-0,045
263,093	-94,891	-0,111	0,021
264,107	-200,000	-0,026	-0,086
265,122	387,858	-0,122	-0,175
266,136	-40,385	-0,216	0,077
267,151	-59,014	-0,156	-0,046
268,166	-117,801	-0,288	-0,035
269,180	158,382	-0,123	-0,118
270,195	333,142	-0,119	-0,159
271,209	9,872	-0,203	-0,106
272,224	-77,242	-0,226	0,054
273,239	45,099	-0,050	0,032
274,253	103,280	-0,172	-0,139
275,268	314,768	-0,098	-0,128
276,282	-14,542	-0,208	-0,092
277,297	-115,862	-0,264	-0,034
278,312	332,090	-0,128	-0,171
279,326	124,141	-0,098	-0,085
280,341	46,424	-0,057	0,036
281,355	-34,660	-0,117	0,044
282,370	-75,465	-0,256	0,062
283,384	-142,812	-0,246	-0,016
284,399	-13,410	-0,192	-0,086
285,414	143,883	-0,234	-0,216
286,428	-200,000	-0,055	-0,380
287,443	324,253	-0,131	-0,173
288,457	103,418	-0,197	-0,159
289,472	104,886	-0,087	-0,071
290,487	115,405	-0,228	-0,192
291,501	303,020	-0,224	-0,286
292,516	256,899	-0,145	-0,172
293,530	47,135	-0,189	-0,121
294,545	-89,118	-0,170	-0,034
295,560	167,741	-0,046	-0,045
296,574	-7,350	-0,117	-0,054
297,589	16,216	-0,159	-0,086
298,603	89,035	-0,136	-0,104
299,618	175,682	-0,222	-0,222
300,633	-88,926	-0,188	-0,038
301,647	-15,606	-0,220	-0,096
302,662	-115,380	-0,144	-0,019
303,676	-7,803	-0,139	-0,065
304,691	70,296	-0,128	-0,091
305,706	1,299	-0,176	-0,087
306,720	92,199	-0,078	-0,060
307,735	800,000	-0,115	-0,247
308,749	-131,560	-0,155	-0,014
309,764	49,376	-0,183	-0,118
310,779	-42,094	-0,096	-0,034
311,793	505,235	-0,084	-0,135
312,808	117,700	-0,204	-0,173
313,822	-31,807	-0,127	-0,049
314,837	204,695	-0,077	-0,082
315,852	499,606	-0,114	-0,181
316,866	67,973	-0,196	-0,138
317,881	641,454	-0,108	-0,190
318,895	-200,000	0,022	-0,164
319,910	453,368	-0,053	-0,082
320,925	-78,071	-0,198	-0,047
321,939	91,595	-0,193	-0,149
322,954	-200,000	-0,029	-0,204
323,968	76,355	-0,120	-0,087
324,983	82,617	-0,116	-0,086
325,997	-50,471	-0,126	0,041
327,012	800,000	-0,016	-0,047
328,027	189,186	-0,174	-0,179
329,041	-200,000	0,020	-0,142
330,056	23,453	-0,099	-0,056
331,070	800,000	-0,059	-0,129
332,085	114,343	-0,214	-0,179
333,100	3,837	-0,254	-0,127
334,114	18,961	-0,208	-0,114
335,129	167,455	-0,229	-0,223
336,143	-200,000	-0,009	-0,190
337,158	-37,515	-0,285	-0,104
338,173	800,000	-0,074	-0,147
339,187	130,392	-0,168	-0,148
340,202	223,438	-0,213	-0,236
341,216	120,763	-0,169	-0,144
342,231	22,256	-0,223	-0,125
343,246	155,567	-0,134	-0,127
344,260	-12,238	-0,021	-0,010
345,275	282,927	-0,069	-0,085
346,289	-200,000	0,000	-0,026
347,304	332,529	-0,114	-0,152
348,319	800,000	-0,032	-0,093
349,333	78,381	-0,156	-0,114
350,348	86,855	-0,126	-0,096
351,362	392,583	-0,125	-0,179
352,377	-71,496	-0,113	-0,029
353,392	-130,153	-0,096	-0,009
354,406	-138,677	-0,157	-0,012
355,421	207,027	1315,870	1408,993
356,435	159,234	1476,741	1409,473
