DTS Sentinel unit serial number:	SN410029Multiplexer serial number:	ORYXHardware model number:	OX2-SRSoftware version number:	ORYX F/W v4,00 Oryx Data Collector v3.7.2.0data status	okinstallation	B3 Nyhavnadifferential loss correction	single-endedforward channel	channel 1reverse channel	N/Adate	2023/11/30time	08:32:30forward acquisition time	300,00reverse acquisition time	0,00gamma	499,1914k internal	0,3214k external	0,3214temperature offset calibration	1,0000default loss term (dB/km)	0,3820temperature slope calibration	1,0000multiplexer offset coefficient	1,0000multiplexer slope coefficient	1,0000fibre end	0,00T internal ref (°C)	9,31T ext. ref 1 (°C)	-5,30T ext. ref 2 (°C)	-5,37length (m)	temperature (°C)	Stokes	anti-Stokes-744,400	610,743	-0,101	-0,183
-743,385	-200,000	-0,025	0,228
-742,371	157,490	-0,222	-0,222
-741,356	-200,000	-0,079	0,393
-740,342	167,122	-0,204	-0,210
-739,327	354,981	-0,200	0,289
-738,312	231,196	-0,205	-0,243
-737,298	-200,000	-0,062	0,214
-736,283	137,249	-0,285	-0,270
-735,269	800,000	0,127	0,270
-734,254	47,769	-0,167	-0,113
-733,239	-15,835	-0,297	0,136
-732,225	46,532	-0,204	-0,137
-731,210	15,615	0,120	0,068
-730,196	16,434	0,077	0,044
-729,181	-129,610	-0,175	-0,017
-728,167	15,350	-0,106	-0,060
-727,152	800,000	-0,041	-0,086
-726,137	-200,000	-0,001	-0,028
-725,123	-93,314	-0,036	-0,007
-724,108	-200,000	0,019	-0,099
-723,094	-106,079	-0,071	0,011
-722,079	23,092	-0,188	-0,111
-721,064	800,000	0,048	0,129
-720,050	-98,245	-0,115	0,021
-719,035	800,000	0,036	-0,086
-718,021	280,404	-0,065	-0,084
-717,006	37,520	-0,049	-0,032
-715,991	-200,000	0,000	-0,093
-714,977	800,000	0,034	-0,095
-713,962	12,121	-0,101	-0,056
-712,948	157,887	0,053	0,053
-711,933	800,000	0,021	0,053
-710,918	-14,682	-0,178	0,082
-709,904	-198,519	-0,102	0,000
-708,889	28,424	0,087	-0,053
-707,875	-85,044	-0,046	0,010
-706,860	800,000	-0,026	0,057
-705,845	-42,212	0,085	-0,031
-704,831	800,000	-0,016	0,033
-703,816	-92,213	-0,147	-0,030
-702,802	72,549	-0,037	0,028
-701,787	88,432	-0,197	-0,158
-700,772	-126,144	0,076	-0,008
-699,758	-18,887	-0,061	-0,027
-698,743	-30,622	0,155	0,063
-697,729	655,651	0,022	-0,041
-696,714	416,562	0,045	-0,070
-695,699	477,973	-0,096	-0,157
-694,685	71,620	-0,170	-0,127
-693,670	622,501	-0,033	-0,060
-692,656	298,589	-0,035	-0,046
-691,641	38,655	0,254	-0,164
-690,627	-62,290	-0,105	0,031
-689,612	125,327	-0,125	-0,114
-688,597	-7,965	-0,054	-0,026
-687,583	71,571	0,080	-0,060
-686,568	318,395	0,044	0,060
-685,554	212,006	-0,139	0,159
-684,539	800,000	-0,036	0,079
-683,524	-200,000	-0,008	0,081
-682,510	-176,639	0,124	0,002
-681,495	-97,635	-0,092	-0,017
-680,481	800,000	-0,029	0,082
-679,466	-106,219	-0,020	0,003
-678,451	800,000	-0,013	-0,027
-677,437	-26,637	-0,096	-0,040
-676,422	-200,000	-0,009	0,084
-675,408	256,327	0,075	0,093
-674,393	427,499	-0,045	0,070
-673,378	-200,000	-0,024	-0,099
-672,364	-3,947	-0,166	-0,083
-671,349	-38,602	-0,130	-0,049
-670,335	-200,000	0,005	0,082
-669,320	79,997	-0,059	0,046
-668,305	-200,000	-0,020	-0,076
-667,291	148,428	0,061	0,059
-666,276	-200,000	-0,001	-0,073
-665,262	-171,376	-0,109	0,003
-664,247	-155,477	-0,063	0,003
-663,232	800,000	0,058	0,121
-662,218	-200,000	-0,036	-0,120
-661,203	-200,000	-0,007	0,055
-660,189	61,438	-0,120	-0,086
-659,174	47,795	0,023	-0,015
-658,159	36,221	-0,074	-0,047
-657,145	-11,206	-0,112	-0,053
-656,130	59,650	0,028	0,020
-655,116	158,685	0,047	0,047
-654,101	-200,000	-0,045	0,154
-653,086	-177,366	0,117	0,002
-652,072	-200,000	0,008	-0,098
-651,057	-200,000	-0,004	-0,034
-650,043	-200,000	-0,001	-0,056
-649,028	800,000	0,069	-0,168
-648,014	-108,343	-0,076	0,012
-646,999	-200,000	-0,003	0,056
-645,984	-64,894	-0,103	0,030
-644,970	-11,805	-0,107	0,050
-643,955	7,948	-0,094	-0,051
-642,941	-90,638	-0,109	-0,022
-641,926	-28,486	0,021	0,009
-640,911	-121,287	-0,028	-0,003
-639,897	28,298	0,149	0,090
-638,882	800,000	0,005	-0,009
-637,868	-37,044	-0,038	-0,015
-636,853	-49,458	-0,114	-0,039
-635,838	791,235	-0,053	0,106
-634,824	-200,000	0,024	0,086
-633,809	800,000	0,019	0,040
-632,795	-21,822	0,012	-0,005
-631,780	26,609	-0,113	0,068
-630,765	84,212	-0,010	0,008
-629,751	800,000	0,013	-0,032
-628,736	99,208	-0,090	0,075
-627,722	800,000	0,026	-0,066
-626,707	335,190	0,113	-0,158
-625,692	-42,075	-0,031	-0,011
-624,678	-200,000	0,001	0,086
-623,663	-112,349	0,077	-0,011
-622,649	-107,241	-0,145	-0,023
-621,634	-128,390	-0,070	0,007
-620,619	-200,000	0,005	-0,033
-619,605	-7,669	-0,020	-0,010
-618,590	75,314	0,078	0,059
-617,576	-62,968	-0,048	0,014
-616,561	-200,000	-0,004	0,051
-615,546	-200,000	0,000	0,071
-614,532	107,273	-0,136	-0,116
-613,517	800,000	-0,019	-0,044
-612,503	536,474	0,046	0,079
-611,488	-39,551	-0,082	0,031
-610,474	310,345	0,032	-0,044
-609,459	119,881	0,094	0,084
-608,444	227,030	-0,112	0,132
-607,430	-200,000	-0,032	-0,141
-606,415	605,876	-0,022	0,040
-605,401	-131,388	-0,208	-0,020
-604,386	-149,294	0,069	-0,004
-603,371	45,952	0,133	-0,088
-602,357	-174,874	0,059	0,001
-601,342	-24,467	-0,111	-0,047
-600,328	-200,000	-0,035	-0,190
-599,313	542,703	0,066	-0,114
-598,298	-32,062	-0,100	0,040
-597,284	800,000	0,029	0,062
-596,269	208,691	-0,081	-0,092
-595,255	666,494	-0,029	0,054
-594,240	129,602	0,078	-0,072
-593,225	-200,000	-0,001	-0,062
-592,211	-71,238	-0,036	0,010
-591,196	-29,498	0,114	0,047
-590,182	-113,568	0,041	-0,006
-589,167	324,010	-0,041	0,056
-588,152	27,611	0,089	0,054
-587,138	-200,000	-0,007	0,026
-586,123	800,000	-0,032	0,096
-585,109	80,211	-0,149	-0,115
-584,094	-139,133	0,048	0,004
-583,079	-146,126	0,110	0,007
-582,065	265,779	0,105	-0,132
-581,050	65,546	0,114	-0,083
-580,036	-132,664	-0,123	0,011
-579,021	245,368	-0,112	-0,135
-578,006	576,460	0,042	-0,074
-576,992	-200,000	-0,008	0,055
-575,977	361,272	-0,079	-0,114
-574,963	182,861	-0,052	-0,055
-573,948	-5,067	0,016	0,008
-572,934	-200,000	0,004	0,069
-571,919	800,000	0,043	-0,111
-570,904	40,266	-0,083	-0,054
-569,890	-23,969	-0,044	0,019
-568,875	619,947	0,052	0,095
-567,861	-26,773	-0,045	0,019
-566,846	-200,000	0,017	0,099
-565,831	800,000	-0,063	-0,167
-564,817	145,389	0,080	-0,077
-563,802	-145,136	-0,076	-0,005
-562,788	800,000	0,009	-0,022
-561,773	-72,827	0,075	-0,020
-560,758	93,912	0,120	0,098
-559,744	226,794	0,050	-0,058
-558,729	169,304	0,024	-0,024
-557,715	800,000	-0,032	0,097
-556,700	800,000	-0,036	-0,088
-555,685	34,514	0,106	-0,067
-554,671	306,159	-0,088	-0,118
-553,656	462,475	0,030	0,048
-552,642	-26,249	0,055	0,023
-551,627	363,838	-0,101	0,146
-550,612	1,002	-0,042	0,022
-549,598	763,461	0,017	0,033
-548,583	-156,516	-0,040	-0,002
-547,569	-89,601	0,086	0,018
-546,554	42,359	0,028	0,018
-545,539	-153,942	0,034	-0,002
-544,525	-200,000	-0,012	0,055
-543,510	117,080	0,058	-0,051
-542,496	669,617	-0,068	-0,126
-541,481	-44,715	0,034	-0,012
-540,466	800,000	-0,043	0,091
-539,452	12,061	0,100	-0,055
-538,437	-200,000	0,023	0,086
-537,423	-12,238	0,020	0,009
-536,408	607,967	-0,057	-0,102
-535,393	36,346	-0,017	-0,011
-534,379	-80,317	-0,130	0,031
-533,364	-200,000	0,004	-0,047
-532,350	18,676	0,078	0,045
-531,335	-82,862	0,044	0,010
-530,321	291,200	0,041	-0,053
-529,306	330,559	-0,036	-0,051
-528,291	800,000	-0,073	-0,164
-527,277	800,000	0,018	0,042
-526,262	-181,431	0,053	0,001
-525,248	-200,000	-0,002	0,074
-524,233	-48,051	0,056	-0,019
-523,218	11,124	-0,164	-0,090
-522,204	109,720	-0,067	0,058
-521,189	-200,000	-0,132	0,000
-520,175	-200,000	-0,046	-0,148
-519,160	-22,189	0,021	0,009
-518,145	-99,432	-0,055	0,010
-517,131	433,725	0,024	-0,037
-516,116	-58,782	0,093	-0,029
-515,102	-35,479	-0,102	-0,040
-514,087	324,789	-0,071	-0,098
-513,072	586,491	0,066	-0,118
-512,058	-200,000	0,002	-0,075
-511,043	-200,000	0,011	0,044
-510,029	-200,000	0,000	-0,020
-509,014	88,860	0,146	-0,116
-507,999	298,988	0,069	0,091
-506,985	800,000	-0,022	-0,056
-505,970	8,008	-0,063	-0,034
-504,956	800,000	-0,041	-0,089
-503,941	-200,000	0,037	-0,133
-502,926	-4,997	0,063	-0,031
-501,912	55,126	0,108	0,074
-500,897	-24,118	-0,089	0,038
-499,883	-55,948	-0,078	-0,025
-498,868	251,371	-0,093	-0,114
-497,853	171,464	-0,092	0,095
-496,839	-70,856	0,142	0,038
-495,824	800,000	0,025	0,072
-494,810	-200,000	0,016	0,206
-493,795	128,848	0,035	0,032
-492,781	144,829	-0,010	0,010
-491,766	-200,000	0,019	-0,075
-490,751	-200,000	0,023	-0,083
-489,737	50,902	-0,133	0,090
-488,722	-167,404	0,177	-0,005
-487,708	-34,286	0,074	0,029
-486,693	220,297	-0,055	0,063
-485,678	131,516	0,060	0,055
-484,664	111,680	0,091	-0,078
-483,649	-84,938	-0,061	-0,014
-482,635	-200,000	-0,004	-0,026
-481,620	-200,000	-0,006	-0,042
-480,605	128,338	0,068	0,062
-479,591	-112,437	0,074	-0,011
-478,576	159,058	0,025	0,025
-477,562	251,212	-0,104	-0,127
-476,547	-86,899	0,097	-0,021
-475,532	282,090	-0,027	-0,035
-474,518	-200,000	-0,002	-0,094
-473,503	59,604	0,073	0,052
-472,489	356,935	0,038	-0,055
-471,474	-41,447	-0,082	-0,030
-470,459	-200,000	0,022	-0,080
-469,445	-200,000	-0,030	-0,100
-468,430	78,075	-0,014	-0,011
-467,416	40,134	0,090	0,058
-466,401	-200,000	-0,008	0,195
-465,386	371,585	-0,041	-0,060
-464,372	-200,000	-0,001	0,007
-463,357	800,000	-0,031	-0,093
-462,343	115,071	0,036	0,031
-461,328	-79,507	-0,095	-0,023
-460,313	-200,000	-0,008	0,066
-459,299	-80,473	0,144	0,034
-458,284	-80,661	0,073	0,017
-457,270	-124,861	-0,030	0,003
-456,255	478,768	-0,053	0,086
-455,241	-80,519	0,076	0,018
-454,226	-96,539	-0,122	0,023
-453,211	-56,027	0,016	0,005
-452,197	-104,787	0,039	-0,006
-451,182	-156,881	0,092	0,004
-450,168	-40,851	-0,195	-0,072
-449,153	-12,365	0,073	0,034
-448,138	-14,614	-0,068	-0,031
-447,124	800,000	-0,041	0,093
-446,109	800,000	-0,065	0,132
-445,095	-75,465	0,016	-0,004
-444,080	74,899	0,092	-0,069
-443,065	-200,000	0,001	0,012
-442,051	-164,582	0,031	-0,001
-441,036	-96,409	0,054	-0,010
-440,022	-142,349	-0,135	-0,009
-439,007	-200,000	-0,000	-0,079
-437,992	34,150	0,160	0,100
-436,978	13,133	-0,024	0,013
-435,963	-200,000	-0,010	-0,031
-434,949	-27,003	0,161	0,067
-433,934	25,463	-0,086	0,051
-432,919	340,789	0,088	0,123
-431,905	62,217	0,110	0,078
-430,890	800,000	0,026	0,080
-429,876	800,000	0,035	0,102
-428,861	800,000	-0,032	-0,075
-427,846	-18,165	-0,118	0,053
-426,832	-200,000	0,002	-0,018
-425,817	-200,000	0,004	0,033
-424,803	-200,000	0,011	0,094
-423,788	86,653	-0,095	-0,075
-422,773	-74,570	0,066	0,017
-421,759	71,563	-0,085	0,063
-420,744	166,912	0,038	0,039
-419,730	-200,000	-0,013	-0,109
-418,715	-200,000	-0,000	-0,054
-417,701	16,649	0,128	0,072
-416,686	697,358	-0,068	-0,128
-415,671	-177,142	0,119	-0,002
-414,657	800,000	-0,039	0,082
-413,642	18,188	0,070	-0,040
-412,628	127,857	-0,116	-0,105
-411,613	298,705	-0,035	-0,047
-410,598	-113,956	-0,078	0,011
-409,584	-26,997	0,134	-0,056
-408,569	-59,554	-0,051	-0,015
-407,555	438,920	0,061	-0,096
-406,540	-25,701	-0,079	0,033
-405,525	130,487	-0,048	-0,044
-404,511	-10,831	-0,079	-0,037
-403,496	-200,000	-0,023	-0,132
-402,482	800,000	0,023	0,064
-401,467	-73,692	0,061	0,016
-400,452	-61,628	0,026	0,008
-399,438	-166,395	-0,038	-0,001
-398,423	-200,000	0,037	0,151
-397,409	-4,378	0,064	-0,031
-396,394	-113,749	-0,049	0,007
-395,379	7,237	0,124	-0,066
-394,365	266,987	0,028	-0,035
-393,350	-200,000	-0,020	0,118
-392,336	-200,000	-0,130	-0,000
-391,321	170,575	-0,100	0,102
-390,306	249,253	0,066	-0,081
-389,292	-200,000	0,018	-0,158
-388,277	-200,000	-0,011	-0,126
-387,263	260,249	0,027	-0,034
-386,248	-57,285	0,172	0,054
-385,233	800,000	0,019	-0,047
-384,219	800,000	-0,018	-0,043
-383,204	-91,331	-0,172	-0,035
-382,190	171,959	-0,113	-0,116
-381,175	-11,838	0,049	0,023
-380,160	800,000	0,069	0,179
-379,146	-102,403	0,046	0,008
-378,131	30,884	-0,104	-0,064
-377,117	800,000	0,047	0,127
-376,102	393,299	-0,055	0,083
-375,088	-200,000	0,050	-0,201
-374,073	111,393	-0,047	0,041
-373,058	-89,214	0,032	0,007
-372,044	-108,629	0,077	0,012
-371,029	-90,002	0,070	-0,014
-370,015	284,035	0,045	0,058
-369,000	152,448	0,040	-0,039
-367,985	271,041	-0,109	-0,137
-366,971	242,427	-0,059	-0,071
-365,956	458,223	0,068	-0,109
-364,942	-140,568	0,074	-0,005
-363,927	-143,848	0,084	0,006
-362,912	-119,756	-0,082	0,010
-361,898	800,000	0,024	0,075
-360,883	-13,456	-0,054	0,025
-359,869	800,000	0,025	0,061
-358,854	-200,000	0,018	0,103
-357,839	206,258	0,116	-0,129
-356,825	-172,930	0,059	0,001
-355,810	35,376	0,098	-0,061
-354,796	107,382	-0,148	0,125
-353,781	-200,000	0,009	-0,054
-352,766	-200,000	0,012	0,047
-351,752	69,055	0,092	-0,068
-350,737	800,000	0,026	-0,056
-349,723	11,962	0,131	0,072
-348,708	-72,757	-0,061	0,016
-347,693	104,139	0,040	0,033
-346,679	-200,000	-0,027	-0,227
-345,664	349,033	0,023	0,033
-344,650	-81,425	0,147	-0,034
-343,635	-110,258	0,074	-0,011
-342,620	800,000	-0,011	-0,030
-341,606	-200,000	-0,010	-0,036
-340,591	71,867	-0,081	-0,060
-339,577	800,000	0,056	-0,130
-338,562	-53,368	-0,157	0,051
-337,548	1,967	0,086	0,044
-336,533	-59,669	0,095	0,029
-335,518	-200,000	0,000	-0,041
-334,504	-45,506	0,032	0,011
-333,489	-98,911	-0,102	-0,018
-332,475	-129,905	-0,120	0,012
-331,460	519,324	-0,053	-0,089
-330,445	800,000	-0,040	-0,091
-329,431	1,700	-0,059	-0,030
-328,416	-61,668	0,080	0,024
-327,402	4,378	0,126	-0,065
-326,387	800,000	-0,020	-0,060
-325,372	-47,425	-0,046	0,016
-324,358	-200,000	-0,010	0,063
-323,343	122,981	-0,013	0,012
-322,329	-100,932	0,119	-0,021
-321,314	800,000	0,037	0,086
-320,299	119,715	-0,072	0,063
-319,285	215,257	0,020	0,023
-318,270	800,000	0,044	-0,105
-317,256	69,590	0,050	-0,037
-316,241	105,412	-0,127	0,107
-315,226	90,046	0,061	-0,049
-314,212	30,955	-0,073	-0,044
-313,197	-121,446	0,137	-0,016
-312,183	800,000	-0,032	-0,068
-311,168	-200,000	-0,011	-0,087
-310,153	-72,548	-0,045	0,012
-309,139	699,328	0,046	0,087
-308,124	52,039	0,067	-0,046
-307,110	800,000	0,049	0,101
-306,095	-2,973	0,177	0,088
-305,080	-139,053	-0,076	-0,006
-304,066	-200,000	-0,028	-0,133
-303,051	-200,000	0,013	0,072
-302,037	-23,560	-0,074	0,031
-301,022	132,922	-0,011	-0,011
-300,008	-200,000	-0,006	0,088
-298,993	-200,000	-0,041	0,174
-297,978	-200,000	-0,048	0,171
-296,964	-186,900	0,081	-0,001
-295,949	-98,328	-0,093	0,017
-294,935	-200,000	0,004	-0,033
-293,920	-200,000	0,010	-0,135
-292,905	87,797	0,125	0,099
-291,891	316,629	0,099	0,134
-290,876	-4,401	-0,052	0,025
-289,862	800,000	-0,017	0,037
-288,847	-57,770	-0,037	0,011
-287,832	10,049	-0,097	-0,052
-286,818	800,000	0,005	-0,014
-285,803	-59,385	0,076	-0,023
-284,789	-23,038	-0,148	-0,063
-283,774	-200,000	-0,007	-0,023
-282,759	67,221	0,073	-0,053
-281,745	-176,675	-0,044	-0,001
-280,730	164,660	-0,038	-0,038
-279,716	-107,625	-0,114	0,018
-278,701	-91,570	-0,058	-0,012
-277,686	-99,194	0,115	0,020
-276,672	229,734	0,071	0,083
-275,657	-56,844	0,054	-0,017
-274,643	27,197	-0,133	-0,079
-273,628	26,135	-0,115	-0,068
-272,613	-72,583	0,043	-0,011
-271,599	44,785	0,114	-0,074
-270,584	-19,888	0,054	0,024
-269,570	109,737	0,144	0,123
-268,555	115,639	-0,039	0,034
-267,540	387,674	-0,073	-0,108
-266,526	245,163	-0,072	-0,086
-265,511	110,879	-0,062	-0,053
-264,497	231,820	0,031	0,036
-263,482	-36,020	0,158	0,060
-262,467	800,000	0,057	0,141
-261,453	-200,000	-0,009	0,060
-260,438	-67,963	0,090	-0,025
-259,424	-55,264	-0,113	-0,036
-258,409	307,602	-0,082	-0,109
-257,395	177,453	0,126	0,131
-256,380	102,536	0,105	-0,087
-255,365	272,113	0,114	0,143
-254,351	-57,535	0,067	0,021
-253,336	-114,755	-0,085	-0,011
-252,322	353,130	-0,052	-0,073
-251,307	800,000	0,005	0,016
-250,292	159,406	-0,030	0,030
-249,278	-200,000	0,018	0,141
-248,263	125,377	0,161	0,144
-247,249	-27,992	-0,135	0,055
-246,234	-81,071	0,049	0,011
-245,219	128,412	0,022	0,020
-244,205	-171,462	0,015	-0,000
-243,190	88,633	0,092	-0,072
-242,176	-40,384	0,095	-0,035
-241,161	436,972	0,078	0,122
-240,146	320,604	0,003	0,004
-239,132	-44,372	-0,077	0,027
-238,117	-200,000	-0,005	0,100
-237,103	800,000	-0,033	0,080
-236,088	-200,000	0,003	0,035
-235,073	157,712	0,107	0,105
-234,059	334,099	-0,109	0,150
-233,044	132,329	-0,038	0,035
-232,030	-168,138	0,057	-0,002
-231,015	276,647	-0,107	-0,135
-230,000	-31,289	-0,055	-0,022
-228,986	-200,000	-0,009	0,075
-227,971	-200,000	-0,027	-0,097
-226,957	289,348	-0,036	-0,047
-225,942	-116,200	0,097	-0,013
-224,927	296,495	-0,083	-0,109
-223,913	-66,972	-0,085	-0,024
-222,898	-17,445	0,116	-0,052
-221,884	800,000	-0,020	-0,049
-220,869	-200,000	0,001	-0,015
-219,855	189,390	0,034	0,036
-218,840	103,917	0,076	-0,063
-217,825	-93,965	0,090	0,017
-216,811	90,537	-0,073	0,058
-215,796	800,000	0,027	-0,063
-214,782	-200,000	-0,001	-0,054
-213,767	-94,606	-0,131	0,025
-212,752	-42,729	-0,052	0,019
-211,738	-200,000	0,001	-0,072
-210,723	105,588	-0,057	-0,048
-209,709	4,936	-0,039	-0,020
-208,694	585,167	-0,093	-0,162
-207,679	800,000	-0,031	-0,086
-206,665	271,995	0,082	0,102
-205,650	186,154	0,072	0,076
-204,636	22,940	-0,119	0,069
-203,621	296,553	-0,055	0,072
-202,606	415,600	0,059	0,089
-201,592	147,764	0,046	0,044
-200,577	-60,367	-0,012	-0,003
-199,563	128,305	-0,122	0,110
-198,548	134,227	0,143	0,131
-197,533	-180,913	0,102	-0,001
-196,519	-200,000	0,024	0,166
-195,504	-138,962	-0,092	0,007
-194,490	-200,000	-0,125	0,000
-193,475	800,000	-0,035	-0,077
-192,460	17,836	0,148	0,083
-191,446	-117,419	-0,175	-0,022
-190,431	321,906	0,102	-0,138
-189,417	303,890	-0,054	0,071
-188,402	800,000	0,034	0,102
-187,387	576,113	-0,050	-0,086
-186,373	-200,000	0,015	-0,103
-185,358	-92,452	-0,057	-0,011
-184,344	-200,000	-0,005	0,057
-183,329	-200,000	0,003	-0,036
-182,315	163,225	-0,151	0,151
-181,300	-129,093	0,023	-0,002
-180,285	-72,840	-0,032	0,008
-179,271	527,429	0,040	0,067
-178,256	395,635	0,062	-0,092
-177,242	219,107	-0,024	0,027
-176,227	-200,000	0,027	0,094
-175,212	-112,203	-0,130	0,018
-174,198	-200,000	0,010	-0,104
-173,183	281,408	-0,031	0,039
-172,169	59,808	-0,078	0,054
-171,154	-200,000	0,018	-0,063
-170,139	-49,269	-0,074	-0,025
-169,125	258,050	0,083	0,101
-168,110	46,452	-0,122	0,080
-167,096	97,047	0,071	0,058
-166,081	-111,704	-0,109	0,016
-165,066	-200,000	-0,002	-0,040
-164,052	532,422	0,021	0,036
-163,037	-200,000	0,029	0,155
-162,023	-200,000	-0,009	0,039
-161,008	-180,252	-0,054	-0,001
-159,993	23,586	0,084	0,049
-158,979	593,347	-0,010	-0,017
-157,964	12,072	-0,035	-0,019
-156,950	63,345	-0,088	0,063
-155,935	-33,288	0,181	0,071
-154,920	800,000	0,075	0,177
-153,906	169,471	-0,011	0,011
-152,891	243,749	-0,068	0,081
-151,877	-23,344	0,054	-0,023
-150,862	-97,337	-0,128	-0,023
-149,847	-28,353	-0,038	0,016
-148,833	-200,000	0,022	0,091
-147,818	-194,412	0,132	0,001
-146,804	118,470	0,064	0,056
-145,789	-200,000	0,009	0,183
-144,775	202,852	0,049	-0,054
-143,760	10,971	-0,003	-0,001
-142,745	-200,000	0,005	-0,062
-141,731	-200,000	0,006	-0,029
-140,716	-200,000	0,006	0,164
-139,702	-200,000	0,025	0,106
-138,687	-200,000	0,022	0,172
-137,672	-200,000	0,017	0,100
-136,658	61,809	0,015	-0,011
-135,643	36,721	0,067	0,042
-134,629	-14,821	-0,166	0,075
-133,614	86,418	0,084	0,066
-132,599	-200,000	0,042	0,135
-131,585	296,661	0,089	0,116
-130,570	-158,303	-0,061	0,002
-129,556	155,376	-0,059	-0,058
-128,541	-26,210	0,122	0,051
-127,526	800,000	0,042	0,089
-126,512	-200,000	-0,026	0,129
-125,497	712,846	0,122	0,230
-124,483	-200,000	-0,004	0,178
-123,468	525,058	0,061	-0,101
-122,453	-17,535	-0,080	0,036
-121,439	-178,182	-0,051	0,001
-120,424	254,063	0,096	-0,117
-119,410	234,326	-0,038	0,044
-118,395	370,901	-0,015	0,021
-117,380	800,000	-0,065	0,140
-116,366	-200,000	0,046	0,221
-115,351	-103,444	-0,056	-0,009
-114,337	43,056	0,079	-0,051
-113,322	61,594	-0,065	0,046
-112,307	-200,000	0,002	0,020
-111,293	-200,000	0,028	0,147
-110,278	-94,620	-0,169	0,032
-109,264	800,000	0,013	0,028
-108,249	-74,472	-0,087	0,022
-107,234	800,000	-0,035	-0,103
-106,220	127,284	0,053	0,047
-105,205	-47,970	-0,073	-0,025
-104,191	51,690	0,112	0,075
-103,176	-200,000	-0,051	0,340
-102,162	-25,269	0,131	0,054
-101,147	-200,000	0,013	0,056
-100,132	-160,414	-0,054	0,002
-99,118	76,944	0,048	0,036
-98,103	-17,482	0,075	0,033
-97,089	62,621	0,044	-0,031
-96,074	-200,000	-0,019	0,101
-95,059	230,075	0,027	0,031
-94,045	800,000	0,010	0,021
-93,030	595,697	0,060	0,105
-92,016	800,000	-0,016	0,043
-91,001	-200,000	0,001	0,068
-89,986	-200,000	-0,004	0,081
-88,972	-6,550	0,112	-0,053
-87,957	119,291	0,087	0,076
-86,943	-0,329	0,037	-0,019
-85,928	352,601	-0,035	-0,049
-84,913	800,000	0,028	-0,079
-83,899	52,792	-0,062	-0,042
-82,884	8,164	0,114	0,060
-81,870	800,000	0,008	-0,025
-80,855	-200,000	-0,003	0,068
-79,840	-200,000	-0,007	-0,088
-78,826	-200,000	0,008	0,072
-77,811	-200,000	-0,003	0,016
-76,797	-69,073	0,158	-0,043
-75,782	253,386	-0,095	-0,115
-74,767	84,175	0,096	0,074
-73,753	325,187	0,046	0,062
-72,738	319,787	0,100	0,134
-71,724	640,683	-0,040	-0,073
-70,709	-92,522	-0,111	-0,022
-69,694	-17,917	-0,028	-0,012
-68,680	538,030	0,040	0,067
-67,665	-200,000	0,006	0,182
-66,651	800,000	0,044	0,096
-65,636	-200,000	-0,024	-0,085
-64,622	419,131	0,051	-0,077
-63,607	52,871	-0,043	-0,029
-62,592	470,184	-0,099	0,157
-61,578	-165,681	0,165	0,005
-60,563	-61,850	-0,066	0,019
-59,549	-200,000	0,015	0,089
-58,534	46,248	-2,128	-1,388
-57,519	380,359	-1,227	-1,780
-56,505	-200,000	-0,416	-4,324
-55,490	581,935	0,903	1,568
-54,476	800,000	5,089	11,301
-53,461	-200,000	21,937	345,513
-52,446	800,000	764,495	2336,457
-51,432	543,429	1662,587	2807,901
-50,417	71,010	1658,471	1210,187
-49,403	17,068	1532,173	853,793
-48,388	11,105	1455,952	782,537
-47,373	19,175	1447,632	816,682
-46,359	14,581	1436,737	788,705
-45,344	9,443	1432,441	761,899
-44,330	9,364	1430,601	760,513
-43,315	9,316	1428,836	759,317
-42,300	9,373	1427,026	758,594
-41,286	9,364	1426,099	758,030
-40,271	9,374	1424,669	757,287
-39,257	9,343	1423,562	756,523
-38,242	9,424	1422,229	756,165
-37,227	9,373	1421,224	755,362
-36,213	9,369	1420,122	754,728
-35,198	9,407	1418,782	754,164
-34,184	9,451	1417,803	753,821
-33,169	9,372	1416,333	752,637
-32,154	9,398	1415,431	752,251
-31,140	9,413	1414,014	751,535
-30,125	9,423	1413,015	751,025
-29,111	9,395	1411,920	750,281
-28,096	9,363	1410,767	749,489
-27,082	9,352	1409,293	748,623
-26,067	9,281	1408,718	747,958
-25,052	9,353	1407,451	747,588
-24,038	9,373	1406,450	747,123
-23,023	9,345	1405,582	746,501
-22,009	9,310	1404,562	745,768
-20,994	9,318	1403,329	745,121
-19,979	9,350	1402,586	744,845
-18,965	9,338	1401,627	744,249
-17,950	9,288	1400,766	743,530
-16,936	9,283	1399,946	743,041
-15,921	9,248	1398,803	742,243
-14,906	9,266	1397,932	741,836
-13,892	9,291	1397,065	741,459
-12,877	9,228	1396,394	740,786
-11,863	9,261	1395,424	740,392
-10,848	9,251	1394,434	739,791
-9,833	9,193	1393,794	739,156
-8,819	9,159	1392,391	738,225
-7,804	9,146	1391,762	737,802
-6,790	9,138	1390,775	737,211
-5,775	9,145	1389,839	736,718
-4,760	9,225	1388,552	736,374
-3,746	9,209	1387,470	735,698
-2,731	9,188	1386,917	735,278
-1,717	9,100	1386,173	734,453
-0,702	9,157	1384,342	733,713
0,313	13,189	1296,248	705,410
1,327	29,229	686,865	409,967
2,342	45,574	118,594	77,032
3,356	0,776	16,608	8,349
4,371	9,998	3,562	1,900
5,386	1,069	1,274	0,642
6,400	800,000	0,228	0,580
7,415	-82,997	-0,227	-0,051
8,429	274,500	-0,192	-0,240
9,444	-9,740	-0,313	-0,146
10,459	-8,844	-0,340	-0,160
11,473	-112,647	-0,359	-0,050
12,488	-136,083	-0,221	0,018
13,502	35,206	-0,368	-0,227
14,517	-58,671	-0,351	-0,106
15,531	12,222	-0,285	-0,154
16,546	257,441	-0,195	-0,237
17,561	66,418	-0,280	-0,200
18,575	-42,005	-0,097	-0,035
19,590	429,588	-0,148	-0,227
20,604	-76,806	-0,287	-0,070
21,619	24,898	-0,430	-0,250
22,634	2,000	-0,609	-0,308
23,648	62,148	-0,381	-0,267
24,663	37,483	-0,436	-0,271
25,677	-44,443	-0,325	-0,114
26,692	106,708	-0,304	-0,254
27,707	-36,106	-0,355	-0,134
28,721	397,621	-0,199	-0,294
29,736	27,818	-0,462	-0,273
30,750	247,585	-0,264	-0,314
31,765	59,189	-0,367	-0,253
32,780	36,737	-0,319	-0,198
33,794	31,811	-0,302	-0,182
34,809	24,096	-0,440	-0,254
35,823	-137,714	-0,432	-0,034
36,838	296,330	-0,283	-0,365
37,853	133,633	-0,343	-0,311
38,867	-3,893	-0,473	-0,230
39,882	300,166	-0,206	-0,268
40,896	-68,490	-0,302	-0,082
41,911	6,972	-0,420	-0,219
42,926	417,628	-0,172	-0,258
43,940	50,535	-0,363	-0,241
44,955	22,123	-0,374	-0,214
45,969	107,891	-0,337	-0,282
46,984	-27,190	-0,315	-0,128
47,999	-38,887	-0,213	-0,078
49,013	-99,438	-0,375	-0,066
50,028	-21,186	-0,358	-0,153
51,042	68,388	-0,370	-0,265
52,057	2,288	-0,523	-0,264
53,071	-19,945	-0,435	-0,187
54,086	800,000	-0,108	-0,216
55,101	-70,404	-0,444	-0,117
56,115	-32,552	-0,344	-0,134
57,130	131,966	-0,298	-0,269
58,144	67,024	-0,388	-0,277
59,159	85,426	-0,397	-0,305
60,174	-23,951	-0,514	-0,214
61,188	-25,848	-0,276	-0,113
62,203	125,970	-0,297	-0,263
63,217	189,254	-0,252	-0,265
64,232	-24,319	-0,412	-0,172
65,247	205,932	-0,291	-0,318
66,261	221,387	-0,248	-0,279
67,276	-59,092	-0,300	-0,090
68,290	35,981	-0,354	-0,218
69,305	125,247	-0,203	-0,179
70,320	-67,469	-0,415	-0,113
71,334	53,744	-0,196	-0,132
72,349	-99,016	-0,296	0,052
73,363	8,647	-0,442	-0,232
74,378	23,666	-0,294	-0,169
75,393	52,846	-0,415	-0,277
76,407	137,201	-0,260	-0,238
77,422	1,784	-0,333	-0,168
78,436	30,284	-0,298	-0,178
79,451	-15,521	-0,246	-0,110
80,466	242,872	-0,262	-0,308
81,480	-15,998	-0,292	-0,130
82,495	10,012	-0,321	-0,170
83,509	56,045	-0,342	-0,232
84,524	-183,258	-0,341	0,004
85,539	-48,690	-0,122	0,041
86,553	115,766	-0,321	-0,274
87,568	3,721	-0,337	-0,171
88,582	-54,653	-0,320	-0,100
89,597	175,131	-0,262	-0,266
90,611	-200,000	-0,073	-0,305
91,626	-59,310	-0,247	-0,074
92,641	46,177	-0,195	-0,126
93,655	211,736	-0,203	-0,223
94,670	-63,684	-0,281	-0,080
95,684	-53,220	-0,325	-0,104
96,699	35,049	-0,269	-0,164
97,714	117,873	-0,247	-0,212
98,728	512,819	-0,194	-0,318
99,743	-69,602	-0,233	-0,062
100,757	10,153	-0,321	-0,170
101,772	-14,689	-0,368	-0,164
102,787	135,642	-0,148	-0,134
103,801	-20,751	-0,381	-0,163
104,816	-71,237	-0,183	0,048
105,830	116,309	-0,240	-0,205
106,845	107,309	-0,200	-0,166
107,860	4,008	-0,299	-0,152
108,874	-8,690	-0,343	-0,160
109,889	-35,995	-0,142	-0,053
110,903	167,015	-0,210	-0,208
111,918	45,478	-0,225	-0,144
112,933	-105,246	-0,237	0,037
113,947	41,008	-0,203	-0,127
114,962	-36,971	-0,223	-0,083
115,976	138,219	-0,299	-0,274
116,991	26,917	-0,227	-0,132
118,006	286,440	-0,168	-0,211
119,020	4,364	-0,304	-0,155
120,035	41,137	-0,260	-0,163
121,049	-30,807	-0,306	-0,120
122,064	100,392	-0,231	-0,187
123,079	-22,530	-0,266	-0,112
124,093	93,283	-0,219	-0,173
125,108	-178,787	-0,364	-0,006
126,122	325,800	-0,215	-0,288
127,137	77,557	-0,163	-0,121
128,151	2,363	-0,287	-0,144
129,166	-133,377	-0,181	0,016
130,181	14,612	-0,139	-0,075
131,195	345,255	-0,312	-0,427
132,210	88,735	-0,272	-0,210
133,224	142,024	-0,298	-0,275
134,239	492,062	-0,151	-0,241
135,254	25,558	-0,138	-0,080
136,268	-39,787	-0,215	-0,078
137,283	29,133	-0,257	-0,152
138,297	79,665	-0,168	-0,126
139,312	-9,604	-0,332	-0,154
140,327	194,989	-0,242	-0,256
141,341	-48,058	-0,250	-0,084
142,356	-122,023	-0,226	-0,026
143,370	-40,327	-0,148	0,053
144,385	11,370	-0,341	-0,181
145,400	-83,119	-0,274	-0,061
146,414	5,630	-0,305	-0,156
147,429	-31,839	-0,281	-0,109
148,443	165,287	-0,152	-0,149
149,458	-134,866	-0,350	-0,029
150,473	23,014	-0,263	-0,150
151,487	-35,857	-0,299	-0,112
152,502	82,660	-0,267	-0,202
153,516	31,935	-0,254	-0,152
154,531	31,541	-0,294	-0,176
155,546	262,531	-0,143	-0,173
156,560	-50,358	-0,213	-0,069
157,575	61,883	-0,256	-0,177
158,589	44,082	-0,171	-0,109
159,604	165,113	-0,211	-0,208
160,619	-55,925	-0,263	-0,081
161,633	-50,033	-0,311	-0,102
162,648	-96,594	-0,267	-0,049
163,662	-68,817	-0,237	-0,063
164,677	42,973	-0,173	-0,109
165,692	-10,508	-0,190	-0,087
166,706	-28,023	-0,183	-0,073
167,721	293,093	-0,177	-0,225
168,735	75,127	-0,217	-0,158
169,750	-64,314	-0,221	-0,062
170,764	112,206	-0,140	-0,118
171,779	-93,954	-0,248	-0,047
172,794	12,209	-0,311	-0,166
173,808	-48,709	-0,327	-0,108
174,823	-79,778	-0,209	0,048
175,837	126,845	-0,256	-0,225
176,852	233,279	-0,066	-0,076
177,867	3,246	-0,278	-0,140
178,881	290,461	-0,129	-0,163
179,896	21,278	-0,247	-0,139
180,910	185,679	-0,222	-0,229
181,925	260,102	-0,106	-0,128
182,940	80,817	-0,186	-0,139
183,954	-114,260	-0,293	0,039
184,969	-3,894	-0,174	0,084
185,983	69,280	-0,147	-0,105
186,998	-17,248	-0,196	-0,085
188,013	3,466	-0,192	-0,097
189,027	46,186	-0,237	-0,152
190,042	240,284	-0,250	-0,290
191,056	800,000	-0,106	-0,235
192,071	4,807	-0,163	-0,083
193,086	-99,067	-0,248	-0,043
194,100	-20,192	-0,174	-0,074
195,115	205,144	-0,079	-0,085
196,129	-52,811	-0,207	-0,066
197,144	420,586	-0,128	-0,190
198,159	800,000	-0,101	-0,235
199,173	52,018	-0,164	-0,108
200,188	800,000	-0,067	-0,165
201,202	-55,317	-0,169	-0,052
202,217	184,735	-0,131	-0,134
203,232	95,827	-0,260	-0,205
204,246	21,438	-0,410	-0,230
205,261	115,350	-0,204	-0,173
206,275	254,514	-0,146	-0,173
207,290	800,000	-0,049	-0,097
208,304	511,204	-0,113	-0,182
209,319	196,022	-0,277	-0,292
210,334	-2,425	-0,174	-0,084
211,348	187,959	-0,155	-0,160
212,363	454,396	-0,146	-0,224
213,377	79,209	-0,248	-0,184
214,392	357,366	-0,149	-0,205
215,407	-103,805	-0,288	-0,046
216,421	-200,000	-0,131	-0,000
217,436	-123,235	-0,254	-0,028
218,450	112,607	-0,160	-0,134
219,465	46,635	-0,162	-0,104
220,480	-122,140	-0,207	-0,023
221,494	14,341	-0,262	-0,141
222,509	-50,685	-0,165	-0,053
223,523	99,110	-0,216	-0,173
224,538	-103,314	-0,226	0,036
225,553	-0,985	-0,246	-0,120
226,567	800,000	-0,191	-0,379
227,582	234,288	-0,134	-0,153
228,596	704,042	-0,101	-0,184
229,611	39,231	-0,154	-0,095
230,626	97,033	-0,191	-0,151
231,640	100,252	-0,179	-0,144
232,655	-57,374	-0,177	-0,053
233,669	170,596	-0,216	-0,214
234,684	543,904	-0,112	-0,184
235,699	267,201	-0,128	-0,155
236,713	268,728	-0,038	-0,047
237,728	-9,576	-0,182	-0,083
238,742	149,395	-0,169	-0,158
239,757	159,152	-0,198	-0,190
240,772	579,146	-0,120	-0,204
241,786	-120,407	-0,223	-0,026
242,801	226,143	-0,098	-0,109
243,815	-117,700	-0,191	-0,023
244,830	36,790	-0,114	-0,070
245,844	18,071	-0,255	-0,140
246,859	-132,765	-0,216	-0,019
247,874	257,350	-0,180	-0,214
248,888	-103,119	-0,287	-0,046
249,903	-20,969	-0,145	-0,061
250,917	49,469	-0,202	-0,131
251,932	-200,000	-0,010	-0,178
252,947	-2,419	-0,240	-0,115
253,961	154,003	-0,160	-0,152
254,976	64,177	-0,255	-0,176
255,990	73,312	-0,185	-0,133
257,005	-122,240	-0,089	0,010
258,020	-60,759	-0,254	-0,074
259,034	10,739	-0,241	-0,126
260,049	241,220	-0,106	-0,122
261,063	500,857	-0,111	-0,177
262,078	353,939	-0,133	-0,183
263,093	-23,467	-0,237	-0,098
264,107	-28,214	-0,168	-0,066
265,122	13,347	0,020	-0,010
266,136	-92,662	-0,087	0,017
267,151	800,000	-0,032	-0,061
268,166	283,309	-0,124	-0,154
269,180	800,000	-0,075	-0,168
270,195	103,512	-0,149	-0,121
271,209	494,979	-0,091	-0,144
272,224	263,512	-0,094	-0,113
273,239	114,101	-0,110	-0,092
274,253	-26,728	-0,176	-0,070
275,268	-26,861	-0,140	-0,056
276,282	198,846	-0,183	-0,193
277,297	49,997	-0,213	-0,138
278,312	56,079	-0,193	-0,129
279,326	360,631	-0,135	-0,186
280,341	27,022	-0,098	0,057
281,355	-154,199	-0,056	0,003
282,370	170,219	-0,206	-0,203
283,384	164,799	-0,195	-0,189
284,399	54,411	-0,281	-0,185
285,414	-63,388	-0,168	-0,047
286,428	800,000	-0,065	-0,155
287,443	380,925	-0,109	-0,154
288,457	78,546	-0,124	-0,091
289,472	-14,878	-0,214	0,094
290,487	-55,204	-0,117	0,036
291,501	-85,945	-0,071	-0,015
292,516	127,298	-0,170	-0,149
293,530	2,858	-0,147	-0,073
294,545	340,190	0,026	-0,034
295,560	258,078	-0,158	-0,187
296,574	800,000	-0,035	0,078
297,589	-31,771	-0,181	-0,069
298,603	66,079	-0,187	-0,130
299,618	38,005	-0,209	-0,127
300,633	-66,506	-0,233	0,063
301,647	161,501	-0,101	-0,097
302,662	-67,894	-0,136	-0,036
303,676	185,273	-0,140	-0,143
304,691	-79,287	-0,061	-0,014
305,706	285,056	-0,170	-0,210
306,720	162,749	-0,214	-0,206
307,735	50,439	-0,100	-0,065
308,749	143,054	-0,044	-0,040
309,764	216,739	-0,062	-0,068
310,779	3,320	-0,157	-0,078
311,793	93,148	-0,113	-0,087
312,808	482,012	-0,047	-0,074
313,822	-20,591	-0,136	-0,057
314,837	-67,980	-0,160	-0,042
315,852	67,510	-0,097	-0,068
316,866	343,552	-0,184	-0,248
317,881	-15,266	-0,177	-0,077
318,895	-185,774	-0,149	0,001
319,910	-19,749	-0,303	-0,128
320,925	213,654	-0,200	-0,216
321,939	-75,492	-0,184	0,045
322,954	101,528	-0,191	-0,152
323,968	634,621	-0,077	-0,134
324,983	-65,917	-0,101	-0,027
325,997	-68,863	-0,197	-0,052
327,012	180,373	-0,126	-0,127
328,027	74,470	-0,108	-0,077
329,041	-170,553	-0,175	0,004
330,056	141,030	-0,080	-0,072
331,070	129,939	-0,161	-0,141
332,085	-200,000	-0,023	-0,071
333,100	-51,575	-0,068	-0,022
334,114	-64,125	-0,328	-0,091
335,129	22,267	-0,137	-0,076
336,143	211,572	-0,072	-0,078
337,158	800,000	-0,038	0,103
338,173	-141,645	-0,152	-0,010
339,187	308,641	-0,122	-0,156
340,202	114,322	-0,067	-0,056
341,216	319,993	-0,104	-0,136
342,231	58,933	-0,192	-0,129
343,246	38,532	-0,166	-0,101
344,260	597,753	-0,038	-0,065
345,275	-191,651	-0,241	0,002
346,289	166,149	-0,146	-0,141
347,304	238,206	-0,049	0,056
348,319	-24,935	-0,129	0,052
349,333	7,093	-0,205	-0,104
350,348	800,000	-0,095	-0,214
351,362	-86,894	-0,160	0,033
352,377	-97,762	-0,228	-0,040
353,392	-77,778	-0,080	-0,019
354,406	27,947	-0,075	-0,043
355,421	206,605	1310,542	1395,986
356,435	158,904	1470,707	1396,452
