DTS Sentinel unit serial number:	SN410029Multiplexer serial number:	ORYXHardware model number:	OX2-SRSoftware version number:	ORYX F/W v4,00 Oryx Data Collector v3.7.2.0data status	okinstallation	B3 Nyhavnadifferential loss correction	single-endedforward channel	channel 1reverse channel	N/Adate	2023/11/30time	09:22:30forward acquisition time	300,00reverse acquisition time	0,00gamma	499,1914k internal	0,3211k external	0,3211temperature offset calibration	1,0000default loss term (dB/km)	0,3820temperature slope calibration	1,0000multiplexer offset coefficient	1,0000multiplexer slope coefficient	1,0000fibre end	0,00T internal ref (°C)	9,50T ext. ref 1 (°C)	-5,61T ext. ref 2 (°C)	-5,71length (m)	temperature (°C)	Stokes	anti-Stokes-744,400	194,019	-0,148	-0,163
-743,385	-200,000	0,020	0,279
-742,371	-31,172	-0,203	-0,083
-741,356	-200,000	0,045	0,191
-740,342	167,470	-0,180	-0,186
-739,327	635,476	-0,090	0,167
-738,312	800,000	-0,057	-0,141
-737,298	309,603	-0,127	0,172
-736,283	65,924	-0,100	-0,073
-735,269	-200,000	-0,047	0,331
-734,254	-200,000	-0,104	-0,363
-733,239	218,211	-0,140	0,162
-732,225	800,000	-0,042	-0,097
-731,210	422,404	0,105	0,164
-730,196	392,216	-0,048	0,073
-729,181	20,082	-0,138	-0,081
-728,167	-200,000	0,022	-0,089
-727,152	18,019	-0,042	0,024
-726,137	-36,357	-0,070	-0,027
-725,123	-26,992	-0,116	-0,049
-724,108	-200,000	-0,030	-0,125
-723,094	369,445	0,099	-0,145
-722,079	336,301	-0,072	-0,101
-721,064	-85,030	0,148	0,033
-720,050	25,482	-0,082	0,049
-719,035	77,953	0,107	0,083
-718,021	394,406	-0,101	-0,153
-717,006	786,832	-0,048	-0,097
-715,991	-200,000	0,000	-0,049
-714,977	-92,346	-0,166	0,034
-713,962	-200,000	-0,014	-0,076
-712,948	-200,000	0,005	-0,036
-711,933	161,914	0,046	-0,046
-710,918	23,220	-0,114	0,068
-709,904	800,000	0,037	-0,091
-708,889	364,377	0,064	-0,093
-707,875	63,861	-0,117	-0,085
-706,860	-14,384	-0,093	-0,043
-705,845	-200,000	-0,000	0,048
-704,831	141,795	-0,105	0,101
-703,816	7,030	-0,107	0,057
-702,802	-55,115	-0,096	-0,031
-701,787	322,608	0,077	0,106
-700,772	-200,000	-0,002	-0,021
-699,758	-111,302	-0,049	0,007
-698,743	800,000	0,025	-0,063
-697,729	800,000	0,053	0,154
-696,714	70,106	0,087	0,065
-695,699	-46,461	-0,124	-0,044
-694,685	214,653	-0,076	-0,088
-693,670	-92,465	-0,116	0,023
-692,656	-187,337	0,079	-0,001
-691,641	-23,604	0,058	-0,025
-690,627	-200,000	-0,002	0,031
-689,612	-200,000	-0,014	0,098
-688,597	86,447	-0,059	-0,047
-687,583	-40,774	-0,016	-0,006
-686,568	-17,499	-0,144	-0,065
-685,554	800,000	-0,031	-0,091
-684,539	-156,706	0,175	0,008
-683,524	-200,000	-0,002	-0,038
-682,510	-200,000	0,017	-0,147
-681,495	758,437	-0,033	0,065
-680,481	-200,000	0,038	-0,191
-679,466	-141,798	-0,103	-0,007
-678,451	-200,000	0,006	-0,107
-677,437	-160,319	0,235	-0,009
-676,422	800,000	-0,028	-0,065
-675,408	-123,410	0,029	-0,003
-674,393	800,000	-0,032	-0,090
-673,378	-58,525	-0,055	0,017
-672,364	-200,000	0,069	-0,227
-671,349	-98,883	-0,144	0,026
-670,335	6,698	-0,056	0,030
-669,320	-200,000	0,006	0,054
-668,305	516,668	-0,039	0,066
-667,291	120,684	-0,104	0,093
-666,276	57,350	-0,088	-0,062
-665,262	-200,000	-0,016	-0,270
-664,247	-57,232	-0,097	0,031
-663,232	-200,000	-0,025	0,100
-662,218	0,163	-0,055	0,028
-661,203	501,759	0,031	0,052
-660,189	166,772	0,071	-0,073
-659,174	58,791	-0,053	-0,038
-658,159	800,000	-0,070	-0,153
-657,145	800,000	-0,016	0,034
-656,130	159,170	0,098	-0,099
-655,116	-133,043	0,031	0,003
-654,101	-200,000	0,015	0,053
-653,086	800,000	-0,034	0,106
-652,072	97,268	-0,095	-0,079
-651,057	267,398	-0,050	-0,064
-650,043	250,540	-0,069	-0,085
-649,028	226,442	0,110	-0,130
-648,014	-65,697	-0,059	0,017
-646,999	800,000	-0,028	0,063
-645,984	-200,000	-0,016	0,124
-644,970	232,772	-0,151	-0,179
-643,955	527,548	0,014	0,024
-642,941	800,000	-0,037	-0,102
-641,926	-17,290	-0,053	-0,024
-640,911	-17,463	-0,066	0,030
-639,897	800,000	-0,058	0,182
-638,882	800,000	0,071	0,155
-637,868	800,000	0,020	0,045
-636,853	-2,574	-0,140	-0,071
-635,838	-188,447	-0,025	0,000
-634,824	-21,544	0,015	-0,007
-633,809	-200,000	-0,002	-0,014
-632,795	-61,016	0,043	-0,013
-631,780	63,609	0,078	0,057
-630,765	-200,000	-0,004	-0,019
-629,751	-200,000	-0,014	-0,138
-628,736	800,000	-0,039	-0,124
-627,722	70,889	0,154	-0,115
-626,707	-200,000	-0,018	0,069
-625,692	-200,000	0,023	0,185
-624,678	191,289	0,024	-0,026
-623,663	194,342	-0,043	0,047
-622,649	171,569	-0,008	0,008
-621,634	222,098	-0,140	-0,163
-620,619	-76,146	0,103	-0,026
-619,605	-184,729	-0,029	0,000
-618,590	-200,000	0,005	-0,039
-617,576	-53,097	0,124	0,041
-616,561	2,137	0,052	0,027
-615,546	585,254	-0,090	-0,160
-614,532	800,000	-0,034	0,108
-613,517	-40,857	0,077	0,029
-612,503	78,157	-0,085	0,066
-611,488	800,000	-0,048	0,105
-610,474	800,000	-0,046	-0,125
-609,459	225,580	-0,123	-0,144
-608,444	15,564	-0,076	-0,043
-607,430	117,024	0,030	-0,027
-606,415	-200,000	-0,011	0,110
-605,401	800,000	-0,084	-0,176
-604,386	800,000	-0,041	0,084
-603,371	498,627	-0,018	0,030
-602,357	117,562	0,105	0,094
-601,342	5,875	-0,170	0,090
-600,328	-157,829	-0,105	0,004
-599,313	-200,000	0,003	-0,107
-598,298	-86,948	-0,092	0,020
-597,284	800,000	0,028	0,056
-596,269	118,789	0,031	0,027
-595,255	-200,000	0,005	-0,121
-594,240	30,834	-0,091	-0,056
-593,225	-10,358	0,079	0,038
-592,211	-68,151	-0,152	-0,042
-591,196	725,380	0,028	-0,053
-590,182	146,373	-0,103	0,100
-589,167	165,651	0,038	0,039
-588,152	-80,435	0,065	0,016
-587,138	800,000	-0,063	-0,164
-586,123	-33,911	-0,105	-0,042
-585,109	443,690	0,058	-0,092
-584,094	-80,260	-0,069	0,017
-583,079	-130,628	-0,172	-0,017
-582,065	16,570	0,054	0,031
-581,050	-200,000	0,013	0,087
-580,036	-23,166	-0,034	-0,015
-579,021	-200,000	-0,030	-0,127
-578,006	40,921	-0,174	0,113
-576,992	-77,233	0,025	-0,006
-575,977	731,043	0,087	0,169
-574,963	-200,000	0,033	0,153
-573,948	-200,000	-0,005	-0,034
-572,934	18,802	-0,075	0,043
-571,919	-152,766	0,093	-0,005
-570,904	-200,000	0,008	-0,096
-569,890	-3,254	-0,012	-0,006
-568,875	-200,000	0,005	0,042
-567,861	-58,584	0,183	-0,057
-566,846	-81,207	-0,065	0,015
-565,831	800,000	0,039	0,080
-564,817	-17,570	-0,119	-0,054
-563,802	88,878	-0,128	0,102
-562,788	417,561	0,063	-0,097
-561,773	587,340	0,086	0,152
-560,758	-200,000	-0,034	0,224
-559,744	-200,000	0,001	0,013
-558,729	800,000	-0,015	-0,035
-557,715	774,347	0,056	0,110
-556,700	-200,000	0,016	-0,088
-555,685	-200,000	0,010	-0,118
-554,671	220,358	0,067	-0,077
-553,656	-53,996	0,082	0,027
-552,642	112,953	-0,032	0,028
-551,627	12,662	0,028	-0,016
-550,612	25,474	0,068	-0,040
-549,598	-200,000	-0,009	-0,170
-548,583	-160,372	0,168	0,006
-547,569	-100,230	-0,121	-0,022
-546,554	-172,941	0,070	0,002
-545,539	-77,638	-0,028	0,007
-544,525	-174,536	0,022	0,000
-543,510	35,584	-0,040	0,025
-542,496	-115,655	-0,053	-0,007
-541,481	295,641	0,055	0,073
-540,466	7,885	0,037	-0,020
-539,452	-200,000	0,008	0,042
-538,437	-79,903	0,053	0,013
-537,423	-200,000	0,042	-0,172
-536,408	236,824	-0,034	0,041
-535,393	286,937	-0,050	-0,065
-534,379	800,000	0,022	-0,053
-533,364	800,000	0,025	-0,077
-532,350	-46,368	0,056	0,020
-531,335	800,000	0,048	0,098
-530,321	-200,000	-0,011	0,101
-529,306	141,037	-0,060	-0,057
-528,291	-25,862	-0,075	0,031
-527,277	-137,954	0,085	-0,007
-526,262	676,472	-0,092	0,173
-525,248	129,517	0,030	-0,028
-524,233	-200,000	-0,023	-0,091
-523,218	251,518	-0,079	-0,097
-522,204	800,000	-0,021	-0,062
-521,189	207,304	-0,036	0,040
-520,175	-200,000	-0,003	-0,086
-519,160	95,352	-0,058	-0,047
-518,145	-71,169	-0,094	-0,025
-517,131	-59,934	0,055	0,017
-516,116	800,000	-0,024	-0,060
-515,102	-200,000	0,022	0,108
-514,087	354,158	-0,038	0,055
-513,072	-200,000	0,006	-0,094
-512,058	-33,819	-0,183	0,072
-511,043	-200,000	-0,006	-0,074
-510,029	460,720	0,051	0,082
-509,014	-200,000	-0,002	0,081
-507,999	107,813	-0,073	-0,063
-506,985	346,303	0,049	-0,069
-505,970	560,446	0,103	-0,180
-504,956	188,210	-0,055	-0,059
-503,941	-171,149	-0,045	-0,001
-502,926	660,113	0,054	0,101
-501,912	81,565	-0,057	0,044
-500,897	382,406	0,033	0,049
-499,883	-200,000	-0,018	-0,213
-498,868	781,060	-0,097	-0,191
-497,853	-200,000	-0,042	-0,267
-496,839	-200,000	-0,008	-0,134
-495,824	190,074	0,098	0,106
-494,810	424,289	0,072	0,111
-493,795	-44,876	0,058	0,021
-492,781	11,953	0,047	0,026
-491,766	-51,569	-0,063	-0,021
-490,751	-200,000	0,012	0,041
-489,737	354,363	0,139	-0,198
-488,722	-200,000	0,024	-0,106
-487,708	-34,871	0,148	-0,058
-486,693	27,375	0,026	-0,016
-485,678	-200,000	0,017	0,089
-484,664	-163,023	-0,162	-0,006
-483,649	800,000	0,035	0,077
-482,635	800,000	-0,020	0,048
-481,620	-200,000	0,005	0,118
-480,605	-200,000	-0,010	0,045
-479,591	800,000	0,026	0,057
-478,576	-25,170	0,059	0,025
-477,562	144,770	-0,097	-0,093
-476,547	9,716	-0,097	0,053
-475,532	-61,887	0,189	-0,056
-474,518	589,984	-0,079	-0,140
-473,503	113,762	0,080	-0,070
-472,489	6,979	0,091	0,049
-471,474	26,177	-0,104	0,062
-470,459	-124,921	-0,056	-0,006
-469,445	800,000	0,048	0,137
-468,430	-200,000	0,032	-0,108
-467,416	88,128	0,063	0,050
-466,401	-175,760	0,041	-0,001
-465,386	81,081	0,014	0,011
-464,372	800,000	0,013	0,029
-463,357	98,883	0,096	0,080
-462,343	4,660	-0,063	-0,033
-461,328	294,248	-0,091	0,119
-460,313	800,000	0,017	0,053
-459,299	42,615	-0,072	0,047
-458,284	800,000	-0,022	-0,068
-457,270	800,000	-0,028	-0,066
-456,255	-3,450	-0,080	-0,040
-455,241	-84,685	-0,100	-0,022
-454,226	-168,426	0,073	-0,002
-453,211	800,000	-0,027	0,064
-452,197	-24,163	0,090	0,038
-451,182	-200,000	0,007	0,035
-450,168	52,838	0,091	-0,062
-449,153	-200,000	-0,010	-0,048
-448,138	800,000	0,029	0,059
-447,124	800,000	-0,052	0,160
-446,109	-200,000	-0,011	-0,093
-445,095	-43,543	0,072	0,026
-444,080	637,779	0,014	0,026
-443,065	-24,152	0,151	0,064
-442,051	-134,919	0,073	0,006
-441,036	-148,383	-0,088	-0,005
-440,022	29,662	-0,075	0,046
-439,007	-182,996	-0,061	0,001
-437,992	90,663	0,095	-0,076
-436,978	605,323	-0,066	0,118
-435,963	-53,213	0,074	0,024
-434,949	117,946	0,013	0,011
-433,934	800,000	-0,068	0,181
-432,919	500,649	0,066	-0,109
-431,905	63,611	-0,114	-0,082
-430,890	-3,963	0,130	0,064
-429,876	174,154	0,036	0,038
-428,861	88,546	0,126	0,100
-427,846	170,968	-0,093	-0,096
-426,832	-174,136	-0,212	0,004
-425,817	210,325	0,017	-0,020
-424,803	-200,000	0,032	-0,117
-423,788	124,110	0,059	-0,053
-422,773	-200,000	-0,011	0,049
-421,759	103,366	0,114	0,096
-420,744	-22,272	-0,075	0,032
-419,730	-200,000	-0,004	-0,184
-418,715	325,401	0,032	-0,044
-417,701	7,309	0,150	0,080
-416,686	-136,371	0,081	-0,007
-415,671	-129,097	-0,107	0,011
-414,657	-200,000	-0,006	0,041
-413,642	800,000	-0,072	0,145
-412,628	-139,617	0,055	0,004
-411,613	-200,000	-0,018	0,073
-410,598	-139,765	0,136	0,010
-409,584	-2,393	-0,089	-0,045
-408,569	-137,385	0,068	0,005
-407,555	391,811	0,067	0,101
-406,540	-200,000	-0,002	-0,036
-405,525	-55,147	-0,132	0,042
-404,511	-200,000	0,014	-0,045
-403,496	800,000	-0,093	-0,186
-402,482	41,250	0,062	-0,040
-401,467	164,096	0,051	0,052
-400,452	-35,198	0,060	0,023
-399,438	-78,003	0,042	0,010
-398,423	-106,080	0,107	0,017
-397,409	-200,000	-0,007	-0,124
-396,394	754,417	-0,044	0,086
-395,379	-200,000	0,009	0,040
-394,365	-200,000	0,017	0,092
-393,350	-130,601	0,160	0,015
-392,336	396,258	0,048	-0,072
-391,321	800,000	0,027	-0,054
-390,306	117,169	-0,082	-0,072
-389,292	800,000	-0,043	-0,126
-388,277	721,357	0,031	-0,060
-387,263	251,197	0,063	-0,077
-386,248	-200,000	-0,001	0,035
-385,233	87,228	0,050	0,039
-384,219	-200,000	-0,019	0,077
-383,204	329,079	0,053	-0,073
-382,190	-46,660	-0,105	-0,036
-381,175	42,246	0,077	-0,050
-380,160	262,827	-0,029	-0,036
-379,146	630,236	0,042	0,075
-378,131	-200,000	-0,006	0,041
-377,117	800,000	0,007	0,022
-376,102	-61,985	0,088	0,026
-375,088	144,392	0,009	-0,008
-374,073	800,000	-0,011	-0,029
-373,058	800,000	-0,050	0,147
-372,044	-200,000	-0,030	0,208
-371,029	-89,363	0,106	0,022
-370,015	800,000	-0,043	-0,130
-369,000	-170,999	-0,064	-0,002
-367,985	9,782	-0,116	0,063
-366,971	87,904	-0,022	0,018
-365,956	800,000	0,023	-0,060
-364,942	128,866	0,180	0,164
-363,927	-200,000	-0,004	0,050
-362,912	800,000	0,029	0,072
-361,898	468,398	-0,026	-0,042
-360,883	68,661	-0,043	0,031
-359,869	-175,989	0,052	-0,001
-358,854	155,356	0,026	0,026
-357,839	234,725	0,065	0,077
-356,825	142,508	0,092	-0,087
-355,810	-13,407	0,070	0,032
-354,796	800,000	-0,043	-0,119
-353,781	-15,372	-0,054	-0,025
-352,766	-200,000	0,006	-0,088
-351,752	-182,771	0,052	0,001
-350,737	318,612	-0,023	-0,031
-349,723	-131,351	0,081	0,008
-348,708	307,432	0,132	0,175
-347,693	150,702	-0,027	-0,026
-346,679	-120,820	-0,164	-0,019
-345,664	-200,000	0,020	0,125
-344,650	-103,598	0,121	-0,020
-343,635	732,149	-0,024	-0,046
-342,620	370,584	-0,007	-0,010
-341,606	-200,000	-0,002	-0,076
-340,591	-137,859	0,158	-0,012
-339,577	16,571	-0,119	-0,067
-338,562	-200,000	-0,025	-0,111
-337,548	21,690	0,085	-0,049
-336,533	800,000	-0,047	-0,115
-335,518	-200,000	0,001	0,030
-334,504	92,964	-0,076	-0,061
-333,489	557,346	-0,089	-0,154
-332,475	7,170	-0,023	-0,012
-331,460	69,596	0,006	-0,005
-330,445	-1,959	0,064	0,032
-329,431	312,987	0,054	-0,073
-328,416	-200,000	0,005	-0,032
-327,402	-93,416	0,011	-0,002
-326,387	527,967	0,020	-0,034
-325,372	86,000	-0,121	-0,095
-324,358	364,608	0,043	-0,062
-323,343	119,649	0,133	-0,117
-322,329	-153,240	0,124	-0,006
-321,314	-110,676	0,108	-0,016
-320,299	-133,631	-0,102	-0,009
-319,285	-61,223	0,083	0,025
-318,270	85,607	-0,111	-0,087
-317,256	292,932	-0,071	-0,093
-316,241	0,870	0,186	0,095
-315,226	800,000	0,046	0,113
-314,212	159,094	0,035	-0,035
-313,197	800,000	0,026	0,063
-312,183	123,946	0,044	0,040
-311,168	129,371	-0,086	0,078
-310,153	29,085	-0,110	-0,066
-309,139	157,418	0,042	-0,041
-308,124	-63,290	0,035	0,010
-307,110	-29,138	0,141	-0,057
-306,095	218,940	-0,105	-0,119
-305,080	800,000	-0,041	0,082
-304,066	-200,000	-0,035	-0,130
-303,051	-200,000	-0,002	-0,062
-302,037	-47,372	-0,160	-0,055
-301,022	-200,000	0,021	-0,099
-300,008	-200,000	0,022	0,143
-298,993	800,000	0,038	0,106
-297,978	164,998	-0,072	0,072
-296,964	-200,000	-0,014	0,059
-295,949	337,176	-0,063	0,087
-294,935	-105,453	-0,187	0,030
-293,920	216,392	0,021	0,024
-292,905	800,000	-0,021	0,043
-291,891	-73,344	0,122	-0,031
-290,876	-200,000	-0,029	-0,101
-289,862	-200,000	-0,003	0,090
-288,847	298,902	-0,027	0,036
-287,832	800,000	0,053	-0,134
-286,818	800,000	0,042	0,086
-285,803	-200,000	0,010	0,070
-284,789	-16,344	0,094	0,042
-283,774	-183,037	-0,132	-0,002
-282,759	-200,000	-0,023	-0,084
-281,745	286,874	-0,094	-0,121
-280,730	-200,000	-0,003	-0,029
-279,716	627,917	0,016	-0,029
-278,701	-200,000	-0,001	0,082
-277,686	57,616	0,107	0,074
-276,672	-68,061	-0,051	0,014
-275,657	-122,895	-0,127	-0,014
-274,643	-30,593	0,067	0,027
-273,628	95,551	0,060	0,048
-272,613	104,072	-0,184	-0,154
-271,599	256,457	0,042	0,051
-270,584	-46,416	0,031	0,011
-269,570	-163,891	-0,014	-0,000
-268,555	-82,203	-0,049	-0,011
-267,540	409,651	-0,013	0,019
-266,526	-30,860	-0,084	-0,034
-265,511	800,000	-0,025	-0,059
-264,497	-88,662	0,111	-0,023
-263,482	-200,000	-0,012	0,046
-262,467	-135,225	0,068	0,006
-261,453	-113,766	-0,062	0,009
-260,438	-54,609	-0,108	0,035
-259,424	-195,677	0,111	-0,001
-258,409	136,689	-0,051	-0,047
-257,395	-23,944	-0,132	-0,056
-256,380	-200,000	-0,008	0,123
-255,365	63,632	-0,059	0,042
-254,351	212,620	0,088	0,099
-253,336	800,000	-0,039	0,094
-252,322	211,992	-0,015	0,017
-251,307	193,583	-0,058	0,062
-250,292	-79,241	0,083	0,020
-249,278	-3,837	-0,031	0,015
-248,263	-200,000	0,012	0,080
-247,249	800,000	-0,015	0,041
-246,234	-33,816	0,088	0,034
-245,219	-200,000	0,006	-0,069
-244,205	-200,000	-0,006	-0,184
-243,190	-11,561	0,153	0,071
-242,176	396,113	0,042	0,063
-241,161	-67,892	0,154	-0,042
-240,146	-55,959	-0,140	-0,044
-239,132	-111,863	-0,026	0,004
-238,117	54,433	0,078	0,053
-237,103	65,396	-0,099	-0,071
-236,088	-164,690	-0,110	0,003
-235,073	-56,291	0,163	0,051
-234,059	800,000	-0,003	-0,008
-233,044	-200,000	0,014	0,080
-232,030	-200,000	-0,012	-0,092
-231,015	61,801	-0,009	-0,006
-230,000	800,000	0,061	0,126
-228,986	-144,088	0,100	0,007
-227,971	800,000	0,025	0,054
-226,957	-200,000	0,022	-0,088
-225,942	-200,000	0,026	0,122
-224,927	-46,379	0,046	0,016
-223,913	800,000	0,038	0,090
-222,898	39,263	-0,049	-0,031
-221,884	-200,000	-0,007	-0,065
-220,869	-200,000	0,005	0,078
-219,855	154,776	0,079	0,077
-218,840	-23,541	-0,060	-0,026
-217,825	-132,699	0,094	0,008
-216,811	530,476	0,032	-0,055
-215,796	197,194	-0,115	-0,125
-214,782	-182,521	0,016	0,000
-213,767	-110,551	0,050	-0,007
-212,752	33,905	0,056	0,034
-211,738	800,000	0,004	-0,009
-210,723	157,435	-0,042	0,041
-209,709	596,387	0,042	-0,074
-208,694	-153,560	-0,121	0,006
-207,679	800,000	0,058	-0,125
-206,665	-83,450	-0,108	-0,024
-205,650	-200,000	-0,040	0,153
-204,636	800,000	-0,007	0,019
-203,621	142,311	-0,040	0,037
-202,606	-200,000	-0,016	-0,119
-201,592	-200,000	0,018	-0,096
-200,577	-200,000	-0,047	-0,152
-199,563	-171,017	-0,055	-0,001
-198,548	800,000	0,048	0,112
-197,533	-129,524	0,126	-0,012
-196,519	-200,000	0,037	0,129
-195,504	-156,853	-0,209	0,009
-194,490	-200,000	0,012	-0,125
-193,475	466,349	-0,071	-0,113
-192,460	249,994	-0,035	0,042
-191,446	678,393	0,050	-0,093
-190,431	-74,748	-0,056	-0,014
-189,417	800,000	0,068	0,145
-188,402	-200,000	-0,010	0,130
-187,387	-34,951	-0,073	0,028
-186,373	-200,000	-0,031	-0,184
-185,358	800,000	0,016	0,035
-184,344	-200,000	-0,004	0,109
-183,329	-200,000	-0,002	-0,029
-182,315	-200,000	0,032	0,115
-181,300	240,606	-0,055	0,066
-180,285	629,265	0,044	0,080
-179,271	800,000	-0,015	-0,036
-178,256	389,043	0,056	0,083
-177,242	108,630	0,076	0,064
-176,227	-200,000	0,022	0,125
-175,212	800,000	0,046	0,097
-174,198	340,280	-0,043	0,059
-173,183	-12,953	-0,074	-0,034
-172,169	777,676	-0,058	-0,112
-171,154	-97,467	-0,098	-0,018
-170,139	800,000	0,012	0,036
-169,125	-193,619	0,073	-0,000
-168,110	-137,559	0,114	-0,009
-167,096	-200,000	-0,016	-0,067
-166,081	416,246	0,110	0,167
-165,066	-57,815	-0,072	-0,022
-164,052	800,000	-0,036	-0,086
-163,037	800,000	0,020	0,041
-162,023	-200,000	-0,040	0,129
-161,008	-200,000	0,035	0,145
-159,993	751,229	-0,045	-0,086
-158,979	800,000	-0,037	-0,083
-157,964	-200,000	0,001	0,039
-156,950	-84,807	-0,095	0,021
-155,935	-144,542	0,106	-0,007
-154,920	-18,229	-0,105	-0,047
-153,906	47,876	-0,079	-0,052
-152,891	-1,871	0,067	-0,033
-151,877	67,685	-0,097	-0,070
-150,862	-26,649	0,019	-0,008
-149,847	5,099	-0,091	-0,047
-148,833	-142,952	0,109	-0,007
-147,818	-200,000	-0,001	0,011
-146,804	106,584	0,101	0,085
-145,789	666,071	0,085	0,155
-144,775	800,000	0,012	-0,027
-143,760	-200,000	-0,019	0,060
-142,745	217,657	-0,084	0,095
-141,731	36,125	-0,134	0,083
-140,716	-111,652	0,099	0,014
-139,702	-200,000	-0,012	0,088
-138,687	-3,985	-0,072	0,035
-137,672	476,774	0,063	0,102
-136,658	-171,575	-0,108	0,002
-135,643	-55,646	0,012	-0,004
-134,629	800,000	-0,040	-0,114
-133,614	350,589	-0,064	0,090
-132,599	-21,465	0,080	-0,034
-131,585	50,799	-0,025	-0,017
-130,570	175,125	0,082	0,085
-129,556	-27,844	0,048	0,020
-128,541	793,541	-0,006	0,011
-127,526	-49,925	-0,131	0,044
-126,512	-200,000	-0,010	0,120
-125,497	-200,000	-0,005	0,053
-124,483	-200,000	-0,036	-0,125
-123,468	133,539	0,086	0,078
-122,453	-200,000	-0,011	-0,066
-121,439	193,738	0,016	0,018
-120,424	-100,341	0,073	0,013
-119,410	-200,000	0,020	0,097
-118,395	649,126	0,008	-0,015
-117,380	69,868	0,141	0,103
-116,366	365,486	0,076	0,108
-115,351	-200,000	-0,003	0,024
-114,337	10,970	0,047	-0,025
-113,322	154,927	0,067	-0,065
-112,307	-200,000	0,001	-0,096
-111,293	800,000	0,026	-0,057
-110,278	370,362	0,106	0,152
-109,264	-200,000	-0,006	0,063
-108,249	800,000	-0,068	-0,138
-107,234	800,000	0,069	-0,175
-106,220	-97,489	0,058	-0,011
-105,205	-13,702	0,013	-0,006
-104,191	115,738	0,029	0,025
-103,176	156,185	0,108	0,106
-102,162	-200,000	-0,001	0,143
-101,147	43,449	0,033	0,022
-100,132	-200,000	-0,002	0,060
-99,118	-24,112	0,142	0,060
-98,103	800,000	-0,016	0,045
-97,089	102,940	-0,059	0,049
-96,074	800,000	-0,042	0,117
-95,059	-19,408	0,072	-0,031
-94,045	447,951	0,049	-0,077
-93,030	-191,443	-0,029	0,000
-92,016	66,872	-0,106	-0,076
-91,001	-82,655	-0,155	0,035
-89,986	-54,999	0,141	0,045
-88,972	260,780	-0,140	0,172
-87,957	-130,353	0,039	-0,004
-86,943	18,607	-0,077	-0,043
-85,928	-200,000	-0,046	-0,148
-84,913	25,537	-0,098	0,057
-83,899	-59,880	0,147	0,044
-82,884	-200,000	-0,005	-0,053
-81,870	-200,000	0,020	0,196
-80,855	352,929	-0,022	0,031
-79,840	-200,000	-0,014	0,067
-78,826	104,044	-0,084	-0,069
-77,811	279,202	-0,085	0,108
-76,797	-159,257	-0,008	0,000
-75,782	-200,000	0,000	0,012
-74,767	-200,000	0,021	0,074
-73,753	437,658	-0,033	0,051
-72,738	-9,401	-0,104	-0,049
-71,724	-200,000	0,008	0,037
-70,709	-200,000	-0,049	0,204
-69,694	-95,161	-0,070	-0,013
-68,680	-81,066	-0,010	0,002
-67,665	244,707	-0,076	-0,090
-66,651	287,923	0,012	0,015
-65,636	384,222	0,063	-0,092
-64,622	-25,869	-0,157	-0,065
-63,607	-71,369	-0,068	0,018
-62,592	70,711	-0,117	0,085
-61,578	800,000	0,051	0,114
-60,563	-35,406	-0,186	-0,071
-59,549	800,000	-0,024	0,050
-58,534	42,143	-1,890	-1,210
-57,519	434,995	-1,248	-1,922
-56,505	-200,000	-0,145	-4,421
-55,490	720,455	0,891	1,681
-54,476	800,000	4,984	11,312
-53,461	-200,000	21,692	345,513
-52,446	800,000	762,890	2345,368
-51,432	547,398	1662,968	2820,245
-50,417	71,705	1659,473	1215,924
-49,403	17,303	1532,981	856,463
-48,388	11,341	1456,827	785,088
-47,373	19,505	1448,376	819,660
-46,359	14,901	1437,274	791,471
-45,344	9,643	1433,191	764,168
-44,330	9,602	1431,335	762,950
-43,315	9,554	1429,640	761,788
-42,300	9,554	1427,766	760,761
-41,286	9,590	1426,480	760,216
-40,271	9,568	1425,308	759,458
-39,257	9,556	1424,272	758,817
-38,242	9,650	1422,940	758,523
-37,227	9,577	1421,925	757,605
-36,213	9,608	1420,666	757,051
-35,198	9,609	1419,375	756,338
-34,184	9,606	1418,641	755,901
-33,169	9,551	1417,226	754,862
-32,154	9,583	1416,188	754,428
-31,140	9,572	1414,960	753,692
-30,125	9,592	1413,837	753,159
-29,111	9,565	1412,847	752,472
-28,096	9,570	1411,309	751,650
-27,082	9,543	1410,330	750,969
-26,067	9,545	1409,077	750,281
-25,052	9,548	1408,158	749,780
-24,038	9,520	1407,281	749,151
-23,023	9,501	1406,505	748,618
-22,009	9,553	1405,244	748,159
-20,994	9,520	1404,322	747,484
-19,979	9,533	1403,364	747,006
-18,965	9,520	1402,446	746,427
-17,950	9,448	1401,465	745,541
-16,936	9,476	1400,576	745,170
-15,921	9,432	1399,480	744,352
-14,906	9,476	1398,671	744,095
-13,892	9,497	1397,590	743,589
-12,877	9,472	1397,068	743,163
-11,863	9,455	1396,134	742,562
-10,848	9,404	1395,297	741,851
-9,833	9,347	1394,559	741,161
-8,819	9,342	1393,291	740,438
-7,804	9,391	1392,518	740,224
-6,790	9,357	1391,374	739,431
-5,775	9,335	1390,732	738,955
-4,760	9,350	1389,445	738,314
-3,746	9,329	1388,582	737,726
-2,731	9,349	1387,817	737,384
-1,717	9,366	1386,809	736,899
-0,702	9,373	1384,966	735,919
0,313	13,396	1297,534	707,847
1,327	29,372	688,364	411,677
2,342	45,709	119,153	77,539
3,356	-0,567	16,655	8,308
4,371	5,352	3,672	1,904
5,386	-8,408	1,211	0,572
6,400	800,000	0,235	0,727
7,415	18,981	-0,135	-0,076
8,429	-135,764	-0,259	-0,021
9,444	-40,225	-0,434	-0,158
10,459	-94,227	-0,349	-0,067
11,473	-84,837	-0,359	-0,079
12,488	-107,219	-0,205	-0,031
13,502	1,628	-0,229	-0,116
14,517	25,543	-0,317	-0,185
15,531	104,411	-0,232	-0,193
16,546	-127,862	-0,347	-0,035
17,561	99,669	-0,367	-0,299
18,575	81,273	-0,160	0,121
19,590	17,595	-0,290	-0,162
20,604	-69,613	-0,236	-0,063
21,619	52,256	-0,280	-0,188
22,634	231,986	-0,421	-0,487
23,648	199,705	-0,399	-0,431
24,663	324,976	-0,255	-0,344
25,677	166,280	-0,313	-0,313
26,692	2,756	-0,339	-0,172
27,707	49,922	-0,428	-0,284
28,721	39,143	-0,389	-0,245
29,736	-8,824	-0,481	-0,226
30,750	212,112	-0,390	-0,433
31,765	57,345	-0,407	-0,279
32,780	70,021	-0,330	-0,239
33,794	36,455	-0,331	-0,205
34,809	-29,104	-0,427	-0,172
35,823	52,869	-0,386	-0,259
36,838	5,355	-0,419	-0,217
37,853	159,142	-0,356	-0,349
38,867	66,841	-0,366	-0,262
39,882	490,074	-0,195	-0,315
40,896	-11,393	-0,417	-0,192
41,911	86,663	-0,242	-0,188
42,926	-1,327	-0,281	-0,139
43,940	192,293	-0,340	-0,361
44,955	89,646	-0,423	-0,331
45,969	0,192	-0,414	-0,207
46,984	68,621	-0,410	-0,295
47,999	117,623	-0,244	-0,211
49,013	-103,180	-0,242	-0,040
50,028	-95,649	-0,347	-0,065
51,042	15,982	-0,284	-0,157
52,057	59,395	-0,396	-0,274
53,071	4,008	-0,355	-0,182
54,086	145,545	-0,279	-0,262
55,101	46,343	-0,430	-0,279
56,115	-25,472	-0,389	-0,161
57,130	231,309	-0,240	-0,276
58,144	257,979	-0,269	-0,325
59,159	247,040	-0,285	-0,338
60,174	133,010	-0,345	-0,313
61,188	105,313	-0,240	-0,199
62,203	102,272	-0,353	-0,289
63,217	21,977	-0,366	-0,209
64,232	194,217	-0,201	-0,214
65,247	-22,921	-0,266	-0,112
66,261	63,074	-0,310	-0,218
67,276	91,031	-0,332	-0,261
68,290	171,256	-0,354	-0,357
69,305	-9,886	-0,379	-0,176
70,320	-110,403	-0,303	0,044
71,334	123,102	-0,296	-0,260
72,349	278,592	-0,117	-0,146
73,363	-8,725	-0,329	-0,154
74,378	-42,204	-0,403	-0,144
75,393	46,997	-0,359	-0,233
76,407	-114,441	-0,323	-0,043
77,422	27,945	-0,322	-0,190
78,436	131,091	-0,239	-0,215
79,451	-55,788	-0,314	-0,098
80,466	0,617	-0,307	-0,154
81,480	97,597	-0,340	-0,273
82,495	54,242	-0,271	-0,183
83,509	162,909	-0,177	-0,174
84,524	187,311	-0,167	-0,174
85,539	668,368	-0,182	-0,332
86,553	-116,930	-0,232	-0,029
87,568	-78,103	-0,302	-0,072
88,582	-52,225	-0,320	-0,103
89,597	-4,004	-0,276	-0,134
90,611	48,255	-0,242	-0,158
91,626	28,893	-0,327	-0,194
92,641	4,242	-0,330	-0,169
93,655	108,799	-0,208	-0,174
94,670	97,057	-0,360	-0,288
95,684	232,125	-0,238	-0,273
96,699	95,776	-0,315	-0,251
97,714	113,583	-0,212	-0,180
98,728	70,215	-0,205	-0,148
99,743	186,845	-0,355	-0,370
100,757	-20,916	-0,345	-0,147
101,772	73,569	-0,316	-0,231
102,787	-22,511	-0,341	-0,144
103,801	800,000	-0,123	-0,241
104,816	-66,410	-0,324	-0,090
105,830	203,011	-0,301	-0,326
106,845	-103,711	-0,234	-0,038
107,860	31,407	-0,407	-0,244
108,874	57,706	-0,372	-0,254
109,889	251,998	-0,277	-0,330
110,903	20,842	-0,430	-0,243
111,918	58,977	-0,233	-0,160
112,933	564,915	-0,176	-0,300
113,947	-1,133	-0,200	-0,098
114,962	-114,949	-0,229	-0,030
115,976	34,259	-0,235	-0,143
116,991	223,567	-0,289	-0,326
118,006	76,668	-0,312	-0,231
119,020	208,252	-0,157	-0,171
120,035	-41,033	-0,252	-0,090
121,049	-200,000	-0,152	-0,000
122,064	528,566	-0,163	-0,269
123,079	57,056	-0,319	-0,217
124,093	28,492	-0,278	-0,163
125,108	173,597	-0,236	-0,238
126,122	-67,215	-0,371	-0,101
127,137	226,498	-0,127	-0,144
128,151	157,999	-0,106	-0,103
129,166	6,977	-0,317	-0,164
130,181	753,843	-0,061	-0,116
131,195	160,490	-0,212	-0,207
132,210	80,616	-0,291	-0,218
133,224	63,867	-0,260	-0,182
134,239	-112,699	-0,138	0,019
135,254	-90,609	-0,219	-0,044
136,268	66,091	-0,210	-0,148
137,283	-43,851	-0,336	-0,117
138,297	123,173	-0,171	-0,150
139,312	109,069	-0,258	-0,215
140,327	82,055	-0,219	-0,165
141,341	-79,686	-0,309	-0,072
142,356	221,342	-0,132	-0,148
143,370	140,704	-0,214	-0,197
144,385	41,656	-0,217	-0,137
145,400	-34,613	-0,302	-0,114
146,414	4,136	-0,358	-0,182
147,429	1,872	-0,282	-0,141
148,443	188,308	-0,257	-0,268
149,458	104,165	-0,191	-0,157
150,473	13,848	-0,262	-0,142
151,487	9,924	-0,218	-0,115
152,502	42,651	-0,346	-0,219
153,516	800,000	-0,164	-0,336
154,531	54,944	-0,249	-0,167
155,546	-39,790	-0,221	-0,080
156,560	184,090	-0,146	-0,151
157,575	67,743	-0,141	-0,100
158,589	70,667	-0,194	-0,140
159,604	-11,585	-0,269	-0,122
160,619	-200,000	0,012	-0,278
161,633	229,466	-0,157	-0,178
162,648	-45,574	-0,246	-0,084
163,662	260,807	-0,153	-0,184
164,677	-168,918	-0,364	-0,009
165,692	-101,471	-0,305	-0,051
166,706	-61,179	-0,245	-0,071
167,721	-200,000	-0,078	-0,283
168,735	64,962	-0,119	-0,084
169,750	-51,527	-0,190	-0,061
170,764	71,835	-0,242	-0,175
171,779	97,914	-0,249	-0,199
172,794	141,822	-0,243	-0,224
173,808	151,300	-0,260	-0,246
174,823	99,860	-0,324	-0,261
175,837	165,393	-0,155	-0,152
176,852	75,891	-0,177	-0,130
177,867	30,674	-0,234	-0,139
178,881	-184,958	-0,244	-0,003
179,896	105,011	-0,145	-0,119
180,910	-21,664	-0,200	-0,084
181,925	-18,368	-0,218	-0,094
182,940	25,753	-0,361	-0,208
183,954	194,182	-0,223	-0,235
184,969	317,201	-0,148	-0,195
185,983	109,981	-0,193	-0,161
186,998	800,000	-0,119	-0,236
188,013	260,177	-0,173	-0,208
189,027	28,236	-0,218	-0,127
190,042	-63,139	-0,169	-0,048
191,056	414,703	-0,101	-0,150
192,071	-56,945	-0,116	-0,035
193,086	-98,371	-0,159	-0,028
194,100	-96,694	-0,102	-0,018
195,115	140,786	-0,271	-0,249
196,129	84,340	-0,162	-0,123
197,144	-27,188	-0,310	-0,125
198,159	-161,366	-0,243	0,009
199,173	-23,245	-0,108	-0,045
200,188	-34,254	-0,200	-0,076
201,202	35,883	-0,255	-0,155
202,217	-200,000	-0,013	-0,057
203,232	-74,268	-0,337	-0,084
204,246	105,138	-0,178	-0,145
205,261	105,454	-0,207	-0,169
206,275	-75,718	-0,209	-0,051
207,290	-16,512	-0,160	-0,070
208,304	258,311	-0,160	-0,191
209,319	106,557	-0,181	-0,148
210,334	-159,323	-0,269	-0,010
211,348	244,556	-0,181	-0,211
212,363	102,304	-0,191	-0,154
213,377	103,628	-0,248	-0,202
214,392	-97,874	-0,194	-0,034
215,407	99,821	-0,102	-0,082
216,421	-48,397	-0,122	0,040
217,436	120,135	-0,204	-0,175
218,450	361,595	-0,140	-0,195
219,465	501,337	-0,147	-0,236
220,480	196,950	-0,225	-0,237
221,494	282,909	-0,136	-0,170
222,509	-200,000	-0,014	-0,057
223,523	800,000	-0,074	-0,167
224,538	13,920	-0,173	-0,093
225,553	800,000	-0,129	-0,363
226,567	186,623	-0,261	-0,269
227,582	-116,091	-0,210	0,027
228,596	350,315	-0,135	-0,186
229,611	-85,504	-0,140	-0,030
230,626	-144,407	-0,221	0,014
231,640	134,101	-0,195	-0,175
232,655	800,000	-0,124	-0,304
233,669	-41,645	-0,316	-0,111
234,684	-200,000	-0,034	-0,163
235,699	800,000	-0,049	-0,121
236,713	39,391	-0,192	-0,119
237,728	463,255	-0,133	-0,207
238,742	-16,630	-0,203	-0,088
239,757	212,158	-0,136	-0,148
240,772	94,767	-0,183	-0,144
241,786	149,345	-0,168	-0,157
242,801	122,691	-0,159	-0,137
243,815	496,665	-0,086	-0,137
244,830	-51,919	-0,188	-0,060
245,844	68,798	-0,133	-0,094
246,859	11,603	-0,212	-0,112
247,874	43,908	-0,248	-0,156
248,888	669,720	-0,115	-0,207
249,903	125,891	-0,155	-0,135
250,917	-49,329	-0,122	0,040
251,932	100,090	-0,190	-0,152
252,947	800,000	-0,086	-0,183
253,961	6,769	-0,218	-0,112
254,976	15,985	-0,254	-0,138
255,990	-49,520	-0,254	-0,083
257,005	230,203	-0,146	-0,165
258,020	-116,040	-0,265	-0,034
259,034	-12,765	-0,117	-0,052
260,049	272,710	-0,092	-0,112
261,063	-2,155	-0,163	-0,079
262,078	164,163	-0,278	-0,270
263,093	68,371	-0,161	-0,113
264,107	51,824	-0,240	-0,157
265,122	9,413	-0,179	-0,093
266,136	-10,197	-0,250	-0,114
267,151	138,822	-0,132	-0,120
268,166	-78,970	-0,214	-0,050
269,180	-46,054	-0,207	-0,070
270,195	251,482	-0,205	-0,241
271,209	304,694	-0,111	-0,142
272,224	-200,000	-0,020	-0,079
273,239	173,325	-0,148	-0,147
274,253	280,293	-0,173	-0,213
275,268	105,952	-0,196	-0,159
276,282	-200,000	-0,066	-0,208
277,297	-167,255	-0,210	0,006
278,312	-44,612	-0,196	-0,067
279,326	54,651	-0,138	-0,092
280,341	9,719	-0,190	-0,099
281,355	-161,923	-0,104	-0,004
282,370	100,943	-0,169	-0,136
283,384	395,310	-0,158	-0,227
284,399	242,176	-0,182	-0,210
285,414	-6,736	-0,147	-0,068
286,428	80,239	-0,136	-0,100
287,443	800,000	-0,061	-0,128
288,457	52,039	-0,203	-0,133
289,472	-83,381	-0,049	-0,011
290,487	31,841	-0,212	-0,125
291,501	411,199	-0,157	-0,230
292,516	92,208	-0,217	-0,168
293,530	-61,651	-0,036	0,010
294,545	-200,000	-0,036	-0,152
295,560	-68,153	-0,136	-0,036
296,574	800,000	-0,050	-0,106
297,589	374,604	-0,138	-0,193
298,603	-31,781	-0,105	-0,040
299,618	-17,555	-0,230	-0,099
300,633	-48,997	-0,164	-0,054
301,647	800,000	-0,093	-0,180
302,662	138,005	-0,075	-0,068
303,676	363,234	-0,048	-0,066
304,691	68,169	-0,138	-0,097
305,706	150,750	-0,074	-0,069
306,720	-167,488	-0,260	0,007
307,735	2,537	-0,172	-0,085
308,749	-155,586	-0,105	-0,005
309,764	-125,887	-0,078	-0,008
310,779	478,234	-0,032	-0,050
311,793	-34,058	-0,245	-0,092
312,808	82,204	-0,119	-0,089
313,822	-5,865	-0,184	-0,086
314,837	-14,440	-0,147	-0,065
315,852	97,711	-0,063	0,049
316,866	-56,118	-0,152	-0,046
317,881	-69,579	-0,068	-0,018
318,895	254,534	-0,200	-0,236
319,910	-35,812	-0,288	-0,106
320,925	556,282	-0,129	-0,215
321,939	126,827	-0,220	-0,191
322,954	506,948	-0,102	-0,163
323,968	-200,000	-0,019	-0,227
324,983	-141,111	-0,173	0,012
325,997	196,729	-0,133	-0,139
327,012	-113,769	-0,121	0,016
328,027	-10,862	-0,108	-0,049
329,041	800,000	-0,050	-0,152
330,056	285,195	-0,114	-0,141
331,070	-58,774	-0,157	-0,046
332,085	150,083	-0,044	-0,041
333,100	-36,070	-0,065	-0,024
334,114	95,406	-0,204	-0,159
335,129	-200,000	-0,042	-0,185
336,143	800,000	-0,080	-0,165
337,158	509,407	-0,028	-0,044
338,173	56,586	-0,064	-0,043
339,187	765,878	-0,077	-0,145
340,202	-100,329	-0,122	-0,021
341,216	33,135	-0,106	-0,063
342,231	-200,000	-0,013	-0,094
343,246	202,740	-0,113	-0,120
344,260	259,523	-0,151	-0,179
345,275	102,830	-0,136	-0,109
346,289	-200,000	-0,024	-0,075
347,304	800,000	-0,079	-0,166
348,319	17,582	-0,192	-0,104
349,333	-44,445	-0,291	-0,099
350,348	800,000	-0,074	-0,147
351,362	800,000	-0,152	-0,290
352,377	151,535	-0,084	-0,079
353,392	425,800	-0,065	-0,096
354,406	800,000	0,052	-0,137
355,421	206,192	1309,394	1395,188
356,435	158,568	1469,416	1395,648
