DTS Sentinel unit serial number:	SN410029Multiplexer serial number:	ORYXHardware model number:	OX2-SRSoftware version number:	ORYX F/W v4,00 Oryx Data Collector v3.7.2.0data status	okinstallation	B3 Nyhavnadifferential loss correction	single-endedforward channel	channel 1reverse channel	N/Adate	2023/12/01time	07:27:30forward acquisition time	300,00reverse acquisition time	0,00gamma	499,1914k internal	0,3213k external	0,3213temperature offset calibration	1,0000default loss term (dB/km)	0,3820temperature slope calibration	1,0000multiplexer offset coefficient	1,0000multiplexer slope coefficient	1,0000fibre end	0,00T internal ref (°C)	8,07T ext. ref 1 (°C)	-6,21T ext. ref 2 (°C)	-6,38length (m)	temperature (°C)	Stokes	anti-Stokes-744,400	82,679	-0,137	-0,108
-743,385	-200,000	0,057	0,241
-742,371	515,576	-0,108	-0,183
-741,356	-200,000	-0,012	0,167
-740,342	800,000	-0,076	-0,166
-739,327	156,895	-0,132	0,132
-738,312	266,654	-0,195	-0,247
-737,298	800,000	-0,115	0,264
-736,283	800,000	-0,064	-0,193
-735,269	-200,000	-0,058	0,296
-734,254	389,768	-0,136	-0,205
-733,239	-73,092	-0,319	0,084
-732,225	-200,000	-0,037	-0,181
-731,210	800,000	0,047	0,113
-730,196	800,000	-0,023	0,064
-729,181	76,390	0,065	0,050
-728,167	59,947	0,088	-0,063
-727,152	124,038	-0,061	0,055
-726,137	6,388	-0,102	-0,055
-725,123	-200,000	-0,005	0,124
-724,108	406,636	-0,012	-0,019
-723,094	276,700	-0,113	-0,145
-722,079	64,258	-0,070	-0,051
-721,064	-200,000	0,014	-0,161
-720,050	454,381	-0,043	0,069
-719,035	-43,671	-0,052	0,019
-718,021	-16,078	0,094	0,043
-717,006	616,978	-0,055	0,100
-715,991	-200,000	-0,006	-0,081
-714,977	-200,000	-0,005	-0,083
-713,962	9,697	0,076	-0,041
-712,948	3,563	0,037	0,020
-711,933	800,000	0,022	0,050
-710,918	137,983	0,094	-0,089
-709,904	514,008	-0,056	0,094
-708,889	398,330	-0,057	-0,087
-707,875	-200,000	0,030	-0,126
-706,860	-34,871	0,017	-0,007
-705,845	41,689	0,120	-0,078
-704,831	759,042	0,011	-0,022
-703,816	-69,338	-0,050	-0,014
-702,802	26,367	-0,077	-0,046
-701,787	-73,129	0,122	-0,032
-700,772	800,000	-0,042	0,120
-699,758	193,350	-0,015	0,017
-698,743	98,590	0,136	0,114
-697,729	395,626	-0,080	-0,121
-696,714	195,113	0,064	0,070
-695,699	800,000	-0,013	0,030
-694,685	-200,000	0,008	-0,076
-693,670	-200,000	-0,021	-0,180
-692,656	609,970	0,022	-0,040
-691,641	-140,819	0,080	0,006
-690,627	-200,000	-0,032	-0,133
-689,612	-200,000	-0,007	0,090
-688,597	49,598	0,036	0,024
-687,583	-112,135	-0,103	-0,015
-686,568	267,693	0,077	-0,097
-685,554	-200,000	-0,003	-0,080
-684,539	-39,198	0,053	0,020
-683,524	-29,479	0,132	-0,054
-682,510	115,024	-0,057	-0,050
-681,495	338,038	-0,059	-0,083
-680,481	561,554	-0,016	0,028
-679,466	-47,549	0,082	0,029
-678,451	751,465	-0,041	0,080
-677,437	127,683	-0,077	-0,071
-676,422	-110,347	-0,055	-0,008
-675,408	-200,000	-0,003	-0,060
-674,393	287,457	-0,052	-0,068
-673,378	52,462	0,084	-0,058
-672,364	800,000	0,011	-0,029
-671,349	35,109	-0,035	-0,022
-670,335	-200,000	-0,018	0,122
-669,320	94,921	0,045	0,037
-668,305	294,254	-0,036	-0,047
-667,291	-200,000	-0,041	-0,251
-666,276	-200,000	-0,002	0,058
-665,262	-200,000	-0,010	0,038
-664,247	800,000	-0,042	-0,092
-663,232	647,560	0,028	0,052
-662,218	-46,111	0,056	-0,020
-661,203	442,608	0,070	-0,112
-660,189	-154,376	-0,034	-0,002
-659,174	-200,000	-0,020	-0,150
-658,159	-10,030	0,118	-0,056
-657,145	-200,000	0,013	-0,121
-656,130	-200,000	-0,007	0,038
-655,116	-200,000	0,013	0,105
-654,101	622,778	-0,063	-0,115
-653,086	-42,524	0,018	-0,007
-652,072	164,340	-0,110	-0,112
-651,057	-37,162	-0,030	-0,012
-650,043	-60,415	-0,062	0,019
-649,028	8,715	-0,092	-0,050
-648,014	-94,446	0,110	-0,021
-646,999	40,515	0,053	-0,034
-645,984	-200,000	0,004	0,135
-644,970	185,952	-0,013	-0,014
-643,955	-23,007	-0,084	-0,036
-642,941	14,468	-0,021	-0,012
-641,926	-74,201	0,049	0,013
-640,911	80,287	0,019	0,015
-639,897	107,092	0,045	0,039
-638,882	-138,859	-0,124	-0,010
-637,868	800,000	-0,033	-0,082
-636,853	800,000	0,069	-0,153
-635,838	-0,146	-0,087	-0,044
-634,824	146,716	-0,128	-0,124
-633,809	800,000	-0,001	0,004
-632,795	-142,338	0,019	-0,001
-631,780	660,274	-0,028	-0,052
-630,765	-200,000	0,013	0,057
-629,751	-200,000	0,006	-0,032
-628,736	800,000	0,061	-0,181
-627,722	-177,553	-0,070	-0,001
-626,707	264,708	0,118	-0,148
-625,692	-60,408	-0,129	0,039
-624,678	189,510	-0,040	0,043
-623,663	800,000	-0,022	-0,045
-622,649	-38,420	-0,066	0,025
-621,634	589,743	-0,024	-0,043
-620,619	-0,551	-0,097	-0,050
-619,605	-136,111	-0,157	0,013
-618,590	-78,213	0,110	0,027
-617,576	-200,000	-0,100	-0,000
-616,561	-177,004	-0,070	0,001
-615,546	771,582	0,023	0,046
-614,532	457,163	-0,059	-0,095
-613,517	800,000	-0,034	-0,108
-612,503	205,913	-0,029	-0,032
-611,488	-176,042	0,080	0,001
-610,474	-160,316	0,013	0,000
-609,459	141,139	0,032	0,031
-608,444	-1,317	-0,158	-0,080
-607,430	253,726	-0,102	-0,126
-606,415	800,000	-0,004	0,009
-605,401	-200,000	-0,030	-0,120
-604,386	-116,743	0,082	-0,011
-603,371	209,503	-0,076	-0,086
-602,357	400,481	-0,087	-0,132
-601,342	92,760	0,043	0,035
-600,328	143,108	-0,172	-0,165
-599,313	-87,732	-0,198	-0,043
-598,298	107,358	0,010	-0,009
-597,284	195,117	-0,032	0,035
-596,269	14,005	-0,110	0,062
-595,255	800,000	0,018	-0,039
-594,240	508,127	-0,072	-0,121
-593,225	-17,930	-0,052	-0,023
-592,211	122,087	0,045	-0,040
-591,196	-133,893	-0,049	-0,004
-590,182	189,383	0,063	0,068
-589,167	257,868	-0,064	0,079
-588,152	74,206	0,077	0,058
-587,138	-146,849	0,060	0,004
-586,123	-129,569	-0,190	-0,019
-585,109	-144,608	0,099	-0,006
-584,094	-18,474	-0,074	-0,033
-583,079	109,304	0,053	0,046
-582,065	-200,000	-0,019	0,098
-581,050	0,951	-0,078	-0,040
-580,036	-142,160	-0,148	0,010
-579,021	-77,663	0,121	-0,030
-578,006	-200,000	-0,041	0,146
-576,992	-138,731	0,055	0,004
-575,977	566,403	-0,053	-0,093
-574,963	237,682	0,035	-0,042
-573,948	-0,705	-0,087	0,044
-572,934	-142,809	-0,232	-0,016
-571,919	112,968	0,076	-0,066
-570,904	-200,000	-0,021	-0,120
-569,890	-200,000	0,035	-0,117
-568,875	3,636	0,083	0,043
-567,861	56,663	0,083	0,058
-566,846	126,775	-0,084	0,077
-565,831	179,885	-0,005	-0,006
-564,817	102,199	-0,021	0,018
-563,802	-148,958	-0,099	0,006
-562,788	-72,313	-0,096	0,025
-561,773	-17,377	0,238	-0,107
-560,758	-200,000	0,004	0,202
-559,744	-108,816	0,065	-0,010
-558,729	-70,911	0,088	-0,024
-557,715	800,000	-0,056	-0,129
-556,700	172,287	-0,015	-0,015
-555,685	-200,000	-0,006	-0,055
-554,671	32,534	0,096	-0,060
-553,656	-200,000	-0,034	-0,132
-552,642	170,341	0,116	-0,119
-551,627	-58,132	-0,102	0,032
-550,612	-87,358	-0,113	0,024
-549,598	124,805	-0,123	-0,111
-548,583	800,000	-0,030	-0,065
-547,569	-200,000	0,007	0,080
-546,554	211,880	0,124	-0,141
-545,539	633,861	-0,072	0,131
-544,525	-13,943	-0,047	0,022
-543,510	800,000	0,049	-0,117
-542,496	38,967	0,108	-0,069
-541,481	-62,740	-0,070	-0,021
-540,466	-77,695	0,094	-0,023
-539,452	-160,132	-0,058	-0,002
-538,437	-200,000	-0,003	0,046
-537,423	800,000	0,018	0,058
-536,408	-200,000	-0,037	-0,176
-535,393	-109,002	0,059	0,009
-534,379	-90,876	0,084	-0,017
-533,364	-200,000	-0,036	0,194
-532,350	-200,000	-0,009	0,071
-531,335	800,000	0,052	0,127
-530,321	-58,104	0,045	0,014
-529,306	21,688	-0,019	0,011
-528,291	239,264	0,122	-0,146
-527,277	-44,115	0,042	-0,015
-526,262	151,453	-0,088	-0,087
-525,248	51,593	-0,071	-0,048
-524,233	65,821	-0,096	0,070
-523,218	32,787	0,144	0,089
-522,204	800,000	0,025	-0,052
-521,189	-105,395	-0,086	0,014
-520,175	371,048	-0,075	-0,109
-519,160	-133,782	0,024	0,002
-518,145	117,186	-0,094	0,083
-517,131	428,159	0,065	-0,101
-516,116	-200,000	0,009	0,078
-515,102	-200,000	0,008	0,180
-514,087	-200,000	-0,014	0,074
-513,072	-105,504	0,109	0,018
-512,058	117,298	-0,098	0,087
-511,043	194,024	0,037	0,040
-510,029	800,000	-0,023	0,047
-509,014	-163,287	-0,059	0,002
-507,999	376,828	0,046	-0,067
-506,985	262,067	-0,075	0,093
-505,970	276,404	0,141	-0,180
-504,956	-200,000	-0,031	-0,110
-503,941	-200,000	0,035	0,146
-502,926	-29,025	-0,123	0,050
-501,912	-200,000	-0,006	0,060
-500,897	-136,192	0,125	-0,010
-499,883	-166,490	-0,059	-0,002
-498,868	800,000	-0,008	-0,023
-497,853	-200,000	-0,046	-0,175
-496,839	7,409	0,065	0,035
-495,824	579,036	0,003	0,005
-494,810	-200,000	0,006	0,050
-493,795	36,132	-0,065	0,041
-492,781	-82,156	-0,073	-0,017
-491,766	-31,862	-0,024	-0,010
-490,751	48,593	-0,123	-0,083
-489,737	-94,723	-0,144	0,028
-488,722	-60,906	0,155	0,047
-487,708	400,596	-0,112	0,170
-486,693	-49,469	-0,113	-0,038
-485,678	298,227	-0,028	-0,037
-484,664	-56,336	-0,028	-0,009
-483,649	-200,000	-0,001	0,081
-482,635	38,992	0,018	0,011
-481,620	33,906	0,050	0,031
-480,605	-25,288	0,118	0,050
-479,591	216,806	-0,055	0,063
-478,576	265,964	0,099	-0,124
-477,562	800,000	-0,016	-0,045
-476,547	-91,589	-0,154	-0,031
-475,532	781,361	-0,017	-0,034
-474,518	-22,116	0,154	0,067
-473,503	212,115	0,057	-0,064
-472,489	-200,000	0,005	-0,022
-471,474	3,655	0,019	-0,010
-470,459	90,782	0,114	-0,091
-469,445	315,858	0,086	0,116
-468,430	-200,000	-0,006	-0,045
-467,416	62,323	-0,055	-0,040
-466,401	638,502	-0,045	0,083
-465,386	-200,000	0,002	-0,042
-464,372	18,600	0,049	0,028
-463,357	21,514	-0,173	0,101
-462,343	-200,000	0,015	-0,071
-461,328	171,089	0,032	-0,033
-460,313	136,262	-0,064	0,059
-459,299	-200,000	-0,035	0,132
-458,284	-23,241	0,075	0,032
-457,270	748,656	-0,060	0,117
-456,255	-156,248	0,131	-0,006
-455,241	800,000	-0,055	-0,174
-454,226	-200,000	-0,012	-0,049
-453,211	-68,254	-0,086	0,024
-452,197	-200,000	0,003	0,131
-451,182	655,344	0,112	0,208
-450,168	78,739	-0,028	0,022
-449,153	239,317	0,107	-0,127
-448,138	-114,200	-0,056	0,008
-447,124	-69,881	-0,133	-0,036
-446,109	58,586	-0,053	-0,037
-445,095	185,023	-0,095	-0,101
-444,080	18,265	0,024	-0,014
-443,065	-139,204	-0,061	-0,005
-442,051	31,667	-0,014	-0,008
-441,036	-79,404	-0,078	-0,019
-440,022	-200,000	-0,011	0,122
-439,007	-24,735	0,027	0,011
-437,992	-200,000	0,020	0,073
-436,978	-200,000	0,010	0,083
-435,963	403,577	0,030	-0,045
-434,949	-30,490	-0,103	-0,042
-433,934	-93,156	0,078	-0,015
-432,919	116,363	-0,023	-0,020
-431,905	-29,826	0,041	0,016
-430,890	800,000	0,016	0,040
-429,876	-200,000	-0,002	-0,008
-428,861	-200,000	-0,003	0,173
-427,846	-123,411	0,112	0,013
-426,832	800,000	-0,040	-0,108
-425,817	12,325	-0,131	0,072
-424,803	-200,000	0,010	-0,101
-423,788	639,862	0,044	0,080
-422,773	89,564	0,089	-0,071
-421,759	580,290	-0,082	0,144
-420,744	408,562	0,053	0,080
-419,730	-107,000	-0,118	0,019
-418,715	10,893	-0,052	-0,028
-417,701	173,909	-0,100	-0,104
-416,686	-200,000	-0,002	-0,076
-415,671	-64,270	0,211	-0,061
-414,657	800,000	-0,049	-0,104
-413,642	192,268	0,081	0,087
-412,628	-200,000	0,008	-0,031
-411,613	58,861	0,049	0,034
-410,598	150,082	0,035	-0,034
-409,584	-200,000	0,020	0,100
-408,569	800,000	0,012	-0,035
-407,555	-92,716	-0,024	0,005
-406,540	55,469	0,145	0,100
-405,525	218,477	0,037	-0,042
-404,511	800,000	0,053	-0,164
-403,496	-53,715	-0,083	-0,027
-402,482	321,362	0,050	-0,068
-401,467	-71,860	-0,078	-0,021
-400,452	212,531	0,053	0,059
-399,438	-64,501	0,107	-0,031
-398,423	-200,000	0,014	-0,077
-397,409	104,805	-0,153	-0,129
-396,394	-66,342	-0,072	-0,020
-395,379	-177,533	0,092	-0,002
-394,365	-140,416	0,169	-0,012
-393,350	-150,003	0,198	0,011
-392,336	-200,000	-0,016	-0,148
-391,321	-46,294	-0,063	0,022
-390,306	-200,000	0,002	-0,067
-389,292	800,000	0,027	-0,057
-388,277	68,197	0,030	-0,022
-387,263	-200,000	0,015	0,178
-386,248	800,000	-0,020	0,057
-385,233	-114,002	0,030	0,004
-384,219	-58,257	0,052	0,016
-383,204	-16,363	-0,074	-0,034
-382,190	9,899	-0,038	0,020
-381,175	-200,000	0,015	0,076
-380,160	76,827	0,080	-0,061
-379,146	-200,000	-0,020	0,066
-378,131	-200,000	0,009	0,118
-377,117	375,120	0,054	0,079
-376,102	800,000	-0,049	0,113
-375,088	-90,585	-0,146	0,030
-374,073	-54,867	0,064	0,021
-373,058	800,000	0,057	-0,114
-372,044	-40,501	0,081	0,030
-371,029	-51,052	0,092	-0,031
-370,015	71,042	-0,142	0,105
-369,000	800,000	0,048	0,143
-367,985	-119,067	0,047	-0,006
-366,971	100,448	-0,029	0,024
-365,956	-136,184	0,071	-0,006
-364,942	333,938	-0,074	-0,103
-363,927	-200,000	-0,014	0,076
-362,912	366,679	0,102	0,148
-361,898	-200,000	0,008	0,058
-360,883	-200,000	0,008	0,088
-359,869	800,000	0,011	0,029
-358,854	334,253	0,080	0,110
-357,839	157,526	-0,083	0,082
-356,825	350,831	0,074	0,104
-355,810	-200,000	-0,005	-0,136
-354,796	171,542	0,031	-0,032
-353,781	149,305	-0,078	-0,076
-352,766	201,655	0,042	-0,046
-351,752	393,979	0,074	0,110
-350,737	-138,166	0,107	0,008
-349,723	-200,000	0,005	0,042
-348,708	800,000	-0,044	-0,109
-347,693	51,435	-0,103	0,070
-346,679	-71,057	0,071	-0,019
-345,664	800,000	0,053	-0,108
-344,650	6,230	-0,028	0,015
-343,635	-200,000	0,014	-0,181
-342,620	800,000	-0,036	-0,094
-341,606	26,061	0,067	0,040
-340,591	-200,000	-0,002	-0,099
-339,577	128,756	-0,094	0,085
-338,562	-200,000	-0,013	-0,070
-337,548	159,618	0,025	-0,025
-336,533	-200,000	0,023	0,119
-335,518	482,179	0,063	0,102
-334,504	49,601	-0,048	-0,032
-333,489	-55,934	0,127	0,040
-332,475	-200,000	-0,004	-0,080
-331,460	-5,512	-0,068	0,033
-330,445	-127,778	-0,130	-0,013
-329,431	-200,000	-0,011	0,072
-328,416	-104,545	0,106	0,017
-327,402	129,816	0,118	0,107
-326,387	-200,000	0,024	-0,077
-325,372	-200,000	-0,005	-0,064
-324,358	-107,795	0,082	0,013
-323,343	-13,446	0,048	0,022
-322,329	-118,479	0,048	-0,006
-321,314	-200,000	0,016	0,093
-320,299	-200,000	-0,014	0,077
-319,285	-200,000	-0,005	0,023
-318,270	24,071	0,050	0,029
-317,256	-62,239	0,090	-0,027
-316,241	347,256	-0,028	-0,039
-315,226	-200,000	-0,002	-0,075
-314,212	59,539	0,089	0,063
-313,197	800,000	0,077	0,168
-312,183	445,335	-0,041	0,064
-311,168	-178,771	0,155	0,002
-310,153	389,019	-0,066	-0,098
-309,139	-161,154	-0,095	-0,003
-308,124	-122,039	0,130	-0,015
-307,110	800,000	-0,015	0,034
-306,095	800,000	0,041	0,129
-305,080	-200,000	-0,046	0,000
-304,066	-200,000	0,014	-0,090
-303,051	-130,092	-0,050	-0,005
-302,037	-200,000	0,023	-0,179
-301,022	-200,000	0,020	-0,089
-300,008	800,000	0,029	-0,085
-298,993	-200,000	-0,017	0,129
-297,978	-169,966	-0,098	-0,002
-296,964	-200,000	-0,009	-0,072
-295,949	222,562	-0,067	0,077
-294,935	180,024	-0,139	-0,145
-293,920	-87,559	0,014	0,003
-292,905	674,399	0,034	0,063
-291,891	140,301	-0,124	0,117
-290,876	498,325	0,060	0,099
-289,862	800,000	-0,029	-0,090
-288,847	-3,519	-0,172	0,085
-287,832	-54,844	-0,093	-0,030
-286,818	-87,884	0,027	-0,006
-285,803	-29,293	0,073	-0,030
-284,789	-200,000	0,003	-0,130
-283,774	-200,000	0,023	0,098
-282,759	-3,275	0,047	0,023
-281,745	-200,000	0,010	-0,079
-280,730	-103,970	0,082	-0,014
-279,716	-64,802	-0,144	0,041
-278,701	40,453	0,013	-0,008
-277,686	-15,382	0,066	0,030
-276,672	-17,764	0,153	0,068
-275,657	-167,185	0,070	0,002
-274,643	22,105	-0,018	-0,010
-273,628	60,178	-0,017	-0,012
-272,613	-200,000	-0,025	-0,175
-271,599	-200,000	0,031	-0,136
-270,584	94,227	-0,057	-0,046
-269,570	-200,000	-0,005	0,045
-268,555	-1,747	0,082	-0,041
-267,540	-200,000	-0,016	-0,060
-266,526	51,810	-0,074	-0,050
-265,511	69,593	0,038	-0,028
-264,497	-13,783	0,191	0,088
-263,482	800,000	0,044	0,101
-262,467	194,139	0,108	0,117
-261,453	-74,739	-0,125	0,032
-260,438	800,000	-0,053	-0,128
-259,424	-200,000	0,013	-0,083
-258,409	800,000	0,050	-0,115
-257,395	355,035	-0,029	0,042
-256,380	-200,000	0,018	0,138
-255,365	55,331	0,082	0,057
-254,351	140,113	-0,032	-0,030
-253,336	-200,000	-0,034	0,114
-252,322	168,032	-0,095	-0,096
-251,307	-200,000	-0,025	0,149
-250,292	228,415	-0,120	0,139
-249,278	45,409	0,081	-0,053
-248,263	-105,178	-0,089	0,014
-247,249	44,293	-0,038	0,025
-246,234	-42,575	-0,037	0,013
-245,219	-138,593	-0,106	-0,008
-244,205	-66,137	-0,071	0,020
-243,190	-47,410	0,106	-0,036
-242,176	61,497	0,048	-0,034
-241,161	-81,397	-0,114	0,027
-240,146	187,761	-0,039	0,042
-239,132	59,146	0,012	-0,008
-238,117	21,650	0,058	-0,033
-237,103	-131,105	-0,068	0,006
-236,088	-200,000	0,005	0,087
-235,073	230,861	0,164	0,191
-234,059	85,290	-0,047	0,036
-233,044	307,925	0,025	0,034
-232,030	101,971	0,061	-0,050
-231,015	-200,000	0,005	-0,073
-230,000	-10,935	-0,089	-0,042
-228,986	-7,184	-0,094	0,045
-227,971	-64,232	0,073	0,021
-226,957	372,560	-0,007	-0,011
-225,942	76,635	0,040	-0,030
-224,927	800,000	0,015	-0,033
-223,913	413,241	-0,053	0,080
-222,898	82,771	-0,046	-0,035
-221,884	180,875	0,113	0,118
-220,869	63,812	0,053	0,038
-219,855	653,849	-0,021	-0,038
-218,840	800,000	-0,055	0,145
-217,825	184,377	0,088	0,093
-216,811	-200,000	-0,009	-0,052
-215,796	45,936	-0,128	-0,084
-214,782	-104,821	-0,061	-0,010
-213,767	-49,838	0,133	0,045
-212,752	-200,000	0,008	0,133
-211,738	-200,000	-0,001	-0,120
-210,723	-200,000	-0,019	0,064
-209,709	800,000	0,038	-0,103
-208,694	-70,532	-0,075	-0,020
-207,679	689,545	0,031	-0,057
-206,665	-64,155	0,040	0,011
-205,650	417,729	0,135	0,205
-204,636	104,729	-0,077	-0,065
-203,621	-200,000	-0,001	-0,094
-202,606	-200,000	-0,014	-0,085
-201,592	-200,000	-0,020	-0,113
-200,577	177,712	0,035	-0,036
-199,563	124,986	-0,064	0,057
-198,548	-39,921	-0,036	0,013
-197,533	-200,000	-0,007	0,056
-196,519	-85,891	-0,034	0,007
-195,504	17,885	0,093	0,052
-194,490	187,803	0,090	-0,096
-193,475	-200,000	-0,006	0,135
-192,460	-90,243	0,072	-0,015
-191,446	-7,130	0,090	-0,043
-190,431	8,411	0,091	0,049
-189,417	-165,151	-0,004	-0,000
-188,402	60,446	-0,057	0,040
-187,387	7,031	-0,032	-0,017
-186,373	-2,806	0,126	-0,062
-185,358	195,815	0,042	0,046
-184,344	-27,481	0,051	-0,021
-183,329	-200,000	0,003	0,020
-182,315	784,057	-0,034	0,067
-181,300	84,824	-0,077	0,060
-180,285	-115,886	-0,125	0,016
-179,271	200,232	0,089	0,097
-178,256	800,000	-0,035	0,082
-177,242	-200,000	-0,021	-0,068
-176,227	539,763	-0,023	-0,038
-175,212	-200,000	0,010	0,159
-174,198	79,323	-0,062	-0,047
-173,183	171,850	-0,050	-0,051
-172,169	505,577	0,012	-0,020
-171,154	-62,728	-0,078	-0,023
-170,139	40,159	0,148	-0,094
-169,125	-151,531	0,090	0,005
-168,110	95,290	0,081	0,065
-167,096	-200,000	-0,001	0,035
-166,081	95,831	-0,105	-0,085
-165,066	-125,273	0,020	-0,002
-164,052	800,000	0,020	0,045
-163,037	800,000	-0,038	0,076
-162,023	14,821	0,084	0,046
-161,008	-161,701	0,205	-0,007
-159,993	298,998	0,020	0,026
-158,979	422,421	0,039	-0,059
-157,964	-200,000	-0,012	-0,065
-156,950	-101,548	-0,022	-0,004
-155,935	76,796	0,123	0,093
-154,920	-52,817	0,134	0,044
-153,906	44,196	0,036	0,023
-152,891	-43,687	-0,040	-0,014
-151,877	800,000	0,047	0,102
-150,862	800,000	0,024	0,063
-149,847	-200,000	0,011	0,035
-148,833	47,720	-0,114	0,075
-147,818	-125,280	0,021	0,002
-146,804	97,239	0,118	0,096
-145,789	-200,000	0,007	-0,046
-144,775	-48,370	0,085	-0,029
-143,760	-102,718	0,065	0,011
-142,745	-81,755	-0,112	0,026
-141,731	-102,697	0,225	0,038
-140,716	72,251	0,167	-0,123
-139,702	249,700	-0,034	0,041
-138,687	-99,757	0,071	-0,013
-137,672	154,195	0,040	-0,039
-136,658	37,771	-0,092	-0,057
-135,643	-121,783	-0,039	0,004
-134,629	74,457	-0,048	-0,036
-133,614	-69,185	-0,017	-0,004
-132,599	800,000	-0,043	-0,095
-131,585	40,950	0,064	0,041
-130,570	461,588	-0,068	0,108
-129,556	-200,000	-0,012	0,079
-128,541	800,000	-0,015	-0,032
-127,526	-200,000	-0,005	-0,033
-126,512	23,981	0,112	0,065
-125,497	353,114	-0,046	0,064
-124,483	-200,000	0,011	0,125
-123,468	800,000	-0,033	0,081
-122,453	282,512	-0,096	-0,122
-121,439	1,926	-0,096	-0,049
-120,424	-200,000	-0,002	-0,128
-119,410	36,083	0,139	0,086
-118,395	800,000	0,070	0,182
-117,380	-200,000	-0,037	0,220
-116,366	-200,000	0,003	-0,096
-115,351	-57,383	0,143	-0,044
-114,337	67,181	-0,044	-0,032
-113,322	-54,945	-0,142	-0,045
-112,307	233,903	-0,058	0,068
-111,293	326,896	-0,047	0,065
-110,278	-63,205	0,020	-0,006
-109,264	-200,000	0,000	0,054
-108,249	-200,000	-0,024	0,079
-107,234	800,000	0,048	0,123
-106,220	-45,882	-0,088	-0,030
-105,205	34,946	-0,104	0,064
-104,191	800,000	0,060	0,135
-103,176	53,464	-0,038	0,026
-102,162	171,551	-0,076	-0,077
-101,147	308,798	0,045	0,059
-100,132	-15,963	-0,236	-0,106
-99,118	800,000	-0,105	-0,209
-98,103	-68,693	0,088	-0,024
-97,089	-24,837	0,100	0,042
-96,074	800,000	0,086	0,191
-95,059	-1,294	-0,078	0,039
-94,045	304,424	-0,039	0,052
-93,030	-200,000	-0,015	-0,081
-92,016	-59,528	-0,079	0,024
-91,001	297,745	0,072	-0,094
-89,986	-200,000	0,006	0,182
-88,972	-200,000	0,027	0,124
-87,957	-131,259	0,071	0,007
-86,943	405,570	-0,022	-0,033
-85,928	-84,935	-0,214	-0,047
-84,913	-200,000	0,002	0,076
-83,899	-56,357	-0,073	-0,023
-82,884	22,333	0,074	0,043
-81,870	-90,558	0,157	0,032
-80,855	-32,477	-0,059	0,023
-79,840	82,358	-0,065	0,050
-78,826	66,261	-0,080	-0,057
-77,811	36,637	0,096	0,060
-76,797	72,246	0,051	0,037
-75,782	-2,536	0,141	0,070
-74,767	-200,000	0,010	0,091
-73,753	800,000	0,018	0,040
-72,738	-200,000	0,010	0,141
-71,724	80,042	-0,058	-0,044
-70,709	5,762	-0,101	-0,053
-69,694	-200,000	-0,017	-0,097
-68,680	-54,694	0,110	-0,035
-67,665	145,669	-0,034	-0,033
-66,651	800,000	0,042	-0,099
-65,636	-47,054	-0,020	0,007
-64,622	-103,335	-0,106	0,018
-63,607	-200,000	0,007	0,133
-62,592	115,142	-0,074	-0,064
-61,578	800,000	-0,027	-0,053
-60,563	-200,000	-0,027	0,105
-59,549	-200,000	-0,015	0,120
-58,534	55,489	-2,189	-1,493
-57,519	638,218	-1,022	-1,841
-56,505	-200,000	-0,433	-4,617
-55,490	512,171	1,026	1,692
-54,476	800,000	5,214	11,543
-53,461	-200,000	22,386	346,753
-52,446	800,000	757,858	2297,629
-51,432	534,677	1645,198	2761,645
-50,417	68,181	1644,097	1185,988
-49,403	15,727	1521,214	841,385
-48,388	9,937	1447,010	772,522
-47,373	19,214	1439,579	812,752
-46,359	13,422	1428,036	778,856
-45,344	8,174	1424,300	751,948
-44,330	8,133	1422,320	750,682
-43,315	8,164	1420,300	749,730
-42,300	8,169	1418,485	748,766
-41,286	8,163	1417,436	748,155
-40,271	8,137	1416,057	747,274
-39,257	8,165	1414,927	746,779
-38,242	8,202	1413,563	746,206
-37,227	8,143	1412,747	745,466
-36,213	8,207	1411,320	744,985
-35,198	8,162	1410,076	744,091
-34,184	8,202	1409,249	743,812
-33,169	8,156	1407,765	742,781
-32,154	8,187	1406,867	742,424
-31,140	8,159	1405,695	741,644
-30,125	8,213	1404,204	741,080
-29,111	8,114	1403,550	740,244
-28,096	8,164	1402,224	739,747
-27,082	8,088	1401,052	738,746
-26,067	8,060	1399,874	737,965
-25,052	8,097	1399,007	737,652
-24,038	8,089	1397,833	736,966
-23,023	8,070	1397,109	736,466
-22,009	8,064	1396,052	735,854
-20,994	8,075	1395,014	735,328
-19,979	8,092	1393,992	734,838
-18,965	8,017	1393,068	733,974
-17,950	8,031	1392,021	733,460
-16,936	7,964	1391,480	732,836
-15,921	7,969	1390,210	732,159
-14,906	8,022	1389,299	731,898
-13,892	8,053	1388,360	731,515
-12,877	8,037	1387,765	731,099
-11,863	8,019	1386,825	730,493
-10,848	7,974	1386,121	729,883
-9,833	7,934	1385,129	729,151
-8,819	7,915	1384,046	728,462
-7,804	7,863	1383,364	727,833
-6,790	7,933	1382,199	727,514
-5,775	7,923	1381,263	726,947
-4,760	7,932	1380,091	726,341
-3,746	7,947	1379,211	725,918
-2,731	7,931	1378,368	725,373
-1,717	7,967	1377,566	725,089
-0,702	7,924	1375,680	723,869
0,313	11,871	1286,328	694,758
1,327	27,567	678,261	401,365
2,342	42,614	116,674	74,719
3,356	-1,605	16,639	8,237
4,371	9,763	3,787	2,018
5,386	3,534	1,325	0,679
6,400	800,000	0,271	0,579
7,415	45,894	-0,246	-0,160
8,429	190,771	-0,226	-0,240
9,444	306,167	-0,231	-0,304
10,459	78,991	-0,295	-0,222
11,473	-59,734	-0,352	-0,106
12,488	42,988	-0,262	-0,168
13,502	-3,778	-0,369	-0,180
14,517	-35,569	-0,345	-0,131
15,531	9,968	-0,324	-0,173
16,546	135,813	-0,326	-0,299
17,561	194,666	-0,231	-0,247
18,575	-98,775	-0,127	0,023
19,590	111,724	-0,249	-0,212
20,604	-146,860	-0,243	0,015
21,619	49,198	-0,413	-0,272
22,634	-60,749	-0,453	-0,134
23,648	124,162	-0,373	-0,330
24,663	91,237	-0,321	-0,253
25,677	76,502	-0,304	-0,227
26,692	264,967	-0,321	-0,394
27,707	133,834	-0,369	-0,336
28,721	-21,785	-0,368	-0,157
29,736	67,114	-0,383	-0,275
30,750	20,908	-0,449	-0,255
31,765	140,490	-0,374	-0,347
32,780	37,039	-0,262	-0,162
33,794	1,439	-0,405	-0,204
34,809	109,804	-0,309	-0,260
35,823	20,103	-0,391	-0,221
36,838	183,978	-0,383	-0,398
37,853	86,937	-0,424	-0,329
38,867	211,611	-0,275	-0,304
39,882	288,697	-0,270	-0,344
40,896	-78,005	-0,345	-0,083
41,911	94,486	-0,285	-0,228
42,926	144,374	-0,332	-0,312
43,940	25,873	-0,336	-0,196
44,955	135,044	-0,350	-0,319
45,969	218,927	-0,218	-0,246
46,984	118,256	-0,311	-0,269
47,999	130,717	-0,255	-0,230
49,013	-185,248	-0,210	-0,002
50,028	153,679	-0,279	-0,269
51,042	160,955	-0,278	-0,272
52,057	-12,210	-0,415	-0,190
53,071	80,787	-0,322	-0,243
54,086	11,577	-0,260	-0,139
55,101	-51,368	-0,313	-0,102
56,115	24,252	-0,279	-0,161
57,130	186,041	-0,285	-0,298
58,144	-20,051	-0,323	-0,139
59,159	102,618	-0,341	-0,280
60,174	181,533	-0,401	-0,414
61,188	262,848	-0,227	-0,277
62,203	4,781	-0,385	-0,198
63,217	95,272	-0,374	-0,298
64,232	19,252	-0,321	-0,180
65,247	-28,598	-0,350	-0,141
66,261	602,247	-0,161	-0,281
67,276	156,104	-0,316	-0,305
68,290	-18,832	-0,393	-0,171
69,305	72,961	-0,306	-0,224
70,320	-16,068	-0,392	-0,174
71,334	12,877	-0,299	-0,162
72,349	105,851	-0,244	-0,202
73,363	11,289	-0,372	-0,199
74,378	256,031	-0,272	-0,327
75,393	-3,050	-0,315	-0,153
76,407	235,978	-0,153	-0,177
77,422	-11,177	-0,289	-0,133
78,436	94,975	-0,285	-0,227
79,451	119,517	-0,294	-0,255
80,466	-16,506	-0,468	-0,207
81,480	27,799	-0,315	-0,185
82,495	7,724	-0,214	-0,112
83,509	-168,465	-0,315	0,008
84,524	-130,520	-0,226	-0,021
85,539	-0,902	-0,248	-0,123
86,553	-37,088	-0,247	-0,092
87,568	31,438	-0,306	-0,184
88,582	208,789	-0,326	-0,357
89,597	-71,507	-0,420	-0,109
90,611	12,321	-0,214	-0,115
91,626	52,950	-0,317	-0,212
92,641	36,211	-0,196	-0,121
93,655	28,186	-0,278	-0,164
94,670	74,475	-0,276	-0,203
95,684	-22,859	-0,354	-0,149
96,699	124,064	-0,252	-0,222
97,714	-91,158	-0,348	-0,069
98,728	34,786	-0,277	-0,169
99,743	800,000	-0,056	-0,121
100,757	262,975	-0,245	-0,298
101,772	32,260	-0,208	-0,125
102,787	48,201	-0,379	-0,248
103,801	217,336	-0,218	-0,243
104,816	83,665	-0,188	-0,143
105,830	403,749	-0,184	-0,271
106,845	92,475	-0,265	-0,208
107,860	5,222	-0,337	-0,173
108,874	66,811	-0,228	-0,162
109,889	-4,233	-0,292	-0,141
110,903	127,459	-0,223	-0,198
111,918	-22,142	-0,311	-0,131
112,933	32,325	-0,163	-0,098
113,947	91,276	-0,124	-0,097
114,962	-9,054	-0,282	-0,131
115,976	313,233	-0,110	-0,144
116,991	-121,964	-0,439	-0,050
118,006	28,970	-0,226	-0,134
119,020	44,112	-0,177	-0,113
120,035	340,003	-0,115	-0,157
121,049	24,638	-0,327	-0,188
122,064	28,548	-0,153	-0,090
123,079	119,869	-0,207	-0,179
124,093	102,348	-0,206	-0,168
125,108	31,392	-0,262	-0,157
126,122	-38,030	-0,201	-0,074
127,137	-85,110	-0,279	-0,060
128,151	58,018	-0,281	-0,192
129,166	-13,326	-0,262	-0,118
130,181	39,660	-0,312	-0,195
131,195	125,587	-0,181	-0,160
132,210	153,962	-0,170	-0,163
133,224	251,396	-0,182	-0,216
134,239	129,469	-0,236	-0,210
135,254	295,674	-0,154	-0,197
136,268	18,180	-0,287	-0,159
137,283	61,177	-0,191	-0,132
138,297	-51,621	-0,165	-0,053
139,312	70,157	-0,274	-0,196
140,327	133,878	-0,257	-0,232
141,341	-9,683	-0,220	-0,102
142,356	-52,455	-0,201	-0,064
143,370	553,545	-0,131	-0,221
144,385	404,099	-0,164	-0,241
145,400	183,217	-0,248	-0,255
146,414	-55,954	-0,257	-0,079
147,429	97,820	-0,220	-0,176
148,443	210,270	-0,208	-0,227
149,458	-121,581	-0,191	0,022
150,473	438,289	-0,122	-0,186
151,487	161,932	-0,161	-0,157
152,502	206,574	-0,316	-0,342
153,516	52,034	-0,273	-0,180
154,531	91,938	-0,247	-0,193
155,546	57,083	-0,251	-0,170
156,560	-59,307	-0,235	-0,070
157,575	43,734	-0,324	-0,206
158,589	59,194	-0,186	-0,127
159,604	-38,286	-0,314	-0,115
160,619	97,129	-0,203	-0,162
161,633	67,879	-0,292	-0,207
162,648	377,981	-0,183	-0,261
163,662	130,356	-0,188	-0,167
164,677	33,288	-0,175	-0,105
165,692	-31,899	-0,272	-0,105
166,706	76,721	-0,217	-0,160
167,721	235,404	-0,203	-0,234
168,735	-200,000	-0,020	-0,094
169,750	800,000	-0,084	-0,234
170,764	687,588	-0,118	-0,215
171,779	-68,826	-0,099	-0,026
172,794	-4,623	-0,241	-0,115
173,808	-35,682	-0,238	-0,089
174,823	100,710	-0,318	-0,256
175,837	22,264	-0,295	-0,167
176,852	24,420	-0,249	-0,143
177,867	730,804	-0,073	-0,137
178,881	-110,324	-0,142	-0,020
179,896	-200,000	-0,075	-0,232
180,910	800,000	-0,139	-0,275
181,925	2,283	-0,231	-0,116
182,940	273,801	-0,219	-0,269
183,954	162,775	-0,227	-0,221
184,969	225,709	-0,157	-0,176
185,983	-32,205	-0,270	-0,104
186,998	197,436	-0,153	-0,162
188,013	-71,054	-0,168	-0,044
189,027	46,797	-0,269	-0,173
190,042	-70,965	-0,190	-0,049
191,056	65,319	-0,207	-0,145
192,071	27,480	-0,224	-0,130
193,086	408,266	-0,215	-0,316
194,100	0,585	-0,097	-0,048
195,115	18,175	-0,173	-0,095
196,129	-52,413	-0,230	-0,073
197,144	800,000	-0,067	-0,170
198,159	102,664	-0,230	-0,187
199,173	314,297	-0,148	-0,193
200,188	-152,337	-0,157	-0,008
201,202	392,023	-0,112	-0,161
202,217	148,007	-0,216	-0,202
203,232	196,770	-0,302	-0,320
204,246	-53,269	-0,333	-0,105
205,261	-200,000	-0,020	-0,090
206,275	299,376	-0,159	-0,204
207,290	-109,607	-0,168	0,024
208,304	-34,664	-0,128	-0,048
209,319	-200,000	-0,008	-0,112
210,334	211,124	-0,167	-0,182
211,348	20,016	-0,096	-0,053
212,363	-2,149	-0,090	-0,044
213,377	150,342	-0,127	-0,119
214,392	160,094	-0,090	-0,087
215,407	29,473	-0,198	-0,116
216,421	-129,174	-0,124	-0,012
217,436	372,557	-0,139	-0,197
218,450	107,589	-0,188	-0,155
219,465	200,157	-0,192	-0,205
220,480	-178,850	-0,079	-0,001
221,494	-118,831	-0,166	0,020
222,509	-85,746	-0,224	-0,048
223,523	172,194	-0,219	-0,218
224,538	342,718	-0,149	-0,202
225,553	130,508	-0,204	-0,180
226,567	113,254	-0,200	-0,168
227,582	204,837	-0,141	-0,151
228,596	-29,391	-0,243	-0,096
229,611	-139,226	-0,208	-0,015
230,626	-109,286	-0,242	-0,035
231,640	79,129	-0,223	-0,165
232,655	800,000	-0,130	-0,290
233,669	88,989	-0,234	-0,180
234,684	597,449	-0,112	-0,192
235,699	486,102	-0,125	-0,198
236,713	800,000	-0,032	0,093
237,728	-11,665	-0,251	-0,113
238,742	430,372	-0,140	-0,210
239,757	18,698	-0,158	-0,087
240,772	80,039	-0,147	-0,109
241,786	800,000	-0,120	-0,253
242,801	161,900	-0,076	-0,074
243,815	3,133	-0,124	-0,062
244,830	196,683	-0,140	0,148
245,844	4,868	-0,154	-0,078
246,859	-153,133	-0,182	-0,009
247,874	27,185	-0,239	-0,138
248,888	391,382	-0,192	-0,276
249,903	536,141	-0,117	-0,192
250,917	70,505	-0,174	-0,124
251,932	-122,353	-0,202	0,022
252,947	-106,778	-0,138	-0,021
253,961	-200,000	-0,037	-0,121
254,976	88,869	-0,157	-0,121
255,990	151,427	-0,110	-0,103
257,005	-80,739	-0,205	-0,047
258,020	65,994	-0,143	-0,100
259,034	-77,801	-0,225	-0,053
260,049	80,813	-0,160	-0,119
261,063	-138,705	-0,163	-0,012
262,078	-21,925	-0,242	-0,101
263,093	27,001	-0,194	-0,112
264,107	105,396	-0,078	-0,063
265,122	53,727	-0,182	-0,120
266,136	-29,930	-0,133	-0,052
267,151	800,000	-0,086	-0,184
268,166	447,391	-0,111	-0,169
269,180	64,367	-0,199	-0,138
270,195	291,141	-0,168	-0,210
271,209	35,909	-0,109	-0,066
272,224	-95,391	-0,211	0,039
273,239	224,187	-0,200	-0,223
274,253	-103,715	-0,123	0,020
275,268	-51,786	-0,214	-0,068
276,282	-154,778	-0,257	0,011
277,297	517,526	-0,145	-0,234
278,312	317,664	-0,114	-0,149
279,326	-62,692	-0,204	-0,058
280,341	-115,190	-0,051	0,007
281,355	-52,568	-0,237	-0,075
282,370	607,881	-0,123	-0,211
283,384	-76,329	-0,193	-0,046
284,399	79,357	-0,100	-0,074
285,414	101,951	-0,035	-0,028
286,428	47,566	-0,103	0,066
287,443	-200,000	-0,005	-0,128
288,457	42,579	-0,179	-0,112
289,472	32,489	-0,090	-0,053
290,487	-30,799	-0,216	-0,083
291,501	-82,418	-0,134	-0,030
292,516	97,516	-0,215	-0,170
293,530	-200,000	-0,024	-0,079
294,545	608,004	-0,058	-0,100
295,560	-200,000	-0,051	-0,185
296,574	128,063	-0,092	-0,080
297,589	-26,605	-0,146	-0,058
298,603	27,475	-0,143	-0,082
299,618	-200,000	-0,036	-0,152
300,633	194,168	-0,152	-0,158
301,647	263,538	-0,167	-0,200
302,662	260,956	-0,081	-0,097
303,676	153,725	-0,110	-0,103
304,691	-26,710	-0,077	-0,031
305,706	65,107	-0,217	-0,150
306,720	228,796	-0,082	-0,092
307,735	741,452	-0,089	-0,165
308,749	-133,080	-0,171	-0,015
309,764	800,000	-0,031	-0,071
310,779	750,335	-0,137	-0,255
311,793	67,777	-0,233	-0,163
312,808	800,000	-0,064	-0,147
313,822	800,000	-0,067	-0,151
314,837	83,381	-0,132	-0,099
315,852	-24,563	-0,157	-0,064
316,866	-200,000	-0,019	-0,186
317,881	161,239	-0,021	-0,020
318,895	-144,252	-0,032	-0,002
319,910	6,170	-0,170	-0,086
320,925	338,469	-0,109	-0,146
321,939	172,019	-0,123	-0,121
322,954	339,409	-0,103	-0,138
323,968	198,441	-0,095	-0,100
324,983	153,812	-0,182	-0,171
325,997	-200,000	-0,006	-0,158
327,012	169,185	-0,032	-0,032
328,027	491,324	-0,136	-0,214
329,041	-0,443	-0,184	-0,089
330,056	-154,375	-0,057	0,003
331,070	60,621	-0,122	-0,083
332,085	-51,804	-0,181	-0,057
333,100	69,082	-0,166	-0,117
334,114	164,800	-0,122	-0,118
335,129	240,236	-0,137	-0,157
336,143	800,000	-0,067	-0,192
337,158	-41,551	-0,129	-0,045
338,173	-85,589	-0,058	0,012
339,187	-52,426	-0,188	0,059
340,202	800,000	-0,036	0,106
341,216	255,880	-0,160	-0,188
342,231	225,701	-0,164	-0,182
343,246	-200,000	-0,039	-0,164
344,260	22,236	-0,064	-0,036
345,275	128,743	-0,099	0,086
346,289	-78,512	-0,147	-0,034
347,304	-148,412	-0,134	-0,007
348,319	-93,354	-0,113	0,021
349,333	228,100	-0,158	-0,177
350,348	-48,081	-0,171	-0,056
351,362	800,000	-0,048	-0,115
352,377	-83,012	-0,058	-0,013
353,392	-142,425	0,028	0,002
354,406	167,614	-0,175	-0,170
355,421	206,914	1310,329	1397,429
356,435	159,148	1470,458	1397,864
