DTS Sentinel unit serial number:	SN410029Multiplexer serial number:	ORYXHardware model number:	OX2-SRSoftware version number:	ORYX F/W v4,00 Oryx Data Collector v3.7.2.0data status	okinstallation	B3 Nyhavnadifferential loss correction	single-endedforward channel	channel 1reverse channel	N/Adate	2023/12/04time	06:47:30forward acquisition time	300,00reverse acquisition time	0,00gamma	499,1914k internal	0,3206k external	0,3206temperature offset calibration	1,0000default loss term (dB/km)	0,3820temperature slope calibration	1,0000multiplexer offset coefficient	1,0000multiplexer slope coefficient	1,0000fibre end	0,00T internal ref (°C)	12,06T ext. ref 1 (°C)	-2,69T ext. ref 2 (°C)	-2,73length (m)	temperature (°C)	Stokes	anti-Stokes-744,400	57,247	-0,280	-0,198
-743,385	-200,000	-0,026	0,191
-742,371	-28,386	-0,166	-0,069
-741,356	-200,000	0,096	0,424
-740,342	-200,000	-0,076	-0,245
-739,327	800,000	-0,072	0,190
-738,312	130,695	-0,144	-0,134
-737,298	-200,000	-0,056	0,336
-736,283	800,000	-0,129	-0,271
-735,269	-200,000	-0,027	0,344
-734,254	136,385	-0,288	-0,273
-733,239	-130,799	-0,201	-0,019
-732,225	800,000	-0,080	-0,244
-731,210	-93,101	0,131	0,026
-730,196	57,687	-0,042	-0,030
-729,181	-15,219	0,051	0,023
-728,167	800,000	0,025	-0,071
-727,152	-1,635	-0,098	0,050
-726,137	800,000	-0,048	-0,104
-725,123	11,615	-0,186	-0,103
-724,108	208,125	-0,033	-0,038
-723,094	-200,000	-0,026	0,087
-722,079	-200,000	0,028	-0,091
-721,064	11,237	-0,028	0,015
-720,050	147,130	-0,062	-0,061
-719,035	-200,000	0,002	0,007
-718,021	800,000	-0,027	-0,076
-717,006	767,816	-0,020	-0,040
-715,991	-200,000	-0,011	-0,049
-714,977	486,818	-0,082	-0,136
-713,962	69,705	-0,073	-0,054
-712,948	-159,545	0,043	0,002
-711,933	-200,000	0,029	0,097
-710,918	107,405	-0,062	0,054
-709,904	-110,566	-0,045	0,007
-708,889	344,440	-0,057	-0,082
-707,875	-3,362	-0,083	-0,042
-706,860	-200,000	-0,011	0,063
-705,845	537,842	0,039	-0,068
-704,831	800,000	-0,042	0,106
-703,816	-130,095	-0,037	-0,004
-702,802	512,462	0,014	0,025
-701,787	-200,000	0,016	-0,085
-700,772	316,876	-0,054	-0,074
-699,758	-79,189	-0,136	0,033
-698,743	43,938	0,056	0,037
-697,729	185,369	0,120	0,130
-696,714	-200,000	0,019	0,122
-695,699	81,102	-0,128	-0,100
-694,685	93,812	0,116	-0,096
-693,670	138,538	-0,111	-0,105
-692,656	-96,819	-0,126	-0,024
-691,641	-8,754	-0,134	-0,065
-690,627	800,000	0,041	0,094
-689,612	-2,864	0,033	0,017
-688,597	-200,000	0,012	-0,054
-687,583	-23,549	-0,118	0,051
-686,568	373,049	-0,079	-0,116
-685,554	-200,000	0,009	-0,045
-684,539	-112,090	-0,044	-0,006
-683,524	800,000	0,014	-0,043
-682,510	319,725	-0,010	-0,014
-681,495	695,030	-0,030	-0,058
-680,481	-116,466	-0,084	-0,011
-679,466	-39,149	-0,082	-0,031
-678,451	-199,806	0,042	-0,000
-677,437	166,880	0,070	0,072
-676,422	179,320	0,076	-0,081
-675,408	67,416	-0,099	0,073
-674,393	-200,000	-0,007	-0,117
-673,378	446,824	0,022	-0,035
-672,364	642,411	-0,050	-0,093
-671,349	786,765	0,084	-0,167
-670,335	-200,000	0,025	0,089
-669,320	-200,000	-0,015	0,155
-668,305	-117,613	0,088	-0,011
-667,291	-200,000	-0,026	-0,186
-666,276	-48,301	-0,160	-0,055
-665,262	800,000	-0,065	-0,174
-664,247	-200,000	0,001	-0,163
-663,232	-141,893	-0,096	0,007
-662,218	580,686	0,036	-0,064
-661,203	402,857	0,063	-0,096
-660,189	-42,595	-0,135	0,050
-659,174	800,000	-0,057	0,123
-658,159	800,000	-0,004	0,011
-657,145	-200,000	0,029	-0,109
-656,130	800,000	0,040	-0,108
-655,116	-200,000	0,003	-0,011
-654,101	85,140	0,007	-0,005
-653,086	-200,000	-0,007	-0,041
-652,072	-56,485	-0,055	-0,017
-651,057	-40,598	-0,134	-0,050
-650,043	-200,000	0,018	-0,155
-649,028	-148,171	0,078	-0,005
-648,014	-39,246	0,050	-0,019
-646,999	-94,273	-0,063	-0,012
-645,984	217,147	-0,017	-0,020
-644,970	22,153	-0,127	-0,075
-643,955	-118,653	-0,047	-0,006
-642,941	-127,862	-0,153	-0,016
-641,926	-200,000	0,007	-0,098
-640,911	-9,581	0,148	-0,071
-639,897	-109,754	0,088	-0,013
-638,882	-117,120	-0,029	0,004
-637,868	-200,000	0,012	-0,132
-636,853	800,000	-0,047	-0,108
-635,838	-42,805	-0,049	0,018
-634,824	-133,581	0,065	0,006
-633,809	800,000	-0,064	0,135
-632,795	226,950	0,082	-0,096
-631,780	-44,905	0,115	0,041
-630,765	-123,209	0,046	-0,005
-629,751	-200,000	-0,038	-0,153
-628,736	268,739	-0,049	-0,063
-627,722	-200,000	0,012	-0,057
-626,707	-200,000	-0,022	-0,098
-625,692	316,134	0,078	0,106
-624,678	123,841	-0,055	0,050
-623,663	-200,000	0,047	0,159
-622,649	-173,953	-0,122	0,003
-621,634	-200,000	0,031	-0,107
-620,619	329,203	-0,101	-0,141
-619,605	-200,000	0,001	0,072
-618,590	-30,201	0,079	0,032
-617,576	130,229	0,089	0,083
-616,561	718,019	-0,030	0,059
-615,546	800,000	0,028	-0,066
-614,532	800,000	-0,045	-0,123
-613,517	-63,336	0,063	0,019
-612,503	-200,000	-0,005	0,040
-611,488	385,226	-0,059	0,088
-610,474	254,577	0,021	-0,025
-609,459	-200,000	0,013	-0,046
-608,444	-17,187	0,069	0,031
-607,430	800,000	-0,093	-0,199
-606,415	-200,000	-0,018	-0,069
-605,401	82,417	0,153	0,120
-604,386	261,937	0,055	0,069
-603,371	6,068	0,047	0,025
-602,357	-200,000	0,000	-0,098
-601,342	-112,312	-0,099	0,014
-600,328	-111,577	-0,092	0,013
-599,313	320,884	0,020	0,028
-598,298	-200,000	-0,013	-0,133
-597,284	-61,098	-0,082	-0,025
-596,269	510,576	0,083	-0,140
-595,255	-80,108	-0,039	0,009
-594,240	800,000	-0,016	-0,044
-593,225	-146,696	-0,145	-0,009
-592,211	131,166	0,068	-0,063
-591,196	-200,000	0,021	0,072
-590,182	800,000	0,018	0,046
-589,167	-200,000	0,022	0,073
-588,152	-200,000	0,005	0,053
-587,138	-98,848	-0,179	-0,033
-586,123	79,490	0,025	-0,019
-585,109	-110,144	-0,124	0,018
-584,094	51,643	-0,029	-0,020
-583,079	257,829	0,043	0,053
-582,065	-200,000	0,043	0,152
-581,050	-200,000	-0,027	0,150
-580,036	-200,000	-0,005	0,080
-579,021	-118,941	0,084	0,011
-578,006	-200,000	0,016	-0,138
-576,992	-200,000	0,001	0,033
-575,977	96,309	0,061	0,050
-574,963	-200,000	-0,002	-0,107
-573,948	586,385	0,055	-0,098
-572,934	800,000	0,061	-0,127
-571,919	498,317	0,034	-0,057
-570,904	-200,000	-0,021	-0,168
-569,890	-89,737	0,063	0,013
-568,875	134,199	-0,082	0,076
-567,861	-200,000	0,005	-0,072
-566,846	-176,244	0,037	-0,001
-565,831	-156,092	-0,057	-0,003
-564,817	-21,678	0,034	0,015
-563,802	424,219	0,061	0,095
-562,788	77,220	-0,131	-0,100
-561,773	800,000	0,078	0,176
-560,758	-200,000	0,013	0,057
-559,744	30,033	-0,128	0,078
-558,729	800,000	0,034	-0,099
-557,715	-13,528	-0,044	-0,020
-556,700	4,024	-0,039	0,020
-555,685	-200,000	0,001	-0,014
-554,671	-125,464	0,181	0,020
-553,656	-200,000	-0,028	-0,143
-552,642	-20,338	-0,134	0,059
-551,627	-115,561	0,058	0,008
-550,612	-200,000	-0,016	0,079
-549,598	107,802	0,037	0,032
-548,583	289,725	-0,026	-0,034
-547,569	-107,391	-0,093	0,015
-546,554	-200,000	-0,034	0,109
-545,539	-68,049	0,156	0,044
-544,525	-17,600	0,104	0,047
-543,510	-122,619	-0,082	0,009
-542,496	-121,556	0,028	0,003
-541,481	800,000	0,073	-0,213
-540,466	666,463	-0,047	0,088
-539,452	800,000	-0,004	0,011
-538,437	-200,000	0,016	0,151
-537,423	-200,000	0,006	0,109
-536,408	132,595	0,114	0,106
-535,393	116,149	-0,046	0,041
-534,379	-200,000	0,003	-0,094
-533,364	-134,776	-0,152	0,013
-532,350	88,397	0,086	-0,068
-531,335	-50,603	-0,075	0,025
-530,321	-200,000	-0,006	0,077
-529,306	-69,497	0,053	0,014
-528,291	-11,261	0,145	-0,069
-527,277	734,500	-0,045	-0,088
-526,262	800,000	0,010	-0,030
-525,248	-200,000	-0,030	-0,184
-524,233	-68,055	0,075	-0,021
-523,218	702,531	-0,051	0,097
-522,204	-44,490	-0,031	-0,011
-521,189	440,932	-0,023	-0,037
-520,175	-200,000	-0,005	-0,166
-519,160	404,965	-0,086	-0,130
-518,145	-160,143	-0,086	0,003
-517,131	549,812	0,061	0,106
-516,116	619,324	0,034	0,062
-515,102	32,844	0,150	0,093
-514,087	-46,863	-0,089	-0,031
-513,072	-98,554	-0,083	-0,015
-512,058	-72,482	-0,057	-0,015
-511,043	390,799	0,010	0,016
-510,029	-200,000	-0,017	0,110
-509,014	-200,000	0,046	0,000
-507,999	-132,131	0,075	-0,007
-506,985	-200,000	-0,019	-0,063
-505,970	349,997	-0,042	0,059
-504,956	221,471	0,063	0,073
-503,941	193,075	0,027	0,030
-502,926	113,114	-0,051	-0,045
-501,912	233,700	0,068	0,081
-500,897	-50,834	0,138	0,046
-499,883	621,183	0,023	-0,042
-498,868	195,566	0,051	0,055
-497,853	-200,000	-0,042	-0,207
-496,839	800,000	0,068	0,188
-495,824	-200,000	0,053	0,188
-494,810	800,000	-0,033	0,093
-493,795	-200,000	-0,015	0,109
-492,781	-36,791	-0,149	0,057
-491,766	-113,568	-0,090	-0,013
-490,751	-200,000	-0,018	-0,085
-489,737	242,418	-0,136	0,165
-488,722	9,987	0,105	0,057
-487,708	331,026	-0,043	0,060
-486,693	-200,000	-0,002	0,038
-485,678	199,793	-0,062	0,068
-484,664	-200,000	-0,031	0,101
-483,649	45,041	-0,119	-0,079
-482,635	-71,654	-0,077	-0,021
-481,620	-121,807	0,153	0,018
-480,605	35,284	-0,049	-0,031
-479,591	-200,000	0,016	0,119
-478,576	602,718	-0,039	0,069
-477,562	189,945	-0,186	0,201
-476,547	-2,479	0,086	-0,043
-475,532	800,000	0,012	-0,024
-474,518	-130,495	0,034	0,003
-473,503	113,486	-0,012	0,010
-472,489	-54,456	0,110	0,036
-471,474	45,598	-0,101	-0,067
-470,459	18,728	-0,084	-0,048
-469,445	-144,886	-0,046	-0,003
-468,430	134,376	-0,034	0,032
-467,416	-160,337	0,180	-0,007
-466,401	106,743	0,072	0,061
-465,386	-7,220	-0,166	-0,081
-464,372	-200,000	-0,018	0,150
-463,357	-3,890	0,074	-0,037
-462,343	-17,107	-0,123	0,056
-461,328	-166,474	-0,197	0,006
-460,313	800,000	-0,037	0,109
-459,299	15,553	-0,036	-0,020
-458,284	-133,896	0,126	-0,011
-457,270	388,434	0,072	-0,107
-456,255	-119,454	-0,178	0,022
-455,241	800,000	0,067	-0,172
-454,226	542,975	0,051	-0,087
-453,211	-200,000	0,021	0,078
-452,197	-200,000	-0,053	0,203
-451,182	724,937	0,069	0,133
-450,168	800,000	-0,033	0,077
-449,153	-12,336	-0,061	0,028
-448,138	-143,615	-0,009	0,001
-447,124	4,054	-0,060	-0,031
-446,109	50,956	0,166	-0,113
-445,095	800,000	0,025	0,054
-444,080	-200,000	-0,012	-0,153
-443,065	800,000	0,057	-0,143
-442,051	191,784	-0,033	-0,036
-441,036	-200,000	0,002	0,046
-440,022	-38,760	0,054	-0,020
-439,007	-71,836	0,072	-0,019
-437,992	320,382	-0,037	-0,051
-436,978	-97,352	0,206	0,038
-435,963	290,546	-0,058	-0,076
-434,949	-166,124	-0,139	-0,004
-433,934	649,818	0,017	-0,032
-432,919	-75,541	0,051	-0,013
-431,905	40,824	-0,037	0,024
-430,890	800,000	0,055	-0,165
-429,876	-51,834	0,043	-0,014
-428,861	-200,000	0,015	-0,072
-427,846	298,173	-0,054	-0,071
-426,832	-200,000	-0,008	0,025
-425,817	800,000	-0,048	-0,127
-424,803	-200,000	0,031	0,119
-423,788	-49,141	0,170	0,058
-422,773	-63,056	0,036	0,011
-421,759	-133,099	0,122	0,011
-420,744	223,191	0,075	-0,086
-419,730	627,086	0,038	-0,069
-418,715	55,489	-0,043	0,030
-417,701	-86,208	0,097	0,021
-416,686	502,076	0,057	0,095
-415,671	164,008	-0,058	-0,058
-414,657	-36,402	0,130	-0,050
-413,642	-200,000	0,009	-0,139
-412,628	395,837	0,036	0,054
-411,613	359,568	0,079	0,114
-410,598	50,342	-0,005	0,003
-409,584	316,540	0,051	-0,069
-408,569	716,714	-0,045	-0,086
-407,555	-4,265	-0,056	-0,028
-406,540	739,780	0,053	-0,103
-405,525	800,000	-0,016	-0,048
-404,511	4,837	-0,135	-0,071
-403,496	158,221	0,093	-0,093
-402,482	800,000	-0,026	0,078
-401,467	387,621	0,041	0,061
-400,452	-200,000	0,027	-0,091
-399,438	800,000	-0,013	-0,025
-398,423	-65,090	-0,115	-0,033
-397,409	800,000	-0,027	-0,071
-396,394	-200,000	-0,004	-0,123
-395,379	-122,472	-0,085	0,010
-394,365	-200,000	-0,002	-0,023
-393,350	-200,000	0,050	0,000
-392,336	144,253	0,039	0,037
-391,321	-151,962	-0,096	-0,005
-390,306	800,000	-0,024	-0,070
-389,292	-200,000	0,002	0,035
-388,277	800,000	0,010	-0,021
-387,263	800,000	0,034	0,087
-386,248	11,184	0,029	-0,016
-385,233	800,000	0,024	0,061
-384,219	394,591	-0,066	-0,099
-383,204	701,872	0,027	-0,052
-382,190	-108,736	-0,192	0,029
-381,175	-137,061	0,096	0,008
-380,160	242,006	0,058	0,069
-379,146	-5,871	-0,046	0,022
-378,131	-200,000	0,008	0,102
-377,117	-115,533	-0,090	-0,012
-376,102	8,672	-0,085	0,046
-375,088	-67,206	0,031	-0,009
-374,073	-200,000	-0,009	-0,059
-373,058	161,505	-0,031	0,031
-372,044	297,539	-0,058	0,077
-371,029	-94,288	0,055	0,011
-370,015	186,905	0,049	0,052
-369,000	92,832	-0,031	0,025
-367,985	125,342	-0,128	0,115
-366,971	21,364	0,050	0,029
-365,956	151,217	-0,010	-0,010
-364,942	-200,000	0,055	0,270
-363,927	289,660	-0,028	0,037
-362,912	122,537	-0,028	0,025
-361,898	-200,000	0,004	-0,131
-360,883	800,000	0,050	-0,105
-359,869	-13,199	0,062	-0,029
-358,854	-49,112	0,106	-0,036
-357,839	197,661	0,010	-0,011
-356,825	486,602	0,062	0,102
-355,810	51,263	0,078	0,053
-354,796	67,113	-0,065	-0,048
-353,781	6,186	-0,074	0,039
-352,766	209,583	-0,113	0,127
-351,752	-111,842	0,033	-0,005
-350,737	76,743	-0,051	0,039
-349,723	-112,000	0,043	0,006
-348,708	-64,142	0,142	0,041
-347,693	800,000	-0,020	0,062
-346,679	800,000	-0,080	-0,168
-345,664	65,018	0,025	-0,018
-344,650	138,572	0,114	0,107
-343,635	-200,000	-0,006	0,122
-342,620	-200,000	0,003	0,090
-341,606	-200,000	-0,043	0,170
-340,591	800,000	-0,022	0,045
-339,577	735,337	-0,040	0,076
-338,562	-7,070	0,105	0,051
-337,548	21,582	-0,040	-0,023
-336,533	130,446	0,151	-0,139
-335,518	-73,064	0,082	0,021
-334,504	359,402	0,056	-0,080
-333,489	800,000	0,049	0,123
-332,475	-200,000	-0,011	-0,070
-331,460	-200,000	-0,044	-0,201
-330,445	-200,000	0,016	0,066
-329,431	380,979	-0,043	0,063
-328,416	171,010	0,121	0,124
-327,402	-31,774	0,024	0,010
-326,387	-200,000	0,010	0,059
-325,372	200,018	0,019	-0,021
-324,358	2,824	0,029	0,015
-323,343	-200,000	0,021	-0,077
-322,329	-81,196	-0,049	-0,011
-321,314	-200,000	0,004	0,030
-320,299	-184,888	0,093	-0,001
-319,285	269,855	-0,062	0,078
-318,270	800,000	0,016	-0,040
-317,256	-200,000	-0,020	-0,070
-316,241	-69,815	-0,109	0,030
-315,226	0,964	0,021	0,011
-314,212	-56,493	0,097	0,030
-313,197	-139,128	-0,005	0,000
-312,183	-200,000	-0,005	0,122
-311,168	121,800	-0,130	-0,116
-310,153	74,332	-0,134	-0,101
-309,139	78,257	-0,045	0,034
-308,124	800,000	-0,035	0,093
-307,110	800,000	0,093	0,189
-306,095	162,155	-0,052	0,053
-305,080	-5,302	0,039	0,019
-304,066	-200,000	-0,023	-0,072
-303,051	93,627	0,070	0,057
-302,037	-100,845	-0,030	-0,005
-301,022	-200,000	0,022	0,080
-300,008	800,000	0,010	-0,030
-298,993	-39,105	0,090	0,033
-297,978	-200,000	0,011	0,051
-296,964	504,710	0,084	-0,140
-295,949	-149,110	0,055	0,003
-294,935	-57,597	-0,097	-0,030
-293,920	-104,602	0,118	0,019
-292,905	-80,305	0,109	0,026
-291,891	322,133	0,083	0,113
-290,876	-200,000	0,012	-0,041
-289,862	-200,000	0,013	-0,129
-288,847	-28,086	-0,091	0,037
-287,832	418,472	0,038	-0,059
-286,818	-120,574	0,013	-0,002
-285,803	46,334	0,048	0,032
-284,789	-95,408	0,212	-0,040
-283,774	327,474	-0,084	0,116
-282,759	-74,752	-0,110	0,028
-281,745	479,227	0,042	0,068
-280,730	-200,000	0,006	0,042
-279,716	65,278	-0,082	-0,059
-278,701	125,936	0,130	0,117
-277,686	-58,867	-0,156	-0,048
-276,672	155,731	0,044	-0,043
-275,657	800,000	-0,014	0,031
-274,643	-81,981	-0,207	0,048
-273,628	289,001	0,066	-0,086
-272,613	290,538	-0,105	-0,137
-271,599	-102,643	0,098	-0,017
-270,584	605,266	-0,064	0,114
-269,570	-81,178	0,159	0,037
-268,555	-200,000	0,023	0,118
-267,540	587,781	-0,019	0,034
-266,526	-40,586	0,060	0,022
-265,511	-200,000	-0,003	0,064
-264,497	281,814	-0,075	0,096
-263,482	-200,000	-0,014	0,089
-262,467	-91,517	0,158	0,032
-261,453	47,033	-0,091	-0,060
-260,438	559,090	0,021	-0,037
-259,424	14,678	-0,059	-0,033
-258,409	41,872	-0,142	-0,092
-257,395	-200,000	0,048	0,157
-256,380	-67,330	0,029	0,008
-255,365	800,000	0,050	0,102
-254,351	60,434	0,126	-0,088
-253,336	13,302	-0,029	0,016
-252,322	-79,777	-0,165	0,039
-251,307	-188,055	-0,006	0,000
-250,292	-200,000	0,005	0,050
-249,278	-58,650	0,118	-0,036
-248,263	-10,405	0,061	-0,029
-247,249	101,739	0,047	0,039
-246,234	-200,000	0,006	0,090
-245,219	124,465	-0,092	0,082
-244,205	-147,256	0,079	-0,005
-243,190	-200,000	-0,033	-0,174
-242,176	13,853	0,135	0,075
-241,161	319,884	-0,068	0,093
-240,146	-137,991	0,157	0,012
-239,132	800,000	0,027	-0,072
-238,117	800,000	-0,056	-0,125
-237,103	116,359	-0,075	-0,065
-236,088	800,000	0,040	-0,092
-235,073	800,000	-0,011	-0,024
-234,059	-200,000	0,014	0,080
-233,044	-17,956	0,027	-0,012
-232,030	-93,510	0,063	0,012
-231,015	653,575	0,052	-0,095
-230,000	800,000	-0,015	-0,034
-228,986	91,102	0,059	-0,047
-227,971	-200,000	0,008	-0,044
-226,957	100,549	-0,085	0,070
-225,942	-5,316	0,074	-0,036
-224,927	-20,686	0,048	-0,021
-223,913	-4,136	-0,043	-0,021
-222,898	-200,000	-0,037	-0,127
-221,884	436,104	-0,080	-0,125
-220,869	800,000	-0,013	-0,035
-219,855	249,749	0,083	-0,100
-218,840	-200,000	-0,033	0,202
-217,825	-200,000	0,013	-0,078
-216,811	-71,738	-0,179	-0,047
-215,796	233,340	0,050	-0,059
-214,782	-200,000	0,021	-0,093
-213,767	-100,732	0,108	-0,019
-212,752	29,992	-0,080	0,048
-211,738	23,230	-0,045	0,026
-210,723	368,864	-0,025	0,036
-209,709	-44,872	-0,075	-0,027
-208,694	800,000	-0,034	-0,073
-207,679	800,000	-0,006	0,015
-206,665	496,518	0,032	0,052
-205,650	248,822	-0,058	0,070
-204,636	-200,000	0,010	0,101
-203,621	-5,217	-0,179	0,087
-202,606	67,970	-0,036	-0,027
-201,592	-200,000	-0,010	-0,060
-200,577	-200,000	-0,014	-0,124
-199,563	-16,350	0,038	-0,017
-198,548	-200,000	0,014	0,096
-197,533	-200,000	0,021	-0,070
-196,519	-24,941	-0,098	0,041
-195,504	-200,000	0,014	-0,078
-194,490	-118,497	-0,090	-0,011
-193,475	374,906	-0,022	0,031
-192,460	-200,000	-0,021	0,145
-191,446	66,305	0,112	-0,081
-190,431	-200,000	-0,012	0,069
-189,417	-200,000	-0,008	-0,128
-188,402	24,392	-0,016	-0,009
-187,387	-50,269	-0,053	0,018
-186,373	-200,000	-0,017	-0,055
-185,358	409,864	-0,064	-0,096
-184,344	86,783	0,053	0,042
-183,329	800,000	-0,007	0,015
-182,315	-59,635	-0,079	0,024
-181,300	601,295	0,049	-0,087
-180,285	406,082	-0,110	-0,166
-179,271	-200,000	-0,029	-0,153
-178,256	-135,810	-0,158	-0,013
-177,242	-200,000	0,006	0,076
-176,227	275,268	0,088	-0,111
-175,212	-109,526	-0,150	0,022
-174,198	-147,089	0,062	0,004
-173,183	565,521	0,071	-0,123
-172,169	800,000	-0,085	-0,174
-171,154	785,914	0,078	-0,153
-170,139	800,000	0,010	0,026
-169,125	-15,898	-0,046	0,021
-168,110	633,672	-0,100	0,181
-167,096	-6,684	-0,080	0,039
-166,081	235,417	0,032	0,037
-165,066	281,927	0,007	-0,009
-164,052	-200,000	-0,014	-0,109
-163,037	170,092	-0,050	-0,051
-162,023	-200,000	0,009	0,035
-161,008	786,597	0,017	0,033
-159,993	800,000	-0,027	-0,065
-158,979	217,306	0,032	-0,036
-157,964	-34,998	-0,066	-0,026
-156,950	-200,000	0,013	-0,047
-155,935	277,851	0,024	0,030
-154,920	-38,317	-0,133	0,050
-153,906	800,000	0,023	-0,046
-152,891	-162,758	0,059	0,002
-151,877	193,109	-0,042	0,045
-150,862	-27,365	-0,050	0,021
-149,847	-26,430	-0,053	-0,022
-148,833	370,617	-0,015	0,022
-147,818	-91,348	0,165	0,033
-146,804	-200,000	0,019	0,067
-145,789	-21,378	-0,123	-0,053
-144,775	-40,142	-0,069	-0,025
-143,760	-12,638	-0,092	0,043
-142,745	-200,000	-0,002	0,045
-141,731	-200,000	0,013	-0,070
-140,716	544,933	0,065	-0,111
-139,702	177,929	0,095	-0,099
-138,687	-200,000	-0,004	0,080
-137,672	-58,628	-0,150	-0,046
-136,658	800,000	0,084	-0,226
-135,643	632,969	-0,074	-0,134
-134,629	47,605	-0,060	-0,039
-133,614	-132,998	0,186	0,017
-132,599	512,690	-0,071	-0,118
-131,585	138,282	0,100	0,093
-130,570	638,218	-0,042	-0,076
-129,556	30,453	0,103	0,062
-128,541	-200,000	0,025	0,104
-127,526	533,020	0,047	-0,078
-126,512	64,742	0,049	0,035
-125,497	-200,000	-0,013	0,085
-124,483	-28,974	0,060	-0,024
-123,468	-44,235	-0,165	0,058
-122,453	-68,957	-0,113	-0,031
-121,439	-5,309	0,100	-0,048
-120,424	36,499	-0,079	-0,049
-119,410	19,239	0,074	-0,042
-118,395	40,042	0,112	0,071
-117,380	127,384	0,005	-0,004
-116,366	-200,000	0,013	0,103
-115,351	-50,974	0,165	-0,055
-114,337	-199,749	-0,042	-0,000
-113,322	73,044	-0,057	-0,042
-112,307	-93,655	0,079	-0,015
-111,293	123,530	0,031	-0,027
-110,278	800,000	-0,053	-0,152
-109,264	-74,704	0,221	0,056
-108,249	-70,410	-0,090	-0,024
-107,234	339,168	-0,093	-0,129
-106,220	232,120	-0,102	0,119
-105,205	-200,000	-0,043	0,136
-104,191	72,726	-0,110	-0,081
-103,176	644,989	0,019	0,034
-102,162	285,011	-0,039	-0,050
-101,147	800,000	-0,005	0,013
-100,132	48,925	-0,117	0,077
-99,118	800,000	-0,041	-0,095
-98,103	200,082	0,059	-0,064
-97,089	-53,658	-0,026	0,008
-96,074	9,517	0,120	0,064
-95,059	149,720	-0,088	-0,084
-94,045	-200,000	0,016	-0,123
-93,030	129,785	-0,118	-0,107
-92,016	606,004	0,017	0,031
-91,001	-22,399	0,036	-0,015
-89,986	-137,892	-0,112	0,009
-88,972	459,331	0,047	-0,074
-87,957	-200,000	0,028	-0,137
-86,943	451,107	-0,012	-0,019
-85,928	108,050	-0,141	-0,119
-84,913	271,324	0,096	-0,120
-83,899	-52,761	0,018	0,006
-82,884	-97,492	0,054	-0,010
-81,870	141,698	0,067	0,063
-80,855	-200,000	0,014	-0,075
-79,840	217,192	0,067	-0,076
-78,826	270,674	-0,072	0,090
-77,811	-200,000	0,017	-0,062
-76,797	-95,950	-0,103	0,019
-75,782	-123,755	0,116	0,013
-74,767	-105,051	0,083	-0,013
-73,753	-163,453	0,117	0,004
-72,738	-200,000	-0,007	0,080
-71,724	156,990	-0,093	-0,091
-70,709	-135,336	0,060	-0,005
-69,694	148,768	-0,128	-0,122
-68,680	-106,043	0,120	-0,019
-67,665	470,713	0,055	0,088
-66,651	61,452	-0,075	0,053
-65,636	800,000	0,039	0,119
-64,622	-8,360	-0,095	-0,045
-63,607	-129,024	0,024	0,002
-62,592	-112,418	-0,084	0,012
-61,578	800,000	0,025	0,061
-60,563	800,000	0,026	0,061
-59,549	445,037	0,023	0,036
-58,534	5,705	-1,680	-0,876
-57,519	496,620	-1,222	-1,994
-56,505	-200,000	-0,446	-4,537
-55,490	386,145	0,982	1,438
-54,476	800,000	4,961	11,195
-53,461	-200,000	20,232	323,814
-52,446	800,000	752,075	2310,745
-51,432	549,266	1663,085	2828,570
-50,417	74,872	1672,111	1243,287
-49,403	19,908	1544,818	877,671
-48,388	13,956	1467,026	804,526
-47,373	18,376	1457,397	820,561
-46,359	16,300	1446,743	804,588
-45,344	12,229	1442,360	782,626
-44,330	12,078	1440,621	780,926
-43,315	12,106	1438,814	780,052
-42,300	12,109	1437,119	779,113
-41,286	12,125	1435,976	778,540
-40,271	12,050	1434,580	777,394
-39,257	12,113	1433,259	776,949
-38,242	12,183	1431,861	776,494
-37,227	12,147	1430,838	775,736
-36,213	12,146	1429,737	775,106
-35,198	12,135	1428,352	774,269
-34,184	12,167	1427,627	773,997
-33,169	12,167	1425,885	773,025
-32,154	12,215	1424,796	772,632
-31,140	12,149	1423,902	771,802
-30,125	12,182	1422,711	771,283
-29,111	12,122	1421,592	770,363
-28,096	12,138	1420,409	769,763
-27,082	12,121	1419,290	769,047
-26,067	12,090	1418,165	768,260
-25,052	12,119	1417,215	767,850
-24,038	12,059	1416,165	766,971
-23,023	12,085	1415,087	766,478
-22,009	12,075	1413,993	765,810
-20,994	12,100	1412,825	765,264
-19,979	12,042	1412,465	764,767
-18,965	12,038	1411,434	764,157
-17,950	12,063	1410,508	763,742
-16,936	12,033	1409,623	763,094
-15,921	12,014	1408,478	762,355
-14,906	12,022	1407,652	761,913
-13,892	12,022	1406,636	761,335
-12,877	11,976	1405,975	760,730
-11,863	11,961	1404,737	759,961
-10,848	11,951	1404,171	759,578
-9,833	11,935	1403,267	758,986
-8,819	11,926	1402,323	758,404
-7,804	11,870	1401,458	757,643
-6,790	11,955	1400,237	757,351
-5,775	11,936	1399,245	756,695
-4,760	11,958	1398,191	756,196
-3,746	11,904	1397,447	755,511
-2,731	11,883	1396,643	754,953
-1,717	11,875	1395,775	754,414
-0,702	11,873	1393,889	753,357
0,313	15,978	1308,818	726,284
1,327	32,679	699,706	426,630
2,342	50,699	122,007	81,457
3,356	4,454	16,352	8,444
4,371	-7,596	3,266	1,554
5,386	96,424	0,571	0,462
6,400	800,000	0,115	0,297
7,415	602,279	-0,132	-0,232
8,429	-11,301	-0,383	-0,178
9,444	87,954	-0,355	-0,278
10,459	214,691	-0,308	-0,344
11,473	-46,094	-0,297	-0,103
12,488	-46,517	-0,289	-0,099
13,502	-59,495	-0,246	-0,074
14,517	-35,169	-0,421	-0,161
15,531	516,239	-0,239	-0,395
16,546	32,827	-0,288	-0,175
17,561	176,541	-0,379	-0,389
18,575	133,167	-0,110	-0,100
19,590	49,207	-0,281	-0,186
20,604	-75,587	-0,297	-0,074
21,619	56,402	-0,544	-0,372
22,634	16,104	-0,569	-0,316
23,648	100,906	-0,444	-0,364
24,663	134,092	-0,373	-0,341
25,677	65,484	-0,351	-0,250
26,692	204,192	-0,232	-0,253
27,707	393,417	-0,194	-0,285
28,721	89,834	-0,395	-0,311
29,736	14,491	-0,345	-0,189
30,750	-0,098	-0,427	-0,213
31,765	158,926	-0,314	-0,307
32,780	173,907	-0,247	-0,252
33,794	230,425	-0,379	-0,437
34,809	9,362	-0,314	-0,167
35,823	31,051	-0,394	-0,238
36,838	125,789	-0,408	-0,363
37,853	33,681	-0,441	-0,269
38,867	84,968	-0,446	-0,344
39,882	-29,688	-0,324	-0,130
40,896	17,279	-0,318	-0,177
41,911	281,434	-0,162	-0,205
42,926	15,786	-0,500	-0,276
43,940	83,985	-0,421	-0,323
44,955	318,332	-0,297	-0,396
45,969	70,800	-0,419	-0,305
46,984	108,429	-0,230	-0,193
47,999	659,654	-0,177	-0,323
49,013	88,393	-0,326	-0,255
50,028	154,664	-0,281	-0,272
51,042	221,043	-0,255	-0,288
52,057	-8,986	-0,408	-0,191
53,071	47,604	-0,279	-0,183
54,086	8,421	-0,402	-0,212
55,101	111,216	-0,391	-0,331
56,115	278,666	-0,160	-0,201
57,130	-61,197	-0,234	-0,069
58,144	157,648	-0,276	-0,269
59,159	288,986	-0,269	-0,343
60,174	8,375	-0,446	-0,235
61,188	87,013	-0,345	-0,267
62,203	-4,869	-0,337	-0,162
63,217	453,551	-0,228	-0,356
64,232	66,061	-0,338	-0,241
65,247	-107,665	-0,372	-0,057
66,261	97,188	-0,297	-0,239
67,276	-56,374	-0,442	-0,137
68,290	-135,066	-0,383	0,032
69,305	-136,357	-0,353	-0,028
70,320	514,747	-0,155	-0,254
71,334	-43,908	-0,356	-0,125
72,349	359,183	-0,117	-0,165
73,363	201,715	-0,237	-0,257
74,378	39,754	-0,305	-0,192
75,393	274,635	-0,171	-0,213
76,407	453,682	-0,163	-0,254
77,422	16,680	-0,270	-0,150
78,436	40,293	-0,208	-0,131
79,451	34,140	-0,330	-0,201
80,466	-40,804	-0,305	-0,110
81,480	271,417	-0,226	-0,280
82,495	148,898	-0,160	-0,152
83,509	2,015	-0,346	-0,175
84,524	20,732	-0,229	-0,130
85,539	-3,311	-0,274	-0,134
86,553	-60,937	-0,407	-0,120
87,568	53,131	-0,255	-0,171
88,582	84,686	-0,369	-0,283
89,597	-2,883	-0,274	-0,134
90,611	300,433	-0,260	-0,337
91,626	126,265	-0,169	-0,150
92,641	352,038	-0,179	-0,249
93,655	177,783	-0,186	-0,190
94,670	27,449	-0,221	-0,130
95,684	189,108	-0,355	-0,373
96,699	295,520	-0,241	-0,310
97,714	-8,342	-0,309	-0,145
98,728	-34,506	-0,179	-0,068
99,743	-22,310	-0,338	-0,143
100,757	-113,839	-0,256	0,035
101,772	166,714	-0,167	-0,165
102,787	4,633	-0,363	-0,186
103,801	361,068	-0,161	-0,226
104,816	88,943	-0,296	-0,231
105,830	119,108	-0,172	-0,149
106,845	73,202	-0,122	-0,089
107,860	-41,892	-0,309	-0,110
108,874	207,978	-0,222	-0,243
109,889	5,349	-0,296	-0,152
110,903	93,836	-0,195	-0,155
111,918	13,754	-0,220	-0,119
112,933	50,571	-0,206	-0,136
113,947	-4,009	-0,191	-0,092
114,962	22,664	-0,217	-0,124
115,976	-98,126	-0,353	-0,063
116,991	19,017	-0,364	-0,203
118,006	340,119	-0,167	-0,229
119,020	-43,131	-0,156	-0,055
120,035	276,889	-0,155	-0,193
121,049	33,554	-0,227	-0,138
122,064	-102,910	-0,295	-0,048
123,079	3,764	-0,155	-0,079
124,093	323,464	-0,270	-0,360
125,108	117,811	-0,326	-0,280
126,122	149,311	-0,222	-0,210
127,137	-32,853	-0,266	-0,103
128,151	-21,295	-0,173	-0,073
129,166	210,708	-0,180	-0,198
130,181	159,253	-0,325	-0,316
131,195	171,978	-0,244	-0,245
132,210	123,901	-0,399	-0,350
133,224	266,711	-0,197	-0,241
134,239	291,070	-0,140	-0,179
135,254	178,309	-0,222	-0,226
136,268	72,026	-0,232	-0,168
137,283	224,454	-0,235	-0,265
138,297	21,471	-0,246	-0,139
139,312	178,351	-0,298	-0,304
140,327	-97,176	-0,243	-0,044
141,341	-70,864	-0,379	-0,099
142,356	154,913	-0,237	-0,228
143,370	-97,747	-0,257	-0,046
144,385	211,843	-0,237	-0,261
145,400	-44,422	-0,337	-0,117
146,414	24,920	-0,334	-0,193
147,429	77,121	-0,149	-0,110
148,443	-23,687	-0,219	-0,091
149,458	27,681	-0,228	-0,134
150,473	14,376	-0,246	-0,134
151,487	27,318	-0,296	-0,173
152,502	25,023	-0,259	-0,149
153,516	156,382	-0,159	-0,153
154,531	66,542	-0,291	-0,206
155,546	94,916	-0,182	-0,144
156,560	368,036	-0,140	-0,198
157,575	11,468	-0,175	-0,093
158,589	94,049	-0,185	-0,146
159,604	184,699	-0,200	-0,207
160,619	176,072	-0,283	-0,287
161,633	170,701	-0,248	-0,248
162,648	13,206	-0,255	-0,137
163,662	800,000	-0,079	-0,212
164,677	-155,548	-0,156	0,007
165,692	-27,255	-0,291	-0,117
166,706	-14,891	-0,281	-0,125
167,721	86,608	-0,258	-0,198
168,735	-4,793	-0,219	-0,105
169,750	70,140	-0,289	-0,207
170,764	257,326	-0,090	-0,108
171,779	-16,222	-0,233	-0,103
172,794	-120,228	-0,144	-0,017
173,808	655,008	-0,118	-0,213
174,823	116,593	-0,221	-0,189
175,837	74,340	-0,260	-0,190
176,852	93,982	-0,313	-0,247
177,867	130,176	-0,162	-0,144
178,881	78,357	-0,180	-0,134
179,896	-150,441	-0,245	-0,013
180,910	16,885	-0,284	-0,156
181,925	26,403	-0,312	-0,181
182,940	77,489	-0,327	-0,241
183,954	23,761	-0,242	-0,138
184,969	298,623	-0,145	-0,186
185,983	26,623	-0,254	-0,147
186,998	-50,110	-0,158	-0,052
188,013	42,592	-0,204	-0,129
189,027	271,718	-0,151	-0,185
190,042	-39,971	-0,366	-0,132
191,056	4,704	-0,270	-0,138
192,071	141,580	-0,186	-0,171
193,086	-3,007	-0,323	-0,156
194,100	-200,000	-0,029	-0,115
195,115	220,108	-0,187	-0,209
196,129	-72,703	-0,215	-0,055
197,144	-0,041	-0,338	-0,166
198,159	-23,431	-0,243	-0,101
199,173	76,711	-0,268	-0,197
200,188	40,555	-0,235	-0,146
201,202	15,173	-0,156	-0,085
202,217	151,032	-0,167	-0,157
203,232	162,947	-0,180	-0,176
204,246	-18,084	-0,246	-0,107
205,261	312,160	-0,187	-0,244
206,275	136,608	-0,178	-0,161
207,290	53,707	-0,173	-0,115
208,304	251,898	-0,174	-0,206
209,319	89,414	-0,239	-0,185
210,334	151,101	-0,161	-0,152
211,348	-96,299	-0,222	-0,040
212,363	541,112	-0,150	-0,249
213,377	118,904	-0,140	-0,120
214,392	800,000	-0,019	-0,052
215,407	2,877	-0,211	-0,106
216,421	-59,418	-0,189	-0,056
217,436	-113,995	-0,253	-0,034
218,450	164,788	-0,268	-0,262
219,465	152,950	-0,216	-0,205
220,480	800,000	-0,089	-0,200
221,494	-34,926	-0,205	-0,077
222,509	-39,313	-0,227	-0,082
223,523	541,403	-0,114	-0,189
224,538	63,342	-0,141	-0,098
225,553	239,716	-0,193	-0,224
226,567	244,218	-0,212	-0,247
227,582	458,286	-0,106	-0,163
228,596	545,350	-0,127	-0,210
229,611	40,345	-0,191	-0,119
230,626	-36,667	-0,241	-0,089
231,640	251,755	-0,163	-0,192
232,655	-48,274	-0,178	-0,059
233,669	75,218	-0,160	-0,117
234,684	-71,266	-0,208	-0,054
235,699	145,806	-0,183	-0,170
236,713	1,558	-0,202	-0,100
237,728	-124,388	-0,281	0,030
238,742	494,822	-0,103	-0,165
239,757	7,362	-0,253	-0,130
240,772	-17,133	-0,213	-0,093
241,786	55,911	-0,258	-0,173
242,801	-83,652	-0,208	-0,046
243,815	47,739	-0,147	-0,095
244,830	245,573	-0,122	-0,142
245,844	115,578	-0,103	-0,087
246,859	376,759	-0,101	-0,144
247,874	29,649	-0,156	-0,091
248,888	99,461	-0,176	-0,140
249,903	197,042	-0,144	-0,152
250,917	159,739	-0,157	-0,151
251,932	-142,673	-0,287	0,019
252,947	5,578	-0,026	0,013
253,961	101,990	-0,159	-0,128
254,976	190,487	-0,186	-0,193
255,990	800,000	-0,094	-0,220
257,005	-200,000	-0,088	-0,307
258,020	83,980	-0,229	-0,172
259,034	44,827	-0,204	-0,129
260,049	41,134	-0,150	-0,093
261,063	-200,000	-0,023	-0,195
262,078	105,347	-0,300	-0,244
263,093	210,519	-0,161	-0,175
264,107	-28,579	-0,185	-0,073
265,122	-61,373	-0,092	-0,026
266,136	-200,000	-0,054	-0,171
267,151	-119,111	-0,172	-0,021
268,166	20,605	-0,239	-0,133
269,180	267,912	-0,221	-0,267
270,195	279,576	-0,249	-0,308
271,209	28,711	-0,204	-0,119
272,224	-57,949	-0,086	-0,026
273,239	43,886	-0,115	-0,072
274,253	435,216	-0,123	-0,185
275,268	-127,548	-0,234	0,023
276,282	77,476	-0,285	-0,209
277,297	110,364	-0,177	-0,147
278,312	-98,142	-0,172	-0,030
279,326	-56,153	-0,157	-0,048
280,341	57,435	-0,030	0,020
281,355	76,186	-0,264	-0,192
282,370	-200,000	-0,031	-0,182
283,384	113,309	-0,152	-0,127
284,399	-82,063	-0,178	-0,040
285,414	-106,298	-0,227	-0,035
286,428	399,249	-0,095	-0,137
287,443	800,000	-0,034	-0,103
288,457	800,000	-0,018	0,046
289,472	-71,734	-0,043	-0,011
290,487	-22,958	-0,189	-0,078
291,501	-24,149	-0,258	-0,106
292,516	-200,000	-0,052	-0,252
293,530	25,774	-0,178	-0,102
294,545	121,813	-0,181	-0,156
295,560	-18,057	-0,093	-0,040
296,574	477,335	-0,045	-0,071
297,589	-200,000	-0,005	-0,148
298,603	67,891	-0,283	-0,199
299,618	361,216	-0,130	-0,180
300,633	370,469	-0,159	-0,222
301,647	22,183	-0,105	-0,059
302,662	800,000	-0,061	-0,153
303,676	238,216	-0,121	-0,138
304,691	155,565	-0,136	-0,129
305,706	263,299	-0,154	-0,184
306,720	800,000	-0,104	-0,238
307,735	74,783	-0,125	-0,090
308,749	73,510	-0,049	-0,035
309,764	13,709	-0,124	0,066
310,779	529,760	-0,142	-0,232
311,793	291,841	-0,124	-0,156
312,808	360,728	-0,269	-0,371
313,822	-200,000	-0,060	-0,226
314,837	-124,913	-0,240	-0,025
315,852	800,000	-0,050	-0,126
316,866	779,543	-0,044	-0,084
317,881	-155,572	-0,143	-0,006
318,895	-1,334	-0,032	-0,016
319,910	-96,667	-0,059	-0,011
320,925	138,382	-0,092	-0,083
321,939	15,534	-0,148	-0,079
322,954	73,886	-0,146	-0,105
323,968	301,529	-0,117	-0,149
324,983	99,862	-0,130	-0,104
325,997	127,092	-0,201	-0,175
327,012	-62,196	-0,177	0,050
328,027	154,510	-0,173	-0,164
329,041	71,692	-0,165	-0,118
330,056	133,087	-0,134	-0,119
331,070	503,938	-0,137	-0,219
332,085	-40,436	-0,079	-0,028
333,100	70,403	-0,180	-0,128
334,114	-48,588	0,031	0,010
335,129	177,367	-0,186	-0,186
336,143	800,000	-0,074	-0,212
337,158	-104,545	-0,155	0,024
338,173	169,129	-0,133	-0,130
339,187	103,589	-0,069	0,056
340,202	31,567	-0,193	-0,114
341,216	237,046	-0,057	-0,065
342,231	189,704	-0,070	0,072
343,246	139,508	-0,184	-0,166
344,260	158,921	-0,071	-0,067
345,275	-200,000	0,006	-0,109
346,289	561,103	-0,035	-0,058
347,304	-41,582	-0,150	0,053
348,319	445,100	-0,110	-0,166
349,333	-200,000	-0,057	-0,186
350,348	138,721	-0,133	-0,120
351,362	647,911	-0,063	-0,110
352,377	-20,025	-0,071	-0,030
353,392	-100,211	-0,149	-0,025
354,406	43,389	-0,168	-0,105
355,421	208,766	1315,993	1412,150
356,435	160,644	1476,869	1412,621
