DTS Sentinel unit serial number:	SN410029Multiplexer serial number:	ORYXHardware model number:	OX2-SRSoftware version number:	ORYX F/W v4,00 Oryx Data Collector v3.7.2.0data status	okinstallation	B3 Nyhavnadifferential loss correction	single-endedforward channel	channel 1reverse channel	N/Adate	2023/12/03time	09:12:30forward acquisition time	300,00reverse acquisition time	0,00gamma	499,1914k internal	0,3201k external	0,3201temperature offset calibration	1,0000default loss term (dB/km)	0,3820temperature slope calibration	1,0000multiplexer offset coefficient	1,0000multiplexer slope coefficient	1,0000fibre end	0,00T internal ref (°C)	13,35T ext. ref 1 (°C)	-1,64T ext. ref 2 (°C)	-1,66length (m)	temperature (°C)	Stokes	anti-Stokes-744,400	188,382	-0,221	-0,241
-743,385	800,000	0,059	0,179
-742,371	86,087	-0,225	-0,180
-741,356	-200,000	-0,006	0,246
-740,342	800,000	-0,109	-0,250
-739,327	-200,000	0,003	0,339
-738,312	393,640	-0,195	-0,296
-737,298	800,000	-0,106	0,247
-736,283	800,000	-0,121	-0,304
-735,269	-200,000	0,078	0,265
-734,254	150,384	-0,264	-0,261
-733,239	-73,828	-0,216	-0,057
-732,225	602,142	-0,082	-0,149
-731,210	111,364	0,064	0,056
-730,196	-200,000	0,007	-0,109
-729,181	115,915	0,046	-0,041
-728,167	264,150	0,034	-0,043
-727,152	800,000	-0,027	-0,065
-726,137	800,000	0,015	0,045
-725,123	2,184	-0,103	0,054
-724,108	-200,000	0,002	-0,125
-723,094	144,094	-0,078	-0,076
-722,079	-71,812	-0,108	0,029
-721,064	123,483	-0,059	-0,054
-720,050	800,000	0,007	0,022
-719,035	-200,000	0,002	0,062
-718,021	-103,279	-0,106	-0,018
-717,006	135,397	0,064	-0,060
-715,991	57,466	-0,136	-0,096
-714,977	119,398	-0,071	-0,063
-713,962	800,000	0,007	0,019
-712,948	172,965	0,090	-0,095
-711,933	8,340	-0,112	0,061
-710,918	-92,473	-0,051	0,010
-709,904	-200,000	-0,032	-0,106
-708,889	185,294	-0,113	-0,122
-707,875	-176,461	-0,089	-0,002
-706,860	-191,210	0,147	0,001
-705,845	-200,000	0,028	0,143
-704,831	-200,000	-0,006	0,027
-703,816	-200,000	-0,001	0,069
-702,802	362,659	0,064	0,094
-701,787	202,771	-0,041	-0,047
-700,772	-24,316	-0,151	-0,065
-699,758	-200,000	0,026	-0,105
-698,743	318,860	-0,072	0,099
-697,729	-200,000	0,007	-0,040
-696,714	-200,000	0,018	0,059
-695,699	22,610	-0,086	0,051
-694,685	-116,086	-0,173	0,023
-693,670	-200,000	-0,004	0,033
-692,656	381,738	0,030	-0,045
-691,641	-68,834	0,093	-0,026
-690,627	145,689	0,058	0,056
-689,612	-143,756	0,083	0,006
-688,597	21,686	-0,164	0,097
-687,583	-2,917	-0,025	-0,012
-686,568	-200,000	-0,047	-0,186
-685,554	-37,145	0,089	-0,035
-684,539	108,884	0,097	0,084
-683,524	616,987	-0,036	0,065
-682,510	121,579	-0,033	0,030
-681,495	498,927	-0,047	-0,080
-680,481	81,140	-0,120	-0,094
-679,466	167,546	-0,126	-0,130
-678,451	-107,973	0,101	0,016
-677,437	90,764	-0,035	0,029
-676,422	-200,000	0,025	0,137
-675,408	575,780	-0,082	0,146
-674,393	800,000	-0,037	-0,091
-673,378	12,636	-0,165	-0,092
-672,364	800,000	0,080	-0,201
-671,349	800,000	-0,023	0,056
-670,335	-98,500	0,159	-0,029
-669,320	-200,000	-0,005	0,188
-668,305	800,000	-0,035	0,081
-667,291	380,189	-0,098	0,146
-666,276	-200,000	-0,007	0,066
-665,262	159,505	-0,166	-0,168
-664,247	415,224	0,072	0,112
-663,232	359,759	-0,048	0,071
-662,218	80,074	0,153	0,119
-661,203	790,432	0,034	-0,068
-660,189	36,153	0,061	0,039
-659,174	-200,000	0,003	0,152
-658,159	-200,000	-0,036	-0,136
-657,145	800,000	0,067	-0,148
-656,130	196,392	-0,035	-0,039
-655,116	343,677	0,060	0,086
-654,101	-37,154	-0,052	-0,020
-653,086	-173,189	-0,035	-0,001
-652,072	67,225	0,058	-0,043
-651,057	-101,726	-0,167	-0,029
-650,043	800,000	-0,056	-0,130
-649,028	800,000	-0,043	0,112
-648,014	39,851	0,038	-0,024
-646,999	-38,021	0,014	-0,005
-645,984	-200,000	0,014	0,077
-644,970	362,146	-0,075	0,110
-643,955	31,260	-0,062	-0,038
-642,941	-200,000	-0,008	-0,105
-641,926	-91,069	0,053	0,011
-640,911	-200,000	-0,018	0,123
-639,897	-200,000	0,008	0,052
-638,882	-182,250	-0,024	0,000
-637,868	-200,000	-0,007	0,108
-636,853	40,112	-0,107	0,070
-635,838	84,634	0,118	-0,093
-634,824	-136,341	0,087	-0,007
-633,809	-90,103	0,137	0,029
-632,795	60,568	-0,040	-0,029
-631,780	66,951	-0,184	0,136
-630,765	800,000	-0,056	-0,142
-629,751	15,149	-0,126	-0,071
-628,736	-200,000	-0,066	-0,248
-627,722	-200,000	0,004	-0,063
-626,707	800,000	-0,044	-0,134
-625,692	-200,000	-0,005	0,085
-624,678	20,834	-0,052	0,030
-623,663	-200,000	0,005	0,042
-622,649	108,132	-0,046	0,039
-621,634	-200,000	-0,040	-0,139
-620,619	115,357	-0,135	-0,119
-619,605	684,821	0,019	0,035
-618,590	425,883	0,021	0,033
-617,576	52,723	-0,076	-0,053
-616,561	-200,000	-0,005	-0,073
-615,546	304,827	-0,038	0,051
-614,532	54,936	-0,012	0,008
-613,517	580,755	-0,038	-0,067
-612,503	-200,000	0,010	-0,140
-611,488	458,569	-0,046	0,075
-610,474	231,170	0,078	-0,093
-609,459	-122,049	0,034	0,004
-608,444	4,210	-0,070	-0,037
-607,430	655,786	0,038	0,072
-606,415	-110,868	-0,194	-0,029
-605,401	454,578	-0,021	-0,033
-604,386	-200,000	-0,008	0,050
-603,371	-200,000	0,021	0,114
-602,357	282,902	-0,014	0,018
-601,342	-8,597	-0,098	0,047
-600,328	-82,960	0,071	-0,016
-599,313	44,047	0,061	-0,041
-598,298	-130,746	-0,095	-0,009
-597,284	800,000	-0,032	0,095
-596,269	176,918	0,076	0,081
-595,255	-49,912	-0,039	-0,013
-594,240	800,000	-0,051	-0,114
-593,225	-20,912	-0,030	0,013
-592,211	497,215	0,045	-0,075
-591,196	87,591	-0,061	0,049
-590,182	265,397	0,061	0,078
-589,167	85,108	0,018	0,015
-588,152	25,861	0,122	0,073
-587,138	-85,117	-0,122	0,027
-586,123	54,379	-0,174	-0,121
-585,109	-83,684	-0,129	-0,029
-584,094	349,990	-0,124	-0,178
-583,079	-92,336	-0,056	-0,011
-582,065	60,056	0,136	0,097
-581,050	2,170	-0,105	0,055
-580,036	800,000	-0,028	0,086
-579,021	144,436	0,119	-0,115
-578,006	800,000	-0,031	-0,084
-576,992	80,881	0,034	-0,027
-575,977	-28,785	0,128	-0,053
-574,963	-140,523	0,076	0,006
-573,948	17,584	-0,032	0,018
-572,934	185,479	0,030	0,032
-571,919	42,167	-0,152	-0,100
-570,904	101,893	0,149	-0,126
-569,890	800,000	0,094	-0,211
-568,875	103,843	0,055	-0,047
-567,861	223,604	0,055	0,064
-566,846	-200,000	0,025	0,091
-565,831	-61,339	0,089	0,027
-564,817	-53,163	-0,082	0,027
-563,802	-12,544	0,022	0,010
-562,788	705,542	-0,040	0,077
-561,773	50,868	0,124	-0,085
-560,758	119,311	-0,042	0,037
-559,744	-200,000	-0,013	-0,076
-558,729	126,167	0,049	0,045
-557,715	-200,000	-0,001	0,021
-556,700	-156,035	-0,058	-0,003
-555,685	-83,159	0,166	0,038
-554,671	137,320	0,151	0,143
-553,656	383,519	-0,024	-0,036
-552,642	-200,000	-0,000	-0,071
-551,627	800,000	-0,024	0,076
-550,612	800,000	0,037	-0,109
-549,598	179,657	-0,165	-0,175
-548,583	-48,204	-0,088	0,030
-547,569	326,463	-0,110	-0,152
-546,554	187,627	0,080	-0,086
-545,539	-135,684	0,083	0,007
-544,525	20,543	-0,001	-0,001
-543,510	644,704	-0,081	-0,150
-542,496	174,651	0,100	-0,105
-541,481	402,255	-0,045	-0,068
-540,466	352,153	-0,071	-0,101
-539,452	-124,950	0,044	0,005
-538,437	613,355	0,045	-0,082
-537,423	-79,833	0,022	0,005
-536,408	657,160	-0,036	0,067
-535,393	23,059	-0,048	-0,028
-534,379	291,436	0,103	0,135
-533,364	163,756	-0,069	-0,070
-532,350	26,347	-0,100	0,060
-531,335	-200,000	0,009	-0,058
-530,321	-200,000	-0,014	-0,138
-529,306	-36,736	0,055	-0,021
-528,291	88,828	-0,048	0,039
-527,277	542,558	0,029	0,050
-526,262	352,943	-0,055	-0,080
-525,248	800,000	0,061	0,126
-524,233	198,031	0,110	0,121
-523,218	-200,000	0,030	0,104
-522,204	-101,926	0,068	0,012
-521,189	776,438	-0,079	-0,156
-520,175	210,575	-0,068	-0,077
-519,160	-200,000	0,038	-0,263
-518,145	198,259	0,065	-0,072
-517,131	351,077	-0,020	-0,028
-516,116	-128,653	-0,025	-0,002
-515,102	800,000	0,049	-0,110
-514,087	-45,741	0,038	0,014
-513,072	800,000	-0,091	-0,183
-512,058	67,688	-0,091	-0,067
-511,043	-116,772	-0,073	-0,010
-510,029	-84,525	0,104	-0,023
-509,014	122,580	-0,078	-0,071
-507,999	137,821	0,030	0,028
-506,985	280,061	-0,060	0,078
-505,970	-86,370	-0,135	0,030
-504,956	37,253	-0,122	0,078
-503,941	-92,212	0,113	-0,023
-502,926	-200,000	0,000	-0,036
-501,912	26,461	-0,056	0,034
-500,897	68,725	-0,109	0,081
-499,883	-200,000	0,007	-0,048
-498,868	235,253	0,020	-0,024
-497,853	-200,000	-0,015	-0,106
-496,839	-161,115	0,184	0,007
-495,824	-200,000	0,005	0,073
-494,810	247,965	0,016	-0,020
-493,795	329,879	0,034	-0,047
-492,781	680,584	-0,038	-0,071
-491,766	-200,000	0,000	0,031
-490,751	-14,784	-0,110	-0,051
-489,737	800,000	0,033	-0,083
-488,722	-24,053	-0,116	-0,050
-487,708	253,199	0,161	0,199
-486,693	-200,000	-0,040	0,153
-485,678	439,774	-0,040	-0,063
-484,664	294,461	-0,062	-0,081
-483,649	-105,516	-0,056	-0,009
-482,635	203,677	0,074	-0,083
-481,620	800,000	-0,037	-0,112
-480,605	147,158	0,078	-0,075
-479,591	800,000	-0,102	-0,226
-478,576	292,000	0,122	-0,161
-477,562	-15,988	-0,041	0,019
-476,547	-101,094	0,084	0,015
-475,532	35,641	0,064	-0,040
-474,518	202,664	-0,099	-0,110
-473,503	13,187	0,102	0,057
-472,489	30,575	0,170	0,104
-471,474	-31,690	0,162	-0,065
-470,459	-38,721	0,110	-0,042
-469,445	-96,157	-0,087	-0,017
-468,430	49,088	-0,147	-0,099
-467,416	800,000	0,008	-0,023
-466,401	-32,133	0,107	-0,043
-465,386	-200,000	0,013	0,081
-464,372	235,447	0,063	0,075
-463,357	-152,244	0,101	0,005
-462,343	376,088	-0,096	-0,141
-461,328	-162,225	0,073	0,003
-460,313	-102,432	-0,154	0,026
-459,299	181,706	0,112	-0,118
-458,284	800,000	0,057	0,114
-457,270	32,825	0,040	0,025
-456,255	287,182	-0,076	0,099
-455,241	-112,088	-0,078	0,011
-454,226	157,385	0,089	0,089
-453,211	-200,000	0,009	0,048
-452,197	513,054	-0,011	0,018
-451,182	33,026	-0,072	-0,045
-450,168	108,404	0,069	-0,060
-449,153	-200,000	0,003	0,026
-448,138	42,093	-0,040	0,026
-447,124	135,799	0,016	0,015
-446,109	-200,000	-0,003	-0,059
-445,095	800,000	-0,047	0,116
-444,080	-47,782	0,127	0,044
-443,065	8,098	0,053	0,029
-442,051	13,873	-0,056	0,031
-441,036	300,202	0,068	-0,090
-440,022	267,125	-0,092	-0,116
-439,007	49,862	0,075	-0,051
-437,992	347,505	0,050	-0,071
-436,978	-200,000	0,006	-0,052
-435,963	340,973	0,142	0,201
-434,949	800,000	-0,012	-0,035
-433,934	-200,000	-0,020	-0,087
-432,919	420,103	-0,122	-0,188
-431,905	304,989	-0,044	0,059
-430,890	800,000	0,046	0,112
-429,876	61,250	0,126	0,090
-428,861	-189,238	0,038	0,000
-427,846	-200,000	0,052	0,195
-426,832	526,011	-0,092	-0,157
-425,817	-121,636	-0,204	0,024
-424,803	31,369	0,042	-0,026
-423,788	29,823	0,043	0,026
-422,773	-2,992	0,115	0,057
-421,759	267,566	0,109	0,137
-420,744	324,377	0,065	0,089
-419,730	221,168	-0,070	0,081
-418,715	-200,000	-0,013	-0,084
-417,701	-200,000	-0,006	-0,019
-416,686	302,889	-0,039	0,052
-415,671	99,572	0,118	0,098
-414,657	800,000	0,066	0,153
-413,642	800,000	0,012	0,031
-412,628	313,662	-0,033	-0,045
-411,613	101,964	0,071	-0,059
-410,598	-109,978	-0,108	-0,016
-409,584	-200,000	-0,002	-0,012
-408,569	-200,000	0,093	0,000
-407,555	-200,000	-0,004	0,085
-406,540	65,152	0,063	-0,046
-405,525	56,696	-0,037	-0,026
-404,511	-44,843	-0,073	-0,026
-403,496	156,249	-0,008	-0,008
-402,482	76,307	0,073	0,056
-401,467	-200,000	-0,021	0,069
-400,452	19,495	0,103	0,059
-399,438	-200,000	0,005	0,176
-398,423	-200,000	-0,042	0,166
-397,409	468,289	-0,033	0,053
-396,394	455,355	-0,031	-0,049
-395,379	-36,413	0,111	-0,043
-394,365	252,175	-0,128	0,157
-393,350	386,792	0,102	0,151
-392,336	228,767	0,046	0,054
-391,321	-130,186	0,079	0,008
-390,306	-29,759	0,044	0,018
-389,292	-6,664	-0,035	-0,017
-388,277	-14,152	-0,124	-0,057
-387,263	527,735	0,079	-0,134
-386,248	-200,000	-0,026	0,117
-385,233	691,904	0,055	0,105
-384,219	-99,422	-0,095	0,017
-383,204	-5,120	-0,032	0,016
-382,190	800,000	-0,033	-0,095
-381,175	-81,919	0,123	0,029
-380,160	109,100	0,068	0,058
-379,146	-9,960	0,120	0,057
-378,131	-187,350	0,045	0,000
-377,117	-150,011	-0,043	0,002
-376,102	800,000	-0,032	0,086
-375,088	52,914	-0,115	0,079
-374,073	106,331	-0,060	-0,051
-373,058	270,492	0,131	0,166
-372,044	206,871	0,063	0,071
-371,029	-143,801	0,125	-0,008
-370,015	-200,000	-0,044	-0,145
-369,000	-200,000	-0,021	-0,087
-367,985	725,267	-0,047	0,089
-366,971	-200,000	-0,004	-0,024
-365,956	-49,250	0,078	0,027
-364,942	-96,692	0,061	0,011
-363,927	38,497	0,155	0,099
-362,912	-2,580	-0,078	0,039
-361,898	69,058	-0,160	-0,118
-360,883	800,000	-0,093	0,194
-359,869	143,787	0,025	-0,023
-358,854	68,486	0,047	0,034
-357,839	-200,000	-0,008	0,112
-356,825	-200,000	0,002	-0,025
-355,810	193,172	0,069	0,074
-354,796	409,752	-0,011	-0,017
-353,781	454,401	-0,072	-0,115
-352,766	-144,272	0,046	-0,003
-351,752	421,767	-0,065	-0,101
-350,737	51,594	0,021	-0,014
-349,723	-106,635	0,082	-0,013
-348,708	-200,000	-0,028	0,118
-347,693	309,208	-0,023	0,031
-346,679	-50,096	-0,045	0,015
-345,664	-62,249	-0,121	-0,036
-344,650	783,659	0,009	-0,018
-343,635	-200,000	-0,005	0,028
-342,620	-200,000	0,011	0,121
-341,606	-200,000	0,013	0,103
-340,591	-19,500	-0,041	-0,018
-339,577	-44,365	-0,149	-0,053
-338,562	-19,489	-0,064	-0,028
-337,548	-200,000	0,002	-0,172
-336,533	800,000	0,029	0,074
-335,518	-200,000	0,014	0,061
-334,504	-116,762	0,039	0,005
-333,489	52,463	-0,136	-0,093
-332,475	271,622	-0,110	-0,139
-331,460	800,000	0,040	-0,104
-330,445	-200,000	-0,050	0,164
-329,431	726,779	0,060	0,115
-328,416	43,072	0,046	-0,030
-327,402	-191,261	0,074	0,001
-326,387	-45,385	-0,071	0,025
-325,372	609,567	0,060	0,108
-324,358	85,137	0,074	-0,058
-323,343	-200,000	0,007	-0,064
-322,329	-19,081	-0,055	-0,025
-321,314	-41,326	-0,079	-0,029
-320,299	366,435	-0,075	0,109
-319,285	-84,528	0,032	0,007
-318,270	800,000	-0,033	0,081
-317,256	267,599	0,064	-0,081
-316,241	-96,209	-0,170	0,032
-315,226	-200,000	-0,014	0,152
-314,212	413,017	0,074	0,113
-313,197	19,716	0,042	-0,024
-312,183	800,000	-0,012	0,035
-311,168	-34,750	-0,024	0,009
-310,153	92,922	0,037	0,030
-309,139	-192,303	-0,064	0,000
-308,124	-200,000	0,027	0,126
-307,110	380,912	0,046	0,067
-306,095	-123,810	0,220	-0,025
-305,080	77,833	-0,062	0,048
-304,066	110,892	-0,036	0,031
-303,051	-82,313	-0,067	-0,015
-302,037	253,857	0,046	-0,056
-301,022	-169,994	0,077	0,002
-300,008	-33,714	0,102	0,040
-298,993	800,000	-0,034	-0,069
-297,978	137,290	-0,016	-0,015
-296,964	-98,263	-0,126	0,023
-295,949	-15,610	-0,141	-0,064
-294,935	22,027	0,106	-0,062
-293,920	17,446	-0,035	-0,020
-292,905	302,773	-0,024	-0,032
-291,891	-136,874	0,084	0,007
-290,876	800,000	0,100	0,200
-289,862	-126,525	-0,088	-0,009
-288,847	241,318	-0,040	-0,048
-287,832	-25,106	0,038	-0,016
-286,818	166,460	-0,067	-0,068
-285,803	-200,000	-0,009	0,142
-284,789	-10,322	0,026	0,012
-283,774	108,580	-0,065	0,056
-282,759	200,424	0,008	0,009
-281,745	-200,000	0,011	-0,166
-280,730	-74,291	-0,107	-0,027
-279,716	146,491	-0,070	0,067
-278,701	-54,470	-0,091	-0,029
-277,686	-28,887	0,045	-0,019
-276,672	-18,762	0,074	0,033
-275,657	-13,417	-0,113	0,052
-274,643	2,157	-0,075	0,039
-273,628	800,000	-0,043	0,115
-272,613	451,137	0,040	-0,064
-271,599	329,327	-0,062	-0,086
-270,584	-200,000	-0,020	-0,185
-269,570	-135,004	-0,082	0,007
-268,555	214,143	0,124	0,141
-267,540	-70,938	-0,098	0,026
-266,526	190,632	0,045	-0,048
-265,511	95,144	0,052	0,042
-264,497	778,419	0,057	0,111
-263,482	125,480	0,067	-0,060
-262,467	96,389	0,042	-0,034
-261,453	-200,000	-0,019	0,115
-260,438	-95,674	0,156	0,029
-259,424	691,363	0,054	-0,102
-258,409	355,775	-0,062	-0,088
-257,395	428,657	0,041	0,064
-256,380	134,793	-0,029	-0,027
-255,365	-96,471	-0,009	-0,002
-254,351	-109,345	-0,041	-0,006
-253,336	-34,198	-0,119	0,047
-252,322	23,911	-0,046	0,027
-251,307	-109,176	-0,109	0,016
-250,292	-200,000	-0,005	0,041
-249,278	127,607	-0,022	0,020
-248,263	-200,000	-0,009	0,071
-247,249	218,544	0,013	0,015
-246,234	64,504	-0,056	-0,040
-245,219	-108,056	-0,137	0,021
-244,205	96,316	-0,092	-0,075
-243,190	-107,306	0,056	0,009
-242,176	-200,000	-0,010	0,091
-241,161	-200,000	0,027	-0,149
-240,146	63,847	0,116	0,083
-239,132	-7,993	0,032	0,015
-238,117	-200,000	0,010	0,075
-237,103	553,282	-0,058	-0,100
-236,088	147,062	0,033	-0,031
-235,073	-54,863	-0,085	0,027
-234,059	268,082	0,021	-0,026
-233,044	487,769	0,066	0,107
-232,030	254,327	0,048	0,058
-231,015	9,282	0,083	-0,045
-230,000	621,675	-0,065	0,117
-228,986	800,000	-0,022	-0,056
-227,971	15,964	0,102	0,057
-226,957	-4,829	0,144	0,071
-225,942	262,122	0,072	0,089
-224,927	-200,000	0,009	0,036
-223,913	195,326	0,038	0,041
-222,898	-200,000	-0,000	0,044
-221,884	32,758	-0,143	-0,088
-220,869	800,000	0,031	0,095
-219,855	-44,067	0,126	0,045
-218,840	-22,299	-0,125	-0,054
-217,825	167,270	-0,062	-0,063
-216,811	587,991	0,047	0,084
-215,796	-172,637	-0,094	-0,002
-214,782	190,772	-0,014	0,015
-213,767	13,825	0,084	-0,047
-212,752	-124,870	-0,129	0,014
-211,738	294,642	-0,024	-0,032
-210,723	-170,517	0,146	0,004
-209,709	-172,255	-0,072	0,002
-208,694	121,661	-0,037	0,032
-207,679	25,474	-0,113	-0,067
-206,665	-94,305	0,076	-0,015
-205,650	-72,215	0,145	0,038
-204,636	-200,000	-0,009	0,044
-203,621	-178,688	-0,184	-0,003
-202,606	252,545	0,045	0,054
-201,592	140,791	-0,130	-0,123
-200,577	259,085	-0,061	-0,075
-199,563	800,000	0,046	-0,105
-198,548	260,718	-0,055	-0,068
-197,533	800,000	0,060	0,144
-196,519	-200,000	-0,011	0,050
-195,504	-12,780	-0,056	0,026
-194,490	38,439	0,047	-0,029
-193,475	800,000	-0,063	-0,135
-192,460	-200,000	0,017	-0,115
-191,446	-107,882	-0,124	-0,019
-190,431	-46,389	-0,071	-0,025
-189,417	-63,461	-0,095	0,028
-188,402	133,763	0,105	0,097
-187,387	-73,739	-0,121	-0,031
-186,373	372,326	0,077	-0,112
-185,358	-165,112	0,150	-0,005
-184,344	-138,733	0,140	-0,011
-183,329	306,176	0,027	-0,036
-182,315	-67,886	0,128	0,035
-181,300	785,104	0,091	0,179
-180,285	-200,000	-0,008	-0,063
-179,271	-115,466	0,086	-0,011
-178,256	292,941	0,042	0,055
-177,242	317,416	-0,052	0,070
-176,227	800,000	0,096	0,210
-175,212	-128,321	-0,039	0,004
-174,198	800,000	0,030	0,063
-173,183	-200,000	-0,017	-0,064
-172,169	624,731	-0,026	-0,046
-171,154	-162,200	0,078	-0,003
-170,139	-200,000	-0,009	0,070
-169,125	-126,915	0,213	0,022
-168,110	431,976	0,015	0,023
-167,096	83,958	-0,075	-0,058
-166,081	59,904	-0,111	-0,078
-165,066	361,289	-0,087	-0,124
-164,052	31,286	0,049	-0,030
-163,037	-145,573	0,115	0,007
-162,023	-109,122	0,073	0,011
-161,008	18,685	-0,042	0,024
-159,993	-200,000	0,000	-0,173
-158,979	3,140	0,028	-0,014
-157,964	-200,000	0,011	-0,068
-156,950	269,901	0,050	-0,063
-155,935	-200,000	0,021	0,078
-154,920	183,551	-0,050	0,053
-153,906	-54,785	0,042	0,013
-152,891	-200,000	0,016	-0,062
-151,877	-200,000	-0,029	0,174
-150,862	217,015	0,100	-0,114
-149,847	-33,360	0,137	-0,053
-148,833	173,611	-0,045	0,047
-147,818	-194,249	0,156	-0,001
-146,804	-47,232	-0,101	0,035
-145,789	-200,000	-0,057	0,234
-144,775	-85,327	0,060	0,013
-143,760	585,159	-0,044	-0,076
-142,745	-128,936	0,079	0,008
-141,731	800,000	-0,058	0,154
-140,716	259,973	0,123	0,152
-139,702	-107,908	-0,051	0,008
-138,687	525,981	-0,013	-0,021
-137,672	-58,665	0,060	-0,018
-136,658	-14,350	-0,016	0,007
-135,643	-200,000	-0,011	-0,123
-134,629	-3,660	0,100	-0,049
-133,614	800,000	-0,060	-0,127
-132,599	-96,541	0,078	-0,014
-131,585	26,563	-0,039	-0,023
-130,570	2,293	0,116	0,059
-129,556	800,000	-0,019	-0,044
-128,541	-200,000	-0,017	-0,101
-127,526	-200,000	-0,044	-0,150
-126,512	-200,000	-0,014	0,133
-125,497	-85,976	0,053	-0,011
-124,483	800,000	0,027	0,076
-123,468	51,377	-0,125	-0,084
-122,453	536,931	-0,013	-0,022
-121,439	800,000	-0,035	-0,076
-120,424	-200,000	0,004	-0,118
-119,410	16,058	0,057	-0,032
-118,395	220,941	-0,061	0,069
-117,380	300,604	0,074	0,097
-116,366	154,907	-0,050	0,048
-115,351	89,136	-0,027	0,021
-114,337	-47,233	0,111	0,038
-113,322	800,000	0,014	-0,035
-112,307	31,291	-0,028	-0,017
-111,293	-200,000	-0,025	0,146
-110,278	179,020	-0,084	0,087
-109,264	131,455	-0,069	0,063
-108,249	-126,304	0,047	-0,005
-107,234	155,118	-0,072	-0,071
-106,220	228,696	0,058	0,067
-105,205	-200,000	0,004	-0,075
-104,191	-108,305	0,215	-0,033
-103,176	175,462	0,051	-0,053
-102,162	39,639	0,130	-0,083
-101,147	-41,320	-0,087	-0,032
-100,132	118,703	-0,019	-0,017
-99,118	-130,322	-0,062	0,006
-98,103	800,000	-0,008	-0,023
-97,089	-26,345	0,080	-0,033
-96,074	800,000	-0,024	-0,068
-95,059	631,385	-0,066	0,119
-94,045	-59,130	0,101	-0,031
-93,030	242,732	0,039	0,047
-92,016	-88,306	-0,090	-0,019
-91,001	-200,000	-0,006	-0,061
-89,986	-8,151	-0,036	0,017
-88,972	516,253	0,014	0,024
-87,957	730,478	0,069	0,131
-86,943	91,595	-0,134	-0,106
-85,928	-115,086	0,092	-0,012
-84,913	49,035	-0,089	0,059
-83,899	800,000	-0,060	-0,121
-82,884	-200,000	-0,022	0,154
-81,870	800,000	-0,040	0,106
-80,855	800,000	-0,011	0,027
-79,840	800,000	-0,049	0,115
-78,826	-86,683	0,150	0,032
-77,811	-200,000	0,002	-0,058
-76,797	-200,000	0,068	-0,000
-75,782	-200,000	0,008	0,036
-74,767	74,325	-0,077	0,057
-73,753	194,903	-0,117	0,126
-72,738	-5,346	-0,056	-0,027
-71,724	-40,220	-0,119	0,044
-70,709	184,341	0,045	-0,047
-69,694	260,671	0,072	-0,088
-68,680	-61,752	-0,130	0,038
-67,665	-163,771	0,076	0,002
-66,651	-77,943	0,045	0,011
-65,636	800,000	-0,007	-0,019
-64,622	-200,000	0,019	0,093
-63,607	-93,446	-0,071	0,014
-62,592	203,013	-0,066	-0,072
-61,578	-200,000	0,001	0,149
-60,563	800,000	0,046	0,104
-59,549	-200,000	0,015	0,052
-58,534	3,474	-1,574	-0,810
-57,519	475,564	-1,329	-2,133
-56,505	-200,000	-0,537	-4,520
-55,490	221,227	1,104	1,258
-54,476	800,000	4,832	10,991
-53,461	-200,000	19,078	320,713
-52,446	-200,000	740,470	2336,404
-51,432	574,497	1655,581	2871,728
-50,417	78,431	1671,367	1262,923
-49,403	21,338	1544,489	886,189
-48,388	15,235	1466,767	811,906
-47,373	18,022	1457,019	819,948
-46,359	16,725	1446,915	808,010
-45,344	13,426	1442,398	789,645
-44,330	13,371	1440,336	788,220
-43,315	13,400	1438,674	787,417
-42,300	13,428	1436,842	786,521
-41,286	13,458	1435,588	785,944
-40,271	13,428	1434,270	785,048
-39,257	13,419	1432,919	784,233
-38,242	13,436	1431,886	783,722
-37,227	13,455	1430,608	783,078
-36,213	13,466	1429,217	782,339
-35,198	13,454	1428,164	781,675
-34,184	13,514	1427,026	781,308
-33,169	13,432	1425,841	780,238
-32,154	13,462	1424,805	779,783
-31,140	13,489	1423,442	779,134
-30,125	13,451	1422,393	778,350
-29,111	13,489	1421,190	777,839
-28,096	13,435	1420,032	776,919
-27,082	13,396	1419,061	776,170
-26,067	13,379	1418,013	775,490
-25,052	13,419	1416,711	774,935
-24,038	13,382	1415,898	774,285
-23,023	13,397	1414,713	773,674
-22,009	13,362	1413,893	773,031
-20,994	13,321	1413,088	772,367
-19,979	13,315	1412,155	771,798
-18,965	13,307	1411,049	771,127
-17,950	13,295	1410,117	770,530
-16,936	13,305	1409,214	770,055
-15,921	13,301	1408,039	769,363
-14,906	13,256	1407,289	768,714
-13,892	13,320	1406,289	768,437
-12,877	13,273	1405,444	767,721
-11,863	13,312	1404,325	767,263
-10,848	13,287	1403,558	766,696
-9,833	13,226	1402,899	766,020
-8,819	13,183	1402,115	765,364
-7,804	13,223	1401,047	764,936
-6,790	13,176	1399,938	764,080
-5,775	13,215	1398,944	763,688
-4,760	13,214	1397,740	762,998
-3,746	13,215	1397,075	762,607
-2,731	13,219	1396,315	762,183
-1,717	13,166	1395,305	761,356
-0,702	13,169	1393,511	760,360
0,313	16,981	1310,441	732,707
1,327	33,215	704,244	431,314
2,342	50,872	123,452	82,621
3,356	1,845	16,669	8,476
4,371	5,161	3,239	1,683
5,386	8,177	0,614	0,325
6,400	-200,000	-0,019	0,221
7,415	54,513	-0,204	-0,139
8,429	396,486	-0,117	-0,173
9,444	76,489	-0,267	-0,200
10,459	112,730	-0,297	-0,255
11,473	149,879	-0,164	-0,157
12,488	43,518	-0,313	-0,202
13,502	-7,312	-0,248	-0,118
14,517	102,220	-0,283	-0,234
15,531	563,117	-0,237	-0,408
16,546	72,274	-0,260	-0,191
17,561	45,580	-0,349	-0,227
18,575	-13,954	-0,259	-0,118
19,590	463,384	-0,172	-0,272
20,604	134,929	-0,204	-0,187
21,619	213,071	-0,369	-0,412
22,634	80,200	-0,508	-0,386
23,648	101,210	-0,380	-0,313
24,663	42,764	-0,394	-0,253
25,677	76,475	-0,300	-0,224
26,692	-12,394	-0,344	-0,158
27,707	-17,201	-0,408	-0,181
28,721	6,367	-0,453	-0,236
29,736	189,617	-0,329	-0,348
30,750	28,839	-0,491	-0,293
31,765	125,174	-0,395	-0,351
32,780	251,523	-0,227	-0,273
33,794	-8,621	-0,304	-0,144
34,809	138,908	-0,300	-0,278
35,823	111,233	-0,377	-0,321
36,838	133,779	-0,449	-0,410
37,853	79,106	-0,325	-0,245
38,867	107,677	-0,362	-0,304
39,882	23,277	-0,359	-0,207
40,896	35,568	-0,442	-0,273
41,911	352,700	-0,235	-0,330
42,926	1,886	-0,384	-0,195
43,940	68,101	-0,300	-0,216
44,955	-15,815	-0,522	-0,233
45,969	262,335	-0,281	-0,344
46,984	66,754	-0,304	-0,218
47,999	147,135	-0,232	-0,220
49,013	89,628	-0,307	-0,242
50,028	129,639	-0,237	-0,213
51,042	59,078	-0,337	-0,233
52,057	53,545	-0,314	-0,212
53,071	200,180	-0,224	-0,242
54,086	61,761	-0,373	-0,261
55,101	87,307	-0,307	-0,239
56,115	102,899	-0,363	-0,299
57,130	89,165	-0,379	-0,297
58,144	39,546	-0,291	-0,184
59,159	12,832	-0,503	-0,273
60,174	55,772	-0,430	-0,293
61,188	146,220	-0,350	-0,331
62,203	-65,079	-0,344	-0,097
63,217	-74,812	-0,255	-0,064
64,232	-66,584	-0,270	-0,075
65,247	87,145	-0,299	-0,233
66,261	-70,835	-0,369	-0,097
67,276	192,510	-0,346	-0,368
68,290	175,332	-0,342	-0,349
69,305	46,984	-0,266	-0,174
70,320	5,780	-0,216	-0,112
71,334	-22,129	-0,442	-0,188
72,349	200,945	-0,332	-0,359
73,363	15,950	-0,379	-0,209
74,378	176,308	-0,238	-0,244
75,393	344,487	-0,185	-0,256
76,407	-38,112	-0,223	-0,083
77,422	-10,937	-0,315	-0,146
78,436	-35,140	-0,255	-0,097
79,451	46,028	-0,303	-0,197
80,466	254,482	-0,183	-0,220
81,480	70,874	-0,334	-0,243
82,495	19,926	-0,322	-0,182
83,509	-165,620	-0,209	0,006
84,524	79,803	-0,349	-0,263
85,539	55,360	-0,344	-0,234
86,553	94,163	-0,231	-0,184
87,568	125,732	-0,267	-0,237
88,582	138,677	-0,280	-0,259
89,597	148,923	-0,236	-0,224
90,611	234,957	-0,193	-0,224
91,626	135,725	-0,328	-0,300
92,641	135,298	-0,226	-0,206
93,655	5,801	-0,358	-0,186
94,670	32,052	-0,372	-0,225
95,684	90,657	-0,350	-0,275
96,699	-9,839	-0,235	-0,109
97,714	56,101	-0,201	-0,137
98,728	53,002	-0,211	-0,141
99,743	10,516	-0,309	-0,165
100,757	500,817	-0,182	-0,295
101,772	178,797	-0,235	-0,241
102,787	16,329	-0,427	-0,236
103,801	308,554	-0,210	-0,276
104,816	-40,388	-0,196	-0,071
105,830	85,498	-0,363	-0,279
106,845	-86,188	-0,232	-0,050
107,860	413,319	-0,209	-0,312
108,874	579,547	-0,137	-0,235
109,889	212,524	-0,160	-0,177
110,903	90,683	-0,396	-0,311
111,918	-30,821	-0,400	-0,158
112,933	56,907	-0,199	-0,135
113,947	-60,119	-0,184	-0,055
114,962	47,617	-0,285	-0,186
115,976	-54,320	-0,231	-0,073
116,991	8,592	-0,260	-0,137
118,006	83,764	-0,205	-0,157
119,020	800,000	-0,130	-0,295
120,035	151,176	-0,257	-0,245
121,049	29,394	-0,268	-0,159
122,064	-43,566	-0,283	-0,100
123,079	54,623	-0,335	-0,226
124,093	45,622	-0,282	-0,182
125,108	29,569	-0,361	-0,215
126,122	800,000	-0,157	-0,426
127,137	86,587	-0,208	-0,161
128,151	47,120	-0,202	-0,131
129,166	133,750	-0,171	-0,155
130,181	-50,075	-0,333	-0,110
131,195	-122,352	-0,342	-0,039
132,210	145,553	-0,270	-0,253
133,224	54,250	-0,250	-0,168
134,239	463,188	-0,258	-0,405
135,254	-42,982	-0,217	-0,077
136,268	305,186	-0,186	-0,243
137,283	180,098	-0,198	-0,203
138,297	40,503	-0,396	-0,249
139,312	339,045	-0,209	-0,285
140,327	45,803	-0,326	-0,210
141,341	259,856	-0,168	-0,203
142,356	800,000	-0,124	-0,244
143,370	-68,844	-0,245	-0,066
144,385	31,955	-0,289	-0,174
145,400	499,459	-0,184	-0,297
146,414	4,868	-0,322	-0,165
147,429	-22,458	-0,236	-0,099
148,443	325,912	-0,245	-0,328
149,458	60,435	-0,184	-0,127
150,473	800,000	-0,082	-0,201
151,487	-61,750	-0,268	-0,078
152,502	-40,466	-0,323	-0,117
153,516	-50,166	-0,319	-0,105
154,531	72,624	-0,171	-0,124
155,546	42,389	-0,388	-0,246
156,560	41,396	-0,249	-0,157
157,575	-41,415	-0,254	-0,091
158,589	138,910	-0,254	-0,233
159,604	-101,866	-0,198	-0,033
160,619	-50,344	-0,202	-0,066
161,633	-12,485	-0,212	-0,096
162,648	-12,789	-0,271	-0,123
163,662	-9,899	-0,178	-0,082
164,677	306,848	-0,124	-0,162
165,692	19,226	-0,259	-0,145
166,706	800,000	-0,124	-0,252
167,721	70,828	-0,246	-0,178
168,735	20,173	-0,338	-0,190
169,750	17,383	-0,113	-0,062
170,764	-78,380	-0,223	-0,053
171,779	81,575	-0,128	-0,096
172,794	-72,649	-0,196	-0,050
173,808	24,898	-0,311	-0,179
174,823	216,260	-0,236	-0,262
175,837	-30,920	-0,245	-0,096
176,852	-36,404	-0,204	-0,076
177,867	28,911	-0,282	-0,166
178,881	-17,809	-0,272	-0,118
179,896	-7,103	-0,151	-0,071
180,910	70,638	-0,352	-0,253
181,925	263,075	-0,156	-0,189
182,940	178,753	-0,251	-0,256
183,954	43,897	-0,250	-0,159
184,969	133,975	-0,071	-0,064
185,983	-83,479	-0,189	-0,042
186,998	-39,177	-0,210	-0,076
188,013	252,008	-0,214	-0,255
189,027	-90,117	-0,260	-0,052
190,042	800,000	-0,134	-0,264
191,056	-73,852	-0,239	-0,060
192,071	63,099	-0,208	-0,145
193,086	-143,580	-0,166	-0,011
194,100	-67,462	-0,256	-0,069
195,115	9,314	-0,106	-0,056
196,129	201,918	-0,178	-0,192
197,144	211,540	-0,201	-0,221
198,159	383,624	-0,126	-0,181
199,173	320,614	-0,153	-0,203
200,188	229,701	-0,108	-0,123
201,202	-66,677	-0,176	-0,048
202,217	138,283	-0,170	-0,155
203,232	296,295	-0,163	-0,209
204,246	551,007	-0,181	-0,303
205,261	183,079	-0,168	-0,172
206,275	55,685	-0,153	-0,103
207,290	360,977	-0,156	-0,218
208,304	378,446	-0,083	-0,118
209,319	8,076	-0,230	-0,119
210,334	86,867	-0,199	-0,153
211,348	231,740	-0,218	-0,249
212,363	132,026	-0,172	-0,154
213,377	194,972	-0,148	-0,156
214,392	800,000	-0,070	-0,175
215,407	77,199	-0,202	-0,149
216,421	-40,069	-0,285	-0,103
217,436	-168,672	-0,293	0,008
218,450	284,718	-0,156	-0,195
219,465	154,986	-0,191	-0,182
220,480	54,195	-0,180	-0,120
221,494	-28,483	-0,278	-0,111
222,509	234,835	-0,220	-0,253
223,523	79,781	-0,219	-0,163
224,538	147,311	-0,279	-0,260
225,553	731,763	-0,161	-0,301
226,567	-22,204	-0,296	-0,124
227,582	140,001	-0,128	-0,117
228,596	800,000	-0,055	-0,151
229,611	29,288	-0,180	-0,106
230,626	124,635	-0,212	-0,185
231,640	64,932	-0,182	-0,127
232,655	65,188	-0,232	-0,162
233,669	316,105	-0,165	-0,216
234,684	4,132	-0,241	-0,122
235,699	159,114	-0,105	-0,101
236,713	-36,526	-0,092	-0,034
237,728	143,705	-0,236	-0,218
238,742	114,002	-0,257	-0,216
239,757	53,440	-0,208	-0,138
240,772	46,501	-0,186	-0,119
241,786	-41,645	-0,254	-0,090
242,801	-35,873	-0,157	-0,058
243,815	800,000	-0,060	-0,130
244,830	-13,809	-0,184	-0,082
245,844	150,446	-0,183	-0,172
246,859	48,972	-0,259	-0,168
247,874	-68,580	-0,092	-0,025
248,888	70,711	-0,156	-0,112
249,903	-66,105	-0,246	-0,068
250,917	303,821	-0,110	-0,141
251,932	-74,823	-0,191	-0,047
252,947	-33,359	-0,126	0,048
253,961	-101,972	-0,193	-0,032
254,976	-34,358	-0,134	-0,051
255,990	361,631	-0,150	-0,209
257,005	-200,000	-0,046	-0,281
258,020	-0,593	-0,120	-0,059
259,034	-72,018	-0,176	-0,045
260,049	297,908	-0,117	-0,149
261,063	-52,092	-0,252	-0,081
262,078	262,502	-0,110	-0,132
263,093	54,340	-0,270	-0,180
264,107	-61,562	-0,164	-0,047
265,122	800,000	-0,060	-0,121
266,136	-200,000	-0,037	-0,154
267,151	235,411	-0,082	-0,094
268,166	-27,219	-0,279	-0,112
269,180	230,811	-0,195	-0,221
270,195	-49,102	-0,334	-0,110
271,209	-2,016	-0,154	-0,074
272,224	144,880	-0,105	-0,097
273,239	215,940	-0,188	-0,207
274,253	9,474	-0,104	0,054
275,268	-51,499	-0,202	0,065
276,282	445,495	-0,071	-0,108
277,297	800,000	-0,040	-0,110
278,312	-200,000	-0,052	-0,165
279,326	466,765	-0,086	-0,134
280,341	38,071	-0,137	-0,084
281,355	-40,541	-0,207	-0,074
282,370	179,777	-0,139	0,141
283,384	-200,000	-0,072	-0,262
284,399	284,385	-0,109	-0,135
285,414	428,066	-0,100	-0,150
286,428	-169,456	-0,157	0,004
287,443	52,344	-0,094	-0,062
288,457	282,739	-0,106	-0,132
289,472	-34,570	-0,220	-0,083
290,487	-16,716	-0,174	-0,076
291,501	-33,154	-0,194	-0,074
292,516	-200,000	-0,102	-0,320
293,530	-200,000	-0,030	-0,102
294,545	152,625	-0,136	-0,128
295,560	763,515	-0,088	-0,165
296,574	296,048	-0,074	-0,093
297,589	-41,333	-0,123	-0,044
298,603	21,377	-0,170	-0,095
299,618	68,093	-0,189	-0,133
300,633	800,000	-0,119	-0,239
301,647	429,963	-0,018	0,027
302,662	-200,000	0,012	-0,147
303,676	-200,000	-0,033	-0,210
304,691	218,035	-0,184	-0,202
305,706	234,269	-0,186	-0,212
306,720	-139,791	-0,234	-0,017
307,735	-106,023	-0,148	-0,023
308,749	-114,055	-0,300	-0,040
309,764	-175,005	-0,166	0,003
310,779	451,997	-0,074	-0,113
311,793	4,570	-0,267	-0,134
312,808	90,187	-0,175	-0,135
313,822	91,692	-0,079	-0,061
314,837	236,667	-0,249	-0,284
315,852	109,685	-0,120	-0,099
316,866	-200,000	-0,037	-0,116
317,881	-200,000	0,016	-0,134
318,895	258,967	-0,158	-0,187
319,910	443,631	-0,109	-0,165
320,925	162,068	-0,105	-0,101
321,939	35,083	-0,143	-0,086
322,954	-200,000	-0,050	-0,175
323,968	277,616	-0,112	-0,137
324,983	-173,524	-0,074	0,002
325,997	38,378	-0,114	-0,070
327,012	98,786	-0,157	-0,124
328,027	86,274	-0,185	-0,140
329,041	101,762	-0,202	-0,162
330,056	35,154	-0,208	-0,125
331,070	-200,000	-0,189	0,000
332,085	-45,365	-0,196	0,066
333,100	-28,899	-0,314	-0,123
334,114	174,654	-0,059	-0,059
335,129	242,742	-0,082	-0,094
336,143	238,311	-0,138	-0,158
337,158	-160,055	-0,180	-0,007
338,173	20,717	-0,104	-0,058
339,187	-157,887	-0,192	-0,008
340,202	-36,751	-0,063	-0,023
341,216	1,368	-0,139	-0,068
342,231	-97,096	-0,257	-0,046
343,246	-13,138	-0,202	-0,090
344,260	111,763	-0,138	-0,114
345,275	-49,591	-0,230	-0,075
346,289	-182,924	-0,116	0,001
347,304	-35,303	-0,098	-0,037
348,319	-13,997	-0,229	-0,101
349,333	64,775	-0,207	-0,143
350,348	200,736	-0,201	-0,212
351,362	130,945	-0,076	-0,067
352,377	20,702	-0,042	-0,023
353,392	800,000	-0,074	-0,162
354,406	86,836	-0,211	-0,160
355,421	209,334	1315,144	1415,220
356,435	161,103	1475,939	1415,708
