DTS Sentinel unit serial number:	SN410029Multiplexer serial number:	ORYXHardware model number:	OX2-SRSoftware version number:	ORYX F/W v4,00 Oryx Data Collector v3.7.2.0data status	okinstallation	B3 Nyhavnadifferential loss correction	single-endedforward channel	channel 1reverse channel	N/Adate	2023/12/02time	18:17:30forward acquisition time	300,00reverse acquisition time	0,00gamma	499,1914k internal	0,3200k external	0,3200temperature offset calibration	1,0000default loss term (dB/km)	0,3820temperature slope calibration	1,0000multiplexer offset coefficient	1,0000multiplexer slope coefficient	1,0000fibre end	0,00T internal ref (°C)	13,63T ext. ref 1 (°C)	-1,62T ext. ref 2 (°C)	-1,62length (m)	temperature (°C)	Stokes	anti-Stokes-744,400	-25,913	-0,311	-0,133
-743,385	-200,000	-0,065	0,297
-742,371	533,432	-0,160	-0,277
-741,356	-200,000	0,007	0,373
-740,342	-28,244	-0,352	-0,147
-739,327	-200,000	-0,002	0,420
-738,312	-200,000	-0,073	-0,249
-737,298	-200,000	0,084	0,342
-736,283	800,000	-0,088	-0,208
-735,269	-200,000	0,067	0,258
-734,254	147,569	-0,234	-0,229
-733,239	-41,113	-0,306	0,114
-732,225	140,238	-0,208	-0,200
-731,210	-80,576	0,172	0,041
-730,196	-200,000	-0,009	0,093
-729,181	119,382	-0,115	-0,104
-728,167	800,000	0,021	0,062
-727,152	-200,000	-0,015	0,052
-726,137	-200,000	-0,032	-0,117
-725,123	800,000	-0,068	-0,188
-724,108	-200,000	-0,028	-0,108
-723,094	9,390	-0,117	0,064
-722,079	-61,806	-0,059	-0,018
-721,064	800,000	-0,010	0,021
-720,050	-85,170	-0,042	0,009
-719,035	-200,000	0,006	0,188
-718,021	-200,000	-0,013	-0,139
-717,006	-151,850	-0,244	-0,013
-715,991	17,652	-0,202	-0,117
-714,977	-97,076	0,132	0,025
-713,962	-200,000	0,009	0,100
-712,948	800,000	0,017	0,053
-711,933	-50,553	0,143	0,049
-710,918	-50,950	0,101	-0,034
-709,904	-200,000	-0,016	-0,106
-708,889	407,356	-0,044	-0,067
-707,875	546,614	0,052	-0,091
-706,860	330,285	-0,087	-0,122
-705,845	-173,186	-0,012	0,000
-704,831	-200,000	0,000	-0,066
-703,816	76,448	-0,145	0,111
-702,802	-200,000	0,010	-0,073
-701,787	-132,225	-0,176	-0,016
-700,772	114,073	-0,152	-0,134
-699,758	63,899	0,063	-0,046
-698,743	-45,519	0,023	-0,008
-697,729	261,668	0,065	0,082
-696,714	173,091	0,051	0,054
-695,699	476,090	-0,060	-0,099
-694,685	800,000	-0,062	-0,141
-693,670	-200,000	0,023	-0,160
-692,656	-57,895	-0,331	-0,104
-691,641	-158,395	-0,132	0,005
-690,627	-134,830	0,049	0,004
-689,612	-87,692	0,122	-0,027
-688,597	-200,000	0,010	-0,039
-687,583	770,408	0,055	-0,109
-686,568	-105,125	-0,098	0,016
-685,554	-200,000	-0,011	-0,104
-684,539	800,000	0,042	-0,115
-683,524	60,452	0,156	-0,112
-682,510	325,647	-0,034	-0,048
-681,495	800,000	0,017	-0,035
-680,481	-73,329	-0,244	-0,064
-679,466	186,255	-0,111	-0,120
-678,451	-22,874	0,099	-0,043
-677,437	-49,620	-0,059	-0,020
-676,422	158,833	0,068	0,069
-675,408	91,429	-0,075	0,061
-674,393	-69,704	-0,092	0,025
-673,378	-85,560	-0,050	-0,011
-672,364	-125,905	-0,042	-0,005
-671,349	651,460	-0,032	0,060
-670,335	-200,000	-0,009	0,040
-669,320	30,528	0,044	0,027
-668,305	800,000	-0,041	0,105
-667,291	148,871	-0,025	-0,025
-666,276	-36,019	-0,096	-0,037
-665,262	333,319	-0,115	-0,162
-664,247	-90,576	0,023	-0,005
-663,232	363,853	-0,060	-0,088
-662,218	307,503	-0,051	-0,068
-661,203	67,555	0,028	0,020
-660,189	-163,620	-0,108	0,004
-659,174	-52,933	-0,156	-0,052
-658,159	-89,166	0,151	-0,032
-657,145	40,116	-0,072	-0,047
-656,130	-41,010	0,151	-0,056
-655,116	-79,258	0,106	-0,026
-654,101	201,703	0,027	-0,030
-653,086	-200,000	-0,020	-0,093
-652,072	559,730	0,064	-0,112
-651,057	-176,017	-0,084	-0,002
-650,043	-200,000	0,013	-0,062
-649,028	-112,665	-0,140	0,020
-648,014	169,042	0,057	0,059
-646,999	-68,105	-0,051	-0,014
-645,984	-89,286	-0,139	0,029
-644,970	60,266	-0,050	0,036
-643,955	39,556	-0,105	-0,068
-642,941	-22,810	-0,032	0,014
-641,926	800,000	0,027	-0,074
-640,911	73,372	-0,067	0,051
-639,897	-200,000	-0,047	0,152
-638,882	-200,000	0,028	0,089
-637,868	685,868	0,019	-0,037
-636,853	247,220	-0,095	-0,117
-635,838	50,577	-0,134	-0,091
-634,824	36,285	-0,077	0,049
-633,809	492,433	0,097	0,162
-632,795	40,578	0,088	0,057
-631,780	217,247	0,034	0,039
-630,765	-142,443	-0,110	-0,008
-629,751	767,130	0,025	-0,050
-628,736	12,738	-0,091	-0,051
-627,722	361,309	-0,059	-0,086
-626,707	647,206	0,083	0,155
-625,692	679,165	0,055	0,104
-624,678	-29,702	-0,132	-0,054
-623,663	-200,000	-0,001	0,013
-622,649	363,951	-0,064	-0,093
-621,634	800,000	-0,044	-0,098
-620,619	573,832	-0,072	0,128
-619,605	73,493	0,069	-0,053
-618,590	-83,049	-0,075	0,017
-617,576	-200,000	-0,030	0,134
-616,561	442,504	0,074	0,117
-615,546	-72,852	0,016	0,004
-614,532	800,000	-0,032	-0,092
-613,517	62,104	-0,048	0,034
-612,503	-200,000	-0,011	-0,149
-611,488	-101,506	-0,170	0,030
-610,474	-104,673	0,049	0,008
-609,459	-82,671	0,168	-0,039
-608,444	6,957	-0,066	-0,035
-607,430	800,000	-0,070	-0,153
-606,415	240,855	-0,055	-0,066
-605,401	108,147	-0,069	-0,060
-604,386	149,090	0,051	0,050
-603,371	92,663	-0,103	-0,084
-602,357	196,275	0,025	-0,027
-601,342	555,174	0,024	-0,043
-600,328	16,396	0,080	-0,046
-599,313	-200,000	0,001	-0,060
-598,298	-82,595	-0,102	-0,024
-597,284	193,491	0,124	-0,136
-596,269	800,000	0,037	-0,094
-595,255	-200,000	0,006	-0,038
-594,240	10,485	0,029	-0,016
-593,225	800,000	-0,049	-0,110
-592,211	632,932	-0,008	-0,014
-591,196	429,212	0,006	0,009
-590,182	202,295	0,060	0,067
-589,167	-200,000	0,022	0,084
-588,152	-200,000	0,027	0,093
-587,138	-200,000	-0,035	0,182
-586,123	-10,966	-0,129	0,061
-585,109	800,000	-0,010	0,030
-584,094	-77,862	-0,036	0,009
-583,079	60,794	0,074	0,053
-582,065	444,442	-0,041	-0,065
-581,050	-32,490	-0,069	0,028
-580,036	-89,270	-0,134	-0,028
-579,021	-147,684	-0,116	-0,007
-578,006	94,707	0,063	0,052
-576,992	-63,888	0,094	-0,028
-575,977	284,437	0,058	0,076
-574,963	-200,000	0,034	0,113
-573,948	-163,565	-0,024	0,001
-572,934	563,539	0,042	0,073
-571,919	-32,898	0,029	-0,011
-570,904	306,326	-0,063	-0,085
-569,890	-200,000	-0,006	0,029
-568,875	452,144	0,040	0,064
-567,861	-63,464	-0,075	0,022
-566,846	97,793	0,109	0,090
-565,831	276,683	0,061	-0,079
-564,817	-200,000	0,007	-0,059
-563,802	-200,000	-0,010	-0,139
-562,788	769,530	-0,071	-0,141
-561,773	-200,000	-0,021	-0,098
-560,758	-200,000	0,017	-0,111
-559,744	94,952	0,107	-0,088
-558,729	-200,000	-0,027	-0,126
-557,715	-200,000	-0,021	-0,081
-556,700	39,275	-0,072	0,047
-555,685	-17,766	-0,128	0,058
-554,671	-200,000	-0,013	-0,129
-553,656	-200,000	0,013	0,051
-552,642	800,000	0,053	-0,115
-551,627	321,471	0,025	-0,034
-550,612	389,380	-0,047	-0,071
-549,598	800,000	0,061	-0,130
-548,583	-22,414	-0,061	0,026
-547,569	-200,000	0,005	0,203
-546,554	-200,000	0,030	-0,103
-545,539	757,787	0,035	-0,069
-544,525	800,000	0,021	-0,045
-543,510	33,701	-0,102	-0,064
-542,496	110,214	-0,083	0,072
-541,481	-200,000	0,002	-0,020
-540,466	-102,394	-0,074	0,013
-539,452	-45,451	-0,095	0,034
-538,437	65,002	0,063	0,046
-537,423	35,929	0,085	0,054
-536,408	98,222	-0,074	-0,061
-535,393	-23,852	-0,210	0,091
-534,379	43,454	-0,097	-0,064
-533,364	-200,000	0,002	-0,036
-532,350	-126,071	0,069	0,007
-531,335	-200,000	-0,013	-0,050
-530,321	67,376	-0,082	0,060
-529,306	-24,905	0,057	-0,024
-528,291	-36,274	0,084	0,033
-527,277	-41,045	-0,045	0,017
-526,262	-200,000	-0,038	0,000
-525,248	115,575	-0,022	0,020
-524,233	-133,741	0,200	-0,018
-523,218	-200,000	0,017	-0,104
-522,204	-15,341	-0,230	-0,106
-521,189	-200,000	-0,017	0,089
-520,175	800,000	0,029	-0,077
-519,160	800,000	0,053	0,110
-518,145	-200,000	-0,018	-0,085
-517,131	82,283	-0,072	0,057
-516,116	146,858	0,103	0,100
-515,102	-147,202	0,137	-0,008
-514,087	94,333	-0,064	-0,052
-513,072	-27,190	-0,118	-0,049
-512,058	-135,773	0,083	0,007
-511,043	-53,293	0,153	-0,050
-510,029	64,351	-0,112	0,081
-509,014	324,071	0,083	0,115
-507,999	143,325	-0,071	0,068
-506,985	3,871	-0,080	0,042
-505,970	800,000	0,051	-0,108
-504,956	-200,000	0,013	-0,165
-503,941	-147,240	0,055	0,003
-502,926	2,517	0,018	0,009
-501,912	-5,717	-0,052	0,026
-500,897	800,000	-0,061	0,184
-499,883	800,000	-0,032	-0,094
-498,868	-105,304	-0,237	-0,038
-497,853	-59,220	0,079	-0,024
-496,839	-200,000	0,013	-0,173
-495,824	-200,000	0,003	0,039
-494,810	800,000	0,024	0,065
-493,795	-139,518	-0,080	-0,006
-492,781	106,586	0,053	0,045
-491,766	457,932	-0,037	-0,059
-490,751	800,000	-0,038	-0,086
-489,737	-200,000	0,014	0,067
-488,722	-200,000	-0,009	0,107
-487,708	-47,892	0,184	-0,064
-486,693	570,760	0,076	0,134
-485,678	3,144	0,052	0,027
-484,664	800,000	-0,016	0,049
-483,649	-200,000	0,007	-0,144
-482,635	-74,230	0,119	0,031
-481,620	669,922	0,090	0,168
-480,605	-88,375	0,096	0,020
-479,591	-110,984	-0,135	0,020
-478,576	-28,197	-0,062	-0,026
-477,562	-200,000	-0,004	-0,014
-476,547	-200,000	0,009	-0,129
-475,532	186,643	-0,109	-0,117
-474,518	800,000	0,024	-0,068
-473,503	292,203	0,062	0,081
-472,489	-0,978	-0,076	0,039
-471,474	-153,494	0,043	-0,002
-470,459	-200,000	-0,008	0,067
-469,445	800,000	-0,025	-0,071
-468,430	68,843	-0,124	-0,092
-467,416	800,000	-0,033	-0,093
-466,401	319,229	0,067	0,092
-465,386	800,000	0,031	0,088
-464,372	-23,958	-0,098	0,042
-463,357	13,672	0,047	-0,026
-462,343	800,000	0,013	0,030
-461,328	-200,000	-0,047	0,150
-460,313	125,058	-0,197	-0,178
-459,299	-51,326	0,126	-0,042
-458,284	800,000	0,023	0,069
-457,270	-4,841	0,044	0,022
-456,255	178,115	0,115	-0,121
-455,241	35,591	-0,079	-0,050
-454,226	291,708	0,067	-0,089
-453,211	111,419	-0,043	0,037
-452,197	-170,920	0,186	0,004
-451,182	-83,857	0,116	0,026
-450,168	800,000	0,020	-0,047
-449,153	622,478	0,018	0,033
-448,138	56,191	0,028	-0,020
-447,124	633,799	-0,023	-0,042
-446,109	37,113	0,051	-0,033
-445,095	81,383	0,111	0,087
-444,080	-200,000	-0,006	-0,022
-443,065	800,000	0,059	-0,151
-442,051	242,571	-0,061	0,073
-441,036	-200,000	-0,009	-0,086
-440,022	-200,000	0,037	-0,135
-439,007	48,091	0,031	-0,021
-437,992	-200,000	-0,008	-0,040
-436,978	417,594	0,109	-0,167
-435,963	76,827	-0,048	0,037
-434,949	123,100	-0,055	-0,049
-433,934	-200,000	-0,010	-0,105
-432,919	-193,312	0,083	0,001
-431,905	598,081	-0,073	-0,131
-430,890	570,115	-0,020	0,034
-429,876	-16,804	0,247	0,112
-428,861	597,481	0,032	0,058
-427,846	55,190	-0,051	0,036
-426,832	565,621	-0,083	-0,145
-425,817	-200,000	0,043	-0,137
-424,803	597,228	-0,061	-0,109
-423,788	102,387	-0,168	-0,141
-422,773	-200,000	0,162	0,000
-421,759	-31,642	0,090	-0,036
-420,744	87,744	0,056	-0,045
-419,730	-98,925	-0,122	0,022
-418,715	76,157	-0,038	0,029
-417,701	-68,545	0,164	-0,045
-416,686	-200,000	-0,006	0,023
-415,671	-108,049	-0,128	-0,020
-414,657	-10,854	0,039	0,019
-413,642	-117,219	0,145	-0,019
-412,628	-52,792	0,079	-0,026
-411,613	135,190	0,043	-0,041
-410,598	-200,000	-0,018	-0,066
-409,584	-200,000	-0,220	-0,000
-408,569	-113,089	0,019	0,003
-407,555	-75,592	0,118	0,030
-406,540	-162,488	-0,066	-0,002
-405,525	-49,830	-0,078	0,027
-404,511	-6,197	0,078	-0,038
-403,496	142,372	-0,066	0,063
-402,482	765,104	-0,009	0,017
-401,467	-200,000	-0,009	-0,073
-400,452	-82,180	-0,084	0,019
-399,438	-200,000	0,006	0,044
-398,423	-37,372	0,094	-0,036
-397,409	20,528	-0,160	-0,093
-396,394	-200,000	-0,022	-0,198
-395,379	482,372	0,054	0,089
-394,365	-200,000	-0,004	0,020
-393,350	-166,298	0,104	-0,003
-392,336	-89,184	-0,106	0,022
-391,321	800,000	-0,050	-0,130
-390,306	359,654	-0,119	-0,172
-389,292	60,633	-0,011	-0,008
-388,277	-49,681	-0,101	-0,034
-387,263	-137,990	0,125	0,010
-386,248	-200,000	0,013	0,080
-385,233	247,762	0,037	-0,045
-384,219	-200,000	-0,013	-0,085
-383,204	418,850	-0,056	-0,086
-382,190	-200,000	0,009	-0,033
-381,175	800,000	0,026	0,077
-380,160	132,620	-0,010	-0,009
-379,146	373,933	-0,042	0,061
-378,131	616,982	-0,057	0,103
-377,117	544,318	0,036	-0,062
-376,102	-200,000	0,008	-0,070
-375,088	800,000	0,056	-0,114
-374,073	582,458	-0,051	-0,090
-373,058	160,717	-0,033	-0,033
-372,044	11,519	0,074	0,041
-371,029	800,000	-0,037	0,107
-370,015	391,736	0,017	0,026
-369,000	-156,704	0,090	0,004
-367,985	731,892	-0,052	-0,101
-366,971	-200,000	-0,012	0,066
-365,956	-85,469	0,068	-0,015
-364,942	-200,000	-0,020	0,070
-363,927	-200,000	-0,014	0,203
-362,912	-192,381	0,042	-0,000
-361,898	-153,899	0,037	-0,002
-360,883	365,674	-0,111	-0,161
-359,869	-200,000	0,004	-0,032
-358,854	-200,000	0,003	0,054
-357,839	41,356	0,090	0,058
-356,825	800,000	0,070	0,201
-355,810	473,705	0,035	-0,056
-354,796	287,514	0,105	0,136
-353,781	-87,447	-0,023	0,005
-352,766	299,015	0,036	0,047
-351,752	386,620	0,048	0,072
-350,737	576,951	0,020	0,034
-349,723	-94,963	0,075	-0,014
-348,708	-138,225	0,115	0,009
-347,693	309,890	-0,032	0,043
-346,679	282,570	-0,064	-0,082
-345,664	-72,328	-0,037	-0,010
-344,650	-20,256	-0,034	0,015
-343,635	119,016	0,108	0,096
-342,620	-200,000	-0,006	0,068
-341,606	33,284	-0,009	0,006
-340,591	154,092	-0,079	0,078
-339,577	443,304	0,039	0,061
-338,562	165,721	0,050	-0,051
-337,548	-200,000	0,002	-0,162
-336,533	800,000	0,017	0,043
-335,518	-200,000	0,016	0,227
-334,504	140,087	-0,007	0,006
-333,489	-200,000	-0,044	0,149
-332,475	800,000	-0,033	-0,097
-331,460	-200,000	-0,008	0,143
-330,445	61,447	-0,076	-0,054
-329,431	68,624	0,066	-0,048
-328,416	318,649	-0,103	0,140
-327,402	-200,000	-0,010	0,047
-326,387	800,000	-0,047	-0,112
-325,372	-200,000	0,008	-0,106
-324,358	-200,000	-0,007	-0,033
-323,343	-200,000	0,005	-0,147
-322,329	22,575	-0,048	-0,028
-321,314	800,000	0,019	-0,050
-320,299	-200,000	0,019	0,146
-319,285	-200,000	0,013	0,104
-318,270	420,059	-0,076	-0,117
-317,256	440,758	-0,062	-0,098
-316,241	-178,381	0,069	0,001
-315,226	-200,000	-0,005	0,079
-314,212	-200,000	0,006	0,107
-313,197	120,501	0,075	0,067
-312,183	-200,000	0,016	0,068
-311,168	-52,797	-0,078	-0,026
-310,153	-108,190	-0,033	0,005
-309,139	77,117	-0,034	0,026
-308,124	-200,000	0,012	0,104
-307,110	91,500	0,148	0,119
-306,095	-76,030	0,056	-0,014
-305,080	9,307	0,190	0,102
-304,066	43,121	-0,096	-0,062
-303,051	800,000	-0,023	-0,061
-302,037	800,000	-0,047	-0,121
-301,022	800,000	0,007	0,022
-300,008	51,964	0,157	0,107
-298,993	-101,605	0,041	0,007
-297,978	-200,000	-0,003	-0,032
-296,964	-200,000	0,000	-0,041
-295,949	-46,228	-0,099	0,035
-294,935	251,519	-0,062	0,076
-293,920	-124,821	0,121	0,013
-292,905	153,668	0,045	0,045
-291,891	-43,013	0,158	0,057
-290,876	230,316	0,028	0,032
-289,862	-200,000	0,012	0,096
-288,847	-57,624	-0,087	0,027
-287,832	-200,000	0,011	-0,052
-286,818	219,266	-0,075	-0,086
-285,803	206,641	0,044	-0,049
-284,789	203,816	0,083	0,092
-283,774	-200,000	-0,000	-0,071
-282,759	53,099	0,059	0,040
-281,745	630,688	0,071	0,130
-280,730	68,355	-0,153	-0,112
-279,716	10,989	0,059	-0,032
-278,701	-116,536	0,086	-0,011
-277,686	737,525	0,033	0,063
-276,672	156,921	-0,042	-0,042
-275,657	-200,000	-0,017	-0,087
-274,643	77,264	-0,036	0,027
-273,628	-200,000	-0,022	-0,098
-272,613	180,105	0,055	0,058
-271,599	106,451	0,118	-0,100
-270,584	54,409	0,093	-0,064
-269,570	226,517	-0,068	0,079
-268,555	800,000	-0,046	0,114
-267,540	163,406	-0,012	0,012
-266,526	203,792	-0,046	0,051
-265,511	427,597	-0,040	-0,062
-264,497	-114,542	0,133	-0,018
-263,482	451,787	0,090	0,143
-262,467	-85,444	0,084	0,019
-261,453	-200,000	0,016	-0,129
-260,438	-94,888	0,081	-0,016
-259,424	-127,382	-0,087	-0,009
-258,409	-200,000	0,010	-0,198
-257,395	-40,226	0,113	0,042
-256,380	-120,993	-0,136	-0,016
-255,365	81,205	0,081	0,063
-254,351	-105,983	-0,138	-0,022
-253,336	-64,024	0,065	-0,019
-252,322	-200,000	-0,013	0,114
-251,307	33,878	0,058	0,036
-250,292	-200,000	-0,026	0,090
-249,278	152,879	-0,066	0,064
-248,263	-200,000	-0,000	0,282
-247,249	-39,280	0,037	-0,014
-246,234	264,683	-0,029	0,037
-245,219	-23,892	-0,144	-0,061
-244,205	79,605	-0,038	-0,029
-243,190	-200,000	0,014	0,139
-242,176	800,000	-0,028	0,066
-241,161	-48,486	0,143	0,049
-240,146	79,937	-0,028	0,022
-239,132	-124,750	0,067	0,007
-238,117	-114,248	-0,120	0,016
-237,103	-200,000	0,039	-0,137
-236,088	800,000	-0,056	0,118
-235,073	-200,000	-0,016	0,060
-234,059	301,005	0,036	0,047
-233,044	-200,000	-0,002	-0,038
-232,030	-200,000	-0,010	-0,033
-231,015	461,217	0,046	-0,073
-230,000	-200,000	0,022	-0,156
-228,986	800,000	0,023	0,052
-227,971	800,000	-0,024	-0,060
-226,957	26,806	-0,052	0,031
-225,942	78,657	-0,117	0,089
-224,927	-200,000	-0,002	-0,066
-223,913	137,271	-0,042	0,039
-222,898	164,091	0,029	0,030
-221,884	800,000	-0,037	-0,087
-220,869	52,066	0,141	0,096
-219,855	123,474	0,067	0,060
-218,840	-200,000	0,013	-0,089
-217,825	542,850	0,075	0,127
-216,811	-200,000	0,025	-0,104
-215,796	166,209	0,017	0,017
-214,782	170,864	-0,119	0,121
-213,767	68,380	-0,034	-0,025
-212,752	5,268	0,106	0,056
-211,738	466,684	0,008	0,013
-210,723	74,555	0,090	0,068
-209,709	-121,983	-0,103	0,012
-208,694	800,000	0,060	-0,119
-207,679	494,057	-0,073	-0,120
-206,665	-29,837	0,097	-0,039
-205,650	158,909	0,078	-0,078
-204,636	-200,000	-0,026	0,116
-203,621	-200,000	-0,011	-0,116
-202,606	-133,007	-0,213	0,019
-201,592	-100,588	-0,106	0,019
-200,577	23,469	-0,153	-0,089
-199,563	-200,000	-0,019	0,103
-198,548	-85,521	0,140	-0,031
-197,533	-92,896	0,080	-0,016
-196,519	45,529	-0,108	-0,071
-195,504	244,176	0,042	-0,050
-194,490	34,324	-0,081	0,050
-193,475	-200,000	-0,016	-0,064
-192,460	800,000	0,006	-0,017
-191,446	-200,000	-0,007	0,079
-190,431	173,413	-0,041	0,042
-189,417	-200,000	0,033	0,147
-188,402	-179,224	-0,024	0,000
-187,387	-200,000	-0,023	0,094
-186,373	159,122	-0,062	0,061
-185,358	289,466	0,008	0,010
-184,344	-200,000	-0,002	0,106
-183,329	88,661	0,105	0,083
-182,315	-188,225	0,080	-0,001
-181,300	-200,000	-0,006	-0,021
-180,285	-200,000	0,006	0,056
-179,271	124,972	-0,104	-0,094
-178,256	332,423	-0,035	0,049
-177,242	-200,000	0,041	0,137
-176,227	-143,245	0,169	0,011
-175,212	-200,000	-0,015	0,081
-174,198	-83,247	-0,067	0,015
-173,183	292,261	-0,060	0,078
-172,169	-125,139	0,091	-0,010
-171,154	60,369	-0,055	-0,039
-170,139	220,412	0,070	0,080
-169,125	-51,900	0,135	-0,044
-168,110	249,478	-0,028	-0,034
-167,096	-25,686	0,115	0,048
-166,081	-121,742	0,057	0,007
-165,066	-200,000	-0,021	0,074
-164,052	222,981	0,037	-0,042
-163,037	-200,000	0,014	0,070
-162,023	75,059	0,100	0,075
-161,008	-53,364	0,062	0,020
-159,993	85,572	-0,082	-0,064
-158,979	-46,939	-0,088	-0,030
-157,964	482,343	-0,058	-0,095
-156,950	-126,481	-0,032	-0,003
-155,935	186,969	0,093	0,098
-154,920	71,590	0,104	0,076
-153,906	618,346	-0,015	0,027
-152,891	183,469	-0,068	0,071
-151,877	-200,000	-0,005	0,119
-150,862	-200,000	-0,001	0,087
-149,847	-3,861	-0,071	0,035
-148,833	-200,000	0,028	-0,096
-147,818	80,502	0,046	0,035
-146,804	788,536	0,079	0,155
-145,789	-200,000	-0,009	0,035
-144,775	142,900	0,094	-0,089
-143,760	26,996	-0,079	-0,047
-142,745	-200,000	-0,028	0,110
-141,731	-200,000	0,007	-0,196
-140,716	-200,000	0,006	0,107
-139,702	-121,869	-0,134	-0,015
-138,687	372,118	-0,071	0,103
-137,672	467,825	-0,123	0,196
-136,658	-58,478	0,051	0,016
-135,643	-51,779	0,072	0,024
-134,629	-200,000	-0,002	-0,046
-133,614	-73,902	0,172	-0,044
-132,599	-190,642	-0,121	-0,001
-131,585	-26,877	0,095	0,039
-130,570	33,034	0,041	-0,025
-129,556	482,932	-0,036	-0,058
-128,541	-39,128	-0,048	-0,018
-127,526	-37,767	0,124	0,047
-126,512	-105,322	0,141	0,023
-125,497	800,000	0,021	0,060
-124,483	800,000	0,031	0,078
-123,468	-46,917	-0,062	0,022
-122,453	113,811	-0,061	-0,053
-121,439	-200,000	-0,019	-0,067
-120,424	-24,644	-0,019	-0,008
-119,410	353,666	-0,091	-0,129
-118,395	490,398	0,009	-0,015
-117,380	-146,669	-0,070	0,004
-116,366	-84,490	-0,083	-0,018
-115,351	-53,790	0,069	0,022
-114,337	-51,191	-0,246	-0,081
-113,322	-12,319	-0,049	0,023
-112,307	167,783	0,090	0,091
-111,293	146,023	0,022	-0,021
-110,278	-200,000	0,006	0,116
-109,264	476,103	0,080	0,128
-108,249	627,150	-0,022	0,039
-107,234	800,000	0,016	-0,037
-106,220	33,781	-0,071	-0,043
-105,205	800,000	0,043	0,134
-104,191	800,000	0,017	0,041
-103,176	800,000	0,078	0,189
-102,162	507,382	0,091	0,151
-101,147	52,955	0,084	0,057
-100,132	-140,852	-0,090	-0,007
-99,118	41,738	0,062	0,040
-98,103	564,540	-0,058	-0,100
-97,089	800,000	-0,020	0,039
-96,074	251,476	-0,079	0,095
-95,059	425,715	0,032	0,049
-94,045	-200,000	-0,001	-0,054
-93,030	-126,746	-0,064	0,007
-92,016	-173,076	-0,123	-0,003
-91,001	18,459	0,056	0,032
-89,986	800,000	0,099	0,250
-88,972	-113,573	-0,037	0,005
-87,957	55,633	0,076	0,052
-86,943	8,317	0,010	0,005
-85,928	-200,000	0,019	-0,084
-84,913	-9,434	-0,030	0,014
-83,899	-200,000	-0,005	0,035
-82,884	-158,388	0,124	-0,005
-81,870	-200,000	-0,006	0,019
-80,855	5,363	-0,028	0,015
-79,840	124,048	0,023	0,021
-78,826	300,441	0,029	0,038
-77,811	-200,000	-0,022	0,118
-76,797	33,636	-0,083	0,051
-75,782	34,634	0,028	0,017
-74,767	800,000	-0,043	0,090
-73,753	-200,000	-0,005	-0,058
-72,738	-200,000	-0,001	-0,068
-71,724	398,758	0,055	-0,082
-70,709	-65,966	-0,124	-0,035
-69,694	-200,000	-0,017	-0,067
-68,680	-46,418	0,131	-0,045
-67,665	-107,855	0,109	0,017
-66,651	-200,000	0,018	0,142
-65,636	202,054	0,052	-0,057
-64,622	67,138	0,079	0,057
-63,607	278,559	0,075	-0,095
-62,592	161,579	0,105	-0,104
-61,578	100,279	0,089	-0,073
-60,563	134,779	0,106	0,098
-59,549	-88,890	0,090	0,019
-58,534	-24,928	-1,639	-0,686
-57,519	317,280	-1,475	-1,981
-56,505	-200,000	-0,521	-4,383
-55,490	162,143	0,987	0,981
-54,476	800,000	4,961	11,388
-53,461	-200,000	18,940	316,918
-52,446	-200,000	739,360	2333,226
-51,432	576,256	1655,567	2876,173
-50,417	78,913	1671,178	1265,664
-49,403	21,625	1544,205	887,788
-48,388	15,489	1466,321	813,169
-47,373	17,876	1456,708	819,348
-46,359	16,839	1446,380	808,529
-45,344	13,799	1441,687	791,313
-44,330	13,709	1440,072	789,963
-43,315	13,717	1437,998	788,830
-42,300	13,729	1436,369	787,964
-41,286	13,700	1435,209	787,157
-40,271	13,692	1434,102	786,482
-39,257	13,664	1432,786	785,595
-38,242	13,707	1431,421	785,018
-37,227	13,732	1430,249	784,464
-36,213	13,773	1428,768	783,817
-35,198	13,734	1427,823	783,081
-34,184	13,785	1426,796	782,730
-33,169	13,708	1425,457	781,598
-32,154	13,768	1424,362	781,253
-31,140	13,784	1422,968	780,531
-30,125	13,732	1422,155	779,808
-29,111	13,751	1420,883	779,172
-28,096	13,671	1419,808	778,173
-27,082	13,709	1418,655	777,690
-26,067	13,705	1417,419	776,959
-25,052	13,713	1416,345	776,377
-24,038	13,636	1415,496	775,520
-23,023	13,626	1414,679	774,996
-22,009	13,643	1413,336	774,306
-20,994	13,612	1412,700	773,785
-19,979	13,645	1411,608	773,309
-18,965	13,598	1410,693	772,557
-17,950	13,588	1409,939	772,067
-16,936	13,585	1408,935	771,473
-15,921	13,561	1407,885	770,754
-14,906	13,524	1407,105	770,124
-13,892	13,531	1406,060	769,552
-12,877	13,589	1405,070	769,251
-11,863	13,572	1404,150	768,640
-10,848	13,545	1403,238	767,985
-9,833	13,503	1402,531	767,369
-8,819	13,466	1401,614	766,665
-7,804	13,463	1400,811	766,180
-6,790	13,526	1399,550	765,755
-5,775	13,462	1398,565	764,889
-4,760	13,470	1397,646	764,394
-3,746	13,465	1396,672	763,807
-2,731	13,481	1395,901	763,430
-1,717	13,475	1394,976	762,864
-0,702	13,452	1393,293	761,808
0,313	17,215	1310,723	734,128
1,327	33,345	705,025	432,236
2,342	50,827	123,780	82,851
3,356	4,628	16,571	8,583
4,371	11,549	3,289	1,779
5,386	-17,918	0,487	0,215
6,400	-200,000	0,000	0,244
7,415	-63,739	-0,245	-0,071
8,429	133,455	-0,367	-0,336
9,444	170,019	-0,321	-0,325
10,459	15,906	-0,301	-0,167
11,473	87,308	-0,344	-0,269
12,488	140,624	-0,147	-0,138
13,502	-61,453	-0,362	-0,107
14,517	64,989	-0,325	-0,232
15,531	78,441	-0,345	-0,261
16,546	171,639	-0,245	-0,249
17,561	720,863	-0,156	-0,295
18,575	-24,534	-0,222	-0,093
19,590	41,393	-0,369	-0,235
20,604	-4,076	-0,278	-0,136
21,619	124,890	-0,448	-0,399
22,634	235,975	-0,338	-0,396
23,648	155,202	-0,298	-0,290
24,663	48,625	-0,394	-0,260
25,677	251,688	-0,279	-0,336
26,692	134,226	-0,203	-0,186
27,707	239,175	-0,283	-0,333
28,721	175,067	-0,310	-0,317
29,736	438,110	-0,242	-0,374
30,750	-49,892	-0,456	-0,152
31,765	150,669	-0,339	-0,326
32,780	80,942	-0,354	-0,269
33,794	240,182	-0,224	-0,264
34,809	-61,854	-0,368	-0,108
35,823	122,740	-0,397	-0,351
36,838	3,184	-0,454	-0,232
37,853	412,484	-0,209	-0,314
38,867	-6,616	-0,501	-0,240
39,882	113,264	-0,289	-0,247
40,896	59,737	-0,357	-0,248
41,911	25,033	-0,442	-0,258
42,926	144,906	-0,332	-0,314
43,940	119,918	-0,278	-0,243
44,955	151,449	-0,275	-0,264
45,969	106,002	-0,356	-0,297
46,984	54,759	-0,379	-0,257
47,999	34,002	-0,335	-0,205
49,013	128,582	-0,243	-0,218
50,028	73,520	-0,232	-0,171
51,042	13,739	-0,352	-0,192
52,057	14,830	-0,332	-0,183
53,071	18,818	-0,403	-0,227
54,086	-31,272	-0,404	-0,160
55,101	143,385	-0,287	-0,270
56,115	93,296	-0,382	-0,304
57,130	71,917	-0,345	-0,253
58,144	26,086	-0,416	-0,244
59,159	79,503	-0,485	-0,366
60,174	80,089	-0,376	-0,284
61,188	85,488	-0,387	-0,299
62,203	105,993	-0,314	-0,262
63,217	800,000	-0,098	-0,292
64,232	35,691	-0,376	-0,232
65,247	161,254	-0,338	-0,333
66,261	59,255	-0,490	-0,339
67,276	35,119	-0,337	-0,207
68,290	67,388	-0,372	-0,267
69,305	36,864	-0,242	-0,150
70,320	80,349	-0,296	-0,224
71,334	39,329	-0,308	-0,194
72,349	99,901	-0,326	-0,265
73,363	114,769	-0,333	-0,285
74,378	50,249	-0,315	-0,209
75,393	90,686	-0,189	-0,149
76,407	70,986	-0,354	-0,257
77,422	34,383	-0,237	-0,145
78,436	42,883	-0,270	-0,173
79,451	78,039	-0,283	-0,212
80,466	69,886	-0,282	-0,204
81,480	112,479	-0,343	-0,292
82,495	120,465	-0,294	-0,256
83,509	222,663	-0,258	-0,292
84,524	-17,346	-0,307	-0,135
85,539	-29,431	-0,274	-0,109
86,553	135,371	-0,243	-0,222
87,568	30,515	-0,326	-0,195
88,582	67,885	-0,385	-0,276
89,597	30,722	-0,341	-0,204
90,611	215,431	-0,145	-0,162
91,626	217,696	-0,128	-0,144
92,641	25,566	-0,273	-0,159
93,655	159,179	-0,254	-0,249
94,670	160,346	-0,182	-0,178
95,684	69,944	-0,382	-0,276
96,699	90,605	-0,245	-0,192
97,714	137,312	-0,187	-0,172
98,728	-7,577	-0,288	-0,136
99,743	29,937	-0,256	-0,153
100,757	-4,032	-0,363	-0,176
101,772	83,231	-0,272	-0,208
102,787	121,847	-0,199	-0,174
103,801	18,770	-0,315	-0,177
104,816	800,000	-0,161	-0,348
105,830	281,548	-0,179	-0,225
106,845	-89,120	-0,186	-0,038
107,860	16,429	-0,289	-0,160
108,874	25,496	-0,337	-0,196
109,889	77,038	-0,305	-0,227
110,903	-73,315	-0,296	-0,075
111,918	-24,407	-0,283	-0,118
112,933	192,645	-0,156	-0,165
113,947	67,478	-0,202	-0,144
114,962	-75,794	-0,290	-0,072
115,976	21,749	-0,226	-0,129
116,991	29,922	-0,294	-0,175
118,006	79,219	-0,304	-0,228
119,020	253,738	-0,231	-0,277
120,035	80,477	-0,187	-0,141
121,049	-69,847	-0,266	-0,071
122,064	87,166	-0,205	-0,158
123,079	-59,623	-0,348	-0,104
124,093	264,128	-0,236	-0,288
125,108	178,895	-0,175	-0,179
126,122	432,317	-0,198	-0,301
127,137	160,771	-0,168	-0,164
128,151	-102,275	-0,264	-0,044
129,166	-125,371	-0,169	0,018
130,181	270,171	-0,125	-0,154
131,195	192,998	-0,278	-0,294
132,210	108,516	-0,267	-0,223
133,224	71,942	-0,142	-0,104
134,239	229,023	-0,135	-0,155
135,254	41,109	-0,262	-0,166
136,268	35,814	-0,268	-0,164
137,283	-39,450	-0,295	-0,108
138,297	-26,605	-0,218	-0,089
139,312	-33,361	-0,271	-0,104
140,327	35,926	-0,255	-0,156
141,341	415,674	-0,160	-0,240
142,356	-22,588	-0,280	-0,118
143,370	-157,447	-0,151	0,006
144,385	268,818	-0,212	-0,261
145,400	122,450	-0,238	-0,208
146,414	359,483	-0,197	-0,276
147,429	184,059	-0,233	-0,241
148,443	184,923	-0,150	-0,156
149,458	153,825	-0,192	-0,183
150,473	-40,572	-0,201	-0,073
151,487	57,904	-0,249	-0,170
152,502	-55,539	-0,225	-0,070
153,516	180,204	-0,401	-0,411
154,531	107,896	-0,260	-0,216
155,546	343,284	-0,101	-0,138
156,560	-17,924	-0,198	-0,086
157,575	220,012	-0,205	-0,229
158,589	379,026	-0,148	-0,212
159,604	-50,734	-0,281	-0,092
160,619	-38,183	-0,283	-0,104
161,633	-74,329	-0,341	-0,085
162,648	51,609	-0,267	-0,177
163,662	672,224	-0,122	-0,222
164,677	120,414	-0,238	-0,206
165,692	101,196	-0,155	-0,126
166,706	60,159	-0,102	-0,070
167,721	-56,480	-0,253	-0,078
168,735	33,632	-0,283	-0,171
169,750	77,413	-0,255	-0,189
170,764	-44,751	-0,282	-0,098
171,779	30,172	-0,190	-0,113
172,794	64,371	-0,204	-0,143
173,808	-31,645	-0,205	-0,080
174,823	703,203	-0,153	-0,283
175,837	46,458	-0,467	-0,302
176,852	109,916	-0,189	-0,158
177,867	-200,000	0,016	-0,215
178,881	28,127	-0,217	-0,127
179,896	8,523	-0,247	-0,129
180,910	-28,590	-0,289	-0,115
181,925	-40,461	-0,247	-0,089
182,940	-159,337	-0,286	-0,011
183,954	-41,534	-0,174	-0,062
184,969	116,486	-0,200	-0,171
185,983	142,314	-0,196	-0,181
186,998	-29,771	-0,254	-0,100
188,013	-190,015	-0,247	-0,002
189,027	479,900	-0,104	-0,165
190,042	97,433	-0,312	-0,250
191,056	298,757	-0,130	-0,167
192,071	800,000	-0,098	-0,197
193,086	800,000	-0,062	-0,157
194,100	-156,481	-0,168	-0,007
195,115	-67,255	-0,234	-0,064
196,129	-78,661	-0,283	-0,067
197,144	27,860	-0,279	-0,163
198,159	172,178	-0,189	-0,190
199,173	776,424	-0,175	-0,334
200,188	471,139	-0,087	-0,136
201,202	-44,810	-0,188	0,065
202,217	63,454	-0,195	-0,136
203,232	209,575	-0,295	-0,322
204,246	70,213	-0,236	-0,170
205,261	176,419	-0,310	-0,313
206,275	-1,842	-0,246	-0,120
207,290	742,242	-0,129	-0,243
208,304	17,723	-0,148	-0,082
209,319	249,783	-0,085	-0,100
210,334	124,052	-0,228	-0,199
211,348	94,041	-0,290	-0,228
212,363	131,361	-0,205	-0,183
213,377	102,156	-0,186	-0,151
214,392	101,499	-0,216	-0,175
215,407	76,915	-0,176	-0,130
216,421	-9,122	-0,210	-0,097
217,436	52,512	-0,281	-0,186
218,450	337,740	-0,111	-0,150
219,465	38,740	-0,181	-0,112
220,480	19,465	-0,174	-0,097
221,494	128,753	-0,147	-0,130
222,509	-33,952	-0,115	-0,044
223,523	108,944	-0,104	-0,086
224,538	172,961	-0,189	-0,190
225,553	89,583	-0,310	-0,240
226,567	65,321	-0,170	-0,119
227,582	408,739	-0,067	-0,099
228,596	-26,705	-0,296	-0,120
229,611	-42,687	-0,181	-0,063
230,626	28,877	-0,227	-0,133
231,640	328,928	-0,041	-0,055
232,655	163,718	-0,138	-0,135
233,669	45,975	-0,257	-0,165
234,684	680,359	-0,110	-0,200
235,699	-193,393	-0,176	-0,001
236,713	-8,932	-0,129	0,060
237,728	800,000	-0,065	-0,172
238,742	-131,866	-0,262	-0,023
239,757	-54,699	-0,222	-0,069
240,772	-200,000	-0,032	-0,134
241,786	184,120	-0,143	-0,147
242,801	-59,941	-0,241	-0,071
243,815	-26,550	-0,210	-0,085
244,830	-25,925	-0,214	-0,087
245,844	36,223	-0,118	-0,072
246,859	800,000	-0,052	-0,154
247,874	167,911	-0,240	-0,236
248,888	264,926	-0,171	-0,207
249,903	-16,231	-0,329	-0,144
250,917	-147,807	-0,147	-0,008
251,932	149,738	-0,080	-0,075
252,947	261,319	-0,116	-0,139
253,961	87,537	-0,171	-0,131
254,976	76,446	-0,195	-0,143
255,990	360,761	-0,145	-0,202
257,005	4,176	-0,177	-0,089
258,020	-200,000	-0,028	-0,127
259,034	397,957	-0,081	-0,117
260,049	17,821	-0,205	-0,113
261,063	-25,667	-0,238	-0,097
262,078	386,916	-0,142	-0,204
263,093	246,506	-0,204	-0,239
264,107	145,022	-0,187	-0,173
265,122	321,745	-0,199	-0,262
266,136	-200,000	-0,049	-0,260
267,151	-26,205	-0,182	0,074
268,166	-41,339	-0,167	-0,059
269,180	-39,758	-0,308	-0,111
270,195	489,711	-0,199	-0,316
271,209	-104,171	-0,086	-0,014
272,224	21,023	-0,079	-0,044
273,239	-79,999	-0,131	-0,030
274,253	-160,264	-0,196	0,007
275,268	-82,235	-0,202	0,045
276,282	403,473	-0,142	-0,208
277,297	-200,000	-0,058	-0,269
278,312	-6,977	-0,223	-0,104
279,326	800,000	-0,098	-0,192
280,341	-21,699	-0,231	-0,097
281,355	-113,618	-0,172	0,023
282,370	-51,421	-0,276	-0,089
283,384	44,593	-0,210	-0,133
284,399	776,505	-0,122	-0,232
285,414	800,000	-0,079	-0,201
286,428	74,410	-0,099	-0,072
287,443	-109,446	-0,191	-0,028
288,457	71,337	-0,174	-0,124
289,472	19,255	-0,194	-0,107
290,487	231,068	-0,124	-0,140
291,501	-57,256	-0,185	-0,056
292,516	57,959	-0,251	-0,169
293,530	172,008	-0,156	-0,155
294,545	22,145	-0,190	-0,107
295,560	-118,195	-0,239	-0,029
296,574	-200,000	-0,016	-0,119
297,589	5,040	-0,181	-0,091
298,603	25,210	-0,161	-0,092
299,618	153,345	-0,180	-0,170
300,633	-200,000	0,012	-0,080
301,647	241,470	-0,068	0,078
302,662	154,015	-0,150	-0,142
303,676	-200,000	-0,026	-0,086
304,691	800,000	-0,039	-0,114
305,706	-200,000	-0,046	-0,205
306,720	31,289	-0,124	-0,073
307,735	18,137	-0,052	-0,029
308,749	-68,821	-0,131	-0,035
309,764	-200,000	0,010	-0,069
310,779	-104,750	-0,192	-0,030
311,793	523,248	-0,102	-0,166
312,808	253,420	-0,113	-0,133
313,822	800,000	-0,083	-0,193
314,837	252,497	-0,090	-0,106
315,852	81,117	-0,099	0,074
316,866	188,298	-0,153	-0,158
317,881	31,710	-0,133	-0,079
318,895	-29,546	-0,133	-0,052
319,910	199,375	-0,171	-0,181
320,925	110,537	-0,121	-0,100
321,939	-172,787	-0,207	-0,004
322,954	241,664	-0,137	-0,158
323,968	238,083	-0,057	-0,065
324,983	-200,000	-0,004	-0,163
325,997	136,149	-0,126	-0,113
327,012	157,215	-0,075	-0,072
328,027	39,321	-0,171	-0,105
329,041	-52,929	-0,129	-0,040
330,056	355,596	-0,088	-0,121
331,070	-31,433	-0,129	-0,050
332,085	150,770	-0,179	-0,167
333,100	61,796	-0,140	-0,096
334,114	22,890	-0,180	0,101
335,129	-76,449	-0,235	-0,056
336,143	-72,227	-0,208	-0,053
337,158	72,320	-0,146	-0,104
338,173	-19,696	-0,166	-0,070
339,187	155,945	-0,128	-0,121
340,202	-188,512	-0,139	0,001
341,216	-20,251	-0,202	-0,085
342,231	-200,000	-0,047	-0,176
343,246	623,501	-0,113	-0,197
344,260	249,484	-0,142	-0,165
345,275	159,793	0,054	-0,051
346,289	105,090	-0,177	-0,144
347,304	394,818	-0,048	-0,069
348,319	-96,761	-0,164	-0,029
349,333	489,645	-0,109	-0,172
350,348	156,810	-0,170	-0,161
351,362	800,000	-0,071	-0,153
352,377	-73,169	-0,177	-0,044
353,392	-122,861	-0,111	-0,012
354,406	383,733	-0,139	-0,197
355,421	210,247	1313,565	1416,761
356,435	161,849	1474,152	1417,263
