DTS Sentinel unit serial number:	SN410029Multiplexer serial number:	ORYXHardware model number:	OX2-SRSoftware version number:	ORYX F/W v4,00 Oryx Data Collector v3.7.2.0data status	okinstallation	B3 Nyhavnadifferential loss correction	single-endedforward channel	channel 1reverse channel	N/Adate	2023/12/05time	02:27:30forward acquisition time	300,00reverse acquisition time	0,00gamma	499,1914k internal	0,3201k external	0,3201temperature offset calibration	1,0000default loss term (dB/km)	0,3820temperature slope calibration	1,0000multiplexer offset coefficient	1,0000multiplexer slope coefficient	1,0000fibre end	0,00T internal ref (°C)	13,94T ext. ref 1 (°C)	-0,64T ext. ref 2 (°C)	-0,65length (m)	temperature (°C)	Stokes	anti-Stokes-744,400	-39,643	-0,151	-0,057
-743,385	800,000	0,167	0,362
-742,371	92,546	-0,284	-0,233
-741,356	703,930	-0,198	0,381
-740,342	174,902	-0,102	-0,108
-739,327	800,000	-0,160	0,452
-738,312	-200,000	-0,047	-0,166
-737,298	-200,000	-0,043	0,198
-736,283	143,004	-0,196	-0,189
-735,269	-200,000	-0,029	0,326
-734,254	-72,701	-0,193	0,051
-733,239	800,000	-0,100	0,221
-732,225	369,207	-0,168	-0,248
-731,210	141,963	0,063	0,061
-730,196	321,524	0,007	0,010
-729,181	-200,000	0,031	-0,122
-728,167	800,000	-0,091	-0,187
-727,152	151,467	-0,098	0,097
-726,137	75,051	-0,161	0,123
-725,123	718,124	0,039	0,075
-724,108	-80,589	-0,106	-0,026
-723,094	430,195	-0,117	-0,184
-722,079	-200,000	-0,006	-0,042
-721,064	1,232	-0,095	-0,049
-720,050	-200,000	-0,020	0,068
-719,035	436,769	-0,097	-0,153
-718,021	79,046	0,061	-0,048
-717,006	-200,000	-0,021	-0,097
-715,991	800,000	-0,097	-0,225
-714,977	-95,246	-0,203	-0,039
-713,962	89,067	0,072	-0,058
-712,948	-79,315	0,060	0,015
-711,933	800,000	-0,037	0,117
-710,918	-88,661	0,064	-0,014
-709,904	-83,886	-0,036	-0,008
-708,889	196,594	-0,021	-0,023
-707,875	131,404	-0,055	0,052
-706,860	-69,896	-0,055	-0,015
-705,845	80,726	-0,077	-0,060
-704,831	800,000	0,016	0,045
-703,816	21,593	-0,058	-0,034
-702,802	25,189	-0,131	-0,079
-701,787	-200,000	-0,001	0,079
-700,772	295,707	-0,088	-0,117
-699,758	-142,693	-0,070	-0,005
-698,743	100,428	-0,015	-0,012
-697,729	-200,000	0,056	0,187
-696,714	-90,282	-0,144	-0,030
-695,699	164,355	0,045	0,046
-694,685	59,956	-0,033	0,024
-693,670	800,000	0,064	0,199
-692,656	-200,000	-0,007	0,044
-691,641	218,745	0,011	0,012
-690,627	234,640	0,057	-0,069
-689,612	-37,832	-0,087	0,034
-688,597	800,000	0,020	-0,056
-687,583	-48,202	-0,076	-0,027
-686,568	-124,459	-0,086	-0,010
-685,554	-121,164	0,127	0,015
-684,539	419,023	0,042	-0,065
-683,524	43,854	0,051	-0,034
-682,510	800,000	0,002	0,004
-681,495	-130,705	-0,120	-0,012
-680,481	-41,190	-0,111	0,041
-679,466	35,846	0,059	-0,037
-678,451	482,539	-0,091	-0,151
-677,437	528,545	0,094	-0,161
-676,422	93,077	0,064	0,053
-675,408	163,679	0,101	0,103
-674,393	17,153	-0,048	-0,028
-673,378	-200,000	-0,008	0,081
-672,364	162,030	-0,075	-0,076
-671,349	72,024	-0,055	-0,042
-670,335	-200,000	0,003	0,021
-669,320	150,485	-0,045	-0,045
-668,305	-200,000	0,023	0,123
-667,291	513,657	0,017	0,028
-666,276	-34,437	-0,219	-0,087
-665,262	-200,000	0,022	-0,071
-664,247	-109,103	0,096	0,015
-663,232	-165,224	-0,091	-0,003
-662,218	53,061	-0,087	0,061
-661,203	1,477	-0,045	-0,023
-660,189	-42,467	0,170	-0,062
-659,174	-200,000	-0,006	-0,092
-658,159	-200,000	-0,008	-0,070
-657,145	177,924	-0,107	-0,114
-656,130	53,453	-0,074	-0,051
-655,116	77,663	-0,043	-0,034
-654,101	-52,098	-0,118	0,039
-653,086	502,648	0,037	0,062
-652,072	167,236	-0,035	-0,036
-651,057	-139,044	-0,112	0,009
-650,043	254,264	0,073	-0,090
-649,028	212,616	-0,014	0,016
-648,014	-22,367	-0,040	0,017
-646,999	-200,000	-0,039	-0,159
-645,984	-43,462	0,097	0,035
-644,970	-200,000	0,016	-0,097
-643,955	-75,162	-0,042	-0,011
-642,941	-200,000	0,009	-0,085
-641,926	800,000	-0,071	0,181
-640,911	107,038	0,062	0,053
-639,897	172,943	0,084	-0,088
-638,882	-200,000	0,022	0,093
-637,868	800,000	0,050	0,121
-636,853	20,664	-0,045	0,026
-635,838	800,000	-0,022	-0,058
-634,824	234,160	0,064	-0,076
-633,809	-200,000	-0,014	-0,050
-632,795	800,000	0,067	0,143
-631,780	-119,500	0,164	0,020
-630,765	5,959	-0,095	0,051
-629,751	800,000	-0,058	-0,154
-628,736	436,370	-0,015	-0,024
-627,722	-200,000	-0,016	-0,062
-626,707	800,000	-0,008	-0,020
-625,692	188,167	0,058	-0,063
-624,678	45,846	0,161	0,107
-623,663	24,726	0,077	-0,046
-622,649	25,897	-0,151	-0,091
-621,634	-200,000	-0,003	-0,116
-620,619	143,790	-0,044	-0,042
-619,605	800,000	-0,044	0,116
-618,590	466,581	0,088	0,143
-617,576	588,090	-0,035	0,062
-616,561	-154,520	-0,026	-0,001
-615,546	-200,000	-0,047	-0,187
-614,532	-89,527	-0,107	0,023
-613,517	-200,000	0,002	-0,107
-612,503	-200,000	0,008	0,032
-611,488	-200,000	0,013	-0,096
-610,474	-123,426	-0,055	0,006
-609,459	-15,282	0,084	-0,039
-608,444	800,000	0,049	-0,109
-607,430	132,462	-0,030	0,028
-606,415	-200,000	-0,024	-0,092
-605,401	-121,029	0,014	-0,002
-604,386	4,954	0,054	-0,028
-603,371	-62,316	0,068	-0,020
-602,357	-16,862	0,027	-0,012
-601,342	-159,050	-0,087	0,003
-600,328	800,000	-0,056	-0,156
-599,313	800,000	-0,043	-0,106
-598,298	275,576	0,072	-0,093
-597,284	-200,000	-0,006	-0,025
-596,269	800,000	-0,061	0,154
-595,255	-14,348	0,129	0,060
-594,240	800,000	-0,019	0,045
-593,225	7,935	-0,058	-0,031
-592,211	-138,315	-0,100	0,008
-591,196	464,447	0,045	-0,073
-590,182	112,595	0,018	0,016
-589,167	-200,000	-0,029	0,116
-588,152	-200,000	0,008	0,123
-587,138	800,000	-0,010	0,029
-586,123	-137,792	0,068	-0,005
-585,109	42,235	-0,125	-0,082
-584,094	-58,577	0,125	-0,039
-583,079	-2,660	0,086	-0,043
-582,065	383,124	-0,017	-0,025
-581,050	-200,000	0,040	0,162
-580,036	403,009	0,053	0,081
-579,021	556,858	0,005	-0,009
-578,006	-85,791	-0,070	-0,015
-576,992	-133,213	0,072	-0,006
-575,977	-200,000	0,003	0,056
-574,963	-88,208	-0,107	0,023
-573,948	-200,000	-0,001	0,051
-572,934	-97,456	-0,175	-0,033
-571,919	-200,000	-0,003	0,124
-570,904	-14,720	-0,068	-0,031
-569,890	-200,000	-0,007	0,066
-568,875	-112,870	-0,087	0,012
-567,861	800,000	0,022	0,057
-566,846	330,927	0,028	-0,039
-565,831	-200,000	0,020	-0,095
-564,817	658,887	-0,024	-0,044
-563,802	-200,000	0,036	-0,116
-562,788	144,622	0,012	0,011
-561,773	-200,000	0,014	-0,143
-560,758	-200,000	-0,020	-0,094
-559,744	606,632	0,036	-0,065
-558,729	58,039	-0,011	-0,008
-557,715	54,555	-0,115	0,080
-556,700	58,425	-0,071	0,051
-555,685	-3,993	0,031	-0,015
-554,671	-200,000	0,039	0,163
-553,656	130,323	-0,038	-0,035
-552,642	651,585	-0,032	0,059
-551,627	-0,136	0,106	0,054
-550,612	243,588	-0,073	-0,088
-549,598	-200,000	-0,006	-0,076
-548,583	800,000	0,024	-0,075
-547,569	-95,956	-0,071	-0,014
-546,554	-71,414	0,069	0,019
-545,539	-200,000	0,040	0,142
-544,525	-200,000	0,001	0,137
-543,510	-153,181	0,036	0,002
-542,496	484,638	-0,044	-0,072
-541,481	-30,603	0,028	0,011
-540,466	152,324	0,043	0,042
-539,452	-200,000	-0,002	-0,044
-538,437	53,262	0,047	0,032
-537,423	565,273	-0,007	0,013
-536,408	-16,591	0,049	0,022
-535,393	-200,000	-0,001	0,053
-534,379	167,370	-0,119	0,122
-533,364	84,810	0,048	-0,038
-532,350	-100,258	0,134	-0,024
-531,335	-200,000	-0,005	0,080
-530,321	-200,000	-0,001	0,138
-529,306	293,203	-0,090	-0,118
-528,291	452,355	-0,063	-0,100
-527,277	-200,000	0,012	-0,106
-526,262	19,187	0,063	-0,036
-525,248	64,322	-0,125	-0,090
-524,233	6,475	0,055	0,029
-523,218	15,787	0,181	0,103
-522,204	219,681	-0,007	0,008
-521,189	58,761	-0,060	-0,043
-520,175	729,019	-0,043	-0,084
-519,160	-88,124	0,046	0,010
-518,145	-200,000	-0,003	0,026
-517,131	800,000	0,042	0,086
-516,116	-200,000	0,029	0,139
-515,102	-139,005	0,069	0,005
-514,087	800,000	-0,040	-0,101
-513,072	-110,882	-0,064	0,009
-512,058	68,359	-0,031	-0,023
-511,043	-200,000	-0,006	0,021
-510,029	-78,760	0,086	0,021
-509,014	414,622	-0,116	0,179
-507,999	376,319	0,071	0,105
-506,985	72,700	0,080	0,060
-505,970	9,250	-0,125	0,068
-504,956	0,671	-0,056	-0,029
-503,941	162,803	0,046	0,047
-502,926	-94,457	0,096	0,019
-501,912	553,225	-0,049	0,086
-500,897	375,708	0,067	0,098
-499,883	-20,704	-0,048	-0,021
-498,868	-140,480	-0,100	-0,007
-497,853	225,283	0,092	-0,107
-496,839	-200,000	0,008	-0,146
-495,824	10,014	0,175	0,095
-494,810	800,000	-0,054	0,143
-493,795	-200,000	-0,013	0,044
-492,781	155,193	0,075	0,074
-491,766	-200,000	-0,028	-0,104
-490,751	-28,920	0,108	-0,045
-489,737	30,017	-0,072	0,044
-488,722	-200,000	-0,019	0,110
-487,708	160,417	-0,056	-0,056
-486,693	282,646	-0,042	0,055
-485,678	-44,887	0,060	-0,021
-484,664	114,718	0,076	-0,067
-483,649	227,544	-0,050	-0,059
-482,635	800,000	-0,051	0,133
-481,620	1,245	0,079	0,041
-480,605	-174,476	0,093	-0,002
-479,591	-127,345	-0,028	-0,003
-478,576	-200,000	0,023	-0,079
-477,562	164,795	-0,044	-0,045
-476,547	105,606	-0,126	-0,107
-475,532	39,966	0,073	0,047
-474,518	-200,000	0,003	-0,092
-473,503	-166,760	0,106	-0,003
-472,489	-90,499	-0,008	0,002
-471,474	-200,000	0,002	-0,017
-470,459	-145,310	0,051	-0,003
-469,445	-89,374	-0,051	-0,011
-468,430	2,907	-0,061	-0,032
-467,416	-120,312	-0,022	-0,003
-466,401	-59,280	0,047	-0,014
-465,386	-18,614	0,172	-0,077
-464,372	154,298	-0,090	-0,089
-463,357	-200,000	0,000	-0,028
-462,343	126,088	-0,100	-0,091
-461,328	800,000	-0,013	0,041
-460,313	-200,000	0,014	0,141
-459,299	800,000	0,049	0,121
-458,284	3,685	0,113	0,059
-457,270	800,000	0,058	-0,136
-456,255	392,240	0,080	-0,121
-455,241	13,750	-0,064	-0,036
-454,226	211,715	-0,039	0,044
-453,211	-133,668	0,064	0,006
-452,197	34,547	-0,140	0,088
-451,182	800,000	0,014	-0,039
-450,168	800,000	-0,018	-0,046
-449,153	339,121	0,052	-0,074
-448,138	-153,402	-0,160	0,008
-447,124	366,237	-0,029	0,042
-446,109	-200,000	0,006	0,037
-445,095	-92,929	0,147	-0,029
-444,080	-200,000	0,033	0,115
-443,065	195,135	-0,101	0,111
-442,051	800,000	0,018	0,044
-441,036	-200,000	-0,016	-0,150
-440,022	196,476	-0,040	-0,044
-439,007	-200,000	-0,004	0,167
-437,992	440,115	0,026	0,041
-436,978	-77,714	0,081	0,020
-435,963	-200,000	0,012	-0,073
-434,949	-107,130	-0,182	-0,028
-433,934	191,652	0,023	0,025
-432,919	800,000	-0,026	-0,058
-431,905	-1,831	0,106	0,054
-430,890	-200,000	-0,003	0,019
-429,876	149,641	0,054	0,052
-428,861	-37,302	0,069	0,026
-427,846	-175,022	0,058	0,001
-426,832	45,410	-0,088	-0,058
-425,817	-200,000	-0,020	-0,066
-424,803	658,989	0,092	-0,171
-423,788	103,460	0,078	0,066
-422,773	81,912	-0,041	0,032
-421,759	-200,000	0,016	0,186
-420,744	-27,939	0,065	0,027
-419,730	-200,000	0,003	0,017
-418,715	57,942	-0,058	0,041
-417,701	-200,000	0,008	0,046
-416,686	-200,000	0,014	-0,066
-415,671	226,199	0,088	0,103
-414,657	105,811	0,132	0,112
-413,642	82,466	0,019	0,015
-412,628	-200,000	0,016	0,078
-411,613	5,461	-0,060	-0,032
-410,598	-200,000	-0,025	-0,143
-409,584	550,724	0,062	-0,107
-408,569	-200,000	-0,063	0,228
-407,555	-190,547	0,166	0,001
-406,540	-200,000	-0,032	0,104
-405,525	-32,577	0,060	-0,024
-404,511	-44,041	-0,053	-0,019
-403,496	118,896	-0,057	-0,051
-402,482	-200,000	-0,032	0,205
-401,467	-200,000	-0,009	0,104
-400,452	-102,426	0,098	-0,017
-399,438	-200,000	-0,002	0,038
-398,423	-200,000	-0,030	-0,125
-397,409	120,795	-0,136	-0,122
-396,394	-59,628	-0,161	-0,049
-395,379	-11,341	0,056	-0,027
-394,365	490,422	0,047	0,078
-393,350	800,000	0,029	-0,060
-392,336	-42,898	0,155	0,056
-391,321	4,507	0,064	-0,034
-390,306	31,056	-0,068	0,042
-389,292	-200,000	0,002	0,083
-388,277	235,544	-0,069	-0,081
-387,263	-33,760	0,064	0,025
-386,248	576,938	-0,035	0,062
-385,233	800,000	0,058	0,138
-384,219	-26,063	0,114	0,048
-383,204	800,000	0,015	0,040
-382,190	479,542	-0,014	0,023
-381,175	-5,911	0,026	0,013
-380,160	-200,000	-0,026	-0,114
-379,146	774,363	0,052	-0,102
-378,131	51,609	-0,051	0,035
-377,117	-121,064	-0,046	0,005
-376,102	-200,000	-0,009	-0,158
-375,088	800,000	-0,005	0,013
-374,073	228,900	0,046	-0,054
-373,058	-32,278	-0,043	0,017
-372,044	-200,000	0,023	0,085
-371,029	800,000	-0,036	0,084
-370,015	12,161	-0,069	-0,038
-369,000	800,000	-0,008	0,024
-367,985	-162,290	-0,112	0,004
-366,971	-132,725	-0,059	-0,005
-365,956	367,677	0,066	-0,096
-364,942	-200,000	-0,017	-0,061
-363,927	19,706	0,063	-0,036
-362,912	-200,000	0,004	0,080
-361,898	20,913	-0,021	0,012
-360,883	-200,000	0,012	0,050
-359,869	-200,000	-0,012	-0,083
-358,854	498,572	-0,064	0,105
-357,839	-89,725	0,073	0,015
-356,825	767,951	0,063	0,124
-355,810	24,333	-0,151	0,089
-354,796	189,562	-0,076	0,082
-353,781	800,000	-0,036	0,093
-352,766	-62,134	-0,074	-0,022
-351,752	568,807	0,053	0,093
-350,737	800,000	-0,012	0,035
-349,723	63,885	0,059	-0,042
-348,708	290,655	0,074	-0,097
-347,693	120,599	-0,090	-0,080
-346,679	800,000	0,024	0,051
-345,664	-87,659	-0,101	0,022
-344,650	376,584	0,147	-0,215
-343,635	-32,486	-0,153	0,061
-342,620	-200,000	0,024	-0,108
-341,606	-32,540	0,034	0,013
-340,591	-200,000	-0,010	0,104
-339,577	-47,671	0,202	0,070
-338,562	388,355	-0,084	-0,125
-337,548	-76,027	0,186	0,047
-336,533	-85,898	0,048	0,011
-335,518	383,612	0,053	-0,078
-334,504	329,427	0,084	0,115
-333,489	-52,931	-0,086	-0,028
-332,475	714,933	0,063	-0,120
-331,460	-200,000	0,033	-0,118
-330,445	253,010	-0,075	-0,092
-329,431	800,000	-0,046	0,107
-328,416	-0,449	-0,110	-0,056
-327,402	-140,897	0,195	-0,014
-326,387	-128,213	-0,088	0,009
-325,372	-200,000	0,004	0,019
-324,358	-200,000	-0,004	-0,025
-323,343	125,882	0,070	0,063
-322,329	-127,901	-0,055	0,006
-321,314	-54,019	0,128	0,041
-320,299	202,300	-0,069	0,076
-319,285	-88,332	0,062	-0,013
-318,270	-45,147	-0,075	0,026
-317,256	423,805	-0,055	-0,084
-316,241	-200,000	0,004	-0,038
-315,226	17,657	0,069	-0,039
-314,212	-200,000	-0,009	0,058
-313,197	-72,042	-0,164	-0,043
-312,183	50,710	-0,032	-0,022
-311,168	-27,842	0,048	0,020
-310,153	-66,334	-0,121	0,034
-309,139	441,111	-0,078	-0,123
-308,124	-32,190	-0,083	-0,033
-307,110	105,646	0,005	0,005
-306,095	-16,191	0,103	0,046
-305,080	1,753	-0,042	0,022
-304,066	432,462	-0,034	-0,053
-303,051	23,185	0,082	-0,048
-302,037	-200,000	0,004	-0,066
-301,022	-53,047	0,081	-0,026
-300,008	47,148	0,053	-0,035
-298,993	-170,090	-0,099	-0,002
-297,978	-37,885	0,009	0,003
-296,964	-16,139	0,056	0,025
-295,949	-200,000	-0,045	-0,242
-294,935	92,371	-0,113	0,091
-293,920	434,848	0,061	-0,095
-292,905	-200,000	-0,033	0,153
-291,891	27,867	0,157	0,094
-290,876	133,400	-0,070	-0,065
-289,862	-60,303	0,094	-0,028
-288,847	233,967	-0,103	-0,122
-287,832	166,351	-0,057	-0,058
-286,818	94,221	-0,046	0,037
-285,803	-200,000	-0,031	0,111
-284,789	-200,000	-0,014	0,150
-283,774	-114,105	-0,059	0,008
-282,759	-200,000	-0,011	0,082
-281,745	105,091	0,135	-0,114
-280,730	800,000	0,034	-0,069
-279,716	566,914	0,050	0,087
-278,701	718,550	-0,028	0,054
-277,686	-200,000	-0,001	-0,004
-276,672	590,539	0,034	0,060
-275,657	-174,122	-0,188	-0,004
-274,643	-63,031	-0,072	0,021
-273,628	-200,000	-0,013	-0,043
-272,613	50,826	-0,059	-0,040
-271,599	-6,002	0,095	-0,046
-270,584	-27,361	0,048	-0,020
-269,570	-200,000	0,014	-0,067
-268,555	639,412	0,019	-0,035
-267,540	-200,000	0,020	-0,160
-266,526	-113,677	-0,039	0,005
-265,511	176,852	0,129	-0,134
-264,497	698,457	0,041	-0,077
-263,482	-180,875	0,119	0,002
-262,467	-200,000	0,002	0,150
-261,453	800,000	-0,039	0,097
-260,438	-100,350	0,114	0,020
-259,424	314,299	-0,077	-0,103
-258,409	800,000	-0,054	-0,139
-257,395	-200,000	0,011	0,050
-256,380	-97,027	-0,086	0,016
-255,365	-200,000	-0,026	0,106
-254,351	18,614	0,071	-0,041
-253,336	90,493	0,040	0,032
-252,322	95,366	-0,120	-0,098
-251,307	-84,599	-0,028	0,006
-250,292	135,441	0,037	-0,034
-249,278	400,427	-0,029	0,044
-248,263	800,000	0,058	0,124
-247,249	79,286	0,117	0,089
-246,234	51,009	-0,097	0,065
-245,219	213,841	-0,119	0,134
-244,205	-200,000	0,007	0,021
-243,190	800,000	-0,014	-0,029
-242,176	-200,000	-0,023	0,133
-241,161	130,532	0,044	0,040
-240,146	-200,000	0,019	0,082
-239,132	369,002	0,063	0,091
-238,117	800,000	-0,032	0,094
-237,103	800,000	-0,057	0,160
-236,088	6,022	0,141	0,074
-235,073	-200,000	0,001	-0,014
-234,059	50,378	-0,087	0,058
-233,044	800,000	0,077	-0,177
-232,030	800,000	0,023	-0,064
-231,015	-122,814	0,066	-0,007
-230,000	-137,613	-0,126	0,010
-228,986	-43,614	0,058	-0,021
-227,971	402,250	0,047	0,070
-226,957	140,627	-0,034	-0,032
-225,942	800,000	-0,052	0,138
-224,927	223,222	-0,034	0,039
-223,913	684,547	-0,106	-0,198
-222,898	800,000	-0,060	-0,147
-221,884	2,706	-0,066	-0,034
-220,869	-102,839	-0,092	0,015
-219,855	57,962	0,071	-0,049
-218,840	-67,209	-0,039	0,011
-217,825	-14,388	0,111	-0,051
-216,811	800,000	-0,012	-0,034
-215,796	479,066	-0,004	0,006
-214,782	9,955	-0,196	-0,106
-213,767	82,659	0,094	-0,072
-212,752	-78,676	-0,115	0,028
-211,738	248,894	0,026	-0,031
-210,723	328,213	-0,036	-0,050
-209,709	404,848	-0,040	-0,061
-208,694	169,986	-0,039	-0,039
-207,679	146,678	-0,036	-0,035
-206,665	-200,000	0,001	-0,030
-205,650	-200,000	-0,024	-0,108
-204,636	-53,336	0,060	0,020
-203,621	-8,651	-0,029	-0,014
-202,606	800,000	-0,046	-0,118
-201,592	800,000	-0,031	-0,098
-200,577	-29,749	-0,120	-0,049
-199,563	-56,625	-0,082	0,026
-198,548	-107,666	0,153	-0,023
-197,533	-200,000	0,001	0,053
-196,519	-40,127	-0,077	-0,028
-195,504	226,241	-0,026	0,030
-194,490	-200,000	-0,013	0,112
-193,475	-200,000	0,007	-0,032
-192,460	99,655	0,082	-0,068
-191,446	-64,705	0,161	0,046
-190,431	-200,000	0,014	0,168
-189,417	1,395	0,105	0,054
-188,402	-137,069	-0,073	0,006
-187,387	800,000	-0,052	-0,110
-186,373	-200,000	-0,020	0,097
-185,358	8,476	0,085	-0,046
-184,344	158,493	0,055	0,054
-183,329	271,355	-0,005	-0,006
-182,315	-67,371	0,114	0,032
-181,300	-55,160	-0,142	0,045
-180,285	-200,000	-0,023	-0,094
-179,271	5,865	-0,066	0,035
-178,256	-200,000	0,016	0,084
-177,242	-200,000	0,010	0,110
-176,227	-200,000	0,013	-0,047
-175,212	71,996	0,171	-0,127
-174,198	596,037	0,009	0,015
-173,183	-5,344	-0,035	-0,017
-172,169	-200,000	-0,014	-0,070
-171,154	226,940	-0,060	-0,070
-170,139	248,917	-0,057	-0,069
-169,125	50,500	0,035	0,024
-168,110	-200,000	0,041	0,139
-167,096	-200,000	-0,006	0,146
-166,081	186,747	-0,091	-0,097
-165,066	-76,131	0,156	0,039
-164,052	-200,000	-0,018	-0,159
-163,037	40,133	-0,111	-0,071
-162,023	22,079	0,074	-0,043
-161,008	728,253	0,018	0,035
-159,993	-200,000	-0,015	-0,047
-158,979	-200,000	0,029	-0,129
-157,964	-7,637	-0,050	-0,024
-156,950	-200,000	-0,002	-0,028
-155,935	33,977	-0,073	-0,045
-154,920	-32,977	-0,055	0,021
-153,906	102,454	-0,105	0,087
-152,891	8,980	-0,142	0,076
-151,877	123,991	-0,162	0,145
-150,862	-85,920	0,075	-0,016
-149,847	508,372	-0,029	-0,048
-148,833	-171,928	0,113	-0,003
-147,818	-194,736	0,109	-0,001
-146,804	-22,682	-0,044	0,019
-145,789	-97,962	0,103	0,019
-144,775	-153,241	-0,138	0,007
-143,760	370,078	0,061	-0,088
-142,745	-41,378	0,139	-0,051
-141,731	-200,000	-0,010	0,054
-140,716	-200,000	-0,028	0,093
-139,702	-17,548	0,145	0,065
-138,687	-121,365	-0,138	-0,016
-137,672	96,380	-0,044	0,035
-136,658	-3,220	0,128	-0,063
-135,643	-200,000	-0,025	0,095
-134,629	695,682	-0,013	-0,024
-133,614	-200,000	0,005	0,111
-132,599	-169,918	-0,029	-0,001
-131,585	-0,443	0,108	-0,054
-130,570	-200,000	0,016	0,081
-129,556	284,053	0,025	-0,032
-128,541	-200,000	-0,056	-0,000
-127,526	800,000	-0,048	0,107
-126,512	791,710	0,019	0,037
-125,497	325,748	0,049	0,066
-124,483	719,978	-0,052	0,098
-123,468	250,334	-0,085	0,103
-122,453	304,281	-0,042	0,055
-121,439	-99,569	-0,162	-0,029
-120,424	-69,201	-0,065	-0,018
-119,410	443,191	-0,017	0,027
-118,395	-27,409	-0,021	-0,009
-117,380	800,000	0,047	0,096
-116,366	800,000	0,010	-0,030
-115,351	-200,000	-0,043	-0,184
-114,337	-200,000	-0,002	-0,032
-113,322	332,850	-0,102	-0,140
-112,307	800,000	-0,030	0,080
-111,293	800,000	0,034	0,071
-110,278	-200,000	0,009	0,132
-109,264	23,724	0,084	0,049
-108,249	-200,000	-0,005	-0,143
-107,234	-200,000	-0,031	-0,100
-106,220	80,155	-0,061	-0,046
-105,205	288,917	0,046	0,059
-104,191	-200,000	0,010	0,113
-103,176	-51,269	-0,025	-0,008
-102,162	139,061	0,037	0,034
-101,147	-18,898	-0,005	0,002
-100,132	800,000	0,048	0,112
-99,118	113,671	-0,116	-0,100
-98,103	800,000	0,021	-0,052
-97,089	27,225	-0,098	-0,058
-96,074	-136,020	0,137	0,011
-95,059	-162,558	-0,084	0,003
-94,045	148,966	0,081	-0,078
-93,030	-200,000	0,029	-0,147
-92,016	-200,000	0,051	-0,168
-91,001	367,782	-0,079	0,113
-89,986	193,500	-0,060	-0,064
-88,972	-60,315	0,154	0,046
-87,957	-149,630	0,054	-0,003
-86,943	244,395	0,049	0,059
-85,928	44,962	0,081	-0,053
-84,913	171,262	-0,115	-0,117
-83,899	-200,000	-0,017	-0,118
-82,884	13,378	-0,185	-0,101
-81,870	-75,872	0,159	0,040
-80,855	-78,072	-0,004	0,001
-79,840	213,702	0,020	0,022
-78,826	-24,378	-0,059	0,025
-77,811	-200,000	-0,021	0,070
-76,797	198,006	-0,078	-0,084
-75,782	561,109	0,031	-0,053
-74,767	-200,000	-0,020	-0,132
-73,753	-200,000	0,000	0,167
-72,738	-200,000	-0,032	0,124
-71,724	40,545	-0,094	0,060
-70,709	56,603	-0,077	-0,053
-69,694	-109,972	-0,146	-0,021
-68,680	89,027	0,106	0,084
-67,665	233,057	-0,030	0,035
-66,651	397,252	0,034	0,051
-65,636	-67,270	-0,017	0,005
-64,622	-13,436	0,091	-0,042
-63,607	-109,973	-0,091	0,013
-62,592	-152,949	-0,197	0,010
-61,578	-67,575	-0,053	0,015
-60,563	97,329	-0,025	0,021
-59,549	-200,000	0,003	0,097
-58,534	-27,937	-1,531	-0,625
-57,519	392,343	-1,371	-2,024
-56,505	-200,000	-0,557	-4,592
-55,490	161,509	1,052	1,043
-54,476	800,000	4,805	11,504
-53,461	-200,000	18,913	308,936
-52,446	-200,000	737,934	2309,052
-51,432	572,291	1653,914	2864,134
-50,417	79,119	1670,704	1265,801
-49,403	21,976	1543,474	888,766
-48,388	15,809	1466,254	814,331
-47,373	17,755	1456,259	818,148
-46,359	16,781	1446,211	807,800
-45,344	14,070	1441,639	792,235
-44,330	13,938	1439,765	790,541
-43,315	14,019	1437,948	789,901
-42,300	14,047	1436,259	789,078
-41,286	14,091	1435,182	788,661
-40,271	13,963	1433,904	787,317
-39,257	13,987	1432,667	786,721
-38,242	14,050	1431,314	786,247
-37,227	14,052	1430,228	785,628
-36,213	14,057	1428,819	784,848
-35,198	14,029	1427,820	784,136
-34,184	14,067	1426,785	783,715
-33,169	14,029	1425,509	782,807
-32,154	14,053	1424,338	782,242
-31,140	14,076	1423,148	781,667
-30,125	14,065	1421,894	780,898
-29,111	14,081	1420,949	780,420
-28,096	14,050	1419,608	779,509
-27,082	13,971	1418,694	778,603
-26,067	13,980	1417,512	777,964
-25,052	14,004	1416,292	777,379
-24,038	13,933	1415,588	776,628
-23,023	13,933	1414,547	776,026
-22,009	13,942	1413,588	775,509
-20,994	13,937	1412,720	774,978
-19,979	13,933	1411,701	774,374
-18,965	13,920	1410,742	773,753
-17,950	13,911	1410,035	773,293
-16,936	13,917	1409,178	772,818
-15,921	13,881	1408,025	771,988
-14,906	13,877	1406,989	771,371
-13,892	13,897	1405,900	770,838
-12,877	13,881	1405,189	770,344
-11,863	13,868	1404,266	769,744
-10,848	13,868	1403,383	769,228
-9,833	13,846	1402,482	768,606
-8,819	13,822	1401,438	767,887
-7,804	13,765	1400,700	767,190
-6,790	13,790	1399,648	766,698
-5,775	13,754	1398,742	766,007
-4,760	13,798	1397,686	765,602
-3,746	13,769	1396,762	764,931
-2,731	13,767	1396,004	764,473
-1,717	13,759	1395,152	763,939
-0,702	13,772	1393,215	762,911
0,313	17,612	1311,097	735,741
1,327	33,959	705,631	433,828
2,342	51,997	123,982	83,411
3,356	0,586	16,754	8,447
4,371	9,550	3,084	1,647
5,386	-54,850	0,636	0,202
6,400	-200,000	0,080	0,458
7,415	-66,164	-0,310	-0,087
8,429	-28,979	-0,230	-0,093
9,444	109,851	-0,322	-0,273
10,459	294,438	-0,227	-0,295
11,473	15,012	-0,378	-0,209
12,488	30,317	-0,220	-0,132
13,502	-52,107	-0,289	-0,094
14,517	65,036	-0,263	-0,188
15,531	118,158	-0,367	-0,320
16,546	34,921	-0,255	-0,158
17,561	152,201	-0,393	-0,379
18,575	17,732	-0,177	-0,100
19,590	140,305	-0,302	-0,282
20,604	10,923	-0,199	-0,107
21,619	103,596	-0,472	-0,391
22,634	381,006	-0,311	-0,452
23,648	38,822	-0,355	-0,223
24,663	47,182	-0,335	-0,219
25,677	-18,423	-0,328	-0,144
26,692	30,244	-0,402	-0,242
27,707	70,136	-0,352	-0,257
28,721	-1,995	-0,417	-0,206
29,736	284,654	-0,320	-0,408
30,750	85,253	-0,308	-0,238
31,765	-50,288	-0,307	-0,102
32,780	285,797	-0,290	-0,370
33,794	54,648	-0,434	-0,295
34,809	52,202	-0,383	-0,257
35,823	92,854	-0,258	-0,206
36,838	-58,502	-0,502	-0,153
37,853	71,136	-0,350	-0,256
38,867	154,762	-0,365	-0,354
39,882	5,608	-0,377	-0,196
40,896	77,437	-0,334	-0,250
41,911	54,135	-0,393	-0,266
42,926	1,359	-0,410	-0,207
43,940	-7,658	-0,452	-0,215
44,955	317,993	-0,286	-0,383
45,969	64,536	-0,345	-0,245
46,984	22,294	-0,352	-0,202
47,999	392,930	-0,218	-0,321
49,013	44,338	-0,367	-0,237
50,028	7,317	-0,281	-0,147
51,042	131,656	-0,335	-0,304
52,057	262,629	-0,323	-0,396
53,071	88,873	-0,358	-0,280
54,086	35,769	-0,326	-0,201
55,101	52,374	-0,345	-0,231
56,115	-89,101	-0,440	-0,091
57,130	200,742	-0,241	-0,261
58,144	-32,881	-0,401	-0,156
59,159	33,190	-0,326	-0,198
60,174	-13,640	-0,268	-0,122
61,188	15,381	-0,426	-0,234
62,203	735,627	-0,137	-0,260
63,217	52,686	-0,264	-0,177
64,232	37,336	-0,286	-0,178
65,247	63,882	-0,357	-0,252
66,261	-55,922	-0,507	-0,158
67,276	-16,170	-0,351	-0,156
68,290	104,844	-0,347	-0,287
69,305	107,445	-0,299	-0,250
70,320	37,702	-0,257	-0,160
71,334	78,391	-0,266	-0,199
72,349	91,172	-0,321	-0,253
73,363	66,489	-0,374	-0,267
74,378	-45,656	-0,396	-0,137
75,393	97,738	-0,319	-0,258
76,407	20,682	-0,304	-0,173
77,422	-126,656	-0,266	-0,027
78,436	77,495	-0,260	-0,194
79,451	59,339	-0,222	-0,153
80,466	-70,337	-0,345	-0,091
81,480	-147,427	-0,305	-0,018
82,495	112,208	-0,263	-0,223
83,509	19,087	-0,300	-0,168
84,524	87,314	-0,235	-0,182
85,539	18,035	-0,376	-0,210
86,553	62,843	-0,277	-0,195
87,568	800,000	-0,109	-0,250
88,582	88,435	-0,255	-0,199
89,597	18,760	-0,328	-0,184
90,611	-38,681	-0,255	-0,094
91,626	-14,272	-0,279	-0,126
92,641	-52,406	-0,219	-0,071
93,655	-40,162	-0,295	-0,107
94,670	452,624	-0,165	-0,256
95,684	7,488	-0,321	-0,168
96,699	104,248	-0,269	-0,222
97,714	-56,921	-0,286	-0,088
98,728	226,245	-0,213	-0,243
99,743	52,446	-0,187	-0,125
100,757	97,025	-0,173	-0,139
101,772	11,520	-0,235	-0,126
102,787	-59,464	-0,313	-0,094
103,801	-28,482	-0,241	-0,097
104,816	-20,903	-0,335	-0,143
105,830	-14,457	-0,238	0,107
106,845	72,724	-0,239	-0,174
107,860	3,562	-0,292	-0,149
108,874	28,569	-0,200	-0,118
109,889	79,161	-0,348	-0,261
110,903	-144,603	-0,178	-0,011
111,918	41,029	-0,294	-0,185
112,933	-100,467	-0,309	-0,053
113,947	-32,125	-0,307	-0,120
114,962	-27,222	-0,189	-0,077
115,976	-11,264	-0,252	-0,116
116,991	1,867	-0,317	-0,159
118,006	47,748	-0,332	-0,217
119,020	14,119	-0,298	-0,162
120,035	148,091	-0,182	-0,172
121,049	-88,098	-0,321	-0,067
122,064	226,979	-0,116	-0,132
123,079	61,079	-0,177	-0,123
124,093	99,200	-0,181	-0,147
125,108	81,724	-0,343	-0,260
126,122	192,016	-0,172	-0,182
127,137	661,712	-0,165	-0,298
128,151	68,132	-0,234	-0,168
129,166	-0,950	-0,187	-0,092
130,181	287,708	-0,161	-0,205
131,195	147,350	-0,231	-0,217
132,210	76,749	-0,288	-0,213
133,224	-38,583	-0,258	-0,095
134,239	224,867	-0,160	-0,181
135,254	221,722	-0,182	-0,205
136,268	249,282	-0,194	-0,230
137,283	-35,617	-0,267	-0,101
138,297	641,785	-0,181	-0,324
139,312	434,275	-0,159	-0,243
140,327	132,716	-0,301	-0,272
141,341	17,022	-0,292	-0,161
142,356	146,992	-0,149	-0,140
143,370	518,268	-0,125	-0,205
144,385	33,977	-0,321	-0,195
145,400	543,543	-0,209	-0,350
146,414	224,534	-0,204	-0,231
147,429	67,174	-0,275	-0,196
148,443	79,419	-0,264	-0,198
149,458	-97,004	-0,155	-0,028
150,473	-117,873	-0,283	-0,035
151,487	119,079	-0,295	-0,255
152,502	39,662	-0,286	-0,179
153,516	193,754	-0,176	-0,187
154,531	384,177	-0,149	-0,215
155,546	250,053	-0,214	-0,254
156,560	110,474	-0,146	-0,123
157,575	393,709	-0,108	-0,158
158,589	-160,938	-0,259	0,009
159,604	-18,423	-0,291	-0,126
160,619	49,270	-0,247	-0,162
161,633	-4,335	-0,248	-0,119
162,648	-141,486	-0,162	-0,011
163,662	-38,752	-0,167	-0,061
164,677	-25,803	-0,206	-0,084
165,692	22,020	-0,271	-0,154
166,706	19,868	-0,301	-0,168
167,721	135,268	-0,192	-0,174
168,735	252,531	-0,273	-0,326
169,750	-9,811	-0,205	-0,095
170,764	-38,210	-0,214	-0,079
171,779	-13,111	-0,205	-0,093
172,794	-29,205	-0,139	-0,055
173,808	163,610	-0,198	-0,194
174,823	0,741	-0,253	-0,126
175,837	80,880	-0,228	-0,172
176,852	-9,904	-0,200	-0,092
177,867	41,495	-0,209	-0,132
178,881	-129,104	-0,213	-0,020
179,896	167,028	-0,194	-0,191
180,910	-100,595	-0,194	-0,033
181,925	101,279	-0,157	-0,127
182,940	-80,463	-0,332	-0,077
183,954	60,623	-0,258	-0,178
184,969	-20,739	-0,245	-0,104
185,983	3,523	-0,208	-0,105
186,998	137,880	-0,126	-0,115
188,013	-53,168	-0,172	-0,055
189,027	229,580	-0,240	-0,273
190,042	251,315	-0,184	-0,218
191,056	218,307	-0,101	-0,112
192,071	-14,577	-0,215	-0,096
193,086	18,205	-0,212	-0,117
194,100	47,696	-0,281	-0,182
195,115	190,000	-0,103	-0,108
196,129	30,696	-0,246	-0,146
197,144	326,865	-0,188	-0,251
198,159	-19,859	-0,291	-0,124
199,173	219,545	-0,147	-0,164
200,188	-200,000	-0,059	-0,209
201,202	656,473	-0,139	-0,249
202,217	-35,063	-0,340	-0,128
203,232	5,438	-0,279	-0,143
204,246	172,173	-0,212	-0,212
205,261	800,000	-0,136	-0,349
206,275	30,848	-0,306	-0,182
207,290	215,530	-0,230	-0,254
208,304	160,269	-0,237	-0,229
209,319	-4,194	-0,133	-0,064
210,334	-99,174	-0,177	-0,031
211,348	82,517	-0,283	-0,213
212,363	106,707	-0,166	-0,137
213,377	68,915	-0,239	-0,170
214,392	75,472	-0,205	-0,150
215,407	34,540	-0,231	-0,140
216,421	3,674	-0,179	-0,091
217,436	-5,499	-0,217	-0,103
218,450	-16,318	-0,357	-0,157
219,465	99,673	-0,306	-0,246
220,480	44,040	-0,224	-0,143
221,494	74,153	-0,224	-0,163
222,509	40,266	-0,133	-0,083
223,523	-91,547	-0,208	0,041
224,538	68,753	-0,176	-0,125
225,553	41,227	-0,190	-0,119
226,567	-123,703	-0,183	0,020
227,582	-146,132	-0,227	0,014
228,596	-131,573	-0,147	0,013
229,611	240,416	-0,216	-0,250
230,626	343,928	-0,141	-0,193
231,640	1,675	-0,300	-0,149
232,655	800,000	-0,119	-0,241
233,669	478,105	-0,164	-0,258
234,684	-92,644	-0,235	-0,045
235,699	33,112	-0,187	-0,112
236,713	-130,997	-0,141	0,013
237,728	64,338	-0,178	-0,124
238,742	104,794	-0,195	-0,159
239,757	216,879	-0,164	-0,181
240,772	-96,259	-0,217	-0,039
241,786	112,885	-0,234	-0,196
242,801	15,121	-0,294	-0,159
243,815	73,709	-0,156	-0,113
244,830	175,946	-0,109	-0,109
245,844	-200,000	-0,035	-0,174
246,859	-8,896	-0,272	-0,126
247,874	82,395	-0,150	-0,113
248,888	-49,757	-0,345	-0,113
249,903	-21,510	-0,217	-0,091
250,917	203,642	-0,206	-0,221
251,932	-73,670	-0,200	-0,050
252,947	5,289	-0,209	-0,107
253,961	206,214	-0,177	-0,191
254,976	174,228	-0,203	-0,203
255,990	45,013	-0,204	-0,130
257,005	-86,716	-0,161	-0,034
258,020	-97,673	-0,163	0,029
259,034	-25,252	-0,212	-0,087
260,049	21,455	-0,174	-0,098
261,063	-29,989	-0,300	-0,118
262,078	114,165	-0,199	-0,167
263,093	-16,193	-0,241	-0,105
264,107	800,000	-0,104	-0,209
265,122	507,249	-0,143	-0,231
266,136	-60,066	-0,128	-0,038
267,151	-6,094	-0,113	-0,053
268,166	212,576	-0,155	-0,169
269,180	725,203	-0,127	-0,235
270,195	509,408	-0,132	-0,213
271,209	130,353	-0,121	-0,108
272,224	-73,550	-0,204	-0,051
273,239	-200,000	-0,044	-0,175
274,253	-95,080	-0,170	-0,031
275,268	41,520	-0,264	-0,165
276,282	277,687	-0,215	-0,265
277,297	56,385	-0,191	-0,128
278,312	-121,308	-0,229	0,026
279,326	-96,289	-0,202	-0,037
280,341	-45,463	-0,059	-0,020
281,355	86,531	-0,116	-0,088
282,370	210,585	-0,131	-0,142
283,384	104,197	-0,212	-0,172
284,399	-0,794	-0,150	-0,073
285,414	-77,069	-0,323	-0,077
286,428	59,444	-0,101	-0,069
287,443	-127,151	-0,227	-0,023
288,457	112,871	-0,213	-0,178
289,472	-140,990	-0,059	0,004
290,487	22,050	-0,153	-0,086
291,501	800,000	-0,116	-0,256
292,516	175,329	-0,206	-0,206
293,530	-114,734	-0,104	-0,014
294,545	24,336	-0,135	-0,077
295,560	-61,567	-0,141	-0,041
296,574	88,208	-0,176	-0,134
297,589	39,700	-0,167	-0,103
298,603	-43,869	-0,247	-0,085
299,618	149,476	-0,153	-0,143
300,633	-136,990	-0,187	-0,015
301,647	391,281	-0,115	-0,164
302,662	-12,303	-0,145	-0,065
303,676	-149,278	-0,136	0,007
304,691	-53,104	-0,193	-0,061
305,706	301,515	-0,175	-0,224
306,720	-102,768	-0,238	-0,039
307,735	229,067	-0,113	-0,128
308,749	73,494	-0,093	-0,067
309,764	232,224	-0,064	-0,072
310,779	-108,602	-0,096	0,014
311,793	800,000	-0,085	-0,162
312,808	81,296	-0,213	-0,158
313,822	98,393	-0,204	-0,162
314,837	160,426	-0,024	0,023
315,852	-100,946	-0,141	0,024
316,866	800,000	-0,064	-0,137
317,881	-31,216	-0,151	-0,058
318,895	54,933	-0,239	-0,159
319,910	-40,030	-0,239	-0,085
320,925	685,383	-0,102	-0,184
321,939	-8,529	-0,106	-0,049
322,954	-200,000	-0,002	-0,093
323,968	-111,087	-0,116	0,016
324,983	262,725	-0,070	-0,084
325,997	-192,058	-0,189	0,001
327,012	-182,663	-0,137	-0,002
328,027	15,543	-0,185	-0,100
329,041	-113,909	-0,072	0,010
330,056	-139,341	-0,276	0,020
331,070	4,316	-0,191	-0,096
332,085	69,030	-0,184	-0,130
333,100	14,360	-0,204	-0,109
334,114	147,332	-0,126	-0,116
335,129	92,922	-0,160	-0,124
336,143	203,631	-0,183	-0,195
337,158	546,518	-0,112	-0,185
338,173	347,329	-0,033	-0,044
339,187	66,502	-0,132	-0,092
340,202	-13,271	-0,112	-0,050
341,216	280,908	-0,136	-0,167
342,231	-200,000	-0,077	-0,242
343,246	-200,000	0,038	-0,208
344,260	183,315	-0,128	-0,130
345,275	-200,000	0,019	-0,063
346,289	-200,000	-0,033	-0,105
347,304	141,673	-0,062	0,057
348,319	-178,166	-0,210	-0,003
349,333	51,270	-0,169	-0,110
350,348	321,279	-0,120	-0,157
351,362	74,432	-0,128	-0,092
352,377	-62,842	-0,148	-0,042
353,392	-26,239	-0,123	-0,049
354,406	-134,769	-0,110	-0,009
355,421	208,785	1315,427	1413,708
356,435	160,663	1476,237	1414,197
