DTS Sentinel unit serial number:	SN410029Multiplexer serial number:	ORYXHardware model number:	OX2-SRSoftware version number:	ORYX F/W v4,00 Oryx Data Collector v3.7.2.0data status	okinstallation	B3 Nyhavnadifferential loss correction	single-endedforward channel	channel 1reverse channel	N/Adate	2023/12/03time	02:17:30forward acquisition time	300,00reverse acquisition time	0,00gamma	499,1914k internal	0,3201k external	0,3201temperature offset calibration	1,0000default loss term (dB/km)	0,3820temperature slope calibration	1,0000multiplexer offset coefficient	1,0000multiplexer slope coefficient	1,0000fibre end	0,00T internal ref (°C)	13,31T ext. ref 1 (°C)	-1,77T ext. ref 2 (°C)	-1,78length (m)	temperature (°C)	Stokes	anti-Stokes-744,400	263,278	-0,193	-0,244
-743,385	-200,000	-0,010	0,408
-742,371	23,657	-0,186	-0,111
-741,356	800,000	0,118	0,339
-740,342	552,544	-0,203	-0,357
-739,327	800,000	0,066	0,163
-738,312	296,150	-0,200	-0,267
-737,298	800,000	0,117	0,274
-736,283	279,342	-0,126	-0,164
-735,269	-200,000	-0,025	0,267
-734,254	179,043	-0,230	-0,245
-733,239	-18,667	-0,188	0,085
-732,225	-200,000	-0,056	-0,224
-731,210	-105,539	0,077	0,013
-730,196	-134,424	-0,135	0,012
-729,181	-17,778	-0,177	-0,080
-728,167	60,523	0,066	-0,048
-727,152	-200,000	-0,042	0,147
-726,137	-119,286	-0,077	-0,010
-725,123	116,167	0,088	0,078
-724,108	67,264	-0,051	-0,038
-723,094	-200,000	-0,021	-0,242
-722,079	12,562	-0,132	-0,074
-721,064	204,641	-0,056	-0,063
-720,050	-108,472	-0,099	-0,015
-719,035	648,127	0,044	0,083
-718,021	113,628	-0,125	0,111
-717,006	-200,000	-0,018	-0,074
-715,991	151,229	-0,069	-0,068
-714,977	54,843	0,073	0,051
-713,962	-200,000	0,012	0,068
-712,948	-24,517	-0,124	0,053
-711,933	800,000	-0,028	-0,077
-710,918	-199,428	-0,092	-0,000
-709,904	164,868	0,016	0,016
-708,889	-18,062	-0,118	0,054
-707,875	800,000	0,021	0,065
-706,860	-81,665	-0,044	0,010
-705,845	173,898	0,062	-0,065
-704,831	632,983	0,044	-0,081
-703,816	120,140	0,074	-0,066
-702,802	52,726	-0,130	-0,090
-701,787	154,556	-0,092	-0,092
-700,772	-200,000	-0,006	0,058
-699,758	-74,124	0,065	-0,017
-698,743	-200,000	0,008	-0,082
-697,729	102,645	0,109	-0,092
-696,714	-94,481	-0,083	-0,016
-695,699	164,468	-0,072	-0,074
-694,685	-200,000	-0,032	-0,105
-693,670	800,000	0,048	-0,110
-692,656	-80,027	-0,146	-0,035
-691,641	-49,814	0,076	0,026
-690,627	463,710	-0,059	0,096
-689,612	800,000	0,077	0,185
-688,597	746,102	-0,030	-0,058
-687,583	194,402	-0,053	-0,059
-686,568	-60,406	-0,061	-0,019
-685,554	-43,858	0,116	-0,042
-684,539	338,892	-0,057	0,080
-683,524	800,000	0,035	-0,102
-682,510	-200,000	0,008	0,116
-681,495	-200,000	0,006	-0,027
-680,481	66,477	-0,156	-0,115
-679,466	-37,722	-0,096	-0,037
-678,451	-166,018	-0,079	-0,002
-677,437	800,000	0,024	-0,074
-676,422	800,000	-0,038	0,096
-675,408	-200,000	-0,007	0,078
-674,393	800,000	-0,063	-0,164
-673,378	-200,000	-0,028	-0,227
-672,364	279,128	0,077	0,099
-671,349	-0,800	-0,091	-0,047
-670,335	-200,000	-0,002	-0,027
-669,320	-94,152	0,096	0,019
-668,305	306,190	0,038	-0,052
-667,291	-48,148	-0,147	0,051
-666,276	-91,055	-0,004	-0,001
-665,262	-87,012	-0,071	0,016
-664,247	-200,000	0,018	-0,065
-663,232	-132,614	-0,056	-0,005
-662,218	-200,000	0,033	0,117
-661,203	-200,000	0,008	-0,056
-660,189	192,233	-0,073	-0,080
-659,174	-27,796	-0,079	-0,033
-658,159	385,789	-0,069	-0,104
-657,145	-81,239	-0,165	-0,039
-656,130	-26,523	-0,109	-0,046
-655,116	-18,059	-0,065	-0,029
-654,101	-57,983	-0,086	-0,027
-653,086	-200,000	-0,042	-0,139
-652,072	-200,000	0,001	-0,038
-651,057	800,000	0,003	-0,007
-650,043	-108,177	-0,088	-0,014
-649,028	66,894	0,135	-0,099
-648,014	-175,497	0,062	-0,001
-646,999	40,568	-0,029	-0,019
-645,984	-79,065	-0,081	-0,020
-644,970	-200,000	0,025	-0,116
-643,955	155,574	0,041	0,041
-642,941	79,973	0,073	-0,057
-641,926	-23,177	-0,100	0,043
-640,911	-43,965	0,096	0,035
-639,897	57,652	0,073	-0,052
-638,882	-200,000	-0,003	0,074
-637,868	180,285	0,050	-0,054
-636,853	-42,508	0,100	-0,037
-635,838	691,402	0,019	-0,037
-634,824	-200,000	0,002	-0,051
-633,809	800,000	-0,052	-0,106
-632,795	-47,459	-0,083	0,029
-631,780	-200,000	-0,012	-0,076
-630,765	307,333	0,037	0,050
-629,751	-200,000	-0,011	-0,075
-628,736	447,551	0,028	0,045
-627,722	-50,728	-0,181	-0,061
-626,707	324,956	-0,028	-0,038
-625,692	460,552	0,026	-0,043
-624,678	414,550	0,059	-0,091
-623,663	604,440	-0,017	0,030
-622,649	800,000	-0,033	-0,071
-621,634	-146,895	-0,132	-0,008
-620,619	-79,987	0,117	-0,028
-619,605	-200,000	0,005	0,075
-618,590	537,549	-0,050	0,086
-617,576	-200,000	-0,023	0,104
-616,561	-127,620	-0,026	-0,003
-615,546	-97,698	0,119	-0,022
-614,532	187,090	0,069	-0,075
-613,517	800,000	0,064	-0,151
-612,503	800,000	-0,029	0,087
-611,488	-200,000	-0,026	0,254
-610,474	304,501	0,018	-0,025
-609,459	-200,000	0,001	0,059
-608,444	800,000	-0,031	-0,064
-607,430	-200,000	-0,042	-0,150
-606,415	11,558	-0,089	-0,049
-605,401	36,604	0,093	0,059
-604,386	-35,726	0,103	-0,040
-603,371	277,445	-0,023	0,029
-602,357	635,770	-0,064	-0,117
-601,342	-200,000	0,020	-0,113
-600,328	-200,000	-0,012	-0,155
-599,313	-200,000	-0,015	-0,079
-598,298	205,669	-0,036	0,040
-597,284	169,730	0,036	0,037
-596,269	510,832	0,055	0,093
-595,255	800,000	-0,067	-0,136
-594,240	20,871	-0,081	0,047
-593,225	140,325	-0,070	-0,067
-592,211	151,615	-0,049	0,048
-591,196	800,000	0,019	-0,040
-590,182	-200,000	0,023	0,076
-589,167	449,070	0,027	-0,043
-588,152	800,000	-0,021	-0,061
-587,138	800,000	0,031	-0,066
-586,123	-200,000	-0,037	-0,150
-585,109	800,000	0,038	-0,096
-584,094	191,616	-0,138	-0,150
-583,079	261,095	0,024	0,030
-582,065	-200,000	0,002	0,045
-581,050	9,967	-0,062	0,034
-580,036	800,000	0,057	-0,134
-579,021	800,000	-0,038	-0,114
-578,006	-57,503	-0,054	-0,017
-576,992	-35,987	0,070	-0,027
-575,977	-147,257	0,088	-0,005
-574,963	222,395	-0,106	0,123
-573,948	163,422	0,101	0,103
-572,934	263,085	-0,061	0,076
-571,919	21,592	0,096	0,057
-570,904	242,452	-0,065	-0,079
-569,890	800,000	-0,081	-0,207
-568,875	777,609	-0,053	0,106
-567,861	253,640	-0,103	0,128
-566,846	517,329	0,087	0,148
-565,831	-200,000	0,015	-0,126
-564,817	108,390	-0,101	0,087
-563,802	1,247	-0,097	-0,050
-562,788	800,000	0,029	-0,071
-561,773	-200,000	0,008	0,028
-560,758	92,917	-0,012	-0,010
-559,744	92,740	0,154	0,126
-558,729	800,000	0,017	-0,039
-557,715	-200,000	-0,010	-0,125
-556,700	800,000	-0,060	0,134
-555,685	323,442	0,050	-0,069
-554,671	-140,125	-0,088	-0,007
-553,656	800,000	0,067	0,142
-552,642	-200,000	0,004	0,052
-551,627	-49,721	-0,131	-0,045
-550,612	-34,577	-0,169	0,067
-549,598	49,616	-0,122	-0,083
-548,583	94,825	-0,127	-0,105
-547,569	242,710	-0,052	-0,063
-546,554	-167,610	-0,154	-0,004
-545,539	-140,288	0,037	-0,003
-544,525	109,590	-0,089	0,077
-543,510	273,487	-0,050	-0,064
-542,496	-121,614	-0,128	-0,015
-541,481	800,000	-0,040	-0,101
-540,466	304,439	-0,021	-0,028
-539,452	-108,011	-0,039	-0,006
-538,437	-68,614	0,124	0,034
-537,423	800,000	0,039	-0,090
-536,408	184,046	0,029	-0,031
-535,393	445,182	0,037	-0,058
-534,379	800,000	-0,048	-0,127
-533,364	-38,118	-0,011	-0,004
-532,350	-105,596	0,167	0,027
-531,335	719,211	-0,043	0,083
-530,321	800,000	0,025	0,072
-529,306	12,351	0,052	0,029
-528,291	396,845	0,087	-0,132
-527,277	-200,000	-0,008	0,055
-526,262	-200,000	-0,001	-0,034
-525,248	-200,000	0,006	-0,033
-524,233	-78,837	0,075	-0,018
-523,218	-94,977	-0,171	-0,033
-522,204	13,561	0,061	0,034
-521,189	334,659	-0,089	0,125
-520,175	-114,130	-0,183	-0,025
-519,160	62,245	0,065	-0,046
-518,145	677,289	0,011	-0,020
-517,131	-107,853	0,111	-0,017
-516,116	-200,000	-0,005	-0,051
-515,102	520,341	-0,099	0,168
-514,087	48,687	-0,117	0,079
-513,072	13,889	-0,148	-0,083
-512,058	-200,000	-0,003	-0,058
-511,043	45,376	0,075	-0,050
-510,029	-155,511	0,097	0,004
-509,014	-200,000	-0,005	-0,048
-507,999	800,000	0,057	0,157
-506,985	800,000	-0,009	-0,018
-505,970	284,074	-0,096	0,124
-504,956	-200,000	0,021	-0,114
-503,941	-150,691	-0,080	0,004
-502,926	800,000	0,021	0,068
-501,912	-103,147	0,062	-0,010
-500,897	-200,000	-0,021	0,096
-499,883	800,000	-0,002	0,005
-498,868	800,000	0,075	0,168
-497,853	-200,000	0,042	-0,148
-496,839	382,077	0,063	-0,094
-495,824	-122,544	0,225	0,026
-494,810	378,057	0,073	0,108
-493,795	71,291	0,130	-0,097
-492,781	67,501	-0,085	0,063
-491,766	-200,000	0,004	-0,016
-490,751	-200,000	0,001	-0,029
-489,737	-15,661	-0,072	-0,033
-488,722	8,206	0,031	0,017
-487,708	-200,000	0,008	0,059
-486,693	-200,000	0,009	-0,036
-485,678	210,353	0,037	0,042
-484,664	239,987	-0,031	0,038
-483,649	-37,712	-0,124	-0,047
-482,635	47,096	0,124	-0,083
-481,620	74,968	0,152	0,115
-480,605	-200,000	-0,020	0,081
-479,591	92,555	0,143	0,116
-478,576	800,000	-0,038	-0,081
-477,562	-88,755	0,028	0,006
-476,547	-1,133	-0,121	0,062
-475,532	800,000	0,020	0,047
-474,518	688,936	0,080	0,151
-473,503	-200,000	-0,027	0,136
-472,489	561,487	0,016	0,028
-471,474	-200,000	0,017	-0,079
-470,459	392,927	0,067	-0,101
-469,445	183,008	0,083	-0,088
-468,430	-200,000	-0,017	-0,087
-467,416	-13,531	0,118	0,055
-466,401	-130,134	0,213	-0,021
-465,386	-126,902	0,108	0,011
-464,372	-37,748	0,076	-0,029
-463,357	-200,000	-0,024	-0,212
-462,343	566,308	-0,018	-0,031
-461,328	676,049	-0,056	-0,106
-460,313	521,811	-0,049	0,083
-459,299	-115,700	0,101	-0,014
-458,284	800,000	0,047	0,115
-457,270	-200,000	-0,013	-0,096
-456,255	-200,000	-0,006	0,094
-455,241	252,633	-0,057	-0,071
-454,226	-95,737	0,040	0,008
-453,211	-90,239	-0,083	0,017
-452,197	376,920	-0,097	0,142
-451,182	403,222	0,111	0,168
-450,168	-198,611	-0,093	-0,000
-449,153	220,069	0,069	-0,080
-448,138	469,106	-0,028	-0,045
-447,124	-200,000	-0,051	0,000
-446,109	239,779	-0,019	0,023
-445,095	160,547	0,018	-0,018
-444,080	-200,000	-0,033	0,107
-443,065	150,502	-0,041	0,040
-442,051	-82,975	-0,184	-0,042
-441,036	65,949	0,153	-0,111
-440,022	-93,154	0,037	-0,007
-439,007	36,541	0,030	-0,019
-437,992	27,473	-0,105	0,064
-436,978	-200,000	0,007	0,067
-435,963	700,643	0,054	-0,102
-434,949	-200,000	0,001	-0,023
-433,934	33,638	-0,141	-0,088
-432,919	277,431	0,095	0,122
-431,905	379,183	-0,071	-0,105
-430,890	-169,733	0,067	0,002
-429,876	-120,959	0,093	0,011
-428,861	-200,000	-0,056	0,198
-427,846	-200,000	0,048	0,151
-426,832	800,000	-0,029	0,083
-425,817	469,202	-0,083	-0,134
-424,803	-124,968	0,035	0,004
-423,788	-70,679	0,074	-0,020
-422,773	-57,639	-0,074	-0,023
-421,759	800,000	0,034	0,083
-420,744	800,000	-0,028	0,084
-419,730	-180,579	-0,100	-0,001
-418,715	2,720	-0,129	-0,067
-417,701	-200,000	0,021	0,092
-416,686	69,024	-0,055	0,040
-415,671	-200,000	0,016	0,107
-414,657	-200,000	0,001	0,097
-413,642	800,000	0,027	0,056
-412,628	-200,000	-0,024	0,111
-411,613	-135,130	0,013	0,001
-410,598	757,881	0,050	-0,098
-409,584	-135,815	-0,103	0,009
-408,569	800,000	-0,058	0,131
-407,555	24,503	0,047	0,028
-406,540	-200,000	0,029	0,121
-405,525	-115,196	-0,149	-0,020
-404,511	-200,000	-0,026	-0,094
-403,496	-10,186	-0,032	0,015
-402,482	132,015	-0,069	-0,064
-401,467	800,000	-0,022	0,043
-400,452	65,576	0,042	-0,031
-399,438	-49,732	0,128	0,044
-398,423	-200,000	0,043	0,151
-397,409	159,542	0,051	0,051
-396,394	47,169	-0,102	-0,068
-395,379	800,000	0,019	-0,046
-394,365	-154,596	-0,065	-0,003
-393,350	-53,174	-0,080	-0,026
-392,336	-51,923	-0,070	-0,023
-391,321	-200,000	0,008	-0,057
-390,306	61,108	-0,068	-0,048
-389,292	208,911	-0,049	0,055
-388,277	328,027	0,093	0,128
-387,263	3,535	-0,051	0,027
-386,248	307,236	0,015	0,020
-385,233	-126,114	0,020	0,002
-384,219	800,000	-0,043	-0,087
-383,204	-200,000	0,013	-0,053
-382,190	-200,000	-0,017	-0,176
-381,175	-200,000	-0,009	-0,042
-380,160	210,136	0,052	0,059
-379,146	-200,000	0,004	0,015
-378,131	-60,159	0,172	-0,052
-377,117	72,228	0,097	-0,072
-376,102	-83,536	0,031	0,007
-375,088	-72,069	-0,079	0,021
-374,073	428,387	0,002	-0,003
-373,058	-56,950	-0,115	-0,036
-372,044	0,064	-0,163	-0,083
-371,029	-169,351	-0,178	0,005
-370,015	-200,000	-0,005	0,052
-369,000	262,208	0,012	-0,015
-367,985	68,977	-0,146	-0,108
-366,971	154,658	-0,108	-0,106
-365,956	132,923	0,061	-0,057
-364,942	-200,000	-0,005	-0,022
-363,927	72,912	0,157	0,118
-362,912	33,328	-0,049	-0,030
-361,898	-89,023	-0,014	0,003
-360,883	800,000	0,048	-0,104
-359,869	83,226	-0,078	-0,060
-358,854	157,250	0,109	0,108
-357,839	70,143	0,078	0,058
-356,825	-178,993	0,121	0,002
-355,810	311,399	0,053	-0,072
-354,796	800,000	0,025	-0,078
-353,781	800,000	-0,073	-0,167
-352,766	172,610	-0,099	0,103
-351,752	-101,495	-0,040	-0,007
-350,737	45,860	0,038	-0,025
-349,723	800,000	0,034	0,095
-348,708	86,333	0,052	0,041
-347,693	-200,000	-0,015	0,064
-346,679	112,792	-0,108	-0,094
-345,664	-200,000	0,023	-0,136
-344,650	-200,000	-0,029	-0,133
-343,635	278,520	0,047	-0,061
-342,620	800,000	-0,052	0,124
-341,606	469,803	-0,042	0,067
-340,591	800,000	-0,056	-0,144
-339,577	800,000	0,044	-0,111
-338,562	97,458	-0,057	-0,047
-337,548	-167,498	-0,081	-0,002
-336,533	241,001	0,067	0,081
-335,518	283,653	-0,038	-0,048
-334,504	800,000	0,031	0,065
-333,489	-200,000	0,011	0,060
-332,475	34,279	-0,094	-0,059
-331,460	-200,000	-0,013	-0,093
-330,445	204,873	0,107	0,119
-329,431	800,000	0,013	0,037
-328,416	-153,459	0,030	-0,001
-327,402	-64,734	0,216	0,062
-326,387	-200,000	0,011	0,114
-325,372	-130,463	-0,087	0,008
-324,358	60,293	-0,070	-0,049
-323,343	461,758	0,076	0,122
-322,329	-73,805	0,081	0,021
-321,314	800,000	-0,042	0,123
-320,299	-200,000	0,016	0,053
-319,285	95,593	0,075	-0,061
-318,270	784,248	-0,010	-0,020
-317,256	-33,804	0,013	0,005
-316,241	-47,129	-0,061	-0,021
-315,226	289,667	0,181	0,235
-314,212	13,817	-0,103	0,057
-313,197	-109,797	0,089	0,013
-312,183	-149,453	-0,171	0,010
-311,168	192,011	-0,082	0,088
-310,153	81,495	0,076	-0,059
-309,139	175,892	-0,057	0,059
-308,124	-200,000	0,010	0,099
-307,110	715,674	-0,041	0,079
-306,095	-37,727	0,126	-0,048
-305,080	-200,000	-0,004	0,140
-304,066	-61,642	-0,025	-0,008
-303,051	-200,000	-0,006	-0,064
-302,037	-102,331	-0,017	-0,003
-301,022	187,332	-0,029	0,031
-300,008	587,387	-0,011	-0,019
-298,993	800,000	-0,025	-0,065
-297,978	231,779	-0,021	0,025
-296,964	-51,793	-0,118	0,039
-295,949	-200,000	0,005	-0,107
-294,935	800,000	-0,037	-0,100
-293,920	39,794	-0,109	0,070
-292,905	36,232	0,134	0,084
-291,891	209,605	0,072	0,081
-290,876	755,845	-0,065	-0,127
-289,862	-83,767	-0,080	0,018
-288,847	-200,000	0,009	0,064
-287,832	-82,045	-0,128	0,030
-286,818	800,000	-0,042	-0,083
-285,803	-95,041	0,024	0,005
-284,789	306,847	-0,031	0,042
-283,774	133,510	-0,040	-0,037
-282,759	800,000	-0,008	-0,025
-281,745	800,000	0,004	-0,012
-280,730	-93,790	0,061	0,012
-279,716	166,247	0,090	-0,091
-278,701	780,774	0,045	0,088
-277,686	156,572	0,117	0,116
-276,672	-200,000	0,013	0,044
-275,657	-100,285	-0,080	0,014
-274,643	-97,848	-0,034	0,006
-273,628	-34,453	0,097	0,038
-272,613	73,370	-0,079	0,059
-271,599	248,061	0,045	-0,054
-270,584	59,482	-0,104	0,073
-269,570	60,841	-0,120	0,085
-268,555	22,060	0,091	0,053
-267,540	800,000	0,033	0,087
-266,526	800,000	-0,033	-0,071
-265,511	-154,157	0,188	0,009
-264,497	-200,000	-0,010	0,057
-263,482	-200,000	-0,005	0,043
-262,467	-200,000	-0,019	0,085
-261,453	153,952	-0,112	0,110
-260,438	202,577	0,042	0,047
-259,424	162,896	-0,082	-0,083
-258,409	-200,000	-0,002	-0,063
-257,395	-185,276	0,024	-0,000
-256,380	-200,000	0,000	0,082
-255,365	800,000	-0,066	0,162
-254,351	242,697	-0,099	-0,118
-253,336	-200,000	0,004	-0,058
-252,322	-55,647	0,088	0,028
-251,307	800,000	0,041	-0,129
-250,292	-8,501	-0,055	0,026
-249,278	22,680	0,085	-0,049
-248,263	800,000	0,040	0,085
-247,249	-78,462	0,181	-0,044
-246,234	556,822	0,017	0,029
-245,219	-129,497	0,024	0,002
-244,205	-200,000	-0,017	0,116
-243,190	800,000	0,044	-0,107
-242,176	103,732	0,035	0,029
-241,161	-200,000	-0,014	-0,071
-240,146	-35,048	0,167	-0,065
-239,132	-47,735	-0,051	-0,018
-238,117	26,938	0,044	0,026
-237,103	-62,493	-0,183	0,054
-236,088	11,882	0,119	0,065
-235,073	158,423	0,091	0,090
-234,059	-200,000	-0,001	0,003
-233,044	495,078	0,043	0,071
-232,030	-46,127	0,084	0,029
-231,015	-136,356	-0,122	-0,010
-230,000	80,105	-0,037	0,028
-228,986	-200,000	0,023	0,089
-227,971	800,000	-0,049	-0,101
-226,957	238,081	0,068	0,081
-225,942	-108,547	0,063	0,009
-224,927	388,531	-0,007	-0,010
-223,913	-42,077	-0,066	-0,024
-222,898	-200,000	-0,038	-0,362
-221,884	-200,000	-0,029	-0,125
-220,869	-115,801	-0,099	0,013
-219,855	14,591	0,012	0,007
-218,840	-130,742	0,050	-0,005
-217,825	-102,168	0,008	-0,001
-216,811	126,986	0,060	0,054
-215,796	213,642	0,021	0,023
-214,782	-51,211	-0,075	0,025
-213,767	11,791	-0,019	-0,010
-212,752	-200,000	0,041	0,133
-211,738	180,398	-0,045	0,047
-210,723	588,508	0,039	0,068
-209,709	-50,895	-0,063	0,021
-208,694	84,869	-0,022	0,017
-207,679	-19,102	-0,124	-0,055
-206,665	-22,897	0,128	0,055
-205,650	-200,000	-0,003	0,015
-204,636	308,218	0,062	0,082
-203,621	281,782	-0,022	0,028
-202,606	-29,970	-0,015	-0,006
-201,592	238,972	-0,073	-0,086
-200,577	-200,000	0,008	-0,040
-199,563	-92,134	0,042	0,008
-198,548	800,000	0,078	0,156
-197,533	12,149	-0,094	-0,051
-196,519	244,384	0,115	0,138
-195,504	-151,965	-0,030	-0,002
-194,490	-200,000	0,039	-0,157
-193,475	230,721	-0,098	-0,114
-192,460	121,776	0,029	0,026
-191,446	800,000	0,050	-0,107
-190,431	105,663	0,102	0,085
-189,417	7,603	-0,081	0,043
-188,402	64,020	0,118	0,084
-187,387	-114,152	-0,076	-0,010
-186,373	378,937	-0,022	-0,032
-185,358	-200,000	0,004	-0,069
-184,344	-69,436	-0,053	-0,014
-183,329	136,347	-0,048	0,044
-182,315	125,958	0,101	0,091
-181,300	137,539	0,032	-0,030
-180,285	-132,167	-0,116	0,011
-179,271	171,143	-0,094	-0,096
-178,256	-160,312	0,013	-0,000
-177,242	-76,281	0,134	0,033
-176,227	401,240	0,059	-0,089
-175,212	117,440	0,084	0,074
-174,198	-200,000	-0,021	0,094
-173,183	-200,000	0,015	-0,057
-172,169	-200,000	-0,002	-0,147
-171,154	-81,512	-0,088	-0,020
-170,139	800,000	0,022	0,048
-169,125	9,421	0,072	-0,039
-168,110	6,072	0,109	0,057
-167,096	800,000	0,031	-0,074
-166,081	-200,000	0,022	-0,132
-165,066	173,765	0,042	-0,043
-164,052	-200,000	-0,014	-0,098
-163,037	-51,567	0,160	-0,053
-162,023	544,114	-0,041	0,071
-161,008	102,555	0,071	0,059
-159,993	-200,000	0,022	0,089
-158,979	-29,134	0,106	0,043
-157,964	800,000	0,053	-0,155
-156,950	-128,602	0,033	-0,003
-155,935	-200,000	0,011	0,040
-154,920	-200,000	-0,007	-0,117
-153,906	800,000	-0,019	0,039
-152,891	-92,325	-0,070	-0,014
-151,877	-200,000	-0,019	0,076
-150,862	-200,000	-0,017	-0,303
-149,847	85,775	0,023	-0,018
-148,833	353,645	0,021	-0,030
-147,818	-200,000	-0,016	0,056
-146,804	-84,664	0,167	0,037
-145,789	9,457	-0,115	-0,062
-144,775	502,783	0,065	0,107
-143,760	125,104	-0,039	0,035
-142,745	-40,827	-0,098	-0,036
-141,731	800,000	-0,007	-0,015
-140,716	-61,842	-0,065	-0,019
-139,702	800,000	0,072	0,184
-138,687	67,213	0,021	0,015
-137,672	349,202	-0,035	-0,049
-136,658	188,552	-0,038	0,040
-135,643	-161,205	0,070	-0,003
-134,629	-200,000	-0,027	0,149
-133,614	-152,797	0,215	0,011
-132,599	51,891	-0,044	-0,030
-131,585	438,257	-0,039	0,060
-130,570	82,751	0,009	-0,007
-129,556	-135,393	-0,071	0,006
-128,541	334,699	-0,097	-0,134
-127,526	10,750	-0,114	0,062
-126,512	272,676	-0,061	-0,077
-125,497	800,000	-0,004	-0,011
-124,483	-43,837	-0,029	0,010
-123,468	-77,650	0,020	-0,005
-122,453	393,917	-0,106	-0,157
-121,439	29,011	0,082	0,049
-120,424	-69,807	0,059	0,016
-119,410	-171,029	-0,044	0,001
-118,395	-200,000	0,004	0,068
-117,380	67,047	-0,062	0,045
-116,366	-76,554	0,111	0,028
-115,351	60,452	-0,069	-0,048
-114,337	117,319	-0,070	0,061
-113,322	180,296	0,053	0,056
-112,307	591,347	-0,018	-0,031
-111,293	-127,370	0,104	-0,011
-110,278	11,221	0,060	-0,032
-109,264	-200,000	0,007	-0,063
-108,249	228,574	-0,147	-0,170
-107,234	297,676	-0,057	0,074
-106,220	-176,073	0,052	0,001
-105,205	-200,000	-0,029	-0,095
-104,191	800,000	0,020	0,048
-103,176	35,072	0,086	0,053
-102,162	800,000	-0,027	0,066
-101,147	-92,689	0,062	0,012
-100,132	64,218	-0,088	-0,063
-99,118	-200,000	-0,035	-0,175
-98,103	22,317	-0,074	0,043
-97,089	667,847	0,060	0,110
-96,074	-98,668	0,042	0,007
-95,059	-200,000	-0,018	0,130
-94,045	-200,000	0,017	-0,156
-93,030	571,339	-0,023	-0,041
-92,016	-187,873	0,107	0,001
-91,001	113,759	-0,017	0,014
-89,986	476,560	-0,102	0,164
-88,972	669,554	-0,023	-0,043
-87,957	54,080	-0,098	0,067
-86,943	246,746	0,030	-0,036
-85,928	400,139	-0,030	0,044
-84,913	134,384	0,089	-0,082
-83,899	135,819	0,088	-0,081
-82,884	-135,266	0,135	0,011
-81,870	800,000	0,027	0,054
-80,855	326,806	-0,059	0,080
-79,840	800,000	0,023	-0,048
-78,826	49,022	-0,051	-0,034
-77,811	20,997	-0,184	-0,106
-76,797	-153,943	-0,021	-0,001
-75,782	114,165	0,159	-0,137
-74,767	-200,000	-0,030	-0,121
-73,753	333,548	0,026	-0,036
-72,738	-200,000	0,000	-0,107
-71,724	-200,000	-0,043	-0,221
-70,709	-200,000	0,030	0,121
-69,694	800,000	0,006	0,016
-68,680	-135,064	-0,016	0,001
-67,665	-163,840	0,123	-0,004
-66,651	-83,778	0,091	0,020
-65,636	-200,000	-0,027	-0,092
-64,622	559,837	-0,034	0,059
-63,607	631,919	0,040	-0,071
-62,592	-200,000	-0,017	-0,116
-61,578	-21,169	-0,100	0,043
-60,563	503,855	0,059	-0,098
-59,549	279,421	0,048	0,061
-58,534	-34,581	-1,723	-0,665
-57,519	441,535	-1,319	-2,050
-56,505	-200,000	-0,436	-4,550
-55,490	250,356	0,900	1,084
-54,476	800,000	5,026	11,491
-53,461	-200,000	19,318	319,745
-52,446	-200,000	740,865	2334,515
-51,432	573,461	1655,739	2869,769
-50,417	78,234	1671,276	1261,779
-49,403	21,328	1544,040	885,827
-48,388	15,204	1466,328	811,467
-47,373	17,906	1456,865	819,257
-46,359	16,674	1446,558	807,520
-45,344	13,437	1442,061	789,468
-44,330	13,350	1440,033	787,910
-43,315	13,350	1438,354	786,960
-42,300	13,370	1436,573	786,050
-41,286	13,424	1435,273	785,567
-40,271	13,389	1433,973	784,656
-39,257	13,317	1432,814	783,648
-38,242	13,419	1431,137	783,183
-37,227	13,377	1430,259	782,475
-36,213	13,407	1428,858	781,820
-35,198	13,372	1427,758	781,018
-34,184	13,411	1426,878	780,691
-33,169	13,384	1425,518	779,788
-32,154	13,424	1424,254	779,256
-31,140	13,429	1423,152	778,644
-30,125	13,511	1421,859	778,297
-29,111	13,398	1420,952	777,232
-28,096	13,413	1419,786	776,636
-27,082	13,352	1418,697	775,720
-26,067	13,326	1417,580	774,959
-25,052	13,373	1416,404	774,504
-24,038	13,335	1415,513	773,808
-23,023	13,337	1414,474	773,219
-22,009	13,343	1413,570	772,725
-20,994	13,331	1412,568	772,087
-19,979	13,297	1411,725	771,438
-18,965	13,285	1410,911	770,907
-17,950	13,300	1409,938	770,414
-16,936	13,287	1409,109	769,870
-15,921	13,226	1407,855	768,869
-14,906	13,252	1406,904	768,439
-13,892	13,247	1405,925	767,852
-12,877	13,222	1405,189	767,302
-11,863	13,296	1404,385	767,175
-10,848	13,269	1403,392	766,480
-9,833	13,201	1402,642	765,721
-8,819	13,174	1401,701	765,050
-7,804	13,144	1400,858	764,421
-6,790	13,170	1399,650	763,851
-5,775	13,131	1398,664	763,103
-4,760	13,134	1397,785	762,609
-3,746	13,136	1396,779	762,035
-2,731	13,131	1395,757	761,428
-1,717	13,102	1395,140	760,926
-0,702	13,114	1393,291	759,940
0,313	16,974	1310,068	732,427
1,327	33,268	703,752	431,110
2,342	51,135	123,195	82,547
3,356	2,331	16,729	8,533
4,371	19,608	3,254	1,847
5,386	51,453	0,585	0,392
6,400	188,512	0,194	0,205
7,415	78,675	-0,217	-0,164
8,429	800,000	-0,062	-0,141
9,444	74,938	-0,275	-0,205
10,459	124,245	-0,328	-0,292
11,473	-53,549	-0,346	-0,111
12,488	56,431	-0,295	-0,202
13,502	104,815	-0,360	-0,300
14,517	126,811	-0,244	-0,218
15,531	-5,458	-0,373	-0,180
16,546	15,090	-0,351	-0,194
17,561	175,679	-0,270	-0,277
18,575	201,396	-0,198	-0,215
19,590	59,962	-0,147	-0,102
20,604	-11,262	-0,212	-0,098
21,619	-35,995	-0,356	-0,135
22,634	142,876	-0,440	-0,413
23,648	54,220	-0,435	-0,295
24,663	185,540	-0,335	-0,352
25,677	64,854	-0,365	-0,260
26,692	45,683	-0,307	-0,200
27,707	-20,979	-0,407	-0,175
28,721	176,295	-0,321	-0,330
29,736	110,277	-0,346	-0,294
30,750	114,826	-0,384	-0,330
31,765	24,153	-0,374	-0,217
32,780	-51,356	-0,415	-0,136
33,794	230,716	-0,297	-0,344
34,809	98,768	-0,314	-0,256
35,823	182,401	-0,327	-0,340
36,838	168,775	-0,346	-0,348
37,853	191,524	-0,346	-0,368
38,867	107,616	-0,477	-0,400
39,882	246,780	-0,339	-0,404
40,896	139,065	-0,243	-0,226
41,911	-101,008	-0,486	-0,083
42,926	39,473	-0,349	-0,220
43,940	165,358	-0,362	-0,361
44,955	-6,350	-0,431	-0,206
45,969	316,248	-0,329	-0,439
46,984	-17,612	-0,415	-0,183
47,999	146,964	-0,321	-0,304
49,013	32,325	-0,358	-0,217
50,028	36,623	-0,418	-0,260
51,042	64,172	-0,346	-0,245
52,057	257,205	-0,325	-0,395
53,071	88,524	-0,346	-0,271
54,086	-110,944	-0,419	-0,060
55,101	-22,801	-0,414	-0,175
56,115	113,966	-0,419	-0,359
57,130	110,966	-0,303	-0,257
58,144	-5,034	-0,410	-0,198
59,159	114,176	-0,287	-0,245
60,174	-2,966	-0,342	-0,167
61,188	94,195	-0,363	-0,290
62,203	-52,815	-0,439	-0,142
63,217	-70,313	-0,387	-0,103
64,232	485,381	-0,151	-0,242
65,247	49,030	-0,461	-0,304
66,261	136,494	-0,312	-0,286
67,276	27,661	-0,473	-0,279
68,290	-43,531	-0,344	-0,121
69,305	162,056	-0,160	-0,158
70,320	95,181	-0,256	-0,205
71,334	125,305	-0,260	-0,231
72,349	162,259	-0,278	-0,274
73,363	30,769	-0,350	-0,210
74,378	76,882	-0,389	-0,290
75,393	160,618	-0,213	-0,209
76,407	10,638	-0,343	-0,183
77,422	292,425	-0,215	-0,276
78,436	10,127	-0,313	-0,167
79,451	5,421	-0,352	-0,182
80,466	27,573	-0,340	-0,200
81,480	167,186	-0,240	-0,240
82,495	-22,466	-0,311	-0,132
83,509	-19,976	-0,353	-0,153
84,524	-13,059	-0,315	-0,143
85,539	-19,201	-0,276	-0,120
86,553	85,996	-0,255	-0,197
87,568	64,314	-0,238	-0,168
88,582	58,957	-0,383	-0,264
89,597	-58,581	-0,435	-0,132
90,611	63,780	-0,300	-0,211
91,626	-64,610	-0,404	-0,114
92,641	273,218	-0,188	-0,234
93,655	25,541	-0,303	-0,176
94,670	56,490	-0,274	-0,187
95,684	-38,211	-0,310	-0,115
96,699	-1,492	-0,286	-0,141
97,714	573,047	-0,168	-0,289
98,728	3,143	-0,298	-0,151
99,743	17,252	-0,267	-0,148
100,757	-14,002	-0,273	-0,123
101,772	2,973	-0,273	-0,139
102,787	-2,629	-0,403	-0,197
103,801	178,807	-0,229	-0,235
104,816	800,000	-0,147	-0,308
105,830	-113,102	-0,280	-0,038
106,845	73,511	-0,182	-0,133
107,860	20,151	-0,260	-0,146
108,874	294,664	-0,215	-0,277
109,889	99,857	-0,281	-0,228
110,903	147,862	-0,237	-0,224
111,918	-4,614	-0,360	-0,174
112,933	172,948	-0,135	-0,136
113,947	579,631	-0,107	-0,185
114,962	1,780	-0,275	-0,138
115,976	37,112	-0,213	-0,132
116,991	46,661	-0,320	-0,208
118,006	51,534	-0,349	-0,232
119,020	75,369	-0,302	-0,223
120,035	-90,343	-0,262	-0,053
121,049	-36,041	-0,276	-0,104
122,064	40,406	-0,342	-0,215
123,079	-10,835	-0,281	-0,130
124,093	-21,625	-0,210	-0,089
125,108	146,921	-0,175	-0,165
126,122	225,424	-0,252	-0,286
127,137	-21,319	-0,261	-0,111
128,151	13,491	-0,188	-0,102
129,166	7,310	-0,172	-0,090
130,181	119,818	-0,123	-0,107
131,195	212,475	-0,253	-0,280
132,210	-10,024	-0,314	-0,146
133,224	27,829	-0,359	-0,211
134,239	-26,440	-0,220	-0,090
135,254	59,238	-0,216	-0,148
136,268	-28,160	-0,234	-0,094
137,283	118,679	-0,206	-0,177
138,297	331,939	-0,178	-0,241
139,312	214,305	-0,247	-0,274
140,327	496,371	-0,137	-0,222
141,341	245,603	-0,168	-0,198
142,356	-67,798	-0,246	-0,067
143,370	121,963	-0,225	-0,196
144,385	15,968	-0,177	-0,097
145,400	-18,840	-0,261	-0,113
146,414	3,296	-0,179	-0,091
147,429	-86,496	-0,381	-0,081
148,443	186,454	-0,184	-0,191
149,458	41,562	-0,309	-0,195
150,473	-200,000	-0,244	0,000
151,487	-106,702	-0,319	-0,049
152,502	135,756	-0,163	-0,148
153,516	56,193	-0,234	-0,159
154,531	456,128	-0,168	-0,262
155,546	380,892	-0,175	-0,251
156,560	280,757	-0,165	-0,206
157,575	71,736	-0,196	-0,142
158,589	115,392	-0,229	-0,195
159,604	430,830	-0,132	-0,200
160,619	16,303	-0,446	-0,245
161,633	7,465	-0,254	-0,132
162,648	-15,642	-0,226	-0,100
163,662	98,183	-0,251	-0,201
164,677	95,235	-0,158	-0,126
165,692	-55,307	-0,239	-0,075
166,706	136,063	-0,238	-0,216
167,721	43,817	-0,187	-0,119
168,735	-55,155	-0,204	-0,064
169,750	435,861	-0,067	-0,102
170,764	178,215	-0,195	-0,198
171,779	800,000	-0,085	-0,206
172,794	-91,624	-0,229	-0,045
173,808	88,867	-0,299	-0,232
174,823	145,032	-0,248	-0,231
175,837	-73,704	-0,276	-0,070
176,852	7,712	-0,205	-0,107
177,867	-51,488	-0,220	-0,071
178,881	-95,703	-0,247	-0,046
179,896	306,115	-0,104	-0,135
180,910	229,600	-0,174	-0,198
181,925	800,000	-0,150	-0,331
182,940	117,337	-0,151	-0,129
183,954	121,757	-0,246	-0,214
184,969	800,000	-0,152	-0,314
185,983	124,099	-0,259	-0,227
186,998	110,418	-0,202	-0,169
188,013	61,754	-0,207	-0,144
189,027	106,768	-0,120	-0,099
190,042	65,109	-0,277	-0,195
191,056	-10,608	-0,167	-0,077
192,071	3,393	-0,232	-0,117
193,086	-114,171	-0,172	-0,023
194,100	110,768	-0,154	-0,129
195,115	800,000	-0,120	-0,248
196,129	134,318	-0,254	-0,229
197,144	687,157	-0,115	-0,211
198,159	356,263	-0,154	-0,215
199,173	269,992	-0,166	-0,203
200,188	44,160	-0,183	-0,117
201,202	-48,679	-0,157	-0,052
202,217	95,992	-0,210	-0,167
203,232	270,759	-0,110	-0,134
204,246	154,593	-0,144	-0,138
205,261	9,014	-0,226	-0,118
206,275	-98,334	-0,149	-0,026
207,290	164,162	-0,141	-0,138
208,304	67,595	-0,273	-0,193
209,319	20,463	-0,177	-0,099
210,334	485,729	-0,094	-0,150
211,348	495,189	-0,186	-0,298
212,363	68,213	-0,232	-0,165
213,377	124,606	-0,153	-0,133
214,392	70,374	-0,222	-0,160
215,407	242,239	-0,176	-0,205
216,421	72,508	-0,187	-0,135
217,436	747,362	-0,121	-0,227
218,450	321,402	-0,170	-0,225
219,465	297,533	-0,163	-0,208
220,480	-58,491	-0,248	-0,074
221,494	35,843	-0,235	-0,143
222,509	69,690	-0,186	-0,133
223,523	-43,820	-0,205	-0,071
224,538	-160,832	-0,111	-0,004
225,553	61,677	-0,289	-0,199
226,567	219,967	-0,234	-0,261
227,582	-83,609	-0,262	-0,058
228,596	197,905	-0,122	-0,129
229,611	97,318	-0,101	-0,080
230,626	-189,702	-0,281	-0,002
231,640	800,000	-0,157	-0,308
232,655	6,268	-0,351	-0,180
233,669	161,604	-0,251	-0,244
234,684	-22,994	-0,126	-0,052
235,699	52,533	-0,213	-0,141
236,713	78,518	-0,279	-0,206
237,728	-10,400	-0,170	-0,078
238,742	-118,593	-0,142	-0,017
239,757	364,843	-0,160	-0,224
240,772	143,092	-0,189	-0,175
241,786	-200,000	-0,048	-0,209
242,801	307,332	-0,210	-0,272
243,815	-11,719	-0,205	-0,093
244,830	-99,188	-0,077	-0,013
245,844	27,598	-0,193	-0,112
246,859	224,711	-0,232	-0,260
247,874	202,624	-0,226	-0,242
248,888	-66,202	-0,318	-0,087
249,903	69,713	-0,226	-0,161
250,917	431,134	-0,124	-0,186
251,932	60,734	-0,218	-0,150
252,947	15,215	-0,159	0,086
253,961	-55,130	-0,191	-0,059
254,976	553,867	-0,158	-0,265
255,990	59,699	-0,170	-0,116
257,005	252,521	-0,212	-0,250
258,020	221,658	-0,153	-0,170
259,034	-5,112	-0,125	-0,059
260,049	-200,000	-0,022	-0,300
261,063	20,527	-0,208	-0,116
262,078	-32,452	-0,209	-0,080
263,093	145,954	-0,218	-0,202
264,107	73,023	-0,132	-0,095
265,122	73,004	-0,189	-0,136
266,136	95,355	-0,069	0,054
267,151	45,347	-0,132	-0,084
268,166	576,555	-0,085	-0,143
269,180	59,130	-0,209	-0,142
270,195	415,105	-0,184	-0,272
271,209	-200,000	-0,062	-0,188
272,224	800,000	-0,062	-0,189
273,239	24,959	-0,227	-0,130
274,253	-200,000	-0,001	-0,080
275,268	455,897	-0,087	-0,133
276,282	-76,904	-0,173	-0,042
277,297	58,986	-0,204	-0,139
278,312	16,557	-0,216	-0,118
279,326	361,237	-0,136	-0,189
280,341	-151,454	-0,185	-0,009
281,355	67,546	-0,202	-0,142
282,370	416,656	-0,104	-0,154
283,384	69,183	-0,217	-0,154
284,399	441,354	-0,234	-0,355
285,414	180,618	-0,188	-0,190
286,428	9,986	-0,163	-0,085
287,443	-23,228	-0,220	-0,091
288,457	-87,457	-0,207	-0,043
289,472	7,146	-0,190	-0,098
290,487	-200,000	-0,058	-0,232
291,501	182,430	-0,161	-0,164
292,516	450,974	-0,152	-0,233
293,530	-62,340	-0,162	-0,046
294,545	176,076	-0,182	-0,182
295,560	135,590	-0,042	-0,037
296,574	-5,796	-0,098	-0,046
297,589	-200,000	-0,057	-0,206
298,603	647,954	-0,118	-0,210
299,618	-76,534	-0,252	-0,061
300,633	-174,037	-0,177	-0,003
301,647	800,000	-0,077	-0,190
302,662	-200,000	-0,117	0,000
303,676	-62,756	-0,104	-0,029
304,691	635,816	-0,082	-0,144
305,706	-52,362	-0,225	-0,071
306,720	-97,020	-0,084	0,015
307,735	-19,515	-0,297	-0,126
308,749	-74,194	-0,239	-0,059
309,764	206,764	-0,065	-0,069
310,779	-83,849	-0,064	0,014
311,793	98,216	-0,178	-0,141
312,808	-200,000	-0,067	-0,237
313,822	101,501	-0,166	-0,133
314,837	800,000	-0,026	0,053
315,852	188,166	-0,105	-0,108
316,866	-200,000	-0,013	-0,065
317,881	103,916	-0,149	-0,120
318,895	-200,000	0,032	-0,158
319,910	434,199	-0,108	-0,162
320,925	94,274	-0,087	-0,068
321,939	-17,507	-0,120	-0,052
322,954	800,000	-0,031	-0,061
323,968	308,754	-0,107	-0,138
324,983	-66,983	-0,074	0,020
325,997	8,357	-0,183	-0,094
327,012	-21,639	-0,189	-0,079
328,027	-115,776	-0,138	-0,018
329,041	149,243	-0,040	-0,037
330,056	-131,152	-0,213	0,019
331,070	72,155	-0,054	-0,039
332,085	-116,357	-0,069	0,009
333,100	-58,036	-0,151	-0,045
334,114	50,649	-0,253	-0,164
335,129	9,483	-0,221	-0,115
336,143	-79,901	-0,330	-0,075
337,158	-98,870	-0,255	-0,044
338,173	14,721	-0,081	-0,043
339,187	-22,471	-0,185	-0,076
340,202	736,976	-0,046	-0,086
341,216	-89,137	-0,171	-0,034
342,231	573,174	-0,041	-0,068
343,246	-42,903	-0,187	-0,065
344,260	20,368	-0,239	-0,132
345,275	200,769	-0,146	-0,154
346,289	-200,000	-0,007	-0,045
347,304	800,000	-0,058	-0,138
348,319	204,350	-0,215	-0,229
349,333	3,046	-0,165	-0,082
350,348	286,331	-0,164	-0,203
351,362	227,209	-0,109	-0,122
352,377	173,145	-0,188	-0,186
353,392	15,999	-0,165	-0,089
354,406	-137,449	-0,138	0,011
355,421	210,760	1313,429	1417,610
356,435	162,264	1473,991	1418,100
