DTS Sentinel unit serial number:	SN410029Multiplexer serial number:	ORYXHardware model number:	OX2-SRSoftware version number:	ORYX F/W v4,00 Oryx Data Collector v3.7.2.0data status	okinstallation	B3 Nyhavnadifferential loss correction	single-endedforward channel	channel 1reverse channel	N/Adate	2023/12/02time	00:22:30forward acquisition time	300,00reverse acquisition time	0,00gamma	499,1914k internal	0,3196k external	0,3196temperature offset calibration	1,0000default loss term (dB/km)	0,3820temperature slope calibration	1,0000multiplexer offset coefficient	1,0000multiplexer slope coefficient	1,0000fibre end	0,00T internal ref (°C)	16,17T ext. ref 1 (°C)	1,73T ext. ref 2 (°C)	1,72length (m)	temperature (°C)	Stokes	anti-Stokes-744,400	49,033	-0,247	-0,169
-743,385	800,000	0,110	0,221
-742,371	0,405	-0,226	-0,117
-741,356	-200,000	0,092	0,369
-740,342	-29,046	-0,234	-0,097
-739,327	-200,000	0,013	0,308
-738,312	180,769	-0,241	-0,258
-737,298	-200,000	0,060	0,271
-736,283	70,372	-0,194	-0,146
-735,269	800,000	-0,075	0,238
-734,254	405,070	-0,139	-0,214
-733,239	127,178	-0,156	0,144
-732,225	-200,000	0,001	-0,191
-731,210	-200,000	0,061	0,252
-730,196	-64,984	-0,070	-0,020
-729,181	47,901	-0,103	-0,070
-728,167	298,626	-0,066	-0,089
-727,152	-73,733	0,014	0,004
-726,137	-91,752	-0,123	0,025
-725,123	780,272	0,038	-0,077
-724,108	-200,000	0,020	0,120
-723,094	-17,960	-0,090	-0,041
-722,079	39,333	-0,076	0,049
-721,064	48,757	-0,072	0,049
-720,050	-200,000	0,026	0,110
-719,035	-200,000	-0,039	0,155
-718,021	-200,000	-0,025	-0,093
-717,006	-168,399	-0,062	0,002
-715,991	-200,000	-0,024	-0,110
-714,977	-19,113	-0,166	-0,075
-713,962	800,000	0,023	-0,064
-712,948	98,832	0,116	0,097
-711,933	-200,000	0,004	-0,016
-710,918	-74,942	-0,064	0,016
-709,904	-32,099	-0,250	0,101
-708,889	-200,000	-0,043	-0,200
-707,875	-200,000	0,015	-0,094
-706,860	-138,796	-0,086	0,007
-705,845	80,739	-0,029	0,023
-704,831	13,649	0,059	0,033
-703,816	-33,810	-0,190	0,076
-702,802	-69,540	-0,048	-0,013
-701,787	-40,202	-0,140	0,053
-700,772	-110,026	-0,089	-0,013
-699,758	-200,000	-0,006	0,039
-698,743	70,461	0,121	0,091
-697,729	-91,749	-0,082	-0,017
-696,714	388,002	0,074	-0,112
-695,699	-56,538	-0,075	-0,024
-694,685	-77,896	-0,086	0,021
-693,670	280,870	0,025	0,032
-692,656	800,000	-0,021	0,043
-691,641	10,368	0,045	-0,025
-690,627	515,068	0,081	0,139
-689,612	235,956	-0,077	0,093
-688,597	-111,156	-0,079	0,012
-687,583	800,000	-0,012	-0,030
-686,568	-123,350	-0,094	-0,011
-685,554	-79,739	-0,176	0,043
-684,539	67,726	0,199	0,147
-683,524	-45,094	-0,072	0,026
-682,510	800,000	0,022	0,057
-681,495	-200,000	0,029	0,110
-680,481	86,489	-0,062	-0,050
-679,466	-200,000	-0,008	-0,097
-678,451	-128,341	-0,083	0,008
-677,437	58,285	-0,090	-0,064
-676,422	-132,996	0,061	-0,006
-675,408	79,696	0,020	0,016
-674,393	-200,000	0,006	-0,087
-673,378	197,192	-0,090	0,100
-672,364	526,873	-0,071	-0,122
-671,349	-80,295	-0,251	-0,060
-670,335	60,303	0,064	-0,046
-669,320	800,000	0,013	0,030
-668,305	286,634	-0,050	0,066
-667,291	358,933	0,083	0,121
-666,276	459,560	0,043	0,070
-665,262	114,198	0,002	-0,002
-664,247	72,417	-0,031	-0,023
-663,232	-113,539	0,195	-0,027
-662,218	-38,494	0,058	0,022
-661,203	26,753	-0,054	0,033
-660,189	800,000	0,031	-0,089
-659,174	19,049	-0,117	-0,068
-658,159	306,217	0,028	-0,038
-657,145	-200,000	0,010	-0,122
-656,130	-92,011	-0,085	-0,017
-655,116	-200,000	-0,006	-0,096
-654,101	-4,616	-0,070	-0,035
-653,086	708,297	0,008	0,016
-652,072	-19,834	-0,045	0,020
-651,057	-121,184	0,078	0,009
-650,043	85,390	0,024	-0,019
-649,028	127,982	-0,056	0,051
-648,014	119,456	0,174	0,156
-646,999	-56,772	0,124	0,039
-645,984	-85,153	-0,121	-0,027
-644,970	-127,069	0,051	-0,005
-643,955	174,964	-0,034	0,035
-642,941	248,462	-0,048	-0,059
-641,926	3,951	0,108	0,057
-640,911	-102,477	0,087	0,015
-639,897	126,901	-0,042	-0,038
-638,882	142,742	0,078	-0,075
-637,868	800,000	0,054	-0,156
-636,853	-66,882	0,138	-0,039
-635,838	564,090	-0,014	-0,024
-634,824	49,875	0,062	-0,042
-633,809	-148,758	0,120	-0,007
-632,795	91,422	0,074	-0,060
-631,780	289,943	-0,032	0,042
-630,765	800,000	0,029	0,089
-629,751	21,352	0,040	0,024
-628,736	-25,280	-0,126	-0,054
-627,722	-200,000	-0,008	0,036
-626,707	-5,172	-0,048	0,024
-625,692	-200,000	0,011	0,040
-624,678	543,388	0,028	0,049
-623,663	-200,000	0,021	0,144
-622,649	-189,059	-0,104	-0,001
-621,634	57,186	-0,125	-0,089
-620,619	800,000	-0,028	-0,065
-619,605	-87,895	-0,017	-0,004
-618,590	800,000	0,027	-0,058
-617,576	217,874	-0,006	-0,007
-616,561	53,783	0,092	-0,064
-615,546	403,694	0,085	-0,130
-614,532	-200,000	0,007	-0,155
-613,517	-200,000	0,004	-0,063
-612,503	134,908	-0,067	-0,063
-611,488	-7,403	0,036	0,018
-610,474	-200,000	-0,006	-0,053
-609,459	19,154	0,101	0,059
-608,444	-10,879	-0,061	-0,029
-607,430	-200,000	0,011	-0,081
-606,415	120,000	-0,137	0,123
-605,401	-200,000	-0,003	0,022
-604,386	-48,934	0,211	-0,073
-603,371	-200,000	0,041	0,174
-602,357	224,226	0,045	0,052
-601,342	222,804	0,045	0,052
-600,328	-200,000	0,007	-0,060
-599,313	490,263	-0,028	0,046
-598,298	19,054	0,109	0,063
-597,284	-148,401	0,047	-0,003
-596,269	-200,000	0,004	-0,025
-595,255	800,000	0,023	-0,050
-594,240	-132,900	0,065	0,006
-593,225	-4,170	-0,106	0,053
-592,211	-183,796	-0,044	0,001
-591,196	-200,000	-0,001	-0,118
-590,182	-38,188	0,043	-0,016
-589,167	-104,659	0,150	-0,025
-588,152	10,467	0,096	0,053
-587,138	-109,293	-0,128	-0,019
-586,123	-40,618	-0,049	0,018
-585,109	800,000	-0,032	-0,097
-584,094	194,281	-0,073	-0,080
-583,079	-142,374	0,140	-0,010
-582,065	800,000	0,006	0,014
-581,050	-200,000	0,008	0,037
-580,036	488,748	0,073	-0,121
-579,021	-106,708	-0,078	-0,012
-578,006	286,754	0,005	0,006
-576,992	12,839	-0,127	0,071
-575,977	-200,000	-0,009	-0,054
-574,963	-118,363	0,032	-0,004
-573,948	600,727	0,056	0,100
-572,934	141,593	-0,066	-0,063
-571,919	-25,602	-0,123	0,052
-570,904	800,000	-0,020	0,053
-569,890	583,499	0,053	0,095
-568,875	99,315	-0,074	0,062
-567,861	50,990	0,100	-0,068
-566,846	55,111	0,120	0,084
-565,831	-116,907	-0,049	0,006
-564,817	800,000	-0,013	-0,038
-563,802	201,679	0,063	-0,070
-562,788	199,229	-0,025	-0,028
-561,773	-200,000	0,006	-0,020
-560,758	81,646	-0,052	-0,040
-559,744	-67,609	0,090	0,025
-558,729	116,447	-0,080	0,071
-557,715	-96,606	0,128	-0,024
-556,700	167,217	-0,046	-0,048
-555,685	800,000	-0,032	-0,099
-554,671	-200,000	0,004	-0,051
-553,656	-200,000	-0,000	0,084
-552,642	-200,000	-0,014	0,134
-551,627	86,213	0,067	-0,054
-550,612	-200,000	0,005	-0,077
-549,598	-200,000	0,001	-0,013
-548,583	-200,000	-0,002	-0,036
-547,569	-34,887	-0,107	-0,042
-546,554	100,539	0,104	-0,087
-545,539	-200,000	0,007	0,085
-544,525	579,799	0,052	0,092
-543,510	-200,000	0,008	-0,095
-542,496	-187,256	-0,073	-0,001
-541,481	-75,356	-0,076	-0,019
-540,466	800,000	0,027	0,062
-539,452	-108,350	0,065	0,010
-538,437	-200,000	0,010	0,133
-537,423	-200,000	-0,015	0,127
-536,408	800,000	0,046	-0,118
-535,393	-0,276	-0,143	-0,073
-534,379	81,242	-0,034	-0,027
-533,364	800,000	0,031	0,080
-532,350	800,000	-0,018	-0,055
-531,335	800,000	-0,010	0,030
-530,321	-200,000	0,011	0,105
-529,306	800,000	-0,054	-0,141
-528,291	334,722	-0,076	-0,106
-527,277	800,000	-0,052	-0,137
-526,262	123,220	-0,064	0,058
-525,248	-80,159	0,131	-0,031
-524,233	-200,000	0,020	0,078
-523,218	41,744	-0,014	0,009
-522,204	272,494	0,031	-0,039
-521,189	29,814	-0,050	-0,031
-520,175	-77,292	0,069	-0,017
-519,160	290,278	-0,090	-0,118
-518,145	-20,161	-0,187	-0,083
-517,131	-121,781	0,164	0,019
-516,116	-25,034	0,044	0,019
-515,102	-200,000	0,014	-0,060
-514,087	800,000	-0,008	-0,025
-513,072	42,581	-0,104	-0,068
-512,058	-64,888	-0,121	-0,035
-511,043	70,942	0,124	-0,093
-510,029	428,787	-0,067	0,105
-509,014	-200,000	0,012	0,089
-507,999	18,948	-0,025	-0,014
-506,985	79,544	-0,034	-0,026
-505,970	-52,805	-0,092	0,031
-504,956	800,000	-0,012	-0,024
-503,941	-200,000	-0,005	-0,026
-502,926	329,643	0,075	-0,105
-501,912	433,958	-0,042	0,066
-500,897	-200,000	-0,020	0,170
-499,883	-23,315	0,070	0,030
-498,868	106,078	-0,082	-0,070
-497,853	800,000	0,060	-0,140
-496,839	93,320	-0,108	0,088
-495,824	564,055	0,072	0,127
-494,810	76,843	-0,081	0,062
-493,795	591,130	0,085	-0,152
-492,781	-200,000	0,007	-0,064
-491,766	-17,816	-0,114	-0,051
-490,751	419,442	-0,017	-0,026
-489,737	310,146	0,058	-0,079
-488,722	184,901	-0,068	-0,073
-487,708	800,000	0,057	0,172
-486,693	185,884	-0,061	0,066
-485,678	282,284	0,057	0,073
-484,664	-104,280	-0,040	0,007
-483,649	235,716	-0,027	-0,033
-482,635	37,124	-0,019	-0,012
-481,620	-200,000	0,024	0,093
-480,605	12,627	0,102	0,057
-479,591	144,156	0,129	0,124
-478,576	-110,482	-0,071	0,011
-477,562	0,586	-0,172	-0,089
-476,547	263,867	0,009	-0,012
-475,532	350,842	0,038	0,055
-474,518	800,000	0,022	-0,047
-473,503	800,000	0,059	0,145
-472,489	800,000	-0,015	-0,044
-471,474	-200,000	-0,030	0,102
-470,459	-28,495	0,058	-0,024
-469,445	16,702	0,049	-0,028
-468,430	-193,075	0,118	0,001
-467,416	-0,436	0,081	-0,041
-466,401	-200,000	0,017	-0,113
-465,386	-168,298	0,105	0,003
-464,372	7,442	0,184	0,099
-463,357	-200,000	0,011	0,042
-462,343	-82,953	0,074	-0,017
-461,328	800,000	-0,019	-0,060
-460,313	-44,706	-0,095	0,034
-459,299	236,489	0,031	-0,037
-458,284	-55,976	0,075	0,024
-457,270	580,219	0,061	-0,109
-456,255	-200,000	-0,012	0,084
-455,241	-200,000	0,007	0,032
-454,226	800,000	0,014	-0,032
-453,211	-113,071	0,073	0,010
-452,197	-15,768	0,037	0,017
-451,182	17,925	0,038	0,022
-450,168	94,877	0,070	0,057
-449,153	-200,000	-0,014	0,104
-448,138	-67,704	-0,061	-0,017
-447,124	27,948	-0,013	-0,008
-446,109	-96,009	-0,124	0,024
-445,095	-61,002	0,154	0,047
-444,080	-128,060	-0,070	0,007
-443,065	8,221	0,062	-0,034
-442,051	-200,000	-0,012	-0,044
-441,036	800,000	-0,048	-0,141
-440,022	10,563	-0,108	0,059
-439,007	-200,000	-0,034	0,226
-437,992	-200,000	-0,007	0,141
-436,978	800,000	-0,042	0,093
-435,963	-200,000	-0,040	0,154
-434,949	-200,000	0,003	-0,042
-433,934	-87,481	-0,102	0,022
-432,919	3,684	0,021	-0,011
-431,905	55,968	-0,046	0,032
-430,890	-29,852	0,213	0,087
-429,876	-0,452	-0,077	0,039
-428,861	800,000	-0,038	0,106
-427,846	800,000	0,028	-0,061
-426,832	-200,000	-0,010	-0,094
-425,817	-152,199	-0,034	-0,002
-424,803	-38,540	0,088	-0,033
-423,788	312,158	-0,044	0,060
-422,773	-200,000	-0,022	-0,110
-421,759	-200,000	0,002	0,126
-420,744	247,140	-0,031	0,038
-419,730	85,781	0,006	0,004
-418,715	-154,894	0,108	-0,005
-417,701	-1,527	0,040	0,020
-416,686	517,386	-0,017	0,028
-415,671	76,908	0,084	0,064
-414,657	772,206	0,048	0,094
-413,642	-200,000	-0,006	0,030
-412,628	179,940	0,073	0,077
-411,613	-78,345	0,042	-0,010
-410,598	-24,287	-0,047	0,020
-409,584	186,313	-0,031	0,033
-408,569	-9,483	0,063	-0,030
-407,555	-200,000	0,014	-0,059
-406,540	33,932	0,012	-0,007
-405,525	150,525	0,060	0,059
-404,511	-200,000	-0,027	-0,120
-403,496	233,076	-0,019	0,022
-402,482	-200,000	0,019	0,068
-401,467	-74,171	-0,063	-0,016
-400,452	-200,000	-0,024	0,093
-399,438	268,953	0,062	0,078
-398,423	-136,581	0,115	0,009
-397,409	208,173	-0,013	0,014
-396,394	-118,673	0,073	-0,009
-395,379	-47,934	-0,023	-0,008
-394,365	-200,000	0,044	-0,139
-393,350	223,010	-0,052	0,061
-392,336	-91,638	0,074	-0,015
-391,321	352,405	-0,073	-0,104
-390,306	119,575	-0,116	-0,103
-389,292	800,000	-0,019	-0,045
-388,277	-200,000	0,014	0,064
-387,263	-0,069	0,093	0,048
-386,248	728,145	-0,005	-0,010
-385,233	73,815	-0,038	0,029
-384,219	85,903	-0,113	0,090
-383,204	252,001	-0,083	-0,101
-382,190	-55,927	-0,059	-0,019
-381,175	452,817	-0,013	0,021
-380,160	-200,000	-0,019	-0,065
-379,146	800,000	0,080	0,193
-378,131	-200,000	0,016	0,118
-377,117	-4,431	0,086	-0,042
-376,102	25,101	0,098	-0,058
-375,088	175,022	-0,105	-0,110
-374,073	-54,922	0,062	0,020
-373,058	800,000	0,010	0,027
-372,044	-189,617	0,035	0,000
-371,029	-96,535	0,101	0,019
-370,015	-16,109	-0,046	-0,021
-369,000	192,455	-0,026	-0,029
-367,985	-200,000	0,007	0,065
-366,971	-200,000	-0,001	-0,037
-365,956	246,347	0,059	0,072
-364,942	-200,000	-0,012	0,082
-363,927	800,000	0,062	0,147
-362,912	-159,622	0,070	-0,003
-361,898	325,709	-0,081	-0,112
-360,883	-182,050	-0,132	-0,002
-359,869	21,192	0,078	0,045
-358,854	257,120	-0,083	0,103
-357,839	-200,000	-0,054	0,177
-356,825	273,239	-0,053	0,068
-355,810	-94,564	0,146	-0,028
-354,796	-157,787	-0,065	-0,003
-353,781	152,598	0,029	-0,028
-352,766	250,568	0,093	-0,113
-351,752	-98,642	-0,028	0,005
-350,737	800,000	-0,018	-0,039
-349,723	-200,000	0,003	-0,093
-348,708	-48,024	0,052	-0,018
-347,693	89,483	-0,037	-0,030
-346,679	129,434	-0,069	0,063
-345,664	800,000	-0,059	-0,154
-344,650	42,047	0,053	0,034
-343,635	800,000	-0,027	-0,061
-342,620	-200,000	-0,008	0,057
-341,606	42,956	-0,163	0,106
-340,591	-21,263	-0,099	-0,043
-339,577	-94,342	-0,094	0,018
-338,562	-25,415	-0,159	-0,067
-337,548	-6,778	0,022	-0,011
-336,533	-200,000	-0,006	0,087
-335,518	629,977	-0,058	-0,106
-334,504	285,575	0,116	0,150
-333,489	-200,000	-0,025	-0,096
-332,475	66,042	0,078	0,056
-331,460	-200,000	0,009	-0,076
-330,445	-126,772	-0,084	0,009
-329,431	8,249	-0,172	0,092
-328,416	176,434	0,071	0,075
-327,402	229,303	-0,047	0,055
-326,387	-95,446	0,103	0,020
-325,372	-200,000	-0,030	-0,116
-324,358	-200,000	-0,010	-0,035
-323,343	144,746	-0,145	-0,139
-322,329	-25,377	0,147	0,062
-321,314	-200,000	0,009	-0,034
-320,299	-152,694	0,080	-0,004
-319,285	311,955	-0,084	0,113
-318,270	-84,089	-0,073	0,017
-317,256	-200,000	-0,001	-0,106
-316,241	86,690	-0,042	-0,033
-315,226	102,612	0,024	0,020
-314,212	-200,000	0,018	0,141
-313,197	-200,000	-0,016	-0,061
-312,183	-200,000	-0,010	0,179
-311,168	536,209	-0,014	-0,024
-310,153	-96,285	0,082	0,015
-309,139	-48,726	-0,101	0,035
-308,124	800,000	0,013	-0,029
-307,110	800,000	-0,027	0,067
-306,095	-117,101	-0,038	0,005
-305,080	800,000	0,041	-0,124
-304,066	0,475	-0,134	-0,069
-303,051	-200,000	-0,003	-0,080
-302,037	-200,000	0,008	-0,028
-301,022	137,265	0,092	0,086
-300,008	266,259	0,048	-0,061
-298,993	-57,966	-0,167	-0,052
-297,978	-200,000	-0,029	-0,093
-296,964	800,000	-0,023	-0,046
-295,949	-17,704	-0,205	-0,092
-294,935	217,817	-0,122	-0,139
-293,920	29,748	0,082	-0,050
-292,905	-194,409	0,047	-0,000
-291,891	45,261	0,120	0,079
-290,876	107,657	0,152	0,130
-289,862	-71,593	-0,256	0,068
-288,847	-200,000	0,009	0,031
-287,832	-35,668	-0,089	0,035
-286,818	-177,908	-0,055	0,001
-285,803	44,031	-0,164	-0,107
-284,789	4,783	-0,102	0,053
-283,774	63,747	0,080	-0,058
-282,759	-81,708	-0,068	0,016
-281,745	800,000	-0,064	-0,192
-280,730	-41,256	0,046	-0,017
-279,716	340,246	0,091	-0,128
-278,701	-118,915	0,219	-0,027
-277,686	93,220	0,042	0,034
-276,672	230,257	-0,091	-0,107
-275,657	-81,316	-0,086	0,020
-274,643	-200,000	0,002	0,133
-273,628	800,000	0,012	-0,026
-272,613	57,510	0,110	-0,077
-271,599	-8,936	0,040	0,019
-270,584	-200,000	-0,007	-0,043
-269,570	129,159	-0,060	-0,055
-268,555	800,000	0,048	0,098
-267,540	-200,000	0,003	0,059
-266,526	-163,712	-0,162	0,005
-265,511	-26,443	-0,016	-0,007
-264,497	800,000	-0,029	-0,066
-263,482	-200,000	-0,008	0,040
-262,467	800,000	-0,012	-0,034
-261,453	-200,000	-0,004	0,017
-260,438	540,531	-0,081	-0,138
-259,424	20,288	-0,075	-0,043
-258,409	386,964	0,024	0,036
-257,395	800,000	0,091	0,200
-256,380	292,964	-0,037	-0,049
-255,365	245,562	0,065	0,078
-254,351	287,195	-0,048	0,062
-253,336	83,552	-0,132	-0,103
-252,322	-56,725	0,106	-0,033
-251,307	-200,000	-0,010	-0,058
-250,292	95,820	0,022	-0,018
-249,278	-125,553	0,055	0,006
-248,263	134,325	0,080	-0,074
-247,249	159,637	0,107	-0,106
-246,234	-148,470	-0,138	0,008
-245,219	800,000	0,017	-0,041
-244,205	20,491	-0,216	-0,124
-243,190	166,112	-0,162	0,164
-242,176	-78,319	0,044	-0,011
-241,161	319,002	-0,066	0,090
-240,146	-57,444	0,017	-0,005
-239,132	-200,000	0,001	-0,125
-238,117	504,936	-0,090	-0,150
-237,103	358,281	-0,069	-0,099
-236,088	-5,830	-0,032	-0,016
-235,073	-90,043	0,246	-0,051
-234,059	-200,000	-0,018	0,071
-233,044	800,000	0,064	0,130
-232,030	80,566	0,075	0,057
-231,015	-200,000	-0,021	-0,103
-230,000	641,646	-0,073	-0,133
-228,986	-9,806	0,053	0,025
-227,971	65,214	-0,083	0,060
-226,957	85,708	0,170	0,133
-225,942	-7,112	-0,045	0,022
-224,927	4,980	0,056	-0,029
-223,913	800,000	-0,050	-0,117
-222,898	800,000	0,037	0,079
-221,884	-200,000	-0,012	0,076
-220,869	-200,000	0,005	0,096
-219,855	-77,812	0,113	0,028
-218,840	-200,000	-0,015	0,207
-217,825	800,000	0,020	-0,058
-216,811	-88,673	-0,039	0,008
-215,796	-200,000	0,011	0,046
-214,782	-48,909	0,069	0,023
-213,767	-200,000	0,003	-0,010
-212,752	-23,648	0,098	0,042
-211,738	246,744	-0,036	0,044
-210,723	-152,304	-0,007	-0,000
-209,709	509,301	0,051	-0,084
-208,694	138,214	-0,127	-0,119
-207,679	-127,682	0,015	-0,002
-206,665	-65,971	0,019	-0,005
-205,650	-200,000	-0,007	0,167
-204,636	656,832	-0,015	0,027
-203,621	17,168	0,038	0,022
-202,606	270,122	0,013	0,016
-201,592	800,000	0,059	-0,146
-200,577	800,000	-0,032	-0,089
-199,563	300,941	0,031	-0,041
-198,548	34,436	-0,087	0,054
-197,533	800,000	0,061	0,146
-196,519	319,885	-0,065	-0,088
-195,504	61,180	0,075	-0,053
-194,490	82,195	0,172	-0,133
-193,475	-200,000	0,024	-0,084
-192,460	177,909	-0,060	-0,063
-191,446	-200,000	-0,017	0,060
-190,431	561,600	0,029	0,050
-189,417	-200,000	-0,025	0,240
-188,402	-104,429	-0,109	-0,018
-187,387	708,854	0,028	0,052
-186,373	20,546	-0,061	0,035
-185,358	174,120	-0,095	0,098
-184,344	800,000	-0,034	-0,082
-183,329	-35,155	-0,016	0,006
-182,315	-200,000	0,052	0,178
-181,300	-200,000	0,017	-0,122
-180,285	114,860	-0,119	-0,103
-179,271	29,502	-0,087	-0,053
-178,256	800,000	0,074	-0,213
-177,242	-200,000	0,008	0,055
-176,227	-47,779	-0,061	-0,021
-175,212	-200,000	-0,004	0,089
-174,198	541,278	-0,029	-0,049
-173,183	103,245	-0,075	-0,062
-172,169	-53,580	0,114	0,037
-171,154	-187,981	-0,079	0,001
-170,139	151,998	-0,126	0,122
-169,125	-71,296	0,135	0,036
-168,110	67,637	-0,074	0,054
-167,096	800,000	-0,027	0,055
-166,081	-0,256	0,097	-0,049
-165,066	16,021	0,099	0,055
-164,052	309,286	0,089	-0,118
-163,037	-200,000	-0,033	-0,144
-162,023	64,296	-0,060	-0,043
-161,008	-17,415	-0,033	0,015
-159,993	-134,331	0,078	-0,007
-158,979	-200,000	-0,024	-0,110
-157,964	533,925	-0,019	-0,031
-156,950	214,228	-0,036	-0,041
-155,935	-200,000	-0,062	0,197
-154,920	-21,984	-0,096	-0,041
-153,906	-136,850	0,093	0,008
-152,891	-34,908	0,185	0,072
-151,877	800,000	-0,058	0,156
-150,862	-200,000	-0,038	-0,122
-149,847	-67,556	-0,036	0,010
-148,833	25,275	-0,087	-0,051
-147,818	-200,000	0,009	0,087
-146,804	-123,223	0,164	-0,018
-145,789	790,698	-0,059	0,115
-144,775	-200,000	-0,007	0,057
-143,760	-17,699	0,084	0,037
-142,745	-149,198	0,122	-0,007
-141,731	568,149	0,076	0,132
-140,716	800,000	-0,010	-0,031
-139,702	212,093	0,072	0,081
-138,687	-29,508	0,031	0,012
-137,672	279,022	-0,070	-0,089
-136,658	-138,869	-0,083	-0,006
-135,643	-11,954	0,110	-0,051
-134,629	247,938	-0,074	-0,089
-133,614	800,000	0,047	0,133
-132,599	32,110	0,031	0,019
-131,585	644,578	-0,124	0,226
-130,570	187,111	0,037	0,039
-129,556	90,282	-0,036	0,028
-128,541	800,000	-0,073	-0,187
-127,526	-200,000	-0,005	-0,094
-126,512	122,208	-0,060	-0,053
-125,497	-34,096	0,090	-0,035
-124,483	62,399	-0,035	-0,025
-123,468	-200,000	-0,034	0,176
-122,453	304,609	-0,090	-0,119
-121,439	-91,029	0,109	0,022
-120,424	579,469	0,016	0,028
-119,410	244,622	0,051	-0,061
-118,395	331,909	0,019	-0,026
-117,380	392,631	-0,042	0,062
-116,366	800,000	0,064	0,142
-115,351	364,329	-0,062	0,089
-114,337	196,741	0,022	-0,023
-113,322	-44,956	-0,033	0,012
-112,307	-21,539	0,034	0,015
-111,293	-3,018	0,193	0,095
-110,278	-200,000	-0,021	0,084
-109,264	-12,149	0,062	0,029
-108,249	26,617	-0,087	0,052
-107,234	217,917	-0,064	-0,072
-106,220	116,184	0,036	-0,031
-105,205	800,000	-0,052	0,122
-104,191	40,656	0,103	0,066
-103,176	1,496	-0,063	-0,032
-102,162	29,710	-0,015	0,009
-101,147	-200,000	-0,004	0,022
-100,132	146,387	-0,024	-0,023
-99,118	-72,016	-0,185	-0,049
-98,103	-100,737	-0,065	0,011
-97,089	504,110	-0,071	0,117
-96,074	160,811	0,072	0,072
-95,059	54,665	0,036	0,024
-94,045	266,823	0,059	-0,073
-93,030	-200,000	0,017	-0,080
-92,016	27,277	0,025	0,015
-91,001	-51,520	-0,127	-0,042
-89,986	568,000	-0,076	0,132
-88,972	-30,769	-0,040	0,016
-87,957	800,000	0,032	-0,067
-86,943	174,374	0,025	-0,026
-85,928	44,133	-0,159	-0,104
-84,913	74,729	-0,101	-0,075
-83,899	-200,000	0,014	0,083
-82,884	139,248	0,034	0,032
-81,870	-200,000	0,014	0,054
-80,855	670,911	0,065	0,121
-79,840	40,206	-0,027	-0,017
-78,826	-79,343	-0,180	-0,043
-77,811	37,263	-0,031	-0,019
-76,797	126,837	-0,010	-0,009
-75,782	-200,000	0,008	0,028
-74,767	800,000	0,066	0,173
-73,753	-200,000	0,000	0,020
-72,738	664,800	0,058	0,106
-71,724	49,894	0,018	0,012
-70,709	-200,000	-0,007	-0,100
-69,694	-200,000	-0,005	-0,100
-68,680	179,695	0,118	0,123
-67,665	800,000	-0,058	0,137
-66,651	-200,000	-0,007	-0,066
-65,636	800,000	0,012	0,025
-64,622	-64,902	-0,115	-0,033
-63,607	800,000	-0,033	-0,082
-62,592	-60,789	0,075	-0,022
-61,578	-123,061	0,040	0,004
-60,563	342,536	0,077	0,107
-59,549	69,346	-0,058	0,042
-58,534	-85,720	-1,308	-0,286
-57,519	423,117	-1,512	-2,312
-56,505	-200,000	-0,465	-4,440
-55,490	93,254	0,915	0,733
-54,476	800,000	4,664	11,096
-53,461	-200,000	17,523	276,992
-52,446	800,000	719,127	2206,982
-51,432	557,257	1633,001	2802,386
-50,417	81,068	1657,176	1267,428
-49,403	24,008	1531,563	893,613
-48,388	18,009	1454,846	819,941
-47,373	18,305	1444,282	815,375
-46,359	17,990	1434,880	808,535
-45,344	16,280	1430,186	797,732
-44,330	16,207	1428,301	796,305
-43,315	16,241	1426,532	795,449
-42,300	16,273	1424,954	794,687
-41,286	16,327	1423,774	794,256
-40,271	16,294	1422,448	793,324
-39,257	16,242	1421,401	792,465
-38,242	16,303	1419,956	791,914
-37,227	16,317	1418,691	791,243
-36,213	16,263	1417,333	790,200
-35,198	16,212	1416,365	789,393
-34,184	16,318	1415,146	789,178
-33,169	16,241	1414,106	788,205
-32,154	16,276	1412,792	787,608
-31,140	16,304	1411,466	786,965
-30,125	16,314	1410,578	786,489
-29,111	16,263	1409,494	785,612
-28,096	16,249	1408,350	784,880
-27,082	16,221	1407,138	784,039
-26,067	16,196	1406,035	783,279
-25,052	16,188	1405,221	782,758
-24,038	16,220	1403,944	782,162
-23,023	16,209	1402,846	781,472
-22,009	16,136	1401,907	780,574
-20,994	16,124	1401,215	780,103
-19,979	16,188	1400,100	779,748
-18,965	16,126	1399,119	778,883
-17,950	16,132	1398,219	778,379
-16,936	16,122	1397,280	777,781
-15,921	16,154	1395,692	777,016
-14,906	16,089	1395,035	776,316
-13,892	16,129	1394,109	775,953
-12,877	16,084	1393,474	775,363
-11,863	16,055	1392,485	774,647
-10,848	16,119	1391,468	774,347
-9,833	16,083	1390,403	773,557
-8,819	16,023	1389,502	772,747
-7,804	15,995	1388,760	772,175
-6,790	16,022	1387,511	771,574
-5,775	15,965	1386,643	770,798
-4,760	15,999	1385,721	770,413
-3,746	16,012	1384,880	769,975
-2,731	15,980	1384,219	769,430
-1,717	16,035	1383,029	768,989
-0,702	15,977	1381,133	767,641
0,313	19,714	1302,577	741,223
1,327	36,143	707,124	440,477
2,342	55,310	125,460	85,861
3,356	1,722	16,661	8,478
4,371	1,513	3,134	1,592
5,386	-73,432	0,558	0,143
6,400	288,433	-0,023	-0,029
7,415	-55,273	-0,346	-0,110
8,429	105,972	-0,301	-0,252
9,444	5,166	-0,266	-0,138
10,459	91,571	-0,300	-0,239
11,473	171,349	-0,293	-0,298
12,488	1,511	-0,284	-0,144
13,502	158,202	-0,250	-0,246
14,517	-155,695	-0,218	-0,010
15,531	156,526	-0,330	-0,323
16,546	-32,770	-0,393	-0,154
17,561	395,180	-0,227	-0,337
18,575	182,135	-0,159	-0,166
19,590	800,000	-0,125	-0,292
20,604	-64,749	-0,265	-0,075
21,619	24,944	-0,476	-0,279
22,634	58,762	-0,419	-0,291
23,648	32,741	-0,372	-0,227
24,663	43,867	-0,395	-0,256
25,677	155,586	-0,275	-0,268
26,692	2,784	-0,442	-0,226
27,707	-51,032	-0,403	-0,133
28,721	4,266	-0,353	-0,182
29,736	84,423	-0,432	-0,333
30,750	239,859	-0,396	-0,466
31,765	-76,046	-0,482	-0,119
32,780	188,518	-0,317	-0,335
33,794	224,634	-0,224	-0,256
34,809	-7,895	-0,330	-0,157
35,823	64,722	-0,336	-0,239
36,838	56,025	-0,354	-0,243
37,853	42,862	-0,433	-0,278
38,867	71,410	-0,370	-0,271
39,882	37,153	-0,408	-0,254
40,896	87,134	-0,371	-0,290
41,911	-27,077	-0,403	-0,165
42,926	1,412	-0,427	-0,216
43,940	-20,101	-0,385	-0,167
44,955	198,999	-0,341	-0,369
45,969	90,370	-0,300	-0,237
46,984	-17,156	-0,428	-0,190
47,999	-40,033	-0,291	-0,107
49,013	32,170	-0,259	-0,157
50,028	27,706	-0,502	-0,298
51,042	147,475	-0,345	-0,328
52,057	224,914	-0,260	-0,297
53,071	190,668	-0,300	-0,319
54,086	103,477	-0,326	-0,270
55,101	-70,288	-0,373	-0,099
56,115	120,092	-0,250	-0,219
57,130	244,594	-0,288	-0,341
58,144	-19,355	-0,418	-0,182
59,159	1,772	-0,384	-0,195
60,174	96,464	-0,314	-0,253
61,188	-14,534	-0,296	-0,134
62,203	-101,268	-0,383	-0,065
63,217	26,911	-0,293	-0,173
64,232	16,668	-0,370	-0,205
65,247	-19,720	-0,308	-0,134
66,261	40,049	-0,380	-0,240
67,276	-107,922	-0,389	-0,059
68,290	143,334	-0,344	-0,323
69,305	351,234	-0,122	-0,171
70,320	-36,380	-0,261	-0,099
71,334	175,551	-0,364	-0,372
72,349	20,680	-0,276	-0,157
73,363	85,995	-0,363	-0,281
74,378	0,048	-0,398	-0,199
75,393	160,158	-0,278	-0,273
76,407	50,618	-0,230	-0,153
77,422	-68,140	-0,331	-0,090
78,436	21,717	-0,338	-0,193
79,451	-15,978	-0,358	-0,160
80,466	-74,189	-0,366	-0,092
81,480	-7,754	-0,351	-0,166
82,495	103,639	-0,304	-0,251
83,509	66,730	-0,233	-0,167
84,524	143,932	-0,347	-0,326
85,539	97,445	-0,326	-0,263
86,553	86,147	-0,347	-0,269
87,568	-11,089	-0,382	-0,177
88,582	-32,455	-0,339	-0,132
89,597	-40,180	-0,338	-0,123
90,611	-74,666	-0,397	-0,100
91,626	-19,607	-0,355	-0,154
92,641	297,729	-0,199	-0,258
93,655	-2,685	-0,289	-0,142
94,670	-17,160	-0,472	-0,208
95,684	77,769	-0,260	-0,195
96,699	131,402	-0,271	-0,245
97,714	77,171	-0,242	-0,181
98,728	-200,000	-0,302	-0,000
99,743	55,971	-0,307	-0,209
100,757	-82,622	-0,324	-0,073
101,772	32,104	-0,331	-0,200
102,787	-8,956	-0,309	-0,145
103,801	67,026	-0,348	-0,249
104,816	185,036	-0,236	-0,247
105,830	144,917	-0,232	-0,218
106,845	-65,633	-0,234	-0,065
107,860	-81,330	-0,222	-0,051
108,874	50,425	-0,318	-0,211
109,889	44,708	-0,275	-0,177
110,903	110,274	-0,299	-0,252
111,918	5,821	-0,198	-0,103
112,933	19,813	-0,362	-0,204
113,947	800,000	-0,064	-0,135
114,962	348,598	-0,168	-0,234
115,976	45,329	-0,250	-0,162
116,991	243,639	-0,211	-0,248
118,006	153,215	-0,174	-0,167
119,020	50,382	-0,340	-0,225
120,035	21,683	-0,280	-0,159
121,049	24,964	-0,115	-0,067
122,064	-4,705	-0,117	-0,056
123,079	567,408	-0,122	-0,209
124,093	219,030	-0,329	-0,369
125,108	147,130	-0,180	-0,170
126,122	341,071	-0,206	-0,283
127,137	232,026	-0,136	-0,157
128,151	-0,343	-0,157	-0,078
129,166	-130,841	-0,247	-0,023
130,181	-64,213	-0,189	-0,053
131,195	306,471	-0,197	-0,257
132,210	800,000	-0,110	-0,257
133,224	107,968	-0,239	-0,200
134,239	488,387	-0,150	-0,241
135,254	-38,943	-0,263	-0,096
136,268	-65,108	-0,191	-0,054
137,283	246,540	-0,140	-0,166
138,297	173,369	-0,180	-0,182
139,312	743,750	-0,123	-0,232
140,327	315,911	-0,141	-0,187
141,341	23,277	-0,316	-0,181
142,356	111,596	-0,194	-0,163
143,370	75,718	-0,166	-0,123
144,385	41,696	-0,292	-0,185
145,400	-36,603	-0,312	-0,117
146,414	156,953	-0,157	-0,152
147,429	4,106	-0,231	-0,118
148,443	-31,899	-0,287	-0,112
149,458	-3,541	-0,299	-0,145
150,473	82,269	-0,218	-0,165
151,487	27,171	-0,161	-0,094
152,502	244,142	-0,223	-0,262
153,516	57,892	-0,328	-0,224
154,531	266,151	-0,132	-0,162
155,546	800,000	-0,108	-0,231
156,560	86,366	-0,259	-0,200
157,575	108,566	-0,154	-0,128
158,589	81,882	-0,218	-0,165
159,604	-38,473	-0,303	-0,111
160,619	189,253	-0,178	-0,187
161,633	-62,030	-0,322	-0,093
162,648	52,197	-0,225	-0,150
163,662	-61,954	-0,223	-0,065
164,677	-110,201	-0,148	-0,021
165,692	-189,424	-0,210	-0,002
166,706	-115,321	-0,280	-0,037
167,721	131,033	-0,245	-0,220
168,735	501,526	-0,156	-0,252
169,750	232,140	-0,245	-0,281
170,764	160,324	-0,155	-0,151
171,779	-6,409	-0,308	-0,146
172,794	164,708	-0,110	-0,108
173,808	27,906	-0,111	-0,065
174,823	196,874	-0,257	-0,274
175,837	9,005	-0,259	-0,136
176,852	214,039	-0,178	-0,197
177,867	79,170	-0,306	-0,228
178,881	-2,288	-0,191	-0,093
179,896	-45,857	-0,279	-0,095
180,910	-71,623	-0,234	-0,061
181,925	32,736	-0,246	-0,148
182,940	-66,147	-0,302	-0,083
183,954	-9,793	-0,230	-0,106
184,969	-179,615	-0,307	-0,005
185,983	-20,174	-0,190	-0,081
186,998	284,362	-0,248	-0,312
188,013	52,740	-0,258	-0,172
189,027	68,249	-0,210	-0,150
190,042	-36,174	-0,261	-0,098
191,056	36,439	-0,197	-0,121
192,071	255,323	-0,121	-0,145
193,086	5,342	-0,132	-0,067
194,100	-152,928	-0,274	0,013
195,115	202,044	-0,173	-0,186
196,129	38,527	-0,266	-0,165
197,144	119,001	-0,249	-0,214
198,159	370,522	-0,197	-0,279
199,173	-9,981	-0,341	-0,157
200,188	650,177	-0,080	-0,142
201,202	37,878	-0,091	-0,056
202,217	76,639	-0,221	-0,163
203,232	391,418	-0,120	-0,174
204,246	97,372	-0,165	-0,132
205,261	130,084	-0,156	-0,139
206,275	451,661	-0,176	-0,272
207,290	-87,624	-0,087	-0,018
208,304	166,108	-0,056	-0,055
209,319	76,658	-0,143	-0,106
210,334	106,222	-0,186	-0,154
211,348	-45,324	-0,221	-0,076
212,363	-30,644	-0,300	-0,118
213,377	301,759	-0,098	-0,127
214,392	-18,045	-0,233	-0,101
215,407	54,683	-0,235	-0,157
216,421	112,184	-0,176	-0,148
217,436	19,320	-0,228	-0,127
218,450	102,819	-0,236	-0,192
219,465	114,470	-0,184	-0,156
220,480	-21,320	-0,156	-0,066
221,494	800,000	-0,032	-0,098
222,509	-65,321	-0,169	0,047
223,523	-180,177	-0,256	0,004
224,538	-27,638	-0,189	-0,076
225,553	70,020	-0,238	-0,170
226,567	800,000	-0,130	-0,385
227,582	95,728	-0,270	-0,214
228,596	-24,945	-0,176	-0,072
229,611	-16,445	-0,140	-0,062
230,626	-39,033	-0,182	-0,066
231,640	125,154	-0,135	-0,118
232,655	23,069	-0,265	-0,150
233,669	-21,139	-0,210	-0,089
234,684	78,945	-0,265	-0,197
235,699	91,865	-0,256	-0,200
236,713	-42,404	-0,233	-0,082
237,728	-122,110	-0,215	-0,024
238,742	-85,468	-0,221	-0,047
239,757	79,537	-0,143	-0,106
240,772	356,633	-0,204	-0,283
241,786	275,080	-0,133	-0,164
242,801	-119,521	-0,110	0,013
243,815	168,342	-0,178	-0,176
244,830	44,884	-0,200	-0,128
245,844	-53,636	-0,136	0,043
246,859	416,574	-0,166	-0,247
247,874	33,009	-0,165	-0,099
248,888	329,862	-0,237	-0,318
249,903	179,497	-0,211	-0,215
250,917	-9,422	-0,079	-0,036
251,932	152,156	-0,042	-0,040
252,947	-3,590	-0,112	-0,054
253,961	-86,007	-0,228	-0,048
254,976	42,519	-0,229	-0,144
255,990	30,519	-0,158	-0,093
257,005	39,197	-0,229	-0,142
258,020	49,635	-0,196	-0,128
259,034	67,238	-0,148	-0,105
260,049	-43,130	-0,229	-0,080
261,063	800,000	-0,080	-0,243
262,078	800,000	-0,126	-0,347
263,093	130,364	-0,184	-0,163
264,107	-75,836	-0,149	-0,036
265,122	-30,590	-0,125	-0,049
266,136	-185,893	-0,131	-0,001
267,151	56,433	-0,182	-0,123
268,166	-28,603	-0,258	-0,103
269,180	162,518	-0,137	-0,133
270,195	40,163	-0,231	-0,144
271,209	-2,540	-0,294	-0,142
272,224	-137,981	-0,103	0,008
273,239	171,416	-0,099	-0,098
274,253	184,213	-0,214	-0,220
275,268	-30,113	-0,242	-0,095
276,282	45,483	-0,212	-0,135
277,297	-200,000	-0,032	-0,177
278,312	696,781	-0,117	-0,214
279,326	13,944	-0,284	-0,152
280,341	447,742	-0,046	-0,070
281,355	130,465	-0,106	-0,094
282,370	12,550	-0,208	-0,111
283,384	3,926	-0,254	-0,128
284,399	29,442	-0,138	-0,081
285,414	60,191	-0,195	-0,133
286,428	84,722	-0,195	-0,148
287,443	-71,180	-0,121	-0,031
288,457	146,498	-0,136	-0,126
289,472	122,801	-0,175	0,151
290,487	800,000	-0,058	-0,142
291,501	182,239	-0,181	-0,185
292,516	216,996	-0,104	-0,115
293,530	80,610	-0,183	-0,136
294,545	-156,009	-0,068	-0,003
295,560	165,478	-0,083	-0,081
296,574	-68,451	-0,193	-0,051
297,589	59,455	-0,199	-0,135
298,603	363,096	-0,117	-0,163
299,618	49,544	-0,157	-0,102
300,633	-4,448	-0,247	-0,118
301,647	148,476	-0,112	-0,104
302,662	678,038	-0,039	-0,071
303,676	-32,531	-0,167	-0,064
304,691	-18,484	-0,130	-0,056
305,706	-54,721	-0,205	-0,064
306,720	118,377	-0,236	-0,201
307,735	-200,000	-0,081	-0,255
308,749	268,664	-0,114	-0,138
309,764	215,223	-0,110	-0,120
310,779	-151,555	-0,177	-0,009
311,793	85,039	-0,135	-0,102
312,808	380,225	-0,097	-0,137
313,822	136,868	-0,214	-0,193
314,837	19,986	-0,176	-0,098
315,852	-1,555	-0,064	0,031
316,866	-15,330	-0,108	-0,047
317,881	33,473	-0,111	-0,066
318,895	141,298	-0,196	-0,179
319,910	7,378	-0,208	-0,107
320,925	125,785	-0,182	-0,159
321,939	189,797	-0,140	-0,144
322,954	217,621	-0,165	-0,181
323,968	800,000	-0,050	-0,103
324,983	-13,118	-0,184	-0,082
325,997	59,559	-0,237	-0,161
327,012	202,889	-0,117	-0,125
328,027	44,019	-0,175	-0,110
329,041	132,706	-0,139	-0,124
330,056	654,552	-0,082	-0,145
331,070	-131,294	-0,211	0,019
332,085	800,000	-0,101	-0,203
333,100	30,692	-0,198	-0,116
334,114	-67,092	-0,123	-0,033
335,129	-14,662	-0,227	-0,100
336,143	206,997	-0,132	-0,142
337,158	370,989	-0,088	-0,123
338,173	-104,301	-0,052	-0,008
339,187	-131,132	-0,092	0,008
340,202	61,532	-0,104	-0,071
341,216	-200,000	-0,019	-0,187
342,231	-7,400	-0,130	-0,060
343,246	150,567	-0,230	-0,215
344,260	174,329	-0,097	-0,096
345,275	22,805	-0,223	0,125
346,289	-200,000	0,013	-0,111
347,304	-74,931	-0,091	-0,022
348,319	190,411	-0,089	-0,092
349,333	-0,386	-0,075	0,037
350,348	228,294	-0,086	-0,096
351,362	43,822	-0,161	-0,101
352,377	-75,191	-0,117	-0,029
353,392	-37,628	-0,111	0,040
354,406	-99,607	-0,166	-0,028
355,421	209,863	1312,942	1416,600
356,435	161,530	1473,498	1417,114
