DTS Sentinel unit serial number:	SN410029Multiplexer serial number:	ORYXHardware model number:	OX2-SRSoftware version number:	ORYX F/W v4,00 Oryx Data Collector v3.7.2.0data status	okinstallation	B3 Nyhavnadifferential loss correction	single-endedforward channel	channel 1reverse channel	N/Adate	2023/12/03time	21:52:30forward acquisition time	300,00reverse acquisition time	0,00gamma	499,1914k internal	0,3200k external	0,3200temperature offset calibration	1,0000default loss term (dB/km)	0,3820temperature slope calibration	1,0000multiplexer offset coefficient	1,0000multiplexer slope coefficient	1,0000fibre end	0,00T internal ref (°C)	13,42T ext. ref 1 (°C)	-2,00T ext. ref 2 (°C)	-2,03length (m)	temperature (°C)	Stokes	anti-Stokes-744,400	-200,000	-0,042	-0,244
-743,385	-200,000	-0,016	0,121
-742,371	-51,963	-0,189	-0,064
-741,356	-200,000	0,109	0,437
-740,342	-194,281	-0,261	-0,001
-739,327	-200,000	-0,033	0,209
-738,312	142,581	-0,343	-0,332
-737,298	-200,000	0,020	0,244
-736,283	114,313	-0,304	-0,269
-735,269	-200,000	0,092	0,416
-734,254	202,485	-0,207	-0,232
-733,239	-109,969	-0,168	0,025
-732,225	-200,000	0,021	-0,288
-731,210	-200,000	0,047	0,386
-730,196	-127,035	-0,251	0,026
-729,181	98,882	0,087	0,073
-728,167	-64,315	-0,053	0,016
-727,152	106,522	0,084	0,072
-726,137	-97,313	-0,148	-0,028
-725,123	-42,628	-0,052	-0,019
-724,108	-1,169	-0,113	-0,058
-723,094	-200,000	0,004	-0,068
-722,079	-64,383	-0,126	0,037
-721,064	-119,794	-0,074	-0,009
-720,050	214,876	0,044	0,051
-719,035	-84,936	0,136	0,031
-718,021	120,015	-0,176	-0,158
-717,006	202,814	-0,103	-0,116
-715,991	121,429	-0,115	-0,104
-714,977	-200,000	-0,012	-0,129
-713,962	541,204	0,038	0,065
-712,948	216,943	-0,010	0,012
-711,933	156,530	-0,051	0,051
-710,918	207,505	-0,033	-0,037
-709,904	95,756	-0,127	-0,105
-708,889	623,135	-0,026	-0,047
-707,875	-128,126	0,064	-0,007
-706,860	682,376	0,004	-0,008
-705,845	80,607	0,036	-0,028
-704,831	800,000	0,060	-0,125
-703,816	800,000	-0,023	-0,049
-702,802	262,443	-0,093	0,117
-701,787	46,323	-0,071	0,048
-700,772	117,235	0,023	-0,021
-699,758	-200,000	-0,001	0,030
-698,743	-200,000	-0,008	0,065
-697,729	-20,310	-0,095	-0,042
-696,714	83,387	0,016	-0,013
-695,699	-175,246	0,043	-0,001
-694,685	-51,088	-0,064	0,022
-693,670	-41,871	-0,173	-0,064
-692,656	5,183	0,040	-0,021
-691,641	-58,876	0,093	0,029
-690,627	337,759	0,039	0,055
-689,612	800,000	-0,037	-0,076
-688,597	-200,000	-0,021	-0,102
-687,583	-200,000	-0,011	-0,135
-686,568	-118,839	0,036	-0,005
-685,554	-200,000	-0,004	0,029
-684,539	469,626	0,053	0,087
-683,524	139,861	0,062	-0,059
-682,510	-126,306	0,069	-0,007
-681,495	-2,898	-0,133	0,067
-680,481	315,351	-0,065	-0,089
-679,466	108,424	-0,058	-0,051
-678,451	718,755	-0,061	-0,117
-677,437	26,170	-0,015	-0,009
-676,422	41,098	-0,092	-0,060
-675,408	4,021	0,069	-0,036
-674,393	24,551	0,021	-0,013
-673,378	800,000	-0,021	-0,059
-672,364	274,375	-0,072	-0,093
-671,349	-200,000	-0,030	-0,186
-670,335	-200,000	-0,011	0,059
-669,320	257,651	-0,026	-0,032
-668,305	-200,000	0,003	0,065
-667,291	190,659	-0,100	0,109
-666,276	-200,000	-0,013	0,044
-665,262	213,416	-0,015	-0,017
-664,247	-54,169	-0,061	0,020
-663,232	-99,614	-0,072	0,013
-662,218	102,259	-0,049	0,041
-661,203	306,396	0,092	-0,124
-660,189	348,538	0,012	0,018
-659,174	800,000	0,058	-0,117
-658,159	247,676	-0,032	-0,039
-657,145	-200,000	0,045	-0,179
-656,130	-72,555	-0,083	-0,022
-655,116	754,857	-0,027	0,053
-654,101	98,571	0,093	-0,077
-653,086	35,712	-0,061	0,039
-652,072	-111,187	0,015	-0,002
-651,057	-76,133	0,028	0,007
-650,043	-200,000	0,010	0,038
-649,028	722,926	-0,031	0,060
-648,014	-200,000	-0,004	0,023
-646,999	702,795	0,031	0,059
-645,984	17,689	0,036	0,021
-644,970	163,840	-0,054	-0,055
-643,955	169,520	0,082	-0,084
-642,941	64,809	-0,125	-0,091
-641,926	-200,000	0,026	-0,157
-640,911	107,229	0,083	0,071
-639,897	85,003	0,031	0,025
-638,882	-10,012	-0,080	-0,038
-637,868	410,931	-0,064	-0,099
-636,853	-200,000	0,065	-0,228
-635,838	-133,151	-0,040	0,004
-634,824	516,151	-0,028	-0,048
-633,809	30,343	0,059	0,036
-632,795	800,000	-0,042	0,098
-631,780	-200,000	-0,013	0,121
-630,765	-200,000	-0,050	0,169
-629,751	324,324	-0,041	-0,057
-628,736	-200,000	-0,008	-0,037
-627,722	-115,937	0,050	-0,007
-626,707	-80,391	0,077	0,019
-625,692	-82,387	0,076	0,018
-624,678	-62,110	0,085	0,026
-623,663	-200,000	-0,011	-0,066
-622,649	6,599	-0,152	-0,082
-621,634	309,451	-0,063	-0,086
-620,619	800,000	-0,045	-0,108
-619,605	257,886	0,054	0,067
-618,590	800,000	-0,028	0,075
-617,576	474,578	0,059	0,097
-616,561	800,000	0,019	0,048
-615,546	-171,951	-0,100	-0,002
-614,532	58,384	-0,082	-0,058
-613,517	800,000	-0,025	-0,078
-612,503	50,348	-0,033	0,022
-611,488	611,489	0,091	0,165
-610,474	39,434	-0,101	0,066
-609,459	-200,000	0,004	0,037
-608,444	-73,690	-0,069	0,018
-607,430	153,806	-0,036	-0,036
-606,415	-200,000	0,021	-0,172
-605,401	-200,000	-0,006	0,037
-604,386	-28,404	0,105	-0,044
-603,371	800,000	-0,020	0,059
-602,357	-200,000	-0,052	-0,179
-601,342	-200,000	0,016	-0,064
-600,328	-180,969	-0,173	-0,002
-599,313	-200,000	-0,007	-0,079
-598,298	-200,000	-0,027	-0,150
-597,284	-200,000	0,012	0,052
-596,269	-200,000	0,003	-0,052
-595,255	-117,256	-0,122	-0,016
-594,240	149,103	0,038	0,038
-593,225	310,255	-0,032	-0,044
-592,211	13,045	0,079	0,044
-591,196	-200,000	0,047	-0,189
-590,182	-21,881	-0,028	-0,012
-589,167	-53,058	-0,025	-0,008
-588,152	-16,654	0,048	0,022
-587,138	-65,810	0,098	0,028
-586,123	-200,000	-0,012	-0,214
-585,109	-200,000	-0,032	-0,119
-584,094	-200,000	0,034	0,122
-583,079	170,410	0,064	-0,066
-582,065	-16,122	0,072	0,033
-581,050	-200,000	-0,013	-0,041
-580,036	135,768	0,119	0,112
-579,021	202,418	-0,054	-0,060
-578,006	-51,388	0,133	0,045
-576,992	-104,153	0,113	0,019
-575,977	-19,257	0,068	-0,030
-574,963	24,617	-0,094	0,056
-573,948	-33,827	-0,127	0,050
-572,934	-200,000	-0,020	0,092
-571,919	-200,000	0,023	-0,159
-570,904	-151,823	0,060	0,003
-569,890	47,576	0,090	0,061
-568,875	-200,000	0,001	0,054
-567,861	-78,336	-0,126	0,031
-566,846	91,407	0,002	0,002
-565,831	-6,546	0,041	0,020
-564,817	-200,000	-0,025	-0,107
-563,802	-15,054	0,024	0,011
-562,788	800,000	0,030	-0,084
-561,773	5,453	-0,062	-0,033
-560,758	164,752	0,039	-0,039
-559,744	-140,345	0,100	0,007
-558,729	21,806	0,036	0,021
-557,715	701,444	0,045	0,086
-556,700	28,909	-0,006	-0,003
-555,685	232,593	0,071	0,085
-554,671	-74,704	0,116	-0,030
-553,656	155,363	-0,090	-0,089
-552,642	112,194	0,088	0,077
-551,627	-21,181	-0,055	0,024
-550,612	8,833	0,060	0,032
-549,598	800,000	-0,035	0,103
-548,583	41,211	-0,098	-0,064
-547,569	800,000	-0,042	-0,094
-546,554	162,259	0,056	0,056
-545,539	-200,000	0,003	-0,035
-544,525	407,828	0,012	0,019
-543,510	-27,898	0,095	0,040
-542,496	-138,311	-0,105	0,008
-541,481	-133,644	-0,094	0,008
-540,466	800,000	-0,002	-0,005
-539,452	800,000	-0,020	-0,043
-538,437	-9,006	0,110	0,053
-537,423	-200,000	0,024	0,151
-536,408	48,313	-0,083	0,056
-535,393	-200,000	-0,003	-0,030
-534,379	800,000	0,022	-0,053
-533,364	-124,329	0,068	0,008
-532,350	-118,181	-0,009	-0,001
-531,335	295,043	0,060	0,079
-530,321	-200,000	0,038	0,152
-529,306	154,718	-0,055	0,055
-528,291	41,709	0,054	0,035
-527,277	-200,000	0,010	-0,042
-526,262	-200,000	0,039	0,127
-525,248	633,255	0,055	0,100
-524,233	-200,000	-0,035	0,148
-523,218	800,000	-0,005	0,014
-522,204	555,435	0,081	0,140
-521,189	675,195	0,066	-0,124
-520,175	-200,000	0,028	-0,175
-519,160	-200,000	-0,022	-0,110
-518,145	-200,000	0,024	0,100
-517,131	410,991	0,032	0,049
-516,116	353,799	-0,033	-0,047
-515,102	-68,324	-0,018	0,005
-514,087	-200,000	-0,018	0,123
-513,072	190,944	-0,065	-0,070
-512,058	3,240	-0,068	-0,035
-511,043	280,656	-0,038	0,049
-510,029	800,000	0,036	0,100
-509,014	212,777	-0,027	-0,030
-507,999	800,000	-0,024	-0,062
-506,985	800,000	0,025	0,051
-505,970	-105,671	-0,092	-0,015
-504,956	-132,079	0,021	0,002
-503,941	45,345	-0,048	-0,032
-502,926	40,039	0,035	-0,023
-501,912	800,000	0,055	0,132
-500,897	411,467	-0,074	0,113
-499,883	-42,254	0,044	0,016
-498,868	73,726	0,060	0,045
-497,853	-200,000	0,004	0,030
-496,839	-11,459	0,039	-0,018
-495,824	595,138	0,048	-0,086
-494,810	497,383	-0,060	0,100
-493,795	-102,573	-0,166	-0,028
-492,781	-150,493	-0,071	-0,004
-491,766	512,716	-0,160	-0,269
-490,751	-200,000	0,007	0,024
-489,737	-64,426	0,123	-0,036
-488,722	97,510	0,090	-0,074
-487,708	131,679	-0,102	-0,095
-486,693	185,098	0,047	0,051
-485,678	-200,000	0,001	-0,054
-484,664	432,478	-0,082	-0,128
-483,649	-200,000	0,007	-0,038
-482,635	-152,379	0,106	-0,005
-481,620	87,750	0,071	0,057
-480,605	800,000	-0,025	0,055
-479,591	61,166	-0,041	-0,029
-478,576	332,745	-0,079	0,110
-477,562	135,181	-0,058	-0,055
-476,547	-200,000	0,007	0,064
-475,532	264,365	-0,094	-0,118
-474,518	800,000	0,041	-0,105
-473,503	-10,873	0,020	0,009
-472,489	-92,038	0,026	0,005
-471,474	-200,000	0,007	-0,110
-470,459	800,000	0,038	-0,078
-469,445	-200,000	-0,012	-0,046
-468,430	-31,338	-0,096	-0,039
-467,416	329,659	-0,081	0,112
-466,401	-1,759	0,074	0,037
-465,386	800,000	0,035	-0,083
-464,372	800,000	-0,035	0,079
-463,357	-41,817	-0,030	-0,011
-462,343	456,226	0,036	0,057
-461,328	800,000	0,050	0,130
-460,313	-123,617	0,122	-0,014
-459,299	265,637	-0,055	0,070
-458,284	-112,570	0,090	-0,013
-457,270	3,775	0,103	0,054
-456,255	-193,624	-0,105	-0,001
-455,241	23,047	-0,107	0,063
-454,226	-27,536	-0,057	0,024
-453,211	-200,000	0,025	-0,106
-452,197	800,000	0,031	0,064
-451,182	479,232	0,053	-0,087
-450,168	-133,373	0,076	0,007
-449,153	738,562	0,019	0,036
-448,138	-200,000	-0,017	-0,077
-447,124	-200,000	0,018	0,111
-446,109	105,120	-0,095	0,080
-445,095	124,942	0,014	0,013
-444,080	224,095	-0,083	-0,097
-443,065	-50,271	-0,094	0,032
-442,051	-200,000	-0,003	-0,081
-441,036	-1,769	0,030	-0,015
-440,022	-54,536	-0,025	0,008
-439,007	-200,000	-0,013	-0,064
-437,992	-112,952	-0,129	0,018
-436,978	254,542	0,097	0,120
-435,963	-200,000	-0,012	-0,075
-434,949	177,143	0,085	-0,089
-433,934	-42,635	-0,151	0,055
-432,919	-200,000	0,006	-0,084
-431,905	-200,000	0,009	-0,092
-430,890	-200,000	-0,040	0,129
-429,876	-34,700	0,088	0,034
-428,861	-200,000	0,010	-0,148
-427,846	194,090	-0,045	-0,049
-426,832	262,921	0,059	-0,074
-425,817	31,539	0,062	0,038
-424,803	509,505	0,069	0,116
-423,788	143,294	-0,048	0,046
-422,773	-200,000	-0,031	0,118
-421,759	118,667	-0,104	0,093
-420,744	-76,261	-0,047	-0,012
-419,730	-118,834	0,105	0,013
-418,715	674,736	0,043	0,081
-417,701	-20,723	0,074	0,032
-416,686	-200,000	-0,009	0,053
-415,671	47,723	0,075	0,050
-414,657	-200,000	0,023	-0,147
-413,642	189,803	-0,051	-0,055
-412,628	-200,000	0,009	-0,117
-411,613	-17,341	-0,090	0,041
-410,598	701,005	-0,068	-0,129
-409,584	-200,000	-0,007	-0,068
-408,569	-81,890	0,075	-0,018
-407,555	168,104	0,106	-0,108
-406,540	-200,000	0,019	0,090
-405,525	122,607	-0,057	-0,051
-404,511	8,856	0,059	-0,032
-403,496	-200,000	0,002	0,021
-402,482	145,951	0,066	0,063
-401,467	800,000	-0,044	0,125
-400,452	269,078	0,078	0,099
-399,438	800,000	0,022	0,067
-398,423	30,770	-0,102	0,062
-397,409	-168,862	-0,189	0,005
-396,394	20,083	-0,053	0,030
-395,379	-200,000	0,003	-0,070
-394,365	-81,501	0,111	-0,026
-393,350	706,166	-0,079	0,149
-392,336	345,829	-0,016	-0,022
-391,321	42,261	-0,053	-0,034
-390,306	800,000	-0,025	-0,055
-389,292	62,787	-0,095	0,068
-388,277	-200,000	-0,011	-0,072
-387,263	25,032	0,038	0,023
-386,248	-123,232	0,117	-0,013
-385,233	662,947	-0,069	0,128
-384,219	264,244	0,033	0,041
-383,204	126,330	0,038	0,034
-382,190	-200,000	-0,007	-0,101
-381,175	25,691	-0,042	-0,025
-380,160	800,000	0,014	0,032
-379,146	-42,398	0,104	0,038
-378,131	-200,000	-0,003	0,123
-377,117	-19,597	-0,082	-0,036
-376,102	8,130	0,017	-0,009
-375,088	96,627	-0,025	0,021
-374,073	-139,999	0,064	-0,005
-373,058	61,638	0,009	0,006
-372,044	800,000	0,063	0,135
-371,029	-96,017	0,125	-0,024
-370,015	0,070	0,142	0,072
-369,000	800,000	0,031	-0,068
-367,985	-162,204	-0,124	-0,004
-366,971	340,691	0,017	-0,024
-365,956	204,844	-0,023	0,025
-364,942	-109,641	0,116	0,017
-363,927	122,776	0,021	0,019
-362,912	-200,000	-0,013	0,060
-361,898	66,398	0,105	0,076
-360,883	485,537	-0,043	-0,070
-359,869	-200,000	0,033	-0,216
-358,854	351,999	-0,035	-0,050
-357,839	800,000	-0,030	-0,081
-356,825	800,000	-0,027	0,069
-355,810	-17,202	0,061	-0,027
-354,796	109,880	-0,085	0,073
-353,781	800,000	-0,046	0,102
-352,766	239,884	0,052	0,062
-351,752	313,919	0,084	-0,113
-350,737	173,404	0,074	0,077
-349,723	19,858	0,114	0,066
-348,708	141,969	0,073	-0,070
-347,693	-32,902	0,014	0,006
-346,679	-111,959	-0,113	-0,016
-345,664	-5,294	-0,121	0,060
-344,650	-54,618	-0,054	0,017
-343,635	265,634	0,126	0,158
-342,620	769,571	0,077	0,150
-341,606	289,154	0,018	0,024
-340,591	-200,000	-0,007	-0,062
-339,577	-200,000	-0,020	-0,068
-338,562	-132,365	-0,091	-0,008
-337,548	-146,173	0,161	0,010
-336,533	558,686	0,012	0,021
-335,518	20,737	-0,096	-0,055
-334,504	15,056	0,024	0,014
-333,489	-58,627	-0,035	-0,011
-332,475	800,000	-0,047	-0,100
-331,460	584,411	-0,056	-0,100
-330,445	294,125	0,077	-0,101
-329,431	-84,077	0,089	-0,020
-328,416	782,803	-0,020	0,039
-327,402	291,966	0,026	0,034
-326,387	56,175	-0,167	-0,116
-325,372	543,083	-0,017	0,028
-324,358	101,211	0,041	-0,034
-323,343	165,387	-0,052	0,053
-322,329	45,127	0,047	-0,031
-321,314	800,000	-0,051	0,108
-320,299	-110,773	0,037	0,005
-319,285	333,902	-0,048	-0,067
-318,270	689,584	-0,053	-0,100
-317,256	-132,949	0,045	0,004
-316,241	-116,305	-0,131	-0,017
-315,226	252,953	0,031	-0,037
-314,212	-64,061	0,136	0,039
-313,197	160,108	0,044	-0,044
-312,183	-200,000	-0,136	0,000
-311,168	-138,056	-0,035	0,003
-310,153	800,000	0,016	0,045
-309,139	800,000	-0,017	-0,043
-308,124	-64,530	0,080	-0,023
-307,110	-200,000	0,103	0,000
-306,095	127,842	-0,019	0,018
-305,080	328,924	-0,027	-0,037
-304,066	-200,000	-0,027	-0,132
-303,051	-86,771	-0,142	0,031
-302,037	-82,031	-0,059	-0,014
-301,022	-83,700	0,106	-0,024
-300,008	800,000	-0,029	0,063
-298,993	-33,501	-0,139	0,055
-297,978	800,000	-0,025	0,065
-296,964	256,040	0,090	-0,111
-295,949	-200,000	-0,008	0,113
-294,935	357,698	0,012	-0,017
-293,920	-71,575	0,119	0,032
-292,905	-79,186	0,067	0,016
-291,891	-200,000	0,011	-0,061
-290,876	-200,000	0,018	0,065
-289,862	-200,000	-0,008	0,093
-288,847	-200,000	-0,020	-0,160
-287,832	495,053	-0,113	-0,186
-286,818	61,919	0,054	-0,038
-285,803	-110,729	0,252	0,037
-284,789	-16,427	-0,129	0,058
-283,774	-200,000	0,011	0,090
-282,759	800,000	-0,051	0,116
-281,745	-200,000	-0,005	-0,069
-280,730	328,317	-0,097	0,134
-279,716	136,248	0,093	-0,087
-278,701	-200,000	0,027	-0,087
-277,686	-200,000	0,217	-0,000
-276,672	-108,468	-0,057	0,009
-275,657	-7,208	0,047	0,023
-274,643	125,560	-0,062	0,056
-273,628	675,881	-0,104	-0,193
-272,613	164,425	-0,048	-0,049
-271,599	414,901	0,032	-0,049
-270,584	182,718	0,060	0,064
-269,570	417,828	0,019	-0,029
-268,555	-16,614	0,056	-0,025
-267,540	-31,853	-0,087	0,035
-266,526	100,025	-0,063	0,052
-265,511	-51,204	0,053	-0,018
-264,497	-200,000	-0,013	-0,093
-263,482	62,322	0,109	-0,077
-262,467	-90,278	-0,080	0,016
-261,453	334,555	-0,095	-0,131
-260,438	723,287	-0,060	-0,115
-259,424	-98,787	0,091	-0,016
-258,409	800,000	-0,049	-0,107
-257,395	73,922	-0,063	-0,047
-256,380	125,626	0,057	-0,051
-255,365	-2,491	0,031	-0,016
-254,351	-200,000	0,009	0,083
-253,336	301,568	0,073	0,096
-252,322	391,163	-0,051	-0,075
-251,307	322,893	0,064	0,088
-250,292	198,475	-0,097	0,106
-249,278	800,000	-0,027	0,055
-248,263	-200,000	-0,006	0,083
-247,249	-34,372	0,092	0,036
-246,234	149,080	-0,123	0,119
-245,219	-200,000	-0,045	-0,174
-244,205	-200,000	0,015	0,068
-243,190	588,551	-0,049	-0,087
-242,176	-72,123	0,056	-0,015
-241,161	366,784	0,080	0,115
-240,146	-200,000	0,005	0,053
-239,132	-165,172	0,116	0,004
-238,117	-39,038	-0,180	0,067
-237,103	-200,000	-0,039	-0,124
-236,088	-66,536	0,118	0,033
-235,073	800,000	-0,047	0,101
-234,059	41,877	0,160	0,104
-233,044	14,128	0,107	-0,059
-232,030	-200,000	0,043	-0,144
-231,015	502,220	-0,109	-0,180
-230,000	-122,335	-0,202	0,023
-228,986	40,784	0,040	-0,026
-227,971	-200,000	-0,035	0,121
-226,957	405,531	0,016	0,024
-225,942	-130,730	0,131	0,012
-224,927	800,000	0,013	-0,040
-223,913	-186,661	-0,074	0,001
-222,898	-104,273	-0,156	0,026
-221,884	-152,243	-0,109	-0,006
-220,869	-58,607	0,083	0,025
-219,855	-75,214	0,120	-0,030
-218,840	-200,000	-0,025	0,117
-217,825	128,435	-0,056	0,051
-216,811	-80,535	-0,135	0,032
-215,796	-200,000	-0,011	0,043
-214,782	-88,556	0,028	-0,006
-213,767	195,315	0,056	-0,060
-212,752	738,031	0,070	0,135
-211,738	800,000	0,061	-0,153
-210,723	-20,248	0,165	-0,072
-209,709	151,031	-0,089	0,087
-208,694	16,678	0,065	0,037
-207,679	113,792	-0,082	-0,071
-206,665	-200,000	0,113	0,000
-205,650	-144,900	0,104	0,007
-204,636	-200,000	0,001	0,067
-203,621	-62,905	-0,054	0,016
-202,606	378,802	0,050	-0,074
-201,592	8,985	-0,121	-0,065
-200,577	-65,583	-0,132	-0,037
-199,563	27,630	0,089	-0,053
-198,548	800,000	0,014	0,027
-197,533	-138,802	-0,109	-0,008
-196,519	-76,211	-0,023	0,006
-195,504	-200,000	-0,021	0,219
-194,490	117,485	0,046	0,040
-193,475	186,002	-0,061	0,065
-192,460	800,000	-0,060	0,131
-191,446	-70,699	0,111	0,030
-190,431	-54,357	0,050	0,016
-189,417	149,724	-0,170	-0,164
-188,402	271,822	0,047	-0,059
-187,387	-138,464	-0,080	-0,006
-186,373	-154,128	-0,110	0,005
-185,358	-87,252	0,088	-0,019
-184,344	-139,398	0,117	-0,009
-183,329	384,540	-0,039	-0,057
-182,315	442,783	-0,040	0,063
-181,300	-117,879	0,065	0,008
-180,285	413,016	-0,050	-0,076
-179,271	-200,000	-0,015	-0,245
-178,256	-38,553	0,021	-0,008
-177,242	800,000	-0,036	0,110
-176,227	800,000	-0,038	0,085
-175,212	231,835	0,113	0,132
-174,198	80,482	-0,089	0,068
-173,183	12,186	-0,133	0,073
-172,169	-37,087	-0,082	-0,031
-171,154	354,129	0,020	0,028
-170,139	800,000	-0,007	-0,014
-169,125	-200,000	-0,005	0,082
-168,110	-200,000	-0,015	0,000
-167,096	51,817	-0,128	0,086
-166,081	-200,000	-0,015	0,084
-165,066	800,000	0,056	-0,131
-164,052	800,000	0,029	0,071
-163,037	-159,413	-0,084	-0,003
-162,023	-94,096	-0,065	-0,013
-161,008	-154,447	-0,011	0,001
-159,993	103,153	0,110	0,091
-158,979	-62,599	-0,083	0,024
-157,964	281,084	0,070	-0,090
-156,950	-24,289	-0,107	0,045
-155,935	800,000	0,035	-0,081
-154,920	137,754	0,083	-0,078
-153,906	-21,283	-0,032	0,014
-152,891	189,511	0,124	-0,133
-151,877	267,123	0,028	0,035
-150,862	694,419	-0,038	-0,071
-149,847	-200,000	-0,003	-0,068
-148,833	137,931	0,050	0,046
-147,818	196,898	0,099	0,107
-146,804	-200,000	-0,040	0,259
-145,789	170,834	-0,081	-0,082
-144,775	-200,000	0,002	-0,070
-143,760	-25,659	-0,268	-0,112
-142,745	-200,000	0,016	0,067
-141,731	-200,000	-0,026	0,201
-140,716	-200,000	-0,008	-0,026
-139,702	316,989	0,017	0,022
-138,687	-200,000	0,007	0,090
-137,672	-200,000	-0,017	-0,065
-136,658	-85,825	-0,155	-0,034
-135,643	-12,590	0,079	-0,036
-134,629	23,739	0,089	0,052
-133,614	324,781	-0,059	-0,080
-132,599	-200,000	-0,000	-0,075
-131,585	66,989	-0,045	-0,033
-130,570	41,536	-0,041	0,027
-129,556	146,688	0,054	0,051
-128,541	265,177	0,047	-0,059
-127,526	283,399	0,028	-0,036
-126,512	-44,392	0,061	-0,022
-125,497	-24,477	-0,025	0,010
-124,483	-29,807	-0,062	-0,025
-123,468	-153,994	-0,123	0,006
-122,453	800,000	0,052	0,112
-121,439	800,000	-0,118	0,262
-120,424	800,000	-0,064	0,144
-119,410	-124,739	-0,068	-0,007
-118,395	800,000	0,042	0,101
-117,380	-144,015	0,092	0,006
-116,366	-1,805	-0,010	0,005
-115,351	-93,802	-0,067	-0,013
-114,337	-200,000	-0,005	-0,019
-113,322	93,846	-0,076	0,061
-112,307	-83,721	0,055	0,012
-111,293	-200,000	0,041	-0,135
-110,278	-34,739	0,106	0,041
-109,264	800,000	-0,016	-0,048
-108,249	-200,000	-0,013	0,059
-107,234	260,353	-0,132	0,162
-106,220	6,664	0,104	-0,055
-105,205	54,683	-0,114	-0,078
-104,191	-200,000	0,056	0,184
-103,176	-133,455	-0,037	0,003
-102,162	-56,953	-0,105	0,033
-101,147	-200,000	0,001	0,122
-100,132	-1,856	-0,152	-0,076
-99,118	-200,000	-0,012	-0,124
-98,103	97,802	0,099	-0,081
-97,089	-144,590	0,174	0,011
-96,074	310,107	-0,083	0,111
-95,059	-200,000	-0,003	0,090
-94,045	-183,921	-0,109	0,001
-93,030	-200,000	0,015	-0,090
-92,016	122,635	-0,098	0,087
-91,001	-200,000	0,001	0,018
-89,986	-25,367	-0,041	-0,017
-88,972	-200,000	0,053	0,168
-87,957	-52,346	-0,004	0,001
-86,943	-128,663	-0,103	0,010
-85,928	-92,833	0,047	-0,009
-84,913	800,000	-0,028	-0,070
-83,899	-97,812	-0,117	-0,021
-82,884	430,038	-0,032	0,050
-81,870	800,000	0,033	0,098
-80,855	114,675	-0,076	-0,066
-79,840	137,564	-0,102	-0,094
-78,826	-200,000	0,007	-0,074
-77,811	-200,000	0,006	0,030
-76,797	-200,000	0,013	0,046
-75,782	-44,508	0,043	0,015
-74,767	208,262	-0,027	0,030
-73,753	296,672	0,049	0,064
-72,738	800,000	-0,045	0,094
-71,724	-148,452	0,072	-0,004
-70,709	-101,979	-0,131	-0,022
-69,694	126,614	0,085	0,076
-68,680	392,766	0,050	-0,074
-67,665	-200,000	0,032	0,103
-66,651	-200,000	0,024	0,152
-65,636	185,204	-0,026	0,028
-64,622	190,518	-0,060	-0,064
-63,607	97,029	0,032	0,026
-62,592	-71,592	-0,034	-0,009
-61,578	-200,000	0,003	-0,019
-60,563	800,000	-0,032	0,092
-59,549	-200,000	0,007	0,191
-58,534	-40,101	-1,643	-0,603
-57,519	405,694	-1,394	-2,089
-56,505	-200,000	-0,538	-4,658
-55,490	259,019	0,941	1,152
-54,476	800,000	4,904	11,261
-53,461	-200,000	19,149	318,986
-52,446	-200,000	740,014	2334,621
-51,432	574,225	1655,889	2872,022
-50,417	78,495	1672,089	1263,931
-49,403	21,434	1544,864	886,985
-48,388	15,312	1467,025	812,508
-47,373	17,998	1457,335	820,098
-46,359	16,742	1447,173	808,324
-45,344	13,570	1442,628	790,547
-44,330	13,465	1440,842	789,031
-43,315	13,507	1438,981	788,185
-42,300	13,478	1437,357	787,124
-41,286	13,486	1436,069	786,427
-40,271	13,457	1434,870	785,598
-39,257	13,490	1433,365	784,900
-38,242	13,508	1432,280	784,360
-37,227	13,474	1431,143	783,547
-36,213	13,545	1429,569	782,991
-35,198	13,538	1428,419	782,299
-34,184	13,533	1427,663	781,829
-33,169	13,500	1426,174	780,824
-32,154	13,479	1425,241	780,186
-31,140	13,566	1423,804	779,779
-30,125	13,563	1422,608	779,076
-29,111	13,552	1421,517	778,398
-28,096	13,534	1420,412	777,678
-27,082	13,463	1419,482	776,803
-26,067	13,412	1418,458	775,971
-25,052	13,473	1417,420	775,659
-24,038	13,418	1416,303	774,757
-23,023	13,421	1415,386	774,237
-22,009	13,388	1414,391	773,508
-20,994	13,395	1413,485	773,017
-19,979	13,450	1412,405	772,655
-18,965	13,388	1411,572	771,877
-17,950	13,396	1410,591	771,345
-16,936	13,371	1409,841	770,786
-15,921	13,372	1408,507	770,032
-14,906	13,384	1407,718	769,626
-13,892	13,363	1406,778	768,985
-12,877	13,361	1405,814	768,418
-11,863	13,369	1404,901	767,925
-10,848	13,330	1403,975	767,205
-9,833	13,345	1403,164	766,801
-8,819	13,295	1402,424	766,135
-7,804	13,263	1401,662	765,539
-6,790	13,268	1400,422	764,855
-5,775	13,275	1399,336	764,262
-4,760	13,292	1398,201	763,690
-3,746	13,294	1397,329	763,194
-2,731	13,242	1396,778	762,624
-1,717	13,218	1395,935	762,023
-0,702	13,231	1393,889	760,935
0,313	17,037	1311,032	733,362
1,327	33,157	704,551	431,414
2,342	50,737	123,482	82,597
3,356	4,646	16,643	8,620
4,371	-1,243	3,198	1,593
5,386	-1,999	0,649	0,322
6,400	-200,000	0,015	0,264
7,415	-34,127	-0,259	-0,100
8,429	758,414	-0,133	-0,255
9,444	110,231	-0,373	-0,317
10,459	14,122	-0,424	-0,233
11,473	97,003	-0,271	-0,219
12,488	176,870	-0,190	-0,196
13,502	164,678	-0,238	-0,237
14,517	29,526	-0,275	-0,165
15,531	133,879	-0,324	-0,297
16,546	327,128	-0,223	-0,303
17,561	57,277	-0,401	-0,276
18,575	-172,431	-0,158	0,003
19,590	169,924	-0,307	-0,311
20,604	57,517	-0,194	-0,134
21,619	32,125	-0,366	-0,223
22,634	121,307	-0,457	-0,402
23,648	148,586	-0,424	-0,405
24,663	59,885	-0,319	-0,222
25,677	12,569	-0,385	-0,209
26,692	101,998	-0,412	-0,340
27,707	-34,628	-0,421	-0,162
28,721	112,154	-0,351	-0,300
29,736	207,084	-0,318	-0,351
30,750	109,610	-0,346	-0,293
31,765	92,355	-0,340	-0,270
32,780	-84,292	-0,472	-0,105
33,794	122,525	-0,399	-0,352
34,809	-0,797	-0,271	-0,135
35,823	-84,569	-0,399	-0,088
36,838	-55,214	-0,346	-0,109
37,853	-23,851	-0,353	-0,148
38,867	141,179	-0,302	-0,282
39,882	525,905	-0,212	-0,354
40,896	79,098	-0,332	-0,251
41,911	11,289	-0,482	-0,259
42,926	-17,082	-0,382	-0,169
43,940	102,755	-0,301	-0,248
44,955	-8,098	-0,408	-0,193
45,969	162,578	-0,244	-0,241
46,984	800,000	-0,175	-0,413
47,999	26,056	-0,471	-0,276
49,013	517,929	-0,160	-0,265
50,028	41,526	-0,363	-0,231
51,042	230,189	-0,263	-0,303
52,057	8,910	-0,453	-0,240
53,071	1,218	-0,419	-0,212
54,086	-35,548	-0,329	-0,125
55,101	155,123	-0,262	-0,254
56,115	-48,241	-0,357	-0,121
57,130	-14,442	-0,451	-0,204
58,144	0,313	-0,387	-0,194
59,159	390,619	-0,283	-0,414
60,174	110,029	-0,351	-0,296
61,188	47,781	-0,391	-0,257
62,203	204,171	-0,216	-0,236
63,217	-72,317	-0,434	-0,112
64,232	207,193	-0,336	-0,369
65,247	9,276	-0,474	-0,251
66,261	178,645	-0,334	-0,343
67,276	47,002	-0,557	-0,364
68,290	-36,075	-0,308	-0,116
69,305	21,646	-0,281	-0,161
70,320	91,770	-0,267	-0,211
71,334	-12,477	-0,363	-0,166
72,349	-46,063	-0,399	-0,137
73,363	25,217	-0,302	-0,176
74,378	145,266	-0,243	-0,229
75,393	4,291	-0,356	-0,183
76,407	179,232	-0,220	-0,226
77,422	-93,397	-0,311	-0,060
78,436	12,145	-0,221	-0,119
79,451	98,192	-0,319	-0,258
80,466	-3,476	-0,461	-0,225
81,480	-55,570	-0,300	-0,094
82,495	53,072	-0,329	-0,221
83,509	-118,264	-0,134	-0,017
84,524	-109,473	-0,299	-0,044
85,539	87,202	-0,219	-0,170
86,553	-101,474	-0,439	-0,074
87,568	-29,218	-0,320	-0,128
88,582	183,068	-0,280	-0,291
89,597	29,646	-0,306	-0,182
90,611	241,843	-0,321	-0,378
91,626	147,220	-0,275	-0,260
92,641	8,371	-0,309	-0,163
93,655	15,544	-0,386	-0,212
94,670	56,513	-0,270	-0,184
95,684	204,816	-0,240	-0,262
96,699	185,996	-0,267	-0,279
97,714	167,232	-0,296	-0,295
98,728	21,877	-0,316	-0,180
99,743	13,750	-0,291	-0,158
100,757	16,061	-0,315	-0,173
101,772	60,293	-0,259	-0,179
102,787	7,656	-0,217	-0,114
103,801	162,722	-0,289	-0,284
104,816	145,054	-0,199	-0,187
105,830	-21,237	-0,326	-0,139
106,845	0,796	-0,267	-0,134
107,860	-71,610	-0,264	-0,069
108,874	23,830	-0,261	-0,151
109,889	-10,132	-0,436	-0,202
110,903	-35,685	-0,304	-0,115
111,918	-35,888	-0,196	-0,074
112,933	87,287	-0,253	-0,196
113,947	73,372	-0,246	-0,180
114,962	-18,297	-0,234	-0,102
115,976	44,530	-0,100	-0,065
116,991	144,958	-0,283	-0,265
118,006	148,056	-0,336	-0,318
119,020	-55,264	-0,227	-0,071
120,035	145,234	-0,225	-0,211
121,049	224,851	-0,147	-0,167
122,064	117,803	-0,217	-0,187
123,079	-73,996	-0,331	-0,083
124,093	132,361	-0,249	-0,224
125,108	-42,533	-0,262	-0,093
126,122	358,375	-0,163	-0,228
127,137	54,134	-0,251	-0,169
128,151	-73,480	-0,190	-0,048
129,166	-65,959	-0,306	-0,085
130,181	41,446	-0,263	-0,166
131,195	25,433	-0,231	-0,134
132,210	25,911	-0,312	-0,181
133,224	-61,748	-0,285	-0,083
134,239	-32,431	-0,328	-0,127
135,254	408,505	-0,130	-0,194
136,268	18,618	-0,228	-0,127
137,283	-125,261	-0,152	-0,016
138,297	11,156	-0,217	-0,116
139,312	36,146	-0,292	-0,180
140,327	27,460	-0,307	-0,180
141,341	40,799	-0,341	-0,215
142,356	-76,201	-0,242	-0,059
143,370	279,692	-0,179	-0,224
144,385	-11,878	-0,345	-0,158
145,400	23,733	-0,344	-0,197
146,414	566,728	-0,128	-0,218
147,429	67,047	-0,252	-0,179
148,443	492,877	-0,186	-0,299
149,458	41,955	-0,259	-0,164
150,473	215,235	-0,119	-0,132
151,487	228,742	-0,183	-0,209
152,502	800,000	-0,111	-0,233
153,516	-57,512	-0,224	-0,068
154,531	21,622	-0,336	-0,190
155,546	-27,080	-0,319	-0,129
156,560	68,686	-0,141	-0,101
157,575	764,566	-0,168	-0,320
158,589	-30,371	-0,283	-0,112
159,604	-29,036	-0,298	-0,119
160,619	-13,043	-0,273	-0,123
161,633	164,997	-0,253	-0,249
162,648	-22,264	-0,294	-0,124
163,662	124,783	-0,182	-0,160
164,677	-4,809	-0,285	-0,136
165,692	167,536	-0,189	-0,188
166,706	71,491	-0,200	-0,144
167,721	-142,851	-0,288	-0,019
168,735	368,067	-0,187	-0,265
169,750	482,056	-0,224	-0,356
170,764	224,697	-0,169	-0,191
171,779	-173,835	-0,293	0,006
172,794	54,481	-0,099	-0,066
173,808	158,942	-0,193	-0,187
174,823	-58,370	-0,371	-0,112
175,837	6,787	-0,165	-0,085
176,852	48,060	-0,231	-0,150
177,867	443,788	-0,175	-0,268
178,881	800,000	-0,072	-0,182
179,896	92,751	-0,185	-0,145
180,910	269,760	-0,164	-0,201
181,925	0,030	-0,200	-0,099
182,940	24,676	-0,235	-0,135
183,954	-40,210	-0,121	-0,044
184,969	664,566	-0,140	-0,253
185,983	159,749	-0,170	-0,165
186,998	-200,000	-0,029	-0,168
188,013	82,033	-0,203	-0,153
189,027	47,603	-0,193	-0,125
190,042	19,043	-0,281	-0,156
191,056	81,319	-0,267	-0,200
192,071	68,427	-0,241	-0,172
193,086	-52,009	-0,128	-0,041
194,100	268,153	-0,054	-0,066
195,115	-17,623	-0,372	-0,162
196,129	33,991	-0,205	-0,124
197,144	53,478	-0,249	-0,166
198,159	16,226	-0,253	-0,139
199,173	97,378	-0,215	-0,172
200,188	178,830	-0,085	-0,086
201,202	-113,315	-0,173	-0,023
202,217	-200,000	0,006	-0,161
203,232	33,174	-0,203	-0,122
204,246	73,441	-0,138	-0,100
205,261	-1,652	-0,227	-0,111
206,275	372,683	-0,138	-0,196
207,290	33,062	-0,065	-0,039
208,304	9,269	-0,219	-0,115
209,319	183,875	-0,188	-0,193
210,334	560,045	-0,111	-0,186
211,348	800,000	-0,087	-0,267
212,363	133,834	-0,253	-0,228
213,377	161,550	-0,225	-0,219
214,392	-7,742	-0,180	-0,084
215,407	-52,751	-0,166	-0,053
216,421	-92,399	-0,171	-0,033
217,436	570,137	-0,118	-0,201
218,450	-5,140	-0,257	-0,122
219,465	49,907	-0,124	-0,081
220,480	2,553	-0,114	-0,057
221,494	-104,899	-0,164	-0,026
222,509	-154,747	-0,128	0,006
223,523	84,300	-0,162	-0,123
224,538	-69,852	-0,345	-0,091
225,553	-22,841	-0,216	-0,090
226,567	-130,473	-0,277	-0,026
227,582	84,501	-0,210	-0,159
228,596	-107,755	-0,144	-0,022
229,611	-102,701	-0,169	0,028
230,626	-3,429	-0,197	-0,095
231,640	572,607	-0,117	-0,199
232,655	-59,388	-0,253	-0,075
233,669	698,182	-0,102	-0,187
234,684	320,180	-0,230	-0,303
235,699	-28,648	-0,273	-0,109
236,713	242,157	-0,110	-0,128
237,728	120,916	-0,101	-0,087
238,742	-53,909	-0,141	-0,044
239,757	-23,026	-0,261	-0,109
240,772	3,417	-0,229	-0,115
241,786	212,064	-0,208	-0,228
242,801	27,180	-0,090	0,052
243,815	-28,857	-0,192	-0,076
244,830	-39,524	-0,259	-0,093
245,844	10,780	-0,256	-0,135
246,859	8,514	-0,215	-0,112
247,874	235,609	-0,156	-0,179
248,888	800,000	-0,101	-0,203
249,903	800,000	-0,066	-0,162
250,917	54,604	-0,174	-0,116
251,932	227,021	-0,142	-0,160
252,947	-24,281	-0,263	-0,108
253,961	262,096	-0,078	-0,094
254,976	183,996	-0,167	-0,171
255,990	125,823	-0,259	-0,227
257,005	69,820	-0,260	-0,185
258,020	88,978	-0,200	-0,154
259,034	-76,268	-0,200	0,048
260,049	20,913	-0,115	0,064
261,063	800,000	-0,109	-0,209
262,078	680,250	-0,110	-0,199
263,093	125,285	-0,234	-0,204
264,107	135,041	-0,121	-0,108
265,122	-124,306	-0,125	-0,013
266,136	800,000	-0,076	-0,196
267,151	16,715	-0,123	-0,067
268,166	-66,147	-0,211	-0,058
269,180	173,991	-0,217	-0,216
270,195	63,401	-0,262	-0,181
271,209	7,315	-0,109	-0,056
272,224	-148,288	-0,128	0,007
273,239	-18,325	-0,198	-0,085
274,253	19,827	-0,185	-0,103
275,268	11,330	-0,312	-0,164
276,282	-198,462	-0,147	0,001
277,297	32,165	-0,282	-0,168
278,312	133,709	-0,056	-0,050
279,326	-25,676	-0,172	-0,070
280,341	192,197	-0,184	-0,192
281,355	278,865	-0,103	-0,127
282,370	-11,553	-0,314	-0,142
283,384	90,219	-0,201	-0,155
284,399	216,592	-0,213	-0,234
285,414	343,696	-0,089	-0,120
286,428	-54,589	-0,191	-0,059
287,443	12,421	-0,163	-0,086
288,457	800,000	-0,058	-0,137
289,472	298,623	-0,080	-0,102
290,487	-107,304	-0,175	-0,026
291,501	265,180	-0,191	-0,230
292,516	101,337	-0,189	-0,152
293,530	-47,187	-0,192	-0,064
294,545	-75,799	-0,178	-0,043
295,560	-57,624	-0,111	-0,033
296,574	-200,000	-0,045	-0,218
297,589	221,091	-0,077	-0,085
298,603	-200,000	-0,017	-0,207
299,618	84,662	-0,089	-0,067
300,633	-70,129	-0,238	-0,062
301,647	800,000	-0,041	0,114
302,662	-109,361	-0,185	-0,027
303,676	-23,781	-0,072	-0,030
304,691	234,477	-0,140	-0,159
305,706	47,583	-0,209	-0,134
306,720	-200,000	-0,025	-0,097
307,735	-136,378	-0,200	0,016
308,749	800,000	-0,021	-0,058
309,764	-23,052	-0,108	0,045
310,779	-81,639	-0,136	-0,030
311,793	-102,816	-0,128	-0,021
312,808	34,829	-0,159	-0,095
313,822	-136,204	-0,158	-0,013
314,837	267,252	-0,166	-0,200
315,852	136,371	-0,105	-0,094
316,866	98,205	-0,153	-0,121
317,881	-125,787	-0,160	-0,016
318,895	35,981	-0,133	-0,081
319,910	77,690	-0,178	-0,130
320,925	115,074	-0,182	-0,153
321,939	122,032	-0,156	-0,134
322,954	800,000	-0,015	0,031
323,968	234,093	-0,089	-0,101
324,983	-15,154	-0,134	-0,059
325,997	461,600	-0,054	-0,083
327,012	-5,871	-0,281	-0,132
328,027	-181,608	-0,235	-0,003
329,041	-1,551	-0,146	-0,070
330,056	200,639	-0,155	-0,164
331,070	-93,723	-0,154	-0,029
332,085	-64,837	-0,217	0,060
333,100	-200,000	-0,048	-0,171
334,114	6,935	-0,098	-0,050
335,129	130,670	-0,155	-0,136
336,143	46,557	-0,161	-0,102
337,158	-75,635	-0,170	0,041
338,173	-90,219	-0,287	0,057
339,187	191,143	-0,092	-0,095
340,202	-41,334	-0,084	-0,029
341,216	-14,384	-0,206	-0,091
342,231	-21,899	-0,152	-0,063
343,246	426,500	-0,137	-0,203
344,260	14,313	0,036	0,019
345,275	32,149	-0,291	-0,172
346,289	-200,000	-0,044	-0,213
347,304	30,479	-0,135	-0,079
348,319	-8,792	-0,087	-0,040
349,333	109,444	-0,087	-0,071
350,348	-22,258	-0,150	-0,062
351,362	800,000	-0,036	-0,074
352,377	206,516	-0,160	0,172
353,392	392,088	-0,047	0,067
354,406	493,721	-0,129	-0,203
355,421	208,366	1314,627	1411,873
356,435	160,322	1475,341	1412,359
