DTS Sentinel unit serial number:	SN410029Multiplexer serial number:	ORYXHardware model number:	OX2-SRSoftware version number:	ORYX F/W v4,00 Oryx Data Collector v3.7.2.0data status	okinstallation	B3 Nyhavnadifferential loss correction	single-endedforward channel	channel 1reverse channel	N/Adate	2023/12/02time	06:57:30forward acquisition time	300,00reverse acquisition time	0,00gamma	499,1914k internal	0,3194k external	0,3194temperature offset calibration	1,0000default loss term (dB/km)	0,3820temperature slope calibration	1,0000multiplexer offset coefficient	1,0000multiplexer slope coefficient	1,0000fibre end	0,00T internal ref (°C)	15,80T ext. ref 1 (°C)	0,50T ext. ref 2 (°C)	0,47length (m)	temperature (°C)	Stokes	anti-Stokes-744,400	667,275	-0,098	-0,186
-743,385	-200,000	0,065	0,284
-742,371	281,907	-0,167	-0,219
-741,356	-200,000	0,096	0,341
-740,342	39,907	-0,219	-0,143
-739,327	-200,000	0,001	0,234
-738,312	194,844	-0,273	-0,303
-737,298	800,000	-0,172	0,364
-736,283	-200,000	-0,037	-0,303
-735,269	800,000	0,079	0,219
-734,254	-200,000	-0,096	-0,346
-733,239	44,512	-0,158	0,106
-732,225	-200,000	0,014	-0,223
-731,210	126,284	0,158	0,145
-730,196	295,488	-0,059	-0,079
-729,181	-175,026	-0,120	-0,002
-728,167	-105,177	-0,107	0,018
-727,152	171,960	-0,076	0,080
-726,137	386,839	0,018	-0,028
-725,123	-200,000	0,009	-0,051
-724,108	72,636	-0,115	-0,088
-723,094	-82,626	-0,069	-0,016
-722,079	548,563	-0,061	-0,106
-721,064	125,971	-0,086	-0,079
-720,050	-136,196	-0,053	0,004
-719,035	540,840	-0,039	0,067
-718,021	-68,820	0,139	0,039
-717,006	-81,903	-0,094	0,022
-715,991	800,000	-0,053	-0,161
-714,977	-200,000	0,003	-0,200
-713,962	113,636	-0,093	-0,082
-712,948	441,714	0,020	0,031
-711,933	800,000	-0,045	-0,113
-710,918	291,063	0,029	-0,038
-709,904	29,905	-0,109	-0,068
-708,889	18,701	-0,139	-0,081
-707,875	169,322	0,022	-0,023
-706,860	800,000	-0,057	-0,163
-705,845	-200,000	-0,004	-0,058
-704,831	345,981	-0,041	0,059
-703,816	-200,000	0,023	-0,074
-702,802	-100,542	-0,059	-0,010
-701,787	-200,000	-0,004	-0,053
-700,772	224,316	-0,050	-0,059
-699,758	54,862	0,133	-0,093
-698,743	-200,000	-0,007	0,088
-697,729	800,000	-0,043	0,094
-696,714	800,000	-0,033	0,082
-695,699	-66,877	0,066	-0,019
-694,685	-200,000	-0,032	-0,120
-693,670	120,845	-0,126	-0,114
-692,656	19,778	-0,035	-0,021
-691,641	80,888	-0,032	0,025
-690,627	-150,727	-0,095	0,005
-689,612	-113,246	0,086	0,012
-688,597	-178,296	-0,150	-0,002
-687,583	-200,000	0,023	-0,083
-686,568	-1,219	-0,067	-0,034
-685,554	800,000	0,012	-0,030
-684,539	-26,334	-0,114	-0,049
-683,524	37,991	0,058	0,038
-682,510	478,455	-0,039	-0,064
-681,495	800,000	0,040	0,095
-680,481	-126,959	-0,088	0,009
-679,466	-200,000	0,006	0,106
-678,451	800,000	0,027	-0,079
-677,437	385,275	-0,050	0,076
-676,422	800,000	0,017	-0,045
-675,408	800,000	-0,038	-0,103
-674,393	800,000	0,026	-0,068
-673,378	-33,831	-0,027	-0,011
-672,364	-24,383	-0,046	-0,020
-671,349	-13,649	0,104	-0,049
-670,335	-106,761	-0,055	0,009
-669,320	-14,046	0,013	0,006
-668,305	800,000	0,038	0,093
-667,291	-200,000	-0,004	0,053
-666,276	-200,000	0,004	-0,113
-665,262	-118,938	-0,046	0,006
-664,247	-0,352	-0,070	-0,036
-663,232	-141,606	-0,130	0,009
-662,218	-125,370	-0,035	-0,004
-661,203	-37,691	-0,125	0,048
-660,189	122,363	0,105	0,095
-659,174	-30,459	0,048	0,020
-658,159	142,360	-0,070	-0,068
-657,145	149,038	0,103	-0,101
-656,130	63,649	-0,113	-0,082
-655,116	302,990	0,113	0,153
-654,101	321,506	-0,037	0,052
-653,086	151,770	-0,104	0,103
-652,072	-77,792	-0,075	-0,019
-651,057	-200,000	-0,024	-0,087
-650,043	260,003	0,075	-0,094
-649,028	-200,000	0,015	-0,099
-648,014	800,000	0,021	0,059
-646,999	-7,553	0,057	-0,028
-645,984	417,932	0,061	0,094
-644,970	-200,000	-0,004	-0,113
-643,955	457,212	0,032	-0,052
-642,941	800,000	-0,026	-0,061
-641,926	-200,000	0,003	-0,119
-640,911	533,965	-0,025	0,044
-639,897	-70,754	0,052	0,014
-638,882	-16,838	0,143	0,065
-637,868	157,601	0,018	0,018
-636,853	51,783	-0,142	-0,098
-635,838	-11,951	-0,053	0,025
-634,824	800,000	-0,019	0,045
-633,809	438,889	-0,012	0,019
-632,795	-200,000	0,009	0,062
-631,780	-200,000	-0,001	0,090
-630,765	-200,000	-0,002	0,029
-629,751	236,363	-0,035	0,042
-628,736	-123,793	0,090	-0,010
-627,722	198,796	0,122	-0,136
-626,707	210,108	-0,122	-0,139
-625,692	800,000	0,046	-0,098
-624,678	-200,000	-0,020	0,066
-623,663	-28,513	-0,082	0,034
-622,649	-200,000	-0,010	-0,139
-621,634	274,021	-0,026	-0,033
-620,619	-13,227	0,037	-0,017
-619,605	736,777	-0,040	-0,078
-618,590	-200,000	-0,013	0,074
-617,576	-153,873	0,124	-0,006
-616,561	-200,000	0,008	0,052
-615,546	-200,000	0,051	-0,164
-614,532	800,000	-0,038	-0,112
-613,517	141,388	-0,142	-0,136
-612,503	52,580	-0,059	0,041
-611,488	350,498	-0,036	-0,051
-610,474	-200,000	-0,012	0,131
-609,459	-68,229	-0,092	0,026
-608,444	-200,000	0,002	0,056
-607,430	442,906	-0,046	-0,073
-606,415	-4,256	-0,017	0,008
-605,401	66,947	0,005	0,004
-604,386	-49,571	0,121	0,042
-603,371	626,271	-0,022	0,040
-602,357	-1,510	-0,120	0,061
-601,342	207,813	-0,105	-0,119
-600,328	-200,000	0,001	-0,070
-599,313	263,718	-0,008	0,010
-598,298	-65,941	-0,205	-0,059
-597,284	778,349	0,065	-0,129
-596,269	-160,991	0,032	0,001
-595,255	235,454	-0,034	0,041
-594,240	800,000	-0,077	-0,174
-593,225	-200,000	0,014	-0,061
-592,211	-84,764	0,042	-0,009
-591,196	800,000	0,019	0,040
-590,182	-111,602	-0,059	-0,009
-589,167	-62,096	-0,118	0,035
-588,152	-200,000	0,009	0,157
-587,138	800,000	0,012	-0,024
-586,123	369,225	-0,122	-0,179
-585,109	-200,000	0,004	0,068
-584,094	-90,902	0,034	0,007
-583,079	754,400	-0,020	-0,040
-582,065	101,952	-0,030	-0,025
-581,050	470,409	0,086	-0,140
-580,036	-23,353	-0,041	0,018
-579,021	124,417	-0,072	0,066
-578,006	800,000	-0,062	-0,143
-576,992	181,280	0,032	-0,034
-575,977	-200,000	-0,014	-0,062
-574,963	336,056	0,053	0,074
-573,948	-197,481	-0,052	0,000
-572,934	-64,887	0,149	0,043
-571,919	800,000	-0,016	-0,046
-570,904	571,156	0,034	0,061
-569,890	-200,000	-0,002	-0,087
-568,875	20,669	-0,063	0,037
-567,861	-47,957	-0,099	0,034
-566,846	-36,109	0,042	-0,016
-565,831	-106,097	0,074	-0,012
-564,817	-157,782	0,079	0,003
-563,802	531,974	-0,025	0,043
-562,788	-84,614	0,016	-0,004
-561,773	-107,889	-0,106	-0,017
-560,758	568,525	0,036	-0,064
-559,744	97,667	0,127	0,106
-558,729	-200,000	0,002	0,080
-557,715	150,960	-0,085	0,084
-556,700	-48,595	-0,121	0,042
-555,685	-149,717	0,122	0,007
-554,671	800,000	0,045	0,099
-553,656	-200,000	0,023	-0,089
-552,642	-28,205	0,025	0,010
-551,627	195,469	0,016	0,018
-550,612	559,663	0,042	-0,074
-549,598	556,678	-0,045	0,079
-548,583	-200,000	-0,024	0,125
-547,569	289,161	-0,086	-0,113
-546,554	617,714	-0,065	0,119
-545,539	800,000	0,037	0,079
-544,525	-113,210	0,061	-0,009
-543,510	118,083	-0,073	0,065
-542,496	272,046	-0,037	-0,047
-541,481	-200,000	-0,014	-0,056
-540,466	185,307	0,106	-0,114
-539,452	419,939	-0,025	-0,038
-538,437	74,782	-0,013	0,010
-537,423	-200,000	0,012	-0,076
-536,408	1,208	-0,167	-0,086
-535,393	-106,984	-0,149	-0,024
-534,379	101,563	0,046	-0,039
-533,364	10,316	-0,137	-0,075
-532,350	-132,059	0,056	-0,005
-531,335	-47,288	0,104	0,036
-530,321	800,000	0,018	-0,039
-529,306	-82,877	0,189	-0,044
-528,291	-153,687	-0,137	0,007
-527,277	111,528	-0,061	-0,053
-526,262	137,119	0,082	-0,078
-525,248	800,000	-0,063	-0,166
-524,233	8,880	-0,083	0,045
-523,218	800,000	-0,015	0,031
-522,204	-49,668	-0,048	-0,016
-521,189	-43,323	-0,057	-0,021
-520,175	-200,000	-0,002	0,122
-519,160	800,000	0,039	0,121
-518,145	-160,021	0,025	0,001
-517,131	-200,000	0,020	0,108
-516,116	800,000	0,004	-0,009
-515,102	-47,476	0,081	-0,028
-514,087	-57,558	0,077	0,024
-513,072	294,888	-0,018	0,023
-512,058	-200,000	-0,009	-0,110
-511,043	-188,803	0,062	-0,001
-510,029	36,388	0,059	-0,037
-509,014	800,000	-0,020	0,052
-507,999	-37,317	-0,077	0,030
-506,985	130,310	-0,039	0,036
-505,970	789,229	-0,064	-0,128
-504,956	800,000	-0,058	0,119
-503,941	-200,000	0,013	-0,062
-502,926	-200,000	0,037	0,122
-501,912	75,539	-0,155	0,118
-500,897	325,487	0,039	0,054
-499,883	80,944	0,076	0,059
-498,868	278,343	-0,069	0,089
-497,853	-200,000	-0,007	-0,032
-496,839	10,128	0,061	0,033
-495,824	-2,875	0,117	0,059
-494,810	38,301	0,140	-0,090
-493,795	800,000	0,063	0,179
-492,781	-126,868	-0,073	-0,008
-491,766	402,642	-0,030	0,045
-490,751	-200,000	-0,003	0,051
-489,737	-200,000	-0,024	0,089
-488,722	-50,055	0,066	0,023
-487,708	-200,000	0,014	0,063
-486,693	468,476	0,054	0,088
-485,678	22,499	-0,027	0,016
-484,664	-29,823	0,172	0,070
-483,649	-70,813	-0,071	0,019
-482,635	-200,000	-0,004	-0,073
-481,620	64,588	-0,092	0,067
-480,605	310,670	0,094	0,128
-479,591	614,545	0,012	0,021
-478,576	800,000	0,024	0,076
-477,562	-76,690	-0,177	0,044
-476,547	215,334	-0,046	-0,053
-475,532	-200,000	-0,018	-0,137
-474,518	-97,283	0,076	-0,014
-473,503	40,786	-0,037	-0,024
-472,489	106,696	0,059	-0,051
-471,474	-166,774	0,119	-0,003
-470,459	-30,023	0,080	0,033
-469,445	-38,183	-0,029	-0,011
-468,430	-3,008	-0,022	-0,011
-467,416	142,312	-0,021	0,020
-466,401	-18,162	0,032	0,014
-465,386	262,070	0,031	-0,039
-464,372	26,788	-0,106	-0,064
-463,357	18,774	-0,091	-0,053
-462,343	197,840	0,079	-0,087
-461,328	-6,490	0,081	-0,040
-460,313	800,000	-0,007	0,022
-459,299	47,289	0,127	0,085
-458,284	-102,548	-0,079	0,014
-457,270	78,720	0,017	0,013
-456,255	76,527	0,024	0,018
-455,241	610,213	-0,041	0,075
-454,226	-102,753	-0,105	-0,018
-453,211	488,297	0,046	0,076
-452,197	-139,277	-0,153	0,012
-451,182	-200,000	0,031	0,148
-450,168	-200,000	0,006	0,075
-449,153	-113,733	-0,040	0,005
-448,138	394,039	-0,066	0,100
-447,124	-69,148	-0,030	0,008
-446,109	800,000	0,045	-0,114
-445,095	404,160	0,012	0,019
-444,080	-200,000	0,018	0,169
-443,065	282,454	-0,083	-0,108
-442,051	760,293	0,051	-0,100
-441,036	308,368	-0,081	-0,109
-440,022	389,510	-0,046	0,069
-439,007	800,000	-0,018	-0,038
-437,992	-116,462	-0,025	-0,003
-436,978	77,214	-0,069	0,052
-435,963	-109,328	-0,059	0,009
-434,949	-200,000	0,022	0,108
-433,934	-200,000	0,001	-0,083
-432,919	-200,000	0,049	-0,164
-431,905	-68,930	0,131	-0,036
-430,890	183,864	-0,020	-0,021
-429,876	-59,116	0,061	0,019
-428,861	800,000	0,063	0,147
-427,846	512,081	-0,056	-0,094
-426,832	-64,009	0,046	-0,013
-425,817	144,097	-0,089	-0,085
-424,803	-200,000	0,018	-0,061
-423,788	5,592	-0,058	-0,031
-422,773	738,743	0,082	0,159
-421,759	675,654	0,109	0,205
-420,744	515,945	0,045	0,077
-419,730	120,286	-0,047	-0,042
-418,715	-104,553	-0,170	-0,028
-417,701	-29,111	-0,099	0,041
-416,686	314,156	0,075	0,102
-415,671	-200,000	-0,021	0,093
-414,657	-10,021	-0,013	-0,006
-413,642	147,011	0,191	0,185
-412,628	-200,000	-0,007	-0,111
-411,613	-200,000	0,024	-0,112
-410,598	-200,000	-0,001	-0,004
-409,584	-133,402	0,070	-0,006
-408,569	196,172	0,107	-0,117
-407,555	18,714	0,188	-0,108
-406,540	69,262	0,078	0,058
-405,525	294,093	-0,055	0,072
-404,511	84,987	0,067	0,053
-403,496	56,303	0,062	-0,043
-402,482	-200,000	0,008	0,054
-401,467	13,714	0,086	0,048
-400,452	5,732	-0,037	0,020
-399,438	-144,233	-0,080	-0,005
-398,423	671,377	-0,068	-0,128
-397,409	279,820	-0,113	-0,146
-396,394	-84,571	-0,154	-0,035
-395,379	-159,656	0,053	0,002
-394,365	-51,899	0,106	0,035
-393,350	-200,000	-0,001	0,096
-392,336	84,631	-0,091	-0,072
-391,321	-55,239	-0,078	-0,025
-390,306	-45,855	0,009	0,003
-389,292	800,000	-0,046	-0,145
-388,277	280,434	-0,037	0,048
-387,263	-64,161	-0,062	-0,018
-386,248	-200,000	0,013	0,052
-385,233	2,700	0,147	0,076
-384,219	-19,132	-0,106	0,047
-383,204	-163,942	-0,106	0,003
-382,190	78,055	-0,086	0,066
-381,175	315,969	0,036	-0,049
-380,160	-101,723	0,031	-0,005
-379,146	97,704	0,112	-0,092
-378,131	24,841	0,063	-0,037
-377,117	31,118	0,089	0,055
-376,102	77,648	0,039	0,029
-375,088	-175,288	0,061	-0,001
-374,073	152,179	0,078	-0,076
-373,058	-200,000	0,000	0,021
-372,044	-113,605	-0,043	0,006
-371,029	-200,000	0,003	0,110
-370,015	-47,935	-0,051	0,018
-369,000	383,756	0,021	0,031
-367,985	135,302	0,028	-0,026
-366,971	68,745	-0,109	-0,080
-365,956	-200,000	0,004	-0,036
-364,942	-175,646	0,109	0,002
-363,927	-200,000	-0,022	-0,073
-362,912	246,190	0,035	0,042
-361,898	350,195	0,055	-0,078
-360,883	188,253	-0,095	0,102
-359,869	800,000	-0,025	-0,079
-358,854	800,000	0,042	0,123
-357,839	372,549	0,038	0,056
-356,825	-79,320	0,092	0,022
-355,810	-200,000	0,089	0,000
-354,796	431,102	-0,079	0,123
-353,781	-96,223	0,016	-0,003
-352,766	733,432	-0,076	-0,148
-351,752	-69,572	-0,110	-0,030
-350,737	-63,381	0,088	0,026
-349,723	-168,518	0,072	0,002
-348,708	-131,643	0,050	0,005
-347,693	458,453	-0,030	0,049
-346,679	12,623	-0,114	0,063
-345,664	209,126	0,055	-0,062
-344,650	-32,661	0,090	0,036
-343,635	-200,000	-0,003	0,093
-342,620	800,000	0,078	-0,214
-341,606	117,966	-0,061	0,054
-340,591	60,760	0,067	0,048
-339,577	-176,780	-0,096	0,002
-338,562	-40,830	-0,132	-0,049
-337,548	800,000	0,024	0,053
-336,533	-53,963	-0,092	0,030
-335,518	-66,780	0,168	0,047
-334,504	97,288	0,110	0,091
-333,489	11,087	-0,044	0,024
-332,475	-87,094	0,095	-0,021
-331,460	-200,000	0,029	0,121
-330,445	-200,000	0,019	-0,121
-329,431	-96,363	0,178	-0,033
-328,416	53,850	0,063	0,044
-327,402	-200,000	-0,017	0,084
-326,387	-2,660	-0,017	0,009
-325,372	-200,000	-0,033	-0,230
-324,358	22,134	-0,017	0,010
-323,343	-200,000	0,008	0,082
-322,329	-200,000	-0,011	0,039
-321,314	-48,487	0,152	-0,052
-320,299	297,757	0,047	-0,061
-319,285	38,866	-0,058	0,037
-318,270	800,000	-0,037	-0,086
-317,256	-47,341	-0,146	0,051
-316,241	-50,968	-0,124	-0,041
-315,226	-28,572	-0,060	0,025
-314,212	800,000	-0,025	0,054
-313,197	53,015	-0,070	0,048
-312,183	91,749	-0,034	-0,027
-311,168	-200,000	-0,008	-0,065
-310,153	200,936	-0,026	-0,028
-309,139	-116,943	-0,035	0,005
-308,124	800,000	0,021	0,061
-307,110	-200,000	0,017	-0,133
-306,095	165,886	0,125	0,127
-305,080	-49,804	-0,072	-0,025
-304,066	-87,786	0,032	-0,007
-303,051	43,607	-0,011	-0,007
-302,037	800,000	0,040	-0,113
-301,022	526,307	0,066	-0,111
-300,008	-200,000	-0,016	0,051
-298,993	-200,000	0,002	-0,017
-297,978	191,787	-0,054	-0,059
-296,964	331,707	0,077	-0,107
-295,949	-200,000	-0,013	-0,123
-294,935	-200,000	0,004	0,076
-293,920	-200,000	-0,001	-0,092
-292,905	-103,288	0,082	0,014
-291,891	6,019	0,106	-0,056
-290,876	-200,000	-0,005	-0,040
-289,862	327,818	-0,116	0,160
-288,847	800,000	0,040	-0,091
-287,832	-126,142	-0,059	0,006
-286,818	-200,000	-0,016	-0,065
-285,803	117,738	0,158	0,140
-284,789	-139,488	-0,180	-0,014
-283,774	-39,831	0,055	0,021
-282,759	-200,000	0,006	0,046
-281,745	-200,000	-0,007	0,036
-280,730	-200,000	-0,011	-0,073
-279,716	-131,928	0,009	-0,001
-278,701	-200,000	0,001	0,100
-277,686	221,747	0,063	0,073
-276,672	77,426	0,037	0,028
-275,657	-98,000	-0,080	-0,015
-274,643	800,000	-0,032	0,072
-273,628	37,002	-0,216	-0,136
-272,613	33,542	0,082	-0,051
-271,599	-16,032	0,111	0,050
-270,584	185,094	0,050	-0,053
-269,570	-62,197	0,028	-0,008
-268,555	-10,717	-0,047	-0,022
-267,540	-6,404	0,073	0,036
-266,526	-200,000	0,027	-0,127
-265,511	656,334	0,064	-0,119
-264,497	-200,000	-0,000	0,014
-263,482	51,180	0,129	0,087
-262,467	9,402	-0,046	-0,025
-261,453	800,000	-0,013	-0,036
-260,438	-103,828	0,030	0,005
-259,424	-92,598	-0,194	0,039
-258,409	183,778	-0,086	-0,091
-257,395	10,668	0,008	0,004
-256,380	-110,608	-0,012	0,002
-255,365	800,000	0,027	0,072
-254,351	-98,249	-0,026	0,005
-253,336	-58,480	0,131	-0,040
-252,322	-200,000	-0,013	-0,112
-251,307	711,851	0,063	-0,119
-250,292	-110,328	0,018	0,003
-249,278	-110,754	0,068	0,010
-248,263	251,432	-0,005	0,006
-247,249	-35,577	0,095	-0,037
-246,234	447,291	0,041	0,065
-245,219	257,820	-0,125	-0,154
-244,205	408,033	-0,048	-0,074
-243,190	-67,142	0,177	-0,049
-242,176	800,000	0,019	0,041
-241,161	-200,000	-0,055	0,184
-240,146	201,475	0,045	-0,049
-239,132	194,647	-0,075	-0,082
-238,117	-156,890	-0,112	0,005
-237,103	-14,035	0,038	0,018
-236,088	10,234	0,040	0,021
-235,073	-200,000	0,009	-0,069
-234,059	8,670	0,126	0,068
-233,044	174,458	0,083	0,086
-232,030	800,000	-0,055	0,135
-231,015	-18,931	-0,159	0,071
-230,000	800,000	-0,054	-0,131
-228,986	-141,411	-0,026	-0,002
-227,971	-71,125	0,045	0,012
-226,957	-200,000	0,025	0,117
-225,942	-200,000	0,001	-0,005
-224,927	448,137	0,061	0,096
-223,913	-122,062	0,128	0,015
-222,898	52,518	-0,083	0,057
-221,884	101,086	0,088	-0,073
-220,869	520,907	-0,095	0,160
-219,855	-37,516	0,119	-0,045
-218,840	47,504	-0,073	0,049
-217,825	-200,000	0,011	-0,057
-216,811	-200,000	-0,028	-0,112
-215,796	-200,000	0,022	-0,104
-214,782	-78,420	0,145	0,035
-213,767	-200,000	0,029	-0,098
-212,752	351,793	-0,004	0,006
-211,738	-200,000	-0,019	0,074
-210,723	-200,000	-0,020	0,167
-209,709	428,106	-0,037	-0,057
-208,694	66,502	0,053	-0,038
-207,679	-92,453	0,117	0,023
-206,665	-200,000	-0,000	-0,030
-205,650	-200,000	0,027	-0,123
-204,636	83,733	-0,096	-0,075
-203,621	-200,000	-0,004	-0,027
-202,606	800,000	-0,062	-0,160
-201,592	-59,938	-0,063	-0,019
-200,577	32,569	-0,044	0,027
-199,563	800,000	0,026	0,075
-198,548	25,144	0,147	-0,087
-197,533	-46,454	-0,042	0,015
-196,519	129,084	0,089	-0,081
-195,504	547,229	-0,064	0,109
-194,490	77,199	0,081	-0,061
-193,475	-1,656	-0,094	0,047
-192,460	437,823	-0,051	-0,080
-191,446	-200,000	0,005	-0,026
-190,431	-200,000	0,018	0,078
-189,417	800,000	0,021	0,060
-188,402	-37,108	-0,057	-0,022
-187,387	-138,605	-0,105	-0,008
-186,373	-65,485	-0,023	0,006
-185,358	152,208	0,029	0,028
-184,344	-200,000	-0,002	-0,074
-183,329	-85,208	0,227	0,050
-182,315	-200,000	0,023	-0,139
-181,300	-200,000	-0,009	0,155
-180,285	7,909	-0,132	-0,070
-179,271	72,866	0,089	0,067
-178,256	-44,418	0,020	-0,007
-177,242	442,296	-0,086	0,135
-176,227	-78,716	0,034	0,008
-175,212	800,000	-0,065	0,146
-174,198	-200,000	-0,012	0,066
-173,183	-200,000	0,028	-0,125
-172,169	360,407	-0,095	-0,136
-171,154	-200,000	0,024	0,147
-170,139	-112,542	0,107	-0,015
-169,125	36,226	-0,055	0,034
-168,110	-58,159	-0,092	0,028
-167,096	172,546	0,081	0,083
-166,081	-200,000	0,013	0,100
-165,066	800,000	-0,084	-0,231
-164,052	-200,000	0,018	-0,058
-163,037	-200,000	-0,013	0,098
-162,023	-8,402	-0,095	0,046
-161,008	-200,000	0,004	0,022
-159,993	-200,000	-0,008	0,102
-158,979	-41,600	-0,049	-0,018
-157,964	48,908	-0,112	0,075
-156,950	-15,305	-0,172	-0,078
-155,935	-159,376	-0,053	0,002
-154,920	-200,000	0,012	0,166
-153,906	-88,805	0,055	-0,012
-152,891	244,256	0,055	0,066
-151,877	-20,788	-0,069	-0,030
-150,862	-200,000	0,012	-0,139
-149,847	451,889	0,044	0,069
-148,833	800,000	-0,030	0,090
-147,818	-200,000	-0,031	-0,099
-146,804	63,524	-0,077	-0,055
-145,789	-200,000	-0,016	-0,125
-144,775	305,068	-0,029	-0,039
-143,760	135,704	0,169	0,157
-142,745	413,358	0,087	0,132
-141,731	-27,077	-0,102	0,042
-140,716	-97,418	-0,098	0,018
-139,702	213,979	0,066	0,074
-138,687	225,768	0,044	0,051
-137,672	-37,307	-0,072	-0,027
-136,658	800,000	-0,019	-0,043
-135,643	800,000	-0,035	-0,071
-134,629	-200,000	-0,035	-0,138
-133,614	-54,757	0,021	-0,007
-132,599	-63,768	0,190	0,055
-131,585	-200,000	-0,046	0,179
-130,570	-200,000	-0,001	0,054
-129,556	-20,037	-0,123	-0,054
-128,541	-200,000	0,008	-0,045
-127,526	-80,612	0,164	0,038
-126,512	-36,106	-0,086	0,033
-125,497	226,036	-0,050	0,058
-124,483	187,093	-0,045	0,048
-123,468	167,909	-0,057	-0,057
-122,453	-200,000	-0,018	-0,167
-121,439	-200,000	-0,032	-0,147
-120,424	-200,000	-0,013	0,044
-119,410	-65,214	0,083	-0,024
-118,395	68,596	-0,055	-0,040
-117,380	-52,117	0,110	0,036
-116,366	800,000	-0,057	-0,113
-115,351	800,000	0,019	-0,042
-114,337	-200,000	-0,022	-0,098
-113,322	-41,021	0,139	0,051
-112,307	-145,257	-0,083	0,005
-111,293	-200,000	0,007	-0,086
-110,278	800,000	0,069	-0,160
-109,264	483,640	0,075	0,121
-108,249	135,686	0,069	0,063
-107,234	-45,302	-0,094	0,033
-106,220	228,368	-0,125	-0,145
-105,205	-76,561	-0,069	0,017
-104,191	-50,712	-0,035	0,012
-103,176	184,484	0,075	-0,080
-102,162	-200,000	-0,034	-0,117
-101,147	-42,185	-0,152	-0,055
-100,132	-74,123	-0,076	-0,019
-99,118	-82,058	-0,087	-0,020
-98,103	-200,000	-0,004	-0,024
-97,089	-200,000	0,010	0,032
-96,074	800,000	0,037	0,079
-95,059	-200,000	0,009	-0,064
-94,045	301,108	-0,008	0,010
-93,030	-35,285	-0,100	0,039
-92,016	-143,988	-0,048	-0,003
-91,001	250,674	-0,082	-0,099
-89,986	37,530	0,100	0,063
-88,972	-200,000	0,024	0,086
-87,957	473,119	-0,062	-0,100
-86,943	-200,000	-0,019	0,098
-85,928	-95,468	-0,098	-0,019
-84,913	-145,266	-0,125	0,008
-83,899	800,000	0,014	-0,040
-82,884	208,552	0,036	-0,041
-81,870	32,311	0,036	0,022
-80,855	153,789	0,066	-0,065
-79,840	772,389	0,053	-0,102
-78,826	28,923	-0,067	-0,040
-77,811	286,198	-0,115	-0,148
-76,797	-200,000	0,007	0,102
-75,782	-200,000	-0,004	-0,016
-74,767	-32,812	-0,096	0,038
-73,753	-171,516	-0,122	-0,003
-72,738	46,497	-0,052	0,034
-71,724	89,426	-0,094	0,074
-70,709	-200,000	-0,001	0,083
-69,694	99,257	-0,037	0,030
-68,680	-37,634	0,017	-0,006
-67,665	713,069	-0,079	-0,150
-66,651	-9,492	0,160	-0,075
-65,636	800,000	-0,033	-0,073
-64,622	642,777	0,042	-0,077
-63,607	227,328	-0,055	-0,063
-62,592	-59,931	0,225	0,068
-61,578	800,000	-0,044	0,098
-60,563	-92,154	-0,029	0,006
-59,549	-200,000	-0,033	0,117
-58,534	-79,724	-1,365	-0,324
-57,519	363,607	-1,434	-2,052
-56,505	-200,000	-0,505	-4,481
-55,490	158,662	0,881	0,869
-54,476	800,000	4,796	11,029
-53,461	-200,000	17,781	284,155
-52,446	800,000	722,050	2232,105
-51,432	564,775	1636,789	2825,800
-50,417	80,771	1660,124	1268,958
-49,403	23,722	1533,902	894,076
-48,388	17,638	1457,251	819,999
-47,373	18,281	1446,856	817,207
-46,359	17,782	1437,660	809,599
-45,344	15,948	1432,853	798,126
-44,330	15,863	1430,854	796,576
-43,315	15,875	1429,194	795,677
-42,300	15,830	1427,692	794,596
-41,286	15,906	1426,364	794,188
-40,271	15,910	1425,007	793,416
-39,257	15,856	1423,967	792,550
-38,242	15,920	1422,565	792,044
-37,227	15,924	1421,251	791,299
-36,213	15,929	1419,817	790,491
-35,198	15,891	1418,839	789,738
-34,184	15,978	1417,776	789,525
-33,169	15,864	1416,645	788,327
-32,154	15,887	1415,509	787,772
-31,140	15,941	1414,188	787,260
-30,125	15,988	1412,868	786,712
-29,111	15,896	1411,916	785,719
-28,096	15,895	1410,730	785,024
-27,082	15,845	1409,891	784,290
-26,067	15,786	1408,857	783,407
-25,052	15,820	1407,729	782,908
-24,038	15,846	1406,844	782,507
-23,023	15,817	1405,492	781,589
-22,009	15,810	1404,637	781,049
-20,994	15,758	1403,797	780,308
-19,979	15,810	1402,742	779,933
-18,965	15,757	1401,961	779,223
-17,950	15,764	1400,931	778,653
-16,936	15,771	1399,900	778,079
-15,921	15,747	1398,578	777,203
-14,906	15,740	1397,637	776,617
-13,892	15,723	1396,717	775,996
-12,877	15,725	1395,978	775,566
-11,863	15,690	1395,315	775,002
-10,848	15,749	1394,130	774,589
-9,833	15,680	1393,095	773,661
-8,819	15,707	1391,982	773,137
-7,804	15,581	1391,330	772,164
-6,790	15,624	1390,322	771,772
-5,775	15,622	1389,341	771,186
-4,760	15,607	1388,469	770,603
-3,746	15,651	1387,598	770,292
-2,731	15,609	1386,908	769,686
-1,717	15,597	1385,955	769,069
-0,702	15,615	1383,821	767,940
0,313	19,334	1304,417	741,078
1,327	35,700	706,736	439,485
2,342	54,650	125,246	85,505
3,356	5,105	16,448	8,561
4,371	4,891	3,051	1,586
5,386	39,784	0,438	0,278
6,400	91,729	0,182	0,145
7,415	295,171	-0,149	-0,194
8,429	153,441	-0,224	-0,218
9,444	49,217	-0,338	-0,225
10,459	359,374	-0,213	-0,303
11,473	-24,463	-0,369	-0,155
12,488	-10,332	-0,242	-0,113
13,502	10,515	-0,382	-0,205
14,517	106,688	-0,303	-0,254
15,531	43,112	-0,413	-0,266
16,546	169,428	-0,358	-0,362
17,561	225,961	-0,354	-0,407
18,575	40,835	-0,199	-0,127
19,590	-71,217	-0,338	-0,089
20,604	-95,413	-0,306	-0,058
21,619	64,574	-0,378	-0,269
22,634	-35,078	-0,342	-0,131
23,648	62,341	-0,412	-0,291
24,663	286,856	-0,397	-0,508
25,677	62,861	-0,348	-0,246
26,692	138,327	-0,285	-0,265
27,707	-31,914	-0,400	-0,158
28,721	21,122	-0,389	-0,223
29,736	-4,363	-0,384	-0,187
30,750	338,448	-0,272	-0,375
31,765	52,984	-0,463	-0,313
32,780	127,386	-0,365	-0,328
33,794	14,828	-0,402	-0,222
34,809	-44,950	-0,442	-0,155
35,823	52,647	-0,397	-0,267
36,838	195,927	-0,341	-0,368
37,853	99,506	-0,378	-0,309
38,867	7,515	-0,310	-0,163
39,882	-20,645	-0,223	-0,096
40,896	201,267	-0,294	-0,320
41,911	31,075	-0,344	-0,208
42,926	44,957	-0,440	-0,286
43,940	9,603	-0,504	-0,269
44,955	323,558	-0,252	-0,340
45,969	304,349	-0,211	-0,277
46,984	78,870	-0,374	-0,282
47,999	-1,443	-0,333	-0,165
49,013	12,039	-0,249	-0,135
50,028	33,595	-0,388	-0,238
51,042	237,478	-0,342	-0,401
52,057	-27,215	-0,267	-0,109
53,071	100,025	-0,314	-0,257
54,086	129,897	-0,297	-0,268
55,101	409,445	-0,236	-0,353
56,115	0,102	-0,276	-0,139
57,130	-70,415	-0,367	-0,098
58,144	31,268	-0,325	-0,197
59,159	92,762	-0,328	-0,261
60,174	-25,426	-0,365	-0,152
61,188	25,972	-0,292	-0,171
62,203	166,023	-0,360	-0,359
63,217	4,407	-0,338	-0,174
64,232	23,885	-0,287	-0,167
65,247	65,532	-0,302	-0,215
66,261	42,089	-0,385	-0,246
67,276	-88,284	-0,453	-0,095
68,290	116,814	-0,320	-0,277
69,305	71,700	-0,304	-0,222
70,320	-41,650	-0,355	-0,128
71,334	86,560	-0,368	-0,286
72,349	4,007	-0,297	-0,153
73,363	-70,051	-0,373	-0,099
74,378	-9,030	-0,365	-0,171
75,393	132,185	-0,337	-0,306
76,407	127,181	-0,251	-0,224
77,422	78,557	-0,274	-0,206
78,436	114,860	-0,284	-0,244
79,451	-55,781	-0,374	-0,117
80,466	-13,500	-0,297	-0,135
81,480	7,456	-0,299	-0,157
82,495	1,772	-0,240	-0,122
83,509	-24,860	-0,224	-0,093
84,524	-112,520	-0,281	-0,039
85,539	-161,425	-0,237	0,008
86,553	-18,092	-0,227	-0,100
87,568	-44,280	-0,365	-0,128
88,582	324,367	-0,317	-0,427
89,597	61,046	-0,335	-0,234
90,611	-123,961	-0,385	-0,042
91,626	101,652	-0,307	-0,252
92,641	208,635	-0,152	-0,167
93,655	91,152	-0,263	-0,207
94,670	44,020	-0,306	-0,197
95,684	68,826	-0,332	-0,239
96,699	15,626	-0,402	-0,222
97,714	442,753	-0,246	-0,381
98,728	17,240	-0,220	-0,122
99,743	371,761	-0,281	-0,402
100,757	-94,098	-0,366	-0,070
101,772	309,485	-0,222	-0,293
102,787	-30,439	-0,291	-0,115
103,801	-49,529	-0,295	-0,098
104,816	78,363	-0,302	-0,227
105,830	-5,629	-0,225	-0,108
106,845	196,800	-0,187	-0,200
107,860	-9,199	-0,211	-0,099
108,874	16,570	-0,315	-0,174
109,889	68,796	-0,350	-0,252
110,903	79,438	-0,231	-0,174
111,918	79,217	-0,360	-0,271
112,933	35,443	-0,250	-0,154
113,947	98,144	-0,298	-0,241
114,962	41,467	-0,221	-0,140
115,976	387,283	-0,150	-0,219
116,991	51,995	-0,341	-0,227
118,006	235,238	-0,156	-0,181
119,020	6,918	-0,278	-0,145
120,035	-31,173	-0,286	-0,113
121,049	91,272	-0,169	-0,133
122,064	82,406	-0,219	-0,167
123,079	36,465	-0,273	-0,168
124,093	13,080	-0,290	-0,157
125,108	159,364	-0,227	-0,222
126,122	148,712	-0,210	-0,199
127,137	43,911	-0,269	-0,173
128,151	39,793	-0,190	-0,119
129,166	141,136	-0,217	-0,201
130,181	132,007	-0,260	-0,235
131,195	143,291	-0,325	-0,303
132,210	132,810	-0,281	-0,254
133,224	44,115	-0,200	-0,129
134,239	45,900	-0,279	-0,180
135,254	10,098	-0,278	-0,148
136,268	10,312	-0,254	-0,135
137,283	136,944	-0,230	-0,211
138,297	442,361	-0,178	-0,273
139,312	179,590	-0,252	-0,259
140,327	-25,416	-0,265	-0,109
141,341	128,195	-0,219	-0,195
142,356	20,736	-0,366	-0,207
143,370	175,908	-0,168	-0,170
144,385	-47,249	-0,265	-0,090
145,400	-107,483	-0,251	-0,038
146,414	159,433	-0,230	-0,224
147,429	228,765	-0,149	-0,170
148,443	473,681	-0,082	-0,129
149,458	49,269	-0,207	-0,136
150,473	102,284	-0,159	-0,130
151,487	-127,053	-0,186	0,019
152,502	21,536	-0,172	-0,098
153,516	36,514	-0,239	-0,147
154,531	196,885	-0,245	-0,262
155,546	125,940	-0,155	-0,137
156,560	110,028	-0,200	-0,168
157,575	99,905	-0,183	-0,148
158,589	105,142	-0,279	-0,230
159,604	230,471	-0,169	-0,194
160,619	283,873	-0,170	-0,214
161,633	9,033	-0,235	-0,123
162,648	43,092	-0,241	-0,153
163,662	56,671	-0,241	-0,164
164,677	-1,752	-0,195	-0,096
165,692	-83,075	-0,261	-0,058
166,706	-24,109	-0,232	-0,097
167,721	-4,467	-0,299	-0,144
168,735	-116,524	-0,353	-0,045
169,750	91,710	-0,207	-0,162
170,764	-109,538	-0,109	-0,016
171,779	-132,029	-0,178	-0,016
172,794	-77,785	-0,255	-0,061
173,808	-118,423	-0,235	0,029
174,823	105,765	-0,233	-0,192
175,837	-54,099	-0,328	-0,103
176,852	427,938	-0,209	-0,316
177,867	193,128	-0,280	-0,296
178,881	105,534	-0,024	0,020
179,896	-10,623	-0,212	-0,097
180,910	-107,592	-0,202	-0,031
181,925	123,957	-0,157	-0,137
182,940	649,395	-0,171	-0,307
183,954	163,994	-0,186	-0,183
184,969	376,920	-0,193	-0,275
185,983	-86,597	-0,167	-0,035
186,998	-53,710	-0,277	-0,088
188,013	-1,736	-0,229	-0,112
189,027	-45,519	-0,191	-0,066
190,042	-40,456	-0,242	-0,087
191,056	201,161	-0,245	-0,263
192,071	-96,216	-0,248	-0,045
193,086	-35,551	-0,183	-0,069
194,100	84,554	-0,199	-0,152
195,115	-35,343	-0,192	-0,072
196,129	145,026	-0,248	-0,232
197,144	67,498	-0,217	-0,155
198,159	-106,366	-0,296	-0,046
199,173	75,222	-0,268	-0,197
200,188	13,967	-0,219	-0,118
201,202	342,396	-0,162	-0,221
202,217	120,895	-0,217	-0,188
203,232	80,288	-0,189	-0,142
204,246	-9,300	-0,170	-0,079
205,261	-24,140	-0,274	-0,113
206,275	-42,459	-0,261	-0,092
207,290	-35,061	-0,227	-0,086
208,304	102,670	-0,131	-0,106
209,319	201,558	-0,222	-0,238
210,334	700,032	-0,097	-0,178
211,348	-30,058	-0,300	-0,118
212,363	215,142	-0,253	-0,279
213,377	11,785	-0,212	-0,113
214,392	132,780	-0,123	-0,110
215,407	-45,520	-0,182	0,062
216,421	130,861	-0,068	-0,061
217,436	122,640	-0,129	-0,112
218,450	165,587	-0,161	-0,158
219,465	-200,000	-0,080	-0,266
220,480	-53,776	-0,168	-0,053
221,494	5,002	-0,263	-0,134
222,509	84,256	-0,151	-0,115
223,523	-200,000	-0,068	-0,221
224,538	196,144	-0,118	-0,125
225,553	596,188	-0,028	-0,048
226,567	-12,362	-0,220	-0,100
227,582	204,783	-0,145	-0,156
228,596	800,000	-0,084	-0,180
229,611	64,570	-0,109	-0,076
230,626	-200,000	-0,020	-0,184
231,640	190,151	-0,170	-0,178
232,655	-166,758	-0,223	-0,006
233,669	-32,733	-0,179	-0,069
234,684	55,268	-0,244	-0,164
235,699	149,958	-0,179	-0,169
236,713	-175,454	-0,151	0,003
237,728	-109,169	-0,204	0,030
238,742	-37,347	-0,203	-0,075
239,757	301,152	-0,200	-0,257
240,772	800,000	-0,072	-0,161
241,786	209,726	-0,251	-0,273
242,801	-65,297	-0,053	-0,015
243,815	-68,712	-0,249	-0,066
244,830	-173,257	-0,220	-0,005
245,844	309,829	-0,156	-0,203
246,859	165,482	-0,180	-0,177
247,874	3,991	-0,262	-0,133
248,888	800,000	-0,127	-0,305
249,903	-173,427	-0,147	-0,003
250,917	-59,103	-0,145	-0,043
251,932	69,929	-0,168	-0,120
252,947	145,241	-0,215	-0,200
253,961	-11,509	-0,165	-0,075
254,976	-153,209	-0,176	0,008
255,990	-51,718	-0,191	-0,061
257,005	-2,333	-0,258	-0,125
258,020	86,804	-0,116	0,089
259,034	-111,706	-0,172	0,024
260,049	3,019	-0,097	-0,049
261,063	209,780	-0,130	-0,142
262,078	190,723	-0,253	-0,264
263,093	277,689	-0,141	-0,174
264,107	588,683	-0,109	-0,186
265,122	-82,473	-0,258	-0,058
266,136	-200,000	-0,001	-0,044
267,151	-30,075	-0,191	-0,075
268,166	138,490	-0,143	-0,130
269,180	-96,917	-0,092	0,017
270,195	166,471	-0,264	-0,260
271,209	686,543	-0,082	-0,150
272,224	55,569	-0,096	-0,064
273,239	128,237	-0,130	-0,114
274,253	-129,529	-0,184	0,017
275,268	800,000	-0,070	-0,185
276,282	169,153	-0,187	-0,185
277,297	-39,100	-0,179	-0,065
278,312	52,112	-0,246	-0,162
279,326	11,615	-0,143	-0,076
280,341	-200,000	-0,023	-0,228
281,355	93,076	-0,183	-0,143
282,370	-126,620	-0,165	-0,017
283,384	431,542	-0,153	-0,230
284,399	192,799	-0,199	-0,208
285,414	-9,607	-0,246	-0,113
286,428	139,024	-0,088	-0,080
287,443	-3,175	-0,138	-0,066
288,457	207,570	-0,119	0,128
289,472	-0,702	-0,109	-0,053
290,487	-72,020	-0,213	-0,054
291,501	16,140	-0,154	-0,084
292,516	-131,575	-0,111	-0,010
293,530	123,281	-0,075	-0,065
294,545	219,481	-0,049	-0,055
295,560	-112,088	-0,211	-0,029
296,574	581,888	-0,107	-0,182
297,589	194,167	-0,121	-0,126
298,603	180,341	-0,129	-0,131
299,618	283,436	-0,118	-0,146
300,633	649,647	-0,082	-0,145
301,647	-67,697	-0,207	0,056
302,662	10,077	-0,132	-0,069
303,676	1,980	-0,196	-0,097
304,691	-110,684	-0,049	0,007
305,706	120,980	-0,167	-0,143
306,720	800,000	-0,076	-0,173
307,735	102,689	-0,101	-0,081
308,749	-74,038	-0,144	0,036
309,764	48,628	-0,179	-0,115
310,779	800,000	-0,057	-0,162
311,793	-107,095	-0,159	0,024
312,808	-67,840	-0,118	0,032
313,822	-110,989	-0,297	-0,042
314,837	413,191	-0,098	-0,145
315,852	328,610	-0,123	-0,163
316,866	184,461	-0,082	-0,084
317,881	-107,008	-0,115	-0,017
318,895	73,951	-0,133	-0,096
319,910	-66,098	-0,136	-0,037
320,925	27,885	-0,230	-0,133
321,939	-52,174	-0,245	-0,078
322,954	-68,314	-0,182	-0,048
323,968	18,087	-0,063	-0,034
324,983	41,589	-0,108	-0,067
325,997	688,969	-0,122	-0,220
327,012	251,232	-0,187	-0,220
328,027	-46,313	-0,246	-0,083
329,041	33,968	-0,130	-0,078
330,056	-60,468	-0,118	0,034
331,070	5,105	-0,126	-0,064
332,085	106,470	-0,141	-0,115
333,100	-78,322	-0,161	0,038
334,114	20,193	-0,147	0,082
335,129	450,491	-0,125	-0,191
336,143	121,784	-0,098	-0,084
337,158	-30,609	-0,129	-0,050
338,173	386,466	-0,058	-0,082
339,187	132,741	-0,148	-0,132
340,202	131,958	-0,147	-0,131
341,216	-103,877	-0,151	-0,024
342,231	86,636	-0,120	-0,091
343,246	25,964	-0,128	-0,074
344,260	-33,042	-0,047	0,018
345,275	800,000	-0,071	-0,191
346,289	16,156	-0,115	-0,062
347,304	-153,411	-0,131	-0,006
348,319	-200,000	0,000	-0,006
349,333	34,096	-0,181	-0,108
350,348	80,835	-0,147	-0,109
351,362	215,912	-0,118	-0,129
352,377	-200,000	-0,005	-0,068
353,392	-200,000	-0,001	-0,190
354,406	130,103	-0,042	0,037
355,421	209,527	1312,461	1415,924
356,435	161,271	1472,925	1416,456
