DTS Sentinel unit serial number:	SN410029Multiplexer serial number:	ORYXHardware model number:	OX2-SRSoftware version number:	ORYX F/W v4,00 Oryx Data Collector v3.7.2.0data status	okinstallation	B3 Nyhavnadifferential loss correction	single-endedforward channel	channel 1reverse channel	N/Adate	2023/12/03time	16:37:30forward acquisition time	300,00reverse acquisition time	0,00gamma	499,1914k internal	0,3197k external	0,3197temperature offset calibration	1,0000default loss term (dB/km)	0,3820temperature slope calibration	1,0000multiplexer offset coefficient	1,0000multiplexer slope coefficient	1,0000fibre end	0,00T internal ref (°C)	15,25T ext. ref 1 (°C)	-0,20T ext. ref 2 (°C)	-0,21length (m)	temperature (°C)	Stokes	anti-Stokes-744,400	160,366	-0,238	-0,242
-743,385	-200,000	0,037	0,370
-742,371	67,211	-0,195	-0,144
-741,356	474,811	0,162	0,267
-740,342	85,871	-0,207	-0,166
-739,327	-200,000	-0,006	0,234
-738,312	800,000	-0,087	-0,180
-737,298	-200,000	-0,010	0,161
-736,283	288,862	-0,207	-0,274
-735,269	-200,000	-0,059	0,328
-734,254	23,036	-0,268	-0,160
-733,239	146,983	-0,099	0,097
-732,225	482,323	-0,101	-0,168
-731,210	553,264	0,068	0,120
-730,196	-47,101	0,117	0,041
-729,181	-35,409	0,038	0,015
-728,167	800,000	-0,051	0,113
-727,152	16,582	0,061	0,035
-726,137	800,000	0,016	-0,035
-725,123	-111,911	-0,167	0,024
-724,108	-8,517	-0,121	-0,059
-723,094	-200,000	-0,023	-0,153
-722,079	-116,821	-0,116	0,015
-721,064	14,605	0,037	0,021
-720,050	14,263	0,039	0,022
-719,035	549,303	0,067	0,117
-718,021	800,000	-0,061	-0,150
-717,006	800,000	-0,076	-0,160
-715,991	-200,000	-0,102	0,000
-714,977	-12,069	-0,054	-0,026
-713,962	375,410	0,111	-0,165
-712,948	-200,000	0,005	-0,059
-711,933	-200,000	-0,037	-0,126
-710,918	-200,000	-0,005	0,038
-709,904	118,502	0,110	-0,099
-708,889	-149,903	-0,132	0,007
-707,875	-75,638	0,022	-0,006
-706,860	37,273	-0,057	-0,037
-705,845	-200,000	-0,009	0,051
-704,831	800,000	-0,068	0,197
-703,816	800,000	-0,064	0,165
-702,802	800,000	-0,031	-0,074
-701,787	-66,446	0,045	0,013
-700,772	-82,575	-0,150	-0,035
-699,758	12,231	0,123	-0,068
-698,743	173,103	-0,040	-0,042
-697,729	315,900	0,057	0,079
-696,714	89,583	0,066	0,053
-695,699	55,674	-0,071	-0,050
-694,685	238,354	-0,061	-0,074
-693,670	488,353	-0,074	-0,124
-692,656	39,746	-0,101	-0,066
-691,641	-174,598	0,130	0,003
-690,627	-33,499	0,011	0,004
-689,612	-95,760	-0,129	0,025
-688,597	800,000	-0,026	-0,080
-687,583	37,789	-0,094	0,061
-686,568	-120,681	-0,052	0,006
-685,554	-172,169	-0,092	0,002
-684,539	-92,448	0,055	0,011
-683,524	-41,466	0,064	-0,024
-682,510	-200,000	-0,006	0,092
-681,495	-200,000	0,012	0,069
-680,481	51,587	-0,087	0,060
-679,466	134,956	0,047	-0,044
-678,451	89,056	0,086	0,069
-677,437	95,224	0,120	-0,099
-676,422	171,712	-0,096	-0,100
-675,408	-151,564	-0,085	-0,004
-674,393	800,000	-0,032	-0,073
-673,378	595,015	0,061	-0,110
-672,364	800,000	-0,059	-0,161
-671,349	-200,000	-0,001	-0,061
-670,335	152,837	0,031	0,031
-669,320	-200,000	0,006	0,081
-668,305	-200,000	0,022	-0,092
-667,291	219,123	0,054	-0,063
-666,276	781,346	-0,047	-0,094
-665,262	-200,000	0,010	-0,221
-664,247	-85,826	-0,072	0,016
-663,232	-200,000	-0,019	-0,062
-662,218	-95,682	0,150	0,029
-661,203	-23,383	-0,156	0,068
-660,189	-79,245	-0,087	-0,021
-659,174	800,000	-0,038	-0,086
-658,159	800,000	-0,063	-0,189
-657,145	-127,271	0,027	0,003
-656,130	800,000	-0,033	-0,089
-655,116	-200,000	0,006	0,068
-654,101	188,489	-0,056	-0,061
-653,086	764,215	0,035	0,069
-652,072	800,000	-0,019	-0,060
-651,057	-8,484	-0,103	-0,050
-650,043	-200,000	-0,024	0,177
-649,028	-200,000	0,005	0,026
-648,014	528,434	-0,018	0,031
-646,999	2,156	-0,043	-0,023
-645,984	56,798	0,057	0,040
-644,970	10,139	-0,033	0,018
-643,955	-200,000	0,026	-0,116
-642,941	81,918	0,039	-0,031
-641,926	190,339	-0,049	-0,053
-640,911	-198,451	-0,013	0,000
-639,897	-200,000	0,031	0,168
-638,882	-120,589	-0,079	-0,010
-637,868	-200,000	0,001	-0,040
-636,853	800,000	-0,031	-0,080
-635,838	-200,000	-0,001	-0,036
-634,824	-54,304	-0,038	0,013
-633,809	-200,000	-0,002	0,135
-632,795	800,000	0,061	0,166
-631,780	-94,214	0,205	0,040
-630,765	800,000	0,055	-0,135
-629,751	-200,000	-0,026	-0,089
-628,736	255,349	-0,021	0,027
-627,722	-200,000	0,009	0,124
-626,707	234,701	0,014	0,017
-625,692	90,929	-0,019	0,016
-624,678	17,881	0,143	0,082
-623,663	31,432	0,032	-0,020
-622,649	-94,769	-0,058	0,011
-621,634	-200,000	0,031	-0,181
-620,619	800,000	-0,036	0,079
-619,605	-200,000	0,004	-0,102
-618,590	-34,853	0,153	0,060
-617,576	-65,741	-0,080	0,023
-616,561	-66,335	0,160	-0,046
-615,546	-200,000	-0,005	-0,127
-614,532	792,000	-0,079	-0,158
-613,517	694,653	0,041	0,079
-612,503	800,000	0,015	0,041
-611,488	13,991	0,093	-0,052
-610,474	141,142	-0,132	-0,126
-609,459	-200,000	-0,011	0,055
-608,444	13,499	-0,050	-0,028
-607,430	-113,948	-0,058	0,008
-606,415	-200,000	-0,003	-0,052
-605,401	322,537	0,052	0,071
-604,386	800,000	-0,011	0,026
-603,371	14,346	0,097	0,055
-602,357	800,000	0,004	0,014
-601,342	129,403	0,062	-0,058
-600,328	800,000	-0,044	-0,100
-599,313	480,656	0,079	-0,131
-598,298	-200,000	-0,024	-0,089
-597,284	-20,113	0,154	-0,068
-596,269	141,876	0,042	0,040
-595,255	217,971	-0,039	0,046
-594,240	639,062	-0,049	0,091
-593,225	-54,276	-0,047	0,015
-592,211	405,476	-0,097	-0,149
-591,196	800,000	0,051	-0,138
-590,182	-200,000	-0,025	0,145
-589,167	341,423	0,063	-0,090
-588,152	118,195	-0,053	-0,047
-587,138	-200,000	0,001	0,103
-586,123	-22,864	-0,085	-0,037
-585,109	800,000	0,012	-0,030
-584,094	197,202	0,060	-0,066
-583,079	619,351	0,012	-0,021
-582,065	-129,755	0,079	0,008
-581,050	-200,000	0,017	-0,103
-580,036	-200,000	-0,002	0,059
-579,021	81,514	-0,036	0,028
-578,006	-200,000	-0,036	-0,131
-576,992	-200,000	0,030	-0,130
-575,977	-200,000	-0,017	0,081
-574,963	-200,000	0,011	0,058
-573,948	178,612	-0,133	-0,141
-572,934	58,376	-0,094	0,067
-571,919	784,592	-0,035	-0,069
-570,904	-200,000	-0,001	0,047
-569,890	116,068	-0,122	-0,108
-568,875	800,000	0,058	-0,124
-567,861	-9,768	0,136	-0,065
-566,846	95,991	0,077	0,064
-565,831	168,910	-0,062	0,064
-564,817	17,744	-0,044	0,025
-563,802	133,259	-0,074	0,069
-562,788	63,267	-0,062	-0,045
-561,773	69,382	0,102	0,076
-560,758	352,554	-0,042	0,061
-559,744	-90,260	-0,036	-0,007
-558,729	-49,859	0,130	-0,044
-557,715	800,000	-0,100	0,214
-556,700	800,000	0,045	-0,116
-555,685	17,535	-0,092	-0,053
-554,671	236,479	0,082	-0,098
-553,656	-200,000	0,024	-0,099
-552,642	800,000	0,027	-0,067
-551,627	-200,000	-0,009	0,064
-550,612	41,993	-0,024	0,016
-549,598	-200,000	0,014	0,065
-548,583	-200,000	0,026	0,147
-547,569	-200,000	0,024	-0,123
-546,554	800,000	-0,023	-0,051
-545,539	-200,000	0,028	0,109
-544,525	-200,000	-0,003	0,103
-543,510	-124,380	-0,069	0,008
-542,496	-91,185	-0,055	0,011
-541,481	234,293	-0,075	-0,090
-540,466	127,401	-0,089	-0,081
-539,452	61,436	-0,052	-0,037
-538,437	596,794	0,034	0,062
-537,423	-152,113	0,053	-0,003
-536,408	222,149	-0,011	0,013
-535,393	357,744	-0,050	-0,072
-534,379	223,655	0,035	-0,041
-533,364	-200,000	-0,039	-0,157
-532,350	-75,623	0,119	0,030
-531,335	-46,019	-0,122	0,043
-530,321	529,617	0,113	0,194
-529,306	14,177	0,082	-0,046
-528,291	-200,000	0,008	-0,099
-527,277	233,145	0,043	-0,051
-526,262	-200,000	0,017	-0,079
-525,248	-200,000	0,012	0,108
-524,233	-85,314	0,127	-0,028
-523,218	-50,911	-0,079	-0,027
-522,204	717,575	-0,050	0,096
-521,189	-157,263	-0,082	-0,004
-520,175	-200,000	0,019	0,063
-519,160	800,000	-0,008	-0,022
-518,145	-34,925	-0,054	0,021
-517,131	-24,155	0,081	0,035
-516,116	-124,212	-0,091	0,010
-515,102	378,070	-0,067	0,099
-514,087	516,597	0,024	0,041
-513,072	215,252	-0,088	0,101
-512,058	-200,000	-0,010	0,080
-511,043	-200,000	-0,013	-0,078
-510,029	-38,570	-0,012	-0,005
-509,014	-37,135	-0,197	0,076
-507,999	392,902	-0,056	0,085
-506,985	633,105	0,021	-0,038
-505,970	-117,956	0,059	-0,007
-504,956	-84,098	-0,082	-0,019
-503,941	800,000	-0,028	0,065
-502,926	-159,874	0,121	-0,005
-501,912	800,000	0,051	-0,125
-500,897	225,418	-0,099	-0,116
-499,883	185,562	0,131	0,140
-498,868	800,000	-0,045	-0,099
-497,853	-71,396	-0,089	0,024
-496,839	-200,000	0,023	-0,084
-495,824	-200,000	0,012	0,059
-494,810	800,000	-0,035	0,081
-493,795	-66,592	0,140	-0,040
-492,781	170,759	-0,059	-0,061
-491,766	-200,000	-0,033	0,140
-490,751	800,000	-0,030	-0,072
-489,737	756,554	0,029	0,056
-488,722	-102,393	0,109	0,019
-487,708	-94,919	-0,015	0,003
-486,693	-200,000	-0,016	0,108
-485,678	-10,870	0,092	0,044
-484,664	-200,000	-0,023	0,104
-483,649	800,000	0,043	-0,098
-482,635	191,575	0,091	0,099
-481,620	219,096	0,091	-0,105
-480,605	131,590	-0,059	0,054
-479,591	-1,526	-0,064	0,033
-478,576	-158,505	0,162	0,007
-477,562	-200,000	-0,001	0,003
-476,547	-111,594	-0,058	0,008
-475,532	-200,000	-0,030	-0,121
-474,518	-100,544	-0,038	0,007
-473,503	-127,039	0,062	0,006
-472,489	10,587	-0,048	-0,026
-471,474	98,702	-0,065	-0,054
-470,459	-200,000	-0,027	0,088
-469,445	-200,000	-0,016	-0,075
-468,430	-135,835	-0,074	0,006
-467,416	395,281	0,094	0,142
-466,401	419,501	-0,004	0,007
-465,386	-200,000	0,032	0,105
-464,372	-200,000	0,018	0,067
-463,357	60,112	-0,106	0,075
-462,343	67,018	-0,048	0,035
-461,328	-200,000	-0,004	-0,194
-460,313	-48,731	0,046	0,016
-459,299	-136,870	-0,089	-0,007
-458,284	109,045	-0,074	-0,064
-457,270	156,183	-0,090	-0,090
-456,255	-18,134	0,128	-0,057
-455,241	166,918	-0,130	-0,132
-454,226	37,277	0,070	-0,045
-453,211	-152,185	-0,108	-0,006
-452,197	138,103	-0,024	-0,023
-451,182	254,740	0,096	0,118
-450,168	-200,000	-0,001	0,023
-449,153	-200,000	0,001	-0,021
-448,138	-85,991	-0,089	-0,020
-447,124	-50,159	-0,055	0,019
-446,109	-200,000	-0,006	0,032
-445,095	47,677	0,058	-0,039
-444,080	262,798	0,054	0,068
-443,065	-73,701	-0,025	-0,006
-442,051	22,470	0,149	-0,088
-441,036	800,000	0,005	0,014
-440,022	-200,000	0,075	0,000
-439,007	462,644	0,022	0,036
-437,992	-43,745	0,053	0,019
-436,978	-200,000	0,020	-0,119
-435,963	136,481	-0,026	-0,024
-434,949	-200,000	-0,013	0,093
-433,934	800,000	-0,021	-0,050
-432,919	800,000	0,041	-0,104
-431,905	291,416	-0,045	0,059
-430,890	800,000	-0,022	0,056
-429,876	104,387	0,102	0,087
-428,861	-200,000	-0,015	0,092
-427,846	-200,000	0,021	-0,073
-426,832	-31,802	0,029	0,012
-425,817	280,992	-0,031	-0,040
-424,803	59,887	-0,069	-0,049
-423,788	800,000	0,048	0,132
-422,773	174,283	0,043	0,045
-421,759	220,811	-0,053	0,061
-420,744	-97,724	0,109	0,020
-419,730	-125,115	0,073	-0,008
-418,715	-70,770	0,027	0,007
-417,701	-200,000	-0,008	0,036
-416,686	-115,403	0,036	0,005
-415,671	800,000	0,011	0,026
-414,657	-149,349	-0,041	-0,002
-413,642	0,374	0,157	0,080
-412,628	-168,244	-0,046	0,001
-411,613	-129,610	-0,067	0,007
-410,598	-200,000	0,003	-0,097
-409,584	-28,026	0,036	0,015
-408,569	-70,437	0,098	-0,027
-407,555	-29,805	-0,070	-0,028
-406,540	138,867	0,053	0,050
-405,525	-110,464	0,034	0,005
-404,511	68,496	-0,023	-0,017
-403,496	-200,000	-0,009	-0,031
-402,482	800,000	-0,031	-0,077
-401,467	-28,696	-0,059	-0,024
-400,452	-127,582	0,116	0,012
-399,438	-200,000	-0,003	-0,091
-398,423	-200,000	0,008	-0,053
-397,409	-167,653	-0,102	0,003
-396,394	40,116	0,073	-0,047
-395,379	109,697	0,087	-0,075
-394,365	65,768	0,101	-0,074
-393,350	-200,000	0,022	-0,114
-392,336	-200,000	0,031	0,120
-391,321	-200,000	0,044	0,141
-390,306	-200,000	-0,005	0,102
-389,292	130,699	-0,068	-0,062
-388,277	27,392	-0,045	-0,027
-387,263	33,966	0,176	0,110
-386,248	79,312	0,021	-0,016
-385,233	-55,250	0,073	0,023
-384,219	-200,000	0,001	0,057
-383,204	-56,432	0,053	0,017
-382,190	52,292	-0,110	-0,075
-381,175	-106,278	-0,072	-0,011
-380,160	-200,000	0,011	0,158
-379,146	14,083	0,070	0,039
-378,131	-200,000	-0,009	0,101
-377,117	173,788	0,033	-0,035
-376,102	154,287	-0,053	-0,052
-375,088	391,476	-0,037	0,055
-374,073	-103,504	-0,084	-0,014
-373,058	-200,000	0,001	-0,093
-372,044	-200,000	0,000	0,005
-371,029	12,080	0,026	0,014
-370,015	800,000	0,021	0,054
-369,000	-24,353	-0,060	0,026
-367,985	-200,000	-0,010	-0,085
-366,971	107,437	0,112	-0,096
-365,956	191,603	0,064	0,070
-364,942	-200,000	0,022	0,086
-363,927	553,137	0,066	0,114
-362,912	28,304	0,086	-0,052
-361,898	-84,352	-0,051	0,012
-360,883	424,546	-0,099	-0,153
-359,869	128,585	0,083	-0,076
-358,854	-117,951	0,161	0,020
-357,839	-167,112	-0,028	-0,001
-356,825	800,000	0,044	0,110
-355,810	-200,000	-0,006	-0,031
-354,796	800,000	-0,061	-0,122
-353,781	-200,000	-0,003	0,015
-352,766	-200,000	0,025	-0,139
-351,752	402,976	0,050	-0,075
-350,737	-200,000	0,007	0,081
-349,723	130,344	0,043	0,039
-348,708	-200,000	0,009	-0,099
-347,693	-11,118	0,107	0,050
-346,679	14,033	-0,145	-0,081
-345,664	-13,901	-0,115	-0,053
-344,650	800,000	0,013	-0,040
-343,635	-19,098	0,083	-0,037
-342,620	391,391	0,081	0,120
-341,606	68,485	-0,087	0,064
-340,591	294,299	-0,090	0,118
-339,577	-200,000	-0,006	-0,027
-338,562	6,887	-0,022	-0,012
-337,548	800,000	-0,029	0,088
-336,533	-200,000	-0,012	-0,072
-335,518	169,703	0,056	0,058
-334,504	800,000	0,013	0,032
-333,489	-200,000	0,007	-0,050
-332,475	321,501	-0,043	0,058
-331,460	-14,953	-0,086	-0,039
-330,445	-200,000	-0,022	-0,175
-329,431	800,000	-0,031	0,078
-328,416	391,822	-0,089	0,132
-327,402	800,000	0,027	0,065
-326,387	-200,000	-0,007	0,097
-325,372	-200,000	-0,006	0,065
-324,358	-200,000	-0,003	-0,092
-323,343	163,249	-0,100	-0,100
-322,329	-108,217	0,030	0,005
-321,314	800,000	0,049	0,114
-320,299	-5,339	0,044	-0,022
-319,285	-5,071	-0,108	-0,053
-318,270	-200,000	0,021	-0,166
-317,256	-200,000	0,016	0,066
-316,241	-200,000	-0,040	-0,128
-315,226	-75,390	0,099	-0,025
-314,212	79,582	0,107	0,082
-313,197	161,697	0,066	-0,066
-312,183	334,814	0,029	-0,040
-311,168	-200,000	-0,035	-0,118
-310,153	-98,563	-0,047	-0,009
-309,139	129,822	0,055	-0,051
-308,124	779,036	0,083	0,163
-307,110	-200,000	-0,042	0,187
-306,095	-200,000	-0,046	0,150
-305,080	-200,000	-0,008	-0,047
-304,066	164,716	-0,055	0,056
-303,051	-63,530	-0,112	0,033
-302,037	493,830	-0,070	-0,115
-301,022	428,796	-0,075	-0,116
-300,008	-150,717	-0,065	0,004
-298,993	220,014	0,133	0,153
-297,978	800,000	-0,015	0,036
-296,964	127,424	-0,023	0,021
-295,949	-200,000	-0,016	-0,055
-294,935	-200,000	-0,017	0,095
-293,920	164,308	0,054	-0,054
-292,905	0,693	0,144	0,074
-291,891	488,995	-0,096	0,157
-290,876	12,151	-0,065	0,035
-289,862	-60,587	-0,097	-0,029
-288,847	80,504	-0,141	-0,109
-287,832	-200,000	-0,000	-0,056
-286,818	-200,000	-0,017	0,079
-285,803	-200,000	-0,038	-0,181
-284,789	496,124	0,051	0,084
-283,774	-200,000	-0,028	0,127
-282,759	230,621	-0,053	0,062
-281,745	-50,364	0,020	0,007
-280,730	-200,000	-0,039	-0,156
-279,716	-78,072	0,080	-0,020
-278,701	537,880	0,046	-0,079
-277,686	-200,000	-0,007	0,097
-276,672	-75,862	-0,062	-0,015
-275,657	-12,715	0,048	-0,022
-274,643	47,977	-0,039	-0,026
-273,628	-200,000	0,005	-0,154
-272,613	316,652	-0,111	0,151
-271,599	-200,000	0,000	0,030
-270,584	215,579	0,040	0,045
-269,570	112,185	0,111	0,096
-268,555	-80,162	-0,161	0,038
-267,540	-56,753	0,072	-0,023
-266,526	-200,000	0,018	-0,057
-265,511	-200,000	0,002	0,009
-264,497	-35,512	0,106	-0,041
-263,482	106,490	0,051	0,043
-262,467	-200,000	0,029	0,130
-261,453	97,999	0,036	-0,030
-260,438	-101,586	0,075	0,013
-259,424	-200,000	-0,012	-0,073
-258,409	201,349	-0,117	-0,129
-257,395	800,000	0,046	0,115
-256,380	316,206	0,034	-0,046
-255,365	-110,161	0,161	0,024
-254,351	-200,000	-0,001	-0,047
-253,336	241,928	-0,100	-0,119
-252,322	193,738	-0,153	-0,165
-251,307	-35,749	0,157	-0,061
-250,292	1,249	-0,127	0,065
-249,278	-200,000	-0,007	0,178
-248,263	-132,638	0,192	0,017
-247,249	-63,851	0,069	-0,020
-246,234	800,000	-0,028	-0,059
-245,219	800,000	-0,057	-0,152
-244,205	-47,946	-0,122	-0,042
-243,190	427,495	0,033	0,051
-242,176	-200,000	0,008	0,110
-241,161	-200,000	-0,008	0,132
-240,146	204,336	0,050	0,055
-239,132	-200,000	0,001	-0,031
-238,117	-105,129	-0,024	0,004
-237,103	-131,783	-0,102	0,009
-236,088	24,896	-0,209	-0,123
-235,073	234,318	0,020	0,023
-234,059	-200,000	0,012	-0,039
-233,044	120,472	0,030	0,027
-232,030	-200,000	-0,007	-0,032
-231,015	800,000	-0,039	-0,111
-230,000	-71,834	-0,040	0,011
-228,986	-129,155	0,110	-0,011
-227,971	-86,641	-0,131	-0,028
-226,957	312,852	0,038	0,051
-225,942	36,629	0,045	0,028
-224,927	16,661	-0,139	-0,078
-223,913	28,079	-0,053	-0,032
-222,898	-104,984	-0,050	0,008
-221,884	-200,000	-0,021	-0,094
-220,869	237,911	0,057	0,067
-219,855	101,679	0,085	-0,071
-218,840	628,039	0,022	0,041
-217,825	-200,000	-0,013	0,099
-216,811	-84,550	0,063	0,014
-215,796	-112,449	-0,143	0,020
-214,782	-70,343	0,097	-0,026
-213,767	9,189	-0,119	0,064
-212,752	114,573	-0,024	0,020
-211,738	-92,107	0,062	-0,012
-210,723	-200,000	-0,007	0,151
-209,709	197,615	-0,042	0,046
-208,694	81,301	-0,009	0,007
-207,679	-200,000	-0,023	-0,151
-206,665	182,112	0,039	0,041
-205,650	382,148	-0,063	-0,093
-204,636	800,000	0,026	-0,052
-203,621	-200,000	-0,005	-0,054
-202,606	141,531	-0,022	-0,021
-201,592	84,228	-0,028	0,022
-200,577	91,191	-0,106	-0,085
-199,563	13,612	-0,078	0,043
-198,548	113,958	0,029	-0,025
-197,533	-200,000	0,028	0,108
-196,519	736,144	0,045	0,086
-195,504	-43,364	-0,101	0,036
-194,490	-46,005	-0,193	-0,067
-193,475	153,183	-0,039	0,039
-192,460	-68,146	0,051	-0,014
-191,446	800,000	-0,039	-0,081
-190,431	-200,000	0,004	0,114
-189,417	-200,000	-0,010	0,142
-188,402	76,748	-0,134	0,102
-187,387	136,784	-0,072	0,067
-186,373	337,454	0,055	-0,076
-185,358	11,054	0,155	0,084
-184,344	-200,000	0,017	-0,069
-183,329	749,179	0,018	-0,035
-182,315	-66,114	0,212	0,060
-181,300	-71,616	0,133	-0,035
-180,285	-200,000	-0,005	0,025
-179,271	-200,000	0,001	0,051
-178,256	-14,963	-0,108	-0,049
-177,242	-200,000	-0,023	0,094
-176,227	-58,445	0,076	-0,023
-175,212	-200,000	0,018	0,103
-174,198	4,362	0,106	0,055
-173,183	-200,000	-0,022	-0,095
-172,169	209,482	-0,067	-0,075
-171,154	63,521	0,077	-0,055
-170,139	265,464	0,042	-0,052
-169,125	-103,024	-0,039	-0,007
-168,110	800,000	0,064	0,157
-167,096	-1,912	-0,089	-0,044
-166,081	800,000	0,024	-0,060
-165,066	800,000	-0,068	-0,171
-164,052	98,039	-0,034	0,028
-163,037	-117,960	0,132	-0,017
-162,023	-200,000	0,020	0,114
-161,008	-200,000	0,018	-0,098
-159,993	126,550	-0,101	0,091
-158,979	-169,102	-0,127	-0,003
-157,964	-48,476	-0,056	0,019
-156,950	-200,000	0,016	0,085
-155,935	120,563	0,133	0,118
-154,920	132,653	-0,046	-0,042
-153,906	-23,708	0,092	-0,039
-152,891	-18,882	-0,061	-0,027
-151,877	16,034	0,102	-0,057
-150,862	-200,000	-0,030	-0,211
-149,847	-186,442	-0,082	-0,001
-148,833	369,925	-0,047	0,067
-147,818	91,078	0,034	0,027
-146,804	-171,539	0,176	0,004
-145,789	-20,177	0,189	-0,082
-144,775	-200,000	-0,017	0,095
-143,760	72,496	-0,059	-0,044
-142,745	290,503	-0,095	-0,123
-141,731	422,080	0,046	-0,071
-140,716	96,798	0,091	0,074
-139,702	-134,293	-0,079	0,007
-138,687	-200,000	-0,031	-0,110
-137,672	-63,685	0,029	0,008
-136,658	-11,970	0,054	-0,025
-135,643	131,495	-0,052	0,048
-134,629	587,467	0,040	0,071
-133,614	66,958	0,084	-0,061
-132,599	-126,156	-0,070	-0,007
-131,585	21,931	-0,040	-0,023
-130,570	-36,414	-0,091	-0,035
-129,556	800,000	-0,019	-0,047
-128,541	-200,000	0,002	-0,034
-127,526	344,401	-0,042	0,058
-126,512	800,000	-0,020	0,060
-125,497	291,712	0,075	0,098
-124,483	273,256	0,080	0,100
-123,468	-24,238	-0,147	-0,062
-122,453	13,047	-0,075	-0,041
-121,439	800,000	-0,028	0,082
-120,424	-31,828	-0,073	-0,029
-119,410	-22,652	0,064	0,027
-118,395	137,034	0,097	0,090
-117,380	502,145	0,022	-0,036
-116,366	9,898	-0,055	0,030
-115,351	-200,000	-0,012	-0,062
-114,337	428,049	-0,123	-0,189
-113,322	800,000	-0,040	0,081
-112,307	263,414	0,063	-0,078
-111,293	-200,000	-0,012	0,080
-110,278	159,442	-0,030	-0,030
-109,264	800,000	0,033	0,067
-108,249	-186,943	-0,038	-0,000
-107,234	-131,210	-0,139	0,013
-106,220	-24,555	-0,170	-0,072
-105,205	175,462	-0,065	-0,067
-104,191	147,042	0,005	0,005
-103,176	97,335	0,098	-0,080
-102,162	800,000	-0,036	-0,080
-101,147	-64,803	0,024	-0,007
-100,132	800,000	-0,046	-0,096
-99,118	-140,924	-0,125	-0,009
-98,103	-21,000	-0,013	-0,005
-97,089	630,680	0,075	0,136
-96,074	-97,693	-0,116	-0,021
-95,059	-32,730	-0,057	-0,022
-94,045	-73,621	0,043	0,011
-93,030	80,576	-0,150	-0,114
-92,016	124,649	-0,027	0,024
-91,001	130,940	0,076	-0,069
-89,986	-200,000	-0,004	-0,079
-88,972	800,000	-0,027	-0,073
-87,957	616,627	0,071	0,127
-86,943	378,517	-0,016	-0,024
-85,928	580,414	-0,003	-0,006
-84,913	252,128	-0,029	0,035
-83,899	-200,000	-0,011	-0,059
-82,884	-63,334	-0,111	0,032
-81,870	288,376	0,023	0,029
-80,855	800,000	-0,014	0,040
-79,840	-30,023	0,139	0,056
-78,826	23,452	-0,062	-0,036
-77,811	185,772	-0,035	0,037
-76,797	215,219	-0,082	0,092
-75,782	-165,533	0,091	0,003
-74,767	108,903	-0,040	0,034
-73,753	-200,000	-0,147	0,000
-72,738	381,271	-0,055	-0,080
-71,724	800,000	0,016	0,032
-70,709	306,981	0,006	0,008
-69,694	26,505	-0,103	0,061
-68,680	-157,833	-0,137	0,006
-67,665	800,000	-0,025	-0,060
-66,651	800,000	0,045	0,112
-65,636	41,446	-0,043	0,027
-64,622	-200,000	-0,019	0,099
-63,607	-95,277	0,037	-0,007
-62,592	-169,507	-0,113	-0,003
-61,578	-142,306	-0,059	-0,004
-60,563	-4,811	0,084	-0,041
-59,549	89,390	0,127	0,100
-58,534	-69,548	-1,501	-0,405
-57,519	369,801	-1,416	-2,039
-56,505	-200,000	-0,556	-4,547
-55,490	146,611	1,022	0,973
-54,476	800,000	4,758	11,053
-53,461	-200,000	17,959	285,327
-52,446	800,000	726,452	2223,754
-51,432	555,557	1641,874	2812,974
-50,417	79,529	1664,080	1264,384
-49,403	23,080	1537,871	892,212
-48,388	17,156	1461,104	818,989
-47,373	17,970	1451,231	817,341
-46,359	17,384	1441,750	809,166
-45,344	15,397	1436,935	796,947
-44,330	15,302	1434,974	795,374
-43,315	15,289	1433,267	794,338
-42,300	15,327	1431,564	793,544
-41,286	15,346	1430,489	793,004
-40,271	15,346	1429,255	792,289
-39,257	15,287	1428,130	791,355
-38,242	15,382	1426,454	790,844
-37,227	15,380	1425,475	790,262
-36,213	15,323	1424,231	789,268
-35,198	15,344	1422,920	788,611
-34,184	15,394	1422,120	788,371
-33,169	15,316	1420,645	787,158
-32,154	15,383	1419,621	786,873
-31,140	15,366	1418,353	786,059
-30,125	15,438	1417,164	785,709
-29,111	15,384	1416,211	784,896
-28,096	15,352	1415,092	784,091
-27,082	15,304	1414,058	783,263
-26,067	15,331	1412,770	782,646
-25,052	15,308	1411,901	782,026
-24,038	15,254	1411,022	781,253
-23,023	15,254	1409,828	780,563
-22,009	15,226	1408,758	779,808
-20,994	15,205	1408,072	779,298
-19,979	15,209	1407,067	778,732
-18,965	15,232	1406,048	778,243
-17,950	15,216	1405,034	777,576
-16,936	15,197	1404,238	777,015
-15,921	15,196	1402,919	776,249
-14,906	15,173	1401,905	775,549
-13,892	15,219	1401,030	775,248
-12,877	15,176	1400,206	774,563
-11,863	15,186	1399,283	774,070
-10,848	15,206	1398,334	773,607
-9,833	15,136	1397,504	772,792
-8,819	15,103	1396,713	772,168
-7,804	15,087	1395,733	771,525
-6,790	15,097	1394,688	770,960
-5,775	15,092	1393,751	770,390
-4,760	15,092	1392,898	769,885
-3,746	15,065	1392,154	769,319
-2,731	15,097	1391,165	768,893
-1,717	15,064	1390,326	768,247
-0,702	15,052	1388,465	767,133
0,313	18,918	1308,051	740,583
1,327	35,364	707,016	438,438
2,342	54,348	124,816	85,005
3,356	3,604	16,717	8,608
4,371	16,748	3,062	1,711
5,386	-9,176	0,540	0,255
6,400	800,000	-0,040	0,114
7,415	75,620	-0,219	-0,163
8,429	-16,529	-0,372	-0,166
9,444	38,038	-0,439	-0,276
10,459	-44,716	-0,399	-0,140
11,473	5,691	-0,257	-0,134
12,488	-19,320	-0,306	-0,134
13,502	-105,189	-0,387	-0,062
14,517	79,023	-0,306	-0,231
15,531	40,135	-0,494	-0,314
16,546	88,992	-0,299	-0,235
17,561	68,863	-0,453	-0,329
18,575	-21,473	-0,251	-0,108
19,590	249,859	-0,269	-0,323
20,604	84,653	-0,218	-0,169
21,619	153,291	-0,351	-0,340
22,634	185,684	-0,358	-0,376
23,648	47,522	-0,424	-0,279
24,663	77,960	-0,411	-0,310
25,677	-10,704	-0,289	-0,134
26,692	-67,453	-0,414	-0,114
27,707	42,374	-0,333	-0,214
28,721	66,373	-0,460	-0,330
29,736	29,115	-0,422	-0,253
30,750	123,698	-0,493	-0,437
31,765	41,875	-0,366	-0,234
32,780	318,630	-0,329	-0,442
33,794	-2,712	-0,446	-0,220
34,809	123,760	-0,331	-0,293
35,823	-21,714	-0,350	-0,150
36,838	7,154	-0,424	-0,223
37,853	125,527	-0,387	-0,345
38,867	70,879	-0,458	-0,335
39,882	214,248	-0,262	-0,294
40,896	12,488	-0,370	-0,201
41,911	29,740	-0,241	-0,144
42,926	-9,420	-0,373	-0,175
43,940	365,463	-0,250	-0,356
44,955	37,050	-0,322	-0,200
45,969	34,519	-0,311	-0,191
46,984	60,168	-0,301	-0,210
47,999	-31,404	-0,362	-0,143
49,013	104,781	-0,309	-0,257
50,028	2,319	-0,252	-0,128
51,042	62,063	-0,346	-0,243
52,057	-43,280	-0,504	-0,179
53,071	245,851	-0,299	-0,356
54,086	24,992	-0,366	-0,214
55,101	93,045	-0,325	-0,259
56,115	121,683	-0,306	-0,269
57,130	104,004	-0,355	-0,294
58,144	88,197	-0,377	-0,294
59,159	13,827	-0,323	-0,176
60,174	-23,387	-0,479	-0,202
61,188	32,327	-0,443	-0,269
62,203	263,952	-0,225	-0,277
63,217	-5,424	-0,448	-0,216
64,232	1,612	-0,349	-0,177
65,247	-44,422	-0,412	-0,144
66,261	89,837	-0,249	-0,196
67,276	50,912	-0,302	-0,201
68,290	-160,498	-0,387	0,014
69,305	-60,668	-0,386	-0,114
70,320	56,100	-0,365	-0,249
71,334	-31,839	-0,278	-0,109
72,349	30,483	-0,368	-0,221
73,363	199,577	-0,331	-0,358
74,378	113,108	-0,286	-0,244
75,393	289,678	-0,229	-0,293
76,407	93,167	-0,357	-0,284
77,422	194,327	-0,268	-0,286
78,436	-1,262	-0,380	-0,188
79,451	18,816	-0,261	-0,147
80,466	7,094	-0,436	-0,228
81,480	-5,847	-0,367	-0,176
82,495	-31,342	-0,431	-0,170
83,509	252,856	-0,226	-0,272
84,524	94,238	-0,336	-0,268
85,539	-74,669	-0,083	-0,021
86,553	288,354	-0,205	-0,262
87,568	74,068	-0,275	-0,203
88,582	47,410	-0,332	-0,217
89,597	-87,409	-0,307	-0,065
90,611	337,179	-0,222	-0,305
91,626	53,133	-0,236	-0,159
92,641	1,207	-0,191	-0,096
93,655	-200,000	-0,375	0,000
94,670	9,608	-0,238	-0,127
95,684	7,149	-0,257	-0,135
96,699	272,608	-0,203	-0,252
97,714	136,172	-0,197	-0,181
98,728	63,532	-0,248	-0,174
99,743	198,525	-0,227	-0,244
100,757	15,516	-0,262	-0,144
101,772	-47,334	-0,227	-0,077
102,787	-32,688	-0,203	-0,079
103,801	285,890	-0,194	-0,247
104,816	-7,061	-0,295	-0,140
105,830	38,490	-0,243	-0,152
106,845	27,557	-0,161	-0,095
107,860	1,345	-0,239	-0,120
108,874	-22,722	-0,237	-0,100
109,889	11,560	-0,299	-0,160
110,903	90,181	-0,221	-0,173
111,918	32,622	-0,185	-0,112
112,933	-82,111	-0,282	-0,064
113,947	107,162	-0,223	-0,186
114,962	457,369	-0,138	-0,215
115,976	-2,257	-0,365	-0,179
116,991	576,271	-0,162	-0,279
118,006	407,316	-0,224	-0,333
119,020	48,692	-0,347	-0,227
120,035	107,214	-0,250	-0,209
121,049	93,421	-0,194	-0,154
122,064	106,635	-0,282	-0,235
123,079	17,059	-0,330	-0,183
124,093	317,858	-0,207	-0,276
125,108	66,002	-0,342	-0,242
126,122	-8,273	-0,273	-0,128
127,137	116,701	-0,255	-0,219
128,151	-56,952	-0,213	-0,066
129,166	155,113	-0,259	-0,250
130,181	54,969	-0,175	-0,118
131,195	80,829	-0,207	-0,156
132,210	101,148	-0,328	-0,267
133,224	198,340	-0,227	-0,244
134,239	105,164	-0,211	-0,174
135,254	273,343	-0,109	-0,136
136,268	-34,728	-0,300	-0,114
137,283	516,101	-0,172	-0,283
138,297	303,564	-0,261	-0,340
139,312	234,425	-0,205	-0,237
140,327	43,593	-0,278	-0,178
141,341	31,534	-0,246	-0,147
142,356	358,918	-0,206	-0,289
143,370	111,642	-0,233	-0,197
144,385	35,513	-0,298	-0,183
145,400	-43,561	-0,292	-0,103
146,414	-0,400	-0,261	-0,129
147,429	339,522	-0,170	-0,232
148,443	-34,286	-0,187	-0,071
149,458	39,114	-0,233	-0,146
150,473	-25,474	-0,191	-0,079
151,487	543,363	-0,159	-0,266
152,502	121,399	-0,224	-0,195
153,516	588,091	-0,136	-0,236
154,531	84,495	-0,311	-0,238
155,546	32,171	-0,327	-0,197
156,560	695,844	-0,100	-0,185
157,575	-3,763	-0,209	-0,101
158,589	231,434	-0,214	-0,246
159,604	16,302	-0,332	-0,183
160,619	145,670	-0,307	-0,287
161,633	24,921	-0,233	-0,134
162,648	14,639	-0,171	-0,093
163,662	126,331	-0,174	-0,154
164,677	299,081	-0,149	-0,193
165,692	270,390	-0,162	-0,200
166,706	129,477	-0,290	-0,259
167,721	125,317	-0,245	-0,215
168,735	210,687	-0,244	-0,268
169,750	262,306	-0,189	-0,229
170,764	81,285	-0,169	-0,127
171,779	167,243	-0,180	-0,179
172,794	-83,003	-0,167	-0,037
173,808	101,613	-0,220	-0,179
174,823	42,172	-0,319	-0,202
175,837	92,070	-0,285	-0,223
176,852	33,327	-0,229	-0,139
177,867	58,266	-0,128	-0,087
178,881	80,110	-0,134	-0,100
179,896	-5,775	-0,303	-0,144
180,910	3,965	-0,245	-0,125
181,925	-29,226	-0,162	-0,064
182,940	228,189	-0,212	-0,241
183,954	114,848	-0,209	-0,178
184,969	-68,964	-0,182	-0,049
185,983	35,659	-0,170	-0,104
186,998	91,122	-0,215	-0,168
188,013	154,767	-0,241	-0,231
189,027	-141,937	-0,296	-0,020
190,042	146,480	-0,271	-0,254
191,056	218,639	-0,238	-0,266
192,071	159,769	-0,222	-0,216
193,086	275,562	-0,205	-0,254
194,100	800,000	-0,074	-0,212
195,115	14,813	-0,245	-0,133
196,129	309,089	-0,194	-0,252
197,144	287,846	-0,194	-0,244
198,159	800,000	-0,052	-0,106
199,173	800,000	-0,055	-0,150
200,188	800,000	-0,075	-0,187
201,202	60,634	-0,172	-0,119
202,217	-9,216	-0,203	-0,094
203,232	356,477	-0,221	-0,308
204,246	222,947	-0,223	-0,251
205,261	-40,834	-0,225	-0,081
206,275	0,385	-0,288	-0,143
207,290	800,000	-0,081	-0,221
208,304	48,087	-0,296	-0,192
209,319	35,449	-0,119	-0,073
210,334	-106,357	-0,218	0,034
211,348	512,119	-0,148	-0,241
212,363	136,399	-0,192	-0,174
213,377	233,853	-0,159	-0,183
214,392	-119,988	-0,114	0,013
215,407	59,939	-0,096	-0,066
216,421	462,458	-0,101	-0,157
217,436	800,000	-0,061	-0,118
218,450	73,421	-0,191	-0,139
219,465	136,214	-0,248	-0,225
220,480	-50,372	-0,424	-0,138
221,494	800,000	-0,093	-0,193
222,509	328,079	-0,154	-0,206
223,523	29,928	-0,251	-0,148
224,538	-35,102	-0,230	-0,087
225,553	-90,147	-0,325	-0,065
226,567	112,990	-0,285	-0,240
227,582	241,594	-0,204	-0,237
228,596	-200,000	0,010	-0,092
229,611	218,581	-0,197	-0,219
230,626	144,372	-0,214	-0,198
231,640	51,078	-0,217	-0,143
232,655	42,137	-0,176	-0,110
233,669	340,647	-0,134	-0,182
234,684	255,962	-0,209	-0,249
235,699	93,825	-0,174	-0,137
236,713	-44,347	-0,065	0,022
237,728	143,117	-0,116	-0,107
238,742	23,643	-0,148	-0,084
239,757	-34,683	-0,193	-0,073
240,772	69,577	-0,190	-0,135
241,786	800,000	-0,069	-0,181
242,801	386,482	-0,203	-0,292
243,815	-200,000	-0,010	-0,048
244,830	91,633	-0,152	-0,118
245,844	223,274	-0,172	-0,193
246,859	2,636	-0,239	-0,120
247,874	129,348	-0,190	-0,168
248,888	99,063	-0,218	-0,175
249,903	705,325	-0,067	-0,124
250,917	-200,000	0,007	-0,064
251,932	283,787	-0,131	-0,163
252,947	800,000	-0,015	-0,032
253,961	-123,316	-0,209	-0,023
254,976	111,222	-0,266	-0,222
255,990	170,080	-0,287	-0,285
257,005	115,423	-0,163	-0,138
258,020	-39,386	-0,092	-0,033
259,034	269,285	-0,145	-0,177
260,049	800,000	-0,050	-0,133
261,063	222,928	-0,231	-0,259
262,078	312,263	-0,162	-0,211
263,093	357,146	-0,204	-0,283
264,107	30,383	-0,205	-0,121
265,122	-123,216	-0,082	-0,009
266,136	442,332	-0,107	-0,163
267,151	-61,287	-0,118	-0,034
268,166	-22,450	-0,288	-0,120
269,180	50,816	-0,175	-0,115
270,195	-43,153	-0,293	-0,102
271,209	326,987	-0,096	-0,128
272,224	355,826	-0,100	-0,138
273,239	127,784	-0,156	-0,137
274,253	68,173	-0,118	-0,083
275,268	215,775	-0,143	-0,157
276,282	95,114	-0,210	-0,166
277,297	258,238	-0,188	-0,225
278,312	-77,926	-0,225	-0,053
279,326	-20,228	-0,226	-0,096
280,341	165,659	-0,139	-0,136
281,355	172,313	-0,043	-0,043
282,370	800,000	-0,075	-0,164
283,384	220,680	-0,182	-0,202
284,399	-83,146	-0,187	-0,041
285,414	27,524	-0,130	-0,075
286,428	11,733	-0,130	0,069
287,443	-60,838	-0,177	0,051
288,457	134,329	-0,079	-0,071
289,472	-161,014	-0,108	0,004
290,487	-192,251	-0,313	0,002
291,501	231,740	-0,258	-0,292
292,516	618,400	-0,128	-0,223
293,530	38,808	-0,186	-0,114
294,545	136,750	-0,113	-0,102
295,560	-81,348	-0,082	0,019
296,574	-56,661	-0,142	-0,043
297,589	101,960	-0,208	-0,167
298,603	431,977	-0,127	-0,191
299,618	-92,289	-0,076	-0,015
300,633	253,495	-0,217	-0,256
301,647	-200,000	-0,005	-0,062
302,662	341,773	-0,109	-0,148
303,676	-137,861	-0,175	-0,013
304,691	-95,826	-0,266	-0,049
305,706	475,587	-0,132	-0,207
306,720	19,339	-0,186	-0,103
307,735	148,718	-0,167	-0,156
308,749	-200,000	0,000	-0,026
309,764	-53,462	-0,128	-0,040
310,779	68,602	-0,145	-0,102
311,793	-48,738	-0,147	-0,049
312,808	-32,715	-0,173	-0,066
313,822	-200,000	-0,098	-0,299
314,837	338,703	-0,153	-0,206
315,852	-20,315	-0,066	0,028
316,866	800,000	0,009	0,019
317,881	800,000	-0,046	-0,125
318,895	681,849	-0,090	-0,163
319,910	73,979	-0,122	-0,088
320,925	182,306	-0,199	-0,202
321,939	157,949	-0,122	-0,116
322,954	-200,000	-0,009	-0,079
323,968	-143,332	-0,214	0,014
324,983	600,980	-0,170	-0,291
325,997	3,589	-0,153	0,077
327,012	-200,000	-0,047	-0,151
328,027	800,000	-0,100	-0,247
329,041	-21,993	-0,191	-0,079
330,056	226,535	-0,089	-0,099
331,070	800,000	-0,099	-0,201
332,085	95,619	-0,147	-0,115
333,100	27,044	-0,157	0,090
334,114	-42,973	-0,266	-0,092
335,129	64,157	-0,071	-0,049
336,143	-81,384	-0,178	-0,040
337,158	-25,842	-0,142	-0,057
338,173	-13,673	-0,134	-0,059
339,187	124,936	-0,096	-0,084
340,202	404,679	-0,102	-0,148
341,216	85,215	-0,154	-0,116
342,231	173,538	-0,138	-0,137
343,246	521,119	-0,119	-0,192
344,260	74,011	-0,150	-0,108
345,275	588,289	-0,114	0,194
346,289	800,000	-0,115	-0,293
347,304	-45,063	-0,137	0,047
348,319	-9,355	-0,097	-0,044
349,333	406,626	-0,112	-0,164
350,348	73,682	-0,152	-0,110
351,362	119,615	-0,089	-0,076
352,377	-200,000	-0,049	-0,150
353,392	-200,000	-0,035	-0,108
354,406	-200,000	-0,002	-0,035
355,421	210,290	1314,248	1418,713
356,435	161,887	1474,917	1419,227
