DTS Sentinel unit serial number:	SN410029Multiplexer serial number:	ORYXHardware model number:	OX2-SRSoftware version number:	ORYX F/W v4,00 Oryx Data Collector v3.7.2.0data status	okinstallation	B3 Nyhavnadifferential loss correction	single-endedforward channel	channel 1reverse channel	N/Adate	2023/11/29time	09:52:30forward acquisition time	300,00reverse acquisition time	0,00gamma	499,1914k internal	0,3212k external	0,3212temperature offset calibration	1,0000default loss term (dB/km)	0,3820temperature slope calibration	1,0000multiplexer offset coefficient	1,0000multiplexer slope coefficient	1,0000fibre end	0,00T internal ref (°C)	9,25T ext. ref 1 (°C)	-5,34T ext. ref 2 (°C)	-5,46length (m)	temperature (°C)	Stokes	anti-Stokes-744,400	499,701	-0,053	-0,090
-743,385	-200,000	0,055	0,203
-742,371	392,191	-0,124	-0,188
-741,356	-200,000	0,035	0,233
-740,342	273,630	-0,164	-0,210
-739,327	-200,000	-0,028	0,269
-738,312	124,326	-0,198	-0,180
-737,298	-200,000	-0,006	0,387
-736,283	336,553	-0,181	-0,256
-735,269	-200,000	0,001	0,319
-734,254	772,730	-0,169	-0,335
-733,239	149,457	-0,176	0,173
-732,225	83,480	-0,165	-0,130
-731,210	800,000	0,043	0,118
-730,196	-200,000	0,017	-0,155
-729,181	-200,000	0,010	-0,121
-728,167	800,000	-0,051	0,131
-727,152	-37,689	0,097	-0,037
-726,137	516,982	-0,047	-0,081
-725,123	236,840	-0,033	0,039
-724,108	-200,000	0,005	0,032
-723,094	93,949	-0,124	-0,102
-722,079	-37,101	0,106	-0,041
-721,064	72,200	-0,038	-0,028
-720,050	179,281	-0,037	0,039
-719,035	-78,886	-0,159	0,039
-718,021	-93,040	-0,051	-0,010
-717,006	36,490	-0,059	-0,038
-715,991	-9,751	0,023	-0,011
-714,977	440,505	-0,019	0,031
-713,962	-200,000	0,028	-0,132
-712,948	9,996	-0,093	-0,051
-711,933	-200,000	-0,005	-0,036
-710,918	-112,873	-0,063	0,009
-709,904	117,697	-0,074	-0,066
-708,889	800,000	0,047	-0,103
-707,875	-200,000	-0,004	-0,107
-706,860	-89,134	0,085	0,018
-705,845	-200,000	-0,019	0,073
-704,831	800,000	-0,065	0,145
-703,816	-200,000	0,020	-0,094
-702,802	-52,984	-0,136	-0,045
-701,787	47,115	-0,085	-0,057
-700,772	-200,000	-0,006	-0,052
-699,758	242,458	0,083	0,100
-698,743	-47,404	-0,080	0,028
-697,729	148,393	0,098	0,096
-696,714	800,000	-0,047	0,139
-695,699	-200,000	0,006	0,031
-694,685	-46,340	-0,048	-0,017
-693,670	-173,248	-0,028	0,001
-692,656	85,396	0,060	0,048
-691,641	-31,413	0,082	0,033
-690,627	-200,000	-0,005	-0,146
-689,612	273,253	-0,067	-0,086
-688,597	-11,096	0,010	0,005
-687,583	12,966	-0,065	0,036
-686,568	-134,266	-0,142	0,012
-685,554	-9,150	-0,137	0,066
-684,539	424,866	-0,063	-0,099
-683,524	-200,000	0,011	-0,071
-682,510	131,213	0,044	0,041
-681,495	-85,838	-0,119	-0,026
-680,481	800,000	0,015	-0,041
-679,466	-53,047	-0,160	-0,053
-678,451	800,000	0,063	-0,165
-677,437	800,000	-0,039	-0,080
-676,422	9,592	0,065	0,036
-675,408	-95,052	-0,097	0,019
-674,393	53,499	-0,065	-0,045
-673,378	-153,902	-0,054	-0,003
-672,364	99,563	0,068	0,057
-671,349	-200,000	-0,017	-0,066
-670,335	633,780	-0,047	-0,086
-669,320	-200,000	0,012	-0,113
-668,305	-125,936	0,090	0,010
-667,291	-200,000	0,016	0,058
-666,276	-200,000	0,021	-0,168
-665,262	-200,000	0,046	-0,156
-664,247	266,771	-0,207	-0,262
-663,232	2,609	-0,071	-0,037
-662,218	-200,000	-0,016	0,169
-661,203	47,313	0,047	0,032
-660,189	-200,000	-0,021	-0,089
-659,174	-12,556	-0,207	-0,097
-658,159	800,000	0,099	-0,199
-657,145	-87,712	-0,020	-0,004
-656,130	-40,064	-0,118	-0,044
-655,116	-50,902	0,107	-0,036
-654,101	-200,000	-0,043	0,237
-653,086	214,610	-0,039	-0,044
-652,072	-25,349	-0,178	-0,076
-651,057	-200,000	0,026	0,085
-650,043	176,664	-0,077	0,081
-649,028	-200,000	0,001	-0,055
-648,014	-37,609	0,140	0,054
-646,999	-200,000	-0,008	0,079
-645,984	-200,000	0,014	-0,142
-644,970	379,386	-0,124	-0,185
-643,955	96,293	0,074	-0,061
-642,941	-200,000	-0,002	-0,129
-641,926	-25,954	-0,076	-0,032
-640,911	380,443	-0,055	-0,081
-639,897	-42,642	-0,056	-0,020
-638,882	-200,000	-0,008	-0,067
-637,868	569,348	-0,044	-0,077
-636,853	-200,000	0,001	-0,094
-635,838	-200,000	-0,006	-0,027
-634,824	-67,282	-0,063	-0,018
-633,809	380,451	0,075	0,112
-632,795	-200,000	-0,008	-0,097
-631,780	-168,869	-0,076	-0,002
-630,765	-128,931	-0,154	-0,015
-629,751	800,000	-0,059	0,135
-628,736	81,038	-0,159	-0,124
-627,722	-200,000	-0,007	-0,026
-626,707	-200,000	0,030	-0,121
-625,692	81,208	0,112	0,087
-624,678	800,000	0,038	0,109
-623,663	-182,167	0,150	0,002
-622,649	800,000	-0,006	0,012
-621,634	-9,523	-0,075	-0,036
-620,619	79,773	0,061	0,047
-619,605	-200,000	0,039	-0,125
-618,590	485,493	-0,051	-0,085
-617,576	-200,000	0,021	0,079
-616,561	800,000	-0,019	-0,046
-615,546	-40,029	-0,025	0,010
-614,532	433,639	-0,023	-0,037
-613,517	167,626	0,053	-0,054
-612,503	6,337	0,021	0,011
-611,488	-200,000	0,013	-0,071
-610,474	396,494	0,031	0,047
-609,459	85,814	0,030	-0,024
-608,444	-178,159	-0,095	0,002
-607,430	622,731	0,031	0,057
-606,415	63,130	-0,132	-0,095
-605,401	492,733	-0,027	-0,044
-604,386	-129,815	0,146	-0,014
-603,371	40,431	-0,035	0,022
-602,357	800,000	-0,028	0,068
-601,342	-200,000	0,002	-0,085
-600,328	-178,617	-0,044	0,001
-599,313	800,000	0,029	-0,065
-598,298	165,579	-0,047	0,047
-597,284	-141,179	0,071	0,005
-596,269	148,254	0,163	0,159
-595,255	-200,000	-0,047	0,209
-594,240	800,000	0,067	-0,199
-593,225	146,818	-0,090	0,087
-592,211	-141,680	-0,119	0,008
-591,196	378,517	0,037	-0,055
-590,182	520,407	0,118	0,201
-589,167	-107,453	0,042	0,007
-588,152	800,000	-0,044	-0,091
-587,138	-51,649	-0,164	-0,055
-586,123	481,834	0,021	0,034
-585,109	403,216	-0,025	0,039
-584,094	396,254	0,086	-0,130
-583,079	533,220	-0,065	-0,112
-582,065	254,380	-0,112	0,138
-581,050	30,326	0,096	0,059
-580,036	-200,000	-0,039	0,149
-579,021	800,000	-0,053	0,113
-578,006	80,158	0,066	0,051
-576,992	-200,000	-0,012	-0,043
-575,977	800,000	-0,022	-0,045
-574,963	180,941	0,048	0,051
-573,948	-200,000	-0,015	0,067
-572,934	-168,504	-0,113	0,003
-571,919	-2,925	-0,037	-0,019
-570,904	-124,022	-0,063	0,007
-569,890	272,182	0,082	-0,105
-568,875	-200,000	-0,003	0,040
-567,861	-75,152	0,098	-0,025
-566,846	-200,000	0,010	-0,056
-565,831	282,674	0,095	0,123
-564,817	800,000	-0,020	-0,045
-563,802	-200,000	-0,009	-0,033
-562,788	577,771	-0,055	0,097
-561,773	-27,653	-0,014	-0,006
-560,758	688,242	0,059	0,111
-559,744	-23,995	0,020	-0,008
-558,729	-111,167	-0,106	-0,015
-557,715	-23,717	0,059	0,025
-556,700	-39,258	-0,112	-0,042
-555,685	-69,403	-0,116	-0,032
-554,671	71,315	0,128	-0,096
-553,656	15,248	0,081	-0,046
-552,642	800,000	-0,016	0,034
-551,627	-26,364	0,116	0,049
-550,612	249,080	-0,097	-0,118
-549,598	9,582	-0,092	-0,050
-548,583	122,199	-0,014	-0,013
-547,569	43,153	0,173	-0,114
-546,554	459,961	0,072	-0,116
-545,539	-200,000	0,002	0,067
-544,525	740,772	0,045	0,087
-543,510	-200,000	-0,016	0,090
-542,496	-45,437	-0,043	-0,015
-541,481	800,000	-0,050	-0,139
-540,466	800,000	-0,030	-0,069
-539,452	-200,000	0,011	0,041
-538,437	-42,844	-0,048	-0,017
-537,423	-200,000	-0,026	0,127
-536,408	-33,594	0,085	-0,034
-535,393	-159,885	-0,044	0,002
-534,379	73,013	-0,066	0,050
-533,364	-34,115	0,038	0,015
-532,350	-200,000	0,027	0,119
-531,335	-85,897	0,128	-0,028
-530,321	800,000	-0,068	0,175
-529,306	-135,501	-0,090	0,008
-528,291	-200,000	-0,022	-0,074
-527,277	150,754	0,060	-0,059
-526,262	149,954	-0,040	-0,039
-525,248	-56,144	-0,058	-0,019
-524,233	-200,000	-0,008	0,053
-523,218	-200,000	0,042	0,180
-522,204	-200,000	0,005	-0,147
-521,189	465,652	-0,076	-0,123
-520,175	0,822	-0,135	-0,069
-519,160	-200,000	-0,008	0,096
-518,145	-83,831	0,156	-0,035
-517,131	87,894	-0,047	-0,038
-516,116	-200,000	0,009	0,080
-515,102	-200,000	-0,010	0,054
-514,087	573,096	-0,030	0,052
-513,072	800,000	-0,047	-0,126
-512,058	254,058	0,100	0,123
-511,043	612,360	-0,018	0,032
-510,029	-169,363	-0,022	0,001
-509,014	-200,000	-0,003	0,027
-507,999	-41,620	0,142	0,052
-506,985	-5,588	-0,142	-0,070
-505,970	248,097	-0,083	0,101
-504,956	220,947	0,007	-0,008
-503,941	315,328	-0,034	0,046
-502,926	-39,120	0,084	0,032
-501,912	-152,656	0,016	0,001
-500,897	307,817	-0,072	-0,097
-499,883	242,668	-0,057	-0,069
-498,868	-98,910	-0,111	-0,020
-497,853	-200,000	-0,016	-0,066
-496,839	35,803	0,150	-0,094
-495,824	258,975	0,041	0,051
-494,810	-169,226	-0,198	0,005
-493,795	800,000	-0,064	-0,197
-492,781	800,000	-0,015	0,035
-491,766	-90,296	-0,076	-0,016
-490,751	217,999	-0,027	-0,031
-489,737	649,148	-0,025	-0,046
-488,722	235,482	0,039	-0,047
-487,708	-200,000	0,003	0,018
-486,693	-66,415	0,099	0,028
-485,678	-127,272	0,069	0,007
-484,664	800,000	0,030	-0,063
-483,649	163,200	-0,056	-0,056
-482,635	-145,741	-0,092	0,006
-481,620	263,454	0,055	-0,069
-480,605	-130,242	0,050	0,005
-479,591	-200,000	-0,012	0,040
-478,576	-102,900	0,048	0,008
-477,562	-55,771	-0,086	0,027
-476,547	800,000	-0,033	-0,080
-475,532	-200,000	-0,022	-0,111
-474,518	-10,334	0,078	0,037
-473,503	-200,000	-0,023	0,078
-472,489	30,572	-0,158	-0,097
-471,474	-200,000	-0,002	0,118
-470,459	414,652	-0,068	-0,105
-469,445	800,000	0,033	-0,072
-468,430	-114,429	-0,175	0,024
-467,416	-53,698	0,082	-0,027
-466,401	38,362	-0,053	-0,034
-465,386	163,804	0,112	0,113
-464,372	-159,731	0,090	-0,003
-463,357	-18,837	-0,065	0,029
-462,343	22,308	-0,073	-0,043
-461,328	29,331	-0,032	0,020
-460,313	277,317	-0,014	0,018
-459,299	-200,000	-0,015	-0,068
-458,284	-200,000	-0,004	-0,092
-457,270	-200,000	-0,015	-0,071
-456,255	800,000	-0,027	-0,056
-455,241	-200,000	-0,007	0,028
-454,226	729,518	0,063	-0,121
-453,211	-61,490	0,096	0,029
-452,197	-102,477	-0,077	0,013
-451,182	800,000	0,027	0,062
-450,168	-200,000	-0,036	0,118
-449,153	-27,772	-0,103	0,043
-448,138	140,982	-0,084	-0,079
-447,124	800,000	-0,071	-0,164
-446,109	-123,262	0,074	-0,008
-445,095	-200,000	-0,013	-0,071
-444,080	800,000	-0,045	-0,122
-443,065	16,146	0,115	-0,065
-442,051	328,034	-0,085	0,117
-441,036	614,619	0,033	-0,059
-440,022	-200,000	-0,006	-0,081
-439,007	338,176	0,031	0,043
-437,992	800,000	0,039	0,082
-436,978	439,849	0,075	0,118
-435,963	-200,000	-0,020	0,095
-434,949	-167,222	0,025	-0,001
-433,934	-112,800	-0,100	0,014
-432,919	83,332	0,020	0,016
-431,905	-91,214	-0,083	0,017
-430,890	-200,000	-0,008	-0,051
-429,876	-139,440	0,077	0,006
-428,861	110,774	-0,064	0,055
-427,846	800,000	0,043	0,111
-426,832	-200,000	-0,007	0,034
-425,817	800,000	-0,082	-0,178
-424,803	25,860	0,125	-0,075
-423,788	-3,763	-0,049	-0,024
-422,773	-200,000	0,043	0,140
-421,759	354,855	-0,060	-0,086
-420,744	-18,675	0,129	-0,057
-419,730	741,997	0,014	-0,026
-418,715	278,943	0,015	-0,019
-417,701	-96,948	0,119	-0,022
-416,686	800,000	0,003	0,009
-415,671	-121,596	0,063	0,007
-414,657	-8,971	-0,025	0,012
-413,642	-1,725	-0,095	-0,048
-412,628	602,554	-0,044	0,078
-411,613	-81,644	-0,071	0,017
-410,598	-54,972	0,104	0,033
-409,584	43,869	0,111	-0,073
-408,569	-200,000	0,017	0,197
-407,555	-103,193	0,059	0,010
-406,540	-82,274	0,095	0,022
-405,525	36,049	-0,110	-0,069
-404,511	-200,000	0,017	-0,060
-403,496	268,023	-0,007	0,008
-402,482	144,120	0,054	0,052
-401,467	800,000	0,020	0,063
-400,452	-72,068	-0,073	0,019
-399,438	-159,970	0,173	-0,007
-398,423	-36,218	0,063	-0,024
-397,409	-200,000	-0,019	-0,083
-396,394	210,279	-0,042	0,047
-395,379	-200,000	0,008	-0,051
-394,365	800,000	0,029	-0,063
-393,350	66,627	0,083	0,060
-392,336	-2,552	-0,071	0,035
-391,321	89,764	-0,074	0,059
-390,306	301,813	0,058	-0,077
-389,292	112,734	-0,051	0,044
-388,277	-61,163	0,047	0,014
-387,263	58,219	0,031	0,022
-386,248	41,771	0,034	-0,022
-385,233	-143,657	-0,041	0,003
-384,219	483,341	0,054	0,088
-383,204	98,568	-0,112	0,093
-382,190	103,485	-0,143	0,120
-381,175	800,000	0,025	-0,070
-380,160	399,320	0,078	0,117
-379,146	176,105	0,041	0,042
-378,131	-64,489	0,099	0,028
-377,117	-200,000	0,003	-0,022
-376,102	389,420	-0,020	-0,030
-375,088	8,548	0,055	0,030
-374,073	-200,000	-0,010	-0,135
-373,058	-87,079	0,128	-0,028
-372,044	129,653	-0,069	0,063
-371,029	7,877	0,075	-0,040
-370,015	231,639	-0,008	0,009
-369,000	800,000	-0,032	0,070
-367,985	788,231	-0,005	-0,009
-366,971	-106,093	0,156	-0,025
-365,956	479,188	0,022	0,036
-364,942	285,124	0,045	-0,058
-363,927	311,198	0,021	0,028
-362,912	-200,000	0,002	0,033
-361,898	-200,000	0,009	-0,114
-360,883	140,853	0,009	-0,008
-359,869	-200,000	-0,010	0,064
-358,854	-200,000	-0,026	0,136
-357,839	82,789	0,065	-0,050
-356,825	-46,161	0,122	0,042
-355,810	-182,968	-0,058	-0,001
-354,796	-149,829	-0,197	0,011
-353,781	87,011	0,063	-0,050
-352,766	800,000	-0,041	0,082
-351,752	-200,000	0,005	0,157
-350,737	-200,000	0,028	0,172
-349,723	-200,000	-0,009	0,126
-348,708	800,000	0,048	0,141
-347,693	800,000	0,035	-0,092
-346,679	-3,558	-0,092	-0,046
-345,664	800,000	-0,051	-0,110
-344,650	286,687	-0,070	0,091
-343,635	169,359	0,081	-0,082
-342,620	63,847	-0,152	0,109
-341,606	447,999	0,039	0,062
-340,591	800,000	0,021	-0,062
-339,577	-112,751	-0,207	0,029
-338,562	50,347	-0,040	-0,027
-337,548	78,534	-0,052	-0,040
-336,533	523,680	0,091	-0,153
-335,518	-28,748	0,204	0,083
-334,504	167,681	-0,048	0,048
-333,489	2,848	-0,142	-0,073
-332,475	-85,005	-0,116	-0,026
-331,460	-200,000	-0,021	-0,068
-330,445	-200,000	-0,004	0,035
-329,431	-161,854	-0,101	0,004
-328,416	-127,271	0,213	-0,022
-327,402	-200,000	-0,016	0,143
-326,387	-200,000	0,017	0,079
-325,372	90,430	0,068	0,054
-324,358	64,912	-0,109	-0,079
-323,343	-200,000	-0,026	-0,087
-322,329	-200,000	0,015	-0,118
-321,314	175,961	0,061	0,063
-320,299	372,815	0,036	0,052
-319,285	800,000	0,073	-0,157
-318,270	-117,785	0,060	-0,008
-317,256	-78,294	-0,171	-0,041
-316,241	800,000	-0,048	-0,096
-315,226	313,296	0,004	-0,005
-314,212	747,733	0,049	-0,094
-313,197	49,276	0,106	-0,071
-312,183	743,553	0,050	-0,097
-311,168	-86,397	-0,105	0,023
-310,153	-147,550	-0,087	0,005
-309,139	-113,443	-0,128	-0,018
-308,124	398,308	-0,077	0,115
-307,110	41,649	0,096	-0,062
-306,095	216,190	-0,054	0,061
-305,080	-200,000	-0,001	-0,151
-304,066	309,908	-0,084	0,112
-303,051	-200,000	0,019	-0,204
-302,037	-200,000	-0,001	-0,028
-301,022	206,248	0,038	-0,042
-300,008	-200,000	0,016	0,087
-298,993	-200,000	0,020	0,090
-297,978	800,000	-0,014	0,032
-296,964	800,000	0,029	0,060
-295,949	-200,000	0,005	-0,111
-294,935	124,040	0,116	-0,104
-293,920	1,085	0,076	0,039
-292,905	-200,000	-0,000	-0,091
-291,891	-200,000	0,027	0,089
-290,876	-200,000	0,003	0,079
-289,862	-164,494	-0,012	0,000
-288,847	-112,241	-0,060	-0,008
-287,832	60,479	0,098	-0,069
-286,818	15,501	-0,094	-0,052
-285,803	-96,779	-0,047	-0,009
-284,789	-78,231	0,081	0,020
-283,774	161,496	0,079	0,079
-282,759	-69,127	0,043	0,012
-281,745	-200,000	-0,018	-0,068
-280,730	-12,823	-0,168	0,077
-279,716	-200,000	-0,006	0,021
-278,701	-200,000	0,002	0,086
-277,686	-200,000	0,018	-0,075
-276,672	442,508	0,049	0,077
-275,657	155,913	-0,061	0,060
-274,643	-200,000	-0,010	-0,062
-273,628	449,850	-0,058	0,091
-272,613	355,486	-0,067	-0,096
-271,599	-114,087	-0,033	-0,004
-270,584	800,000	0,072	0,214
-269,570	266,549	-0,028	-0,035
-268,555	-200,000	0,008	0,027
-267,540	100,575	0,033	-0,027
-266,526	800,000	0,023	-0,073
-265,511	333,652	0,025	0,035
-264,497	-105,870	0,131	-0,021
-263,482	-200,000	-0,022	0,195
-262,467	678,739	-0,054	0,101
-261,453	800,000	-0,072	0,145
-260,438	-83,079	-0,023	0,005
-259,424	-99,497	-0,059	-0,010
-258,409	-61,190	-0,037	0,011
-257,395	-200,000	0,000	-0,041
-256,380	218,334	0,032	0,036
-255,365	-200,000	-0,077	0,245
-254,351	-81,553	-0,100	0,023
-253,336	161,461	0,057	0,057
-252,322	800,000	0,021	-0,053
-251,307	24,781	0,067	0,039
-250,292	-1,282	-0,048	-0,024
-249,278	396,857	-0,053	0,080
-248,263	800,000	0,045	0,111
-247,249	200,958	0,120	-0,131
-246,234	800,000	-0,029	-0,088
-245,219	781,752	0,061	0,120
-244,205	-131,162	-0,055	0,005
-243,190	68,958	0,095	-0,069
-242,176	-200,000	0,008	-0,063
-241,161	-200,000	0,016	0,093
-240,146	186,360	-0,063	0,067
-239,132	581,203	-0,051	-0,089
-238,117	-200,000	0,008	-0,056
-237,103	-200,000	-0,000	0,028
-236,088	346,757	-0,052	0,073
-235,073	-200,000	0,014	-0,148
-234,059	-200,000	-0,004	0,086
-233,044	687,462	0,031	-0,058
-232,030	-9,013	-0,061	0,029
-231,015	63,876	0,030	-0,021
-230,000	-86,509	-0,035	-0,008
-228,986	706,621	-0,015	0,029
-227,971	177,499	0,040	0,041
-226,957	-168,340	0,147	0,004
-225,942	47,017	0,070	-0,046
-224,927	800,000	0,033	0,065
-223,913	-200,000	0,016	-0,071
-222,898	-91,139	-0,023	-0,005
-221,884	481,371	-0,032	-0,051
-220,869	15,988	0,142	-0,079
-219,855	43,575	0,147	-0,095
-218,840	-93,241	0,136	0,027
-217,825	-200,000	-0,017	-0,200
-216,811	60,123	-0,108	-0,076
-215,796	5,809	-0,010	-0,005
-214,782	-123,735	-0,118	-0,013
-213,767	9,257	0,053	-0,028
-212,752	-120,879	0,117	0,014
-211,738	-200,000	-0,010	0,034
-210,723	141,325	0,105	-0,099
-209,709	70,615	-0,099	-0,073
-208,694	800,000	-0,034	-0,091
-207,679	-200,000	-0,021	0,066
-206,665	-171,597	0,130	0,003
-205,650	394,767	0,008	0,012
-204,636	116,738	0,024	0,021
-203,621	83,251	0,091	-0,070
-202,606	-44,344	0,092	0,033
-201,592	265,650	0,022	0,027
-200,577	0,484	0,091	0,046
-199,563	-42,008	-0,078	0,028
-198,548	-200,000	-0,019	0,105
-197,533	183,427	-0,094	0,099
-196,519	45,135	0,054	-0,035
-195,504	-143,235	0,007	0,000
-194,490	800,000	0,046	-0,101
-193,475	800,000	-0,085	-0,176
-192,460	128,343	0,108	0,097
-191,446	-68,767	-0,205	0,056
-190,431	648,488	0,082	0,149
-189,417	9,198	0,029	-0,015
-188,402	-200,000	-0,008	-0,033
-187,387	800,000	-0,041	-0,103
-186,373	-18,407	-0,042	-0,019
-185,358	-32,144	-0,014	0,006
-184,344	800,000	-0,050	0,141
-183,329	295,109	0,072	0,093
-182,315	-113,850	0,071	0,010
-181,300	-200,000	-0,030	0,106
-180,285	316,819	0,122	-0,163
-179,271	28,624	0,073	0,043
-178,256	-200,000	0,014	0,169
-177,242	71,247	0,059	0,044
-176,227	454,090	0,045	-0,071
-175,212	377,566	-0,026	-0,038
-174,198	-45,673	-0,105	0,037
-173,183	781,767	-0,041	-0,081
-172,169	-32,261	-0,094	0,037
-171,154	-200,000	-0,003	0,012
-170,139	131,258	0,048	-0,044
-169,125	-200,000	-0,007	0,101
-168,110	-117,361	-0,083	-0,011
-167,096	-28,469	0,062	-0,025
-166,081	800,000	-0,044	0,094
-165,066	-200,000	-0,016	-0,068
-164,052	-55,784	-0,031	0,010
-163,037	800,000	-0,045	0,117
-162,023	-200,000	-0,003	0,042
-161,008	-62,884	0,079	0,023
-159,993	222,252	-0,066	0,075
-158,979	-200,000	-0,000	-0,105
-157,964	404,238	-0,004	-0,005
-156,950	4,502	0,062	0,032
-155,935	6,556	0,089	0,047
-154,920	92,386	0,111	0,088
-153,906	13,209	0,086	0,047
-152,891	-47,726	-0,057	0,019
-151,877	-200,000	0,011	0,079
-150,862	-22,376	-0,111	-0,047
-149,847	205,745	-0,016	0,018
-148,833	-181,365	-0,101	-0,001
-147,818	712,624	-0,030	0,057
-146,804	-53,789	-0,068	0,022
-145,789	116,678	0,081	-0,070
-144,775	170,910	-0,091	0,093
-143,760	67,304	-0,036	-0,026
-142,745	658,821	-0,023	-0,042
-141,731	-136,264	0,068	0,006
-140,716	-200,000	-0,010	0,038
-139,702	189,499	0,077	-0,082
-138,687	-148,122	0,197	0,011
-137,672	-37,227	-0,043	-0,016
-136,658	-92,311	0,052	-0,010
-135,643	-200,000	0,001	0,033
-134,629	57,577	0,084	-0,058
-133,614	346,519	0,006	0,008
-132,599	714,814	-0,022	-0,041
-131,585	-77,069	0,083	-0,020
-130,570	-7,961	-0,108	-0,051
-129,556	-200,000	-0,000	-0,133
-128,541	-120,264	-0,129	-0,015
-127,526	-91,032	-0,072	-0,015
-126,512	47,300	0,131	-0,086
-125,497	104,846	-0,105	0,088
-124,483	-85,874	0,049	0,011
-123,468	-14,902	-0,037	0,017
-122,453	-200,000	-0,010	0,040
-121,439	-200,000	0,002	0,041
-120,424	-148,507	0,047	-0,003
-119,410	-13,952	-0,137	0,062
-118,395	104,883	-0,067	0,056
-117,380	-200,000	0,002	-0,022
-116,366	664,972	0,043	0,080
-115,351	87,148	-0,089	-0,069
-114,337	194,058	-0,144	-0,154
-113,322	82,255	0,082	-0,063
-112,307	-5,459	0,034	0,017
-111,293	-200,000	0,002	-0,051
-110,278	-51,941	0,178	0,058
-109,264	800,000	-0,040	-0,088
-108,249	28,656	-0,123	-0,073
-107,234	-200,000	-0,033	-0,104
-106,220	-200,000	-0,015	0,139
-105,205	-92,038	0,139	0,028
-104,191	-26,694	0,082	0,034
-103,176	430,753	0,135	0,207
-102,162	207,592	0,033	0,037
-101,147	-163,354	-0,086	-0,003
-100,132	7,028	-0,080	0,042
-99,118	-143,995	0,064	0,004
-98,103	84,365	0,070	-0,054
-97,089	87,275	0,071	0,055
-96,074	-29,095	0,022	-0,009
-95,059	-194,029	-0,106	0,001
-94,045	-134,118	-0,074	0,006
-93,030	145,876	-0,048	0,046
-92,016	-78,537	-0,041	-0,010
-91,001	-135,059	-0,196	-0,016
-89,986	397,716	0,029	0,042
-88,972	110,873	-0,060	-0,051
-87,957	800,000	0,048	0,131
-86,943	-200,000	0,015	0,058
-85,928	68,937	-0,233	-0,169
-84,913	47,197	0,071	0,047
-83,899	-200,000	0,016	0,088
-82,884	-134,934	0,153	0,013
-81,870	100,982	0,044	-0,036
-80,855	207,330	-0,132	0,146
-79,840	-72,031	0,030	-0,008
-78,826	-200,000	0,011	-0,101
-77,811	130,789	-0,082	-0,074
-76,797	325,518	0,019	-0,026
-75,782	-36,784	0,111	0,042
-74,767	-162,831	0,047	0,002
-73,753	-38,652	0,051	-0,019
-72,738	-200,000	0,026	-0,138
-71,724	-200,000	-0,028	-0,127
-70,709	38,943	0,149	-0,094
-69,694	10,982	-0,123	0,066
-68,680	290,585	0,041	-0,053
-67,665	412,718	0,079	0,118
-66,651	-79,648	0,154	0,036
-65,636	759,728	0,038	-0,073
-64,622	-200,000	-0,030	-0,135
-63,607	-80,568	0,070	-0,016
-62,592	-200,000	0,004	-0,025
-61,578	-41,479	-0,005	-0,002
-60,563	482,369	-0,011	0,018
-59,549	-200,000	0,022	0,098
-58,534	53,966	-1,940	-1,314
-57,519	505,520	-1,177	-1,932
-56,505	-200,000	-0,402	-4,303
-55,490	531,496	0,887	1,486
-54,476	800,000	5,207	11,358
-53,461	-200,000	21,767	340,393
-52,446	800,000	762,580	2324,996
-51,432	541,751	1658,727	2799,938
-50,417	70,455	1654,993	1205,719
-49,403	16,948	1528,868	851,980
-48,388	11,098	1453,018	781,504
-47,373	19,148	1444,717	815,514
-46,359	14,478	1433,572	787,064
-45,344	9,333	1429,592	760,426
-44,330	9,320	1427,567	759,256
-43,315	9,303	1425,950	758,284
-42,300	9,296	1424,078	757,227
-41,286	9,324	1422,800	756,650
-40,271	9,280	1421,728	755,843
-39,257	9,272	1420,414	755,075
-38,242	9,309	1419,469	754,719
-37,227	9,312	1418,175	754,012
-36,213	9,337	1416,896	753,421
-35,198	9,373	1415,618	752,882
-34,184	9,363	1414,826	752,383
-33,169	9,273	1413,508	751,230
-32,154	9,308	1412,496	750,824
-31,140	9,337	1411,204	750,246
-30,125	9,340	1409,934	749,556
-29,111	9,322	1408,858	748,868
-28,096	9,322	1407,584	748,159
-27,082	9,275	1406,408	747,285
-26,067	9,276	1405,310	746,680
-25,052	9,299	1404,470	746,308
-24,038	9,307	1403,321	745,708
-23,023	9,301	1402,622	745,277
-22,009	9,288	1401,506	744,593
-20,994	9,256	1400,497	743,879
-19,979	9,310	1399,563	743,604
-18,965	9,240	1398,726	742,805
-17,950	9,214	1397,830	742,179
-16,936	9,240	1396,830	741,738
-15,921	9,162	1396,176	741,000
-14,906	9,207	1395,034	740,573
-13,892	9,245	1393,974	740,158
-12,877	9,234	1393,284	739,710
-11,863	9,238	1392,317	739,187
-10,848	9,182	1391,670	738,555
-9,833	9,136	1390,593	737,742
-8,819	9,100	1389,737	737,095
-7,804	9,073	1388,728	736,405
-6,790	9,097	1387,622	735,901
-5,775	9,102	1386,560	735,330
-4,760	9,155	1385,386	734,923
-3,746	9,090	1384,930	734,351
-2,731	9,143	1383,762	733,947
-1,717	9,106	1382,906	733,293
-0,702	9,131	1381,271	732,513
0,313	13,187	1293,456	704,407
1,327	29,339	684,764	409,263
2,342	45,264	118,050	76,619
3,356	-1,220	16,379	8,131
4,371	-6,148	3,675	1,763
5,386	-6,188	1,095	0,525
6,400	800,000	0,228	0,669
7,415	23,550	-0,243	-0,141
8,429	168,280	-0,278	-0,279
9,444	-1,031	-0,246	-0,122
10,459	-11,892	-0,342	-0,157
11,473	5,751	-0,228	-0,119
12,488	30,220	-0,313	-0,188
13,502	-16,396	-0,342	-0,152
14,517	56,756	-0,374	-0,256
15,531	78,967	-0,418	-0,315
16,546	183,357	-0,296	-0,309
17,561	44,827	-0,393	-0,254
18,575	18,842	-0,057	-0,032
19,590	253,275	-0,256	-0,308
20,604	71,750	-0,290	-0,212
21,619	66,517	-0,368	-0,263
22,634	105,567	-0,473	-0,393
23,648	117,224	-0,338	-0,293
24,663	7,582	-0,416	-0,218
25,677	800,000	-0,164	-0,405
26,692	38,965	-0,267	-0,168
27,707	180,367	-0,270	-0,279
28,721	72,329	-0,418	-0,306
29,736	-43,028	-0,338	-0,120
30,750	4,645	-0,425	-0,219
31,765	-18,213	-0,384	-0,168
32,780	236,953	-0,187	-0,219
33,794	146,624	-0,303	-0,286
34,809	91,631	-0,361	-0,285
35,823	177,236	-0,279	-0,286
36,838	156,491	-0,397	-0,385
37,853	49,263	-0,404	-0,266
38,867	87,641	-0,270	-0,210
39,882	281,129	-0,317	-0,399
40,896	86,310	-0,312	-0,242
41,911	86,907	-0,422	-0,328
42,926	49,826	-0,257	-0,170
43,940	-100,695	-0,339	-0,058
44,955	223,754	-0,336	-0,382
45,969	91,185	-0,330	-0,260
46,984	386,547	-0,198	-0,287
47,999	-11,188	-0,357	-0,165
49,013	251,647	-0,233	-0,279
50,028	-86,885	-0,315	-0,067
51,042	42,036	-0,389	-0,248
52,057	67,844	-0,447	-0,320
53,071	143,278	-0,328	-0,306
54,086	443,841	-0,238	-0,367
55,101	1,603	-0,287	-0,145
56,115	-13,981	-0,458	-0,207
57,130	112,063	-0,294	-0,249
58,144	-44,422	-0,446	-0,156
59,159	174,698	-0,305	-0,310
60,174	-17,094	-0,368	-0,162
61,188	120,068	-0,221	-0,192
62,203	135,468	-0,277	-0,253
63,217	-24,828	-0,471	-0,195
64,232	87,488	-0,331	-0,257
65,247	-6,279	-0,373	-0,178
66,261	-21,208	-0,383	-0,163
67,276	-37,574	-0,468	-0,174
68,290	165,551	-0,215	-0,213
69,305	79,343	-0,308	-0,231
70,320	129,004	-0,271	-0,243
71,334	26,345	-0,356	-0,208
72,349	131,911	-0,291	-0,263
73,363	140,963	-0,297	-0,275
74,378	52,448	-0,323	-0,216
75,393	16,325	-0,354	-0,195
76,407	2,849	-0,233	-0,118
77,422	-43,492	-0,356	-0,125
78,436	45,503	-0,240	-0,155
79,451	-39,464	-0,444	-0,162
80,466	-14,256	-0,372	-0,167
81,480	-25,185	-0,389	-0,160
82,495	1,686	-0,294	-0,148
83,509	298,255	-0,199	-0,257
84,524	-131,446	-0,184	-0,017
85,539	125,976	-0,158	-0,140
86,553	267,167	-0,244	-0,299
87,568	-47,171	-0,280	-0,095
88,582	-104,851	-0,314	0,050
89,597	-30,173	-0,270	-0,107
90,611	103,840	-0,236	-0,194
91,626	164,221	-0,122	-0,120
92,641	6,799	-0,280	-0,145
93,655	-77,550	-0,337	-0,081
94,670	-17,775	-0,258	-0,113
95,684	2,130	-0,314	-0,158
96,699	-73,432	-0,417	-0,106
97,714	414,182	-0,171	-0,256
98,728	-50,529	-0,292	-0,096
99,743	119,861	-0,301	-0,261
100,757	29,369	-0,315	-0,187
101,772	37,746	-0,343	-0,212
102,787	103,025	-0,297	-0,243
103,801	18,241	-0,249	-0,138
104,816	37,160	-0,296	-0,183
105,830	101,370	-0,269	-0,219
106,845	-97,280	-0,362	-0,065
107,860	-4,151	-0,320	-0,154
108,874	-105,042	-0,271	-0,043
109,889	-16,685	-0,329	-0,145
110,903	-68,686	-0,287	-0,077
111,918	1,527	-0,169	-0,085
112,933	251,318	-0,100	-0,119
113,947	-91,667	-0,284	-0,056
114,962	-51,032	-0,380	-0,124
115,976	-25,465	-0,334	-0,137
116,991	-6,029	-0,342	-0,162
118,006	-87,014	-0,228	-0,048
119,020	189,734	-0,291	-0,305
120,035	50,818	-0,217	-0,143
121,049	188,804	-0,151	-0,158
122,064	50,203	-0,315	-0,207
123,079	188,025	-0,213	-0,223
124,093	200,897	-0,244	-0,262
125,108	203,235	-0,149	-0,161
126,122	76,517	-0,321	-0,237
127,137	214,188	-0,204	-0,225
128,151	109,617	-0,198	-0,166
129,166	-85,188	-0,186	-0,040
130,181	219,342	-0,309	-0,346
131,195	205,849	-0,201	-0,218
132,210	2,734	-0,274	-0,138
133,224	478,411	-0,115	-0,183
134,239	204,257	-0,285	-0,309
135,254	59,135	-0,203	-0,139
136,268	23,649	-0,378	-0,216
137,283	-6,111	-0,209	-0,099
138,297	-1,772	-0,330	-0,161
139,312	228,115	-0,234	-0,266
140,327	-23,457	-0,240	-0,100
141,341	800,000	-0,067	-0,139
142,356	69,514	-0,223	-0,160
143,370	279,507	-0,147	-0,183
144,385	800,000	-0,082	-0,229
145,400	55,000	-0,205	-0,138
146,414	207,191	-0,171	-0,186
147,429	-25,105	-0,192	-0,079
148,443	-29,676	-0,340	-0,135
149,458	176,588	-0,161	-0,163
150,473	331,729	-0,158	-0,213
151,487	265,910	-0,142	-0,173
152,502	102,751	-0,221	-0,180
153,516	-25,198	-0,348	-0,143
154,531	230,287	-0,175	-0,199
155,546	83,096	-0,250	-0,189
156,560	267,298	-0,192	-0,234
157,575	-125,618	-0,191	-0,020
158,589	68,813	-0,259	-0,185
159,604	530,261	-0,182	-0,300
160,619	-29,444	-0,196	-0,077
161,633	-87,951	-0,211	-0,044
162,648	46,257	-0,330	-0,212
163,662	-66,887	-0,246	-0,067
164,677	-170,842	-0,219	-0,005
165,692	11,855	-0,277	-0,148
166,706	267,887	-0,201	-0,245
167,721	592,226	-0,095	-0,164
168,735	48,405	-0,184	-0,119
169,750	79,729	-0,283	-0,211
170,764	431,079	-0,102	-0,153
171,779	-68,485	-0,148	-0,040
172,794	-23,387	-0,365	-0,152
173,808	103,928	-0,225	-0,184
174,823	38,424	-0,240	-0,148
175,837	118,178	-0,235	-0,201
176,852	78,980	-0,301	-0,223
177,867	-16,630	-0,172	-0,075
178,881	162,369	-0,206	-0,201
179,896	-31,848	-0,220	-0,085
180,910	-68,230	-0,230	-0,062
181,925	77,460	-0,298	-0,220
182,940	262,930	-0,255	-0,308
183,954	114,864	-0,252	-0,213
184,969	-52,762	-0,166	-0,053
185,983	230,947	-0,138	-0,157
186,998	190,440	-0,237	-0,247
188,013	8,601	-0,220	-0,115
189,027	185,049	-0,145	-0,149
190,042	184,438	-0,135	-0,139
191,056	-50,114	-0,279	-0,091
192,071	183,076	-0,132	-0,136
193,086	-26,884	-0,322	-0,130
194,100	34,853	-0,181	-0,110
195,115	51,863	-0,114	-0,075
196,129	246,861	-0,233	-0,273
197,144	165,694	-0,142	-0,140
198,159	191,529	-0,215	-0,225
199,173	154,452	-0,223	-0,212
200,188	94,796	-0,177	-0,139
201,202	-55,426	-0,215	-0,066
202,217	-57,642	-0,361	-0,109
203,232	43,639	-0,250	-0,158
204,246	-23,484	-0,229	-0,095
205,261	65,600	-0,274	-0,192
206,275	45,511	-0,211	-0,134
207,290	-20,039	-0,316	-0,134
208,304	-30,112	-0,167	-0,066
209,319	74,117	-0,226	-0,164
210,334	150,659	-0,157	-0,148
211,348	93,634	-0,332	-0,260
212,363	577,188	-0,213	-0,362
213,377	46,615	-0,224	-0,143
214,392	800,000	-0,065	-0,174
215,407	111,098	-0,093	-0,077
216,421	-60,090	-0,258	0,076
217,436	-24,303	-0,194	-0,080
218,450	-46,137	-0,268	-0,091
219,465	191,938	-0,236	-0,247
220,480	-54,172	-0,188	-0,059
221,494	-123,085	-0,190	0,021
222,509	-200,000	0,006	0,045
223,523	-15,110	-0,175	-0,077
224,538	-68,070	-0,266	-0,071
225,553	51,499	-0,241	-0,158
226,567	82,585	-0,235	-0,176
227,582	693,668	-0,038	-0,069
228,596	-24,099	-0,217	-0,089
229,611	-60,919	-0,189	0,055
230,626	-56,035	-0,099	-0,030
231,640	245,497	-0,094	-0,109
232,655	209,520	-0,159	-0,173
233,669	20,853	-0,269	-0,150
234,684	196,979	-0,123	-0,130
235,699	117,898	-0,112	-0,096
236,713	-104,471	-0,093	-0,015
237,728	21,784	-0,132	-0,074
238,742	118,301	-0,196	-0,167
239,757	631,775	-0,189	-0,332
240,772	800,000	-0,069	-0,149
241,786	109,992	-0,139	-0,115
242,801	531,113	-0,145	-0,237
243,815	66,593	-0,202	-0,142
244,830	36,274	-0,181	-0,110
245,844	-132,352	-0,171	-0,015
246,859	236,717	-0,243	-0,278
247,874	10,164	-0,213	-0,112
248,888	243,893	-0,171	-0,198
249,903	-21,640	-0,191	-0,080
250,917	800,000	-0,048	-0,142
251,932	51,245	-0,190	-0,124
252,947	105,709	-0,197	-0,161
253,961	181,829	-0,180	-0,183
254,976	76,201	-0,209	-0,152
255,990	-200,000	0,045	-0,221
257,005	-200,000	-0,048	-0,196
258,020	209,556	-0,136	-0,147
259,034	-100,790	-0,194	-0,033
260,049	-28,234	-0,327	-0,130
261,063	217,799	-0,186	-0,204
262,078	171,439	-0,192	-0,190
263,093	614,232	-0,130	-0,226
264,107	537,254	-0,139	-0,229
265,122	-35,836	-0,225	-0,084
266,136	-79,100	-0,143	-0,033
267,151	-31,291	-0,255	-0,099
268,166	243,258	-0,219	-0,253
269,180	800,000	-0,058	-0,118
270,195	688,370	-0,103	-0,187
271,209	190,631	-0,184	-0,191
272,224	134,486	-0,237	-0,212
273,239	9,733	-0,116	-0,060
274,253	251,729	-0,073	-0,086
275,268	-64,946	-0,187	-0,052
276,282	55,489	-0,221	-0,147
277,297	118,408	-0,157	-0,134
278,312	-66,963	-0,321	-0,087
279,326	30,899	-0,041	-0,024
280,341	165,409	-0,074	-0,072
281,355	-135,333	-0,232	0,019
282,370	424,495	-0,098	-0,146
283,384	61,607	-0,270	-0,185
284,399	-73,655	-0,183	0,046
285,414	268,265	-0,188	-0,228
286,428	531,579	-0,108	-0,176
287,443	-164,594	-0,121	0,004
288,457	-143,143	-0,252	0,016
289,472	97,841	-0,172	-0,136
290,487	67,234	-0,214	-0,150
291,501	202,300	-0,189	-0,200
292,516	-61,498	-0,244	-0,070
293,530	246,243	-0,086	-0,100
294,545	-122,246	-0,156	0,017
295,560	800,000	-0,120	-0,324
296,574	419,847	-0,086	-0,127
297,589	-73,181	-0,144	-0,036
298,603	800,000	-0,099	-0,202
299,618	368,665	-0,109	-0,151
300,633	376,393	-0,165	-0,231
301,647	-22,393	-0,078	-0,032
302,662	-63,442	-0,135	-0,038
303,676	216,735	-0,136	-0,149
304,691	-13,232	-0,226	-0,100
305,706	14,980	-0,118	-0,063
306,720	-114,327	-0,155	-0,020
307,735	800,000	-0,124	-0,253
308,749	-200,000	0,073	-0,243
309,764	2,943	-0,194	-0,096
310,779	-200,000	-0,189	0,000
311,793	800,000	-0,083	-0,179
312,808	238,613	-0,162	-0,184
313,822	139,889	-0,176	-0,159
314,837	318,568	-0,107	-0,139
315,852	320,675	-0,111	-0,145
316,866	150,126	-0,032	-0,030
317,881	19,320	-0,248	-0,136
318,895	-119,043	-0,182	0,022
319,910	-44,313	-0,283	-0,097
320,925	141,798	-0,127	-0,116
321,939	193,477	-0,114	-0,119
322,954	7,472	-0,069	-0,035
323,968	-200,000	-0,028	-0,123
324,983	183,486	-0,094	-0,095
325,997	334,282	-0,097	-0,129
327,012	322,953	-0,146	-0,192
328,027	-68,363	-0,178	-0,047
329,041	8,943	-0,173	-0,089
330,056	-200,000	0,007	-0,125
331,070	489,257	-0,092	-0,145
332,085	96,096	-0,081	-0,064
333,100	325,976	-0,085	-0,112
334,114	89,266	-0,177	-0,135
335,129	114,058	-0,104	-0,086
336,143	-38,136	-0,150	0,054
337,158	-111,121	-0,143	-0,020
338,173	-123,930	-0,091	-0,010
339,187	-92,530	-0,206	0,039
340,202	44,850	-0,140	-0,088
341,216	121,418	-0,148	-0,126
342,231	-200,000	-0,021	-0,184
343,246	102,373	-0,173	-0,139
344,260	-3,552	-0,176	-0,084
345,275	58,082	-0,087	-0,058
346,289	418,944	-0,087	-0,128
347,304	-138,706	-0,212	0,016
348,319	164,559	-0,074	-0,071
349,333	-77,732	-0,122	-0,029
350,348	-26,117	-0,155	-0,062
351,362	-125,435	-0,132	-0,014
352,377	223,413	-0,094	-0,104
353,392	-98,873	-0,181	0,031
354,406	37,974	-0,075	-0,046
355,421	208,901	1306,054	1399,158
356,435	160,764	1465,680	1399,632
