DTS Sentinel unit serial number:	SN410029Multiplexer serial number:	ORYXHardware model number:	OX2-SRSoftware version number:	ORYX F/W v4,00 Oryx Data Collector v3.7.2.0data status	okinstallation	B3 Nyhavnadifferential loss correction	single-endedforward channel	channel 1reverse channel	N/Adate	2023/12/02time	22:12:30forward acquisition time	300,00reverse acquisition time	0,00gamma	499,1914k internal	0,3201k external	0,3201temperature offset calibration	1,0000default loss term (dB/km)	0,3820temperature slope calibration	1,0000multiplexer offset coefficient	1,0000multiplexer slope coefficient	1,0000fibre end	0,00T internal ref (°C)	13,20T ext. ref 1 (°C)	-1,82T ext. ref 2 (°C)	-1,83length (m)	temperature (°C)	Stokes	anti-Stokes-744,400	-16,675	-0,284	-0,130
-743,385	-200,000	-0,080	0,363
-742,371	197,056	-0,171	-0,190
-741,356	800,000	0,116	0,355
-740,342	320,973	-0,119	-0,164
-739,327	-200,000	-0,022	0,259
-738,312	165,395	-0,324	-0,333
-737,298	800,000	-0,061	0,133
-736,283	-53,464	-0,258	-0,085
-735,269	-200,000	-0,069	0,278
-734,254	235,019	-0,101	-0,121
-733,239	56,709	-0,161	0,114
-732,225	283,916	-0,164	-0,215
-731,210	800,000	0,050	0,161
-730,196	-47,639	-0,080	0,028
-729,181	-161,933	-0,088	-0,003
-728,167	-116,904	-0,086	0,011
-727,152	-124,071	-0,040	-0,004
-726,137	800,000	-0,026	0,081
-725,123	-200,000	0,002	-0,010
-724,108	-200,000	0,004	-0,056
-723,094	-200,000	-0,011	0,044
-722,079	267,515	0,058	0,074
-721,064	-200,000	-0,013	0,170
-720,050	279,291	0,107	0,139
-719,035	-6,043	-0,073	0,036
-718,021	4,716	-0,098	0,052
-717,006	357,890	-0,097	-0,141
-715,991	-7,492	-0,080	-0,039
-714,977	-200,000	0,021	-0,130
-713,962	320,769	-0,077	-0,106
-712,948	158,053	0,035	-0,035
-711,933	-147,800	-0,207	-0,012
-710,918	532,950	0,046	-0,080
-709,904	-200,000	-0,010	0,087
-708,889	-57,787	-0,041	0,013
-707,875	-200,000	0,020	-0,066
-706,860	51,119	-0,148	0,101
-705,845	-20,974	0,040	-0,018
-704,831	-31,543	0,059	0,024
-703,816	521,827	-0,098	0,168
-702,802	-74,698	-0,088	-0,023
-701,787	325,149	0,027	0,038
-700,772	-200,000	0,031	-0,176
-699,758	-85,570	0,037	0,008
-698,743	212,627	0,057	-0,065
-697,729	-160,076	0,082	0,003
-696,714	-200,000	0,002	-0,028
-695,699	800,000	-0,053	-0,131
-694,685	-79,116	-0,121	-0,030
-693,670	-200,000	0,002	-0,030
-692,656	-58,936	-0,083	0,026
-691,641	-53,102	0,255	0,085
-690,627	-200,000	-0,005	0,022
-689,612	275,203	0,036	0,046
-688,597	-120,064	-0,044	-0,005
-687,583	-200,000	-0,014	-0,178
-686,568	42,044	0,077	-0,051
-685,554	-200,000	0,022	0,085
-684,539	192,054	0,097	-0,106
-683,524	81,304	-0,129	-0,101
-682,510	104,132	-0,073	-0,063
-681,495	28,484	-0,014	0,009
-680,481	45,725	-0,200	-0,134
-679,466	800,000	-0,007	-0,018
-678,451	800,000	-0,055	-0,132
-677,437	-30,617	-0,108	-0,044
-676,422	-80,486	0,229	-0,055
-675,408	-131,051	-0,238	-0,023
-674,393	-50,913	0,106	-0,036
-673,378	-200,000	0,023	-0,155
-672,364	44,771	-0,098	-0,065
-671,349	-200,000	-0,015	-0,070
-670,335	-29,954	0,035	-0,014
-669,320	-73,647	-0,161	0,042
-668,305	-57,706	-0,051	0,016
-667,291	-133,672	0,121	0,011
-666,276	3,467	-0,096	-0,050
-665,262	79,862	0,031	-0,024
-664,247	779,503	0,040	0,080
-663,232	112,255	-0,066	-0,058
-662,218	-133,368	0,083	-0,007
-661,203	800,000	0,039	-0,099
-660,189	-138,400	-0,057	-0,004
-659,174	580,820	0,025	-0,044
-658,159	497,155	-0,077	-0,129
-657,145	-200,000	0,021	-0,123
-656,130	-55,056	0,019	0,006
-655,116	114,304	0,137	0,121
-654,101	-200,000	0,053	0,186
-653,086	-61,780	-0,090	0,027
-652,072	720,754	-0,032	0,062
-651,057	800,000	-0,052	-0,113
-650,043	8,497	-0,039	-0,021
-649,028	800,000	0,019	-0,051
-648,014	675,908	0,055	0,104
-646,999	111,422	-0,059	-0,052
-645,984	-115,270	0,081	0,011
-644,970	295,278	-0,114	-0,152
-643,955	58,271	0,077	0,055
-642,941	-200,000	-0,026	-0,131
-641,926	767,886	-0,050	-0,098
-640,911	-199,560	0,045	0,000
-639,897	-200,000	0,023	-0,078
-638,882	189,797	-0,033	0,036
-637,868	332,685	0,053	0,074
-636,853	-200,000	-0,007	-0,076
-635,838	567,955	-0,040	0,071
-634,824	-200,000	-0,032	-0,265
-633,809	109,960	-0,067	0,058
-632,795	-200,000	-0,012	-0,041
-631,780	-39,148	0,074	0,028
-630,765	67,823	-0,066	-0,049
-629,751	-107,047	0,043	-0,007
-628,736	228,572	-0,109	-0,129
-627,722	800,000	-0,050	-0,134
-626,707	-200,000	-0,002	0,030
-625,692	-168,850	0,098	-0,003
-624,678	-196,622	0,126	-0,001
-623,663	350,507	0,096	-0,138
-622,649	-200,000	-0,010	-0,109
-621,634	-124,329	-0,122	-0,014
-620,619	-77,232	-0,036	-0,009
-619,605	-200,000	0,006	0,058
-618,590	24,013	0,029	-0,017
-617,576	-143,453	0,050	0,003
-616,561	-77,857	-0,079	-0,020
-615,546	-200,000	0,004	0,026
-614,532	178,004	-0,070	-0,074
-613,517	-36,984	-0,057	-0,022
-612,503	-200,000	0,054	0,173
-611,488	185,835	0,124	0,133
-610,474	-106,456	0,067	0,011
-609,459	747,634	-0,050	-0,098
-608,444	27,334	0,050	0,030
-607,430	-142,960	-0,101	-0,007
-606,415	49,145	-0,116	0,079
-605,401	-32,496	0,134	0,054
-604,386	800,000	0,030	0,062
-603,371	-200,000	-0,016	0,101
-602,357	315,567	0,036	0,049
-601,342	541,756	-0,003	-0,006
-600,328	42,666	-0,105	-0,069
-599,313	-62,136	-0,081	0,024
-598,298	-200,000	-0,028	0,098
-597,284	210,974	0,037	0,043
-596,269	-78,880	0,093	-0,023
-595,255	66,964	-0,105	-0,077
-594,240	22,280	-0,097	-0,057
-593,225	-200,000	-0,019	0,096
-592,211	177,390	-0,073	-0,077
-591,196	-159,870	-0,099	0,004
-590,182	52,455	0,031	0,021
-589,167	-39,964	0,068	0,026
-588,152	800,000	0,014	0,035
-587,138	438,611	0,085	0,134
-586,123	-9,818	0,084	0,040
-585,109	63,220	-0,128	0,093
-584,094	619,138	0,027	0,049
-583,079	800,000	-0,052	0,104
-582,065	666,347	0,028	0,053
-581,050	171,038	-0,041	-0,042
-580,036	77,582	0,060	-0,046
-579,021	25,223	0,016	-0,009
-578,006	-169,273	-0,048	-0,001
-576,992	800,000	-0,036	-0,099
-575,977	-164,485	-0,025	0,001
-574,963	785,728	0,070	0,139
-573,948	800,000	-0,043	0,111
-572,934	-200,000	-0,001	0,052
-571,919	-200,000	-0,018	-0,157
-570,904	234,160	-0,033	-0,040
-569,890	800,000	-0,055	-0,152
-568,875	800,000	-0,036	0,090
-567,861	183,709	0,055	0,059
-566,846	-92,914	-0,148	0,030
-565,831	-105,430	-0,069	0,011
-564,817	-87,938	-0,114	-0,025
-563,802	-49,902	-0,114	0,039
-562,788	-97,550	-0,041	0,008
-561,773	20,277	0,022	-0,013
-560,758	442,014	0,063	-0,100
-559,744	-113,225	-0,043	0,006
-558,729	-200,000	0,003	0,032
-557,715	469,731	-0,054	-0,088
-556,700	800,000	-0,047	-0,147
-555,685	-200,000	-0,019	-0,067
-554,671	324,038	-0,089	0,123
-553,656	-200,000	-0,010	-0,083
-552,642	193,149	0,047	0,051
-551,627	-200,000	-0,015	-0,107
-550,612	203,611	-0,041	-0,046
-549,598	61,622	-0,078	-0,056
-548,583	99,217	0,126	0,105
-547,569	-124,479	-0,037	-0,004
-546,554	-98,629	0,052	0,009
-545,539	-52,370	0,048	0,016
-544,525	419,731	-0,030	-0,047
-543,510	800,000	-0,041	0,105
-542,496	614,306	0,050	-0,091
-541,481	800,000	-0,026	-0,063
-540,466	636,843	0,024	0,043
-539,452	-1,143	0,090	-0,046
-538,437	-200,000	0,047	0,197
-537,423	-52,460	-0,167	0,055
-536,408	542,715	-0,028	0,049
-535,393	-159,840	0,187	0,007
-534,379	742,471	-0,055	-0,106
-533,364	800,000	-0,005	-0,012
-532,350	-200,000	-0,013	0,068
-531,335	46,830	0,148	-0,099
-530,321	170,150	0,051	-0,053
-529,306	800,000	0,009	0,026
-528,291	-200,000	-0,014	-0,084
-527,277	-108,213	0,007	0,001
-526,262	-118,857	-0,104	-0,013
-525,248	101,288	-0,082	-0,069
-524,233	-35,342	-0,095	-0,037
-523,218	343,449	0,051	-0,072
-522,204	-37,912	-0,033	-0,013
-521,189	131,917	0,067	-0,062
-520,175	346,502	0,046	-0,066
-519,160	800,000	-0,042	-0,095
-518,145	-54,164	0,108	-0,035
-517,131	130,465	0,056	0,052
-516,116	33,286	0,105	0,066
-515,102	-82,050	0,052	0,012
-514,087	-200,000	0,008	0,063
-513,072	39,555	-0,085	-0,055
-512,058	800,000	-0,054	-0,118
-511,043	-103,839	-0,138	0,023
-510,029	154,239	-0,026	0,026
-509,014	-169,137	0,167	0,004
-507,999	800,000	-0,027	0,061
-506,985	350,387	0,026	-0,037
-505,970	800,000	-0,109	-0,237
-504,956	-35,928	0,091	-0,035
-503,941	-200,000	0,018	-0,060
-502,926	-200,000	-0,038	0,184
-501,912	174,987	-0,049	-0,051
-500,897	-200,000	0,015	0,059
-499,883	800,000	-0,030	0,072
-498,868	130,083	0,048	0,044
-497,853	22,201	-0,100	0,058
-496,839	14,778	-0,019	-0,011
-495,824	-200,000	0,014	-0,072
-494,810	461,995	-0,043	-0,070
-493,795	74,006	0,059	-0,044
-492,781	-63,371	-0,061	-0,018
-491,766	-131,525	-0,011	-0,001
-490,751	181,146	0,053	0,056
-489,737	800,000	0,021	0,045
-488,722	-34,902	0,224	0,088
-487,708	-200,000	0,006	0,085
-486,693	13,946	-0,053	-0,030
-485,678	-24,942	-0,111	-0,047
-484,664	32,015	-0,081	-0,050
-483,649	87,635	0,058	0,046
-482,635	800,000	-0,012	-0,032
-481,620	207,979	0,037	-0,042
-480,605	800,000	-0,061	-0,191
-479,591	-200,000	0,023	-0,095
-478,576	313,515	-0,053	-0,072
-477,562	-200,000	0,014	-0,092
-476,547	-51,786	-0,138	0,046
-475,532	5,842	-0,130	-0,069
-474,518	-200,000	0,007	-0,035
-473,503	-60,947	0,145	0,044
-472,489	800,000	0,024	0,060
-471,474	212,030	0,102	0,116
-470,459	499,865	-0,033	-0,055
-469,445	800,000	0,044	-0,134
-468,430	-200,000	-0,009	-0,094
-467,416	482,108	0,067	0,109
-466,401	72,431	0,014	-0,010
-465,386	13,195	0,043	0,024
-464,372	368,017	-0,078	0,114
-463,357	62,955	0,031	0,022
-462,343	-148,306	-0,164	-0,010
-461,328	800,000	0,026	-0,062
-460,313	-200,000	-0,014	-0,123
-459,299	67,739	0,052	-0,038
-458,284	-200,000	-0,030	0,140
-457,270	223,558	-0,047	0,055
-456,255	135,238	-0,012	0,012
-455,241	-30,475	0,172	0,070
-454,226	-200,000	0,010	0,114
-453,211	-200,000	-0,003	-0,079
-452,197	112,715	0,065	0,056
-451,182	235,242	0,080	0,096
-450,168	596,470	-0,030	0,053
-449,153	-17,223	-0,127	-0,057
-448,138	-200,000	0,016	-0,055
-447,124	602,532	-0,015	0,026
-446,109	86,835	-0,120	0,095
-445,095	800,000	0,055	0,114
-444,080	-8,377	0,101	0,048
-443,065	800,000	-0,083	0,238
-442,051	-81,794	0,116	0,027
-441,036	-200,000	-0,077	0,000
-440,022	-81,653	0,083	0,019
-439,007	-37,184	-0,152	-0,058
-437,992	20,802	0,138	0,080
-436,978	190,001	-0,034	0,037
-435,963	-200,000	0,005	0,046
-434,949	-59,696	0,032	-0,010
-433,934	800,000	-0,032	-0,095
-432,919	19,922	-0,038	-0,022
-431,905	-13,909	0,094	-0,043
-430,890	-93,951	0,036	0,007
-429,876	800,000	-0,013	-0,035
-428,861	-200,000	-0,006	-0,044
-427,846	800,000	0,040	-0,091
-426,832	-9,797	-0,050	-0,024
-425,817	493,803	-0,069	0,114
-424,803	800,000	0,025	-0,069
-423,788	-41,895	0,121	-0,044
-422,773	-19,402	0,117	0,052
-421,759	476,502	-0,074	0,121
-420,744	800,000	-0,018	-0,041
-419,730	793,762	0,028	0,056
-418,715	95,978	0,065	-0,053
-417,701	800,000	-0,023	-0,058
-416,686	800,000	-0,014	0,039
-415,671	-200,000	-0,000	0,108
-414,657	-58,377	-0,066	-0,020
-413,642	-200,000	0,004	0,096
-412,628	-64,729	0,059	-0,017
-411,613	385,539	0,054	-0,080
-410,598	352,198	0,032	0,045
-409,584	-200,000	-0,035	-0,181
-408,569	-10,174	0,108	-0,051
-407,555	800,000	0,007	0,014
-406,540	272,554	0,078	0,100
-405,525	377,081	-0,069	0,102
-404,511	-45,921	-0,135	0,048
-403,496	-8,613	0,098	-0,047
-402,482	-200,000	0,003	0,057
-401,467	65,593	-0,072	0,052
-400,452	129,330	0,014	-0,012
-399,438	178,683	0,119	0,124
-398,423	-200,000	-0,002	-0,080
-397,409	-12,397	-0,047	0,022
-396,394	107,102	-0,062	-0,053
-395,379	430,189	0,074	-0,116
-394,365	-200,000	0,016	-0,056
-393,350	123,955	0,071	0,064
-392,336	13,213	0,190	-0,105
-391,321	800,000	-0,022	0,061
-390,306	-200,000	0,022	-0,106
-389,292	-132,404	-0,095	-0,009
-388,277	-200,000	-0,013	0,081
-387,263	800,000	-0,013	-0,032
-386,248	-156,114	0,198	0,009
-385,233	-29,998	0,065	-0,026
-384,219	16,525	-0,029	0,016
-383,204	-60,522	-0,135	-0,041
-382,190	-200,000	0,001	-0,016
-381,175	-98,937	0,063	0,011
-380,160	496,180	-0,024	-0,040
-379,146	369,592	0,032	0,047
-378,131	-34,025	-0,080	0,032
-377,117	800,000	-0,005	-0,016
-376,102	-108,741	-0,096	-0,015
-375,088	-200,000	-0,005	-0,033
-374,073	115,639	-0,043	-0,038
-373,058	800,000	0,040	0,110
-372,044	-53,524	0,103	-0,034
-371,029	10,344	0,029	-0,016
-370,015	-200,000	-0,008	-0,037
-369,000	-200,000	-0,006	-0,062
-367,985	800,000	-0,015	-0,034
-366,971	24,177	-0,043	-0,025
-365,956	108,808	0,054	0,046
-364,942	-164,996	0,126	0,004
-363,927	153,046	-0,078	-0,076
-362,912	110,551	0,051	0,044
-361,898	10,196	0,114	0,062
-360,883	-69,268	-0,043	0,012
-359,869	449,847	0,075	-0,119
-358,854	-200,000	0,018	0,068
-357,839	9,164	0,122	0,066
-356,825	129,828	0,164	0,150
-355,810	21,785	0,133	-0,077
-354,796	784,478	-0,013	-0,026
-353,781	-200,000	-0,050	-0,163
-352,766	310,709	0,019	0,025
-351,752	158,151	-0,098	0,097
-350,737	253,248	0,066	0,081
-349,723	-156,067	0,124	-0,006
-348,708	-32,770	0,064	-0,025
-347,693	-152,656	-0,105	0,005
-346,679	81,836	0,102	0,079
-345,664	72,541	-0,078	-0,058
-344,650	-200,000	-0,018	0,092
-343,635	-200,000	0,000	0,011
-342,620	51,400	0,080	-0,054
-341,606	-200,000	0,011	-0,039
-340,591	210,202	-0,081	0,091
-339,577	-200,000	-0,014	0,083
-338,562	-130,625	-0,099	-0,009
-337,548	-90,492	-0,040	0,008
-336,533	424,249	-0,012	-0,019
-335,518	-182,649	-0,014	0,000
-334,504	-70,254	-0,071	-0,019
-333,489	-102,541	-0,049	-0,008
-332,475	-20,658	-0,049	-0,022
-331,460	-52,491	-0,108	0,036
-330,445	93,863	0,062	0,050
-329,431	-98,370	0,019	-0,003
-328,416	-45,855	-0,091	-0,032
-327,402	-200,000	-0,023	0,204
-326,387	139,972	0,034	0,032
-325,372	-200,000	0,006	-0,094
-324,358	-200,000	0,013	-0,092
-323,343	94,444	-0,076	0,062
-322,329	141,045	-0,029	-0,027
-321,314	48,329	-0,048	-0,032
-320,299	-200,000	-0,002	0,012
-319,285	96,023	0,055	-0,045
-318,270	-200,000	0,007	0,072
-317,256	-200,000	0,018	0,069
-316,241	173,474	0,011	-0,011
-315,226	582,313	0,043	-0,075
-314,212	-200,000	0,000	-0,096
-313,197	-200,000	-0,019	0,087
-312,183	-200,000	-0,053	0,236
-311,168	429,640	-0,040	-0,061
-310,153	-103,054	-0,181	0,030
-309,139	-200,000	0,003	-0,038
-308,124	297,077	0,080	0,106
-307,110	469,276	-0,080	0,129
-306,095	522,714	0,049	0,082
-305,080	-200,000	-0,004	0,072
-304,066	-200,000	0,007	0,027
-303,051	800,000	-0,079	-0,161
-302,037	242,478	0,053	-0,064
-301,022	-137,266	-0,035	-0,003
-300,008	-200,000	0,030	-0,125
-298,993	137,003	0,131	-0,122
-297,978	392,224	0,041	-0,061
-296,964	-57,179	-0,168	0,053
-295,949	-157,388	-0,142	-0,006
-294,935	-115,807	-0,057	-0,007
-293,920	-158,976	-0,102	0,004
-292,905	465,432	-0,025	0,040
-291,891	-83,563	0,089	0,020
-290,876	-200,000	-0,008	0,116
-289,862	-199,463	0,045	0,000
-288,847	343,800	-0,076	-0,107
-287,832	286,530	0,055	0,071
-286,818	717,238	-0,045	0,086
-285,803	117,649	0,044	-0,039
-284,789	-114,128	0,094	0,013
-283,774	38,120	0,032	-0,020
-282,759	84,980	0,013	-0,010
-281,745	10,457	-0,083	-0,045
-280,730	-183,561	-0,066	-0,001
-279,716	-131,302	-0,183	0,017
-278,701	-72,130	0,093	-0,024
-277,686	800,000	-0,010	0,031
-276,672	39,434	-0,052	0,033
-275,657	-67,702	0,034	-0,009
-274,643	-41,085	-0,126	-0,046
-273,628	112,512	0,087	0,075
-272,613	-57,005	0,063	0,020
-271,599	800,000	0,077	-0,172
-270,584	476,330	-0,020	0,032
-269,570	191,965	0,088	0,095
-268,555	800,000	-0,039	-0,102
-267,540	690,937	-0,060	-0,114
-266,526	-200,000	0,016	-0,118
-265,511	-200,000	-0,042	0,235
-264,497	8,055	-0,151	-0,081
-263,482	-1,280	0,220	0,111
-262,467	216,731	-0,045	0,051
-261,453	48,023	0,035	0,023
-260,438	-19,407	-0,098	-0,043
-259,424	73,309	-0,077	0,057
-258,409	-200,000	-0,012	-0,068
-257,395	113,773	0,103	-0,089
-256,380	7,406	0,137	0,073
-255,365	221,981	-0,078	0,089
-254,351	-1,695	0,051	-0,026
-253,336	-41,977	-0,100	-0,036
-252,322	107,554	-0,066	0,056
-251,307	-25,922	-0,102	-0,042
-250,292	-200,000	0,013	-0,088
-249,278	77,021	-0,123	0,093
-248,263	-200,000	0,016	0,056
-247,249	315,485	0,035	-0,047
-246,234	800,000	0,053	0,117
-245,219	227,179	0,117	-0,136
-244,205	244,910	-0,033	-0,039
-243,190	356,048	-0,073	0,104
-242,176	-200,000	0,002	0,035
-241,161	800,000	0,046	-0,092
-240,146	12,677	0,108	-0,059
-239,132	90,238	0,065	0,052
-238,117	-173,549	-0,029	0,001
-237,103	-162,898	-0,056	0,002
-236,088	-200,000	-0,014	-0,153
-235,073	800,000	0,063	0,187
-234,059	-68,792	0,120	-0,033
-233,044	-88,727	0,050	0,011
-232,030	291,550	-0,133	-0,173
-231,015	-121,732	0,128	-0,015
-230,000	105,699	-0,027	0,023
-228,986	-48,656	0,022	0,008
-227,971	72,678	-0,019	0,014
-226,957	-70,004	0,081	-0,022
-225,942	-52,591	0,111	0,036
-224,927	424,742	0,062	-0,095
-223,913	-3,679	0,053	0,026
-222,898	-200,000	-0,026	-0,179
-221,884	132,168	0,059	0,055
-220,869	-132,202	0,069	0,006
-219,855	-200,000	0,038	0,156
-218,840	-200,000	-0,001	0,049
-217,825	-200,000	0,014	-0,130
-216,811	-200,000	0,005	-0,093
-215,796	-200,000	0,022	0,114
-214,782	57,792	0,096	-0,067
-213,767	-1,549	0,079	-0,040
-212,752	800,000	0,031	0,067
-211,738	-200,000	0,001	-0,034
-210,723	-200,000	-0,026	-0,102
-209,709	-200,000	-0,004	0,056
-208,694	-30,506	-0,055	0,022
-207,679	-147,536	0,116	-0,007
-206,665	83,481	-0,108	0,084
-205,650	91,479	-0,029	0,023
-204,636	27,744	0,051	0,031
-203,621	377,974	0,077	0,112
-202,606	178,427	0,062	0,064
-201,592	-129,458	0,024	0,002
-200,577	-200,000	-0,004	0,052
-199,563	-200,000	0,019	-0,131
-198,548	-200,000	0,003	0,113
-197,533	-84,153	0,067	-0,015
-196,519	213,952	-0,023	0,026
-195,504	-78,159	-0,031	-0,007
-194,490	-38,606	-0,084	0,032
-193,475	782,350	-0,029	-0,057
-192,460	-51,237	-0,100	0,033
-191,446	29,290	0,069	0,042
-190,431	800,000	-0,031	0,073
-189,417	17,352	-0,120	0,068
-188,402	-124,461	0,163	-0,018
-187,387	-128,035	-0,170	0,017
-186,373	-112,921	-0,151	0,021
-185,358	411,244	-0,046	0,070
-184,344	-107,296	0,025	-0,004
-183,329	105,607	0,024	0,021
-182,315	-200,000	-0,017	0,064
-181,300	169,617	-0,059	0,060
-180,285	-200,000	-0,007	-0,060
-179,271	322,791	0,023	-0,032
-178,256	-200,000	0,008	-0,031
-177,242	325,852	-0,046	-0,062
-176,227	-53,761	0,043	0,014
-175,212	800,000	-0,046	0,099
-174,198	12,141	-0,099	-0,054
-173,183	-200,000	-0,010	-0,034
-172,169	100,838	-0,041	0,034
-171,154	222,571	-0,049	-0,056
-170,139	-108,589	0,025	-0,004
-169,125	-200,000	-0,017	-0,070
-168,110	-64,850	-0,118	0,034
-167,096	348,783	0,068	0,096
-166,081	31,554	0,069	-0,042
-165,066	97,403	0,086	-0,070
-164,052	800,000	-0,029	-0,073
-163,037	-1,106	0,144	-0,072
-162,023	634,087	0,029	-0,053
-161,008	-31,370	0,012	0,005
-159,993	-146,926	0,044	-0,003
-158,979	-200,000	-0,007	0,061
-157,964	-70,175	-0,133	0,036
-156,950	-11,922	-0,030	0,014
-155,935	-200,000	-0,011	-0,143
-154,920	-71,015	0,061	0,016
-153,906	-200,000	0,021	0,142
-152,891	91,294	0,015	-0,012
-151,877	195,834	0,082	-0,089
-150,862	-6,400	0,067	-0,032
-149,847	-139,538	0,043	-0,003
-148,833	125,269	-0,057	-0,051
-147,818	-31,186	-0,050	0,020
-146,804	-200,000	-0,005	0,088
-145,789	-200,000	0,137	0,000
-144,775	443,088	-0,062	-0,097
-143,760	99,474	0,065	0,054
-142,745	-34,320	0,077	0,030
-141,731	153,125	0,041	0,040
-140,716	800,000	0,033	-0,067
-139,702	198,136	0,075	0,081
-138,687	-200,000	-0,009	0,048
-137,672	-119,707	0,089	0,011
-136,658	173,958	-0,042	0,043
-135,643	-159,889	-0,092	0,004
-134,629	-91,783	0,229	-0,046
-133,614	-143,465	-0,096	-0,006
-132,599	-28,115	-0,061	-0,025
-131,585	348,189	0,059	-0,082
-130,570	800,000	-0,017	-0,048
-129,556	-37,203	-0,154	-0,058
-128,541	-200,000	-0,017	-0,106
-127,526	-200,000	0,016	-0,078
-126,512	100,218	-0,109	-0,090
-125,497	64,383	-0,046	-0,033
-124,483	-77,495	0,066	-0,016
-123,468	800,000	0,063	-0,159
-122,453	285,878	0,068	-0,087
-121,439	270,370	-0,107	-0,134
-120,424	71,829	0,082	0,060
-119,410	-200,000	0,009	-0,049
-118,395	-200,000	0,032	0,108
-117,380	77,683	0,014	-0,010
-116,366	288,331	-0,043	-0,055
-115,351	-68,713	0,079	-0,021
-114,337	480,864	-0,056	-0,091
-113,322	-148,730	0,130	-0,007
-112,307	71,981	-0,088	-0,065
-111,293	800,000	-0,032	0,085
-110,278	26,147	0,047	0,028
-109,264	52,251	0,090	-0,061
-108,249	-8,590	-0,128	0,061
-107,234	170,872	-0,083	-0,085
-106,220	248,289	0,051	-0,061
-105,205	344,684	0,102	-0,142
-104,191	247,945	-0,070	-0,084
-103,176	246,057	-0,024	-0,029
-102,162	124,654	-0,106	-0,094
-101,147	166,450	-0,066	0,066
-100,132	800,000	0,053	-0,152
-99,118	-200,000	-0,003	0,056
-98,103	-106,004	0,125	-0,020
-97,089	241,767	-0,079	0,094
-96,074	128,092	0,051	-0,046
-95,059	-14,688	-0,100	0,046
-94,045	59,588	0,154	-0,107
-93,030	-200,000	-0,011	-0,050
-92,016	-68,404	-0,079	0,022
-91,001	-48,858	-0,058	-0,019
-89,986	229,102	0,057	-0,066
-88,972	268,066	0,080	0,099
-87,957	-106,225	-0,138	0,022
-86,943	254,279	-0,013	-0,016
-85,928	-160,283	-0,068	0,003
-84,913	-200,000	0,016	-0,059
-83,899	391,925	0,040	-0,059
-82,884	-200,000	-0,005	0,150
-81,870	429,349	-0,072	-0,111
-80,855	521,470	0,038	-0,063
-79,840	800,000	-0,030	-0,075
-78,826	273,740	-0,040	0,050
-77,811	-73,319	0,042	-0,011
-76,797	-20,529	0,058	-0,025
-75,782	-200,000	-0,078	0,000
-74,767	247,566	-0,031	-0,037
-73,753	800,000	-0,023	-0,066
-72,738	204,427	0,056	0,061
-71,724	800,000	0,014	-0,039
-70,709	235,646	-0,079	-0,092
-69,694	800,000	-0,023	-0,066
-68,680	394,713	0,064	-0,095
-67,665	800,000	0,054	0,143
-66,651	-70,531	0,147	0,039
-65,636	-200,000	0,017	-0,090
-64,622	-99,683	-0,199	0,035
-63,607	510,630	-0,008	0,014
-62,592	-200,000	0,027	0,092
-61,578	-54,771	-0,075	0,024
-60,563	-55,519	0,037	-0,012
-59,549	-103,538	0,099	0,016
-58,534	-31,044	-1,565	-0,623
-57,519	395,986	-1,436	-2,128
-56,505	-200,000	-0,395	-4,617
-55,490	242,001	0,844	1,001
-54,476	800,000	4,936	11,390
-53,461	-200,000	19,330	321,377
-52,446	-200,000	742,077	2335,172
-51,432	571,941	1656,130	2867,198
-50,417	78,007	1671,277	1260,532
-49,403	21,172	1544,185	885,054
-48,388	15,054	1466,472	810,757
-47,373	18,014	1456,726	819,641
-46,359	16,646	1446,678	807,395
-45,344	13,337	1441,961	788,875
-44,330	13,220	1440,143	787,290
-43,315	13,255	1438,267	786,403
-42,300	13,257	1436,660	785,501
-41,286	13,274	1435,334	784,825
-40,271	13,203	1434,016	783,737
-39,257	13,234	1432,831	783,204
-38,242	13,241	1431,458	782,456
-37,227	13,279	1430,352	782,000
-36,213	13,291	1428,974	781,276
-35,198	13,340	1427,574	780,708
-34,184	13,339	1426,973	780,347
-33,169	13,262	1425,539	779,165
-32,154	13,360	1424,257	778,900
-31,140	13,344	1422,927	778,065
-30,125	13,322	1422,101	777,478
-29,111	13,316	1420,990	776,811
-28,096	13,287	1419,848	776,020
-27,082	13,262	1418,602	775,189
-26,067	13,226	1417,758	774,528
-25,052	13,240	1416,504	773,880
-24,038	13,219	1415,446	773,172
-23,023	13,186	1414,511	772,472
-22,009	13,178	1413,651	771,935
-20,994	13,175	1412,597	771,316
-19,979	13,196	1411,572	770,824
-18,965	13,164	1410,735	770,186
-17,950	13,157	1410,024	769,732
-16,936	13,186	1408,888	769,218
-15,921	13,153	1407,879	768,483
-14,906	13,152	1406,889	767,908
-13,892	13,119	1405,969	767,223
-12,877	13,155	1405,163	766,919
-11,863	13,121	1404,223	766,215
-10,848	13,165	1403,254	765,865
-9,833	13,135	1402,428	765,241
-8,819	13,062	1401,808	764,535
-7,804	13,066	1400,760	763,950
-6,790	13,045	1399,645	763,215
-5,775	13,066	1398,737	762,787
-4,760	13,059	1397,725	762,171
-3,746	13,038	1396,817	761,547
-2,731	12,959	1396,004	760,711
-1,717	13,044	1394,891	760,465
-0,702	13,003	1393,300	759,377
0,313	16,963	1309,935	732,251
1,327	33,551	703,197	431,386
2,342	52,218	123,107	82,906
3,356	1,206	16,732	8,471
4,371	2,839	3,222	1,649
5,386	-33,971	0,719	0,279
6,400	-200,000	0,039	0,293
7,415	-57,148	-0,297	-0,092
8,429	181,237	-0,199	-0,207
9,444	87,052	-0,368	-0,287
10,459	-87,145	-0,194	-0,041
11,473	39,482	-0,409	-0,259
12,488	49,119	-0,329	-0,218
13,502	800,000	-0,081	-0,252
14,517	34,979	-0,256	-0,158
15,531	47,958	-0,374	-0,246
16,546	62,014	-0,396	-0,278
17,561	124,456	-0,335	-0,297
18,575	131,702	-0,137	-0,124
19,590	83,422	-0,248	-0,191
20,604	26,190	-0,306	-0,180
21,619	89,857	-0,449	-0,354
22,634	85,069	-0,422	-0,327
23,648	236,708	-0,310	-0,363
24,663	-24,783	-0,443	-0,185
25,677	-38,659	-0,472	-0,175
26,692	38,960	-0,226	-0,142
27,707	-1,421	-0,279	-0,139
28,721	65,449	-0,356	-0,254
29,736	182,628	-0,300	-0,313
30,750	27,992	-0,406	-0,241
31,765	394,634	-0,244	-0,359
32,780	19,193	-0,376	-0,213
33,794	-19,795	-0,434	-0,188
34,809	65,041	-0,258	-0,184
35,823	-32,409	-0,356	-0,140
36,838	5,559	-0,402	-0,209
37,853	198,257	-0,386	-0,416
38,867	206,313	-0,306	-0,337
39,882	210,153	-0,358	-0,397
40,896	50,542	-0,309	-0,206
41,911	249,515	-0,300	-0,359
42,926	75,638	-0,311	-0,231
43,940	6,404	-0,371	-0,194
44,955	56,390	-0,453	-0,310
45,969	-33,088	-0,276	-0,107
46,984	531,321	-0,273	-0,457
47,999	11,805	-0,323	-0,175
49,013	135,003	-0,269	-0,247
50,028	76,060	-0,267	-0,199
51,042	175,931	-0,286	-0,292
52,057	18,186	-0,438	-0,245
53,071	-11,927	-0,346	-0,159
54,086	40,670	-0,301	-0,191
55,101	28,989	-0,499	-0,298
56,115	38,895	-0,313	-0,196
57,130	78,422	-0,300	-0,226
58,144	53,950	-0,383	-0,259
59,159	91,627	-0,446	-0,353
60,174	38,687	-0,442	-0,277
61,188	-62,256	-0,372	-0,108
62,203	68,019	-0,312	-0,225
63,217	254,205	-0,238	-0,286
64,232	34,987	-0,432	-0,266
65,247	104,195	-0,378	-0,312
66,261	83,780	-0,364	-0,279
67,276	42,601	-0,430	-0,275
68,290	4,792	-0,362	-0,186
69,305	92,467	-0,312	-0,247
70,320	69,680	-0,302	-0,219
71,334	9,453	-0,264	-0,140
72,349	-16,840	-0,310	-0,137
73,363	-7,854	-0,397	-0,188
74,378	409,231	-0,239	-0,357
75,393	800,000	-0,176	-0,371
76,407	15,888	-0,269	-0,148
77,422	-6,013	-0,280	-0,134
78,436	-108,567	-0,307	-0,046
79,451	105,852	-0,319	-0,265
80,466	109,629	-0,229	-0,193
81,480	269,515	-0,225	-0,278
82,495	24,892	-0,314	-0,183
83,509	-32,245	-0,228	-0,089
84,524	55,729	-0,297	-0,202
85,539	144,274	-0,279	-0,261
86,553	28,279	-0,351	-0,208
87,568	105,166	-0,311	-0,258
88,582	-31,046	-0,328	-0,129
89,597	-21,597	-0,275	-0,117
90,611	-63,613	-0,397	-0,114
91,626	319,830	-0,148	-0,198
92,641	-81,099	-0,344	-0,079
93,655	-89,369	-0,386	-0,079
94,670	-46,390	-0,276	-0,095
95,684	347,060	-0,188	-0,261
96,699	-27,807	-0,359	-0,145
97,714	205,052	-0,162	-0,177
98,728	-132,125	-0,250	-0,022
99,743	517,543	-0,080	-0,131
100,757	-101,919	-0,316	-0,053
101,772	57,782	-0,103	-0,071
102,787	-50,068	-0,275	-0,091
103,801	297,939	-0,218	-0,282
104,816	25,275	-0,134	-0,078
105,830	72,505	-0,174	-0,127
106,845	283,969	-0,191	-0,242
107,860	800,000	-0,131	-0,279
108,874	211,845	-0,212	-0,235
109,889	335,718	-0,266	-0,363
110,903	135,407	-0,274	-0,250
111,918	45,475	-0,225	-0,145
112,933	55,129	-0,245	-0,166
113,947	404,721	-0,124	-0,183
114,962	-3,415	-0,298	-0,145
115,976	102,871	-0,291	-0,239
116,991	95,751	-0,225	-0,179
118,006	239,792	-0,229	-0,268
119,020	224,860	-0,176	-0,200
120,035	656,264	-0,136	-0,246
121,049	126,133	-0,148	-0,131
122,064	119,047	-0,277	-0,240
123,079	55,641	-0,316	-0,214
124,093	281,278	-0,238	-0,298
125,108	558,247	-0,152	-0,257
126,122	179,518	-0,224	-0,230
127,137	9,047	-0,277	-0,146
128,151	220,314	-0,222	-0,250
129,166	-62,936	-0,230	-0,066
130,181	48,147	-0,270	-0,177
131,195	35,615	-0,207	-0,127
132,210	150,290	-0,330	-0,314
133,224	-14,511	-0,308	-0,138
134,239	130,336	-0,163	-0,146
135,254	-5,817	-0,178	-0,085
136,268	-70,946	-0,234	-0,061
137,283	-42,981	-0,224	-0,079
138,297	116,359	-0,168	-0,144
139,312	33,242	-0,354	-0,214
140,327	157,901	-0,173	-0,168
141,341	21,500	-0,247	-0,140
142,356	99,683	-0,271	-0,219
143,370	-135,963	-0,244	-0,020
144,385	112,868	-0,199	-0,169
145,400	123,800	-0,340	-0,298
146,414	134,354	-0,201	-0,182
147,429	146,511	-0,232	-0,218
148,443	353,929	-0,249	-0,346
149,458	100,604	-0,171	-0,139
150,473	126,372	-0,213	-0,189
151,487	87,700	-0,245	-0,189
152,502	18,573	-0,290	-0,161
153,516	11,756	-0,371	-0,198
154,531	-19,346	-0,213	-0,092
155,546	-9,756	-0,322	-0,149
156,560	7,044	-0,125	0,065
157,575	99,166	-0,225	-0,181
158,589	15,860	-0,254	-0,139
159,604	187,000	-0,228	-0,237
160,619	251,799	-0,226	-0,269
161,633	-88,466	-0,283	-0,058
162,648	-75,572	-0,202	-0,050
163,662	-30,839	-0,251	-0,099
164,677	45,772	-0,163	-0,105
165,692	94,373	-0,141	-0,112
166,706	-37,188	-0,157	-0,058
167,721	176,820	-0,158	-0,161
168,735	82,012	-0,249	-0,188
169,750	37,877	-0,194	-0,120
170,764	195,307	-0,134	-0,142
171,779	349,700	-0,145	-0,200
172,794	29,371	-0,224	-0,133
173,808	-28,020	-0,195	-0,078
174,823	292,782	-0,162	-0,206
175,837	411,163	-0,173	-0,257
176,852	95,862	-0,239	-0,190
177,867	-22,230	-0,184	-0,077
178,881	35,298	-0,221	-0,134
179,896	-49,776	-0,211	-0,069
180,910	-1,478	-0,250	-0,122
181,925	4,493	-0,306	-0,156
182,940	189,450	-0,182	-0,190
183,954	95,841	-0,177	-0,141
184,969	316,904	-0,138	-0,182
185,983	241,176	-0,156	-0,181
186,998	303,713	-0,112	-0,145
188,013	-103,796	-0,186	-0,030
189,027	87,683	-0,225	-0,173
190,042	115,145	-0,267	-0,227
191,056	573,983	-0,173	-0,295
192,071	29,748	-0,178	-0,105
193,086	98,114	-0,229	-0,183
194,100	484,859	-0,100	-0,159
195,115	126,448	-0,221	-0,194
196,129	0,467	-0,358	-0,177
197,144	428,901	-0,138	-0,208
198,159	116,288	-0,079	-0,068
199,173	228,103	-0,169	-0,191
200,188	760,199	-0,124	-0,235
201,202	719,459	-0,125	-0,232
202,217	-58,695	-0,233	-0,070
203,232	-50,270	-0,272	-0,089
204,246	276,560	-0,228	-0,282
205,261	-137,542	-0,168	0,013
206,275	800,000	-0,043	-0,085
207,290	42,943	-0,147	-0,093
208,304	-84,049	-0,287	-0,063
209,319	47,689	-0,282	-0,182
210,334	-200,000	-0,072	-0,252
211,348	134,880	-0,255	-0,230
212,363	66,798	-0,252	-0,178
213,377	-200,000	-0,012	-0,285
214,392	646,491	-0,115	-0,205
215,407	6,928	-0,080	-0,041
216,421	-9,147	-0,159	-0,073
217,436	34,607	-0,173	-0,105
218,450	76,428	-0,278	-0,204
219,465	158,680	-0,129	-0,124
220,480	-73,095	-0,299	-0,076
221,494	-13,479	-0,139	0,062
222,509	-39,409	-0,155	0,056
223,523	-145,989	-0,192	0,012
224,538	-9,438	-0,127	-0,059
225,553	192,811	-0,242	-0,254
226,567	800,000	-0,113	-0,245
227,582	334,725	-0,183	-0,246
228,596	-18,604	-0,150	-0,065
229,611	278,840	-0,211	-0,261
230,626	109,873	-0,121	-0,101
231,640	-66,841	-0,106	-0,029
232,655	19,105	-0,232	-0,129
233,669	227,461	-0,174	-0,197
234,684	800,000	-0,103	-0,311
235,699	212,191	-0,053	-0,058
236,713	-109,758	-0,173	-0,025
237,728	800,000	-0,044	-0,124
238,742	-135,652	-0,215	-0,017
239,757	64,783	-0,173	-0,121
240,772	108,104	-0,271	-0,224
241,786	-30,085	-0,168	-0,066
242,801	56,970	-0,234	-0,158
243,815	800,000	-0,080	-0,175
244,830	59,613	-0,138	-0,094
245,844	800,000	-0,046	-0,123
246,859	661,945	-0,114	-0,205
247,874	81,087	-0,190	-0,142
248,888	292,899	-0,177	-0,224
249,903	-200,000	0,029	-0,125
250,917	83,227	-0,079	-0,060
251,932	84,613	-0,099	-0,075
252,947	58,979	-0,186	-0,126
253,961	269,122	-0,192	-0,234
254,976	18,821	-0,269	-0,149
255,990	0,542	-0,222	-0,109
257,005	-88,226	-0,212	-0,043
258,020	-105,862	-0,109	-0,017
259,034	-62,271	-0,144	0,041
260,049	-45,290	-0,149	0,051
261,063	124,670	-0,291	-0,253
262,078	-11,263	-0,298	-0,135
263,093	52,908	-0,163	-0,108
264,107	206,796	-0,131	-0,142
265,122	447,262	-0,061	-0,093
266,136	420,375	-0,122	-0,182
267,151	59,089	-0,150	-0,102
268,166	714,345	-0,114	-0,210
269,180	327,709	-0,165	-0,220
270,195	224,494	-0,167	-0,187
271,209	-37,265	-0,176	-0,064
272,224	64,214	-0,140	-0,097
273,239	-61,340	-0,091	-0,026
274,253	74,845	-0,220	-0,160
275,268	800,000	-0,074	-0,148
276,282	228,990	-0,143	-0,161
277,297	81,793	-0,198	-0,148
278,312	100,927	-0,120	0,096
279,326	458,759	-0,144	-0,221
280,341	420,509	-0,140	-0,208
281,355	-85,655	-0,176	-0,037
282,370	178,410	-0,179	-0,181
283,384	355,706	-0,131	-0,180
284,399	92,445	-0,102	-0,080
285,414	-93,623	-0,201	-0,038
286,428	-175,098	-0,170	-0,003
287,443	64,825	-0,095	-0,066
288,457	99,761	-0,120	-0,096
289,472	-200,000	-0,061	-0,194
290,487	376,594	-0,178	-0,252
291,501	-102,615	-0,310	-0,051
292,516	69,479	-0,225	-0,160
293,530	-4,824	-0,144	-0,068
294,545	276,213	-0,140	-0,172
295,560	508,009	-0,071	-0,114
296,574	800,000	-0,085	-0,221
297,589	314,592	-0,112	-0,146
298,603	139,895	-0,163	-0,148
299,618	249,781	-0,148	-0,173
300,633	-200,000	-0,023	-0,124
301,647	64,467	-0,110	-0,076
302,662	-75,521	-0,091	-0,022
303,676	165,410	-0,180	-0,175
304,691	-32,071	-0,076	-0,029
305,706	139,054	-0,127	-0,115
306,720	-15,512	-0,221	-0,097
307,735	6,302	-0,096	-0,049
308,749	-155,281	-0,139	0,006
309,764	800,000	0,018	0,042
310,779	516,851	-0,076	-0,124
311,793	140,806	-0,231	-0,210
312,808	-7,824	-0,272	-0,126
313,822	336,099	-0,144	-0,193
314,837	586,137	-0,087	-0,148
315,852	-103,690	-0,144	-0,023
316,866	-200,000	-0,002	0,042
317,881	-200,000	-0,024	-0,131
318,895	800,000	-0,072	-0,164
319,910	51,438	-0,220	-0,143
320,925	38,404	-0,201	-0,123
321,939	561,141	-0,082	-0,136
322,954	-11,690	-0,134	-0,060
323,968	-45,019	-0,114	-0,039
324,983	-200,000	-0,017	-0,169
325,997	548,946	-0,094	-0,156
327,012	800,000	-0,056	-0,155
328,027	26,602	-0,136	-0,078
329,041	-35,971	-0,053	-0,019
330,056	74,263	-0,136	-0,098
331,070	-35,852	-0,138	-0,051
332,085	481,704	0,073	-0,115
333,100	63,482	-0,255	-0,176
334,114	-28,538	-0,109	-0,043
335,129	48,211	-0,212	-0,136
336,143	800,000	-0,072	-0,192
337,158	-26,990	-0,215	-0,086
338,173	161,772	-0,086	-0,083
339,187	-200,000	-0,047	-0,180
340,202	105,108	-0,162	-0,132
341,216	-200,000	-0,054	-0,197
342,231	485,122	-0,060	-0,094
343,246	756,195	-0,119	-0,222
344,260	72,243	-0,152	-0,108
345,275	-200,000	-0,002	0,044
346,289	-174,896	-0,134	-0,003
347,304	157,902	-0,208	-0,198
348,319	-15,384	-0,122	-0,053
349,333	92,564	-0,117	-0,091
350,348	432,481	-0,175	-0,262
351,362	-109,964	-0,140	-0,020
352,377	800,000	-0,010	0,023
353,392	-200,000	-0,017	-0,173
354,406	800,000	-0,031	-0,087
355,421	209,788	1314,588	1415,814
356,435	161,479	1475,280	1416,303
