DTS Sentinel unit serial number:	SN410029Multiplexer serial number:	ORYXHardware model number:	OX2-SRSoftware version number:	ORYX F/W v4,00 Oryx Data Collector v3.7.2.0data status	okinstallation	B3 Nyhavnadifferential loss correction	single-endedforward channel	channel 1reverse channel	N/Adate	2023/12/05time	00:42:30forward acquisition time	300,00reverse acquisition time	0,00gamma	499,1914k internal	0,3200k external	0,3200temperature offset calibration	1,0000default loss term (dB/km)	0,3820temperature slope calibration	1,0000multiplexer offset coefficient	1,0000multiplexer slope coefficient	1,0000fibre end	0,00T internal ref (°C)	13,81T ext. ref 1 (°C)	-1,20T ext. ref 2 (°C)	-1,23length (m)	temperature (°C)	Stokes	anti-Stokes-744,400	535,354	-0,203	-0,352
-743,385	-200,000	0,067	0,271
-742,371	-5,609	-0,198	-0,098
-741,356	-200,000	-0,062	0,287
-740,342	288,688	-0,180	-0,238
-739,327	-200,000	-0,006	0,251
-738,312	202,105	-0,215	-0,241
-737,298	800,000	-0,069	0,163
-736,283	-200,000	-0,084	-0,295
-735,269	-200,000	-0,063	0,273
-734,254	213,297	-0,205	-0,236
-733,239	-46,655	-0,145	0,051
-732,225	800,000	-0,079	-0,237
-731,210	-14,782	0,130	-0,060
-730,196	-25,128	0,019	0,008
-729,181	-200,000	0,033	-0,112
-728,167	39,491	0,154	-0,100
-727,152	800,000	-0,007	0,015
-726,137	323,488	0,037	-0,051
-725,123	-70,655	-0,102	-0,028
-724,108	-200,000	-0,013	-0,191
-723,094	-123,729	-0,112	0,013
-722,079	-118,740	-0,136	-0,017
-721,064	71,839	-0,093	-0,070
-720,050	202,000	-0,052	-0,058
-719,035	259,120	0,055	-0,069
-718,021	-39,514	-0,046	-0,017
-717,006	-24,360	-0,041	0,018
-715,991	-49,542	-0,034	-0,012
-714,977	-200,000	-0,025	-0,090
-713,962	-200,000	0,014	-0,069
-712,948	-86,523	0,114	0,025
-711,933	-55,132	-0,185	-0,060
-710,918	-64,015	-0,082	-0,024
-709,904	-200,000	-0,010	0,117
-708,889	117,666	-0,053	0,047
-707,875	-110,532	-0,251	-0,037
-706,860	-107,369	0,058	-0,009
-705,845	351,910	-0,041	0,058
-704,831	668,789	0,038	0,073
-703,816	-131,135	-0,067	-0,006
-702,802	350,573	-0,043	-0,062
-701,787	-200,000	-0,014	-0,089
-700,772	-101,955	0,091	0,016
-699,758	800,000	0,042	-0,113
-698,743	168,540	0,075	-0,078
-697,729	279,141	-0,081	0,106
-696,714	800,000	-0,016	-0,038
-695,699	800,000	0,037	0,110
-694,685	571,313	0,054	-0,095
-693,670	-200,000	-0,051	0,172
-692,656	-173,998	-0,213	-0,004
-691,641	800,000	-0,022	0,055
-690,627	-29,361	0,018	0,007
-689,612	-200,000	-0,017	-0,084
-688,597	-200,000	-0,009	0,035
-687,583	29,466	-0,144	-0,089
-686,568	-155,654	0,055	-0,003
-685,554	800,000	0,039	-0,114
-684,539	-67,844	0,101	0,028
-683,524	-51,744	-0,116	-0,039
-682,510	-200,000	-0,034	0,130
-681,495	675,170	-0,026	0,049
-680,481	117,370	-0,080	0,072
-679,466	-59,212	-0,140	-0,043
-678,451	-200,000	-0,025	-0,096
-677,437	-200,000	0,014	-0,092
-676,422	800,000	0,061	-0,125
-675,408	118,535	0,065	0,058
-674,393	-46,088	-0,151	-0,054
-673,378	117,580	-0,153	-0,137
-672,364	-176,353	-0,159	-0,003
-671,349	-200,000	-0,003	-0,174
-670,335	425,854	0,078	-0,122
-669,320	127,893	0,109	-0,101
-668,305	-156,956	0,060	-0,003
-667,291	-200,000	0,005	-0,101
-666,276	-200,000	0,004	-0,148
-665,262	93,103	-0,040	-0,032
-664,247	-89,332	0,085	-0,018
-663,232	198,084	-0,067	-0,075
-662,218	616,816	0,015	-0,027
-661,203	305,354	-0,078	-0,105
-660,189	104,914	-0,070	-0,060
-659,174	40,807	-0,073	-0,047
-658,159	83,770	-0,029	0,023
-657,145	-13,367	-0,126	-0,059
-656,130	800,000	-0,025	0,058
-655,116	5,548	0,072	0,039
-654,101	-52,457	0,050	0,017
-653,086	525,109	0,048	-0,082
-652,072	800,000	0,036	-0,075
-651,057	393,689	-0,060	-0,090
-650,043	23,593	-0,023	-0,013
-649,028	-134,674	-0,120	-0,010
-648,014	-200,000	0,013	-0,089
-646,999	800,000	0,039	-0,123
-645,984	-200,000	-0,024	-0,080
-644,970	182,343	-0,056	0,060
-643,955	-80,015	0,105	-0,025
-642,941	-37,321	-0,024	-0,009
-641,926	-200,000	-0,037	0,129
-640,911	-200,000	0,027	0,100
-639,897	221,248	0,045	0,053
-638,882	-21,624	0,141	-0,062
-637,868	-96,315	-0,141	0,027
-636,853	1,837	-0,111	-0,058
-635,838	700,115	-0,018	-0,034
-634,824	-200,000	0,010	-0,221
-633,809	211,954	0,127	-0,145
-632,795	-107,822	-0,035	0,006
-631,780	-84,757	0,090	0,020
-630,765	-200,000	0,017	0,070
-629,751	-186,618	-0,121	-0,001
-628,736	276,459	-0,026	-0,034
-627,722	-93,553	0,149	-0,030
-626,707	193,307	-0,028	0,031
-625,692	-18,343	-0,045	-0,020
-624,678	322,186	0,081	0,112
-623,663	-200,000	0,008	0,054
-622,649	-171,250	-0,155	0,004
-621,634	50,671	-0,054	-0,037
-620,619	-200,000	0,003	-0,046
-619,605	-161,040	0,032	-0,001
-618,590	-1,368	-0,106	0,054
-617,576	800,000	0,043	-0,114
-616,561	-30,831	-0,123	0,050
-615,546	282,766	-0,042	-0,054
-614,532	-200,000	-0,017	-0,116
-613,517	103,146	-0,259	-0,220
-612,503	-200,000	0,011	-0,063
-611,488	89,301	0,051	0,041
-610,474	800,000	0,030	0,063
-609,459	243,336	0,083	0,101
-608,444	329,515	-0,050	0,070
-607,430	71,175	-0,061	0,046
-606,415	-200,000	-0,003	-0,206
-605,401	-7,966	0,070	0,034
-604,386	-0,366	-0,045	-0,023
-603,371	230,152	-0,080	-0,095
-602,357	-87,836	0,008	-0,002
-601,342	-85,158	-0,097	-0,022
-600,328	340,149	-0,104	-0,148
-599,313	-15,590	0,074	-0,034
-598,298	-58,572	-0,106	0,033
-597,284	267,095	0,092	0,116
-596,269	800,000	-0,112	0,231
-595,255	-104,682	-0,211	0,035
-594,240	-200,000	0,008	0,031
-593,225	-200,000	0,045	-0,151
-592,211	-200,000	-0,006	-0,138
-591,196	-42,250	-0,046	-0,017
-590,182	140,620	-0,052	-0,049
-589,167	-200,000	0,036	0,129
-588,152	146,204	0,118	0,115
-587,138	-68,842	-0,201	-0,056
-586,123	85,112	-0,049	0,039
-585,109	800,000	0,029	-0,068
-584,094	-42,397	0,079	-0,029
-583,079	371,338	0,074	0,109
-582,065	-1,136	0,043	-0,022
-581,050	-98,508	0,171	-0,031
-580,036	-0,924	-0,093	0,048
-579,021	-27,816	-0,198	-0,083
-578,006	43,132	-0,043	-0,028
-576,992	-190,034	-0,112	-0,001
-575,977	800,000	-0,024	-0,050
-574,963	-200,000	0,019	0,084
-573,948	-7,451	-0,080	-0,039
-572,934	-200,000	0,014	-0,050
-571,919	-200,000	-0,009	0,160
-570,904	800,000	-0,022	-0,050
-569,890	-166,305	0,109	0,003
-568,875	-165,118	0,058	0,002
-567,861	-200,000	0,011	0,093
-566,846	321,152	0,038	0,053
-565,831	-130,546	0,050	-0,005
-564,817	68,714	-0,067	-0,050
-563,802	-59,631	-0,074	0,023
-562,788	800,000	0,039	-0,089
-561,773	129,591	-0,078	-0,072
-560,758	-66,934	0,117	-0,033
-559,744	-126,985	0,061	0,006
-558,729	100,678	0,077	0,064
-557,715	800,000	-0,050	-0,110
-556,700	-51,661	0,076	-0,026
-555,685	597,040	-0,033	0,059
-554,671	-66,847	0,030	0,008
-553,656	21,699	-0,034	-0,020
-552,642	-62,044	-0,132	-0,039
-551,627	237,405	-0,028	0,033
-550,612	-133,689	-0,147	0,013
-549,598	1,017	-0,089	-0,046
-548,583	-56,903	-0,058	0,018
-547,569	240,275	0,015	-0,018
-546,554	288,762	0,058	0,077
-545,539	-16,279	0,081	0,037
-544,525	-146,743	0,128	0,008
-543,510	-200,000	-0,012	0,113
-542,496	-125,915	-0,190	-0,020
-541,481	-25,596	-0,062	0,026
-540,466	-5,186	-0,084	-0,042
-539,452	-27,368	0,045	-0,019
-538,437	-128,091	0,061	-0,006
-537,423	-200,000	0,008	0,087
-536,408	219,898	-0,088	0,102
-535,393	-200,000	-0,008	0,032
-534,379	-46,958	-0,168	0,059
-533,364	-200,000	-0,001	0,030
-532,350	16,487	0,062	0,035
-531,335	800,000	-0,006	0,017
-530,321	800,000	0,042	-0,084
-529,306	-200,000	0,021	-0,104
-528,291	-200,000	0,023	-0,114
-527,277	-200,000	-0,002	-0,042
-526,262	18,489	-0,157	-0,090
-525,248	2,514	0,061	-0,032
-524,233	800,000	-0,043	0,127
-523,218	800,000	-0,051	0,104
-522,204	25,578	-0,170	0,102
-521,189	-200,000	-0,015	0,065
-520,175	261,671	-0,105	-0,131
-519,160	185,466	-0,039	0,042
-518,145	-5,938	0,058	-0,029
-517,131	-77,786	0,072	0,018
-516,116	-200,000	0,010	0,054
-515,102	-132,927	-0,067	0,006
-514,087	381,661	-0,095	-0,141
-513,072	800,000	-0,023	-0,047
-512,058	800,000	-0,101	-0,219
-511,043	64,952	0,083	0,060
-510,029	800,000	-0,020	-0,048
-509,014	-111,522	0,152	0,022
-507,999	-40,640	-0,128	-0,048
-506,985	-134,939	0,027	0,002
-505,970	-200,000	0,023	0,131
-504,956	-25,738	-0,170	-0,072
-503,941	9,776	0,182	0,099
-502,926	13,583	0,025	0,014
-501,912	800,000	0,062	0,158
-500,897	62,215	0,021	-0,015
-499,883	220,646	0,136	0,157
-498,868	800,000	-0,030	-0,075
-497,853	-61,428	-0,128	-0,039
-496,839	51,312	0,067	-0,045
-495,824	-128,749	0,067	0,007
-494,810	101,395	0,077	0,065
-493,795	800,000	0,022	0,068
-492,781	-123,065	0,127	-0,015
-491,766	800,000	-0,058	-0,120
-490,751	86,447	-0,086	-0,068
-489,737	800,000	-0,028	-0,083
-488,722	165,931	0,070	0,072
-487,708	71,195	0,020	0,015
-486,693	800,000	-0,024	-0,054
-485,678	800,000	-0,055	0,164
-484,664	118,669	-0,105	-0,093
-483,649	-90,371	0,050	0,010
-482,635	800,000	-0,052	0,115
-481,620	701,536	-0,014	0,027
-480,605	-38,208	0,137	-0,052
-479,591	-122,743	-0,127	0,015
-478,576	288,086	-0,060	-0,078
-477,562	800,000	0,011	-0,024
-476,547	102,690	0,052	-0,043
-475,532	105,669	0,097	-0,082
-474,518	-200,000	-0,002	-0,041
-473,503	-21,731	0,069	-0,030
-472,489	-200,000	0,001	-0,128
-471,474	800,000	0,019	-0,052
-470,459	-1,120	0,138	-0,070
-469,445	435,127	-0,036	-0,057
-468,430	22,275	-0,050	0,029
-467,416	269,352	0,017	-0,021
-466,401	194,687	0,065	0,071
-465,386	-200,000	0,032	0,131
-464,372	199,097	-0,077	0,085
-463,357	-17,129	-0,054	0,024
-462,343	-200,000	-0,001	-0,007
-461,328	-113,172	0,057	0,008
-460,313	800,000	-0,035	-0,087
-459,299	14,162	0,047	0,026
-458,284	213,573	-0,039	-0,045
-457,270	-21,898	0,077	-0,034
-456,255	-200,000	0,001	-0,025
-455,241	-200,000	-0,007	-0,069
-454,226	-200,000	0,009	-0,060
-453,211	-200,000	0,042	-0,166
-452,197	-200,000	0,012	0,101
-451,182	-29,200	0,107	0,044
-450,168	800,000	-0,059	0,149
-449,153	130,008	0,023	0,021
-448,138	-39,804	-0,094	-0,035
-447,124	457,514	0,026	0,041
-446,109	104,407	0,035	0,030
-445,095	104,487	0,052	0,044
-444,080	800,000	0,018	-0,057
-443,065	-128,618	0,040	-0,004
-442,051	-36,975	0,037	-0,014
-441,036	-99,035	-0,078	-0,014
-440,022	800,000	0,023	-0,071
-439,007	152,919	0,096	0,094
-437,992	-151,343	0,029	0,002
-436,978	98,450	-0,080	0,067
-435,963	-200,000	-0,020	-0,140
-434,949	-151,920	-0,060	0,003
-433,934	-165,958	-0,087	0,003
-432,919	-85,159	-0,112	-0,025
-431,905	-65,077	-0,118	0,034
-430,890	335,102	0,061	0,085
-429,876	-200,000	0,009	0,067
-428,861	-200,000	0,042	0,164
-427,846	111,666	-0,039	-0,034
-426,832	69,298	0,116	-0,086
-425,817	-5,396	-0,101	-0,050
-424,803	-200,000	0,034	0,136
-423,788	-3,907	0,075	-0,037
-422,773	-174,497	0,098	-0,002
-421,759	-200,000	0,007	0,216
-420,744	641,682	-0,011	-0,021
-419,730	800,000	-0,031	-0,096
-418,715	64,952	-0,088	-0,064
-417,701	-161,525	0,188	0,007
-416,686	-100,677	0,085	-0,015
-415,671	-200,000	0,017	0,111
-414,657	246,440	-0,071	-0,086
-413,642	-142,973	-0,037	0,003
-412,628	92,017	0,086	-0,069
-411,613	-131,794	-0,138	-0,013
-410,598	14,258	-0,097	0,054
-409,584	800,000	-0,017	-0,040
-408,569	220,282	-0,026	0,029
-407,555	-56,694	0,034	-0,011
-406,540	268,299	-0,078	-0,098
-405,525	-90,065	-0,024	0,005
-404,511	-97,735	-0,024	-0,004
-403,496	-133,971	0,067	-0,006
-402,482	-135,216	0,136	-0,012
-401,467	-148,655	0,053	0,003
-400,452	75,635	-0,035	-0,026
-399,438	71,144	0,050	0,038
-398,423	-146,676	-0,128	0,008
-397,409	-90,415	0,041	0,009
-396,394	-69,043	-0,006	-0,002
-395,379	8,903	-0,066	-0,036
-394,365	-23,861	0,155	-0,066
-393,350	-0,288	0,161	-0,082
-392,336	-65,323	-0,105	-0,030
-391,321	515,109	0,076	-0,128
-390,306	-200,000	0,017	-0,134
-389,292	159,185	-0,089	-0,089
-388,277	-200,000	0,006	0,029
-387,263	800,000	0,042	-0,126
-386,248	800,000	0,039	0,081
-385,233	800,000	0,001	-0,003
-384,219	800,000	-0,030	0,073
-383,204	32,220	0,094	0,058
-382,190	800,000	0,012	-0,031
-381,175	360,018	0,010	-0,015
-380,160	-131,431	0,014	0,001
-379,146	-200,000	0,034	0,150
-378,131	-200,000	0,040	-0,167
-377,117	-39,812	0,122	-0,046
-376,102	-200,000	-0,007	0,069
-375,088	-200,000	-0,007	0,114
-374,073	-69,696	-0,143	-0,039
-373,058	33,188	0,037	-0,023
-372,044	-200,000	-0,024	0,095
-371,029	25,216	0,029	0,017
-370,015	268,959	-0,031	0,039
-369,000	283,447	-0,036	0,047
-367,985	87,597	-0,100	-0,079
-366,971	-200,000	-0,008	-0,080
-365,956	-200,000	0,018	-0,083
-364,942	-200,000	0,002	0,022
-363,927	800,000	0,033	0,067
-362,912	332,476	-0,047	0,065
-361,898	154,792	0,027	0,026
-360,883	-200,000	0,004	-0,196
-359,869	-200,000	0,007	-0,126
-358,854	-106,905	-0,112	-0,018
-357,839	-163,836	-0,122	-0,004
-356,825	100,797	0,199	0,165
-355,810	-200,000	-0,032	0,115
-354,796	-85,197	0,057	-0,013
-353,781	578,221	-0,048	-0,085
-352,766	-200,000	0,020	0,106
-351,752	18,350	0,129	0,074
-350,737	203,115	-0,023	0,026
-349,723	-200,000	0,031	0,117
-348,708	-200,000	0,022	-0,086
-347,693	-30,001	0,055	-0,022
-346,679	385,642	-0,091	-0,135
-345,664	70,440	0,083	-0,061
-344,650	-200,000	0,035	0,118
-343,635	-200,000	0,009	0,105
-342,620	50,817	-0,127	0,086
-341,606	-76,480	0,106	-0,026
-340,591	-21,766	-0,015	-0,007
-339,577	-157,055	-0,086	-0,004
-338,562	-200,000	0,015	-0,084
-337,548	213,045	-0,164	0,186
-336,533	-200,000	-0,007	0,055
-335,518	608,078	0,030	0,055
-334,504	181,920	-0,056	-0,059
-333,489	345,948	-0,061	0,086
-332,475	-59,664	0,109	-0,033
-331,460	426,117	0,049	-0,075
-330,445	800,000	0,065	0,189
-329,431	530,399	0,066	0,112
-328,416	-62,953	0,058	-0,017
-327,402	800,000	0,033	-0,095
-326,387	-200,000	0,003	-0,028
-325,372	423,950	-0,058	-0,089
-324,358	800,000	0,019	-0,054
-323,343	49,801	-0,074	0,050
-322,329	174,416	0,023	-0,024
-321,314	-200,000	0,003	-0,055
-320,299	-200,000	0,016	-0,086
-319,285	792,699	0,029	0,057
-318,270	68,545	-0,110	-0,080
-317,256	800,000	0,039	-0,088
-316,241	307,373	-0,073	-0,097
-315,226	-176,714	0,146	-0,003
-314,212	-74,373	0,097	0,025
-313,197	-200,000	0,009	-0,092
-312,183	255,280	0,065	0,080
-311,168	177,948	-0,038	-0,039
-310,153	-200,000	-0,014	0,049
-309,139	800,000	-0,081	-0,188
-308,124	-90,074	0,071	-0,015
-307,110	-200,000	0,014	0,080
-306,095	-60,383	0,034	0,010
-305,080	-200,000	-0,011	0,070
-304,066	126,860	-0,148	0,134
-303,051	-44,216	0,026	0,009
-302,037	273,200	0,078	0,099
-301,022	-200,000	0,002	-0,082
-300,008	511,199	0,042	0,071
-298,993	52,379	0,036	0,025
-297,978	-183,347	0,144	0,002
-296,964	-144,090	-0,094	-0,006
-295,949	-144,651	-0,079	0,005
-294,935	-105,472	-0,201	-0,032
-293,920	444,629	0,108	0,169
-292,905	-106,421	0,227	0,036
-291,891	800,000	-0,022	0,054
-290,876	82,566	-0,022	-0,017
-289,862	-200,000	0,013	-0,067
-288,847	-200,000	0,030	0,133
-287,832	-178,400	-0,181	0,003
-286,818	35,143	0,086	0,054
-285,803	30,902	-0,096	-0,059
-284,789	-71,601	0,076	-0,020
-283,774	692,716	0,032	0,060
-282,759	800,000	0,018	0,048
-281,745	-79,996	-0,099	-0,024
-280,730	259,665	-0,085	-0,105
-279,716	800,000	-0,010	-0,024
-278,701	-200,000	0,032	0,175
-277,686	-200,000	0,010	0,049
-276,672	98,037	0,023	-0,019
-275,657	656,109	0,043	0,078
-274,643	800,000	-0,009	-0,028
-273,628	214,920	-0,052	-0,059
-272,613	41,621	-0,089	-0,058
-271,599	-200,000	0,035	-0,174
-270,584	49,365	-0,037	-0,025
-269,570	-200,000	0,002	0,116
-268,555	-200,000	-0,014	-0,049
-267,540	212,291	0,057	0,064
-266,526	-86,176	-0,052	-0,011
-265,511	-200,000	-0,004	-0,110
-264,497	41,376	-0,087	0,056
-263,482	354,558	0,060	-0,086
-262,467	-200,000	-0,001	0,010
-261,453	271,452	0,059	-0,075
-260,438	127,497	0,075	0,068
-259,424	-200,000	0,004	-0,043
-258,409	-200,000	-0,018	-0,092
-257,395	369,503	0,028	-0,041
-256,380	-86,481	-0,049	0,011
-255,365	800,000	0,010	-0,027
-254,351	153,244	0,015	-0,015
-253,336	30,548	0,038	-0,023
-252,322	-200,000	0,037	-0,125
-251,307	154,607	-0,086	-0,085
-250,292	286,677	0,060	0,077
-249,278	521,583	0,053	0,090
-248,263	298,616	0,089	0,117
-247,249	-200,000	0,028	0,105
-246,234	687,956	-0,018	0,035
-245,219	354,527	-0,091	-0,130
-244,205	123,031	0,061	-0,055
-243,190	28,542	-0,011	0,007
-242,176	-200,000	0,016	0,069
-241,161	800,000	0,044	0,105
-240,146	-44,436	-0,056	-0,020
-239,132	-200,000	-0,028	-0,123
-238,117	-170,994	-0,128	-0,003
-237,103	800,000	-0,036	-0,078
-236,088	-200,000	0,009	0,061
-235,073	143,751	0,125	0,119
-234,059	-80,602	0,139	0,033
-233,044	155,604	-0,055	0,054
-232,030	335,185	-0,126	-0,174
-231,015	-200,000	-0,011	-0,091
-230,000	-4,996	-0,098	-0,048
-228,986	-200,000	0,006	-0,035
-227,971	135,467	0,049	0,045
-226,957	-26,400	0,115	0,048
-225,942	173,593	0,052	0,054
-224,927	800,000	0,017	-0,034
-223,913	800,000	-0,005	0,012
-222,898	107,680	-0,041	0,034
-221,884	-84,760	0,056	-0,013
-220,869	800,000	-0,020	0,048
-219,855	-167,938	-0,114	0,003
-218,840	-10,311	0,156	0,073
-217,825	-200,000	-0,007	0,040
-216,811	-117,666	-0,099	-0,013
-215,796	-29,169	0,223	-0,091
-214,782	-200,000	0,002	-0,011
-213,767	158,742	0,047	-0,047
-212,752	800,000	-0,026	-0,064
-211,738	-158,847	0,136	-0,005
-210,723	-168,870	0,156	-0,004
-209,709	-120,267	-0,109	-0,013
-208,694	800,000	-0,051	-0,107
-207,679	45,381	-0,128	-0,084
-206,665	714,523	0,035	0,066
-205,650	-200,000	0,012	-0,045
-204,636	484,817	0,046	-0,075
-203,621	780,138	-0,012	0,023
-202,606	-200,000	-0,019	-0,079
-201,592	25,010	-0,051	0,030
-200,577	193,471	0,091	-0,099
-199,563	184,494	-0,039	-0,041
-198,548	-97,005	0,112	0,021
-197,533	20,945	0,172	0,099
-196,519	101,594	0,071	0,059
-195,504	132,088	-0,069	-0,063
-194,490	-35,809	-0,165	-0,063
-193,475	800,000	-0,058	-0,138
-192,460	690,067	0,050	-0,094
-191,446	-200,000	0,005	0,102
-190,431	-21,617	0,087	0,038
-189,417	-200,000	0,002	0,075
-188,402	250,173	-0,099	0,120
-187,387	-4,296	0,105	0,052
-186,373	267,880	0,039	0,049
-185,358	118,029	0,048	0,042
-184,344	-200,000	-0,007	0,036
-183,329	-94,061	0,185	0,036
-182,315	-123,603	0,078	0,009
-181,300	800,000	-0,002	0,004
-180,285	-117,010	-0,160	-0,021
-179,271	-74,107	-0,097	-0,025
-178,256	48,649	-0,019	0,013
-177,242	116,825	0,046	0,040
-176,227	-85,253	0,055	0,012
-175,212	-200,000	-0,001	0,134
-174,198	320,419	-0,094	-0,127
-173,183	-179,926	0,081	-0,001
-172,169	-200,000	0,013	0,064
-171,154	-51,910	0,123	-0,040
-170,139	138,225	-0,034	0,031
-169,125	13,797	0,128	0,071
-168,110	455,741	0,015	-0,023
-167,096	320,392	-0,014	-0,018
-166,081	265,814	0,084	0,104
-165,066	-57,371	0,073	-0,023
-164,052	-46,838	-0,106	-0,037
-163,037	475,254	0,065	0,105
-162,023	161,530	-0,176	0,176
-161,008	143,361	-0,057	0,054
-159,993	-200,000	0,002	0,159
-158,979	-24,400	-0,071	0,030
-157,964	248,899	-0,062	0,075
-156,950	-200,000	0,013	0,056
-155,935	150,973	0,076	0,073
-154,920	225,613	0,098	0,113
-153,906	182,486	0,075	0,078
-152,891	-95,185	-0,092	-0,017
-151,877	800,000	0,038	0,086
-150,862	79,024	-0,109	-0,083
-149,847	122,433	0,118	-0,105
-148,833	29,450	-0,103	-0,062
-147,818	-98,563	0,118	0,021
-146,804	120,892	0,064	0,056
-145,789	-123,318	-0,105	-0,012
-144,775	8,641	0,018	-0,009
-143,760	-200,000	-0,002	-0,100
-142,745	202,919	-0,085	-0,094
-141,731	-200,000	0,000	-0,103
-140,716	26,265	0,106	0,063
-139,702	115,822	0,044	0,038
-138,687	-118,943	0,074	0,009
-137,672	566,949	-0,072	-0,125
-136,658	638,485	0,048	-0,087
-135,643	-29,582	0,058	-0,024
-134,629	-200,000	0,003	-0,041
-133,614	-200,000	0,003	-0,024
-132,599	-200,000	-0,005	0,048
-131,585	248,907	0,139	0,167
-130,570	-70,824	-0,140	-0,037
-129,556	-16,408	0,036	-0,016
-128,541	334,522	-0,034	-0,047
-127,526	-200,000	0,006	0,050
-126,512	286,452	0,071	-0,091
-125,497	-200,000	0,034	0,175
-124,483	-107,163	-0,055	0,009
-123,468	-115,367	-0,111	0,015
-122,453	-200,000	-0,010	0,072
-121,439	268,791	0,042	0,052
-120,424	16,500	0,091	0,051
-119,410	408,288	0,051	0,076
-118,395	800,000	-0,070	-0,148
-117,380	800,000	0,055	0,116
-116,366	800,000	-0,037	0,112
-115,351	-17,636	0,082	0,036
-114,337	486,026	-0,012	-0,019
-113,322	-114,161	0,050	0,007
-112,307	25,648	-0,016	0,010
-111,293	250,950	0,010	0,012
-110,278	226,660	-0,018	0,021
-109,264	-20,597	-0,013	0,006
-108,249	254,672	-0,047	-0,057
-107,234	150,783	-0,032	-0,031
-106,220	345,177	-0,058	0,081
-105,205	274,618	0,102	0,129
-104,191	225,921	0,073	0,085
-103,176	-111,462	0,087	-0,012
-102,162	325,290	-0,074	0,101
-101,147	-200,000	-0,001	-0,009
-100,132	-41,578	-0,140	-0,051
-99,118	-39,967	0,163	0,060
-98,103	-200,000	-0,016	-0,066
-97,089	-44,780	0,067	0,024
-96,074	-33,641	0,131	0,051
-95,059	85,646	-0,103	0,080
-94,045	-21,358	0,097	-0,042
-93,030	-200,000	-0,021	0,067
-92,016	-108,871	-0,196	-0,029
-91,001	-4,650	0,145	-0,071
-89,986	202,240	0,047	0,051
-88,972	800,000	-0,065	0,142
-87,957	380,375	0,056	-0,081
-86,943	3,275	0,073	-0,037
-85,928	233,282	0,037	0,043
-84,913	-104,293	-0,186	0,030
-83,899	800,000	-0,031	0,073
-82,884	-200,000	-0,027	0,118
-81,870	-108,285	0,019	-0,003
-80,855	-200,000	0,044	0,161
-79,840	183,838	-0,063	0,066
-78,826	207,509	-0,133	0,148
-77,811	27,403	0,111	0,066
-76,797	-14,478	0,073	0,033
-75,782	800,000	0,018	-0,043
-74,767	271,945	-0,046	-0,058
-73,753	-83,587	-0,058	-0,013
-72,738	-26,546	-0,101	0,042
-71,724	-23,665	-0,032	0,013
-70,709	-116,040	-0,119	-0,016
-69,694	437,264	0,053	-0,082
-68,680	-200,000	0,044	0,170
-67,665	-200,000	-0,020	0,094
-66,651	539,723	0,031	-0,052
-65,636	148,889	0,048	0,046
-64,622	12,918	0,040	0,022
-63,607	-200,000	-0,020	-0,116
-62,592	130,313	-0,106	-0,096
-61,578	800,000	-0,042	-0,115
-60,563	125,836	-0,058	0,052
-59,549	-157,219	0,158	0,007
-58,534	-67,616	-1,685	-0,464
-57,519	327,821	-1,361	-1,854
-56,505	-200,000	-0,544	-4,637
-55,490	197,111	0,969	1,048
-54,476	800,000	4,760	11,585
-53,461	-200,000	18,927	313,402
-52,446	-200,000	739,408	2325,628
-51,432	575,247	1655,549	2873,897
-50,417	79,068	1671,726	1266,767
-49,403	21,824	1544,457	888,872
-48,388	15,666	1467,186	814,446
-47,373	17,851	1457,082	819,368
-46,359	16,807	1447,156	808,744
-45,344	13,955	1442,442	792,410
-44,330	13,910	1440,406	791,041
-43,315	13,905	1438,813	790,111
-42,300	13,892	1437,197	789,134
-41,286	13,903	1436,171	788,589
-40,271	13,848	1434,804	787,546
-39,257	13,849	1433,573	786,842
-38,242	13,914	1432,315	786,432
-37,227	13,906	1431,058	785,673
-36,213	13,957	1429,656	785,115
-35,198	13,898	1428,546	784,194
-34,184	13,955	1427,557	783,889
-33,169	13,870	1426,357	782,796
-32,154	13,959	1425,086	782,487
-31,140	13,927	1423,849	781,627
-30,125	13,968	1422,687	781,152
-29,111	13,930	1421,530	780,306
-28,096	13,898	1420,452	779,533
-27,082	13,869	1419,307	778,736
-26,067	13,831	1418,256	777,951
-25,052	13,879	1417,060	777,491
-24,038	13,829	1416,246	776,775
-23,023	13,814	1415,264	776,134
-22,009	13,830	1414,314	775,660
-20,994	13,794	1413,480	775,003
-19,979	13,786	1412,480	774,384
-18,965	13,814	1411,418	773,905
-17,950	13,738	1410,742	773,148
-16,936	13,749	1409,595	772,536
-15,921	13,706	1408,552	771,736
-14,906	13,733	1407,634	771,329
-13,892	13,758	1406,599	770,845
-12,877	13,751	1405,889	770,394
-11,863	13,765	1404,883	769,876
-10,848	13,737	1403,982	769,222
-9,833	13,723	1403,147	768,668
-8,819	13,701	1402,257	768,048
-7,804	13,630	1401,507	767,276
-6,790	13,631	1400,326	766,604
-5,775	13,661	1398,897	765,930
-4,760	13,693	1398,312	765,727
-3,746	13,644	1397,418	764,984
-2,731	13,646	1396,696	764,567
-1,717	13,634	1395,615	763,890
-0,702	13,635	1393,986	762,973
0,313	17,372	1311,340	735,095
1,327	33,378	705,381	432,493
2,342	51,480	123,825	83,131
3,356	0,857	16,696	8,436
4,371	0,053	3,139	1,577
5,386	38,599	0,585	0,369
6,400	-200,000	0,082	0,262
7,415	-87,111	-0,338	-0,072
8,429	37,198	-0,337	-0,210
9,444	6,615	-0,293	-0,154
10,459	-7,624	-0,334	-0,159
11,473	150,465	-0,274	-0,263
12,488	15,073	-0,269	-0,149
13,502	-85,528	-0,267	-0,058
14,517	-92,443	-0,348	-0,069
15,531	63,268	-0,411	-0,291
16,546	40,949	-0,347	-0,221
17,561	100,649	-0,502	-0,412
18,575	36,597	-0,124	-0,077
19,590	115,934	-0,262	-0,227
20,604	-83,827	-0,351	-0,078
21,619	151,983	-0,393	-0,379
22,634	118,134	-0,474	-0,413
23,648	123,790	-0,300	-0,266
24,663	5,846	-0,419	-0,218
25,677	61,912	-0,251	-0,176
26,692	8,268	-0,306	-0,162
27,707	47,277	-0,445	-0,292
28,721	58,631	-0,413	-0,286
29,736	10,865	-0,429	-0,231
30,750	250,928	-0,308	-0,370
31,765	46,979	-0,500	-0,327
32,780	66,875	-0,335	-0,241
33,794	522,901	-0,191	-0,318
34,809	-41,949	-0,406	-0,146
35,823	200,395	-0,291	-0,316
36,838	17,970	-0,417	-0,234
37,853	50,424	-0,491	-0,327
38,867	127,503	-0,342	-0,307
39,882	65,407	-0,427	-0,304
40,896	154,858	-0,332	-0,322
41,911	223,079	-0,296	-0,337
42,926	22,635	-0,254	-0,146
43,940	128,625	-0,382	-0,344
44,955	103,807	-0,401	-0,332
45,969	74,567	-0,329	-0,244
46,984	227,098	-0,221	-0,254
47,999	88,354	-0,321	-0,251
49,013	2,052	-0,275	-0,140
50,028	-91,925	-0,318	-0,063
51,042	19,077	-0,344	-0,194
52,057	52,242	-0,455	-0,306
53,071	201,123	-0,308	-0,334
54,086	93,145	-0,351	-0,279
55,101	695,110	-0,148	-0,274
56,115	117,878	-0,362	-0,314
57,130	-51,234	-0,397	-0,130
58,144	-18,485	-0,391	-0,171
59,159	101,763	-0,432	-0,355
60,174	55,551	-0,409	-0,279
61,188	5,557	-0,413	-0,214
62,203	-56,875	-0,267	-0,083
63,217	0,389	-0,356	-0,178
64,232	45,808	-0,324	-0,210
65,247	471,158	-0,271	-0,430
66,261	97,471	-0,405	-0,327
67,276	50,444	-0,360	-0,239
68,290	33,336	-0,301	-0,183
69,305	24,445	-0,338	-0,196
70,320	57,526	-0,325	-0,223
71,334	83,432	-0,364	-0,279
72,349	49,136	-0,428	-0,283
73,363	148,697	-0,309	-0,294
74,378	75,602	-0,363	-0,269
75,393	-56,246	-0,249	-0,077
76,407	455,890	-0,212	-0,332
77,422	29,044	-0,313	-0,186
78,436	198,576	-0,283	-0,305
79,451	10,095	-0,286	-0,152
80,466	120,829	-0,285	-0,249
81,480	91,228	-0,348	-0,274
82,495	184,230	-0,314	-0,327
83,509	88,690	-0,347	-0,271
84,524	-120,705	-0,216	-0,025
85,539	133,344	-0,293	-0,266
86,553	241,756	-0,248	-0,291
87,568	10,669	-0,348	-0,186
88,582	263,703	-0,302	-0,369
89,597	131,057	-0,231	-0,209
90,611	212,601	-0,199	-0,221
91,626	-167,728	-0,348	-0,009
92,641	-35,017	-0,249	-0,095
93,655	-200,000	-0,383	0,000
94,670	203,564	-0,237	-0,257
95,684	146,224	-0,316	-0,298
96,699	-2,687	-0,390	-0,191
97,714	37,579	-0,281	-0,175
98,728	139,757	-0,152	-0,141
99,743	26,607	-0,311	-0,182
100,757	105,271	-0,189	-0,156
101,772	169,726	-0,309	-0,310
102,787	520,834	-0,201	-0,331
103,801	52,960	-0,348	-0,233
104,816	133,160	-0,255	-0,231
105,830	-94,265	-0,264	-0,050
106,845	-48,493	-0,295	-0,099
107,860	30,669	-0,329	-0,197
108,874	-23,897	-0,439	-0,183
109,889	209,084	-0,274	-0,301
110,903	163,345	-0,125	-0,123
111,918	-94,044	-0,297	-0,057
112,933	-77,026	-0,343	-0,083
113,947	-61,987	-0,259	-0,075
114,962	589,911	-0,200	-0,347
115,976	-53,462	-0,346	-0,110
116,991	158,216	-0,209	-0,203
118,006	107,077	-0,273	-0,227
119,020	98,841	-0,252	-0,203
120,035	409,559	-0,098	-0,146
121,049	-81,889	-0,252	-0,057
122,064	158,621	-0,198	-0,192
123,079	253,350	-0,095	-0,114
124,093	85,907	-0,308	-0,237
125,108	633,912	-0,219	-0,390
126,122	354,388	-0,207	-0,289
127,137	23,702	-0,271	-0,156
128,151	692,665	-0,094	-0,174
129,166	237,661	-0,163	-0,190
130,181	170,617	-0,132	-0,132
131,195	-119,689	-0,235	-0,028
132,210	164,020	-0,230	-0,226
133,224	18,034	-0,237	-0,132
134,239	-79,756	-0,300	-0,070
135,254	284,780	-0,155	-0,196
136,268	-129,717	-0,152	0,014
137,283	81,497	-0,160	-0,121
138,297	99,491	-0,291	-0,235
139,312	17,365	-0,305	-0,169
140,327	103,159	-0,276	-0,226
141,341	0,256	-0,207	-0,103
142,356	160,422	-0,221	-0,215
143,370	54,588	-0,346	-0,233
144,385	194,002	-0,209	-0,222
145,400	68,285	-0,261	-0,186
146,414	95,414	-0,383	-0,305
147,429	-30,779	-0,292	-0,115
148,443	472,130	-0,208	-0,329
149,458	15,740	-0,262	-0,143
150,473	62,416	-0,171	-0,119
151,487	24,866	-0,209	-0,120
152,502	-14,646	-0,331	-0,148
153,516	-107,262	-0,359	-0,055
154,531	-66,325	-0,253	-0,070
155,546	48,736	-0,217	-0,142
156,560	144,963	-0,254	-0,237
157,575	151,287	-0,215	-0,205
158,589	109,843	-0,259	-0,217
159,604	-7,241	-0,234	-0,111
160,619	35,906	-0,327	-0,200
161,633	10,254	-0,323	-0,171
162,648	346,932	-0,172	-0,237
163,662	113,989	-0,256	-0,217
164,677	38,951	-0,132	-0,082
165,692	-126,129	-0,203	-0,021
166,706	10,545	-0,218	-0,116
167,721	165,054	-0,249	-0,245
168,735	160,580	-0,242	-0,236
169,750	731,268	-0,170	-0,319
170,764	140,366	-0,249	-0,229
171,779	54,515	-0,219	-0,147
172,794	154,473	-0,213	-0,204
173,808	-81,068	-0,391	-0,089
174,823	205,298	-0,267	-0,290
175,837	-22,974	-0,259	-0,108
176,852	111,818	-0,214	-0,180
177,867	13,933	-0,219	-0,118
178,881	296,564	-0,197	-0,253
179,896	78,682	-0,231	-0,172
180,910	-131,033	-0,358	-0,033
181,925	73,458	-0,315	-0,230
182,940	105,291	-0,213	-0,175
183,954	-200,000	-0,044	-0,163
184,969	84,433	-0,182	-0,139
185,983	39,503	-0,199	-0,124
186,998	143,777	-0,127	-0,118
188,013	90,283	-0,350	-0,272
189,027	71,582	-0,215	-0,155
190,042	-88,116	-0,273	-0,057
191,056	75,933	-0,233	-0,171
192,071	149,785	-0,116	-0,109
193,086	74,223	-0,253	-0,185
194,100	81,200	-0,168	-0,126
195,115	370,567	-0,169	-0,240
196,129	-65,720	-0,158	-0,044
197,144	-56,247	-0,245	-0,075
198,159	-34,652	-0,268	-0,102
199,173	-75,701	-0,266	-0,065
200,188	-60,312	-0,339	-0,100
201,202	-130,476	-0,249	-0,023
202,217	128,704	-0,119	-0,105
203,232	-85,744	-0,165	-0,035
204,246	104,936	-0,131	-0,107
205,261	113,702	-0,250	-0,211
206,275	160,689	-0,145	-0,141
207,290	13,766	-0,414	-0,223
208,304	244,941	-0,121	-0,142
209,319	437,138	-0,118	-0,179
210,334	115,195	-0,271	-0,230
211,348	210,824	-0,251	-0,274
212,363	79,684	-0,197	-0,147
213,377	213,379	-0,207	-0,228
214,392	388,379	-0,133	-0,192
215,407	51,957	-0,099	-0,065
216,421	285,346	-0,132	-0,166
217,436	-17,552	-0,125	-0,054
218,450	800,000	-0,086	-0,207
219,465	12,693	-0,199	-0,106
220,480	123,365	-0,186	-0,162
221,494	-16,455	-0,283	-0,124
222,509	-200,000	-0,042	-0,147
223,523	-116,885	-0,204	-0,026
224,538	59,483	-0,188	-0,128
225,553	69,887	-0,255	-0,182
226,567	347,162	-0,139	-0,190
227,582	26,823	-0,166	-0,097
228,596	42,107	-0,117	-0,073
229,611	190,371	-0,161	-0,168
230,626	14,314	-0,264	-0,142
231,640	222,908	-0,169	-0,189
232,655	220,601	-0,155	-0,172
233,669	-49,125	-0,249	-0,082
234,684	91,397	-0,120	-0,093
235,699	-24,702	-0,319	-0,131
236,713	25,607	-0,187	-0,108
237,728	123,153	-0,179	-0,155
238,742	182,462	-0,192	-0,197
239,757	116,476	-0,201	-0,171
240,772	45,183	-0,179	-0,114
241,786	-113,178	-0,157	-0,021
242,801	-42,729	-0,278	-0,098
243,815	-29,025	-0,156	-0,062
244,830	243,108	-0,184	-0,214
245,844	800,000	-0,132	-0,310
246,859	62,680	-0,269	-0,186
247,874	-21,947	-0,225	-0,094
248,888	161,251	-0,212	-0,206
249,903	-116,851	-0,204	-0,026
250,917	316,546	-0,089	-0,117
251,932	-200,000	0,037	-0,167
252,947	80,819	-0,094	-0,070
253,961	-102,239	-0,267	-0,044
254,976	347,098	-0,198	-0,271
255,990	419,047	-0,199	-0,295
257,005	-78,729	-0,258	-0,061
258,020	-42,186	-0,087	-0,031
259,034	-19,837	-0,274	-0,116
260,049	37,075	-0,163	-0,099
261,063	744,585	-0,123	-0,230
262,078	462,656	-0,062	-0,097
263,093	57,546	-0,200	-0,135
264,107	185,748	-0,112	-0,115
265,122	86,503	-0,137	-0,105
266,136	125,629	-0,095	-0,083
267,151	46,773	-0,097	-0,062
268,166	763,733	-0,140	-0,264
269,180	800,000	-0,147	-0,317
270,195	245,330	-0,074	-0,086
271,209	-147,761	-0,154	-0,009
272,224	-28,418	-0,162	-0,064
273,239	-200,000	-0,016	-0,100
274,253	-200,000	-0,065	-0,281
275,268	129,648	-0,105	-0,092
276,282	8,720	-0,233	-0,121
277,297	554,269	-0,174	-0,290
278,312	-200,000	-0,019	-0,167
279,326	157,290	-0,159	-0,152
280,341	-42,810	-0,099	0,035
281,355	800,000	-0,073	-0,172
282,370	-32,127	-0,267	-0,103
283,384	618,326	-0,141	-0,245
284,399	130,065	-0,161	-0,142
285,414	23,741	-0,172	-0,097
286,428	-89,936	-0,286	-0,057
287,443	-89,634	-0,158	-0,032
288,457	26,717	-0,114	-0,066
289,472	8,426	-0,087	0,045
290,487	-20,546	-0,153	-0,065
291,501	125,919	-0,121	-0,105
292,516	-22,205	-0,144	-0,060
293,530	410,558	-0,125	-0,184
294,545	233,762	-0,148	-0,168
295,560	-133,900	-0,204	-0,017
296,574	383,487	-0,062	-0,088
297,589	800,000	-0,088	-0,211
298,603	165,686	-0,199	-0,195
299,618	158,902	-0,102	-0,097
300,633	-81,821	-0,214	-0,048
301,647	-78,661	-0,101	-0,024
302,662	-200,000	-0,056	-0,211
303,676	800,000	-0,068	-0,184
304,691	266,045	-0,183	-0,221
305,706	-14,546	-0,135	-0,060
306,720	-157,879	-0,167	-0,007
307,735	800,000	-0,109	-0,214
308,749	-200,000	0,025	-0,088
309,764	492,452	-0,092	-0,146
310,779	76,609	-0,153	-0,111
311,793	27,377	-0,120	-0,069
312,808	104,947	-0,117	-0,095
313,822	-40,522	-0,159	-0,056
314,837	148,156	-0,189	-0,176
315,852	1,860	-0,186	-0,092
316,866	-96,599	-0,216	-0,039
317,881	-52,813	-0,024	-0,007
318,895	158,270	-0,139	-0,133
319,910	-200,000	-0,027	-0,122
320,925	328,120	-0,201	-0,267
321,939	136,870	-0,179	-0,161
322,954	-200,000	-0,023	-0,209
323,968	241,714	-0,086	-0,099
324,983	155,817	-0,203	-0,192
325,997	178,264	-0,120	-0,121
327,012	104,353	-0,219	-0,177
328,027	334,536	-0,193	-0,257
329,041	435,627	-0,081	-0,122
330,056	-200,000	-0,013	-0,071
331,070	46,057	-0,112	-0,071
332,085	-93,136	-0,254	-0,048
333,100	98,239	-0,136	-0,108
334,114	-70,111	-0,159	-0,041
335,129	390,113	-0,097	-0,138
336,143	78,191	-0,188	-0,138
337,158	257,019	-0,053	-0,062
338,173	498,590	-0,061	-0,097
339,187	-111,864	-0,148	-0,020
340,202	-90,541	-0,173	0,034
341,216	91,227	-0,173	-0,133
342,231	134,095	-0,187	-0,167
343,246	112,348	-0,121	-0,100
344,260	340,898	-0,099	-0,134
345,275	-98,235	-0,168	-0,029
346,289	591,126	-0,034	-0,057
347,304	11,575	-0,191	-0,100
348,319	303,304	-0,081	-0,103
349,333	62,774	-0,171	-0,117
350,348	81,690	-0,252	-0,187
351,362	800,000	-0,079	-0,163
352,377	318,256	-0,108	-0,140
353,392	67,864	-0,068	-0,048
354,406	229,145	-0,076	-0,085
355,421	207,739	1318,020	1413,812
356,435	159,814	1479,146	1414,296
