DTS Sentinel unit serial number:	SN410029Multiplexer serial number:	ORYXHardware model number:	OX2-SRSoftware version number:	ORYX F/W v4,00 Oryx Data Collector v3.7.2.0data status	okinstallation	B3 Nyhavnadifferential loss correction	single-endedforward channel	channel 1reverse channel	N/Adate	2023/11/29time	10:17:30forward acquisition time	300,00reverse acquisition time	0,00gamma	499,1914k internal	0,3212k external	0,3212temperature offset calibration	1,0000default loss term (dB/km)	0,3820temperature slope calibration	1,0000multiplexer offset coefficient	1,0000multiplexer slope coefficient	1,0000fibre end	0,00T internal ref (°C)	9,37T ext. ref 1 (°C)	-5,57T ext. ref 2 (°C)	-5,70length (m)	temperature (°C)	Stokes	anti-Stokes-744,400	341,488	-0,161	-0,229
-743,385	-200,000	0,017	0,180
-742,371	569,877	-0,078	-0,139
-741,356	-200,000	-0,036	0,290
-740,342	251,935	-0,229	-0,284
-739,327	-200,000	-0,049	0,326
-738,312	800,000	-0,096	-0,241
-737,298	-200,000	0,006	0,230
-736,283	169,763	-0,173	-0,180
-735,269	-200,000	0,044	0,262
-734,254	299,637	-0,135	-0,181
-733,239	-112,209	-0,254	0,037
-732,225	800,000	-0,119	-0,262
-731,210	221,880	0,088	0,102
-730,196	800,000	0,032	-0,094
-729,181	-59,025	-0,167	0,052
-728,167	-27,314	0,088	0,037
-727,152	800,000	-0,066	-0,137
-726,137	-110,090	0,153	0,023
-725,123	714,395	-0,070	-0,135
-724,108	323,788	-0,142	-0,197
-723,094	-22,517	-0,018	-0,008
-722,079	-200,000	0,005	-0,113
-721,064	-200,000	-0,001	-0,071
-720,050	800,000	-0,026	0,075
-719,035	-200,000	-0,005	-0,016
-718,021	-36,632	-0,113	0,044
-717,006	-200,000	0,008	-0,036
-715,991	-200,000	0,018	-0,067
-714,977	155,261	-0,126	-0,125
-713,962	673,908	0,032	-0,060
-712,948	218,702	0,029	-0,033
-711,933	800,000	-0,028	0,067
-710,918	284,497	0,093	-0,122
-709,904	86,567	0,054	0,043
-708,889	-76,133	0,061	-0,016
-707,875	766,820	-0,100	-0,197
-706,860	-14,056	0,035	0,016
-705,845	800,000	0,008	-0,018
-704,831	388,086	-0,043	0,065
-703,816	123,436	-0,104	0,094
-702,802	-107,573	0,053	0,008
-701,787	477,812	-0,184	-0,303
-700,772	554,080	0,064	-0,111
-699,758	83,067	0,153	-0,121
-698,743	645,830	0,031	0,058
-697,729	-79,014	0,108	0,026
-696,714	-63,124	-0,076	-0,023
-695,699	-179,170	0,070	-0,001
-694,685	227,147	-0,098	-0,116
-693,670	228,205	-0,124	-0,146
-692,656	-200,000	-0,015	0,121
-691,641	330,147	-0,047	-0,066
-690,627	741,542	0,025	0,049
-689,612	109,395	0,058	-0,050
-688,597	556,218	0,084	-0,147
-687,583	344,504	-0,116	0,165
-686,568	41,535	0,039	-0,026
-685,554	356,353	0,096	-0,138
-684,539	-200,000	-0,006	0,039
-683,524	-39,413	0,197	-0,074
-682,510	-200,000	-0,005	0,041
-681,495	-130,991	0,083	-0,008
-680,481	-200,000	0,047	-0,152
-679,466	-200,000	-0,022	0,097
-678,451	98,298	0,051	-0,042
-677,437	-200,000	0,004	-0,021
-676,422	-200,000	-0,021	0,110
-675,408	-56,551	-0,065	0,021
-674,393	-200,000	-0,019	-0,139
-673,378	-90,904	-0,103	0,021
-672,364	-200,000	0,004	-0,051
-671,349	23,822	-0,069	-0,041
-670,335	-53,480	-0,092	0,030
-669,320	-133,622	-0,108	0,010
-668,305	-62,980	0,030	-0,009
-667,291	-200,000	0,018	0,065
-666,276	91,050	-0,088	-0,071
-665,262	78,189	-0,017	0,013
-664,247	-16,906	0,033	0,015
-663,232	55,677	-0,092	0,064
-662,218	-200,000	0,008	0,117
-661,203	-200,000	-0,022	0,098
-660,189	-85,356	0,058	0,013
-659,174	-117,534	0,090	-0,012
-658,159	800,000	-0,044	-0,119
-657,145	182,401	-0,102	-0,109
-656,130	-110,620	0,221	0,033
-655,116	90,089	0,040	0,032
-654,101	800,000	0,043	0,095
-653,086	-200,000	0,021	0,119
-652,072	296,298	0,024	0,031
-651,057	141,266	0,016	-0,015
-650,043	102,247	-0,150	-0,127
-649,028	95,797	0,041	0,034
-648,014	-9,621	0,095	-0,045
-646,999	800,000	0,018	0,042
-645,984	-62,466	0,062	0,018
-644,970	633,397	0,042	-0,077
-643,955	-200,000	0,022	-0,096
-642,941	800,000	-0,056	-0,126
-641,926	-200,000	0,012	0,083
-640,911	800,000	0,075	0,156
-639,897	6,449	-0,211	0,113
-638,882	121,897	0,064	0,058
-637,868	6,598	-0,149	0,079
-636,853	800,000	0,041	-0,095
-635,838	327,287	-0,102	-0,141
-634,824	-67,521	0,048	-0,014
-633,809	-2,223	0,073	0,037
-632,795	-81,353	-0,034	-0,008
-631,780	359,954	0,032	0,046
-630,765	800,000	-0,024	-0,072
-629,751	-200,000	0,007	-0,126
-628,736	-118,736	-0,116	-0,015
-627,722	-200,000	-0,012	-0,087
-626,707	800,000	-0,037	0,100
-625,692	-200,000	-0,027	-0,090
-624,678	280,864	0,007	-0,009
-623,663	-65,531	-0,064	0,018
-622,649	32,487	-0,036	-0,022
-621,634	800,000	-0,014	-0,033
-620,619	-200,000	-0,003	-0,105
-619,605	438,840	0,051	-0,080
-618,590	364,786	0,096	-0,139
-617,576	800,000	0,029	0,062
-616,561	-34,014	-0,106	-0,042
-615,546	67,865	-0,119	-0,088
-614,532	-55,275	-0,144	-0,046
-613,517	549,297	-0,080	0,139
-612,503	613,394	-0,034	-0,063
-611,488	-41,170	0,116	0,043
-610,474	-112,368	-0,074	0,011
-609,459	-80,486	0,004	-0,001
-608,444	-200,000	-0,008	-0,072
-607,430	251,605	0,058	-0,071
-606,415	-78,413	-0,118	-0,029
-605,401	697,907	-0,030	0,057
-604,386	-200,000	0,037	0,163
-603,371	-57,369	-0,091	-0,029
-602,357	0,360	0,066	0,034
-601,342	800,000	0,041	-0,116
-600,328	-200,000	-0,007	-0,088
-599,313	-200,000	0,024	-0,088
-598,298	-200,000	-0,029	0,147
-597,284	-200,000	0,012	-0,089
-596,269	-140,083	-0,036	0,003
-595,255	-76,492	0,065	-0,016
-594,240	-200,000	-0,013	-0,096
-593,225	263,028	-0,030	-0,037
-592,211	-200,000	0,062	0,000
-591,196	-200,000	0,035	0,176
-590,182	800,000	0,060	-0,168
-589,167	98,613	0,077	0,064
-588,152	-120,885	-0,084	0,010
-587,138	-115,929	0,061	0,008
-586,123	609,799	-0,060	-0,109
-585,109	-132,380	-0,110	0,010
-584,094	-17,022	0,104	0,047
-583,079	-200,000	-0,008	0,030
-582,065	111,829	0,099	0,086
-581,050	131,328	0,036	0,033
-580,036	132,888	0,127	-0,118
-579,021	477,813	-0,034	-0,056
-578,006	-134,949	-0,127	-0,011
-576,992	472,651	0,036	0,059
-575,977	676,326	0,066	0,124
-574,963	233,395	0,035	-0,041
-573,948	-200,000	-0,015	0,108
-572,934	-43,290	-0,042	0,015
-571,919	-200,000	0,017	-0,100
-570,904	-200,000	-0,007	0,033
-569,890	-67,720	0,096	0,027
-568,875	-126,549	0,056	0,006
-567,861	-27,005	-0,017	0,007
-566,846	21,732	0,047	0,028
-565,831	11,338	-0,044	-0,024
-564,817	-32,809	-0,070	0,028
-563,802	-200,000	0,016	-0,051
-562,788	-120,114	-0,063	0,008
-561,773	-43,743	0,063	0,023
-560,758	-74,323	0,129	0,033
-559,744	47,038	0,029	0,019
-558,729	-123,524	-0,125	0,014
-557,715	-61,538	0,064	-0,019
-556,700	19,387	0,015	0,009
-555,685	336,567	0,034	-0,047
-554,671	800,000	-0,027	0,058
-553,656	800,000	-0,022	0,059
-552,642	-67,394	-0,113	-0,032
-551,627	-200,000	-0,004	0,149
-550,612	-200,000	0,008	0,030
-549,598	-130,667	-0,088	0,008
-548,583	-200,000	-0,002	0,052
-547,569	60,242	-0,100	-0,071
-546,554	-70,041	0,089	0,024
-545,539	295,640	0,039	-0,051
-544,525	317,909	-0,058	-0,080
-543,510	263,172	0,088	0,110
-542,496	241,694	-0,102	-0,123
-541,481	800,000	-0,048	-0,131
-540,466	800,000	0,027	0,074
-539,452	504,130	0,034	0,057
-538,437	-200,000	0,014	0,188
-537,423	43,472	-0,022	0,014
-536,408	-117,155	-0,120	-0,016
-535,393	682,611	0,062	0,117
-534,379	-74,365	-0,089	-0,023
-533,364	-119,146	0,099	-0,012
-532,350	75,526	-0,124	-0,094
-531,335	-24,306	0,086	0,037
-530,321	800,000	0,054	0,136
-529,306	800,000	0,008	-0,023
-528,291	-42,998	-0,102	0,037
-527,277	-31,978	-0,041	-0,017
-526,262	-200,000	0,015	-0,073
-525,248	11,490	0,096	-0,053
-524,233	72,836	-0,112	0,084
-523,218	59,110	-0,006	0,004
-522,204	-200,000	0,025	0,101
-521,189	-65,989	-0,133	-0,038
-520,175	69,206	-0,055	0,041
-519,160	-161,676	-0,188	0,007
-518,145	278,033	0,101	-0,130
-517,131	301,394	-0,053	0,071
-516,116	800,000	0,071	0,181
-515,102	-200,000	-0,000	0,087
-514,087	53,482	-0,096	-0,066
-513,072	726,677	-0,047	-0,091
-512,058	-200,000	0,013	0,042
-511,043	-200,000	-0,007	0,043
-510,029	-16,880	-0,065	-0,029
-509,014	800,000	0,063	0,148
-507,999	-200,000	0,046	0,243
-506,985	504,775	0,064	-0,106
-505,970	-157,306	-0,086	-0,004
-504,956	-200,000	-0,012	-0,039
-503,941	407,112	-0,043	0,066
-502,926	61,673	0,073	-0,052
-501,912	376,941	0,035	0,051
-500,897	800,000	-0,007	-0,018
-499,883	-200,000	-0,012	-0,133
-498,868	-109,765	-0,125	0,019
-497,853	-34,029	-0,027	0,011
-496,839	-46,199	0,050	0,017
-495,824	-200,000	-0,030	0,097
-494,810	-200,000	0,020	0,079
-493,795	-163,596	0,127	0,004
-492,781	-192,777	-0,037	-0,000
-491,766	-200,000	-0,031	-0,111
-490,751	60,673	-0,075	-0,053
-489,737	605,513	-0,012	-0,021
-488,722	-115,447	0,160	0,021
-487,708	800,000	-0,008	0,021
-486,693	54,071	0,016	-0,011
-485,678	-200,000	-0,006	0,096
-484,664	-37,339	-0,024	0,009
-483,649	183,381	0,043	0,046
-482,635	115,574	0,029	0,025
-481,620	240,208	0,043	0,051
-480,605	-200,000	0,007	0,072
-479,591	-29,746	0,082	0,033
-478,576	-53,650	-0,154	-0,050
-477,562	793,746	-0,033	-0,066
-476,547	-200,000	0,008	0,034
-475,532	800,000	0,029	0,089
-474,518	-81,237	-0,025	0,006
-473,503	302,699	0,030	0,039
-472,489	51,490	0,110	0,075
-471,474	-200,000	0,021	-0,093
-470,459	145,294	-0,115	-0,111
-469,445	-54,655	-0,110	-0,036
-468,430	786,463	-0,046	0,091
-467,416	-200,000	-0,019	0,064
-466,401	-144,524	0,304	0,020
-465,386	363,803	0,114	0,165
-464,372	40,156	-0,112	-0,072
-463,357	800,000	-0,029	-0,082
-462,343	-85,629	-0,137	-0,030
-461,328	-200,000	0,001	-0,127
-460,313	-82,910	0,084	-0,019
-459,299	121,167	0,125	0,112
-458,284	-134,188	0,126	0,011
-457,270	-104,078	0,073	-0,012
-456,255	-154,789	-0,125	-0,006
-455,241	30,000	-0,011	0,006
-454,226	800,000	-0,027	-0,058
-453,211	-99,586	0,167	-0,030
-452,197	-200,000	-0,003	0,029
-451,182	-200,000	-0,009	-0,036
-450,168	-200,000	-0,001	-0,072
-449,153	92,368	0,044	0,036
-448,138	595,759	-0,032	-0,057
-447,124	-200,000	-0,018	-0,107
-446,109	800,000	-0,029	-0,087
-445,095	-54,161	0,046	0,015
-444,080	-200,000	-0,044	0,160
-443,065	262,091	-0,033	-0,041
-442,051	152,869	-0,046	0,045
-441,036	352,512	0,108	-0,154
-440,022	-61,460	-0,143	0,043
-439,007	800,000	-0,016	-0,036
-437,992	521,516	0,029	0,049
-436,978	-4,576	-0,026	0,013
-435,963	47,023	-0,098	-0,065
-434,949	-200,000	0,004	0,016
-433,934	129,876	-0,087	-0,080
-432,919	-156,343	-0,145	-0,006
-431,905	142,802	-0,123	-0,117
-430,890	-200,000	-0,027	-0,269
-429,876	423,003	0,088	0,136
-428,861	-200,000	0,014	0,076
-427,846	-89,856	-0,107	-0,022
-426,832	800,000	0,011	-0,029
-425,817	-108,164	-0,123	-0,019
-424,803	667,407	0,027	0,050
-423,788	539,600	0,061	0,104
-422,773	-156,714	0,169	-0,007
-421,759	15,354	-0,038	-0,021
-420,744	-62,284	0,023	-0,007
-419,730	-71,955	-0,124	0,033
-418,715	-64,064	-0,072	0,021
-417,701	-200,000	0,015	0,071
-416,686	4,173	0,064	0,034
-415,671	800,000	-0,050	-0,110
-414,657	-61,621	0,027	0,008
-413,642	784,391	-0,047	-0,092
-412,628	-98,344	-0,134	-0,024
-411,613	-50,345	-0,217	-0,073
-410,598	7,877	0,076	0,040
-409,584	-200,000	-0,014	0,059
-408,569	-200,000	-0,006	0,033
-407,555	108,563	-0,071	0,060
-406,540	17,855	-0,036	0,021
-405,525	-200,000	-0,008	0,096
-404,511	739,152	0,038	0,073
-403,496	-11,373	0,058	0,027
-402,482	-200,000	0,002	-0,034
-401,467	-200,000	-0,013	-0,156
-400,452	-29,617	-0,147	-0,060
-399,438	-96,800	0,081	0,015
-398,423	168,100	0,072	0,074
-397,409	62,650	0,133	0,095
-396,394	800,000	-0,021	-0,066
-395,379	-200,000	0,029	-0,132
-394,365	80,033	0,030	-0,023
-393,350	241,561	-0,142	0,170
-392,336	698,411	0,068	-0,128
-391,321	195,730	-0,041	0,044
-390,306	125,563	-0,039	-0,036
-389,292	-200,000	0,004	-0,081
-388,277	156,971	0,103	-0,102
-387,263	-200,000	-0,019	0,129
-386,248	53,009	0,064	0,044
-385,233	61,448	-0,032	0,023
-384,219	358,730	-0,038	-0,054
-383,204	349,540	-0,050	-0,071
-382,190	97,346	-0,122	0,100
-381,175	67,736	0,068	-0,049
-380,160	-200,000	-0,020	0,122
-379,146	800,000	0,048	0,109
-378,131	800,000	0,035	0,101
-377,117	-87,475	0,080	0,017
-376,102	97,932	-0,080	-0,066
-375,088	-200,000	-0,003	0,014
-374,073	725,165	0,013	-0,024
-373,058	-61,878	-0,078	-0,023
-372,044	-200,000	0,009	-0,060
-371,029	-200,000	0,016	0,094
-370,015	800,000	0,028	0,070
-369,000	136,095	-0,106	-0,099
-367,985	-200,000	-0,002	-0,057
-366,971	-200,000	-0,010	0,039
-365,956	-200,000	0,007	-0,076
-364,942	-200,000	0,002	-0,052
-363,927	652,480	0,024	0,044
-362,912	-46,479	0,108	0,038
-361,898	-150,762	-0,059	-0,003
-360,883	-200,000	0,020	-0,091
-359,869	68,254	0,101	0,074
-358,854	58,514	-0,022	-0,016
-357,839	-200,000	0,029	0,123
-356,825	800,000	0,057	0,118
-355,810	-31,325	0,054	0,022
-354,796	800,000	0,023	-0,060
-353,781	-200,000	0,001	-0,081
-352,766	-200,000	-0,031	-0,112
-351,752	-11,482	0,103	0,048
-350,737	326,116	0,070	-0,097
-349,723	27,318	0,086	0,052
-348,708	382,889	0,035	0,052
-347,693	7,732	0,083	-0,044
-346,679	-200,000	0,022	0,115
-345,664	800,000	0,030	0,064
-344,650	800,000	-0,015	-0,035
-343,635	325,752	0,051	0,070
-342,620	337,919	-0,031	0,044
-341,606	353,906	0,035	-0,049
-340,591	-128,912	-0,079	-0,008
-339,577	-200,000	-0,028	-0,200
-338,562	-200,000	-0,010	0,052
-337,548	87,276	-0,042	-0,033
-336,533	99,373	0,074	-0,061
-335,518	450,990	0,035	0,055
-334,504	-200,000	-0,019	0,080
-333,489	-163,565	-0,124	-0,004
-332,475	119,135	0,114	-0,101
-331,460	66,058	0,020	-0,014
-330,445	-109,251	0,015	-0,002
-329,431	98,794	-0,070	0,058
-328,416	342,796	0,114	0,159
-327,402	249,170	-0,039	0,047
-326,387	-200,000	0,001	0,111
-325,372	47,120	-0,076	0,051
-324,358	779,773	-0,047	-0,093
-323,343	88,145	0,086	0,068
-322,329	45,634	0,142	-0,094
-321,314	33,761	0,107	-0,066
-320,299	528,834	0,055	0,093
-319,285	-200,000	0,013	-0,053
-318,270	-157,103	-0,045	0,002
-317,256	308,570	0,091	-0,121
-316,241	-200,000	0,024	0,084
-315,226	-200,000	-0,011	-0,098
-314,212	-200,000	-0,019	0,092
-313,197	-200,000	-0,019	0,101
-312,183	-22,037	0,112	0,048
-311,168	176,894	0,073	0,075
-310,153	680,503	0,074	0,137
-309,139	-200,000	-0,031	-0,135
-308,124	-83,403	0,135	-0,031
-307,110	28,730	-0,061	0,037
-306,095	-200,000	-0,019	0,108
-305,080	356,723	0,060	0,086
-304,066	-64,204	-0,073	-0,021
-303,051	247,710	0,056	-0,067
-302,037	-12,239	-0,050	-0,023
-301,022	124,794	0,032	-0,029
-300,008	-90,737	-0,025	-0,005
-298,993	-104,843	0,051	0,008
-297,978	126,389	0,067	0,060
-296,964	-200,000	-0,014	-0,046
-295,949	215,049	-0,042	0,047
-294,935	416,804	0,050	-0,076
-293,920	-56,014	0,079	0,025
-292,905	65,383	0,067	0,048
-291,891	-200,000	0,019	0,073
-290,876	-200,000	-0,021	0,083
-289,862	-113,114	0,211	-0,029
-288,847	-44,080	0,134	-0,048
-287,832	138,489	-0,155	-0,145
-286,818	67,281	-0,023	0,017
-285,803	163,925	0,041	0,041
-284,789	-77,048	0,104	0,026
-283,774	-114,334	-0,071	-0,010
-282,759	800,000	-0,029	-0,080
-281,745	-97,071	-0,142	0,026
-280,730	-59,669	-0,053	-0,016
-279,716	-78,010	0,095	0,023
-278,701	-200,000	-0,031	-0,109
-277,686	-200,000	0,001	0,008
-276,672	-200,000	0,008	0,241
-275,657	760,403	0,052	0,100
-274,643	-200,000	-0,037	-0,217
-273,628	257,717	-0,068	0,083
-272,613	-200,000	-0,002	-0,095
-271,599	35,057	0,057	-0,035
-270,584	800,000	-0,055	0,112
-269,570	260,836	0,093	0,115
-268,555	-24,905	-0,042	-0,018
-267,540	18,745	0,044	0,025
-266,526	132,642	-0,028	-0,026
-265,511	800,000	-0,030	-0,069
-264,497	-200,000	-0,007	-0,078
-263,482	-200,000	0,026	0,086
-262,467	418,836	-0,020	0,030
-261,453	-200,000	-0,033	0,115
-260,438	281,983	-0,036	-0,046
-259,424	-131,615	0,117	0,011
-258,409	800,000	-0,065	-0,151
-257,395	8,879	-0,095	0,051
-256,380	-92,366	-0,075	0,015
-255,365	13,126	0,108	0,059
-254,351	32,094	0,047	0,029
-253,336	57,074	-0,097	-0,067
-252,322	-200,000	-0,004	-0,147
-251,307	-24,950	-0,143	-0,060
-250,292	800,000	-0,011	-0,028
-249,278	-200,000	-0,002	-0,045
-248,263	136,459	0,143	-0,133
-247,249	-200,000	-0,012	0,083
-246,234	4,825	-0,135	-0,070
-245,219	800,000	0,016	-0,039
-244,205	-152,329	-0,173	-0,009
-243,190	-200,000	-0,028	-0,134
-242,176	-200,000	0,026	0,118
-241,161	51,471	-0,017	-0,012
-240,146	27,491	0,087	0,052
-239,132	74,113	-0,107	-0,080
-238,117	14,354	-0,060	-0,033
-237,103	-200,000	0,006	-0,060
-236,088	800,000	0,019	-0,045
-235,073	-200,000	0,011	0,064
-234,059	800,000	0,076	0,185
-233,044	-200,000	-0,009	0,098
-232,030	65,243	-0,169	0,121
-231,015	128,293	0,141	-0,127
-230,000	65,333	-0,050	-0,036
-228,986	482,946	0,066	-0,108
-227,971	-200,000	-0,026	0,130
-226,957	-50,054	0,127	-0,043
-225,942	-200,000	-0,020	0,157
-224,927	800,000	0,042	0,111
-223,913	-200,000	-0,010	-0,183
-222,898	391,921	-0,027	-0,041
-221,884	14,649	0,013	0,007
-220,869	287,598	-0,011	0,014
-219,855	800,000	0,039	0,110
-218,840	148,990	0,062	-0,060
-217,825	58,137	-0,060	-0,042
-216,811	-116,562	-0,103	0,013
-215,796	-200,000	-0,033	-0,132
-214,782	-2,852	0,091	-0,045
-213,767	-200,000	-0,003	0,074
-212,752	-9,381	-0,068	0,032
-211,738	-200,000	0,043	0,171
-210,723	800,000	0,040	-0,111
-209,709	-71,556	0,112	0,029
-208,694	124,194	0,031	-0,027
-207,679	-31,356	-0,112	-0,044
-206,665	264,914	0,051	-0,064
-205,650	800,000	-0,030	-0,089
-204,636	530,354	0,029	0,048
-203,621	716,197	0,068	0,129
-202,606	-125,755	0,135	0,014
-201,592	89,076	-0,061	-0,048
-200,577	273,565	-0,113	-0,142
-199,563	-92,165	-0,052	0,010
-198,548	-76,191	-0,100	-0,025
-197,533	-190,913	-0,031	0,000
-196,519	-152,137	-0,089	0,005
-195,504	107,665	0,124	-0,105
-194,490	-34,120	-0,022	-0,008
-193,475	-120,934	0,164	-0,019
-192,460	663,300	-0,045	0,082
-191,446	-72,842	0,141	0,037
-190,431	-59,137	0,226	0,069
-189,417	463,110	-0,073	0,116
-188,402	-158,335	-0,048	0,002
-187,387	-131,074	0,082	0,008
-186,373	800,000	-0,057	-0,124
-185,358	308,336	-0,104	-0,138
-184,344	-83,503	-0,079	-0,018
-183,329	-200,000	-0,036	0,129
-182,315	328,563	-0,012	-0,016
-181,300	-200,000	-0,028	0,102
-180,285	189,824	0,072	-0,077
-179,271	343,632	-0,056	-0,077
-178,256	-130,056	0,168	0,016
-177,242	434,589	0,032	-0,049
-176,227	84,542	-0,060	0,046
-175,212	-200,000	0,021	0,152
-174,198	20,482	-0,197	0,112
-173,183	252,355	-0,069	0,083
-172,169	182,938	0,042	-0,044
-171,154	351,885	-0,023	-0,032
-170,139	297,794	0,067	0,087
-169,125	-200,000	-0,019	0,111
-168,110	-200,000	0,024	0,159
-167,096	-85,549	-0,032	-0,007
-166,081	-200,000	0,002	-0,082
-165,066	-200,000	-0,002	-0,181
-164,052	-200,000	0,023	-0,190
-163,037	331,105	0,084	-0,115
-162,023	-200,000	-0,008	-0,080
-161,008	-200,000	-0,035	-0,154
-159,993	-200,000	-0,025	-0,181
-158,979	233,186	-0,057	-0,067
-157,964	54,343	-0,061	-0,042
-156,950	619,261	-0,006	-0,011
-155,935	134,201	0,034	-0,031
-154,920	-200,000	0,014	0,073
-153,906	31,308	0,142	0,086
-152,891	-200,000	-0,003	-0,011
-151,877	-66,113	-0,155	0,044
-150,862	-109,960	0,113	0,017
-149,847	38,261	-0,077	-0,048
-148,833	-14,903	0,039	0,018
-147,818	-200,000	0,018	0,071
-146,804	-200,000	0,014	0,092
-145,789	-23,485	-0,039	-0,016
-144,775	-200,000	0,026	0,121
-143,760	-18,157	0,023	-0,010
-142,745	-200,000	-0,030	-0,182
-141,731	800,000	0,045	0,124
-140,716	800,000	0,035	-0,069
-139,702	-200,000	-0,021	0,090
-138,687	-105,645	0,191	0,030
-137,672	91,544	-0,107	-0,085
-136,658	-200,000	-0,003	0,104
-135,643	281,417	0,050	-0,063
-134,629	98,866	0,079	-0,065
-133,614	-26,175	-0,127	0,052
-132,599	-23,167	0,124	-0,052
-131,585	734,672	-0,026	-0,049
-130,570	-200,000	-0,022	0,073
-129,556	-80,230	-0,086	0,020
-128,541	800,000	-0,028	-0,062
-127,526	-72,951	0,119	0,031
-126,512	-200,000	0,011	0,065
-125,497	-47,829	-0,073	0,025
-124,483	-129,421	0,105	0,010
-123,468	343,692	-0,034	0,047
-122,453	-54,341	-0,100	-0,032
-121,439	412,302	-0,042	-0,063
-120,424	-200,000	0,001	-0,153
-119,410	737,188	0,043	0,081
-118,395	-153,012	0,119	-0,006
-117,380	355,678	0,042	0,059
-116,366	188,190	-0,084	-0,089
-115,351	800,000	0,064	-0,132
-114,337	54,796	-0,058	-0,040
-113,322	150,185	0,126	-0,121
-112,307	-200,000	-0,004	0,054
-111,293	-110,385	0,124	0,018
-110,278	800,000	-0,029	0,058
-109,264	800,000	-0,032	-0,068
-108,249	800,000	-0,010	-0,028
-107,234	800,000	-0,052	-0,116
-106,220	800,000	-0,036	-0,084
-105,205	-126,950	-0,037	-0,004
-104,191	-200,000	-0,018	0,075
-103,176	-111,770	-0,078	0,011
-102,162	75,544	0,085	0,063
-101,147	800,000	0,026	0,071
-100,132	-109,892	-0,048	0,007
-99,118	800,000	0,116	0,250
-98,103	-200,000	0,043	0,221
-97,089	231,873	-0,046	0,054
-96,074	-200,000	0,014	0,069
-95,059	-27,351	0,087	0,036
-94,045	-6,960	-0,051	0,024
-93,030	-39,161	0,041	-0,015
-92,016	-200,000	-0,016	-0,067
-91,001	137,651	-0,069	-0,063
-89,986	-121,146	-0,110	-0,013
-88,972	428,562	0,021	-0,033
-87,957	-200,000	-0,011	0,094
-86,943	-170,479	-0,129	0,003
-85,928	729,784	0,019	0,036
-84,913	238,879	0,029	0,034
-83,899	137,713	0,028	-0,026
-82,884	198,954	0,054	-0,058
-81,870	-83,278	-0,007	-0,002
-80,855	21,081	0,105	0,060
-79,840	349,481	0,096	0,134
-78,826	10,050	-0,185	-0,099
-77,811	-19,836	-0,106	-0,046
-76,797	199,382	0,091	-0,098
-75,782	-200,000	0,005	-0,111
-74,767	304,963	0,114	-0,150
-73,753	-200,000	-0,014	0,144
-72,738	13,668	-0,077	0,042
-71,724	-200,000	-0,032	-0,105
-70,709	22,039	-0,090	-0,052
-69,694	800,000	-0,036	-0,087
-68,680	381,556	-0,058	0,085
-67,665	29,180	0,035	0,021
-66,651	13,093	-0,067	-0,037
-65,636	-81,553	0,143	-0,033
-64,622	184,916	0,060	-0,063
-63,607	401,459	0,060	0,089
-62,592	476,360	0,044	-0,071
-61,578	800,000	-0,020	0,041
-60,563	800,000	0,053	-0,117
-59,549	709,707	0,092	0,172
-58,534	50,636	-2,015	-1,343
-57,519	477,085	-1,204	-1,929
-56,505	-200,000	-0,329	-4,400
-55,490	582,871	0,905	1,573
-54,476	800,000	5,057	11,418
-53,461	-200,000	21,791	343,873
-52,446	800,000	763,186	2338,738
-51,432	545,416	1660,895	2811,565
-50,417	71,074	1657,096	1210,526
-49,403	17,171	1530,298	853,984
-48,388	11,200	1454,631	782,940
-47,373	19,398	1446,215	817,631
-46,359	14,724	1435,166	789,182
-45,344	9,499	1431,263	762,175
-44,330	9,420	1429,261	760,704
-43,315	9,406	1427,418	759,627
-42,300	9,446	1425,681	758,862
-41,286	9,457	1424,559	758,285
-40,271	9,423	1423,192	757,369
-39,257	9,418	1422,009	756,682
-38,242	9,464	1420,935	756,300
-37,227	9,455	1419,893	755,673
-36,213	9,433	1418,683	754,898
-35,198	9,480	1417,249	754,321
-34,184	9,464	1416,561	753,854
-33,169	9,367	1415,284	752,687
-32,154	9,445	1414,076	752,380
-31,140	9,478	1412,654	751,748
-30,125	9,560	1411,487	751,482
-29,111	9,474	1410,642	750,601
-28,096	9,438	1409,444	749,764
-27,082	9,431	1408,050	748,959
-26,067	9,388	1407,171	748,261
-25,052	9,430	1406,056	747,835
-24,038	9,421	1405,125	747,268
-23,023	9,432	1404,089	746,741
-22,009	9,375	1403,264	746,007
-20,994	9,425	1402,077	745,579
-19,979	9,447	1401,180	745,171
-18,965	9,335	1400,100	744,049
-17,950	9,364	1399,183	743,664
-16,936	9,376	1398,417	743,287
-15,921	9,301	1397,550	742,446
-14,906	9,330	1396,380	741,930
-13,892	9,368	1395,648	741,690
-12,877	9,360	1394,787	741,163
-11,863	9,288	1394,201	740,488
-10,848	9,303	1393,032	739,910
-9,833	9,253	1392,040	739,121
-8,819	9,207	1391,195	738,431
-7,804	9,156	1390,530	737,811
-6,790	9,220	1389,358	737,458
-5,775	9,212	1388,324	736,840
-4,760	9,220	1387,165	736,236
-3,746	9,229	1386,541	735,917
-2,731	9,254	1385,545	735,472
-1,717	9,230	1384,703	734,888
-0,702	9,180	1382,978	733,710
0,313	13,344	1295,062	706,023
1,327	29,739	686,012	410,943
2,342	46,290	118,410	77,247
3,356	1,378	16,526	8,348
4,371	22,184	3,542	2,034
5,386	33,053	1,056	0,644
6,400	800,000	0,267	0,717
7,415	-39,709	-0,230	-0,084
8,429	49,829	-0,278	-0,184
9,444	-27,498	-0,368	-0,150
10,459	0,073	-0,291	-0,146
11,473	19,341	-0,455	-0,257
12,488	-13,719	-0,381	-0,173
13,502	93,660	-0,208	-0,166
14,517	198,437	-0,370	-0,399
15,531	314,480	-0,239	-0,318
16,546	80,211	-0,214	-0,162
17,561	56,687	-0,290	-0,198
18,575	-115,618	-0,138	-0,018
19,590	-38,368	-0,249	-0,092
20,604	197,544	-0,210	-0,226
21,619	35,710	-0,385	-0,238
22,634	63,258	-0,519	-0,365
23,648	40,564	-0,525	-0,332
24,663	168,069	-0,365	-0,365
25,677	72,254	-0,289	-0,211
26,692	277,891	-0,326	-0,409
27,707	200,724	-0,267	-0,289
28,721	35,408	-0,431	-0,266
29,736	313,399	-0,287	-0,380
30,750	30,411	-0,464	-0,278
31,765	10,280	-0,433	-0,231
32,780	144,858	-0,258	-0,242
33,794	66,861	-0,329	-0,236
34,809	127,640	-0,278	-0,249
35,823	11,010	-0,510	-0,273
36,838	249,907	-0,321	-0,384
37,853	154,573	-0,275	-0,266
38,867	250,850	-0,321	-0,384
39,882	268,249	-0,245	-0,303
40,896	2,211	-0,238	-0,121
41,911	114,124	-0,310	-0,265
42,926	181,513	-0,294	-0,305
43,940	758,536	-0,171	-0,326
44,955	13,279	-0,411	-0,223
45,969	18,587	-0,281	-0,157
46,984	254,979	-0,241	-0,291
47,999	88,763	-0,428	-0,334
49,013	-21,403	-0,385	-0,164
50,028	-82,642	-0,407	-0,092
51,042	55,606	-0,309	-0,210
52,057	-27,602	-0,433	-0,176
53,071	-49,550	-0,408	-0,136
54,086	-27,562	-0,440	-0,178
55,101	130,603	-0,376	-0,339
56,115	15,998	-0,354	-0,195
57,130	-5,545	-0,376	-0,180
58,144	22,423	-0,335	-0,191
59,159	69,501	-0,330	-0,238
60,174	-71,680	-0,400	-0,104
61,188	267,354	-0,288	-0,354
62,203	-17,696	-0,295	-0,129
63,217	-55,748	-0,528	-0,165
64,232	115,308	-0,296	-0,254
65,247	-53,542	-0,510	-0,163
66,261	-0,333	-0,404	-0,201
67,276	84,899	-0,363	-0,278
68,290	154,047	-0,215	-0,207
69,305	5,309	-0,375	-0,193
70,320	51,936	-0,217	-0,144
71,334	127,279	-0,113	-0,101
72,349	113,849	-0,363	-0,309
73,363	142,814	-0,311	-0,290
74,378	96,695	-0,332	-0,266
75,393	37,265	-0,324	-0,201
76,407	388,907	-0,169	-0,246
77,422	48,443	-0,365	-0,239
78,436	20,363	-0,287	-0,162
79,451	-11,855	-0,390	-0,179
80,466	101,202	-0,312	-0,254
81,480	64,933	-0,301	-0,212
82,495	69,910	-0,319	-0,230
83,509	319,239	-0,140	-0,187
84,524	101,838	-0,238	-0,194
85,539	22,445	-0,231	-0,132
86,553	53,625	-0,253	-0,170
87,568	-51,318	-0,216	-0,070
88,582	-28,560	-0,327	-0,131
89,597	92,647	-0,264	-0,208
90,611	80,534	-0,291	-0,219
91,626	800,000	-0,140	-0,275
92,641	103,809	-0,178	-0,147
93,655	-5,227	-0,345	-0,165
94,670	9,184	-0,308	-0,163
95,684	-54,166	-0,351	-0,111
96,699	109,932	-0,256	-0,215
97,714	48,044	-0,241	-0,157
98,728	52,113	-0,284	-0,189
99,743	-12,169	-0,415	-0,189
100,757	52,263	-0,266	-0,177
101,772	165,644	-0,208	-0,206
102,787	17,893	-0,269	-0,149
103,801	79,744	-0,379	-0,284
104,816	85,958	-0,244	-0,188
105,830	-48,506	-0,229	-0,076
106,845	207,436	-0,171	-0,186
107,860	140,814	-0,291	-0,269
108,874	208,134	-0,191	-0,208
109,889	90,331	-0,317	-0,248
110,903	-18,125	-0,270	-0,118
111,918	14,675	-0,328	-0,179
112,933	60,471	-0,302	-0,209
113,947	-41,394	-0,227	-0,081
114,962	219,023	-0,164	-0,183
115,976	512,763	-0,195	-0,319
116,991	16,553	-0,237	-0,131
118,006	35,932	-0,251	-0,154
119,020	126,715	-0,275	-0,243
120,035	-30,569	-0,137	0,054
121,049	6,586	-0,297	-0,154
122,064	10,096	-0,340	-0,180
123,079	125,758	-0,172	-0,151
124,093	9,145	-0,299	-0,157
125,108	-42,767	-0,414	-0,146
126,122	36,681	-0,280	-0,172
127,137	800,000	-0,118	-0,282
128,151	226,930	-0,178	-0,202
129,166	64,064	-0,347	-0,243
130,181	45,457	-0,200	-0,128
131,195	-95,350	-0,219	-0,041
132,210	17,692	-0,316	-0,175
133,224	-41,957	-0,278	-0,099
134,239	24,814	-0,212	-0,122
135,254	-0,556	-0,185	-0,091
136,268	67,164	-0,088	-0,063
137,283	74,390	-0,347	-0,253
138,297	-48,005	-0,222	-0,074
139,312	230,045	-0,272	-0,310
140,327	33,947	-0,354	-0,214
141,341	696,760	-0,121	-0,223
142,356	-14,993	-0,219	-0,097
143,370	397,400	-0,190	-0,277
144,385	97,964	-0,242	-0,194
145,400	-36,207	-0,254	-0,095
146,414	114,598	-0,289	-0,245
147,429	-81,717	-0,225	-0,051
148,443	800,000	-0,096	-0,187
149,458	247,807	-0,108	-0,127
150,473	117,398	-0,244	-0,208
151,487	380,471	-0,113	-0,162
152,502	70,177	-0,266	-0,191
153,516	742,666	-0,127	-0,240
154,531	99,958	-0,251	-0,202
155,546	-0,355	-0,267	-0,132
156,560	-133,805	-0,286	-0,024
157,575	144,613	-0,207	-0,192
158,589	450,099	-0,195	-0,300
159,604	261,908	-0,190	-0,230
160,619	-9,779	-0,344	-0,159
161,633	346,223	-0,222	-0,305
162,648	24,567	-0,337	-0,193
163,662	576,137	-0,149	-0,253
164,677	11,636	-0,223	-0,118
165,692	296,953	-0,187	-0,239
166,706	233,223	-0,163	-0,186
167,721	35,651	-0,329	-0,200
168,735	236,622	-0,157	-0,180
169,750	192,684	-0,234	-0,246
170,764	39,657	-0,200	-0,124
171,779	-200,000	-0,020	-0,115
172,794	31,838	-0,244	-0,145
173,808	-11,866	-0,272	-0,123
174,823	226,534	-0,259	-0,292
175,837	119,437	-0,281	-0,242
176,852	101,857	-0,174	-0,141
177,867	683,209	-0,128	-0,233
178,881	200,690	-0,075	-0,080
179,896	-130,644	-0,253	-0,023
180,910	73,245	-0,307	-0,223
181,925	100,424	-0,214	-0,173
182,940	156,174	-0,220	-0,211
183,954	93,624	-0,199	-0,156
184,969	74,387	-0,221	-0,161
185,983	-1,348	-0,194	-0,095
186,998	-66,494	-0,208	-0,057
188,013	238,731	-0,076	-0,088
189,027	156,996	-0,152	-0,146
190,042	-38,846	-0,317	-0,115
191,056	547,646	-0,202	-0,337
192,071	167,414	-0,112	-0,110
193,086	175,699	-0,170	-0,171
194,100	800,000	-0,082	-0,199
195,115	16,495	-0,197	-0,107
196,129	416,900	-0,123	-0,183
197,144	16,887	-0,266	-0,145
198,159	-53,739	-0,191	-0,060
199,173	192,559	-0,241	-0,252
200,188	180,157	-0,226	-0,229
201,202	-14,319	-0,224	-0,100
202,217	-52,177	-0,266	-0,085
203,232	10,649	-0,205	-0,108
204,246	147,407	-0,225	-0,210
205,261	66,165	-0,174	-0,122
206,275	27,721	-0,201	-0,117
207,290	800,000	-0,094	-0,185
208,304	-20,301	-0,250	-0,106
209,319	419,599	-0,136	-0,203
210,334	255,742	-0,129	-0,153
211,348	125,420	-0,281	-0,246
212,363	-11,633	-0,131	-0,060
213,377	37,588	-0,163	-0,100
214,392	-22,345	-0,155	-0,065
215,407	705,985	-0,104	-0,191
216,421	156,572	-0,123	-0,118
217,436	208,459	-0,185	-0,201
218,450	18,122	-0,231	-0,127
219,465	217,371	-0,225	-0,248
220,480	-79,513	-0,241	-0,056
221,494	132,865	-0,183	-0,164
222,509	800,000	-0,064	-0,128
223,523	244,643	-0,203	-0,236
224,538	404,701	-0,132	-0,193
225,553	115,281	-0,163	-0,138
226,567	426,993	-0,163	-0,243
227,582	46,780	-0,269	-0,172
228,596	42,094	-0,118	-0,074
229,611	167,726	-0,183	-0,180
230,626	-26,421	-0,216	-0,087
231,640	-42,149	-0,221	-0,078
232,655	-56,601	-0,249	-0,076
233,669	-9,327	-0,353	-0,162
234,684	-50,628	-0,172	-0,056
235,699	665,853	-0,193	-0,345
236,713	-6,279	-0,175	0,082
237,728	800,000	-0,040	-0,101
238,742	159,968	-0,176	-0,170
239,757	207,388	-0,170	-0,183
240,772	28,614	-0,260	-0,152
241,786	74,115	-0,300	-0,218
242,801	237,918	-0,123	-0,141
243,815	106,694	-0,067	-0,055
244,830	-8,790	-0,264	-0,122
245,844	91,294	-0,151	-0,117
246,859	-9,816	-0,122	-0,056
247,874	601,849	-0,143	-0,246
248,888	94,033	-0,231	-0,181
249,903	217,929	-0,109	-0,121
250,917	-200,000	-0,064	-0,208
251,932	734,406	-0,112	-0,208
252,947	1,701	-0,189	-0,094
253,961	140,820	-0,164	-0,149
254,976	139,884	-0,205	-0,187
255,990	182,702	-0,111	-0,113
257,005	247,410	-0,205	-0,239
258,020	178,755	-0,071	-0,071
259,034	385,028	-0,096	-0,137
260,049	-54,074	-0,184	-0,057
261,063	-84,155	-0,177	-0,038
262,078	35,309	-0,263	-0,159
263,093	34,991	-0,134	-0,080
264,107	-86,905	-0,102	-0,021
265,122	166,197	-0,149	-0,146
266,136	-41,400	-0,231	-0,082
267,151	-6,173	-0,213	-0,100
268,166	-17,531	-0,207	-0,089
269,180	85,312	-0,223	-0,168
270,195	-24,397	-0,247	-0,101
271,209	153,533	-0,198	-0,187
272,224	351,115	-0,139	-0,190
273,239	-151,282	-0,126	-0,006
274,253	-50,289	-0,240	-0,078
275,268	-200,000	-0,044	-0,189
276,282	-200,000	-0,070	-0,215
277,297	162,560	-0,154	-0,149
278,312	71,344	-0,151	-0,108
279,326	106,275	-0,074	-0,060
280,341	-200,000	-0,037	-0,144
281,355	-2,553	-0,152	-0,073
282,370	133,517	-0,248	-0,221
283,384	800,000	-0,073	-0,203
284,399	368,048	-0,143	-0,199
285,414	96,068	-0,216	-0,170
286,428	510,748	-0,046	-0,073
287,443	-52,818	-0,096	-0,030
288,457	-200,000	-0,099	0,000
289,472	-43,525	-0,282	-0,097
290,487	-20,217	-0,273	-0,115
291,501	396,959	-0,151	-0,218
292,516	-34,715	-0,187	-0,070
293,530	800,000	-0,062	-0,155
294,545	-135,713	-0,139	-0,011
295,560	-122,734	-0,005	-0,001
296,574	-77,547	-0,191	-0,045
297,589	-41,141	-0,167	-0,059
298,603	529,955	-0,074	-0,121
299,618	-18,987	-0,244	-0,104
300,633	-200,000	-0,001	-0,104
301,647	76,672	-0,086	0,063
302,662	81,704	-0,107	0,080
303,676	-11,529	-0,122	-0,055
304,691	-66,109	-0,346	-0,094
305,706	392,957	-0,081	-0,117
306,720	-36,599	-0,135	-0,050
307,735	117,722	-0,174	-0,147
308,749	282,717	-0,120	-0,148
309,764	292,350	-0,044	-0,056
310,779	-120,451	-0,152	-0,018
311,793	378,822	-0,155	-0,218
312,808	800,000	-0,116	-0,223
313,822	127,394	-0,227	-0,197
314,837	192,625	0,045	-0,047
315,852	74,371	-0,221	-0,159
316,866	800,000	-0,140	-0,297
317,881	-200,000	0,002	-0,067
318,895	800,000	-0,077	-0,150
319,910	659,374	-0,157	-0,278
320,925	800,000	-0,041	-0,119
321,939	-118,845	-0,112	0,013
322,954	800,000	-0,061	-0,179
323,968	800,000	-0,025	-0,071
324,983	159,267	-0,096	-0,092
325,997	-146,816	-0,134	0,008
327,012	-23,951	-0,149	-0,061
328,027	684,521	-0,137	-0,245
329,041	50,131	-0,130	-0,084
330,056	800,000	-0,096	-0,248
331,070	174,439	-0,098	-0,097
332,085	116,715	-0,166	-0,140
333,100	-74,771	-0,089	-0,022
334,114	102,571	-0,124	-0,100
335,129	58,235	-0,133	-0,089
336,143	455,395	-0,166	-0,253
337,158	245,801	0,030	0,034
338,173	-192,246	-0,033	-0,000
339,187	112,668	-0,087	-0,072
340,202	0,094	-0,103	0,050
341,216	161,247	-0,169	-0,162
342,231	233,648	-0,105	-0,118
343,246	-74,916	-0,166	-0,041
344,260	-102,300	-0,118	-0,019
345,275	291,868	0,020	0,025
346,289	216,961	-0,055	-0,060
347,304	-119,693	-0,114	0,013
348,319	-63,023	-0,049	0,014
349,333	-53,657	-0,158	-0,049
350,348	118,269	-0,149	-0,125
351,362	16,313	-0,104	0,056
352,377	-66,414	-0,100	-0,027
353,392	-91,137	-0,244	0,048
354,406	800,000	-0,062	-0,137
355,421	209,337	1305,217	1399,701
356,435	161,119	1464,741	1400,181
