DTS Sentinel unit serial number:	SN410029Multiplexer serial number:	ORYXHardware model number:	OX2-SRSoftware version number:	ORYX F/W v4,00 Oryx Data Collector v3.7.2.0data status	okinstallation	B3 Nyhavnadifferential loss correction	single-endedforward channel	channel 1reverse channel	N/Adate	2023/12/03time	23:42:30forward acquisition time	300,00reverse acquisition time	0,00gamma	499,1914k internal	0,3202k external	0,3202temperature offset calibration	1,0000default loss term (dB/km)	0,3820temperature slope calibration	1,0000multiplexer offset coefficient	1,0000multiplexer slope coefficient	1,0000fibre end	0,00T internal ref (°C)	12,86T ext. ref 1 (°C)	-2,44T ext. ref 2 (°C)	-2,45length (m)	temperature (°C)	Stokes	anti-Stokes-744,400	177,479	-0,210	-0,223
-743,385	-200,000	-0,048	0,188
-742,371	318,144	-0,172	-0,238
-741,356	-200,000	0,016	0,366
-740,342	266,943	-0,183	-0,233
-739,327	800,000	-0,103	0,324
-738,312	768,839	-0,120	-0,239
-737,298	800,000	-0,090	0,265
-736,283	-26,781	-0,235	-0,099
-735,269	-200,000	0,100	0,324
-734,254	201,392	-0,168	-0,189
-733,239	6,137	-0,203	0,109
-732,225	-200,000	-0,024	-0,127
-731,210	34,957	0,228	0,145
-730,196	-0,142	-0,056	-0,029
-729,181	110,321	0,104	-0,091
-728,167	-73,769	-0,100	-0,026
-727,152	-200,000	0,001	-0,034
-726,137	64,708	-0,086	-0,063
-725,123	-200,000	0,007	0,023
-724,108	-25,901	-0,136	-0,058
-723,094	-122,625	0,008	-0,001
-722,079	272,605	0,032	0,041
-721,064	-200,000	0,015	-0,235
-720,050	378,759	0,035	-0,052
-719,035	0,215	-0,081	-0,042
-718,021	-200,000	-0,002	0,042
-717,006	-54,380	-0,165	0,054
-715,991	-106,844	-0,137	-0,022
-714,977	65,894	-0,094	-0,069
-713,962	800,000	-0,017	-0,044
-712,948	-200,000	0,007	0,132
-711,933	-106,233	0,057	-0,009
-710,918	102,601	-0,112	0,095
-709,904	340,800	-0,074	-0,105
-708,889	-56,567	-0,046	-0,015
-707,875	-200,000	-0,028	0,128
-706,860	381,919	-0,085	0,127
-705,845	-200,000	0,009	-0,043
-704,831	232,008	0,071	-0,084
-703,816	-56,732	-0,119	-0,038
-702,802	-200,000	0,000	0,021
-701,787	-46,578	-0,144	-0,051
-700,772	-200,000	0,013	-0,055
-699,758	389,306	-0,027	-0,040
-698,743	-74,080	-0,107	0,028
-697,729	-200,000	0,002	0,092
-696,714	315,251	0,008	0,011
-695,699	800,000	0,019	-0,056
-694,685	-96,009	-0,095	-0,018
-693,670	-200,000	0,001	-0,053
-692,656	433,971	0,053	-0,084
-691,641	800,000	-0,017	-0,046
-690,627	-7,325	-0,082	-0,040
-689,612	312,654	-0,105	0,143
-688,597	239,220	0,012	-0,014
-687,583	44,965	-0,174	-0,116
-686,568	-172,696	-0,111	0,002
-685,554	153,791	0,033	0,033
-684,539	800,000	-0,048	0,112
-683,524	-200,000	-0,026	-0,105
-682,510	-161,266	0,058	0,002
-681,495	-200,000	0,005	0,026
-680,481	67,041	0,069	-0,051
-679,466	800,000	0,025	-0,067
-678,451	200,587	-0,013	-0,014
-677,437	-115,148	0,123	0,017
-676,422	243,252	0,025	0,030
-675,408	43,703	-0,078	0,052
-674,393	-14,442	-0,112	0,052
-673,378	473,141	-0,060	-0,098
-672,364	77,451	-0,075	-0,058
-671,349	210,006	-0,026	-0,030
-670,335	147,642	-0,074	-0,072
-669,320	384,859	0,032	-0,048
-668,305	72,638	-0,042	-0,032
-667,291	0,478	0,016	-0,008
-666,276	-43,882	-0,124	0,045
-665,262	-89,886	-0,050	-0,011
-664,247	-200,000	0,001	-0,007
-663,232	333,923	0,038	-0,054
-662,218	-91,734	-0,090	0,018
-661,203	-200,000	-0,003	-0,052
-660,189	-0,508	-0,112	-0,058
-659,174	8,319	-0,150	-0,082
-658,159	141,439	0,023	0,022
-657,145	-92,564	-0,135	-0,027
-656,130	133,363	-0,037	-0,034
-655,116	-200,000	-0,007	-0,036
-654,101	-120,111	0,125	-0,015
-653,086	-133,449	-0,031	0,003
-652,072	-200,000	0,018	-0,057
-651,057	-59,269	-0,094	-0,029
-650,043	-200,000	-0,005	0,087
-649,028	-200,000	-0,002	-0,042
-648,014	217,864	-0,066	0,077
-646,999	-200,000	0,005	0,037
-645,984	-200,000	0,004	-0,103
-644,970	184,340	0,009	0,010
-643,955	-47,073	-0,049	-0,017
-642,941	83,111	-0,078	-0,061
-641,926	345,358	-0,037	0,052
-640,911	-93,600	-0,065	0,013
-639,897	-99,214	0,084	-0,015
-638,882	18,631	-0,037	-0,022
-637,868	-20,404	-0,117	-0,052
-636,853	174,132	-0,093	-0,097
-635,838	800,000	-0,019	0,052
-634,824	192,498	-0,090	-0,098
-633,809	800,000	0,062	0,142
-632,795	-113,730	0,076	0,011
-631,780	636,642	0,038	-0,070
-630,765	-130,720	0,037	0,004
-629,751	800,000	0,070	-0,143
-628,736	-136,997	-0,044	0,004
-627,722	62,228	-0,065	-0,047
-626,707	800,000	0,060	-0,122
-625,692	211,120	-0,077	0,087
-624,678	-200,000	-0,025	0,085
-623,663	800,000	-0,031	-0,063
-622,649	-140,713	-0,102	0,008
-621,634	-62,940	-0,159	0,047
-620,619	134,568	-0,017	0,016
-619,605	-28,184	-0,152	0,063
-618,590	-12,351	-0,058	-0,027
-617,576	-70,922	-0,076	0,021
-616,561	337,768	0,034	-0,048
-615,546	78,478	-0,100	-0,077
-614,532	-97,200	-0,089	0,017
-613,517	548,404	-0,072	-0,125
-612,503	-16,257	0,069	-0,032
-611,488	267,861	0,049	0,062
-610,474	800,000	-0,076	0,217
-609,459	-90,239	0,056	0,012
-608,444	-47,333	0,072	0,025
-607,430	-200,000	0,002	-0,035
-606,415	-200,000	0,015	-0,056
-605,401	-41,829	0,144	-0,053
-604,386	429,007	0,068	-0,106
-603,371	-200,000	-0,017	0,108
-602,357	564,172	-0,070	0,123
-601,342	-139,942	0,185	-0,014
-600,328	800,000	-0,048	-0,105
-599,313	-139,258	-0,078	-0,006
-598,298	145,165	-0,136	-0,132
-597,284	186,703	0,097	0,105
-596,269	109,845	0,022	0,019
-595,255	38,488	-0,081	0,052
-594,240	-9,335	0,057	0,027
-593,225	-200,000	-0,014	-0,059
-592,211	-200,000	0,002	-0,121
-591,196	24,197	0,094	-0,056
-590,182	43,952	0,068	0,045
-589,167	-126,515	0,114	-0,012
-588,152	271,280	-0,055	0,070
-587,138	214,700	-0,025	-0,028
-586,123	-108,911	-0,053	0,008
-585,109	68,221	0,052	-0,039
-584,094	35,889	0,027	0,017
-583,079	-81,903	0,129	0,030
-582,065	677,690	-0,050	-0,095
-581,050	-200,000	-0,003	-0,050
-580,036	-100,894	0,034	-0,006
-579,021	800,000	-0,058	-0,175
-578,006	-200,000	-0,004	-0,110
-576,992	-157,142	-0,008	-0,000
-575,977	533,691	-0,056	-0,096
-574,963	2,567	0,023	0,012
-573,948	-200,000	0,012	0,076
-572,934	-138,634	0,033	-0,003
-571,919	-73,397	-0,096	-0,025
-570,904	800,000	-0,032	-0,096
-569,890	-45,691	-0,057	0,020
-568,875	-200,000	0,026	-0,095
-567,861	-200,000	0,006	0,112
-566,846	-200,000	-0,004	0,058
-565,831	-200,000	-0,010	0,034
-564,817	800,000	-0,028	-0,086
-563,802	-200,000	0,015	-0,174
-562,788	598,537	-0,036	-0,065
-561,773	800,000	0,057	0,137
-560,758	272,037	-0,039	-0,050
-559,744	800,000	-0,045	0,135
-558,729	-60,417	0,006	-0,002
-557,715	52,290	-0,067	0,046
-556,700	-93,402	-0,062	-0,012
-555,685	-55,799	-0,139	0,044
-554,671	800,000	0,080	0,164
-553,656	-1,559	0,107	0,054
-552,642	36,076	-0,080	-0,050
-551,627	22,764	0,098	0,058
-550,612	642,051	-0,047	-0,086
-549,598	129,624	0,071	0,065
-548,583	-105,534	0,037	0,006
-547,569	-122,579	0,044	0,005
-546,554	75,396	-0,053	-0,040
-545,539	-200,000	-0,015	0,066
-544,525	-200,000	-0,017	0,066
-543,510	219,602	0,008	-0,009
-542,496	-50,256	-0,086	0,029
-541,481	262,519	0,032	-0,040
-540,466	-107,350	-0,057	-0,009
-539,452	-32,394	-0,142	-0,057
-538,437	315,126	0,044	0,061
-537,423	800,000	-0,034	0,089
-536,408	632,927	-0,045	-0,082
-535,393	177,509	-0,064	-0,067
-534,379	-120,756	-0,115	0,014
-533,364	-200,000	-0,097	0,000
-532,350	800,000	0,016	-0,050
-531,335	406,725	0,045	-0,069
-530,321	201,756	-0,070	0,078
-529,306	800,000	-0,064	-0,185
-528,291	782,008	0,013	0,026
-527,277	-200,000	-0,012	-0,044
-526,262	-200,000	-0,005	0,035
-525,248	-79,344	-0,085	0,021
-524,233	-200,000	-0,013	0,071
-523,218	-118,040	-0,122	-0,015
-522,204	-10,977	0,098	-0,047
-521,189	346,309	0,039	0,055
-520,175	209,089	-0,078	-0,089
-519,160	-104,034	0,118	-0,020
-518,145	-154,963	0,127	0,006
-517,131	-68,393	0,072	0,020
-516,116	-200,000	-0,011	0,071
-515,102	62,853	0,022	0,016
-514,087	800,000	-0,096	-0,249
-513,072	-93,299	0,037	-0,007
-512,058	237,533	-0,071	-0,085
-511,043	471,059	0,040	0,064
-510,029	-14,942	0,095	-0,044
-509,014	-27,566	0,152	0,063
-507,999	800,000	-0,060	0,134
-506,985	185,263	-0,083	-0,089
-505,970	-145,827	-0,149	-0,009
-504,956	-185,363	0,044	-0,000
-503,941	-56,854	0,048	0,015
-502,926	126,980	0,098	0,089
-501,912	-200,000	0,007	0,123
-500,897	-68,435	-0,070	0,019
-499,883	138,030	0,123	-0,116
-498,868	137,397	0,088	-0,083
-497,853	244,876	0,030	-0,036
-496,839	110,885	-0,029	-0,025
-495,824	64,005	0,030	-0,022
-494,810	335,619	0,073	0,103
-493,795	-112,489	0,080	0,011
-492,781	-10,460	-0,096	0,046
-491,766	347,350	0,058	-0,082
-490,751	-93,485	0,037	0,007
-489,737	-105,444	0,047	0,008
-488,722	-200,000	0,018	0,094
-487,708	-200,000	-0,001	-0,053
-486,693	-73,159	-0,029	-0,008
-485,678	31,371	-0,085	-0,053
-484,664	-87,077	0,094	-0,020
-483,649	-56,650	-0,102	0,032
-482,635	-23,937	-0,118	0,051
-481,620	97,609	0,088	0,072
-480,605	191,853	0,088	0,096
-479,591	177,530	-0,020	0,021
-478,576	-200,000	-0,032	0,177
-477,562	-200,000	-0,013	-0,103
-476,547	800,000	-0,057	-0,123
-475,532	-20,254	-0,066	-0,029
-474,518	-200,000	0,002	-0,069
-473,503	800,000	0,020	0,054
-472,489	-24,220	0,103	-0,044
-471,474	800,000	-0,040	-0,124
-470,459	87,902	-0,053	-0,043
-469,445	-14,220	-0,135	-0,063
-468,430	-62,810	-0,073	-0,022
-467,416	-200,000	-0,003	0,122
-466,401	93,939	0,115	0,094
-465,386	-59,271	-0,062	-0,019
-464,372	140,740	0,034	0,032
-463,357	-200,000	0,013	-0,082
-462,343	-200,000	0,003	-0,149
-461,328	-21,973	0,069	-0,030
-460,313	-200,000	0,000	-0,011
-459,299	346,090	0,067	0,095
-458,284	-20,153	0,154	0,068
-457,270	800,000	-0,042	0,094
-456,255	800,000	-0,037	0,081
-455,241	20,142	0,038	-0,022
-454,226	-177,931	-0,119	-0,002
-453,211	-200,000	-0,011	0,064
-452,197	627,120	-0,032	0,058
-451,182	36,545	0,093	-0,059
-450,168	543,936	0,022	0,039
-449,153	-200,000	0,008	0,123
-448,138	111,522	-0,042	0,037
-447,124	-200,000	-0,025	0,112
-446,109	-101,503	-0,093	-0,016
-445,095	98,355	0,059	0,049
-444,080	-200,000	0,011	0,072
-443,065	481,401	-0,035	0,057
-442,051	-131,626	-0,033	-0,003
-441,036	21,475	-0,068	-0,040
-440,022	293,260	-0,038	-0,050
-439,007	-6,382	-0,082	0,040
-437,992	-94,640	0,146	0,028
-436,978	-6,584	0,070	-0,034
-435,963	-84,746	-0,037	-0,008
-434,949	-200,000	-0,016	0,065
-433,934	-200,000	-0,016	-0,052
-432,919	216,538	-0,076	-0,087
-431,905	251,184	0,084	0,102
-430,890	-34,877	-0,037	0,015
-429,876	39,777	0,080	0,051
-428,861	28,377	-0,015	-0,009
-427,846	-27,981	-0,156	-0,064
-426,832	-200,000	0,000	-0,126
-425,817	143,554	-0,041	0,039
-424,803	-200,000	0,014	0,074
-423,788	269,664	0,048	0,060
-422,773	17,391	-0,076	0,043
-421,759	141,440	0,065	0,062
-420,744	-200,000	0,016	-0,079
-419,730	-185,420	0,046	0,000
-418,715	413,445	0,024	0,037
-417,701	-40,788	-0,047	0,017
-416,686	-81,263	0,159	-0,037
-415,671	13,735	0,084	-0,047
-414,657	43,771	0,089	0,058
-413,642	-200,000	0,009	-0,074
-412,628	-200,000	-0,014	-0,061
-411,613	800,000	-0,051	-0,114
-410,598	31,648	0,034	0,021
-409,584	800,000	0,006	0,017
-408,569	-115,502	-0,092	0,012
-407,555	-93,506	0,088	-0,017
-406,540	-24,739	0,130	-0,055
-405,525	800,000	0,027	-0,071
-404,511	-200,000	0,006	-0,133
-403,496	-9,507	-0,075	-0,036
-402,482	52,292	-0,042	0,029
-401,467	302,501	0,085	0,114
-400,452	157,995	-0,083	0,082
-399,438	187,564	0,068	0,073
-398,423	-96,302	0,022	0,004
-397,409	-200,000	-0,012	-0,231
-396,394	-200,000	0,025	0,099
-395,379	-200,000	0,042	-0,159
-394,365	-200,000	-0,004	-0,072
-393,350	65,117	0,041	0,029
-392,336	764,927	0,097	0,190
-391,321	302,125	-0,021	-0,029
-390,306	82,245	0,042	-0,033
-389,292	119,760	-0,096	-0,085
-388,277	-23,619	-0,030	0,013
-387,263	-120,865	0,218	-0,026
-386,248	100,264	0,125	0,104
-385,233	-85,988	0,117	0,026
-384,219	-40,934	0,135	0,050
-383,204	275,070	-0,151	-0,192
-382,190	-200,000	-0,021	0,116
-381,175	-30,598	0,061	-0,025
-380,160	-76,832	0,100	0,025
-379,146	32,145	0,092	0,057
-378,131	114,480	-0,035	0,031
-377,117	738,829	-0,039	0,075
-376,102	118,090	-0,092	0,082
-375,088	800,000	-0,032	0,063
-374,073	-31,630	0,018	0,007
-373,058	-200,000	-0,005	0,059
-372,044	800,000	0,038	0,096
-371,029	264,760	0,054	0,067
-370,015	800,000	0,040	0,110
-369,000	752,515	-0,118	-0,229
-367,985	800,000	0,026	-0,074
-366,971	19,744	-0,168	-0,097
-365,956	368,630	0,028	-0,040
-364,942	53,558	0,162	0,111
-363,927	182,513	0,084	-0,089
-362,912	125,195	0,045	-0,041
-361,898	800,000	-0,044	-0,112
-360,883	-178,124	0,023	0,000
-359,869	-200,000	0,032	-0,133
-358,854	100,774	-0,046	-0,038
-357,839	-36,642	0,059	-0,023
-356,825	-200,000	0,006	0,107
-355,810	-200,000	-0,062	0,197
-354,796	-129,230	0,054	0,005
-353,781	8,819	-0,054	0,029
-352,766	800,000	0,007	-0,018
-351,752	-102,238	0,096	0,016
-350,737	217,453	0,040	0,046
-349,723	128,716	0,105	0,096
-348,708	285,208	0,038	0,049
-347,693	-88,268	0,059	0,013
-346,679	-96,116	-0,039	0,007
-345,664	-200,000	0,011	0,097
-344,650	-200,000	0,007	0,060
-343,635	-200,000	0,007	0,062
-342,620	800,000	-0,096	0,196
-341,606	165,351	-0,073	0,074
-340,591	72,711	-0,036	-0,027
-339,577	237,175	-0,054	-0,064
-338,562	-9,138	-0,046	0,022
-337,548	-200,000	-0,010	0,091
-336,533	-54,117	0,067	0,022
-335,518	-200,000	-0,017	0,057
-334,504	800,000	-0,049	-0,101
-333,489	800,000	0,018	0,052
-332,475	249,629	-0,069	-0,084
-331,460	425,397	-0,052	-0,081
-330,445	-44,190	-0,023	-0,008
-329,431	76,446	-0,082	0,062
-328,416	117,543	0,110	0,097
-327,402	-22,235	-0,060	-0,026
-326,387	79,355	-0,033	-0,025
-325,372	-140,331	0,098	-0,007
-324,358	800,000	-0,047	-0,094
-323,343	-200,000	0,025	0,082
-322,329	-47,416	-0,097	0,033
-321,314	-200,000	-0,011	0,045
-320,299	-17,875	0,116	0,052
-319,285	-89,862	0,051	-0,011
-318,270	-200,000	-0,021	-0,140
-317,256	-200,000	-0,033	-0,160
-316,241	800,000	-0,034	-0,093
-315,226	-178,493	0,086	0,001
-314,212	224,718	0,044	0,051
-313,197	85,213	0,108	0,085
-312,183	-32,726	-0,056	0,022
-311,168	-50,092	-0,083	-0,028
-310,153	276,910	0,066	0,084
-309,139	33,414	0,071	0,044
-308,124	-48,363	0,053	0,018
-307,110	800,000	0,027	-0,057
-306,095	-18,832	0,075	0,033
-305,080	276,032	0,005	0,007
-304,066	227,422	-0,054	-0,062
-303,051	800,000	0,031	-0,064
-302,037	800,000	-0,043	-0,090
-301,022	-61,735	-0,085	0,025
-300,008	275,015	0,034	-0,043
-298,993	236,928	-0,041	0,048
-297,978	800,000	0,030	0,068
-296,964	321,124	0,048	0,065
-295,949	287,292	-0,145	0,187
-294,935	57,860	-0,165	0,115
-293,920	800,000	-0,011	0,028
-292,905	-85,602	0,093	0,020
-291,891	360,204	0,044	0,063
-290,876	800,000	-0,072	-0,142
-289,862	56,979	-0,052	-0,036
-288,847	9,730	-0,169	-0,091
-287,832	-200,000	0,000	-0,016
-286,818	1,260	0,089	-0,046
-285,803	34,436	0,054	0,034
-284,789	140,895	-0,040	-0,037
-283,774	-81,102	-0,168	0,039
-282,759	-200,000	-0,004	0,044
-281,745	-39,282	0,134	0,050
-280,730	-200,000	0,003	-0,074
-279,716	-97,018	-0,147	0,027
-278,701	-148,324	0,060	0,003
-277,686	-96,087	0,130	-0,024
-276,672	275,786	0,047	0,060
-275,657	-1,557	0,034	0,017
-274,643	311,546	-0,018	0,024
-273,628	-178,618	-0,070	-0,001
-272,613	48,616	-0,066	0,044
-271,599	323,267	-0,032	-0,043
-270,584	800,000	-0,045	0,138
-269,570	-50,048	0,139	0,047
-268,555	-200,000	-0,003	0,018
-267,540	-200,000	0,002	-0,104
-266,526	479,253	0,039	-0,063
-265,511	-78,813	0,107	0,026
-264,497	317,261	-0,069	-0,093
-263,482	541,369	-0,054	-0,093
-262,467	800,000	-0,048	0,133
-261,453	-118,399	0,113	-0,014
-260,438	601,293	-0,081	-0,143
-259,424	146,889	0,042	-0,041
-258,409	-9,427	0,064	-0,030
-257,395	-200,000	0,021	0,082
-256,380	34,655	-0,058	0,036
-255,365	551,468	-0,041	0,071
-254,351	-131,710	0,130	0,012
-253,336	-200,000	-0,011	-0,128
-252,322	-200,000	0,025	-0,165
-251,307	-200,000	0,005	-0,027
-250,292	210,812	0,078	-0,088
-249,278	-200,000	-0,013	0,065
-248,263	-70,168	0,100	0,027
-247,249	316,050	0,011	-0,014
-246,234	170,568	-0,031	0,031
-245,219	-110,108	0,123	0,018
-244,205	-200,000	0,036	-0,168
-243,190	800,000	0,022	0,048
-242,176	-0,806	-0,064	0,032
-241,161	242,241	0,021	0,025
-240,146	47,789	-0,076	0,050
-239,132	-56,547	0,146	-0,046
-238,117	9,755	-0,251	-0,135
-237,103	176,317	-0,037	0,039
-236,088	623,656	0,054	-0,098
-235,073	-200,000	0,015	-0,090
-234,059	-38,612	0,045	0,017
-233,044	521,027	0,002	-0,003
-232,030	-88,656	-0,017	-0,004
-231,015	-103,734	-0,133	-0,022
-230,000	116,956	0,068	-0,059
-228,986	198,547	-0,118	0,129
-227,971	139,323	-0,009	-0,009
-226,957	800,000	-0,020	0,053
-225,942	103,770	0,132	0,110
-224,927	-138,557	-0,131	-0,010
-223,913	413,257	0,049	0,075
-222,898	601,876	-0,067	-0,119
-221,884	68,067	0,046	0,033
-220,869	609,444	0,015	0,027
-219,855	-200,000	-0,045	0,181
-218,840	-43,467	0,034	-0,012
-217,825	-85,428	-0,070	-0,015
-216,811	468,901	-0,036	-0,057
-215,796	-97,052	-0,086	0,016
-214,782	-125,747	0,091	0,010
-213,767	800,000	0,045	-0,116
-212,752	-194,198	0,145	0,001
-211,738	99,459	0,010	-0,008
-210,723	800,000	-0,032	-0,088
-209,709	13,863	-0,104	-0,057
-208,694	-200,000	0,002	-0,179
-207,679	111,004	-0,074	-0,063
-206,665	27,159	0,087	0,052
-205,650	-200,000	-0,004	0,081
-204,636	644,030	0,122	0,222
-203,621	3,165	-0,093	-0,048
-202,606	-103,105	0,033	-0,006
-201,592	800,000	-0,027	-0,083
-200,577	-200,000	0,025	-0,107
-199,563	-200,000	-0,005	-0,072
-198,548	-200,000	-0,035	0,126
-197,533	-200,000	0,008	0,030
-196,519	-94,161	-0,053	-0,010
-195,504	537,543	0,080	0,135
-194,490	-200,000	-0,018	-0,134
-193,475	-200,000	-0,001	0,025
-192,460	-200,000	-0,002	-0,038
-191,446	35,346	0,099	0,062
-190,431	-200,000	-0,006	-0,052
-189,417	-64,875	0,016	0,005
-188,402	129,736	-0,086	0,078
-187,387	245,461	0,023	0,028
-186,373	800,000	0,062	-0,188
-185,358	107,650	-0,048	-0,041
-184,344	34,059	-0,186	-0,115
-183,329	-200,000	-0,016	0,070
-182,315	347,232	-0,019	-0,026
-181,300	32,692	0,079	0,048
-180,285	-14,884	-0,026	0,012
-179,271	-200,000	-0,009	-0,118
-178,256	-200,000	-0,032	-0,103
-177,242	-200,000	0,010	0,067
-176,227	-111,747	0,084	0,012
-175,212	-74,225	0,051	-0,013
-174,198	-200,000	0,010	0,057
-173,183	-200,000	0,003	-0,044
-172,169	-72,937	-0,124	0,032
-171,154	-200,000	-0,015	-0,057
-170,139	71,692	-0,064	0,048
-169,125	-32,756	0,078	0,031
-168,110	-200,000	-0,023	0,088
-167,096	-79,146	-0,090	0,022
-166,081	665,401	0,052	0,097
-165,066	-200,000	0,047	-0,171
-164,052	561,993	-0,052	-0,089
-163,037	800,000	0,046	0,125
-162,023	437,123	0,038	-0,060
-161,008	-54,744	0,112	-0,036
-159,993	634,399	0,074	0,135
-158,979	-200,000	-0,013	0,097
-157,964	349,325	0,018	0,026
-156,950	180,894	-0,106	0,111
-155,935	385,122	0,077	0,113
-154,920	-179,139	0,111	0,002
-153,906	261,365	0,043	0,053
-152,891	430,125	-0,063	-0,097
-151,877	34,743	0,116	-0,072
-150,862	800,000	-0,049	-0,122
-149,847	-200,000	0,010	0,071
-148,833	43,990	-0,061	0,040
-147,818	-200,000	0,033	-0,134
-146,804	-94,558	0,143	0,027
-145,789	504,762	-0,053	-0,087
-144,775	-137,287	0,035	-0,003
-143,760	92,233	-0,077	-0,061
-142,745	160,798	-0,097	0,097
-141,731	388,537	0,037	-0,055
-140,716	138,379	0,085	-0,079
-139,702	167,432	-0,096	0,097
-138,687	139,536	0,036	-0,033
-137,672	-22,772	0,100	-0,043
-136,658	377,188	-0,062	-0,090
-135,643	257,707	-0,016	0,019
-134,629	-49,069	-0,032	0,011
-133,614	800,000	-0,014	0,036
-132,599	-200,000	0,003	0,082
-131,585	-127,540	-0,092	-0,009
-130,570	-200,000	-0,005	-0,045
-129,556	100,683	0,058	0,047
-128,541	-123,073	-0,045	-0,005
-127,526	-136,808	0,081	0,007
-126,512	293,582	0,054	0,071
-125,497	-200,000	0,013	0,124
-124,483	210,087	-0,080	0,089
-123,468	-75,183	-0,092	-0,023
-122,453	-200,000	-0,007	-0,049
-121,439	449,583	-0,041	0,064
-120,424	-71,682	0,196	-0,052
-119,410	365,120	-0,071	0,102
-118,395	427,936	0,047	0,072
-117,380	125,061	0,102	0,091
-116,366	181,211	-0,074	0,077
-115,351	-4,061	-0,134	0,066
-114,337	396,039	-0,073	-0,108
-113,322	800,000	-0,047	-0,134
-112,307	-11,033	0,079	-0,037
-111,293	-109,797	0,104	0,015
-110,278	-49,882	-0,020	-0,007
-109,264	800,000	-0,001	0,002
-108,249	-200,000	0,003	-0,103
-107,234	125,433	-0,123	-0,110
-106,220	187,651	-0,040	0,043
-105,205	121,464	0,038	-0,033
-104,191	85,999	-0,046	-0,036
-103,176	-71,606	0,161	-0,042
-102,162	-90,302	0,098	0,020
-101,147	241,864	0,094	-0,112
-100,132	-200,000	-0,002	-0,138
-99,118	-200,000	0,040	-0,275
-98,103	800,000	0,056	-0,131
-97,089	-200,000	0,011	0,054
-96,074	239,081	-0,075	0,088
-95,059	181,891	0,087	0,091
-94,045	-36,171	-0,040	0,015
-93,030	800,000	0,026	-0,051
-92,016	-86,025	-0,085	0,018
-91,001	-200,000	0,005	0,098
-89,986	78,423	0,142	0,107
-88,972	-179,749	-0,084	0,001
-87,957	430,864	0,053	-0,081
-86,943	476,352	-0,038	-0,061
-85,928	-18,367	-0,096	-0,042
-84,913	320,719	-0,007	0,009
-83,899	800,000	-0,074	-0,179
-82,884	106,277	0,065	0,054
-81,870	-200,000	0,016	0,075
-80,855	-70,853	0,026	-0,007
-79,840	52,699	-0,024	-0,016
-78,826	-200,000	-0,006	0,061
-77,811	59,089	-0,063	0,044
-76,797	-77,309	-0,113	-0,028
-75,782	800,000	0,050	-0,100
-74,767	500,767	-0,039	-0,064
-73,753	800,000	-0,031	-0,063
-72,738	-200,000	-0,002	0,091
-71,724	-56,275	-0,087	0,027
-70,709	-114,975	-0,118	0,016
-69,694	-200,000	-0,020	-0,120
-68,680	114,430	-0,043	-0,037
-67,665	15,087	-0,042	0,023
-66,651	800,000	0,057	0,120
-65,636	664,706	0,029	0,053
-64,622	376,478	-0,071	0,104
-63,607	2,098	0,007	0,004
-62,592	465,671	-0,034	-0,054
-61,578	315,552	0,050	-0,067
-60,563	-200,000	-0,003	0,054
-59,549	494,425	0,016	0,026
-58,534	13,891	-1,659	-0,911
-57,519	429,384	-1,322	-2,030
-56,505	-200,000	-0,599	-4,628
-55,490	262,444	1,001	1,232
-54,476	800,000	4,967	11,331
-53,461	-200,000	19,546	325,886
-52,446	-200,000	745,649	2334,439
-51,432	566,132	1657,868	2857,866
-50,417	77,172	1671,016	1255,795
-49,403	20,813	1544,548	883,233
-48,388	14,692	1467,221	809,225
-47,373	18,174	1457,278	820,541
-46,359	16,543	1447,070	806,943
-45,344	12,952	1442,346	787,065
-44,330	12,904	1440,304	785,689
-43,315	12,834	1438,805	784,508
-42,300	12,903	1437,126	783,890
-41,286	12,947	1435,715	783,300
-40,271	12,876	1434,486	782,258
-39,257	12,880	1433,147	781,515
-38,242	12,931	1431,910	781,052
-37,227	12,918	1430,621	780,259
-36,213	12,944	1429,223	779,587
-35,198	12,882	1428,320	778,771
-34,184	13,008	1427,095	778,668
-33,169	12,933	1425,840	777,596
-32,154	12,985	1424,673	777,178
-31,140	13,001	1423,434	776,547
-30,125	12,985	1422,400	775,878
-29,111	12,978	1421,192	775,152
-28,096	12,956	1420,130	774,441
-27,082	12,886	1419,112	773,522
-26,067	12,903	1417,914	772,918
-25,052	12,872	1417,027	772,259
-24,038	12,874	1416,067	771,713
-23,023	12,858	1415,153	771,111
-22,009	12,863	1413,960	770,454
-20,994	12,824	1412,983	769,709
-19,979	12,842	1412,128	769,294
-18,965	12,823	1411,108	768,619
-17,950	12,844	1410,316	768,258
-16,936	12,837	1409,415	767,703
-15,921	12,772	1408,189	766,700
-14,906	12,820	1407,376	766,451
-13,892	12,784	1406,453	765,751
-12,877	12,822	1405,524	765,393
-11,863	12,799	1404,806	764,863
-10,848	12,801	1403,644	764,208
-9,833	12,746	1402,980	763,561
-8,819	12,722	1402,056	762,914
-7,804	12,718	1401,242	762,424
-6,790	12,722	1400,094	761,786
-5,775	12,726	1398,966	761,163
-4,760	12,715	1398,353	760,746
-3,746	12,711	1397,219	760,081
-2,731	12,712	1396,456	759,641
-1,717	12,640	1395,599	758,811
-0,702	12,639	1393,825	757,810
0,313	16,461	1309,425	729,625
1,327	32,778	701,450	428,453
2,342	50,469	122,503	81,800
3,356	1,942	16,632	8,459
4,371	3,613	3,227	1,659
5,386	-56,926	0,710	0,220
6,400	-200,000	0,098	0,370
7,415	-75,285	-0,160	-0,040
8,429	254,072	-0,206	-0,249
9,444	34,187	-0,290	-0,178
10,459	-10,245	-0,263	-0,123
11,473	123,541	-0,354	-0,314
12,488	-41,952	-0,271	-0,098
13,502	-26,644	-0,284	-0,117
14,517	90,426	-0,296	-0,234
15,531	210,824	-0,341	-0,379
16,546	67,006	-0,262	-0,188
17,561	148,441	-0,278	-0,265
18,575	62,170	-0,234	-0,165
19,590	331,285	-0,155	-0,212
20,604	-85,187	-0,214	-0,047
21,619	28,754	-0,429	-0,256
22,634	111,008	-0,493	-0,419
23,648	79,947	-0,389	-0,295
24,663	132,348	-0,333	-0,303
25,677	-11,713	-0,349	-0,161
26,692	194,664	-0,309	-0,331
27,707	193,012	-0,266	-0,284
28,721	-3,419	-0,414	-0,203
29,736	143,297	-0,321	-0,301
30,750	92,919	-0,384	-0,306
31,765	-37,110	-0,362	-0,136
32,780	122,428	-0,250	-0,220
33,794	32,538	-0,265	-0,161
34,809	18,101	-0,371	-0,208
35,823	130,562	-0,294	-0,266
36,838	117,006	-0,232	-0,200
37,853	80,196	-0,384	-0,291
38,867	168,859	-0,304	-0,306
39,882	47,937	-0,430	-0,283
40,896	50,791	-0,246	-0,164
41,911	-51,186	-0,364	-0,120
42,926	-16,503	-0,413	-0,184
43,940	25,578	-0,390	-0,228
44,955	55,360	-0,375	-0,255
45,969	-17,709	-0,380	-0,168
46,984	29,265	-0,331	-0,198
47,999	261,908	-0,204	-0,249
49,013	-68,701	-0,256	-0,069
50,028	59,105	-0,285	-0,197
51,042	74,397	-0,402	-0,297
52,057	36,893	-0,349	-0,217
53,071	39,571	-0,377	-0,238
54,086	114,159	-0,301	-0,258
55,101	70,212	-0,349	-0,254
56,115	85,826	-0,372	-0,287
57,130	-41,344	-0,379	-0,137
58,144	118,132	-0,380	-0,329
59,159	87,675	-0,257	-0,200
60,174	99,932	-0,265	-0,216
61,188	22,779	-0,340	-0,196
62,203	-27,856	-0,371	-0,151
63,217	68,058	-0,267	-0,192
64,232	-0,560	-0,382	-0,190
65,247	-22,862	-0,343	-0,145
66,261	-38,407	-0,390	-0,145
67,276	-49,376	-0,440	-0,147
68,290	115,287	-0,353	-0,303
69,305	-23,292	-0,316	-0,133
70,320	46,576	-0,294	-0,192
71,334	57,671	-0,328	-0,225
72,349	48,465	-0,321	-0,211
73,363	78,432	-0,410	-0,308
74,378	85,907	-0,262	-0,202
75,393	67,201	-0,355	-0,254
76,407	-66,454	-0,320	-0,089
77,422	-78,311	-0,314	-0,075
78,436	119,637	-0,224	-0,195
79,451	-76,744	-0,247	-0,060
80,466	203,271	-0,217	-0,236
81,480	141,506	-0,305	-0,284
82,495	57,840	-0,283	-0,194
83,509	-102,898	-0,195	0,032
84,524	-101,112	-0,289	-0,049
85,539	-38,791	-0,203	-0,075
86,553	-18,741	-0,284	-0,124
87,568	-2,293	-0,358	-0,176
88,582	141,789	-0,412	-0,384
89,597	177,139	-0,229	-0,234
90,611	29,213	-0,235	-0,140
91,626	92,648	-0,233	-0,184
92,641	75,762	-0,319	-0,236
93,655	-58,912	-0,294	-0,089
94,670	53,352	-0,294	-0,197
95,684	112,037	-0,217	-0,184
96,699	-28,223	-0,374	-0,151
97,714	21,799	-0,331	-0,189
98,728	-118,209	-0,115	-0,014
99,743	91,794	-0,214	-0,169
100,757	64,971	-0,223	-0,158
101,772	-67,289	-0,240	-0,066
102,787	87,409	-0,284	-0,220
103,801	172,630	-0,318	-0,321
104,816	-78,339	-0,306	-0,073
105,830	43,364	-0,267	-0,170
106,845	-31,114	-0,239	-0,094
107,860	9,898	-0,228	-0,121
108,874	476,711	-0,161	-0,256
109,889	261,008	-0,212	-0,257
110,903	-0,852	-0,296	-0,146
111,918	98,614	-0,234	-0,189
112,933	233,172	-0,234	-0,270
113,947	127,889	-0,274	-0,244
114,962	-14,901	-0,336	-0,150
115,976	-84,508	-0,208	-0,046
116,991	412,763	-0,207	-0,309
118,006	133,654	-0,206	-0,187
119,020	148,051	-0,138	-0,130
120,035	91,465	-0,273	-0,215
121,049	236,479	-0,079	-0,092
122,064	-3,228	-0,229	-0,111
123,079	39,496	-0,224	-0,140
124,093	800,000	-0,093	-0,230
125,108	-56,867	-0,306	-0,094
126,122	256,390	-0,218	-0,262
127,137	-13,078	-0,181	-0,082
128,151	196,810	-0,169	-0,180
129,166	212,581	-0,215	-0,237
130,181	32,391	-0,280	-0,169
131,195	217,578	-0,206	-0,230
132,210	261,289	-0,208	-0,252
133,224	277,627	-0,214	-0,267
134,239	-113,367	-0,254	-0,034
135,254	-16,286	-0,118	-0,052
136,268	38,506	-0,302	-0,188
137,283	-31,410	-0,375	-0,147
138,297	89,087	-0,318	-0,247
139,312	152,867	-0,228	-0,218
140,327	191,428	-0,236	-0,248
141,341	168,138	-0,216	-0,215
142,356	638,104	-0,127	-0,227
143,370	-61,927	-0,209	-0,061
144,385	51,731	-0,211	-0,140
145,400	404,039	-0,175	-0,258
146,414	72,701	-0,341	-0,248
147,429	-4,614	-0,295	-0,142
148,443	81,199	-0,281	-0,212
149,458	179,953	-0,146	-0,149
150,473	-26,555	-0,264	-0,108
151,487	67,064	-0,217	-0,154
152,502	-73,194	-0,276	-0,070
153,516	44,781	-0,311	-0,199
154,531	32,045	-0,225	-0,135
155,546	-129,588	-0,124	-0,012
156,560	152,053	-0,227	-0,216
157,575	68,466	-0,202	-0,144
158,589	57,649	-0,180	-0,122
159,604	-48,724	-0,260	-0,087
160,619	13,742	-0,204	-0,111
161,633	127,952	-0,290	-0,257
162,648	-121,310	-0,185	-0,021
163,662	800,000	-0,136	-0,293
164,677	254,565	-0,258	-0,309
165,692	-69,903	-0,212	-0,056
166,706	121,410	-0,135	-0,117
167,721	18,628	-0,204	-0,114
168,735	187,067	-0,190	-0,197
169,750	105,185	-0,191	-0,157
170,764	210,000	-0,248	-0,272
171,779	207,598	-0,145	-0,158
172,794	-7,562	-0,233	-0,109
173,808	107,978	-0,119	-0,099
174,823	95,737	-0,170	-0,135
175,837	51,131	-0,266	-0,175
176,852	16,457	-0,263	-0,144
177,867	-15,844	-0,188	-0,083
178,881	134,796	-0,178	-0,161
179,896	604,738	-0,194	-0,338
180,910	57,572	-0,216	-0,146
181,925	10,420	-0,243	-0,128
182,940	315,292	-0,180	-0,236
183,954	800,000	-0,105	-0,228
184,969	102,903	-0,193	-0,157
185,983	75,478	-0,272	-0,200
186,998	311,961	-0,089	-0,117
188,013	188,251	-0,218	-0,227
189,027	-65,298	-0,198	-0,055
190,042	221,855	-0,261	-0,293
191,056	85,900	-0,262	-0,200
192,071	-133,649	-0,228	0,020
193,086	134,492	-0,209	-0,188
194,100	-1,188	-0,161	-0,079
195,115	-69,123	-0,110	-0,029
196,129	184,338	-0,298	-0,307
197,144	6,792	-0,254	-0,131
198,159	123,438	-0,182	-0,158
199,173	-86,435	-0,104	-0,022
200,188	111,097	-0,200	-0,167
201,202	301,532	-0,148	-0,190
202,217	272,453	-0,212	-0,261
203,232	24,436	-0,178	-0,102
204,246	61,190	-0,242	-0,167
205,261	-140,713	-0,288	0,020
206,275	800,000	-0,065	-0,126
207,290	-192,820	-0,148	-0,001
208,304	52,626	-0,227	-0,151
209,319	-115,355	-0,296	-0,038
210,334	-70,251	-0,209	-0,055
211,348	-49,388	-0,311	-0,102
212,363	237,998	-0,251	-0,289
213,377	383,478	-0,180	-0,259
214,392	-200,000	-0,013	-0,122
215,407	23,981	-0,160	-0,092
216,421	321,312	-0,118	-0,156
217,436	514,031	-0,127	-0,207
218,450	-171,552	-0,164	-0,004
219,465	171,856	-0,207	-0,206
220,480	148,092	-0,211	-0,197
221,494	94,957	-0,156	-0,123
222,509	110,308	-0,183	-0,152
223,523	-92,523	-0,224	-0,043
224,538	51,656	-0,282	-0,186
225,553	654,375	-0,155	-0,277
226,567	14,566	-0,328	-0,177
227,582	-112,406	-0,257	-0,035
228,596	-124,019	-0,229	-0,025
229,611	-96,944	-0,179	-0,032
230,626	-165,050	-0,204	-0,006
231,640	116,741	-0,214	-0,182
232,655	-182,435	-0,140	-0,002
233,669	358,084	-0,165	-0,228
234,684	77,662	-0,133	-0,098
235,699	6,958	-0,226	-0,116
236,713	-68,197	-0,172	-0,046
237,728	-157,888	-0,265	0,011
238,742	141,076	-0,145	-0,133
239,757	-47,340	-0,209	-0,070
240,772	314,598	-0,191	-0,250
241,786	76,990	-0,248	-0,182
242,801	267,937	-0,085	-0,103
243,815	581,091	-0,084	-0,143
244,830	124,838	-0,208	-0,182
245,844	0,308	-0,256	-0,126
246,859	182,487	-0,255	-0,261
247,874	-84,180	-0,327	-0,071
248,888	-200,000	-0,082	-0,293
249,903	76,463	-0,189	-0,139
250,917	-64,176	-0,152	0,043
251,932	750,477	-0,117	-0,219
252,947	377,756	-0,147	-0,208
253,961	278,409	-0,245	-0,302
254,976	164,416	-0,200	-0,195
255,990	179,210	-0,140	-0,142
257,005	-25,170	-0,144	0,059
258,020	-9,330	-0,118	-0,054
259,034	40,174	-0,115	-0,072
260,049	196,138	-0,239	-0,252
261,063	148,066	-0,224	-0,209
262,078	-72,394	-0,200	-0,051
263,093	-135,206	-0,294	-0,024
264,107	-94,103	-0,108	0,020
265,122	9,628	-0,225	-0,117
266,136	-114,403	-0,171	-0,023
267,151	-0,841	-0,172	-0,084
268,166	-62,102	-0,197	-0,056
269,180	240,811	-0,116	-0,134
270,195	-200,000	0,004	-0,068
271,209	-200,000	-0,051	-0,260
272,224	405,313	-0,124	-0,181
273,239	-33,720	-0,231	-0,088
274,253	310,166	-0,135	-0,175
275,268	-71,937	-0,212	-0,054
276,282	32,951	-0,261	-0,156
277,297	227,759	-0,182	-0,204
278,312	66,474	-0,248	-0,174
279,326	624,545	-0,095	-0,166
280,341	700,532	-0,087	-0,158
281,355	-101,112	-0,153	0,026
282,370	-68,231	-0,197	-0,053
283,384	800,000	-0,073	-0,151
284,399	-80,135	-0,150	-0,034
285,414	800,000	-0,031	-0,077
286,428	-112,325	-0,192	0,026
287,443	-56,111	-0,072	0,022
288,457	-10,668	-0,110	-0,050
289,472	-85,172	-0,056	0,012
290,487	800,000	-0,074	-0,179
291,501	0,587	-0,205	-0,101
292,516	87,012	-0,120	-0,091
293,530	-78,394	-0,136	-0,032
294,545	800,000	-0,031	-0,074
295,560	68,036	-0,261	-0,184
296,574	-118,716	-0,195	-0,023
297,589	-112,800	-0,163	0,022
298,603	230,920	-0,234	-0,265
299,618	125,572	-0,209	-0,182
300,633	183,004	-0,040	-0,040
301,647	-124,434	-0,126	-0,013
302,662	22,788	-0,137	-0,077
303,676	-8,724	-0,141	-0,065
304,691	-91,101	-0,250	-0,049
305,706	335,052	-0,118	-0,157
306,720	5,699	-0,115	-0,058
307,735	1,282	-0,159	-0,079
308,749	295,407	-0,105	-0,132
309,764	-124,481	0,014	0,001
310,779	615,916	-0,105	-0,181
311,793	9,278	-0,141	0,073
312,808	85,638	-0,206	-0,155
313,822	-178,028	-0,210	-0,003
314,837	779,008	0,052	-0,099
315,852	800,000	-0,063	0,176
316,866	-114,759	-0,136	0,018
317,881	-69,784	-0,074	-0,019
318,895	77,641	-0,116	-0,085
319,910	24,564	-0,186	-0,106
320,925	-200,000	-0,032	-0,150
321,939	800,000	-0,117	-0,252
322,954	800,000	-0,080	-0,174
323,968	-168,777	-0,171	-0,004
324,983	89,572	-0,179	-0,137
325,997	181,435	-0,212	-0,215
327,012	100,596	-0,239	-0,191
328,027	-200,000	-0,020	-0,179
329,041	31,001	-0,206	-0,121
330,056	800,000	-0,046	-0,137
331,070	-54,213	-0,080	-0,025
332,085	-104,201	-0,113	0,018
333,100	800,000	-0,100	-0,223
334,114	-200,000	-0,060	-0,193
335,129	12,595	-0,178	-0,094
336,143	12,655	-0,154	-0,081
337,158	-200,000	0,022	-0,224
338,173	46,450	-0,041	0,026
339,187	488,471	-0,144	0,226
340,202	800,000	-0,030	-0,074
341,216	800,000	-0,122	-0,247
342,231	2,721	-0,136	-0,067
343,246	-60,678	-0,178	-0,051
344,260	307,041	-0,091	-0,117
345,275	101,360	-0,092	-0,073
346,289	137,651	-0,104	-0,094
347,304	139,867	-0,124	-0,112
348,319	160,120	-0,168	-0,161
349,333	91,031	-0,190	-0,146
350,348	302,833	-0,133	-0,169
351,362	106,490	-0,113	-0,092
352,377	-160,281	-0,133	0,005
353,392	23,706	-0,082	-0,046
354,406	-37,549	-0,163	-0,059
355,421	208,045	1313,739	1409,303
356,435	160,060	1474,344	1409,777
