DTS Sentinel unit serial number:	SN410029Multiplexer serial number:	ORYXHardware model number:	OX2-SRSoftware version number:	ORYX F/W v4,00 Oryx Data Collector v3.7.2.0data status	okinstallation	B3 Nyhavnadifferential loss correction	single-endedforward channel	channel 1reverse channel	N/Adate	2023/11/29time	00:47:30forward acquisition time	300,00reverse acquisition time	0,00gamma	499,1914k internal	0,3212k external	0,3212temperature offset calibration	1,0000default loss term (dB/km)	0,3820temperature slope calibration	1,0000multiplexer offset coefficient	1,0000multiplexer slope coefficient	1,0000fibre end	0,00T internal ref (°C)	9,25T ext. ref 1 (°C)	-5,03T ext. ref 2 (°C)	-5,16length (m)	temperature (°C)	Stokes	anti-Stokes-744,400	773,941	-0,179	-0,356
-743,385	-200,000	0,018	0,291
-742,371	732,540	-0,081	-0,157
-741,356	800,000	0,118	0,364
-740,342	51,477	-0,346	-0,238
-739,327	800,000	0,072	0,200
-738,312	262,518	-0,151	-0,191
-737,298	-200,000	-0,042	0,332
-736,283	-200,000	-0,024	-0,149
-735,269	-200,000	0,014	0,342
-734,254	-200,000	-0,046	-0,278
-733,239	-143,069	-0,335	0,023
-732,225	800,000	0,052	-0,127
-731,210	-200,000	-0,012	0,100
-730,196	-200,000	0,015	0,069
-729,181	-88,693	0,144	0,031
-728,167	-164,411	-0,114	-0,004
-727,152	-44,682	-0,154	0,055
-726,137	-113,015	-0,182	0,026
-725,123	115,609	-0,008	-0,007
-724,108	627,443	0,023	0,042
-723,094	189,075	-0,051	-0,055
-722,079	355,693	-0,071	0,103
-721,064	87,236	-0,069	0,055
-720,050	92,374	-0,035	-0,029
-719,035	313,404	-0,089	0,122
-718,021	289,624	-0,027	-0,036
-717,006	252,307	-0,049	-0,061
-715,991	8,274	-0,207	0,112
-714,977	-200,000	0,016	-0,130
-713,962	-112,918	0,017	-0,002
-712,948	-100,314	-0,131	0,023
-711,933	174,005	-0,044	0,046
-710,918	-14,587	-0,061	-0,028
-709,904	-200,000	0,001	0,032
-708,889	673,621	0,045	0,085
-707,875	-153,257	-0,111	-0,006
-706,860	-200,000	-0,024	-0,082
-705,845	253,433	-0,091	0,113
-704,831	-64,457	-0,030	0,009
-703,816	-200,000	-0,008	-0,066
-702,802	184,559	-0,058	-0,062
-701,787	-137,743	-0,062	0,005
-700,772	-84,351	-0,120	0,027
-699,758	-125,725	-0,107	-0,012
-698,743	-43,563	0,152	0,055
-697,729	-200,000	0,007	0,070
-696,714	-133,495	-0,070	0,006
-695,699	94,312	-0,081	-0,067
-694,685	-77,892	0,160	-0,040
-693,670	-200,000	0,005	0,099
-692,656	800,000	0,031	0,069
-691,641	-200,000	-0,012	0,050
-690,627	800,000	-0,045	0,133
-689,612	-200,000	-0,007	-0,037
-688,597	65,133	-0,068	-0,050
-687,583	492,823	-0,029	0,048
-686,568	-90,426	0,076	-0,016
-685,554	-74,376	-0,062	0,016
-684,539	255,466	-0,030	-0,037
-683,524	-135,575	0,098	0,008
-682,510	-81,473	0,088	0,021
-681,495	-200,000	-0,012	-0,106
-680,481	451,816	-0,023	-0,036
-679,466	-87,713	0,091	-0,020
-678,451	-200,000	0,007	0,057
-677,437	-54,854	-0,042	-0,014
-676,422	11,583	0,091	0,050
-675,408	205,614	0,085	0,095
-674,393	-29,533	-0,056	-0,023
-673,378	157,897	-0,032	-0,032
-672,364	262,943	-0,053	0,067
-671,349	-142,404	-0,201	-0,014
-670,335	-126,563	0,074	0,008
-669,320	-141,319	0,026	0,002
-668,305	48,325	0,069	-0,046
-667,291	-105,371	-0,149	-0,024
-666,276	-200,000	0,014	-0,110
-665,262	800,000	0,085	-0,223
-664,247	-200,000	-0,002	0,050
-663,232	27,208	-0,075	-0,046
-662,218	776,109	-0,065	0,128
-661,203	-55,273	-0,117	-0,038
-660,189	450,699	0,011	0,018
-659,174	-200,000	-0,005	-0,028
-658,159	110,191	0,064	-0,056
-657,145	-200,000	-0,024	-0,089
-656,130	-111,314	0,090	-0,013
-655,116	800,000	0,042	0,090
-654,101	-200,000	0,008	-0,041
-653,086	-200,000	-0,009	-0,034
-652,072	800,000	0,053	-0,121
-651,057	-200,000	-0,034	-0,150
-650,043	-200,000	0,012	-0,162
-649,028	-164,172	-0,061	-0,002
-648,014	154,493	-0,094	-0,094
-646,999	311,217	-0,036	-0,049
-645,984	-200,000	0,002	-0,014
-644,970	-39,180	-0,117	0,044
-643,955	-200,000	-0,022	-0,104
-642,941	-200,000	0,006	-0,042
-641,926	211,785	0,095	0,108
-640,911	477,525	0,052	0,086
-639,897	-200,000	0,000	-0,012
-638,882	175,353	-0,137	0,144
-637,868	-130,485	0,101	-0,010
-636,853	675,277	-0,083	-0,156
-635,838	-143,209	-0,043	-0,003
-634,824	-4,011	0,083	0,042
-633,809	-85,880	-0,096	-0,021
-632,795	63,117	0,087	0,062
-631,780	39,936	-0,110	-0,071
-630,765	800,000	-0,026	-0,063
-629,751	136,141	0,015	-0,014
-628,736	-189,388	-0,088	0,001
-627,722	-200,000	-0,004	-0,034
-626,707	-200,000	0,016	0,074
-625,692	-200,000	0,023	0,078
-624,678	800,000	-0,052	0,165
-623,663	272,087	-0,113	-0,144
-622,649	215,414	-0,096	0,110
-621,634	12,243	-0,082	-0,046
-620,619	660,052	-0,052	0,097
-619,605	54,139	-0,080	-0,055
-618,590	232,174	-0,047	-0,056
-617,576	-191,715	0,109	-0,001
-616,561	77,301	0,132	0,101
-615,546	-200,000	-0,009	0,057
-614,532	787,928	-0,065	0,130
-613,517	-200,000	0,030	0,121
-612,503	-135,983	0,070	-0,006
-611,488	800,000	0,042	0,111
-610,474	65,088	-0,057	0,042
-609,459	800,000	0,028	0,071
-608,444	-200,000	0,006	0,030
-607,430	800,000	-0,063	-0,146
-606,415	194,362	-0,056	-0,061
-605,401	195,933	0,026	-0,029
-604,386	-65,488	-0,077	0,022
-603,371	800,000	0,025	-0,077
-602,357	48,449	-0,082	0,056
-601,342	-200,000	-0,028	-0,119
-600,328	138,921	-0,130	0,123
-599,313	-200,000	0,011	-0,101
-598,298	374,879	-0,086	-0,127
-597,284	-41,407	0,112	-0,041
-596,269	800,000	0,051	0,104
-595,255	100,999	-0,012	-0,010
-594,240	-55,635	-0,146	-0,047
-593,225	800,000	-0,081	0,167
-592,211	-2,919	-0,195	0,098
-591,196	800,000	0,019	-0,048
-590,182	747,389	-0,043	0,083
-589,167	-60,972	0,166	-0,050
-588,152	150,788	0,097	-0,095
-587,138	-93,435	-0,115	-0,023
-586,123	7,202	-0,076	-0,041
-585,109	-200,000	-0,004	0,059
-584,094	154,835	-0,069	0,068
-583,079	367,175	0,054	-0,079
-582,065	-50,464	0,167	-0,056
-581,050	-200,000	0,011	0,178
-580,036	-25,248	0,061	-0,026
-579,021	26,899	0,013	0,008
-578,006	496,709	-0,087	0,144
-576,992	130,254	-0,044	0,041
-575,977	54,216	0,114	-0,079
-574,963	490,117	0,085	0,140
-573,948	-47,815	-0,088	-0,031
-572,934	800,000	-0,015	0,033
-571,919	180,988	-0,058	-0,061
-570,904	-94,358	0,047	-0,009
-569,890	-200,000	-0,003	-0,081
-568,875	-149,098	0,023	0,001
-567,861	-69,737	0,122	0,033
-566,846	-37,844	-0,097	-0,037
-565,831	-104,482	0,040	0,007
-564,817	73,467	-0,025	-0,019
-563,802	160,510	-0,086	0,087
-562,788	-200,000	-0,023	-0,093
-561,773	419,337	0,025	0,039
-560,758	-47,709	-0,077	0,027
-559,744	-126,618	0,181	0,019
-558,729	-33,230	-0,081	0,032
-557,715	800,000	0,057	0,145
-556,700	-170,427	0,018	-0,000
-555,685	236,721	0,046	0,055
-554,671	-200,000	-0,015	0,127
-553,656	191,423	0,100	0,108
-552,642	-121,111	0,097	0,012
-551,627	-200,000	-0,010	0,077
-550,612	158,650	0,062	-0,062
-549,598	-105,106	-0,181	0,030
-548,583	-200,000	0,011	-0,055
-547,569	-8,899	-0,113	0,054
-546,554	-56,363	0,126	0,040
-545,539	147,687	0,081	0,079
-544,525	800,000	0,031	0,072
-543,510	482,907	0,050	-0,082
-542,496	-71,203	-0,056	-0,015
-541,481	47,682	-0,087	0,058
-540,466	35,232	-0,026	-0,017
-539,452	655,599	0,052	-0,096
-538,437	29,993	0,076	-0,047
-537,423	-200,000	-0,036	-0,123
-536,408	-84,416	0,148	-0,033
-535,393	24,108	-0,036	0,021
-534,379	-200,000	-0,006	-0,101
-533,364	800,000	-0,019	-0,044
-532,350	-200,000	-0,032	-0,131
-531,335	30,165	0,072	0,044
-530,321	162,793	0,041	0,042
-529,306	-94,169	-0,115	-0,022
-528,291	-8,442	0,065	-0,031
-527,277	175,604	-0,107	-0,111
-526,262	151,257	0,016	0,016
-525,248	-200,000	0,011	0,054
-524,233	16,587	-0,057	-0,032
-523,218	800,000	0,055	0,116
-522,204	-93,893	0,038	-0,007
-521,189	494,995	-0,032	0,052
-520,175	-63,080	-0,066	-0,019
-519,160	358,162	-0,062	0,089
-518,145	-200,000	-0,109	-0,000
-517,131	-200,000	0,014	-0,069
-516,116	800,000	0,057	0,127
-515,102	-8,455	-0,129	-0,062
-514,087	215,496	-0,100	-0,114
-513,072	195,271	-0,037	-0,040
-512,058	14,911	0,043	-0,024
-511,043	-31,828	-0,064	0,026
-510,029	-63,898	0,057	-0,017
-509,014	-200,000	-0,044	0,139
-507,999	-200,000	-0,008	0,106
-506,985	800,000	0,025	-0,052
-505,970	-95,700	-0,062	-0,012
-504,956	800,000	0,052	-0,147
-503,941	800,000	-0,061	-0,124
-502,926	-200,000	-0,011	0,067
-501,912	749,402	-0,047	-0,091
-500,897	-27,201	-0,058	-0,024
-499,883	-146,960	0,064	-0,004
-498,868	800,000	0,039	-0,093
-497,853	-200,000	-0,007	0,043
-496,839	-200,000	-0,020	0,118
-495,824	-72,281	0,057	0,015
-494,810	800,000	0,001	0,003
-493,795	4,773	-0,101	0,053
-492,781	-2,519	0,119	-0,060
-491,766	-152,332	-0,057	0,003
-490,751	-5,044	-0,056	-0,028
-489,737	190,668	0,102	-0,110
-488,722	128,559	-0,094	-0,086
-487,708	476,728	0,046	0,075
-486,693	-200,000	0,010	0,060
-485,678	297,236	-0,039	-0,052
-484,664	-161,410	0,124	0,005
-483,649	138,340	-0,114	0,108
-482,635	800,000	0,062	-0,163
-481,620	800,000	-0,015	0,043
-480,605	23,329	0,165	0,097
-479,591	-131,325	-0,111	0,010
-478,576	800,000	-0,023	-0,063
-477,562	-153,072	-0,059	0,003
-476,547	-200,000	-0,037	0,128
-475,532	235,764	-0,053	-0,063
-474,518	-200,000	0,003	0,086
-473,503	489,366	0,051	0,084
-472,489	-153,868	0,122	0,006
-471,474	-200,000	0,004	0,154
-470,459	76,185	-0,059	-0,045
-469,445	800,000	-0,018	-0,048
-468,430	-20,231	0,089	-0,039
-467,416	-138,814	0,133	-0,010
-466,401	-1,757	0,104	0,052
-465,386	-200,000	0,000	0,129
-464,372	331,661	-0,055	0,076
-463,357	394,875	-0,028	-0,043
-462,343	284,546	-0,049	-0,063
-461,328	-75,821	-0,162	-0,041
-460,313	78,159	0,103	0,079
-459,299	-122,324	-0,049	-0,006
-458,284	-32,962	0,121	-0,048
-457,270	449,197	-0,024	0,039
-456,255	161,830	-0,027	0,027
-455,241	148,259	-0,114	-0,110
-454,226	800,000	-0,062	-0,148
-453,211	127,411	0,123	0,112
-452,197	78,914	0,126	0,097
-451,182	141,890	-0,034	-0,033
-450,168	422,829	0,033	0,051
-449,153	800,000	-0,097	-0,198
-448,138	-51,788	-0,127	-0,042
-447,124	59,642	0,071	0,050
-446,109	-103,177	-0,055	-0,009
-445,095	37,314	0,077	-0,049
-444,080	-51,052	-0,058	-0,019
-443,065	-83,203	0,038	-0,009
-442,051	-37,624	-0,083	-0,032
-441,036	800,000	-0,017	-0,042
-440,022	-59,538	0,014	-0,004
-439,007	-15,867	0,052	-0,024
-437,992	-1,453	0,166	0,083
-436,978	-200,000	0,000	0,113
-435,963	436,833	-0,038	0,059
-434,949	-51,450	-0,044	0,015
-433,934	800,000	0,027	-0,059
-432,919	231,799	0,041	0,049
-431,905	-200,000	0,007	0,094
-430,890	70,549	-0,027	0,020
-429,876	201,421	0,100	0,110
-428,861	-97,291	0,105	-0,019
-427,846	-132,097	-0,065	-0,006
-426,832	5,225	0,045	-0,024
-425,817	-1,559	-0,200	-0,101
-424,803	-200,000	-0,037	-0,153
-423,788	316,674	0,097	0,131
-422,773	-200,000	0,040	0,132
-421,759	527,083	-0,070	0,118
-420,744	166,597	-0,133	-0,136
-419,730	215,330	-0,107	-0,121
-418,715	-37,473	-0,066	-0,025
-417,701	-200,000	-0,014	-0,100
-416,686	800,000	0,036	0,072
-415,671	800,000	0,045	-0,097
-414,657	-200,000	0,008	0,110
-413,642	17,117	0,084	-0,047
-412,628	800,000	-0,020	-0,045
-411,613	-200,000	0,007	-0,036
-410,598	-94,189	0,115	-0,022
-409,584	232,412	0,079	0,093
-408,569	-200,000	-0,008	0,180
-407,555	-127,701	-0,074	0,008
-406,540	-83,962	0,054	-0,012
-405,525	-59,236	0,068	-0,021
-404,511	221,019	-0,094	-0,108
-403,496	800,000	-0,020	-0,058
-402,482	241,862	0,056	0,067
-401,467	-145,037	0,130	-0,008
-400,452	-200,000	0,029	0,105
-399,438	271,251	0,025	-0,032
-398,423	-52,775	0,053	0,017
-397,409	-200,000	0,009	-0,054
-396,394	800,000	-0,013	0,027
-395,379	154,756	-0,060	-0,059
-394,365	-112,860	0,186	0,026
-393,350	800,000	-0,003	0,006
-392,336	-106,036	0,080	-0,013
-391,321	800,000	-0,008	-0,021
-390,306	-200,000	-0,009	-0,105
-389,292	20,021	-0,066	0,038
-388,277	107,713	-0,052	-0,044
-387,263	800,000	0,023	-0,050
-386,248	-200,000	-0,009	0,097
-385,233	-42,342	-0,081	-0,029
-384,219	-49,272	-0,031	-0,010
-383,204	293,698	0,039	-0,051
-382,190	29,712	-0,017	-0,010
-381,175	150,966	-0,078	0,076
-380,160	-49,680	0,076	0,026
-379,146	-59,699	0,065	-0,020
-378,131	800,000	-0,022	-0,056
-377,117	75,055	0,074	-0,055
-376,102	-63,463	-0,027	0,008
-375,088	657,041	0,017	0,032
-374,073	-200,000	-0,021	-0,104
-373,058	581,263	0,022	0,039
-372,044	85,434	0,071	0,056
-371,029	29,219	-0,078	0,047
-370,015	-200,000	0,016	0,111
-369,000	-12,241	0,187	-0,087
-367,985	-200,000	-0,028	-0,182
-366,971	800,000	-0,026	-0,061
-365,956	48,785	0,074	-0,049
-364,942	-154,435	0,079	-0,004
-363,927	-200,000	0,002	0,085
-362,912	10,028	-0,165	-0,089
-361,898	623,665	0,025	0,045
-360,883	34,535	0,065	-0,040
-359,869	12,478	-0,076	-0,042
-358,854	-110,640	0,085	-0,012
-357,839	284,072	-0,049	0,063
-356,825	-200,000	-0,007	-0,167
-355,810	9,646	-0,060	-0,033
-354,796	-200,000	-0,023	-0,107
-353,781	-200,000	-0,005	-0,046
-352,766	94,294	0,090	-0,073
-351,752	-200,000	-0,016	-0,126
-350,737	-200,000	-0,004	0,137
-349,723	800,000	0,034	0,101
-348,708	-31,996	0,104	0,041
-347,693	-162,703	0,123	-0,004
-346,679	-200,000	-0,045	-0,155
-345,664	-200,000	-0,009	0,047
-344,650	-97,515	0,062	-0,011
-343,635	250,739	0,113	-0,138
-342,620	-143,971	-0,042	0,003
-341,606	-135,211	-0,050	0,004
-340,591	-200,000	-0,008	0,027
-339,577	751,315	0,044	0,085
-338,562	-99,806	0,104	0,018
-337,548	-200,000	0,007	-0,090
-336,533	-24,049	0,019	-0,008
-335,518	-200,000	-0,006	0,110
-334,504	158,275	0,074	0,073
-333,489	-41,652	-0,053	-0,019
-332,475	-80,355	-0,046	0,011
-331,460	-176,723	0,049	0,001
-330,445	-47,150	0,108	0,037
-329,431	800,000	-0,012	0,028
-328,416	401,059	0,047	-0,070
-327,402	800,000	-0,024	0,052
-326,387	248,683	-0,043	-0,052
-325,372	-81,310	-0,180	-0,042
-324,358	9,127	-0,014	0,008
-323,343	800,000	-0,037	-0,090
-322,329	343,263	-0,047	-0,066
-321,314	800,000	-0,023	0,070
-320,299	141,424	0,139	-0,132
-319,285	-114,594	0,080	0,011
-318,270	-200,000	-0,043	-0,171
-317,256	-88,613	-0,081	-0,017
-316,241	-137,306	-0,047	0,004
-315,226	-61,589	0,082	-0,024
-314,212	-119,167	0,081	0,010
-313,197	60,590	-0,020	0,014
-312,183	-181,643	0,022	0,000
-311,168	-200,000	0,011	-0,144
-310,153	-200,000	-0,001	0,070
-309,139	83,968	-0,138	-0,107
-308,124	-40,613	0,092	0,034
-307,110	-101,361	0,165	0,028
-306,095	126,680	0,070	0,063
-305,080	225,111	0,030	-0,035
-304,066	107,624	-0,068	-0,057
-303,051	800,000	0,037	-0,080
-302,037	205,367	0,078	0,087
-301,022	106,585	-0,071	0,060
-300,008	-200,000	0,046	0,195
-298,993	102,955	0,095	0,079
-297,978	800,000	-0,004	0,010
-296,964	154,490	0,037	0,036
-295,949	-119,498	-0,084	0,010
-294,935	782,835	-0,099	-0,194
-293,920	-200,000	0,029	0,149
-292,905	-200,000	0,003	-0,022
-291,891	697,998	0,063	-0,118
-290,876	301,649	-0,062	0,081
-289,862	800,000	-0,047	-0,104
-288,847	100,552	-0,100	0,082
-287,832	-165,595	0,017	0,001
-286,818	-200,000	-0,033	-0,132
-285,803	46,211	0,087	0,057
-284,789	322,049	0,019	0,025
-283,774	-131,897	0,107	-0,010
-282,759	-200,000	-0,013	-0,058
-281,745	715,098	-0,032	-0,061
-280,730	-8,408	0,101	0,048
-279,716	-200,000	0,010	-0,065
-278,701	103,789	0,106	0,089
-277,686	-155,992	-0,082	0,004
-276,672	-159,078	0,038	-0,002
-275,657	-200,000	0,002	-0,035
-274,643	380,827	-0,036	-0,052
-273,628	-200,000	0,013	-0,218
-272,613	-200,000	0,002	0,035
-271,599	-119,405	0,129	-0,016
-270,584	-181,528	0,024	0,000
-269,570	-200,000	0,005	0,019
-268,555	8,832	-0,062	-0,033
-267,540	-200,000	-0,005	-0,133
-266,526	2,293	-0,102	0,052
-265,511	-200,000	0,004	-0,035
-264,497	-200,000	0,012	-0,048
-263,482	-177,827	0,082	0,001
-262,467	800,000	-0,029	0,079
-261,453	-153,899	-0,065	0,003
-260,438	-110,464	0,043	-0,006
-259,424	92,786	0,082	-0,066
-258,409	164,120	-0,131	-0,131
-257,395	-200,000	0,001	-0,064
-256,380	193,590	0,072	0,078
-255,365	134,198	0,041	0,038
-254,351	-200,000	-0,019	-0,084
-253,336	-145,640	-0,156	-0,010
-252,322	-200,000	-0,034	-0,143
-251,307	414,866	-0,049	-0,075
-250,292	-200,000	-0,010	-0,126
-249,278	61,338	0,059	-0,042
-248,263	-200,000	-0,006	0,045
-247,249	-82,507	-0,161	0,037
-246,234	800,000	-0,038	0,112
-245,219	49,755	0,118	-0,079
-244,205	364,875	0,021	-0,029
-243,190	218,085	0,057	0,064
-242,176	82,834	0,029	-0,022
-241,161	800,000	-0,038	0,078
-240,146	-200,000	-0,006	-0,057
-239,132	-200,000	0,027	0,112
-238,117	-71,377	0,083	0,022
-237,103	-127,940	-0,034	-0,003
-236,088	316,758	0,049	0,065
-235,073	-114,480	0,155	-0,021
-234,059	800,000	-0,055	0,119
-233,044	800,000	-0,011	-0,028
-232,030	-4,583	0,099	0,048
-231,015	-117,725	-0,049	-0,006
-230,000	551,028	-0,020	-0,034
-228,986	-23,126	-0,079	-0,034
-227,971	-200,000	0,002	-0,055
-226,957	164,184	-0,074	0,074
-225,942	615,458	-0,079	0,141
-224,927	-130,941	-0,111	-0,010
-223,913	289,355	0,012	0,015
-222,898	-124,079	0,057	-0,006
-221,884	800,000	0,050	0,106
-220,869	-112,277	0,108	-0,015
-219,855	-200,000	-0,013	0,090
-218,840	-200,000	0,029	0,176
-217,825	99,159	0,099	-0,081
-216,811	-200,000	-0,002	-0,066
-215,796	174,590	-0,020	-0,021
-214,782	-50,335	-0,062	0,021
-213,767	-200,000	-0,009	0,104
-212,752	-200,000	0,014	0,089
-211,738	-200,000	-0,015	0,138
-210,723	424,353	0,037	0,057
-209,709	-98,919	0,104	0,019
-208,694	-57,793	-0,061	-0,019
-207,679	800,000	-0,044	0,101
-206,665	-127,963	0,073	0,007
-205,650	43,135	-0,058	-0,038
-204,636	104,614	0,058	0,048
-203,621	-21,124	0,063	-0,027
-202,606	-21,532	-0,115	-0,049
-201,592	271,577	0,087	0,108
-200,577	115,113	0,099	-0,086
-199,563	184,871	-0,073	0,077
-198,548	-94,564	-0,099	0,019
-197,533	232,472	-0,054	0,063
-196,519	-1,732	0,103	0,051
-195,504	-72,748	0,108	-0,028
-194,490	-200,000	-0,016	-0,081
-193,475	800,000	0,013	-0,036
-192,460	42,980	-0,038	0,025
-191,446	54,723	-0,079	-0,054
-190,431	-86,223	-0,123	0,027
-189,417	-200,000	0,015	-0,092
-188,402	6,739	0,058	-0,031
-187,387	282,657	0,032	-0,040
-186,373	47,199	-0,035	-0,023
-185,358	114,573	-0,023	-0,020
-184,344	-200,000	-0,008	0,031
-183,329	314,588	-0,031	0,041
-182,315	163,947	0,011	-0,011
-181,300	-60,408	-0,066	0,020
-180,285	244,236	-0,037	0,044
-179,271	-81,254	0,043	-0,010
-178,256	200,276	0,063	-0,069
-177,242	28,243	-0,020	-0,012
-176,227	115,355	-0,072	0,062
-175,212	800,000	0,025	0,075
-174,198	800,000	0,029	0,065
-173,183	800,000	0,078	0,165
-172,169	-200,000	0,011	-0,103
-171,154	-200,000	-0,016	-0,093
-170,139	-200,000	-0,002	-0,040
-169,125	-200,000	-0,002	-0,011
-168,110	-4,163	-0,114	-0,056
-167,096	-74,544	-0,041	-0,010
-166,081	-133,070	-0,053	-0,005
-165,066	-43,736	-0,121	-0,043
-164,052	17,757	-0,066	-0,037
-163,037	-200,000	-0,017	-0,057
-162,023	273,550	0,068	-0,085
-161,008	56,675	0,094	0,065
-159,993	53,183	0,017	-0,012
-158,979	-200,000	0,006	-0,065
-157,964	-93,363	-0,037	-0,007
-156,950	262,743	-0,021	0,026
-155,935	-158,603	0,052	-0,002
-154,920	800,000	0,038	0,116
-153,906	-200,000	-0,021	0,080
-152,891	800,000	-0,042	0,105
-151,877	-200,000	-0,040	-0,131
-150,862	215,393	-0,102	-0,114
-149,847	317,775	0,065	-0,088
-148,833	800,000	-0,003	0,006
-147,818	105,133	0,174	0,145
-146,804	-27,185	0,049	0,020
-145,789	44,890	0,092	0,060
-144,775	362,281	-0,025	0,036
-143,760	-200,000	0,036	-0,283
-142,745	73,565	-0,045	0,033
-141,731	-185,959	0,035	-0,000
-140,716	-200,000	0,002	0,060
-139,702	-102,328	0,053	-0,009
-138,687	-91,688	-0,045	-0,009
-137,672	178,178	0,077	0,080
-136,658	-200,000	-0,026	0,083
-135,643	122,802	0,044	-0,039
-134,629	-62,730	0,088	-0,026
-133,614	-200,000	-0,001	0,121
-132,599	-95,057	0,164	-0,031
-131,585	160,189	0,095	-0,094
-130,570	-150,300	-0,097	0,005
-129,556	-178,586	-0,072	0,001
-128,541	-200,000	-0,040	-0,139
-127,526	304,308	0,020	0,026
-126,512	800,000	-0,020	0,055
-125,497	-200,000	0,003	-0,075
-124,483	800,000	0,021	0,053
-123,468	-182,806	-0,124	-0,002
-122,453	-25,721	-0,096	0,040
-121,439	460,713	0,042	0,066
-120,424	106,913	0,142	-0,119
-119,410	-55,915	0,166	-0,052
-118,395	-200,000	0,010	-0,046
-117,380	-200,000	-0,010	-0,044
-116,366	457,619	-0,023	0,036
-115,351	800,000	0,039	0,121
-114,337	800,000	-0,059	0,118
-113,322	800,000	-0,048	-0,102
-112,307	323,792	-0,055	0,074
-111,293	353,775	-0,043	0,061
-110,278	-48,452	-0,106	0,036
-109,264	458,070	-0,077	-0,122
-108,249	191,270	0,049	-0,052
-107,234	-200,000	-0,011	-0,036
-106,220	-11,230	-0,075	0,035
-105,205	-26,811	-0,067	-0,028
-104,191	-22,811	0,053	0,023
-103,176	56,791	0,141	0,097
-102,162	-200,000	-0,005	0,093
-101,147	192,464	0,039	-0,042
-100,132	-66,838	-0,180	-0,050
-99,118	270,542	0,090	-0,113
-98,103	800,000	-0,018	-0,044
-97,089	-200,000	-0,010	0,044
-96,074	-52,810	0,114	-0,037
-95,059	167,367	0,044	-0,045
-94,045	800,000	-0,035	0,083
-93,030	130,899	0,007	0,006
-92,016	67,036	0,212	-0,152
-91,001	33,951	-0,077	0,047
-89,986	-200,000	-0,013	0,103
-88,972	276,740	-0,064	0,080
-87,957	800,000	0,018	-0,041
-86,943	-200,000	-0,009	-0,094
-85,928	397,830	-0,059	-0,087
-84,913	285,121	0,047	-0,060
-83,899	-200,000	-0,019	-0,079
-82,884	0,717	0,069	0,035
-81,870	658,546	-0,021	-0,038
-80,855	-48,667	-0,030	-0,010
-79,840	14,513	-0,194	-0,107
-78,826	200,949	-0,095	-0,104
-77,811	337,641	-0,057	-0,078
-76,797	-200,000	-0,003	0,091
-75,782	61,791	0,070	-0,049
-74,767	80,792	0,073	0,056
-73,753	84,665	-0,129	0,100
-72,738	378,067	0,027	-0,039
-71,724	-200,000	0,017	0,099
-70,709	39,733	0,085	-0,054
-69,694	-200,000	-0,025	-0,082
-68,680	592,475	0,057	0,100
-67,665	800,000	-0,021	0,055
-66,651	173,178	0,043	0,043
-65,636	-60,881	0,051	0,015
-64,622	-200,000	0,010	0,035
-63,607	683,635	-0,038	0,071
-62,592	-101,309	0,104	0,018
-61,578	149,231	0,061	0,059
-60,563	98,056	-0,117	0,095
-59,549	576,250	-0,034	0,058
-58,534	42,758	-2,017	-1,294
-57,519	566,600	-1,136	-1,953
-56,505	-200,000	-0,261	-4,389
-55,490	501,387	1,001	1,636
-54,476	800,000	5,123	11,132
-53,461	-200,000	21,755	340,391
-52,446	800,000	761,511	2321,596
-51,432	541,072	1657,370	2796,284
-50,417	70,455	1654,333	1205,267
-49,403	16,986	1527,732	851,557
-48,388	11,086	1451,796	780,808
-47,373	19,170	1443,550	814,980
-46,359	14,506	1432,610	786,687
-45,344	9,380	1428,422	760,041
-44,330	9,307	1426,557	758,677
-43,315	9,292	1424,674	757,571
-42,300	9,314	1423,065	756,791
-41,286	9,318	1421,835	756,127
-40,271	9,285	1420,537	755,248
-39,257	9,302	1419,433	754,714
-38,242	9,319	1418,451	754,240
-37,227	9,302	1417,381	753,563
-36,213	9,322	1415,860	752,818
-35,198	9,292	1414,761	752,060
-34,184	9,378	1413,599	751,816
-33,169	9,293	1412,302	750,698
-32,154	9,315	1411,587	750,391
-31,140	9,364	1409,951	749,722
-30,125	9,390	1408,901	749,256
-29,111	9,333	1407,858	748,404
-28,096	9,330	1406,703	747,750
-27,082	9,308	1405,473	746,960
-26,067	9,254	1404,408	746,111
-25,052	9,314	1403,427	745,843
-24,038	9,290	1402,342	745,127
-23,023	9,290	1401,522	744,661
-22,009	9,277	1400,460	744,006
-20,994	9,320	1399,362	743,595
-19,979	9,281	1398,617	742,987
-18,965	9,281	1397,602	742,415
-17,950	9,236	1396,627	741,661
-16,936	9,232	1395,861	741,208
-15,921	9,184	1394,812	740,397
-14,906	9,217	1393,883	740,029
-13,892	9,198	1393,033	739,458
-12,877	9,173	1392,366	738,962
-11,863	9,189	1391,538	738,565
-10,848	9,161	1390,368	737,786
-9,833	9,123	1389,587	737,165
-8,819	9,101	1388,520	736,467
-7,804	9,095	1387,691	735,974
-6,790	9,068	1386,684	735,283
-5,775	9,117	1385,641	734,928
-4,760	9,079	1384,645	734,196
-3,746	9,103	1383,821	733,842
-2,731	9,109	1382,805	733,302
-1,717	9,080	1381,933	732,675
-0,702	9,097	1380,269	731,840
0,313	13,139	1292,460	703,676
1,327	29,209	684,548	408,852
2,342	45,368	118,055	76,663
3,356	-0,749	16,564	8,249
4,371	-1,313	3,679	1,825
5,386	1,117	1,198	0,604
6,400	800,000	0,249	0,727
7,415	-28,082	-0,279	-0,113
8,429	-5,022	-0,174	-0,084
9,444	77,050	-0,276	-0,206
10,459	56,129	-0,391	-0,267
11,473	277,631	-0,201	-0,252
12,488	16,501	-0,291	-0,161
13,502	-116,301	-0,230	-0,030
14,517	4,042	-0,444	-0,228
15,531	3,790	-0,278	-0,143
16,546	17,857	-0,234	-0,131
17,561	547,810	-0,240	-0,407
18,575	-125,817	-0,230	-0,024
19,590	-72,187	-0,252	-0,065
20,604	153,805	-0,281	-0,271
21,619	20,710	-0,421	-0,239
22,634	135,509	-0,394	-0,361
23,648	140,271	-0,352	-0,327
24,663	300,942	-0,253	-0,329
25,677	-17,229	-0,383	-0,169
26,692	-0,983	-0,241	-0,119
27,707	46,896	-0,248	-0,162
28,721	-34,551	-0,430	-0,165
29,736	-39,511	-0,424	-0,156
30,750	94,767	-0,420	-0,336
31,765	56,973	-0,339	-0,232
32,780	109,925	-0,349	-0,295
33,794	23,070	-0,381	-0,219
34,809	77,082	-0,316	-0,236
35,823	149,502	-0,357	-0,340
36,838	105,184	-0,445	-0,369
37,853	-19,394	-0,439	-0,191
38,867	75,992	-0,314	-0,233
39,882	74,491	-0,216	-0,159
40,896	43,846	-0,250	-0,160
41,911	-120,948	-0,301	-0,035
42,926	-18,858	-0,409	-0,178
43,940	26,568	-0,330	-0,193
44,955	370,863	-0,206	-0,295
45,969	-8,730	-0,307	-0,144
46,984	71,395	-0,334	-0,244
47,999	72,638	-0,224	-0,164
49,013	96,823	-0,213	-0,171
50,028	-90,235	-0,495	-0,100
51,042	-43,173	-0,315	-0,111
52,057	49,629	-0,419	-0,276
53,071	404,154	-0,209	-0,310
54,086	51,342	-0,240	-0,159
55,101	357,855	-0,237	-0,333
56,115	162,826	-0,229	-0,226
57,130	49,423	-0,277	-0,183
58,144	-52,006	-0,385	-0,125
59,159	18,889	-0,421	-0,236
60,174	189,700	-0,301	-0,317
61,188	25,422	-0,326	-0,190
62,203	96,997	-0,284	-0,228
63,217	83,712	-0,265	-0,203
64,232	39,501	-0,328	-0,206
65,247	-19,019	-0,442	-0,192
66,261	-6,237	-0,320	-0,153
67,276	133,495	-0,218	-0,198
68,290	84,314	-0,391	-0,299
69,305	-65,728	-0,355	-0,099
70,320	-2,556	-0,397	-0,194
71,334	213,117	-0,233	-0,258
72,349	11,622	-0,310	-0,166
73,363	-34,922	-0,508	-0,193
74,378	96,116	-0,256	-0,205
75,393	4,612	-0,312	-0,160
76,407	-52,544	-0,239	-0,077
77,422	79,904	-0,259	-0,195
78,436	144,183	-0,264	-0,247
79,451	-107,757	-0,372	-0,056
80,466	-34,913	-0,296	-0,113
81,480	22,064	-0,277	-0,158
82,495	-48,590	-0,394	-0,132
83,509	800,000	-0,104	-0,231
84,524	27,082	-0,273	-0,160
85,539	154,338	-0,300	-0,289
86,553	-99,144	-0,240	-0,042
87,568	53,912	-0,362	-0,243
88,582	270,360	-0,292	-0,361
89,597	131,402	-0,240	-0,216
90,611	145,218	-0,147	-0,138
91,626	23,262	-0,223	-0,128
92,641	-31,388	-0,181	-0,071
93,655	-54,133	-0,424	-0,134
94,670	39,364	-0,236	-0,148
95,684	38,863	-0,280	-0,175
96,699	-68,974	-0,219	-0,059
97,714	178,502	-0,313	-0,320
98,728	-90,399	-0,213	0,043
99,743	442,973	-0,211	-0,324
100,757	-46,926	-0,325	-0,110
101,772	155,623	-0,252	-0,243
102,787	90,218	-0,281	-0,220
103,801	52,171	-0,278	-0,185
104,816	116,287	-0,206	-0,176
105,830	-13,901	-0,359	-0,162
106,845	93,792	-0,317	-0,251
107,860	170,798	-0,225	-0,225
108,874	67,971	-0,169	-0,121
109,889	45,318	-0,318	-0,205
110,903	23,764	-0,321	-0,184
111,918	30,930	-0,320	-0,191
112,933	800,000	-0,068	-0,141
113,947	187,232	-0,216	-0,225
114,962	39,465	-0,249	-0,155
115,976	83,241	-0,275	-0,209
116,991	29,183	-0,185	-0,109
118,006	108,926	-0,255	-0,213
119,020	-28,302	-0,255	-0,102
120,035	74,655	-0,262	-0,192
121,049	203,676	-0,110	-0,119
122,064	86,692	-0,248	-0,191
123,079	109,592	-0,227	-0,189
124,093	-17,520	-0,263	-0,115
125,108	195,000	-0,250	-0,265
126,122	-139,420	-0,171	0,013
127,137	-145,779	-0,270	0,017
128,151	675,595	-0,100	-0,182
129,166	56,563	-0,142	-0,096
130,181	5,888	-0,301	-0,155
131,195	203,777	-0,134	-0,144
132,210	191,221	-0,292	-0,307
133,224	-156,754	-0,368	-0,016
134,239	257,785	-0,128	-0,154
135,254	366,794	-0,143	-0,202
136,268	45,615	-0,198	-0,127
137,283	397,980	-0,153	-0,224
138,297	-23,719	-0,512	-0,213
139,312	96,145	-0,289	-0,230
140,327	16,479	-0,277	-0,152
141,341	-133,098	-0,305	0,027
142,356	-9,784	-0,264	-0,122
143,370	46,545	-0,218	-0,141
144,385	51,809	-0,105	-0,069
145,400	-33,981	-0,324	-0,124
146,414	-200,000	-0,069	-0,223
147,429	44,904	-0,306	-0,196
148,443	-120,271	-0,359	-0,042
149,458	-165,369	-0,256	-0,008
150,473	-56,060	-0,196	-0,060
151,487	-25,209	-0,289	-0,119
152,502	413,933	-0,138	-0,205
153,516	6,152	-0,313	-0,161
154,531	95,578	-0,193	-0,153
155,546	126,092	-0,256	-0,225
156,560	-65,652	-0,264	-0,073
157,575	-200,000	-0,028	-0,153
158,589	-21,378	-0,341	-0,144
159,604	143,978	-0,240	-0,222
160,619	-79,468	-0,259	-0,060
161,633	3,306	-0,356	-0,180
162,648	-70,246	-0,312	-0,082
163,662	92,647	-0,193	-0,151
164,677	724,389	-0,155	-0,288
165,692	134,740	-0,182	-0,165
166,706	19,162	-0,286	-0,159
167,721	31,792	-0,293	-0,175
168,735	329,392	-0,273	-0,366
169,750	48,581	-0,207	-0,134
170,764	543,902	-0,149	-0,248
171,779	75,817	-0,180	-0,132
172,794	74,677	-0,211	-0,154
173,808	196,120	-0,147	-0,156
174,823	303,923	-0,209	-0,269
175,837	158,416	-0,265	-0,255
176,852	20,851	-0,186	-0,104
177,867	86,914	-0,275	-0,211
178,881	46,348	-0,189	-0,121
179,896	-80,697	-0,268	-0,061
180,910	248,450	-0,125	-0,147
181,925	143,751	-0,233	-0,216
182,940	12,902	-0,194	-0,104
183,954	418,079	-0,208	-0,310
184,969	13,508	-0,225	-0,121
185,983	181,495	-0,161	-0,165
186,998	47,234	-0,143	-0,092
188,013	-14,015	-0,170	-0,076
189,027	126,428	-0,297	-0,261
190,042	-35,818	-0,285	-0,107
191,056	285,122	-0,191	-0,239
192,071	378,124	-0,147	-0,209
193,086	-120,845	-0,197	-0,023
194,100	-15,145	-0,121	-0,053
195,115	-68,428	-0,206	-0,055
196,129	-46,422	-0,246	-0,083
197,144	158,620	-0,217	-0,209
198,159	534,031	-0,130	-0,214
199,173	-57,372	-0,211	-0,064
200,188	-6,547	-0,269	-0,127
201,202	124,533	-0,310	-0,270
202,217	60,267	-0,162	-0,111
203,232	251,920	-0,203	-0,240
204,246	-200,000	-0,070	-0,233
205,261	270,961	-0,244	-0,297
206,275	102,513	-0,144	-0,117
207,290	20,379	-0,153	-0,086
208,304	226,818	-0,126	-0,142
209,319	15,554	-0,191	-0,103
210,334	-151,408	-0,313	0,016
211,348	-170,872	-0,253	-0,006
212,363	46,187	-0,234	-0,150
213,377	157,721	-0,181	-0,174
214,392	193,936	-0,163	-0,171
215,407	800,000	-0,055	-0,130
216,421	-19,231	-0,111	0,048
217,436	25,843	-0,154	-0,088
218,450	18,910	-0,207	-0,115
219,465	-35,592	-0,136	-0,051
220,480	42,149	-0,152	-0,095
221,494	-150,821	-0,186	0,010
222,509	-72,195	-0,154	0,039
223,523	299,864	-0,139	-0,177
224,538	96,195	-0,239	-0,189
225,553	120,366	-0,162	-0,139
226,567	177,219	-0,246	-0,247
227,582	160,306	0,034	-0,033
228,596	195,575	-0,072	-0,076
229,611	280,991	-0,131	-0,163
230,626	-64,856	-0,177	0,049
231,640	-183,790	-0,107	-0,001
232,655	49,836	-0,239	-0,155
233,669	160,436	-0,204	-0,197
234,684	-70,916	-0,280	-0,072
235,699	-85,814	-0,196	-0,042
236,713	6,154	-0,124	-0,063
237,728	-77,901	-0,188	0,044
238,742	-12,167	-0,163	-0,073
239,757	232,472	-0,207	-0,235
240,772	55,795	-0,117	-0,078
241,786	287,924	-0,137	-0,172
242,801	-115,535	-0,115	0,015
243,815	44,677	-0,129	0,082
244,830	-200,000	-0,025	-0,082
245,844	-92,580	-0,278	-0,053
246,859	130,772	-0,225	-0,199
247,874	216,916	-0,136	-0,150
248,888	-47,538	-0,157	-0,052
249,903	5,412	-0,213	-0,108
250,917	-144,096	-0,149	-0,010
251,932	-125,382	-0,221	-0,023
252,947	72,241	-0,169	-0,121
253,961	800,000	-0,074	-0,204
254,976	-7,831	-0,143	-0,066
255,990	114,464	-0,238	-0,200
257,005	-79,981	-0,213	-0,049
258,020	800,000	-0,100	-0,200
259,034	19,390	-0,212	-0,117
260,049	-48,293	-0,263	-0,087
261,063	353,431	-0,135	-0,186
262,078	800,000	-0,093	-0,196
263,093	181,455	-0,181	-0,183
264,107	129,603	-0,161	-0,142
265,122	11,277	-0,131	-0,069
266,136	53,097	-0,183	-0,121
267,151	155,596	-0,154	-0,146
268,166	-27,455	-0,212	-0,084
269,180	532,529	-0,133	-0,218
270,195	277,046	-0,198	-0,243
271,209	-57,473	-0,216	-0,065
272,224	-200,000	-0,062	-0,225
273,239	564,028	-0,111	-0,186
274,253	-12,166	-0,146	-0,066
275,268	-56,876	-0,256	-0,077
276,282	354,119	-0,091	-0,124
277,297	-110,654	-0,166	-0,023
278,312	127,198	-0,190	-0,166
279,326	-104,622	-0,100	-0,016
280,341	-140,721	-0,127	-0,009
281,355	-98,200	-0,203	-0,036
282,370	25,456	-0,196	-0,112
283,384	123,088	-0,083	-0,071
284,399	-55,336	-0,117	-0,036
285,414	12,903	-0,234	-0,124
286,428	241,473	-0,155	-0,179
287,443	-21,952	-0,186	-0,077
288,457	8,753	-0,210	-0,109
289,472	-102,687	-0,172	-0,028
290,487	220,281	-0,172	-0,190
291,501	-55,115	-0,149	-0,046
292,516	-160,445	-0,180	-0,007
293,530	-8,479	-0,213	-0,098
294,545	234,679	-0,097	-0,110
295,560	-64,011	-0,240	-0,067
296,574	800,000	-0,118	-0,261
297,589	98,812	-0,190	-0,150
298,603	-14,520	-0,208	-0,091
299,618	173,728	-0,070	-0,069
300,633	-172,586	-0,104	-0,002
301,647	-93,784	-0,127	0,024
302,662	-130,077	-0,253	0,023
303,676	-153,051	-0,250	0,012
304,691	178,446	-0,177	-0,177
305,706	31,418	-0,146	-0,086
306,720	-29,377	-0,213	-0,083
307,735	-61,476	-0,095	-0,027
308,749	126,133	-0,186	-0,162
309,764	-142,390	-0,149	0,010
310,779	132,883	-0,114	-0,101
311,793	35,821	-0,172	-0,103
312,808	-53,523	-0,272	-0,085
313,822	41,385	-0,089	0,055
314,837	80,960	-0,147	-0,109
315,852	394,591	-0,077	0,111
316,866	-137,704	-0,152	0,012
317,881	-68,583	-0,217	-0,057
318,895	-27,543	-0,159	-0,063
319,910	-66,841	-0,153	-0,041
320,925	71,232	-0,285	-0,202
321,939	0,845	-0,139	-0,068
322,954	-27,782	-0,205	0,081
323,968	314,842	-0,060	-0,078
324,983	359,848	-0,053	-0,072
325,997	-31,482	-0,231	0,089
327,012	-95,752	-0,228	-0,041
328,027	-60,276	-0,150	-0,044
329,041	-52,473	-0,105	-0,033
330,056	-11,398	-0,164	-0,074
331,070	83,640	-0,066	-0,049
332,085	591,578	-0,111	-0,188
333,100	167,521	-0,201	-0,196
334,114	800,000	-0,070	-0,140
335,129	2,076	-0,135	-0,067
336,143	287,084	-0,149	-0,184
337,158	-200,000	-0,021	-0,088
338,173	18,411	-0,119	0,065
339,187	0,864	-0,158	-0,077
340,202	63,726	-0,167	-0,114
341,216	240,367	-0,105	-0,120
342,231	-29,487	-0,235	-0,091
343,246	38,474	-0,110	-0,067
344,260	43,883	-0,171	-0,107
345,275	-111,103	-0,090	0,012
346,289	-200,000	0,000	-0,100
347,304	-37,114	-0,048	0,017
348,319	-155,840	-0,131	0,006
349,333	800,000	-0,061	-0,142
350,348	-56,441	-0,161	-0,048
351,362	-99,262	-0,178	-0,030
352,377	203,145	-0,061	0,064
353,392	55,269	-0,200	-0,132
354,406	-60,644	-0,198	-0,057
355,421	206,715	1307,973	1394,650
356,435	158,991	1467,852	1395,136
