DTS Sentinel unit serial number:	SN410029Multiplexer serial number:	ORYXHardware model number:	OX2-SRSoftware version number:	ORYX F/W v4,00 Oryx Data Collector v3.7.2.0data status	okinstallation	B3 Nyhavnadifferential loss correction	single-endedforward channel	channel 1reverse channel	N/Adate	2023/12/05time	03:22:30forward acquisition time	300,00reverse acquisition time	0,00gamma	499,1914k internal	0,3201k external	0,3201temperature offset calibration	1,0000default loss term (dB/km)	0,3820temperature slope calibration	1,0000multiplexer offset coefficient	1,0000multiplexer slope coefficient	1,0000fibre end	0,00T internal ref (°C)	14,07T ext. ref 1 (°C)	-0,65T ext. ref 2 (°C)	-0,67length (m)	temperature (°C)	Stokes	anti-Stokes-744,400	402,580	-0,243	-0,373
-743,385	-200,000	0,026	0,251
-742,371	800,000	-0,076	-0,182
-741,356	-200,000	0,004	0,405
-740,342	-200,000	-0,027	-0,218
-739,327	800,000	-0,099	0,220
-738,312	120,742	-0,262	-0,237
-737,298	800,000	-0,055	0,163
-736,283	459,578	-0,088	-0,143
-735,269	800,000	0,172	0,374
-734,254	11,678	-0,276	-0,154
-733,239	17,491	-0,168	0,097
-732,225	83,266	-0,143	-0,113
-731,210	123,423	0,147	0,134
-730,196	-54,784	0,044	0,014
-729,181	106,386	0,018	0,016
-728,167	-45,262	-0,037	-0,013
-727,152	-1,557	-0,082	-0,042
-726,137	334,253	-0,060	-0,085
-725,123	-29,854	-0,068	-0,028
-724,108	-71,075	-0,044	0,012
-723,094	800,000	-0,033	-0,074
-722,079	384,841	-0,072	-0,109
-721,064	-200,000	-0,014	0,129
-720,050	27,653	0,193	0,118
-719,035	788,614	-0,043	-0,086
-718,021	-200,000	0,029	-0,136
-717,006	59,996	-0,174	-0,125
-715,991	800,000	-0,052	-0,148
-714,977	464,416	-0,043	-0,070
-713,962	-200,000	0,002	-0,208
-712,948	273,177	0,073	0,094
-711,933	800,000	-0,019	0,046
-710,918	-122,420	0,070	-0,008
-709,904	-200,000	-0,038	-0,159
-708,889	-200,000	0,017	-0,066
-707,875	-200,000	-0,029	-0,099
-706,860	-200,000	0,007	-0,058
-705,845	800,000	-0,052	0,137
-704,831	34,328	-0,130	0,082
-703,816	800,000	-0,024	0,054
-702,802	800,000	0,059	0,168
-701,787	800,000	-0,020	-0,041
-700,772	-153,600	-0,074	-0,004
-699,758	-200,000	0,005	-0,051
-698,743	373,121	-0,035	-0,051
-697,729	-86,423	0,084	0,019
-696,714	-200,000	0,016	0,124
-695,699	-80,536	-0,130	0,031
-694,685	-164,478	-0,018	-0,001
-693,670	800,000	-0,022	0,069
-692,656	370,962	0,107	0,158
-691,641	405,892	-0,035	-0,053
-690,627	-126,247	0,164	0,018
-689,612	-35,439	0,068	0,027
-688,597	-200,000	-0,022	-0,076
-687,583	-200,000	0,010	-0,149
-686,568	-90,031	-0,172	-0,036
-685,554	12,771	-0,044	-0,025
-684,539	-71,618	-0,093	0,025
-683,524	778,203	-0,033	0,066
-682,510	-49,945	-0,131	0,045
-681,495	94,912	0,075	-0,062
-680,481	-31,788	-0,069	0,028
-679,466	-76,279	-0,151	-0,038
-678,451	-200,000	0,040	-0,142
-677,437	1,863	-0,021	-0,011
-676,422	27,169	-0,039	0,024
-675,408	3,607	-0,121	0,064
-674,393	75,849	-0,092	-0,070
-673,378	61,555	-0,222	-0,160
-672,364	-60,307	-0,079	-0,024
-671,349	800,000	0,037	-0,107
-670,335	434,647	0,073	-0,115
-669,320	-174,694	-0,085	0,002
-668,305	-107,076	-0,056	-0,009
-667,291	413,922	-0,020	0,030
-666,276	800,000	0,022	0,046
-665,262	45,570	0,070	-0,047
-664,247	404,265	-0,110	-0,169
-663,232	573,557	-0,044	-0,077
-662,218	66,565	0,110	-0,081
-661,203	-200,000	-0,021	0,084
-660,189	-200,000	-0,049	-0,000
-659,174	30,783	0,095	0,059
-658,159	378,131	-0,060	-0,090
-657,145	443,629	-0,038	-0,061
-656,130	400,297	-0,075	-0,114
-655,116	467,514	-0,033	-0,053
-654,101	800,000	0,022	-0,048
-653,086	-200,000	0,000	-0,106
-652,072	580,163	-0,049	-0,088
-651,057	-200,000	-0,015	-0,060
-650,043	79,495	-0,109	-0,085
-649,028	379,897	-0,087	-0,129
-648,014	-90,462	0,133	0,028
-646,999	-200,000	0,021	0,077
-645,984	16,780	-0,020	-0,011
-644,970	82,203	0,036	-0,028
-643,955	-200,000	0,036	-0,154
-642,941	119,030	0,065	-0,058
-641,926	-12,088	-0,134	-0,063
-640,911	359,387	0,067	0,097
-639,897	800,000	-0,064	0,151
-638,882	-112,495	0,042	-0,006
-637,868	-200,000	-0,020	-0,091
-636,853	-200,000	-0,023	-0,135
-635,838	-200,000	0,006	-0,086
-634,824	800,000	-0,037	-0,102
-633,809	45,588	0,105	-0,070
-632,795	311,975	-0,033	0,045
-631,780	800,000	0,036	-0,108
-630,765	800,000	0,060	-0,138
-629,751	-170,367	0,072	0,002
-628,736	366,070	-0,041	-0,061
-627,722	-63,873	-0,028	0,008
-626,707	-200,000	-0,010	-0,085
-625,692	-46,071	0,018	-0,006
-624,678	800,000	0,021	-0,055
-623,663	800,000	0,036	0,095
-622,649	52,674	-0,085	-0,059
-621,634	316,596	-0,077	-0,106
-620,619	-30,057	-0,087	-0,036
-619,605	254,734	-0,037	-0,046
-618,590	-59,778	0,084	-0,026
-617,576	800,000	0,022	-0,047
-616,561	-200,000	-0,006	-0,034
-615,546	-178,609	-0,109	0,002
-614,532	77,368	0,072	-0,055
-613,517	101,860	-0,113	-0,095
-612,503	800,000	-0,019	0,043
-611,488	-144,428	-0,022	-0,001
-610,474	-200,000	-0,009	0,045
-609,459	-200,000	-0,041	0,163
-608,444	-16,558	-0,043	0,020
-607,430	492,120	-0,066	-0,109
-606,415	476,469	0,100	-0,165
-605,401	29,210	-0,056	-0,034
-604,386	75,152	0,039	0,030
-603,371	157,148	0,036	-0,036
-602,357	-88,358	-0,167	-0,036
-601,342	800,000	-0,025	-0,057
-600,328	674,695	-0,044	0,082
-599,313	-15,212	0,099	0,046
-598,298	-50,987	0,063	0,021
-597,284	800,000	0,034	-0,068
-596,269	-145,136	-0,058	0,004
-595,255	-200,000	0,000	-0,032
-594,240	-158,279	0,033	0,001
-593,225	-200,000	-0,015	-0,075
-592,211	79,844	0,044	-0,034
-591,196	800,000	0,027	-0,078
-590,182	800,000	0,014	-0,030
-589,167	147,865	0,082	0,080
-588,152	800,000	-0,014	-0,043
-587,138	12,329	-0,069	0,038
-586,123	61,638	0,053	0,038
-585,109	800,000	0,071	-0,169
-584,094	44,427	0,105	0,070
-583,079	-50,391	-0,039	0,013
-582,065	800,000	-0,007	-0,018
-581,050	-105,356	-0,057	0,009
-580,036	-200,000	-0,006	0,079
-579,021	28,394	-0,051	-0,031
-578,006	33,768	-0,126	-0,079
-576,992	24,362	-0,016	0,010
-575,977	252,619	0,012	0,015
-574,963	800,000	-0,021	0,055
-573,948	800,000	-0,013	0,034
-572,934	-12,098	0,136	0,064
-571,919	-42,257	-0,289	0,106
-570,904	38,742	-0,100	0,065
-569,890	-200,000	0,028	0,114
-568,875	-77,644	0,015	-0,004
-567,861	495,912	0,055	-0,091
-566,846	458,489	-0,068	0,110
-565,831	86,246	-0,075	0,060
-564,817	-69,871	0,026	-0,007
-563,802	-200,000	-0,006	0,144
-562,788	-200,000	0,006	-0,038
-561,773	12,485	0,072	-0,040
-560,758	-106,320	-0,160	-0,026
-559,744	-17,268	0,093	-0,042
-558,729	-142,844	-0,076	0,005
-557,715	-200,000	0,131	0,000
-556,700	233,635	-0,016	-0,019
-555,685	38,508	-0,082	-0,053
-554,671	34,595	0,079	-0,050
-553,656	-93,082	0,179	-0,036
-552,642	351,766	0,029	-0,042
-551,627	102,640	0,044	0,037
-550,612	800,000	-0,052	0,139
-549,598	800,000	0,019	0,050
-548,583	-29,792	-0,188	0,077
-547,569	72,223	-0,106	-0,080
-546,554	667,702	0,033	0,061
-545,539	800,000	-0,019	0,050
-544,525	-200,000	0,003	-0,129
-543,510	592,956	0,018	0,032
-542,496	800,000	0,036	0,075
-541,481	499,474	-0,114	-0,190
-540,466	800,000	-0,025	-0,058
-539,452	380,802	0,037	0,055
-538,437	4,392	0,075	0,039
-537,423	-48,085	-0,028	0,010
-536,408	114,417	0,023	-0,020
-535,393	-149,792	-0,090	-0,005
-534,379	85,787	-0,129	-0,103
-533,364	-53,217	0,097	-0,032
-532,350	-200,000	0,001	0,053
-531,335	655,629	0,030	0,055
-530,321	800,000	0,024	0,066
-529,306	-66,612	-0,096	0,027
-528,291	800,000	0,050	-0,112
-527,277	-19,707	-0,058	-0,026
-526,262	430,238	0,083	0,130
-525,248	50,801	-0,149	0,102
-524,233	-200,000	-0,040	-0,132
-523,218	-200,000	-0,026	0,107
-522,204	-200,000	-0,008	0,069
-521,189	634,271	0,048	-0,088
-520,175	73,335	-0,116	-0,087
-519,160	-200,000	0,027	-0,086
-518,145	129,508	0,093	-0,086
-517,131	310,575	0,063	0,086
-516,116	-123,237	0,105	-0,012
-515,102	-146,953	-0,020	-0,001
-514,087	-126,356	-0,113	-0,012
-513,072	779,150	0,021	-0,041
-512,058	89,944	-0,059	0,048
-511,043	-200,000	0,020	0,146
-510,029	-200,000	0,008	0,099
-509,014	800,000	0,037	-0,106
-507,999	800,000	-0,030	-0,079
-506,985	-4,263	-0,101	-0,050
-505,970	-200,000	-0,006	-0,072
-504,956	800,000	-0,047	0,134
-503,941	200,971	0,041	0,046
-502,926	-29,386	0,044	-0,018
-501,912	134,722	0,095	0,089
-500,897	694,449	-0,040	0,075
-499,883	800,000	-0,022	0,049
-498,868	-106,914	-0,106	-0,017
-497,853	50,837	-0,111	-0,075
-496,839	75,125	0,076	0,058
-495,824	149,813	-0,063	0,061
-494,810	-200,000	0,048	0,189
-493,795	287,411	0,137	0,179
-492,781	-37,463	-0,064	0,024
-491,766	97,076	-0,081	0,067
-490,751	-13,728	-0,078	-0,036
-489,737	-79,583	-0,064	0,015
-488,722	-109,742	0,143	0,021
-487,708	153,371	-0,074	0,073
-486,693	-200,000	0,022	0,101
-485,678	15,117	0,090	0,051
-484,664	488,536	-0,106	-0,175
-483,649	800,000	-0,063	0,128
-482,635	283,397	0,040	-0,052
-481,620	800,000	0,019	0,039
-480,605	188,031	-0,062	-0,067
-479,591	699,286	-0,014	-0,027
-478,576	525,668	-0,009	-0,015
-477,562	306,521	0,050	-0,068
-476,547	34,575	0,045	0,028
-475,532	-200,000	0,001	-0,006
-474,518	651,574	0,047	0,087
-473,503	17,233	0,148	0,084
-472,489	38,976	-0,125	0,080
-471,474	125,283	0,053	0,049
-470,459	-17,414	-0,011	-0,005
-469,445	33,912	-0,114	-0,072
-468,430	-200,000	-0,005	0,124
-467,416	-11,625	0,133	0,062
-466,401	-200,000	0,010	-0,107
-465,386	92,044	0,087	-0,071
-464,372	382,655	0,071	0,105
-463,357	27,539	-0,090	0,054
-462,343	-148,084	0,025	0,001
-461,328	-61,974	-0,059	-0,018
-460,313	-43,844	-0,060	-0,022
-459,299	46,909	0,042	0,028
-458,284	2,368	-0,134	-0,069
-457,270	-200,000	0,027	0,109
-456,255	241,365	-0,062	0,075
-455,241	312,069	0,047	-0,064
-454,226	-200,000	-0,028	-0,216
-453,211	29,867	-0,046	-0,028
-452,197	-200,000	-0,002	0,091
-451,182	-200,000	0,046	0,211
-450,168	-200,000	0,000	0,096
-449,153	-200,000	0,030	0,180
-448,138	800,000	-0,023	-0,070
-447,124	233,768	-0,029	-0,034
-446,109	800,000	-0,039	0,106
-445,095	-200,000	-0,010	0,179
-444,080	-84,950	0,163	-0,037
-443,065	-48,266	-0,100	-0,035
-442,051	61,015	-0,030	-0,022
-441,036	800,000	0,031	-0,092
-440,022	-200,000	0,007	-0,027
-439,007	-51,795	0,108	0,036
-437,992	670,431	-0,016	-0,029
-436,978	-200,000	-0,012	-0,062
-435,963	-61,226	-0,071	-0,022
-434,949	-200,000	0,023	0,126
-433,934	-120,355	-0,105	0,013
-432,919	81,120	-0,014	-0,011
-431,905	-75,874	-0,137	0,035
-430,890	-29,361	0,250	0,102
-429,876	106,768	-0,092	0,078
-428,861	-96,065	-0,047	-0,009
-427,846	-200,000	0,009	0,040
-426,832	166,389	-0,050	0,051
-425,817	159,208	0,063	0,063
-424,803	-200,000	-0,020	-0,063
-423,788	-107,296	0,077	0,012
-422,773	800,000	0,072	0,169
-421,759	-53,428	-0,106	0,035
-420,744	381,108	-0,069	-0,102
-419,730	-161,293	-0,137	-0,005
-418,715	-69,676	-0,155	-0,042
-417,701	142,626	0,082	-0,079
-416,686	800,000	0,029	0,071
-415,671	29,915	0,114	0,070
-414,657	-200,000	-0,018	-0,089
-413,642	-11,348	0,166	0,078
-412,628	800,000	-0,051	-0,132
-411,613	-200,000	0,012	-0,142
-410,598	-200,000	0,019	-0,132
-409,584	-200,000	0,016	0,225
-408,569	121,777	0,109	-0,098
-407,555	709,042	-0,070	0,133
-406,540	-200,000	0,008	0,092
-405,525	-200,000	0,016	0,073
-404,511	303,028	-0,075	0,100
-403,496	12,428	0,029	-0,016
-402,482	-52,052	0,121	-0,040
-401,467	22,276	0,155	0,091
-400,452	113,069	-0,059	0,052
-399,438	321,618	-0,072	-0,098
-398,423	-200,000	-0,028	-0,116
-397,409	800,000	0,024	0,061
-396,394	-190,251	0,119	0,001
-395,379	464,330	-0,040	-0,064
-394,365	696,393	0,081	0,153
-393,350	-17,707	0,053	0,024
-392,336	-200,000	0,028	0,101
-391,321	-126,756	0,132	0,014
-390,306	-134,845	-0,119	0,010
-389,292	453,497	0,061	-0,097
-388,277	462,468	-0,036	-0,058
-387,263	388,571	0,059	-0,087
-386,248	188,315	0,081	-0,087
-385,233	-200,000	0,015	0,114
-384,219	35,759	-0,087	0,054
-383,204	-200,000	0,021	-0,084
-382,190	100,366	0,062	-0,052
-381,175	-51,305	0,044	0,015
-380,160	55,204	0,062	0,043
-379,146	280,974	0,031	0,040
-378,131	-200,000	0,008	-0,060
-377,117	-16,422	-0,102	0,046
-376,102	-200,000	0,020	-0,069
-375,088	-200,000	-0,015	-0,076
-374,073	145,302	0,069	-0,067
-373,058	-130,244	0,158	0,015
-372,044	-200,000	-0,023	-0,076
-371,029	-114,280	0,081	0,011
-370,015	-143,083	0,028	0,002
-369,000	-17,845	-0,144	0,065
-367,985	510,621	-0,013	-0,022
-366,971	379,674	-0,039	0,057
-365,956	68,912	0,088	0,064
-364,942	-200,000	0,003	0,067
-363,927	-108,389	0,047	-0,007
-362,912	32,960	0,081	0,050
-361,898	-200,000	0,006	-0,060
-360,883	800,000	0,041	-0,122
-359,869	521,218	0,064	-0,107
-358,854	-105,812	0,070	0,011
-357,839	-200,000	0,017	-0,070
-356,825	36,453	0,069	0,043
-355,810	-17,357	-0,032	0,014
-354,796	-166,056	-0,131	-0,004
-353,781	-23,019	-0,058	0,025
-352,766	-173,662	0,135	-0,003
-351,752	170,897	-0,042	-0,043
-350,737	-200,000	0,029	-0,131
-349,723	4,939	0,055	0,029
-348,708	-9,126	0,171	-0,081
-347,693	-121,761	-0,074	-0,009
-346,679	1,435	-0,148	0,076
-345,664	-50,707	0,101	0,034
-344,650	800,000	-0,049	-0,098
-343,635	-75,307	0,058	0,015
-342,620	-200,000	-0,004	0,132
-341,606	480,792	0,124	0,201
-340,591	8,752	-0,129	-0,069
-339,577	-200,000	-0,025	-0,105
-338,562	-200,000	0,028	-0,090
-337,548	-200,000	-0,002	0,092
-336,533	328,154	-0,076	0,105
-335,518	-199,026	-0,042	0,000
-334,504	-200,000	-0,026	-0,104
-333,489	363,373	-0,059	-0,086
-332,475	115,120	-0,072	-0,063
-331,460	-200,000	-0,036	-0,222
-330,445	-200,000	-0,038	-0,182
-329,431	82,302	0,061	-0,048
-328,416	113,214	0,061	0,053
-327,402	-200,000	0,004	0,071
-326,387	-60,023	-0,048	-0,014
-325,372	-106,952	-0,059	-0,009
-324,358	-200,000	-0,044	-0,145
-323,343	4,378	-0,046	-0,024
-322,329	17,265	-0,073	0,041
-321,314	-110,449	0,071	-0,010
-320,299	-200,000	0,008	0,049
-319,285	514,169	-0,031	-0,052
-318,270	55,556	-0,030	-0,021
-317,256	381,137	0,074	0,109
-316,241	-200,000	-0,026	-0,156
-315,226	-200,000	0,045	-0,177
-314,212	441,282	-0,087	-0,136
-313,197	-200,000	0,023	-0,165
-312,183	-200,000	-0,007	-0,081
-311,168	393,061	-0,039	-0,058
-310,153	-80,120	-0,042	-0,010
-309,139	487,294	0,046	-0,076
-308,124	-13,851	-0,155	-0,071
-307,110	402,644	0,062	0,093
-306,095	71,122	0,056	0,042
-305,080	216,259	0,048	0,054
-304,066	800,000	0,051	-0,158
-303,051	-200,000	0,028	0,110
-302,037	165,753	0,025	0,025
-301,022	8,620	-0,084	-0,045
-300,008	-70,297	0,135	-0,036
-298,993	-8,682	-0,093	0,044
-297,978	345,924	0,024	0,034
-296,964	-103,674	0,081	0,013
-295,949	308,507	0,030	-0,041
-294,935	159,494	-0,052	-0,052
-293,920	63,615	0,057	0,041
-292,905	65,973	-0,091	0,066
-291,891	-200,000	-0,000	0,069
-290,876	95,453	0,059	-0,048
-289,862	150,098	-0,040	0,039
-288,847	172,844	-0,128	-0,132
-287,832	-200,000	-0,004	0,015
-286,818	67,979	0,047	-0,034
-285,803	800,000	-0,059	0,155
-284,789	27,355	-0,060	-0,036
-283,774	800,000	0,081	-0,172
-282,759	-200,000	0,003	0,015
-281,745	800,000	-0,021	-0,059
-280,730	800,000	0,019	0,042
-279,716	26,268	0,050	-0,030
-278,701	-200,000	0,002	0,010
-277,686	135,261	0,134	0,124
-276,672	-130,787	0,146	-0,014
-275,657	-85,175	0,099	0,022
-274,643	363,266	0,034	-0,049
-273,628	-200,000	0,012	-0,155
-272,613	431,657	-0,089	-0,138
-271,599	98,920	0,075	-0,062
-270,584	-200,000	-0,012	-0,039
-269,570	21,788	0,019	0,011
-268,555	-200,000	-0,019	-0,165
-267,540	10,940	-0,110	0,060
-266,526	-81,527	-0,169	-0,039
-265,511	-200,000	0,012	0,195
-264,497	-200,000	0,018	-0,094
-263,482	-200,000	-0,009	0,042
-262,467	-200,000	-0,013	0,045
-261,453	86,600	-0,080	0,063
-260,438	794,992	0,025	0,050
-259,424	800,000	-0,008	0,019
-258,409	2,411	-0,128	0,066
-257,395	371,035	0,053	-0,077
-256,380	548,441	0,063	0,108
-255,365	800,000	0,062	0,167
-254,351	800,000	0,052	0,122
-253,336	-26,098	-0,060	-0,025
-252,322	576,202	-0,083	-0,145
-251,307	59,412	-0,031	-0,022
-250,292	-37,460	-0,073	-0,028
-249,278	-200,000	0,005	-0,081
-248,263	164,297	0,059	-0,059
-247,249	-70,052	-0,075	-0,020
-246,234	227,812	0,045	-0,053
-245,219	-18,128	-0,038	-0,017
-244,205	14,892	-0,056	-0,031
-243,190	-116,888	0,061	0,008
-242,176	-4,594	0,083	0,041
-241,161	481,763	-0,082	0,133
-240,146	-200,000	0,008	-0,068
-239,132	-200,000	-0,021	0,077
-238,117	-200,000	-0,007	0,033
-237,103	-131,600	-0,144	-0,013
-236,088	347,131	-0,016	0,022
-235,073	764,325	-0,053	-0,104
-234,059	162,530	-0,074	0,074
-233,044	15,633	0,089	0,050
-232,030	-200,000	-0,029	0,091
-231,015	123,575	-0,084	-0,075
-230,000	-200,000	0,014	-0,144
-228,986	-169,548	0,009	-0,000
-227,971	-200,000	-0,001	0,027
-226,957	-83,327	-0,067	-0,015
-225,942	401,387	-0,019	0,029
-224,927	481,166	-0,048	-0,078
-223,913	129,124	-0,058	-0,053
-222,898	0,332	-0,072	-0,036
-221,884	800,000	-0,017	0,034
-220,869	112,453	0,089	0,076
-219,855	800,000	-0,089	0,210
-218,840	800,000	0,057	0,131
-217,825	800,000	0,010	0,031
-216,811	800,000	0,018	0,053
-215,796	170,222	-0,073	-0,074
-214,782	-200,000	-0,009	-0,048
-213,767	129,196	0,043	-0,039
-212,752	-60,604	0,092	-0,028
-211,738	131,027	-0,064	0,058
-210,723	-200,000	0,009	-0,085
-209,709	226,548	-0,080	0,092
-208,694	-88,757	-0,121	-0,025
-207,679	-148,654	-0,075	0,004
-206,665	182,866	0,130	0,136
-205,650	64,463	0,126	0,090
-204,636	-200,000	-0,000	0,016
-203,621	-83,532	-0,234	-0,053
-202,606	114,839	0,063	0,054
-201,592	-75,167	-0,128	-0,032
-200,577	137,876	0,132	-0,123
-199,563	217,328	-0,084	-0,095
-198,548	-200,000	-0,029	-0,119
-197,533	335,023	-0,094	0,130
-196,519	-200,000	0,013	0,212
-195,504	-200,000	-0,011	0,039
-194,490	50,722	-0,084	-0,057
-193,475	495,456	-0,019	-0,032
-192,460	8,231	-0,030	-0,016
-191,446	-2,079	0,105	0,052
-190,431	-20,828	0,156	0,068
-189,417	6,247	0,067	0,035
-188,402	800,000	0,003	0,007
-187,387	127,952	-0,070	0,063
-186,373	-200,000	0,005	-0,112
-185,358	-140,161	0,167	-0,012
-184,344	46,738	-0,067	0,044
-183,329	-66,964	0,072	0,020
-182,315	-200,000	0,000	0,077
-181,300	13,908	0,155	0,085
-180,285	-200,000	0,010	-0,062
-179,271	-101,073	0,099	-0,017
-178,256	82,726	0,083	0,064
-177,242	-35,930	0,055	0,021
-176,227	-106,331	0,034	0,005
-175,212	31,564	0,115	0,070
-174,198	-200,000	0,002	0,044
-173,183	-88,761	-0,090	-0,019
-172,169	-26,615	-0,049	-0,020
-171,154	14,581	0,068	-0,038
-170,139	-200,000	-0,012	0,074
-169,125	553,707	0,074	0,128
-168,110	-200,000	0,020	-0,175
-167,096	51,804	-0,027	0,018
-166,081	145,623	-0,083	-0,079
-165,066	213,645	-0,099	0,112
-164,052	-159,611	0,110	-0,004
-163,037	-113,284	0,144	0,020
-162,023	114,988	0,103	0,089
-161,008	-200,000	-0,009	0,059
-159,993	202,813	0,036	0,039
-158,979	496,399	0,065	-0,107
-157,964	443,112	-0,062	-0,097
-156,950	-80,363	0,030	-0,007
-155,935	361,083	0,049	0,070
-154,920	-141,631	0,090	-0,006
-153,906	800,000	0,027	0,080
-152,891	800,000	-0,032	0,067
-151,877	800,000	-0,011	-0,032
-150,862	-21,380	0,086	-0,037
-149,847	201,134	0,092	0,100
-148,833	231,747	-0,031	0,036
-147,818	228,987	0,021	-0,024
-146,804	800,000	0,118	0,256
-145,789	129,632	-0,046	0,042
-144,775	-89,772	0,098	0,020
-143,760	298,080	-0,023	-0,030
-142,745	-50,939	-0,028	-0,009
-141,731	403,247	-0,041	0,062
-140,716	113,624	0,082	0,071
-139,702	-200,000	0,039	0,162
-138,687	-200,000	0,004	0,095
-137,672	-200,000	-0,013	-0,088
-136,658	93,820	-0,124	-0,100
-135,643	-9,525	0,069	-0,032
-134,629	122,335	-0,028	0,025
-133,614	347,310	-0,052	0,073
-132,599	170,273	-0,099	0,100
-131,585	800,000	0,037	-0,081
-130,570	-200,000	-0,004	0,053
-129,556	-200,000	-0,038	-0,276
-128,541	-56,643	-0,080	0,025
-127,526	192,963	0,150	-0,161
-126,512	-21,935	-0,064	0,027
-125,497	232,131	0,158	0,184
-124,483	32,297	-0,159	-0,097
-123,468	-41,791	-0,113	0,041
-122,453	34,556	0,110	-0,068
-121,439	158,430	-0,040	0,039
-120,424	800,000	0,069	-0,157
-119,410	691,377	0,017	-0,032
-118,395	-113,307	0,097	0,013
-117,380	-200,000	0,005	0,041
-116,366	-20,660	-0,088	-0,038
-115,351	-200,000	-0,027	-0,093
-114,337	-176,329	-0,074	0,001
-113,322	8,781	-0,140	0,075
-112,307	23,651	0,205	0,119
-111,293	193,323	0,088	0,095
-110,278	800,000	0,022	0,059
-109,264	-86,386	0,034	0,007
-108,249	-200,000	-0,010	-0,071
-107,234	-200,000	-0,006	0,110
-106,220	32,287	0,079	-0,048
-105,205	-200,000	-0,008	-0,080
-104,191	62,579	0,031	0,022
-103,176	66,314	0,059	0,042
-102,162	22,938	-0,061	-0,035
-101,147	398,016	-0,044	0,066
-100,132	152,107	-0,082	-0,080
-99,118	113,132	0,074	-0,064
-98,103	192,618	0,075	0,081
-97,089	-200,000	0,008	-0,074
-96,074	-200,000	0,002	0,014
-95,059	41,367	-0,039	-0,025
-94,045	-200,000	-0,004	-0,045
-93,030	-67,195	-0,102	0,028
-92,016	800,000	0,020	0,044
-91,001	0,571	0,208	-0,105
-89,986	-141,625	-0,094	-0,007
-88,972	406,349	-0,055	-0,083
-87,957	43,706	0,032	0,021
-86,943	-143,766	0,210	-0,014
-85,928	709,824	-0,109	-0,206
-84,913	-200,000	-0,006	0,040
-83,899	8,897	0,042	-0,023
-82,884	-70,724	0,146	-0,039
-81,870	-200,000	0,013	0,130
-80,855	1,266	-0,119	-0,060
-79,840	800,000	0,058	0,115
-78,826	-200,000	0,019	0,071
-77,811	314,370	-0,086	-0,115
-76,797	7,780	-0,147	0,078
-75,782	800,000	0,043	-0,087
-74,767	237,363	0,057	0,067
-73,753	-51,112	0,078	-0,026
-72,738	24,546	-0,118	-0,069
-71,724	512,831	0,079	-0,131
-70,709	800,000	-0,032	-0,068
-69,694	-40,240	-0,028	0,010
-68,680	-200,000	-0,035	0,110
-67,665	660,889	-0,019	-0,036
-66,651	170,950	0,112	0,113
-65,636	344,328	-0,017	0,024
-64,622	-200,000	0,003	-0,056
-63,607	-137,126	-0,028	0,002
-62,592	-200,000	-0,005	0,094
-61,578	-47,006	-0,081	-0,028
-60,563	186,984	0,058	-0,061
-59,549	579,446	-0,032	0,056
-58,534	-9,698	-1,523	-0,716
-57,519	329,361	-1,550	-2,116
-56,505	-200,000	-0,498	-4,596
-55,490	290,284	0,826	1,065
-54,476	800,000	4,944	11,286
-53,461	-200,000	18,769	305,634
-52,446	800,000	736,643	2294,632
-51,432	567,836	1652,923	2853,463
-50,417	78,972	1670,176	1264,641
-49,403	22,066	1543,112	889,010
-48,388	15,958	1465,786	814,791
-47,373	17,720	1455,855	817,747
-46,359	16,814	1446,175	807,936
-45,344	14,214	1441,501	792,847
-44,330	14,105	1439,820	791,369
-43,315	14,176	1437,644	790,482
-42,300	14,119	1436,260	789,415
-41,286	14,189	1435,040	789,047
-40,271	14,153	1433,558	788,032
-39,257	14,085	1432,657	787,180
-38,242	14,146	1431,158	786,616
-37,227	14,178	1429,948	786,069
-36,213	14,158	1428,914	785,377
-35,198	14,173	1427,627	784,709
-34,184	14,201	1426,632	784,263
-33,169	14,144	1425,328	783,243
-32,154	14,212	1424,055	782,837
-31,140	14,198	1422,800	782,050
-30,125	14,241	1421,586	781,555
-29,111	14,227	1420,419	780,815
-28,096	14,172	1419,539	780,041
-27,082	14,116	1418,623	779,242
-26,067	14,115	1417,292	778,477
-25,052	14,102	1416,306	777,841
-24,038	14,087	1415,258	777,164
-23,023	14,081	1414,457	776,667
-22,009	14,125	1413,251	776,179
-20,994	14,036	1412,780	775,473
-19,979	14,024	1411,724	774,804
-18,965	14,025	1410,625	774,176
-17,950	13,998	1409,670	773,494
-16,936	14,049	1408,662	773,153
-15,921	14,015	1407,520	772,335
-14,906	14,011	1406,795	771,888
-13,892	14,045	1405,817	771,481
-12,877	13,982	1404,950	770,676
-11,863	14,002	1404,084	770,266
-10,848	14,027	1403,202	769,868
-9,833	14,001	1402,327	769,238
-8,819	13,978	1401,104	768,426
-7,804	13,905	1400,429	767,686
-6,790	13,903	1399,396	767,083
-5,775	13,928	1398,299	766,565
-4,760	13,959	1397,318	766,143
-3,746	13,894	1396,720	765,483
-2,731	13,948	1395,710	765,146
-1,717	13,897	1395,090	764,541
-0,702	13,914	1393,072	763,486
0,313	17,719	1310,962	736,124
1,327	33,989	705,834	434,018
2,342	51,781	124,057	83,376
3,356	1,085	16,794	8,496
4,371	-1,770	3,322	1,648
5,386	9,531	0,462	0,247
6,400	800,000	0,116	0,252
7,415	493,815	-0,123	-0,201
8,429	-14,099	-0,443	-0,201
9,444	87,081	-0,240	-0,188
10,459	61,296	-0,322	-0,226
11,473	158,020	-0,194	-0,191
12,488	70,289	-0,263	-0,192
13,502	-21,992	-0,246	-0,105
14,517	93,639	-0,350	-0,280
15,531	39,285	-0,340	-0,215
16,546	60,931	-0,354	-0,248
17,561	31,959	-0,497	-0,302
18,575	148,687	-0,211	-0,201
19,590	91,673	-0,313	-0,248
20,604	-32,670	-0,356	-0,139
21,619	-29,694	-0,456	-0,183
22,634	113,607	-0,305	-0,262
23,648	-10,492	-0,388	-0,181
24,663	85,456	-0,416	-0,322
25,677	13,127	-0,323	-0,176
26,692	61,325	-0,391	-0,274
27,707	168,416	-0,356	-0,358
28,721	17,596	-0,410	-0,230
29,736	268,350	-0,354	-0,439
30,750	263,294	-0,396	-0,487
31,765	16,346	-0,416	-0,231
32,780	-39,651	-0,279	-0,102
33,794	213,028	-0,329	-0,367
34,809	65,399	-0,339	-0,242
35,823	54,701	-0,397	-0,269
36,838	115,591	-0,429	-0,370
37,853	137,341	-0,304	-0,280
38,867	77,727	-0,354	-0,266
39,882	90,751	-0,396	-0,312
40,896	-16,402	-0,327	-0,146
41,911	89,462	-0,389	-0,306
42,926	86,797	-0,356	-0,277
43,940	-106,622	-0,450	-0,070
44,955	114,388	-0,330	-0,284
45,969	-43,291	-0,424	-0,150
46,984	64,121	-0,346	-0,245
47,999	-51,447	-0,420	-0,138
49,013	55,010	-0,221	-0,150
50,028	81,903	-0,409	-0,312
51,042	90,380	-0,312	-0,246
52,057	333,447	-0,250	-0,341
53,071	76,683	-0,382	-0,285
54,086	249,764	-0,253	-0,302
55,101	103,658	-0,372	-0,308
56,115	377,734	-0,241	-0,348
57,130	-8,773	-0,369	-0,173
58,144	121,055	-0,351	-0,308
59,159	124,759	-0,414	-0,367
60,174	20,292	-0,415	-0,235
61,188	96,368	-0,360	-0,290
62,203	111,320	-0,383	-0,325
63,217	22,204	-0,324	-0,186
64,232	35,321	-0,325	-0,200
65,247	163,026	-0,284	-0,281
66,261	53,450	-0,351	-0,236
67,276	-5,000	-0,247	-0,119
68,290	-2,847	-0,428	-0,210
69,305	-83,760	-0,347	-0,077
70,320	349,787	-0,136	-0,190
71,334	31,385	-0,461	-0,278
72,349	31,903	-0,322	-0,194
73,363	31,607	-0,398	-0,240
74,378	55,187	-0,418	-0,284
75,393	-2,150	-0,303	-0,149
76,407	117,898	-0,203	-0,176
77,422	-18,108	-0,262	-0,115
78,436	36,517	-0,299	-0,185
79,451	55,970	-0,232	-0,158
80,466	52,401	-0,300	-0,201
81,480	-21,073	-0,323	-0,138
82,495	-101,689	-0,381	-0,064
83,509	-175,019	-0,401	-0,008
84,524	227,875	-0,238	-0,272
85,539	80,399	-0,263	-0,199
86,553	-10,244	-0,272	-0,126
87,568	-45,748	-0,492	-0,170
88,582	113,277	-0,352	-0,300
89,597	800,000	-0,109	-0,223
90,611	-36,785	-0,246	-0,092
91,626	184,088	-0,184	-0,192
92,641	52,925	-0,273	-0,183
93,655	21,233	-0,246	-0,140
94,670	24,999	-0,385	-0,223
95,684	86,299	-0,421	-0,325
96,699	138,725	-0,288	-0,266
97,714	20,132	-0,327	-0,185
98,728	12,816	-0,335	-0,181
99,743	134,473	-0,268	-0,244
100,757	7,082	-0,205	-0,107
101,772	91,117	-0,256	-0,201
102,787	133,836	-0,282	-0,256
103,801	126,177	-0,310	-0,275
104,816	237,040	-0,285	-0,331
105,830	3,854	-0,194	-0,099
106,845	-116,469	-0,100	-0,013
107,860	-16,697	-0,276	-0,122
108,874	202,675	-0,208	-0,225
109,889	82,653	-0,264	-0,201
110,903	40,037	-0,386	-0,243
111,918	-34,509	-0,262	-0,100
112,933	-55,555	-0,211	-0,066
113,947	-110,940	-0,209	-0,030
114,962	-35,561	-0,254	-0,096
115,976	39,556	-0,279	-0,175
116,991	92,647	-0,284	-0,224
118,006	296,222	-0,185	-0,238
119,020	85,083	-0,318	-0,244
120,035	106,571	-0,282	-0,234
121,049	-114,237	-0,317	-0,042
122,064	11,346	-0,165	-0,088
123,079	130,343	-0,209	-0,188
124,093	81,693	-0,242	-0,183
125,108	127,376	-0,268	-0,238
126,122	-18,056	-0,311	-0,136
127,137	15,050	-0,167	-0,091
128,151	12,256	-0,255	-0,137
129,166	105,094	-0,232	-0,191
130,181	110,432	-0,218	-0,183
131,195	80,727	-0,237	-0,178
132,210	298,959	-0,238	-0,307
133,224	28,284	-0,317	-0,187
134,239	42,099	-0,318	-0,201
135,254	221,245	-0,205	-0,231
136,268	154,099	-0,176	-0,169
137,283	32,593	-0,280	-0,169
138,297	202,895	-0,243	-0,262
139,312	525,028	-0,090	-0,149
140,327	92,817	-0,303	-0,239
141,341	273,350	-0,139	-0,172
142,356	144,879	-0,260	-0,243
143,370	80,868	-0,212	-0,159
144,385	-7,907	-0,254	-0,119
145,400	372,069	-0,150	-0,213
146,414	70,930	-0,370	-0,268
147,429	158,217	-0,306	-0,296
148,443	253,181	-0,252	-0,301
149,458	-200,000	-0,021	-0,099
150,473	218,214	-0,179	-0,200
151,487	31,808	-0,233	-0,140
152,502	-0,817	-0,306	-0,151
153,516	676,132	-0,165	-0,300
154,531	14,980	-0,352	-0,192
155,546	55,127	-0,223	-0,150
156,560	-4,137	-0,257	-0,124
157,575	5,125	-0,261	-0,134
158,589	240,466	-0,180	-0,209
159,604	-41,410	-0,275	-0,098
160,619	180,840	-0,164	-0,168
161,633	165,411	-0,179	-0,176
162,648	48,358	-0,253	-0,165
163,662	62,043	-0,215	-0,149
164,677	-95,976	-0,172	-0,032
165,692	50,103	-0,154	-0,101
166,706	122,970	-0,263	-0,230
167,721	-97,884	-0,250	-0,045
168,735	89,801	-0,279	-0,217
169,750	258,158	-0,216	-0,260
170,764	249,280	-0,182	-0,215
171,779	-163,168	-0,087	0,003
172,794	432,812	-0,176	-0,268
173,808	36,714	-0,278	-0,171
174,823	211,753	-0,243	-0,267
175,837	45,070	-0,321	-0,206
176,852	-37,261	-0,231	-0,086
177,867	-26,421	-0,228	-0,093
178,881	20,146	-0,275	-0,154
179,896	257,538	-0,129	-0,155
180,910	-111,848	-0,319	-0,044
181,925	38,591	-0,268	-0,166
182,940	103,685	-0,233	-0,190
183,954	243,147	-0,279	-0,327
184,969	60,398	-0,301	-0,207
185,983	-104,617	-0,113	-0,018
186,998	128,286	-0,284	-0,252
188,013	-14,455	-0,284	-0,127
189,027	54,910	-0,283	-0,190
190,042	649,749	-0,153	-0,273
191,056	-10,600	-0,279	-0,128
192,071	232,728	-0,178	-0,204
193,086	358,547	-0,177	-0,246
194,100	-93,295	-0,236	-0,045
195,115	-200,000	-0,031	-0,115
196,129	-14,201	-0,240	-0,107
197,144	117,868	-0,275	-0,235
198,159	152,544	-0,227	-0,216
199,173	361,707	-0,153	-0,214
200,188	1,640	-0,207	-0,104
201,202	800,000	-0,100	-0,276
202,217	77,349	-0,201	-0,149
203,232	259,629	-0,226	-0,272
204,246	238,214	-0,165	-0,191
205,261	236,206	-0,132	-0,152
206,275	608,973	-0,154	-0,269
207,290	141,620	-0,210	-0,194
208,304	-200,000	-0,023	-0,077
209,319	-21,483	-0,158	-0,067
210,334	220,645	-0,135	-0,151
211,348	16,335	-0,216	-0,118
212,363	800,000	-0,104	-0,244
213,377	197,495	-0,130	-0,138
214,392	-28,228	-0,167	-0,067
215,407	-160,228	-0,216	0,008
216,421	409,495	-0,123	-0,181
217,436	39,288	-0,171	-0,106
218,450	118,648	-0,242	-0,208
219,465	487,118	-0,207	-0,329
220,480	633,135	-0,160	-0,283
221,494	167,762	-0,245	-0,242
222,509	143,772	-0,113	-0,105
223,523	283,211	-0,069	-0,086
224,538	-11,137	-0,188	-0,086
225,553	-39,654	-0,243	-0,088
226,567	-25,916	-0,196	-0,080
227,582	93,193	-0,260	-0,204
228,596	336,724	-0,162	-0,219
229,611	208,408	-0,082	-0,089
230,626	14,228	-0,143	-0,077
231,640	330,075	-0,154	-0,206
232,655	197,142	-0,203	-0,215
233,669	132,684	-0,216	-0,193
234,684	338,907	-0,202	-0,273
235,699	800,000	-0,126	-0,347
236,713	-34,862	-0,173	-0,065
237,728	380,668	-0,141	-0,201
238,742	-35,691	-0,345	-0,129
239,757	-36,885	-0,306	-0,113
240,772	359,870	-0,152	-0,211
241,786	-15,728	-0,215	-0,094
242,801	163,692	-0,116	-0,113
243,815	38,925	-0,315	-0,194
244,830	-13,126	-0,288	-0,129
245,844	49,755	-0,281	-0,183
246,859	535,452	-0,179	-0,295
247,874	276,051	-0,161	-0,198
248,888	187,003	-0,140	-0,145
249,903	258,501	-0,140	-0,168
250,917	-14,823	-0,193	-0,085
251,932	411,974	-0,154	-0,227
252,947	275,780	-0,140	-0,172
253,961	101,281	-0,170	-0,137
254,976	496,213	-0,120	-0,191
255,990	74,173	-0,193	-0,140
257,005	93,821	-0,164	-0,129
258,020	709,190	-0,081	-0,149
259,034	-138,263	-0,296	-0,022
260,049	106,485	-0,186	-0,152
261,063	-77,293	-0,289	-0,069
262,078	110,107	-0,163	-0,135
263,093	31,199	-0,214	-0,126
264,107	-90,974	-0,175	-0,034
265,122	-167,900	-0,254	0,007
266,136	26,063	-0,180	-0,104
267,151	-77,916	-0,040	0,010
268,166	-18,247	-0,164	-0,071
269,180	76,112	-0,207	-0,152
270,195	800,000	-0,116	-0,240
271,209	64,694	-0,105	-0,073
272,224	-190,114	-0,075	-0,001
273,239	800,000	-0,048	-0,114
274,253	-44,218	-0,154	-0,053
275,268	-109,666	-0,167	0,024
276,282	92,678	-0,252	-0,196
277,297	-34,090	-0,203	-0,077
278,312	163,903	-0,106	-0,103
279,326	107,726	-0,199	-0,163
280,341	-10,805	-0,164	-0,075
281,355	-71,463	-0,172	-0,044
282,370	48,468	-0,072	-0,046
283,384	-136,310	-0,216	-0,017
284,399	-40,827	-0,221	0,078
285,414	8,697	-0,065	0,034
286,428	266,515	-0,130	-0,157
287,443	217,033	-0,142	-0,156
288,457	-66,296	-0,146	-0,040
289,472	800,000	-0,107	-0,229
290,487	556,698	-0,102	-0,171
291,501	-32,065	-0,359	-0,138
292,516	178,761	-0,151	-0,153
293,530	800,000	-0,054	-0,125
294,545	-80,152	-0,092	-0,021
295,560	16,726	-0,082	0,045
296,574	484,405	-0,182	-0,286
297,589	593,627	-0,137	-0,235
298,603	43,182	-0,221	-0,139
299,618	-27,882	-0,247	-0,098
300,633	687,243	-0,124	-0,224
301,647	-9,328	-0,072	0,033
302,662	-4,696	-0,191	-0,090
303,676	-51,609	-0,210	-0,067
304,691	39,243	-0,167	-0,103
305,706	46,430	-0,227	-0,145
306,720	152,655	-0,093	-0,087
307,735	-137,678	-0,282	-0,022
308,749	-7,816	-0,169	-0,078
309,764	-60,483	-0,122	-0,035
310,779	-18,239	-0,203	-0,087
311,793	115,086	-0,178	-0,149
312,808	170,646	-0,106	-0,105
313,822	232,985	-0,111	-0,125
314,837	800,000	-0,087	-0,200
315,852	-44,136	-0,078	-0,027
316,866	269,369	-0,044	-0,053
317,881	155,281	-0,029	0,028
318,895	6,888	-0,152	-0,078
319,910	27,064	-0,249	-0,143
320,925	59,023	-0,165	-0,111
321,939	800,000	-0,084	-0,183
322,954	269,723	-0,231	-0,279
323,968	35,978	-0,115	-0,069
324,983	800,000	-0,044	-0,133
325,997	169,605	-0,101	-0,100
327,012	-12,293	-0,182	-0,081
328,027	800,000	-0,096	-0,193
329,041	744,182	-0,080	-0,148
330,056	-112,315	-0,159	-0,022
331,070	800,000	-0,074	-0,142
332,085	17,527	-0,047	-0,025
333,100	800,000	-0,072	-0,139
334,114	228,136	-0,187	-0,210
335,129	-200,000	-0,008	-0,125
336,143	30,267	-0,118	-0,069
337,158	-144,662	-0,052	-0,003
338,173	-30,940	-0,068	-0,026
339,187	800,000	-0,024	-0,060
340,202	-200,000	-0,037	-0,162
341,216	-200,000	-0,016	-0,148
342,231	392,645	-0,076	-0,109
343,246	174,162	-0,098	-0,097
344,260	102,792	-0,114	-0,092
345,275	-30,753	-0,202	-0,078
346,289	103,270	-0,083	-0,067
347,304	-87,373	-0,057	0,012
348,319	-156,161	-0,248	-0,011
349,333	233,501	-0,177	-0,201
350,348	-50,842	-0,251	-0,080
351,362	175,722	-0,097	-0,097
352,377	-160,480	-0,115	-0,004
353,392	-13,350	-0,185	-0,082
354,406	87,138	-0,106	-0,080
355,421	208,589	1315,411	1413,088
356,435	160,504	1476,225	1413,583
