DTS Sentinel unit serial number:	SN410029Multiplexer serial number:	ORYXHardware model number:	OX2-SRSoftware version number:	ORYX F/W v4,00 Oryx Data Collector v3.7.2.0data status	okinstallation	B3 Nyhavnadifferential loss correction	single-endedforward channel	channel 1reverse channel	N/Adate	2023/11/30time	07:12:31forward acquisition time	300,00reverse acquisition time	0,00gamma	499,1914k internal	0,3210k external	0,3210temperature offset calibration	1,0000default loss term (dB/km)	0,3820temperature slope calibration	1,0000multiplexer offset coefficient	1,0000multiplexer slope coefficient	1,0000fibre end	0,00T internal ref (°C)	10,07T ext. ref 1 (°C)	-5,78T ext. ref 2 (°C)	-5,90length (m)	temperature (°C)	Stokes	anti-Stokes-744,400	800,000	-0,156	-0,318
-743,385	-200,000	-0,023	0,130
-742,371	-49,539	-0,202	-0,069
-741,356	-200,000	-0,035	0,384
-740,342	291,545	-0,141	-0,187
-739,327	-200,000	0,023	0,153
-738,312	-11,339	-0,386	-0,184
-737,298	321,328	-0,118	0,163
-736,283	43,547	-0,249	-0,165
-735,269	-200,000	0,009	0,244
-734,254	800,000	-0,089	-0,217
-733,239	-43,927	-0,171	0,062
-732,225	-200,000	0,011	-0,221
-731,210	54,242	0,127	-0,088
-730,196	308,076	0,044	-0,060
-729,181	188,787	-0,037	-0,040
-728,167	800,000	0,043	-0,120
-727,152	175,391	-0,056	-0,058
-726,137	-92,240	-0,081	0,016
-725,123	337,117	-0,069	-0,097
-724,108	-200,000	-0,040	-0,135
-723,094	800,000	-0,016	-0,047
-722,079	574,290	0,073	-0,129
-721,064	-200,000	0,034	0,154
-720,050	-71,754	-0,152	0,041
-719,035	-90,380	0,049	0,010
-718,021	15,108	-0,095	-0,054
-717,006	-200,000	-0,002	0,039
-715,991	-200,000	-0,039	0,135
-714,977	-200,000	0,002	-0,070
-713,962	235,326	-0,090	-0,108
-712,948	325,318	-0,053	0,073
-711,933	159,780	0,047	0,048
-710,918	352,850	0,071	-0,102
-709,904	-100,805	-0,061	-0,011
-708,889	163,348	-0,037	-0,038
-707,875	401,643	0,017	-0,027
-706,860	-200,000	-0,045	-0,156
-705,845	-133,046	0,123	-0,011
-704,831	29,188	0,120	-0,073
-703,816	198,994	0,046	-0,051
-702,802	-200,000	-0,012	-0,113
-701,787	-91,964	-0,122	-0,025
-700,772	197,793	-0,095	-0,105
-699,758	800,000	0,064	-0,137
-698,743	-200,000	0,013	0,070
-697,729	-200,000	-0,003	-0,099
-696,714	154,379	0,068	0,067
-695,699	800,000	0,039	-0,117
-694,685	800,000	-0,017	-0,046
-693,670	-71,604	0,095	0,026
-692,656	800,000	0,105	-0,256
-691,641	800,000	0,024	-0,073
-690,627	800,000	-0,033	-0,086
-689,612	213,782	0,032	-0,036
-688,597	19,064	-0,047	-0,027
-687,583	6,517	-0,149	-0,080
-686,568	146,891	-0,083	-0,081
-685,554	-200,000	-0,011	-0,113
-684,539	-200,000	0,019	-0,065
-683,524	-200,000	-0,003	0,085
-682,510	-200,000	0,020	-0,099
-681,495	-200,000	-0,003	-0,099
-680,481	-71,283	-0,045	0,012
-679,466	-67,186	-0,138	-0,039
-678,451	3,696	-0,084	0,044
-677,437	192,207	0,015	-0,017
-676,422	-200,000	-0,003	-0,070
-675,408	675,170	0,054	-0,102
-674,393	45,424	0,029	-0,019
-673,378	800,000	-0,051	-0,142
-672,364	447,775	0,084	-0,134
-671,349	67,915	0,086	-0,064
-670,335	800,000	-0,032	-0,072
-669,320	179,351	-0,062	0,065
-668,305	448,387	0,066	-0,105
-667,291	7,770	-0,082	0,044
-666,276	-200,000	-0,029	-0,148
-665,262	-200,000	0,039	-0,157
-664,247	-11,884	-0,053	0,025
-663,232	-16,064	0,082	0,037
-662,218	-200,000	-0,027	0,088
-661,203	-200,000	0,018	0,058
-660,189	-24,340	-0,234	0,101
-659,174	-2,047	0,045	0,023
-658,159	-200,000	0,023	-0,096
-657,145	133,445	-0,181	-0,169
-656,130	581,777	-0,034	-0,060
-655,116	181,038	0,041	0,044
-654,101	800,000	0,040	0,081
-653,086	800,000	0,023	0,073
-652,072	484,042	-0,041	-0,067
-651,057	-113,079	-0,034	0,005
-650,043	28,872	-0,098	-0,060
-649,028	-200,000	0,017	-0,084
-648,014	332,341	0,143	-0,200
-646,999	-88,831	-0,079	0,017
-645,984	325,870	-0,049	0,068
-644,970	193,891	0,077	0,085
-643,955	109,579	-0,102	-0,089
-642,941	138,000	0,049	0,046
-641,926	105,450	-0,064	-0,055
-640,911	164,196	-0,080	-0,082
-639,897	-200,000	0,013	0,083
-638,882	800,000	0,009	0,024
-637,868	-113,413	0,151	0,021
-636,853	-200,000	-0,015	-0,081
-635,838	-200,000	-0,008	-0,124
-634,824	296,599	-0,156	-0,206
-633,809	-10,726	0,036	0,017
-632,795	-60,704	0,217	-0,066
-631,780	-200,000	0,004	0,119
-630,765	460,446	-0,021	-0,033
-629,751	-200,000	0,003	-0,041
-628,736	-200,000	-0,015	-0,117
-627,722	108,385	-0,127	-0,110
-626,707	-200,000	0,000	0,016
-625,692	-118,319	0,086	-0,011
-624,678	800,000	0,083	0,205
-623,663	9,938	-0,188	0,103
-622,649	323,394	-0,094	0,130
-621,634	-35,974	-0,099	-0,039
-620,619	-200,000	0,005	0,040
-619,605	75,211	0,047	0,035
-618,590	800,000	-0,030	-0,089
-617,576	-200,000	-0,011	-0,106
-616,561	-200,000	0,002	-0,101
-615,546	-200,000	0,019	0,092
-614,532	-138,155	-0,100	0,008
-613,517	34,311	0,070	0,044
-612,503	139,220	0,015	0,014
-611,488	-132,448	0,190	-0,017
-610,474	-118,126	-0,096	0,012
-609,459	800,000	-0,032	0,093
-608,444	221,104	-0,044	0,051
-607,430	123,696	0,101	-0,091
-606,415	-200,000	-0,017	-0,126
-605,401	-200,000	-0,004	-0,143
-604,386	483,445	0,020	0,033
-603,371	-19,106	-0,114	-0,051
-602,357	172,462	0,040	0,041
-601,342	-70,106	-0,085	0,023
-600,328	355,040	-0,043	0,062
-599,313	248,235	0,105	-0,128
-598,298	40,125	-0,074	-0,048
-597,284	-70,088	0,211	-0,057
-596,269	-81,983	0,085	-0,020
-595,255	-200,000	-0,018	0,100
-594,240	-69,650	-0,110	0,030
-593,225	-25,300	0,044	-0,019
-592,211	-131,367	-0,117	-0,011
-591,196	-53,171	-0,108	0,036
-590,182	800,000	-0,044	-0,126
-589,167	94,705	-0,115	0,094
-588,152	-143,986	0,188	-0,013
-587,138	0,493	-0,037	-0,019
-586,123	-200,000	-0,009	0,059
-585,109	140,548	-0,096	-0,091
-584,094	-57,880	-0,057	-0,018
-583,079	-67,693	0,112	0,031
-582,065	-200,000	0,031	0,103
-581,050	384,759	-0,042	-0,063
-580,036	754,040	0,022	-0,043
-579,021	-200,000	-0,001	0,051
-578,006	39,624	-0,062	-0,040
-576,992	-149,126	-0,011	-0,001
-575,977	800,000	0,034	-0,071
-574,963	0,572	0,076	0,039
-573,948	-75,140	-0,076	0,019
-572,934	-200,000	-0,002	-0,159
-571,919	-200,000	-0,006	-0,036
-570,904	-200,000	0,021	-0,073
-569,890	-108,191	-0,103	0,016
-568,875	698,281	-0,039	0,075
-567,861	-26,806	-0,060	0,025
-566,846	256,876	-0,028	0,035
-565,831	-200,000	-0,001	-0,075
-564,817	-43,344	-0,116	0,042
-563,802	800,000	-0,029	0,088
-562,788	198,184	-0,044	-0,048
-561,773	51,103	-0,133	-0,091
-560,758	-46,234	0,081	-0,029
-559,744	-103,138	-0,097	0,016
-558,729	227,928	0,049	0,058
-557,715	800,000	0,058	-0,150
-556,700	15,907	-0,083	-0,047
-555,685	-200,000	-0,008	-0,028
-554,671	-170,575	-0,081	0,002
-553,656	-200,000	0,003	0,051
-552,642	-200,000	-0,013	0,129
-551,627	64,558	-0,069	-0,050
-550,612	183,711	-0,015	0,016
-549,598	800,000	-0,063	-0,192
-548,583	-200,000	-0,003	-0,047
-547,569	-200,000	-0,004	0,030
-546,554	3,412	0,076	0,040
-545,539	800,000	0,011	-0,031
-544,525	250,558	-0,107	0,131
-543,510	-200,000	0,005	0,068
-542,496	-64,749	-0,148	-0,043
-541,481	104,357	0,167	-0,141
-540,466	150,041	0,011	-0,011
-539,452	-200,000	-0,024	-0,150
-538,437	-200,000	-0,008	0,079
-537,423	-133,390	-0,069	-0,006
-536,408	-18,261	0,097	-0,043
-535,393	-93,168	-0,055	-0,011
-534,379	-200,000	-0,004	0,079
-533,364	-170,734	-0,116	-0,003
-532,350	-200,000	-0,001	-0,108
-531,335	82,373	0,065	0,050
-530,321	800,000	-0,044	0,091
-529,306	12,738	0,063	-0,035
-528,291	260,479	-0,097	0,121
-527,277	-131,631	0,069	-0,006
-526,262	-123,305	-0,136	0,015
-525,248	112,595	0,069	0,060
-524,233	800,000	0,013	0,035
-523,218	205,972	-0,059	0,066
-522,204	174,523	0,036	-0,037
-521,189	164,210	-0,069	0,070
-520,175	-200,000	0,050	-0,185
-519,160	-48,647	-0,169	0,058
-518,145	800,000	-0,016	0,045
-517,131	47,509	0,063	-0,042
-516,116	138,160	0,052	-0,049
-515,102	155,899	-0,053	-0,052
-514,087	-155,809	0,109	-0,005
-513,072	-200,000	0,014	-0,083
-512,058	28,192	-0,112	0,068
-511,043	-55,901	0,119	0,038
-510,029	53,932	-0,135	0,093
-509,014	-200,000	0,048	0,164
-507,999	657,516	-0,054	-0,101
-506,985	-32,431	-0,040	0,016
-505,970	-200,000	-0,002	-0,067
-504,956	-200,000	-0,046	-0,146
-503,941	277,956	0,048	0,061
-502,926	-20,810	-0,090	-0,040
-501,912	89,688	0,164	0,132
-500,897	-200,000	0,000	0,149
-499,883	-200,000	-0,002	0,091
-498,868	180,186	-0,128	-0,135
-497,853	800,000	-0,037	0,074
-496,839	-84,817	0,085	-0,019
-495,824	800,000	-0,022	0,066
-494,810	11,140	0,026	0,014
-493,795	32,207	0,025	-0,015
-492,781	669,267	0,078	0,145
-491,766	-200,000	0,006	-0,025
-490,751	561,440	0,052	-0,091
-489,737	-110,959	0,112	0,016
-488,722	-200,000	-0,005	0,133
-487,708	461,898	-0,016	-0,026
-486,693	-200,000	-0,021	0,110
-485,678	280,487	0,054	0,070
-484,664	-22,541	-0,124	-0,054
-483,649	-17,475	0,160	0,072
-482,635	-65,469	-0,118	0,034
-481,620	38,503	0,175	0,112
-480,605	-200,000	0,044	0,164
-479,591	-20,814	-0,071	0,031
-478,576	-51,601	-0,023	-0,008
-477,562	-200,000	-0,002	-0,078
-476,547	136,310	0,098	-0,092
-475,532	706,234	-0,078	-0,148
-474,518	341,377	0,103	-0,145
-473,503	95,372	0,035	0,028
-472,489	-200,000	-0,029	0,126
-471,474	9,611	0,052	-0,028
-470,459	-115,164	-0,092	0,012
-469,445	18,356	0,017	0,010
-468,430	-116,314	-0,137	-0,018
-467,416	261,911	0,091	0,113
-466,401	-200,000	0,012	-0,047
-465,386	78,778	-0,065	-0,050
-464,372	173,388	0,064	-0,066
-463,357	20,150	-0,069	0,040
-462,343	89,323	-0,054	0,043
-461,328	32,506	-0,112	0,069
-460,313	-59,441	0,109	0,033
-459,299	-45,112	0,271	0,096
-458,284	427,887	0,046	0,071
-457,270	49,408	-0,083	0,056
-456,255	-123,801	-0,163	0,018
-455,241	56,477	-0,037	-0,026
-454,226	524,228	-0,061	-0,103
-453,211	800,000	0,041	0,106
-452,197	-115,192	0,129	-0,017
-451,182	278,149	-0,025	-0,032
-450,168	160,616	-0,059	-0,059
-449,153	-156,054	0,096	-0,004
-448,138	-61,906	0,062	-0,018
-447,124	22,263	-0,096	-0,056
-446,109	-165,580	-0,039	-0,001
-445,095	-56,982	-0,053	0,017
-444,080	-159,773	0,117	0,005
-443,065	-200,000	-0,007	0,051
-442,051	-23,607	0,075	0,032
-441,036	-123,303	-0,053	0,006
-440,022	-200,000	-0,008	-0,077
-439,007	-8,046	0,075	-0,036
-437,992	800,000	0,066	0,142
-436,978	49,507	-0,056	-0,038
-435,963	-200,000	0,016	-0,088
-434,949	-107,510	-0,112	0,017
-433,934	800,000	0,071	-0,179
-432,919	-200,000	0,003	-0,028
-431,905	36,106	0,046	0,029
-430,890	-200,000	-0,018	0,100
-429,876	-21,181	0,185	0,081
-428,861	62,826	-0,088	0,063
-427,846	534,843	0,008	0,014
-426,832	-38,808	0,029	-0,011
-425,817	-200,000	-0,035	-0,156
-424,803	136,782	0,024	-0,023
-423,788	-200,000	-0,002	0,128
-422,773	-200,000	0,014	0,051
-421,759	-112,396	-0,110	-0,016
-420,744	800,000	0,023	-0,050
-419,730	506,181	0,028	-0,047
-418,715	520,410	0,056	0,095
-417,701	-124,824	-0,041	-0,004
-416,686	63,061	0,065	0,046
-415,671	142,774	0,067	-0,064
-414,657	-119,200	0,075	-0,009
-413,642	468,648	0,048	-0,077
-412,628	-200,000	-0,010	-0,088
-411,613	-200,000	-0,008	0,049
-410,598	185,750	0,072	-0,077
-409,584	-200,000	0,029	-0,128
-408,569	-200,000	-0,007	0,041
-407,555	800,000	-0,053	0,106
-406,540	631,262	-0,046	0,084
-405,525	617,240	0,009	0,016
-404,511	772,147	-0,042	-0,082
-403,496	56,450	0,108	-0,075
-402,482	-54,282	0,047	0,015
-401,467	82,346	-0,036	0,028
-400,452	682,220	-0,049	0,092
-399,438	-200,000	-0,025	0,142
-398,423	-200,000	0,022	0,077
-397,409	-29,990	-0,066	0,027
-396,394	-66,749	-0,098	0,028
-395,379	800,000	-0,040	0,092
-394,365	-129,467	-0,062	-0,006
-393,350	-49,885	0,102	0,035
-392,336	-200,000	0,009	-0,065
-391,321	-200,000	-0,004	0,112
-390,306	-83,928	-0,118	-0,027
-389,292	-101,605	-0,036	-0,006
-388,277	-200,000	-0,011	0,058
-387,263	13,351	0,174	0,096
-386,248	115,867	0,080	0,070
-385,233	203,169	0,052	0,057
-384,219	-126,378	-0,106	-0,011
-383,204	177,709	-0,097	-0,101
-382,190	800,000	0,059	-0,124
-381,175	-99,967	0,081	0,014
-380,160	4,970	-0,041	0,022
-379,146	-101,061	-0,039	0,007
-378,131	-57,614	0,163	-0,051
-377,117	595,685	0,033	0,059
-376,102	800,000	-0,073	-0,153
-375,088	-101,210	0,109	-0,019
-374,073	-104,991	-0,094	0,015
-373,058	103,074	0,063	0,053
-372,044	-200,000	-0,011	0,051
-371,029	-20,827	0,090	0,039
-370,015	276,298	0,101	0,129
-369,000	283,185	0,036	0,046
-367,985	447,596	-0,082	0,129
-366,971	-55,834	-0,052	-0,017
-365,956	170,206	-0,026	-0,026
-364,942	153,115	0,034	0,033
-363,927	-20,854	-0,028	0,012
-362,912	217,588	0,062	0,071
-361,898	-83,711	-0,054	-0,012
-360,883	-200,000	0,025	-0,139
-359,869	-200,000	0,023	-0,136
-358,854	800,000	-0,029	-0,079
-357,839	423,860	-0,059	0,091
-356,825	678,000	-0,059	0,110
-355,810	189,368	-0,031	0,033
-354,796	800,000	-0,011	0,031
-353,781	274,944	-0,036	0,046
-352,766	226,374	0,021	0,024
-351,752	44,277	0,126	-0,082
-350,737	24,491	-0,097	-0,057
-349,723	-27,370	0,101	0,042
-348,708	148,795	-0,083	-0,080
-347,693	80,977	-0,064	-0,049
-346,679	95,034	0,056	-0,045
-345,664	-200,000	-0,126	-0,000
-344,650	26,473	0,121	-0,072
-343,635	-36,599	0,102	-0,039
-342,620	-182,451	0,042	0,001
-341,606	-166,655	-0,087	0,003
-340,591	325,828	0,041	0,056
-339,577	-200,000	-0,029	-0,186
-338,562	85,680	-0,097	0,076
-337,548	44,257	0,067	0,044
-336,533	-123,370	-0,049	-0,006
-335,518	-200,000	-0,006	-0,049
-334,504	-200,000	0,006	0,090
-333,489	-95,537	-0,095	0,018
-332,475	477,081	-0,015	0,025
-331,460	800,000	-0,006	0,014
-330,445	-200,000	0,040	0,000
-329,431	191,087	0,060	-0,064
-328,416	800,000	-0,033	0,077
-327,402	-1,228	0,130	0,065
-326,387	23,609	0,045	-0,027
-325,372	115,570	-0,065	-0,057
-324,358	-106,860	-0,161	0,025
-323,343	170,618	0,036	-0,037
-322,329	259,058	-0,044	-0,054
-321,314	-14,222	0,047	0,021
-320,299	114,908	-0,093	0,081
-319,285	800,000	0,054	-0,108
-318,270	-36,590	-0,161	-0,062
-317,256	-200,000	-0,013	0,082
-316,241	52,163	0,046	0,031
-315,226	417,972	-0,067	-0,102
-314,212	38,489	-0,056	-0,036
-313,197	189,134	0,021	0,022
-312,183	21,367	-0,068	-0,039
-311,168	272,561	0,049	-0,062
-310,153	-200,000	-0,006	-0,027
-309,139	800,000	-0,035	-0,074
-308,124	800,000	0,051	0,129
-307,110	-200,000	0,041	0,156
-306,095	800,000	-0,042	-0,119
-305,080	91,312	0,069	0,055
-304,066	800,000	-0,014	0,034
-303,051	402,676	-0,103	-0,155
-302,037	-18,284	0,172	-0,076
-301,022	136,227	0,059	-0,055
-300,008	464,955	0,011	-0,018
-298,993	-200,000	-0,011	-0,178
-297,978	800,000	-0,024	0,054
-296,964	-152,667	-0,055	-0,003
-295,949	45,690	-0,091	-0,060
-294,935	15,097	-0,075	0,042
-293,920	287,414	0,096	-0,125
-292,905	-200,000	0,002	-0,030
-291,891	-99,699	0,144	0,025
-290,876	-9,314	0,101	0,048
-289,862	800,000	-0,083	-0,195
-288,847	129,103	-0,097	-0,088
-287,832	408,480	-0,077	-0,116
-286,818	-117,573	0,087	-0,011
-285,803	-200,000	0,007	0,030
-284,789	124,346	0,092	0,082
-283,774	-200,000	0,005	-0,047
-282,759	-22,182	-0,062	-0,027
-281,745	-200,000	0,009	0,047
-280,730	-200,000	-0,006	-0,081
-279,716	3,311	0,122	0,063
-278,701	800,000	-0,016	0,043
-277,686	-113,455	0,074	-0,010
-276,672	-200,000	0,017	-0,070
-275,657	5,694	0,146	0,077
-274,643	153,447	0,078	0,076
-273,628	515,746	-0,123	0,205
-272,613	-77,357	-0,065	-0,016
-271,599	224,836	-0,100	-0,115
-270,584	74,936	0,069	0,052
-269,570	-166,390	0,151	0,004
-268,555	-200,000	0,013	0,060
-267,540	243,670	-0,046	0,055
-266,526	-22,944	-0,068	-0,029
-265,511	296,800	0,020	0,026
-264,497	120,821	-0,016	-0,015
-263,482	520,590	0,093	0,156
-262,467	-200,000	0,033	0,171
-261,453	353,161	-0,031	-0,043
-260,438	661,402	0,047	0,086
-259,424	-200,000	-0,005	-0,027
-258,409	11,095	0,015	-0,008
-257,395	-74,216	0,095	0,024
-256,380	15,963	0,073	0,041
-255,365	800,000	-0,023	0,051
-254,351	550,074	0,044	0,075
-253,336	251,964	0,027	-0,033
-252,322	215,307	-0,067	0,076
-251,307	-169,899	0,056	0,001
-250,292	-200,000	-0,030	-0,141
-249,278	-66,424	-0,076	-0,021
-248,263	407,693	-0,092	0,139
-247,249	-200,000	0,012	-0,066
-246,234	27,362	-0,109	0,065
-245,219	40,100	-0,024	0,015
-244,205	800,000	-0,073	-0,166
-243,190	-82,015	-0,149	-0,034
-242,176	225,097	0,060	0,070
-241,161	-200,000	0,033	0,110
-240,146	800,000	0,017	-0,048
-239,132	-101,659	0,128	-0,022
-238,117	558,925	-0,061	-0,105
-237,103	391,131	-0,010	-0,015
-236,088	-200,000	0,018	-0,059
-235,073	-200,000	-0,010	-0,105
-234,059	128,285	0,063	-0,057
-233,044	6,366	0,130	0,069
-232,030	800,000	0,013	0,030
-231,015	-200,000	-0,018	-0,059
-230,000	-76,880	-0,116	0,029
-228,986	800,000	-0,012	-0,035
-227,971	-141,158	0,159	0,011
-226,957	-136,674	0,009	0,001
-225,942	-200,000	-0,014	0,128
-224,927	654,772	0,056	-0,103
-223,913	450,193	0,082	-0,130
-222,898	800,000	0,032	-0,087
-221,884	-200,000	0,011	-0,042
-220,869	-6,964	0,076	0,037
-219,855	72,092	0,105	0,077
-218,840	-200,000	-0,022	0,142
-217,825	800,000	0,031	-0,092
-216,811	-200,000	-0,004	0,044
-215,796	800,000	-0,055	0,117
-214,782	165,468	0,089	-0,089
-213,767	2,806	0,192	-0,099
-212,752	-200,000	-0,078	0,000
-211,738	-141,846	0,072	0,005
-210,723	-200,000	0,018	0,181
-209,709	266,476	-0,073	-0,091
-208,694	-200,000	-0,018	-0,087
-207,679	441,186	0,038	-0,059
-206,665	-200,000	0,015	0,068
-205,650	-68,962	0,061	-0,016
-204,636	-200,000	0,006	0,129
-203,621	800,000	-0,016	-0,048
-202,606	-200,000	0,004	0,055
-201,592	-200,000	-0,017	0,093
-200,577	-200,000	0,003	0,098
-199,563	-200,000	-0,004	0,044
-198,548	137,566	0,069	-0,064
-197,533	-200,000	0,009	0,040
-196,519	-101,262	-0,110	0,019
-195,504	-68,377	0,097	-0,027
-194,490	337,332	0,048	-0,067
-193,475	55,938	-0,064	0,044
-192,460	-13,794	0,067	-0,031
-191,446	-29,312	-0,029	0,012
-190,431	800,000	0,009	-0,020
-189,417	383,446	0,076	0,111
-188,402	-200,000	-0,012	-0,043
-187,387	123,300	-0,079	-0,070
-186,373	320,945	-0,035	-0,047
-185,358	306,665	-0,075	-0,099
-184,344	195,929	0,063	0,068
-183,329	105,565	-0,101	0,084
-182,315	800,000	-0,032	0,086
-181,300	242,309	-0,038	0,046
-180,285	246,763	0,023	0,028
-179,271	-200,000	-0,012	0,118
-178,256	129,049	-0,120	0,109
-177,242	-162,142	0,095	-0,003
-176,227	-200,000	0,032	0,129
-175,212	-200,000	0,013	0,107
-174,198	35,907	-0,085	0,053
-173,183	-84,560	-0,123	0,027
-172,169	-28,133	-0,125	-0,051
-171,154	-156,826	-0,037	-0,002
-170,139	51,026	-0,043	-0,029
-169,125	-113,210	0,107	-0,015
-168,110	800,000	0,022	0,043
-167,096	197,375	-0,104	-0,113
-166,081	-200,000	0,012	-0,054
-165,066	10,753	-0,044	0,023
-164,052	595,524	-0,031	-0,055
-163,037	-200,000	-0,019	-0,135
-162,023	800,000	0,054	0,109
-161,008	332,651	0,073	-0,101
-159,993	29,760	0,098	-0,059
-158,979	800,000	0,023	-0,072
-157,964	71,198	-0,085	-0,063
-156,950	-200,000	-0,036	-0,126
-155,935	-161,219	0,113	0,004
-154,920	186,999	0,080	-0,085
-153,906	-200,000	0,015	0,101
-152,891	800,000	0,017	0,044
-151,877	315,043	-0,065	-0,087
-150,862	-53,074	0,035	-0,011
-149,847	-200,000	-0,010	-0,052
-148,833	240,073	-0,105	0,125
-147,818	-200,000	0,011	0,091
-146,804	-200,000	0,040	-0,134
-145,789	247,363	-0,039	-0,047
-144,775	462,354	-0,022	-0,035
-143,760	800,000	-0,046	-0,129
-142,745	-78,496	0,062	0,015
-141,731	96,984	0,100	0,081
-140,716	300,832	0,117	0,153
-139,702	-85,169	0,077	-0,017
-138,687	-52,238	-0,012	-0,004
-137,672	5,094	-0,089	-0,046
-136,658	216,629	-0,021	-0,023
-135,643	60,758	0,040	0,028
-134,629	308,454	0,176	-0,233
-133,614	800,000	0,033	-0,092
-132,599	-200,000	-0,017	-0,069
-131,585	-99,323	-0,068	-0,012
-130,570	800,000	-0,021	-0,044
-129,556	286,442	-0,065	-0,084
-128,541	-41,873	0,077	0,028
-127,526	741,894	0,036	-0,069
-126,512	-150,363	0,045	-0,002
-125,497	-60,077	0,036	0,011
-124,483	-98,689	0,090	0,016
-123,468	-200,000	0,015	0,164
-122,453	800,000	0,036	-0,109
-121,439	-200,000	-0,012	-0,072
-120,424	-22,705	-0,039	0,017
-119,410	172,698	-0,037	-0,038
-118,395	800,000	0,051	0,137
-117,380	-200,000	-0,021	0,091
-116,366	-200,000	-0,007	-0,082
-115,351	-200,000	-0,010	0,097
-114,337	-200,000	-0,012	-0,069
-113,322	-92,267	0,039	-0,008
-112,307	800,000	0,044	0,128
-111,293	6,310	0,028	0,015
-110,278	-124,768	0,121	-0,013
-109,264	678,309	0,016	-0,030
-108,249	-128,434	-0,010	0,001
-107,234	-200,000	-0,005	-0,026
-106,220	397,227	-0,023	0,035
-105,205	800,000	0,060	0,138
-104,191	125,604	0,056	-0,050
-103,176	12,104	0,115	0,063
-102,162	-76,515	0,050	0,012
-101,147	800,000	0,021	-0,056
-100,132	-77,859	0,075	0,018
-99,118	-200,000	0,011	-0,091
-98,103	-114,602	-0,191	-0,026
-97,089	-35,537	0,079	0,030
-96,074	-40,212	0,128	-0,047
-95,059	800,000	-0,044	-0,105
-94,045	165,594	0,109	-0,109
-93,030	107,002	-0,087	0,073
-92,016	-200,000	0,021	-0,072
-91,001	171,971	-0,050	0,051
-89,986	-74,786	0,118	0,030
-88,972	-4,570	-0,081	0,039
-87,957	566,041	0,066	0,113
-86,943	33,652	-0,070	0,043
-85,928	-151,445	-0,170	0,009
-84,913	-59,474	0,042	0,013
-83,899	302,329	-0,036	-0,047
-82,884	363,482	-0,020	0,029
-81,870	-200,000	0,006	0,112
-80,855	-200,000	-0,021	-0,077
-79,840	548,351	0,097	0,164
-78,826	-200,000	0,010	-0,144
-77,811	-200,000	-0,006	-0,110
-76,797	-3,796	-0,045	-0,022
-75,782	-89,511	0,092	-0,019
-74,767	258,019	0,066	0,080
-73,753	-200,000	-0,017	0,084
-72,738	85,045	0,091	-0,071
-71,724	-92,760	-0,124	-0,024
-70,709	-200,000	-0,005	-0,066
-69,694	800,000	0,030	-0,087
-68,680	-200,000	-0,007	0,111
-67,665	-200,000	-0,017	-0,077
-66,651	108,122	0,003	-0,003
-65,636	109,013	0,041	0,035
-64,622	307,043	-0,069	-0,091
-63,607	159,857	-0,143	0,141
-62,592	800,000	0,015	0,045
-61,578	-77,389	-0,038	0,009
-60,563	694,333	0,033	0,062
-59,549	-200,000	-0,001	0,077
-58,534	37,707	-1,978	-1,238
-57,519	402,985	-1,351	-2,012
-56,505	-200,000	-0,227	-4,314
-55,490	543,309	0,846	1,431
-54,476	800,000	4,945	11,262
-53,461	-200,000	21,450	341,439
-52,446	800,000	760,732	2363,327
-51,432	559,896	1663,199	2846,855
-50,417	73,489	1661,612	1226,750
-49,403	17,939	1535,118	860,991
-48,388	11,874	1458,568	788,708
-47,373	19,431	1449,804	820,218
-46,359	15,366	1438,885	794,673
-45,344	10,218	1434,547	767,729
-44,330	10,091	1432,948	766,238
-43,315	10,101	1431,103	765,271
-42,300	10,135	1429,186	764,375
-41,286	10,156	1428,039	763,831
-40,271	10,097	1426,889	762,906
-39,257	10,116	1425,787	762,377
-38,242	10,117	1424,650	761,744
-37,227	10,116	1423,663	761,181
-36,213	10,149	1422,081	760,462
-35,198	10,107	1420,987	759,647
-34,184	10,194	1420,035	759,518
-33,169	10,086	1418,686	758,259
-32,154	10,208	1417,487	758,162
-31,140	10,143	1416,589	757,346
-30,125	10,157	1415,540	756,819
-29,111	10,181	1414,171	756,172
-28,096	10,153	1413,040	755,406
-27,082	10,071	1411,955	754,411
-26,067	10,118	1410,772	753,968
-25,052	10,127	1409,756	753,435
-24,038	10,138	1408,722	752,906
-23,023	10,133	1407,737	752,327
-22,009	10,093	1406,711	751,561
-20,994	10,093	1405,807	751,048
-19,979	10,097	1404,941	750,573
-18,965	10,123	1403,942	750,132
-17,950	10,065	1403,173	749,423
-16,936	9,995	1402,521	748,717
-15,921	9,983	1401,344	748,004
-14,906	9,984	1400,506	747,531
-13,892	10,033	1399,346	747,111
-12,877	10,016	1398,711	746,664
-11,863	9,993	1397,741	746,010
-10,848	9,976	1397,014	745,511
-9,833	9,940	1395,898	744,721
-8,819	9,910	1395,189	744,173
-7,804	9,939	1394,100	743,695
-6,790	9,956	1392,950	743,134
-5,775	9,958	1391,874	742,536
-4,760	9,942	1391,029	741,982
-3,746	9,922	1390,340	741,493
-2,731	9,901	1389,301	740,813
-1,717	9,909	1388,603	740,451
-0,702	9,880	1386,820	739,337
0,313	13,961	1299,237	711,302
1,327	30,160	690,044	414,506
2,342	46,448	119,481	78,045
3,356	0,665	16,463	8,281
4,371	6,014	3,590	1,870
5,386	-13,021	1,109	0,507
6,400	800,000	0,196	0,538
7,415	-120,738	-0,190	-0,022
8,429	282,940	-0,207	-0,263
9,444	-18,128	-0,311	-0,137
10,459	-165,814	-0,349	0,010
11,473	174,829	-0,182	-0,186
12,488	-72,234	-0,144	-0,037
13,502	-11,349	-0,163	-0,075
14,517	-35,470	-0,271	-0,103
15,531	40,984	-0,356	-0,226
16,546	52,716	-0,364	-0,245
17,561	-23,573	-0,524	-0,220
18,575	800,000	-0,057	-0,119
19,590	86,254	-0,241	-0,187
20,604	-26,203	-0,228	-0,094
21,619	149,169	-0,413	-0,394
22,634	17,053	-0,504	-0,280
23,648	-46,502	-0,448	-0,154
24,663	2,481	-0,323	-0,164
25,677	54,052	-0,402	-0,272
26,692	38,352	-0,361	-0,226
27,707	159,589	-0,338	-0,331
28,721	216,352	-0,247	-0,277
29,736	48,963	-0,460	-0,304
30,750	172,275	-0,342	-0,347
31,765	80,812	-0,324	-0,245
32,780	342,245	-0,225	-0,310
33,794	47,433	-0,203	-0,133
34,809	26,999	-0,340	-0,200
35,823	108,865	-0,277	-0,233
36,838	58,740	-0,379	-0,261
37,853	110,592	-0,319	-0,270
38,867	1,590	-0,357	-0,180
39,882	-22,309	-0,350	-0,149
40,896	-59,206	-0,368	-0,111
41,911	93,237	-0,280	-0,222
42,926	20,869	-0,383	-0,217
43,940	126,816	-0,262	-0,233
44,955	443,146	-0,223	-0,344
45,969	465,904	-0,226	-0,356
46,984	13,545	-0,452	-0,246
47,999	98,452	-0,347	-0,281
49,013	101,783	-0,325	-0,267
50,028	30,086	-0,373	-0,223
51,042	48,053	-0,398	-0,261
52,057	285,409	-0,210	-0,266
53,071	76,952	-0,379	-0,283
54,086	10,497	-0,324	-0,173
55,101	129,023	-0,311	-0,279
56,115	177,898	-0,224	-0,229
57,130	-4,191	-0,377	-0,183
58,144	20,384	-0,345	-0,195
59,159	157,340	-0,318	-0,309
60,174	21,659	-0,428	-0,244
61,188	1,201	-0,347	-0,175
62,203	-118,945	-0,446	-0,054
63,217	-33,846	-0,397	-0,153
64,232	99,356	-0,321	-0,261
65,247	22,694	-0,463	-0,265
66,261	168,769	-0,353	-0,353
67,276	90,120	-0,361	-0,283
68,290	154,211	-0,326	-0,314
69,305	29,417	-0,263	-0,156
70,320	-68,635	-0,362	-0,098
71,334	73,203	-0,259	-0,190
72,349	548,519	-0,191	-0,323
73,363	16,038	-0,357	-0,197
74,378	78,227	-0,319	-0,239
75,393	-15,587	-0,302	-0,134
76,407	23,898	-0,311	-0,179
77,422	-39,169	-0,336	-0,123
78,436	59,783	-0,175	-0,121
79,451	123,696	-0,346	-0,304
80,466	-30,773	-0,218	-0,086
81,480	-82,751	-0,295	-0,066
82,495	-56,080	-0,300	-0,093
83,509	101,167	-0,278	-0,226
84,524	-136,923	-0,397	-0,031
85,539	147,031	-0,180	-0,169
86,553	218,930	-0,160	-0,180
87,568	18,129	-0,292	-0,163
88,582	-73,980	-0,304	-0,077
89,597	204,341	-0,295	-0,321
90,611	-22,542	-0,334	-0,141
91,626	-77,850	-0,151	-0,036
92,641	368,680	-0,140	-0,199
93,655	26,116	-0,295	-0,172
94,670	-51,185	-0,220	-0,072
95,684	-5,889	-0,299	-0,143
96,699	-21,660	-0,404	-0,171
97,714	-51,516	-0,251	-0,082
98,728	-43,410	-0,207	-0,073
99,743	-200,000	-0,066	-0,209
100,757	7,940	-0,367	-0,192
101,772	-53,376	-0,298	-0,095
102,787	83,662	-0,337	-0,257
103,801	62,441	-0,260	-0,182
104,816	164,856	-0,172	-0,170
105,830	-8,319	-0,147	0,069
106,845	27,271	-0,205	-0,120
107,860	-12,625	-0,336	-0,153
108,874	196,604	-0,266	-0,283
109,889	144,474	-0,312	-0,292
110,903	475,083	-0,149	-0,237
111,918	14,844	-0,341	-0,186
112,933	33,758	-0,300	-0,182
113,947	39,358	-0,195	-0,122
114,962	99,986	-0,214	-0,173
115,976	18,082	-0,190	-0,106
116,991	-81,334	-0,392	-0,089
118,006	-64,854	-0,327	-0,092
119,020	-10,931	-0,197	-0,090
120,035	35,925	-0,271	-0,166
121,049	-61,725	-0,161	-0,047
122,064	-59,732	-0,341	-0,101
123,079	39,747	-0,281	-0,176
124,093	43,394	-0,244	-0,155
125,108	-1,899	-0,353	-0,173
126,122	749,664	-0,093	-0,176
127,137	-7,040	-0,217	-0,103
128,151	81,586	-0,228	-0,172
129,166	-67,553	-0,204	-0,055
130,181	257,018	-0,197	-0,237
131,195	92,880	-0,289	-0,227
132,210	76,630	-0,245	-0,181
133,224	111,405	-0,285	-0,239
134,239	-10,583	-0,171	-0,079
135,254	91,308	-0,320	-0,250
136,268	217,167	-0,170	-0,189
137,283	125,084	-0,185	-0,162
138,297	-29,997	-0,345	-0,136
139,312	216,164	-0,172	-0,190
140,327	-38,440	-0,247	-0,090
141,341	436,827	-0,238	-0,362
142,356	-75,917	-0,227	-0,056
143,370	13,443	-0,411	-0,222
144,385	31,234	-0,226	-0,135
145,400	73,957	-0,274	-0,200
146,414	39,078	-0,378	-0,235
147,429	83,628	-0,257	-0,195
148,443	297,895	-0,195	-0,250
149,458	-80,628	-0,268	-0,062
150,473	-24,213	-0,172	-0,071
151,487	64,900	-0,260	-0,183
152,502	-89,470	-0,287	-0,058
153,516	47,375	-0,299	-0,194
154,531	312,719	-0,209	-0,274
155,546	800,000	-0,162	-0,370
156,560	63,164	-0,271	-0,189
157,575	71,361	-0,102	-0,073
158,589	354,157	-0,182	-0,252
159,604	2,806	-0,234	-0,118
160,619	358,206	-0,161	-0,224
161,633	406,755	-0,178	-0,263
162,648	139,468	-0,234	-0,215
163,662	-38,443	-0,254	-0,093
164,677	-148,558	-0,247	-0,014
165,692	115,757	-0,149	-0,127
166,706	27,549	-0,346	-0,202
167,721	98,324	-0,245	-0,196
168,735	217,831	-0,207	-0,230
169,750	-90,436	-0,331	-0,066
170,764	476,120	-0,144	-0,227
171,779	98,481	-0,161	-0,129
172,794	323,688	-0,162	-0,215
173,808	131,943	-0,189	-0,170
174,823	138,653	-0,183	-0,167
175,837	32,829	-0,185	-0,111
176,852	164,405	-0,155	-0,152
177,867	288,811	-0,239	-0,302
178,881	-43,938	-0,204	-0,071
179,896	-81,054	-0,227	-0,052
180,910	553,685	-0,092	-0,155
181,925	261,879	-0,121	-0,146
182,940	35,949	-0,179	-0,109
183,954	45,408	-0,206	-0,132
184,969	176,066	-0,250	-0,252
185,983	-200,000	-0,016	-0,062
186,998	66,998	-0,215	-0,152
188,013	-75,152	-0,167	-0,041
189,027	237,750	-0,217	-0,250
190,042	158,134	-0,176	-0,170
191,056	52,867	-0,248	-0,164
192,071	98,656	-0,148	-0,118
193,086	800,000	-0,119	-0,283
194,100	264,025	-0,223	-0,270
195,115	-83,124	-0,204	-0,045
196,129	-29,587	-0,250	-0,099
197,144	111,032	-0,257	-0,215
198,159	-18,786	-0,286	-0,123
199,173	768,324	-0,136	-0,257
200,188	393,017	-0,095	-0,137
201,202	70,571	-0,212	-0,152
202,217	29,491	-0,160	-0,094
203,232	133,781	-0,123	-0,110
204,246	-10,521	-0,279	-0,127
205,261	120,929	-0,146	-0,125
206,275	182,865	-0,114	-0,116
207,290	69,134	-0,150	-0,106
208,304	-62,632	-0,297	-0,085
209,319	332,576	-0,164	-0,219
210,334	237,266	-0,211	-0,243
211,348	-17,884	-0,399	-0,173
212,363	411,404	-0,167	-0,246
213,377	-95,689	-0,218	-0,040
214,392	25,565	-0,186	-0,107
215,407	-48,620	-0,115	-0,038
216,421	800,000	-0,116	-0,244
217,436	72,916	-0,164	-0,118
218,450	213,201	-0,170	-0,186
219,465	2,612	-0,275	-0,137
220,480	-155,201	-0,191	0,008
221,494	-109,159	-0,114	-0,017
222,509	-66,202	-0,092	-0,025
223,523	194,281	-0,159	-0,167
224,538	-126,502	-0,073	0,007
225,553	48,326	-0,194	-0,125
226,567	800,000	-0,149	-0,295
227,582	228,945	-0,144	-0,163
228,596	326,699	-0,098	-0,131
229,611	53,261	-0,231	-0,153
230,626	66,952	-0,096	-0,068
231,640	207,110	-0,141	-0,152
232,655	-121,670	-0,242	-0,027
233,669	50,554	-0,187	-0,122
234,684	96,976	-0,232	-0,183
235,699	-29,407	-0,256	-0,101
236,713	121,861	-0,134	-0,116
237,728	213,218	-0,149	-0,163
238,742	800,000	-0,062	-0,181
239,757	90,036	-0,178	-0,137
240,772	63,937	-0,243	-0,169
241,786	295,142	-0,173	-0,219
242,801	-3,167	-0,175	-0,084
243,815	54,197	-0,105	-0,069
244,830	-83,234	-0,138	-0,030
245,844	-59,968	-0,241	-0,071
246,859	489,075	-0,144	-0,228
247,874	-121,297	-0,256	-0,029
248,888	-48,679	-0,204	-0,067
249,903	800,000	-0,046	-0,093
250,917	-62,944	-0,122	-0,035
251,932	-193,665	-0,170	-0,001
252,947	800,000	-0,044	-0,118
253,961	59,691	-0,125	-0,085
254,976	86,794	-0,168	-0,128
255,990	408,145	-0,129	-0,189
257,005	123,378	-0,268	-0,232
258,020	-4,711	-0,235	-0,111
259,034	-21,869	-0,121	-0,050
260,049	800,000	-0,094	-0,224
261,063	32,446	-0,306	-0,182
262,078	-6,310	-0,279	-0,131
263,093	152,079	-0,151	-0,142
264,107	-44,143	-0,148	-0,051
265,122	230,761	-0,120	-0,136
266,136	130,793	-0,127	-0,112
267,151	79,326	-0,167	-0,123
268,166	-117,059	-0,153	-0,019
269,180	215,094	-0,226	-0,247
270,195	448,319	-0,129	-0,196
271,209	15,374	-0,128	-0,069
272,224	800,000	-0,029	-0,071
273,239	800,000	-0,031	-0,078
274,253	800,000	-0,053	-0,116
275,268	65,631	-0,173	-0,121
276,282	214,816	-0,232	-0,254
277,297	182,410	-0,054	-0,054
278,312	-67,351	-0,182	-0,049
279,326	575,153	-0,145	-0,244
280,341	332,180	-0,099	-0,132
281,355	-52,907	-0,113	-0,035
282,370	357,777	-0,082	-0,113
283,384	212,844	-0,159	-0,173
284,399	800,000	-0,062	-0,123
285,414	103,443	-0,124	-0,100
286,428	-200,000	-0,050	-0,242
287,443	-129,380	-0,175	0,016
288,457	72,091	-0,162	-0,116
289,472	44,289	-0,088	-0,056
290,487	51,868	-0,192	-0,125
291,501	-68,642	-0,171	-0,045
292,516	168,371	-0,237	-0,232
293,530	-78,881	-0,197	-0,046
294,545	79,264	-0,107	-0,079
295,560	284,483	-0,068	-0,085
296,574	138,441	-0,088	-0,079
297,589	-61,484	-0,303	-0,087
298,603	-129,016	-0,277	0,026
299,618	800,000	-0,040	-0,116
300,633	143,222	-0,192	-0,176
301,647	314,333	-0,118	-0,154
302,662	659,076	-0,076	-0,134
303,676	423,760	-0,099	-0,147
304,691	45,798	-0,119	-0,075
305,706	72,855	-0,151	-0,108
306,720	24,938	-0,208	-0,118
307,735	-5,330	-0,176	-0,083
308,749	227,379	-0,059	-0,066
309,764	70,397	-0,128	-0,091
310,779	-49,690	-0,196	0,064
311,793	-21,705	-0,115	-0,048
312,808	800,000	-0,074	-0,149
313,822	482,340	-0,074	-0,116
314,837	329,717	-0,119	0,157
315,852	-200,000	-0,025	-0,128
316,866	113,775	-0,141	-0,117
317,881	102,973	-0,123	-0,099
318,895	166,111	-0,185	-0,180
319,910	648,248	-0,064	-0,112
320,925	-54,062	-0,211	-0,066
321,939	-179,502	-0,165	0,002
322,954	6,162	-0,159	-0,080
323,968	-72,964	-0,072	0,018
324,983	800,000	-0,040	-0,100
325,997	7,012	-0,203	-0,103
327,012	-33,170	-0,131	-0,049
328,027	243,698	-0,186	-0,214
329,041	-18,635	-0,174	-0,074
330,056	-200,000	-0,067	-0,218
331,070	77,573	-0,125	-0,091
332,085	511,710	-0,007	-0,011
333,100	366,821	-0,108	-0,150
334,114	-94,896	-0,262	0,048
335,129	14,475	-0,213	-0,114
336,143	150,188	-0,164	-0,152
337,158	-168,131	-0,137	0,004
338,173	800,000	-0,034	-0,099
339,187	132,219	-0,181	-0,160
340,202	237,698	-0,138	-0,157
341,216	99,476	-0,191	-0,152
342,231	-200,000	-0,010	-0,145
343,246	800,000	-0,070	-0,171
344,260	-191,518	-0,074	-0,000
345,275	58,397	-0,081	0,055
346,289	-20,724	-0,149	0,062
347,304	62,994	-0,055	-0,038
348,319	341,911	-0,182	-0,244
349,333	289,949	-0,092	-0,115
350,348	-200,000	-0,047	-0,232
351,362	731,186	-0,097	-0,179
352,377	-33,272	-0,068	-0,026
353,392	-59,643	-0,147	-0,043
354,406	800,000	-0,071	-0,135
355,421	208,018	1309,541	1401,043
356,435	160,045	1469,601	1401,513
