DTS Sentinel unit serial number:	SN410029Multiplexer serial number:	ORYXHardware model number:	OX2-SRSoftware version number:	ORYX F/W v4,00 Oryx Data Collector v3.7.2.0data status	okinstallation	B3 Nyhavnadifferential loss correction	single-endedforward channel	channel 1reverse channel	N/Adate	2023/12/01time	08:32:30forward acquisition time	300,00reverse acquisition time	0,00gamma	499,1914k internal	0,3213k external	0,3213temperature offset calibration	1,0000default loss term (dB/km)	0,3820temperature slope calibration	1,0000multiplexer offset coefficient	1,0000multiplexer slope coefficient	1,0000fibre end	0,00T internal ref (°C)	8,00T ext. ref 1 (°C)	-6,42T ext. ref 2 (°C)	-6,58length (m)	temperature (°C)	Stokes	anti-Stokes-744,400	40,337	-0,314	-0,204
-743,385	428,370	0,075	0,118
-742,371	-200,000	0,015	-0,238
-741,356	-200,000	0,060	0,379
-740,342	18,022	-0,245	-0,141
-739,327	800,000	-0,129	0,305
-738,312	800,000	-0,143	-0,329
-737,298	800,000	-0,076	0,206
-736,283	214,760	-0,197	-0,226
-735,269	-200,000	-0,019	0,237
-734,254	144,689	-0,179	-0,173
-733,239	-84,702	-0,156	-0,035
-732,225	-200,000	-0,073	-0,236
-731,210	14,758	0,076	0,043
-730,196	318,642	-0,047	0,065
-729,181	-79,292	-0,119	0,029
-728,167	-101,185	-0,139	0,024
-727,152	81,402	-0,113	-0,088
-726,137	-56,119	-0,088	0,028
-725,123	-110,799	-0,098	-0,014
-724,108	-12,386	-0,018	0,008
-723,094	87,150	-0,059	0,047
-722,079	-200,000	-0,007	-0,065
-721,064	-109,044	0,149	-0,023
-720,050	-36,943	0,021	0,008
-719,035	-48,710	-0,075	-0,026
-718,021	289,044	-0,066	0,087
-717,006	135,370	-0,147	-0,139
-715,991	-133,914	0,157	-0,014
-714,977	-164,098	-0,126	-0,004
-713,962	-133,065	0,159	-0,014
-712,948	399,075	0,011	0,016
-711,933	-200,000	-0,004	-0,052
-710,918	-200,000	-0,012	-0,039
-709,904	-81,983	0,073	-0,017
-708,889	-200,000	0,017	-0,069
-707,875	96,160	-0,091	-0,075
-706,860	433,823	0,046	-0,073
-705,845	277,202	0,103	-0,133
-704,831	800,000	0,027	-0,074
-703,816	800,000	-0,014	-0,041
-702,802	344,791	-0,003	-0,004
-701,787	157,270	-0,118	-0,118
-700,772	170,459	0,154	-0,159
-699,758	-59,746	0,066	0,020
-698,743	754,058	0,067	-0,131
-697,729	-67,528	-0,085	-0,024
-696,714	-86,688	0,110	0,024
-695,699	493,678	-0,106	-0,177
-694,685	800,000	-0,084	-0,209
-693,670	388,816	-0,075	-0,113
-692,656	800,000	-0,069	-0,140
-691,641	-200,000	0,005	-0,030
-690,627	-90,161	-0,017	0,004
-689,612	-200,000	0,004	0,117
-688,597	800,000	0,055	-0,159
-687,583	389,240	-0,041	-0,062
-686,568	429,087	-0,057	-0,090
-685,554	256,436	0,021	0,027
-684,539	110,269	0,223	0,194
-683,524	217,148	-0,109	0,126
-682,510	192,683	0,004	-0,004
-681,495	-80,256	-0,119	0,029
-680,481	-200,000	-0,026	0,201
-679,466	-90,502	0,096	-0,020
-678,451	-105,295	0,018	0,003
-677,437	800,000	0,070	0,185
-676,422	-200,000	0,028	0,151
-675,408	-53,840	0,073	0,024
-674,393	201,236	0,075	-0,083
-673,378	91,770	-0,099	-0,080
-672,364	626,103	0,070	-0,129
-671,349	-70,668	-0,168	0,046
-670,335	559,746	0,044	0,077
-669,320	-175,262	-0,050	-0,001
-668,305	800,000	-0,019	0,049
-667,291	-110,225	-0,085	-0,013
-666,276	-200,000	0,017	-0,095
-665,262	82,889	-0,056	-0,044
-664,247	-200,000	-0,011	-0,121
-663,232	146,827	-0,055	-0,053
-662,218	-200,000	-0,003	0,250
-661,203	367,114	0,014	0,021
-660,189	-28,161	-0,155	0,064
-659,174	89,867	-0,118	-0,095
-658,159	-194,482	-0,140	-0,001
-657,145	75,616	-0,094	-0,072
-656,130	-188,194	-0,058	0,001
-655,116	-73,921	0,049	0,013
-654,101	-5,257	0,026	0,013
-653,086	-28,699	-0,086	0,036
-652,072	153,759	-0,098	0,097
-651,057	774,338	-0,103	-0,203
-650,043	-129,969	-0,056	-0,005
-649,028	299,214	-0,022	-0,029
-648,014	219,104	-0,067	-0,078
-646,999	218,866	0,110	0,127
-645,984	-128,859	-0,150	0,015
-644,970	173,936	-0,118	0,124
-643,955	113,851	0,165	0,145
-642,941	-161,614	-0,176	-0,006
-641,926	-200,000	0,001	-0,022
-640,911	664,480	-0,012	0,023
-639,897	244,327	0,121	0,147
-638,882	-82,482	0,036	-0,008
-637,868	334,133	-0,051	0,071
-636,853	-200,000	-0,004	-0,105
-635,838	-200,000	-0,035	-0,137
-634,824	-200,000	-0,009	0,069
-633,809	193,449	0,034	0,038
-632,795	-200,000	0,008	-0,108
-631,780	-121,909	0,141	-0,017
-630,765	89,775	-0,125	0,100
-629,751	-200,000	-0,010	-0,108
-628,736	800,000	0,015	-0,043
-627,722	-119,903	-0,061	-0,007
-626,707	746,172	0,054	-0,105
-625,692	185,511	0,087	-0,093
-624,678	-119,308	0,070	-0,009
-623,663	-200,000	-0,003	0,060
-622,649	66,983	0,060	-0,044
-621,634	-200,000	0,008	-0,083
-620,619	-136,148	-0,051	0,004
-619,605	-200,000	-0,030	0,171
-618,590	-200,000	-0,026	0,110
-617,576	34,223	-0,010	0,007
-616,561	800,000	-0,025	0,063
-615,546	-200,000	-0,013	0,052
-614,532	-129,798	-0,022	-0,002
-613,517	-65,584	0,087	0,025
-612,503	-83,578	-0,060	-0,014
-611,488	664,972	0,067	0,126
-610,474	676,754	0,046	-0,086
-609,459	-67,920	-0,090	-0,025
-608,444	-200,000	-0,015	-0,149
-607,430	-72,714	0,252	-0,066
-606,415	-200,000	0,022	-0,094
-605,401	-164,942	-0,168	-0,005
-604,386	32,276	0,038	-0,023
-603,371	65,894	0,078	-0,057
-602,357	450,253	-0,060	-0,096
-601,342	-200,000	-0,003	0,016
-600,328	-200,000	0,013	0,077
-599,313	-95,190	0,060	-0,012
-598,298	191,414	-0,070	-0,076
-597,284	146,023	0,058	-0,056
-596,269	-39,394	0,016	-0,006
-595,255	-21,637	0,068	-0,030
-594,240	568,745	-0,042	-0,074
-593,225	284,514	-0,077	-0,100
-592,211	-94,725	0,069	0,013
-591,196	-200,000	-0,016	-0,100
-590,182	-200,000	0,003	0,130
-589,167	133,149	-0,112	-0,104
-588,152	-20,271	0,105	0,046
-587,138	91,506	-0,092	-0,075
-586,123	313,104	-0,082	0,111
-585,109	-200,000	0,006	-0,109
-584,094	-200,000	0,009	-0,112
-583,079	-124,773	0,126	0,014
-582,065	-200,000	0,034	0,127
-581,050	-55,951	-0,078	0,025
-580,036	-79,360	-0,067	0,016
-579,021	30,134	-0,094	0,058
-578,006	748,400	-0,030	-0,058
-576,992	-114,163	-0,062	-0,009
-575,977	197,665	-0,116	0,128
-574,963	-91,241	-0,031	-0,006
-573,948	-200,000	0,003	-0,102
-572,934	-200,000	0,016	0,059
-571,919	443,441	0,056	-0,088
-570,904	-41,990	0,088	-0,032
-569,890	-62,091	-0,057	0,017
-568,875	-28,958	-0,032	0,013
-567,861	-200,000	0,004	0,067
-566,846	-200,000	-0,012	0,144
-565,831	122,297	-0,118	0,106
-564,817	-41,823	-0,076	0,028
-563,802	-200,000	-0,039	-0,125
-562,788	-20,605	-0,031	-0,014
-561,773	153,267	0,026	0,026
-560,758	-200,000	-0,024	0,202
-559,744	193,944	0,098	0,107
-558,729	194,702	-0,024	-0,026
-557,715	800,000	-0,033	-0,077
-556,700	-22,606	-0,137	-0,060
-555,685	167,684	-0,077	-0,078
-554,671	253,126	0,044	0,054
-553,656	586,311	-0,038	-0,068
-552,642	-51,818	0,036	-0,012
-551,627	-103,483	0,052	0,009
-550,612	800,000	0,019	-0,048
-549,598	46,995	-0,044	-0,030
-548,583	111,378	0,027	-0,023
-547,569	139,452	0,044	-0,042
-546,554	716,520	-0,032	-0,061
-545,539	-125,505	0,071	0,008
-544,525	270,503	-0,062	0,079
-543,510	342,575	0,017	-0,024
-542,496	-95,999	-0,147	0,028
-541,481	-89,077	-0,057	0,012
-540,466	674,850	0,041	-0,078
-539,452	3,146	0,055	-0,029
-538,437	420,207	0,030	-0,047
-537,423	-41,481	0,080	0,029
-536,408	280,563	0,081	0,104
-535,393	217,552	-0,083	-0,095
-534,379	166,528	0,075	0,077
-533,364	95,923	-0,015	-0,013
-532,350	140,065	0,016	-0,016
-531,335	-187,365	-0,080	-0,001
-530,321	-200,000	-0,007	-0,024
-529,306	118,923	-0,058	0,052
-528,291	118,594	-0,013	0,011
-527,277	42,315	-0,118	-0,077
-526,262	-200,000	-0,039	0,135
-525,248	58,810	0,067	0,047
-524,233	-23,573	0,172	0,074
-523,218	-101,185	-0,107	-0,019
-522,204	208,723	0,067	0,075
-521,189	-200,000	0,021	-0,074
-520,175	-200,000	0,005	-0,042
-519,160	-200,000	-0,008	-0,087
-518,145	469,675	-0,046	-0,075
-517,131	-200,000	-0,005	0,027
-516,116	2,148	0,083	-0,043
-515,102	800,000	-0,007	0,021
-514,087	-43,654	-0,078	0,028
-513,072	175,787	-0,037	-0,038
-512,058	-129,972	-0,150	0,015
-511,043	-200,000	0,004	-0,138
-510,029	-200,000	0,015	0,053
-509,014	800,000	-0,024	0,056
-507,999	-200,000	-0,044	-0,161
-506,985	-102,413	0,135	-0,023
-505,970	-200,000	0,014	0,058
-504,956	-200,000	0,025	-0,151
-503,941	281,829	-0,069	0,089
-502,926	-200,000	0,006	0,075
-501,912	-151,722	0,170	0,009
-500,897	-200,000	-0,016	-0,093
-499,883	659,338	-0,030	0,055
-498,868	-36,183	-0,126	-0,049
-497,853	-200,000	-0,016	0,051
-496,839	-174,872	0,049	0,001
-495,824	372,250	0,074	0,108
-494,810	94,339	0,162	0,132
-493,795	-126,399	-0,017	0,002
-492,781	56,852	-0,092	0,064
-491,766	323,681	-0,094	-0,129
-490,751	24,610	-0,026	0,015
-489,737	4,609	0,027	0,014
-488,722	161,759	0,050	0,051
-487,708	135,226	-0,095	0,089
-486,693	800,000	0,014	0,043
-485,678	-200,000	-0,050	0,167
-484,664	259,290	-0,125	-0,155
-483,649	-200,000	0,019	0,092
-482,635	206,994	0,074	0,083
-481,620	800,000	0,062	0,161
-480,605	800,000	0,087	0,262
-479,591	-200,000	0,025	0,189
-478,576	800,000	0,056	0,119
-477,562	-200,000	0,013	-0,055
-476,547	35,413	0,129	-0,081
-475,532	79,917	-0,201	-0,155
-474,518	800,000	0,049	0,100
-473,503	-200,000	-0,048	0,225
-472,489	779,368	0,022	-0,044
-471,474	247,076	-0,076	0,092
-470,459	260,479	0,092	-0,114
-469,445	82,538	-0,132	-0,102
-468,430	502,553	0,078	-0,130
-467,416	-26,472	-0,083	0,035
-466,401	800,000	0,012	0,037
-465,386	800,000	0,054	-0,158
-464,372	800,000	-0,058	-0,154
-463,357	38,688	0,127	-0,081
-462,343	431,998	-0,064	-0,100
-461,328	-33,709	0,235	-0,093
-460,313	123,865	-0,027	-0,025
-459,299	337,021	0,043	-0,060
-458,284	347,347	0,044	0,062
-457,270	-200,000	-0,016	-0,207
-456,255	-200,000	-0,051	-0,168
-455,241	176,000	0,008	-0,008
-454,226	246,057	-0,013	0,016
-453,211	800,000	-0,040	-0,096
-452,197	770,238	-0,048	-0,094
-451,182	-200,000	-0,020	0,065
-450,168	252,796	-0,035	-0,043
-449,153	-1,386	-0,051	-0,026
-448,138	119,753	-0,058	-0,052
-447,124	18,994	-0,139	-0,079
-446,109	532,422	0,037	0,063
-445,095	70,541	0,049	0,036
-444,080	134,363	-0,058	0,054
-443,065	-130,180	0,101	-0,010
-442,051	-193,975	-0,019	-0,000
-441,036	47,200	-0,074	0,049
-440,022	-200,000	-0,000	0,074
-439,007	-42,008	0,074	-0,027
-437,992	24,394	0,072	0,043
-436,978	116,311	0,126	-0,110
-435,963	213,881	0,048	-0,054
-434,949	-200,000	0,003	-0,033
-433,934	800,000	0,046	-0,097
-432,919	244,255	-0,073	0,088
-431,905	800,000	-0,017	0,052
-430,890	-200,000	0,018	0,183
-429,876	353,047	0,044	0,063
-428,861	672,067	0,065	-0,121
-427,846	-200,000	-0,005	0,075
-426,832	800,000	-0,034	-0,103
-425,817	403,943	-0,129	0,195
-424,803	147,931	0,054	0,053
-423,788	502,429	-0,042	-0,069
-422,773	285,386	0,080	-0,104
-421,759	7,474	0,038	0,020
-420,744	5,754	-0,099	-0,052
-419,730	-3,711	0,123	-0,061
-418,715	800,000	-0,026	-0,066
-417,701	293,404	0,112	0,146
-416,686	126,950	-0,038	0,035
-415,671	353,579	0,084	-0,119
-414,657	-200,000	-0,027	0,162
-413,642	-75,519	-0,079	-0,020
-412,628	-200,000	0,008	-0,113
-411,613	800,000	-0,056	-0,154
-410,598	431,284	-0,097	-0,151
-409,584	177,939	0,067	0,070
-408,569	147,507	0,047	-0,046
-407,555	264,139	0,087	0,109
-406,540	137,519	-0,065	-0,061
-405,525	24,702	-0,075	-0,044
-404,511	141,844	-0,002	0,002
-403,496	-200,000	-0,003	-0,078
-402,482	100,010	0,104	-0,087
-401,467	-37,317	-0,126	0,048
-400,452	280,974	0,040	0,051
-399,438	449,281	-0,079	-0,124
-398,423	-120,162	-0,025	0,003
-397,409	-147,555	-0,035	-0,002
-396,394	800,000	-0,024	0,058
-395,379	-158,318	0,108	-0,004
-394,365	160,981	-0,014	0,014
-393,350	5,204	-0,087	-0,046
-392,336	53,926	0,092	0,063
-391,321	30,349	0,064	-0,039
-390,306	-15,494	-0,051	0,023
-389,292	-200,000	-0,001	0,077
-388,277	539,532	0,033	0,056
-387,263	152,369	0,016	-0,016
-386,248	-10,866	-0,064	0,030
-385,233	-29,853	0,071	-0,029
-384,219	-200,000	0,007	-0,062
-383,204	800,000	0,027	-0,065
-382,190	188,591	0,085	-0,091
-381,175	102,519	0,145	0,121
-380,160	47,272	-0,057	-0,038
-379,146	-166,338	0,114	0,003
-378,131	654,876	-0,042	0,077
-377,117	249,531	-0,061	0,073
-376,102	297,650	0,092	0,121
-375,088	-200,000	0,010	-0,074
-374,073	-200,000	0,018	0,109
-373,058	-200,000	0,009	-0,048
-372,044	101,141	0,229	0,191
-371,029	800,000	-0,032	0,073
-370,015	153,649	-0,121	-0,118
-369,000	1,289	0,145	-0,074
-367,985	147,449	-0,069	0,066
-366,971	-44,979	-0,028	0,010
-365,956	800,000	0,022	-0,053
-364,942	181,150	0,112	0,118
-363,927	800,000	0,033	0,083
-362,912	170,005	0,046	-0,048
-361,898	90,887	0,069	-0,055
-360,883	-200,000	-0,003	-0,101
-359,869	800,000	-0,074	-0,155
-358,854	60,100	-0,017	0,012
-357,839	-200,000	-0,023	0,076
-356,825	-200,000	0,012	0,054
-355,810	54,507	0,091	0,063
-354,796	432,533	-0,026	0,041
-353,781	-85,153	-0,084	-0,019
-352,766	800,000	-0,039	-0,122
-351,752	-68,919	0,071	-0,019
-350,737	-92,353	0,147	0,029
-349,723	148,442	0,082	0,079
-348,708	-200,000	0,007	0,115
-347,693	800,000	0,043	0,136
-346,679	532,579	-0,051	-0,086
-345,664	-136,277	-0,034	0,003
-344,650	-129,232	-0,107	0,010
-343,635	-104,134	0,146	0,024
-342,620	-165,811	-0,039	-0,001
-341,606	324,236	-0,077	0,105
-340,591	-200,000	0,007	0,117
-339,577	250,232	-0,057	0,069
-338,562	-200,000	0,017	-0,057
-337,548	-200,000	-0,002	-0,154
-336,533	209,993	0,073	0,082
-335,518	-200,000	0,013	0,110
-334,504	-132,594	-0,117	0,011
-333,489	139,922	0,095	0,089
-332,475	264,693	0,063	-0,079
-331,460	63,997	-0,095	-0,068
-330,445	800,000	-0,018	0,046
-329,431	334,824	-0,023	0,032
-328,416	433,439	-0,034	0,052
-327,402	113,547	0,010	0,009
-326,387	774,359	-0,037	0,073
-325,372	-200,000	0,009	-0,128
-324,358	800,000	0,051	-0,140
-323,343	-200,000	0,000	-0,008
-322,329	-200,000	-0,006	-0,021
-321,314	-200,000	0,028	-0,096
-320,299	-198,519	0,138	0,001
-319,285	-200,000	-0,029	0,177
-318,270	800,000	0,030	0,088
-317,256	44,247	-0,032	0,021
-316,241	-142,150	0,110	0,008
-315,226	118,682	0,062	-0,055
-314,212	-200,000	0,013	-0,057
-313,197	800,000	0,013	0,030
-312,183	800,000	-0,017	0,046
-311,168	800,000	0,037	-0,116
-310,153	347,635	-0,030	-0,042
-309,139	138,477	-0,034	-0,032
-308,124	68,455	0,109	0,079
-307,110	800,000	0,038	-0,098
-306,095	-200,000	0,022	0,102
-305,080	628,027	-0,008	-0,014
-304,066	-80,573	-0,086	-0,020
-303,051	800,000	-0,034	-0,095
-302,037	-113,638	-0,088	0,012
-301,022	-151,741	-0,102	0,005
-300,008	27,609	0,040	0,024
-298,993	-20,731	-0,111	-0,048
-297,978	-88,119	0,111	0,024
-296,964	-134,855	0,042	0,004
-295,949	800,000	-0,020	0,062
-294,935	-200,000	0,003	0,029
-293,920	-95,260	-0,057	-0,011
-292,905	306,743	0,085	0,113
-291,891	800,000	-0,025	0,059
-290,876	-94,468	0,070	-0,014
-289,862	232,864	-0,063	-0,074
-288,847	-200,000	0,012	0,048
-287,832	36,551	0,060	0,038
-286,818	341,938	0,087	0,122
-285,803	-200,000	0,031	0,176
-284,789	800,000	0,024	0,070
-283,774	192,272	0,034	-0,036
-282,759	-200,000	-0,030	0,242
-281,745	-113,303	-0,127	0,018
-280,730	-71,984	-0,123	-0,032
-279,716	22,849	0,041	0,024
-278,701	800,000	0,032	-0,095
-277,686	-200,000	0,020	0,082
-276,672	-200,000	0,019	0,090
-275,657	14,383	-0,057	-0,032
-274,643	-200,000	-0,005	-0,072
-273,628	-200,000	0,002	0,037
-272,613	276,217	-0,025	-0,032
-271,599	800,000	-0,003	-0,008
-270,584	-120,316	0,196	-0,023
-269,570	775,751	-0,053	-0,102
-268,555	-44,346	-0,157	0,055
-267,540	-200,000	-0,024	0,111
-266,526	757,249	-0,036	0,070
-265,511	-187,936	-0,096	0,001
-264,497	-200,000	-0,013	-0,073
-263,482	-107,015	-0,069	0,011
-262,467	37,780	-0,142	-0,089
-261,453	-120,373	-0,091	0,011
-260,438	800,000	-0,062	-0,132
-259,424	184,239	0,037	-0,039
-258,409	49,042	-0,007	-0,005
-257,395	195,516	-0,081	0,088
-256,380	-132,008	0,094	0,009
-255,365	-75,323	0,119	0,030
-254,351	-200,000	0,002	0,095
-253,336	-81,706	-0,054	-0,013
-252,322	334,160	0,032	0,044
-251,307	-200,000	-0,002	-0,045
-250,292	-200,000	0,035	-0,127
-249,278	7,611	0,153	0,081
-248,263	-132,921	-0,067	0,006
-247,249	429,463	0,053	0,082
-246,234	-34,899	0,135	0,052
-245,219	-107,446	-0,170	0,026
-244,205	-119,262	0,136	-0,017
-243,190	362,548	0,062	0,089
-242,176	-200,000	-0,020	-0,071
-241,161	124,873	0,102	-0,092
-240,146	-15,547	-0,052	0,023
-239,132	-200,000	0,006	0,062
-238,117	-200,000	-0,012	-0,091
-237,103	221,330	0,037	-0,042
-236,088	-200,000	0,006	-0,132
-235,073	800,000	0,028	0,062
-234,059	62,371	0,035	0,024
-233,044	800,000	-0,037	-0,099
-232,030	202,305	0,084	-0,093
-231,015	-109,877	-0,073	-0,011
-230,000	-200,000	0,016	-0,066
-228,986	-200,000	-0,012	0,045
-227,971	-200,000	-0,005	0,070
-226,957	-27,486	0,177	-0,073
-225,942	735,743	-0,046	-0,087
-224,927	-200,000	0,009	-0,061
-223,913	89,127	0,059	0,047
-222,898	32,996	-0,090	-0,056
-221,884	-200,000	0,000	-0,013
-220,869	800,000	-0,056	-0,137
-219,855	69,598	0,114	0,083
-218,840	34,772	0,121	0,075
-217,825	302,604	-0,022	0,029
-216,811	-67,312	-0,141	0,039
-215,796	-157,806	-0,106	0,004
-214,782	133,464	0,092	0,084
-213,767	144,367	0,037	-0,035
-212,752	-200,000	0,004	0,030
-211,738	-96,426	0,066	-0,012
-210,723	654,841	0,033	-0,061
-209,709	-51,101	-0,161	-0,053
-208,694	569,235	-0,048	-0,083
-207,679	764,506	0,031	-0,059
-206,665	-150,864	0,086	-0,005
-205,650	-133,746	-0,044	-0,004
-204,636	-87,211	-0,089	0,019
-203,621	-200,000	-0,001	0,056
-202,606	-200,000	0,008	-0,092
-201,592	-200,000	0,012	-0,080
-200,577	800,000	0,020	-0,046
-199,563	57,670	0,055	-0,038
-198,548	-127,376	0,105	-0,011
-197,533	692,387	0,080	-0,149
-196,519	-73,488	0,098	-0,025
-195,504	-153,014	-0,257	0,013
-194,490	-200,000	-0,031	-0,113
-193,475	-99,092	-0,145	-0,026
-192,460	-130,559	0,067	0,006
-191,446	276,147	0,012	0,015
-190,431	800,000	-0,055	0,121
-189,417	-200,000	-0,030	-0,145
-188,402	16,095	0,096	-0,054
-187,387	800,000	0,066	-0,157
-186,373	-18,699	-0,120	-0,053
-185,358	253,137	-0,007	0,008
-184,344	-19,026	-0,062	0,027
-183,329	13,016	0,030	0,017
-182,315	-80,786	-0,160	-0,037
-181,300	127,697	0,138	0,124
-180,285	-107,439	-0,047	-0,007
-179,271	467,517	0,051	-0,082
-178,256	19,928	0,033	-0,019
-177,242	-200,000	-0,010	0,060
-176,227	800,000	0,076	0,186
-175,212	-9,803	-0,091	0,043
-174,198	534,449	-0,059	-0,100
-173,183	7,494	0,041	-0,022
-172,169	-142,971	-0,105	0,007
-171,154	-200,000	-0,017	-0,067
-170,139	-200,000	-0,013	0,075
-169,125	-200,000	0,012	0,061
-168,110	128,705	-0,081	0,073
-167,096	169,063	-0,041	-0,041
-166,081	26,754	-0,119	-0,071
-165,066	-159,848	-0,200	0,008
-164,052	-188,087	0,134	-0,001
-163,037	41,013	-0,128	0,082
-162,023	800,000	0,066	0,197
-161,008	650,779	0,059	0,108
-159,993	-186,636	0,022	-0,000
-158,979	46,013	-0,059	-0,038
-157,964	-16,566	-0,072	-0,032
-156,950	-200,000	-0,010	0,043
-155,935	63,473	-0,056	0,039
-154,920	-61,501	0,112	0,033
-153,906	266,258	0,047	0,058
-152,891	800,000	-0,018	-0,040
-151,877	800,000	0,014	-0,031
-150,862	800,000	-0,047	-0,109
-149,847	-171,476	-0,173	0,004
-148,833	-200,000	-0,006	-0,021
-147,818	432,505	-0,021	-0,033
-146,804	-200,000	0,011	0,043
-145,789	162,811	0,090	-0,090
-144,775	-50,122	-0,091	-0,030
-143,760	-133,530	0,091	0,008
-142,745	800,000	0,066	-0,132
-141,731	271,459	0,056	0,070
-140,716	-200,000	0,003	-0,101
-139,702	800,000	-0,050	-0,155
-138,687	-163,801	-0,092	0,003
-137,672	12,628	0,081	0,044
-136,658	146,163	0,040	0,038
-135,643	20,805	-0,076	-0,043
-134,629	279,420	0,057	-0,072
-133,614	800,000	0,033	-0,076
-132,599	370,145	-0,012	-0,018
-131,585	-104,699	-0,078	0,013
-130,570	67,230	0,088	-0,063
-129,556	-200,000	-0,037	-0,213
-128,541	-26,001	-0,090	0,037
-127,526	-200,000	0,029	-0,096
-126,512	-18,099	0,056	-0,025
-125,497	188,131	0,056	0,060
-124,483	-160,979	-0,170	-0,006
-123,468	-9,957	-0,088	0,041
-122,453	-35,019	-0,052	0,020
-121,439	-22,733	0,013	0,006
-120,424	42,146	0,056	0,036
-119,410	-66,547	0,208	0,058
-118,395	-169,060	-0,039	-0,001
-117,380	-200,000	0,004	0,043
-116,366	-66,010	-0,047	0,013
-115,351	153,735	0,073	0,071
-114,337	456,546	-0,083	-0,131
-113,322	389,105	0,072	0,106
-112,307	800,000	-0,057	0,117
-111,293	800,000	0,053	0,141
-110,278	111,432	0,020	-0,017
-109,264	71,101	-0,117	-0,086
-108,249	42,290	0,104	-0,067
-107,234	-43,924	-0,038	-0,014
-106,220	724,627	0,106	-0,201
-105,205	127,968	-0,043	-0,039
-104,191	-133,554	-0,149	-0,013
-103,176	800,000	0,020	0,054
-102,162	238,037	0,042	0,050
-101,147	-200,000	0,027	-0,103
-100,132	-200,000	0,036	-0,114
-99,118	596,251	-0,021	-0,037
-98,103	87,366	0,058	-0,045
-97,089	-4,492	0,107	-0,052
-96,074	-32,033	0,083	-0,033
-95,059	268,909	0,123	0,152
-94,045	800,000	-0,048	0,140
-93,030	286,260	-0,059	0,075
-92,016	113,924	-0,139	-0,119
-91,001	-189,205	-0,079	-0,001
-89,986	86,895	0,072	-0,056
-88,972	375,536	0,098	0,142
-87,957	443,751	0,010	0,016
-86,943	120,863	-0,042	-0,037
-85,928	146,494	0,082	-0,078
-84,913	138,198	0,104	-0,096
-83,899	109,711	-0,058	0,049
-82,884	91,285	-0,058	0,046
-81,870	-80,574	0,143	-0,033
-80,855	-178,588	0,061	0,001
-79,840	-106,233	-0,197	-0,031
-78,826	-81,322	0,082	-0,019
-77,811	-76,348	-0,056	-0,014
-76,797	265,883	-0,068	-0,084
-75,782	-173,366	-0,130	-0,003
-74,767	-114,642	0,086	-0,012
-73,753	262,687	0,027	0,034
-72,738	-57,557	-0,103	-0,032
-71,724	-123,835	-0,172	0,019
-70,709	-200,000	-0,006	-0,035
-69,694	66,324	0,023	0,016
-68,680	-177,348	0,102	-0,002
-67,665	-200,000	0,005	0,035
-66,651	172,534	-0,017	0,017
-65,636	-200,000	0,002	-0,037
-64,622	800,000	0,085	-0,222
-63,607	-40,060	-0,117	-0,043
-62,592	-105,895	-0,073	-0,012
-61,578	237,310	-0,020	-0,024
-60,563	-137,674	-0,095	-0,007
-59,549	370,702	-0,040	-0,057
-58,534	83,871	-2,069	-1,592
-57,519	640,092	-0,952	-1,716
-56,505	-200,000	-0,444	-4,670
-55,490	708,668	0,906	1,696
-54,476	800,000	5,297	11,523
-53,461	-200,000	22,381	346,571
-52,446	800,000	757,295	2291,888
-51,432	533,301	1643,332	2755,292
-50,417	67,916	1641,829	1182,871
-49,403	15,679	1519,385	840,040
-48,388	9,842	1445,653	771,254
-47,373	19,270	1438,286	812,196
-46,359	13,378	1426,731	777,847
-45,344	8,182	1422,679	751,047
-44,330	8,134	1420,779	749,785
-43,315	8,067	1418,982	748,492
-42,300	8,118	1417,249	747,787
-41,286	8,121	1416,130	747,183
-40,271	8,064	1414,796	746,184
-39,257	8,060	1413,616	745,508
-38,242	8,104	1412,565	745,134
-37,227	8,109	1411,423	744,524
-36,213	8,088	1410,039	743,667
-35,198	8,116	1408,790	743,112
-34,184	8,135	1407,830	742,662
-33,169	8,028	1406,650	741,512
-32,154	8,060	1405,752	741,156
-31,140	8,043	1404,265	740,265
-30,125	8,119	1403,221	740,039
-29,111	8,084	1402,089	739,250
-28,096	8,126	1400,791	738,731
-27,082	8,042	1399,682	737,726
-26,067	8,030	1398,469	737,004
-25,052	8,057	1397,647	736,664
-24,038	8,021	1396,689	735,964
-23,023	8,033	1395,813	735,528
-22,009	8,001	1394,832	734,832
-20,994	7,989	1393,747	734,178
-19,979	8,031	1392,717	733,800
-18,965	8,014	1391,704	733,160
-17,950	8,021	1390,650	732,606
-16,936	7,930	1390,084	731,859
-15,921	7,914	1388,965	731,168
-14,906	7,942	1388,000	730,760
-13,892	7,976	1386,973	730,344
-12,877	7,955	1386,213	729,819
-11,863	7,907	1385,760	729,330
-10,848	7,887	1384,798	728,704
-9,833	7,884	1383,794	728,135
-8,819	7,876	1382,779	727,532
-7,804	7,859	1381,730	726,874
-6,790	7,871	1380,790	726,408
-5,775	7,832	1380,025	725,796
-4,760	7,826	1379,130	725,269
-3,746	7,860	1378,026	724,818
-2,731	7,893	1376,942	724,367
-1,717	7,879	1376,280	723,925
-0,702	7,862	1374,447	722,858
0,313	11,740	1284,869	693,330
1,327	27,438	676,762	400,148
2,342	42,201	116,463	74,421
3,356	-0,880	16,622	8,267
4,371	11,882	3,754	2,027
5,386	-27,188	1,416	0,579
6,400	800,000	0,238	0,600
7,415	42,170	-0,143	-0,091
8,429	18,759	-0,295	-0,166
9,444	278,440	-0,121	-0,153
10,459	-43,035	-0,250	-0,089
11,473	-20,091	-0,193	-0,084
12,488	-56,795	-0,223	-0,069
13,502	29,224	-0,195	-0,116
14,517	83,900	-0,299	-0,230
15,531	79,944	-0,321	-0,243
16,546	-97,442	-0,464	-0,084
17,561	223,399	-0,301	-0,342
18,575	117,689	-0,119	-0,103
19,590	65,644	-0,294	-0,210
20,604	-16,797	-0,266	-0,118
21,619	167,297	-0,340	-0,340
22,634	257,207	-0,340	-0,412
23,648	47,371	-0,347	-0,227
24,663	65,756	-0,400	-0,285
25,677	97,881	-0,307	-0,248
26,692	-130,571	-0,285	-0,027
27,707	9,703	-0,359	-0,191
28,721	9,761	-0,308	-0,164
29,736	105,607	-0,404	-0,336
30,750	121,762	-0,410	-0,360
31,765	22,678	-0,364	-0,209
32,780	38,584	-0,407	-0,255
33,794	268,177	-0,283	-0,349
34,809	7,461	-0,304	-0,159
35,823	87,435	-0,343	-0,267
36,838	92,601	-0,261	-0,207
37,853	10,155	-0,431	-0,229
38,867	73,709	-0,388	-0,285
39,882	160,322	-0,313	-0,307
40,896	7,835	-0,347	-0,182
41,911	-17,903	-0,410	-0,180
42,926	42,204	-0,284	-0,181
43,940	143,057	-0,316	-0,295
44,955	89,163	-0,307	-0,240
45,969	185,434	-0,263	-0,274
46,984	289,202	-0,218	-0,278
47,999	-56,355	-0,441	-0,137
49,013	-10,250	-0,369	-0,171
50,028	108,887	-0,237	-0,199
51,042	66,470	-0,356	-0,254
52,057	187,800	-0,334	-0,351
53,071	-23,087	-0,378	-0,159
54,086	248,377	-0,269	-0,320
55,101	133,735	-0,331	-0,301
56,115	63,701	-0,361	-0,254
57,130	63,666	-0,402	-0,283
58,144	-13,147	-0,386	-0,175
59,159	199,601	-0,357	-0,384
60,174	-37,792	-0,390	-0,145
61,188	65,099	-0,271	-0,192
62,203	58,389	-0,316	-0,217
63,217	-62,076	-0,447	-0,130
64,232	13,167	-0,290	-0,157
65,247	117,082	-0,224	-0,193
66,261	-40,860	-0,456	-0,165
67,276	45,104	-0,384	-0,248
68,290	76,441	-0,345	-0,256
69,305	16,015	-0,356	-0,196
70,320	-24,683	-0,326	-0,135
71,334	-47,261	-0,414	-0,140
72,349	-21,841	-0,298	-0,126
73,363	65,215	-0,357	-0,252
74,378	91,052	-0,309	-0,243
75,393	-23,827	-0,377	-0,158
76,407	-86,575	-0,109	-0,023
77,422	7,781	-0,095	-0,050
78,436	31,309	-0,341	-0,204
79,451	88,082	-0,359	-0,279
80,466	-47,050	-0,447	-0,152
81,480	19,736	-0,278	-0,156
82,495	-27,387	-0,398	-0,161
83,509	87,264	-0,285	-0,220
84,524	125,155	-0,235	-0,207
85,539	47,314	-0,224	-0,146
86,553	46,887	-0,315	-0,204
87,568	147,363	-0,217	-0,204
88,582	57,546	-0,402	-0,275
89,597	173,532	-0,293	-0,296
90,611	-19,297	-0,152	-0,066
91,626	420,983	-0,227	-0,341
92,641	130,450	-0,236	-0,211
93,655	-70,098	-0,244	-0,064
94,670	204,923	-0,225	-0,245
95,684	42,408	-0,350	-0,222
96,699	-157,614	-0,306	-0,013
97,714	-30,591	-0,335	-0,132
98,728	-127,032	-0,179	-0,018
99,743	186,396	-0,099	-0,103
100,757	-41,762	-0,248	-0,088
101,772	630,047	-0,145	-0,257
102,787	20,220	-0,359	-0,202
103,801	63,514	-0,301	-0,211
104,816	675,286	-0,121	-0,220
105,830	-28,946	-0,316	-0,126
106,845	26,886	-0,240	-0,140
107,860	69,956	-0,192	-0,138
108,874	468,589	-0,187	-0,294
109,889	174,545	-0,205	-0,207
110,903	23,636	-0,285	-0,164
111,918	34,599	-0,260	-0,158
112,933	218,053	-0,105	-0,117
113,947	35,340	-0,155	-0,095
114,962	-17,850	-0,262	-0,114
115,976	155,143	-0,240	-0,231
116,991	-157,062	-0,329	-0,014
118,006	421,973	-0,222	-0,333
119,020	196,789	-0,190	-0,202
120,035	-47,038	-0,272	-0,092
121,049	6,512	-0,238	-0,123
122,064	11,379	-0,195	-0,104
123,079	106,176	-0,205	-0,169
124,093	334,874	-0,120	-0,163
125,108	128,867	-0,224	-0,199
126,122	91,009	-0,376	-0,294
127,137	20,459	-0,260	-0,146
128,151	227,360	-0,140	-0,159
129,166	39,869	-0,225	-0,140
130,181	-49,354	-0,243	-0,080
131,195	-99,694	-0,358	-0,062
132,210	147,487	-0,243	-0,228
133,224	129,417	-0,202	-0,180
134,239	800,000	-0,168	-0,353
135,254	152,737	-0,123	-0,117
136,268	290,839	-0,181	-0,230
137,283	81,266	-0,297	-0,223
138,297	382,475	-0,183	-0,263
139,312	800,000	-0,155	-0,317
140,327	70,952	-0,308	-0,222
141,341	-66,940	-0,198	0,054
142,356	111,881	-0,266	-0,223
143,370	79,010	-0,173	-0,129
144,385	92,192	-0,257	-0,201
145,400	800,000	-0,107	-0,221
146,414	58,337	-0,297	-0,202
147,429	214,173	-0,173	-0,191
148,443	250,518	-0,107	-0,127
149,458	634,618	-0,134	-0,237
150,473	4,639	-0,231	-0,118
151,487	-12,880	-0,236	-0,106
152,502	2,411	-0,129	-0,065
153,516	-67,324	-0,257	-0,070
154,531	82,187	-0,181	-0,137
155,546	-75,954	-0,177	-0,043
156,560	750,914	-0,130	-0,246
157,575	141,720	-0,225	-0,208
158,589	27,213	-0,251	-0,146
159,604	175,369	-0,232	-0,234
160,619	79,874	-0,279	-0,208
161,633	136,860	-0,405	-0,368
162,648	720,018	-0,156	-0,289
163,662	23,581	-0,365	-0,208
164,677	195,166	-0,239	-0,252
165,692	62,079	-0,138	-0,095
166,706	-19,707	-0,173	0,074
167,721	-200,000	-0,072	-0,233
168,735	104,910	-0,257	-0,211
169,750	194,169	-0,171	-0,180
170,764	-200,000	-0,054	-0,195
171,779	114,761	-0,128	-0,108
172,794	117,339	-0,150	-0,128
173,808	159,837	-0,204	-0,198
174,823	258,148	-0,181	-0,217
175,837	128,748	-0,181	-0,160
176,852	138,844	-0,242	-0,221
177,867	91,107	-0,153	-0,119
178,881	-0,989	-0,145	-0,071
179,896	96,976	-0,198	-0,158
180,910	113,708	-0,168	-0,141
181,925	59,241	-0,318	-0,217
182,940	315,574	-0,207	-0,271
183,954	-6,475	-0,304	-0,143
184,969	198,963	-0,111	-0,118
185,983	34,385	-0,240	-0,145
186,998	31,094	-0,177	-0,105
188,013	57,441	-0,165	-0,112
189,027	85,940	-0,233	-0,178
190,042	-62,120	-0,182	-0,052
191,056	448,303	-0,196	-0,300
192,071	-25,075	-0,260	-0,106
193,086	800,000	-0,055	-0,160
194,100	325,265	-0,233	-0,310
195,115	16,011	-0,205	-0,111
196,129	82,383	-0,217	-0,163
197,144	800,000	-0,108	-0,255
198,159	268,893	-0,236	-0,287
199,173	328,245	-0,164	-0,219
200,188	-25,927	-0,244	-0,099
201,202	39,253	-0,196	-0,121
202,217	-112,050	-0,355	-0,049
203,232	3,122	-0,229	-0,115
204,246	3,144	-0,271	-0,136
205,261	325,985	-0,199	-0,264
206,275	236,907	-0,133	-0,153
207,290	23,993	-0,210	-0,120
208,304	800,000	-0,101	-0,202
209,319	-37,021	-0,282	-0,104
210,334	261,227	-0,162	-0,195
211,348	800,000	-0,123	-0,257
212,363	30,425	-0,270	-0,159
213,377	-126,299	-0,321	-0,033
214,392	-89,377	-0,209	-0,042
215,407	108,286	-0,300	-0,247
216,421	-64,508	-0,243	-0,068
217,436	-36,233	-0,058	-0,022
218,450	334,515	-0,198	-0,266
219,465	572,114	-0,168	-0,283
220,480	-31,175	-0,216	-0,084
221,494	-82,571	-0,157	-0,035
222,509	424,867	-0,053	-0,079
223,523	115,372	-0,244	-0,206
224,538	-3,249	-0,212	-0,102
225,553	58,932	-0,255	-0,173
226,567	191,005	-0,145	-0,151
227,582	-73,295	-0,181	-0,045
228,596	200,753	-0,203	-0,216
229,611	82,346	-0,120	-0,090
230,626	245,569	-0,126	-0,146
231,640	-200,000	0,013	-0,148
232,655	36,275	-0,220	-0,134
233,669	-53,411	-0,223	-0,070
234,684	-30,127	-0,192	-0,075
235,699	176,178	-0,197	-0,198
236,713	-20,849	-0,170	-0,072
237,728	112,757	-0,106	-0,088
238,742	36,391	-0,135	-0,082
239,757	598,097	-0,091	-0,157
240,772	-7,770	-0,287	-0,133
241,786	31,075	-0,236	-0,139
242,801	584,237	-0,130	-0,221
243,815	754,706	-0,114	-0,213
244,830	-100,758	-0,304	-0,051
245,844	38,457	-0,215	-0,132
246,859	-57,654	-0,257	-0,077
247,874	387,634	-0,113	-0,162
248,888	178,838	-0,211	-0,212
249,903	-200,000	-0,071	-0,233
250,917	800,000	-0,142	-0,272
251,932	681,489	-0,092	-0,166
252,947	410,092	-0,081	-0,119
253,961	-200,000	-0,068	-0,285
254,976	57,523	-0,299	-0,201
255,990	591,673	-0,136	-0,232
257,005	244,569	-0,248	-0,288
258,020	514,725	-0,132	-0,213
259,034	181,979	-0,136	-0,139
260,049	-37,460	-0,302	-0,111
261,063	286,567	-0,111	-0,138
262,078	-45,740	-0,253	-0,086
263,093	-200,000	-0,044	-0,143
264,107	109,755	-0,194	-0,160
265,122	-99,760	-0,166	0,028
266,136	800,000	-0,065	-0,163
267,151	147,509	-0,126	-0,117
268,166	-120,385	-0,159	0,018
269,180	25,897	-0,267	-0,153
270,195	10,083	-0,251	-0,131
271,209	31,407	-0,157	-0,093
272,224	-42,221	-0,150	-0,053
273,239	-34,283	-0,241	-0,090
274,253	-116,635	-0,113	0,014
275,268	124,412	-0,238	-0,206
276,282	800,000	-0,110	-0,249
277,297	-200,000	-0,011	-0,072
278,312	89,641	-0,145	-0,111
279,326	172,965	-0,136	-0,135
280,341	-71,281	-0,153	-0,039
281,355	175,952	-0,176	-0,175
282,370	-200,000	-0,079	-0,265
283,384	632,734	-0,126	-0,221
284,399	62,968	-0,272	-0,187
285,414	3,139	-0,225	-0,112
286,428	131,725	-0,165	-0,146
287,443	-104,009	-0,257	0,041
288,457	800,000	-0,065	-0,127
289,472	-22,414	-0,231	-0,096
290,487	9,507	-0,092	-0,048
291,501	342,205	-0,175	-0,236
292,516	5,834	-0,198	-0,100
293,530	-14,759	-0,164	-0,072
294,545	800,000	-0,125	-0,297
295,560	-161,322	-0,158	-0,006
296,574	-200,000	-0,061	-0,224
297,589	30,608	-0,201	-0,118
298,603	-30,578	-0,222	-0,086
299,618	-200,000	-0,048	-0,179
300,633	52,456	-0,137	-0,090
301,647	-76,637	-0,184	-0,044
302,662	800,000	-0,050	-0,111
303,676	50,237	-0,180	-0,117
304,691	48,761	-0,248	-0,160
305,706	-200,000	0,004	-0,218
306,720	729,409	-0,108	-0,199
307,735	24,050	-0,070	0,039
308,749	191,365	0,035	-0,036
309,764	-82,451	-0,067	0,015
310,779	-85,198	-0,233	-0,050
311,793	-200,000	-0,029	-0,111
312,808	576,518	-0,083	-0,140
313,822	-10,897	-0,160	0,072
314,837	-58,841	-0,196	-0,058
315,852	-83,241	-0,137	0,030
316,866	188,694	-0,119	-0,122
317,881	14,133	-0,183	-0,097
318,895	-3,412	-0,312	-0,148
319,910	279,759	-0,125	-0,153
320,925	25,055	-0,246	-0,139
321,939	293,477	-0,167	-0,209
322,954	428,035	-0,087	0,129
323,968	12,546	-0,067	-0,036
324,983	488,960	-0,157	-0,247
325,997	-15,955	-0,288	0,125
327,012	-37,021	-0,137	-0,050
328,027	86,154	-0,267	-0,202
329,041	109,835	-0,144	-0,119
330,056	75,257	-0,142	-0,102
331,070	-12,863	-0,152	-0,067
332,085	-200,000	-0,040	-0,173
333,100	43,943	-0,261	-0,163
334,114	25,296	-0,182	-0,103
335,129	1,499	-0,293	-0,144
336,143	140,579	-0,155	-0,140
337,158	269,715	-0,081	-0,097
338,173	-60,928	-0,162	-0,046
339,187	-200,000	-0,042	-0,156
340,202	58,415	-0,110	-0,074
341,216	44,989	-0,159	-0,100
342,231	800,000	-0,074	-0,193
343,246	121,438	-0,152	-0,130
344,260	113,719	-0,098	-0,081
345,275	-5,204	-0,120	-0,056
346,289	173,214	-0,130	-0,128
347,304	124,128	-0,207	-0,178
348,319	-55,948	-0,201	-0,061
349,333	66,523	-0,148	-0,103
350,348	-200,000	-0,011	-0,111
351,362	-67,160	-0,195	-0,052
352,377	-200,000	-0,064	-0,259
353,392	-4,334	-0,144	-0,068
354,406	-161,299	-0,111	0,004
355,421	209,412	1308,107	1402,427
356,435	161,174	1467,957	1402,862
