DTS Sentinel unit serial number:	SN410029Multiplexer serial number:	ORYXHardware model number:	OX2-SRSoftware version number:	ORYX F/W v4,00 Oryx Data Collector v3.7.2.0data status	okinstallation	B3 Nyhavnadifferential loss correction	single-endedforward channel	channel 1reverse channel	N/Adate	2023/11/29time	22:27:31forward acquisition time	300,00reverse acquisition time	0,00gamma	499,1914k internal	0,3210k external	0,3210temperature offset calibration	1,0000default loss term (dB/km)	0,3820temperature slope calibration	1,0000multiplexer offset coefficient	1,0000multiplexer slope coefficient	1,0000fibre end	0,00T internal ref (°C)	10,81T ext. ref 1 (°C)	-4,17T ext. ref 2 (°C)	-4,27length (m)	temperature (°C)	Stokes	anti-Stokes-744,400	155,049	-0,276	-0,275
-743,385	800,000	-0,084	0,243
-742,371	-200,000	0,011	-0,201
-741,356	-200,000	0,029	0,328
-740,342	72,568	-0,158	-0,119
-739,327	-200,000	-0,079	0,279
-738,312	520,462	-0,183	-0,312
-737,298	-200,000	-0,088	0,281
-736,283	-200,000	-0,020	-0,158
-735,269	-200,000	-0,030	0,380
-734,254	224,340	-0,272	-0,319
-733,239	-62,597	-0,243	0,073
-732,225	800,000	0,024	-0,068
-731,210	131,682	0,120	0,112
-730,196	410,153	-0,035	0,054
-729,181	-109,344	-0,069	-0,011
-728,167	-200,000	-0,018	-0,133
-727,152	104,695	0,089	-0,076
-726,137	411,387	-0,045	-0,070
-725,123	-200,000	0,010	-0,144
-724,108	14,514	-0,123	-0,069
-723,094	-92,877	-0,174	-0,035
-722,079	-200,000	0,005	-0,046
-721,064	-20,002	-0,101	-0,045
-720,050	-200,000	0,021	-0,129
-719,035	800,000	0,061	-0,144
-718,021	-18,269	-0,220	-0,099
-717,006	-200,000	0,016	-0,094
-715,991	6,319	-0,040	-0,021
-714,977	800,000	0,116	-0,244
-713,962	-54,539	-0,124	0,040
-712,948	800,000	0,014	-0,037
-711,933	-49,389	-0,171	-0,059
-710,918	61,719	-0,095	-0,069
-709,904	800,000	0,019	-0,044
-708,889	-200,000	0,004	-0,088
-707,875	180,698	0,066	-0,070
-706,860	-200,000	0,009	-0,089
-705,845	145,613	0,016	0,015
-704,831	178,565	-0,012	0,012
-703,816	344,909	0,054	-0,077
-702,802	-200,000	0,001	0,083
-701,787	-200,000	0,010	0,156
-700,772	187,134	-0,045	-0,049
-699,758	24,791	-0,096	-0,058
-698,743	800,000	-0,032	0,100
-697,729	-115,640	-0,048	0,006
-696,714	284,735	-0,141	0,185
-695,699	-85,715	0,059	-0,013
-694,685	800,000	0,010	-0,031
-693,670	431,083	-0,084	-0,132
-692,656	228,039	-0,042	0,050
-691,641	-27,268	0,055	0,023
-690,627	-134,341	0,061	-0,005
-689,612	2,789	-0,043	-0,022
-688,597	44,584	-0,028	0,018
-687,583	800,000	-0,040	-0,088
-686,568	-200,000	0,010	-0,078
-685,554	-38,871	-0,095	0,036
-684,539	478,090	0,012	0,019
-683,524	-69,063	0,078	0,022
-682,510	-200,000	0,016	0,144
-681,495	-108,366	-0,099	-0,015
-680,481	290,608	-0,085	-0,112
-679,466	9,641	0,055	-0,030
-678,451	352,113	0,016	0,023
-677,437	-16,309	-0,130	-0,059
-676,422	-30,717	0,018	-0,008
-675,408	114,546	0,032	-0,029
-674,393	28,300	-0,064	0,039
-673,378	-200,000	-0,001	-0,038
-672,364	-200,000	-0,014	-0,120
-671,349	800,000	-0,045	-0,095
-670,335	159,400	-0,052	0,052
-669,320	-200,000	0,005	0,138
-668,305	-111,224	0,049	0,007
-667,291	253,212	-0,075	0,093
-666,276	399,861	-0,013	0,019
-665,262	108,709	-0,097	-0,084
-664,247	-200,000	-0,016	0,107
-663,232	-200,000	-0,016	-0,057
-662,218	31,002	0,074	0,046
-661,203	313,315	0,047	-0,064
-660,189	39,982	-0,042	-0,028
-659,174	800,000	-0,040	-0,090
-658,159	289,052	-0,041	-0,054
-657,145	13,547	0,016	-0,009
-656,130	62,891	0,011	0,008
-655,116	544,580	0,015	-0,026
-654,101	6,419	0,082	0,044
-653,086	-200,000	-0,009	-0,057
-652,072	143,198	0,062	0,060
-651,057	800,000	-0,036	-0,074
-650,043	-3,994	-0,131	-0,065
-649,028	-157,632	0,071	0,003
-648,014	56,365	-0,092	0,065
-646,999	85,695	-0,023	-0,018
-645,984	-200,000	-0,010	-0,075
-644,970	-96,692	-0,064	-0,012
-643,955	163,467	-0,067	0,068
-642,941	-47,657	-0,089	0,031
-641,926	293,262	0,028	0,037
-640,911	-112,333	-0,079	-0,011
-639,897	245,919	0,097	0,118
-638,882	-200,000	-0,013	-0,064
-637,868	778,323	-0,054	-0,108
-636,853	-80,299	-0,139	0,033
-635,838	798,526	-0,032	0,063
-634,824	-3,493	0,028	0,014
-633,809	531,497	-0,028	-0,048
-632,795	377,545	-0,091	0,135
-631,780	531,816	0,072	-0,124
-630,765	-46,003	-0,071	0,025
-629,751	-200,000	-0,007	-0,111
-628,736	-102,231	-0,146	-0,025
-627,722	93,705	-0,168	-0,137
-626,707	-200,000	0,024	-0,080
-625,692	-23,717	0,066	-0,028
-624,678	330,224	-0,055	0,076
-623,663	-43,729	-0,051	0,018
-622,649	-33,096	-0,141	-0,056
-621,634	714,560	-0,027	-0,051
-620,619	17,188	0,017	-0,010
-619,605	138,545	-0,036	-0,034
-618,590	779,712	-0,032	-0,063
-617,576	-2,824	-0,072	0,036
-616,561	15,595	-0,083	0,047
-615,546	-200,000	0,013	-0,074
-614,532	-136,171	-0,021	-0,002
-613,517	-104,686	-0,023	-0,004
-612,503	-108,698	0,050	-0,008
-611,488	-62,736	0,098	0,029
-610,474	-74,638	-0,149	0,039
-609,459	143,337	-0,136	-0,131
-608,444	-200,000	-0,013	0,042
-607,430	800,000	-0,082	-0,190
-606,415	-28,732	0,048	0,020
-605,401	243,533	0,084	0,102
-604,386	144,518	-0,100	0,096
-603,371	-200,000	0,004	0,193
-602,357	-146,310	-0,102	0,006
-601,342	9,912	-0,090	0,049
-600,328	331,242	-0,082	-0,114
-599,313	800,000	0,018	-0,037
-598,298	10,417	0,122	0,067
-597,284	20,677	0,157	0,092
-596,269	39,617	0,034	0,022
-595,255	-200,000	-0,054	0,198
-594,240	-200,000	0,002	-0,119
-593,225	800,000	-0,053	-0,111
-592,211	-200,000	-0,002	-0,099
-591,196	-200,000	-0,040	-0,127
-590,182	-152,539	-0,084	-0,004
-589,167	70,443	0,020	0,015
-588,152	-200,000	0,012	0,115
-587,138	34,544	0,033	-0,021
-586,123	552,623	0,078	-0,136
-585,109	54,137	0,085	0,059
-584,094	800,000	0,029	-0,067
-583,079	-31,275	0,125	0,050
-582,065	411,654	0,090	0,138
-581,050	94,652	0,148	-0,121
-580,036	-200,000	-0,034	0,110
-579,021	-86,132	0,055	-0,012
-578,006	-145,093	-0,098	-0,006
-576,992	239,578	0,051	-0,061
-575,977	-200,000	0,014	-0,132
-574,963	-200,000	0,012	-0,086
-573,948	-200,000	0,010	-0,044
-572,934	800,000	0,014	0,030
-571,919	800,000	-0,048	-0,123
-570,904	122,262	0,117	-0,105
-569,890	-123,214	0,111	-0,013
-568,875	-200,000	-0,034	0,109
-567,861	159,731	0,021	0,021
-566,846	-200,000	-0,000	-0,023
-565,831	-14,556	0,058	0,027
-564,817	-59,025	-0,147	0,045
-563,802	800,000	0,018	-0,044
-562,788	-200,000	-0,006	-0,116
-561,773	-200,000	0,007	-0,128
-560,758	73,970	0,136	0,103
-559,744	-200,000	0,020	0,075
-558,729	45,330	-0,039	-0,026
-557,715	-12,765	-0,098	-0,046
-556,700	-44,510	-0,076	-0,027
-555,685	-31,310	-0,102	-0,041
-554,671	45,027	0,086	-0,057
-553,656	-137,654	-0,093	0,007
-552,642	12,210	0,066	0,037
-551,627	271,417	-0,028	-0,036
-550,612	373,720	-0,044	-0,065
-549,598	464,776	0,055	-0,089
-548,583	448,816	0,013	0,021
-547,569	800,000	-0,049	0,116
-546,554	800,000	0,027	0,078
-545,539	327,231	-0,062	0,086
-544,525	-190,476	-0,175	0,001
-543,510	24,801	-0,076	0,045
-542,496	-200,000	0,012	0,147
-541,481	47,509	-0,090	0,061
-540,466	-3,279	-0,057	0,029
-539,452	627,833	-0,078	0,142
-538,437	332,423	0,056	0,079
-537,423	-200,000	0,010	0,040
-536,408	190,927	-0,027	-0,029
-535,393	27,145	0,166	0,100
-534,379	-200,000	0,011	-0,070
-533,364	800,000	-0,039	-0,108
-532,350	528,993	-0,107	0,182
-531,335	800,000	-0,070	0,174
-530,321	19,463	-0,053	-0,031
-529,306	-63,315	0,064	-0,019
-528,291	355,759	0,077	-0,111
-527,277	-200,000	-0,002	-0,094
-526,262	-121,028	0,165	0,020
-525,248	-67,373	0,005	-0,001
-524,233	-200,000	0,016	-0,097
-523,218	552,455	0,019	-0,034
-522,204	-200,000	-0,032	-0,109
-521,189	-200,000	-0,002	-0,060
-520,175	-41,707	-0,029	0,011
-519,160	55,024	-0,137	-0,095
-518,145	800,000	-0,023	-0,053
-517,131	71,527	0,014	0,010
-516,116	800,000	0,050	0,132
-515,102	547,605	-0,036	-0,063
-514,087	41,114	0,079	0,051
-513,072	-200,000	-0,037	-0,153
-512,058	800,000	-0,017	0,049
-511,043	-148,064	-0,027	0,002
-510,029	800,000	-0,015	0,031
-509,014	-133,217	0,078	0,007
-507,999	-200,000	-0,023	0,091
-506,985	215,501	0,063	-0,071
-505,970	769,351	-0,026	-0,050
-504,956	-107,300	-0,095	-0,015
-503,941	174,643	0,030	0,031
-502,926	-200,000	0,016	-0,170
-501,912	149,016	0,066	0,064
-500,897	-140,400	0,079	0,006
-499,883	-200,000	-0,021	-0,208
-498,868	65,963	0,041	-0,030
-497,853	800,000	0,044	-0,101
-496,839	553,074	-0,046	-0,079
-495,824	305,170	0,061	0,082
-494,810	644,885	0,075	-0,138
-493,795	-83,158	0,078	-0,018
-492,781	385,289	0,008	-0,012
-491,766	-28,875	-0,109	-0,045
-490,751	455,338	-0,046	0,073
-489,737	-118,400	-0,024	-0,003
-488,722	-187,325	-0,099	0,001
-487,708	800,000	-0,003	0,009
-486,693	52,555	0,116	0,080
-485,678	-41,037	0,144	-0,053
-484,664	71,316	0,086	-0,064
-483,649	476,118	0,073	0,120
-482,635	-144,207	0,044	0,003
-481,620	-119,848	0,069	0,008
-480,605	800,000	-0,059	0,132
-479,591	246,722	-0,037	0,045
-478,576	1,463	-0,053	0,027
-477,562	-200,000	0,000	-0,036
-476,547	621,243	0,039	-0,070
-475,532	249,958	-0,089	-0,109
-474,518	429,999	0,086	-0,135
-473,503	-199,366	-0,169	-0,001
-472,489	698,230	0,075	-0,142
-471,474	-100,584	-0,108	0,019
-470,459	247,744	-0,081	0,099
-469,445	-200,000	-0,002	0,062
-468,430	140,460	-0,063	-0,060
-467,416	-200,000	-0,007	-0,043
-466,401	-200,000	0,008	0,062
-465,386	800,000	0,036	0,086
-464,372	-56,384	-0,091	-0,029
-463,357	-159,238	-0,160	-0,006
-462,343	16,132	-0,108	-0,061
-461,328	-73,076	0,075	0,019
-460,313	301,403	0,034	0,046
-459,299	61,373	0,017	-0,012
-458,284	-111,599	0,034	0,005
-457,270	769,590	-0,023	-0,046
-456,255	-8,480	0,111	0,053
-455,241	-200,000	0,002	0,078
-454,226	-197,095	-0,153	-0,001
-453,211	-200,000	0,028	-0,096
-452,197	-200,000	0,018	0,090
-451,182	800,000	0,046	0,115
-450,168	-72,284	0,098	0,026
-449,153	74,994	0,029	0,022
-448,138	18,656	-0,108	-0,062
-447,124	598,204	-0,055	0,097
-446,109	659,083	0,042	0,078
-445,095	-200,000	0,001	-0,037
-444,080	73,314	-0,095	0,071
-443,065	-200,000	-0,016	-0,086
-442,051	172,452	0,113	0,116
-441,036	-71,405	-0,059	-0,016
-440,022	800,000	0,037	-0,083
-439,007	800,000	-0,040	-0,080
-437,992	-38,304	0,084	-0,032
-436,978	-81,713	0,130	0,030
-435,963	128,231	-0,061	0,055
-434,949	107,343	-0,056	-0,048
-433,934	-122,409	0,159	0,018
-432,919	601,229	0,043	-0,078
-431,905	-200,000	-0,060	0,258
-430,890	-97,249	0,094	-0,017
-429,876	-200,000	-0,001	0,023
-428,861	-200,000	-0,025	0,101
-427,846	-200,000	-0,006	0,081
-426,832	169,931	-0,102	-0,105
-425,817	12,168	-0,139	-0,077
-424,803	-10,415	0,053	0,025
-423,788	551,633	-0,014	0,024
-422,773	646,793	0,073	0,133
-421,759	83,589	0,026	0,020
-420,744	85,875	0,054	-0,043
-419,730	-40,158	0,015	0,006
-418,715	-19,645	0,104	-0,046
-417,701	465,366	-0,056	0,091
-416,686	11,820	0,091	0,050
-415,671	800,000	0,022	-0,052
-414,657	508,368	0,083	0,138
-413,642	-155,829	-0,099	-0,004
-412,628	337,743	-0,064	-0,089
-411,613	-42,212	-0,032	0,012
-410,598	136,024	-0,035	0,033
-409,584	-200,000	0,014	0,107
-408,569	800,000	0,023	0,062
-407,555	17,621	0,082	-0,046
-406,540	-200,000	0,030	0,127
-405,525	-200,000	-0,002	0,016
-404,511	259,052	-0,082	0,101
-403,496	-200,000	0,015	-0,118
-402,482	-200,000	-0,018	0,100
-401,467	-48,290	-0,120	0,041
-400,452	-200,000	-0,033	0,154
-399,438	7,145	0,173	0,092
-398,423	-72,240	-0,135	-0,036
-397,409	-200,000	0,040	-0,134
-396,394	-200,000	0,003	0,057
-395,379	120,576	-0,101	-0,090
-394,365	-161,387	-0,059	-0,002
-393,350	107,479	0,061	-0,052
-392,336	397,582	-0,065	0,097
-391,321	-31,347	0,069	0,028
-390,306	-84,593	0,010	-0,002
-389,292	-200,000	0,006	-0,091
-388,277	19,833	-0,089	-0,051
-387,263	800,000	0,009	0,021
-386,248	126,309	0,103	0,093
-385,233	-200,000	-0,014	0,049
-384,219	-50,615	-0,024	-0,008
-383,204	98,964	0,027	-0,022
-382,190	215,338	-0,070	0,080
-381,175	75,951	-0,097	-0,073
-380,160	274,049	0,068	-0,087
-379,146	-200,000	-0,006	0,078
-378,131	-25,999	0,102	-0,043
-377,117	676,003	-0,050	0,094
-376,102	181,292	-0,067	0,070
-375,088	17,044	0,023	-0,013
-374,073	-132,371	0,051	-0,005
-373,058	-9,097	0,061	0,029
-372,044	706,900	-0,049	0,092
-371,029	-74,172	0,126	0,032
-370,015	-200,000	0,009	0,116
-369,000	-73,892	-0,040	-0,010
-367,985	-23,837	0,051	0,022
-366,971	-67,868	0,049	-0,014
-365,956	50,749	0,083	0,056
-364,942	-200,000	0,002	-0,099
-363,927	-97,873	0,173	-0,032
-362,912	-26,295	0,023	0,009
-361,898	7,012	-0,070	-0,037
-360,883	-15,917	0,109	0,049
-359,869	21,174	-0,102	0,059
-358,854	30,461	0,066	0,040
-357,839	75,454	0,148	-0,112
-356,825	-95,637	0,262	-0,050
-355,810	-200,000	0,006	-0,117
-354,796	138,400	-0,060	-0,057
-353,781	-200,000	0,003	-0,021
-352,766	-200,000	-0,030	-0,116
-351,752	-31,997	-0,140	-0,056
-350,737	649,984	0,065	0,119
-349,723	329,262	-0,108	0,148
-348,708	-200,000	-0,027	0,097
-347,693	-78,293	-0,164	0,040
-346,679	-3,360	-0,079	-0,039
-345,664	-103,867	-0,064	0,011
-344,650	-21,892	0,093	0,040
-343,635	-52,324	0,009	0,003
-342,620	248,051	-0,075	0,091
-341,606	-200,000	0,019	0,098
-340,591	-107,884	0,050	-0,008
-339,577	-200,000	-0,009	-0,052
-338,562	51,363	0,032	0,022
-337,548	439,724	-0,073	-0,114
-336,533	125,614	0,083	0,075
-335,518	-142,238	0,100	0,007
-334,504	-1,516	0,046	0,023
-333,489	-200,000	0,014	-0,055
-332,475	-200,000	-0,025	0,190
-331,460	-200,000	0,001	-0,045
-330,445	123,695	-0,057	0,051
-329,431	-200,000	-0,059	0,201
-328,416	-88,489	0,125	-0,026
-327,402	-200,000	-0,005	0,024
-326,387	800,000	0,079	0,171
-325,372	800,000	-0,010	0,022
-324,358	-41,549	-0,044	0,016
-323,343	-200,000	0,021	-0,102
-322,329	800,000	0,016	0,047
-321,314	98,690	0,079	0,065
-320,299	163,003	0,067	0,067
-319,285	-14,812	-0,142	0,065
-318,270	-200,000	0,006	0,078
-317,256	800,000	-0,039	-0,088
-316,241	-200,000	-0,009	0,069
-315,226	-46,273	-0,091	-0,032
-314,212	-68,354	-0,042	-0,012
-313,197	-200,000	-0,001	0,031
-312,183	-200,000	-0,029	-0,153
-311,168	800,000	-0,049	-0,152
-310,153	-54,123	-0,170	-0,055
-309,139	145,576	0,050	-0,047
-308,124	800,000	-0,037	-0,093
-307,110	344,436	0,060	0,085
-306,095	-64,400	-0,128	0,037
-305,080	124,703	0,053	-0,048
-304,066	-200,000	0,006	-0,114
-303,051	800,000	-0,040	-0,118
-302,037	-200,000	0,012	0,091
-301,022	62,751	0,023	0,016
-300,008	296,954	0,073	-0,095
-298,993	-109,156	0,133	0,020
-297,978	-129,289	0,035	-0,003
-296,964	800,000	0,048	-0,101
-295,949	125,577	-0,105	0,094
-294,935	-200,000	-0,007	0,086
-293,920	-75,843	0,058	-0,015
-292,905	-73,296	0,063	-0,016
-291,891	141,514	0,080	-0,076
-290,876	-200,000	0,025	-0,089
-289,862	10,135	-0,037	0,020
-288,847	-200,000	0,001	-0,166
-287,832	800,000	-0,081	-0,228
-286,818	36,856	0,075	0,047
-285,803	8,913	-0,066	-0,035
-284,789	36,416	0,051	0,032
-283,774	43,046	-0,090	-0,059
-282,759	-200,000	-0,001	0,118
-281,745	-138,102	-0,087	0,007
-280,730	800,000	-0,047	-0,139
-279,716	-200,000	-0,040	-0,142
-278,701	77,973	0,098	0,074
-277,686	-89,892	-0,045	0,009
-276,672	-140,226	0,091	0,007
-275,657	404,583	0,046	0,069
-274,643	800,000	0,004	0,013
-273,628	143,210	-0,076	-0,072
-272,613	213,574	0,045	0,051
-271,599	492,612	0,026	0,043
-270,584	-49,109	-0,006	0,002
-269,570	85,414	0,105	-0,082
-268,555	-200,000	-0,000	-0,046
-267,540	-81,397	0,064	0,015
-266,526	152,848	-0,075	-0,073
-265,511	-200,000	-0,000	-0,053
-264,497	-81,195	0,046	-0,011
-263,482	-124,848	0,212	0,023
-262,467	106,142	0,106	0,089
-261,453	-71,065	0,069	-0,018
-260,438	207,035	-0,075	0,084
-259,424	142,737	0,124	-0,117
-258,409	-200,000	-0,016	-0,066
-257,395	234,413	0,048	0,056
-256,380	-200,000	0,005	0,091
-255,365	-32,189	-0,107	0,042
-254,351	75,722	-0,055	0,041
-253,336	-22,584	-0,076	0,033
-252,322	-200,000	-0,000	-0,182
-251,307	800,000	0,032	-0,067
-250,292	-200,000	-0,027	0,210
-249,278	-200,000	0,005	0,017
-248,263	-29,635	0,056	0,023
-247,249	-76,902	0,131	-0,032
-246,234	-200,000	-0,011	-0,075
-245,219	15,795	-0,069	-0,039
-244,205	-123,681	-0,082	-0,009
-243,190	-200,000	0,009	-0,085
-242,176	95,835	0,061	0,050
-241,161	-200,000	-0,006	-0,068
-240,146	800,000	-0,023	-0,066
-239,132	-33,967	0,075	0,029
-238,117	365,695	0,019	0,027
-237,103	-86,496	-0,050	0,011
-236,088	173,112	-0,095	-0,098
-235,073	800,000	-0,008	0,023
-234,059	-91,907	0,069	-0,014
-233,044	-126,402	-0,133	-0,014
-232,030	-31,226	0,060	0,024
-231,015	-200,000	0,022	-0,118
-230,000	-200,000	-0,005	-0,065
-228,986	-200,000	0,010	-0,130
-227,971	-1,146	-0,031	-0,016
-226,957	-181,263	0,089	-0,001
-225,942	-111,864	0,023	-0,003
-224,927	800,000	0,012	0,025
-223,913	-200,000	-0,002	-0,037
-222,898	420,048	0,085	-0,130
-221,884	717,408	0,040	-0,075
-220,869	82,980	0,117	0,090
-219,855	-33,030	0,149	0,059
-218,840	146,515	0,137	0,131
-217,825	-200,000	-0,006	-0,025
-216,811	-200,000	0,014	-0,076
-215,796	34,844	-0,070	0,043
-214,782	-161,456	-0,047	0,002
-213,767	55,605	-0,009	0,006
-212,752	50,644	-0,015	0,010
-211,738	-49,803	0,082	-0,027
-210,723	-200,000	0,016	0,139
-209,709	89,015	-0,078	-0,062
-208,694	-200,000	0,001	0,053
-207,679	78,425	-0,093	-0,071
-206,665	800,000	0,071	-0,148
-205,650	-165,369	0,107	0,003
-204,636	-48,215	0,053	-0,018
-203,621	-200,000	0,010	-0,107
-202,606	183,703	-0,016	0,017
-201,592	-84,333	-0,099	-0,022
-200,577	-44,401	0,155	0,055
-199,563	-200,000	0,010	0,096
-198,548	-200,000	0,019	0,180
-197,533	57,603	-0,066	0,045
-196,519	-86,581	0,086	0,019
-195,504	-200,000	-0,003	-0,101
-194,490	-200,000	-0,005	0,089
-193,475	35,420	-0,065	-0,040
-192,460	319,984	0,062	-0,084
-191,446	-200,000	-0,006	0,125
-190,431	144,401	0,150	0,143
-189,417	220,847	-0,034	-0,038
-188,402	491,255	0,026	0,042
-187,387	90,477	-0,112	-0,089
-186,373	800,000	-0,025	0,073
-185,358	-68,608	0,048	0,013
-184,344	335,260	0,039	0,053
-183,329	-200,000	-0,012	0,069
-182,315	800,000	0,046	0,115
-181,300	-68,585	-0,058	0,016
-180,285	49,062	-0,087	-0,058
-179,271	559,938	-0,056	-0,097
-178,256	-130,740	-0,112	0,011
-177,242	800,000	0,009	-0,020
-176,227	223,311	0,123	0,141
-175,212	-200,000	0,008	0,092
-174,198	-200,000	-0,021	-0,158
-173,183	653,296	0,032	0,058
-172,169	417,108	-0,087	-0,133
-171,154	-200,000	0,027	-0,246
-170,139	-98,473	-0,149	0,027
-169,125	-200,000	0,012	-0,052
-168,110	-200,000	0,000	-0,112
-167,096	-200,000	0,022	0,124
-166,081	800,000	-0,022	0,058
-165,066	-16,493	0,015	-0,007
-164,052	-30,112	-0,069	-0,028
-163,037	-200,000	-0,030	0,105
-162,023	-200,000	0,007	0,066
-161,008	-146,773	-0,176	0,011
-159,993	800,000	0,013	0,039
-158,979	84,053	0,039	-0,030
-157,964	-200,000	0,005	0,019
-156,950	-138,898	-0,114	0,009
-155,935	-128,716	0,011	0,001
-154,920	-189,021	0,139	-0,001
-153,906	23,415	0,065	0,038
-152,891	-200,000	0,016	0,058
-151,877	-4,563	0,050	-0,024
-150,862	-126,060	-0,107	-0,011
-149,847	103,882	-0,092	0,076
-148,833	-73,721	0,072	0,018
-147,818	718,765	0,006	-0,010
-146,804	488,478	0,052	0,085
-145,789	46,897	0,055	-0,036
-144,775	-135,343	-0,126	-0,011
-143,760	144,478	0,070	-0,066
-142,745	-14,500	-0,075	-0,034
-141,731	-200,000	-0,014	-0,140
-140,716	-200,000	-0,013	-0,042
-139,702	-118,869	0,105	-0,013
-138,687	89,486	-0,095	0,075
-137,672	-1,795	-0,081	0,040
-136,658	-30,233	-0,135	0,054
-135,643	800,000	0,040	-0,094
-134,629	40,825	-0,113	0,072
-133,614	140,819	0,076	-0,071
-132,599	800,000	0,040	0,107
-131,585	-200,000	0,000	-0,051
-130,570	64,927	0,048	-0,035
-129,556	-1,674	0,042	-0,021
-128,541	70,104	-0,095	-0,070
-127,526	199,267	0,043	-0,047
-126,512	264,485	-0,052	0,064
-125,497	-200,000	-0,007	0,077
-124,483	-200,000	-0,013	0,192
-123,468	77,980	0,037	0,028
-122,453	-59,414	-0,019	0,006
-121,439	-160,494	0,050	-0,002
-120,424	28,118	-0,165	-0,098
-119,410	475,949	0,045	-0,072
-118,395	405,755	0,125	0,188
-117,380	66,031	0,084	0,060
-116,366	800,000	0,030	-0,061
-115,351	291,115	0,016	0,020
-114,337	32,611	-0,134	0,082
-113,322	800,000	-0,032	0,094
-112,307	573,012	-0,009	0,016
-111,293	-57,437	0,022	0,007
-110,278	598,624	-0,019	0,034
-109,264	171,224	0,037	-0,037
-108,249	-98,975	0,065	-0,012
-107,234	674,525	0,081	0,150
-106,220	20,287	-0,102	-0,058
-105,205	800,000	-0,018	0,038
-104,191	-82,705	-0,038	-0,009
-103,176	120,963	0,026	0,023
-102,162	24,421	-0,057	-0,033
-101,147	85,916	0,129	0,100
-100,132	97,876	-0,109	-0,089
-99,118	-40,501	-0,042	0,015
-98,103	800,000	-0,024	0,066
-97,089	80,204	0,110	0,084
-96,074	-117,941	0,095	-0,012
-95,059	-125,755	-0,144	-0,015
-94,045	17,983	0,065	-0,036
-93,030	104,484	-0,007	-0,006
-92,016	520,514	-0,043	0,072
-91,001	-67,043	-0,147	-0,041
-89,986	-38,072	0,079	-0,030
-88,972	113,867	0,049	0,042
-87,957	180,979	0,042	-0,044
-86,943	113,311	0,131	-0,112
-85,928	-113,605	-0,116	-0,016
-84,913	-116,552	-0,127	-0,016
-83,899	436,410	0,028	-0,044
-82,884	-200,000	-0,019	-0,069
-81,870	-200,000	-0,015	0,052
-80,855	800,000	0,039	0,103
-79,840	-131,109	-0,094	-0,009
-78,826	800,000	-0,034	-0,085
-77,811	-48,500	-0,076	-0,026
-76,797	85,020	-0,045	0,035
-75,782	133,220	0,141	-0,129
-74,767	472,752	0,089	0,143
-73,753	800,000	0,024	0,051
-72,738	-200,000	0,002	0,047
-71,724	-119,576	0,021	-0,003
-70,709	793,262	0,044	0,086
-69,694	-136,606	0,120	-0,010
-68,680	-200,000	-0,007	0,028
-67,665	800,000	-0,022	0,059
-66,651	-200,000	-0,003	0,054
-65,636	40,789	0,108	0,069
-64,622	381,802	-0,034	0,049
-63,607	-88,147	-0,143	0,030
-62,592	34,221	0,090	0,055
-61,578	-200,000	0,010	0,045
-60,563	298,108	-0,068	0,088
-59,549	-200,000	-0,004	0,123
-58,534	20,438	-1,822	-1,037
-57,519	415,100	-1,272	-1,921
-56,505	-200,000	-0,357	-4,369
-55,490	470,660	0,942	1,502
-54,476	800,000	5,026	11,282
-53,461	-200,000	20,904	329,475
-52,446	800,000	757,235	2323,668
-51,432	550,238	1662,268	2825,618
-50,417	73,488	1664,008	1228,634
-49,403	18,653	1537,152	865,841
-48,388	12,614	1460,075	793,193
-47,373	18,988	1450,857	818,775
-46,359	15,791	1440,193	797,502
-45,344	10,927	1435,853	771,891
-44,330	10,838	1434,035	770,460
-43,315	10,846	1432,003	769,376
-42,300	10,828	1430,597	768,506
-41,286	10,865	1429,101	767,847
-40,271	10,869	1427,689	767,074
-39,257	10,860	1426,703	766,473
-38,242	10,822	1425,600	765,672
-37,227	10,867	1424,504	765,264
-36,213	10,899	1423,079	764,620
-35,198	10,904	1421,964	764,013
-34,184	10,909	1421,304	763,652
-33,169	10,865	1419,762	762,587
-32,154	10,930	1418,775	762,334
-31,140	10,936	1417,562	761,678
-30,125	10,958	1416,539	761,202
-29,111	10,971	1415,200	760,515
-28,096	10,877	1414,288	759,550
-27,082	10,836	1413,062	758,672
-26,067	10,839	1411,963	758,062
-25,052	10,887	1410,784	757,626
-24,038	10,899	1409,763	757,105
-23,023	10,903	1408,693	756,519
-22,009	10,838	1407,775	755,689
-20,994	10,841	1406,861	755,186
-19,979	10,853	1405,906	754,699
-18,965	10,796	1405,139	753,991
-17,950	10,790	1404,174	753,413
-16,936	10,746	1403,501	752,820
-15,921	10,743	1402,196	752,076
-14,906	10,751	1401,405	751,657
-13,892	10,748	1400,418	751,084
-12,877	10,765	1399,621	750,707
-11,863	10,731	1398,780	750,068
-10,848	10,720	1397,740	749,430
-9,833	10,640	1396,947	748,604
-8,819	10,656	1396,228	748,262
-7,804	10,643	1395,280	747,665
-6,790	10,647	1394,243	747,099
-5,775	10,684	1393,246	746,703
-4,760	10,659	1392,182	745,989
-3,746	10,668	1391,294	745,524
-2,731	10,659	1390,567	745,062
-1,717	10,637	1389,694	744,467
-0,702	10,648	1387,753	743,449
0,313	14,631	1301,526	715,519
1,327	30,911	693,039	418,042
2,342	47,762	120,260	79,066
3,356	0,919	16,446	8,288
4,371	-5,181	3,540	1,711
5,386	36,922	0,877	0,546
6,400	-200,000	0,143	0,536
7,415	50,463	-0,141	-0,094
8,429	148,111	-0,145	-0,138
9,444	184,844	-0,276	-0,289
10,459	-32,339	-0,364	-0,142
11,473	104,036	-0,195	-0,162
12,488	-33,375	-0,301	-0,117
13,502	-29,396	-0,308	-0,124
14,517	141,278	-0,231	-0,216
15,531	8,259	-0,363	-0,191
16,546	-35,653	-0,410	-0,156
17,561	46,301	-0,399	-0,260
18,575	419,253	-0,139	-0,210
19,590	124,736	-0,160	-0,142
20,604	-142,098	-0,369	-0,025
21,619	-19,599	-0,474	-0,206
22,634	149,000	-0,421	-0,401
23,648	126,395	-0,417	-0,372
24,663	57,470	-0,425	-0,292
25,677	689,609	-0,147	-0,273
26,692	-172,618	-0,390	-0,008
27,707	299,055	-0,211	-0,274
28,721	33,584	-0,370	-0,226
29,736	31,179	-0,488	-0,294
30,750	126,381	-0,316	-0,281
31,765	25,742	-0,406	-0,238
32,780	41,064	-0,306	-0,194
33,794	79,740	-0,295	-0,223
34,809	56,584	-0,353	-0,241
35,823	200,977	-0,308	-0,333
36,838	-15,909	-0,468	-0,209
37,853	137,167	-0,308	-0,283
38,867	48,024	-0,459	-0,301
39,882	32,583	-0,423	-0,256
40,896	135,043	-0,316	-0,289
41,911	13,524	-0,389	-0,212
42,926	6,848	-0,367	-0,191
43,940	318,427	-0,302	-0,403
44,955	151,096	-0,432	-0,413
45,969	-24,714	-0,359	-0,149
46,984	49,863	-0,293	-0,194
47,999	44,703	-0,306	-0,197
49,013	124,751	-0,341	-0,301
50,028	5,789	-0,397	-0,206
51,042	30,374	-0,291	-0,174
52,057	-27,883	-0,349	-0,141
53,071	273,366	-0,264	-0,329
54,086	16,889	-0,348	-0,193
55,101	-44,976	-0,386	-0,134
56,115	-48,558	-0,273	-0,092
57,130	39,317	-0,277	-0,174
58,144	-6,327	-0,365	-0,174
59,159	6,604	-0,431	-0,224
60,174	-43,013	-0,433	-0,153
61,188	50,468	-0,441	-0,292
62,203	20,736	-0,288	-0,163
63,217	99,355	-0,311	-0,252
64,232	-58,499	-0,434	-0,131
65,247	15,169	-0,286	-0,157
66,261	32,216	-0,347	-0,210
67,276	180,291	-0,269	-0,277
68,290	104,020	-0,248	-0,204
69,305	227,327	-0,098	-0,112
70,320	138,441	-0,205	-0,188
71,334	93,597	-0,301	-0,239
72,349	320,171	-0,231	-0,308
73,363	192,641	-0,346	-0,367
74,378	-73,312	-0,438	-0,111
75,393	-103,288	-0,334	-0,055
76,407	397,253	-0,162	-0,238
77,422	472,640	-0,078	-0,124
78,436	-113,915	-0,273	-0,037
79,451	489,163	-0,147	-0,236
80,466	165,688	-0,292	-0,290
81,480	61,427	-0,445	-0,309
82,495	-112,555	-0,241	0,033
83,509	122,061	-0,310	-0,272
84,524	97,998	-0,239	-0,192
85,539	28,287	-0,317	-0,187
86,553	-131,496	-0,275	-0,025
87,568	83,234	-0,284	-0,216
88,582	81,702	-0,258	-0,196
89,597	46,929	-0,334	-0,217
90,611	103,901	-0,279	-0,230
91,626	13,588	-0,367	-0,199
92,641	215,421	-0,155	-0,173
93,655	-146,051	-0,186	0,011
94,670	-46,359	-0,229	-0,078
95,684	233,312	-0,218	-0,251
96,699	-54,619	-0,293	-0,092
97,714	-55,618	-0,261	-0,081
98,728	-69,599	-0,301	-0,080
99,743	55,186	-0,368	-0,249
100,757	90,883	-0,296	-0,232
101,772	242,585	-0,273	-0,321
102,787	48,053	-0,223	-0,146
103,801	122,372	-0,248	-0,217
104,816	124,129	-0,260	-0,228
105,830	73,781	-0,260	-0,190
106,845	20,701	-0,248	-0,140
107,860	201,438	-0,262	-0,283
108,874	149,534	-0,249	-0,236
109,889	50,885	-0,339	-0,224
110,903	202,785	-0,263	-0,285
111,918	-200,000	-0,077	-0,269
112,933	129,132	-0,123	-0,109
113,947	286,170	-0,148	-0,188
114,962	-77,715	-0,257	-0,062
115,976	66,191	-0,407	-0,289
116,991	61,915	-0,306	-0,213
118,006	229,310	-0,170	-0,195
119,020	108,345	-0,151	-0,126
120,035	-58,923	-0,143	-0,043
121,049	460,701	-0,104	-0,163
122,064	243,522	-0,213	-0,250
123,079	141,239	-0,265	-0,244
124,093	-17,740	-0,286	-0,125
125,108	75,584	-0,243	-0,179
126,122	323,894	-0,216	-0,288
127,137	-23,495	-0,277	-0,116
128,151	-53,442	-0,147	-0,047
129,166	150,703	-0,255	-0,242
130,181	382,599	-0,193	-0,277
131,195	-39,430	-0,261	-0,095
132,210	7,353	-0,308	-0,160
133,224	-1,041	-0,249	-0,122
134,239	-33,671	-0,095	-0,036
135,254	-2,107	-0,188	-0,092
136,268	-27,344	-0,264	-0,107
137,283	23,271	-0,310	-0,177
138,297	-5,102	-0,240	-0,115
139,312	-22,557	-0,292	-0,122
140,327	-13,614	-0,348	-0,156
141,341	-57,502	-0,238	-0,072
142,356	48,381	-0,190	-0,123
143,370	5,924	-0,244	-0,126
144,385	340,937	-0,118	-0,161
145,400	28,258	-0,246	-0,144
146,414	17,108	-0,308	-0,170
147,429	64,659	-0,220	-0,155
148,443	505,448	-0,212	-0,343
149,458	150,735	-0,321	-0,304
150,473	90,170	-0,160	-0,124
151,487	31,996	-0,235	-0,141
152,502	-0,353	-0,262	-0,129
153,516	-60,252	-0,258	-0,076
154,531	276,758	-0,136	-0,168
155,546	152,471	-0,254	-0,241
156,560	-11,950	-0,188	-0,085
157,575	-116,716	-0,304	-0,038
158,589	216,179	-0,147	-0,163
159,604	3,894	-0,252	-0,128
160,619	42,563	-0,222	-0,141
161,633	144,798	-0,137	-0,128
162,648	-18,563	-0,279	-0,121
163,662	-55,050	-0,228	-0,071
164,677	604,041	-0,181	-0,315
165,692	476,078	-0,093	-0,147
166,706	276,344	-0,256	-0,317
167,721	21,616	-0,314	-0,177
168,735	90,150	-0,216	-0,168
169,750	18,162	-0,289	-0,160
170,764	800,000	-0,126	-0,258
171,779	361,980	-0,140	-0,195
172,794	-119,135	-0,267	-0,032
173,808	78,158	-0,200	-0,148
174,823	106,621	-0,179	-0,147
175,837	218,835	-0,274	-0,305
176,852	133,853	-0,156	-0,140
177,867	-73,243	-0,095	-0,024
178,881	-23,859	-0,232	-0,096
179,896	-72,878	-0,327	-0,083
180,910	-48,688	-0,296	-0,098
181,925	217,224	-0,203	-0,225
182,940	241,865	-0,233	-0,271
183,954	667,927	-0,133	-0,240
184,969	21,366	-0,161	-0,091
185,983	145,527	-0,259	-0,241
186,998	-12,396	-0,164	-0,074
188,013	-45,781	-0,182	-0,062
189,027	221,608	-0,163	-0,182
190,042	27,682	-0,258	-0,150
191,056	1,558	-0,281	-0,140
192,071	-39,866	-0,210	-0,076
193,086	213,927	-0,105	-0,116
194,100	22,712	-0,239	-0,135
195,115	74,625	-0,238	-0,173
196,129	51,254	-0,374	-0,246
197,144	107,021	-0,175	-0,144
198,159	109,147	-0,252	-0,209
199,173	436,684	-0,216	-0,327
200,188	-73,355	-0,229	-0,058
201,202	-36,772	-0,223	-0,083
202,217	-133,098	-0,249	-0,022
203,232	396,264	-0,129	-0,188
204,246	397,224	-0,166	-0,241
205,261	-61,629	-0,270	-0,078
206,275	188,184	-0,153	-0,159
207,290	-128,136	-0,173	-0,017
208,304	-115,455	-0,159	-0,020
209,319	-49,984	-0,280	-0,091
210,334	75,593	-0,325	-0,238
211,348	129,372	-0,256	-0,226
212,363	304,804	-0,096	-0,124
213,377	800,000	-0,087	-0,201
214,392	276,833	-0,146	-0,180
215,407	222,547	-0,120	-0,134
216,421	164,671	-0,194	-0,189
217,436	58,347	-0,254	-0,172
218,450	46,203	-0,259	-0,166
219,465	187,406	-0,286	-0,295
220,480	27,091	-0,218	-0,126
221,494	13,359	-0,032	-0,017
222,509	-93,005	-0,126	-0,024
223,523	-200,000	0,038	-0,145
224,538	-200,000	-0,046	-0,212
225,553	47,393	-0,226	-0,146
226,567	238,655	-0,162	-0,187
227,582	383,864	-0,153	-0,219
228,596	-66,411	-0,248	-0,068
229,611	-51,390	-0,200	-0,064
230,626	239,861	0,055	-0,064
231,640	-30,287	-0,281	-0,110
232,655	124,701	-0,092	-0,080
233,669	487,518	-0,127	-0,201
234,684	-36,496	-0,246	-0,091
235,699	50,656	-0,193	-0,126
236,713	139,048	-0,096	-0,087
237,728	-158,546	-0,153	-0,006
238,742	158,933	-0,168	-0,162
239,757	45,697	-0,190	-0,121
240,772	-64,415	-0,255	-0,071
241,786	328,589	-0,163	-0,217
242,801	280,924	-0,073	-0,091
243,815	448,868	-0,061	-0,093
244,830	131,823	-0,179	-0,159
245,844	-200,000	-0,070	-0,217
246,859	70,188	-0,229	-0,163
247,874	101,845	-0,167	-0,134
248,888	-85,315	-0,303	-0,065
249,903	374,966	-0,145	-0,204
250,917	-200,000	-0,055	-0,268
251,932	421,792	-0,194	-0,288
252,947	51,709	-0,168	-0,110
253,961	-72,962	-0,216	-0,054
254,976	8,349	-0,324	-0,167
255,990	437,705	-0,092	-0,139
257,005	-87,555	-0,217	-0,045
258,020	589,167	-0,141	-0,241
259,034	-72,658	-0,244	0,062
260,049	-36,625	-0,106	-0,039
261,063	-7,412	-0,287	-0,133
262,078	-13,142	-0,271	-0,121
263,093	131,964	-0,137	-0,121
264,107	-99,330	-0,172	0,030
265,122	-52,545	-0,147	-0,047
266,136	-133,639	-0,080	-0,007
267,151	-123,498	-0,140	-0,015
268,166	-200,000	0,015	-0,162
269,180	304,960	-0,095	-0,122
270,195	103,059	-0,070	-0,056
271,209	800,000	-0,111	-0,218
272,224	-23,667	-0,095	-0,039
273,239	-59,038	-0,168	-0,050
274,253	-151,935	-0,182	-0,009
275,268	-49,045	-0,122	-0,040
276,282	-154,027	-0,172	-0,008
277,297	83,379	-0,199	-0,149
278,312	8,474	-0,098	-0,051
279,326	-52,093	-0,161	-0,051
280,341	446,309	-0,128	-0,195
281,355	31,517	-0,218	-0,129
282,370	9,312	-0,153	-0,079
283,384	7,453	-0,337	-0,173
284,399	16,319	-0,206	-0,112
285,414	268,551	-0,148	-0,179
286,428	64,966	-0,209	-0,145
287,443	800,000	-0,052	-0,154
288,457	540,027	-0,113	-0,185
289,472	-5,861	-0,121	-0,057
290,487	-90,481	-0,155	-0,031
291,501	118,663	-0,242	-0,205
292,516	198,418	-0,166	-0,174
293,530	214,639	-0,143	-0,157
294,545	-65,425	-0,167	-0,046
295,560	160,923	-0,146	-0,140
296,574	800,000	-0,049	-0,113
297,589	190,810	-0,092	-0,095
298,603	198,197	-0,161	-0,169
299,618	-25,373	-0,148	-0,060
300,633	644,072	-0,123	-0,216
301,647	800,000	-0,088	-0,195
302,662	-15,229	-0,199	-0,087
303,676	229,306	-0,066	-0,074
304,691	-15,594	-0,244	-0,107
305,706	53,847	-0,242	-0,160
306,720	397,935	-0,097	-0,140
307,735	-17,452	-0,020	-0,009
308,749	-179,001	-0,167	-0,003
309,764	-155,936	-0,091	0,004
310,779	800,000	-0,065	-0,187
311,793	238,214	-0,061	-0,069
312,808	214,834	-0,189	-0,206
313,822	-116,704	-0,256	0,032
314,837	-121,087	-0,175	-0,020
315,852	-127,961	-0,123	0,012
316,866	431,938	-0,132	-0,196
317,881	59,349	-0,218	-0,147
318,895	28,436	-0,234	-0,136
319,910	169,495	-0,123	-0,120
320,925	98,917	-0,106	-0,084
321,939	-64,736	-0,126	-0,035
322,954	-14,913	-0,151	-0,066
323,968	479,956	-0,153	-0,238
324,983	627,730	-0,138	-0,239
325,997	-200,000	0,021	-0,174
327,012	165,959	-0,098	-0,095
328,027	37,114	-0,274	-0,166
329,041	-117,793	-0,091	0,011
330,056	-69,631	-0,118	0,031
331,070	-114,283	-0,074	-0,010
332,085	-88,476	-0,273	0,055
333,100	-34,983	-0,108	-0,040
334,114	-40,243	-0,092	-0,033
335,129	12,853	-0,161	-0,085
336,143	114,274	-0,188	-0,156
337,158	32,689	-0,166	0,098
338,173	91,555	-0,058	0,045
339,187	60,911	0,057	-0,039
340,202	-166,293	-0,110	-0,003
341,216	70,940	-0,067	0,048
342,231	-94,988	-0,104	0,019
343,246	-86,442	-0,104	-0,022
344,260	50,378	-0,136	-0,088
345,275	-200,000	-0,013	-0,071
346,289	169,714	-0,037	-0,036
347,304	-200,000	-0,037	-0,178
348,319	122,357	-0,120	-0,102
349,333	-6,666	-0,139	-0,065
350,348	-94,220	-0,209	-0,039
351,362	800,000	0,054	-0,131
352,377	-62,502	-0,235	-0,066
353,392	-30,738	-0,134	-0,052
354,406	-200,000	0,003	-0,228
355,421	206,796	1308,809	1396,707
356,435	159,065	1468,764	1397,202
