DTS Sentinel unit serial number:	SN410029Multiplexer serial number:	ORYXHardware model number:	OX2-SRSoftware version number:	ORYX F/W v4,00 Oryx Data Collector v3.7.2.0data status	okinstallation	B3 Nyhavnadifferential loss correction	single-endedforward channel	channel 1reverse channel	N/Adate	2023/12/03time	12:47:30forward acquisition time	300,00reverse acquisition time	0,00gamma	499,1914k internal	0,3201k external	0,3201temperature offset calibration	1,0000default loss term (dB/km)	0,3820temperature slope calibration	1,0000multiplexer offset coefficient	1,0000multiplexer slope coefficient	1,0000fibre end	0,00T internal ref (°C)	14,36T ext. ref 1 (°C)	0,56T ext. ref 2 (°C)	0,54length (m)	temperature (°C)	Stokes	anti-Stokes-744,400	204,209	-0,251	-0,284
-743,385	800,000	0,125	0,301
-742,371	800,000	-0,018	-0,036
-741,356	-200,000	0,042	0,317
-740,342	454,808	-0,133	-0,215
-739,327	-200,000	0,055	0,302
-738,312	198,367	-0,190	-0,212
-737,298	800,000	0,100	0,272
-736,283	2,563	-0,178	-0,093
-735,269	-200,000	0,067	0,399
-734,254	46,231	-0,195	-0,131
-733,239	147,621	-0,130	0,127
-732,225	307,967	-0,143	-0,194
-731,210	130,647	0,048	0,045
-730,196	-200,000	-0,053	-0,204
-729,181	459,353	-0,076	-0,123
-728,167	-200,000	0,045	-0,273
-727,152	-139,491	-0,045	-0,003
-726,137	94,610	0,071	-0,058
-725,123	-145,961	-0,106	-0,007
-724,108	-25,338	-0,153	-0,065
-723,094	155,819	0,052	0,052
-722,079	39,380	-0,058	-0,038
-721,064	800,000	-0,019	-0,050
-720,050	75,884	0,052	-0,040
-719,035	-69,580	-0,137	0,038
-718,021	-200,000	-0,005	-0,073
-717,006	111,322	-0,138	-0,121
-715,991	-200,000	-0,007	-0,047
-714,977	589,726	-0,056	-0,101
-713,962	100,093	-0,139	-0,117
-712,948	-56,622	-0,083	0,026
-711,933	800,000	-0,034	0,068
-710,918	-39,559	0,084	-0,032
-709,904	-200,000	0,018	-0,064
-708,889	800,000	-0,059	-0,160
-707,875	-200,000	0,004	0,083
-706,860	218,314	0,038	-0,044
-705,845	-200,000	-0,020	-0,149
-704,831	-133,185	-0,070	0,006
-703,816	-140,257	0,132	-0,010
-702,802	-200,000	0,008	-0,036
-701,787	-123,962	-0,280	-0,032
-700,772	326,978	0,090	-0,126
-699,758	-200,000	-0,039	-0,179
-698,743	-93,312	0,060	-0,012
-697,729	-200,000	0,026	0,098
-696,714	-32,654	0,032	-0,013
-695,699	-200,000	0,016	-0,083
-694,685	95,641	-0,078	-0,065
-693,670	-200,000	-0,026	-0,104
-692,656	130,557	0,056	-0,052
-691,641	800,000	0,060	-0,130
-690,627	-97,912	0,066	-0,012
-689,612	134,602	-0,126	-0,119
-688,597	800,000	-0,059	-0,123
-687,583	-200,000	-0,018	-0,167
-686,568	50,374	0,046	0,031
-685,554	297,541	0,065	-0,087
-684,539	-200,000	0,001	0,085
-683,524	-5,006	-0,028	0,014
-682,510	-130,247	0,119	-0,012
-681,495	-103,865	-0,188	0,032
-680,481	215,082	0,087	-0,100
-679,466	65,714	-0,042	-0,031
-678,451	727,020	0,048	0,094
-677,437	293,802	0,048	-0,064
-676,422	-30,702	0,045	0,018
-675,408	-200,000	0,002	-0,082
-674,393	-11,434	0,106	0,050
-673,378	45,790	-0,240	-0,161
-672,364	-88,125	-0,145	-0,031
-671,349	-109,179	0,068	0,010
-670,335	117,003	0,066	0,059
-669,320	-200,000	-0,056	0,205
-668,305	-91,071	-0,087	0,018
-667,291	257,569	-0,045	-0,056
-666,276	-200,000	0,027	-0,100
-665,262	26,597	-0,147	-0,089
-664,247	-115,494	-0,190	0,026
-663,232	-106,296	-0,218	0,035
-662,218	-98,128	0,143	0,026
-661,203	130,058	0,092	0,085
-660,189	40,051	0,059	-0,038
-659,174	-200,000	-0,022	-0,106
-658,159	-131,818	-0,067	-0,006
-657,145	309,181	-0,062	-0,085
-656,130	-200,000	-0,002	-0,018
-655,116	79,910	0,122	0,095
-654,101	115,268	-0,057	0,051
-653,086	75,166	-0,094	0,072
-652,072	184,455	0,098	-0,106
-651,057	-26,368	0,062	0,026
-650,043	800,000	-0,019	-0,053
-649,028	211,913	-0,030	0,034
-648,014	20,820	-0,051	-0,030
-646,999	-157,556	0,126	0,005
-645,984	-181,575	0,110	-0,002
-644,970	44,240	0,049	-0,032
-643,955	800,000	0,019	-0,053
-642,941	647,499	0,105	-0,195
-641,926	312,767	0,025	-0,034
-640,911	-31,710	0,070	-0,028
-639,897	201,661	-0,080	-0,089
-638,882	23,652	0,209	0,124
-637,868	125,885	-0,117	0,107
-636,853	105,515	-0,078	-0,067
-635,838	-10,144	-0,114	-0,055
-634,824	-200,000	0,023	-0,078
-633,809	128,077	0,085	-0,078
-632,795	-178,026	0,132	0,002
-631,780	-200,000	-0,035	-0,134
-630,765	-200,000	0,008	-0,132
-629,751	-200,000	-0,021	-0,096
-628,736	-47,192	-0,190	-0,067
-627,722	800,000	-0,041	-0,110
-626,707	493,910	-0,017	-0,029
-625,692	198,892	0,089	-0,099
-624,678	-200,000	0,003	-0,037
-623,663	-83,899	0,028	0,006
-622,649	-87,831	0,114	-0,025
-621,634	-200,000	0,027	-0,158
-620,619	161,367	-0,058	-0,059
-619,605	67,225	0,118	-0,087
-618,590	94,335	0,085	0,070
-617,576	144,381	0,065	-0,062
-616,561	800,000	0,032	0,067
-615,546	-6,323	-0,210	0,103
-614,532	-29,999	-0,015	-0,006
-613,517	207,945	-0,102	0,115
-612,503	-200,000	0,018	-0,226
-611,488	70,172	-0,009	0,006
-610,474	-38,606	0,101	-0,038
-609,459	-39,904	0,107	0,040
-608,444	800,000	0,025	-0,077
-607,430	1,203	-0,116	-0,060
-606,415	-126,210	-0,170	-0,018
-605,401	-200,000	-0,038	0,159
-604,386	13,805	-0,112	-0,063
-603,371	800,000	-0,025	-0,064
-602,357	800,000	0,056	0,116
-601,342	77,400	0,184	0,142
-600,328	-200,000	-0,030	0,127
-599,313	-200,000	0,015	-0,155
-598,298	-200,000	-0,024	-0,111
-597,284	-200,000	0,013	0,110
-596,269	-118,161	0,057	-0,007
-595,255	-51,861	0,059	0,020
-594,240	-17,121	-0,065	-0,029
-593,225	605,781	0,076	-0,137
-592,211	-91,250	0,047	-0,010
-591,196	-200,000	0,008	-0,048
-590,182	44,676	-0,022	0,014
-589,167	44,425	0,046	0,031
-588,152	800,000	-0,033	-0,096
-587,138	-139,715	-0,100	0,008
-586,123	800,000	-0,032	-0,074
-585,109	800,000	0,025	-0,065
-584,094	167,722	-0,054	0,056
-583,079	-200,000	0,026	-0,091
-582,065	-161,711	-0,100	0,004
-581,050	800,000	0,023	-0,060
-580,036	-103,967	-0,072	-0,012
-579,021	-120,185	-0,175	0,021
-578,006	800,000	-0,057	-0,179
-576,992	-83,040	-0,082	-0,019
-575,977	452,078	0,104	0,167
-574,963	-98,254	-0,078	-0,014
-573,948	555,420	0,014	-0,024
-572,934	-82,305	-0,029	0,007
-571,919	-13,132	-0,086	-0,040
-570,904	8,308	-0,167	-0,091
-569,890	-149,887	0,038	-0,002
-568,875	-87,653	-0,120	-0,026
-567,861	681,038	-0,017	0,032
-566,846	379,045	0,025	-0,038
-565,831	34,828	-0,086	0,054
-564,817	-200,000	0,014	0,133
-563,802	144,223	-0,163	-0,157
-562,788	479,566	0,045	-0,073
-561,773	-110,110	-0,025	-0,004
-560,758	103,856	-0,056	0,047
-559,744	-200,000	0,017	-0,063
-558,729	-130,635	-0,103	0,010
-557,715	-66,011	-0,067	0,019
-556,700	-182,866	-0,068	0,001
-555,685	96,613	-0,105	0,087
-554,671	800,000	0,023	-0,064
-553,656	40,701	-0,084	0,055
-552,642	-87,908	-0,042	0,009
-551,627	265,453	-0,016	0,020
-550,612	-33,521	0,076	0,030
-549,598	-200,000	0,033	-0,107
-548,583	-81,661	-0,092	0,022
-547,569	-200,000	0,027	-0,090
-546,554	-107,725	-0,071	-0,011
-545,539	800,000	0,066	0,137
-544,525	426,211	-0,077	0,120
-543,510	-52,637	-0,072	-0,024
-542,496	324,328	-0,113	-0,157
-541,481	-200,000	-0,011	-0,176
-540,466	-200,000	-0,007	0,104
-539,452	36,128	0,034	0,021
-538,437	-121,840	0,262	-0,031
-537,423	-200,000	0,006	-0,077
-536,408	-56,227	-0,080	0,026
-535,393	-81,963	0,019	0,004
-534,379	-71,664	0,078	-0,021
-533,364	-200,000	0,003	-0,065
-532,350	326,264	-0,006	-0,008
-531,335	-127,616	0,171	0,018
-530,321	313,170	-0,048	-0,065
-529,306	-200,000	-0,018	-0,065
-528,291	-105,173	-0,029	-0,005
-527,277	-200,000	-0,001	-0,074
-526,262	43,972	0,077	0,051
-525,248	800,000	-0,025	-0,072
-524,233	800,000	-0,044	-0,131
-523,218	-14,824	0,137	0,063
-522,204	-28,532	-0,097	-0,040
-521,189	42,359	-0,051	-0,033
-520,175	125,968	0,043	-0,039
-519,160	11,695	0,077	0,042
-518,145	122,609	-0,052	0,047
-517,131	14,732	-0,143	-0,080
-516,116	-200,000	0,003	-0,040
-515,102	-200,000	0,015	0,100
-514,087	3,818	-0,055	-0,029
-513,072	-122,108	-0,061	-0,007
-512,058	-1,422	-0,095	-0,048
-511,043	82,500	0,101	0,079
-510,029	0,756	0,117	0,060
-509,014	-48,006	0,085	0,030
-507,999	-200,000	-0,009	-0,053
-506,985	-200,000	-0,008	-0,115
-505,970	178,786	-0,104	-0,109
-504,956	800,000	-0,007	-0,020
-503,941	-167,785	0,108	0,003
-502,926	800,000	0,030	-0,076
-501,912	-110,436	-0,028	-0,004
-500,897	111,127	-0,027	0,023
-499,883	800,000	0,021	-0,045
-498,868	-85,414	-0,102	0,023
-497,853	-200,000	0,007	-0,106
-496,839	-93,499	-0,110	-0,022
-495,824	58,382	0,039	0,027
-494,810	13,685	0,051	-0,029
-493,795	-200,000	0,025	0,142
-492,781	-16,049	-0,134	-0,061
-491,766	461,535	0,022	0,036
-490,751	110,607	-0,090	-0,078
-489,737	-200,000	-0,008	-0,096
-488,722	347,628	-0,042	0,059
-487,708	800,000	0,038	0,104
-486,693	39,220	-0,109	0,070
-485,678	-54,637	-0,104	-0,034
-484,664	-63,825	-0,083	-0,024
-483,649	73,280	0,106	-0,079
-482,635	-110,113	-0,011	-0,002
-481,620	282,539	-0,005	0,006
-480,605	65,625	-0,100	0,073
-479,591	-60,662	0,088	0,027
-478,576	-72,349	0,054	-0,014
-477,562	-82,133	-0,155	0,036
-476,547	172,009	0,042	-0,043
-475,532	-200,000	-0,006	0,044
-474,518	-200,000	0,014	-0,064
-473,503	14,969	0,112	-0,063
-472,489	290,105	-0,071	0,092
-471,474	782,682	0,043	0,086
-470,459	13,305	-0,038	0,021
-469,445	800,000	0,012	-0,036
-468,430	-148,941	-0,033	-0,002
-467,416	39,924	0,053	0,034
-466,401	800,000	-0,009	0,024
-465,386	40,947	0,130	-0,084
-464,372	174,363	0,026	-0,027
-463,357	-200,000	0,016	-0,070
-462,343	323,073	0,067	-0,093
-461,328	-200,000	-0,017	-0,159
-460,313	-200,000	-0,003	0,098
-459,299	245,988	0,025	0,030
-458,284	-41,835	0,163	0,060
-457,270	-200,000	-0,029	0,244
-456,255	72,191	0,093	0,069
-455,241	-108,202	0,048	0,007
-454,226	229,258	-0,060	0,070
-453,211	-71,422	-0,062	0,017
-452,197	-21,019	-0,051	0,022
-451,182	-65,373	0,139	0,040
-450,168	162,813	0,032	0,032
-449,153	217,647	-0,012	-0,014
-448,138	-70,549	-0,090	-0,024
-447,124	-178,199	-0,085	-0,001
-446,109	506,350	-0,047	0,078
-445,095	-22,221	0,161	0,070
-444,080	800,000	-0,046	0,145
-443,065	-17,765	-0,085	-0,038
-442,051	-200,000	0,003	0,009
-441,036	143,763	-0,158	0,151
-440,022	800,000	0,012	-0,026
-439,007	110,647	0,038	-0,033
-437,992	36,423	0,007	0,004
-436,978	-134,729	0,094	-0,008
-435,963	32,866	-0,041	-0,026
-434,949	-112,452	0,040	0,006
-433,934	-136,944	-0,076	-0,006
-432,919	-200,000	-0,022	-0,129
-431,905	291,317	0,114	0,149
-430,890	20,425	-0,048	-0,028
-429,876	800,000	0,052	0,128
-428,861	229,569	-0,094	0,111
-427,846	800,000	-0,033	0,072
-426,832	-27,516	-0,081	-0,033
-425,817	42,090	-0,136	-0,089
-424,803	-169,680	0,080	0,002
-423,788	-41,595	-0,040	-0,015
-422,773	-200,000	0,016	-0,070
-421,759	22,463	0,143	0,084
-420,744	-114,299	-0,050	0,007
-419,730	99,664	0,089	0,074
-418,715	370,972	-0,036	-0,052
-417,701	173,511	-0,056	0,058
-416,686	107,480	0,087	0,074
-415,671	800,000	0,022	0,046
-414,657	211,895	0,032	0,036
-413,642	-20,652	-0,044	-0,019
-412,628	63,905	0,072	-0,052
-411,613	-90,729	-0,119	-0,024
-410,598	800,000	0,070	0,185
-409,584	24,068	-0,103	-0,061
-408,569	800,000	0,025	0,074
-407,555	-200,000	0,004	0,028
-406,540	-200,000	0,026	0,114
-405,525	223,600	-0,051	0,059
-404,511	-200,000	0,041	-0,184
-403,496	2,525	-0,162	-0,084
-402,482	-102,828	0,085	-0,014
-401,467	-200,000	-0,003	0,013
-400,452	350,843	0,071	0,101
-399,438	-200,000	-0,017	-0,060
-398,423	-200,000	0,001	0,176
-397,409	-200,000	-0,007	0,044
-396,394	255,002	-0,043	-0,052
-395,379	464,294	0,038	0,061
-394,365	35,446	0,079	-0,049
-393,350	-200,000	-0,032	0,139
-392,336	-95,631	-0,018	0,003
-391,321	31,210	-0,086	0,053
-390,306	-156,293	-0,159	0,007
-389,292	15,631	-0,072	0,040
-388,277	131,229	-0,025	-0,023
-387,263	-200,000	-0,003	-0,017
-386,248	800,000	0,017	-0,047
-385,233	-152,899	-0,032	0,002
-384,219	113,948	-0,061	-0,053
-383,204	193,828	-0,055	0,060
-382,190	-200,000	0,002	0,029
-381,175	-200,000	0,031	0,159
-380,160	-43,437	0,087	0,031
-379,146	12,860	0,191	0,106
-378,131	-126,140	0,092	0,010
-377,117	-200,000	-0,021	-0,078
-376,102	143,528	0,060	-0,057
-375,088	800,000	-0,061	-0,128
-374,073	156,122	0,090	-0,089
-373,058	45,156	-0,070	0,046
-372,044	-200,000	0,024	0,100
-371,029	42,911	-0,071	-0,046
-370,015	-17,341	0,190	-0,086
-369,000	83,828	-0,111	-0,087
-367,985	800,000	-0,029	-0,087
-366,971	185,365	-0,124	-0,132
-365,956	-80,823	-0,071	-0,017
-364,942	649,522	-0,026	-0,048
-363,927	116,277	0,038	-0,033
-362,912	-200,000	-0,024	0,121
-361,898	-200,000	0,029	0,095
-360,883	22,983	-0,066	-0,039
-359,869	56,422	-0,052	-0,037
-358,854	-200,000	-0,012	0,090
-357,839	371,033	0,024	-0,035
-356,825	-200,000	-0,010	-0,107
-355,810	-181,441	0,071	-0,001
-354,796	800,000	-0,043	-0,094
-353,781	800,000	-0,037	-0,083
-352,766	-200,000	0,004	-0,068
-351,752	256,142	0,140	-0,172
-350,737	3,167	0,117	0,061
-349,723	238,582	-0,049	0,059
-348,708	663,034	0,048	-0,090
-347,693	800,000	0,032	0,074
-346,679	340,070	0,013	-0,018
-345,664	4,559	-0,048	-0,025
-344,650	-34,758	0,068	-0,027
-343,635	-200,000	0,009	0,133
-342,620	800,000	0,033	0,082
-341,606	800,000	0,053	0,147
-340,591	-84,875	-0,045	0,010
-339,577	-200,000	0,047	0,000
-338,562	67,122	-0,031	0,023
-337,548	-37,599	-0,103	-0,039
-336,533	-68,047	-0,029	-0,008
-335,518	-68,920	0,062	0,017
-334,504	-172,095	0,132	0,003
-333,489	800,000	-0,051	-0,152
-332,475	-200,000	0,000	0,089
-331,460	2,347	-0,020	-0,010
-330,445	338,695	-0,045	-0,063
-329,431	-200,000	0,021	0,105
-328,416	30,142	0,186	0,113
-327,402	754,602	-0,054	0,105
-326,387	-104,264	-0,143	-0,023
-325,372	-200,000	-0,012	-0,081
-324,358	-89,992	-0,074	0,015
-323,343	-92,181	0,111	-0,022
-322,329	-200,000	-0,026	0,163
-321,314	800,000	0,040	0,120
-320,299	36,105	0,103	0,065
-319,285	159,327	-0,151	-0,150
-318,270	-99,403	-0,127	0,023
-317,256	177,595	-0,050	-0,052
-316,241	29,351	-0,095	-0,058
-315,226	-200,000	-0,009	0,069
-314,212	33,369	0,020	0,012
-313,197	326,329	0,021	0,029
-312,183	-200,000	-0,008	-0,033
-311,168	436,938	-0,014	0,021
-310,153	136,031	0,058	-0,054
-309,139	-114,403	0,106	0,014
-308,124	78,389	0,032	0,025
-307,110	-200,000	-0,012	0,048
-306,095	-118,941	0,206	0,026
-305,080	-155,305	0,009	0,000
-304,066	-200,000	-0,048	-0,195
-303,051	-169,144	-0,120	0,003
-302,037	537,350	-0,021	0,036
-301,022	800,000	0,040	0,095
-300,008	205,122	0,025	0,028
-298,993	-68,608	0,070	-0,019
-297,978	800,000	-0,024	-0,055
-296,964	-39,043	0,078	0,029
-295,949	-200,000	0,011	0,083
-294,935	-200,000	-0,030	-0,114
-293,920	-59,768	-0,127	0,039
-292,905	378,277	0,014	0,021
-291,891	347,937	0,106	0,149
-290,876	-5,890	0,043	0,021
-289,862	-200,000	0,011	-0,124
-288,847	216,971	-0,128	-0,146
-287,832	127,317	-0,054	-0,049
-286,818	800,000	0,029	-0,079
-285,803	-171,118	0,120	-0,003
-284,789	-200,000	0,022	0,081
-283,774	771,156	0,021	0,041
-282,759	-200,000	0,022	0,072
-281,745	-167,587	-0,072	0,002
-280,730	-159,450	-0,124	-0,005
-279,716	142,264	-0,076	0,073
-278,701	-200,000	0,015	-0,048
-277,686	-18,083	0,200	0,089
-276,672	-200,000	-0,029	0,121
-275,657	59,428	-0,098	-0,069
-274,643	-200,000	-0,004	-0,036
-273,628	800,000	0,046	-0,137
-272,613	-31,263	0,069	0,028
-271,599	518,130	-0,128	0,215
-270,584	23,247	0,085	0,050
-269,570	106,445	0,114	0,097
-268,555	52,345	-0,067	0,046
-267,540	800,000	-0,047	-0,122
-266,526	736,391	-0,015	0,029
-265,511	412,019	-0,022	-0,034
-264,497	-200,000	-0,024	-0,079
-263,482	-74,243	0,117	0,030
-262,467	-123,977	0,094	0,010
-261,453	6,796	0,067	0,035
-260,438	603,391	-0,054	0,097
-259,424	218,062	-0,115	-0,131
-258,409	329,409	-0,088	-0,121
-257,395	26,397	0,164	0,097
-256,380	284,198	0,089	0,114
-255,365	-200,000	-0,037	0,126
-254,351	800,000	0,030	0,081
-253,336	-55,148	-0,042	0,013
-252,322	800,000	0,038	0,119
-251,307	376,729	0,018	0,026
-250,292	283,612	0,075	0,096
-249,278	-127,592	0,043	-0,004
-248,263	800,000	-0,051	0,111
-247,249	124,229	0,112	0,100
-246,234	30,652	0,070	0,043
-245,219	-200,000	-0,015	-0,131
-244,205	162,697	-0,061	0,061
-243,190	-114,131	-0,103	0,014
-242,176	-138,456	0,142	0,011
-241,161	546,716	0,075	-0,129
-240,146	-45,963	0,092	0,032
-239,132	800,000	-0,039	-0,092
-238,117	644,975	-0,048	-0,088
-237,103	-200,000	-0,024	-0,274
-236,088	-200,000	-0,001	-0,091
-235,073	546,223	0,088	0,150
-234,059	709,614	0,083	0,156
-233,044	-171,291	0,131	-0,003
-232,030	77,727	-0,083	0,063
-231,015	536,033	0,038	-0,064
-230,000	220,024	-0,111	-0,127
-228,986	-200,000	0,005	0,079
-227,971	-200,000	0,034	0,111
-226,957	-47,278	0,233	-0,080
-225,942	471,934	-0,100	-0,161
-224,927	-152,140	0,101	0,005
-223,913	-130,592	-0,221	0,021
-222,898	-139,980	0,093	0,007
-221,884	-200,000	-0,018	0,063
-220,869	-24,931	0,029	-0,012
-219,855	-200,000	-0,010	-0,048
-218,840	590,713	-0,052	0,092
-217,825	-200,000	0,019	-0,121
-216,811	19,419	0,048	0,027
-215,796	-146,111	-0,075	-0,005
-214,782	5,167	0,097	0,051
-213,767	-61,416	-0,031	-0,009
-212,752	236,099	0,107	0,126
-211,738	77,518	-0,065	0,049
-210,723	-200,000	0,004	0,089
-209,709	-74,355	0,061	0,016
-208,694	-200,000	-0,031	-0,114
-207,679	-200,000	-0,006	0,066
-206,665	800,000	0,032	0,093
-205,650	29,821	0,173	0,105
-204,636	-200,000	0,013	0,070
-203,621	-200,000	0,013	-0,148
-202,606	-200,000	-0,006	0,041
-201,592	800,000	-0,023	-0,055
-200,577	295,361	0,087	-0,114
-199,563	-200,000	0,004	-0,090
-198,548	-87,829	0,164	0,035
-197,533	490,090	-0,050	-0,082
-196,519	-161,673	-0,150	0,005
-195,504	242,144	0,152	0,181
-194,490	800,000	-0,034	-0,095
-193,475	-200,000	0,024	-0,100
-192,460	564,581	0,044	-0,077
-191,446	800,000	-0,056	0,136
-190,431	-200,000	0,054	0,235
-189,417	-200,000	0,038	0,123
-188,402	279,380	0,034	0,044
-187,387	-171,992	-0,248	0,006
-186,373	-200,000	-0,010	-0,062
-185,358	609,841	-0,028	0,049
-184,344	-200,000	-0,024	0,096
-183,329	-200,000	0,005	-0,021
-182,315	24,082	-0,082	0,048
-181,300	326,949	-0,048	-0,066
-180,285	125,609	-0,155	-0,139
-179,271	-7,410	-0,178	0,086
-178,256	-50,903	-0,079	-0,026
-177,242	-200,000	0,013	-0,116
-176,227	-200,000	0,000	-0,057
-175,212	-107,041	0,071	-0,011
-174,198	295,265	0,022	0,029
-173,183	61,083	-0,034	-0,024
-172,169	69,754	-0,039	0,029
-171,154	679,875	0,034	-0,063
-170,139	800,000	0,040	-0,097
-169,125	20,591	0,113	0,065
-168,110	-111,762	0,112	0,016
-167,096	-200,000	0,006	0,109
-166,081	166,801	0,032	-0,032
-165,066	-161,384	-0,075	-0,003
-164,052	109,836	-0,090	0,077
-163,037	-33,962	0,055	0,021
-162,023	-72,440	0,066	0,017
-161,008	-200,000	-0,051	0,175
-159,993	162,309	0,083	0,083
-158,979	728,556	-0,016	-0,031
-157,964	800,000	0,024	-0,054
-156,950	-144,926	0,030	0,002
-155,935	25,975	0,131	-0,077
-154,920	800,000	0,038	0,110
-153,906	703,921	0,068	0,127
-152,891	92,844	0,060	0,048
-151,877	800,000	-0,015	-0,040
-150,862	18,983	0,038	0,022
-149,847	-51,515	-0,107	-0,035
-148,833	69,906	0,078	-0,057
-147,818	800,000	0,040	0,112
-146,804	800,000	0,082	0,182
-145,789	230,329	0,092	0,107
-144,775	35,105	0,020	-0,012
-143,760	-200,000	-0,022	-0,144
-142,745	-200,000	-0,033	-0,131
-141,731	-60,134	-0,103	0,031
-140,716	57,205	0,071	0,049
-139,702	64,545	-0,047	0,034
-138,687	128,057	0,096	-0,087
-137,672	-91,421	-0,050	-0,010
-136,658	-114,324	-0,067	-0,009
-135,643	79,049	0,067	-0,051
-134,629	-200,000	-0,003	0,031
-133,614	800,000	0,034	0,074
-132,599	-200,000	-0,021	0,097
-131,585	30,657	0,077	0,047
-130,570	474,578	-0,057	-0,092
-129,556	119,340	-0,108	-0,095
-128,541	303,662	-0,036	0,048
-127,526	53,925	0,012	-0,008
-126,512	698,624	-0,032	0,060
-125,497	86,892	-0,036	-0,028
-124,483	-200,000	0,061	0,195
-123,468	543,735	0,059	0,101
-122,453	-200,000	0,001	-0,090
-121,439	-200,000	-0,015	-0,053
-120,424	-200,000	-0,018	-0,083
-119,410	-200,000	0,034	0,166
-118,395	-200,000	0,069	0,220
-117,380	-105,688	0,078	-0,012
-116,366	-146,309	-0,071	-0,004
-115,351	-169,150	-0,057	0,001
-114,337	800,000	0,011	-0,022
-113,322	67,458	-0,065	0,047
-112,307	-62,279	0,150	0,044
-111,293	385,126	0,092	0,135
-110,278	598,622	0,058	0,102
-109,264	-61,667	0,124	-0,037
-108,249	137,571	-0,049	0,045
-107,234	2,694	0,030	-0,015
-106,220	800,000	0,039	-0,103
-105,205	-200,000	-0,007	0,129
-104,191	-119,658	0,050	0,006
-103,176	129,283	0,019	-0,017
-102,162	-200,000	0,003	-0,030
-101,147	800,000	0,034	0,071
-100,132	166,130	0,044	-0,044
-99,118	800,000	0,015	-0,040
-98,103	-10,699	-0,091	-0,042
-97,089	-16,207	0,112	0,050
-96,074	-104,124	0,194	0,032
-95,059	421,837	0,045	-0,068
-94,045	800,000	-0,032	-0,090
-93,030	669,364	0,075	0,138
-92,016	89,958	0,023	0,018
-91,001	-191,606	-0,104	0,001
-89,986	-200,000	-0,020	0,099
-88,972	37,682	0,134	-0,084
-87,957	232,030	0,045	0,053
-86,943	-200,000	-0,006	-0,028
-85,928	-200,000	-0,002	-0,082
-84,913	46,060	-0,123	-0,080
-83,899	77,872	0,056	0,043
-82,884	800,000	0,057	0,151
-81,870	16,414	0,049	-0,028
-80,855	130,045	0,067	-0,060
-79,840	-200,000	-0,008	-0,102
-78,826	800,000	0,024	-0,049
-77,811	-57,063	-0,153	-0,047
-76,797	800,000	0,047	-0,092
-75,782	25,017	0,049	0,029
-74,767	64,830	0,144	0,103
-73,753	-200,000	-0,014	0,097
-72,738	-200,000	-0,008	-0,087
-71,724	-200,000	-0,019	-0,141
-70,709	-200,000	0,014	0,063
-69,694	-75,072	-0,049	0,012
-68,680	-200,000	-0,011	0,056
-67,665	218,665	0,040	-0,045
-66,651	-90,651	0,085	-0,017
-65,636	221,121	-0,133	-0,151
-64,622	-112,338	-0,030	0,004
-63,607	32,927	0,103	-0,063
-62,592	-200,000	0,003	0,083
-61,578	800,000	0,028	-0,076
-60,563	-200,000	-0,009	0,075
-59,549	-200,000	-0,005	0,127
-58,534	-72,912	-1,536	-0,397
-57,519	416,985	-1,461	-2,216
-56,505	-200,000	-0,504	-4,458
-55,490	201,866	1,043	1,139
-54,476	800,000	4,707	11,077
-53,461	-200,000	18,508	296,168
-52,446	800,000	731,158	2255,980
-51,432	560,253	1647,161	2827,952
-50,417	78,775	1667,070	1261,178
-49,403	22,313	1540,237	888,528
-48,388	16,224	1463,216	814,586
-47,373	17,761	1452,976	816,256
-46,359	16,961	1443,224	806,920
-45,344	14,513	1438,653	792,641
-44,330	14,446	1436,617	791,166
-43,315	14,413	1434,995	790,084
-42,300	14,413	1433,446	789,199
-41,286	14,437	1432,333	788,672
-40,271	14,440	1430,932	787,884
-39,257	14,477	1429,605	787,295
-38,242	14,481	1428,217	786,522
-37,227	14,440	1427,223	785,747
-36,213	14,504	1425,871	785,273
-35,198	14,466	1424,800	784,475
-34,184	14,478	1423,929	784,021
-33,169	14,413	1422,392	782,837
-32,154	14,495	1421,343	782,614
-31,140	14,455	1420,187	781,758
-30,125	14,506	1418,914	781,264
-29,111	14,496	1417,879	780,620
-28,096	14,501	1416,718	779,970
-27,082	14,410	1415,644	778,921
-26,067	14,425	1414,477	778,317
-25,052	14,357	1413,699	777,538
-24,038	14,364	1412,624	776,952
-23,023	14,383	1411,623	776,460
-22,009	14,347	1410,750	775,779
-20,994	14,317	1409,710	775,038
-19,979	14,359	1408,946	774,781
-18,965	14,360	1407,666	774,052
-17,950	14,287	1406,854	773,235
-16,936	14,327	1406,071	772,961
-15,921	14,261	1404,954	772,007
-14,906	14,254	1403,963	771,399
-13,892	14,318	1402,865	771,061
-12,877	14,275	1402,222	770,481
-11,863	14,304	1401,237	770,043
-10,848	14,285	1400,391	769,459
-9,833	14,268	1399,558	768,893
-8,819	14,227	1398,666	768,179
-7,804	14,196	1397,725	767,490
-6,790	14,246	1396,537	767,039
-5,775	14,184	1395,609	766,209
-4,760	14,210	1394,711	765,809
-3,746	14,160	1394,058	765,185
-2,731	14,212	1392,961	764,795
-1,717	14,172	1392,193	764,158
-0,702	14,192	1390,355	763,210
0,313	18,082	1309,092	736,586
1,327	34,614	705,729	435,352
2,342	53,271	124,146	84,015
3,356	2,930	16,605	8,502
4,371	14,271	3,099	1,704
5,386	0,060	0,701	0,352
6,400	800,000	-0,090	0,190
7,415	3,003	-0,172	-0,088
8,429	17,508	-0,272	-0,153
9,444	134,937	-0,424	-0,389
10,459	-24,571	-0,220	-0,092
11,473	57,560	-0,367	-0,253
12,488	-34,817	-0,307	-0,118
13,502	199,674	-0,248	-0,269
14,517	59,473	-0,344	-0,239
15,531	628,072	-0,159	-0,285
16,546	-51,993	-0,315	-0,103
17,561	153,204	-0,237	-0,230
18,575	-87,675	-0,182	-0,038
19,590	68,001	-0,222	-0,160
20,604	63,872	-0,143	-0,101
21,619	42,130	-0,418	-0,267
22,634	148,628	-0,400	-0,382
23,648	202,135	-0,437	-0,476
24,663	186,062	-0,345	-0,362
25,677	368,970	-0,143	-0,205
26,692	-2,160	-0,330	-0,163
27,707	56,047	-0,334	-0,228
28,721	93,792	-0,344	-0,275
29,736	16,814	-0,358	-0,199
30,750	61,671	-0,404	-0,284
31,765	149,505	-0,429	-0,410
32,780	75,343	-0,375	-0,279
33,794	125,424	-0,272	-0,242
34,809	145,792	-0,286	-0,271
35,823	114,847	-0,289	-0,249
36,838	0,783	-0,419	-0,211
37,853	87,496	-0,318	-0,248
38,867	170,737	-0,287	-0,290
39,882	36,619	-0,526	-0,327
40,896	109,341	-0,284	-0,240
41,911	91,367	-0,316	-0,250
42,926	-2,479	-0,246	-0,121
43,940	116,778	-0,257	-0,222
44,955	106,500	-0,362	-0,303
45,969	93,460	-0,324	-0,258
46,984	288,145	-0,219	-0,280
47,999	77,969	-0,236	-0,177
49,013	207,016	-0,243	-0,268
50,028	38,011	-0,323	-0,202
51,042	-16,284	-0,290	-0,129
52,057	254,887	-0,333	-0,402
53,071	118,818	-0,374	-0,325
54,086	244,105	-0,272	-0,322
55,101	92,305	-0,433	-0,344
56,115	91,422	-0,288	-0,228
57,130	252,648	-0,261	-0,314
58,144	-60,134	-0,418	-0,125
59,159	294,530	-0,261	-0,337
60,174	22,099	-0,435	-0,249
61,188	55,660	-0,377	-0,257
62,203	170,744	-0,238	-0,240
63,217	57,699	-0,358	-0,246
64,232	-16,346	-0,320	-0,142
65,247	58,941	-0,310	-0,214
66,261	184,452	-0,391	-0,408
67,276	-37,237	-0,333	-0,125
68,290	-142,808	-0,420	-0,028
69,305	108,100	-0,308	-0,258
70,320	-20,931	-0,325	-0,139
71,334	-8,548	-0,262	-0,123
72,349	225,743	-0,304	-0,347
73,363	-29,963	-0,408	-0,162
74,378	134,710	-0,224	-0,204
75,393	102,410	-0,280	-0,230
76,407	205,834	-0,213	-0,233
77,422	9,120	-0,188	-0,099
78,436	-149,464	-0,349	-0,019
79,451	-46,518	-0,268	-0,092
80,466	479,133	-0,186	-0,297
81,480	233,058	-0,223	-0,258
82,495	110,475	-0,326	-0,275
83,509	100,731	-0,286	-0,234
84,524	800,000	-0,122	-0,252
85,539	201,593	-0,177	-0,192
86,553	115,524	-0,235	-0,202
87,568	84,551	-0,325	-0,249
88,582	58,205	-0,157	-0,108
89,597	69,184	-0,193	-0,139
90,611	-62,492	-0,362	-0,105
91,626	197,895	-0,215	-0,231
92,641	200,122	-0,178	-0,192
93,655	17,456	-0,311	-0,173
94,670	37,735	-0,241	-0,150
95,684	-4,813	-0,303	-0,146
96,699	-88,224	-0,325	-0,068
97,714	-60,276	-0,289	-0,086
98,728	88,334	-0,229	-0,178
99,743	108,436	-0,270	-0,226
100,757	196,584	-0,357	-0,382
101,772	-76,950	-0,368	-0,090
102,787	67,591	-0,267	-0,191
103,801	-68,043	-0,328	-0,089
104,816	161,532	-0,238	-0,233
105,830	57,526	-0,212	-0,145
106,845	23,093	-0,249	-0,143
107,860	163,802	-0,210	-0,207
108,874	217,663	-0,265	-0,296
109,889	58,295	-0,233	-0,160
110,903	280,629	-0,217	-0,273
111,918	-70,886	-0,361	-0,095
112,933	-60,060	-0,191	-0,057
113,947	23,268	-0,120	-0,069
114,962	-117,933	-0,195	-0,024
115,976	96,552	-0,249	-0,200
116,991	174,394	-0,275	-0,279
118,006	154,753	-0,312	-0,300
119,020	78,042	-0,309	-0,231
120,035	81,954	-0,115	-0,087
121,049	-77,905	-0,194	-0,047
122,064	172,696	-0,147	-0,149
123,079	52,218	-0,277	-0,184
124,093	10,764	-0,358	-0,191
125,108	-23,788	-0,290	-0,121
126,122	24,100	-0,185	-0,106
127,137	0,229	-0,272	-0,136
128,151	110,978	-0,232	-0,195
129,166	266,295	-0,101	-0,124
130,181	-80,482	-0,346	-0,080
131,195	256,540	-0,194	-0,234
132,210	-18,657	-0,204	-0,089
133,224	45,857	-0,311	-0,201
134,239	-17,131	-0,279	-0,123
135,254	157,539	-0,333	-0,322
136,268	301,304	-0,162	-0,210
137,283	-39,462	-0,329	-0,120
138,297	140,410	-0,238	-0,219
139,312	12,091	-0,375	-0,201
140,327	270,407	-0,208	-0,256
141,341	150,781	-0,187	-0,178
142,356	-64,324	-0,213	-0,060
143,370	-108,379	-0,285	-0,043
144,385	-40,752	-0,177	-0,064
145,400	-138,387	-0,289	0,022
146,414	-41,941	-0,377	-0,134
147,429	800,000	-0,113	-0,347
148,443	39,724	-0,203	-0,127
149,458	144,164	-0,223	-0,208
150,473	89,285	-0,222	-0,172
151,487	-175,215	-0,269	-0,005
152,502	28,186	-0,228	-0,134
153,516	-69,269	-0,292	-0,078
154,531	515,563	-0,156	-0,255
155,546	-0,464	-0,269	-0,133
156,560	716,480	-0,167	-0,310
157,575	-24,789	-0,267	-0,110
158,589	74,861	-0,178	-0,131
159,604	65,001	-0,365	-0,257
160,619	521,686	-0,196	-0,322
161,633	456,721	-0,185	-0,287
162,648	-6,575	-0,261	-0,123
163,662	800,000	-0,134	-0,340
164,677	63,116	-0,175	-0,122
165,692	173,748	-0,125	-0,126
166,706	44,518	-0,320	-0,204
167,721	85,604	-0,221	-0,170
168,735	122,882	-0,226	-0,198
169,750	-106,502	-0,133	-0,020
170,764	59,104	-0,233	-0,160
171,779	800,000	-0,099	-0,207
172,794	395,178	-0,170	-0,247
173,808	41,877	-0,201	-0,127
174,823	5,451	-0,233	-0,120
175,837	61,800	-0,276	-0,191
176,852	16,017	-0,292	-0,160
177,867	2,576	-0,298	-0,150
178,881	46,169	-0,294	-0,189
179,896	-141,853	-0,090	-0,006
180,910	47,360	-0,331	-0,215
181,925	145,077	-0,288	-0,269
182,940	136,981	-0,239	-0,218
183,954	-10,586	-0,219	-0,101
184,969	-189,950	-0,232	-0,002
185,983	-200,000	-0,017	-0,114
186,998	-138,899	-0,277	-0,021
188,013	92,620	-0,189	-0,149
189,027	635,854	-0,148	-0,263
190,042	242,863	-0,191	-0,223
191,056	-104,936	-0,243	-0,038
192,071	67,771	-0,214	-0,152
193,086	418,553	-0,224	-0,334
194,100	800,000	-0,087	-0,232
195,115	-17,224	-0,247	-0,108
196,129	153,400	-0,274	-0,261
197,144	288,325	-0,127	-0,160
198,159	370,151	-0,160	-0,226
199,173	247,901	-0,212	-0,250
200,188	336,180	-0,091	-0,124
201,202	31,395	-0,153	-0,091
202,217	-16,231	-0,180	-0,079
203,232	6,407	-0,299	-0,154
204,246	199,309	-0,277	-0,295
205,261	-200,000	-0,009	-0,178
206,275	377,573	-0,107	-0,152
207,290	-200,000	-0,043	-0,152
208,304	-72,526	-0,229	-0,058
209,319	-200,000	-0,070	-0,245
210,334	228,242	-0,137	-0,155
211,348	100,924	-0,258	-0,208
212,363	54,628	-0,260	-0,174
213,377	258,699	-0,122	-0,146
214,392	104,717	-0,161	-0,132
215,407	-36,711	-0,234	-0,087
216,421	102,877	-0,194	-0,158
217,436	103,480	-0,184	-0,150
218,450	800,000	-0,093	-0,191
219,465	203,195	-0,210	-0,225
220,480	461,125	-0,102	-0,159
221,494	150,814	-0,192	-0,181
222,509	75,290	-0,158	-0,116
223,523	16,436	-0,232	-0,127
224,538	-80,812	-0,078	-0,018
225,553	-13,711	-0,145	-0,065
226,567	110,176	-0,210	-0,175
227,582	201,741	-0,186	-0,199
228,596	-20,989	-0,169	-0,072
229,611	-200,000	-0,060	-0,186
230,626	-42,247	-0,188	-0,066
231,640	-127,891	-0,204	-0,020
232,655	287,889	-0,153	-0,193
233,669	44,625	-0,307	-0,196
234,684	331,891	-0,145	-0,195
235,699	-4,159	-0,111	-0,053
236,713	396,027	-0,081	-0,117
237,728	723,607	-0,167	-0,311
238,742	-27,569	-0,280	-0,112
239,757	128,640	-0,205	-0,181
240,772	94,311	-0,108	-0,085
241,786	102,180	-0,306	-0,247
242,801	-3,048	-0,254	-0,122
243,815	710,365	-0,028	-0,052
244,830	-110,979	-0,223	-0,031
245,844	-109,118	-0,193	-0,028
246,859	58,675	-0,147	-0,100
247,874	267,617	-0,223	-0,270
248,888	157,968	-0,229	-0,220
249,903	37,699	-0,210	-0,129
250,917	198,554	-0,151	-0,160
251,932	-130,701	-0,030	0,003
252,947	219,318	-0,210	-0,232
253,961	749,803	-0,119	-0,224
254,976	298,770	-0,190	-0,243
255,990	280,202	-0,166	-0,206
257,005	234,954	-0,152	-0,173
258,020	-170,789	-0,156	0,004
259,034	154,530	-0,073	-0,069
260,049	209,883	-0,177	-0,192
261,063	341,437	-0,092	-0,124
262,078	74,464	-0,125	-0,090
263,093	-200,000	-0,070	-0,229
264,107	800,000	-0,076	-0,150
265,122	575,158	-0,098	-0,167
266,136	34,134	-0,192	-0,116
267,151	156,969	-0,141	-0,135
268,166	148,683	-0,202	-0,189
269,180	80,419	-0,156	-0,116
270,195	-19,398	-0,216	-0,092
271,209	151,425	-0,106	-0,100
272,224	131,907	-0,125	-0,112
273,239	-200,000	-0,031	-0,136
274,253	696,014	-0,113	-0,206
275,268	233,795	-0,108	-0,123
276,282	290,663	-0,189	-0,238
277,297	23,419	-0,214	-0,121
278,312	238,620	-0,168	-0,193
279,326	169,391	-0,135	-0,133
280,341	255,660	-0,017	-0,020
281,355	800,000	-0,033	-0,086
282,370	800,000	-0,082	-0,205
283,384	411,989	-0,074	-0,109
284,399	-81,450	-0,300	0,068
285,414	125,741	-0,112	-0,098
286,428	-9,587	-0,214	-0,098
287,443	214,757	-0,147	-0,161
288,457	-52,526	-0,163	-0,052
289,472	115,901	-0,073	-0,062
290,487	-60,719	-0,222	-0,065
291,501	60,476	-0,234	-0,160
292,516	42,057	-0,143	-0,089
293,530	-200,000	-0,036	-0,137
294,545	413,174	-0,080	-0,117
295,560	-97,508	-0,094	0,017
296,574	78,271	-0,076	-0,056
297,589	30,480	-0,075	-0,044
298,603	-112,390	-0,266	-0,036
299,618	341,829	-0,124	-0,167
300,633	154,326	-0,149	-0,141
301,647	-200,000	-0,029	-0,163
302,662	-113,722	-0,109	0,015
303,676	17,545	-0,110	0,060
304,691	-76,536	-0,164	-0,039
305,706	-21,760	-0,157	-0,065
306,720	18,769	-0,207	-0,114
307,735	-47,996	-0,175	-0,058
308,749	-176,251	-0,082	-0,001
309,764	-77,166	-0,135	-0,032
310,779	-98,190	-0,158	0,028
311,793	-18,057	-0,332	-0,143
312,808	754,117	-0,123	-0,230
313,822	141,529	-0,081	-0,074
314,837	434,980	-0,108	-0,162
315,852	-69,140	-0,155	-0,041
316,866	-62,017	-0,113	0,032
317,881	155,697	-0,055	-0,052
318,895	-38,026	-0,269	0,098
319,910	-24,052	-0,231	-0,094
320,925	32,389	-0,235	-0,139
321,939	-200,000	-0,075	-0,244
322,954	79,272	-0,109	-0,080
323,968	-84,580	-0,226	-0,049
324,983	-75,316	-0,057	0,014
325,997	-103,321	-0,180	-0,029
327,012	285,611	-0,111	-0,138
328,027	50,220	-0,146	-0,095
329,041	215,496	-0,106	-0,116
330,056	-84,346	-0,157	-0,034
331,070	6,253	-0,101	-0,051
332,085	106,684	-0,137	-0,112
333,100	23,928	-0,175	-0,099
334,114	800,000	-0,129	-0,305
335,129	134,758	-0,090	-0,080
336,143	225,698	-0,157	-0,175
337,158	44,117	-0,050	-0,031
338,173	-68,133	-0,102	-0,027
339,187	549,186	-0,025	0,041
340,202	-166,239	-0,140	0,004
341,216	-80,839	-0,108	0,024
342,231	116,150	-0,138	-0,116
343,246	125,534	-0,139	-0,120
344,260	85,553	-0,168	-0,127
345,275	198,374	-0,194	-0,204
346,289	-7,074	-0,117	-0,054
347,304	-110,465	-0,086	0,012
348,319	-131,650	-0,180	-0,016
349,333	-12,438	-0,235	-0,105
350,348	16,538	-0,204	-0,110
351,362	-57,662	-0,158	-0,047
352,377	800,000	-0,042	-0,101
353,392	-200,000	-0,005	-0,033
354,406	599,618	-0,073	-0,125
355,421	210,108	1313,455	1415,466
356,435	161,733	1474,036	1415,962
