DTS Sentinel unit serial number:	SN410029Multiplexer serial number:	ORYXHardware model number:	OX2-SRSoftware version number:	ORYX F/W v4,00 Oryx Data Collector v3.7.2.0data status	okinstallation	B3 Nyhavnadifferential loss correction	single-endedforward channel	channel 1reverse channel	N/Adate	2023/12/02time	06:52:30forward acquisition time	300,00reverse acquisition time	0,00gamma	499,1914k internal	0,3194k external	0,3194temperature offset calibration	1,0000default loss term (dB/km)	0,3820temperature slope calibration	1,0000multiplexer offset coefficient	1,0000multiplexer slope coefficient	1,0000fibre end	0,00T internal ref (°C)	15,82T ext. ref 1 (°C)	0,50T ext. ref 2 (°C)	0,47length (m)	temperature (°C)	Stokes	anti-Stokes-744,400	123,231	-0,246	-0,225
-743,385	-200,000	-0,013	0,266
-742,371	400,642	-0,132	-0,202
-741,356	-200,000	0,113	0,624
-740,342	-10,284	-0,216	-0,104
-739,327	-200,000	0,000	0,161
-738,312	458,432	-0,224	-0,364
-737,298	-200,000	0,044	0,204
-736,283	308,995	-0,208	-0,283
-735,269	731,681	0,141	0,275
-734,254	800,000	-0,092	-0,221
-733,239	800,000	-0,089	0,264
-732,225	197,721	-0,189	-0,210
-731,210	-47,861	0,056	0,020
-730,196	-108,744	-0,165	-0,026
-729,181	116,863	-0,058	-0,052
-728,167	800,000	-0,034	-0,088
-727,152	800,000	-0,035	-0,104
-726,137	409,929	-0,019	0,030
-725,123	459,063	-0,035	-0,057
-724,108	-68,226	-0,106	-0,030
-723,094	-69,734	-0,094	-0,026
-722,079	-200,000	-0,020	-0,137
-721,064	-200,000	0,005	-0,079
-720,050	290,475	0,025	0,033
-719,035	245,674	0,036	-0,045
-718,021	-146,584	-0,129	-0,008
-717,006	181,636	-0,095	-0,101
-715,991	-90,045	-0,156	-0,033
-714,977	800,000	0,052	-0,107
-713,962	-14,215	-0,165	-0,077
-712,948	265,442	-0,011	0,014
-711,933	-200,000	0,007	-0,051
-710,918	-200,000	-0,009	0,050
-709,904	293,443	-0,068	-0,091
-708,889	489,674	0,010	0,017
-707,875	74,700	0,050	0,039
-706,860	-200,000	0,017	-0,133
-705,845	519,687	0,043	-0,074
-704,831	-200,000	-0,001	-0,043
-703,816	800,000	-0,016	0,038
-702,802	106,417	-0,055	0,047
-701,787	202,538	0,015	-0,017
-700,772	1,409	-0,118	0,062
-699,758	569,427	-0,025	-0,045
-698,743	56,043	0,173	0,122
-697,729	537,834	-0,104	0,181
-696,714	-131,735	-0,146	-0,014
-695,699	42,596	-0,173	-0,114
-694,685	216,289	0,040	0,046
-693,670	-200,000	-0,007	-0,208
-692,656	800,000	0,044	0,091
-691,641	-200,000	0,009	-0,282
-690,627	57,668	-0,043	0,031
-689,612	-41,460	0,002	0,001
-688,597	-200,000	-0,010	-0,062
-687,583	405,961	-0,051	-0,078
-686,568	28,574	-0,099	-0,061
-685,554	-128,209	-0,199	0,020
-684,539	149,265	-0,112	0,110
-683,524	7,624	0,013	0,007
-682,510	-200,000	0,000	0,063
-681,495	800,000	0,068	0,150
-680,481	-78,454	-0,183	0,045
-679,466	800,000	-0,024	0,053
-678,451	800,000	-0,043	0,116
-677,437	4,698	0,046	-0,025
-676,422	746,760	-0,049	-0,097
-675,408	-138,824	-0,066	0,005
-674,393	-200,000	0,013	-0,068
-673,378	-200,000	-0,021	-0,124
-672,364	-138,829	-0,039	-0,003
-671,349	165,317	-0,138	-0,142
-670,335	473,848	0,078	-0,129
-669,320	10,912	0,052	0,029
-668,305	-90,482	0,163	0,034
-667,291	440,887	-0,067	0,107
-666,276	-19,321	0,030	-0,013
-665,262	19,793	0,042	-0,025
-664,247	203,730	0,057	-0,064
-663,232	800,000	-0,003	-0,008
-662,218	-25,107	0,123	0,053
-661,203	-200,000	0,001	-0,056
-660,189	301,093	-0,089	-0,119
-659,174	223,175	0,071	-0,083
-658,159	46,242	-0,037	0,025
-657,145	36,968	-0,060	-0,038
-656,130	126,458	0,061	-0,056
-655,116	243,468	-0,057	0,070
-654,101	543,028	0,092	0,160
-653,086	334,113	0,074	0,105
-652,072	344,133	-0,001	-0,001
-651,057	535,977	0,038	-0,065
-650,043	-1,627	-0,155	-0,079
-649,028	141,328	0,025	0,024
-648,014	742,839	-0,045	0,089
-646,999	18,377	0,031	0,018
-645,984	800,000	-0,031	0,078
-644,970	246,282	-0,055	-0,067
-643,955	-200,000	-0,030	-0,160
-642,941	161,659	-0,022	0,022
-641,926	-86,654	0,103	-0,023
-640,911	-200,000	0,011	0,056
-639,897	79,752	-0,066	-0,052
-638,882	261,617	-0,079	-0,099
-637,868	-110,627	0,066	-0,010
-636,853	28,732	0,033	0,020
-635,838	139,104	-0,104	0,100
-634,824	-200,000	0,021	0,087
-633,809	-167,217	0,019	-0,001
-632,795	800,000	-0,029	0,070
-631,780	4,879	-0,016	-0,009
-630,765	-83,100	-0,202	-0,047
-629,751	156,326	-0,033	-0,033
-628,736	63,378	0,118	-0,086
-627,722	465,181	0,057	-0,093
-626,707	-43,628	0,130	-0,047
-625,692	147,056	-0,113	0,111
-624,678	32,821	0,084	0,052
-623,663	-3,455	0,030	-0,015
-622,649	144,412	-0,036	-0,035
-621,634	377,184	0,069	-0,103
-620,619	-200,000	0,001	-0,005
-619,605	-200,000	-0,023	-0,112
-618,590	202,363	0,103	0,115
-617,576	-131,461	0,104	-0,010
-616,561	104,714	0,094	0,080
-615,546	124,555	-0,023	0,021
-614,532	-42,862	-0,134	0,049
-613,517	-200,000	-0,066	-0,229
-612,503	-200,000	0,008	0,061
-611,488	495,952	0,045	-0,075
-610,474	800,000	0,033	0,080
-609,459	-200,000	0,018	0,151
-608,444	-200,000	0,001	-0,144
-607,430	-168,174	0,059	-0,002
-606,415	721,901	-0,016	0,030
-605,401	-150,052	0,076	-0,004
-604,386	-200,000	0,008	0,027
-603,371	800,000	0,060	0,180
-602,357	-66,381	-0,104	-0,030
-601,342	-200,000	-0,010	-0,084
-600,328	-200,000	0,046	-0,157
-599,313	-200,000	0,000	-0,083
-598,298	609,742	-0,054	-0,099
-597,284	667,975	-0,013	0,024
-596,269	-107,207	-0,167	0,026
-595,255	0,495	-0,072	-0,037
-594,240	56,295	-0,064	0,045
-593,225	5,795	0,061	-0,033
-592,211	-200,000	0,024	-0,124
-591,196	800,000	-0,023	-0,065
-590,182	109,965	0,056	-0,048
-589,167	111,471	0,066	0,058
-588,152	-200,000	-0,006	0,052
-587,138	570,670	-0,003	-0,005
-586,123	344,729	-0,041	0,059
-585,109	-118,377	0,049	-0,006
-584,094	-68,182	-0,126	-0,035
-583,079	-111,530	-0,041	0,006
-582,065	131,316	0,057	-0,053
-581,050	354,264	0,060	-0,087
-580,036	-160,090	-0,112	-0,004
-579,021	-200,000	-0,004	-0,033
-578,006	800,000	-0,037	0,088
-576,992	35,022	-0,070	-0,044
-575,977	425,439	-0,034	0,053
-574,963	5,140	-0,135	0,072
-573,948	800,000	-0,011	0,036
-572,934	800,000	-0,035	0,072
-571,919	312,402	-0,078	-0,106
-570,904	-123,871	0,114	0,013
-569,890	58,527	0,018	0,013
-568,875	-103,865	-0,094	-0,016
-567,861	-96,012	0,046	0,009
-566,846	-85,014	0,198	0,045
-565,831	-93,576	0,083	0,017
-564,817	493,088	0,052	-0,087
-563,802	800,000	-0,036	-0,081
-562,788	32,645	0,078	-0,049
-561,773	72,155	0,066	-0,050
-560,758	40,160	0,028	-0,018
-559,744	-22,307	0,029	-0,013
-558,729	800,000	0,072	0,160
-557,715	714,299	-0,044	0,086
-556,700	-200,000	0,008	-0,032
-555,685	156,865	0,035	0,035
-554,671	800,000	0,039	-0,079
-553,656	143,030	0,120	-0,115
-552,642	-148,000	0,090	-0,005
-551,627	-200,000	-0,017	-0,106
-550,612	45,845	-0,098	-0,066
-549,598	-200,000	-0,003	-0,085
-548,583	-200,000	0,001	-0,080
-547,569	800,000	-0,051	-0,142
-546,554	-200,000	-0,009	0,107
-545,539	-19,851	0,027	-0,012
-544,525	-35,070	0,156	-0,061
-543,510	1,874	-0,112	0,058
-542,496	204,556	0,057	-0,064
-541,481	18,545	-0,035	0,020
-540,466	-200,000	-0,022	0,080
-539,452	-196,171	-0,107	0,001
-538,437	-0,621	0,068	0,035
-537,423	-116,564	-0,020	0,003
-536,408	72,593	-0,062	0,047
-535,393	-200,000	-0,006	-0,067
-534,379	-200,000	-0,014	0,097
-533,364	586,490	0,007	0,012
-532,350	-200,000	-0,034	-0,120
-531,335	-39,926	0,062	0,023
-530,321	-200,000	0,013	0,089
-529,306	-200,000	0,001	0,081
-528,291	109,444	-0,151	-0,131
-527,277	74,468	-0,080	0,061
-526,262	-200,000	-0,023	-0,077
-525,248	-84,916	-0,037	0,008
-524,233	-51,006	-0,037	0,013
-523,218	-51,490	0,190	-0,064
-522,204	392,364	-0,053	-0,079
-521,189	114,520	0,062	0,055
-520,175	354,501	0,032	-0,046
-519,160	-44,824	-0,094	-0,034
-518,145	-125,560	-0,093	-0,010
-517,131	400,277	0,075	0,114
-516,116	-200,000	0,000	0,023
-515,102	-200,000	0,025	0,125
-514,087	-89,834	-0,109	0,023
-513,072	-125,251	-0,030	0,003
-512,058	302,248	-0,075	0,100
-511,043	567,809	-0,041	0,073
-510,029	-26,399	0,062	-0,026
-509,014	97,109	0,142	-0,118
-507,999	-66,128	0,148	0,042
-506,985	36,269	0,064	-0,041
-505,970	-126,816	-0,041	-0,004
-504,956	-200,000	-0,002	-0,051
-503,941	413,284	-0,041	0,064
-502,926	800,000	-0,064	0,143
-501,912	430,634	0,055	0,086
-500,897	800,000	-0,026	-0,058
-499,883	116,670	-0,081	-0,072
-498,868	-200,000	-0,010	-0,063
-497,853	105,315	-0,022	0,019
-496,839	-200,000	0,037	-0,139
-495,824	-200,000	-0,028	-0,100
-494,810	-200,000	-0,010	0,047
-493,795	-200,000	-0,013	-0,051
-492,781	100,270	-0,038	0,031
-491,766	-125,205	-0,017	0,002
-490,751	-200,000	0,001	0,052
-489,737	573,913	0,019	-0,033
-488,722	84,610	0,080	0,063
-487,708	-0,154	0,092	0,047
-486,693	119,583	0,084	0,075
-485,678	-49,952	-0,102	-0,035
-484,664	-103,734	-0,041	0,007
-483,649	-10,634	-0,033	0,016
-482,635	800,000	-0,028	0,090
-481,620	800,000	0,061	0,147
-480,605	17,063	0,095	0,054
-479,591	-200,000	0,019	-0,082
-478,576	4,998	-0,089	0,047
-477,562	-200,000	0,006	-0,117
-476,547	-31,682	-0,060	-0,024
-475,532	117,754	-0,135	-0,119
-474,518	-167,121	0,057	-0,002
-473,503	-107,557	0,066	0,010
-472,489	-200,000	0,011	0,151
-471,474	171,456	0,092	-0,095
-470,459	388,179	-0,081	-0,121
-469,445	800,000	0,052	-0,132
-468,430	-129,580	-0,190	-0,019
-467,416	-200,000	0,002	-0,014
-466,401	-200,000	-0,012	0,088
-465,386	57,103	0,050	0,035
-464,372	696,636	-0,024	0,046
-463,357	569,020	-0,033	0,059
-462,343	83,282	0,021	0,017
-461,328	800,000	0,038	0,098
-460,313	-110,444	0,018	0,003
-459,299	373,747	0,064	-0,094
-458,284	800,000	0,018	0,045
-457,270	800,000	-0,052	0,118
-456,255	800,000	-0,014	0,038
-455,241	-200,000	-0,011	0,071
-454,226	86,844	-0,020	0,016
-453,211	144,899	-0,071	0,068
-452,197	-113,976	-0,081	-0,011
-451,182	800,000	0,065	0,140
-450,168	800,000	-0,053	0,158
-449,153	800,000	-0,047	0,109
-448,138	-53,627	-0,234	-0,077
-447,124	1,459	0,051	-0,027
-446,109	-200,000	0,010	0,081
-445,095	-40,006	0,074	-0,028
-444,080	96,811	0,126	0,104
-443,065	166,275	-0,139	0,142
-442,051	800,000	-0,025	0,064
-441,036	83,162	0,120	0,094
-440,022	156,590	-0,098	-0,098
-439,007	800,000	0,033	-0,068
-437,992	-200,000	0,006	0,029
-436,978	-11,468	0,196	0,093
-435,963	-138,084	-0,100	0,008
-434,949	40,148	-0,054	0,035
-433,934	-200,000	0,004	-0,073
-432,919	0,398	-0,204	-0,105
-431,905	-57,081	-0,070	0,022
-430,890	-49,128	0,171	0,058
-429,876	-79,818	0,192	0,046
-428,861	-130,911	-0,063	0,006
-427,846	35,797	0,079	0,050
-426,832	-200,000	0,000	-0,024
-425,817	-200,000	-0,019	-0,059
-424,803	727,631	-0,043	0,084
-423,788	108,685	0,050	-0,043
-422,773	336,930	0,066	0,093
-421,759	-147,918	-0,026	-0,002
-420,744	-200,000	0,023	0,076
-419,730	800,000	0,007	-0,017
-418,715	148,444	-0,119	-0,116
-417,701	458,541	-0,073	-0,117
-416,686	65,351	-0,034	0,025
-415,671	669,904	0,032	0,060
-414,657	-47,883	-0,055	0,019
-413,642	140,376	0,054	0,051
-412,628	-144,280	-0,018	0,001
-411,613	-200,000	0,035	-0,142
-410,598	560,245	-0,034	0,059
-409,584	164,496	0,082	-0,083
-408,569	69,671	0,128	0,095
-407,555	0,959	-0,058	-0,030
-406,540	-20,304	0,062	-0,028
-405,525	54,935	-0,085	-0,059
-404,511	-200,000	0,031	-0,147
-403,496	800,000	0,032	0,088
-402,482	-88,579	0,073	-0,016
-401,467	-115,982	-0,093	-0,012
-400,452	28,242	0,161	0,098
-399,438	238,257	0,116	0,138
-398,423	-118,412	-0,118	-0,015
-397,409	-200,000	-0,008	-0,046
-396,394	177,287	-0,136	-0,143
-395,379	-141,939	0,148	-0,010
-394,365	-147,550	-0,040	0,002
-393,350	-200,000	-0,005	0,036
-392,336	723,931	0,030	0,058
-391,321	224,111	-0,020	0,023
-390,306	800,000	-0,036	-0,073
-389,292	114,199	-0,017	-0,014
-388,277	776,497	0,063	-0,123
-387,263	309,672	-0,030	-0,041
-386,248	93,374	0,041	-0,033
-385,233	-200,000	0,018	-0,068
-384,219	309,435	-0,119	-0,160
-383,204	151,113	0,067	-0,066
-382,190	64,390	0,088	-0,064
-381,175	173,770	0,161	0,167
-380,160	-175,481	0,140	0,003
-379,146	-79,235	0,021	0,005
-378,131	161,071	-0,102	-0,102
-377,117	72,374	0,100	-0,075
-376,102	-8,803	0,103	-0,050
-375,088	-28,103	-0,177	0,073
-374,073	9,835	0,126	-0,069
-373,058	-200,000	-0,022	0,118
-372,044	222,086	0,064	0,074
-371,029	800,000	0,007	-0,018
-370,015	-90,121	0,053	-0,011
-369,000	-55,894	0,037	-0,012
-367,985	-200,000	0,017	-0,056
-366,971	800,000	0,020	0,055
-365,956	104,303	-0,075	-0,063
-364,942	17,898	0,038	-0,022
-363,927	800,000	0,057	0,178
-362,912	-19,623	0,097	-0,043
-361,898	601,382	0,052	0,093
-360,883	-37,751	-0,074	-0,028
-359,869	-11,977	-0,045	0,021
-358,854	69,030	0,123	-0,091
-357,839	-200,000	0,007	-0,023
-356,825	800,000	0,041	0,118
-355,810	-200,000	0,031	0,148
-354,796	190,917	-0,096	0,104
-353,781	-38,203	0,032	-0,012
-352,766	800,000	-0,013	-0,032
-351,752	120,312	-0,080	-0,071
-350,737	57,435	0,077	-0,054
-349,723	-200,000	0,010	0,053
-348,708	-196,881	-0,052	-0,000
-347,693	-23,086	0,118	-0,051
-346,679	-200,000	0,004	-0,024
-345,664	41,369	-0,124	0,080
-344,650	452,543	0,023	-0,037
-343,635	-48,266	-0,046	-0,016
-342,620	-200,000	-0,015	0,070
-341,606	800,000	0,032	0,101
-340,591	173,281	0,026	-0,027
-339,577	-200,000	0,022	-0,072
-338,562	800,000	0,017	-0,038
-337,548	188,462	-0,013	-0,014
-336,533	-124,151	-0,056	0,006
-335,518	-200,000	-0,003	0,008
-334,504	634,521	0,077	-0,141
-333,489	-200,000	0,013	0,078
-332,475	-116,899	0,099	0,013
-331,460	3,904	-0,119	-0,062
-330,445	-32,132	-0,189	0,075
-329,431	800,000	0,043	0,099
-328,416	2,946	0,174	0,090
-327,402	-200,000	0,009	0,062
-326,387	278,945	0,057	-0,073
-325,372	-200,000	-0,038	-0,132
-324,358	12,951	0,106	-0,058
-323,343	-93,579	-0,131	-0,026
-322,329	-187,627	-0,049	-0,000
-321,314	358,121	-0,027	0,038
-320,299	-200,000	0,016	0,071
-319,285	98,425	-0,025	0,021
-318,270	800,000	-0,011	0,026
-317,256	1,693	-0,078	0,040
-316,241	-200,000	0,001	0,115
-315,226	-200,000	0,013	0,104
-314,212	-16,584	-0,067	-0,030
-313,197	22,595	-0,054	0,032
-312,183	-57,068	-0,022	-0,007
-311,168	800,000	0,065	0,152
-310,153	800,000	0,045	-0,121
-309,139	190,988	-0,100	-0,108
-308,124	-200,000	-0,032	0,112
-307,110	-15,758	-0,028	-0,013
-306,095	-200,000	0,022	-0,137
-305,080	76,007	0,056	-0,042
-304,066	358,392	-0,045	0,064
-303,051	120,828	0,091	0,081
-302,037	-111,296	-0,145	-0,021
-301,022	662,433	0,043	0,079
-300,008	-28,060	0,096	0,040
-298,993	388,346	-0,064	-0,095
-297,978	532,435	-0,042	0,072
-296,964	-86,225	-0,165	-0,036
-295,949	-15,895	-0,061	-0,028
-294,935	-43,036	0,069	-0,025
-293,920	530,823	0,050	0,085
-292,905	-42,270	-0,021	-0,008
-291,891	-84,053	0,150	0,034
-290,876	657,750	0,081	0,150
-289,862	-200,000	0,004	0,095
-288,847	800,000	-0,055	-0,121
-287,832	-200,000	0,025	-0,092
-286,818	-200,000	0,002	0,146
-285,803	-200,000	0,012	-0,155
-284,789	-200,000	-0,012	-0,049
-283,774	-141,736	-0,147	-0,010
-282,759	-130,538	-0,061	0,006
-281,745	800,000	-0,039	-0,113
-280,730	-200,000	0,024	-0,217
-279,716	-200,000	-0,007	0,088
-278,701	-93,089	0,108	0,021
-277,686	-88,479	-0,053	-0,011
-276,672	-200,000	-0,014	0,110
-275,657	365,512	0,100	0,145
-274,643	395,062	0,022	-0,033
-273,628	800,000	-0,046	-0,137
-272,613	294,610	-0,064	-0,083
-271,599	-200,000	0,005	-0,068
-270,584	-6,337	-0,085	-0,041
-269,570	92,529	0,066	-0,053
-268,555	330,563	-0,058	0,081
-267,540	-200,000	-0,004	-0,216
-266,526	-111,363	-0,055	-0,008
-265,511	-19,018	-0,027	0,012
-264,497	75,110	0,179	0,135
-263,482	432,904	0,050	0,077
-262,467	213,625	0,045	0,051
-261,453	341,056	-0,067	0,094
-260,438	800,000	-0,050	0,111
-259,424	108,534	-0,055	0,047
-258,409	-200,000	0,002	-0,008
-257,395	306,773	-0,020	-0,027
-256,380	-200,000	0,033	0,115
-255,365	-200,000	-0,008	0,087
-254,351	-96,299	-0,026	-0,005
-253,336	-200,000	0,031	0,138
-252,322	-200,000	-0,027	-0,095
-251,307	-200,000	-0,022	-0,185
-250,292	386,338	-0,078	0,116
-249,278	-200,000	-0,020	0,082
-248,263	-121,647	-0,077	-0,009
-247,249	88,730	-0,085	-0,068
-246,234	679,873	0,037	0,070
-245,219	800,000	-0,009	-0,020
-244,205	-117,836	-0,047	0,006
-243,190	64,192	-0,035	0,025
-242,176	86,778	-0,021	-0,017
-241,161	-134,069	0,127	0,011
-240,146	82,984	0,085	0,066
-239,132	-12,473	-0,118	0,055
-238,117	800,000	0,004	-0,009
-237,103	771,112	0,023	0,045
-236,088	82,444	-0,133	-0,103
-235,073	-44,724	0,143	0,051
-234,059	800,000	-0,047	0,130
-233,044	117,580	-0,018	0,016
-232,030	-200,000	0,011	-0,052
-231,015	-180,703	-0,054	-0,001
-230,000	433,468	-0,104	-0,162
-228,986	35,178	0,173	-0,108
-227,971	-117,441	0,056	-0,007
-226,957	800,000	0,009	0,027
-225,942	-200,000	0,022	0,072
-224,927	-200,000	0,002	0,079
-223,913	144,080	-0,064	0,061
-222,898	251,495	0,088	-0,107
-221,884	-200,000	-0,023	-0,157
-220,869	-200,000	0,012	0,067
-219,855	-200,000	0,007	-0,047
-218,840	-56,288	0,186	0,059
-217,825	-123,322	-0,115	-0,013
-216,811	10,183	-0,042	-0,023
-215,796	161,175	-0,034	-0,033
-214,782	-146,398	0,047	0,003
-213,767	491,833	0,046	0,075
-212,752	-200,000	-0,004	0,024
-211,738	768,234	-0,081	0,158
-210,723	0,488	0,102	0,052
-209,709	87,108	0,044	-0,034
-208,694	-200,000	0,022	-0,104
-207,679	-200,000	-0,003	0,094
-206,665	-194,177	0,023	-0,000
-205,650	-126,967	0,120	0,012
-204,636	-172,838	0,110	-0,002
-203,621	56,795	-0,047	0,032
-202,606	-200,000	0,001	-0,038
-201,592	-200,000	-0,045	-0,166
-200,577	-84,977	-0,069	0,015
-199,563	367,517	0,009	-0,013
-198,548	-68,045	-0,047	-0,013
-197,533	-200,000	0,010	-0,137
-196,519	-200,000	0,026	-0,120
-195,504	-16,603	-0,089	0,040
-194,490	287,547	-0,085	-0,110
-193,475	6,223	-0,098	0,052
-192,460	110,522	-0,051	-0,044
-191,446	-24,421	0,147	-0,062
-190,431	82,118	-0,060	0,046
-189,417	126,989	-0,082	0,074
-188,402	-117,208	0,117	0,015
-187,387	143,974	-0,074	-0,071
-186,373	461,070	-0,034	-0,054
-185,358	-200,000	-0,028	-0,104
-184,344	18,561	-0,063	0,036
-183,329	800,000	-0,019	-0,052
-182,315	-168,384	0,041	-0,001
-181,300	551,506	0,068	0,117
-180,285	16,200	-0,010	0,006
-179,271	-199,850	-0,089	0,000
-178,256	-142,418	0,094	-0,006
-177,242	-200,000	-0,000	0,082
-176,227	-200,000	-0,090	0,293
-175,212	800,000	0,048	0,111
-174,198	5,463	0,101	0,053
-173,183	289,658	-0,021	-0,027
-172,169	144,540	-0,112	-0,107
-171,154	39,838	-0,119	-0,076
-170,139	659,909	-0,087	-0,160
-169,125	35,249	0,101	0,063
-168,110	800,000	0,047	-0,095
-167,096	-38,112	0,060	0,022
-166,081	-128,944	-0,098	-0,010
-165,066	800,000	0,058	-0,138
-164,052	173,500	-0,070	-0,072
-163,037	419,317	0,089	0,136
-162,023	-34,188	-0,135	-0,053
-161,008	-200,000	0,031	-0,110
-159,993	800,000	0,016	-0,048
-158,979	228,719	0,031	-0,036
-157,964	-41,071	-0,108	0,040
-156,950	-190,301	0,069	0,001
-155,935	-108,953	0,116	-0,017
-154,920	800,000	-0,035	0,086
-153,906	366,573	0,066	-0,096
-152,891	-200,000	0,024	-0,085
-151,877	13,439	-0,069	0,038
-150,862	-200,000	-0,027	0,108
-149,847	-200,000	0,008	0,055
-148,833	-200,000	-0,001	0,097
-147,818	177,402	-0,060	0,063
-146,804	-200,000	0,008	0,032
-145,789	-19,318	-0,031	-0,014
-144,775	-200,000	0,016	0,063
-143,760	-200,000	-0,015	-0,068
-142,745	800,000	-0,021	0,055
-141,731	117,469	-0,119	-0,104
-140,716	-200,000	0,014	0,065
-139,702	496,857	-0,074	-0,122
-138,687	120,136	0,047	-0,041
-137,672	166,200	0,075	0,075
-136,658	90,296	0,065	0,052
-135,643	-200,000	0,008	-0,070
-134,629	-95,093	-0,096	-0,018
-133,614	13,418	0,105	-0,058
-132,599	235,999	0,078	0,092
-131,585	-97,473	0,051	0,009
-130,570	-32,619	-0,071	0,028
-129,556	-161,525	-0,148	-0,005
-128,541	673,534	-0,045	-0,084
-127,526	-102,473	-0,123	0,021
-126,512	66,817	-0,085	0,061
-125,497	800,000	0,007	0,022
-124,483	-11,416	0,082	0,038
-123,468	-200,000	-0,029	0,100
-122,453	107,403	-0,103	-0,087
-121,439	-113,146	0,038	-0,005
-120,424	800,000	0,027	0,070
-119,410	130,032	-0,074	0,068
-118,395	-113,607	0,147	0,020
-117,380	-56,643	-0,106	-0,033
-116,366	-200,000	0,014	-0,061
-115,351	-200,000	0,006	-0,120
-114,337	-85,094	0,169	0,037
-113,322	-112,615	-0,096	-0,013
-112,307	711,440	0,032	-0,060
-111,293	-123,125	-0,153	0,017
-110,278	-49,899	0,131	0,044
-109,264	800,000	0,006	-0,013
-108,249	384,063	-0,027	0,040
-107,234	298,350	0,069	-0,091
-106,220	-200,000	-0,053	-0,168
-105,205	431,339	0,042	-0,065
-104,191	523,205	-0,042	-0,070
-103,176	-0,402	0,145	0,073
-102,162	800,000	0,051	0,115
-101,147	-100,511	0,037	-0,006
-100,132	185,056	0,112	-0,118
-99,118	-200,000	0,003	0,020
-98,103	-200,000	-0,011	-0,175
-97,089	800,000	-0,005	-0,011
-96,074	4,857	-0,082	-0,043
-95,059	-138,373	0,046	0,004
-94,045	-55,352	-0,119	0,038
-93,030	531,409	0,043	-0,073
-92,016	-200,000	0,027	-0,098
-91,001	-200,000	-0,026	-0,104
-89,986	800,000	0,019	-0,051
-88,972	-19,573	0,032	0,014
-87,957	-17,350	-0,069	0,031
-86,943	-68,277	0,124	-0,034
-85,928	-200,000	0,021	-0,066
-84,913	-11,965	-0,137	0,064
-83,899	800,000	-0,074	-0,162
-82,884	800,000	-0,034	0,070
-81,870	800,000	0,036	-0,087
-80,855	800,000	-0,026	0,067
-79,840	800,000	0,031	0,080
-78,826	206,340	-0,035	0,038
-77,811	28,450	-0,042	-0,025
-76,797	320,532	0,023	-0,031
-75,782	800,000	0,014	-0,042
-74,767	-200,000	0,005	0,063
-73,753	230,339	0,024	-0,028
-72,738	-18,581	-0,078	0,034
-71,724	-94,463	-0,166	-0,032
-70,709	-80,900	0,090	0,021
-69,694	565,223	-0,057	0,098
-68,680	742,581	-0,094	0,180
-67,665	800,000	0,024	0,067
-66,651	800,000	0,033	-0,082
-65,636	-200,000	-0,004	-0,057
-64,622	520,087	-0,006	-0,010
-63,607	-200,000	-0,009	-0,085
-62,592	501,825	-0,021	0,035
-61,578	312,440	0,059	-0,079
-60,563	-49,880	0,065	-0,022
-59,549	338,004	0,009	-0,013
-58,534	-64,055	-1,399	-0,403
-57,519	383,235	-1,586	-2,323
-56,505	-200,000	-0,512	-4,434
-55,490	84,883	1,030	0,800
-54,476	800,000	4,676	11,132
-53,461	-200,000	17,748	284,140
-52,446	800,000	721,390	2232,699
-51,432	565,233	1636,370	2825,872
-50,417	80,886	1660,114	1269,474
-49,403	23,726	1533,712	893,947
-48,388	17,644	1457,295	820,020
-47,373	18,205	1446,986	816,879
-46,359	17,785	1437,633	809,562
-45,344	15,942	1432,909	798,094
-44,330	15,860	1430,923	796,566
-43,315	15,823	1429,072	795,325
-42,300	15,966	1427,185	794,925
-41,286	15,947	1426,408	794,369
-40,271	15,890	1425,071	793,322
-39,257	15,895	1423,684	792,544
-38,242	15,994	1422,418	792,275
-37,227	15,928	1421,072	791,184
-36,213	15,950	1419,879	790,592
-35,198	15,939	1418,809	789,914
-34,184	15,935	1417,825	789,313
-33,169	15,880	1416,503	788,288
-32,154	15,895	1415,642	787,849
-31,140	15,891	1414,285	787,045
-30,125	15,932	1412,956	786,466
-29,111	15,968	1411,956	786,046
-28,096	15,881	1410,815	784,969
-27,082	15,857	1409,937	784,338
-26,067	15,866	1408,557	783,582
-25,052	15,851	1407,782	783,052
-24,038	15,862	1406,556	782,389
-23,023	15,825	1405,544	781,624
-22,009	15,795	1404,674	780,967
-20,994	15,818	1403,663	780,482
-19,979	15,771	1402,806	779,754
-18,965	15,775	1401,683	779,120
-17,950	15,801	1400,658	778,640
-16,936	15,842	1399,624	778,225
-15,921	15,796	1398,354	777,270
-14,906	15,771	1397,588	776,702
-13,892	15,748	1396,629	776,027
-12,877	15,719	1395,889	775,453
-11,863	15,783	1394,855	775,145
-10,848	15,726	1394,106	774,434
-9,833	15,695	1393,129	773,714
-8,819	15,687	1392,172	773,119
-7,804	15,617	1391,299	772,276
-6,790	15,633	1390,260	771,745
-5,775	15,646	1389,209	771,189
-4,760	15,646	1388,464	770,747
-3,746	15,625	1387,543	770,107
-2,731	15,670	1386,492	769,702
-1,717	15,638	1385,688	769,078
-0,702	15,612	1383,935	767,953
0,313	19,453	1304,398	741,550
1,327	35,682	706,931	439,546
2,342	54,351	125,346	85,451
3,356	5,278	16,543	8,620
4,371	14,108	3,168	1,744
5,386	-27,309	0,478	0,196
6,400	252,884	0,048	0,059
7,415	242,169	-0,237	-0,281
8,429	12,455	-0,356	-0,194
9,444	118,177	-0,259	-0,226
10,459	-61,766	-0,310	-0,091
11,473	105,659	-0,309	-0,259
12,488	25,292	-0,291	-0,171
13,502	9,237	-0,294	-0,157
14,517	52,481	-0,320	-0,216
15,531	120,960	-0,314	-0,277
16,546	66,970	-0,301	-0,217
17,561	101,703	-0,308	-0,254
18,575	-51,123	-0,239	-0,079
19,590	219,515	-0,205	-0,233
20,604	-2,259	-0,298	-0,147
21,619	99,889	-0,424	-0,347
22,634	152,036	-0,382	-0,369
23,648	120,659	-0,369	-0,325
24,663	350,794	-0,352	-0,494
25,677	26,251	-0,382	-0,225
26,692	197,360	-0,244	-0,264
27,707	77,440	-0,305	-0,229
28,721	154,799	-0,362	-0,352
29,736	44,828	-0,420	-0,273
30,750	269,492	-0,303	-0,377
31,765	164,892	-0,360	-0,360
32,780	16,683	-0,393	-0,219
33,794	79,725	-0,370	-0,280
34,809	142,860	-0,353	-0,332
35,823	100,530	-0,356	-0,292
36,838	136,578	-0,433	-0,400
37,853	200,171	-0,273	-0,296
38,867	167,811	-0,358	-0,360
39,882	95,759	-0,344	-0,277
40,896	192,871	-0,318	-0,340
41,911	50,994	-0,324	-0,217
42,926	-65,467	-0,541	-0,153
43,940	118,601	-0,393	-0,343
44,955	176,108	-0,350	-0,360
45,969	16,184	-0,357	-0,198
46,984	158,312	-0,282	-0,277
47,999	292,246	-0,178	-0,229
49,013	42,323	-0,338	-0,216
50,028	54,846	-0,417	-0,284
51,042	-18,582	-0,440	-0,193
52,057	83,763	-0,423	-0,326
53,071	17,258	-0,397	-0,222
54,086	3,076	-0,393	-0,201
55,101	27,168	-0,273	-0,161
56,115	-15,667	-0,336	-0,151
57,130	119,231	-0,318	-0,278
58,144	118,073	-0,405	-0,352
59,159	100,193	-0,377	-0,308
60,174	68,191	-0,324	-0,234
61,188	36,331	-0,429	-0,266
62,203	216,925	-0,194	-0,218
63,217	82,629	-0,338	-0,258
64,232	300,174	-0,330	-0,430
65,247	-6,430	-0,358	-0,172
66,261	127,084	-0,319	-0,285
67,276	-89,296	-0,322	-0,066
68,290	205,074	-0,345	-0,378
69,305	116,374	-0,277	-0,239
70,320	48,242	-0,380	-0,250
71,334	258,681	-0,280	-0,340
72,349	55,260	-0,443	-0,302
73,363	236,620	-0,245	-0,286
74,378	67,989	-0,346	-0,249
75,393	-52,587	-0,297	-0,096
76,407	99,002	-0,242	-0,197
77,422	109,623	-0,217	-0,183
78,436	-132,095	-0,341	-0,031
79,451	81,364	-0,288	-0,219
80,466	96,685	-0,299	-0,241
81,480	134,315	-0,306	-0,279
82,495	145,531	-0,370	-0,349
83,509	209,737	-0,282	-0,312
84,524	49,185	-0,205	-0,135
85,539	-3,408	-0,253	-0,124
86,553	64,334	-0,318	-0,225
87,568	-57,617	-0,370	-0,114
88,582	156,957	-0,333	-0,324
89,597	177,980	-0,287	-0,294
90,611	67,409	-0,297	-0,213
91,626	251,264	-0,141	-0,169
92,641	26,477	-0,382	-0,224
93,655	33,256	-0,379	-0,231
94,670	-1,665	-0,310	-0,153
95,684	-33,977	-0,266	-0,102
96,699	395,378	-0,185	-0,273
97,714	34,013	-0,325	-0,199
98,728	10,232	-0,337	-0,180
99,743	-5,408	-0,353	-0,170
100,757	48,788	-0,329	-0,217
101,772	-8,785	-0,366	-0,172
102,787	-15,533	-0,406	-0,181
103,801	573,631	-0,168	-0,288
104,816	-8,929	-0,209	-0,098
105,830	497,353	-0,139	-0,226
106,845	-200,000	-0,032	-0,110
107,860	-57,994	-0,301	-0,092
108,874	-106,337	-0,327	-0,051
109,889	151,042	-0,237	-0,227
110,903	165,864	-0,353	-0,351
111,918	209,031	-0,144	-0,159
112,933	154,503	-0,162	-0,156
113,947	91,267	-0,206	-0,162
114,962	75,450	-0,279	-0,206
115,976	9,095	-0,139	-0,074
116,991	70,366	-0,218	-0,158
118,006	-29,550	-0,288	-0,115
119,020	81,597	-0,280	-0,212
120,035	51,548	-0,330	-0,220
121,049	-8,124	-0,180	-0,085
122,064	-95,652	-0,173	-0,032
123,079	-117,070	-0,256	-0,032
124,093	436,039	-0,158	-0,242
125,108	289,553	-0,231	-0,295
126,122	44,694	-0,254	-0,164
127,137	149,608	-0,200	-0,190
128,151	245,465	-0,143	-0,169
129,166	28,028	-0,285	-0,168
130,181	300,959	-0,189	-0,245
131,195	-44,315	-0,213	-0,075
132,210	-2,277	-0,262	-0,129
133,224	49,420	-0,293	-0,193
134,239	30,118	-0,241	-0,144
135,254	93,961	-0,111	-0,088
136,268	800,000	-0,139	-0,310
137,283	-89,458	-0,269	-0,055
138,297	256,807	-0,188	-0,227
139,312	309,169	-0,243	-0,319
140,327	477,613	-0,192	-0,305
141,341	800,000	-0,106	-0,272
142,356	-146,778	-0,216	-0,013
143,370	-53,522	-0,329	-0,105
144,385	31,339	-0,327	-0,196
145,400	25,505	-0,343	-0,199
146,414	38,657	-0,274	-0,171
147,429	247,503	-0,282	-0,335
148,443	206,801	-0,126	-0,137
149,458	274,764	-0,259	-0,322
150,473	189,820	-0,208	-0,219
151,487	800,000	-0,160	-0,320
152,502	37,629	-0,217	-0,135
153,516	165,651	-0,213	-0,211
154,531	-45,934	-0,279	-0,096
155,546	101,204	-0,281	-0,229
156,560	800,000	-0,096	-0,220
157,575	2,158	-0,245	-0,123
158,589	28,887	-0,206	-0,122
159,604	248,624	-0,219	-0,260
160,619	-7,500	-0,288	-0,136
161,633	99,257	-0,283	-0,229
162,648	-16,975	-0,291	-0,128
163,662	299,129	-0,185	-0,238
164,677	-14,854	-0,288	-0,129
165,692	-55,868	-0,199	-0,062
166,706	524,070	-0,105	-0,173
167,721	218,786	-0,198	-0,221
168,735	37,144	-0,383	-0,236
169,750	-91,725	-0,214	-0,042
170,764	-5,305	-0,210	-0,101
171,779	-5,468	-0,155	-0,074
172,794	341,208	-0,121	-0,166
173,808	368,223	-0,177	-0,251
174,823	50,716	-0,324	-0,214
175,837	208,259	-0,227	-0,248
176,852	152,410	-0,139	-0,133
177,867	-39,500	-0,226	-0,082
178,881	-70,353	-0,219	-0,058
179,896	-53,315	-0,183	-0,058
180,910	47,133	-0,301	-0,195
181,925	164,287	-0,222	-0,218
182,940	142,419	-0,240	-0,222
183,954	87,256	-0,305	-0,235
184,969	-200,000	-0,082	-0,318
185,983	-41,106	-0,215	-0,077
186,998	-74,027	-0,280	-0,070
188,013	-99,449	-0,262	-0,046
189,027	10,726	-0,241	-0,128
190,042	225,843	-0,163	-0,185
191,056	-59,232	-0,389	-0,116
192,071	113,132	-0,155	-0,131
193,086	65,902	-0,102	-0,072
194,100	60,796	-0,190	-0,131
195,115	117,616	-0,158	-0,136
196,129	-29,303	-0,194	-0,077
197,144	29,420	-0,207	-0,122
198,159	166,439	-0,144	-0,143
199,173	39,430	-0,105	-0,066
200,188	143,345	-0,127	-0,118
201,202	646,071	-0,075	-0,135
202,217	-60,129	-0,255	-0,075
203,232	154,837	-0,081	-0,078
204,246	800,000	-0,154	-0,301
205,261	77,322	-0,238	-0,176
206,275	503,343	-0,129	-0,209
207,290	224,812	-0,136	-0,153
208,304	12,066	-0,209	-0,112
209,319	-96,430	-0,146	-0,027
210,334	241,636	-0,182	-0,212
211,348	711,358	-0,118	-0,218
212,363	208,999	-0,230	-0,251
213,377	55,744	-0,311	-0,210
214,392	270,082	-0,116	-0,142
215,407	44,584	-0,223	-0,143
216,421	5,786	-0,163	0,084
217,436	91,625	-0,140	-0,110
218,450	149,305	-0,254	-0,240
219,465	177,389	-0,178	-0,181
220,480	113,395	-0,186	-0,157
221,494	-200,000	-0,041	-0,137
222,509	112,727	-0,199	-0,168
223,523	-200,000	-0,037	-0,130
224,538	-6,717	-0,221	-0,104
225,553	159,156	-0,241	-0,233
226,567	203,826	-0,088	-0,095
227,582	-96,066	-0,171	-0,031
228,596	-200,000	-0,042	-0,242
229,611	67,277	-0,096	-0,068
230,626	34,296	-0,192	-0,116
231,640	518,511	-0,137	-0,224
232,655	59,865	-0,191	-0,131
233,669	134,308	-0,176	-0,158
234,684	168,236	-0,233	-0,230
235,699	-6,575	-0,122	-0,057
236,713	-139,973	-0,181	-0,013
237,728	-125,527	-0,235	0,024
238,742	32,972	-0,313	-0,188
239,757	145,505	-0,119	-0,111
240,772	-97,361	-0,217	-0,039
241,786	166,342	-0,139	-0,137
242,801	-200,000	-0,070	-0,217
243,815	186,363	-0,174	-0,180
244,830	800,000	-0,043	-0,112
245,844	-3,425	-0,187	-0,090
246,859	504,014	-0,227	-0,366
247,874	35,864	-0,243	-0,148
248,888	190,761	-0,097	-0,101
249,903	98,533	-0,106	-0,084
250,917	616,266	-0,094	-0,164
251,932	10,391	-0,162	-0,085
252,947	286,758	-0,105	-0,131
253,961	-200,000	-0,051	-0,199
254,976	-46,106	-0,155	-0,053
255,990	45,469	-0,325	-0,208
257,005	-42,175	-0,175	-0,062
258,020	14,885	-0,148	-0,080
259,034	69,576	-0,142	-0,101
260,049	73,933	-0,211	-0,153
261,063	338,699	-0,117	-0,159
262,078	-16,734	-0,159	-0,069
263,093	-34,206	-0,266	-0,101
264,107	286,113	-0,203	-0,255
265,122	-200,000	-0,016	-0,175
266,136	163,546	-0,034	-0,033
267,151	-114,303	-0,192	-0,025
268,166	-106,508	-0,235	-0,036
269,180	520,684	-0,098	-0,160
270,195	60,539	-0,085	-0,058
271,209	216,502	-0,188	-0,208
272,224	240,779	-0,146	-0,169
273,239	-50,848	-0,061	-0,020
274,253	-110,096	-0,128	-0,018
275,268	-43,037	-0,238	-0,083
276,282	105,837	-0,193	-0,158
277,297	62,887	-0,143	-0,099
278,312	306,771	-0,148	-0,192
279,326	85,467	-0,135	0,103
280,341	489,138	-0,024	-0,038
281,355	668,361	-0,081	-0,146
282,370	67,944	-0,157	-0,111
283,384	800,000	-0,039	-0,084
284,399	-71,434	-0,210	-0,054
285,414	-66,286	-0,095	-0,026
286,428	-106,178	-0,163	-0,025
287,443	-33,577	-0,259	-0,098
288,457	68,222	-0,136	-0,096
289,472	293,177	-0,148	-0,187
290,487	744,691	-0,084	-0,158
291,501	30,806	-0,173	-0,102
292,516	175,707	-0,127	-0,128
293,530	267,853	-0,144	-0,175
294,545	800,000	-0,040	0,080
295,560	68,179	-0,050	-0,035
296,574	-134,343	-0,097	0,008
297,589	800,000	-0,085	-0,178
298,603	-124,671	-0,199	-0,021
299,618	800,000	0,019	-0,039
300,633	-200,000	-0,047	-0,165
301,647	-149,805	-0,083	-0,004
302,662	-124,882	-0,170	-0,018
303,676	-200,000	0,002	-0,103
304,691	253,607	-0,184	-0,218
305,706	89,474	-0,260	-0,200
306,720	9,053	-0,168	-0,087
307,735	800,000	-0,048	-0,114
308,749	311,325	-0,063	-0,081
309,764	-143,536	-0,185	0,012
310,779	-148,725	-0,257	-0,014
311,793	800,000	-0,014	-0,040
312,808	36,751	-0,201	-0,122
313,822	-168,019	-0,201	-0,005
314,837	500,993	-0,145	-0,231
315,852	800,000	-0,062	-0,173
316,866	-200,000	0,018	-0,266
317,881	-63,801	-0,172	-0,048
318,895	5,261	0,064	-0,032
319,910	319,983	-0,062	-0,081
320,925	800,000	-0,111	-0,240
321,939	47,406	-0,109	-0,070
322,954	800,000	-0,047	-0,109
323,968	-93,986	-0,095	-0,018
324,983	800,000	-0,025	-0,051
325,997	-57,301	-0,223	-0,067
327,012	41,380	-0,092	-0,057
328,027	35,157	-0,206	-0,124
329,041	-47,465	-0,150	0,050
330,056	-104,456	-0,177	-0,028
331,070	-9,678	-0,144	-0,066
332,085	113,550	-0,209	-0,175
333,100	58,856	-0,157	-0,106
334,114	-69,664	-0,129	-0,034
335,129	87,432	-0,108	-0,083
336,143	244,387	-0,150	-0,174
337,158	17,540	-0,111	-0,060
338,173	-200,000	0,002	-0,136
339,187	44,800	-0,094	0,060
340,202	-24,761	-0,277	-0,113
341,216	80,194	-0,094	-0,070
342,231	-125,939	-0,230	-0,024
343,246	-200,000	-0,038	-0,133
344,260	423,590	-0,078	-0,116
345,275	726,506	-0,082	-0,151
346,289	23,313	-0,076	-0,043
347,304	502,654	-0,070	-0,112
348,319	38,412	-0,201	-0,123
349,333	5,293	-0,327	-0,165
350,348	-130,292	-0,226	0,021
351,362	754,638	-0,082	-0,153
352,377	138,368	-0,108	-0,098
353,392	485,476	-0,101	-0,158
354,406	-154,402	-0,134	-0,006
355,421	209,576	1312,882	1416,465
356,435	161,302	1473,422	1416,986
