DTS Sentinel unit serial number:	SN410029Multiplexer serial number:	ORYXHardware model number:	OX2-SRSoftware version number:	ORYX F/W v4,00 Oryx Data Collector v3.7.2.0data status	okinstallation	B3 Nyhavnadifferential loss correction	single-endedforward channel	channel 1reverse channel	N/Adate	2023/12/02time	12:57:30forward acquisition time	300,00reverse acquisition time	0,00gamma	499,1914k internal	0,3199k external	0,3199temperature offset calibration	1,0000default loss term (dB/km)	0,3820temperature slope calibration	1,0000multiplexer offset coefficient	1,0000multiplexer slope coefficient	1,0000fibre end	0,00T internal ref (°C)	14,24T ext. ref 1 (°C)	-0,20T ext. ref 2 (°C)	-0,21length (m)	temperature (°C)	Stokes	anti-Stokes-744,400	393,985	-0,178	-0,271
-743,385	800,000	-0,100	0,210
-742,371	120,965	-0,203	-0,184
-741,356	-200,000	-0,093	0,401
-740,342	74,534	-0,250	-0,191
-739,327	-200,000	0,050	0,304
-738,312	91,753	-0,219	-0,179
-737,298	-200,000	0,053	0,276
-736,283	162,412	-0,123	-0,126
-735,269	-200,000	-0,046	0,287
-734,254	61,586	-0,204	-0,147
-733,239	12,441	-0,271	0,152
-732,225	45,277	-0,324	-0,217
-731,210	36,915	0,110	0,071
-730,196	-200,000	-0,003	0,076
-729,181	-71,790	-0,067	-0,018
-728,167	-200,000	-0,003	0,034
-727,152	42,611	0,125	0,083
-726,137	-71,471	-0,036	-0,010
-725,123	800,000	-0,056	-0,144
-724,108	-200,000	-0,015	-0,101
-723,094	117,246	-0,052	-0,047
-722,079	157,694	-0,071	-0,071
-721,064	-26,821	-0,110	-0,046
-720,050	123,703	-0,067	0,061
-719,035	-200,000	0,004	0,073
-718,021	452,272	-0,051	-0,083
-717,006	97,817	-0,044	-0,037
-715,991	-200,000	-0,042	-0,151
-714,977	620,312	-0,124	-0,227
-713,962	124,188	0,029	0,026
-712,948	-85,494	-0,037	0,008
-711,933	800,000	-0,049	0,131
-710,918	-200,000	0,004	0,079
-709,904	547,497	-0,009	0,016
-708,889	-200,000	0,009	-0,060
-707,875	-46,878	-0,057	0,020
-706,860	-200,000	0,007	0,044
-705,845	-40,558	0,139	-0,052
-704,831	32,178	0,014	-0,009
-703,816	-64,738	0,056	0,016
-702,802	13,431	-0,043	-0,024
-701,787	-30,981	0,137	0,056
-700,772	800,000	-0,102	-0,221
-699,758	15,859	-0,048	0,027
-698,743	34,441	0,121	-0,077
-697,729	-200,000	0,026	-0,084
-696,714	-21,452	-0,091	0,040
-695,699	200,894	0,047	-0,053
-694,685	82,135	-0,064	-0,050
-693,670	-200,000	-0,022	-0,140
-692,656	-126,925	-0,120	-0,013
-691,641	-170,501	0,058	0,001
-690,627	529,793	0,033	0,056
-689,612	-200,000	-0,035	0,141
-688,597	220,113	0,040	-0,047
-687,583	-22,646	-0,147	-0,064
-686,568	20,501	-0,159	-0,093
-685,554	45,115	-0,052	-0,035
-684,539	-200,000	0,011	-0,056
-683,524	-39,147	-0,121	0,046
-682,510	-48,078	0,136	-0,048
-681,495	-99,151	0,060	0,011
-680,481	-89,451	-0,096	0,020
-679,466	347,134	-0,085	0,122
-678,451	304,333	0,060	-0,081
-677,437	60,588	-0,115	-0,083
-676,422	734,627	-0,025	-0,049
-675,408	800,000	-0,012	0,030
-674,393	-200,000	-0,006	-0,038
-673,378	119,371	-0,046	-0,041
-672,364	-8,351	-0,137	-0,066
-671,349	148,680	-0,086	-0,084
-670,335	-115,854	-0,044	-0,006
-669,320	61,766	0,091	0,066
-668,305	800,000	0,073	-0,157
-667,291	-178,584	-0,049	0,001
-666,276	-127,224	-0,054	0,006
-665,262	800,000	-0,032	0,068
-664,247	-200,000	0,016	-0,076
-663,232	155,089	0,082	0,082
-662,218	-200,000	-0,007	-0,045
-661,203	-96,690	0,102	0,019
-660,189	733,893	0,015	-0,029
-659,174	123,502	-0,043	-0,039
-658,159	345,255	-0,084	-0,119
-657,145	-200,000	-0,020	-0,121
-656,130	20,091	-0,046	-0,027
-655,116	541,341	-0,054	-0,093
-654,101	-76,366	-0,072	0,018
-653,086	800,000	0,051	-0,104
-652,072	65,337	-0,056	-0,041
-651,057	-56,461	-0,081	-0,026
-650,043	-124,468	-0,108	0,012
-649,028	800,000	-0,018	-0,057
-648,014	-51,126	0,149	0,050
-646,999	-200,000	-0,015	0,072
-645,984	708,944	0,087	0,168
-644,970	314,753	-0,075	-0,103
-643,955	-150,531	0,148	0,008
-642,941	-200,000	-0,040	-0,130
-641,926	426,213	0,020	0,032
-640,911	558,035	-0,024	0,042
-639,897	-48,981	0,200	-0,069
-638,882	-200,000	0,018	-0,066
-637,868	-200,000	-0,006	-0,070
-636,853	-119,998	-0,076	0,009
-635,838	-200,000	0,002	-0,111
-634,824	-200,000	-0,035	-0,115
-633,809	-171,239	-0,150	-0,004
-632,795	-118,204	0,107	-0,014
-631,780	53,651	0,077	-0,053
-630,765	-95,628	-0,127	0,024
-629,751	201,447	0,061	-0,068
-628,736	800,000	-0,022	-0,051
-627,722	-200,000	-0,000	0,015
-626,707	56,514	-0,015	0,010
-625,692	-51,936	0,073	0,024
-624,678	151,298	0,055	-0,055
-623,663	124,192	-0,131	0,119
-622,649	-168,620	-0,115	-0,003
-621,634	-28,928	-0,072	0,030
-620,619	-56,695	-0,109	0,035
-619,605	216,969	-0,107	0,124
-618,590	-200,000	-0,024	-0,085
-617,576	305,261	0,069	0,092
-616,561	408,161	0,012	-0,018
-615,546	-200,000	-0,013	-0,089
-614,532	229,262	-0,116	-0,138
-613,517	66,432	-0,004	-0,003
-612,503	-135,717	-0,156	0,013
-611,488	271,711	-0,044	0,056
-610,474	-200,000	-0,045	0,204
-609,459	-200,000	0,005	0,089
-608,444	200,589	-0,014	-0,016
-607,430	-75,503	0,033	-0,008
-606,415	-146,642	0,162	-0,010
-605,401	240,428	0,042	0,050
-604,386	-32,558	0,119	-0,048
-603,371	384,535	0,077	0,115
-602,357	-86,011	-0,169	-0,037
-601,342	-26,706	0,128	0,054
-600,328	-200,000	-0,002	-0,048
-599,313	800,000	-0,050	-0,123
-598,298	-146,266	0,039	0,002
-597,284	-134,725	0,014	0,001
-596,269	-200,000	-0,021	0,179
-595,255	-100,814	-0,045	-0,008
-594,240	-146,362	-0,136	-0,008
-593,225	-191,290	-0,032	-0,000
-592,211	383,356	-0,058	-0,087
-591,196	211,015	0,038	-0,043
-590,182	-28,527	0,109	-0,045
-589,167	800,000	0,035	0,105
-588,152	-19,598	0,033	0,015
-587,138	-97,708	-0,052	-0,010
-586,123	114,423	-0,062	-0,054
-585,109	-200,000	-0,003	-0,052
-584,094	-86,934	0,046	-0,010
-583,079	-200,000	-0,038	0,154
-582,065	42,389	-0,014	-0,009
-581,050	-200,000	-0,007	0,068
-580,036	-20,839	0,040	0,018
-579,021	2,739	0,112	0,059
-578,006	800,000	0,040	-0,093
-576,992	149,465	-0,066	-0,065
-575,977	-122,505	0,113	-0,013
-574,963	151,926	0,037	0,036
-573,948	-200,000	0,065	0,298
-572,934	70,257	-0,095	0,071
-571,919	-28,581	-0,024	-0,010
-570,904	174,505	-0,055	-0,057
-569,890	166,677	0,118	-0,121
-568,875	11,029	0,058	-0,032
-567,861	12,156	0,023	-0,013
-566,846	474,834	0,031	-0,050
-565,831	168,517	-0,032	-0,033
-564,817	-200,000	0,005	0,048
-563,802	387,033	0,022	0,033
-562,788	50,239	-0,097	-0,066
-561,773	-77,673	0,197	0,049
-560,758	800,000	-0,024	-0,076
-559,744	120,927	0,048	0,043
-558,729	-108,045	-0,073	-0,011
-557,715	97,964	-0,059	-0,049
-556,700	46,630	-0,154	0,103
-555,685	66,098	0,133	0,098
-554,671	101,124	-0,028	-0,024
-553,656	-65,396	0,117	0,034
-552,642	-132,230	0,124	-0,011
-551,627	-37,286	-0,038	-0,015
-550,612	-200,000	0,005	0,069
-549,598	-122,640	-0,122	-0,014
-548,583	428,557	-0,043	-0,067
-547,569	800,000	-0,058	-0,139
-546,554	-93,242	0,192	0,038
-545,539	-200,000	0,006	0,047
-544,525	-200,000	0,007	0,118
-543,510	230,121	-0,104	-0,123
-542,496	800,000	-0,047	-0,098
-541,481	-51,056	-0,130	0,044
-540,466	800,000	0,022	-0,051
-539,452	694,696	0,004	-0,007
-538,437	-200,000	0,008	0,235
-537,423	-18,885	-0,102	0,046
-536,408	-22,683	-0,092	0,040
-535,393	-105,026	-0,087	-0,014
-534,379	120,502	-0,068	-0,061
-533,364	-200,000	0,003	-0,061
-532,350	-200,000	-0,001	-0,122
-531,335	119,274	-0,014	-0,012
-530,321	260,474	-0,119	0,148
-529,306	-175,732	-0,036	0,001
-528,291	-62,879	-0,138	0,041
-527,277	-200,000	-0,010	-0,052
-526,262	215,182	-0,020	-0,023
-525,248	326,207	-0,019	-0,027
-524,233	-99,958	0,015	0,003
-523,218	-121,702	0,161	0,019
-522,204	-62,529	-0,168	0,050
-521,189	272,685	0,010	0,013
-520,175	246,822	0,107	-0,130
-519,160	-200,000	-0,011	-0,134
-518,145	-200,000	0,012	-0,091
-517,131	-200,000	-0,002	0,084
-516,116	-7,961	0,079	-0,038
-515,102	-72,583	-0,053	-0,014
-514,087	-200,000	-0,003	-0,019
-513,072	20,277	0,049	-0,029
-512,058	-200,000	-0,014	0,063
-511,043	-3,161	0,036	-0,018
-510,029	116,739	0,067	0,059
-509,014	-144,396	-0,023	0,002
-507,999	800,000	0,086	0,188
-506,985	-200,000	-0,004	0,046
-505,970	-146,973	-0,092	-0,006
-504,956	-200,000	0,031	0,107
-503,941	11,361	-0,154	0,085
-502,926	-200,000	-0,011	-0,090
-501,912	36,937	0,143	-0,091
-500,897	-200,000	-0,027	0,143
-499,883	397,065	-0,106	0,161
-498,868	22,531	0,024	-0,014
-497,853	800,000	-0,064	-0,133
-496,839	28,568	0,112	-0,068
-495,824	-200,000	-0,001	0,049
-494,810	627,122	-0,031	0,056
-493,795	-120,778	-0,114	-0,014
-492,781	-62,315	-0,018	0,005
-491,766	-200,000	-0,021	0,124
-490,751	800,000	0,057	-0,117
-489,737	-200,000	0,008	-0,116
-488,722	540,167	0,085	0,147
-487,708	-17,639	-0,062	0,028
-486,693	81,012	0,090	0,070
-485,678	-113,650	-0,100	0,014
-484,664	-117,906	-0,052	0,007
-483,649	132,394	-0,045	-0,041
-482,635	70,420	-0,089	0,066
-481,620	-60,675	0,048	-0,015
-480,605	-181,720	-0,075	0,001
-479,591	321,277	-0,083	0,115
-478,576	-128,015	0,085	0,009
-477,562	65,743	-0,109	-0,080
-476,547	800,000	-0,039	-0,078
-475,532	-63,866	0,179	-0,053
-474,518	-200,000	0,002	-0,103
-473,503	-200,000	0,010	0,050
-472,489	-107,992	0,040	0,006
-471,474	4,581	0,110	-0,058
-470,459	800,000	0,098	-0,201
-469,445	-91,057	0,043	0,009
-468,430	-200,000	-0,003	0,024
-467,416	437,856	0,073	0,115
-466,401	38,697	0,077	0,049
-465,386	800,000	-0,043	0,095
-464,372	-83,169	-0,052	-0,012
-463,357	800,000	-0,046	-0,119
-462,343	-200,000	0,009	-0,088
-461,328	-200,000	-0,010	-0,077
-460,313	595,576	-0,045	-0,081
-459,299	-200,000	0,042	0,185
-458,284	800,000	0,119	0,243
-457,270	345,595	-0,021	-0,030
-456,255	162,798	-0,099	-0,100
-455,241	425,836	0,110	-0,170
-454,226	-200,000	-0,017	0,104
-453,211	-200,000	-0,009	-0,033
-452,197	213,845	-0,120	0,136
-451,182	-93,581	0,082	0,016
-450,168	-200,000	0,000	-0,038
-449,153	-200,000	-0,012	-0,157
-448,138	800,000	-0,032	-0,093
-447,124	800,000	-0,009	0,020
-446,109	800,000	0,046	0,117
-445,095	-101,439	-0,055	0,009
-444,080	800,000	-0,013	0,032
-443,065	407,315	0,053	0,080
-442,051	177,038	0,009	0,009
-441,036	163,752	0,047	-0,048
-440,022	-57,770	-0,076	-0,024
-439,007	800,000	-0,036	0,077
-437,992	-33,035	0,061	0,024
-436,978	-200,000	0,004	0,164
-435,963	9,089	0,060	0,033
-434,949	493,881	-0,024	0,039
-433,934	180,675	-0,081	0,086
-432,919	-120,997	0,063	-0,008
-431,905	-200,000	-0,010	-0,083
-430,890	339,996	-0,041	-0,058
-429,876	348,664	-0,038	0,054
-428,861	191,796	-0,114	0,124
-427,846	-51,574	-0,078	-0,026
-426,832	-200,000	0,001	-0,020
-425,817	-1,946	-0,114	-0,057
-424,803	196,200	0,062	0,067
-423,788	-95,641	0,170	0,032
-422,773	-110,037	0,062	0,009
-421,759	32,902	0,136	0,084
-420,744	800,000	-0,017	-0,041
-419,730	-200,000	0,018	-0,103
-418,715	-78,530	-0,128	-0,031
-417,701	-151,718	0,037	-0,002
-416,686	15,410	-0,110	0,062
-415,671	-16,479	0,064	0,029
-414,657	800,000	0,065	0,130
-413,642	800,000	-0,027	-0,066
-412,628	-200,000	-0,010	-0,136
-411,613	22,007	-0,025	-0,015
-410,598	137,005	-0,038	0,036
-409,584	800,000	-0,027	0,081
-408,569	-110,161	0,032	-0,005
-407,555	39,080	0,104	-0,067
-406,540	127,715	0,042	0,038
-405,525	110,636	-0,025	-0,022
-404,511	-167,310	-0,008	-0,000
-403,496	800,000	-0,036	-0,077
-402,482	189,813	-0,097	-0,105
-401,467	-200,000	-0,008	-0,144
-400,452	319,277	0,092	-0,126
-399,438	-49,012	-0,103	0,035
-398,423	-150,425	-0,063	0,003
-397,409	-17,976	-0,029	0,013
-396,394	-105,616	0,078	0,013
-395,379	189,229	0,083	-0,089
-394,365	-200,000	0,016	-0,056
-393,350	440,625	0,056	0,089
-392,336	-200,000	-0,011	-0,188
-391,321	9,463	0,022	0,012
-390,306	285,206	0,023	-0,030
-389,292	-52,954	-0,084	-0,028
-388,277	-200,000	-0,018	-0,094
-387,263	-200,000	-0,026	-0,118
-386,248	229,678	0,035	-0,041
-385,233	800,000	-0,045	-0,130
-384,219	800,000	0,040	-0,112
-383,204	800,000	0,050	0,102
-382,190	-76,680	-0,080	0,020
-381,175	60,672	0,019	0,014
-380,160	-200,000	-0,016	-0,053
-379,146	-87,810	-0,098	0,021
-378,131	-44,094	0,178	0,064
-377,117	142,957	-0,116	-0,110
-376,102	800,000	0,021	0,055
-375,088	290,457	-0,053	0,069
-374,073	-200,000	0,029	-0,126
-373,058	-16,526	0,029	-0,013
-372,044	-15,439	0,107	-0,049
-371,029	-169,712	0,088	-0,002
-370,015	39,648	-0,257	0,165
-369,000	98,791	0,019	0,016
-367,985	20,676	0,073	0,042
-366,971	635,773	-0,059	-0,107
-365,956	800,000	0,032	0,088
-364,942	126,974	0,041	0,037
-363,927	168,178	0,062	0,063
-362,912	-164,544	0,130	0,004
-361,898	235,283	0,062	-0,073
-360,883	-74,381	-0,106	-0,027
-359,869	9,625	0,013	0,007
-358,854	-200,000	-0,023	-0,110
-357,839	-69,741	-0,032	-0,009
-356,825	295,749	0,033	0,044
-355,810	-200,000	0,023	-0,144
-354,796	800,000	-0,033	0,101
-353,781	-200,000	0,014	0,115
-352,766	-113,348	0,055	0,008
-351,752	-48,888	0,056	-0,019
-350,737	142,939	0,044	0,042
-349,723	-17,954	0,024	0,011
-348,708	-200,000	0,023	0,109
-347,693	800,000	0,076	0,219
-346,679	452,440	0,006	-0,009
-345,664	53,699	0,027	-0,019
-344,650	-200,000	0,017	0,080
-343,635	40,992	-0,089	-0,057
-342,620	800,000	-0,027	-0,070
-341,606	-200,000	0,018	0,122
-340,591	309,934	-0,084	0,112
-339,577	-63,214	-0,040	-0,012
-338,562	800,000	-0,026	-0,056
-337,548	544,672	-0,060	-0,103
-336,533	679,362	0,114	0,214
-335,518	-19,735	-0,104	-0,046
-334,504	-77,204	-0,077	0,019
-333,489	800,000	-0,010	-0,028
-332,475	352,138	0,081	-0,115
-331,460	-200,000	0,003	0,017
-330,445	533,197	-0,022	0,037
-329,431	-200,000	-0,047	0,154
-328,416	-78,931	-0,087	0,021
-327,402	-200,000	-0,001	0,134
-326,387	82,106	0,014	-0,011
-325,372	-200,000	-0,002	0,019
-324,358	12,663	0,084	-0,046
-323,343	49,748	-0,100	-0,067
-322,329	-58,485	0,184	0,057
-321,314	50,883	-0,042	-0,028
-320,299	-110,307	0,051	0,007
-319,285	-22,497	-0,026	0,011
-318,270	-73,477	-0,147	-0,038
-317,256	800,000	-0,060	-0,118
-316,241	-26,997	-0,052	-0,022
-315,226	16,179	-0,087	-0,049
-314,212	451,966	0,048	0,077
-313,197	-200,000	0,002	0,152
-312,183	23,352	0,088	-0,052
-311,168	232,803	-0,072	-0,085
-310,153	-144,546	0,008	-0,001
-309,139	-86,078	-0,201	-0,044
-308,124	-200,000	-0,014	0,120
-307,110	-87,881	-0,077	-0,016
-306,095	800,000	0,033	0,102
-305,080	800,000	-0,012	-0,031
-304,066	-147,166	-0,161	-0,010
-303,051	22,613	0,074	-0,043
-302,037	-164,259	-0,049	-0,002
-301,022	4,803	-0,024	-0,013
-300,008	-149,374	-0,123	-0,007
-298,993	759,352	-0,082	-0,159
-297,978	43,001	0,046	0,030
-296,964	-200,000	-0,006	-0,121
-295,949	738,090	0,033	-0,064
-294,935	-121,867	0,055	-0,006
-293,920	66,517	0,148	0,107
-292,905	800,000	-0,018	-0,038
-291,891	71,447	0,067	-0,050
-290,876	-62,413	0,177	-0,052
-289,862	-200,000	-0,003	0,017
-288,847	54,386	-0,081	-0,056
-287,832	-200,000	0,014	-0,115
-286,818	-200,000	-0,003	-0,051
-285,803	-200,000	0,020	0,222
-284,789	-200,000	0,014	-0,094
-283,774	800,000	-0,048	0,122
-282,759	-151,946	-0,073	0,004
-281,745	54,594	0,049	-0,034
-280,730	18,911	0,048	0,027
-279,716	733,790	0,024	-0,046
-278,701	65,056	-0,101	-0,073
-277,686	-200,000	-0,004	-0,131
-276,672	-200,000	0,011	0,070
-275,657	-200,000	-0,006	-0,074
-274,643	-142,752	-0,167	-0,011
-273,628	378,548	-0,072	0,106
-272,613	-69,406	-0,072	0,020
-271,599	-200,000	-0,006	0,081
-270,584	59,313	0,083	0,059
-269,570	-200,000	-0,051	0,209
-268,555	-69,411	0,019	-0,005
-267,540	28,428	0,061	0,037
-266,526	8,686	-0,031	0,017
-265,511	240,018	-0,091	-0,109
-264,497	-190,054	0,141	-0,001
-263,482	36,621	0,088	-0,055
-262,467	-200,000	0,009	0,103
-261,453	-200,000	-0,004	0,078
-260,438	-200,000	-0,004	-0,059
-259,424	-114,512	0,036	0,005
-258,409	-200,000	-0,112	0,000
-257,395	-165,104	-0,114	-0,004
-256,380	285,378	0,094	0,122
-255,365	-200,000	0,021	0,153
-254,351	55,366	0,091	0,063
-253,336	337,053	0,119	-0,165
-252,322	-200,000	0,018	-0,107
-251,307	-200,000	0,034	0,120
-250,292	-49,428	-0,106	0,036
-249,278	479,200	0,061	0,099
-248,263	-200,000	0,016	0,083
-247,249	-11,980	0,088	-0,041
-246,234	408,210	-0,063	0,096
-245,219	-92,002	-0,156	0,031
-244,205	164,812	0,036	-0,036
-243,190	-200,000	0,005	-0,123
-242,176	-52,254	0,079	0,026
-241,161	800,000	0,037	0,116
-240,146	-9,944	0,110	-0,052
-239,132	-62,508	0,097	-0,029
-238,117	200,270	-0,052	-0,057
-237,103	122,341	0,044	-0,039
-236,088	-46,010	-0,033	0,012
-235,073	-200,000	0,020	0,122
-234,059	13,554	0,193	-0,107
-233,044	800,000	-0,030	0,064
-232,030	89,559	0,169	0,134
-231,015	149,179	0,124	0,120
-230,000	-200,000	0,004	-0,091
-228,986	12,308	0,023	0,012
-227,971	42,830	0,011	0,007
-226,957	-143,326	0,068	-0,005
-225,942	16,394	0,147	0,082
-224,927	284,769	0,024	0,031
-223,913	800,000	0,062	-0,135
-222,898	-6,016	-0,093	-0,045
-221,884	-200,000	0,027	-0,100
-220,869	-171,480	0,129	-0,003
-219,855	-51,242	0,021	0,007
-218,840	800,000	-0,015	-0,045
-217,825	800,000	0,082	0,200
-216,811	-200,000	0,017	-0,124
-215,796	169,665	0,153	-0,156
-214,782	-29,294	0,013	0,005
-213,767	206,588	0,085	0,095
-212,752	75,550	0,070	-0,053
-211,738	-139,079	0,045	0,003
-210,723	27,776	-0,143	-0,086
-209,709	-200,000	-0,009	-0,083
-208,694	247,851	-0,058	-0,071
-207,679	-54,366	-0,228	-0,073
-206,665	-39,227	0,035	0,013
-205,650	-130,306	-0,028	0,003
-204,636	-200,000	0,002	0,168
-203,621	800,000	0,044	0,122
-202,606	-182,902	-0,066	-0,001
-201,592	441,498	-0,002	-0,003
-200,577	-121,894	-0,107	-0,012
-199,563	184,881	0,092	0,098
-198,548	-152,180	-0,146	-0,007
-197,533	563,991	0,006	-0,010
-196,519	384,516	0,066	0,097
-195,504	-200,000	-0,013	-0,096
-194,490	-200,000	-0,027	-0,116
-193,475	-96,834	-0,192	-0,036
-192,460	179,243	0,102	0,107
-191,446	369,581	-0,058	0,084
-190,431	800,000	-0,039	0,118
-189,417	-19,129	-0,082	-0,036
-188,402	800,000	-0,041	0,084
-187,387	728,517	0,059	-0,112
-186,373	-179,224	0,026	-0,000
-185,358	-200,000	0,008	-0,187
-184,344	-32,556	0,082	-0,032
-183,329	567,544	-0,052	0,091
-182,315	-200,000	0,084	-0,000
-181,300	-200,000	-0,008	-0,114
-180,285	800,000	-0,071	-0,189
-179,271	-49,111	0,115	-0,039
-178,256	725,778	-0,030	0,057
-177,242	-200,000	0,002	-0,037
-176,227	739,451	0,050	-0,096
-175,212	635,841	-0,022	0,039
-174,198	-200,000	0,023	0,076
-173,183	-200,000	-0,004	0,029
-172,169	56,101	-0,104	-0,072
-171,154	-98,303	-0,124	0,022
-170,139	587,292	-0,075	0,132
-169,125	-200,000	0,011	-0,053
-168,110	800,000	0,027	0,072
-167,096	-200,000	0,031	-0,200
-166,081	-148,141	-0,204	0,012
-165,066	-53,267	0,024	0,008
-164,052	800,000	0,045	-0,088
-163,037	103,292	0,086	-0,072
-162,023	74,112	-0,061	-0,045
-161,008	102,392	0,125	0,104
-159,993	-174,594	0,143	0,003
-158,979	53,365	-0,113	0,077
-157,964	160,319	0,118	-0,117
-156,950	800,000	0,031	-0,073
-155,935	-200,000	-0,008	-0,066
-154,920	125,951	-0,040	0,036
-153,906	-200,000	-0,017	-0,134
-152,891	200,979	0,035	0,039
-151,877	800,000	-0,068	0,140
-150,862	-200,000	-0,012	-0,092
-149,847	53,163	0,092	0,063
-148,833	-159,390	-0,103	-0,004
-147,818	167,710	-0,103	-0,104
-146,804	-200,000	-0,003	-0,042
-145,789	14,524	-0,125	-0,069
-144,775	-31,357	-0,131	0,052
-143,760	-59,108	0,021	-0,006
-142,745	800,000	0,028	0,056
-141,731	-99,189	0,071	0,013
-140,716	749,106	0,090	0,174
-139,702	-146,720	0,174	-0,011
-138,687	48,029	0,080	-0,053
-137,672	86,706	-0,134	-0,105
-136,658	800,000	-0,016	-0,047
-135,643	-42,359	-0,049	0,018
-134,629	-200,000	0,000	-0,032
-133,614	-105,995	0,138	-0,022
-132,599	20,627	0,173	0,099
-131,585	800,000	-0,042	0,111
-130,570	-200,000	0,045	-0,161
-129,556	91,820	-0,075	-0,060
-128,541	-31,832	-0,039	-0,015
-127,526	-25,695	-0,069	-0,029
-126,512	-200,000	-0,032	-0,146
-125,497	-158,649	0,146	0,006
-124,483	202,213	0,051	0,056
-123,468	87,583	-0,112	0,088
-122,453	-153,173	0,108	0,005
-121,439	-51,648	-0,122	-0,040
-120,424	-148,785	-0,080	-0,005
-119,410	102,956	0,067	0,056
-118,395	-17,230	-0,109	-0,049
-117,380	800,000	-0,046	0,131
-116,366	68,523	-0,108	0,078
-115,351	89,844	-0,051	-0,041
-114,337	-200,000	-0,032	-0,140
-113,322	-200,000	-0,001	-0,056
-112,307	-38,642	0,092	0,034
-111,293	46,473	0,035	0,023
-110,278	-200,000	-0,005	-0,043
-109,264	485,582	-0,068	0,110
-108,249	800,000	-0,016	-0,045
-107,234	-200,000	0,014	0,079
-106,220	800,000	-0,020	0,045
-105,205	136,154	-0,057	0,053
-104,191	-35,183	0,053	0,020
-103,176	191,147	0,101	0,108
-102,162	800,000	0,069	0,170
-101,147	-200,000	0,013	-0,093
-100,132	-26,377	-0,149	-0,062
-99,118	800,000	-0,015	0,034
-98,103	-200,000	-0,002	-0,052
-97,089	-8,886	0,053	0,025
-96,074	51,196	-0,073	-0,049
-95,059	-16,012	0,154	0,069
-94,045	-140,452	-0,067	0,005
-93,030	105,168	-0,072	0,060
-92,016	-200,000	0,005	-0,041
-91,001	74,299	0,100	0,074
-89,986	-139,244	0,072	-0,005
-88,972	213,421	0,069	0,078
-87,957	125,480	-0,062	0,055
-86,943	28,436	-0,042	-0,025
-85,928	-22,817	-0,129	-0,055
-84,913	-62,251	-0,087	0,025
-83,899	4,292	0,074	-0,038
-82,884	39,997	0,052	-0,033
-81,870	568,945	-0,068	0,117
-80,855	137,484	-0,033	0,031
-79,840	-16,598	0,038	0,017
-78,826	40,511	-0,063	0,040
-77,811	220,505	-0,075	-0,086
-76,797	800,000	0,024	0,064
-75,782	127,350	0,063	0,057
-74,767	-74,619	-0,139	0,035
-73,753	-97,411	0,064	-0,012
-72,738	800,000	0,074	0,198
-71,724	44,617	-0,149	-0,097
-70,709	-200,000	-0,004	-0,187
-69,694	-94,272	0,147	-0,028
-68,680	293,874	-0,127	0,165
-67,665	-4,981	0,126	0,061
-66,651	-200,000	0,041	0,216
-65,636	246,208	-0,045	0,053
-64,622	-200,000	0,016	-0,095
-63,607	154,988	0,050	0,049
-62,592	800,000	-0,028	-0,079
-61,578	55,422	0,090	-0,062
-60,563	96,970	-0,066	0,053
-59,549	289,217	0,092	0,118
-58,534	-21,387	-1,484	-0,639
-57,519	403,822	-1,404	-2,101
-56,505	-200,000	-0,522	-4,511
-55,490	256,676	0,871	1,062
-54,476	800,000	5,066	11,303
-53,461	-200,000	18,674	300,426
-52,446	800,000	734,561	2274,367
-51,432	563,461	1650,551	2842,391
-50,417	78,787	1668,118	1262,969
-49,403	22,172	1541,334	889,102
-48,388	16,103	1463,870	814,961
-47,373	17,836	1453,839	817,708
-46,359	17,005	1443,878	808,092
-45,344	14,372	1439,514	793,028
-44,330	14,323	1437,595	791,704
-43,315	14,266	1436,026	790,536
-42,300	14,327	1434,142	789,757
-41,286	14,345	1433,202	789,294
-40,271	14,335	1431,732	788,407
-39,257	14,319	1430,336	787,528
-38,242	14,368	1429,150	787,079
-37,227	14,382	1427,920	786,438
-36,213	14,374	1426,714	785,702
-35,198	14,354	1425,636	784,985
-34,184	14,371	1424,762	784,550
-33,169	14,295	1423,288	783,352
-32,154	14,357	1422,213	783,020
-31,140	14,332	1420,780	782,084
-30,125	14,365	1419,725	781,624
-29,111	14,350	1418,666	780,942
-28,096	14,319	1417,511	780,129
-27,082	14,285	1416,410	779,330
-26,067	14,275	1415,402	778,696
-25,052	14,281	1414,453	778,173
-24,038	14,250	1413,377	777,404
-23,023	14,227	1412,580	776,827
-22,009	14,237	1411,565	776,288
-20,994	14,234	1410,574	775,695
-19,979	14,186	1409,898	775,070
-18,965	14,239	1408,606	774,577
-17,950	14,211	1407,690	773,912
-16,936	14,235	1406,686	773,440
-15,921	14,160	1405,793	772,570
-14,906	14,191	1404,734	772,098
-13,892	14,169	1403,792	771,450
-12,877	14,141	1403,044	770,877
-11,863	14,154	1402,051	770,360
-10,848	14,138	1401,362	769,879
-9,833	14,135	1400,245	769,219
-8,819	14,085	1399,684	768,646
-7,804	14,143	1398,441	768,204
-6,790	14,101	1397,494	767,458
-5,775	14,066	1396,450	766,694
-4,760	14,086	1395,321	766,136
-3,746	14,073	1394,620	765,660
-2,731	14,046	1393,846	765,077
-1,717	14,108	1392,874	764,801
-0,702	14,056	1391,175	763,598
0,313	17,979	1309,617	736,977
1,327	34,493	705,491	435,248
2,342	52,860	123,989	83,809
3,356	3,241	16,587	8,516
4,371	8,054	3,157	1,672
5,386	-25,646	0,676	0,281
6,400	-200,000	-0,006	0,185
7,415	-62,654	-0,220	-0,064
8,429	37,596	-0,374	-0,234
9,444	2,728	-0,322	-0,165
10,459	-40,602	-0,286	-0,104
11,473	-0,488	-0,333	-0,167
12,488	-11,181	-0,349	-0,162
13,502	95,451	-0,231	-0,186
14,517	-11,099	-0,441	-0,205
15,531	24,648	-0,526	-0,307
16,546	131,338	-0,233	-0,212
17,561	235,650	-0,302	-0,353
18,575	18,625	-0,181	-0,102
19,590	47,861	-0,231	-0,152
20,604	19,771	-0,251	-0,142
21,619	76,251	-0,420	-0,314
22,634	110,292	-0,414	-0,351
23,648	94,845	-0,469	-0,377
24,663	147,610	-0,326	-0,311
25,677	-18,877	-0,467	-0,205
26,692	100,905	-0,369	-0,303
27,707	79,414	-0,287	-0,217
28,721	477,911	-0,185	-0,296
29,736	76,942	-0,444	-0,333
30,750	235,733	-0,333	-0,389
31,765	125,313	-0,421	-0,375
32,780	54,129	-0,458	-0,310
33,794	-5,313	-0,341	-0,165
34,809	-43,640	-0,451	-0,160
35,823	55,868	-0,446	-0,305
36,838	-20,779	-0,488	-0,211
37,853	40,305	-0,346	-0,219
38,867	82,909	-0,408	-0,313
39,882	103,941	-0,440	-0,365
40,896	44,834	-0,241	-0,156
41,911	81,343	-0,290	-0,221
42,926	-16,863	-0,415	-0,184
43,940	-48,547	-0,402	-0,136
44,955	197,398	-0,287	-0,309
45,969	45,491	-0,397	-0,258
46,984	-16,245	-0,477	-0,213
47,999	58,198	-0,278	-0,192
49,013	8,347	-0,282	-0,149
50,028	94,989	-0,237	-0,190
51,042	1,507	-0,373	-0,189
52,057	78,438	-0,341	-0,256
53,071	69,785	-0,415	-0,301
54,086	34,709	-0,283	-0,174
55,101	141,225	-0,310	-0,289
56,115	239,754	-0,228	-0,268
57,130	-44,788	-0,390	-0,136
58,144	130,847	-0,363	-0,328
59,159	205,905	-0,289	-0,317
60,174	211,812	-0,315	-0,350
61,188	70,646	-0,346	-0,252
62,203	25,675	-0,352	-0,206
63,217	52,662	-0,308	-0,207
64,232	153,270	-0,287	-0,277
65,247	63,914	-0,330	-0,233
66,261	134,798	-0,289	-0,264
67,276	28,969	-0,381	-0,227
68,290	-3,336	-0,282	-0,138
69,305	-6,989	-0,285	-0,136
70,320	-43,661	-0,343	-0,121
71,334	-1,295	-0,383	-0,190
72,349	34,330	-0,206	-0,126
73,363	25,105	-0,261	-0,152
74,378	-3,292	-0,344	-0,168
75,393	41,086	-0,353	-0,224
76,407	25,233	-0,425	-0,248
77,422	-19,552	-0,375	-0,163
78,436	22,794	-0,321	-0,185
79,451	48,191	-0,311	-0,204
80,466	7,785	-0,331	-0,174
81,480	117,592	-0,280	-0,242
82,495	187,338	-0,285	-0,299
83,509	12,953	-0,273	-0,148
84,524	664,913	-0,182	-0,332
85,539	132,295	-0,201	-0,182
86,553	52,544	-0,203	-0,136
87,568	342,162	-0,164	-0,226
88,582	359,198	-0,214	-0,302
89,597	26,793	-0,309	-0,182
90,611	114,513	-0,277	-0,237
91,626	-110,761	-0,317	-0,045
92,641	1,429	-0,258	-0,130
93,655	-140,723	-0,400	-0,029
94,670	234,166	-0,229	-0,265
95,684	242,170	-0,260	-0,306
96,699	329,208	-0,196	-0,266
97,714	35,419	-0,270	-0,166
98,728	121,006	-0,255	-0,222
99,743	-200,000	-0,006	-0,115
100,757	14,452	-0,213	-0,117
101,772	170,922	-0,258	-0,259
102,787	-79,269	-0,328	-0,077
103,801	195,105	-0,166	-0,178
104,816	174,911	-0,262	-0,266
105,830	28,773	-0,247	-0,146
106,845	376,272	-0,152	-0,218
107,860	445,953	-0,157	-0,243
108,874	70,258	-0,176	-0,127
109,889	231,047	-0,254	-0,292
110,903	505,906	-0,196	-0,320
111,918	106,867	-0,255	-0,212
112,933	69,229	-0,287	-0,207
113,947	370,746	-0,146	-0,208
114,962	72,546	-0,323	-0,236
115,976	56,131	-0,275	-0,187
116,991	170,195	-0,185	-0,185
118,006	-35,396	-0,238	-0,090
119,020	148,850	-0,191	-0,181
120,035	757,843	-0,142	-0,270
121,049	-82,435	-0,168	-0,038
122,064	61,763	-0,220	-0,153
123,079	-55,026	-0,333	-0,105
124,093	-44,619	-0,254	-0,088
125,108	-23,283	-0,299	-0,125
126,122	36,963	-0,364	-0,225
127,137	300,588	-0,220	-0,285
128,151	32,153	-0,415	-0,250
129,166	-51,153	-0,287	-0,094
130,181	-200,000	-0,033	-0,219
131,195	188,130	-0,226	-0,237
132,210	76,071	-0,338	-0,250
133,224	48,300	-0,244	-0,159
134,239	229,606	-0,204	-0,234
135,254	145,247	-0,190	-0,178
136,268	2,676	-0,147	-0,074
137,283	-37,732	-0,210	-0,078
138,297	-161,839	-0,358	0,012
139,312	65,248	-0,121	-0,085
140,327	-93,974	-0,435	-0,083
141,341	86,038	-0,177	-0,136
142,356	331,424	-0,174	-0,235
143,370	65,681	-0,233	-0,165
144,385	157,208	-0,185	-0,179
145,400	741,195	-0,124	-0,234
146,414	54,055	-0,299	-0,201
147,429	59,706	-0,285	-0,196
148,443	240,109	-0,205	-0,239
149,458	59,697	-0,315	-0,217
150,473	338,404	-0,172	-0,235
151,487	167,666	-0,214	-0,213
152,502	51,909	-0,236	-0,157
153,516	565,141	-0,183	-0,311
154,531	-70,015	-0,355	-0,094
155,546	-4,065	-0,210	-0,101
156,560	-38,615	-0,306	-0,112
157,575	800,000	-0,064	-0,130
158,589	359,600	-0,148	-0,207
159,604	41,682	-0,231	-0,146
160,619	430,988	-0,169	-0,256
161,633	30,033	-0,281	-0,167
162,648	23,843	-0,243	-0,139
163,662	67,859	-0,128	-0,091
164,677	4,205	-0,393	-0,200
165,692	123,296	-0,133	0,116
166,706	108,396	-0,267	-0,222
167,721	56,398	-0,334	-0,226
168,735	47,264	-0,261	-0,169
169,750	-72,090	-0,260	-0,067
170,764	13,199	-0,271	-0,146
171,779	195,813	-0,178	-0,189
172,794	573,855	-0,146	-0,249
173,808	371,062	-0,230	-0,326
174,823	175,280	-0,210	-0,212
175,837	513,754	-0,084	-0,138
176,852	416,963	-0,195	-0,291
177,867	-200,000	-0,003	-0,170
178,881	39,648	-0,202	-0,126
179,896	800,000	-0,135	-0,263
180,910	-81,009	-0,290	-0,066
181,925	69,793	-0,186	-0,134
182,940	19,606	-0,273	-0,152
183,954	121,831	-0,281	-0,244
184,969	66,232	-0,282	-0,199
185,983	-50,329	-0,229	-0,075
186,998	39,767	-0,194	-0,121
188,013	800,000	-0,121	-0,255
189,027	0,878	-0,367	-0,183
190,042	700,798	-0,124	-0,227
191,056	132,081	-0,204	-0,183
192,071	90,915	-0,161	-0,126
193,086	723,560	-0,078	-0,145
194,100	238,527	-0,130	-0,150
195,115	84,436	-0,228	-0,173
196,129	-155,225	-0,330	-0,015
197,144	-12,023	-0,295	-0,134
198,159	-29,265	-0,172	-0,068
199,173	-140,033	-0,264	-0,019
200,188	256,219	-0,099	-0,119
201,202	202,035	-0,188	-0,202
202,217	-74,585	-0,288	-0,072
203,232	476,271	-0,108	-0,171
204,246	300,103	-0,228	-0,293
205,261	-200,000	-0,055	-0,184
206,275	-7,246	-0,189	-0,089
207,290	-142,335	-0,084	0,006
208,304	228,108	-0,058	-0,066
209,319	185,758	-0,140	-0,145
210,334	-26,360	-0,175	-0,071
211,348	-34,757	-0,172	-0,065
212,363	167,737	-0,273	-0,270
213,377	592,811	-0,091	-0,157
214,392	-170,507	-0,206	-0,005
215,407	-123,156	-0,138	-0,015
216,421	71,710	-0,262	-0,189
217,436	273,233	-0,137	-0,168
218,450	248,280	-0,210	-0,248
219,465	-42,032	-0,273	-0,097
220,480	-99,907	-0,305	-0,052
221,494	49,445	-0,129	-0,084
222,509	361,729	-0,073	0,102
223,523	-39,188	-0,178	-0,065
224,538	-41,537	-0,243	-0,086
225,553	148,377	-0,110	-0,103
226,567	606,417	-0,153	-0,266
227,582	304,335	-0,124	-0,160
228,596	414,506	-0,106	-0,157
229,611	68,623	-0,169	-0,120
230,626	-142,686	-0,205	0,014
231,640	-9,309	-0,285	-0,132
232,655	382,670	-0,154	-0,220
233,669	800,000	-0,080	-0,208
234,684	-14,698	-0,298	-0,132
235,699	-142,525	-0,182	-0,012
236,713	-12,463	-0,185	-0,084
237,728	94,448	-0,080	0,063
238,742	-80,367	-0,235	-0,054
239,757	181,969	-0,206	-0,211
240,772	-200,000	-0,070	-0,215
241,786	800,000	-0,148	-0,310
242,801	211,757	-0,090	-0,098
243,815	-200,000	-0,011	-0,060
244,830	148,669	-0,115	-0,108
245,844	-66,754	-0,281	-0,077
246,859	336,252	-0,135	-0,181
247,874	155,757	-0,146	-0,139
248,888	-115,118	-0,165	-0,021
249,903	-66,861	-0,115	-0,031
250,917	-26,305	-0,208	-0,084
251,932	800,000	-0,037	-0,108
252,947	-55,226	-0,172	-0,053
253,961	800,000	-0,075	-0,159
254,976	91,855	-0,274	-0,213
255,990	800,000	-0,118	-0,251
257,005	301,054	-0,103	-0,131
258,020	-200,000	-0,032	-0,251
259,034	55,779	-0,197	-0,132
260,049	-200,000	-0,023	-0,123
261,063	800,000	-0,100	-0,216
262,078	166,173	-0,133	-0,130
263,093	409,812	-0,130	-0,191
264,107	-26,414	-0,152	-0,061
265,122	-58,600	-0,080	-0,024
266,136	-2,016	-0,202	-0,098
267,151	251,007	-0,078	-0,091
268,166	-68,332	-0,261	-0,070
269,180	289,953	-0,182	-0,229
270,195	182,173	-0,155	-0,159
271,209	132,066	-0,182	-0,162
272,224	-56,754	-0,282	-0,086
273,239	648,214	-0,052	-0,092
274,253	285,625	-0,107	0,134
275,268	800,000	-0,049	-0,124
276,282	800,000	-0,080	-0,213
277,297	149,047	-0,125	-0,117
278,312	24,340	-0,197	-0,112
279,326	-49,578	-0,221	-0,072
280,341	200,645	-0,151	-0,160
281,355	50,939	-0,078	0,051
282,370	352,960	-0,052	0,072
283,384	261,641	-0,080	-0,096
284,399	137,757	-0,155	-0,140
285,414	-80,650	-0,158	-0,036
286,428	85,333	-0,180	-0,136
287,443	-200,000	-0,032	-0,099
288,457	-89,507	-0,047	-0,009
289,472	-11,807	-0,235	-0,106
290,487	165,114	-0,105	-0,102
291,501	93,746	-0,146	-0,114
292,516	77,551	-0,086	-0,063
293,530	-61,571	-0,022	0,006
294,545	210,576	-0,224	-0,243
295,560	72,020	-0,055	-0,040
296,574	278,003	-0,108	-0,132
297,589	622,284	-0,169	-0,295
298,603	800,000	-0,148	-0,287
299,618	494,290	-0,099	-0,157
300,633	-200,000	-0,042	-0,235
301,647	297,161	-0,155	-0,197
302,662	-71,473	-0,196	-0,050
303,676	-155,365	-0,086	0,004
304,691	323,622	-0,121	-0,160
305,706	494,737	-0,151	-0,240
306,720	156,933	-0,157	-0,149
307,735	183,231	-0,109	-0,111
308,749	-67,457	-0,113	0,030
309,764	28,529	-0,131	-0,076
310,779	-200,000	0,001	0,008
311,793	425,417	-0,093	-0,138
312,808	402,749	-0,151	-0,220
313,822	20,484	-0,161	-0,090
314,837	179,963	-0,137	-0,139
315,852	296,835	-0,098	-0,124
316,866	223,447	-0,165	-0,184
317,881	-200,000	-0,036	-0,160
318,895	-3,117	-0,222	-0,106
319,910	294,032	-0,137	-0,173
320,925	-200,000	-0,061	-0,195
321,939	671,713	-0,091	-0,163
322,954	287,244	-0,124	-0,154
323,968	141,932	-0,063	-0,058
324,983	800,000	-0,063	-0,190
325,997	56,444	-0,190	-0,127
327,012	31,087	-0,160	-0,094
328,027	262,020	-0,224	-0,267
329,041	-145,149	-0,054	-0,003
330,056	78,665	-0,135	-0,099
331,070	6,968	-0,115	-0,059
332,085	800,000	-0,099	-0,219
333,100	322,288	-0,129	-0,170
334,114	179,050	-0,187	-0,188
335,129	87,100	-0,189	-0,144
336,143	304,229	-0,113	-0,144
337,158	-36,321	-0,060	-0,022
338,173	28,673	-0,235	-0,136
339,187	-81,370	-0,102	-0,023
340,202	57,054	-0,115	-0,077
341,216	273,033	-0,159	-0,193
342,231	800,000	-0,078	-0,232
343,246	131,676	-0,080	-0,071
344,260	800,000	-0,047	-0,108
345,275	126,732	-0,152	-0,132
346,289	112,124	-0,118	-0,098
347,304	222,158	-0,017	0,019
348,319	-110,549	-0,066	-0,009
349,333	86,813	-0,127	-0,096
350,348	120,918	-0,192	-0,164
351,362	38,118	-0,229	-0,140
352,377	-14,643	-0,247	-0,109
353,392	262,247	-0,061	-0,073
354,406	99,187	-0,138	0,109
355,421	208,791	1310,412	1409,251
356,435	160,665	1470,636	1409,752
