DTS Sentinel unit serial number:	SN410029Multiplexer serial number:	ORYXHardware model number:	OX2-SRSoftware version number:	ORYX F/W v4,00 Oryx Data Collector v3.7.2.0data status	okinstallation	B3 Nyhavnadifferential loss correction	single-endedforward channel	channel 1reverse channel	N/Adate	2023/12/03time	01:12:30forward acquisition time	300,00reverse acquisition time	0,00gamma	499,1914k internal	0,3201k external	0,3201temperature offset calibration	1,0000default loss term (dB/km)	0,3820temperature slope calibration	1,0000multiplexer offset coefficient	1,0000multiplexer slope coefficient	1,0000fibre end	0,00T internal ref (°C)	13,33T ext. ref 1 (°C)	-1,64T ext. ref 2 (°C)	-1,66length (m)	temperature (°C)	Stokes	anti-Stokes-744,400	800,000	-0,125	-0,318
-743,385	-200,000	-0,041	0,225
-742,371	87,408	-0,383	-0,308
-741,356	800,000	0,083	0,233
-740,342	75,037	-0,253	-0,194
-739,327	-200,000	-0,036	0,304
-738,312	800,000	-0,114	-0,304
-737,298	-200,000	-0,030	0,224
-736,283	44,781	-0,247	-0,165
-735,269	-200,000	-0,033	0,198
-734,254	99,070	-0,279	-0,234
-733,239	800,000	-0,083	0,248
-732,225	-114,476	-0,058	-0,008
-731,210	800,000	0,106	0,216
-730,196	90,155	0,008	0,006
-729,181	-200,000	0,012	-0,043
-728,167	-93,677	-0,096	-0,019
-727,152	155,817	-0,095	0,096
-726,137	18,446	-0,059	0,034
-725,123	177,006	0,055	-0,058
-724,108	-119,656	0,026	0,003
-723,094	-200,000	-0,048	-0,171
-722,079	513,303	-0,036	-0,061
-721,064	-11,421	0,073	-0,035
-720,050	-108,840	-0,099	0,015
-719,035	-114,959	0,139	0,019
-718,021	800,000	0,016	-0,048
-717,006	800,000	0,052	-0,115
-715,991	113,237	-0,094	-0,083
-714,977	-85,456	0,107	-0,024
-713,962	-40,132	0,097	0,037
-712,948	12,707	-0,092	-0,051
-711,933	-200,000	0,019	-0,116
-710,918	79,826	-0,044	-0,034
-709,904	-28,226	-0,084	0,035
-708,889	660,276	-0,056	-0,105
-707,875	800,000	0,011	-0,027
-706,860	-90,422	-0,112	-0,023
-705,845	175,016	-0,078	-0,082
-704,831	194,360	-0,027	-0,029
-703,816	64,771	-0,091	-0,066
-702,802	179,641	-0,059	-0,063
-701,787	140,861	-0,062	0,060
-700,772	-61,570	0,092	-0,028
-699,758	-200,000	0,018	-0,064
-698,743	104,644	0,090	0,077
-697,729	118,507	-0,067	0,060
-696,714	-200,000	0,025	0,083
-695,699	800,000	-0,024	-0,074
-694,685	235,833	0,035	-0,042
-693,670	328,688	-0,033	-0,047
-692,656	800,000	0,035	-0,111
-691,641	453,355	0,041	-0,066
-690,627	-108,997	0,069	-0,011
-689,612	800,000	0,030	-0,072
-688,597	-35,440	-0,067	-0,026
-687,583	-200,000	0,007	-0,081
-686,568	-200,000	0,005	-0,046
-685,554	-200,000	0,001	0,143
-684,539	152,220	-0,069	-0,069
-683,524	181,689	0,080	-0,085
-682,510	-144,781	-0,076	-0,005
-681,495	-200,000	-0,021	-0,141
-680,481	113,358	-0,069	-0,061
-679,466	-200,000	-0,016	-0,092
-678,451	-40,663	-0,088	-0,033
-677,437	25,698	0,049	-0,030
-676,422	-200,000	0,001	0,022
-675,408	800,000	-0,077	0,199
-674,393	116,453	0,085	-0,076
-673,378	800,000	-0,075	0,164
-672,364	-200,000	-0,017	0,059
-671,349	20,685	0,024	-0,014
-670,335	800,000	-0,042	0,121
-669,320	-200,000	0,049	-0,173
-668,305	800,000	0,028	-0,087
-667,291	-44,296	-0,094	-0,034
-666,276	800,000	-0,048	-0,110
-665,262	74,527	-0,130	-0,099
-664,247	-94,049	0,107	-0,021
-663,232	-5,995	0,091	0,045
-662,218	330,990	0,044	-0,062
-661,203	259,169	0,028	0,035
-660,189	-160,145	0,045	-0,002
-659,174	-200,000	0,005	-0,109
-658,159	-124,623	-0,052	0,006
-657,145	-200,000	-0,005	0,025
-656,130	800,000	0,072	-0,210
-655,116	-51,045	0,129	-0,044
-654,101	-200,000	0,018	0,116
-653,086	-200,000	0,025	-0,137
-652,072	37,736	0,061	-0,039
-651,057	287,410	0,039	0,051
-650,043	-9,182	-0,031	-0,015
-649,028	-200,000	-0,013	-0,080
-648,014	237,451	0,038	-0,046
-646,999	59,579	0,086	0,062
-645,984	-93,608	-0,050	-0,010
-644,970	-200,000	-0,014	-0,138
-643,955	97,733	-0,111	-0,092
-642,941	-200,000	0,000	0,013
-641,926	174,318	-0,074	-0,078
-640,911	617,818	-0,018	0,033
-639,897	-200,000	-0,006	0,223
-638,882	-200,000	-0,008	0,025
-637,868	582,246	-0,060	-0,107
-636,853	800,000	-0,052	-0,125
-635,838	-10,039	-0,071	0,034
-634,824	562,025	0,027	0,048
-633,809	265,920	0,012	0,015
-632,795	25,387	0,099	0,059
-631,780	214,228	-0,067	0,077
-630,765	-200,000	0,023	0,230
-629,751	-200,000	-0,004	0,043
-628,736	-64,870	-0,123	0,036
-627,722	718,478	-0,030	-0,058
-626,707	-129,550	-0,208	-0,021
-625,692	-19,793	-0,057	-0,026
-624,678	-38,741	0,124	0,047
-623,663	10,492	-0,135	-0,074
-622,649	-200,000	-0,010	-0,156
-621,634	158,016	0,049	-0,049
-620,619	800,000	-0,025	-0,062
-619,605	-69,905	0,064	-0,017
-618,590	-200,000	0,003	0,049
-617,576	-200,000	-0,015	0,144
-616,561	705,844	0,060	0,115
-615,546	-200,000	-0,001	0,023
-614,532	-141,539	-0,130	-0,009
-613,517	800,000	-0,018	0,047
-612,503	338,850	-0,064	0,090
-611,488	800,000	-0,054	-0,136
-610,474	113,181	0,056	-0,050
-609,459	398,953	-0,101	0,153
-608,444	43,138	0,020	0,013
-607,430	39,124	-0,153	-0,099
-606,415	-200,000	0,020	-0,090
-605,401	-200,000	-0,003	0,034
-604,386	-200,000	0,004	0,182
-603,371	-200,000	0,034	0,163
-602,357	-55,280	0,058	0,019
-601,342	395,097	-0,039	0,058
-600,328	-200,000	-0,037	-0,181
-599,313	-1,657	-0,153	-0,078
-598,298	-29,234	0,064	-0,026
-597,284	87,765	0,088	0,071
-596,269	-2,058	0,153	0,078
-595,255	453,232	0,083	0,134
-594,240	74,049	-0,081	0,061
-593,225	-48,434	-0,014	0,005
-592,211	800,000	0,010	-0,022
-591,196	8,465	0,166	-0,090
-590,182	-200,000	0,001	0,035
-589,167	-200,000	0,009	0,070
-588,152	3,453	-0,037	0,020
-587,138	-46,176	-0,054	0,019
-586,123	-1,766	-0,022	-0,011
-585,109	-127,521	-0,090	0,009
-584,094	-200,000	-0,001	-0,088
-583,079	-200,000	0,029	0,097
-582,065	181,396	-0,047	0,050
-581,050	586,886	-0,067	-0,120
-580,036	-200,000	-0,003	-0,127
-579,021	-200,000	-0,058	-0,221
-578,006	780,306	-0,017	-0,034
-576,992	800,000	-0,038	-0,112
-575,977	-200,000	0,020	0,065
-574,963	800,000	0,028	-0,058
-573,948	-200,000	-0,015	0,064
-572,934	-29,053	-0,064	-0,026
-571,919	800,000	-0,006	-0,015
-570,904	-200,000	-0,013	0,055
-569,890	-200,000	-0,006	-0,158
-568,875	-137,102	0,150	0,012
-567,861	800,000	-0,040	-0,096
-566,846	-200,000	0,011	0,082
-565,831	260,492	0,043	0,054
-564,817	365,111	-0,052	-0,076
-563,802	-156,546	-0,138	0,006
-562,788	-163,692	-0,042	-0,001
-561,773	-200,000	0,001	0,008
-560,758	-43,526	-0,076	0,028
-559,744	-63,165	0,131	-0,039
-558,729	5,580	0,107	-0,057
-557,715	800,000	-0,046	-0,096
-556,700	-17,001	-0,067	-0,030
-555,685	11,738	-0,026	-0,015
-554,671	-142,374	-0,066	-0,005
-553,656	7,727	0,050	0,027
-552,642	188,669	0,049	0,053
-551,627	-88,330	-0,037	-0,008
-550,612	-97,316	-0,025	0,005
-549,598	116,873	-0,044	0,039
-548,583	198,253	0,079	-0,087
-547,569	-22,157	-0,097	0,042
-546,554	-67,662	0,117	0,033
-545,539	-94,947	0,076	0,015
-544,525	575,805	-0,057	0,100
-543,510	313,591	0,033	-0,045
-542,496	-153,467	-0,088	-0,004
-541,481	-200,000	0,010	-0,046
-540,466	-52,048	0,069	0,023
-539,452	546,895	-0,028	-0,048
-538,437	-200,000	0,006	-0,026
-537,423	-200,000	0,009	0,146
-536,408	-114,963	-0,095	0,013
-535,393	800,000	-0,021	-0,047
-534,379	173,341	0,135	0,141
-533,364	105,065	-0,040	-0,034
-532,350	-200,000	0,014	0,096
-531,335	34,651	0,039	-0,024
-530,321	-200,000	0,006	0,103
-529,306	183,328	0,108	0,115
-528,291	577,990	-0,035	-0,063
-527,277	47,204	-0,159	-0,106
-526,262	515,324	0,086	0,145
-525,248	314,328	-0,046	-0,062
-524,233	-200,000	0,023	0,158
-523,218	-127,231	0,118	0,012
-522,204	-35,789	0,094	0,037
-521,189	800,000	-0,044	-0,101
-520,175	75,325	-0,153	0,116
-519,160	100,757	-0,068	0,057
-518,145	-200,000	0,015	-0,100
-517,131	36,357	0,078	0,050
-516,116	-141,734	-0,085	0,006
-515,102	100,751	0,061	0,051
-514,087	211,521	-0,084	-0,096
-513,072	-55,284	-0,096	-0,031
-512,058	800,000	0,052	-0,127
-511,043	800,000	0,020	0,049
-510,029	-200,000	0,011	0,131
-509,014	800,000	0,040	0,092
-507,999	192,956	-0,014	0,016
-506,985	800,000	0,038	-0,110
-505,970	-14,547	-0,080	-0,037
-504,956	745,516	-0,051	-0,100
-503,941	-200,000	0,001	0,005
-502,926	494,882	-0,023	0,039
-501,912	321,459	0,030	-0,041
-500,897	-39,994	-0,111	-0,041
-499,883	-92,313	-0,023	-0,005
-498,868	55,935	-0,042	-0,029
-497,853	800,000	0,006	-0,015
-496,839	243,406	-0,021	-0,026
-495,824	-116,198	0,131	0,017
-494,810	-52,045	0,026	0,009
-493,795	159,606	-0,099	-0,100
-492,781	800,000	0,019	0,055
-491,766	-200,000	-0,002	-0,042
-490,751	31,012	-0,169	-0,104
-489,737	129,331	0,047	-0,044
-488,722	-23,060	0,061	-0,026
-487,708	118,736	0,033	0,030
-486,693	-74,448	0,097	0,025
-485,678	-7,434	0,107	0,052
-484,664	800,000	-0,047	-0,138
-483,649	321,124	0,094	-0,129
-482,635	-200,000	0,008	-0,087
-481,620	800,000	-0,015	0,041
-480,605	-54,804	-0,026	0,008
-479,591	800,000	0,055	0,155
-478,576	62,749	-0,005	-0,004
-477,562	-95,518	-0,156	0,030
-476,547	578,161	0,030	-0,053
-475,532	-32,942	-0,095	0,038
-474,518	241,028	0,092	-0,110
-473,503	150,454	0,049	-0,048
-472,489	444,279	0,034	0,053
-471,474	-90,297	0,116	0,024
-470,459	560,858	-0,030	-0,052
-469,445	800,000	-0,055	-0,164
-468,430	201,988	-0,032	-0,036
-467,416	43,948	0,034	-0,023
-466,401	145,903	0,110	0,106
-465,386	-102,334	0,066	0,011
-464,372	-152,178	-0,043	-0,002
-463,357	-185,418	-0,060	0,001
-462,343	-200,000	-0,004	0,072
-461,328	-23,793	-0,040	0,017
-460,313	130,711	0,065	0,060
-459,299	-138,708	-0,066	-0,005
-458,284	-36,328	0,237	-0,091
-457,270	-50,971	-0,059	0,020
-456,255	47,975	-0,137	0,092
-455,241	308,950	-0,054	0,073
-454,226	80,061	0,070	-0,054
-453,211	674,141	-0,026	-0,048
-452,197	302,637	0,025	0,034
-451,182	800,000	0,065	0,185
-450,168	-76,743	0,148	-0,037
-449,153	-131,282	-0,054	-0,005
-448,138	548,673	-0,013	-0,023
-447,124	129,295	0,029	0,027
-446,109	-124,563	0,163	-0,018
-445,095	87,854	0,110	0,087
-444,080	-200,000	-0,009	-0,062
-443,065	216,847	0,069	0,080
-442,051	-17,233	-0,038	0,017
-441,036	329,315	0,048	-0,067
-440,022	-168,098	0,121	-0,003
-439,007	497,700	0,034	0,057
-437,992	-200,000	-0,042	-0,137
-436,978	-151,645	0,161	0,008
-435,963	-200,000	0,044	0,188
-434,949	-200,000	0,004	-0,039
-433,934	-68,913	0,030	-0,008
-432,919	800,000	-0,065	0,132
-431,905	380,777	-0,031	0,046
-430,890	171,742	0,098	0,101
-429,876	-39,000	0,045	-0,017
-428,861	292,411	0,064	-0,084
-427,846	189,277	0,032	0,034
-426,832	-21,077	-0,102	0,045
-425,817	-23,248	0,069	0,030
-424,803	-45,765	-0,123	-0,043
-423,788	800,000	0,031	0,068
-422,773	-200,000	-0,002	-0,075
-421,759	-200,000	0,022	0,077
-420,744	529,794	-0,072	0,122
-419,730	45,632	-0,100	-0,066
-418,715	-200,000	-0,016	-0,069
-417,701	59,211	-0,051	0,036
-416,686	193,457	-0,040	0,043
-415,671	-63,173	0,159	0,047
-414,657	-200,000	-0,022	0,110
-413,642	-200,000	0,014	0,050
-412,628	-200,000	-0,032	-0,181
-411,613	-25,729	-0,129	-0,054
-410,598	238,143	0,022	0,026
-409,584	70,694	0,029	-0,021
-408,569	-78,245	-0,024	-0,006
-407,555	-171,239	-0,030	-0,001
-406,540	231,230	0,050	-0,059
-405,525	-200,000	-0,004	0,048
-404,511	340,940	-0,046	-0,064
-403,496	-200,000	0,019	-0,104
-402,482	-119,804	0,089	0,011
-401,467	800,000	0,058	0,120
-400,452	-200,000	-0,040	0,135
-399,438	-200,000	-0,002	-0,059
-398,423	224,452	-0,072	0,084
-397,409	72,730	-0,084	-0,063
-396,394	204,969	-0,063	-0,070
-395,379	236,139	-0,068	0,081
-394,365	-50,826	-0,089	-0,030
-393,350	72,683	0,084	0,063
-392,336	-200,000	-0,007	0,090
-391,321	-200,000	0,010	0,037
-390,306	459,980	-0,063	-0,100
-389,292	-200,000	0,005	0,058
-388,277	497,038	0,020	-0,032
-387,263	313,066	0,098	0,133
-386,248	-173,355	0,061	-0,001
-385,233	800,000	0,061	0,126
-384,219	-200,000	-0,015	0,135
-383,204	82,814	0,137	0,107
-382,190	118,909	-0,127	0,113
-381,175	-200,000	-0,008	-0,095
-380,160	114,780	0,053	-0,046
-379,146	-23,328	0,017	0,007
-378,131	168,293	-0,065	0,066
-377,117	-200,000	0,033	-0,120
-376,102	-200,000	-0,007	0,071
-375,088	-200,000	-0,001	-0,151
-374,073	633,436	0,022	-0,041
-373,058	209,694	0,069	0,078
-372,044	-142,742	0,179	-0,012
-371,029	7,982	0,025	-0,013
-370,015	3,557	-0,008	0,004
-369,000	-200,000	0,064	-0,213
-367,985	-200,000	-0,026	-0,108
-366,971	-200,000	-0,010	-0,135
-365,956	178,525	0,151	-0,158
-364,942	-200,000	-0,011	0,079
-363,927	444,462	0,072	0,114
-362,912	-15,741	-0,092	0,042
-361,898	800,000	-0,038	-0,094
-360,883	-117,460	-0,067	0,009
-359,869	102,849	-0,053	-0,045
-358,854	-122,597	-0,138	0,016
-357,839	206,407	0,093	-0,104
-356,825	-200,000	-0,004	0,111
-355,810	800,000	-0,009	0,021
-354,796	-200,000	-0,015	-0,102
-353,781	376,751	0,049	0,071
-352,766	-200,000	0,027	-0,120
-351,752	-102,131	0,053	-0,009
-350,737	418,732	-0,015	0,024
-349,723	-200,000	-0,039	0,179
-348,708	71,214	-0,026	-0,019
-347,693	800,000	-0,018	-0,039
-346,679	-24,345	0,029	0,012
-345,664	149,272	-0,039	0,038
-344,650	149,724	0,061	0,059
-343,635	-200,000	-0,016	-0,127
-342,620	-149,569	0,090	-0,005
-341,606	-200,000	-0,004	-0,132
-340,591	-1,923	0,033	0,017
-339,577	800,000	0,055	-0,143
-338,562	-200,000	-0,018	-0,107
-337,548	187,026	0,060	-0,064
-336,533	-200,000	0,001	0,038
-335,518	-200,000	-0,001	-0,044
-334,504	-55,145	0,135	0,043
-333,489	4,383	-0,045	0,023
-332,475	253,079	-0,055	-0,067
-331,460	454,789	-0,058	0,092
-330,445	33,560	-0,130	0,080
-329,431	502,469	0,109	0,181
-328,416	68,227	-0,187	0,137
-327,402	-127,582	0,083	0,009
-326,387	468,590	-0,014	0,023
-325,372	-63,840	0,049	0,014
-324,358	800,000	0,039	-0,122
-323,343	-31,059	-0,048	0,019
-322,329	626,656	0,044	-0,081
-321,314	121,708	-0,145	-0,129
-320,299	154,787	0,115	0,113
-319,285	800,000	-0,041	0,091
-318,270	-200,000	-0,031	-0,152
-317,256	680,495	0,052	-0,098
-316,241	-43,766	-0,012	-0,004
-315,226	-200,000	-0,022	-0,096
-314,212	-200,000	-0,004	0,076
-313,197	769,173	0,035	-0,068
-312,183	153,767	-0,095	0,093
-311,168	-200,000	0,007	0,075
-310,153	133,848	0,075	0,069
-309,139	208,167	-0,101	-0,113
-308,124	125,371	0,030	0,027
-307,110	523,555	0,023	0,039
-306,095	254,402	-0,103	0,126
-305,080	81,261	-0,091	-0,070
-304,066	22,195	-0,138	-0,081
-303,051	800,000	-0,032	-0,071
-302,037	259,148	-0,171	-0,211
-301,022	248,326	0,015	0,018
-300,008	88,796	0,095	-0,075
-298,993	-200,000	0,000	0,009
-297,978	-30,171	0,158	0,064
-296,964	51,322	-0,083	0,056
-295,949	61,851	-0,129	-0,092
-294,935	163,370	-0,021	0,021
-293,920	47,259	-0,058	0,038
-292,905	446,618	0,034	0,054
-291,891	407,913	0,084	0,127
-290,876	174,910	0,070	-0,072
-289,862	-200,000	-0,049	0,178
-288,847	800,000	0,014	0,029
-287,832	62,308	-0,075	-0,053
-286,818	186,187	0,084	0,089
-285,803	348,625	-0,013	0,019
-284,789	-95,958	0,157	0,030
-283,774	-165,743	0,105	0,003
-282,759	-200,000	0,039	-0,154
-281,745	-200,000	0,006	-0,113
-280,730	-200,000	0,005	-0,103
-279,716	76,892	0,087	-0,066
-278,701	101,309	-0,130	0,108
-277,686	293,813	-0,058	-0,075
-276,672	800,000	0,039	0,078
-275,657	-3,604	-0,043	-0,021
-274,643	-200,000	0,041	-0,150
-273,628	-19,247	-0,099	-0,044
-272,613	217,027	0,003	-0,003
-271,599	-112,687	-0,076	0,011
-270,584	800,000	0,066	0,165
-269,570	83,544	0,037	0,028
-268,555	79,881	-0,025	0,019
-267,540	-200,000	-0,010	0,059
-266,526	-200,000	-0,004	-0,135
-265,511	-200,000	0,022	-0,077
-264,497	66,953	0,064	0,047
-263,482	-200,000	0,018	0,136
-262,467	-34,774	0,081	-0,031
-261,453	800,000	0,027	-0,054
-260,438	50,491	-0,045	0,031
-259,424	800,000	0,061	-0,129
-258,409	800,000	0,036	-0,097
-257,395	800,000	0,051	0,110
-256,380	624,082	0,055	-0,099
-255,365	-18,196	-0,054	-0,024
-254,351	639,076	-0,028	-0,051
-253,336	192,798	-0,035	0,038
-252,322	352,818	-0,058	-0,082
-251,307	-118,251	0,111	0,014
-250,292	357,065	-0,067	-0,096
-249,278	-51,751	-0,043	-0,014
-248,263	-104,661	0,060	-0,010
-247,249	-200,000	-0,006	-0,029
-246,234	0,933	0,072	-0,037
-245,219	-41,641	-0,048	0,018
-244,205	-118,223	-0,045	0,006
-243,190	800,000	-0,045	-0,090
-242,176	370,671	0,061	-0,089
-241,161	800,000	-0,036	0,086
-240,146	35,913	-0,110	0,069
-239,132	316,914	0,017	-0,023
-238,117	800,000	0,015	0,035
-237,103	-144,875	-0,018	-0,001
-236,088	8,191	-0,137	-0,073
-235,073	242,888	-0,021	0,026
-234,059	-46,083	-0,099	0,035
-233,044	-200,000	0,008	-0,041
-232,030	-36,868	0,079	-0,030
-231,015	-200,000	0,006	0,047
-230,000	-200,000	0,024	-0,091
-228,986	-83,758	-0,114	0,026
-227,971	278,423	0,056	-0,072
-226,957	-26,882	0,032	-0,013
-225,942	-200,000	0,010	0,067
-224,927	74,320	-0,108	-0,081
-223,913	-126,794	0,106	-0,011
-222,898	53,742	-0,119	-0,081
-221,884	-162,066	-0,077	0,003
-220,869	92,202	-0,100	0,080
-219,855	54,705	0,204	0,140
-218,840	619,474	0,082	0,147
-217,825	-133,180	0,002	0,000
-216,811	-200,000	-0,050	0,184
-215,796	-197,994	0,080	-0,000
-214,782	372,142	-0,024	0,034
-213,767	-85,788	-0,225	0,049
-212,752	800,000	-0,006	-0,016
-211,738	-38,287	0,137	-0,052
-210,723	713,991	0,043	-0,081
-209,709	-200,000	0,004	0,018
-208,694	69,633	0,040	-0,030
-207,679	139,247	0,017	-0,016
-206,665	190,962	0,075	0,081
-205,650	-136,470	0,099	-0,008
-204,636	-200,000	-0,016	0,087
-203,621	228,876	-0,036	-0,042
-202,606	126,354	-0,104	-0,093
-201,592	800,000	0,051	-0,124
-200,577	164,309	-0,031	-0,031
-199,563	198,362	0,061	0,066
-198,548	800,000	-0,066	0,144
-197,533	140,525	-0,076	0,071
-196,519	8,589	0,054	-0,029
-195,504	114,604	-0,061	-0,053
-194,490	25,537	-0,063	0,037
-193,475	-47,437	0,045	0,016
-192,460	445,009	0,053	-0,083
-191,446	198,868	0,035	0,038
-190,431	443,062	0,003	0,005
-189,417	-146,098	-0,070	-0,004
-188,402	423,312	-0,028	-0,043
-187,387	227,850	-0,026	0,030
-186,373	345,418	-0,038	-0,053
-185,358	-152,506	0,131	-0,007
-184,344	-61,141	0,085	-0,025
-183,329	-200,000	0,008	0,058
-182,315	678,085	0,049	0,091
-181,300	-97,085	0,087	-0,016
-180,285	124,185	-0,047	0,042
-179,271	42,632	0,068	0,044
-178,256	-159,942	-0,123	0,005
-177,242	800,000	-0,021	-0,064
-176,227	-28,017	-0,011	0,005
-175,212	-200,000	0,012	0,051
-174,198	73,185	0,072	0,053
-173,183	58,922	-0,090	-0,063
-172,169	721,147	-0,027	-0,052
-171,154	453,506	0,033	0,053
-170,139	384,192	-0,011	0,017
-169,125	490,181	0,040	0,065
-168,110	800,000	0,044	0,112
-167,096	-99,008	-0,035	-0,006
-166,081	339,972	0,060	0,084
-165,066	613,770	-0,102	-0,183
-164,052	-2,153	0,075	-0,037
-163,037	800,000	0,010	-0,029
-162,023	800,000	-0,025	-0,072
-161,008	800,000	0,083	0,172
-159,993	-96,470	0,114	-0,021
-158,979	156,785	-0,031	-0,030
-157,964	690,646	0,012	0,022
-156,950	490,084	-0,035	-0,058
-155,935	-23,898	0,029	-0,012
-154,920	376,197	0,046	0,067
-153,906	-113,948	-0,053	-0,007
-152,891	1,309	0,077	-0,039
-151,877	-200,000	0,020	0,160
-150,862	-200,000	0,000	0,138
-149,847	403,489	0,052	-0,078
-148,833	-102,356	-0,138	0,023
-147,818	-200,000	-0,011	0,037
-146,804	487,051	0,039	-0,063
-145,789	273,482	0,078	0,099
-144,775	800,000	-0,024	0,056
-143,760	-200,000	-0,019	0,090
-142,745	-21,530	0,029	0,013
-141,731	-61,226	-0,017	-0,005
-140,716	-170,869	0,118	-0,003
-139,702	145,813	-0,052	-0,050
-138,687	-200,000	0,018	0,074
-137,672	800,000	-0,032	0,098
-136,658	-200,000	-0,020	0,081
-135,643	-200,000	0,000	-0,065
-134,629	-41,924	0,050	-0,018
-133,614	800,000	0,038	-0,090
-132,599	-65,621	0,074	0,021
-131,585	533,572	0,072	0,121
-130,570	153,172	-0,070	0,068
-129,556	800,000	0,022	0,058
-128,541	-200,000	0,005	-0,093
-127,526	-200,000	-0,015	0,079
-126,512	-200,000	-0,015	0,145
-125,497	107,105	0,122	-0,103
-124,483	-200,000	-0,048	0,199
-123,468	-116,354	0,184	0,024
-122,453	639,394	-0,046	-0,084
-121,439	800,000	-0,032	0,085
-120,424	-21,657	-0,100	0,043
-119,410	79,458	0,072	-0,055
-118,395	-200,000	0,036	0,120
-117,380	800,000	-0,057	0,129
-116,366	-150,077	-0,090	-0,005
-115,351	-80,493	-0,064	-0,015
-114,337	166,891	0,013	-0,013
-113,322	800,000	0,037	-0,078
-112,307	183,477	-0,063	0,066
-111,293	49,035	0,031	0,021
-110,278	28,794	0,088	-0,053
-109,264	208,941	-0,040	-0,044
-108,249	-200,000	-0,030	0,107
-107,234	-200,000	0,006	0,072
-106,220	525,044	-0,010	0,017
-105,205	465,659	-0,003	-0,005
-104,191	-200,000	-0,011	0,227
-103,176	691,063	-0,052	0,097
-102,162	135,542	0,041	0,038
-101,147	470,110	-0,038	0,060
-100,132	800,000	-0,064	-0,146
-99,118	800,000	0,010	-0,023
-98,103	800,000	-0,024	-0,062
-97,089	-200,000	0,023	0,079
-96,074	256,736	0,091	0,112
-95,059	-60,853	-0,076	-0,023
-94,045	-200,000	-0,039	0,155
-93,030	366,070	-0,079	0,114
-92,016	638,840	-0,073	0,132
-91,001	328,585	0,033	-0,045
-89,986	-200,000	0,025	0,121
-88,972	246,287	-0,067	0,081
-87,957	-114,103	-0,107	0,015
-86,943	-101,266	0,159	0,027
-85,928	800,000	-0,028	-0,076
-84,913	56,121	-0,099	0,068
-83,899	71,365	0,075	-0,055
-82,884	435,873	0,019	0,030
-81,870	-200,000	0,002	0,082
-80,855	244,834	-0,125	0,149
-79,840	-200,000	0,033	-0,128
-78,826	184,075	-0,062	0,066
-77,811	-200,000	-0,009	-0,053
-76,797	800,000	-0,031	0,096
-75,782	-200,000	-0,015	0,083
-74,767	-200,000	-0,041	0,132
-73,753	-77,901	-0,017	-0,004
-72,738	-200,000	-0,007	-0,084
-71,724	-200,000	-0,020	-0,153
-70,709	-115,384	-0,026	0,003
-69,694	-140,515	0,159	0,012
-68,680	-200,000	0,032	0,138
-67,665	202,929	-0,109	0,120
-66,651	-200,000	-0,006	0,166
-65,636	-200,000	0,047	0,180
-64,622	26,095	-0,098	0,058
-63,607	-200,000	0,013	-0,147
-62,592	-89,028	-0,051	0,011
-61,578	286,112	0,068	-0,087
-60,563	-72,537	-0,120	0,031
-59,549	188,620	0,062	0,066
-58,534	7,721	-1,665	-0,880
-57,519	388,024	-1,395	-2,050
-56,505	-200,000	-0,600	-4,444
-55,490	329,331	0,842	1,150
-54,476	800,000	4,906	11,576
-53,461	-200,000	19,274	320,378
-52,446	-200,000	740,729	2335,350
-51,432	573,258	1655,788	2869,478
-50,417	78,254	1671,241	1261,866
-49,403	21,324	1544,225	885,921
-48,388	15,193	1466,427	811,472
-47,373	17,962	1456,849	819,525
-46,359	16,696	1446,710	807,718
-45,344	13,421	1442,153	789,450
-44,330	13,368	1440,166	788,078
-43,315	13,396	1438,326	787,171
-42,300	13,392	1436,672	786,220
-41,286	13,428	1435,318	785,615
-40,271	13,352	1434,422	784,731
-39,257	13,386	1432,721	783,933
-38,242	13,441	1431,562	783,532
-37,227	13,453	1430,280	782,855
-36,213	13,404	1429,072	781,928
-35,198	13,394	1428,070	781,302
-34,184	13,394	1427,196	780,792
-33,169	13,391	1425,650	779,901
-32,154	13,426	1424,516	779,419
-31,140	13,386	1423,316	778,539
-30,125	13,446	1422,186	778,173
-29,111	13,428	1421,015	777,417
-28,096	13,412	1419,818	776,655
-27,082	13,375	1418,916	775,958
-26,067	13,354	1417,833	775,235
-25,052	13,340	1416,631	774,484
-24,038	13,328	1415,790	773,937
-23,023	13,364	1414,589	773,419
-22,009	13,346	1413,648	772,789
-20,994	13,343	1412,654	772,198
-19,979	13,343	1411,915	771,764
-18,965	13,298	1410,971	771,007
-17,950	13,323	1409,975	770,550
-16,936	13,310	1409,065	769,962
-15,921	13,278	1407,932	769,159
-14,906	13,271	1406,990	768,584
-13,892	13,261	1406,049	767,992
-12,877	13,282	1405,093	767,538
-11,863	13,267	1404,313	767,009
-10,848	13,277	1403,539	766,602
-9,833	13,225	1402,688	765,867
-8,819	13,206	1401,734	765,227
-7,804	13,193	1400,743	764,597
-6,790	13,170	1399,838	763,965
-5,775	13,179	1398,707	763,358
-4,760	13,208	1397,823	762,980
-3,746	13,180	1396,768	762,243
-2,731	13,112	1396,251	761,616
-1,717	13,144	1395,236	761,180
-0,702	13,140	1393,350	760,105
0,313	16,984	1310,111	732,501
1,327	33,185	703,814	430,962
2,342	51,710	123,165	82,753
3,356	3,861	16,555	8,529
4,371	5,790	3,140	1,638
5,386	67,837	0,535	0,387
6,400	-200,000	0,077	0,287
7,415	-1,203	-0,135	-0,067
8,429	76,454	-0,241	-0,180
9,444	-1,919	-0,325	-0,161
10,459	-27,235	-0,262	-0,107
11,473	66,830	-0,438	-0,315
12,488	94,678	-0,302	-0,242
13,502	4,982	-0,320	-0,166
14,517	137,048	-0,267	-0,247
15,531	-71,278	-0,334	-0,088
16,546	175,880	-0,298	-0,305
17,561	79,992	-0,421	-0,319
18,575	48,724	-0,080	-0,053
19,590	24,346	-0,222	-0,129
20,604	-128,613	-0,156	-0,015
21,619	116,276	-0,383	-0,331
22,634	109,577	-0,455	-0,385
23,648	15,677	-0,456	-0,253
24,663	106,749	-0,343	-0,287
25,677	59,503	-0,413	-0,287
26,692	-40,511	-0,379	-0,138
27,707	99,674	-0,341	-0,278
28,721	81,581	-0,365	-0,279
29,736	25,194	-0,494	-0,289
30,750	-21,502	-0,458	-0,197
31,765	105,609	-0,372	-0,310
32,780	58,777	-0,451	-0,312
33,794	161,484	-0,303	-0,299
34,809	28,834	-0,418	-0,249
35,823	105,206	-0,332	-0,276
36,838	-15,402	-0,468	-0,210
37,853	230,575	-0,282	-0,326
38,867	130,440	-0,251	-0,227
39,882	2,652	-0,441	-0,225
40,896	129,775	-0,283	-0,255
41,911	255,170	-0,240	-0,291
42,926	180,016	-0,253	-0,261
43,940	-99,547	-0,490	-0,086
44,955	54,107	-0,293	-0,198
45,969	160,198	-0,247	-0,242
46,984	36,930	-0,361	-0,224
47,999	-5,066	-0,331	-0,160
49,013	-42,189	-0,277	-0,099
50,028	131,666	-0,232	-0,210
51,042	71,976	-0,317	-0,232
52,057	32,699	-0,400	-0,243
53,071	89,778	-0,443	-0,348
54,086	148,102	-0,359	-0,341
55,101	115,925	-0,340	-0,293
56,115	-46,708	-0,347	-0,119
57,130	53,775	-0,328	-0,222
58,144	65,768	-0,314	-0,224
59,159	74,526	-0,463	-0,342
60,174	-45,443	-0,419	-0,145
61,188	-11,328	-0,400	-0,185
62,203	156,962	-0,287	-0,280
63,217	2,824	-0,383	-0,195
64,232	12,923	-0,296	-0,161
65,247	44,300	-0,350	-0,225
66,261	154,527	-0,396	-0,383
67,276	57,515	-0,371	-0,255
68,290	3,839	-0,364	-0,187
69,305	189,336	-0,240	-0,254
70,320	84,957	-0,343	-0,264
71,334	8,391	-0,375	-0,198
72,349	-7,206	-0,366	-0,174
73,363	-21,026	-0,395	-0,169
74,378	-60,977	-0,328	-0,097
75,393	189,794	-0,210	-0,222
76,407	-27,395	-0,305	-0,124
77,422	418,978	-0,219	-0,331
78,436	-14,863	-0,202	-0,091
79,451	-55,286	-0,343	-0,108
80,466	12,224	-0,393	-0,212
81,480	7,173	-0,317	-0,166
82,495	88,550	-0,312	-0,243
83,509	289,089	-0,184	-0,235
84,524	-150,396	-0,207	-0,011
85,539	157,822	-0,245	-0,239
86,553	321,909	-0,286	-0,384
87,568	130,496	-0,235	-0,211
88,582	47,149	-0,331	-0,216
89,597	102,663	-0,381	-0,313
90,611	121,051	-0,273	-0,239
91,626	-113,204	-0,308	0,042
92,641	-2,018	-0,295	-0,145
93,655	39,140	-0,372	-0,233
94,670	91,473	-0,386	-0,304
95,684	118,544	-0,292	-0,253
96,699	118,873	-0,289	-0,250
97,714	82,354	-0,332	-0,253
98,728	169,879	-0,183	-0,184
99,743	-115,719	-0,237	-0,031
100,757	-51,680	-0,369	-0,120
101,772	-57,367	-0,312	-0,096
102,787	28,822	-0,302	-0,179
103,801	78,852	-0,338	-0,254
104,816	45,642	-0,263	-0,170
105,830	185,011	-0,172	-0,179
106,845	13,915	-0,170	-0,093
107,860	11,421	-0,165	-0,089
108,874	53,924	-0,238	-0,160
109,889	129,204	-0,447	-0,400
110,903	12,266	-0,202	-0,109
111,918	-105,415	-0,283	-0,045
112,933	92,647	-0,235	-0,186
113,947	159,499	-0,213	-0,208
114,962	75,852	-0,267	-0,198
115,976	-200,000	-0,039	-0,183
116,991	153,223	-0,257	-0,246
118,006	43,216	-0,257	-0,164
119,020	55,299	-0,296	-0,200
120,035	42,698	-0,323	-0,206
121,049	120,286	-0,262	-0,228
122,064	93,275	-0,217	-0,172
123,079	-67,081	-0,215	-0,059
124,093	47,710	-0,165	-0,108
125,108	46,887	-0,260	-0,169
126,122	116,096	-0,321	-0,275
127,137	193,489	-0,117	-0,124
128,151	95,191	-0,199	-0,158
129,166	-183,454	-0,302	-0,004
130,181	-11,371	-0,297	-0,136
131,195	281,577	-0,181	-0,228
132,210	104,138	-0,258	-0,212
133,224	19,329	-0,391	-0,219
134,239	-15,683	-0,353	-0,157
135,254	373,045	-0,172	-0,245
136,268	-89,349	-0,201	-0,041
137,283	158,490	-0,238	-0,231
138,297	120,026	-0,200	-0,173
139,312	179,548	-0,262	-0,269
140,327	-17,153	-0,160	-0,070
141,341	-124,576	-0,184	-0,020
142,356	-165,957	-0,179	-0,005
143,370	106,349	-0,130	-0,108
144,385	-96,566	-0,301	-0,055
145,400	90,209	-0,270	-0,211
146,414	111,701	-0,302	-0,254
147,429	800,000	-0,061	-0,155
148,443	401,441	-0,180	-0,265
149,458	11,666	-0,239	-0,128
150,473	31,123	-0,158	-0,094
151,487	-10,594	-0,189	-0,087
152,502	292,573	-0,148	-0,188
153,516	77,478	-0,363	-0,270
154,531	154,708	-0,220	-0,211
155,546	260,284	-0,251	-0,304
156,560	-42,409	-0,279	-0,099
157,575	-60,783	-0,227	-0,067
158,589	163,582	-0,193	-0,190
159,604	-114,084	-0,239	-0,032
160,619	273,393	-0,150	-0,186
161,633	76,739	-0,246	-0,182
162,648	104,812	-0,251	-0,206
163,662	99,766	-0,188	-0,152
164,677	145,004	-0,241	-0,225
165,692	-71,170	-0,369	-0,096
166,706	-21,733	-0,319	-0,135
167,721	127,860	-0,192	-0,170
168,735	166,144	-0,300	-0,297
169,750	-23,266	-0,257	-0,107
170,764	357,188	-0,109	-0,152
171,779	138,888	-0,215	-0,197
172,794	-69,475	-0,162	-0,043
173,808	60,694	-0,337	-0,233
174,823	31,595	-0,301	-0,180
175,837	545,780	-0,166	-0,277
176,852	-60,076	-0,259	-0,077
177,867	5,173	-0,226	-0,116
178,881	17,997	-0,280	-0,155
179,896	66,184	-0,157	-0,111
180,910	36,425	-0,279	-0,171
181,925	-35,882	-0,175	-0,065
182,940	-200,000	-0,124	-0,397
183,954	170,326	-0,216	-0,216
184,969	172,219	-0,242	-0,243
185,983	165,996	-0,201	-0,198
186,998	-200,000	-0,074	-0,263
188,013	260,794	-0,199	-0,240
189,027	39,420	-0,168	-0,105
190,042	-45,845	-0,198	-0,068
191,056	115,309	-0,204	-0,174
192,071	73,778	-0,298	-0,217
193,086	16,363	-0,265	-0,145
194,100	11,204	-0,206	-0,109
195,115	-200,000	-0,026	-0,098
196,129	-66,999	-0,355	-0,097
197,144	217,067	-0,281	-0,311
198,159	154,420	-0,183	-0,175
199,173	20,293	-0,221	-0,124
200,188	370,354	-0,101	-0,142
201,202	-109,817	-0,161	-0,023
202,217	-27,351	-0,208	-0,084
203,232	122,071	-0,197	-0,171
204,246	131,203	-0,227	-0,203
205,261	198,114	-0,231	-0,246
206,275	189,605	-0,183	-0,191
207,290	800,000	-0,052	-0,114
208,304	257,577	-0,142	-0,170
209,319	38,892	-0,154	-0,095
210,334	-164,846	-0,131	0,004
211,348	119,465	-0,248	-0,214
212,363	-200,000	-0,095	-0,325
213,377	61,093	-0,103	-0,071
214,392	397,682	-0,140	-0,204
215,407	800,000	-0,056	-0,144
216,421	-178,271	-0,414	-0,007
217,436	42,860	-0,269	-0,170
218,450	63,624	-0,259	-0,180
219,465	169,424	-0,184	-0,182
220,480	533,218	-0,082	-0,135
221,494	317,455	-0,047	-0,062
222,509	91,212	-0,092	-0,071
223,523	35,101	-0,186	-0,113
224,538	42,026	-0,247	-0,155
225,553	34,417	-0,234	-0,141
226,567	590,621	-0,238	-0,410
227,582	99,956	-0,258	-0,207
228,596	10,726	-0,170	-0,090
229,611	-73,181	0,114	0,029
230,626	206,579	-0,093	-0,100
231,640	-127,653	-0,258	0,026
232,655	81,613	-0,161	-0,121
233,669	25,894	-0,163	-0,094
234,684	-78,355	-0,242	-0,057
235,699	672,713	-0,129	-0,232
236,713	102,403	-0,110	-0,089
237,728	82,207	-0,229	-0,172
238,742	800,000	-0,061	-0,142
239,757	279,780	-0,185	-0,230
240,772	97,437	-0,173	-0,138
241,786	-107,620	-0,211	-0,032
242,801	310,952	-0,108	-0,141
243,815	71,389	-0,131	-0,094
244,830	109,588	-0,186	-0,154
245,844	-48,378	-0,275	-0,091
246,859	-42,722	-0,258	-0,090
247,874	174,940	-0,208	-0,209
248,888	219,132	-0,184	-0,204
249,903	-50,793	-0,354	-0,115
250,917	228,399	-0,085	-0,096
251,932	219,703	-0,106	-0,117
252,947	94,618	-0,171	-0,135
253,961	-44,998	-0,209	-0,072
254,976	458,565	-0,152	-0,235
255,990	-137,104	-0,263	-0,020
257,005	149,356	-0,157	-0,147
258,020	-4,236	-0,102	-0,049
259,034	304,530	-0,068	-0,087
260,049	116,275	-0,168	-0,142
261,063	-21,311	-0,180	-0,076
262,078	-88,176	-0,337	-0,069
263,093	215,905	-0,145	-0,159
264,107	439,693	-0,047	-0,071
265,122	43,000	-0,208	-0,131
266,136	-66,807	-0,174	-0,047
267,151	363,969	-0,192	-0,268
268,166	-84,961	-0,245	-0,053
269,180	618,305	-0,143	-0,249
270,195	465,941	-0,110	-0,172
271,209	-200,000	0,022	-0,162
272,224	-15,781	-0,111	-0,049
273,239	283,111	-0,157	-0,195
274,253	-79,233	-0,273	-0,063
275,268	119,328	-0,216	-0,184
276,282	355,887	-0,118	-0,162
277,297	54,474	-0,272	-0,181
278,312	152,154	-0,162	-0,153
279,326	17,527	-0,167	-0,091
280,341	-107,527	-0,235	-0,035
281,355	-38,591	-0,180	-0,065
282,370	-2,230	-0,172	-0,083
283,384	313,427	-0,136	-0,178
284,399	8,075	-0,185	-0,095
285,414	162,828	-0,168	-0,163
286,428	430,268	-0,079	-0,119
287,443	-91,615	-0,226	-0,044
288,457	324,938	-0,148	-0,195
289,472	359,854	-0,134	-0,185
290,487	334,961	-0,068	-0,091
291,501	34,644	-0,148	-0,089
292,516	314,289	-0,200	-0,261
293,530	102,972	-0,141	-0,114
294,545	343,014	-0,118	-0,160
295,560	49,684	-0,115	-0,074
296,574	-38,933	-0,228	0,082
297,589	-61,070	-0,220	-0,064
298,603	15,168	-0,119	-0,064
299,618	-200,000	-0,077	-0,260
300,633	159,426	-0,112	-0,107
301,647	218,588	-0,141	-0,155
302,662	264,539	-0,040	-0,049
303,676	36,247	-0,104	-0,063
304,691	-4,220	-0,231	-0,110
305,706	267,662	-0,096	-0,116
306,720	236,166	-0,129	-0,148
307,735	800,000	-0,106	-0,288
308,749	34,005	-0,226	-0,135
309,764	118,858	-0,135	-0,114
310,779	-95,078	-0,127	-0,023
311,793	800,000	-0,128	-0,275
312,808	140,459	-0,172	-0,157
313,822	76,068	-0,181	-0,132
314,837	315,666	-0,074	-0,097
315,852	-68,329	-0,096	0,025
316,866	-124,392	-0,127	0,013
317,881	-34,173	-0,083	-0,031
318,895	44,749	-0,105	0,066
319,910	141,550	-0,082	-0,075
320,925	476,999	-0,092	-0,144
321,939	118,416	-0,117	-0,100
322,954	-12,493	-0,220	-0,099
323,968	800,000	-0,057	-0,111
324,983	-87,828	-0,206	-0,042
325,997	110,105	-0,148	-0,122
327,012	-161,792	-0,191	-0,007
328,027	82,149	-0,152	-0,113
329,041	-58,185	-0,198	-0,059
330,056	-48,695	-0,179	-0,059
331,070	-156,428	-0,132	-0,006
332,085	10,176	-0,150	-0,078
333,100	158,409	-0,183	-0,174
334,114	400,382	-0,079	-0,115
335,129	-23,578	-0,196	-0,081
336,143	213,956	-0,107	-0,116
337,158	-200,000	-0,021	-0,202
338,173	-43,373	-0,172	-0,059
339,187	-33,908	-0,233	-0,088
340,202	-113,348	-0,110	-0,015
341,216	-25,904	-0,152	-0,061
342,231	118,805	-0,196	-0,166
343,246	-40,252	-0,174	-0,062
344,260	-125,272	-0,161	0,017
345,275	237,124	-0,073	-0,083
346,289	800,000	-0,021	-0,041
347,304	-16,510	-0,182	-0,079
348,319	404,567	-0,111	-0,162
349,333	695,781	-0,096	-0,174
350,348	800,000	-0,076	-0,155
351,362	-200,000	0,033	-0,140
352,377	-200,000	-0,057	-0,174
353,392	-51,521	-0,116	-0,037
354,406	6,783	-0,114	-0,058
355,421	208,952	1312,859	1411,538
356,435	160,800	1473,351	1412,027
