DTS Sentinel unit serial number:	SN410029Multiplexer serial number:	ORYXHardware model number:	OX2-SRSoftware version number:	ORYX F/W v4,00 Oryx Data Collector v3.7.2.0data status	okinstallation	B3 Nyhavnadifferential loss correction	single-endedforward channel	channel 1reverse channel	N/Adate	2023/11/29time	00:02:30forward acquisition time	300,00reverse acquisition time	0,00gamma	499,1914k internal	0,3212k external	0,3212temperature offset calibration	1,0000default loss term (dB/km)	0,3820temperature slope calibration	1,0000multiplexer offset coefficient	1,0000multiplexer slope coefficient	1,0000fibre end	0,00T internal ref (°C)	8,97T ext. ref 1 (°C)	-5,31T ext. ref 2 (°C)	-5,45length (m)	temperature (°C)	Stokes	anti-Stokes-744,400	349,605	-0,193	-0,278
-743,385	-200,000	-0,049	0,256
-742,371	165,311	-0,154	-0,157
-741,356	-200,000	-0,041	0,255
-740,342	327,904	-0,112	-0,156
-739,327	-200,000	0,031	0,376
-738,312	92,526	-0,229	-0,187
-737,298	800,000	-0,134	0,279
-736,283	67,098	-0,223	-0,164
-735,269	-200,000	0,037	0,171
-734,254	122,886	-0,302	-0,274
-733,239	-87,281	-0,199	0,043
-732,225	800,000	-0,122	-0,266
-731,210	350,372	0,096	0,138
-730,196	383,431	0,011	-0,017
-729,181	-62,118	-0,087	-0,026
-728,167	-200,000	-0,003	-0,144
-727,152	373,695	-0,062	0,091
-726,137	260,963	-0,129	-0,162
-725,123	-200,000	-0,008	0,069
-724,108	292,085	-0,113	-0,149
-723,094	-65,100	-0,170	-0,049
-722,079	-70,849	-0,155	-0,042
-721,064	583,459	-0,008	-0,015
-720,050	398,903	-0,051	0,077
-719,035	-96,754	-0,132	-0,025
-718,021	-38,532	0,031	-0,012
-717,006	428,619	-0,070	-0,110
-715,991	248,014	-0,015	0,018
-714,977	122,218	0,062	0,056
-713,962	-15,231	-0,072	-0,033
-712,948	166,131	0,139	0,143
-711,933	-200,000	-0,029	0,141
-710,918	265,194	-0,089	-0,112
-709,904	63,839	-0,008	-0,006
-708,889	30,282	-0,139	0,086
-707,875	309,397	0,084	0,114
-706,860	-161,894	0,085	0,003
-705,845	106,965	-0,088	-0,076
-704,831	381,061	-0,047	0,070
-703,816	76,446	-0,052	0,040
-702,802	-68,085	0,072	-0,020
-701,787	-119,214	0,085	-0,011
-700,772	800,000	0,055	-0,147
-699,758	-200,000	0,018	-0,169
-698,743	-103,971	-0,077	0,013
-697,729	159,399	0,096	0,097
-696,714	-70,492	-0,067	-0,018
-695,699	-64,274	0,053	-0,016
-694,685	-67,032	-0,145	-0,041
-693,670	-200,000	-0,030	0,194
-692,656	13,670	-0,076	-0,043
-691,641	-85,397	-0,051	0,011
-690,627	-119,541	-0,054	-0,007
-689,612	-153,051	0,080	-0,004
-688,597	93,025	-0,072	0,059
-687,583	800,000	0,022	0,053
-686,568	42,937	-0,098	-0,065
-685,554	800,000	-0,017	0,044
-684,539	-200,000	-0,008	0,079
-683,524	346,988	-0,067	-0,095
-682,510	532,823	-0,041	0,070
-681,495	-133,095	0,026	0,002
-680,481	-13,658	-0,083	0,039
-679,466	800,000	-0,034	-0,082
-678,451	800,000	-0,031	-0,063
-677,437	800,000	-0,054	-0,126
-676,422	-1,587	0,103	0,052
-675,408	-41,314	-0,111	0,041
-674,393	-200,000	-0,004	-0,017
-673,378	-9,920	-0,089	-0,043
-672,364	-200,000	-0,003	0,060
-671,349	5,498	-0,047	0,025
-670,335	-73,882	0,082	-0,021
-669,320	-126,054	0,187	-0,020
-668,305	73,759	-0,040	0,030
-667,291	190,030	0,158	0,171
-666,276	-72,931	-0,042	-0,011
-665,262	157,450	-0,061	-0,061
-664,247	800,000	0,051	-0,102
-663,232	-100,982	0,050	-0,009
-662,218	800,000	0,014	0,036
-661,203	37,358	0,082	-0,052
-660,189	61,986	-0,154	-0,111
-659,174	679,723	0,066	0,125
-658,159	88,780	-0,144	-0,116
-657,145	-86,569	0,076	-0,017
-656,130	-200,000	-0,002	-0,029
-655,116	-200,000	-0,003	0,012
-654,101	268,450	0,005	0,006
-653,086	43,408	0,034	-0,023
-652,072	-165,807	0,037	-0,001
-651,057	91,941	-0,057	0,046
-650,043	-97,317	-0,154	0,029
-649,028	-200,000	-0,007	0,042
-648,014	800,000	0,030	-0,085
-646,999	28,575	-0,048	0,029
-645,984	-123,659	0,019	0,002
-644,970	-79,754	-0,090	0,022
-643,955	125,733	0,118	-0,108
-642,941	33,272	0,031	-0,019
-641,926	-200,000	0,004	-0,125
-640,911	329,981	0,083	-0,115
-639,897	-65,292	0,084	0,024
-638,882	800,000	-0,054	0,120
-637,868	800,000	-0,040	-0,093
-636,853	125,373	0,082	-0,075
-635,838	-65,049	-0,072	0,021
-634,824	-200,000	0,002	0,007
-633,809	-200,000	0,022	-0,141
-632,795	138,766	0,108	0,102
-631,780	467,305	-0,033	0,053
-630,765	2,799	-0,035	-0,018
-629,751	-75,356	-0,060	0,015
-628,736	213,073	-0,144	-0,165
-627,722	-200,000	-0,028	-0,090
-626,707	800,000	0,038	-0,080
-625,692	800,000	-0,023	-0,053
-624,678	-200,000	0,044	0,153
-623,663	800,000	0,016	0,048
-622,649	605,201	-0,034	-0,062
-621,634	-111,717	-0,133	-0,019
-620,619	33,582	-0,042	0,026
-619,605	158,484	-0,037	-0,037
-618,590	-99,099	0,075	0,014
-617,576	300,812	-0,030	-0,040
-616,561	-16,762	-0,145	-0,066
-615,546	-106,831	-0,148	-0,023
-614,532	-36,464	0,069	-0,027
-613,517	371,182	-0,074	0,108
-612,503	-200,000	0,025	0,086
-611,488	-200,000	0,000	-0,032
-610,474	-200,000	-0,019	0,061
-609,459	566,957	0,050	0,087
-608,444	-97,286	-0,174	-0,032
-607,430	-44,852	-0,073	-0,026
-606,415	219,373	-0,026	-0,030
-605,401	-200,000	0,007	-0,125
-604,386	-58,822	0,097	-0,030
-603,371	177,485	0,068	-0,072
-602,357	-200,000	0,002	-0,146
-601,342	-38,814	-0,068	-0,026
-600,328	-72,325	0,119	-0,032
-599,313	16,168	-0,036	-0,020
-598,298	190,392	-0,088	0,096
-597,284	113,953	0,106	-0,093
-596,269	-112,549	0,040	0,006
-595,255	43,542	-0,033	-0,022
-594,240	68,415	-0,064	0,047
-593,225	800,000	-0,016	-0,047
-592,211	-200,000	-0,022	-0,168
-591,196	-118,060	0,079	-0,010
-590,182	800,000	0,047	0,118
-589,167	120,703	-0,041	0,037
-588,152	-41,049	0,076	0,028
-587,138	800,000	0,018	-0,047
-586,123	-200,000	0,007	-0,092
-585,109	-200,000	0,016	-0,078
-584,094	-200,000	-0,012	-0,079
-583,079	561,982	-0,023	0,040
-582,065	-55,996	0,089	-0,028
-581,050	389,806	0,025	-0,038
-580,036	526,807	-0,017	-0,029
-579,021	226,730	0,022	-0,026
-578,006	6,211	-0,094	-0,050
-576,992	-200,000	-0,031	-0,134
-575,977	61,121	0,088	0,063
-574,963	339,578	0,031	0,043
-573,948	-200,000	-0,003	-0,028
-572,934	486,339	-0,037	-0,062
-571,919	-200,000	0,032	0,000
-570,904	-200,000	0,033	0,000
-569,890	-200,000	-0,033	-0,167
-568,875	167,709	0,099	0,102
-567,861	155,309	0,058	-0,057
-566,846	-56,922	0,185	0,058
-565,831	-126,613	0,043	-0,005
-564,817	388,717	-0,048	-0,072
-563,802	199,516	-0,090	-0,099
-562,788	-200,000	0,003	-0,031
-561,773	-46,360	-0,022	-0,008
-560,758	-113,834	0,094	0,013
-559,744	-200,000	0,012	0,075
-558,729	-200,000	-0,015	0,053
-557,715	170,677	0,053	0,055
-556,700	-74,350	0,014	-0,004
-555,685	32,332	-0,136	-0,084
-554,671	675,990	0,060	-0,112
-553,656	-13,965	-0,043	-0,020
-552,642	26,054	0,087	-0,052
-551,627	161,600	0,077	-0,077
-550,612	379,600	0,018	-0,026
-549,598	-200,000	-0,027	-0,117
-548,583	-38,341	0,138	-0,052
-547,569	-200,000	-0,023	-0,082
-546,554	-200,000	-0,021	-0,099
-545,539	56,743	-0,055	0,038
-544,525	-43,234	0,092	-0,033
-543,510	716,667	0,036	-0,068
-542,496	218,026	-0,008	-0,010
-541,481	800,000	-0,017	-0,053
-540,466	800,000	-0,054	-0,115
-539,452	91,376	-0,039	0,031
-538,437	-200,000	-0,029	0,159
-537,423	39,136	0,136	0,087
-536,408	-76,116	0,111	-0,028
-535,393	66,324	-0,134	0,098
-534,379	206,146	0,031	0,035
-533,364	450,782	0,071	-0,113
-532,350	14,072	0,191	0,107
-531,335	647,355	0,046	-0,084
-530,321	71,642	-0,093	-0,069
-529,306	800,000	0,022	-0,055
-528,291	76,754	0,058	0,044
-527,277	-178,536	-0,126	-0,002
-526,262	87,270	-0,077	0,061
-525,248	-200,000	-0,020	0,074
-524,233	155,275	0,037	0,037
-523,218	319,783	-0,028	0,039
-522,204	223,666	0,020	0,024
-521,189	-28,309	-0,104	0,043
-520,175	165,873	0,077	-0,078
-519,160	-200,000	-0,006	-0,091
-518,145	800,000	-0,030	-0,070
-517,131	-74,955	-0,049	-0,013
-516,116	3,539	0,070	0,037
-515,102	194,174	-0,045	0,049
-514,087	252,247	-0,028	-0,034
-513,072	800,000	0,030	0,081
-512,058	-134,130	-0,148	0,013
-511,043	-37,997	-0,109	-0,041
-510,029	-200,000	0,007	0,047
-509,014	162,211	0,121	-0,122
-507,999	35,864	0,038	0,024
-506,985	-178,237	-0,078	-0,001
-505,970	800,000	-0,011	0,032
-504,956	177,469	-0,052	0,054
-503,941	800,000	-0,046	-0,111
-502,926	56,475	-0,065	0,046
-501,912	-49,076	-0,060	-0,020
-500,897	-90,088	-0,126	-0,026
-499,883	800,000	0,038	-0,111
-498,868	-99,585	-0,079	0,014
-497,853	-47,414	-0,082	-0,029
-496,839	-2,560	-0,079	-0,040
-495,824	36,345	-0,045	0,028
-494,810	646,531	-0,033	0,060
-493,795	-200,000	-0,005	0,129
-492,781	800,000	0,055	-0,111
-491,766	100,808	0,038	0,032
-490,751	753,584	-0,050	0,097
-489,737	800,000	0,028	0,077
-488,722	-15,469	0,048	-0,022
-487,708	118,120	0,085	0,075
-486,693	-200,000	0,001	0,081
-485,678	-14,990	-0,050	-0,023
-484,664	-49,936	0,103	0,035
-483,649	-84,331	-0,153	-0,035
-482,635	-52,348	-0,048	0,016
-481,620	37,990	0,133	-0,085
-480,605	147,822	0,028	0,027
-479,591	74,250	0,146	0,110
-478,576	189,182	0,087	-0,094
-477,562	-4,704	-0,070	-0,035
-476,547	800,000	-0,019	0,042
-475,532	-200,000	-0,003	0,039
-474,518	-118,314	0,047	-0,006
-473,503	-200,000	0,002	-0,070
-472,489	-200,000	0,017	0,132
-471,474	-193,611	-0,044	0,000
-470,459	800,000	-0,043	0,116
-469,445	800,000	-0,039	0,090
-468,430	136,063	-0,118	-0,111
-467,416	295,407	-0,057	-0,075
-466,401	-178,280	0,244	0,004
-465,386	18,435	0,041	0,024
-464,372	-105,643	0,074	-0,012
-463,357	589,025	0,067	-0,119
-462,343	-62,777	0,021	0,006
-461,328	198,514	-0,062	-0,068
-460,313	-123,600	0,117	0,013
-459,299	24,432	-0,163	0,096
-458,284	303,229	-0,062	-0,083
-457,270	-94,831	-0,074	0,014
-456,255	-27,092	0,121	0,050
-455,241	-200,000	-0,026	-0,152
-454,226	276,648	-0,064	-0,082
-453,211	800,000	-0,026	-0,080
-452,197	60,781	0,124	0,088
-451,182	800,000	0,021	-0,058
-450,168	-200,000	0,001	0,035
-449,153	571,839	0,044	-0,078
-448,138	59,580	-0,073	-0,051
-447,124	223,611	0,044	-0,051
-446,109	267,694	0,066	0,083
-445,095	376,126	0,056	0,083
-444,080	-73,536	0,126	0,033
-443,065	-148,588	0,080	-0,005
-442,051	60,697	-0,035	-0,025
-441,036	-200,000	0,042	-0,233
-440,022	-200,000	-0,046	-0,220
-439,007	17,574	0,088	0,050
-437,992	-42,435	0,067	0,024
-436,978	-200,000	-0,034	0,157
-435,963	-200,000	0,002	0,019
-434,949	-38,867	-0,018	-0,007
-433,934	-200,000	0,010	-0,079
-432,919	165,557	-0,102	0,104
-431,905	-59,269	0,124	0,038
-430,890	800,000	-0,014	-0,028
-429,876	-62,440	0,073	0,022
-428,861	215,901	0,023	-0,026
-427,846	-55,006	-0,088	0,028
-426,832	-78,440	0,104	0,025
-425,817	340,953	0,037	-0,052
-424,803	-166,659	0,068	0,002
-423,788	360,594	-0,068	0,097
-422,773	-80,025	0,195	0,046
-421,759	475,115	-0,051	0,083
-420,744	413,645	-0,104	0,159
-419,730	-200,000	0,024	-0,150
-418,715	-200,000	0,009	-0,061
-417,701	-52,418	-0,062	0,020
-416,686	22,195	0,056	-0,033
-415,671	800,000	0,046	-0,105
-414,657	-42,135	0,096	-0,035
-413,642	147,518	-0,068	-0,066
-412,628	197,755	-0,040	-0,043
-411,613	-200,000	-0,004	-0,041
-410,598	800,000	-0,040	-0,097
-409,584	-200,000	0,003	0,027
-408,569	800,000	0,026	0,069
-407,555	-49,882	0,068	-0,023
-406,540	-200,000	-0,047	0,150
-405,525	-18,158	-0,171	0,076
-404,511	355,758	0,062	-0,089
-403,496	-49,246	0,034	-0,012
-402,482	785,139	-0,030	0,060
-401,467	800,000	0,042	0,085
-400,452	-200,000	0,007	0,070
-399,438	-41,245	0,094	-0,034
-398,423	-75,603	0,092	0,023
-397,409	800,000	0,029	0,079
-396,394	202,217	-0,067	0,074
-395,379	-148,476	0,122	0,007
-394,365	-200,000	0,006	-0,031
-393,350	800,000	0,020	0,045
-392,336	-200,000	0,009	0,031
-391,321	277,070	-0,089	0,114
-390,306	800,000	0,059	-0,118
-389,292	-200,000	-0,015	-0,119
-388,277	10,237	0,108	-0,058
-387,263	-65,420	0,047	-0,013
-386,248	-77,143	0,175	0,043
-385,233	800,000	-0,094	0,196
-384,219	71,663	-0,105	-0,078
-383,204	-200,000	-0,016	0,060
-382,190	-170,193	-0,103	-0,003
-381,175	-22,455	0,117	-0,050
-380,160	-99,953	-0,025	0,004
-379,146	89,285	0,061	0,048
-378,131	29,512	-0,076	-0,046
-377,117	-200,000	-0,009	-0,118
-376,102	-63,618	-0,109	-0,032
-375,088	-83,775	-0,048	-0,011
-374,073	53,925	0,082	0,056
-373,058	-141,020	-0,156	-0,011
-372,044	-200,000	-0,051	0,220
-371,029	107,632	-0,067	-0,057
-370,015	-200,000	0,027	-0,132
-369,000	-200,000	-0,010	-0,044
-367,985	513,827	-0,013	-0,022
-366,971	671,324	0,021	0,040
-365,956	169,125	-0,063	0,064
-364,942	800,000	0,057	0,132
-363,927	-143,167	0,095	-0,006
-362,912	278,038	0,112	0,142
-361,898	638,461	-0,070	-0,127
-360,883	31,238	-0,118	-0,072
-359,869	-200,000	0,001	-0,120
-358,854	689,032	-0,036	0,068
-357,839	97,588	-0,061	-0,050
-356,825	263,139	0,115	0,143
-355,810	94,823	-0,086	0,070
-354,796	513,792	0,019	0,031
-353,781	280,599	-0,052	0,067
-352,766	-68,867	0,051	-0,014
-351,752	241,117	0,004	0,005
-350,737	343,590	-0,077	0,107
-349,723	342,645	0,112	0,158
-348,708	43,839	0,128	-0,083
-347,693	-178,490	-0,097	0,002
-346,679	-200,000	-0,006	-0,109
-345,664	295,153	-0,075	-0,099
-344,650	17,325	0,159	0,090
-343,635	800,000	-0,044	0,088
-342,620	-189,139	-0,103	-0,001
-341,606	219,567	-0,042	-0,048
-340,591	-99,662	0,048	0,008
-339,577	39,549	-0,055	-0,035
-338,562	74,917	0,165	-0,124
-337,548	-200,000	0,001	-0,071
-336,533	-164,446	-0,077	-0,002
-335,518	251,551	0,069	0,083
-334,504	800,000	-0,029	-0,084
-333,489	-200,000	-0,024	0,111
-332,475	455,860	0,007	-0,012
-331,460	800,000	0,050	0,130
-330,445	-4,706	-0,032	-0,016
-329,431	771,166	0,080	-0,157
-328,416	196,163	0,077	0,083
-327,402	-200,000	0,004	0,048
-326,387	800,000	-0,049	-0,119
-325,372	-31,734	0,161	0,064
-324,358	-27,402	-0,219	-0,090
-323,343	800,000	-0,029	0,084
-322,329	35,951	-0,060	0,037
-321,314	195,130	0,089	0,097
-320,299	800,000	0,023	0,051
-319,285	-200,000	-0,012	-0,081
-318,270	223,730	-0,058	-0,067
-317,256	-200,000	-0,002	-0,163
-316,241	634,704	0,023	0,043
-315,226	84,978	0,038	-0,029
-314,212	8,420	0,088	-0,047
-313,197	-51,703	0,172	0,057
-312,183	129,014	0,107	0,097
-311,168	-114,665	0,033	-0,004
-310,153	800,000	0,036	-0,104
-309,139	94,285	-0,100	-0,081
-308,124	800,000	0,011	0,033
-307,110	-200,000	-0,009	-0,056
-306,095	82,690	0,034	0,026
-305,080	154,690	0,040	0,039
-304,066	232,341	-0,103	0,121
-303,051	800,000	-0,032	-0,089
-302,037	77,400	-0,099	-0,075
-301,022	800,000	-0,037	-0,089
-300,008	-68,562	-0,112	0,031
-298,993	800,000	0,037	0,091
-297,978	-200,000	-0,017	0,142
-296,964	30,972	0,027	-0,017
-295,949	-166,890	-0,117	0,003
-294,935	-172,873	-0,142	0,003
-293,920	4,185	0,144	0,075
-292,905	-151,220	-0,114	0,006
-291,891	-200,000	0,026	0,145
-290,876	800,000	-0,078	0,189
-289,862	-200,000	0,011	0,051
-288,847	-82,857	-0,084	-0,019
-287,832	102,779	-0,044	0,036
-286,818	6,868	-0,017	-0,009
-285,803	-200,000	0,046	0,239
-284,789	-200,000	-0,026	-0,089
-283,774	-44,151	-0,041	0,014
-282,759	800,000	-0,042	0,110
-281,745	-148,352	-0,032	-0,002
-280,730	-200,000	0,002	0,116
-279,716	800,000	0,049	0,116
-278,701	800,000	0,057	0,114
-277,686	-200,000	-0,016	0,133
-276,672	-74,120	-0,140	-0,036
-275,657	-200,000	0,021	0,105
-274,643	504,814	-0,038	0,062
-273,628	-200,000	-0,026	-0,162
-272,613	-16,919	0,014	0,006
-271,599	-35,454	0,116	0,045
-270,584	800,000	-0,051	-0,125
-269,570	-5,477	-0,085	0,042
-268,555	411,100	0,059	0,089
-267,540	322,506	-0,023	-0,031
-266,526	54,451	-0,126	-0,086
-265,511	-200,000	0,005	0,064
-264,497	-15,551	-0,129	0,058
-263,482	115,539	-0,075	-0,065
-262,467	37,910	0,091	0,057
-261,453	219,587	-0,077	-0,087
-260,438	550,142	-0,085	0,145
-259,424	757,697	-0,041	-0,080
-258,409	102,591	-0,014	-0,012
-257,395	535,162	0,028	-0,048
-256,380	126,404	0,099	0,089
-255,365	348,733	-0,096	-0,135
-254,351	800,000	-0,040	0,111
-253,336	111,317	0,089	-0,076
-252,322	-36,286	0,087	-0,033
-251,307	-0,296	-0,034	-0,017
-250,292	110,215	0,121	-0,104
-249,278	65,738	0,063	-0,045
-248,263	-148,998	-0,066	0,004
-247,249	-200,000	0,018	0,153
-246,234	-200,000	-0,005	0,170
-245,219	800,000	0,051	-0,132
-244,205	-200,000	0,003	0,163
-243,190	-200,000	0,001	-0,037
-242,176	454,389	0,083	0,132
-241,161	79,357	0,030	0,023
-240,146	175,497	0,074	0,076
-239,132	-128,949	-0,051	0,005
-238,117	800,000	-0,064	-0,127
-237,103	800,000	-0,017	0,036
-236,088	800,000	-0,019	-0,044
-235,073	-200,000	-0,002	-0,032
-234,059	339,553	0,046	-0,064
-233,044	510,073	-0,002	-0,003
-232,030	30,899	-0,054	0,033
-231,015	-121,898	0,006	-0,001
-230,000	37,942	0,087	-0,055
-228,986	-62,309	-0,113	0,033
-227,971	212,980	0,073	0,082
-226,957	114,673	-0,008	-0,007
-225,942	768,273	0,059	0,114
-224,927	104,354	-0,065	0,054
-223,913	138,384	0,092	-0,085
-222,898	800,000	-0,062	-0,173
-221,884	205,076	0,026	0,029
-220,869	302,441	-0,036	0,048
-219,855	187,348	-0,060	0,064
-218,840	-20,801	0,067	0,029
-217,825	353,690	-0,069	0,097
-216,811	61,786	0,101	-0,071
-215,796	439,067	-0,078	-0,121
-214,782	-144,225	-0,107	-0,007
-213,767	24,421	-0,091	0,053
-212,752	-179,394	0,135	0,002
-211,738	-50,553	-0,019	-0,006
-210,723	-24,397	-0,115	0,049
-209,709	800,000	-0,016	0,038
-208,694	-12,902	0,140	-0,064
-207,679	-200,000	0,005	-0,027
-206,665	141,494	-0,028	-0,026
-205,650	-200,000	0,010	0,041
-204,636	-200,000	0,005	0,026
-203,621	637,723	-0,025	0,045
-202,606	97,197	-0,037	-0,030
-201,592	72,538	-0,053	0,039
-200,577	368,975	-0,074	-0,107
-199,563	-143,611	0,097	0,006
-198,548	-200,000	0,008	-0,036
-197,533	800,000	-0,039	-0,101
-196,519	26,714	0,039	0,023
-195,504	61,295	-0,119	-0,084
-194,490	93,011	-0,015	0,012
-193,475	800,000	-0,043	-0,122
-192,460	119,863	-0,065	0,057
-191,446	-26,386	0,180	0,074
-190,431	-121,943	-0,013	-0,002
-189,417	47,185	-0,101	-0,067
-188,402	567,114	0,040	-0,069
-187,387	-93,586	-0,111	0,022
-186,373	38,751	-0,065	0,041
-185,358	-200,000	0,033	0,120
-184,344	243,383	-0,065	0,078
-183,329	-200,000	-0,011	0,103
-182,315	-84,707	0,176	-0,039
-181,300	363,185	0,045	-0,065
-180,285	-128,678	-0,088	0,009
-179,271	-105,554	-0,122	-0,020
-178,256	377,756	0,030	-0,044
-177,242	27,467	-0,071	-0,042
-176,227	800,000	0,068	0,146
-175,212	76,960	0,046	0,035
-174,198	-28,975	-0,061	-0,025
-173,183	49,622	-0,105	0,070
-172,169	800,000	0,020	0,060
-171,154	800,000	0,044	0,105
-170,139	-200,000	-0,009	0,087
-169,125	466,086	0,092	0,147
-168,110	-131,906	0,080	-0,007
-167,096	-9,810	-0,101	-0,047
-166,081	-168,236	0,025	0,001
-165,066	-79,907	-0,080	-0,019
-164,052	-154,061	0,085	0,004
-163,037	-107,713	0,171	0,026
-162,023	213,064	0,072	0,081
-161,008	150,301	-0,033	0,032
-159,993	437,636	0,059	0,092
-158,979	-200,000	0,009	0,094
-157,964	473,536	0,022	-0,035
-156,950	63,979	-0,015	-0,011
-155,935	165,098	-0,045	-0,045
-154,920	397,107	0,058	-0,086
-153,906	608,423	0,041	-0,074
-152,891	358,860	-0,049	0,069
-151,877	-21,147	-0,092	0,040
-150,862	-94,098	-0,005	0,001
-149,847	-200,000	-0,025	-0,141
-148,833	66,183	-0,063	0,046
-147,818	342,655	0,050	0,070
-146,804	144,481	0,081	-0,077
-145,789	-114,757	0,166	0,022
-144,775	-200,000	-0,000	0,009
-143,760	442,210	-0,017	-0,026
-142,745	-78,452	0,052	-0,012
-141,731	-108,730	-0,083	-0,012
-140,716	-44,793	0,111	0,039
-139,702	507,582	-0,126	0,207
-138,687	-5,554	0,021	0,010
-137,672	-200,000	-0,040	-0,146
-136,658	-200,000	0,020	-0,085
-135,643	-200,000	0,028	-0,101
-134,629	-49,808	0,059	-0,020
-133,614	226,170	0,037	-0,043
-132,599	800,000	-0,092	-0,204
-131,585	-200,000	0,007	0,092
-130,570	72,311	-0,114	0,084
-129,556	-200,000	0,014	-0,081
-128,541	207,582	-0,040	-0,045
-127,526	587,622	0,016	-0,028
-126,512	-41,388	0,052	0,019
-125,497	800,000	0,028	0,055
-124,483	101,956	0,036	0,029
-123,468	800,000	0,040	0,089
-122,453	36,230	-0,051	0,032
-121,439	-165,959	-0,116	-0,003
-120,424	-25,609	-0,067	0,028
-119,410	649,662	0,071	0,129
-118,395	302,189	0,020	0,026
-117,380	385,735	0,038	0,056
-116,366	800,000	-0,039	-0,118
-115,351	-94,156	-0,137	0,026
-114,337	62,948	-0,020	0,014
-113,322	276,082	-0,065	-0,081
-112,307	-108,921	0,065	-0,010
-111,293	-127,108	0,278	0,028
-110,278	81,158	-0,137	0,105
-109,264	800,000	-0,041	0,110
-108,249	-200,000	-0,010	-0,098
-107,234	-200,000	0,011	-0,082
-106,220	-109,006	0,157	-0,023
-105,205	-200,000	-0,016	-0,055
-104,191	217,405	-0,036	0,040
-103,176	-84,961	-0,031	0,007
-102,162	800,000	0,010	-0,019
-101,147	53,610	-0,111	-0,075
-100,132	748,764	0,019	0,036
-99,118	20,022	-0,029	-0,016
-98,103	-95,334	-0,134	-0,025
-97,089	85,533	0,079	-0,062
-96,074	-5,818	-0,124	0,060
-95,059	-200,000	-0,008	0,146
-94,045	-200,000	-0,015	0,124
-93,030	-85,943	-0,170	0,037
-92,016	82,786	-0,131	0,100
-91,001	-200,000	0,009	0,038
-89,986	-200,000	-0,007	0,025
-88,972	455,724	0,026	-0,041
-87,957	309,724	0,019	-0,025
-86,943	-200,000	0,004	0,201
-85,928	75,936	-0,037	0,027
-84,913	-3,057	0,060	-0,030
-83,899	800,000	0,025	-0,072
-82,884	42,590	0,114	-0,073
-81,870	-200,000	-0,034	0,112
-80,855	-15,083	-0,055	0,025
-79,840	-200,000	-0,025	-0,131
-78,826	105,501	-0,061	-0,051
-77,811	-15,899	0,091	-0,041
-76,797	136,281	0,152	-0,140
-75,782	-200,000	-0,015	-0,060
-74,767	166,492	0,037	0,037
-73,753	-2,249	0,103	-0,051
-72,738	-3,924	0,044	-0,022
-71,724	-200,000	0,003	-0,031
-70,709	321,080	0,087	-0,117
-69,694	85,426	-0,090	0,070
-68,680	164,867	0,101	-0,100
-67,665	437,369	-0,092	0,142
-66,651	329,117	0,082	0,112
-65,636	-200,000	0,010	0,043
-64,622	800,000	-0,075	-0,191
-63,607	481,385	-0,104	-0,167
-62,592	800,000	0,048	0,134
-61,578	-200,000	0,001	0,150
-60,563	265,756	0,068	0,084
-59,549	-43,694	0,061	-0,022
-58,534	34,299	-2,075	-1,275
-57,519	402,434	-1,195	-1,778
-56,505	-200,000	-0,425	-4,351
-55,490	735,709	0,968	1,839
-54,476	800,000	5,090	11,083
-53,461	-200,000	21,828	337,138
-52,446	800,000	758,986	2297,571
-51,432	533,923	1652,856	2773,407
-50,417	69,303	1650,587	1196,608
-49,403	16,623	1525,207	848,272
-48,388	10,797	1449,694	778,243
-47,373	19,020	1441,456	813,036
-46,359	14,183	1430,271	783,827
-45,344	9,061	1426,260	757,336
-44,330	9,070	1424,472	756,398
-43,315	9,022	1422,582	755,138
-42,300	9,015	1420,987	754,227
-41,286	9,051	1419,742	753,709
-40,271	9,078	1418,304	753,041
-39,257	9,019	1417,337	752,220
-38,242	9,054	1416,119	751,711
-37,227	9,104	1414,896	751,263
-36,213	9,070	1413,757	750,470
-35,198	9,049	1412,581	749,718
-34,184	9,081	1411,635	749,338
-33,169	8,973	1410,300	748,092
-32,154	9,062	1409,111	747,850
-31,140	9,037	1408,027	747,124
-30,125	9,077	1406,760	746,613
-29,111	9,046	1405,579	745,810
-28,096	9,041	1404,536	745,202
-27,082	8,981	1403,171	744,168
-26,067	8,985	1402,408	743,756
-25,052	8,998	1401,100	743,091
-24,038	9,022	1400,251	742,725
-23,023	8,973	1399,368	742,000
-22,009	8,967	1398,284	741,367
-20,994	8,992	1397,245	740,899
-19,979	9,002	1396,351	740,445
-18,965	8,979	1395,194	739,695
-17,950	8,969	1394,382	739,189
-16,936	8,952	1393,573	738,651
-15,921	8,856	1392,676	737,704
-14,906	8,914	1391,527	737,331
-13,892	8,964	1390,662	737,075
-12,877	8,928	1389,961	736,511
-11,863	8,927	1389,154	736,049
-10,848	8,937	1388,028	735,469
-9,833	8,844	1387,408	734,682
-8,819	8,849	1386,361	734,119
-7,804	8,802	1385,573	733,457
-6,790	8,814	1384,540	732,938
-5,775	8,807	1383,488	732,321
-4,760	8,807	1382,567	731,802
-3,746	8,845	1381,753	731,515
-2,731	8,863	1380,524	730,919
-1,717	8,829	1379,872	730,389
-0,702	8,815	1378,024	729,317
0,313	12,843	1289,915	700,981
1,327	28,867	682,312	406,733
2,342	44,829	117,562	76,136
3,356	1,804	16,462	8,338
4,371	-2,105	3,624	1,788
5,386	-26,701	1,332	0,547
6,400	800,000	0,211	0,539
7,415	91,935	-0,172	-0,136
8,429	52,995	-0,230	-0,155
9,444	-69,621	-0,271	-0,072
10,459	65,464	-0,296	-0,211
11,473	-43,590	-0,381	-0,135
12,488	-60,394	-0,266	-0,079
13,502	25,744	-0,273	-0,160
14,517	-67,510	-0,318	-0,087
15,531	164,136	-0,281	-0,279
16,546	170,018	-0,298	-0,300
17,561	461,599	-0,255	-0,402
18,575	126,747	-0,143	-0,127
19,590	800,000	-0,099	-0,274
20,604	-35,860	-0,266	-0,101
21,619	92,053	-0,382	-0,302
22,634	84,497	-0,377	-0,290
23,648	146,410	-0,406	-0,384
24,663	272,440	-0,361	-0,449
25,677	66,083	-0,328	-0,234
26,692	-37,821	-0,337	-0,125
27,707	-33,448	-0,319	-0,124
28,721	15,023	-0,379	-0,208
29,736	120,491	-0,490	-0,428
30,750	438,114	-0,274	-0,422
31,765	67,215	-0,436	-0,312
32,780	46,861	-0,329	-0,215
33,794	-14,469	-0,454	-0,205
34,809	-27,544	-0,326	-0,133
35,823	55,213	-0,341	-0,231
36,838	-37,376	-0,467	-0,174
37,853	182,249	-0,421	-0,436
38,867	88,206	-0,347	-0,270
39,882	145,489	-0,282	-0,266
40,896	88,511	-0,230	-0,180
41,911	-18,665	-0,375	-0,164
42,926	232,735	-0,237	-0,274
43,940	94,114	-0,311	-0,248
44,955	123,548	-0,479	-0,422
45,969	93,249	-0,336	-0,267
46,984	-94,203	-0,283	-0,054
47,999	-114,741	-0,238	-0,032
49,013	-106,944	-0,325	-0,050
50,028	3,281	-0,242	-0,124
51,042	15,189	-0,344	-0,189
52,057	-14,619	-0,396	-0,178
53,071	54,586	-0,264	-0,179
54,086	136,663	-0,308	-0,283
55,101	417,528	-0,239	-0,359
56,115	5,960	-0,454	-0,235
57,130	28,354	-0,297	-0,176
58,144	98,992	-0,371	-0,301
59,159	147,282	-0,214	-0,202
60,174	159,446	-0,305	-0,298
61,188	106,102	-0,241	-0,200
62,203	194,003	-0,320	-0,340
63,217	58,486	-0,277	-0,190
64,232	46,606	-0,302	-0,196
65,247	80,577	-0,326	-0,246
66,261	108,161	-0,347	-0,290
67,276	76,299	-0,281	-0,208
68,290	695,239	-0,153	-0,283
69,305	-85,509	-0,398	-0,086
70,320	-68,970	-0,302	-0,081
71,334	31,664	-0,221	-0,133
72,349	159,727	-0,216	-0,211
73,363	74,756	-0,370	-0,272
74,378	103,181	-0,281	-0,231
75,393	141,229	-0,216	-0,200
76,407	-46,592	-0,317	-0,108
77,422	12,653	-0,356	-0,192
78,436	-65,444	-0,330	-0,092
79,451	30,595	-0,262	-0,157
80,466	-5,996	-0,339	-0,162
81,480	75,257	-0,385	-0,284
82,495	103,834	-0,273	-0,224
83,509	49,535	-0,293	-0,193
84,524	-77,702	-0,343	-0,082
85,539	-53,143	-0,222	-0,071
86,553	-123,899	-0,162	-0,018
87,568	386,341	-0,151	-0,218
88,582	-49,948	-0,254	-0,084
89,597	61,003	-0,318	-0,220
90,611	4,794	-0,211	-0,108
91,626	14,842	-0,246	-0,134
92,641	14,722	-0,196	-0,107
93,655	12,743	-0,231	-0,125
94,670	-88,276	-0,428	-0,089
95,684	7,869	-0,347	-0,181
96,699	96,942	-0,318	-0,255
97,714	157,509	-0,187	-0,181
98,728	2,811	-0,258	-0,130
99,743	20,200	-0,173	-0,097
100,757	34,922	-0,314	-0,191
101,772	-88,061	-0,286	-0,059
102,787	10,824	-0,223	-0,118
103,801	25,256	-0,275	-0,159
104,816	49,778	-0,212	-0,139
105,830	-54,359	-0,264	-0,083
106,845	-16,521	-0,203	-0,089
107,860	59,410	-0,244	-0,168
108,874	53,361	-0,254	-0,170
109,889	81,254	-0,300	-0,226
110,903	75,870	-0,293	-0,216
111,918	129,779	-0,254	-0,227
112,933	-76,746	-0,127	-0,031
113,947	437,394	-0,166	-0,253
114,962	184,842	-0,215	-0,223
115,976	105,032	-0,239	-0,197
116,991	-2,575	-0,362	-0,176
118,006	46,651	-0,120	-0,078
119,020	-44,982	-0,243	-0,084
120,035	-43,996	-0,124	-0,043
121,049	-168,046	-0,290	-0,008
122,064	-55,354	-0,223	-0,069
123,079	-84,238	-0,310	-0,068
124,093	-13,234	-0,332	-0,150
125,108	116,710	-0,218	-0,187
126,122	252,474	-0,207	-0,246
127,137	800,000	-0,129	-0,338
128,151	127,850	-0,173	-0,153
129,166	-10,795	-0,351	-0,161
130,181	161,748	-0,292	-0,285
131,195	156,148	-0,188	-0,181
132,210	27,409	-0,217	-0,127
133,224	155,677	-0,291	-0,280
134,239	227,591	-0,246	-0,280
135,254	175,873	-0,158	-0,160
136,268	-43,658	-0,270	-0,094
137,283	-85,839	-0,239	-0,051
138,297	160,833	-0,195	-0,190
139,312	118,924	-0,245	-0,211
140,327	-39,193	-0,314	-0,114
141,341	70,558	-0,248	-0,178
142,356	246,232	-0,216	-0,253
143,370	16,901	-0,261	-0,143
144,385	-63,835	-0,346	-0,098
145,400	159,988	-0,303	-0,294
146,414	66,768	-0,227	-0,161
147,429	154,675	-0,296	-0,283
148,443	32,966	-0,320	-0,193
149,458	215,060	-0,139	-0,154
150,473	82,498	-0,350	-0,264
151,487	-159,096	-0,225	0,009
152,502	50,304	-0,209	-0,137
153,516	70,639	-0,285	-0,205
154,531	49,746	-0,197	-0,129
155,546	-95,618	-0,319	-0,059
156,560	-75,849	-0,198	-0,048
157,575	-51,927	-0,138	-0,044
158,589	-57,712	-0,218	-0,066
159,604	301,038	-0,165	-0,212
160,619	322,613	-0,156	-0,208
161,633	37,239	-0,354	-0,217
162,648	147,714	-0,213	-0,199
163,662	-50,668	-0,101	-0,033
164,677	52,568	-0,367	-0,243
165,692	-44,972	-0,221	-0,076
166,706	5,458	-0,175	-0,089
167,721	148,299	-0,186	-0,175
168,735	200,099	-0,211	-0,225
169,750	54,266	-0,247	-0,165
170,764	-15,280	-0,184	-0,081
171,779	-34,049	-0,183	-0,069
172,794	22,880	-0,137	-0,078
173,808	251,203	-0,134	-0,159
174,823	264,125	-0,252	-0,306
175,837	154,925	-0,260	-0,249
176,852	196,056	-0,184	-0,195
177,867	61,584	-0,233	-0,161
178,881	77,713	-0,152	-0,112
179,896	176,233	-0,157	-0,158
180,910	-28,179	-0,149	-0,059
181,925	55,498	-0,244	-0,164
182,940	800,000	-0,136	-0,276
183,954	195,191	-0,230	-0,243
184,969	390,087	-0,160	-0,231
185,983	-94,033	-0,272	-0,051
186,998	-148,039	-0,061	0,003
188,013	-120,731	-0,347	0,040
189,027	-37,814	-0,255	-0,094
190,042	-7,870	-0,194	-0,091
191,056	468,234	-0,107	-0,167
192,071	366,543	-0,129	-0,181
193,086	0,625	-0,079	-0,039
194,100	133,006	-0,201	-0,180
195,115	283,420	-0,158	-0,198
196,129	144,065	-0,152	-0,140
197,144	402,571	-0,156	-0,228
198,159	243,422	-0,128	-0,149
199,173	173,398	-0,116	-0,116
200,188	105,069	-0,131	-0,107
201,202	-69,097	-0,268	-0,071
202,217	88,616	-0,150	-0,115
203,232	-19,151	-0,299	-0,128
204,246	-200,000	-0,039	-0,162
205,261	220,480	-0,201	-0,223
206,275	5,133	-0,179	-0,091
207,290	12,150	-0,106	-0,056
208,304	-26,819	-0,161	-0,065
209,319	210,243	-0,133	-0,145
210,334	63,905	-0,206	-0,143
211,348	60,805	-0,153	-0,105
212,363	61,557	-0,304	-0,209
213,377	125,560	-0,080	-0,070
214,392	-2,884	-0,165	-0,079
215,407	106,858	-0,168	-0,138
216,421	70,626	-0,162	-0,116
217,436	-158,801	-0,167	0,006
218,450	57,459	-0,241	-0,163
219,465	-67,620	-0,181	-0,049
220,480	25,825	-0,258	-0,148
221,494	19,928	-0,082	0,045
222,509	8,934	-0,145	-0,076
223,523	-43,499	-0,124	-0,043
224,538	60,837	-0,294	-0,201
225,553	191,001	-0,158	-0,164
226,567	689,000	-0,086	-0,156
227,582	579,288	-0,177	-0,302
228,596	-17,220	-0,144	-0,062
229,611	-136,468	-0,104	0,008
230,626	-45,192	-0,263	-0,090
231,640	-114,411	-0,110	-0,014
232,655	-19,305	-0,146	-0,062
233,669	210,433	-0,144	-0,156
234,684	275,863	-0,135	-0,166
235,699	800,000	-0,043	-0,124
236,713	526,976	-0,150	-0,245
237,728	265,170	-0,092	-0,111
238,742	17,425	-0,140	-0,077
239,757	3,700	-0,267	-0,134
240,772	-52,587	-0,223	-0,071
241,786	257,227	-0,176	-0,209
242,801	141,286	-0,166	-0,152
243,815	229,257	-0,093	-0,105
244,830	259,889	-0,106	-0,127
245,844	-21,536	-0,199	-0,083
246,859	-79,133	-0,202	-0,047
247,874	181,070	-0,140	-0,142
248,888	70,559	-0,135	-0,096
249,903	30,043	-0,158	0,093
250,917	-25,673	-0,135	-0,055
251,932	26,392	-0,168	-0,097
252,947	4,562	-0,196	-0,099
253,961	71,340	-0,222	-0,159
254,976	-62,485	-0,256	-0,073
255,990	238,706	-0,194	-0,223
257,005	44,786	-0,216	-0,137
258,020	-11,927	-0,075	0,034
259,034	-98,345	-0,226	-0,039
260,049	-120,669	-0,171	-0,020
261,063	58,309	-0,144	-0,097
262,078	214,701	-0,192	-0,209
263,093	-200,000	-0,106	-0,333
264,107	184,344	-0,162	-0,165
265,122	228,772	-0,077	-0,087
266,136	325,238	-0,122	-0,161
267,151	129,290	-0,176	-0,154
268,166	274,931	-0,131	-0,161
269,180	37,576	-0,285	-0,174
270,195	11,826	-0,192	-0,101
271,209	80,209	-0,133	-0,099
272,224	90,274	-0,157	-0,121
273,239	-160,984	-0,065	0,002
274,253	13,443	-0,097	-0,052
275,268	223,697	-0,181	-0,202
276,282	162,930	-0,163	-0,158
277,297	-40,698	-0,228	-0,081
278,312	150,898	-0,249	-0,233
279,326	79,057	-0,140	-0,103
280,341	153,865	-0,140	-0,132
281,355	-166,385	-0,231	0,007
282,370	-200,000	-0,061	-0,195
283,384	-115,247	-0,288	-0,037
284,399	98,330	-0,260	-0,206
285,414	87,786	-0,153	-0,116
286,428	-83,857	-0,135	-0,029
287,443	-67,983	-0,224	0,060
288,457	-87,245	-0,177	0,037
289,472	-117,584	-0,076	-0,009
290,487	298,095	-0,152	-0,193
291,501	11,242	-0,133	-0,070
292,516	324,964	-0,111	-0,146
293,530	-200,000	-0,064	-0,196
294,545	-168,285	-0,120	-0,003
295,560	-80,908	-0,156	-0,035
296,574	-106,935	-0,174	-0,026
297,589	-118,621	-0,127	-0,015
298,603	-200,000	-0,026	-0,200
299,618	97,559	-0,196	-0,155
300,633	47,789	-0,227	-0,145
301,647	-48,986	-0,116	0,038
302,662	-149,079	-0,181	-0,010
303,676	-16,577	-0,187	-0,081
304,691	-200,000	-0,031	-0,136
305,706	81,733	-0,104	-0,077
306,720	29,072	-0,212	-0,123
307,735	76,558	-0,206	-0,150
308,749	199,265	-0,079	-0,083
309,764	191,925	-0,091	-0,095
310,779	-95,598	-0,083	0,015
311,793	122,294	-0,135	-0,116
312,808	768,139	-0,029	-0,054
313,822	176,558	-0,135	-0,135
314,837	59,747	-0,210	-0,142
315,852	16,989	-0,200	-0,108
316,866	555,450	-0,018	-0,031
317,881	-200,000	-0,056	-0,186
318,895	800,000	-0,101	-0,194
319,910	29,095	-0,179	-0,104
320,925	800,000	-0,133	-0,265
321,939	-200,000	-0,061	-0,189
322,954	-0,910	0,057	0,028
323,968	190,767	-0,160	-0,165
324,983	-66,888	-0,028	-0,007
325,997	-10,136	-0,050	0,023
327,012	-25,324	-0,304	-0,123
328,027	127,997	-0,132	-0,115
329,041	114,398	-0,147	-0,123
330,056	242,866	-0,080	-0,092
331,070	-118,563	-0,135	0,016
332,085	-100,783	-0,245	0,041
333,100	419,081	-0,053	-0,077
334,114	92,489	-0,095	-0,074
335,129	34,303	-0,187	-0,111
336,143	131,319	-0,142	-0,125
337,158	-8,559	-0,138	-0,063
338,173	493,839	-0,146	-0,230
339,187	5,224	-0,134	-0,068
340,202	178,882	-0,148	-0,148
341,216	-72,908	-0,221	-0,055
342,231	160,083	-0,237	-0,226
343,246	680,787	-0,137	-0,245
344,260	-13,791	-0,094	0,041
345,275	303,806	-0,099	-0,125
346,289	146,810	-0,174	-0,160
347,304	800,000	-0,102	-0,197
348,319	300,440	-0,123	-0,156
349,333	666,615	-0,083	-0,148
350,348	-17,419	-0,087	-0,037
351,362	149,435	-0,177	-0,164
352,377	-13,182	-0,037	-0,016
353,392	15,604	-0,022	0,012
354,406	91,804	-0,271	-0,208
355,421	207,596	1305,969	1395,092
356,435	159,703	1465,598	1395,566
