DTS Sentinel unit serial number:	SN410029Multiplexer serial number:	ORYXHardware model number:	OX2-SRSoftware version number:	ORYX F/W v4,00 Oryx Data Collector v3.7.2.0data status	okinstallation	B3 Nyhavnadifferential loss correction	single-endedforward channel	channel 1reverse channel	N/Adate	2023/12/01time	01:22:30forward acquisition time	300,00reverse acquisition time	0,00gamma	499,1914k internal	0,3211k external	0,3211temperature offset calibration	1,0000default loss term (dB/km)	0,3820temperature slope calibration	1,0000multiplexer offset coefficient	1,0000multiplexer slope coefficient	1,0000fibre end	0,00T internal ref (°C)	8,93T ext. ref 1 (°C)	-6,15T ext. ref 2 (°C)	-6,29length (m)	temperature (°C)	Stokes	anti-Stokes-744,400	228,681	-0,213	-0,252
-743,385	176,135	-0,146	0,154
-742,371	-200,000	-0,034	-0,165
-741,356	-200,000	0,051	0,302
-740,342	31,493	-0,096	-0,060
-739,327	-200,000	0,004	0,287
-738,312	454,415	-0,161	-0,260
-737,298	-200,000	-0,044	0,191
-736,283	800,000	-0,084	-0,260
-735,269	-200,000	-0,014	0,252
-734,254	-200,000	-0,027	-0,184
-733,239	-69,966	-0,292	0,080
-732,225	191,229	-0,117	-0,128
-731,210	-200,000	0,015	0,065
-730,196	551,163	-0,095	-0,166
-729,181	-169,866	-0,124	-0,003
-728,167	-6,863	-0,071	-0,035
-727,152	5,965	0,038	0,020
-726,137	420,477	-0,053	0,082
-725,123	396,633	-0,076	-0,115
-724,108	201,654	0,020	0,023
-723,094	0,973	0,056	0,029
-722,079	-45,895	-0,083	0,029
-721,064	-10,412	0,134	0,064
-720,050	36,773	0,016	-0,010
-719,035	-43,205	-0,065	-0,024
-718,021	69,168	0,053	-0,040
-717,006	-164,495	-0,086	0,003
-715,991	202,461	-0,083	-0,093
-714,977	221,981	-0,065	0,075
-713,962	73,053	-0,102	-0,077
-712,948	-200,000	0,015	0,093
-711,933	44,354	-0,065	0,043
-710,918	-17,609	0,060	0,027
-709,904	12,270	-0,131	-0,073
-708,889	-200,000	0,024	-0,145
-707,875	153,252	-0,092	-0,091
-706,860	-200,000	0,003	0,037
-705,845	4,387	0,080	0,042
-704,831	263,769	0,052	0,066
-703,816	-200,000	-0,001	0,057
-702,802	24,195	-0,123	-0,073
-701,787	60,619	0,011	0,008
-700,772	133,499	-0,163	-0,152
-699,758	-200,000	0,002	-0,062
-698,743	-200,000	0,015	0,142
-697,729	-200,000	-0,016	0,096
-696,714	-137,523	0,107	0,009
-695,699	-71,182	-0,196	0,053
-694,685	-200,000	0,018	-0,076
-693,670	-98,134	-0,121	-0,022
-692,656	86,273	0,052	0,042
-691,641	214,023	0,054	-0,061
-690,627	-32,945	0,140	0,056
-689,612	-200,000	0,034	0,157
-688,597	-181,354	0,091	0,001
-687,583	-121,616	-0,096	-0,011
-686,568	-92,660	0,052	-0,010
-685,554	427,009	0,129	0,201
-684,539	105,522	0,085	-0,073
-683,524	-6,787	-0,045	-0,022
-682,510	800,000	0,033	0,085
-681,495	-181,035	0,083	0,001
-680,481	-68,229	0,063	0,018
-679,466	-128,458	-0,104	-0,010
-678,451	-148,847	-0,113	-0,007
-677,437	25,719	0,140	0,084
-676,422	-28,665	0,055	0,023
-675,408	439,707	-0,032	-0,050
-674,393	487,969	-0,057	-0,094
-673,378	800,000	0,024	-0,050
-672,364	-41,357	-0,084	-0,031
-671,349	201,219	0,052	0,058
-670,335	158,094	0,063	0,063
-669,320	255,956	0,073	0,090
-668,305	-83,918	-0,133	-0,030
-667,291	31,678	0,059	-0,037
-666,276	53,187	0,017	0,011
-665,262	529,121	0,049	0,084
-664,247	544,367	-0,062	0,107
-663,232	22,366	-0,065	0,038
-662,218	-75,913	0,109	0,028
-661,203	113,745	0,029	-0,025
-660,189	-8,272	-0,051	0,025
-659,174	437,430	0,045	0,071
-658,159	800,000	-0,020	0,055
-657,145	800,000	-0,020	-0,063
-656,130	-93,735	0,116	-0,023
-655,116	730,709	0,047	0,092
-654,101	92,424	0,054	-0,044
-653,086	-200,000	-0,011	0,116
-652,072	800,000	-0,036	-0,089
-651,057	-54,026	-0,094	0,031
-650,043	156,379	-0,128	-0,127
-649,028	-67,434	0,109	0,031
-648,014	3,078	-0,100	0,052
-646,999	751,537	-0,021	-0,041
-645,984	-107,531	0,101	0,016
-644,970	-59,823	-0,030	0,009
-643,955	92,771	-0,050	0,041
-642,941	328,652	-0,071	-0,099
-641,926	-100,859	-0,106	-0,019
-640,911	509,310	0,058	0,098
-639,897	421,489	0,021	0,032
-638,882	373,140	0,028	-0,041
-637,868	-5,588	-0,153	0,075
-636,853	183,459	-0,074	-0,079
-635,838	-200,000	0,000	-0,026
-634,824	330,667	0,058	-0,081
-633,809	364,396	0,070	0,103
-632,795	800,000	-0,029	0,086
-631,780	48,308	0,089	0,060
-630,765	-22,454	-0,138	-0,060
-629,751	-3,883	0,027	-0,013
-628,736	-43,841	-0,044	-0,016
-627,722	-200,000	0,034	-0,177
-626,707	49,842	-0,061	0,042
-625,692	-134,997	0,116	-0,010
-624,678	60,003	-0,023	-0,017
-623,663	138,004	-0,066	-0,062
-622,649	800,000	-0,035	-0,080
-621,634	-30,488	-0,088	-0,036
-620,619	224,647	0,074	-0,087
-619,605	-200,000	0,022	-0,076
-618,590	270,356	-0,139	0,176
-617,576	193,673	0,071	-0,078
-616,561	88,172	-0,083	0,066
-615,546	-200,000	0,037	0,000
-614,532	-200,000	-0,036	-0,126
-613,517	-200,000	-0,023	-0,075
-612,503	800,000	0,053	0,107
-611,488	-200,000	0,011	-0,057
-610,474	30,883	-0,115	-0,071
-609,459	603,940	-0,063	-0,114
-608,444	-200,000	0,011	-0,061
-607,430	-200,000	-0,026	0,000
-606,415	-1,416	-0,115	0,058
-605,401	800,000	-0,060	0,124
-604,386	137,459	0,115	0,109
-603,371	-134,996	0,122	0,010
-602,357	263,972	0,031	0,039
-601,342	646,748	-0,074	0,136
-600,328	-139,149	0,110	-0,008
-599,313	157,686	0,092	-0,092
-598,298	120,299	0,121	0,108
-597,284	-2,596	0,046	0,023
-596,269	-49,717	0,058	0,020
-595,255	-36,310	0,054	0,021
-594,240	607,359	0,086	-0,156
-593,225	312,011	-0,080	-0,109
-592,211	126,432	-0,087	-0,079
-591,196	800,000	0,024	0,060
-590,182	800,000	0,037	0,076
-589,167	-200,000	-0,032	0,137
-588,152	-56,978	0,083	0,026
-587,138	-200,000	0,001	-0,139
-586,123	13,815	-0,054	-0,030
-585,109	37,553	0,054	-0,035
-584,094	-87,847	-0,131	-0,028
-583,079	-200,000	0,003	-0,068
-582,065	307,172	-0,065	0,088
-581,050	-124,826	0,112	-0,012
-580,036	58,021	-0,103	0,073
-579,021	-200,000	0,014	-0,099
-578,006	-200,000	-0,018	0,059
-576,992	192,799	0,043	-0,046
-575,977	96,006	-0,049	0,040
-574,963	192,178	0,129	0,140
-573,948	-95,156	0,053	0,010
-572,934	101,059	-0,131	0,109
-571,919	782,245	-0,064	0,128
-570,904	-200,000	-0,006	-0,077
-569,890	800,000	-0,082	-0,175
-568,875	258,685	0,093	0,115
-567,861	800,000	-0,016	0,035
-566,846	-200,000	0,004	-0,065
-565,831	-36,215	0,010	-0,004
-564,817	714,961	-0,034	-0,065
-563,802	800,000	-0,035	-0,102
-562,788	-36,033	-0,062	-0,024
-561,773	-22,359	0,042	-0,018
-560,758	800,000	0,025	0,051
-559,744	-154,327	0,093	-0,004
-558,729	133,899	-0,046	-0,043
-557,715	-200,000	-0,007	0,057
-556,700	301,251	-0,046	0,062
-555,685	285,473	-0,066	-0,085
-554,671	-200,000	0,019	0,092
-553,656	41,267	-0,103	0,067
-552,642	-200,000	-0,014	-0,057
-551,627	-44,373	0,087	-0,031
-550,612	95,552	-0,047	-0,038
-549,598	-200,000	0,017	-0,055
-548,583	-128,619	-0,195	0,020
-547,569	-200,000	-0,012	-0,168
-546,554	-86,724	-0,050	0,011
-545,539	-20,875	0,109	0,048
-544,525	-139,377	0,084	-0,006
-543,510	800,000	-0,034	-0,092
-542,496	-145,616	0,033	-0,002
-541,481	270,202	0,042	-0,054
-540,466	800,000	-0,014	-0,030
-539,452	-69,074	-0,100	-0,028
-538,437	319,958	0,003	0,005
-537,423	262,355	-0,050	-0,063
-536,408	-94,349	-0,030	0,006
-535,393	800,000	0,049	0,121
-534,379	800,000	-0,053	-0,164
-533,364	-75,542	-0,083	0,021
-532,350	70,517	0,127	0,095
-531,335	-200,000	0,031	0,100
-530,321	-200,000	-0,013	0,114
-529,306	-200,000	-0,027	-0,129
-528,291	-200,000	0,014	-0,145
-527,277	-200,000	-0,024	-0,103
-526,262	-127,968	0,102	0,010
-525,248	130,319	-0,047	-0,043
-524,233	162,046	-0,092	0,092
-523,218	517,411	0,056	0,095
-522,204	64,286	-0,068	-0,049
-521,189	800,000	-0,020	-0,056
-520,175	-38,422	-0,047	0,018
-519,160	-139,725	-0,083	0,006
-518,145	-37,916	-0,109	0,041
-517,131	220,002	-0,093	0,107
-516,116	200,569	0,084	-0,093
-515,102	-136,175	0,096	0,008
-514,087	-156,607	0,128	0,006
-513,072	-200,000	-0,151	-0,000
-512,058	-80,584	-0,176	0,042
-511,043	-163,857	0,063	-0,002
-510,029	-128,502	0,068	-0,007
-509,014	564,498	-0,062	0,108
-507,999	-34,952	-0,131	0,051
-506,985	800,000	0,029	0,071
-505,970	50,380	0,096	-0,065
-504,956	19,733	-0,147	-0,085
-503,941	-200,000	0,036	-0,144
-502,926	-7,787	-0,106	0,051
-501,912	800,000	-0,073	0,172
-500,897	239,403	-0,057	-0,068
-499,883	800,000	0,038	-0,084
-498,868	271,816	-0,090	-0,115
-497,853	800,000	0,019	-0,060
-496,839	105,028	-0,008	0,006
-495,824	-200,000	0,010	0,183
-494,810	-172,157	0,259	-0,006
-493,795	-200,000	0,010	-0,046
-492,781	151,720	0,069	-0,067
-491,766	-200,000	0,007	-0,099
-490,751	-200,000	0,010	0,102
-489,737	336,044	0,022	-0,031
-488,722	-200,000	-0,013	0,183
-487,708	631,341	0,091	0,166
-486,693	800,000	0,030	0,075
-485,678	-200,000	0,004	0,182
-484,664	37,489	0,056	-0,035
-483,649	800,000	-0,034	0,078
-482,635	-175,485	0,090	0,002
-481,620	800,000	0,041	-0,113
-480,605	-200,000	0,061	0,000
-479,591	359,786	0,013	-0,018
-478,576	288,223	0,010	-0,013
-477,562	-15,911	-0,128	-0,058
-476,547	-200,000	0,027	0,114
-475,532	800,000	-0,048	0,110
-474,518	-200,000	0,025	-0,087
-473,503	70,308	0,053	-0,039
-472,489	219,235	0,034	0,039
-471,474	737,475	-0,057	0,110
-470,459	-200,000	0,011	-0,038
-469,445	800,000	-0,108	-0,220
-468,430	-41,159	-0,072	-0,027
-467,416	17,002	0,050	-0,028
-466,401	-103,644	0,084	0,014
-465,386	800,000	0,038	-0,084
-464,372	0,086	0,052	0,027
-463,357	-200,000	0,019	0,087
-462,343	-200,000	0,006	-0,083
-461,328	140,691	0,017	0,016
-460,313	-135,970	0,043	-0,004
-459,299	70,380	-0,064	-0,047
-458,284	-29,460	0,093	0,038
-457,270	274,411	0,049	-0,063
-456,255	106,978	-0,074	-0,063
-455,241	-0,948	-0,108	-0,054
-454,226	-90,998	-0,083	-0,017
-453,211	800,000	0,017	0,042
-452,197	-186,686	0,068	-0,001
-451,182	800,000	-0,070	0,140
-450,168	171,168	0,080	0,082
-449,153	369,110	-0,075	0,108
-448,138	18,809	-0,031	0,018
-447,124	108,006	0,089	-0,076
-446,109	179,309	0,022	0,024
-445,095	800,000	-0,019	0,052
-444,080	-147,830	0,140	-0,008
-443,065	61,497	0,012	-0,008
-442,051	-22,126	0,164	0,071
-441,036	800,000	-0,087	-0,176
-440,022	800,000	-0,050	-0,136
-439,007	359,940	0,064	-0,093
-437,992	-140,961	-0,103	-0,007
-436,978	181,159	0,080	-0,085
-435,963	-200,000	0,006	0,061
-434,949	-10,682	0,057	0,027
-433,934	800,000	-0,046	-0,098
-432,919	247,496	-0,047	-0,057
-431,905	-200,000	0,025	0,156
-430,890	202,260	0,044	0,049
-429,876	127,652	0,094	0,086
-428,861	494,001	-0,019	0,031
-427,846	-195,948	0,128	0,001
-426,832	46,769	-0,112	0,074
-425,817	-200,000	-0,011	-0,123
-424,803	-159,476	-0,017	-0,001
-423,788	463,727	0,060	-0,096
-422,773	-5,072	-0,028	0,014
-421,759	800,000	-0,056	-0,112
-420,744	-67,327	-0,040	0,011
-419,730	-200,000	0,014	-0,104
-418,715	-11,398	-0,015	-0,007
-417,701	-143,678	-0,074	0,005
-416,686	-50,939	-0,044	0,015
-415,671	-200,000	0,001	0,058
-414,657	244,627	0,103	0,124
-413,642	-86,468	-0,109	-0,024
-412,628	-200,000	-0,011	-0,135
-411,613	326,360	-0,024	0,033
-410,598	3,612	-0,057	0,030
-409,584	-128,477	0,083	0,008
-408,569	-110,028	0,083	0,012
-407,555	-94,621	-0,140	0,027
-406,540	159,668	-0,082	0,082
-405,525	119,896	0,079	-0,070
-404,511	-200,000	-0,012	0,158
-403,496	800,000	0,025	0,064
-402,482	40,129	-0,063	-0,040
-401,467	-200,000	-0,011	0,184
-400,452	800,000	0,040	0,093
-399,438	-52,601	-0,125	-0,041
-398,423	-200,000	0,021	0,068
-397,409	542,575	-0,068	-0,117
-396,394	-200,000	-0,008	-0,029
-395,379	-79,977	-0,092	0,022
-394,365	-138,057	0,102	0,008
-393,350	163,126	-0,084	0,085
-392,336	-130,303	-0,036	0,003
-391,321	-89,800	0,037	0,008
-390,306	-51,456	-0,089	0,030
-389,292	-191,826	-0,145	-0,001
-388,277	-44,657	0,033	0,012
-387,263	-127,594	0,080	0,008
-386,248	125,506	0,049	-0,045
-385,233	280,521	0,076	0,097
-384,219	60,151	0,021	0,015
-383,204	414,299	0,068	-0,103
-382,190	24,560	0,070	0,042
-381,175	-200,000	0,025	0,118
-380,160	255,465	-0,048	-0,059
-379,146	-200,000	-0,014	0,117
-378,131	-200,000	0,014	0,050
-377,117	-98,607	0,145	-0,026
-376,102	-200,000	0,004	-0,121
-375,088	800,000	-0,030	-0,089
-374,073	229,276	-0,062	-0,072
-373,058	-200,000	0,002	0,165
-372,044	295,551	0,046	-0,061
-371,029	47,586	0,042	-0,028
-370,015	344,675	0,094	0,132
-369,000	-15,777	-0,049	0,022
-367,985	33,330	-0,062	0,038
-366,971	92,917	-0,132	0,106
-365,956	138,995	0,017	-0,016
-364,942	-200,000	0,026	0,085
-363,927	-126,011	0,067	-0,007
-362,912	204,761	0,030	0,033
-361,898	455,320	0,022	0,035
-360,883	29,266	-0,061	0,037
-359,869	149,630	-0,074	-0,072
-358,854	-200,000	0,026	-0,093
-357,839	395,134	0,056	-0,084
-356,825	-200,000	0,012	0,181
-355,810	348,868	0,036	0,051
-354,796	3,056	0,097	0,050
-353,781	-35,672	-0,054	-0,021
-352,766	162,589	-0,112	-0,112
-351,752	800,000	0,024	-0,051
-350,737	-200,000	0,002	-0,063
-349,723	-200,000	-0,001	0,074
-348,708	800,000	0,013	-0,036
-347,693	-200,000	0,011	-0,175
-346,679	-200,000	0,029	-0,152
-345,664	-200,000	-0,009	0,050
-344,650	-200,000	-0,010	-0,098
-343,635	-71,060	0,188	-0,050
-342,620	492,362	0,026	0,043
-341,606	286,553	-0,059	-0,076
-340,591	302,919	0,027	-0,036
-339,577	101,562	-0,095	-0,079
-338,562	-114,589	-0,021	0,003
-337,548	37,767	0,139	0,088
-336,533	-125,731	0,080	-0,009
-335,518	-156,340	-0,044	0,002
-334,504	-72,086	0,052	-0,014
-333,489	103,751	-0,176	-0,148
-332,475	-55,213	0,052	-0,017
-331,460	-43,459	0,117	-0,042
-330,445	-200,000	0,014	-0,162
-329,431	137,120	-0,060	0,056
-328,416	-200,000	-0,004	0,088
-327,402	800,000	0,033	0,089
-326,387	-35,940	-0,079	0,030
-325,372	24,984	-0,083	-0,049
-324,358	-114,699	0,073	0,010
-323,343	800,000	-0,045	0,090
-322,329	719,810	0,032	0,061
-321,314	-55,630	-0,041	-0,013
-320,299	800,000	0,014	-0,042
-319,285	-200,000	-0,003	-0,032
-318,270	-200,000	-0,027	-0,160
-317,256	11,778	-0,053	0,029
-316,241	-200,000	-0,015	-0,098
-315,226	-200,000	0,024	0,096
-314,212	-122,103	0,013	-0,002
-313,197	-108,330	-0,125	0,019
-312,183	736,206	0,046	0,088
-311,168	800,000	-0,026	-0,063
-310,153	655,930	-0,050	-0,091
-309,139	-29,707	0,142	-0,058
-308,124	800,000	-0,012	-0,035
-307,110	45,774	0,035	0,023
-306,095	21,730	0,047	-0,027
-305,080	-17,575	0,158	0,071
-304,066	-200,000	-0,002	-0,035
-303,051	-200,000	0,008	-0,050
-302,037	-111,098	0,042	-0,006
-301,022	-37,768	0,123	-0,046
-300,008	-26,831	0,025	-0,010
-298,993	-56,765	0,094	0,030
-297,978	800,000	0,034	0,088
-296,964	-200,000	0,017	-0,162
-295,949	299,879	-0,100	0,132
-294,935	237,957	0,071	0,084
-293,920	1,548	-0,107	-0,055
-292,905	-4,756	0,029	0,014
-291,891	186,473	0,051	0,055
-290,876	800,000	-0,040	0,088
-289,862	34,523	-0,060	0,037
-288,847	172,715	-0,076	0,078
-287,832	-200,000	0,042	-0,162
-286,818	236,176	0,051	-0,060
-285,803	172,549	0,139	0,143
-284,789	-200,000	-0,001	0,014
-283,774	-200,000	-0,022	-0,136
-282,759	-200,000	-0,023	0,147
-281,745	402,290	-0,035	-0,053
-280,730	800,000	-0,033	-0,099
-279,716	122,607	0,103	0,092
-278,701	-52,796	0,102	-0,033
-277,686	-96,034	0,044	0,008
-276,672	-135,597	0,090	0,008
-275,657	179,319	0,112	0,117
-274,643	212,484	-0,091	-0,103
-273,628	280,472	0,080	-0,102
-272,613	-16,412	-0,017	-0,007
-271,599	800,000	0,011	0,026
-270,584	-30,269	-0,140	0,056
-269,570	-48,824	-0,053	0,018
-268,555	-200,000	0,015	-0,051
-267,540	179,288	0,060	-0,063
-266,526	436,769	-0,053	-0,083
-265,511	-200,000	0,026	-0,170
-264,497	-47,470	-0,168	-0,058
-263,482	800,000	0,034	0,101
-262,467	-112,717	0,152	-0,021
-261,453	231,690	-0,052	-0,060
-260,438	-200,000	0,017	-0,112
-259,424	800,000	0,033	-0,093
-258,409	-126,383	-0,091	0,009
-257,395	800,000	0,031	-0,061
-256,380	-106,100	-0,033	0,005
-255,365	451,225	0,085	0,134
-254,351	-25,148	0,106	-0,045
-253,336	-200,000	-0,030	-0,158
-252,322	-64,396	0,030	0,009
-251,307	138,038	-0,119	-0,111
-250,292	-130,789	0,012	0,001
-249,278	150,880	-0,041	-0,040
-248,263	332,456	0,067	0,093
-247,249	-200,000	0,004	0,099
-246,234	-122,480	0,044	0,005
-245,219	-172,325	-0,132	-0,003
-244,205	255,976	-0,057	0,070
-243,190	-85,750	-0,154	-0,034
-242,176	-182,246	0,044	-0,001
-241,161	-17,722	0,021	-0,009
-240,146	-55,780	-0,115	-0,036
-239,132	649,744	-0,070	-0,128
-238,117	43,722	-0,059	-0,038
-237,103	-64,806	0,132	-0,038
-236,088	229,984	-0,044	-0,052
-235,073	-21,026	0,087	-0,038
-234,059	-200,000	0,001	0,028
-233,044	-63,901	-0,086	-0,025
-232,030	-93,340	0,034	0,007
-231,015	-90,213	0,045	-0,009
-230,000	800,000	-0,031	-0,093
-228,986	-37,700	-0,199	0,075
-227,971	286,605	0,096	0,124
-226,957	-200,000	-0,046	0,168
-225,942	168,852	0,041	-0,042
-224,927	-200,000	-0,001	0,059
-223,913	-167,703	-0,156	0,004
-222,898	446,597	0,059	-0,092
-221,884	-20,974	-0,062	-0,027
-220,869	-125,412	0,094	0,010
-219,855	58,739	0,040	0,028
-218,840	800,000	-0,037	0,092
-217,825	-200,000	-0,000	0,097
-216,811	15,633	-0,054	0,030
-215,796	-32,757	-0,134	-0,053
-214,782	-128,757	-0,101	-0,010
-213,767	-134,529	0,092	0,008
-212,752	409,893	0,040	0,060
-211,738	8,984	0,114	0,061
-210,723	526,115	0,017	-0,029
-209,709	320,423	-0,087	0,117
-208,694	-12,796	0,236	-0,109
-207,679	433,231	-0,052	-0,080
-206,665	62,073	-0,052	0,037
-205,650	-200,000	0,032	0,125
-204,636	-200,000	0,032	0,188
-203,621	153,691	0,087	-0,085
-202,606	-92,505	-0,100	-0,020
-201,592	-119,615	-0,059	-0,007
-200,577	-200,000	-0,028	-0,127
-199,563	800,000	0,013	-0,034
-198,548	-138,689	0,190	0,015
-197,533	205,769	0,035	-0,039
-196,519	-58,396	0,109	0,033
-195,504	436,283	0,053	0,083
-194,490	411,677	-0,065	-0,099
-193,475	800,000	0,027	-0,076
-192,460	-200,000	-0,011	-0,050
-191,446	41,223	0,150	0,096
-190,431	-50,984	0,083	0,028
-189,417	-145,411	0,013	0,001
-188,402	-65,303	-0,204	0,058
-187,387	182,547	-0,048	-0,051
-186,373	-123,491	-0,093	-0,010
-185,358	129,030	-0,019	-0,017
-184,344	205,683	-0,032	-0,035
-183,329	800,000	0,056	0,149
-182,315	-164,295	0,102	-0,003
-181,300	-200,000	-0,008	0,068
-180,285	-30,962	0,092	0,036
-179,271	44,449	0,057	-0,037
-178,256	-103,875	-0,011	-0,002
-177,242	-69,234	-0,025	0,007
-176,227	-200,000	-0,034	0,155
-175,212	368,666	0,086	-0,124
-174,198	220,319	0,111	-0,126
-173,183	259,060	0,105	0,128
-172,169	762,093	-0,039	0,075
-171,154	800,000	0,012	0,032
-170,139	-89,753	0,049	-0,010
-169,125	485,154	0,073	0,118
-168,110	-200,000	-0,015	0,129
-167,096	608,147	0,015	-0,026
-166,081	-32,592	-0,060	0,024
-165,066	-26,365	-0,101	-0,042
-164,052	44,495	0,025	0,016
-163,037	800,000	-0,042	0,084
-162,023	-200,000	-0,002	0,164
-161,008	66,297	-0,035	-0,025
-159,993	13,402	-0,119	0,065
-158,979	32,814	-0,135	-0,082
-157,964	-200,000	-0,016	-0,060
-156,950	595,820	-0,109	0,192
-155,935	125,952	-0,053	-0,048
-154,920	-19,472	0,043	0,019
-153,906	62,988	0,129	0,091
-152,891	-0,492	-0,060	-0,030
-151,877	50,203	-0,121	-0,081
-150,862	-78,672	-0,003	0,001
-149,847	133,109	-0,042	-0,039
-148,833	43,654	-0,055	0,035
-147,818	-47,166	0,089	0,031
-146,804	227,344	0,055	0,063
-145,789	-41,405	-0,076	0,028
-144,775	0,131	-0,057	-0,029
-143,760	-23,765	-0,082	0,035
-142,745	-119,970	-0,084	0,010
-141,731	-200,000	0,021	-0,182
-140,716	62,832	0,133	0,094
-139,702	122,397	0,110	0,097
-138,687	-200,000	-0,008	-0,053
-137,672	-200,000	0,012	-0,132
-136,658	-200,000	0,003	-0,045
-135,643	800,000	0,019	-0,052
-134,629	-60,521	-0,137	-0,041
-133,614	65,481	0,094	-0,068
-132,599	-180,677	-0,155	-0,002
-131,585	-200,000	-0,008	0,055
-130,570	800,000	-0,032	0,084
-129,556	-113,199	0,097	-0,013
-128,541	481,047	0,007	-0,011
-127,526	380,878	0,077	-0,113
-126,512	359,470	-0,088	0,125
-125,497	33,843	0,023	0,014
-124,483	-45,703	-0,062	0,021
-123,468	7,278	0,077	0,040
-122,453	470,604	-0,068	-0,108
-121,439	-44,540	-0,087	0,031
-120,424	800,000	0,039	-0,100
-119,410	800,000	-0,015	0,037
-118,395	-200,000	0,007	0,109
-117,380	-113,109	0,143	0,020
-116,366	-78,224	-0,130	0,031
-115,351	105,298	-0,046	0,039
-114,337	-40,223	0,077	-0,028
-113,322	-5,644	-0,094	-0,045
-112,307	-200,000	-0,026	-0,087
-111,293	352,125	0,010	0,014
-110,278	6,685	-0,109	-0,057
-109,264	800,000	0,003	0,007
-108,249	-73,074	-0,089	-0,023
-107,234	-173,247	-0,016	-0,000
-106,220	64,866	-0,076	-0,054
-105,205	114,521	-0,108	0,093
-104,191	56,741	0,179	0,123
-103,176	-200,000	-0,005	-0,024
-102,162	53,793	-0,035	0,024
-101,147	-200,000	-0,046	-0,240
-100,132	800,000	-0,027	0,068
-99,118	-200,000	-0,001	0,085
-98,103	-200,000	-0,009	0,079
-97,089	214,264	-0,015	0,016
-96,074	800,000	0,044	-0,116
-95,059	375,315	-0,077	0,111
-94,045	800,000	-0,037	-0,078
-93,030	-17,757	-0,108	-0,048
-92,016	-200,000	0,011	0,045
-91,001	222,349	0,072	0,082
-89,986	10,605	0,163	0,088
-88,972	21,463	0,018	-0,010
-87,957	-54,447	0,072	-0,023
-86,943	800,000	-0,022	-0,055
-85,928	-200,000	-0,020	-0,125
-84,913	7,654	-0,066	0,035
-83,899	305,799	0,122	-0,161
-82,884	-82,509	0,144	0,033
-81,870	31,495	0,031	-0,019
-80,855	-84,930	-0,141	0,031
-79,840	79,700	0,079	0,060
-78,826	-106,123	-0,164	0,026
-77,811	-154,191	0,110	0,005
-76,797	126,931	0,037	-0,033
-75,782	-200,000	0,017	-0,058
-74,767	-200,000	0,004	-0,027
-73,753	-58,841	0,055	0,017
-72,738	309,719	0,065	0,086
-71,724	-200,000	-0,009	-0,051
-70,709	228,943	0,033	-0,038
-69,694	160,616	-0,022	-0,022
-68,680	-200,000	0,020	0,125
-67,665	-114,304	-0,069	0,009
-66,651	-200,000	0,022	0,153
-65,636	-200,000	-0,008	0,075
-64,622	800,000	0,006	0,014
-63,607	-200,000	0,004	-0,081
-62,592	375,747	-0,040	-0,057
-61,578	-70,537	-0,048	0,013
-60,563	800,000	-0,051	-0,120
-59,549	-200,000	0,024	-0,206
-58,534	29,742	-2,153	-1,291
-57,519	673,950	-1,078	-1,983
-56,505	-200,000	-0,365	-4,637
-55,490	287,162	0,962	1,230
-54,476	800,000	5,357	12,150
-53,461	-200,000	21,959	339,993
-52,446	800,000	759,268	2295,598
-51,432	532,093	1653,903	2772,117
-50,417	69,208	1652,182	1197,649
-49,403	16,557	1527,317	849,372
-48,388	10,725	1451,865	779,299
-47,373	19,117	1443,823	815,087
-46,359	14,138	1432,654	785,159
-45,344	9,076	1428,434	758,793
-44,330	9,055	1426,483	757,630
-43,315	8,991	1424,856	756,432
-42,300	9,014	1422,969	755,508
-41,286	9,005	1421,677	754,751
-40,271	8,986	1420,529	754,021
-39,257	8,991	1419,734	753,592
-38,242	9,039	1418,342	753,047
-37,227	9,035	1417,235	752,413
-36,213	9,004	1415,981	751,570
-35,198	9,050	1414,521	750,984
-34,184	9,054	1413,757	750,566
-33,169	8,952	1412,235	749,248
-32,154	9,025	1411,267	749,046
-31,140	8,968	1410,154	748,160
-30,125	9,055	1408,939	747,894
-29,111	9,018	1407,797	747,085
-28,096	8,993	1406,735	746,376
-27,082	8,961	1405,508	745,543
-26,067	8,921	1404,561	744,826
-25,052	8,961	1403,164	744,242
-24,038	8,970	1402,305	743,799
-23,023	8,954	1401,385	743,208
-22,009	8,951	1400,462	742,673
-20,994	8,946	1399,333	742,021
-19,979	8,971	1398,417	741,625
-18,965	8,927	1397,436	740,869
-17,950	8,938	1396,379	740,331
-16,936	8,902	1395,767	739,810
-15,921	8,905	1394,682	739,218
-14,906	8,891	1393,729	738,619
-13,892	8,893	1392,839	738,127
-12,877	8,916	1391,995	737,757
-11,863	8,843	1391,413	737,082
-10,848	8,810	1390,405	736,367
-9,833	8,822	1389,406	735,864
-8,819	8,797	1388,697	735,345
-7,804	8,781	1387,645	734,684
-6,790	8,762	1386,456	733,935
-5,775	8,790	1385,637	733,605
-4,760	8,801	1384,750	733,154
-3,746	8,821	1383,713	732,671
-2,731	8,848	1382,707	732,230
-1,717	8,811	1381,987	731,654
-0,702	8,787	1380,260	730,599
0,313	12,800	1291,355	701,798
1,327	28,686	682,965	406,844
2,342	44,976	117,624	76,255
3,356	1,001	16,468	8,300
4,371	-9,347	3,823	1,794
5,386	4,435	1,281	0,660
6,400	674,727	0,341	0,628
7,415	-118,632	-0,279	-0,034
8,429	98,272	-0,224	-0,182
9,444	83,175	-0,231	-0,177
10,459	-0,931	-0,289	-0,144
11,473	92,183	-0,283	-0,224
12,488	-37,709	-0,173	-0,065
13,502	16,734	-0,325	-0,181
14,517	2,597	-0,273	-0,139
15,531	225,531	-0,274	-0,313
16,546	175,384	-0,216	-0,221
17,561	72,281	-0,390	-0,286
18,575	-182,122	-0,291	0,004
19,590	125,828	-0,150	-0,133
20,604	-53,675	-0,288	-0,092
21,619	111,973	-0,448	-0,381
22,634	21,627	-0,605	-0,346
23,648	136,478	-0,325	-0,298
24,663	32,568	-0,430	-0,261
25,677	19,535	-0,275	-0,155
26,692	220,758	-0,247	-0,279
27,707	74,724	-0,246	-0,182
28,721	144,183	-0,432	-0,406
29,736	208,549	-0,250	-0,275
30,750	86,441	-0,339	-0,263
31,765	149,586	-0,381	-0,363
32,780	75,525	-0,349	-0,259
33,794	11,107	-0,354	-0,190
34,809	32,831	-0,311	-0,189
35,823	7,544	-0,405	-0,213
36,838	122,813	-0,312	-0,274
37,853	86,431	-0,391	-0,303
38,867	101,101	-0,278	-0,228
39,882	-26,881	-0,386	-0,158
40,896	82,481	-0,338	-0,258
41,911	102,792	-0,346	-0,284
42,926	78,936	-0,366	-0,275
43,940	25,271	-0,381	-0,222
44,955	169,538	-0,279	-0,280
45,969	176,252	-0,358	-0,366
46,984	7,656	-0,133	-0,069
47,999	62,816	-0,241	-0,169
49,013	30,582	-0,311	-0,186
50,028	115,678	-0,330	-0,283
51,042	77,232	-0,362	-0,270
52,057	29,453	-0,382	-0,227
53,071	196,799	-0,277	-0,297
54,086	244,950	-0,242	-0,287
55,101	158,968	-0,276	-0,269
56,115	154,398	-0,283	-0,273
57,130	-13,362	-0,376	-0,171
58,144	72,388	-0,433	-0,316
59,159	46,263	-0,444	-0,288
60,174	-27,752	-0,380	-0,154
61,188	15,995	-0,327	-0,180
62,203	-28,921	-0,298	-0,120
63,217	127,513	-0,222	-0,197
64,232	75,139	-0,386	-0,285
65,247	67,894	-0,363	-0,260
66,261	94,029	-0,308	-0,245
67,276	217,094	-0,285	-0,319
68,290	87,173	-0,212	-0,164
69,305	0,991	-0,337	-0,169
70,320	54,420	-0,229	-0,154
71,334	52,288	-0,298	-0,199
72,349	-78,219	-0,335	-0,080
73,363	50,834	-0,328	-0,218
74,378	98,999	-0,280	-0,226
75,393	-19,964	-0,442	-0,190
76,407	-197,711	-0,202	0,001
77,422	208,868	-0,234	-0,257
78,436	-125,889	-0,379	-0,040
79,451	21,310	-0,366	-0,208
80,466	81,449	-0,221	-0,167
81,480	212,664	-0,212	-0,235
82,495	-14,667	-0,203	-0,091
83,509	-35,640	-0,338	-0,128
84,524	93,675	-0,223	-0,177
85,539	126,058	-0,379	-0,336
86,553	115,249	-0,233	-0,199
87,568	-130,973	-0,317	-0,029
88,582	25,344	-0,331	-0,192
89,597	-1,618	-0,274	-0,134
90,611	-91,723	-0,220	-0,043
91,626	18,272	-0,259	-0,144
92,641	-59,136	-0,297	-0,089
93,655	-49,435	-0,263	-0,087
94,670	134,537	-0,268	-0,244
95,684	-25,184	-0,367	-0,151
96,699	519,758	-0,201	-0,330
97,714	24,944	-0,335	-0,194
98,728	22,353	-0,234	-0,134
99,743	71,219	-0,147	-0,106
100,757	235,976	-0,269	-0,311
101,772	101,641	-0,257	-0,209
102,787	86,658	-0,175	-0,134
103,801	412,539	-0,262	-0,390
104,816	196,511	-0,119	-0,127
105,830	-89,469	-0,219	-0,045
106,845	-37,283	-0,170	-0,063
107,860	-50,052	-0,264	-0,087
108,874	219,880	-0,272	-0,305
109,889	97,990	-0,209	-0,168
110,903	268,723	-0,197	-0,241
111,918	449,334	-0,179	-0,276
112,933	29,088	-0,227	-0,134
113,947	35,452	-0,251	-0,153
114,962	-4,162	-0,287	-0,138
115,976	-125,270	-0,295	-0,031
116,991	-56,781	-0,327	-0,100
118,006	-14,003	-0,245	-0,110
119,020	281,195	-0,115	-0,145
120,035	306,796	-0,107	-0,140
121,049	128,131	-0,238	-0,211
122,064	-140,556	-0,273	-0,019
123,079	-81,445	-0,293	0,067
124,093	57,820	-0,199	-0,136
125,108	56,031	-0,345	-0,234
126,122	47,526	-0,159	-0,103
127,137	143,576	-0,329	-0,306
128,151	-17,514	-0,219	-0,096
129,166	46,428	-0,212	-0,137
130,181	-79,942	-0,255	-0,059
131,195	37,071	-0,375	-0,231
132,210	239,879	-0,222	-0,258
133,224	63,876	-0,229	-0,160
134,239	34,238	-0,305	-0,185
135,254	-68,696	-0,311	-0,083
136,268	-89,202	-0,193	-0,039
137,283	205,948	-0,142	-0,154
138,297	246,069	-0,230	-0,271
139,312	800,000	-0,073	-0,146
140,327	84,610	-0,252	-0,192
141,341	-51,191	-0,286	-0,093
142,356	-186,048	-0,142	-0,001
143,370	-1,320	-0,259	-0,127
144,385	-2,551	-0,105	-0,051
145,400	-64,593	-0,280	-0,079
146,414	569,187	-0,180	-0,305
147,429	5,667	-0,325	-0,167
148,443	-89,153	-0,182	-0,037
149,458	276,849	-0,206	-0,256
150,473	144,099	-0,275	-0,256
151,487	11,438	-0,282	-0,150
152,502	30,629	-0,309	-0,184
153,516	-36,504	-0,259	-0,096
154,531	51,528	-0,344	-0,227
155,546	800,000	-0,117	-0,250
156,560	289,561	-0,162	-0,205
157,575	-27,602	-0,197	-0,079
158,589	5,534	-0,302	-0,155
159,604	35,358	-0,267	-0,162
160,619	85,382	-0,279	-0,213
161,633	40,276	-0,301	-0,188
162,648	26,110	-0,173	-0,100
163,662	312,788	-0,166	-0,217
164,677	-146,648	-0,213	-0,013
165,692	-89,194	-0,244	-0,050
166,706	11,626	-0,296	-0,158
167,721	-18,571	-0,219	-0,095
168,735	403,799	-0,218	-0,320
169,750	196,002	-0,105	-0,111
170,764	82,437	-0,281	-0,212
171,779	53,854	-0,119	-0,079
172,794	449,172	-0,145	-0,223
173,808	169,919	-0,255	-0,253
174,823	200,644	-0,237	-0,253
175,837	158,697	-0,238	-0,230
176,852	42,825	-0,238	-0,150
177,867	-8,604	-0,268	-0,124
178,881	-55,962	-0,222	-0,068
179,896	23,565	-0,260	-0,148
180,910	87,316	-0,209	-0,160
181,925	471,626	-0,196	-0,307
182,940	177,803	-0,238	-0,242
183,954	174,195	-0,252	-0,253
184,969	250,896	-0,170	-0,201
185,983	348,913	-0,109	-0,150
186,998	-178,066	-0,250	-0,004
188,013	26,377	-0,247	-0,143
189,027	-10,602	-0,247	-0,113
190,042	174,886	-0,206	-0,207
191,056	104,997	-0,231	-0,189
192,071	-58,647	-0,132	-0,040
193,086	98,821	-0,194	-0,155
194,100	-16,923	-0,150	-0,065
195,115	-18,760	-0,296	-0,127
196,129	213,183	-0,263	-0,288
197,144	126,950	-0,163	-0,144
198,159	-71,510	-0,331	0,085
199,173	-146,489	-0,281	0,017
200,188	-54,630	-0,213	-0,066
201,202	188,563	-0,166	-0,173
202,217	226,513	-0,212	-0,239
203,232	46,766	-0,277	-0,178
204,246	22,494	-0,290	-0,164
205,261	12,142	-0,239	-0,127
206,275	109,200	-0,197	-0,163
207,290	12,717	-0,209	-0,112
208,304	279,421	-0,052	-0,064
209,319	-32,320	-0,186	-0,072
210,334	40,618	-0,171	-0,107
211,348	-80,562	-0,262	-0,060
212,363	-101,861	-0,235	-0,039
213,377	800,000	-0,154	-0,310
214,392	800,000	-0,072	-0,190
215,407	248,232	-0,142	-0,167
216,421	130,508	-0,145	-0,129
217,436	4,395	-0,218	-0,110
218,450	212,564	-0,136	-0,149
219,465	218,979	-0,204	-0,226
220,480	-169,907	-0,208	0,005
221,494	78,693	-0,160	-0,118
222,509	-122,286	-0,114	-0,013
223,523	270,716	-0,098	-0,119
224,538	-35,859	-0,256	-0,095
225,553	800,000	-0,091	-0,265
226,567	94,302	-0,221	-0,173
227,582	703,166	-0,128	-0,234
228,596	-27,749	-0,303	-0,121
229,611	108,080	-0,133	-0,110
230,626	119,792	-0,113	-0,097
231,640	-61,348	-0,305	-0,088
232,655	21,059	-0,094	-0,052
233,669	-200,000	-0,067	-0,241
234,684	22,908	-0,229	-0,129
235,699	82,227	-0,130	-0,097
236,713	758,040	-0,113	-0,212
237,728	-48,072	-0,256	-0,085
238,742	138,384	-0,137	-0,124
239,757	397,287	-0,101	-0,146
240,772	219,810	-0,083	-0,092
241,786	143,929	-0,158	-0,145
242,801	60,290	-0,278	-0,190
243,815	87,642	-0,114	-0,087
244,830	14,416	-0,125	0,067
245,844	-32,900	-0,196	-0,075
246,859	311,929	-0,165	-0,214
247,874	99,571	-0,176	-0,141
248,888	237,098	-0,266	-0,304
249,903	234,594	-0,138	-0,157
250,917	438,800	-0,119	-0,180
251,932	-49,950	-0,185	-0,060
252,947	800,000	-0,061	-0,120
253,961	-115,982	-0,161	-0,020
254,976	42,766	-0,224	-0,140
255,990	-200,000	-0,075	-0,254
257,005	486,644	-0,093	-0,146
258,020	800,000	-0,054	-0,120
259,034	-200,000	0,006	-0,080
260,049	147,677	-0,144	-0,133
261,063	-37,142	-0,157	-0,058
262,078	254,111	-0,206	-0,244
263,093	6,935	-0,151	-0,077
264,107	399,472	-0,194	-0,281
265,122	-15,958	-0,236	-0,103
266,136	-116,842	-0,177	-0,022
267,151	63,100	-0,098	-0,068
268,166	190,687	-0,102	-0,106
269,180	331,955	-0,136	-0,182
270,195	56,282	-0,232	-0,155
271,209	656,467	-0,114	-0,203
272,224	51,663	-0,170	-0,111
273,239	14,790	0,069	-0,037
274,253	-93,496	-0,085	-0,016
275,268	-109,523	-0,243	-0,035
276,282	-0,894	-0,302	-0,147
277,297	-200,000	-0,060	-0,189
278,312	363,504	-0,174	-0,242
279,326	29,110	-0,140	-0,082
280,341	143,097	-0,075	0,069
281,355	48,021	-0,140	-0,090
282,370	-200,000	-0,015	-0,051
283,384	3,371	-0,203	-0,102
284,399	-21,936	-0,180	-0,075
285,414	-21,940	-0,236	-0,098
286,428	-71,663	-0,201	-0,051
287,443	-52,801	-0,241	-0,076
288,457	800,000	0,009	-0,026
289,472	264,757	-0,200	-0,240
290,487	382,018	-0,097	-0,137
291,501	220,998	-0,164	-0,182
292,516	89,168	-0,212	-0,162
293,530	-50,916	-0,185	-0,060
294,545	-34,515	-0,196	-0,074
295,560	-52,546	-0,178	-0,056
296,574	4,595	-0,065	-0,033
297,589	-30,553	-0,160	-0,062
298,603	433,117	-0,044	-0,067
299,618	-25,993	-0,202	-0,081
300,633	171,344	-0,121	-0,119
301,647	-55,393	-0,222	-0,068
302,662	-7,554	-0,069	-0,032
303,676	453,416	-0,069	-0,106
304,691	273,182	-0,099	-0,120
305,706	68,659	-0,169	-0,119
306,720	92,161	-0,228	-0,176
307,735	-79,736	-0,113	-0,026
308,749	141,881	-0,030	0,028
309,764	-130,181	-0,106	-0,010
310,779	380,176	-0,123	-0,173
311,793	512,477	-0,107	-0,171
312,808	98,981	-0,134	-0,106
313,822	-96,323	-0,198	-0,036
314,837	-75,536	-0,150	-0,036
315,852	108,269	-0,085	-0,070
316,866	109,098	-0,134	-0,110
317,881	55,241	-0,116	-0,076
318,895	-165,058	-0,083	0,002
319,910	-84,125	-0,177	-0,038
320,925	-1,390	-0,140	-0,068
321,939	13,504	-0,063	-0,033
322,954	800,000	-0,063	-0,126
323,968	75,657	-0,172	-0,124
324,983	172,319	-0,117	-0,116
325,997	170,096	-0,108	-0,106
327,012	264,077	-0,156	-0,186
328,027	-54,570	-0,003	-0,001
329,041	-200,000	-0,006	-0,066
330,056	-65,051	-0,093	0,026
331,070	-200,000	0,009	0,102
332,085	450,502	-0,070	-0,106
333,100	165,106	-0,084	-0,082
334,114	-13,276	-0,171	-0,076
335,129	675,790	-0,086	-0,153
336,143	36,206	-0,207	-0,125
337,158	800,000	-0,055	-0,142
338,173	43,831	-0,162	-0,102
339,187	-6,721	-0,124	0,058
340,202	161,646	-0,142	-0,136
341,216	-91,814	-0,166	-0,032
342,231	420,090	-0,151	-0,223
343,246	-64,502	-0,137	-0,038
344,260	-200,000	-0,013	-0,040
345,275	581,790	-0,033	-0,056
346,289	553,893	-0,043	-0,071
347,304	31,179	-0,169	-0,099
348,319	194,438	-0,099	-0,103
349,333	280,423	-0,094	-0,115
350,348	262,779	-0,105	-0,125
351,362	105,823	-0,136	-0,110
352,377	-61,108	-0,141	-0,041
353,392	-115,899	-0,116	-0,015
354,406	-75,597	-0,168	-0,041
355,421	206,958	1311,181	1399,158
356,435	159,184	1471,422	1399,602
