DTS Sentinel unit serial number:	SN410029Multiplexer serial number:	ORYXHardware model number:	OX2-SRSoftware version number:	ORYX F/W v4,00 Oryx Data Collector v3.7.2.0data status	okinstallation	B3 Nyhavnadifferential loss correction	single-endedforward channel	channel 1reverse channel	N/Adate	2023/12/04time	00:17:30forward acquisition time	300,00reverse acquisition time	0,00gamma	499,1914k internal	0,3203k external	0,3203temperature offset calibration	1,0000default loss term (dB/km)	0,3820temperature slope calibration	1,0000multiplexer offset coefficient	1,0000multiplexer slope coefficient	1,0000fibre end	0,00T internal ref (°C)	12,71T ext. ref 1 (°C)	-2,52T ext. ref 2 (°C)	-2,55length (m)	temperature (°C)	Stokes	anti-Stokes-744,400	800,000	-0,092	-0,230
-743,385	-200,000	-0,017	0,391
-742,371	800,000	-0,107	-0,222
-741,356	800,000	0,147	0,426
-740,342	-130,823	-0,146	0,014
-739,327	-200,000	0,018	0,346
-738,312	189,387	-0,331	-0,361
-737,298	-200,000	-0,106	0,349
-736,283	800,000	-0,092	-0,242
-735,269	-200,000	-0,090	0,331
-734,254	51,414	-0,202	-0,139
-733,239	-200,000	-0,011	0,000
-732,225	-200,000	-0,068	-0,243
-731,210	-5,125	0,185	0,092
-730,196	800,000	-0,022	0,066
-729,181	-159,322	-0,128	0,005
-728,167	346,827	-0,066	-0,095
-727,152	190,928	0,146	-0,159
-726,137	-21,289	-0,037	0,016
-725,123	-166,832	-0,178	0,005
-724,108	519,726	-0,108	-0,185
-723,094	-200,000	0,023	-0,127
-722,079	800,000	0,038	0,117
-721,064	471,059	0,020	0,033
-720,050	-76,746	0,139	0,035
-719,035	-200,000	-0,004	-0,031
-718,021	-11,861	-0,066	-0,031
-717,006	24,138	0,065	-0,039
-715,991	-98,356	-0,118	-0,022
-714,977	-131,201	-0,105	0,010
-713,962	800,000	-0,033	0,094
-712,948	-200,000	-0,023	0,082
-711,933	-154,577	0,015	0,001
-710,918	-4,643	0,035	-0,017
-709,904	-79,984	-0,220	0,053
-708,889	-143,982	0,071	0,005
-707,875	-200,000	-0,000	-0,036
-706,860	-43,776	-0,064	-0,023
-705,845	9,639	0,061	-0,033
-704,831	34,915	-0,092	0,058
-703,816	-58,070	-0,177	-0,056
-702,802	-200,000	0,004	-0,066
-701,787	-200,000	0,012	-0,116
-700,772	-50,900	0,015	-0,005
-699,758	76,998	0,014	-0,011
-698,743	-200,000	-0,017	-0,100
-697,729	572,690	0,012	-0,021
-696,714	-200,000	0,008	-0,029
-695,699	-139,351	-0,115	0,009
-694,685	-200,000	0,014	-0,123
-693,670	-200,000	0,033	-0,133
-692,656	201,038	-0,018	0,021
-691,641	95,671	0,066	0,055
-690,627	125,246	-0,030	-0,027
-689,612	515,889	-0,035	0,060
-688,597	800,000	-0,033	0,070
-687,583	-95,324	0,040	0,008
-686,568	800,000	-0,025	-0,051
-685,554	-106,129	0,045	0,007
-684,539	-200,000	-0,032	0,103
-683,524	-200,000	-0,002	0,021
-682,510	-31,129	-0,068	-0,028
-681,495	-200,000	0,009	0,047
-680,481	-18,141	-0,068	0,031
-679,466	800,000	0,042	-0,106
-678,451	159,328	-0,098	-0,098
-677,437	-200,000	0,009	0,179
-676,422	800,000	-0,050	0,132
-675,408	-200,000	0,007	0,024
-674,393	324,198	-0,027	-0,037
-673,378	794,525	0,024	-0,048
-672,364	227,517	-0,092	-0,108
-671,349	-40,743	-0,156	-0,058
-670,335	277,326	0,111	0,143
-669,320	-14,125	0,042	0,020
-668,305	136,441	-0,064	0,060
-667,291	101,937	0,023	0,019
-666,276	-200,000	-0,006	-0,048
-665,262	550,038	0,021	0,037
-664,247	-200,000	-0,027	-0,092
-663,232	-200,000	-0,014	-0,124
-662,218	24,038	0,084	-0,050
-661,203	51,813	-0,081	0,056
-660,189	-103,628	-0,098	-0,016
-659,174	665,247	0,032	-0,060
-658,159	14,201	-0,165	-0,093
-657,145	-92,409	-0,107	-0,022
-656,130	-92,484	-0,049	0,010
-655,116	-98,388	-0,025	0,005
-654,101	35,402	-0,095	-0,060
-653,086	-200,000	0,008	0,081
-652,072	-23,853	0,070	0,030
-651,057	151,479	-0,045	-0,044
-650,043	-23,963	0,075	-0,032
-649,028	-121,998	0,061	-0,007
-648,014	-140,835	0,008	-0,001
-646,999	404,216	0,006	0,009
-645,984	199,346	-0,072	-0,080
-644,970	-156,326	-0,032	-0,001
-643,955	55,221	0,165	-0,115
-642,941	-200,000	0,001	-0,069
-641,926	-170,019	-0,106	-0,003
-640,911	366,141	0,055	0,081
-639,897	-176,188	-0,138	-0,003
-638,882	-200,000	0,011	0,038
-637,868	-200,000	0,018	-0,096
-636,853	349,608	-0,007	0,010
-635,838	526,562	-0,025	-0,043
-634,824	800,000	-0,010	-0,022
-633,809	-49,798	0,052	-0,018
-632,795	-200,000	-0,015	-0,136
-631,780	-200,000	0,007	0,091
-630,765	137,103	0,017	0,017
-629,751	800,000	-0,034	0,086
-628,736	-74,374	0,057	0,015
-627,722	-200,000	-0,017	0,083
-626,707	-87,040	-0,061	0,013
-625,692	-200,000	0,008	0,085
-624,678	-39,355	0,161	0,061
-623,663	-11,868	0,120	-0,057
-622,649	-152,667	0,032	0,002
-621,634	37,705	-0,032	0,020
-620,619	128,079	-0,033	-0,030
-619,605	-200,000	0,017	-0,056
-618,590	-75,461	0,047	0,012
-617,576	-94,421	0,109	-0,021
-616,561	158,908	-0,086	-0,086
-615,546	400,685	0,043	-0,066
-614,532	-200,000	-0,022	-0,228
-613,517	9,874	-0,083	0,045
-612,503	-200,000	0,022	-0,101
-611,488	599,902	0,028	0,050
-610,474	-53,416	0,089	0,029
-609,459	800,000	-0,071	-0,195
-608,444	-96,535	0,076	0,014
-607,430	800,000	-0,070	0,171
-606,415	455,708	-0,086	0,139
-605,401	-85,135	0,077	0,017
-604,386	-91,668	-0,046	-0,009
-603,371	-125,609	-0,093	0,010
-602,357	-94,764	-0,065	-0,013
-601,342	800,000	-0,028	0,085
-600,328	-69,779	-0,172	-0,047
-599,313	800,000	-0,011	-0,028
-598,298	33,437	-0,057	0,036
-597,284	800,000	0,090	0,197
-596,269	235,124	0,048	0,057
-595,255	41,712	0,113	0,074
-594,240	-200,000	0,005	0,028
-593,225	800,000	-0,060	0,126
-592,211	494,486	-0,078	-0,129
-591,196	-142,271	0,123	0,009
-590,182	11,538	0,121	-0,067
-589,167	-33,908	-0,123	0,049
-588,152	23,039	-0,106	0,063
-587,138	543,291	-0,027	0,047
-586,123	800,000	0,048	0,123
-585,109	109,731	-0,131	-0,113
-584,094	800,000	-0,041	-0,087
-583,079	800,000	0,061	0,127
-582,065	-200,000	0,004	-0,045
-581,050	-14,987	-0,047	0,022
-580,036	117,204	-0,137	0,122
-579,021	3,902	-0,130	-0,069
-578,006	238,709	0,034	-0,041
-576,992	315,344	-0,039	-0,053
-575,977	68,142	0,059	0,044
-574,963	112,233	0,111	-0,097
-573,948	-125,372	-0,042	0,005
-572,934	119,137	-0,025	-0,022
-571,919	-200,000	0,005	0,030
-570,904	125,376	-0,065	0,060
-569,890	645,045	0,088	-0,162
-568,875	800,000	0,019	-0,058
-567,861	-200,000	0,023	-0,089
-566,846	305,708	0,076	-0,102
-565,831	-86,730	-0,107	-0,023
-564,817	1,355	-0,195	-0,101
-563,802	-200,000	0,006	-0,119
-562,788	452,655	-0,070	-0,112
-561,773	306,707	0,073	0,099
-560,758	-51,290	0,161	-0,054
-559,744	641,754	0,059	0,109
-558,729	-94,657	0,141	0,027
-557,715	-200,000	0,005	-0,049
-556,700	-32,992	-0,063	0,025
-555,685	-40,572	0,123	0,046
-554,671	-86,969	-0,044	-0,010
-553,656	439,232	-0,056	-0,088
-552,642	800,000	0,015	0,031
-551,627	150,905	0,025	-0,025
-550,612	-200,000	-0,027	-0,108
-549,598	158,702	0,028	-0,028
-548,583	-15,451	0,065	-0,030
-547,569	-94,192	0,161	-0,031
-546,554	-200,000	0,013	0,060
-545,539	-200,000	0,002	-0,016
-544,525	49,958	0,086	0,058
-543,510	401,926	-0,059	0,089
-542,496	-200,000	-0,019	0,074
-541,481	-13,074	-0,105	-0,049
-540,466	-45,295	0,159	-0,057
-539,452	558,991	-0,047	-0,082
-538,437	0,149	-0,032	0,016
-537,423	567,493	-0,051	0,090
-536,408	426,393	-0,016	0,025
-535,393	265,526	-0,033	0,042
-534,379	207,743	-0,105	-0,118
-533,364	-96,518	0,018	0,003
-532,350	-23,176	0,159	0,069
-531,335	28,373	-0,070	0,042
-530,321	46,896	-0,026	-0,018
-529,306	252,743	-0,024	0,030
-528,291	564,413	-0,053	-0,094
-527,277	-200,000	0,028	-0,224
-526,262	-200,000	-0,012	0,085
-525,248	-200,000	0,019	0,098
-524,233	800,000	0,011	0,027
-523,218	-200,000	-0,007	-0,081
-522,204	2,748	-0,044	0,023
-521,189	-200,000	-0,005	-0,060
-520,175	729,882	-0,100	-0,193
-519,160	100,168	0,022	0,018
-518,145	82,637	-0,096	0,075
-517,131	-147,706	0,054	0,003
-516,116	-182,387	0,085	0,001
-515,102	-39,321	0,055	-0,021
-514,087	79,946	0,062	-0,048
-513,072	404,601	0,054	-0,082
-512,058	378,055	-0,027	-0,040
-511,043	-98,750	-0,100	0,018
-510,029	600,351	0,047	0,084
-509,014	-200,000	0,038	0,133
-507,999	414,728	-0,095	0,146
-506,985	-200,000	-0,019	-0,111
-505,970	-200,000	0,011	-0,046
-504,956	-133,908	-0,030	0,003
-503,941	-200,000	0,057	-0,189
-502,926	456,073	0,045	0,072
-501,912	-98,122	-0,050	0,009
-500,897	-62,572	0,062	0,019
-499,883	108,465	-0,072	-0,062
-498,868	-200,000	-0,013	-0,158
-497,853	269,981	0,094	-0,119
-496,839	-200,000	-0,009	0,067
-495,824	217,555	0,064	-0,073
-494,810	-200,000	0,022	-0,082
-493,795	137,875	-0,132	0,124
-492,781	-200,000	0,005	0,096
-491,766	-99,734	-0,076	0,014
-490,751	-200,000	-0,001	-0,140
-489,737	-200,000	-0,009	0,109
-488,722	82,827	0,113	-0,088
-487,708	-126,086	0,033	-0,004
-486,693	-125,332	0,115	0,013
-485,678	-200,000	-0,013	0,159
-484,664	-200,000	-0,006	-0,036
-483,649	347,345	-0,036	-0,051
-482,635	-158,370	-0,198	-0,008
-481,620	-60,199	-0,057	0,017
-480,605	-200,000	-0,008	0,098
-479,591	-84,857	-0,080	-0,018
-478,576	-132,866	0,105	-0,010
-477,562	-29,970	-0,044	0,018
-476,547	800,000	0,064	0,173
-475,532	-200,000	0,013	0,062
-474,518	-200,000	-0,003	0,195
-473,503	113,977	0,081	-0,071
-472,489	-33,705	-0,058	0,023
-471,474	-200,000	-0,019	-0,091
-470,459	800,000	-0,043	-0,113
-469,445	800,000	0,100	-0,250
-468,430	-70,589	-0,043	0,012
-467,416	-1,587	-0,013	-0,006
-466,401	-26,448	0,093	-0,039
-465,386	-131,203	-0,040	0,004
-464,372	169,321	-0,046	-0,047
-463,357	26,411	0,092	0,055
-462,343	-46,374	-0,110	-0,039
-461,328	800,000	0,028	-0,089
-460,313	466,054	-0,053	-0,086
-459,299	-106,356	-0,128	0,020
-458,284	-200,000	-0,016	-0,102
-457,270	-139,078	0,068	0,005
-456,255	486,420	-0,110	-0,181
-455,241	-5,807	-0,129	-0,063
-454,226	193,628	-0,025	-0,027
-453,211	-200,000	-0,053	0,196
-452,197	759,706	0,031	0,060
-451,182	800,000	0,017	0,042
-450,168	-200,000	0,023	0,085
-449,153	800,000	0,012	-0,034
-448,138	-35,473	-0,122	-0,047
-447,124	-20,755	-0,040	0,018
-446,109	173,597	0,129	0,134
-445,095	-52,692	0,064	-0,021
-444,080	-200,000	-0,030	0,135
-443,065	800,000	0,047	-0,099
-442,051	-82,514	0,039	0,009
-441,036	136,819	-0,135	-0,126
-440,022	246,375	0,085	-0,104
-439,007	-200,000	0,002	0,060
-437,992	418,717	0,085	0,131
-436,978	-200,000	0,001	0,083
-435,963	-4,742	0,189	0,093
-434,949	800,000	0,029	-0,081
-433,934	-178,322	-0,150	0,002
-432,919	800,000	0,016	0,035
-431,905	-83,337	-0,107	-0,024
-430,890	261,026	-0,048	-0,059
-429,876	406,779	0,037	-0,057
-428,861	-200,000	-0,017	0,080
-427,846	41,312	0,051	0,033
-426,832	69,597	-0,086	0,064
-425,817	-200,000	-0,008	-0,117
-424,803	133,910	0,083	-0,077
-423,788	-138,415	0,050	0,004
-422,773	175,092	0,110	0,114
-421,759	-200,000	-0,009	-0,034
-420,744	171,168	0,058	0,060
-419,730	-83,880	-0,004	0,001
-418,715	800,000	-0,015	-0,042
-417,701	211,272	0,022	0,025
-416,686	-3,960	0,250	0,124
-415,671	-200,000	0,020	0,101
-414,657	172,530	0,062	0,064
-413,642	-200,000	-0,008	0,035
-412,628	-133,381	-0,129	0,011
-411,613	-116,500	-0,078	-0,010
-410,598	46,966	-0,086	-0,057
-409,584	-200,000	0,008	-0,033
-408,569	-127,487	0,145	0,015
-407,555	124,155	-0,121	0,109
-406,540	2,195	0,124	0,064
-405,525	168,036	-0,106	0,108
-404,511	-154,963	-0,088	-0,004
-403,496	-16,221	-0,065	-0,029
-402,482	-200,000	0,002	0,043
-401,467	-5,924	0,108	0,053
-400,452	-64,962	-0,018	0,005
-399,438	-45,156	-0,073	0,026
-398,423	800,000	0,012	0,034
-397,409	-8,674	-0,140	0,067
-396,394	-6,472	0,031	-0,015
-395,379	-200,000	-0,009	-0,143
-394,365	-200,000	0,009	-0,136
-393,350	-200,000	0,028	0,195
-392,336	47,190	-0,074	0,050
-391,321	-141,274	0,051	-0,004
-390,306	553,218	-0,059	0,103
-389,292	-103,461	0,071	0,012
-388,277	-184,428	-0,088	0,001
-387,263	800,000	0,059	0,131
-386,248	-200,000	0,014	-0,075
-385,233	237,515	0,025	0,030
-384,219	144,181	-0,140	0,134
-383,204	39,043	-0,062	0,040
-382,190	32,726	-0,121	0,075
-381,175	800,000	-0,029	-0,090
-380,160	-4,191	-0,086	0,043
-379,146	800,000	-0,017	-0,051
-378,131	-200,000	0,006	0,079
-377,117	182,960	0,091	-0,096
-376,102	568,971	-0,016	-0,028
-375,088	-200,000	-0,028	0,132
-374,073	142,355	0,076	-0,072
-373,058	366,048	0,062	0,090
-372,044	-71,986	0,153	0,041
-371,029	-106,645	-0,105	0,017
-370,015	-200,000	0,001	-0,057
-369,000	36,542	-0,038	0,024
-367,985	800,000	-0,041	-0,118
-366,971	479,995	0,023	0,037
-365,956	215,769	-0,050	0,057
-364,942	-166,876	0,119	0,003
-363,927	728,315	-0,020	-0,039
-362,912	484,025	-0,033	-0,053
-361,898	800,000	-0,018	-0,039
-360,883	467,052	0,086	0,138
-359,869	-50,947	0,069	0,023
-358,854	-200,000	0,019	-0,067
-357,839	3,820	0,135	-0,071
-356,825	391,108	0,074	-0,110
-355,810	253,302	0,069	-0,084
-354,796	800,000	-0,013	0,027
-353,781	91,736	-0,057	-0,046
-352,766	-116,738	-0,035	-0,005
-351,752	-59,173	0,014	-0,004
-350,737	285,301	0,050	0,065
-349,723	800,000	0,044	0,101
-348,708	614,432	-0,102	0,183
-347,693	-200,000	-0,005	0,028
-346,679	-62,693	0,015	0,004
-345,664	-103,527	0,087	-0,015
-344,650	-200,000	0,014	-0,048
-343,635	580,759	0,045	0,080
-342,620	149,374	0,044	-0,042
-341,606	-200,000	0,014	0,185
-340,591	-200,000	-0,007	0,036
-339,577	-200,000	0,055	-0,175
-338,562	-200,000	-0,030	-0,168
-337,548	-167,788	0,104	-0,003
-336,533	657,738	0,030	-0,055
-335,518	432,263	-0,028	0,043
-334,504	-65,550	-0,008	0,002
-333,489	800,000	-0,040	-0,082
-332,475	-200,000	-0,000	-0,065
-331,460	800,000	0,038	-0,091
-330,445	-200,000	-0,008	-0,069
-329,431	-106,695	0,077	-0,012
-328,416	800,000	-0,042	-0,088
-327,402	-29,803	0,173	0,070
-326,387	272,343	-0,019	-0,024
-325,372	89,745	-0,023	-0,019
-324,358	224,989	-0,068	-0,079
-323,343	-200,000	-0,027	0,162
-322,329	-200,000	0,013	0,044
-321,314	35,816	0,080	-0,050
-320,299	399,831	0,094	0,141
-319,285	514,531	-0,074	-0,123
-318,270	-83,289	-0,150	-0,034
-317,256	-200,000	-0,033	-0,144
-316,241	-176,292	0,040	0,001
-315,226	-200,000	0,006	-0,060
-314,212	-41,197	0,083	0,030
-313,197	800,000	-0,078	0,178
-312,183	159,970	0,055	0,055
-311,168	-200,000	-0,027	-0,123
-310,153	510,379	0,036	-0,060
-309,139	-200,000	0,017	-0,077
-308,124	-200,000	-0,013	0,095
-307,110	800,000	-0,015	0,042
-306,095	740,283	-0,075	0,145
-305,080	-47,897	0,086	-0,029
-304,066	579,019	0,030	0,053
-303,051	-31,455	0,061	0,024
-302,037	53,288	-0,158	-0,108
-301,022	-200,000	-0,015	-0,097
-300,008	-17,999	0,079	-0,035
-298,993	800,000	-0,007	-0,018
-297,978	800,000	-0,006	-0,014
-296,964	-200,000	0,020	-0,064
-295,949	-200,000	0,035	-0,117
-294,935	19,023	0,097	-0,055
-293,920	-200,000	0,001	0,052
-292,905	-200,000	-0,017	0,156
-291,891	-80,336	0,079	-0,019
-290,876	-114,927	-0,079	-0,011
-289,862	800,000	0,015	-0,033
-288,847	800,000	0,025	-0,063
-287,832	514,694	-0,044	-0,073
-286,818	-200,000	0,007	-0,022
-285,803	-173,891	-0,048	-0,001
-284,789	-200,000	-0,005	-0,045
-283,774	800,000	0,061	0,183
-282,759	-128,772	-0,080	-0,008
-281,745	4,160	0,155	0,081
-280,730	-1,863	-0,117	-0,059
-279,716	-79,746	0,064	0,015
-278,701	800,000	-0,025	0,064
-277,686	-123,832	-0,049	0,005
-276,672	239,111	0,013	0,015
-275,657	208,981	-0,082	0,092
-274,643	-43,036	-0,090	0,032
-273,628	335,244	-0,064	-0,088
-272,613	185,290	0,032	-0,034
-271,599	800,000	-0,019	0,037
-270,584	-200,000	-0,004	0,177
-269,570	14,173	-0,068	0,037
-268,555	-17,912	0,132	0,059
-267,540	126,455	-0,128	0,116
-266,526	184,939	-0,038	0,041
-265,511	800,000	0,057	-0,140
-264,497	33,473	0,058	-0,036
-263,482	414,959	0,081	0,123
-262,467	-200,000	0,037	0,149
-261,453	190,658	0,069	-0,074
-260,438	74,823	-0,116	-0,087
-259,424	-149,773	-0,083	-0,005
-258,409	184,216	0,068	-0,072
-257,395	-144,438	0,132	0,009
-256,380	-30,237	0,148	-0,060
-255,365	148,318	-0,031	-0,029
-254,351	178,331	-0,129	-0,135
-253,336	510,422	0,045	0,075
-252,322	-200,000	0,018	-0,063
-251,307	254,628	0,032	-0,040
-250,292	-200,000	-0,009	0,125
-249,278	48,129	0,016	-0,011
-248,263	800,000	-0,112	0,227
-247,249	-104,621	-0,086	0,014
-246,234	781,356	0,060	-0,118
-245,219	-115,705	-0,111	-0,015
-244,205	800,000	0,046	-0,094
-243,190	107,330	-0,054	0,045
-242,176	-200,000	0,006	0,039
-241,161	-200,000	0,001	-0,022
-240,146	96,657	-0,097	-0,079
-239,132	289,032	0,028	0,036
-238,117	282,885	-0,084	-0,108
-237,103	-51,001	-0,103	0,034
-236,088	-200,000	-0,007	-0,073
-235,073	233,497	0,100	0,118
-234,059	273,116	0,028	0,036
-233,044	90,325	0,132	0,105
-232,030	-200,000	0,038	0,170
-231,015	800,000	-0,082	-0,177
-230,000	440,332	0,058	-0,090
-228,986	387,936	0,043	-0,063
-227,971	76,414	0,118	-0,089
-226,957	800,000	-0,041	0,111
-225,942	-200,000	-0,020	0,152
-224,927	324,996	-0,093	-0,127
-223,913	-21,385	-0,174	-0,075
-222,898	260,729	-0,068	-0,084
-221,884	56,102	0,016	0,011
-220,869	-52,776	0,110	0,036
-219,855	250,944	-0,037	-0,045
-218,840	120,769	0,125	0,111
-217,825	-147,441	-0,041	-0,002
-216,811	-200,000	-0,011	-0,034
-215,796	-115,635	-0,116	-0,015
-214,782	-137,740	-0,037	0,003
-213,767	-19,327	0,023	0,010
-212,752	800,000	0,019	0,038
-211,738	-28,161	0,051	-0,021
-210,723	26,246	0,109	-0,064
-209,709	537,870	-0,013	0,023
-208,694	438,129	0,053	-0,083
-207,679	-107,852	-0,124	0,019
-206,665	-200,000	-0,011	-0,061
-205,650	-200,000	0,009	0,088
-204,636	-200,000	0,009	-0,044
-203,621	23,397	-0,198	0,116
-202,606	-45,649	0,056	-0,019
-201,592	0,114	0,139	-0,070
-200,577	-200,000	-0,019	-0,114
-199,563	-125,621	0,168	-0,018
-198,548	-200,000	0,013	0,096
-197,533	-200,000	0,001	0,030
-196,519	131,351	-0,037	-0,034
-195,504	28,242	-0,060	0,036
-194,490	33,690	0,075	-0,046
-193,475	800,000	0,028	0,063
-192,460	-200,000	-0,017	-0,094
-191,446	510,880	0,074	0,123
-190,431	-200,000	0,041	0,141
-189,417	127,919	-0,080	0,073
-188,402	234,839	-0,025	0,029
-187,387	103,559	-0,085	-0,071
-186,373	-200,000	-0,004	-0,075
-185,358	800,000	-0,032	0,063
-184,344	-200,000	0,013	0,133
-183,329	-128,220	0,148	-0,015
-182,315	-91,504	0,150	0,030
-181,300	-80,019	-0,012	0,003
-180,285	209,153	-0,032	0,036
-179,271	800,000	0,058	-0,151
-178,256	-72,365	-0,122	-0,032
-177,242	18,766	0,072	-0,041
-176,227	-93,960	-0,104	-0,020
-175,212	517,390	0,038	0,063
-174,198	-113,548	-0,049	0,007
-173,183	290,526	-0,110	-0,143
-172,169	46,243	-0,038	-0,025
-171,154	174,194	-0,055	-0,057
-170,139	48,006	-0,037	0,025
-169,125	800,000	0,026	0,065
-168,110	428,626	-0,013	-0,020
-167,096	438,459	-0,040	-0,063
-166,081	800,000	-0,045	-0,120
-165,066	800,000	0,018	-0,048
-164,052	-200,000	-0,022	-0,094
-163,037	-96,648	0,117	0,022
-162,023	-200,000	0,012	0,104
-161,008	-200,000	0,049	0,172
-159,993	79,642	-0,091	0,069
-158,979	422,857	-0,098	0,151
-157,964	83,373	0,088	-0,068
-156,950	-176,375	0,046	-0,001
-155,935	-15,243	-0,058	0,026
-154,920	-11,868	0,061	-0,028
-153,906	-200,000	-0,003	0,095
-152,891	-200,000	-0,022	0,156
-151,877	800,000	0,022	0,066
-150,862	63,354	-0,065	-0,046
-149,847	34,097	-0,076	-0,047
-148,833	-200,000	0,006	0,092
-147,818	480,681	-0,060	0,098
-146,804	800,000	-0,050	0,118
-145,789	800,000	-0,037	0,076
-144,775	252,537	0,034	0,041
-143,760	-74,365	0,073	-0,019
-142,745	203,807	-0,065	-0,071
-141,731	-200,000	-0,006	-0,033
-140,716	-200,000	0,006	0,147
-139,702	-70,961	-0,044	-0,012
-138,687	800,000	0,011	0,022
-137,672	-126,443	-0,035	-0,004
-136,658	-200,000	0,002	0,081
-135,643	44,570	0,092	-0,060
-134,629	-29,284	-0,092	0,037
-133,614	52,400	0,106	0,072
-132,599	288,010	-0,044	0,057
-131,585	262,535	0,117	0,145
-130,570	800,000	0,056	0,116
-129,556	-179,727	-0,092	0,001
-128,541	-200,000	0,029	-0,133
-127,526	-200,000	0,015	-0,066
-126,512	-200,000	0,014	-0,104
-125,497	-83,228	-0,065	0,015
-124,483	-200,000	-0,002	0,018
-123,468	313,927	0,038	0,051
-122,453	800,000	-0,035	-0,081
-121,439	644,102	-0,061	-0,111
-120,424	296,652	-0,065	0,084
-119,410	-200,000	0,046	0,148
-118,395	371,976	0,097	0,141
-117,380	-200,000	-0,006	0,105
-116,366	-5,366	0,068	-0,033
-115,351	-154,182	0,077	0,004
-114,337	-12,384	-0,179	-0,083
-113,322	-61,884	-0,128	0,038
-112,307	-200,000	-0,034	-0,182
-111,293	800,000	0,049	0,124
-110,278	-107,391	-0,074	0,011
-109,264	124,029	0,134	-0,119
-108,249	-200,000	-0,010	-0,084
-107,234	-109,270	-0,075	0,011
-106,220	51,245	-0,128	-0,086
-105,205	-69,881	0,157	-0,042
-104,191	-200,000	0,003	0,085
-103,176	-200,000	-0,023	0,086
-102,162	-153,763	-0,072	-0,003
-101,147	-126,816	-0,014	-0,001
-100,132	-85,537	-0,121	-0,027
-99,118	-61,292	-0,027	0,008
-98,103	598,970	0,044	-0,077
-97,089	685,306	0,025	-0,047
-96,074	418,328	0,043	0,065
-95,059	800,000	-0,043	0,120
-94,045	800,000	-0,002	0,005
-93,030	316,151	0,030	0,040
-92,016	-110,548	-0,141	0,020
-91,001	206,050	0,027	0,030
-89,986	-200,000	-0,010	0,110
-88,972	194,738	0,049	0,052
-87,957	-91,018	0,045	-0,009
-86,943	800,000	-0,035	0,072
-85,928	-106,022	-0,076	0,012
-84,913	195,581	-0,046	-0,050
-83,899	-200,000	-0,023	-0,071
-82,884	204,763	0,132	-0,145
-81,870	113,862	-0,101	0,087
-80,855	-200,000	-0,011	0,125
-79,840	517,131	-0,027	-0,046
-78,826	-200,000	-0,025	-0,141
-77,811	92,343	0,051	0,040
-76,797	-200,000	-0,011	0,168
-75,782	800,000	0,023	0,048
-74,767	-200,000	-0,002	0,068
-73,753	135,580	-0,061	0,056
-72,738	81,519	-0,038	0,029
-71,724	-36,445	-0,067	-0,025
-70,709	189,178	-0,095	0,101
-69,694	-200,000	0,012	-0,039
-68,680	-57,692	0,059	-0,018
-67,665	3,866	0,051	0,026
-66,651	298,999	-0,061	0,079
-65,636	800,000	0,089	-0,210
-64,622	-187,393	-0,142	-0,001
-63,607	-200,000	0,016	-0,075
-62,592	-32,368	-0,157	-0,062
-61,578	-174,183	0,119	0,002
-60,563	-200,000	0,036	0,158
-59,549	800,000	-0,104	0,264
-58,534	11,852	-1,628	-0,883
-57,519	471,376	-1,351	-2,160
-56,505	-200,000	-0,599	-4,685
-55,490	331,560	0,944	1,293
-54,476	800,000	4,892	11,471
-53,461	-200,000	19,799	326,115
-52,446	800,000	746,761	2330,706
-51,432	563,020	1658,324	2851,649
-50,417	76,688	1671,117	1253,097
-49,403	20,642	1544,220	881,963
-48,388	14,527	1466,909	808,057
-47,373	18,166	1457,084	820,200
-46,359	16,560	1446,583	806,558
-45,344	12,807	1442,205	786,106
-44,330	12,700	1440,262	784,501
-43,315	12,770	1438,569	783,884
-42,300	12,792	1436,800	782,994
-41,286	12,772	1435,468	782,140
-40,271	12,721	1434,198	781,174
-39,257	12,749	1432,913	780,576
-38,242	12,767	1431,733	779,992
-37,227	12,796	1430,423	779,381
-36,213	12,818	1428,979	778,672
-35,198	12,802	1427,959	778,008
-34,184	12,813	1427,177	777,605
-33,169	12,768	1425,776	776,595
-32,154	12,802	1424,580	776,075
-31,140	12,832	1423,174	775,420
-30,125	12,846	1422,045	774,839
-29,111	12,829	1421,061	774,193
-28,096	12,801	1419,919	773,409
-27,082	12,766	1419,073	772,753
-26,067	12,791	1417,772	772,130
-25,052	12,755	1416,676	771,332
-24,038	12,728	1415,582	770,576
-23,023	12,673	1414,895	769,914
-22,009	12,722	1413,679	769,455
-20,994	12,720	1412,677	768,868
-19,979	12,670	1412,015	768,241
-18,965	12,684	1411,002	767,727
-17,950	12,701	1409,964	767,212
-16,936	12,680	1409,045	766,585
-15,921	12,650	1408,047	765,866
-14,906	12,669	1407,164	765,449
-13,892	12,667	1406,100	764,828
-12,877	12,618	1405,550	764,271
-11,863	12,663	1404,455	763,855
-10,848	12,614	1403,559	763,105
-9,833	12,613	1402,798	762,659
-8,819	12,594	1401,869	762,036
-7,804	12,532	1401,046	761,269
-6,790	12,529	1400,116	760,717
-5,775	12,596	1398,660	760,208
-4,760	12,547	1398,012	759,602
-3,746	12,566	1396,897	759,050
-2,731	12,540	1396,006	758,417
-1,717	12,510	1395,218	757,820
-0,702	12,510	1393,481	756,847
0,313	16,419	1309,212	729,150
1,327	32,622	701,410	427,971
2,342	50,027	122,480	81,593
3,356	0,873	16,668	8,416
4,371	-3,735	3,178	1,555
5,386	-44,522	0,526	0,185
6,400	-200,000	0,038	0,205
7,415	32,018	-0,288	-0,175
8,429	124,181	-0,221	-0,196
9,444	-9,294	-0,392	-0,185
10,459	327,621	-0,186	-0,253
11,473	20,693	-0,305	-0,174
12,488	39,798	-0,233	-0,147
13,502	167,303	-0,304	-0,305
14,517	-31,814	-0,361	-0,142
15,531	67,699	-0,297	-0,214
16,546	110,671	-0,283	-0,240
17,561	170,290	-0,402	-0,406
18,575	34,587	-0,217	-0,133
19,590	98,213	-0,239	-0,194
20,604	-38,540	-0,230	-0,085
21,619	18,942	-0,377	-0,213
22,634	30,082	-0,447	-0,269
23,648	-22,457	-0,469	-0,200
24,663	98,391	-0,405	-0,329
25,677	114,467	-0,344	-0,296
26,692	70,085	-0,403	-0,293
27,707	16,625	-0,360	-0,200
28,721	151,009	-0,316	-0,304
29,736	167,168	-0,290	-0,291
30,750	42,353	-0,417	-0,267
31,765	190,045	-0,384	-0,407
32,780	42,213	-0,290	-0,186
33,794	77,322	-0,213	-0,160
34,809	88,262	-0,306	-0,239
35,823	90,452	-0,325	-0,257
36,838	4,361	-0,490	-0,253
37,853	25,637	-0,418	-0,244
38,867	96,494	-0,331	-0,267
39,882	72,016	-0,383	-0,281
40,896	131,210	-0,314	-0,284
41,911	-59,090	-0,435	-0,131
42,926	4,129	-0,487	-0,250
43,940	24,527	-0,399	-0,232
44,955	188,978	-0,326	-0,345
45,969	219,817	-0,302	-0,341
46,984	151,015	-0,368	-0,353
47,999	122,672	-0,309	-0,273
49,013	65,758	-0,315	-0,224
50,028	11,956	-0,385	-0,208
51,042	149,292	-0,378	-0,361
52,057	224,681	-0,286	-0,326
53,071	12,952	-0,425	-0,231
54,086	231,259	-0,184	-0,212
55,101	8,320	-0,386	-0,203
56,115	191,833	-0,192	-0,204
57,130	25,019	-0,316	-0,184
58,144	30,666	-0,252	-0,151
59,159	32,476	-0,405	-0,245
60,174	152,649	-0,318	-0,306
61,188	-3,874	-0,366	-0,178
62,203	116,276	-0,308	-0,266
63,217	42,765	-0,266	-0,170
64,232	-46,041	-0,281	-0,097
65,247	24,401	-0,413	-0,239
66,261	85,175	-0,316	-0,244
67,276	370,064	-0,232	-0,332
68,290	140,232	-0,430	-0,399
69,305	201,941	-0,290	-0,315
70,320	152,610	-0,202	-0,194
71,334	8,538	-0,192	-0,101
72,349	142,237	-0,247	-0,231
73,363	45,692	-0,302	-0,196
74,378	73,104	-0,225	-0,165
75,393	122,981	-0,245	-0,216
76,407	-3,984	-0,185	-0,090
77,422	200,137	-0,229	-0,247
78,436	74,243	-0,178	-0,131
79,451	51,271	-0,352	-0,234
80,466	-4,296	-0,408	-0,197
81,480	63,808	-0,455	-0,320
82,495	-9,909	-0,461	-0,215
83,509	136,592	-0,336	-0,308
84,524	-37,418	-0,307	-0,114
85,539	-11,698	-0,283	-0,130
86,553	-37,365	-0,300	-0,112
87,568	-21,435	-0,288	-0,123
88,582	-84,360	-0,304	-0,067
89,597	14,012	-0,280	-0,153
90,611	47,459	-0,252	-0,164
91,626	14,421	-0,323	-0,176
92,641	62,738	-0,240	-0,168
93,655	-6,313	-0,329	-0,157
94,670	30,142	-0,318	-0,190
95,684	159,570	-0,303	-0,296
96,699	-9,934	-0,328	-0,152
97,714	325,997	-0,212	-0,286
98,728	50,445	-0,229	-0,152
99,743	103,084	-0,256	-0,210
100,757	314,849	-0,197	-0,261
101,772	29,474	-0,319	-0,190
102,787	41,864	-0,350	-0,222
103,801	-11,477	-0,356	-0,163
104,816	37,901	-0,324	-0,201
105,830	624,370	-0,076	-0,134
106,845	85,541	-0,186	-0,143
107,860	-3,059	-0,422	-0,205
108,874	336,711	-0,148	-0,201
109,889	83,415	-0,288	-0,219
110,903	160,413	-0,215	-0,210
111,918	116,015	-0,250	-0,215
112,933	42,215	-0,231	-0,147
113,947	45,510	-0,193	-0,125
114,962	25,127	-0,306	-0,178
115,976	-151,720	-0,218	-0,011
116,991	428,148	-0,145	-0,220
118,006	64,011	-0,353	-0,248
119,020	-137,349	-0,407	-0,032
120,035	-10,342	-0,236	-0,109
121,049	270,988	-0,205	-0,253
122,064	303,672	-0,170	-0,221
123,079	800,000	-0,094	-0,262
124,093	23,840	-0,258	-0,149
125,108	90,610	-0,256	-0,201
126,122	73,815	-0,157	-0,115
127,137	-13,731	-0,324	-0,146
128,151	266,346	-0,134	-0,164
129,166	56,250	-0,130	-0,088
130,181	7,124	-0,224	-0,116
131,195	41,023	-0,310	-0,196
132,210	469,105	-0,211	-0,332
133,224	47,556	-0,289	-0,188
134,239	-127,126	-0,250	-0,025
135,254	-48,355	-0,266	-0,089
136,268	112,475	-0,248	-0,210
137,283	222,716	-0,209	-0,236
138,297	-28,105	-0,202	-0,081
139,312	-129,921	-0,300	-0,028
140,327	30,411	-0,350	-0,209
141,341	53,433	-0,190	-0,127
142,356	109,845	-0,179	-0,150
143,370	-59,608	-0,105	-0,031
144,385	216,733	-0,235	-0,261
145,400	176,846	-0,228	-0,232
146,414	800,000	-0,190	-0,395
147,429	118,815	-0,183	-0,158
148,443	-155,797	-0,281	0,012
149,458	800,000	-0,120	-0,235
150,473	283,736	-0,197	-0,248
151,487	203,034	-0,139	-0,150
152,502	531,525	-0,128	-0,213
153,516	316,115	-0,194	-0,256
154,531	64,439	-0,142	-0,100
155,546	14,976	-0,208	-0,113
156,560	280,369	-0,106	-0,133
157,575	-122,568	-0,181	0,020
158,589	-23,446	-0,281	-0,117
159,604	215,835	-0,276	-0,306
160,619	82,307	-0,239	-0,181
161,633	317,183	-0,226	-0,298
162,648	35,985	-0,299	-0,183
163,662	197,094	-0,134	-0,143
164,677	148,415	-0,150	-0,141
165,692	129,367	-0,191	-0,170
166,706	110,232	-0,205	-0,172
167,721	138,711	-0,281	-0,257
168,735	36,721	-0,261	-0,160
169,750	96,774	-0,171	-0,136
170,764	6,086	-0,463	-0,238
171,779	18,670	-0,147	-0,081
172,794	140,679	-0,108	-0,099
173,808	-6,351	-0,209	-0,099
174,823	122,435	-0,221	-0,193
175,837	82,122	-0,288	-0,217
176,852	-129,227	-0,203	-0,019
177,867	208,834	-0,121	-0,132
178,881	-38,387	-0,248	-0,091
179,896	800,000	-0,096	-0,222
180,910	496,581	-0,212	-0,340
181,925	85,712	-0,262	-0,201
182,940	519,791	-0,114	-0,187
183,954	-16,235	-0,370	-0,163
184,969	117,495	-0,180	-0,154
185,983	62,326	-0,226	-0,157
186,998	-23,694	-0,246	-0,102
188,013	43,719	-0,223	-0,142
189,027	-52,056	-0,347	-0,112
190,042	-85,537	-0,224	-0,048
191,056	79,480	-0,162	-0,120
192,071	-24,597	-0,162	-0,067
193,086	-105,713	-0,220	-0,034
194,100	49,430	-0,185	-0,121
195,115	5,249	-0,209	-0,107
196,129	163,363	-0,161	-0,157
197,144	129,963	-0,215	-0,191
198,159	128,113	-0,236	-0,209
199,173	306,301	-0,145	-0,188
200,188	42,392	-0,281	-0,177
201,202	-197,960	-0,354	-0,001
202,217	121,384	-0,244	-0,211
203,232	318,408	-0,171	-0,225
204,246	-200,000	-0,006	-0,136
205,261	60,955	-0,231	-0,159
206,275	55,636	-0,229	-0,154
207,290	42,113	-0,108	-0,068
208,304	78,748	-0,167	-0,124
209,319	67,263	-0,211	-0,149
210,334	117,967	-0,238	-0,204
211,348	208,224	-0,220	-0,239
212,363	285,343	-0,147	-0,184
213,377	101,469	-0,241	-0,195
214,392	-43,586	-0,230	-0,080
215,407	88,192	-0,243	-0,187
216,421	379,535	-0,100	-0,142
217,436	193,230	-0,170	-0,179
218,450	-126,541	-0,150	-0,015
219,465	130,665	-0,135	-0,120
220,480	800,000	-0,064	-0,190
221,494	8,394	-0,303	-0,157
222,509	638,296	-0,007	-0,013
223,523	-148,927	-0,104	-0,006
224,538	159,811	-0,225	-0,217
225,553	128,400	-0,204	-0,180
226,567	141,163	-0,167	-0,153
227,582	266,903	-0,080	-0,098
228,596	800,000	-0,114	-0,286
229,611	331,109	-0,119	-0,159
230,626	287,930	-0,158	-0,198
231,640	800,000	-0,082	-0,191
232,655	232,671	-0,190	-0,217
233,669	128,718	-0,211	-0,187
234,684	-104,297	-0,172	-0,027
235,699	348,488	-0,173	-0,237
236,713	387,948	-0,179	-0,257
237,728	330,665	-0,110	-0,148
238,742	-99,187	-0,261	-0,045
239,757	23,747	-0,155	-0,088
240,772	800,000	-0,046	-0,134
241,786	142,238	-0,215	-0,198
242,801	-184,971	-0,186	0,002
243,815	-100,899	-0,139	-0,023
244,830	68,392	-0,119	-0,085
245,844	116,580	-0,115	-0,098
246,859	-79,190	-0,358	-0,083
247,874	125,497	-0,227	-0,199
248,888	-21,942	-0,244	-0,102
249,903	800,000	-0,061	-0,150
250,917	-161,085	-0,115	-0,004
251,932	-57,412	-0,140	-0,042
252,947	203,924	-0,154	-0,165
253,961	343,356	-0,190	-0,258
254,976	141,383	-0,221	-0,202
255,990	67,306	-0,251	-0,177
257,005	199,201	-0,202	-0,214
258,020	370,279	-0,132	-0,185
259,034	-55,626	-0,253	-0,078
260,049	-54,451	-0,270	-0,084
261,063	-11,188	-0,165	-0,075
262,078	138,355	-0,123	-0,111
263,093	800,000	-0,099	-0,221
264,107	194,639	-0,172	-0,181
265,122	-51,591	-0,075	-0,024
266,136	587,417	-0,102	-0,174
267,151	31,557	-0,174	-0,103
268,166	-92,277	-0,161	-0,031
269,180	172,366	-0,194	-0,193
270,195	-92,962	-0,278	-0,053
271,209	335,495	-0,107	-0,144
272,224	26,052	-0,200	-0,115
273,239	-142,252	-0,134	0,009
274,253	211,168	-0,202	-0,220
275,268	152,050	-0,122	-0,115
276,282	-92,000	-0,240	-0,046
277,297	-13,629	-0,252	-0,112
278,312	41,202	-0,072	-0,045
279,326	394,454	-0,102	-0,146
280,341	361,643	-0,157	-0,218
281,355	86,208	-0,140	-0,107
282,370	307,829	-0,101	-0,131
283,384	359,222	-0,133	-0,184
284,399	109,725	-0,281	-0,233
285,414	305,728	-0,187	-0,240
286,428	-200,000	-0,052	-0,168
287,443	-200,000	0,001	-0,029
288,457	267,205	-0,136	-0,165
289,472	425,462	-0,096	-0,143
290,487	-126,064	-0,074	0,008
291,501	800,000	-0,107	-0,299
292,516	175,634	-0,128	-0,128
293,530	34,461	-0,266	-0,160
294,545	84,341	-0,097	-0,073
295,560	800,000	-0,035	-0,074
296,574	-7,263	-0,129	-0,060
297,589	118,899	-0,184	-0,157
298,603	184,608	-0,223	-0,228
299,618	63,967	-0,134	-0,093
300,633	-200,000	-0,014	-0,156
301,647	-64,170	-0,188	-0,052
302,662	374,848	-0,072	-0,101
303,676	138,212	-0,206	-0,186
304,691	422,036	-0,115	-0,171
305,706	151,832	-0,053	-0,050
306,720	5,611	-0,233	-0,118
307,735	800,000	-0,077	-0,195
308,749	-95,588	-0,101	0,018
309,764	-92,551	-0,051	0,010
310,779	-104,479	-0,162	-0,026
311,793	-61,279	-0,331	-0,095
312,808	112,021	-0,179	-0,148
313,822	12,081	-0,236	-0,125
314,837	148,498	-0,185	-0,172
315,852	41,108	-0,156	-0,097
316,866	-93,391	-0,108	0,020
317,881	-64,951	-0,236	-0,065
318,895	-200,000	-0,059	-0,212
319,910	157,581	-0,182	-0,174
320,925	87,080	-0,152	-0,116
321,939	800,000	-0,082	-0,172
322,954	135,942	-0,059	0,053
323,968	394,159	-0,151	-0,217
324,983	-23,738	-0,079	-0,032
325,997	26,480	-0,142	-0,082
327,012	73,576	-0,140	-0,101
328,027	18,967	-0,120	-0,066
329,041	245,148	-0,137	-0,158
330,056	423,944	-0,074	-0,110
331,070	-181,503	-0,098	0,001
332,085	128,393	-0,109	0,095
333,100	-177,061	-0,057	0,001
334,114	301,754	-0,124	-0,158
335,129	-58,685	-0,124	0,037
336,143	-200,000	-0,024	-0,103
337,158	-118,503	-0,085	-0,010
338,173	292,786	-0,120	-0,150
339,187	503,202	-0,087	-0,138
340,202	-20,825	-0,108	-0,045
341,216	157,201	-0,188	-0,178
342,231	412,298	-0,070	-0,103
343,246	33,032	-0,130	-0,077
344,260	-47,577	-0,072	0,024
345,275	79,022	-0,070	-0,051
346,289	251,772	-0,166	-0,194
347,304	-200,000	0,012	-0,064
348,319	-37,458	-0,177	-0,064
349,333	228,658	-0,101	-0,113
350,348	17,748	-0,172	-0,094
351,362	-107,444	-0,132	0,020
352,377	46,793	-0,098	0,062
353,392	-200,000	-0,012	-0,049
354,406	270,378	-0,091	-0,110
355,421	208,750	1313,217	1410,544
356,435	160,635	1473,745	1411,023
