DTS Sentinel unit serial number:	SN410029Multiplexer serial number:	ORYXHardware model number:	OX2-SRSoftware version number:	ORYX F/W v4,00 Oryx Data Collector v3.7.2.0data status	okinstallation	B3 Nyhavnadifferential loss correction	single-endedforward channel	channel 1reverse channel	N/Adate	2023/12/01time	07:42:30forward acquisition time	300,00reverse acquisition time	0,00gamma	499,1914k internal	0,3213k external	0,3213temperature offset calibration	1,0000default loss term (dB/km)	0,3820temperature slope calibration	1,0000multiplexer offset coefficient	1,0000multiplexer slope coefficient	1,0000fibre end	0,00T internal ref (°C)	8,08T ext. ref 1 (°C)	-6,30T ext. ref 2 (°C)	-6,47length (m)	temperature (°C)	Stokes	anti-Stokes-744,400	-15,938	-0,273	-0,126
-743,385	-200,000	-0,024	0,256
-742,371	-200,000	-0,026	-0,269
-741,356	-200,000	-0,042	0,267
-740,342	20,870	-0,283	-0,166
-739,327	800,000	-0,112	0,285
-738,312	73,224	-0,223	-0,169
-737,298	800,000	-0,060	0,139
-736,283	-200,000	-0,058	-0,305
-735,269	-200,000	0,032	0,385
-734,254	207,426	-0,093	-0,106
-733,239	-52,711	-0,162	0,054
-732,225	-200,000	-0,049	-0,161
-731,210	759,332	0,072	0,143
-730,196	-123,249	-0,120	-0,014
-729,181	-94,108	-0,074	-0,015
-728,167	-80,455	-0,095	0,023
-727,152	-200,000	0,099	-0,000
-726,137	-200,000	-0,002	-0,114
-725,123	-40,393	-0,086	-0,032
-724,108	459,398	-0,069	-0,112
-723,094	-200,000	0,003	-0,193
-722,079	-8,759	-0,078	-0,038
-721,064	109,149	0,068	-0,059
-720,050	-88,300	-0,093	0,020
-719,035	495,535	-0,056	0,093
-718,021	-69,029	-0,061	-0,017
-717,006	74,262	-0,117	-0,089
-715,991	-200,000	0,003	-0,140
-714,977	-141,472	-0,196	0,014
-713,962	-29,471	-0,171	-0,071
-712,948	-1,817	-0,013	-0,007
-711,933	-76,903	0,092	0,023
-710,918	800,000	-0,037	-0,092
-709,904	800,000	-0,020	-0,046
-708,889	146,392	0,073	-0,071
-707,875	52,642	0,094	-0,065
-706,860	-118,978	-0,045	0,006
-705,845	85,394	-0,115	0,092
-704,831	774,175	-0,022	-0,043
-703,816	398,311	-0,061	0,092
-702,802	-200,000	0,003	-0,115
-701,787	75,948	0,028	-0,021
-700,772	-75,194	-0,015	0,004
-699,758	-6,127	0,074	-0,037
-698,743	389,293	0,097	-0,146
-697,729	-200,000	-0,023	0,138
-696,714	-200,000	0,003	-0,015
-695,699	-74,645	-0,094	0,024
-694,685	-16,722	-0,222	-0,101
-693,670	241,362	-0,047	-0,057
-692,656	23,802	0,035	-0,021
-691,641	92,008	-0,059	0,048
-690,627	192,924	-0,074	0,081
-689,612	278,633	0,062	-0,080
-688,597	-2,079	-0,150	0,076
-687,583	210,685	-0,104	-0,119
-686,568	176,798	0,042	0,044
-685,554	-200,000	-0,039	0,138
-684,539	27,572	0,084	-0,051
-683,524	-160,279	-0,105	0,004
-682,510	687,624	-0,039	0,075
-681,495	800,000	0,002	-0,006
-680,481	-49,856	-0,132	-0,045
-679,466	122,949	0,024	0,022
-678,451	366,939	0,026	-0,038
-677,437	-103,405	-0,109	-0,018
-676,422	-185,329	0,046	0,001
-675,408	800,000	0,025	-0,069
-674,393	94,306	-0,078	-0,064
-673,378	-9,208	-0,079	-0,038
-672,364	800,000	-0,083	-0,173
-671,349	-118,174	-0,172	-0,022
-670,335	-78,833	0,120	-0,029
-669,320	106,153	-0,075	0,064
-668,305	800,000	-0,051	-0,117
-667,291	344,505	-0,086	0,122
-666,276	800,000	0,009	0,021
-665,262	-200,000	-0,001	-0,011
-664,247	-200,000	-0,032	-0,121
-663,232	-200,000	0,001	-0,105
-662,218	-37,580	-0,110	0,042
-661,203	-125,837	0,050	0,005
-660,189	-200,000	0,001	-0,130
-659,174	5,091	0,039	-0,021
-658,159	535,072	-0,118	-0,203
-657,145	212,615	0,118	0,135
-656,130	-105,503	0,106	0,017
-655,116	16,069	-0,066	0,037
-654,101	-200,000	-0,010	0,129
-653,086	141,564	0,057	-0,055
-652,072	-200,000	0,037	-0,139
-651,057	-200,000	0,004	-0,038
-650,043	344,804	-0,021	0,029
-649,028	800,000	0,062	-0,168
-648,014	-200,000	0,004	-0,055
-646,999	26,656	0,040	-0,024
-645,984	335,242	-0,024	0,033
-644,970	800,000	0,016	0,038
-643,955	109,007	0,042	-0,036
-642,941	1,038	-0,058	0,030
-641,926	-161,248	-0,025	0,001
-640,911	-200,000	-0,005	-0,049
-639,897	-200,000	-0,029	0,149
-638,882	-200,000	-0,016	0,176
-637,868	-110,435	-0,105	-0,016
-636,853	224,165	0,034	-0,040
-635,838	-200,000	0,029	-0,189
-634,824	-90,571	-0,124	-0,026
-633,809	-191,528	0,144	-0,001
-632,795	217,334	-0,083	0,095
-631,780	7,991	0,039	-0,021
-630,765	-52,190	-0,081	0,027
-629,751	665,061	0,062	-0,116
-628,736	800,000	0,023	-0,048
-627,722	800,000	0,028	-0,083
-626,707	-200,000	0,002	-0,154
-625,692	-200,000	-0,018	0,151
-624,678	-18,857	0,085	0,038
-623,663	800,000	0,009	0,030
-622,649	-105,442	-0,051	0,008
-621,634	-74,546	0,049	0,013
-620,619	800,000	-0,019	-0,042
-619,605	568,882	-0,037	0,065
-618,590	237,560	0,018	0,022
-617,576	-200,000	-0,003	0,079
-616,561	-200,000	-0,005	-0,089
-615,546	-39,713	0,107	-0,040
-614,532	-200,000	0,011	-0,219
-613,517	-200,000	0,009	-0,050
-612,503	-23,157	0,114	0,049
-611,488	-114,554	0,108	-0,015
-610,474	-200,000	0,025	0,108
-609,459	66,568	-0,066	-0,048
-608,444	-200,000	0,020	-0,100
-607,430	-200,000	0,019	-0,187
-606,415	-200,000	-0,018	-0,123
-605,401	37,531	-0,098	0,063
-604,386	99,609	-0,136	0,113
-603,371	305,504	0,027	-0,037
-602,357	-105,159	-0,149	-0,024
-601,342	-200,000	-0,005	-0,071
-600,328	462,248	-0,060	-0,097
-599,313	-116,592	-0,135	-0,018
-598,298	800,000	-0,026	0,062
-597,284	-200,000	-0,003	-0,031
-596,269	141,907	0,102	-0,097
-595,255	420,582	-0,126	0,196
-594,240	398,303	0,022	0,033
-593,225	800,000	0,028	-0,087
-592,211	-93,197	-0,040	0,008
-591,196	-125,042	-0,020	0,002
-590,182	-200,000	-0,004	-0,088
-589,167	-1,776	-0,075	0,038
-588,152	800,000	-0,019	0,044
-587,138	-80,507	-0,070	0,017
-586,123	-117,367	-0,119	-0,015
-585,109	800,000	-0,051	-0,127
-584,094	768,207	0,030	0,060
-583,079	22,004	-0,026	-0,015
-582,065	326,054	0,009	0,012
-581,050	7,828	-0,147	0,079
-580,036	158,264	0,053	0,053
-579,021	800,000	0,032	-0,079
-578,006	190,723	0,017	-0,018
-576,992	-200,000	0,002	0,060
-575,977	271,239	-0,041	0,052
-574,963	241,238	0,084	0,101
-573,948	331,202	-0,060	0,084
-572,934	-200,000	0,004	-0,112
-571,919	-200,000	0,002	-0,083
-570,904	-9,574	0,074	0,035
-569,890	246,260	-0,056	0,068
-568,875	49,439	-0,051	-0,034
-567,861	193,428	0,049	0,053
-566,846	33,338	-0,083	0,052
-565,831	-63,119	-0,155	0,046
-564,817	-18,495	-0,054	0,024
-563,802	-93,706	0,074	-0,015
-562,788	300,737	0,029	-0,038
-561,773	-3,998	-0,080	-0,040
-560,758	-200,000	-0,006	0,028
-559,744	-139,682	0,136	0,010
-558,729	-146,173	-0,153	-0,010
-557,715	82,357	-0,041	0,032
-556,700	173,662	-0,092	-0,096
-555,685	156,585	0,071	-0,071
-554,671	-45,392	-0,138	-0,049
-553,656	55,715	-0,045	-0,032
-552,642	71,011	-0,096	-0,071
-551,627	-200,000	0,009	0,066
-550,612	260,949	0,033	-0,041
-549,598	-200,000	0,013	-0,101
-548,583	19,077	-0,186	-0,107
-547,569	-116,394	0,111	0,015
-546,554	171,790	0,067	-0,070
-545,539	-200,000	0,005	-0,151
-544,525	-70,288	0,050	-0,014
-543,510	-200,000	-0,005	-0,056
-542,496	166,430	-0,041	-0,042
-541,481	-200,000	0,011	-0,213
-540,466	67,443	0,057	0,042
-539,452	22,465	-0,059	-0,035
-538,437	230,839	0,054	-0,064
-537,423	800,000	-0,043	0,100
-536,408	60,913	0,048	0,034
-535,393	48,521	-0,152	0,102
-534,379	114,586	-0,033	-0,029
-533,364	461,647	0,051	-0,083
-532,350	-80,463	-0,097	0,023
-531,335	-88,638	0,109	0,023
-530,321	-200,000	-0,011	0,090
-529,306	28,846	0,039	-0,024
-528,291	588,311	0,021	-0,037
-527,277	71,638	-0,109	-0,081
-526,262	317,020	-0,036	0,050
-525,248	80,719	-0,071	0,055
-524,233	-153,977	0,140	-0,007
-523,218	761,362	-0,025	0,048
-522,204	237,274	-0,120	-0,143
-521,189	402,332	-0,094	-0,143
-520,175	12,480	-0,168	0,093
-519,160	800,000	0,034	-0,082
-518,145	-200,000	0,035	-0,142
-517,131	-200,000	-0,008	-0,077
-516,116	175,612	0,041	-0,043
-515,102	48,001	-0,063	-0,042
-514,087	-110,241	-0,127	0,019
-513,072	124,600	-0,128	-0,116
-512,058	-37,418	0,084	-0,032
-511,043	-140,733	-0,102	0,007
-510,029	30,888	0,049	-0,030
-509,014	229,621	0,047	0,056
-507,999	117,289	0,005	0,004
-506,985	228,004	-0,094	-0,110
-505,970	800,000	-0,035	-0,094
-504,956	800,000	0,027	-0,061
-503,941	-200,000	0,009	0,036
-502,926	-200,000	0,022	-0,112
-501,912	193,992	0,049	0,054
-500,897	23,838	-0,057	-0,034
-499,883	800,000	0,031	0,062
-498,868	-168,820	-0,124	0,003
-497,853	-200,000	0,001	-0,134
-496,839	481,088	0,047	0,077
-495,824	-109,725	0,263	0,039
-494,810	-15,964	-0,171	0,078
-493,795	-200,000	0,002	0,017
-492,781	461,250	-0,037	-0,060
-491,766	133,928	-0,042	-0,039
-490,751	411,210	-0,069	0,105
-489,737	800,000	0,029	-0,073
-488,722	-200,000	0,013	0,096
-487,708	800,000	-0,027	0,058
-486,693	-200,000	-0,001	-0,024
-485,678	214,083	0,010	-0,012
-484,664	-10,500	-0,044	0,021
-483,649	-200,000	-0,000	0,052
-482,635	-135,629	0,034	0,003
-481,620	-46,570	-0,055	0,019
-480,605	-200,000	0,003	-0,054
-479,591	-200,000	0,020	-0,086
-478,576	67,387	0,090	0,066
-477,562	125,283	-0,045	-0,040
-476,547	-16,218	-0,149	0,068
-475,532	-114,900	0,095	-0,013
-474,518	-200,000	-0,015	0,134
-473,503	-200,000	0,009	0,279
-472,489	-159,976	0,100	-0,004
-471,474	-161,773	0,077	0,003
-470,459	-65,172	0,046	0,013
-469,445	-200,000	0,002	-0,080
-468,430	-8,744	0,042	-0,020
-467,416	800,000	-0,011	-0,034
-466,401	-81,788	-0,029	0,007
-465,386	-200,000	-0,028	0,137
-464,372	39,526	-0,039	0,025
-463,357	-200,000	-0,028	-0,103
-462,343	800,000	-0,035	-0,096
-461,328	800,000	-0,035	0,093
-460,313	133,351	0,011	0,010
-459,299	-200,000	0,005	0,031
-458,284	79,472	0,071	0,054
-457,270	586,645	-0,048	0,086
-456,255	-200,000	0,006	-0,026
-455,241	744,507	-0,052	0,100
-454,226	278,334	0,034	-0,043
-453,211	549,486	-0,050	0,086
-452,197	-39,133	-0,001	-0,001
-451,182	588,877	-0,010	0,019
-450,168	228,423	-0,063	-0,073
-449,153	300,467	0,024	0,032
-448,138	-200,000	0,021	-0,111
-447,124	3,429	-0,117	-0,061
-446,109	-75,286	0,100	0,025
-445,095	-37,451	0,027	0,010
-444,080	800,000	-0,027	0,075
-443,065	36,390	-0,105	0,066
-442,051	34,630	0,081	-0,051
-441,036	398,264	-0,004	-0,006
-440,022	172,510	-0,089	0,091
-439,007	-123,241	-0,008	-0,001
-437,992	-200,000	-0,009	0,038
-436,978	35,490	0,125	0,078
-435,963	74,292	0,105	0,079
-434,949	63,369	-0,092	-0,066
-433,934	160,971	-0,091	0,091
-432,919	124,222	-0,049	-0,044
-431,905	14,939	0,048	-0,027
-430,890	-18,760	0,073	-0,032
-429,876	800,000	-0,057	0,152
-428,861	-200,000	-0,010	-0,054
-427,846	-200,000	-0,030	0,105
-426,832	42,920	-0,081	-0,053
-425,817	263,031	0,019	-0,024
-424,803	485,651	-0,027	-0,043
-423,788	77,813	0,058	-0,045
-422,773	-200,000	0,013	-0,049
-421,759	76,301	0,051	0,038
-420,744	-112,691	-0,032	0,004
-419,730	-156,751	-0,108	0,005
-418,715	49,797	-0,077	-0,052
-417,701	-200,000	0,023	-0,110
-416,686	-200,000	0,017	-0,146
-415,671	67,536	-0,034	-0,025
-414,657	247,004	0,073	0,088
-413,642	-189,589	0,063	-0,001
-412,628	-80,739	-0,027	0,006
-411,613	157,863	0,016	0,016
-410,598	-75,090	0,062	-0,016
-409,584	-200,000	-0,036	-0,149
-408,569	800,000	-0,032	0,073
-407,555	-200,000	0,020	0,141
-406,540	800,000	-0,022	0,066
-405,525	729,401	0,044	0,084
-404,511	298,719	-0,089	-0,117
-403,496	86,799	-0,045	0,036
-402,482	800,000	0,070	0,212
-401,467	800,000	0,043	-0,121
-400,452	414,746	0,092	0,141
-399,438	-49,545	-0,051	0,017
-398,423	-139,272	0,014	0,001
-397,409	-20,189	-0,128	0,056
-396,394	147,277	-0,032	0,031
-395,379	800,000	-0,030	0,080
-394,365	-200,000	0,006	-0,121
-393,350	-159,502	0,112	-0,004
-392,336	146,739	0,041	-0,040
-391,321	-105,294	0,075	0,012
-390,306	-102,401	-0,161	-0,027
-389,292	472,972	0,007	0,011
-388,277	318,983	0,028	-0,038
-387,263	281,970	-0,105	0,135
-386,248	88,182	0,167	0,133
-385,233	-200,000	0,019	0,095
-384,219	211,979	-0,112	0,126
-383,204	-71,716	-0,079	0,021
-382,190	-177,763	0,081	0,001
-381,175	424,491	-0,033	-0,051
-380,160	-4,197	0,069	0,034
-379,146	69,708	-0,033	-0,024
-378,131	-50,176	-0,028	-0,009
-377,117	800,000	-0,034	0,090
-376,102	-84,592	-0,187	-0,042
-375,088	-114,631	0,018	-0,002
-374,073	317,950	0,010	-0,014
-373,058	87,733	0,061	-0,048
-372,044	-200,000	-0,001	0,020
-371,029	-49,674	0,052	0,018
-370,015	800,000	-0,051	-0,149
-369,000	82,779	-0,028	0,022
-367,985	-200,000	0,030	-0,155
-366,971	-1,836	-0,084	0,042
-365,956	800,000	0,041	0,104
-364,942	261,548	0,096	0,118
-363,927	800,000	0,009	-0,030
-362,912	800,000	0,068	-0,176
-361,898	-53,186	0,030	0,010
-360,883	-109,680	0,095	-0,014
-359,869	-200,000	-0,005	-0,124
-358,854	716,839	-0,018	-0,035
-357,839	-200,000	0,021	-0,122
-356,825	-33,334	-0,035	0,014
-355,810	800,000	-0,040	-0,084
-354,796	800,000	0,044	-0,096
-353,781	-72,530	-0,119	0,031
-352,766	-83,598	-0,062	0,014
-351,752	800,000	0,072	0,154
-350,737	-200,000	0,020	0,085
-349,723	3,114	0,148	0,076
-348,708	-200,000	0,008	-0,041
-347,693	127,980	-0,069	0,063
-346,679	215,204	-0,050	-0,056
-345,664	51,857	-0,039	-0,026
-344,650	-200,000	-0,026	-0,125
-343,635	201,421	0,072	-0,080
-342,620	509,359	0,058	0,097
-341,606	287,268	0,027	0,035
-340,591	-9,113	0,067	-0,032
-339,577	-81,954	0,068	-0,016
-338,562	-200,000	-0,000	0,070
-337,548	45,964	0,039	-0,025
-336,533	-24,406	0,053	0,023
-335,518	321,418	-0,014	0,020
-334,504	521,324	0,099	0,166
-333,489	73,542	-0,034	0,025
-332,475	-33,105	0,065	0,026
-331,460	-9,055	-0,112	0,053
-330,445	8,500	-0,049	-0,026
-329,431	418,323	0,044	-0,068
-328,416	-200,000	-0,011	0,102
-327,402	-200,000	0,028	-0,120
-326,387	153,634	0,120	0,117
-325,372	422,611	-0,017	-0,026
-324,358	-172,437	0,086	-0,002
-323,343	-158,007	-0,135	-0,006
-322,329	-200,000	0,019	0,107
-321,314	77,380	0,064	0,048
-320,299	800,000	-0,033	-0,081
-319,285	-108,511	-0,017	0,003
-318,270	-91,386	-0,093	0,019
-317,256	-200,000	0,014	-0,122
-316,241	72,554	-0,046	-0,034
-315,226	317,408	0,037	-0,050
-314,212	800,000	0,039	0,080
-313,197	-200,000	-0,002	-0,043
-312,183	-74,729	0,046	-0,012
-311,168	260,858	0,054	0,067
-310,153	-125,744	0,070	0,007
-309,139	77,138	0,070	-0,053
-308,124	-200,000	0,027	-0,086
-307,110	4,319	-0,075	0,039
-306,095	313,870	-0,038	0,051
-305,080	2,703	0,098	0,050
-304,066	-135,721	0,039	-0,003
-303,051	-200,000	0,014	-0,093
-302,037	-200,000	-0,014	-0,139
-301,022	287,767	0,069	0,090
-300,008	-200,000	-0,007	0,072
-298,993	78,769	0,063	0,048
-297,978	350,601	0,086	-0,121
-296,964	-200,000	-0,020	0,076
-295,949	44,576	-0,035	0,023
-294,935	277,608	-0,021	0,026
-293,920	-118,754	0,247	0,031
-292,905	114,824	0,046	0,040
-291,891	408,543	0,066	0,099
-290,876	-24,140	-0,078	0,033
-289,862	-54,459	-0,084	-0,027
-288,847	61,303	-0,126	0,089
-287,832	-160,057	-0,073	-0,003
-286,818	-121,862	0,123	0,014
-285,803	800,000	-0,036	0,074
-284,789	62,921	0,110	0,078
-283,774	66,465	-0,030	0,021
-282,759	387,002	0,062	0,091
-281,745	40,730	-0,164	-0,105
-280,730	-200,000	-0,013	-0,067
-279,716	369,265	0,054	-0,078
-278,701	800,000	0,047	-0,101
-277,686	-108,680	0,085	0,013
-276,672	-200,000	0,013	0,111
-275,657	11,342	-0,068	-0,037
-274,643	44,541	-0,032	-0,021
-273,628	800,000	0,017	0,034
-272,613	6,796	0,120	-0,064
-271,599	-200,000	-0,002	-0,013
-270,584	180,340	-0,074	0,078
-269,570	-34,531	0,142	-0,055
-268,555	-4,310	0,167	-0,082
-267,540	-87,134	-0,037	0,008
-266,526	216,326	-0,079	-0,089
-265,511	48,551	-0,082	0,055
-264,497	-50,898	-0,100	0,033
-263,482	75,487	0,003	-0,002
-262,467	-200,000	0,020	-0,092
-261,453	-200,000	0,185	-0,001
-260,438	-200,000	-0,012	0,048
-259,424	-38,680	-0,044	-0,017
-258,409	-103,426	-0,074	-0,012
-257,395	-39,122	0,075	0,028
-256,380	-200,000	-0,001	-0,011
-255,365	-200,000	-0,006	-0,128
-254,351	-200,000	0,033	0,128
-253,336	56,216	-0,101	0,070
-252,322	215,823	0,082	-0,093
-251,307	-200,000	-0,005	-0,027
-250,292	373,874	0,038	0,055
-249,278	41,174	0,122	0,078
-248,263	800,000	0,048	-0,109
-247,249	-200,000	0,055	-0,302
-246,234	476,793	0,049	0,079
-245,219	-38,961	-0,050	-0,019
-244,205	-98,291	-0,097	-0,018
-243,190	166,267	-0,046	-0,047
-242,176	42,354	-0,069	0,044
-241,161	104,992	-0,107	0,089
-240,146	43,788	0,103	-0,067
-239,132	-200,000	0,021	0,104
-238,117	373,727	-0,035	-0,051
-237,103	-45,162	0,085	-0,030
-236,088	-57,620	0,060	-0,019
-235,073	245,342	0,015	0,018
-234,059	-97,932	0,119	-0,022
-233,044	-200,000	-0,001	0,095
-232,030	-5,876	-0,089	0,043
-231,015	705,109	-0,052	-0,097
-230,000	-78,219	-0,047	-0,011
-228,986	-63,539	0,100	-0,029
-227,971	65,174	-0,041	-0,029
-226,957	11,312	-0,040	0,022
-225,942	-200,000	0,018	-0,077
-224,927	-200,000	-0,005	0,061
-223,913	119,602	0,119	-0,105
-222,898	-200,000	-0,018	-0,111
-221,884	-94,354	0,054	-0,010
-220,869	717,321	-0,018	0,034
-219,855	-200,000	0,029	0,101
-218,840	734,393	0,013	0,025
-217,825	37,307	-0,132	0,083
-216,811	187,047	-0,111	-0,118
-215,796	307,387	0,040	-0,053
-214,782	-66,524	-0,040	-0,011
-213,767	39,638	-0,065	-0,041
-212,752	-36,551	0,154	0,058
-211,738	124,332	-0,105	0,093
-210,723	-200,000	-0,011	0,040
-209,709	-123,206	0,059	0,007
-208,694	800,000	-0,027	-0,064
-207,679	184,909	-0,026	0,027
-206,665	88,081	0,149	0,117
-205,650	800,000	-0,057	0,121
-204,636	800,000	0,007	-0,020
-203,621	-36,221	0,170	-0,065
-202,606	434,854	-0,045	-0,070
-201,592	-5,015	-0,029	-0,014
-200,577	72,626	-0,064	0,047
-199,563	148,727	0,121	0,116
-198,548	-46,325	0,071	0,025
-197,533	12,972	0,086	0,047
-196,519	800,000	0,026	0,061
-195,504	-200,000	0,051	0,219
-194,490	511,126	0,052	-0,086
-193,475	-160,636	0,040	0,001
-192,460	800,000	0,026	0,056
-191,446	-163,074	-0,040	-0,001
-190,431	237,712	0,058	0,068
-189,417	-200,000	0,074	0,234
-188,402	96,723	0,136	0,111
-187,387	-200,000	-0,014	-0,123
-186,373	-177,510	-0,030	-0,001
-185,358	103,338	0,164	0,136
-184,344	-129,875	-0,052	0,005
-183,329	474,778	0,025	0,040
-182,315	-200,000	-0,025	0,192
-181,300	-13,097	-0,069	-0,032
-180,285	-200,000	-0,008	-0,092
-179,271	429,222	-0,111	-0,170
-178,256	711,920	0,065	-0,122
-177,242	239,105	0,017	-0,021
-176,227	-125,113	0,060	-0,006
-175,212	24,891	0,155	0,091
-174,198	-200,000	-0,020	0,119
-173,183	-200,000	0,015	-0,115
-172,169	264,890	-0,035	-0,043
-171,154	-200,000	-0,021	0,076
-170,139	16,355	0,075	0,042
-169,125	-36,259	0,226	0,086
-168,110	-128,038	0,108	-0,011
-167,096	-57,944	-0,116	0,036
-166,081	-10,309	0,051	0,024
-165,066	-200,000	0,025	-0,116
-164,052	800,000	-0,038	-0,111
-163,037	800,000	-0,016	0,049
-162,023	-77,571	-0,077	0,019
-161,008	-200,000	-0,002	-0,046
-159,993	-117,574	-0,116	-0,015
-158,979	213,200	-0,050	-0,056
-157,964	471,304	0,101	-0,162
-156,950	-55,877	-0,178	0,056
-155,935	-200,000	0,010	0,091
-154,920	-200,000	-0,017	0,128
-153,906	-200,000	0,029	0,160
-152,891	393,791	0,047	0,070
-151,877	-106,201	-0,180	-0,028
-150,862	79,426	0,061	-0,046
-149,847	-200,000	-0,017	0,074
-148,833	117,996	0,050	-0,043
-147,818	-200,000	-0,022	0,094
-146,804	325,023	-0,047	-0,064
-145,789	-200,000	-0,010	0,090
-144,775	-17,654	-0,104	0,046
-143,760	800,000	-0,037	-0,075
-142,745	25,069	0,083	-0,049
-141,731	100,906	0,088	0,073
-140,716	38,479	-0,102	0,064
-139,702	-200,000	0,005	-0,091
-138,687	540,510	0,033	0,056
-137,672	-200,000	0,019	0,075
-136,658	800,000	-0,048	0,111
-135,643	800,000	-0,043	-0,131
-134,629	583,110	0,012	0,021
-133,614	-200,000	0,008	0,122
-132,599	800,000	-0,020	-0,060
-131,585	20,724	0,058	0,033
-130,570	-200,000	0,017	-0,056
-129,556	-200,000	-0,008	-0,054
-128,541	-15,867	-0,099	0,044
-127,526	19,694	-0,023	-0,013
-126,512	-177,921	0,155	0,003
-125,497	-65,766	-0,069	0,019
-124,483	113,154	-0,037	0,032
-123,468	518,512	0,048	0,080
-122,453	-200,000	0,008	-0,055
-121,439	-63,749	0,165	0,048
-120,424	-112,436	-0,154	-0,022
-119,410	-200,000	-0,005	-0,169
-118,395	57,546	0,027	0,019
-117,380	-146,652	-0,100	-0,006
-116,366	-39,176	0,088	0,032
-115,351	15,564	0,092	0,051
-114,337	131,409	0,116	-0,105
-113,322	157,513	-0,064	0,062
-112,307	-98,942	0,089	-0,016
-111,293	137,144	-0,106	0,098
-110,278	-32,635	-0,121	0,047
-109,264	-44,737	-0,067	-0,023
-108,249	0,343	-0,114	0,057
-107,234	-200,000	-0,055	-0,179
-106,220	-200,000	0,003	0,037
-105,205	97,716	0,014	-0,012
-104,191	-114,487	-0,126	-0,017
-103,176	741,199	-0,059	0,113
-102,162	-200,000	0,026	-0,100
-101,147	435,752	-0,058	-0,089
-100,132	-94,364	-0,056	0,011
-99,118	-200,000	0,003	0,057
-98,103	103,107	0,138	0,114
-97,089	-200,000	0,043	0,149
-96,074	-110,210	0,077	-0,011
-95,059	-89,397	-0,171	-0,035
-94,045	-200,000	-0,016	-0,064
-93,030	-30,682	0,075	-0,030
-92,016	-200,000	-0,001	0,045
-91,001	157,330	0,024	-0,024
-89,986	800,000	-0,019	-0,057
-88,972	800,000	0,019	-0,042
-87,957	334,115	0,042	-0,057
-86,943	48,349	-0,120	-0,079
-85,928	-29,198	0,065	0,026
-84,913	-200,000	-0,002	0,030
-83,899	40,046	-0,152	0,096
-82,884	219,809	0,088	0,099
-81,870	27,483	-0,072	-0,042
-80,855	2,664	0,114	-0,058
-79,840	176,244	-0,059	-0,061
-78,826	215,009	0,053	-0,059
-77,811	68,284	-0,063	0,045
-76,797	800,000	-0,016	0,039
-75,782	48,397	-0,106	0,070
-74,767	177,015	0,094	0,097
-73,753	-99,608	-0,047	0,008
-72,738	-110,581	-0,132	0,019
-71,724	-200,000	-0,025	-0,083
-70,709	800,000	0,040	0,089
-69,694	221,002	-0,037	0,042
-68,680	-97,130	0,072	-0,013
-67,665	-140,094	0,017	0,001
-66,651	-200,000	0,021	0,107
-65,636	-106,908	-0,134	0,021
-64,622	-188,652	-0,187	-0,002
-63,607	239,967	0,063	-0,075
-62,592	246,811	0,115	-0,137
-61,578	-200,000	-0,018	0,074
-60,563	277,976	0,025	0,031
-59,549	166,423	0,029	-0,029
-58,534	74,513	-2,062	-1,528
-57,519	505,603	-1,029	-1,689
-56,505	-200,000	-0,479	-4,457
-55,490	533,819	1,028	1,724
-54,476	800,000	5,096	11,481
-53,461	-200,000	22,439	346,029
-52,446	800,000	757,562	2296,534
-51,432	534,474	1644,990	2761,036
-50,417	68,105	1643,851	1185,498
-49,403	15,752	1520,867	841,374
-48,388	9,938	1446,744	772,431
-47,373	19,228	1439,307	812,716
-46,359	13,448	1427,718	778,853
-45,344	8,247	1423,807	752,081
-44,330	8,209	1421,944	750,888
-43,315	8,141	1419,953	749,486
-42,300	8,160	1418,184	748,613
-41,286	8,252	1416,726	748,247
-40,271	8,136	1415,813	747,190
-39,257	8,189	1414,464	746,698
-38,242	8,205	1413,354	746,155
-37,227	8,168	1412,286	745,387
-36,213	8,144	1411,051	744,594
-35,198	8,163	1409,707	743,946
-34,184	8,227	1408,716	743,690
-33,169	8,138	1407,494	742,600
-32,154	8,160	1406,854	742,337
-31,140	8,124	1405,228	741,279
-30,125	8,174	1404,094	740,885
-29,111	8,143	1403,060	740,169
-28,096	8,126	1401,921	739,458
-27,082	8,142	1400,581	738,796
-26,067	8,075	1399,489	737,878
-25,052	8,101	1398,465	737,432
-24,038	8,165	1397,748	737,321
-23,023	8,121	1396,520	736,438
-22,009	8,097	1395,580	735,802
-20,994	8,088	1394,671	735,251
-19,979	8,117	1393,507	734,742
-18,965	8,063	1392,668	734,024
-17,950	8,069	1391,664	733,490
-16,936	8,038	1390,902	732,919
-15,921	8,007	1389,794	732,160
-14,906	8,000	1389,178	731,778
-13,892	8,100	1387,655	731,408
-12,877	8,067	1387,107	730,938
-11,863	8,022	1386,478	730,366
-10,848	8,022	1385,468	729,805
-9,833	7,941	1384,680	728,988
-8,819	7,994	1383,685	728,681
-7,804	7,924	1382,728	727,826
-6,790	7,935	1381,732	727,322
-5,775	7,958	1380,492	726,749
-4,760	7,921	1379,918	726,249
-3,746	7,929	1378,929	725,735
-2,731	7,945	1377,781	725,176
-1,717	7,921	1377,094	724,676
-0,702	7,908	1375,497	723,744
0,313	11,918	1285,796	694,713
1,327	27,595	677,745	401,148
2,342	43,474	116,474	74,917
3,356	0,074	16,540	8,281
4,371	2,339	3,864	1,964
5,386	30,973	1,341	0,808
6,400	800,000	0,242	0,743
7,415	-1,962	-0,140	-0,069
8,429	49,516	-0,334	-0,221
9,444	-2,584	-0,331	-0,163
10,459	264,421	-0,167	-0,205
11,473	181,844	-0,225	-0,234
12,488	9,096	-0,271	-0,144
13,502	-29,623	-0,243	-0,097
14,517	47,055	-0,253	-0,165
15,531	297,331	-0,207	-0,268
16,546	-9,094	-0,332	-0,156
17,561	-12,276	-0,346	-0,159
18,575	-200,000	-0,092	-0,308
19,590	7,322	-0,347	-0,182
20,604	-10,959	-0,165	-0,077
21,619	87,373	-0,491	-0,382
22,634	65,971	-0,524	-0,373
23,648	130,973	-0,466	-0,421
24,663	93,488	-0,309	-0,246
25,677	65,275	-0,239	-0,170
26,692	86,390	-0,312	-0,242
27,707	222,119	-0,284	-0,322
28,721	36,016	-0,283	-0,175
29,736	72,572	-0,437	-0,320
30,750	25,651	-0,564	-0,330
31,765	-18,205	-0,340	-0,149
32,780	-34,974	-0,512	-0,196
33,794	97,934	-0,303	-0,245
34,809	-56,992	-0,313	-0,096
35,823	2,727	-0,341	-0,173
36,838	103,853	-0,321	-0,265
37,853	-61,740	-0,430	-0,126
38,867	3,913	-0,306	-0,157
39,882	-78,607	-0,267	-0,064
40,896	134,038	-0,264	-0,240
41,911	95,908	-0,413	-0,331
42,926	188,595	-0,269	-0,283
43,940	36,075	-0,347	-0,214
44,955	69,988	-0,287	-0,208
45,969	9,947	-0,374	-0,199
46,984	51,832	-0,345	-0,230
47,999	-27,464	-0,304	-0,123
49,013	70,883	-0,307	-0,223
50,028	154,492	-0,243	-0,235
51,042	110,912	-0,352	-0,297
52,057	141,677	-0,277	-0,258
53,071	161,599	-0,261	-0,256
54,086	227,439	-0,278	-0,318
55,101	29,907	-0,396	-0,236
56,115	84,950	-0,368	-0,282
57,130	51,849	-0,269	-0,180
58,144	88,414	-0,329	-0,256
59,159	52,655	-0,359	-0,240
60,174	38,764	-0,319	-0,199
61,188	119,749	-0,329	-0,286
62,203	49,133	-0,335	-0,220
63,217	10,145	-0,296	-0,157
64,232	-118,448	-0,290	-0,036
65,247	-69,336	-0,334	-0,089
66,261	-110,037	-0,346	-0,050
67,276	202,705	-0,359	-0,389
68,290	138,342	-0,212	-0,195
69,305	10,133	-0,223	-0,119
70,320	28,721	-0,319	-0,189
71,334	1,404	-0,335	-0,168
72,349	44,646	-0,306	-0,197
73,363	-15,341	-0,415	-0,185
74,378	17,005	-0,267	-0,148
75,393	163,386	-0,309	-0,304
76,407	231,710	-0,224	-0,258
77,422	248,480	-0,243	-0,288
78,436	-1,942	-0,301	-0,148
79,451	51,013	-0,304	-0,201
80,466	79,609	-0,432	-0,325
81,480	125,333	-0,234	-0,207
82,495	160,960	-0,340	-0,332
83,509	-126,041	-0,295	-0,031
84,524	118,642	-0,221	-0,191
85,539	10,351	-0,282	-0,150
86,553	-114,478	-0,299	-0,040
87,568	70,399	-0,317	-0,229
88,582	216,894	-0,242	-0,270
89,597	7,511	-0,256	-0,134
90,611	59,089	-0,356	-0,245
91,626	44,643	-0,310	-0,199
92,641	44,372	-0,317	-0,203
93,655	-2,263	-0,309	-0,151
94,670	-97,223	-0,445	-0,080
95,684	24,686	-0,278	-0,160
96,699	-93,758	-0,405	-0,077
97,714	-24,273	-0,302	-0,125
98,728	-193,867	-0,221	0,001
99,743	-13,770	-0,321	-0,145
100,757	-55,052	-0,347	-0,109
101,772	-165,505	-0,363	0,011
102,787	129,596	-0,360	-0,321
103,801	129,522	-0,270	-0,241
104,816	12,669	-0,268	-0,144
105,830	62,905	-0,208	-0,145
106,845	213,678	-0,139	-0,154
107,860	5,811	-0,286	-0,147
108,874	108,548	-0,281	-0,234
109,889	78,805	-0,294	-0,219
110,903	227,322	-0,251	-0,285
111,918	616,760	-0,141	-0,248
112,933	141,172	-0,235	-0,217
113,947	104,327	-0,135	-0,111
114,962	200,410	-0,180	-0,194
115,976	26,395	-0,318	-0,185
116,991	30,087	-0,219	-0,130
118,006	118,990	-0,304	-0,262
119,020	-34,718	-0,150	-0,057
120,035	24,604	-0,174	-0,100
121,049	23,031	-0,219	-0,125
122,064	294,639	-0,179	-0,229
123,079	317,141	-0,192	-0,253
124,093	199,829	-0,190	-0,204
125,108	697,147	-0,166	-0,306
126,122	14,671	-0,345	-0,188
127,137	0,350	-0,267	-0,132
128,151	114,923	-0,152	-0,130
129,166	-35,722	-0,310	-0,117
130,181	254,454	-0,230	-0,274
131,195	174,381	-0,183	-0,185
132,210	148,547	-0,340	-0,321
133,224	27,008	-0,280	-0,164
134,239	15,250	-0,181	-0,098
135,254	-200,000	-0,080	-0,262
136,268	-4,423	-0,303	-0,146
137,283	-71,222	-0,340	-0,088
138,297	800,000	-0,074	-0,224
139,312	-36,301	-0,252	-0,094
140,327	302,840	-0,193	-0,250
141,341	184,895	-0,220	-0,227
142,356	-181,075	-0,275	-0,004
143,370	-61,506	-0,237	-0,069
144,385	-86,977	-0,323	-0,068
145,400	243,184	-0,188	-0,219
146,414	38,491	-0,335	-0,208
147,429	170,129	-0,272	-0,271
148,443	102,211	-0,279	-0,227
149,458	31,863	-0,186	-0,111
150,473	104,709	-0,263	-0,216
151,487	196,887	-0,208	-0,221
152,502	65,557	-0,312	-0,220
153,516	327,308	-0,161	-0,215
154,531	57,622	-0,277	-0,188
155,546	201,830	-0,203	-0,218
156,560	202,072	-0,180	-0,193
157,575	-14,270	-0,274	-0,122
158,589	-22,048	-0,381	-0,160
159,604	100,546	-0,269	-0,217
160,619	44,257	-0,308	-0,196
161,633	800,000	-0,152	-0,309
162,648	-39,459	-0,372	-0,135
163,662	193,899	-0,277	-0,291
164,677	223,035	-0,267	-0,300
165,692	-96,734	-0,180	-0,033
166,706	227,726	-0,222	-0,251
167,721	177,867	-0,302	-0,306
168,735	74,354	-0,178	-0,130
169,750	340,076	-0,182	-0,248
170,764	-21,792	-0,180	-0,076
171,779	102,436	-0,186	-0,151
172,794	107,873	-0,154	-0,127
173,808	133,220	-0,234	-0,210
174,823	227,049	-0,134	-0,151
175,837	-34,218	-0,281	-0,107
176,852	121,358	-0,193	-0,167
177,867	-19,554	-0,196	-0,084
178,881	261,888	-0,120	-0,145
179,896	11,062	-0,210	-0,111
180,910	144,123	-0,226	-0,209
181,925	161,937	-0,168	-0,164
182,940	230,088	-0,157	-0,178
183,954	190,393	-0,199	-0,207
184,969	123,079	-0,241	-0,210
185,983	-56,901	-0,184	-0,056
186,998	62,230	-0,223	-0,154
188,013	75,653	-0,233	-0,171
189,027	25,740	-0,297	-0,171
190,042	93,647	-0,284	-0,223
191,056	7,596	-0,206	-0,107
192,071	800,000	-0,098	-0,188
193,086	800,000	-0,070	-0,192
194,100	84,187	-0,281	-0,213
195,115	-200,000	-0,110	-0,377
196,129	356,495	-0,184	-0,255
197,144	73,151	-0,237	-0,171
198,159	-28,214	-0,227	-0,091
199,173	-200,000	-0,077	-0,302
200,188	-1,632	-0,135	-0,066
201,202	261,878	-0,200	-0,241
202,217	70,627	-0,147	-0,105
203,232	-39,998	-0,416	-0,149
204,246	101,601	-0,207	-0,167
205,261	26,255	-0,145	-0,083
206,275	188,060	-0,245	-0,254
207,290	74,855	-0,176	-0,128
208,304	-48,806	-0,153	0,050
209,319	-40,324	-0,118	0,042
210,334	-50,977	-0,181	-0,059
211,348	49,831	-0,312	-0,203
212,363	340,524	-0,158	-0,214
213,377	-129,232	-0,065	0,006
214,392	-96,540	-0,118	-0,021
215,407	134,526	-0,135	-0,121
216,421	135,598	-0,050	-0,045
217,436	800,000	-0,082	-0,186
218,450	107,665	-0,108	-0,089
219,465	286,495	-0,224	-0,280
220,480	132,376	-0,175	-0,156
221,494	-34,386	-0,180	-0,068
222,509	458,326	-0,043	0,067
223,523	800,000	-0,076	-0,148
224,538	-18,089	-0,208	-0,090
225,553	-28,630	-0,244	-0,097
226,567	800,000	-0,064	-0,157
227,582	303,812	-0,230	-0,296
228,596	-52,573	-0,102	-0,032
229,611	-6,228	-0,189	-0,089
230,626	140,921	-0,106	-0,097
231,640	171,417	-0,240	-0,238
232,655	279,286	-0,218	-0,269
233,669	1,267	-0,218	-0,108
234,684	416,935	-0,181	-0,268
235,699	-40,235	-0,231	-0,083
236,713	47,526	-0,064	-0,041
237,728	168,079	-0,179	-0,176
238,742	630,611	-0,059	-0,104
239,757	11,380	-0,306	-0,161
240,772	94,477	-0,363	-0,285
241,786	641,691	-0,125	-0,221
242,801	146,334	-0,247	-0,229
243,815	-5,040	-0,118	-0,056
244,830	-27,758	-0,138	0,055
245,844	170,321	-0,172	-0,170
246,859	342,631	-0,131	-0,177
247,874	19,250	-0,187	-0,103
248,888	225,133	-0,146	-0,163
249,903	128,343	-0,090	-0,079
250,917	-110,804	-0,108	-0,015
251,932	-36,319	-0,105	-0,039
252,947	-200,000	-0,056	0,000
253,961	161,682	-0,184	-0,178
254,976	106,336	-0,262	-0,214
255,990	178,329	-0,220	-0,222
257,005	117,934	-0,182	-0,154
258,020	-148,874	-0,255	0,014
259,034	-75,079	-0,147	-0,036
260,049	-31,270	-0,288	-0,111
261,063	74,455	-0,243	-0,176
262,078	68,748	-0,189	-0,134
263,093	-41,061	-0,292	-0,103
264,107	187,668	-0,158	-0,163
265,122	252,354	-0,105	-0,124
266,136	-200,000	0,022	-0,210
267,151	-105,138	-0,126	-0,020
268,166	-49,801	-0,193	-0,063
269,180	209,575	-0,198	-0,214
270,195	198,324	-0,253	-0,266
271,209	185,626	-0,185	-0,190
272,224	62,004	-0,138	-0,095
273,239	-53,995	-0,124	0,039
274,253	-75,756	-0,217	0,053
275,268	-21,086	-0,248	-0,104
276,282	38,536	-0,262	-0,160
277,297	340,680	-0,031	-0,042
278,312	-200,000	-0,019	-0,145
279,326	-27,877	-0,132	-0,052
280,341	-200,000	-0,029	-0,130
281,355	-200,000	-0,007	-0,113
282,370	445,949	-0,082	-0,124
283,384	7,091	-0,286	-0,146
284,399	26,055	-0,240	-0,138
285,414	96,120	-0,256	-0,201
286,428	800,000	-0,101	-0,209
287,443	484,092	-0,083	-0,130
288,457	800,000	-0,082	-0,157
289,472	369,774	-0,088	-0,122
290,487	283,014	-0,156	-0,193
291,501	-2,672	-0,204	-0,098
292,516	-200,000	-0,032	-0,227
293,530	54,343	-0,114	-0,075
294,545	-66,545	-0,096	-0,026
295,560	52,827	-0,107	-0,070
296,574	664,909	-0,098	-0,174
297,589	-2,857	-0,131	-0,063
298,603	96,735	-0,133	-0,104
299,618	381,681	-0,162	-0,229
300,633	-200,000	-0,061	-0,189
301,647	-49,204	-0,068	-0,022
302,662	67,281	-0,128	-0,090
303,676	485,329	-0,064	-0,101
304,691	800,000	-0,077	-0,204
305,706	800,000	-0,059	-0,145
306,720	156,138	-0,161	-0,152
307,735	112,241	-0,171	-0,142
308,749	466,378	-0,031	-0,048
309,764	-19,628	-0,132	-0,056
310,779	-106,397	-0,151	-0,023
311,793	350,399	-0,124	-0,169
312,808	180,352	-0,168	-0,169
313,822	22,159	-0,125	-0,070
314,837	-146,284	-0,123	-0,007
315,852	-119,205	-0,057	-0,007
316,866	-136,840	-0,077	0,006
317,881	-27,383	-0,122	-0,048
318,895	278,319	-0,155	-0,190
319,910	-5,076	-0,234	-0,110
320,925	212,824	-0,113	-0,122
321,939	293,703	-0,088	-0,111
322,954	-46,465	-0,091	-0,030
323,968	-25,759	-0,148	-0,060
324,983	122,961	-0,149	-0,128
325,997	-64,509	-0,131	-0,036
327,012	-197,006	-0,109	0,000
328,027	100,491	-0,130	-0,103
329,041	127,125	-0,196	-0,170
330,056	-131,328	-0,130	0,012
331,070	-111,510	-0,192	-0,026
332,085	340,870	-0,083	-0,111
333,100	-158,998	0,035	0,001
334,114	-200,000	-0,031	-0,112
335,129	-27,681	-0,228	-0,090
336,143	137,679	-0,206	-0,185
337,158	-79,070	-0,207	0,048
338,173	152,969	-0,061	-0,057
339,187	-155,882	-0,093	-0,004
340,202	38,993	-0,179	-0,110
341,216	31,550	-0,215	-0,126
342,231	-12,452	-0,196	-0,087
343,246	197,020	-0,173	-0,181
344,260	-18,050	-0,211	-0,090
345,275	72,401	-0,138	-0,098
346,289	225,336	-0,109	-0,121
347,304	57,311	-0,191	-0,127
348,319	180,345	-0,158	-0,158
349,333	800,000	-0,048	-0,135
350,348	27,916	-0,196	-0,113
351,362	-141,007	-0,034	-0,002
352,377	-49,162	-0,134	0,043
353,392	293,879	-0,077	-0,096
354,406	705,466	-0,105	-0,191
355,421	207,967	1310,204	1400,565
356,435	160,004	1470,314	1401,006
