DTS Sentinel unit serial number:	SN410029Multiplexer serial number:	ORYXHardware model number:	OX2-SRSoftware version number:	ORYX F/W v4,00 Oryx Data Collector v3.7.2.0data status	okinstallation	B3 Nyhavnadifferential loss correction	single-endedforward channel	channel 1reverse channel	N/Adate	2023/11/30time	18:12:30forward acquisition time	300,00reverse acquisition time	0,00gamma	499,1914k internal	0,3203k external	0,3203temperature offset calibration	1,0000default loss term (dB/km)	0,3820temperature slope calibration	1,0000multiplexer offset coefficient	1,0000multiplexer slope coefficient	1,0000fibre end	0,00T internal ref (°C)	12,84T ext. ref 1 (°C)	-2,33T ext. ref 2 (°C)	-2,44length (m)	temperature (°C)	Stokes	anti-Stokes-744,400	387,387	-0,236	-0,355
-743,385	-200,000	-0,023	0,263
-742,371	474,812	-0,121	-0,199
-741,356	-200,000	0,075	0,362
-740,342	457,968	-0,114	-0,185
-739,327	-200,000	-0,050	0,241
-738,312	800,000	-0,122	-0,301
-737,298	219,840	-0,176	0,205
-736,283	136,761	-0,276	-0,262
-735,269	-200,000	-0,009	0,271
-734,254	67,354	-0,294	-0,218
-733,239	-28,883	-0,182	0,076
-732,225	398,511	-0,141	-0,215
-731,210	20,733	0,135	0,079
-730,196	286,125	-0,041	-0,054
-729,181	312,311	-0,064	-0,087
-728,167	-99,822	0,035	-0,006
-727,152	-200,000	0,032	-0,137
-726,137	-153,278	-0,179	0,009
-725,123	-158,876	-0,181	-0,007
-724,108	-200,000	0,004	-0,065
-723,094	800,000	-0,112	-0,300
-722,079	722,332	0,052	-0,101
-721,064	800,000	-0,019	-0,054
-720,050	-123,444	-0,083	0,009
-719,035	-79,375	0,150	-0,037
-718,021	800,000	0,012	-0,026
-717,006	-82,043	-0,086	0,020
-715,991	-183,520	-0,067	0,001
-714,977	36,360	-0,088	-0,056
-713,962	-159,933	-0,145	0,006
-712,948	800,000	0,017	0,038
-711,933	16,848	0,083	-0,047
-710,918	-127,819	-0,176	0,018
-709,904	383,247	-0,041	0,062
-708,889	281,116	-0,099	-0,129
-707,875	-145,456	-0,139	0,009
-706,860	358,557	-0,045	-0,066
-705,845	24,444	-0,084	0,050
-704,831	40,913	0,060	-0,039
-703,816	185,660	-0,038	-0,042
-702,802	-200,000	0,009	0,119
-701,787	-16,789	0,054	0,025
-700,772	12,680	0,073	-0,041
-699,758	-106,629	-0,100	0,016
-698,743	21,745	0,024	-0,014
-697,729	419,762	-0,055	-0,085
-696,714	16,154	0,171	0,097
-695,699	-20,832	0,047	-0,021
-694,685	5,437	-0,025	-0,013
-693,670	122,864	0,045	0,041
-692,656	800,000	-0,043	-0,091
-691,641	800,000	0,004	0,012
-690,627	21,733	0,115	0,068
-689,612	308,074	0,052	0,070
-688,597	800,000	-0,051	0,116
-687,583	343,644	0,071	-0,100
-686,568	68,343	-0,004	0,003
-685,554	53,771	-0,054	0,038
-684,539	-158,676	-0,055	0,002
-683,524	-200,000	-0,013	0,315
-682,510	-200,000	0,035	0,139
-681,495	110,719	0,070	0,061
-680,481	-29,155	-0,168	-0,070
-679,466	183,118	-0,130	-0,139
-678,451	-11,787	0,075	-0,036
-677,437	-84,460	-0,047	0,011
-676,422	-103,847	0,116	0,020
-675,408	125,407	-0,079	0,073
-674,393	-200,000	0,011	0,132
-673,378	-200,000	-0,047	0,176
-672,364	-141,488	0,018	-0,001
-671,349	-121,250	-0,084	-0,010
-670,335	400,396	-0,020	-0,031
-669,320	-59,242	0,097	-0,030
-668,305	100,309	-0,038	0,032
-667,291	483,468	-0,035	0,058
-666,276	177,779	-0,106	0,112
-665,262	180,742	-0,171	-0,182
-664,247	244,473	0,024	-0,030
-663,232	541,845	0,073	-0,126
-662,218	105,632	-0,060	0,051
-661,203	170,772	0,035	0,037
-660,189	-200,000	-0,016	-0,083
-659,174	40,964	0,039	-0,026
-658,159	38,451	-0,192	-0,124
-657,145	-200,000	0,003	-0,023
-656,130	45,667	0,060	-0,040
-655,116	26,333	0,079	0,048
-654,101	-198,317	-0,056	-0,000
-653,086	377,453	0,044	-0,065
-652,072	-63,385	-0,167	-0,049
-651,057	180,276	-0,076	0,080
-650,043	101,978	-0,112	0,095
-649,028	-99,506	0,061	0,011
-648,014	12,462	0,047	-0,026
-646,999	355,399	-0,041	0,059
-645,984	800,000	0,054	0,139
-644,970	800,000	0,018	-0,048
-643,955	-200,000	-0,033	-0,173
-642,941	458,018	0,029	-0,047
-641,926	-38,303	0,109	-0,042
-640,911	382,029	-0,024	-0,036
-639,897	-53,902	-0,046	0,015
-638,882	-59,350	0,032	0,010
-637,868	148,983	-0,135	0,132
-636,853	-11,215	-0,120	-0,057
-635,838	-190,900	-0,057	0,000
-634,824	160,408	-0,045	0,046
-633,809	270,332	0,072	0,092
-632,795	208,141	-0,105	0,119
-631,780	-71,293	-0,172	0,046
-630,765	-117,165	0,148	-0,019
-629,751	800,000	-0,021	-0,062
-628,736	-60,017	-0,141	-0,043
-627,722	-200,000	-0,010	-0,072
-626,707	-200,000	-0,001	0,031
-625,692	-200,000	-0,035	0,115
-624,678	619,746	0,037	0,067
-623,663	5,190	-0,079	0,042
-622,649	-123,806	-0,173	0,019
-621,634	-163,810	0,068	0,002
-620,619	-171,818	-0,175	0,004
-619,605	-195,052	0,180	0,001
-618,590	-164,760	0,127	-0,004
-617,576	645,556	-0,039	0,072
-616,561	365,387	-0,115	0,167
-615,546	800,000	0,025	-0,078
-614,532	-200,000	-0,015	-0,069
-613,517	-109,945	-0,107	-0,016
-612,503	-141,107	-0,090	0,007
-611,488	-200,000	0,012	-0,084
-610,474	-200,000	-0,011	0,098
-609,459	-89,186	-0,111	0,024
-608,444	-200,000	-0,022	-0,094
-607,430	-200,000	-0,016	0,054
-606,415	-200,000	-0,009	-0,053
-605,401	-200,000	0,009	-0,131
-604,386	313,086	0,062	0,084
-603,371	216,502	0,098	0,113
-602,357	212,307	0,145	-0,166
-601,342	-119,384	0,050	0,006
-600,328	11,871	0,031	-0,017
-599,313	375,075	0,064	-0,095
-598,298	62,490	0,056	0,041
-597,284	-100,300	0,070	0,013
-596,269	399,727	0,046	-0,070
-595,255	800,000	0,062	-0,183
-594,240	683,467	-0,048	0,092
-593,225	14,694	0,060	-0,034
-592,211	-25,699	-0,099	-0,042
-591,196	-200,000	-0,039	-0,180
-590,182	-16,891	0,099	0,045
-589,167	-127,300	0,068	0,007
-588,152	203,793	0,037	0,041
-587,138	89,352	0,059	-0,047
-586,123	-111,148	-0,134	0,020
-585,109	-124,925	-0,089	-0,010
-584,094	269,974	-0,035	-0,045
-583,079	25,648	-0,051	0,031
-582,065	134,142	-0,037	0,034
-581,050	-81,655	-0,077	0,018
-580,036	-200,000	0,015	-0,162
-579,021	-200,000	-0,016	-0,122
-578,006	-107,844	-0,102	-0,016
-576,992	17,869	-0,087	0,050
-575,977	-12,801	0,087	-0,041
-574,963	81,902	0,072	-0,056
-573,948	144,732	0,017	-0,016
-572,934	-200,000	-0,017	-0,216
-571,919	-41,923	-0,018	0,007
-570,904	-126,107	0,065	-0,007
-569,890	-200,000	-0,008	-0,070
-568,875	-30,894	-0,019	0,008
-567,861	800,000	0,023	-0,050
-566,846	800,000	-0,051	0,115
-565,831	800,000	0,008	-0,020
-564,817	420,253	0,030	-0,046
-563,802	-200,000	-0,031	-0,112
-562,788	-1,563	0,121	-0,061
-561,773	-200,000	-0,001	-0,057
-560,758	27,339	-0,149	0,090
-559,744	154,993	0,094	0,094
-558,729	167,709	-0,030	-0,031
-557,715	-113,229	0,117	0,016
-556,700	259,795	-0,080	0,100
-555,685	-77,505	0,125	0,031
-554,671	237,272	-0,062	0,074
-553,656	-200,000	-0,008	-0,111
-552,642	-141,503	-0,042	0,003
-551,627	261,929	0,045	-0,056
-550,612	-200,000	-0,009	0,074
-549,598	-200,000	-0,021	-0,098
-548,583	772,075	-0,031	-0,062
-547,569	-129,083	-0,049	0,005
-546,554	49,754	-0,091	-0,061
-545,539	-113,644	0,009	0,001
-544,525	-17,916	0,082	0,037
-543,510	-81,618	-0,145	-0,034
-542,496	-200,000	0,006	-0,107
-541,481	176,574	0,091	-0,096
-540,466	-200,000	0,015	-0,096
-539,452	800,000	0,014	-0,029
-538,437	-39,274	-0,057	-0,022
-537,423	-47,267	-0,033	0,011
-536,408	-90,643	0,127	0,026
-535,393	77,705	-0,135	-0,104
-534,379	479,921	-0,028	0,045
-533,364	-83,388	-0,103	0,024
-532,350	-200,000	0,006	0,160
-531,335	-26,323	-0,021	-0,009
-530,321	-200,000	-0,022	0,081
-529,306	-87,210	-0,024	-0,005
-528,291	-200,000	0,003	0,064
-527,277	-113,496	0,115	-0,016
-526,262	28,070	-0,086	-0,052
-525,248	800,000	0,025	-0,058
-524,233	-200,000	-0,012	0,062
-523,218	-167,150	-0,077	0,002
-522,204	-200,000	-0,020	-0,130
-521,189	-193,570	-0,008	0,000
-520,175	109,078	-0,064	-0,055
-519,160	-136,195	-0,021	-0,002
-518,145	-3,964	0,092	0,046
-517,131	15,634	0,082	-0,046
-516,116	50,891	-0,074	0,051
-515,102	800,000	0,005	0,013
-514,087	-200,000	-0,042	0,147
-513,072	800,000	-0,040	0,105
-512,058	-146,750	0,120	0,007
-511,043	800,000	0,010	0,022
-510,029	800,000	-0,025	0,074
-509,014	-11,874	-0,132	0,062
-507,999	96,370	-0,010	-0,008
-506,985	187,569	0,042	-0,045
-505,970	800,000	0,025	-0,065
-504,956	39,608	-0,199	-0,128
-503,941	-200,000	0,005	-0,019
-502,926	105,995	0,116	0,098
-501,912	324,138	0,069	0,095
-500,897	800,000	0,017	0,051
-499,883	-200,000	0,018	0,107
-498,868	428,179	-0,042	0,065
-497,853	800,000	0,020	0,048
-496,839	-200,000	0,016	0,083
-495,824	-2,139	0,156	-0,079
-494,810	99,383	0,086	0,071
-493,795	-200,000	0,023	0,111
-492,781	-200,000	-0,001	0,175
-491,766	-85,798	-0,126	0,028
-490,751	-14,976	-0,185	-0,085
-489,737	-158,309	0,071	-0,003
-488,722	-200,000	0,038	0,121
-487,708	-200,000	-0,003	-0,011
-486,693	-80,853	-0,040	-0,009
-485,678	-200,000	0,013	0,086
-484,664	378,627	0,031	-0,046
-483,649	800,000	-0,030	-0,093
-482,635	-200,000	-0,024	-0,085
-481,620	91,870	0,038	0,031
-480,605	211,740	0,047	0,054
-479,591	43,208	0,128	-0,084
-478,576	800,000	-0,026	-0,056
-477,562	547,939	-0,024	-0,042
-476,547	255,503	-0,067	0,083
-475,532	-108,961	0,048	-0,007
-474,518	443,421	0,073	0,116
-473,503	16,772	-0,107	0,061
-472,489	-200,000	-0,034	0,126
-471,474	-67,035	-0,093	0,026
-470,459	279,761	0,110	-0,142
-469,445	-2,053	0,053	0,027
-468,430	-200,000	-0,003	-0,017
-467,416	71,683	-0,024	0,018
-466,401	-53,163	0,024	-0,008
-465,386	-200,000	0,037	-0,119
-464,372	137,667	0,067	-0,063
-463,357	72,458	0,032	0,024
-462,343	-123,337	-0,128	-0,015
-461,328	166,621	-0,110	0,112
-460,313	-200,000	0,004	0,017
-459,299	-91,153	0,161	0,033
-458,284	238,305	-0,019	-0,023
-457,270	53,019	-0,116	-0,080
-456,255	-22,702	0,057	-0,024
-455,241	800,000	0,014	-0,031
-454,226	-98,307	0,070	-0,013
-453,211	-168,858	0,045	0,001
-452,197	-86,550	-0,101	0,022
-451,182	-119,800	0,067	0,008
-450,168	344,609	0,060	0,085
-449,153	701,158	0,066	-0,125
-448,138	800,000	0,025	0,068
-447,124	-132,633	0,120	0,011
-446,109	-116,474	0,034	0,004
-445,095	-200,000	0,010	0,062
-444,080	-200,000	0,026	0,087
-443,065	-126,472	0,146	-0,015
-442,051	-94,537	0,078	0,015
-441,036	-112,399	-0,085	0,012
-440,022	-200,000	0,004	0,020
-439,007	-200,000	-0,142	-0,000
-437,992	154,422	0,050	0,050
-436,978	-18,215	-0,029	-0,013
-435,963	-200,000	-0,007	0,107
-434,949	-167,118	-0,117	-0,003
-433,934	-200,000	0,000	-0,095
-432,919	-200,000	0,002	0,012
-431,905	199,533	0,100	-0,110
-430,890	-200,000	-0,005	-0,046
-429,876	185,866	0,039	-0,042
-428,861	-200,000	0,007	-0,065
-427,846	-200,000	-0,010	-0,136
-426,832	726,167	-0,047	-0,090
-425,817	361,625	0,082	-0,118
-424,803	-200,000	-0,020	0,067
-423,788	-200,000	-0,007	-0,035
-422,773	54,355	0,102	-0,070
-421,759	800,000	0,027	-0,061
-420,744	-200,000	0,002	0,067
-419,730	-12,642	-0,157	-0,073
-418,715	169,373	0,024	-0,025
-417,701	481,411	0,081	0,133
-416,686	-43,500	-0,062	-0,022
-415,671	9,943	-0,024	0,013
-414,657	-132,244	-0,057	-0,005
-413,642	209,408	-0,030	-0,034
-412,628	800,000	-0,036	-0,112
-411,613	393,001	-0,051	-0,076
-410,598	-40,333	-0,049	-0,018
-409,584	165,095	-0,064	-0,065
-408,569	265,879	-0,028	0,035
-407,555	-74,557	0,140	0,036
-406,540	-65,197	0,127	-0,037
-405,525	143,281	0,037	-0,035
-404,511	297,229	-0,090	0,118
-403,496	24,294	0,091	-0,054
-402,482	-200,000	0,017	-0,098
-401,467	530,853	0,090	0,153
-400,452	800,000	0,063	0,168
-399,438	24,928	0,123	0,073
-398,423	-200,000	0,007	0,042
-397,409	7,306	0,134	-0,072
-396,394	800,000	-0,045	-0,109
-395,379	339,568	-0,113	0,159
-394,365	800,000	-0,009	-0,019
-393,350	-200,000	0,032	0,135
-392,336	-87,192	0,112	0,024
-391,321	183,406	0,021	0,022
-390,306	-200,000	-0,044	-0,140
-389,292	86,858	0,074	-0,058
-388,277	-81,605	0,061	0,014
-387,263	-60,376	-0,028	0,008
-386,248	-84,772	0,110	0,025
-385,233	-200,000	-0,006	-0,074
-384,219	-14,388	-0,052	0,024
-383,204	-200,000	0,002	0,037
-382,190	154,957	0,111	0,109
-381,175	-200,000	-0,004	-0,086
-380,160	294,603	-0,075	0,098
-379,146	387,761	0,057	0,085
-378,131	-92,953	0,045	0,009
-377,117	99,472	0,097	0,081
-376,102	-106,714	-0,159	0,025
-375,088	651,226	0,048	-0,088
-374,073	-158,766	0,078	0,003
-373,058	-200,000	-0,015	0,161
-372,044	345,650	0,056	0,079
-371,029	800,000	-0,035	0,089
-370,015	-96,289	-0,123	-0,023
-369,000	14,517	-0,064	-0,036
-367,985	-153,110	0,048	0,002
-366,971	-200,000	-0,004	0,033
-365,956	467,085	-0,033	0,053
-364,942	800,000	0,030	0,079
-363,927	597,432	-0,039	0,070
-362,912	104,995	-0,060	0,051
-361,898	-200,000	0,013	0,092
-360,883	-39,537	0,037	0,014
-359,869	98,257	0,083	0,069
-358,854	-200,000	-0,038	0,133
-357,839	-200,000	-0,014	-0,056
-356,825	37,372	-0,152	-0,096
-355,810	-200,000	0,011	-0,094
-354,796	27,374	-0,056	-0,034
-353,781	-200,000	0,008	-0,149
-352,766	34,584	-0,040	0,025
-351,752	118,281	-0,051	-0,045
-350,737	4,970	0,048	0,025
-349,723	-200,000	-0,049	0,193
-348,708	-200,000	0,025	0,139
-347,693	84,760	0,101	-0,079
-346,679	164,390	-0,048	-0,049
-345,664	73,941	-0,104	-0,078
-344,650	32,082	-0,046	0,028
-343,635	117,803	-0,080	0,070
-342,620	-72,249	0,086	-0,023
-341,606	43,795	-0,114	0,075
-340,591	145,181	0,113	0,108
-339,577	339,390	-0,093	-0,130
-338,562	-30,218	-0,014	-0,006
-337,548	331,881	0,111	0,154
-336,533	800,000	-0,057	0,172
-335,518	131,646	-0,122	-0,113
-334,504	69,741	0,046	0,034
-333,489	800,000	-0,052	-0,156
-332,475	-119,619	-0,099	0,012
-331,460	-200,000	-0,003	-0,112
-330,445	-26,763	-0,063	-0,026
-329,431	-200,000	-0,001	-0,116
-328,416	-38,663	0,073	-0,027
-327,402	-38,444	0,041	0,016
-326,387	475,093	-0,010	-0,017
-325,372	-117,149	-0,123	0,016
-324,358	-48,319	-0,078	0,027
-323,343	-149,396	0,054	0,003
-322,329	287,311	-0,066	0,085
-321,314	800,000	0,015	0,044
-320,299	-92,483	0,037	-0,007
-319,285	-36,288	0,041	0,016
-318,270	-34,009	-0,093	-0,036
-317,256	297,592	0,067	-0,088
-316,241	-200,000	-0,000	-0,146
-315,226	214,632	-0,055	0,062
-314,212	264,285	0,084	-0,105
-313,197	-146,656	0,098	-0,006
-312,183	-200,000	-0,007	-0,044
-311,168	179,603	0,028	0,030
-310,153	10,176	-0,122	-0,066
-309,139	400,980	0,024	-0,036
-308,124	125,527	0,053	-0,048
-307,110	-110,027	0,043	0,006
-306,095	155,992	0,062	0,062
-305,080	199,125	0,065	0,071
-304,066	712,026	0,003	0,006
-303,051	-200,000	-0,012	-0,057
-302,037	116,290	-0,056	-0,049
-301,022	-147,365	0,090	0,005
-300,008	-12,626	-0,076	-0,035
-298,993	-17,094	0,107	0,048
-297,978	-200,000	0,018	0,116
-296,964	-200,000	0,009	-0,049
-295,949	133,285	0,055	-0,051
-294,935	6,748	-0,055	0,029
-293,920	800,000	-0,008	-0,022
-292,905	341,790	-0,087	0,122
-291,891	-127,950	0,074	-0,008
-290,876	-33,459	0,061	0,024
-289,862	27,791	-0,157	0,094
-288,847	-200,000	0,007	-0,164
-287,832	-200,000	0,002	-0,099
-286,818	-200,000	0,029	-0,095
-285,803	795,102	0,014	-0,027
-284,789	0,310	0,167	0,085
-283,774	800,000	-0,011	0,029
-282,759	-16,298	-0,106	0,048
-281,745	36,078	0,099	0,062
-280,730	-200,000	0,027	-0,193
-279,716	800,000	0,032	0,098
-278,701	-64,893	0,028	-0,008
-277,686	64,389	0,050	-0,036
-276,672	-200,000	0,040	0,200
-275,657	522,700	-0,042	0,070
-274,643	223,343	0,038	0,044
-273,628	-200,000	0,015	0,058
-272,613	472,328	-0,015	0,024
-271,599	-200,000	-0,037	-0,121
-270,584	120,885	-0,095	0,084
-269,570	275,706	0,099	-0,125
-268,555	675,331	-0,069	-0,129
-267,540	-36,450	0,148	0,057
-266,526	-200,000	-0,044	0,000
-265,511	-200,000	-0,007	-0,097
-264,497	24,883	0,036	-0,021
-263,482	-200,000	0,012	-0,127
-262,467	56,542	0,123	0,085
-261,453	-115,507	0,112	-0,015
-260,438	800,000	-0,071	-0,154
-259,424	-2,370	-0,036	0,018
-258,409	50,758	-0,079	0,053
-257,395	-200,000	-0,011	0,077
-256,380	-31,977	-0,102	0,041
-255,365	-90,198	0,094	-0,019
-254,351	-200,000	0,000	0,156
-253,336	77,888	0,086	0,065
-252,322	9,180	-0,074	0,040
-251,307	395,901	-0,049	-0,073
-250,292	-13,817	0,066	0,030
-249,278	-42,607	0,020	0,007
-248,263	25,294	0,111	0,065
-247,249	800,000	-0,044	0,119
-246,234	-200,000	-0,005	-0,068
-245,219	85,672	-0,043	0,034
-244,205	-119,455	-0,054	-0,007
-243,190	-200,000	0,009	0,109
-242,176	457,562	0,045	0,071
-241,161	99,508	0,094	-0,077
-240,146	800,000	-0,037	-0,082
-239,132	641,905	-0,071	-0,129
-238,117	121,728	0,022	-0,019
-237,103	-82,537	-0,094	0,022
-236,088	300,097	-0,018	-0,024
-235,073	38,622	-0,062	0,039
-234,059	41,872	0,080	0,051
-233,044	800,000	-0,004	-0,009
-232,030	262,812	-0,087	-0,108
-231,015	595,250	-0,069	0,123
-230,000	214,011	0,029	-0,033
-228,986	-200,000	0,047	-0,151
-227,971	-200,000	-0,011	-0,111
-226,957	65,261	-0,084	0,061
-225,942	350,728	-0,084	0,118
-224,927	545,201	0,052	-0,089
-223,913	116,367	-0,082	0,072
-222,898	-200,000	0,036	0,182
-221,884	-6,762	0,045	0,022
-220,869	800,000	0,054	0,117
-219,855	39,999	0,127	0,081
-218,840	12,007	0,114	0,062
-217,825	800,000	-0,017	-0,049
-216,811	800,000	0,010	-0,029
-215,796	-153,155	-0,128	0,006
-214,782	-200,000	0,009	0,111
-213,767	-109,413	0,005	0,001
-212,752	252,738	0,097	-0,118
-211,738	800,000	-0,041	0,107
-210,723	-200,000	-0,010	0,043
-209,709	468,379	0,009	-0,015
-208,694	89,926	0,028	-0,022
-207,679	-29,407	-0,087	0,035
-206,665	800,000	0,039	0,084
-205,650	283,131	-0,038	0,049
-204,636	800,000	0,011	-0,031
-203,621	-200,000	-0,008	0,047
-202,606	-46,983	-0,130	-0,045
-201,592	-200,000	-0,000	0,052
-200,577	14,059	-0,084	-0,046
-199,563	226,872	0,050	-0,058
-198,548	-101,022	-0,052	-0,009
-197,533	163,384	0,055	0,055
-196,519	-114,662	0,201	0,027
-195,504	304,935	0,060	0,079
-194,490	-200,000	-0,003	-0,063
-193,475	148,176	-0,081	-0,077
-192,460	-200,000	-0,020	-0,096
-191,446	509,617	0,047	0,078
-190,431	70,894	0,079	0,058
-189,417	461,523	0,054	-0,085
-188,402	106,406	-0,060	-0,051
-187,387	800,000	-0,024	-0,067
-186,373	-90,363	-0,105	-0,021
-185,358	168,753	0,041	0,042
-184,344	-46,625	0,010	-0,003
-183,329	-120,680	-0,141	0,017
-182,315	249,289	-0,027	-0,032
-181,300	-5,652	-0,100	-0,048
-180,285	35,800	-0,165	-0,103
-179,271	800,000	-0,025	-0,052
-178,256	-200,000	0,032	-0,175
-177,242	150,230	0,029	-0,028
-176,227	-200,000	0,006	-0,031
-175,212	582,766	-0,020	-0,034
-174,198	-163,273	-0,057	-0,002
-173,183	-200,000	0,005	0,094
-172,169	-200,000	0,002	0,022
-171,154	-31,218	-0,027	-0,011
-170,139	-147,648	0,100	0,006
-169,125	-55,821	0,083	-0,026
-168,110	160,807	0,051	0,051
-167,096	-105,305	0,067	-0,011
-166,081	800,000	-0,025	-0,053
-165,066	46,160	0,024	-0,016
-164,052	800,000	-0,037	-0,081
-163,037	349,772	0,071	-0,099
-162,023	800,000	0,036	0,093
-161,008	-200,000	0,032	0,184
-159,993	-200,000	-0,002	0,016
-158,979	334,475	0,045	0,062
-157,964	-29,047	-0,150	-0,061
-156,950	-200,000	-0,025	-0,130
-155,935	-103,054	-0,031	0,005
-154,920	240,557	0,083	-0,098
-153,906	201,091	-0,029	0,032
-152,891	-200,000	-0,001	-0,081
-151,877	-26,147	0,011	-0,004
-150,862	-200,000	0,028	-0,107
-149,847	136,197	-0,032	0,029
-148,833	-200,000	0,015	-0,060
-147,818	-200,000	-0,026	0,085
-146,804	-1,642	-0,092	-0,046
-145,789	-85,921	-0,038	0,008
-144,775	800,000	-0,031	0,061
-143,760	-200,000	-0,025	-0,091
-142,745	-82,916	-0,054	-0,012
-141,731	27,360	0,109	-0,065
-140,716	49,731	0,091	0,061
-139,702	144,720	-0,063	0,060
-138,687	-173,074	0,066	-0,001
-137,672	-200,000	-0,015	0,077
-136,658	-200,000	0,013	-0,049
-135,643	-200,000	0,011	-0,109
-134,629	-138,010	0,087	-0,007
-133,614	22,856	-0,017	0,010
-132,599	-132,221	-0,124	0,011
-131,585	171,270	0,073	0,074
-130,570	18,353	-0,057	0,032
-129,556	99,553	-0,041	0,034
-128,541	27,854	0,036	-0,022
-127,526	160,320	0,070	-0,069
-126,512	100,080	0,025	-0,021
-125,497	-157,338	0,096	-0,004
-124,483	35,066	-0,094	-0,058
-123,468	36,289	-0,073	-0,046
-122,453	800,000	0,022	0,048
-121,439	-200,000	-0,009	-0,038
-120,424	-200,000	-0,027	0,102
-119,410	800,000	-0,022	-0,048
-118,395	-13,219	0,048	0,022
-117,380	593,270	0,061	0,108
-116,366	486,304	-0,048	-0,078
-115,351	111,687	-0,054	-0,046
-114,337	68,071	0,047	0,034
-113,322	-34,132	-0,049	0,019
-112,307	-200,000	0,010	0,055
-111,293	800,000	-0,043	0,100
-110,278	486,293	-0,016	-0,026
-109,264	-200,000	-0,015	-0,066
-108,249	-200,000	0,008	-0,099
-107,234	-2,110	0,011	0,005
-106,220	-145,134	-0,051	-0,003
-105,205	-36,136	0,128	0,049
-104,191	-200,000	0,005	-0,022
-103,176	-200,000	-0,001	0,015
-102,162	52,923	0,096	-0,065
-101,147	166,528	-0,104	-0,105
-100,132	-14,761	-0,183	-0,083
-99,118	138,678	-0,022	-0,020
-98,103	602,564	0,096	0,170
-97,089	-200,000	-0,027	0,097
-96,074	800,000	-0,006	0,015
-95,059	57,266	-0,108	-0,075
-94,045	-77,938	-0,076	0,018
-93,030	160,665	0,014	-0,014
-92,016	800,000	0,011	-0,022
-91,001	387,652	0,080	0,118
-89,986	-200,000	0,013	0,088
-88,972	-106,868	0,087	0,014
-87,957	-40,441	0,050	0,018
-86,943	800,000	0,027	0,061
-85,928	-200,000	0,001	0,017
-84,913	6,694	-0,059	0,031
-83,899	800,000	0,052	0,146
-82,884	111,794	0,085	0,073
-81,870	-200,000	0,042	0,169
-80,855	800,000	0,035	0,091
-79,840	127,400	-0,119	0,107
-78,826	-45,116	-0,073	-0,026
-77,811	-40,415	0,079	-0,029
-76,797	103,475	0,072	0,059
-75,782	-200,000	0,005	0,122
-74,767	-45,104	0,151	-0,053
-73,753	43,469	-0,069	0,044
-72,738	235,395	0,095	-0,111
-71,724	-200,000	0,001	-0,165
-70,709	341,349	-0,067	-0,093
-69,694	-51,739	-0,049	-0,016
-68,680	637,783	-0,064	0,115
-67,665	-84,243	0,023	0,005
-66,651	110,472	0,153	0,131
-65,636	482,063	-0,065	-0,105
-64,622	131,507	0,042	-0,039
-63,607	-87,169	-0,209	0,044
-62,592	67,597	-0,092	-0,067
-61,578	-44,027	-0,062	0,022
-60,563	584,622	-0,034	0,060
-59,549	-21,626	-0,072	0,031
-58,534	-7,205	-1,818	-0,869
-57,519	450,363	-1,427	-2,236
-56,505	-200,000	-0,393	-4,469
-55,490	370,670	0,856	1,231
-54,476	800,000	4,990	11,033
-53,461	-200,000	19,398	327,802
-52,446	-200,000	742,818	2338,596
-51,432	570,955	1652,799	2857,461
-50,417	77,445	1666,399	1253,117
-49,403	20,810	1540,069	880,238
-48,388	14,705	1462,619	806,364
-47,373	18,469	1452,801	819,050
-46,359	16,848	1442,544	805,490
-45,344	12,942	1437,987	784,263
-44,330	12,895	1436,303	783,090
-43,315	12,874	1434,550	782,001
-42,300	12,912	1432,754	781,175
-41,286	12,874	1431,811	780,447
-40,271	12,868	1430,253	779,539
-39,257	12,879	1428,729	778,731
-38,242	12,951	1427,745	778,504
-37,227	12,912	1426,523	777,623
-36,213	12,912	1425,204	776,871
-35,198	12,940	1423,949	776,290
-34,184	12,949	1423,054	775,815
-33,169	12,883	1421,797	774,786
-32,154	12,958	1420,718	774,521
-31,140	12,919	1419,363	773,567
-30,125	12,965	1418,187	773,113
-29,111	12,935	1417,155	772,378
-28,096	12,959	1416,002	771,832
-27,082	12,871	1414,977	770,831
-26,067	12,828	1414,148	770,147
-25,052	12,863	1412,849	769,573
-24,038	12,871	1411,938	769,081
-23,023	12,849	1411,027	768,453
-22,009	12,796	1410,023	767,629
-20,994	12,803	1409,187	767,176
-19,979	12,895	1408,187	767,029
-18,965	12,829	1407,116	766,108
-17,950	12,814	1406,205	765,513
-16,936	12,815	1405,385	765,040
-15,921	12,760	1404,424	764,230
-14,906	12,813	1403,496	763,943
-13,892	12,748	1402,556	763,097
-12,877	12,793	1401,537	762,720
-11,863	12,792	1400,780	762,273
-10,848	12,755	1400,050	761,673
-9,833	12,761	1398,981	761,089
-8,819	12,683	1398,190	760,269
-7,804	12,709	1397,305	759,875
-6,790	12,695	1396,171	759,166
-5,775	12,711	1395,220	758,694
-4,760	12,697	1394,112	757,994
-3,746	12,638	1393,233	757,211
-2,731	12,650	1392,596	756,894
-1,717	12,620	1391,735	756,256
-0,702	12,625	1389,806	755,201
0,313	16,522	1305,865	727,560
1,327	32,821	699,822	427,354
2,342	50,431	122,467	81,723
3,356	2,557	16,491	8,418
4,371	-4,434	3,297	1,605
5,386	-0,288	0,559	0,280
6,400	-200,000	0,046	0,448
7,415	124,772	-0,201	-0,179
8,429	-19,466	-0,328	-0,143
9,444	12,140	-0,322	-0,175
10,459	582,051	-0,068	-0,118
11,473	195,194	-0,290	-0,311
12,488	-40,854	-0,256	-0,093
13,502	-75,401	-0,354	-0,088
14,517	71,443	-0,301	-0,220
15,531	223,148	-0,290	-0,331
16,546	-75,963	-0,310	-0,077
17,561	-109,184	-0,390	-0,058
18,575	53,650	-0,121	-0,082
19,590	175,164	-0,237	-0,243
20,604	-68,016	-0,250	-0,068
21,619	91,046	-0,478	-0,378
22,634	62,831	-0,470	-0,331
23,648	21,764	-0,491	-0,282
24,663	271,303	-0,283	-0,353
25,677	63,241	-0,360	-0,255
26,692	81,225	-0,405	-0,308
27,707	75,884	-0,350	-0,261
28,721	50,095	-0,393	-0,262
29,736	202,204	-0,373	-0,407
30,750	161,939	-0,379	-0,374
31,765	113,158	-0,448	-0,383
32,780	84,432	-0,444	-0,343
33,794	36,360	-0,438	-0,272
34,809	-37,850	-0,358	-0,134
35,823	292,491	-0,280	-0,361
36,838	51,119	-0,377	-0,251
37,853	111,534	-0,397	-0,338
38,867	-61,533	-0,531	-0,156
39,882	57,715	-0,340	-0,234
40,896	589,204	-0,230	-0,401
41,911	1,325	-0,375	-0,189
42,926	166,256	-0,405	-0,405
43,940	86,218	-0,395	-0,306
44,955	-58,857	-0,373	-0,113
45,969	199,112	-0,359	-0,388
46,984	-54,810	-0,348	-0,110
47,999	77,817	-0,252	-0,189
49,013	1,880	-0,365	-0,185
50,028	522,110	-0,210	-0,349
51,042	81,192	-0,328	-0,249
52,057	95,266	-0,368	-0,295
53,071	-13,023	-0,394	-0,180
54,086	-10,925	-0,299	-0,138
55,101	9,918	-0,232	-0,124
56,115	22,280	-0,393	-0,225
57,130	239,658	-0,240	-0,282
58,144	101,719	-0,513	-0,421
59,159	16,647	-0,389	-0,216
60,174	-58,613	-0,310	-0,094
61,188	190,679	-0,283	-0,299
62,203	122,341	-0,286	-0,251
63,217	128,223	-0,338	-0,303
64,232	248,376	-0,370	-0,441
65,247	7,079	-0,285	-0,149
66,261	-50,838	-0,424	-0,139
67,276	-51,545	-0,339	-0,111
68,290	155,118	-0,308	-0,298
69,305	-37,964	-0,281	-0,104
70,320	147,889	-0,256	-0,243
71,334	50,945	-0,399	-0,266
72,349	87,436	-0,278	-0,216
73,363	8,314	-0,432	-0,227
74,378	18,802	-0,345	-0,193
75,393	-36,920	-0,454	-0,170
76,407	33,839	-0,183	-0,111
77,422	394,100	-0,155	-0,228
78,436	72,292	-0,321	-0,235
79,451	76,993	-0,269	-0,200
80,466	103,000	-0,282	-0,231
81,480	69,363	-0,291	-0,210
82,495	69,670	-0,265	-0,191
83,509	-38,526	-0,270	-0,100
84,524	32,995	-0,333	-0,202
85,539	-21,818	-0,248	-0,106
86,553	-109,733	-0,420	-0,061
87,568	38,643	-0,280	-0,175
88,582	45,572	-0,256	-0,165
89,597	297,013	-0,259	-0,334
90,611	53,127	-0,311	-0,209
91,626	-27,434	-0,272	-0,111
92,641	34,376	-0,289	-0,177
93,655	91,543	-0,195	-0,153
94,670	20,515	-0,298	-0,168
95,684	190,589	-0,250	-0,264
96,699	66,382	-0,241	-0,172
97,714	51,352	-0,208	-0,138
98,728	-17,265	-0,258	-0,113
99,743	-177,221	-0,295	-0,005
100,757	91,509	-0,264	-0,208
101,772	215,144	-0,230	-0,257
102,787	-29,935	-0,322	-0,128
103,801	12,938	-0,339	-0,183
104,816	99,584	-0,299	-0,242
105,830	262,651	-0,187	-0,227
106,845	86,936	-0,246	-0,190
107,860	-54,683	-0,308	-0,097
108,874	164,279	-0,230	-0,227
109,889	14,525	-0,301	-0,164
110,903	330,456	-0,255	-0,345
111,918	82,960	-0,257	-0,196
112,933	166,364	-0,272	-0,270
113,947	800,000	-0,126	-0,254
114,962	270,170	-0,229	-0,282
115,976	46,047	-0,331	-0,214
116,991	45,354	-0,293	-0,189
118,006	194,215	-0,167	-0,177
119,020	512,014	-0,153	-0,250
120,035	142,987	-0,131	-0,122
121,049	-63,024	-0,279	-0,080
122,064	15,321	-0,216	-0,118
123,079	-114,129	-0,172	-0,023
124,093	43,075	-0,221	-0,141
125,108	637,785	-0,180	-0,321
126,122	-99,660	-0,359	-0,062
127,137	-34,801	-0,273	-0,104
128,151	389,999	-0,162	-0,236
129,166	-98,965	-0,186	-0,033
130,181	-35,083	-0,268	-0,101
131,195	125,023	-0,251	-0,221
132,210	52,199	-0,278	-0,185
133,224	22,922	-0,318	-0,182
134,239	447,263	-0,190	-0,293
135,254	418,991	-0,128	-0,192
136,268	77,873	-0,213	-0,158
137,283	-99,566	-0,206	-0,036
138,297	124,464	-0,267	-0,235
139,312	70,983	-0,359	-0,260
140,327	76,240	-0,240	-0,177
141,341	-51,551	-0,365	-0,118
142,356	97,430	-0,252	-0,202
143,370	125,229	-0,197	-0,174
144,385	75,195	-0,176	-0,129
145,400	104,811	-0,266	-0,219
146,414	-67,049	-0,294	-0,080
147,429	107,748	-0,350	-0,291
148,443	-14,303	-0,275	-0,123
149,458	308,166	-0,180	-0,235
150,473	5,215	-0,247	-0,126
151,487	86,105	-0,287	-0,220
152,502	407,693	-0,167	-0,247
153,516	-55,889	-0,274	-0,085
154,531	379,053	-0,205	-0,294
155,546	66,106	-0,324	-0,229
156,560	-18,095	-0,137	-0,060
157,575	143,276	-0,199	-0,185
158,589	-151,615	-0,310	-0,016
159,604	-55,830	-0,357	-0,110
160,619	84,170	-0,296	-0,226
161,633	-4,584	-0,302	-0,145
162,648	-40,855	-0,426	-0,153
163,662	373,510	-0,141	-0,200
164,677	-68,072	-0,344	-0,093
165,692	-118,521	-0,258	-0,031
166,706	172,042	-0,180	-0,181
167,721	-26,463	-0,305	-0,124
168,735	-3,987	-0,276	-0,133
169,750	90,069	-0,271	-0,211
170,764	96,453	-0,180	-0,143
171,779	464,007	-0,192	-0,300
172,794	252,845	-0,151	-0,180
173,808	20,848	-0,226	-0,127
174,823	184,552	-0,217	-0,224
175,837	78,036	-0,279	-0,207
176,852	-81,702	-0,257	-0,058
177,867	185,449	-0,169	-0,175
178,881	4,008	-0,136	-0,069
179,896	-98,604	-0,318	-0,056
180,910	98,804	-0,278	-0,223
181,925	213,559	-0,247	-0,272
182,940	263,266	-0,226	-0,274
183,954	151,728	-0,224	-0,212
184,969	288,725	-0,182	-0,230
185,983	127,330	-0,206	-0,182
186,998	31,724	-0,260	-0,155
188,013	-38,026	-0,255	-0,094
189,027	172,264	-0,136	-0,137
190,042	148,327	-0,161	-0,151
191,056	53,884	-0,278	-0,185
192,071	365,640	-0,124	-0,174
193,086	163,052	-0,215	-0,210
194,100	57,769	-0,160	-0,109
195,115	626,005	-0,110	-0,193
196,129	-61,431	-0,234	-0,068
197,144	66,244	-0,288	-0,203
198,159	211,526	-0,192	-0,210
199,173	800,000	-0,100	-0,219
200,188	657,779	-0,116	-0,208
201,202	364,061	-0,068	-0,095
202,217	107,369	-0,212	-0,175
203,232	-200,000	0,009	-0,187
204,246	309,698	-0,143	-0,186
205,261	225,713	-0,217	-0,245
206,275	17,591	-0,209	-0,115
207,290	8,698	-0,266	-0,139
208,304	68,742	-0,270	-0,192
209,319	79,535	-0,191	-0,142
210,334	363,785	-0,180	-0,251
211,348	-64,146	-0,373	-0,105
212,363	-84,937	-0,210	-0,045
213,377	48,863	-0,176	-0,114
214,392	800,000	-0,106	-0,219
215,407	-55,596	-0,179	-0,055
216,421	-93,278	-0,171	-0,033
217,436	78,211	-0,287	-0,212
218,450	146,141	-0,206	-0,192
219,465	365,280	-0,169	-0,237
220,480	94,844	-0,250	-0,197
221,494	-116,161	-0,132	-0,017
222,509	-200,000	-0,045	-0,229
223,523	-140,354	-0,254	-0,018
224,538	477,565	-0,125	-0,197
225,553	-193,637	-0,217	0,001
226,567	0,241	-0,261	-0,129
227,582	237,704	-0,130	-0,150
228,596	161,688	-0,109	-0,106
229,611	-90,614	-0,094	-0,019
230,626	-106,929	-0,095	0,014
231,640	373,863	-0,180	-0,255
232,655	307,704	-0,202	-0,262
233,669	570,608	-0,164	-0,277
234,684	30,845	-0,247	-0,146
235,699	-84,737	-0,233	-0,050
236,713	402,538	-0,099	-0,144
237,728	-124,862	-0,187	-0,020
238,742	211,644	-0,267	-0,291
239,757	233,852	-0,199	-0,228
240,772	93,001	-0,189	-0,148
241,786	57,796	-0,135	-0,091
242,801	102,494	-0,113	-0,091
243,815	81,954	-0,088	-0,066
244,830	355,788	-0,136	-0,187
245,844	62,358	-0,063	-0,044
246,859	248,064	-0,145	-0,170
247,874	-39,532	-0,240	-0,086
248,888	-50,445	-0,245	-0,080
249,903	178,135	-0,060	-0,060
250,917	189,483	-0,203	-0,210
251,932	800,000	-0,037	-0,093
252,947	449,743	-0,076	-0,116
253,961	-25,919	-0,284	-0,115
254,976	77,332	-0,234	-0,172
255,990	55,457	-0,188	-0,125
257,005	98,847	-0,153	-0,122
258,020	36,858	-0,108	-0,066
259,034	73,362	-0,118	-0,086
260,049	800,000	-0,050	-0,121
261,063	166,223	-0,245	-0,240
262,078	35,041	-0,187	-0,113
263,093	254,406	-0,121	-0,143
264,107	233,075	-0,090	-0,102
265,122	247,384	-0,124	-0,145
266,136	-46,021	-0,215	-0,073
267,151	-34,298	-0,118	-0,045
268,166	87,250	-0,216	-0,165
269,180	-42,391	-0,221	-0,078
270,195	386,912	-0,131	-0,188
271,209	174,346	-0,193	-0,193
272,224	262,194	-0,163	-0,195
273,239	104,821	-0,100	-0,082
274,253	-41,916	-0,142	-0,050
275,268	-69,921	-0,155	-0,040
276,282	262,942	-0,133	-0,160
277,297	259,777	-0,242	-0,289
278,312	193,155	-0,225	-0,235
279,326	800,000	-0,053	-0,129
280,341	-29,265	-0,173	-0,068
281,355	-67,760	-0,245	-0,066
282,370	194,931	-0,074	-0,078
283,384	312,101	-0,092	-0,119
284,399	298,958	-0,124	-0,158
285,414	-93,210	-0,237	-0,045
286,428	29,517	-0,104	-0,061
287,443	-149,921	-0,157	0,008
288,457	42,010	-0,171	-0,107
289,472	47,458	-0,174	-0,112
290,487	-81,965	-0,207	-0,046
291,501	-58,173	-0,186	-0,056
292,516	-175,294	-0,166	-0,003
293,530	-83,030	-0,155	-0,034
294,545	2,015	-0,193	-0,096
295,560	232,418	-0,152	-0,173
296,574	25,793	-0,130	-0,075
297,589	141,648	-0,249	-0,227
298,603	113,420	-0,057	-0,047
299,618	-71,488	-0,206	-0,053
300,633	28,266	-0,195	-0,113
301,647	258,680	-0,079	-0,094
302,662	-130,456	-0,200	-0,018
303,676	800,000	-0,044	-0,125
304,691	296,778	-0,184	-0,233
305,706	92,539	-0,211	-0,164
306,720	-69,389	-0,215	-0,056
307,735	345,014	-0,074	-0,100
308,749	511,565	-0,083	-0,133
309,764	751,314	-0,081	-0,150
310,779	355,077	-0,132	-0,181
311,793	-46,836	-0,139	-0,046
312,808	376,009	-0,127	-0,178
313,822	-54,013	-0,162	-0,050
314,837	-103,365	-0,225	-0,036
315,852	49,436	-0,110	-0,071
316,866	800,000	0,041	-0,105
317,881	-200,000	-0,024	-0,150
318,895	-79,060	-0,143	-0,033
319,910	555,406	-0,027	-0,045
320,925	256,570	-0,133	-0,158
321,939	625,679	-0,028	-0,048
322,954	-170,636	-0,067	0,002
323,968	-200,000	-0,035	-0,215
324,983	-85,743	-0,074	-0,016
325,997	253,289	-0,107	-0,125
327,012	109,070	-0,094	0,077
328,027	-70,376	-0,196	-0,051
329,041	-200,000	-0,027	-0,091
330,056	800,000	-0,055	-0,148
331,070	-14,526	-0,184	-0,081
332,085	-97,992	-0,112	-0,020
333,100	-6,517	-0,040	-0,019
334,114	-127,438	-0,250	0,025
335,129	800,000	-0,110	-0,225
336,143	185,808	-0,180	-0,184
337,158	-200,000	-0,023	-0,087
338,173	18,315	-0,294	-0,160
339,187	-200,000	0,017	-0,137
340,202	-200,000	-0,032	-0,201
341,216	113,842	-0,078	-0,065
342,231	275,045	-0,092	-0,113
343,246	190,055	-0,073	-0,076
344,260	276,417	-0,100	-0,122
345,275	800,000	-0,047	0,104
346,289	137,362	-0,067	-0,060
347,304	276,703	-0,026	-0,032
348,319	2,135	-0,108	-0,053
349,333	1,303	-0,229	-0,112
350,348	-127,560	-0,179	-0,018
351,362	31,717	-0,150	-0,088
352,377	-116,468	-0,133	-0,017
353,392	-200,000	-0,005	-0,102
354,406	-86,471	-0,152	-0,032
355,421	208,820	1310,241	1407,225
356,435	160,693	1470,410	1407,711
