DTS Sentinel unit serial number:	SN410029Multiplexer serial number:	ORYXHardware model number:	OX2-SRSoftware version number:	ORYX F/W v4,00 Oryx Data Collector v3.7.2.0data status	okinstallation	B3 Nyhavnadifferential loss correction	single-endedforward channel	channel 1reverse channel	N/Adate	2023/12/02time	14:32:30forward acquisition time	300,00reverse acquisition time	0,00gamma	499,1914k internal	0,3198k external	0,3198temperature offset calibration	1,0000default loss term (dB/km)	0,3820temperature slope calibration	1,0000multiplexer offset coefficient	1,0000multiplexer slope coefficient	1,0000fibre end	0,00T internal ref (°C)	14,91T ext. ref 1 (°C)	-0,14T ext. ref 2 (°C)	-0,15length (m)	temperature (°C)	Stokes	anti-Stokes-744,400	800,000	-0,106	-0,297
-743,385	-200,000	-0,084	0,336
-742,371	-200,000	-0,031	-0,239
-741,356	800,000	0,086	0,245
-740,342	758,528	-0,126	-0,250
-739,327	415,590	0,137	0,214
-738,312	267,811	-0,223	-0,285
-737,298	-200,000	-0,076	0,324
-736,283	52,642	-0,197	-0,137
-735,269	-200,000	-0,006	0,414
-734,254	-45,894	-0,276	-0,099
-733,239	175,297	-0,148	0,156
-732,225	180,695	-0,199	-0,213
-731,210	11,962	0,099	0,055
-730,196	-59,113	-0,066	-0,021
-729,181	-200,000	0,015	-0,118
-728,167	285,214	0,032	-0,042
-727,152	118,521	-0,024	0,022
-726,137	-200,000	0,021	-0,072
-725,123	36,279	-0,164	-0,105
-724,108	-100,402	-0,169	0,030
-723,094	171,420	-0,144	-0,150
-722,079	-200,000	-0,021	-0,091
-721,064	-200,000	-0,001	0,072
-720,050	-200,000	-0,030	-0,234
-719,035	255,937	-0,010	-0,013
-718,021	268,148	-0,049	-0,063
-717,006	671,173	-0,068	-0,130
-715,991	11,841	0,057	0,032
-714,977	18,117	-0,038	0,022
-713,962	-200,000	-0,037	-0,142
-712,948	54,282	0,101	0,071
-711,933	21,497	-0,124	-0,073
-710,918	173,218	0,112	-0,117
-709,904	-132,100	-0,063	-0,006
-708,889	-160,051	-0,061	0,002
-707,875	230,439	-0,082	0,098
-706,860	-123,437	-0,122	0,014
-705,845	-200,000	0,012	-0,059
-704,831	-72,423	0,062	0,017
-703,816	-41,047	0,082	0,030
-702,802	116,876	-0,080	-0,072
-701,787	800,000	0,023	-0,061
-700,772	220,772	-0,069	0,081
-699,758	-47,570	-0,069	0,024
-698,743	800,000	0,050	-0,107
-697,729	122,754	0,045	0,041
-696,714	-0,145	0,080	0,041
-695,699	355,057	-0,029	-0,043
-694,685	-200,000	-0,007	-0,042
-693,670	-200,000	-0,026	-0,213
-692,656	-63,279	0,101	0,030
-691,641	-4,858	-0,096	0,048
-690,627	-200,000	-0,024	-0,184
-689,612	-45,331	0,102	0,036
-688,597	-200,000	-0,011	-0,044
-687,583	-3,545	-0,006	0,003
-686,568	-54,893	-0,147	-0,048
-685,554	-200,000	0,019	-0,075
-684,539	-51,353	-0,066	0,022
-683,524	161,524	-0,051	0,052
-682,510	-200,000	-0,001	0,069
-681,495	96,687	-0,114	0,095
-680,481	-200,000	0,006	-0,038
-679,466	391,937	-0,037	-0,056
-678,451	-109,471	-0,023	0,003
-677,437	-200,000	0,006	-0,077
-676,422	-200,000	0,004	-0,052
-675,408	-200,000	-0,005	0,112
-674,393	-174,801	-0,087	0,002
-673,378	619,276	-0,055	0,101
-672,364	209,752	-0,049	0,055
-671,349	723,323	-0,032	-0,062
-670,335	800,000	0,008	0,018
-669,320	-32,575	-0,098	0,040
-668,305	393,568	0,061	0,092
-667,291	183,225	-0,074	0,079
-666,276	711,187	-0,018	-0,036
-665,262	476,136	-0,087	-0,143
-664,247	-200,000	0,011	-0,144
-663,232	-130,795	-0,094	-0,009
-662,218	213,238	-0,015	-0,017
-661,203	-200,000	0,010	-0,055
-660,189	429,038	0,030	0,047
-659,174	67,048	-0,065	0,048
-658,159	-200,000	0,018	-0,132
-657,145	504,190	0,008	0,014
-656,130	-118,088	-0,034	-0,004
-655,116	-104,638	0,133	-0,022
-654,101	-200,000	-0,008	-0,028
-653,086	-200,000	0,019	-0,133
-652,072	116,805	-0,142	-0,126
-651,057	121,052	-0,088	-0,080
-650,043	-200,000	0,046	-0,166
-649,028	-97,476	-0,104	0,019
-648,014	-200,000	0,017	-0,058
-646,999	346,306	0,071	-0,101
-645,984	-200,000	0,036	0,188
-644,970	-36,109	0,011	-0,004
-643,955	327,661	0,055	-0,077
-642,941	218,185	-0,043	0,050
-641,926	-200,000	0,013	-0,085
-640,911	762,702	0,024	0,048
-639,897	-90,736	0,031	-0,006
-638,882	-51,389	0,060	-0,020
-637,868	-200,000	-0,007	-0,074
-636,853	46,679	0,069	-0,046
-635,838	800,000	-0,050	-0,111
-634,824	628,031	-0,083	-0,153
-633,809	-200,000	-0,022	-0,106
-632,795	225,093	-0,017	-0,020
-631,780	-200,000	-0,013	0,094
-630,765	-200,000	0,021	-0,253
-629,751	-200,000	-0,013	-0,052
-628,736	-36,031	-0,075	-0,029
-627,722	-126,045	0,129	0,014
-626,707	800,000	0,028	-0,076
-625,692	14,186	0,033	0,019
-624,678	-74,360	0,014	-0,004
-623,663	-200,000	0,029	-0,100
-622,649	305,838	-0,016	-0,022
-621,634	9,891	-0,112	0,061
-620,619	-200,000	0,019	-0,071
-619,605	-200,000	0,034	0,114
-618,590	277,890	0,119	-0,154
-617,576	-200,000	0,011	-0,089
-616,561	-98,019	0,095	0,018
-615,546	-200,000	-0,046	-0,157
-614,532	287,337	-0,042	-0,055
-613,517	-40,315	-0,086	-0,032
-612,503	76,732	0,187	-0,143
-611,488	-78,933	-0,118	-0,029
-610,474	-111,246	0,110	-0,016
-609,459	-200,000	-0,002	-0,067
-608,444	15,216	-0,148	-0,084
-607,430	60,397	0,029	0,021
-606,415	800,000	-0,039	-0,084
-605,401	-171,058	0,090	0,002
-604,386	-136,845	0,128	-0,011
-603,371	234,779	-0,085	0,101
-602,357	145,669	0,093	-0,090
-601,342	-51,476	-0,087	0,029
-600,328	-26,234	0,061	0,026
-599,313	-200,000	-0,016	-0,167
-598,298	800,000	-0,011	-0,025
-597,284	-106,092	0,062	-0,010
-596,269	10,344	-0,047	0,026
-595,255	-22,817	-0,082	-0,036
-594,240	-200,000	0,016	-0,070
-593,225	-29,413	-0,130	0,053
-592,211	270,446	-0,064	-0,082
-591,196	230,182	0,099	0,117
-590,182	-200,000	-0,008	0,104
-589,167	-200,000	0,009	0,102
-588,152	560,326	-0,057	0,100
-587,138	-200,000	0,033	0,149
-586,123	749,247	-0,044	-0,086
-585,109	800,000	-0,024	-0,062
-584,094	-50,392	-0,093	-0,032
-583,079	-128,441	-0,070	0,007
-582,065	631,683	-0,036	0,066
-581,050	24,942	-0,099	0,059
-580,036	-200,000	-0,022	-0,084
-579,021	668,209	-0,058	-0,109
-578,006	800,000	0,031	-0,066
-576,992	74,959	-0,066	0,050
-575,977	-200,000	0,010	0,061
-574,963	73,714	0,158	-0,120
-573,948	-200,000	-0,010	0,035
-572,934	446,697	0,045	0,073
-571,919	62,277	-0,073	-0,052
-570,904	101,666	-0,085	0,072
-569,890	-40,231	-0,089	-0,033
-568,875	45,423	-0,003	-0,002
-567,861	-29,333	0,145	-0,060
-566,846	-40,124	0,050	0,019
-565,831	-120,138	0,081	-0,010
-564,817	-200,000	0,023	-0,086
-563,802	-160,550	-0,115	0,004
-562,788	-200,000	0,005	0,061
-561,773	-200,000	0,019	-0,101
-560,758	-93,479	-0,080	-0,016
-559,744	110,769	0,033	0,029
-558,729	-60,828	0,124	-0,038
-557,715	137,895	-0,053	0,050
-556,700	-11,054	-0,193	-0,092
-555,685	140,859	-0,057	-0,055
-554,671	-200,000	0,038	0,126
-553,656	102,049	0,068	-0,057
-552,642	74,032	-0,067	-0,051
-551,627	274,950	-0,019	0,025
-550,612	-200,000	0,004	0,023
-549,598	800,000	0,032	-0,066
-548,583	361,367	-0,065	-0,094
-547,569	-51,199	-0,064	-0,022
-546,554	800,000	0,082	-0,188
-545,539	105,216	-0,069	-0,059
-544,525	-73,640	-0,129	-0,034
-543,510	-41,351	-0,065	0,024
-542,496	-14,078	-0,023	0,010
-541,481	-87,530	-0,072	0,016
-540,466	-115,475	-0,089	-0,012
-539,452	-111,977	0,162	0,023
-538,437	800,000	0,028	0,074
-537,423	-91,642	0,009	-0,002
-536,408	349,339	0,030	0,043
-535,393	18,815	0,045	-0,026
-534,379	-178,186	0,019	-0,000
-533,364	800,000	-0,025	0,067
-532,350	-140,700	0,088	0,006
-531,335	282,159	0,026	-0,034
-530,321	800,000	-0,040	-0,093
-529,306	307,200	0,068	-0,091
-528,291	800,000	-0,045	0,140
-527,277	242,313	-0,076	0,092
-526,262	-72,865	0,202	-0,053
-525,248	800,000	-0,056	-0,119
-524,233	-78,008	0,028	-0,007
-523,218	-45,046	0,116	-0,042
-522,204	68,736	0,068	0,050
-521,189	300,173	0,046	0,062
-520,175	511,712	0,095	-0,160
-519,160	719,929	-0,040	-0,077
-518,145	-200,000	-0,002	-0,054
-517,131	-200,000	0,012	0,140
-516,116	231,800	-0,024	-0,028
-515,102	-200,000	-0,006	-0,024
-514,087	89,595	0,075	0,060
-513,072	-1,481	-0,097	-0,049
-512,058	-114,648	-0,092	-0,013
-511,043	293,869	-0,046	0,061
-510,029	98,557	0,073	0,061
-509,014	-200,000	-0,010	-0,086
-507,999	684,564	0,034	-0,064
-506,985	-54,065	-0,098	-0,032
-505,970	800,000	-0,009	0,021
-504,956	93,839	0,126	-0,103
-503,941	112,971	-0,016	-0,014
-502,926	284,210	0,025	0,033
-501,912	-200,000	0,024	-0,085
-500,897	37,840	0,115	0,073
-499,883	210,577	-0,061	-0,069
-498,868	27,240	-0,057	-0,035
-497,853	-13,551	-0,064	0,030
-496,839	207,289	-0,065	-0,074
-495,824	-150,800	0,084	0,005
-494,810	-200,000	0,025	0,145
-493,795	-30,536	-0,086	-0,035
-492,781	800,000	-0,045	-0,127
-491,766	-76,774	-0,061	0,015
-490,751	74,744	-0,012	0,009
-489,737	213,603	-0,062	-0,071
-488,722	-200,000	0,013	0,106
-487,708	153,215	0,083	0,082
-486,693	-1,187	-0,070	-0,036
-485,678	-128,169	-0,047	0,005
-484,664	-200,000	-0,032	-0,149
-483,649	800,000	-0,055	-0,164
-482,635	-200,000	0,026	-0,133
-481,620	272,637	0,036	0,046
-480,605	8,610	0,024	0,013
-479,591	-86,400	0,068	-0,015
-478,576	800,000	0,022	0,054
-477,562	-80,095	-0,024	-0,006
-476,547	-200,000	0,011	-0,099
-475,532	186,204	-0,077	0,083
-474,518	800,000	-0,053	-0,132
-473,503	800,000	0,036	0,112
-472,489	-200,000	-0,033	0,154
-471,474	243,272	-0,047	0,057
-470,459	-200,000	-0,009	0,037
-469,445	-200,000	-0,018	0,070
-468,430	359,307	-0,088	-0,127
-467,416	35,275	0,075	-0,048
-466,401	157,968	0,041	0,041
-465,386	31,809	-0,054	-0,033
-464,372	-200,000	0,018	0,148
-463,357	-80,569	-0,052	-0,012
-462,343	5,563	0,019	-0,010
-461,328	10,468	-0,117	-0,064
-460,313	-200,000	0,009	-0,099
-459,299	800,000	0,065	0,165
-458,284	743,151	-0,067	0,131
-457,270	209,287	-0,092	0,104
-456,255	-169,862	-0,100	0,003
-455,241	308,901	-0,085	-0,114
-454,226	-200,000	-0,020	0,109
-453,211	-105,307	-0,037	0,006
-452,197	194,870	-0,131	0,144
-451,182	348,026	0,065	0,093
-450,168	-51,947	-0,072	0,024
-449,153	-200,000	0,008	-0,079
-448,138	46,142	-0,047	-0,031
-447,124	-200,000	0,030	-0,147
-446,109	-65,163	0,093	-0,027
-445,095	-22,427	-0,118	-0,051
-444,080	800,000	0,031	-0,082
-443,065	46,186	-0,024	0,016
-442,051	-22,821	0,037	-0,016
-441,036	55,672	0,053	0,037
-440,022	-140,464	0,062	0,005
-439,007	251,067	-0,054	0,066
-437,992	-200,000	0,002	0,106
-436,978	-38,361	-0,033	0,012
-435,963	56,237	0,038	0,026
-434,949	97,118	0,060	-0,050
-433,934	-200,000	0,013	-0,128
-432,919	-24,626	-0,123	0,052
-431,905	800,000	-0,018	-0,046
-430,890	442,895	0,064	-0,100
-429,876	-6,083	0,055	-0,027
-428,861	212,310	0,080	0,091
-427,846	-31,911	-0,095	0,038
-426,832	800,000	-0,031	0,089
-425,817	-95,654	-0,042	-0,008
-424,803	207,767	0,047	0,053
-423,788	-65,133	0,117	0,034
-422,773	-200,000	-0,008	-0,049
-421,759	-200,000	0,006	0,045
-420,744	800,000	0,008	-0,018
-419,730	-67,315	-0,113	0,032
-418,715	351,534	-0,074	0,105
-417,701	800,000	-0,021	0,062
-416,686	90,655	0,041	0,033
-415,671	-45,483	0,217	-0,077
-414,657	191,501	0,121	0,131
-413,642	-200,000	0,041	0,169
-412,628	-200,000	0,016	-0,089
-411,613	-200,000	0,001	-0,147
-410,598	-200,000	-0,005	-0,031
-409,584	-150,777	0,112	-0,006
-408,569	1,709	0,061	0,031
-407,555	-200,000	-0,006	0,094
-406,540	402,744	-0,008	0,011
-405,525	-200,000	0,012	-0,131
-404,511	-111,796	-0,045	-0,006
-403,496	-200,000	-0,007	-0,056
-402,482	-113,670	-0,133	-0,018
-401,467	499,924	0,045	0,075
-400,452	210,789	0,088	0,100
-399,438	120,767	0,133	0,119
-398,423	145,891	-0,062	0,060
-397,409	-200,000	-0,005	0,053
-396,394	-200,000	-0,022	-0,126
-395,379	45,392	-0,105	-0,069
-394,365	10,174	0,050	-0,027
-393,350	-43,363	-0,007	-0,003
-392,336	210,395	-0,033	0,038
-391,321	-110,239	0,083	-0,012
-390,306	44,972	0,007	-0,004
-389,292	-200,000	0,041	0,170
-388,277	102,623	0,096	-0,081
-387,263	135,137	0,039	-0,036
-386,248	295,994	0,118	0,156
-385,233	-109,903	-0,061	0,009
-384,219	341,527	-0,099	0,139
-383,204	220,695	0,010	-0,011
-382,190	800,000	-0,052	-0,134
-381,175	682,309	-0,027	-0,050
-380,160	14,853	0,081	0,045
-379,146	800,000	-0,074	0,159
-378,131	-125,936	-0,034	0,004
-377,117	-37,698	0,029	0,011
-376,102	-37,106	0,024	0,009
-375,088	-147,587	-0,104	0,006
-374,073	65,814	-0,070	-0,051
-373,058	-146,098	0,075	0,005
-372,044	-98,226	0,148	-0,027
-371,029	51,609	-0,071	-0,048
-370,015	-200,000	0,003	-0,117
-369,000	402,766	-0,026	-0,039
-367,985	-172,710	-0,029	-0,001
-366,971	-200,000	0,006	-0,036
-365,956	96,135	0,026	0,022
-364,942	80,076	0,033	-0,025
-363,927	800,000	0,029	-0,071
-362,912	-200,000	-0,013	0,091
-361,898	561,184	0,028	0,048
-360,883	108,335	-0,120	-0,103
-359,869	13,809	-0,062	0,034
-358,854	10,564	-0,075	0,041
-357,839	-200,000	-0,019	0,093
-356,825	727,835	-0,022	-0,043
-355,810	116,556	0,114	0,100
-354,796	-200,000	-0,013	0,076
-353,781	800,000	0,010	-0,027
-352,766	128,384	-0,060	0,054
-351,752	-174,572	0,205	-0,004
-350,737	-122,980	-0,050	0,006
-349,723	-200,000	0,017	0,067
-348,708	-81,144	-0,036	-0,008
-347,693	142,634	-0,078	-0,074
-346,679	-164,673	0,022	0,001
-345,664	800,000	-0,027	-0,079
-344,650	270,925	-0,086	0,109
-343,635	377,507	0,075	-0,110
-342,620	-111,217	0,068	0,010
-341,606	800,000	0,068	0,148
-340,591	40,640	-0,068	-0,044
-339,577	-46,174	-0,029	-0,010
-338,562	-99,826	0,099	0,018
-337,548	800,000	0,020	-0,056
-336,533	-200,000	0,062	0,222
-335,518	-47,014	0,151	0,052
-334,504	-127,364	0,021	-0,002
-333,489	800,000	0,049	-0,101
-332,475	75,321	0,023	-0,018
-331,460	-200,000	-0,135	-0,000
-330,445	105,333	0,046	-0,039
-329,431	-200,000	-0,001	0,057
-328,416	-200,000	0,006	0,185
-327,402	800,000	-0,060	0,178
-326,387	-16,743	0,069	-0,031
-325,372	-47,403	-0,044	0,015
-324,358	-141,228	-0,043	0,003
-323,343	-200,000	-0,017	-0,115
-322,329	89,121	0,077	0,062
-321,314	-109,964	-0,115	0,017
-320,299	401,645	-0,096	0,145
-319,285	-81,725	-0,113	-0,026
-318,270	153,570	0,076	-0,075
-317,256	52,477	-0,041	-0,028
-316,241	800,000	0,053	0,107
-315,226	-200,000	-0,003	-0,030
-314,212	13,076	0,117	-0,064
-313,197	-18,571	-0,164	-0,073
-312,183	-15,035	0,047	-0,021
-311,168	-200,000	0,007	-0,134
-310,153	-200,000	0,002	-0,130
-309,139	80,946	0,045	-0,035
-308,124	800,000	-0,027	0,070
-307,110	-200,000	0,010	0,073
-306,095	37,323	-0,028	-0,018
-305,080	151,046	0,046	0,045
-304,066	676,086	-0,050	-0,094
-303,051	291,733	-0,072	-0,094
-302,037	800,000	0,048	-0,150
-301,022	-200,000	-0,016	0,126
-300,008	24,258	0,049	0,029
-298,993	-195,480	-0,084	-0,000
-297,978	-200,000	0,068	0,268
-296,964	0,225	-0,123	-0,063
-295,949	162,595	-0,095	0,096
-294,935	366,256	0,034	-0,049
-293,920	27,389	-0,096	0,058
-292,905	-4,363	0,046	0,023
-291,891	87,194	-0,029	-0,023
-290,876	125,264	0,085	-0,077
-289,862	-98,687	-0,047	0,009
-288,847	648,720	0,065	-0,120
-287,832	397,281	-0,028	0,042
-286,818	-200,000	0,014	-0,090
-285,803	19,220	0,059	0,034
-284,789	-200,000	0,016	0,153
-283,774	511,011	-0,081	0,135
-282,759	-200,000	0,006	-0,067
-281,745	573,209	0,035	-0,062
-280,730	-107,872	-0,079	0,012
-279,716	-141,573	0,031	-0,002
-278,701	135,398	0,102	-0,095
-277,686	388,337	0,101	0,149
-276,672	800,000	0,053	0,132
-275,657	-200,000	-0,004	0,038
-274,643	-200,000	-0,007	0,070
-273,628	98,750	-0,072	-0,060
-272,613	-90,639	-0,049	-0,010
-271,599	800,000	-0,073	0,156
-270,584	129,507	0,036	-0,033
-269,570	-200,000	-0,009	-0,077
-268,555	22,322	0,124	-0,072
-267,540	-200,000	0,021	0,188
-266,526	27,410	0,122	-0,073
-265,511	-40,030	-0,071	-0,026
-264,497	-200,000	-0,001	0,020
-263,482	-54,584	0,081	-0,026
-262,467	-155,484	0,126	-0,006
-261,453	800,000	-0,007	-0,019
-260,438	-200,000	0,007	0,119
-259,424	-34,904	-0,129	-0,050
-258,409	-132,257	-0,078	-0,007
-257,395	-80,911	0,051	0,012
-256,380	432,279	0,087	0,136
-255,365	250,088	0,021	0,025
-254,351	-53,409	-0,116	-0,038
-253,336	28,552	0,053	-0,032
-252,322	139,337	-0,041	0,039
-251,307	-64,429	-0,089	0,026
-250,292	101,265	0,026	0,021
-249,278	-200,000	-0,043	0,205
-248,263	-86,239	-0,090	-0,020
-247,249	-200,000	-0,012	-0,107
-246,234	-70,444	-0,090	-0,024
-245,219	-200,000	-0,016	-0,112
-244,205	83,931	0,062	0,048
-243,190	-116,878	-0,061	-0,008
-242,176	-159,402	0,061	0,002
-241,161	-168,140	-0,029	0,001
-240,146	106,206	0,036	0,030
-239,132	43,817	-0,083	-0,054
-238,117	800,000	-0,040	0,104
-237,103	89,738	-0,028	-0,023
-236,088	559,972	-0,043	0,075
-235,073	230,303	0,079	0,092
-234,059	-200,000	0,002	-0,044
-233,044	-11,248	-0,025	0,012
-232,030	800,000	0,029	-0,074
-231,015	245,552	0,026	0,032
-230,000	800,000	-0,047	-0,114
-228,986	-200,000	0,007	-0,133
-227,971	138,742	0,088	-0,083
-226,957	7,494	-0,041	0,022
-225,942	211,046	0,085	0,095
-224,927	-82,318	-0,057	0,013
-223,913	703,042	-0,026	0,049
-222,898	170,676	0,094	-0,096
-221,884	-55,860	0,017	0,005
-220,869	129,397	0,071	0,065
-219,855	-138,271	-0,092	-0,007
-218,840	-200,000	0,039	-0,154
-217,825	8,606	-0,073	0,039
-216,811	-74,448	-0,092	0,023
-215,796	392,622	0,027	-0,041
-214,782	111,190	-0,053	-0,046
-213,767	800,000	0,051	0,116
-212,752	800,000	0,111	0,226
-211,738	-26,693	0,173	0,072
-210,723	-200,000	0,010	-0,061
-209,709	38,521	-0,022	-0,014
-208,694	54,001	-0,102	0,070
-207,679	800,000	0,041	0,094
-206,665	-200,000	0,029	0,196
-205,650	800,000	-0,053	0,113
-204,636	-178,329	-0,082	0,001
-203,621	-163,133	0,080	-0,003
-202,606	-137,914	0,051	0,004
-201,592	-200,000	0,015	0,092
-200,577	658,399	-0,039	-0,073
-199,563	800,000	0,023	-0,057
-198,548	-74,328	0,135	0,034
-197,533	-108,076	-0,086	0,013
-196,519	-200,000	-0,036	0,185
-195,504	15,322	-0,070	0,039
-194,490	-200,000	-0,017	0,060
-193,475	-200,000	-0,030	0,115
-192,460	800,000	-0,034	0,077
-191,446	-200,000	0,019	-0,077
-190,431	145,829	0,028	0,026
-189,417	26,040	-0,074	0,044
-188,402	-111,663	-0,052	-0,007
-187,387	800,000	0,033	-0,071
-186,373	210,024	0,040	0,045
-185,358	800,000	0,045	0,092
-184,344	800,000	0,067	0,133
-183,329	13,864	0,057	0,031
-182,315	95,645	0,046	-0,037
-181,300	-200,000	-0,005	-0,065
-180,285	-23,550	0,096	-0,041
-179,271	-80,855	0,039	-0,009
-178,256	-200,000	-0,021	-0,121
-177,242	800,000	0,040	-0,097
-176,227	-200,000	0,010	0,107
-175,212	192,924	-0,077	0,083
-174,198	-200,000	0,006	-0,027
-173,183	143,099	-0,117	-0,111
-172,169	-200,000	-0,015	-0,151
-171,154	72,874	-0,021	0,016
-170,139	434,913	0,045	0,070
-169,125	572,560	-0,035	0,061
-168,110	24,259	0,043	0,025
-167,096	-67,327	0,117	-0,032
-166,081	-17,900	-0,076	0,034
-165,066	193,899	-0,022	-0,024
-164,052	-43,214	0,095	0,034
-163,037	3,324	0,153	-0,079
-162,023	-200,000	-0,011	-0,075
-161,008	800,000	0,045	0,094
-159,993	-200,000	0,010	-0,108
-158,979	-200,000	0,001	0,032
-157,964	-200,000	-0,004	-0,021
-156,950	58,030	0,063	-0,044
-155,935	25,918	0,040	-0,024
-154,920	-46,941	0,034	-0,012
-153,906	-200,000	0,004	0,070
-152,891	-143,163	-0,075	0,005
-151,877	-113,640	-0,171	-0,024
-150,862	-44,390	-0,103	0,037
-149,847	800,000	-0,036	0,075
-148,833	239,428	-0,033	0,039
-147,818	544,627	0,038	-0,065
-146,804	-46,328	0,080	-0,028
-145,789	800,000	-0,031	0,076
-144,775	800,000	-0,005	-0,013
-143,760	-107,999	-0,140	-0,021
-142,745	-94,068	-0,126	0,024
-141,731	132,345	-0,013	0,012
-140,716	-81,052	0,077	0,018
-139,702	188,873	0,059	-0,063
-138,687	165,214	0,120	-0,121
-137,672	-96,784	-0,088	0,016
-136,658	-102,455	-0,108	0,018
-135,643	139,939	-0,098	-0,092
-134,629	-200,000	0,030	-0,100
-133,614	800,000	0,103	0,229
-132,599	800,000	-0,014	0,032
-131,585	-49,462	0,162	-0,055
-130,570	-9,119	-0,088	0,042
-129,556	-93,286	-0,142	-0,028
-128,541	-200,000	0,017	0,132
-127,526	233,854	-0,016	0,019
-126,512	800,000	-0,020	-0,052
-125,497	751,516	0,066	0,127
-124,483	35,022	0,109	0,068
-123,468	369,201	0,074	0,106
-122,453	66,437	0,060	-0,043
-121,439	800,000	0,030	-0,091
-120,424	532,972	-0,055	-0,093
-119,410	-55,273	0,049	-0,016
-118,395	-37,301	0,096	0,036
-117,380	-200,000	0,005	0,016
-116,366	-57,993	-0,090	0,028
-115,351	-200,000	0,032	0,143
-114,337	123,135	-0,079	-0,070
-113,322	800,000	-0,020	0,044
-112,307	-10,137	0,058	-0,027
-111,293	-62,687	-0,087	0,025
-110,278	800,000	0,078	0,167
-109,264	800,000	0,023	-0,055
-108,249	-32,560	-0,075	0,030
-107,234	-68,800	-0,078	-0,021
-106,220	800,000	0,021	-0,043
-105,205	-21,233	-0,067	-0,029
-104,191	-120,358	-0,060	-0,007
-103,176	-66,473	-0,027	-0,008
-102,162	-200,000	-0,010	0,080
-101,147	-200,000	-0,004	-0,047
-100,132	234,108	-0,029	-0,034
-99,118	-106,627	0,130	-0,020
-98,103	207,730	-0,046	0,051
-97,089	62,952	0,097	0,069
-96,074	-134,035	-0,135	0,012
-95,059	81,712	-0,060	0,046
-94,045	-181,150	0,110	0,002
-93,030	246,258	-0,084	-0,101
-92,016	-94,246	-0,077	-0,015
-91,001	-200,000	-0,034	0,109
-89,986	800,000	0,042	0,118
-88,972	800,000	0,028	0,058
-87,957	86,523	-0,069	0,054
-86,943	46,696	-0,113	-0,074
-85,928	-0,284	-0,094	-0,047
-84,913	102,132	-0,038	0,031
-83,899	-147,997	0,126	-0,007
-82,884	-151,795	0,049	0,003
-81,870	800,000	-0,028	-0,056
-80,855	-87,829	-0,148	-0,031
-79,840	132,798	-0,042	0,039
-78,826	-6,609	-0,106	0,051
-77,811	168,867	0,044	0,044
-76,797	-172,957	0,059	-0,001
-75,782	-80,355	0,069	-0,016
-74,767	47,953	0,181	0,120
-73,753	21,813	0,083	0,048
-72,738	-200,000	0,014	0,167
-71,724	-200,000	-0,005	0,047
-70,709	-43,486	0,117	0,042
-69,694	39,576	-0,106	-0,067
-68,680	136,222	-0,057	-0,053
-67,665	314,440	-0,040	-0,054
-66,651	531,747	0,077	0,129
-65,636	800,000	0,068	0,186
-64,622	-200,000	-0,012	-0,112
-63,607	-200,000	-0,002	-0,033
-62,592	369,904	0,064	-0,092
-61,578	135,662	0,037	0,034
-60,563	-200,000	0,002	0,104
-59,549	-200,000	0,009	0,106
-58,534	7,557	-1,410	-0,745
-57,519	310,422	-1,561	-2,076
-56,505	-200,000	-0,616	-4,540
-55,490	135,538	0,867	0,800
-54,476	800,000	4,867	11,221
-53,461	-200,000	18,327	289,824
-52,446	800,000	727,713	2236,686
-51,432	558,186	1643,634	2820,955
-50,417	79,240	1665,252	1263,622
-49,403	22,779	1539,107	891,272
-48,388	16,777	1461,913	817,486
-47,373	17,899	1452,022	817,330
-46,359	17,318	1442,334	809,065
-45,344	15,001	1437,810	795,427
-44,330	14,963	1435,533	793,954
-43,315	14,998	1433,878	793,176
-42,300	14,997	1432,362	792,299
-41,286	15,014	1431,156	791,679
-40,271	14,989	1429,889	790,831
-39,257	15,005	1428,457	790,082
-38,242	14,995	1427,360	789,398
-37,227	15,059	1426,106	788,976
-36,213	15,001	1424,926	788,017
-35,198	15,020	1423,801	787,451
-34,184	14,980	1423,048	786,818
-33,169	14,975	1421,579	785,947
-32,154	15,046	1420,517	785,665
-31,140	15,055	1419,148	784,920
-30,125	15,038	1418,325	784,352
-29,111	15,058	1416,768	783,556
-28,096	14,992	1415,913	782,741
-27,082	14,950	1414,554	781,763
-26,067	14,947	1413,586	781,182
-25,052	14,949	1412,579	780,602
-24,038	14,933	1411,649	779,982
-23,023	14,917	1410,681	779,343
-22,009	14,906	1409,636	778,682
-20,994	14,897	1408,830	778,164
-19,979	14,906	1407,714	777,559
-18,965	14,875	1406,873	776,919
-17,950	14,879	1405,776	776,301
-16,936	14,873	1404,796	775,699
-15,921	14,836	1403,807	774,951
-14,906	14,829	1402,935	774,409
-13,892	14,884	1401,876	774,047
-12,877	14,829	1401,109	773,335
-11,863	14,848	1400,245	772,920
-10,848	14,810	1399,470	772,281
-9,833	14,846	1398,361	771,808
-8,819	14,750	1397,711	770,972
-7,804	14,775	1396,613	770,452
-6,790	14,747	1395,499	769,677
-5,775	14,759	1394,470	769,133
-4,760	14,736	1393,805	768,631
-3,746	14,734	1392,845	768,062
-2,731	14,779	1391,989	767,765
-1,717	14,740	1391,016	767,022
-0,702	14,752	1389,173	766,027
0,313	18,497	1308,325	738,803
1,327	34,688	706,375	436,423
2,342	52,849	124,691	84,314
3,356	2,491	16,678	8,525
4,371	-3,968	3,152	1,542
5,386	-61,235	0,717	0,212
6,400	469,649	-0,065	0,104
7,415	112,617	-0,290	-0,249
8,429	141,507	-0,268	-0,251
9,444	-54,748	-0,294	-0,094
10,459	188,122	-0,282	-0,299
11,473	-22,521	-0,358	-0,153
12,488	426,319	-0,149	-0,228
13,502	9,660	-0,386	-0,207
14,517	59,452	-0,250	-0,174
15,531	81,808	-0,280	-0,215
16,546	517,199	-0,175	-0,291
17,561	23,366	-0,306	-0,177
18,575	97,461	-0,281	-0,228
19,590	2,487	-0,381	-0,195
20,604	-26,826	-0,224	-0,092
21,619	132,597	-0,335	-0,306
22,634	161,697	-0,460	-0,455
23,648	40,921	-0,473	-0,301
24,663	-14,519	-0,397	-0,180
25,677	243,621	-0,255	-0,303
26,692	18,460	-0,382	-0,215
27,707	148,959	-0,317	-0,303
28,721	94,420	-0,335	-0,268
29,736	106,748	-0,343	-0,288
30,750	59,275	-0,408	-0,284
31,765	124,031	-0,332	-0,295
32,780	365,989	-0,199	-0,284
33,794	40,629	-0,415	-0,263
34,809	-76,374	-0,439	-0,108
35,823	29,126	-0,440	-0,263
36,838	90,564	-0,328	-0,259
37,853	70,380	-0,513	-0,374
38,867	91,376	-0,336	-0,266
39,882	135,239	-0,353	-0,324
40,896	119,018	-0,296	-0,258
41,911	-18,115	-0,425	-0,187
42,926	-46,098	-0,374	-0,129
43,940	54,712	-0,426	-0,289
44,955	48,773	-0,282	-0,186
45,969	47,017	-0,473	-0,310
46,984	61,978	-0,337	-0,237
47,999	30,677	-0,437	-0,263
49,013	4,642	-0,315	-0,163
50,028	-12,534	-0,399	-0,183
51,042	78,502	-0,245	-0,184
52,057	27,067	-0,349	-0,206
53,071	115,550	-0,225	-0,194
54,086	96,908	-0,209	-0,169
55,101	41,196	-0,373	-0,237
56,115	-131,185	-0,225	-0,021
57,130	-8,276	-0,296	-0,140
58,144	88,499	-0,368	-0,288
59,159	91,156	-0,348	-0,275
60,174	-13,433	-0,342	-0,156
61,188	163,518	-0,326	-0,324
62,203	13,565	-0,204	-0,111
63,217	71,528	-0,377	-0,276
64,232	-17,657	-0,336	-0,148
65,247	66,936	-0,401	-0,288
66,261	59,914	-0,350	-0,243
67,276	318,870	-0,186	-0,249
68,290	198,318	-0,248	-0,267
69,305	136,051	-0,240	-0,220
70,320	-53,177	-0,441	-0,142
71,334	172,498	-0,251	-0,254
72,349	169,907	-0,288	-0,290
73,363	4,739	-0,377	-0,195
74,378	75,030	-0,348	-0,258
75,393	273,162	-0,342	-0,426
76,407	31,676	-0,327	-0,198
77,422	-95,364	-0,268	-0,050
78,436	-126,670	-0,339	-0,035
79,451	-26,169	-0,307	-0,126
80,466	121,969	-0,158	-0,139
81,480	-12,735	-0,387	-0,177
82,495	118,742	-0,230	-0,200
83,509	-31,010	-0,346	-0,137
84,524	-71,898	-0,280	-0,073
85,539	-164,818	-0,200	0,006
86,553	-84,048	-0,276	-0,061
87,568	20,878	-0,300	-0,170
88,582	330,435	-0,256	-0,348
89,597	68,512	-0,240	-0,173
90,611	25,252	-0,270	-0,157
91,626	-200,000	-0,038	-0,278
92,641	35,270	-0,282	-0,173
93,655	98,984	-0,286	-0,232
94,670	56,142	-0,359	-0,245
95,684	47,798	-0,253	-0,165
96,699	11,140	-0,328	-0,176
97,714	12,479	-0,200	-0,108
98,728	62,044	-0,187	-0,131
99,743	34,849	-0,251	-0,154
100,757	-128,009	-0,419	-0,042
101,772	148,694	-0,222	-0,211
102,787	125,246	-0,294	-0,261
103,801	-12,539	-0,297	-0,136
104,816	222,403	-0,205	-0,232
105,830	227,418	-0,161	-0,184
106,845	66,348	-0,319	-0,227
107,860	210,509	-0,221	-0,244
108,874	51,926	-0,201	-0,134
109,889	-22,851	-0,444	-0,187
110,903	183,574	-0,294	-0,305
111,918	-16,462	-0,280	-0,124
112,933	115,544	-0,194	-0,166
113,947	62,800	-0,184	-0,129
114,962	37,388	-0,220	-0,137
115,976	151,095	-0,196	-0,187
116,991	-72,914	-0,269	-0,069
118,006	223,886	-0,087	-0,098
119,020	25,107	-0,320	-0,186
120,035	244,552	-0,150	-0,177
121,049	-54,497	-0,209	-0,066
122,064	-49,154	-0,325	-0,108
123,079	-7,459	-0,318	-0,150
124,093	15,164	-0,298	-0,163
125,108	13,882	-0,199	-0,108
126,122	44,956	-0,327	-0,210
127,137	128,567	-0,206	-0,184
128,151	-21,207	-0,231	-0,098
129,166	-139,349	-0,221	-0,016
130,181	132,469	-0,172	-0,155
131,195	-81,769	-0,242	-0,055
132,210	-2,731	-0,308	-0,150
133,224	156,143	-0,213	-0,205
134,239	276,172	-0,114	-0,143
135,254	-48,810	-0,387	-0,129
136,268	320,020	-0,114	-0,151
137,283	124,563	-0,328	-0,288
138,297	-40,671	-0,138	0,050
139,312	43,775	-0,193	-0,124
140,327	233,280	-0,233	-0,269
141,341	213,861	-0,266	-0,295
142,356	153,359	-0,223	-0,214
143,370	93,106	-0,170	-0,135
144,385	177,154	-0,243	-0,247
145,400	89,287	-0,378	-0,294
146,414	193,388	-0,242	-0,256
147,429	128,836	-0,280	-0,249
148,443	586,353	-0,159	-0,275
149,458	439,109	-0,141	-0,216
150,473	-8,175	-0,306	-0,144
151,487	-28,288	-0,258	-0,104
152,502	53,300	-0,388	-0,259
153,516	291,405	-0,242	-0,309
154,531	-151,517	-0,290	-0,015
155,546	-163,878	-0,297	0,010
156,560	456,885	-0,130	-0,202
157,575	95,346	-0,240	-0,191
158,589	64,975	-0,259	-0,183
159,604	174,114	-0,207	-0,209
160,619	-95,865	-0,197	-0,036
161,633	155,437	-0,250	-0,241
162,648	800,000	-0,173	-0,360
163,662	241,202	-0,145	-0,170
164,677	289,136	-0,131	-0,166
165,692	136,917	-0,139	-0,127
166,706	20,065	-0,348	-0,195
167,721	-94,755	-0,269	-0,051
168,735	150,216	-0,220	-0,209
169,750	319,251	-0,180	-0,238
170,764	233,780	-0,229	-0,264
171,779	-21,471	-0,136	-0,057
172,794	-162,777	-0,138	-0,005
173,808	90,425	-0,164	-0,128
174,823	108,865	-0,287	-0,239
175,837	800,000	-0,155	-0,340
176,852	270,713	-0,126	-0,155
177,867	-115,417	-0,313	-0,041
178,881	-200,000	-0,002	-0,145
179,896	264,465	-0,115	-0,140
180,910	338,774	-0,136	-0,185
181,925	689,043	-0,148	-0,272
182,940	-65,128	-0,438	-0,122
183,954	523,581	-0,147	-0,242
184,969	188,491	-0,222	-0,231
185,983	-159,044	-0,134	0,005
186,998	303,215	-0,067	-0,087
188,013	-1,303	-0,192	-0,094
189,027	16,715	-0,222	-0,122
190,042	673,448	-0,135	-0,245
191,056	629,320	-0,183	-0,323
192,071	-45,536	-0,177	-0,061
193,086	435,592	-0,080	-0,122
194,100	-42,778	-0,161	-0,057
195,115	75,839	-0,227	-0,167
196,129	210,696	-0,096	-0,106
197,144	76,023	-0,295	-0,217
198,159	460,991	-0,117	-0,182
199,173	51,350	-0,196	-0,130
200,188	466,539	-0,145	-0,228
201,202	-179,872	-0,175	-0,003
202,217	-161,503	-0,271	0,010
203,232	18,628	-0,143	-0,079
204,246	35,319	-0,157	-0,095
205,261	-105,593	-0,368	-0,058
206,275	71,084	-0,213	-0,153
207,290	215,369	-0,156	-0,173
208,304	66,066	-0,178	-0,126
209,319	-110,594	-0,239	-0,034
210,334	-106,427	-0,219	0,034
211,348	23,890	-0,289	-0,165
212,363	-42,505	-0,251	-0,088
213,377	544,204	-0,118	-0,196
214,392	-200,000	-0,093	-0,312
215,407	-11,244	-0,304	-0,139
216,421	467,241	-0,087	-0,137
217,436	800,000	-0,104	-0,260
218,450	187,258	-0,203	-0,210
219,465	90,399	-0,374	-0,290
220,480	-148,853	-0,156	-0,009
221,494	9,194	-0,087	-0,046
222,509	203,503	-0,174	-0,188
223,523	-150,799	-0,208	-0,011
224,538	-46,981	-0,288	-0,097
225,553	136,947	-0,230	-0,209
226,567	-9,131	-0,218	-0,101
227,582	137,146	-0,183	-0,166
228,596	6,652	-0,103	-0,053
229,611	-200,000	-0,047	-0,162
230,626	55,478	-0,135	-0,091
231,640	-35,139	-0,299	-0,113
232,655	24,339	-0,185	-0,106
233,669	-36,101	-0,283	-0,106
234,684	285,756	-0,125	-0,157
235,699	102,101	-0,130	-0,105
236,713	-36,584	-0,079	-0,029
237,728	-18,155	-0,204	-0,088
238,742	56,224	-0,131	-0,088
239,757	295,595	-0,205	-0,261
240,772	115,690	-0,223	-0,189
241,786	800,000	-0,093	-0,255
242,801	501,558	-0,123	-0,197
243,815	14,041	-0,119	-0,064
244,830	800,000	-0,128	-0,257
245,844	374,877	-0,174	-0,247
246,859	203,387	-0,215	-0,230
247,874	-50,117	-0,138	-0,045
248,888	38,779	-0,200	-0,123
249,903	-64,403	-0,263	0,074
250,917	-200,000	-0,084	-0,265
251,932	-13,902	-0,151	-0,067
252,947	-24,986	-0,245	-0,100
253,961	800,000	-0,034	-0,079
254,976	-44,384	-0,204	-0,070
255,990	460,624	-0,214	-0,331
257,005	57,235	-0,162	-0,109
258,020	88,350	-0,117	-0,090
259,034	305,298	-0,145	-0,187
260,049	166,386	-0,111	-0,109
261,063	41,042	-0,265	-0,165
262,078	90,372	-0,232	-0,180
263,093	-72,894	-0,233	-0,059
264,107	520,455	-0,129	-0,210
265,122	-103,124	-0,025	-0,004
266,136	-200,000	-0,053	-0,242
267,151	71,986	-0,099	-0,071
268,166	-111,507	-0,268	-0,037
269,180	-28,213	-0,209	-0,083
270,195	-63,785	-0,144	-0,040
271,209	789,677	-0,081	-0,155
272,224	-68,081	-0,198	-0,053
273,239	800,000	-0,035	-0,091
274,253	-21,634	-0,192	-0,081
275,268	-138,932	-0,238	-0,018
276,282	160,046	-0,220	-0,212
277,297	800,000	-0,096	-0,187
278,312	42,647	-0,162	-0,102
279,326	418,147	-0,185	-0,274
280,341	359,153	-0,102	-0,142
281,355	-200,000	-0,054	-0,183
282,370	206,264	-0,175	-0,188
283,384	611,744	-0,109	-0,190
284,399	-22,249	-0,167	-0,070
285,414	71,424	-0,207	-0,148
286,428	-90,809	-0,127	-0,025
287,443	95,199	0,137	-0,108
288,457	800,000	-0,088	-0,175
289,472	-88,321	-0,132	0,027
290,487	137,806	-0,133	-0,120
291,501	184,032	-0,143	-0,146
292,516	36,492	-0,240	-0,146
293,530	374,539	-0,123	-0,173
294,545	-43,565	-0,167	-0,058
295,560	104,211	-0,119	-0,096
296,574	-23,612	-0,047	-0,019
297,589	-153,684	-0,169	-0,008
298,603	425,546	-0,221	-0,329
299,618	4,638	-0,095	0,048
300,633	229,139	-0,188	-0,212
301,647	-98,355	-0,077	-0,013
302,662	269,944	-0,070	-0,085
303,676	105,932	-0,165	-0,135
304,691	24,677	-0,216	-0,123
305,706	80,684	-0,071	-0,053
306,720	167,559	-0,196	-0,193
307,735	-163,455	-0,212	-0,007
308,749	4,591	-0,202	-0,102
309,764	-200,000	-0,043	-0,170
310,779	-37,044	-0,175	-0,064
311,793	73,279	-0,109	-0,079
312,808	438,169	-0,183	-0,276
313,822	93,587	-0,141	-0,110
314,837	800,000	-0,068	-0,159
315,852	-57,151	-0,146	-0,044
316,866	800,000	-0,109	-0,212
317,881	378,557	-0,041	-0,058
318,895	800,000	-0,125	-0,274
319,910	26,931	-0,234	-0,135
320,925	-52,390	-0,225	-0,071
321,939	-29,424	-0,115	0,045
322,954	-3,777	-0,133	-0,064
323,968	367,876	-0,162	-0,226
324,983	800,000	-0,056	-0,111
325,997	186,910	-0,174	-0,179
327,012	35,571	-0,074	-0,044
328,027	28,784	-0,201	-0,117
329,041	-155,776	-0,263	0,011
330,056	-161,517	-0,112	-0,004
331,070	74,067	-0,215	-0,155
332,085	-1,205	-0,065	-0,031
333,100	-94,418	-0,166	-0,031
334,114	-110,746	-0,187	-0,026
335,129	123,674	-0,170	-0,146
336,143	44,506	-0,215	-0,135
337,158	-133,246	-0,128	0,011
338,173	387,661	-0,107	-0,153
339,187	180,519	-0,141	-0,143
340,202	-127,810	-0,148	0,014
341,216	-200,000	-0,043	-0,162
342,231	369,162	-0,147	-0,205
343,246	-47,309	-0,221	-0,073
344,260	576,557	-0,059	-0,100
345,275	-78,500	-0,114	0,027
346,289	-200,000	-0,009	0,034
347,304	333,247	-0,128	-0,170
348,319	800,000	-0,047	-0,127
349,333	20,363	-0,195	-0,108
350,348	-29,062	-0,227	-0,089
351,362	-13,066	-0,219	-0,097
352,377	-200,000	0,004	-0,079
353,392	136,686	-0,334	-0,300
354,406	-81,997	-0,132	0,029
355,421	208,373	1312,946	1411,291
356,435	160,329	1473,472	1411,798
