DTS Sentinel unit serial number:	SN410029Multiplexer serial number:	ORYXHardware model number:	OX2-SRSoftware version number:	ORYX F/W v4,00 Oryx Data Collector v3.7.2.0data status	okinstallation	B3 Nyhavnadifferential loss correction	single-endedforward channel	channel 1reverse channel	N/Adate	2023/12/02time	18:42:30forward acquisition time	300,00reverse acquisition time	0,00gamma	499,1914k internal	0,3200k external	0,3200temperature offset calibration	1,0000default loss term (dB/km)	0,3820temperature slope calibration	1,0000multiplexer offset coefficient	1,0000multiplexer slope coefficient	1,0000fibre end	0,00T internal ref (°C)	13,55T ext. ref 1 (°C)	-1,77T ext. ref 2 (°C)	-1,79length (m)	temperature (°C)	Stokes	anti-Stokes-744,400	692,832	-0,135	-0,258
-743,385	-200,000	-0,040	0,349
-742,371	-200,000	-0,038	-0,226
-741,356	800,000	0,096	0,301
-740,342	217,495	-0,161	-0,187
-739,327	-200,000	-0,009	0,399
-738,312	457,205	-0,184	-0,299
-737,298	-200,000	-0,038	0,263
-736,283	-25,497	-0,130	-0,056
-735,269	-200,000	-0,028	0,292
-734,254	8,465	-0,278	-0,152
-733,239	-35,408	-0,245	0,096
-732,225	800,000	-0,090	-0,224
-731,210	82,118	0,149	0,117
-730,196	-110,810	-0,154	-0,023
-729,181	-70,776	0,092	0,025
-728,167	-183,722	-0,087	-0,001
-727,152	-29,087	-0,073	-0,030
-726,137	-200,000	-0,027	-0,125
-725,123	350,403	-0,041	-0,059
-724,108	107,927	-0,104	-0,090
-723,094	-200,000	-0,047	-0,152
-722,079	646,704	-0,056	0,105
-721,064	-25,704	0,044	0,019
-720,050	-200,000	0,027	-0,131
-719,035	0,966	-0,010	-0,005
-718,021	-200,000	0,030	-0,140
-717,006	800,000	-0,038	-0,087
-715,991	-15,609	-0,114	-0,053
-714,977	45,338	-0,129	-0,087
-713,962	-6,704	-0,032	-0,016
-712,948	154,674	0,007	0,007
-711,933	-123,997	-0,059	-0,007
-710,918	-178,251	0,106	-0,002
-709,904	218,754	0,039	-0,046
-708,889	-54,793	-0,170	-0,056
-707,875	101,696	0,008	-0,007
-706,860	39,048	0,192	-0,125
-705,845	157,820	-0,059	-0,060
-704,831	-26,790	0,099	0,042
-703,816	512,682	0,045	-0,077
-702,802	-200,000	0,004	-0,062
-701,787	25,955	0,183	-0,110
-700,772	73,898	-0,209	-0,159
-699,758	-200,000	-0,003	0,047
-698,743	-19,114	0,103	0,046
-697,729	338,630	-0,056	-0,079
-696,714	446,378	0,027	0,043
-695,699	800,000	-0,017	0,040
-694,685	-65,742	-0,127	-0,037
-693,670	267,937	0,062	-0,078
-692,656	-200,000	0,021	-0,089
-691,641	223,159	0,091	0,107
-690,627	-200,000	-0,011	-0,037
-689,612	615,305	-0,078	0,142
-688,597	236,614	0,067	-0,080
-687,583	197,136	-0,027	0,030
-686,568	-111,091	-0,110	-0,016
-685,554	291,383	0,090	-0,119
-684,539	570,291	0,056	-0,099
-683,524	-9,300	0,031	-0,015
-682,510	561,165	0,016	-0,029
-681,495	291,856	0,052	-0,069
-680,481	-158,003	-0,065	-0,003
-679,466	-17,558	-0,101	-0,046
-678,451	471,201	0,035	-0,057
-677,437	-127,014	0,131	0,014
-676,422	-111,716	0,084	-0,012
-675,408	-200,000	-0,009	-0,052
-674,393	-200,000	0,042	-0,150
-673,378	82,287	-0,042	-0,033
-672,364	123,336	-0,111	-0,101
-671,349	-5,529	-0,044	0,022
-670,335	-115,698	-0,084	-0,011
-669,320	9,130	0,115	-0,063
-668,305	-34,504	0,054	0,021
-667,291	800,000	-0,010	-0,020
-666,276	649,230	-0,019	-0,034
-665,262	-200,000	-0,035	-0,190
-664,247	-200,000	-0,027	-0,128
-663,232	-71,138	-0,078	-0,021
-662,218	48,757	0,127	-0,086
-661,203	404,552	-0,036	-0,056
-660,189	369,796	0,036	0,052
-659,174	-92,215	-0,125	0,025
-658,159	51,026	0,063	0,043
-657,145	800,000	0,041	-0,128
-656,130	334,111	0,025	0,036
-655,116	73,580	0,054	0,041
-654,101	41,144	-0,049	-0,032
-653,086	-158,600	-0,117	0,005
-652,072	113,740	-0,031	0,027
-651,057	191,685	-0,036	0,040
-650,043	445,655	-0,116	-0,185
-649,028	800,000	0,081	-0,234
-648,014	145,706	0,035	-0,034
-646,999	-79,104	0,082	-0,020
-645,984	-200,000	-0,026	0,112
-644,970	-200,000	-0,005	-0,122
-643,955	133,181	0,084	0,078
-642,941	510,665	0,047	-0,080
-641,926	-95,462	-0,100	0,019
-640,911	-108,545	0,073	0,011
-639,897	-95,554	0,059	0,011
-638,882	-139,237	0,108	0,008
-637,868	800,000	0,019	-0,044
-636,853	218,616	-0,108	-0,125
-635,838	262,007	-0,041	-0,051
-634,824	-200,000	-0,017	-0,129
-633,809	394,704	0,051	-0,077
-632,795	337,720	0,037	0,052
-631,780	189,474	0,027	0,030
-630,765	-187,702	0,102	-0,001
-629,751	-200,000	-0,015	-0,098
-628,736	199,741	-0,107	-0,119
-627,722	-200,000	-0,003	-0,104
-626,707	-156,852	0,014	-0,001
-625,692	492,721	-0,048	-0,079
-624,678	-200,000	-0,026	-0,123
-623,663	387,725	-0,076	0,113
-622,649	142,309	-0,069	0,066
-621,634	-200,000	0,030	-0,181
-620,619	-6,474	0,077	0,038
-619,605	800,000	0,011	-0,031
-618,590	-200,000	0,029	0,106
-617,576	-200,000	-0,013	0,044
-616,561	-42,386	-0,018	-0,007
-615,546	128,546	-0,092	-0,085
-614,532	83,427	0,080	0,063
-613,517	434,680	-0,027	-0,043
-612,503	-200,000	-0,007	0,125
-611,488	800,000	0,049	0,113
-610,474	-200,000	0,020	0,117
-609,459	800,000	0,047	0,109
-608,444	167,833	-0,115	-0,118
-607,430	-200,000	0,033	-0,127
-606,415	-15,121	0,101	-0,047
-605,401	53,526	-0,054	0,038
-604,386	31,150	0,088	0,055
-603,371	82,662	0,099	0,078
-602,357	240,580	-0,022	-0,027
-601,342	-99,810	0,218	-0,039
-600,328	-200,000	0,014	-0,079
-599,313	-151,306	-0,054	-0,003
-598,298	416,329	0,063	-0,098
-597,284	800,000	0,005	0,010
-596,269	-70,415	0,141	0,038
-595,255	-200,000	-0,003	-0,160
-594,240	-134,676	-0,055	0,005
-593,225	294,566	-0,015	-0,019
-592,211	-200,000	0,021	-0,131
-591,196	-36,907	-0,080	0,031
-590,182	-1,357	-0,060	-0,030
-589,167	662,631	0,056	-0,105
-588,152	-200,000	0,007	0,108
-587,138	457,687	-0,055	0,089
-586,123	800,000	-0,037	-0,097
-585,109	-123,691	-0,180	-0,020
-584,094	-200,000	0,006	0,031
-583,079	800,000	-0,027	-0,057
-582,065	128,834	0,022	0,020
-581,050	-200,000	0,007	0,085
-580,036	800,000	0,073	-0,175
-579,021	570,268	-0,008	0,015
-578,006	-199,473	-0,081	-0,000
-576,992	117,112	-0,049	-0,044
-575,977	-176,607	-0,153	-0,003
-574,963	-200,000	0,003	-0,013
-573,948	215,600	0,029	0,033
-572,934	131,991	-0,025	0,023
-571,919	-16,724	-0,165	-0,075
-570,904	-105,549	0,075	0,012
-569,890	800,000	0,017	-0,048
-568,875	-200,000	-0,001	-0,020
-567,861	-44,568	0,137	0,049
-566,846	51,462	0,067	-0,046
-565,831	137,261	-0,034	-0,032
-564,817	-115,608	-0,079	0,011
-563,802	-66,567	-0,136	-0,039
-562,788	-200,000	0,030	-0,119
-561,773	-138,617	-0,097	-0,008
-560,758	-35,108	0,123	0,048
-559,744	-200,000	-0,011	0,056
-558,729	-200,000	-0,048	-0,194
-557,715	120,804	-0,065	0,059
-556,700	158,621	0,089	0,090
-555,685	356,996	-0,064	-0,093
-554,671	800,000	-0,028	-0,063
-553,656	546,293	0,052	0,090
-552,642	800,000	0,082	0,166
-551,627	129,866	-0,015	0,014
-550,612	100,194	-0,063	-0,053
-549,598	7,528	-0,128	-0,069
-548,583	-85,450	0,087	-0,019
-547,569	800,000	-0,038	-0,076
-546,554	9,633	0,073	0,040
-545,539	178,661	0,050	0,053
-544,525	488,022	0,115	0,191
-543,510	275,628	0,037	0,047
-542,496	-70,677	-0,085	-0,023
-541,481	-200,000	-0,016	-0,063
-540,466	183,442	0,065	-0,069
-539,452	-11,570	0,108	-0,051
-538,437	-200,000	0,024	0,132
-537,423	187,937	-0,021	0,023
-536,408	800,000	0,013	-0,027
-535,393	800,000	-0,005	-0,012
-534,379	-15,049	0,062	0,029
-533,364	-74,237	-0,090	-0,023
-532,350	-200,000	0,013	0,077
-531,335	-73,134	0,055	-0,014
-530,321	116,126	-0,053	-0,047
-529,306	-200,000	0,017	-0,057
-528,291	52,116	0,100	-0,068
-527,277	-87,549	-0,077	-0,017
-526,262	800,000	-0,101	-0,236
-525,248	2,243	0,025	0,013
-524,233	246,505	0,039	-0,048
-523,218	-21,990	-0,062	0,027
-522,204	-19,095	-0,156	-0,069
-521,189	415,089	-0,105	-0,162
-520,175	-30,044	-0,147	-0,060
-519,160	-41,941	0,059	0,022
-518,145	-14,333	-0,063	-0,029
-517,131	433,257	-0,045	0,071
-516,116	800,000	0,066	0,131
-515,102	86,047	0,020	-0,016
-514,087	-200,000	-0,025	-0,150
-513,072	-89,489	-0,029	0,006
-512,058	800,000	0,050	0,103
-511,043	103,526	-0,026	0,022
-510,029	-200,000	0,037	0,190
-509,014	419,534	-0,066	0,103
-507,999	-81,489	-0,101	-0,024
-506,985	-168,329	-0,100	0,003
-505,970	292,142	-0,067	-0,088
-504,956	800,000	-0,099	-0,220
-503,941	800,000	0,047	-0,147
-502,926	68,876	0,119	0,088
-501,912	-200,000	-0,077	0,256
-500,897	-200,000	0,019	0,148
-499,883	75,422	-0,095	-0,072
-498,868	-200,000	0,002	-0,049
-497,853	418,747	-0,050	-0,077
-496,839	131,343	0,034	-0,032
-495,824	-200,000	-0,006	-0,034
-494,810	20,215	0,081	-0,047
-493,795	304,513	0,076	0,102
-492,781	-124,787	-0,065	-0,007
-491,766	110,784	-0,106	-0,092
-490,751	130,861	0,101	-0,093
-489,737	193,390	-0,044	0,048
-488,722	254,824	0,135	-0,167
-487,708	357,910	-0,004	-0,006
-486,693	159,603	0,126	0,126
-485,678	800,000	0,085	-0,181
-484,664	800,000	-0,039	0,082
-483,649	64,097	-0,053	0,038
-482,635	-98,629	-0,063	0,011
-481,620	800,000	-0,030	0,063
-480,605	-200,000	0,033	0,112
-479,591	-200,000	-0,031	0,188
-478,576	-73,034	0,063	0,016
-477,562	-200,000	-0,027	0,092
-476,547	-143,545	-0,143	-0,010
-475,532	-200,000	-0,022	0,094
-474,518	-200,000	0,026	-0,137
-473,503	800,000	0,040	-0,081
-472,489	-9,679	0,026	-0,013
-471,474	141,195	0,034	0,033
-470,459	-200,000	0,009	0,054
-469,445	-200,000	0,038	-0,150
-468,430	-72,795	0,018	-0,005
-467,416	32,053	-0,054	-0,034
-466,401	-159,235	-0,156	0,006
-465,386	-79,373	0,095	0,023
-464,372	-88,095	0,040	0,009
-463,357	-59,726	-0,152	-0,047
-462,343	-200,000	-0,011	0,083
-461,328	340,079	0,120	0,169
-460,313	178,375	0,098	0,103
-459,299	453,010	-0,119	0,190
-458,284	222,400	0,113	0,131
-457,270	194,554	-0,033	-0,036
-456,255	-64,454	-0,090	-0,026
-455,241	227,760	-0,077	-0,090
-454,226	-71,175	0,028	-0,007
-453,211	-137,295	-0,117	0,009
-452,197	-133,941	-0,114	-0,010
-451,182	-200,000	-0,029	0,093
-450,168	541,175	-0,036	0,061
-449,153	-200,000	-0,018	0,061
-448,138	455,298	-0,065	-0,105
-447,124	243,296	-0,094	0,113
-446,109	-95,982	-0,137	0,026
-445,095	-200,000	-0,015	-0,057
-444,080	-112,224	0,147	-0,021
-443,065	760,134	0,070	-0,137
-442,051	164,721	-0,106	-0,108
-441,036	77,460	0,010	0,008
-440,022	-200,000	-0,021	0,147
-439,007	-26,245	-0,079	-0,033
-437,992	800,000	0,041	0,111
-436,978	-200,000	0,000	0,126
-435,963	-26,745	0,023	0,010
-434,949	-200,000	-0,033	0,174
-433,934	-200,000	-0,010	0,080
-432,919	91,619	-0,146	-0,118
-431,905	800,000	0,028	-0,057
-430,890	265,937	-0,034	-0,043
-429,876	800,000	-0,051	0,123
-428,861	-52,751	-0,117	0,039
-427,846	-79,853	0,099	-0,024
-426,832	447,461	-0,040	-0,063
-425,817	-120,531	-0,137	-0,016
-424,803	-56,256	0,045	0,014
-423,788	516,703	0,056	0,095
-422,773	66,985	0,026	-0,019
-421,759	800,000	0,011	0,026
-420,744	452,468	-0,041	0,065
-419,730	79,349	0,076	0,058
-418,715	81,388	0,089	-0,069
-417,701	-200,000	0,024	-0,099
-416,686	-1,997	0,054	-0,027
-415,671	103,546	0,095	0,080
-414,657	-10,754	-0,065	0,031
-413,642	-95,124	0,109	0,021
-412,628	498,651	0,033	0,055
-411,613	-200,000	0,021	-0,080
-410,598	183,799	-0,103	0,109
-409,584	-200,000	-0,024	0,084
-408,569	-4,963	0,133	0,065
-407,555	-51,525	-0,086	0,029
-406,540	331,069	0,073	0,101
-405,525	-124,638	-0,120	0,013
-404,511	-200,000	-0,026	-0,118
-403,496	79,212	0,067	-0,051
-402,482	-200,000	0,007	0,070
-401,467	-200,000	0,004	-0,112
-400,452	287,948	0,040	0,052
-399,438	165,030	0,034	-0,034
-398,423	-83,797	-0,085	-0,019
-397,409	-200,000	0,022	-0,133
-396,394	229,035	-0,045	0,052
-395,379	-84,070	-0,067	0,015
-394,365	-200,000	0,025	0,165
-393,350	-200,000	0,041	0,171
-392,336	-11,129	-0,074	0,035
-391,321	800,000	-0,059	0,146
-390,306	116,501	-0,078	0,069
-389,292	-200,000	0,031	-0,121
-388,277	-200,000	-0,002	0,031
-387,263	-24,207	-0,032	0,014
-386,248	24,433	0,197	0,116
-385,233	-200,000	0,001	0,132
-384,219	-62,182	0,003	-0,001
-383,204	680,753	-0,029	0,055
-382,190	132,856	0,024	0,022
-381,175	-89,753	0,025	-0,005
-380,160	-104,172	0,104	-0,017
-379,146	800,000	0,026	-0,054
-378,131	-200,000	0,015	0,049
-377,117	230,473	0,100	0,118
-376,102	-10,749	-0,065	0,031
-375,088	800,000	-0,030	-0,086
-374,073	295,882	0,118	0,155
-373,058	-132,752	0,092	0,008
-372,044	-63,084	0,060	-0,018
-371,029	-200,000	0,065	0,237
-370,015	-200,000	-0,027	-0,108
-369,000	-81,269	-0,157	-0,037
-367,985	-40,753	-0,138	-0,051
-366,971	778,651	0,068	0,133
-365,956	800,000	0,028	0,087
-364,942	287,237	0,074	0,096
-363,927	800,000	-0,060	0,148
-362,912	657,797	0,049	0,090
-361,898	-200,000	-0,009	-0,101
-360,883	-48,716	-0,179	-0,061
-359,869	172,273	0,023	-0,024
-358,854	87,668	0,085	-0,067
-357,839	-200,000	0,007	-0,039
-356,825	55,012	-0,131	0,091
-355,810	-200,000	0,008	0,101
-354,796	-129,684	-0,135	0,013
-353,781	-200,000	-0,017	-0,079
-352,766	800,000	-0,020	-0,063
-351,752	800,000	-0,041	0,099
-350,737	-200,000	0,072	0,000
-349,723	-161,842	-0,084	0,003
-348,708	-200,000	-0,026	-0,082
-347,693	141,345	-0,046	-0,044
-346,679	-48,697	-0,033	0,011
-345,664	-128,888	-0,073	-0,007
-344,650	424,191	-0,036	0,055
-343,635	-200,000	0,038	-0,130
-342,620	268,873	0,110	0,139
-341,606	800,000	0,030	-0,075
-340,591	114,777	-0,025	-0,022
-339,577	-200,000	-0,004	0,044
-338,562	-37,818	0,048	0,018
-337,548	-66,354	0,055	0,016
-336,533	26,952	0,035	0,021
-335,518	-114,120	-0,119	-0,016
-334,504	-5,803	-0,063	0,031
-333,489	800,000	0,026	0,064
-332,475	178,617	0,077	-0,081
-331,460	189,916	0,123	-0,132
-330,445	-82,585	0,125	-0,029
-329,431	355,592	-0,025	-0,036
-328,416	756,801	0,055	0,107
-327,402	-200,000	-0,035	-0,167
-326,387	-23,344	-0,042	0,018
-325,372	-200,000	0,022	-0,073
-324,358	800,000	-0,056	-0,128
-323,343	16,986	0,088	-0,050
-322,329	41,952	0,040	0,026
-321,314	-200,000	-0,008	0,107
-320,299	800,000	-0,044	-0,102
-319,285	239,943	0,044	-0,053
-318,270	97,415	-0,044	-0,036
-317,256	-100,565	-0,149	0,026
-316,241	-49,902	0,046	0,016
-315,226	-83,311	-0,115	0,026
-314,212	94,878	-0,061	0,049
-313,197	118,251	0,069	0,061
-312,183	472,640	0,120	0,194
-311,168	-95,195	-0,173	-0,033
-310,153	-200,000	-0,002	-0,162
-309,139	-63,021	-0,054	0,016
-308,124	211,553	0,009	0,011
-307,110	-89,423	0,093	-0,019
-306,095	37,559	0,093	-0,059
-305,080	-200,000	0,011	-0,058
-304,066	-130,516	-0,159	-0,015
-303,051	800,000	-0,080	-0,217
-302,037	-200,000	-0,021	0,076
-301,022	109,940	-0,048	0,042
-300,008	47,268	0,052	0,035
-298,993	-93,897	0,092	-0,018
-297,978	241,496	0,065	-0,078
-296,964	800,000	-0,047	0,127
-295,949	-64,395	0,060	0,017
-294,935	85,962	-0,127	-0,100
-293,920	-200,000	0,033	0,112
-292,905	-17,995	0,188	-0,084
-291,891	199,350	-0,082	0,090
-290,876	59,320	-0,084	-0,059
-289,862	32,080	-0,087	0,053
-288,847	259,084	-0,083	-0,102
-287,832	304,136	-0,040	-0,053
-286,818	74,523	0,087	0,065
-285,803	800,000	0,019	-0,055
-284,789	-200,000	0,116	0,000
-283,774	62,738	0,106	0,075
-282,759	251,011	0,105	-0,128
-281,745	-200,000	-0,007	0,025
-280,730	-52,739	-0,060	0,020
-279,716	-200,000	-0,026	0,114
-278,701	165,839	0,117	-0,119
-277,686	-42,685	0,183	0,066
-276,672	166,951	0,044	0,045
-275,657	-74,484	0,176	-0,045
-274,643	431,927	-0,047	-0,073
-273,628	-105,686	0,045	0,007
-272,613	-200,000	0,015	-0,139
-271,599	93,458	0,038	0,031
-270,584	354,635	0,082	0,117
-269,570	68,664	0,027	0,019
-268,555	-84,129	0,104	-0,023
-267,540	-101,621	0,122	0,021
-266,526	258,219	-0,058	-0,072
-265,511	-163,505	-0,128	0,004
-264,497	-67,637	0,240	-0,067
-263,482	800,000	-0,012	-0,032
-262,467	230,803	-0,098	0,115
-261,453	-200,000	-0,012	-0,093
-260,438	-200,000	0,004	0,029
-259,424	-200,000	-0,009	-0,043
-258,409	-43,469	0,028	-0,010
-257,395	-200,000	0,009	0,064
-256,380	485,153	-0,082	-0,134
-255,365	-200,000	-0,004	-0,067
-254,351	-200,000	0,034	0,120
-253,336	-200,000	0,015	-0,115
-252,322	-200,000	0,002	0,050
-251,307	82,549	0,064	-0,050
-250,292	-70,790	0,034	0,009
-249,278	-200,000	0,025	0,133
-248,263	287,233	-0,041	0,054
-247,249	-200,000	0,002	-0,026
-246,234	-179,854	0,046	-0,001
-245,219	339,887	-0,036	-0,050
-244,205	796,981	0,043	0,086
-243,190	-69,710	-0,115	0,031
-242,176	-45,016	-0,079	0,028
-241,161	552,386	0,019	0,033
-240,146	-123,922	0,056	0,006
-239,132	-70,068	-0,079	-0,021
-238,117	-200,000	0,013	-0,081
-237,103	307,848	-0,022	-0,029
-236,088	-17,505	-0,051	-0,023
-235,073	-61,655	0,063	0,019
-234,059	302,331	0,036	0,048
-233,044	83,101	-0,090	0,070
-232,030	-200,000	0,005	-0,070
-231,015	800,000	-0,035	-0,096
-230,000	46,933	0,012	0,008
-228,986	800,000	0,016	-0,049
-227,971	14,707	-0,094	-0,052
-226,957	634,519	0,022	0,041
-225,942	-121,928	0,024	0,003
-224,927	-200,000	0,007	0,057
-223,913	-66,437	-0,084	-0,024
-222,898	113,507	-0,104	-0,090
-221,884	455,380	0,008	0,013
-220,869	800,000	-0,024	-0,052
-219,855	800,000	-0,029	0,089
-218,840	-146,973	0,102	-0,006
-217,825	446,423	0,083	0,130
-216,811	285,353	-0,058	0,075
-215,796	44,660	0,182	-0,119
-214,782	-190,817	-0,137	0,001
-213,767	75,195	-0,023	-0,018
-212,752	800,000	-0,049	-0,114
-211,738	82,987	0,038	0,029
-210,723	-200,000	0,019	-0,090
-209,709	-107,709	0,095	-0,015
-208,694	-56,647	-0,172	-0,054
-207,679	800,000	-0,045	-0,133
-206,665	18,753	0,059	-0,034
-205,650	800,000	0,031	0,091
-204,636	637,655	0,016	-0,029
-203,621	800,000	0,124	-0,253
-202,606	-72,583	-0,069	0,018
-201,592	219,805	0,037	0,042
-200,577	81,269	-0,114	-0,087
-199,563	-100,240	-0,146	-0,026
-198,548	-68,323	0,066	-0,018
-197,533	132,077	0,115	0,106
-196,519	518,011	-0,074	0,124
-195,504	-30,216	0,021	-0,008
-194,490	25,322	-0,121	0,072
-193,475	-133,127	-0,070	-0,006
-192,460	-119,287	0,102	0,012
-191,446	800,000	0,020	-0,057
-190,431	173,553	0,057	0,059
-189,417	-200,000	0,013	-0,077
-188,402	66,258	-0,104	0,075
-187,387	153,238	-0,060	-0,058
-186,373	403,189	0,059	-0,089
-185,358	-123,642	0,052	0,006
-184,344	136,739	0,106	0,099
-183,329	800,000	-0,023	0,070
-182,315	-45,053	0,028	0,010
-181,300	16,084	0,038	0,021
-180,285	800,000	-0,029	0,069
-179,271	-200,000	-0,003	0,133
-178,256	-27,177	0,043	0,018
-177,242	175,378	0,113	0,117
-176,227	-200,000	0,037	0,147
-175,212	57,078	0,056	0,039
-174,198	-172,185	-0,030	0,001
-173,183	800,000	0,074	0,169
-172,169	-200,000	0,017	-0,202
-171,154	800,000	0,005	0,014
-170,139	277,698	-0,055	-0,070
-169,125	-70,420	0,036	0,010
-168,110	614,628	0,064	-0,114
-167,096	-33,836	0,083	0,032
-166,081	-200,000	0,031	-0,107
-165,066	122,448	-0,092	-0,082
-164,052	176,313	-0,093	0,096
-163,037	-118,425	0,122	0,015
-162,023	-105,366	-0,043	0,007
-161,008	-33,809	-0,077	-0,030
-159,993	-34,452	-0,051	-0,020
-158,979	310,489	0,099	0,133
-157,964	28,977	0,080	-0,048
-156,950	433,283	-0,035	-0,055
-155,935	586,161	0,027	-0,048
-154,920	-200,000	-0,003	0,034
-153,906	-200,000	0,016	0,108
-152,891	-151,003	-0,101	-0,005
-151,877	201,043	0,078	0,086
-150,862	330,207	0,034	-0,046
-149,847	800,000	-0,013	0,029
-148,833	212,241	-0,045	0,051
-147,818	-38,118	0,070	-0,026
-146,804	-47,768	0,082	0,028
-145,789	-2,718	-0,074	0,037
-144,775	358,720	-0,018	0,026
-143,760	-37,509	-0,041	-0,015
-142,745	579,186	-0,050	-0,087
-141,731	-200,000	-0,004	-0,022
-140,716	800,000	-0,012	0,036
-139,702	-200,000	0,128	-0,000
-138,687	528,541	0,048	-0,081
-137,672	-200,000	0,004	0,073
-136,658	-117,481	0,074	0,009
-135,643	-200,000	0,004	0,085
-134,629	55,161	0,081	-0,056
-133,614	-39,811	0,068	-0,025
-132,599	-200,000	-0,011	-0,107
-131,585	-68,267	0,070	-0,019
-130,570	301,825	0,108	-0,143
-129,556	-124,110	0,114	-0,012
-128,541	133,774	-0,074	-0,068
-127,526	319,940	-0,051	0,069
-126,512	127,966	0,072	-0,065
-125,497	424,584	0,058	0,089
-124,483	483,664	0,093	-0,152
-123,468	800,000	-0,034	0,083
-122,453	800,000	-0,053	-0,164
-121,439	116,027	-0,076	0,066
-120,424	-200,000	-0,008	0,041
-119,410	800,000	0,013	-0,030
-118,395	-83,119	0,049	0,011
-117,380	527,021	0,054	0,090
-116,366	-200,000	-0,004	-0,065
-115,351	135,953	-0,107	-0,099
-114,337	800,000	0,010	0,023
-113,322	44,515	-0,070	-0,046
-112,307	800,000	0,047	-0,125
-111,293	-29,425	0,084	-0,034
-110,278	800,000	0,051	0,118
-109,264	-117,858	0,149	0,019
-108,249	636,188	0,016	0,028
-107,234	-33,539	0,151	-0,059
-106,220	-200,000	0,011	-0,060
-105,205	219,945	0,060	0,068
-104,191	-200,000	0,022	0,084
-103,176	800,000	-0,055	0,114
-102,162	-200,000	0,046	0,151
-101,147	800,000	0,091	0,205
-100,132	323,353	-0,111	0,150
-99,118	-200,000	-0,005	-0,193
-98,103	800,000	0,005	0,014
-97,089	-200,000	0,018	0,151
-96,074	96,549	0,095	0,077
-95,059	200,795	0,019	0,020
-94,045	674,084	0,031	0,056
-93,030	-2,090	-0,113	-0,056
-92,016	-200,000	-0,010	0,113
-91,001	-36,905	0,079	0,030
-89,986	-200,000	0,010	-0,045
-88,972	-200,000	-0,020	0,080
-87,957	-200,000	-0,010	0,138
-86,943	-81,232	-0,100	-0,023
-85,928	-200,000	-0,040	-0,193
-84,913	-126,782	-0,104	-0,011
-83,899	35,955	0,040	-0,025
-82,884	-200,000	-0,016	0,078
-81,870	-18,313	-0,052	0,023
-80,855	81,957	0,116	-0,089
-79,840	116,051	0,091	-0,079
-78,826	33,846	-0,112	-0,069
-77,811	-200,000	-0,010	0,085
-76,797	108,062	-0,089	0,075
-75,782	199,689	0,054	-0,059
-74,767	216,542	0,098	0,111
-73,753	-78,522	0,141	0,034
-72,738	65,288	0,054	0,038
-71,724	-200,000	0,008	-0,087
-70,709	-200,000	0,005	-0,138
-69,694	800,000	0,015	0,044
-68,680	-200,000	0,002	0,006
-67,665	240,969	-0,033	-0,039
-66,651	-104,079	0,047	-0,008
-65,636	38,722	-0,013	0,008
-64,622	800,000	-0,030	-0,079
-63,607	800,000	0,019	-0,054
-62,592	-200,000	-0,014	0,082
-61,578	351,146	-0,071	0,100
-60,563	800,000	0,070	0,180
-59,549	-121,943	-0,165	0,019
-58,534	-40,085	-1,610	-0,591
-57,519	470,566	-1,352	-2,161
-56,505	-200,000	-0,621	-4,682
-55,490	250,589	0,910	1,097
-54,476	800,000	4,918	11,364
-53,461	-200,000	19,121	317,962
-52,446	-200,000	739,908	2334,854
-51,432	575,139	1655,388	2873,349
-50,417	78,595	1671,194	1263,930
-49,403	21,547	1544,042	887,203
-48,388	15,422	1466,260	812,725
-47,373	17,954	1456,401	819,469
-46,359	16,714	1446,463	807,893
-45,344	13,659	1441,729	790,584
-44,330	13,552	1439,971	789,074
-43,315	13,565	1438,030	788,043
-42,300	13,580	1436,418	787,197
-41,286	13,664	1435,129	786,861
-40,271	13,599	1433,873	785,833
-39,257	13,553	1432,814	785,001
-38,242	13,608	1431,330	784,420
-37,227	13,612	1430,286	783,833
-36,213	13,615	1428,752	782,976
-35,198	13,675	1427,573	782,586
-34,184	13,668	1426,806	782,099
-33,169	13,633	1425,358	781,109
-32,154	13,708	1424,093	780,740
-31,140	13,667	1422,945	779,887
-30,125	13,718	1421,716	779,424
-29,111	13,697	1420,743	778,760
-28,096	13,667	1419,625	777,974
-27,082	13,585	1418,618	777,004
-26,067	13,550	1417,532	776,215
-25,052	13,602	1416,398	775,806
-24,038	13,579	1415,303	775,071
-23,023	13,548	1414,318	774,351
-22,009	13,575	1413,219	773,845
-20,994	13,505	1412,674	773,191
-19,979	13,529	1411,732	772,755
-18,965	13,510	1410,822	772,139
-17,950	13,509	1409,668	771,471
-16,936	13,527	1408,660	770,974
-15,921	13,470	1407,538	770,061
-14,906	13,479	1406,854	769,700
-13,892	13,497	1405,827	769,188
-12,877	13,502	1404,781	768,612
-11,863	13,460	1404,226	768,079
-10,848	13,460	1403,314	767,549
-9,833	13,474	1402,449	767,112
-8,819	13,455	1401,442	766,443
-7,804	13,343	1400,822	765,550
-6,790	13,408	1399,355	765,023
-5,775	13,451	1398,287	764,609
-4,760	13,406	1397,527	763,954
-3,746	13,386	1396,641	763,346
-2,731	13,363	1395,823	762,761
-1,717	13,379	1394,986	762,347
-0,702	13,307	1393,234	761,028
0,313	17,240	1310,185	733,861
1,327	33,461	703,979	431,817
2,342	50,912	123,466	82,666
3,356	2,507	16,650	8,505
4,371	14,710	3,300	1,820
5,386	-52,170	0,617	0,201
6,400	-200,000	0,061	0,266
7,415	-48,495	-0,322	-0,109
8,429	5,739	-0,339	-0,177
9,444	78,846	-0,324	-0,245
10,459	1,377	-0,428	-0,217
11,473	36,638	-0,225	-0,140
12,488	-17,412	-0,299	-0,133
13,502	57,552	-0,274	-0,189
14,517	142,498	-0,337	-0,317
15,531	278,150	-0,264	-0,334
16,546	58,334	-0,350	-0,242
17,561	200,905	-0,325	-0,353
18,575	-7,280	-0,255	-0,122
19,590	175,386	-0,254	-0,261
20,604	32,482	-0,407	-0,248
21,619	24,949	-0,454	-0,265
22,634	49,410	-0,477	-0,317
23,648	48,528	-0,420	-0,277
24,663	93,924	-0,289	-0,231
25,677	66,803	-0,275	-0,197
26,692	55,237	-0,339	-0,231
27,707	97,968	-0,278	-0,226
28,721	16,046	-0,347	-0,193
29,736	60,033	-0,536	-0,374
30,750	168,924	-0,312	-0,314
31,765	187,951	-0,361	-0,381
32,780	77,130	-0,386	-0,289
33,794	-33,978	-0,370	-0,143
34,809	187,892	-0,336	-0,355
35,823	16,554	-0,388	-0,216
36,838	36,931	-0,461	-0,287
37,853	62,393	-0,431	-0,303
38,867	12,930	-0,333	-0,181
39,882	-78,143	-0,410	-0,099
40,896	259,716	-0,247	-0,301
41,911	-113,030	-0,294	-0,041
42,926	74,134	-0,316	-0,234
43,940	4,044	-0,353	-0,182
44,955	-44,720	-0,366	-0,128
45,969	101,811	-0,338	-0,278
46,984	-62,128	-0,355	-0,104
47,999	305,981	-0,272	-0,358
49,013	800,000	-0,159	-0,366
50,028	-25,205	-0,369	-0,154
51,042	288,782	-0,332	-0,425
52,057	43,706	-0,379	-0,244
53,071	208,817	-0,325	-0,359
54,086	85,278	-0,466	-0,360
55,101	165,374	-0,310	-0,309
56,115	202,233	-0,338	-0,368
57,130	489,754	-0,191	-0,309
58,144	30,258	-0,414	-0,248
59,159	234,037	-0,253	-0,294
60,174	185,674	-0,278	-0,291
61,188	20,785	-0,310	-0,176
62,203	12,245	-0,285	-0,154
63,217	102,813	-0,354	-0,291
64,232	69,590	-0,295	-0,213
65,247	364,304	-0,272	-0,386
66,261	217,067	-0,282	-0,317
67,276	91,615	-0,404	-0,319
68,290	15,766	-0,361	-0,199
69,305	35,869	-0,244	-0,151
70,320	127,575	-0,250	-0,223
71,334	26,940	-0,402	-0,236
72,349	96,491	-0,255	-0,206
73,363	170,385	-0,296	-0,298
74,378	73,465	-0,290	-0,214
75,393	2,008	-0,350	-0,177
76,407	201,147	-0,252	-0,273
77,422	-36,238	-0,370	-0,140
78,436	89,507	-0,317	-0,249
79,451	266,499	-0,202	-0,248
80,466	49,833	-0,436	-0,289
81,480	47,339	-0,294	-0,192
82,495	9,842	-0,361	-0,192
83,509	242,350	-0,231	-0,272
84,524	61,236	-0,327	-0,228
85,539	92,458	-0,186	-0,147
86,553	106,705	-0,246	-0,205
87,568	-18,382	-0,262	-0,115
88,582	-7,780	-0,294	-0,139
89,597	-113,538	-0,325	-0,044
90,611	-82,744	-0,150	-0,034
91,626	17,746	-0,312	-0,174
92,641	-7,880	-0,364	-0,172
93,655	396,373	-0,164	-0,241
94,670	66,420	-0,398	-0,284
95,684	90,684	-0,311	-0,244
96,699	85,538	-0,346	-0,266
97,714	154,284	-0,303	-0,292
98,728	357,813	-0,147	-0,207
99,743	22,667	-0,192	-0,110
100,757	107,648	-0,278	-0,232
101,772	83,025	-0,312	-0,238
102,787	73,653	-0,269	-0,197
103,801	-67,515	-0,234	-0,064
104,816	74,299	-0,315	-0,232
105,830	9,048	-0,143	-0,075
106,845	198,788	-0,171	-0,184
107,860	376,229	-0,194	-0,279
108,874	137,529	-0,248	-0,228
109,889	114,770	-0,296	-0,253
110,903	83,452	-0,248	-0,189
111,918	-3,058	-0,340	-0,166
112,933	273,938	-0,238	-0,296
113,947	-31,088	-0,259	-0,102
114,962	50,478	-0,276	-0,182
115,976	195,157	-0,192	-0,204
116,991	67,668	-0,204	-0,146
118,006	77,510	-0,280	-0,208
119,020	-79,679	-0,309	-0,072
120,035	230,281	-0,184	-0,211
121,049	20,227	-0,273	-0,154
122,064	-60,733	-0,256	-0,075
123,079	-117,131	-0,194	-0,024
124,093	-6,012	-0,308	-0,147
125,108	192,329	-0,187	-0,197
126,122	434,640	-0,152	-0,232
127,137	-120,599	-0,277	-0,032
128,151	-10,357	-0,209	-0,096
129,166	800,000	-0,150	-0,291
130,181	301,474	-0,184	-0,238
131,195	-78,082	-0,315	-0,075
132,210	131,535	-0,386	-0,348
133,224	7,386	-0,295	-0,154
134,239	68,053	-0,220	-0,158
135,254	198,365	-0,211	-0,226
136,268	83,048	-0,264	-0,201
137,283	45,629	-0,310	-0,200
138,297	316,171	-0,196	-0,259
139,312	32,805	-0,227	-0,137
140,327	73,607	-0,285	-0,209
141,341	-2,582	-0,379	-0,185
142,356	74,460	-0,252	-0,185
143,370	-82,742	-0,320	-0,072
144,385	117,786	-0,252	-0,217
145,400	-73,719	-0,211	-0,053
146,414	45,297	-0,240	-0,154
147,429	28,440	-0,250	-0,147
148,443	-116,665	-0,282	-0,036
149,458	30,774	-0,283	-0,169
150,473	260,739	-0,124	-0,150
151,487	-3,546	-0,177	-0,086
152,502	-119,309	-0,218	-0,026
153,516	8,000	-0,239	-0,125
154,531	478,588	-0,212	-0,336
155,546	55,387	-0,344	-0,232
156,560	193,632	-0,244	-0,258
157,575	115,721	-0,158	-0,135
158,589	634,257	-0,113	-0,202
159,604	-7,397	-0,372	-0,175
160,619	94,399	-0,209	-0,166
161,633	64,800	-0,207	-0,145
162,648	39,358	-0,225	-0,141
163,662	45,748	-0,221	-0,142
164,677	-8,925	-0,235	-0,109
165,692	17,063	-0,154	-0,085
166,706	25,935	-0,365	-0,212
167,721	39,744	-0,239	-0,149
168,735	185,896	-0,178	-0,184
169,750	42,446	-0,250	-0,158
170,764	-29,561	-0,194	-0,077
171,779	31,161	-0,146	-0,087
172,794	-21,088	-0,240	-0,102
173,808	-65,168	-0,199	-0,056
174,823	50,815	-0,278	-0,184
175,837	179,304	-0,274	-0,279
176,852	67,580	-0,224	-0,159
177,867	-51,971	-0,350	-0,113
178,881	430,640	-0,132	-0,200
179,896	-200,000	-0,035	-0,150
180,910	12,046	-0,159	-0,085
181,925	431,735	-0,241	-0,366
182,940	373,145	-0,195	-0,277
183,954	86,441	-0,269	-0,206
184,969	203,600	-0,220	-0,237
185,983	68,959	-0,215	-0,154
186,998	-53,144	-0,244	-0,078
188,013	87,091	-0,133	-0,102
189,027	62,841	-0,276	-0,192
190,042	-28,751	-0,220	-0,088
191,056	286,305	-0,219	-0,276
192,071	-6,730	-0,177	-0,083
193,086	62,791	-0,133	-0,092
194,100	99,973	-0,198	-0,160
195,115	70,279	-0,137	-0,098
196,129	-34,829	-0,318	-0,120
197,144	152,186	-0,208	-0,198
198,159	496,025	-0,096	-0,154
199,173	267,895	-0,215	-0,262
200,188	15,570	-0,233	-0,127
201,202	87,599	-0,200	-0,154
202,217	107,581	-0,172	-0,142
203,232	193,718	-0,141	-0,149
204,246	800,000	-0,109	-0,255
205,261	73,819	-0,207	-0,151
206,275	392,590	-0,123	-0,178
207,290	87,606	-0,166	-0,128
208,304	210,412	-0,135	-0,147
209,319	-87,208	-0,105	0,022
210,334	800,000	-0,107	-0,299
211,348	14,700	-0,291	-0,157
212,363	-11,515	-0,195	-0,089
213,377	-75,872	-0,231	-0,056
214,392	180,590	-0,143	-0,146
215,407	379,840	-0,109	-0,156
216,421	98,995	-0,247	-0,198
217,436	190,096	-0,179	-0,186
218,450	35,805	-0,160	-0,097
219,465	343,856	-0,153	-0,209
220,480	-137,483	-0,213	-0,016
221,494	-42,079	-0,191	-0,067
222,509	43,319	-0,151	-0,096
223,523	-72,090	-0,193	-0,049
224,538	89,877	-0,188	-0,146
225,553	395,363	-0,209	-0,304
226,567	107,468	-0,221	-0,182
227,582	414,409	-0,206	-0,306
228,596	15,013	-0,162	-0,088
229,611	8,476	-0,177	-0,092
230,626	27,586	-0,173	-0,101
231,640	105,525	-0,171	-0,140
232,655	-1,039	-0,336	-0,164
233,669	57,639	-0,196	-0,132
234,684	401,194	-0,167	-0,244
235,699	-46,613	-0,261	-0,088
236,713	-98,950	-0,116	0,020
237,728	-20,076	-0,200	-0,085
238,742	160,264	-0,154	-0,149
239,757	800,000	-0,104	-0,271
240,772	795,195	-0,128	-0,245
241,786	440,778	-0,199	-0,303
242,801	-105,937	-0,086	-0,013
243,815	-30,187	-0,237	-0,093
244,830	-86,820	-0,194	-0,041
245,844	480,816	-0,143	-0,226
246,859	101,426	-0,145	-0,117
247,874	497,735	-0,148	-0,237
248,888	84,926	-0,250	-0,190
249,903	303,854	-0,127	-0,164
250,917	175,988	0,011	-0,011
251,932	-200,000	-0,035	-0,182
252,947	-8,015	-0,176	-0,082
253,961	225,323	-0,193	-0,217
254,976	113,719	-0,221	-0,186
255,990	195,341	-0,116	-0,122
257,005	-102,800	-0,173	-0,028
258,020	-200,000	-0,020	-0,197
259,034	281,435	-0,126	-0,157
260,049	800,000	-0,013	-0,030
261,063	165,927	-0,190	-0,187
262,078	-43,428	-0,201	-0,070
263,093	800,000	-0,114	-0,255
264,107	800,000	-0,086	-0,206
265,122	618,506	-0,143	-0,249
266,136	108,944	-0,096	-0,079
267,151	216,198	-0,094	-0,103
268,166	-128,312	-0,207	-0,020
269,180	312,721	-0,147	-0,192
270,195	118,361	-0,221	-0,189
271,209	263,999	-0,144	-0,173
272,224	800,000	-0,035	-0,090
273,239	215,889	-0,176	-0,193
274,253	-46,528	-0,148	-0,050
275,268	327,417	-0,166	-0,221
276,282	-93,603	-0,244	-0,046
277,297	119,598	-0,166	-0,142
278,312	17,194	-0,133	-0,073
279,326	155,820	-0,129	-0,123
280,341	84,266	-0,216	-0,163
281,355	-189,925	-0,222	0,002
282,370	95,133	-0,194	-0,152
283,384	95,195	-0,280	-0,220
284,399	150,871	-0,154	-0,145
285,414	476,678	-0,172	-0,270
286,428	15,320	-0,177	-0,096
287,443	-200,000	0,005	-0,144
288,457	191,042	-0,207	-0,216
289,472	-34,519	-0,188	-0,071
290,487	-52,422	-0,241	-0,077
291,501	-100,964	-0,204	-0,034
292,516	-200,000	-0,070	-0,239
293,530	256,885	-0,154	-0,183
294,545	291,863	-0,071	-0,089
295,560	-80,707	-0,097	0,022
296,574	63,103	-0,077	0,053
297,589	441,831	-0,184	-0,278
298,603	-47,235	-0,290	-0,097
299,618	253,510	-0,071	-0,084
300,633	-89,947	-0,175	-0,035
301,647	570,789	-0,088	-0,148
302,662	55,167	-0,117	-0,078
303,676	215,413	-0,182	-0,199
304,691	-46,226	-0,201	-0,068
305,706	538,619	-0,183	-0,300
306,720	679,238	-0,109	-0,196
307,735	75,250	-0,142	-0,103
308,749	154,576	-0,159	-0,150
309,764	-34,682	-0,161	-0,061
310,779	-65,231	-0,162	0,045
311,793	101,871	-0,190	-0,153
312,808	-10,147	-0,264	-0,120
313,822	388,514	-0,150	-0,215
314,837	-200,000	-0,012	-0,048
315,852	-200,000	-0,011	-0,222
316,866	-200,000	0,026	-0,121
317,881	646,562	-0,126	-0,222
318,895	507,556	-0,142	-0,228
319,910	219,058	-0,159	-0,175
320,925	147,773	-0,160	-0,148
321,939	-135,249	-0,070	-0,006
322,954	201,011	-0,154	-0,164
323,968	-67,707	-0,132	-0,035
324,983	800,000	-0,017	-0,050
325,997	39,438	-0,162	-0,100
327,012	103,729	-0,050	-0,041
328,027	-78,148	-0,266	-0,062
329,041	800,000	-0,055	-0,121
330,056	-31,703	-0,237	0,091
331,070	-200,000	-0,002	0,019
332,085	7,264	-0,189	0,097
333,100	-55,397	-0,124	-0,038
334,114	-77,116	-0,210	-0,050
335,129	-21,679	-0,136	-0,057
336,143	87,317	-0,137	-0,104
337,158	-19,018	-0,105	-0,045
338,173	412,481	-0,085	-0,124
339,187	243,174	-0,080	-0,092
340,202	17,697	-0,139	-0,076
341,216	565,097	-0,090	-0,150
342,231	-37,664	-0,167	-0,061
343,246	-76,535	-0,138	-0,033
344,260	16,708	-0,123	-0,066
345,275	-79,400	-0,164	-0,038
346,289	-38,031	-0,172	-0,062
347,304	-200,000	-0,026	-0,191
348,319	144,755	-0,105	-0,096
349,333	71,578	-0,282	-0,201
350,348	-200,000	-0,076	-0,288
351,362	800,000	-0,044	-0,124
352,377	316,847	-0,107	-0,139
353,392	-33,292	-0,166	0,063
354,406	378,386	-0,115	-0,162
355,421	209,929	1312,519	1414,528
356,435	161,591	1472,972	1415,022
