DTS Sentinel unit serial number:	SN410029Multiplexer serial number:	ORYXHardware model number:	OX2-SRSoftware version number:	ORYX F/W v4,00 Oryx Data Collector v3.7.2.0data status	okinstallation	B3 Nyhavnadifferential loss correction	single-endedforward channel	channel 1reverse channel	N/Adate	2023/11/29time	16:17:30forward acquisition time	300,00reverse acquisition time	0,00gamma	499,1914k internal	0,3209k external	0,3209temperature offset calibration	1,0000default loss term (dB/km)	0,3820temperature slope calibration	1,0000multiplexer offset coefficient	1,0000multiplexer slope coefficient	1,0000fibre end	0,00T internal ref (°C)	11,44T ext. ref 1 (°C)	-3,57T ext. ref 2 (°C)	-3,71length (m)	temperature (°C)	Stokes	anti-Stokes-744,400	295,941	-0,312	-0,416
-743,385	800,000	0,086	0,262
-742,371	-200,000	-0,100	-0,335
-741,356	-200,000	0,029	0,236
-740,342	-37,841	-0,102	-0,039
-739,327	-200,000	0,009	0,291
-738,312	700,256	-0,167	-0,321
-737,298	-200,000	-0,078	0,437
-736,283	10,425	-0,301	-0,166
-735,269	-200,000	0,044	0,290
-734,254	393,894	-0,091	-0,138
-733,239	157,514	-0,245	0,246
-732,225	-200,000	-0,040	-0,184
-731,210	4,199	0,097	-0,052
-730,196	-35,455	0,019	0,007
-729,181	-88,174	-0,061	-0,013
-728,167	-131,677	-0,193	-0,018
-727,152	-184,497	0,173	0,002
-726,137	78,875	-0,074	-0,058
-725,123	680,329	-0,038	-0,072
-724,108	-200,000	-0,030	-0,131
-723,094	-69,987	-0,091	-0,025
-722,079	-200,000	-0,003	-0,088
-721,064	-15,465	-0,063	0,029
-720,050	472,072	0,055	-0,091
-719,035	-92,140	0,093	-0,019
-718,021	541,233	-0,050	-0,086
-717,006	800,000	-0,055	-0,116
-715,991	-200,000	0,003	-0,234
-714,977	-82,588	-0,038	-0,009
-713,962	800,000	-0,022	-0,061
-712,948	357,766	0,040	0,057
-711,933	545,813	-0,030	-0,052
-710,918	540,903	0,027	0,046
-709,904	77,585	-0,184	-0,142
-708,889	42,564	0,080	-0,052
-707,875	302,095	-0,085	-0,114
-706,860	258,644	0,064	-0,080
-705,845	190,311	0,043	0,046
-704,831	60,065	0,096	-0,069
-703,816	638,402	-0,047	-0,087
-702,802	-200,000	0,007	-0,099
-701,787	155,542	-0,078	-0,078
-700,772	245,238	-0,020	-0,024
-699,758	-124,959	0,031	-0,003
-698,743	800,000	0,027	0,065
-697,729	-148,419	-0,060	0,004
-696,714	-8,998	-0,009	0,005
-695,699	156,002	-0,043	-0,043
-694,685	-200,000	0,009	-0,099
-693,670	-200,000	0,014	-0,261
-692,656	800,000	0,040	-0,086
-691,641	-103,530	0,117	-0,020
-690,627	-74,303	0,064	0,017
-689,612	800,000	0,011	-0,034
-688,597	-200,000	0,013	-0,046
-687,583	800,000	-0,011	-0,036
-686,568	324,488	-0,018	-0,025
-685,554	38,024	-0,124	-0,080
-684,539	800,000	0,065	0,148
-683,524	-127,288	0,033	-0,003
-682,510	304,914	0,050	0,067
-681,495	116,508	-0,020	-0,017
-680,481	633,546	0,043	-0,078
-679,466	197,179	-0,112	-0,124
-678,451	-81,625	0,055	0,013
-677,437	-44,058	0,100	0,036
-676,422	248,336	-0,016	0,020
-675,408	-200,000	0,031	-0,135
-674,393	-200,000	0,067	-0,237
-673,378	396,182	-0,072	-0,109
-672,364	-175,483	-0,097	0,002
-671,349	285,373	-0,058	-0,076
-670,335	-116,364	-0,110	-0,015
-669,320	-200,000	-0,006	0,049
-668,305	360,518	0,113	0,164
-667,291	-41,991	0,134	0,050
-666,276	-15,556	-0,069	0,032
-665,262	-148,860	-0,117	0,007
-664,247	800,000	0,002	0,006
-663,232	-200,000	0,036	0,126
-662,218	257,785	-0,027	0,033
-661,203	-159,608	-0,070	0,003
-660,189	-200,000	-0,014	0,084
-659,174	-91,523	-0,071	0,015
-658,159	132,397	0,099	-0,092
-657,145	282,210	-0,130	-0,169
-656,130	-118,492	0,029	0,004
-655,116	-200,000	0,004	0,049
-654,101	243,065	-0,016	0,019
-653,086	230,120	-0,092	0,109
-652,072	315,225	-0,087	0,119
-651,057	-200,000	0,006	0,028
-650,043	-200,000	0,039	-0,142
-649,028	-200,000	0,029	-0,100
-648,014	-39,559	0,065	0,024
-646,999	338,965	-0,014	-0,019
-645,984	241,148	-0,027	-0,033
-644,970	7,971	-0,099	-0,054
-643,955	30,498	-0,061	-0,037
-642,941	-115,508	-0,082	-0,011
-641,926	11,332	-0,082	-0,045
-640,911	-6,894	-0,101	0,049
-639,897	636,853	0,084	0,156
-638,882	800,000	-0,017	0,039
-637,868	363,141	0,074	-0,108
-636,853	154,759	0,010	-0,010
-635,838	656,501	-0,112	-0,209
-634,824	-200,000	0,024	-0,248
-633,809	800,000	0,035	0,088
-632,795	52,787	0,054	-0,037
-631,780	-200,000	0,013	0,048
-630,765	800,000	-0,012	-0,032
-629,751	-14,655	0,043	-0,020
-628,736	88,639	-0,045	-0,036
-627,722	-91,713	-0,043	0,009
-626,707	-120,008	0,106	-0,013
-625,692	80,902	-0,025	0,019
-624,678	263,837	-0,063	-0,079
-623,663	-200,000	0,029	-0,171
-622,649	-145,615	-0,113	0,007
-621,634	-200,000	-0,044	-0,194
-620,619	-200,000	-0,074	0,000
-619,605	378,600	-0,037	0,055
-618,590	800,000	-0,005	-0,013
-617,576	-140,156	0,082	-0,006
-616,561	-159,756	-0,162	0,006
-615,546	500,668	-0,070	-0,118
-614,532	-9,390	-0,076	-0,037
-613,517	-200,000	0,017	0,063
-612,503	624,485	-0,035	-0,064
-611,488	186,810	0,101	-0,108
-610,474	-200,000	0,026	0,086
-609,459	-92,441	-0,020	0,004
-608,444	-20,538	0,066	0,029
-607,430	800,000	-0,058	0,147
-606,415	254,640	-0,074	-0,091
-605,401	800,000	-0,023	-0,068
-604,386	-163,411	0,072	0,002
-603,371	741,630	-0,030	-0,059
-602,357	-200,000	-0,019	0,089
-601,342	-36,934	-0,128	-0,049
-600,328	43,242	-0,029	0,019
-599,313	90,348	-0,056	-0,046
-598,298	-158,972	-0,106	0,004
-597,284	484,987	0,044	-0,073
-596,269	-103,742	0,054	0,009
-595,255	192,501	0,065	0,070
-594,240	70,617	-0,093	0,069
-593,225	55,715	-0,176	-0,123
-592,211	-53,691	0,016	-0,005
-591,196	61,295	0,038	-0,027
-590,182	800,000	0,055	0,144
-589,167	138,469	-0,084	0,080
-588,152	290,996	-0,053	0,069
-587,138	325,339	0,021	0,029
-586,123	43,280	-0,086	0,057
-585,109	-200,000	-0,001	-0,018
-584,094	-130,769	-0,131	-0,012
-583,079	-57,127	0,050	0,016
-582,065	-200,000	-0,011	-0,095
-581,050	800,000	0,026	0,062
-580,036	418,342	0,044	-0,068
-579,021	-90,016	-0,079	0,017
-578,006	-107,491	-0,138	0,022
-576,992	-129,873	0,132	-0,013
-575,977	487,826	0,005	-0,009
-574,963	750,452	-0,085	0,165
-573,948	-49,260	-0,103	0,035
-572,934	-200,000	0,015	-0,058
-571,919	-98,396	-0,169	-0,031
-570,904	217,403	0,037	0,043
-569,890	60,528	-0,119	-0,084
-568,875	-113,459	0,101	0,014
-567,861	-200,000	0,011	0,196
-566,846	800,000	-0,056	0,138
-565,831	-67,938	0,019	0,005
-564,817	168,288	0,028	0,029
-563,802	-200,000	-0,046	-0,158
-562,788	296,223	-0,047	-0,062
-561,773	-96,594	-0,012	0,002
-560,758	-20,059	0,115	-0,051
-559,744	-200,000	0,025	0,091
-558,729	47,092	0,121	-0,081
-557,715	112,174	-0,080	-0,069
-556,700	25,528	-0,037	-0,022
-555,685	167,505	-0,109	-0,112
-554,671	-53,877	0,022	0,007
-553,656	-200,000	-0,024	-0,087
-552,642	473,292	-0,053	-0,086
-551,627	-136,715	0,076	-0,006
-550,612	-35,801	-0,137	0,053
-549,598	442,939	-0,043	-0,068
-548,583	-200,000	-0,010	0,105
-547,569	336,728	0,054	-0,076
-546,554	-129,966	-0,025	0,002
-545,539	165,445	0,049	0,050
-544,525	14,938	0,033	0,018
-543,510	290,946	-0,131	0,172
-542,496	-200,000	0,003	0,051
-541,481	347,770	-0,051	0,072
-540,466	-122,719	0,042	0,005
-539,452	-105,675	0,051	-0,008
-538,437	-45,912	0,119	0,042
-537,423	800,000	0,033	-0,098
-536,408	337,645	0,051	-0,071
-535,393	31,193	0,035	-0,021
-534,379	-200,000	-0,023	-0,101
-533,364	402,001	0,031	0,046
-532,350	800,000	0,013	0,031
-531,335	393,532	-0,051	0,077
-530,321	-73,091	-0,033	0,009
-529,306	-62,693	-0,059	0,017
-528,291	203,365	0,043	-0,048
-527,277	-200,000	0,008	-0,065
-526,262	-200,000	0,014	0,077
-525,248	-88,565	0,025	0,005
-524,233	335,461	-0,041	0,057
-523,218	-11,024	0,222	0,105
-522,204	-73,188	-0,095	0,025
-521,189	187,463	0,022	0,024
-520,175	211,509	-0,035	-0,039
-519,160	-30,383	0,132	0,054
-518,145	-20,735	0,164	0,072
-517,131	800,000	0,009	-0,030
-516,116	-25,388	-0,094	0,040
-515,102	47,705	-0,053	-0,035
-514,087	-64,329	0,098	-0,028
-513,072	220,400	-0,127	-0,146
-512,058	-200,000	0,020	-0,124
-511,043	5,011	-0,051	-0,027
-510,029	-120,723	0,118	-0,014
-509,014	659,231	0,061	0,113
-507,999	176,970	-0,036	0,038
-506,985	-200,000	0,004	0,032
-505,970	-74,129	0,114	-0,029
-504,956	-200,000	-0,003	0,150
-503,941	50,741	-0,050	-0,034
-502,926	800,000	0,022	-0,052
-501,912	1,275	0,075	0,039
-500,897	215,816	0,067	-0,077
-499,883	-200,000	0,003	-0,062
-498,868	26,519	0,109	0,065
-497,853	167,341	0,082	-0,083
-496,839	-98,091	-0,173	-0,032
-495,824	230,920	-0,054	0,064
-494,810	7,511	0,095	-0,051
-493,795	-187,778	0,039	0,000
-492,781	-33,932	-0,105	-0,042
-491,766	580,399	0,026	0,046
-490,751	-69,947	-0,095	-0,026
-489,737	198,796	-0,089	0,098
-488,722	34,055	0,019	-0,012
-487,708	-41,442	0,064	0,024
-486,693	-126,544	0,055	-0,006
-485,678	496,606	0,061	0,102
-484,664	-200,000	-0,005	-0,028
-483,649	-159,957	-0,122	-0,005
-482,635	196,104	-0,080	-0,087
-481,620	-78,869	0,048	-0,012
-480,605	-200,000	0,023	0,116
-479,591	-200,000	0,011	-0,125
-478,576	-0,187	0,187	0,095
-477,562	-5,218	-0,067	0,033
-476,547	-200,000	0,034	-0,131
-475,532	-108,954	-0,081	0,012
-474,518	-77,655	-0,120	0,030
-473,503	-68,872	0,074	-0,020
-472,489	601,038	-0,049	0,088
-471,474	290,553	-0,038	-0,050
-470,459	-200,000	-0,007	0,104
-469,445	-11,904	-0,123	0,058
-468,430	-200,000	0,022	-0,102
-467,416	-200,000	0,018	0,066
-466,401	317,823	0,019	0,026
-465,386	800,000	0,062	0,141
-464,372	569,885	-0,059	0,104
-463,357	-26,754	-0,031	0,013
-462,343	-33,106	-0,045	0,018
-461,328	-70,414	-0,032	-0,009
-460,313	-200,000	-0,007	0,107
-459,299	-200,000	-0,011	0,097
-458,284	570,687	0,033	-0,058
-457,270	108,805	0,034	-0,029
-456,255	310,991	-0,025	-0,034
-455,241	-176,917	-0,039	0,001
-454,226	118,593	-0,080	-0,071
-453,211	275,464	0,018	-0,023
-452,197	-200,000	-0,015	0,086
-451,182	178,207	0,043	0,045
-450,168	-200,000	0,004	0,115
-449,153	372,679	-0,048	-0,070
-448,138	514,893	-0,052	0,087
-447,124	-200,000	-0,046	0,151
-446,109	332,381	0,055	0,077
-445,095	-27,832	0,119	0,049
-444,080	94,772	-0,051	0,042
-443,065	367,124	-0,031	0,044
-442,051	4,299	-0,035	-0,018
-441,036	-65,655	-0,071	0,020
-440,022	633,919	-0,063	-0,115
-439,007	-200,000	-0,018	-0,075
-437,992	-200,000	0,023	0,000
-436,978	-66,701	0,143	0,040
-435,963	-200,000	0,045	-0,164
-434,949	7,619	-0,147	-0,078
-433,934	800,000	0,045	-0,105
-432,919	117,461	-0,054	-0,047
-431,905	-200,000	0,020	-0,162
-430,890	-60,891	0,081	0,024
-429,876	-7,326	0,068	0,033
-428,861	349,757	0,028	-0,040
-427,846	358,680	-0,050	0,072
-426,832	-116,644	-0,118	-0,015
-425,817	330,334	0,066	-0,091
-424,803	-65,274	0,064	0,018
-423,788	-200,000	0,004	-0,030
-422,773	-55,211	0,110	0,035
-421,759	-200,000	0,028	0,107
-420,744	800,000	-0,127	0,255
-419,730	87,960	0,032	0,026
-418,715	167,208	-0,070	0,071
-417,701	-200,000	0,010	-0,107
-416,686	800,000	-0,049	0,121
-415,671	-180,314	0,210	0,003
-414,657	57,049	-0,070	0,049
-413,642	800,000	0,069	0,143
-412,628	-200,000	-0,021	0,091
-411,613	604,793	-0,017	-0,030
-410,598	800,000	-0,037	0,082
-409,584	-66,405	-0,032	0,009
-408,569	665,121	-0,037	-0,068
-407,555	-81,104	0,259	-0,061
-406,540	442,340	-0,018	-0,028
-405,525	-200,000	0,002	0,140
-404,511	-84,843	-0,232	-0,052
-403,496	-103,402	0,053	-0,009
-402,482	750,838	0,053	-0,104
-401,467	-32,104	-0,087	-0,035
-400,452	231,024	0,076	-0,090
-399,438	607,533	-0,041	0,074
-398,423	-70,369	-0,112	0,030
-397,409	-30,881	0,019	-0,008
-396,394	115,824	0,147	-0,128
-395,379	269,612	0,137	0,172
-394,365	-200,000	0,018	0,063
-393,350	-17,672	0,168	0,075
-392,336	-200,000	0,024	0,252
-391,321	248,078	-0,046	-0,055
-390,306	800,000	-0,086	-0,213
-389,292	-77,705	0,075	-0,019
-388,277	2,908	-0,035	-0,018
-387,263	158,068	0,083	-0,082
-386,248	-111,090	0,061	0,009
-385,233	-200,000	0,022	0,072
-384,219	85,305	0,089	-0,070
-383,204	-38,911	-0,145	0,054
-382,190	-74,204	0,086	0,022
-381,175	459,410	0,006	-0,009
-380,160	5,869	0,093	-0,049
-379,146	800,000	-0,006	0,012
-378,131	800,000	-0,008	-0,021
-377,117	0,987	0,038	-0,019
-376,102	126,977	-0,112	-0,102
-375,088	800,000	-0,058	-0,116
-374,073	5,559	0,041	0,022
-373,058	-65,408	0,107	0,031
-372,044	516,210	0,057	-0,096
-371,029	-81,673	-0,039	0,009
-370,015	800,000	0,042	0,110
-369,000	13,541	0,129	-0,072
-367,985	65,610	-0,014	-0,010
-366,971	-200,000	0,001	-0,004
-365,956	165,768	0,047	-0,047
-364,942	-196,845	-0,106	0,000
-363,927	389,228	0,105	0,157
-362,912	-77,206	0,056	0,014
-361,898	800,000	0,018	0,045
-360,883	800,000	-0,034	0,103
-359,869	-139,098	-0,058	-0,004
-358,854	338,715	0,066	-0,092
-357,839	69,125	0,093	-0,068
-356,825	800,000	0,035	-0,109
-355,810	-200,000	-0,002	-0,020
-354,796	-117,399	-0,070	-0,009
-353,781	429,316	-0,042	-0,066
-352,766	-200,000	-0,016	-0,068
-351,752	300,797	0,049	-0,065
-350,737	-97,012	0,078	-0,014
-349,723	24,253	-0,143	0,084
-348,708	126,897	0,052	0,047
-347,693	-200,000	-0,003	0,051
-346,679	-33,521	-0,043	0,017
-345,664	-21,453	-0,058	-0,025
-344,650	243,179	0,051	0,061
-343,635	39,277	-0,068	0,044
-342,620	124,530	-0,110	-0,099
-341,606	179,213	-0,025	0,026
-340,591	272,478	-0,020	0,025
-339,577	-114,077	-0,098	-0,013
-338,562	-55,041	-0,088	-0,028
-337,548	2,201	0,091	0,047
-336,533	-200,000	-0,051	0,291
-335,518	-200,000	-0,012	0,100
-334,504	127,636	0,021	-0,019
-333,489	760,604	-0,057	0,111
-332,475	260,357	0,030	-0,037
-331,460	172,518	-0,076	-0,078
-330,445	-16,701	-0,050	0,022
-329,431	-18,341	0,108	-0,048
-328,416	-48,872	-0,080	0,027
-327,402	-200,000	-0,003	0,112
-326,387	-148,987	-0,135	-0,008
-325,372	-143,724	-0,249	0,017
-324,358	239,509	-0,074	-0,088
-323,343	-1,751	-0,003	0,002
-322,329	736,689	-0,056	-0,107
-321,314	26,716	0,028	-0,017
-320,299	500,159	0,041	0,067
-319,285	186,702	0,054	-0,058
-318,270	26,634	-0,054	0,032
-317,256	387,929	0,055	-0,081
-316,241	-53,668	0,068	0,022
-315,226	134,237	0,118	-0,109
-314,212	117,869	0,089	0,078
-313,197	685,078	0,058	0,109
-312,183	61,796	0,080	-0,057
-311,168	119,770	0,085	0,075
-310,153	-200,000	0,002	0,049
-309,139	-150,074	-0,077	-0,004
-308,124	-50,299	-0,086	0,029
-307,110	124,953	-0,045	0,041
-306,095	-117,254	0,017	-0,002
-305,080	-200,000	0,006	0,123
-304,066	-74,462	-0,072	0,018
-303,051	-200,000	-0,024	0,081
-302,037	182,830	-0,038	0,040
-301,022	800,000	0,072	-0,186
-300,008	-200,000	0,001	0,089
-298,993	467,510	0,090	0,144
-297,978	-82,251	0,094	-0,022
-296,964	72,309	-0,049	-0,036
-295,949	-200,000	-0,016	0,088
-294,935	-13,007	0,121	-0,056
-293,920	-95,055	0,150	0,029
-292,905	-200,000	0,001	0,087
-291,891	360,845	0,018	-0,026
-290,876	-200,000	-0,016	0,116
-289,862	230,714	0,039	-0,046
-288,847	-200,000	-0,015	0,098
-287,832	28,768	0,029	-0,018
-286,818	-29,566	-0,042	0,017
-285,803	480,467	0,030	-0,049
-284,789	114,492	0,094	-0,081
-283,774	-72,084	-0,015	0,004
-282,759	31,579	-0,136	0,083
-281,745	159,452	-0,033	-0,032
-280,730	182,891	0,041	0,043
-279,716	616,136	-0,036	0,065
-278,701	-200,000	0,005	0,122
-277,686	-34,417	0,120	0,047
-276,672	-45,874	-0,014	0,005
-275,657	416,340	0,029	-0,045
-274,643	-26,857	-0,089	-0,037
-273,628	88,286	-0,013	-0,010
-272,613	-200,000	-0,013	-0,188
-271,599	3,557	0,112	0,058
-270,584	142,863	0,068	0,064
-269,570	-29,386	0,081	-0,033
-268,555	-200,000	-0,020	-0,085
-267,540	800,000	0,055	-0,169
-266,526	-200,000	-0,009	0,031
-265,511	-200,000	-0,008	-0,036
-264,497	18,106	-0,062	0,035
-263,482	800,000	-0,040	0,088
-262,467	53,981	0,146	0,100
-261,453	345,612	0,061	0,085
-260,438	-101,849	-0,159	-0,027
-259,424	-200,000	-0,028	-0,128
-258,409	800,000	-0,059	-0,140
-257,395	-47,053	0,160	-0,055
-256,380	188,366	-0,041	0,043
-255,365	150,818	0,050	0,048
-254,351	62,384	-0,037	-0,026
-253,336	-30,606	0,002	0,001
-252,322	800,000	-0,042	-0,097
-251,307	794,649	-0,046	-0,090
-250,292	-200,000	0,024	-0,096
-249,278	38,720	0,130	0,082
-248,263	640,062	0,040	0,072
-247,249	268,558	0,049	-0,061
-246,234	-30,409	-0,135	0,054
-245,219	800,000	0,034	0,070
-244,205	59,316	-0,120	-0,084
-243,190	-117,886	0,024	-0,003
-242,176	-200,000	-0,010	0,047
-241,161	-200,000	0,011	0,072
-240,146	-131,171	0,151	0,014
-239,132	355,150	-0,005	0,007
-238,117	290,833	-0,065	-0,085
-237,103	-83,205	0,053	0,012
-236,088	102,703	0,218	-0,182
-235,073	108,999	0,103	0,088
-234,059	18,242	0,153	0,087
-233,044	523,254	-0,111	0,187
-232,030	-3,893	0,125	-0,061
-231,015	104,615	-0,025	-0,021
-230,000	-200,000	0,017	0,060
-228,986	-200,000	0,016	-0,097
-227,971	-105,159	0,026	-0,004
-226,957	-109,600	-0,030	-0,004
-225,942	781,394	-0,021	-0,041
-224,927	106,568	-0,027	0,023
-223,913	27,849	-0,118	0,070
-222,898	-18,994	-0,093	0,041
-221,884	-200,000	-0,003	-0,033
-220,869	-13,963	0,033	0,015
-219,855	-200,000	0,006	-0,121
-218,840	147,729	-0,019	-0,018
-217,825	-178,300	0,071	-0,001
-216,811	800,000	0,063	0,134
-215,796	-196,989	-0,088	-0,000
-214,782	407,351	0,012	0,018
-213,767	508,144	0,034	-0,056
-212,752	506,333	0,026	0,043
-211,738	-23,041	0,066	-0,028
-210,723	214,892	-0,014	0,016
-209,709	-200,000	-0,007	-0,157
-208,694	-63,791	-0,027	-0,008
-207,679	-53,299	-0,006	0,002
-206,665	-200,000	-0,016	-0,129
-205,650	292,752	-0,038	0,049
-204,636	437,766	0,067	0,105
-203,621	-200,000	-0,016	-0,051
-202,606	-167,616	0,080	-0,002
-201,592	18,543	-0,059	-0,033
-200,577	764,078	0,066	-0,128
-199,563	-22,233	-0,165	0,071
-198,548	-61,163	0,030	0,009
-197,533	800,000	-0,056	0,121
-196,519	358,359	-0,050	-0,071
-195,504	-59,859	0,082	0,025
-194,490	175,916	-0,060	-0,062
-193,475	-200,000	-0,024	-0,186
-192,460	252,600	-0,054	-0,065
-191,446	800,000	0,053	-0,146
-190,431	299,621	0,013	0,017
-189,417	139,063	0,077	0,072
-188,402	466,211	-0,022	0,035
-187,387	-200,000	0,018	-0,210
-186,373	280,109	-0,050	0,064
-185,358	-200,000	0,008	-0,061
-184,344	-99,690	-0,032	-0,006
-183,329	150,586	0,135	0,130
-182,315	43,695	0,053	-0,034
-181,300	-91,348	-0,048	-0,010
-180,285	91,323	0,107	-0,085
-179,271	800,000	-0,023	-0,051
-178,256	138,525	0,012	-0,011
-177,242	-40,056	0,168	0,062
-176,227	-200,000	-0,006	0,066
-175,212	522,998	-0,056	0,094
-174,198	126,190	-0,059	-0,053
-173,183	-151,462	0,116	-0,006
-172,169	-139,997	0,053	-0,004
-171,154	800,000	0,015	-0,044
-170,139	31,591	0,045	-0,027
-169,125	-200,000	0,002	0,061
-168,110	800,000	-0,059	0,134
-167,096	279,169	-0,049	-0,062
-166,081	83,781	-0,020	-0,016
-165,066	-10,354	0,064	-0,030
-164,052	-200,000	-0,030	-0,182
-163,037	146,203	-0,037	0,035
-162,023	-97,183	-0,090	0,016
-161,008	14,578	-0,061	0,034
-159,993	-43,961	-0,087	0,031
-158,979	47,734	-0,044	0,029
-157,964	-200,000	0,024	-0,088
-156,950	256,885	-0,032	0,039
-155,935	-77,578	0,057	-0,014
-154,920	297,026	-0,060	0,079
-153,906	-140,656	0,086	-0,006
-152,891	800,000	0,050	-0,148
-151,877	-200,000	0,002	0,086
-150,862	800,000	0,030	0,066
-149,847	0,639	-0,051	-0,026
-148,833	-118,530	-0,012	0,001
-147,818	327,136	0,050	0,069
-146,804	-200,000	-0,003	-0,044
-145,789	-20,571	0,079	0,034
-144,775	278,995	0,057	-0,072
-143,760	-74,221	0,139	-0,035
-142,745	260,263	-0,112	-0,137
-141,731	217,228	0,104	0,117
-140,716	506,220	-0,037	0,061
-139,702	-52,247	0,141	-0,046
-138,687	-200,000	-0,011	0,080
-137,672	-109,985	-0,030	0,004
-136,658	-200,000	-0,024	-0,108
-135,643	-26,526	-0,080	-0,033
-134,629	355,060	0,076	-0,107
-133,614	800,000	0,032	-0,086
-132,599	53,429	0,110	0,074
-131,585	175,672	-0,090	-0,092
-130,570	-17,025	-0,067	-0,030
-129,556	681,257	0,055	0,102
-128,541	800,000	-0,089	-0,223
-127,526	393,677	-0,040	0,060
-126,512	-200,000	0,030	0,116
-125,497	-36,284	0,103	0,039
-124,483	-200,000	0,014	0,111
-123,468	-92,631	0,113	-0,022
-122,453	411,558	-0,085	0,128
-121,439	-57,217	-0,075	0,023
-120,424	246,806	0,010	0,012
-119,410	-111,917	0,037	-0,005
-118,395	-200,000	-0,028	0,088
-117,380	281,948	0,071	0,090
-116,366	-155,099	0,103	-0,005
-115,351	-139,783	0,097	0,007
-114,337	-105,094	-0,042	-0,007
-113,322	-200,000	-0,027	-0,083
-112,307	-1,140	0,028	0,014
-111,293	-200,000	-0,012	0,058
-110,278	-40,252	0,080	-0,029
-109,264	-5,776	0,125	0,060
-108,249	800,000	-0,018	0,040
-107,234	-184,015	-0,042	-0,000
-106,220	-14,126	-0,120	-0,054
-105,205	-93,798	0,253	0,049
-104,191	-200,000	-0,014	-0,148
-103,176	40,368	0,062	-0,040
-102,162	626,765	0,042	-0,076
-101,147	-200,000	0,033	-0,149
-100,132	632,778	-0,077	-0,139
-99,118	83,812	0,060	-0,046
-98,103	-200,000	0,002	-0,039
-97,089	800,000	-0,012	0,035
-96,074	376,689	0,071	0,103
-95,059	-120,718	-0,080	-0,009
-94,045	625,294	0,026	-0,047
-93,030	-108,146	-0,074	-0,011
-92,016	800,000	-0,091	-0,183
-91,001	440,862	-0,036	0,055
-89,986	15,876	-0,010	-0,006
-88,972	800,000	0,032	0,077
-87,957	433,805	-0,060	0,093
-86,943	-115,013	0,043	-0,006
-85,928	69,891	0,093	0,068
-84,913	48,736	-0,087	-0,058
-83,899	800,000	-0,019	0,055
-82,884	-117,271	-0,051	-0,006
-81,870	-200,000	-0,020	-0,076
-80,855	-200,000	-0,004	-0,033
-79,840	-200,000	-0,048	-0,173
-78,826	14,165	0,080	-0,044
-77,811	-200,000	-0,037	0,000
-76,797	-165,870	0,089	0,003
-75,782	185,054	0,017	0,018
-74,767	269,153	-0,110	0,136
-73,753	-200,000	-0,011	0,054
-72,738	225,393	-0,025	-0,028
-71,724	451,919	-0,033	-0,052
-70,709	-200,000	-0,023	-0,089
-69,694	27,223	-0,098	-0,058
-68,680	-8,364	-0,022	0,011
-67,665	-200,000	0,017	-0,071
-66,651	-84,922	0,046	-0,010
-65,636	508,407	0,012	0,020
-64,622	-200,000	0,004	-0,055
-63,607	-63,855	0,019	-0,005
-62,592	537,686	-0,030	-0,050
-61,578	-45,965	-0,121	-0,042
-60,563	-76,564	-0,090	-0,022
-59,549	800,000	-0,071	0,158
-58,534	18,170	-1,914	-1,076
-57,519	387,159	-1,427	-2,090
-56,505	-200,000	-0,302	-4,231
-55,490	349,662	0,865	1,211
-54,476	800,000	5,209	11,490
-53,461	-200,000	20,200	326,260
-52,446	800,000	751,531	2309,342
-51,432	550,112	1657,361	2817,934
-50,417	74,047	1663,671	1231,642
-49,403	19,282	1537,047	869,256
-48,388	13,280	1459,503	796,368
-47,373	18,768	1450,016	817,512
-46,359	16,173	1439,614	799,262
-45,344	11,521	1435,161	774,608
-44,330	11,493	1433,143	773,352
-43,315	11,456	1431,451	772,233
-42,300	11,482	1429,609	771,335
-41,286	11,500	1428,507	770,793
-40,271	11,469	1427,309	769,972
-39,257	11,459	1425,891	769,126
-38,242	11,504	1424,617	768,619
-37,227	11,495	1423,626	768,015
-36,213	11,494	1422,335	767,284
-35,198	11,511	1421,039	766,633
-34,184	11,538	1420,271	766,314
-33,169	11,511	1418,782	765,353
-32,154	11,567	1417,583	764,939
-31,140	11,515	1416,708	764,193
-30,125	11,586	1415,355	763,770
-29,111	11,563	1414,424	763,128
-28,096	11,542	1413,262	762,371
-27,082	11,555	1411,983	761,711
-26,067	11,479	1411,099	760,850
-25,052	11,490	1409,913	760,231
-24,038	11,506	1408,904	759,732
-23,023	11,496	1407,919	759,125
-22,009	11,518	1406,644	758,507
-20,994	11,434	1405,986	757,733
-19,979	11,489	1405,216	757,544
-18,965	11,421	1404,165	756,629
-17,950	11,418	1403,362	756,154
-16,936	11,421	1402,569	755,706
-15,921	11,381	1401,446	754,888
-14,906	11,348	1400,705	754,304
-13,892	11,403	1399,487	753,875
-12,877	11,369	1398,754	753,292
-11,863	11,402	1397,774	752,889
-10,848	11,379	1397,069	752,371
-9,833	11,296	1396,100	751,434
-8,819	11,306	1395,198	750,966
-7,804	11,260	1394,275	750,226
-6,790	11,285	1393,452	749,870
-5,775	11,280	1392,349	749,225
-4,760	11,285	1391,230	748,614
-3,746	11,310	1390,328	748,212
-2,731	11,301	1389,374	747,631
-1,717	11,226	1388,884	746,991
-0,702	11,311	1386,767	746,214
0,313	15,375	1301,848	719,134
1,327	31,821	694,940	421,384
2,342	49,115	120,943	80,061
3,356	0,863	16,455	8,291
4,371	4,351	3,300	1,701
5,386	-26,082	0,775	0,320
6,400	-200,000	0,062	0,475
7,415	263,023	-0,152	-0,186
8,429	-56,123	-0,188	-0,059
9,444	57,647	-0,351	-0,242
10,459	326,004	-0,090	-0,122
11,473	-5,855	-0,262	-0,126
12,488	60,663	-0,213	-0,148
13,502	89,812	-0,241	-0,190
14,517	-30,396	-0,285	-0,113
15,531	-2,710	-0,491	-0,241
16,546	118,465	-0,339	-0,295
17,561	122,040	-0,285	-0,251
18,575	-9,585	-0,167	-0,078
19,590	-9,625	-0,403	-0,189
20,604	-123,293	-0,249	0,028
21,619	43,783	-0,448	-0,288
22,634	219,726	-0,415	-0,469
23,648	335,012	-0,358	-0,490
24,663	52,428	-0,440	-0,295
25,677	21,248	-0,367	-0,210
26,692	2,680	-0,376	-0,192
27,707	-17,249	-0,274	-0,121
28,721	106,486	-0,272	-0,227
29,736	208,798	-0,272	-0,300
30,750	82,775	-0,351	-0,268
31,765	60,924	-0,349	-0,243
32,780	106,814	-0,464	-0,388
33,794	257,482	-0,269	-0,326
34,809	82,302	-0,305	-0,233
35,823	81,607	-0,393	-0,299
36,838	47,271	-0,487	-0,318
37,853	168,667	-0,279	-0,280
38,867	167,418	-0,343	-0,343
39,882	35,007	-0,309	-0,190
40,896	55,819	-0,394	-0,269
41,911	183,565	-0,318	-0,331
42,926	97,235	-0,380	-0,307
43,940	186,038	-0,306	-0,320
44,955	564,852	-0,147	-0,252
45,969	122,115	-0,376	-0,330
46,984	240,026	-0,210	-0,246
47,999	212,471	-0,284	-0,316
49,013	152,861	-0,210	-0,202
50,028	56,435	-0,316	-0,216
51,042	-20,335	-0,286	-0,123
52,057	96,290	-0,403	-0,324
53,071	22,873	-0,404	-0,232
54,086	349,498	-0,197	-0,274
55,101	310,042	-0,322	-0,424
56,115	170,716	-0,305	-0,307
57,130	-8,683	-0,391	-0,184
58,144	108,986	-0,250	-0,210
59,159	-11,915	-0,318	-0,146
60,174	166,898	-0,349	-0,348
61,188	-1,105	-0,466	-0,231
62,203	-88,441	-0,317	-0,066
63,217	47,577	-0,368	-0,240
64,232	-36,847	-0,525	-0,197
65,247	-1,885	-0,402	-0,198
66,261	-99,194	-0,378	-0,066
67,276	4,278	-0,372	-0,191
68,290	31,783	-0,323	-0,195
69,305	32,540	-0,302	-0,183
70,320	60,861	-0,298	-0,207
71,334	31,673	-0,276	-0,166
72,349	69,221	-0,258	-0,186
73,363	6,726	-0,320	-0,166
74,378	103,902	-0,294	-0,242
75,393	57,510	-0,317	-0,217
76,407	67,337	-0,203	-0,145
77,422	-74,726	-0,295	-0,074
78,436	-63,943	-0,285	-0,081
79,451	61,740	-0,229	-0,160
80,466	64,485	-0,305	-0,215
81,480	289,246	-0,230	-0,292
82,495	135,900	-0,265	-0,242
83,509	44,060	-0,275	-0,177
84,524	23,955	-0,317	-0,183
85,539	31,828	-0,219	-0,132
86,553	-10,148	-0,280	-0,130
87,568	-25,935	-0,351	-0,144
88,582	-23,346	-0,399	-0,167
89,597	90,095	-0,321	-0,251
90,611	129,749	-0,266	-0,238
91,626	-15,311	-0,368	-0,164
92,641	340,502	-0,127	-0,174
93,655	320,814	-0,189	-0,252
94,670	18,279	-0,395	-0,220
95,684	260,320	-0,271	-0,329
96,699	94,008	-0,256	-0,203
97,714	45,492	-0,301	-0,194
98,728	199,557	-0,195	-0,210
99,743	-82,105	-0,165	-0,037
100,757	-176,498	-0,249	-0,004
101,772	-40,282	-0,405	-0,147
102,787	2,441	-0,272	-0,138
103,801	38,169	-0,176	-0,109
104,816	228,268	-0,179	-0,204
105,830	11,678	-0,222	-0,119
106,845	-72,719	-0,252	-0,064
107,860	-17,949	-0,302	-0,132
108,874	137,123	-0,257	-0,235
109,889	55,515	-0,279	-0,188
110,903	276,257	-0,183	-0,228
111,918	800,000	-0,098	-0,255
112,933	-62,095	-0,365	-0,106
113,947	272,620	-0,193	-0,239
114,962	48,421	-0,215	-0,140
115,976	-2,679	-0,177	-0,086
116,991	90,725	-0,241	-0,189
118,006	22,381	-0,330	-0,188
119,020	-0,209	-0,234	-0,116
120,035	20,622	-0,182	-0,103
121,049	-55,699	-0,292	-0,091
122,064	-127,979	-0,230	-0,023
123,079	65,923	-0,251	-0,178
124,093	-29,101	-0,245	-0,098
125,108	262,003	-0,219	-0,265
126,122	77,491	-0,212	-0,158
127,137	9,796	-0,268	-0,142
128,151	-56,417	-0,296	-0,091
129,166	19,349	-0,238	-0,133
130,181	8,644	-0,281	-0,147
131,195	75,799	-0,267	-0,196
132,210	316,585	-0,204	-0,269
133,224	-16,734	-0,275	-0,121
134,239	6,915	-0,304	-0,157
135,254	18,846	-0,257	-0,143
136,268	624,726	-0,112	-0,198
137,283	136,379	-0,223	-0,203
138,297	190,062	-0,250	-0,262
139,312	56,812	-0,328	-0,222
140,327	151,953	-0,284	-0,271
141,341	291,265	-0,203	-0,258
142,356	175,290	-0,198	-0,201
143,370	143,646	-0,144	-0,134
144,385	198,502	-0,360	-0,384
145,400	178,578	-0,282	-0,288
146,414	144,211	-0,262	-0,244
147,429	36,579	-0,266	-0,163
148,443	108,860	-0,227	-0,189
149,458	137,708	-0,160	-0,146
150,473	-54,044	-0,372	-0,117
151,487	71,554	-0,169	-0,122
152,502	210,284	-0,218	-0,239
153,516	51,360	-0,235	-0,155
154,531	99,583	-0,229	-0,185
155,546	637,943	-0,175	-0,310
156,560	503,111	-0,219	-0,353
157,575	-124,051	-0,211	-0,023
158,589	163,295	-0,127	-0,124
159,604	497,811	-0,191	-0,307
160,619	97,598	-0,311	-0,249
161,633	319,283	-0,163	-0,216
162,648	-90,320	-0,187	0,038
163,662	69,480	-0,177	-0,127
164,677	4,651	-0,222	-0,113
165,692	89,093	-0,241	-0,187
166,706	-44,433	-0,178	-0,062
167,721	183,236	-0,235	-0,242
168,735	659,531	-0,149	-0,268
169,750	91,593	-0,193	-0,151
170,764	39,558	-0,130	-0,081
171,779	224,602	-0,100	-0,113
172,794	3,435	-0,260	-0,131
173,808	84,585	-0,223	-0,170
174,823	86,426	-0,264	-0,202
175,837	-63,822	-0,256	-0,072
176,852	6,165	-0,200	-0,103
177,867	171,275	-0,219	-0,218
178,881	-132,920	-0,197	0,017
179,896	-98,314	-0,210	-0,037
180,910	-162,495	-0,181	-0,006
181,925	15,413	-0,207	-0,113
182,940	68,730	-0,191	-0,136
183,954	110,727	-0,137	-0,114
184,969	44,222	-0,128	-0,082
185,983	205,748	-0,128	-0,138
186,998	141,079	-0,129	-0,119
188,013	124,858	-0,270	-0,237
189,027	560,083	-0,134	-0,226
190,042	176,154	-0,316	-0,319
191,056	208,688	-0,171	-0,186
192,071	-61,648	-0,250	-0,072
193,086	31,566	-0,130	-0,077
194,100	7,640	-0,227	-0,117
195,115	-32,246	-0,264	-0,102
196,129	160,138	-0,165	-0,160
197,144	335,587	-0,217	-0,293
198,159	-70,437	-0,191	-0,050
199,173	-80,558	-0,099	0,023
200,188	171,199	-0,197	-0,196
201,202	186,342	-0,147	-0,152
202,217	-27,913	-0,269	-0,108
203,232	411,269	-0,186	-0,275
204,246	123,035	-0,138	-0,119
205,261	30,422	-0,174	-0,103
206,275	530,684	-0,116	-0,190
207,290	59,191	-0,157	-0,107
208,304	-44,580	-0,139	-0,048
209,319	-200,000	-0,051	-0,163
210,334	205,353	-0,182	-0,196
211,348	7,572	-0,251	-0,130
212,363	242,872	-0,255	-0,296
213,377	800,000	-0,037	-0,083
214,392	48,890	-0,163	-0,106
215,407	-4,086	-0,197	-0,094
216,421	81,354	-0,228	-0,170
217,436	4,091	-0,172	-0,087
218,450	-55,659	-0,168	-0,052
219,465	-34,642	-0,330	-0,124
220,480	34,871	-0,110	-0,067
221,494	420,933	-0,075	-0,112
222,509	800,000	-0,025	-0,061
223,523	19,414	-0,194	-0,107
224,538	-15,818	-0,249	-0,109
225,553	313,431	-0,153	-0,199
226,567	22,968	-0,279	-0,158
227,582	168,032	-0,154	-0,152
228,596	-8,169	-0,242	-0,112
229,611	282,926	-0,162	-0,201
230,626	-47,153	-0,138	-0,046
231,640	-125,662	-0,205	-0,021
232,655	59,147	-0,245	-0,167
233,669	-29,667	-0,221	-0,087
234,684	-160,765	-0,196	0,007
235,699	23,982	-0,123	-0,070
236,713	-1,923	-0,166	0,080
237,728	145,519	-0,094	-0,087
238,742	-87,653	-0,239	-0,049
239,757	-200,000	-0,017	-0,294
240,772	189,589	-0,191	-0,199
241,786	-11,298	-0,247	-0,112
242,801	800,000	-0,038	-0,085
243,815	800,000	-0,087	-0,179
244,830	221,587	-0,114	-0,127
245,844	800,000	-0,011	-0,024
246,859	136,405	-0,091	-0,082
247,874	407,654	-0,120	-0,176
248,888	-54,572	-0,201	-0,062
249,903	-76,952	-0,197	-0,047
250,917	-148,451	-0,100	0,006
251,932	-52,336	-0,181	-0,058
252,947	-200,000	-0,010	-0,261
253,961	800,000	-0,084	-0,227
254,976	-58,591	-0,188	0,056
255,990	-99,260	-0,117	-0,020
257,005	137,050	-0,137	-0,123
258,020	-89,640	-0,164	-0,033
259,034	196,803	-0,166	-0,175
260,049	473,751	-0,055	-0,086
261,063	800,000	-0,092	-0,203
262,078	324,153	-0,178	-0,235
263,093	-51,698	-0,199	-0,064
264,107	800,000	-0,133	-0,268
265,122	257,036	-0,204	-0,242
266,136	-119,261	-0,207	0,025
267,151	105,736	-0,074	-0,061
268,166	227,441	-0,177	-0,198
269,180	314,022	-0,151	-0,197
270,195	153,486	-0,296	-0,280
271,209	714,091	-0,146	-0,269
272,224	114,571	-0,164	-0,138
273,239	79,499	-0,208	-0,154
274,253	-9,297	-0,170	-0,078
275,268	-3,678	-0,112	-0,053
276,282	203,986	-0,145	-0,155
277,297	-23,973	-0,164	-0,067
278,312	72,159	-0,126	-0,090
279,326	-46,854	-0,153	-0,051
280,341	800,000	-0,058	-0,118
281,355	-48,784	-0,157	-0,052
282,370	4,211	-0,202	-0,101
283,384	-54,101	-0,253	-0,079
284,399	34,744	-0,173	-0,104
285,414	15,092	-0,132	-0,071
286,428	-102,022	-0,146	0,024
287,443	-41,031	-0,079	0,028
288,457	28,543	-0,186	-0,108
289,472	96,062	-0,243	-0,191
290,487	275,095	-0,137	-0,167
291,501	232,071	-0,196	-0,222
292,516	171,242	-0,145	-0,143
293,530	79,775	-0,178	-0,131
294,545	-111,338	-0,236	-0,033
295,560	584,919	0,053	-0,091
296,574	800,000	-0,081	-0,178
297,589	142,379	-0,132	-0,120
298,603	493,624	-0,126	-0,200
299,618	45,492	-0,105	-0,067
300,633	-79,151	-0,154	-0,036
301,647	800,000	-0,080	-0,172
302,662	-94,191	-0,153	0,029
303,676	-97,048	-0,275	-0,049
304,691	216,478	-0,157	-0,172
305,706	41,266	-0,261	-0,162
306,720	78,452	-0,164	-0,120
307,735	21,605	-0,131	-0,073
308,749	57,123	-0,126	-0,084
309,764	90,969	-0,135	-0,104
310,779	-16,159	-0,196	-0,085
311,793	295,192	-0,156	-0,196
312,808	761,176	-0,092	-0,172
313,822	617,457	-0,109	-0,188
314,837	-150,238	-0,185	-0,010
315,852	-54,564	-0,075	0,023
316,866	11,442	-0,078	0,041
317,881	-18,605	-0,095	-0,040
318,895	-9,362	-0,230	-0,105
319,910	206,270	-0,178	-0,191
320,925	-83,228	-0,066	-0,014
321,939	-136,691	-0,149	-0,012
322,954	-74,662	-0,047	0,011
323,968	406,269	-0,059	-0,085
324,983	41,490	-0,212	-0,131
325,997	-77,725	-0,159	-0,037
327,012	11,436	-0,263	-0,138
328,027	81,087	-0,084	-0,062
329,041	-140,442	-0,096	0,007
330,056	-67,949	-0,259	-0,069
331,070	-200,000	0,001	-0,101
332,085	-112,663	-0,136	0,018
333,100	534,885	-0,096	-0,156
334,114	800,000	-0,100	-0,208
335,129	215,685	-0,143	-0,156
336,143	127,496	-0,226	-0,197
337,158	61,483	-0,080	-0,054
338,173	-127,089	-0,142	0,014
339,187	-88,169	-0,167	-0,034
340,202	-92,397	-0,163	-0,031
341,216	800,000	-0,072	-0,156
342,231	800,000	0,029	-0,087
343,246	275,946	-0,104	-0,127
344,260	-122,660	-0,133	0,015
345,275	-70,171	-0,123	0,032
346,289	114,891	-0,162	-0,135
347,304	327,702	-0,087	-0,115
348,319	89,315	-0,218	-0,166
349,333	288,125	-0,135	-0,167
350,348	800,000	-0,080	-0,221
351,362	-200,000	-0,010	-0,170
352,377	221,102	0,078	-0,086
353,392	-28,187	-0,076	0,030
354,406	-91,941	-0,227	-0,044
355,421	207,118	1308,785	1398,112
356,435	159,314	1468,790	1398,610
