DTS Sentinel unit serial number:	SN410029Multiplexer serial number:	ORYXHardware model number:	OX2-SRSoftware version number:	ORYX F/W v4,00 Oryx Data Collector v3.7.2.0data status	okinstallation	B3 Nyhavnadifferential loss correction	single-endedforward channel	channel 1reverse channel	N/Adate	2023/12/03time	22:37:30forward acquisition time	300,00reverse acquisition time	0,00gamma	499,1914k internal	0,3201k external	0,3201temperature offset calibration	1,0000default loss term (dB/km)	0,3820temperature slope calibration	1,0000multiplexer offset coefficient	1,0000multiplexer slope coefficient	1,0000fibre end	0,00T internal ref (°C)	13,17T ext. ref 1 (°C)	-2,18T ext. ref 2 (°C)	-2,21length (m)	temperature (°C)	Stokes	anti-Stokes-744,400	-200,000	-0,021	-0,181
-743,385	-200,000	0,019	0,244
-742,371	178,584	-0,125	-0,132
-741,356	-200,000	-0,009	0,425
-740,342	625,869	-0,119	-0,219
-739,327	-200,000	0,031	0,284
-738,312	-8,118	-0,210	-0,102
-737,298	-200,000	-0,055	0,265
-736,283	800,000	-0,108	-0,284
-735,269	-200,000	-0,062	0,296
-734,254	278,684	-0,191	-0,249
-733,239	76,068	-0,292	0,225
-732,225	800,000	-0,116	-0,301
-731,210	475,725	0,108	0,179
-730,196	-133,107	-0,063	-0,006
-729,181	42,000	0,150	-0,099
-728,167	-200,000	0,023	0,110
-727,152	800,000	0,033	-0,074
-726,137	-107,720	-0,100	0,016
-725,123	47,977	-0,072	-0,049
-724,108	1,131	-0,076	-0,040
-723,094	-114,621	-0,167	0,023
-722,079	800,000	-0,039	0,087
-721,064	40,261	0,055	0,036
-720,050	-71,837	-0,152	-0,041
-719,035	-200,000	-0,008	0,056
-718,021	-96,703	-0,101	-0,019
-717,006	402,012	0,021	-0,032
-715,991	-200,000	-0,073	-0,249
-714,977	81,340	-0,088	-0,069
-713,962	800,000	0,037	-0,090
-712,948	63,438	-0,084	-0,061
-711,933	29,325	-0,077	0,047
-710,918	-83,196	-0,056	-0,013
-709,904	-151,875	-0,128	-0,007
-708,889	-68,003	-0,049	0,014
-707,875	93,958	0,118	-0,097
-706,860	800,000	0,030	-0,080
-705,845	464,760	0,024	-0,040
-704,831	73,203	0,067	0,051
-703,816	-72,814	-0,039	0,010
-702,802	-71,695	-0,079	-0,021
-701,787	-200,000	-0,010	-0,034
-700,772	-3,297	0,061	-0,031
-699,758	-200,000	0,013	-0,047
-698,743	158,584	0,118	0,119
-697,729	-10,695	0,083	0,040
-696,714	784,380	-0,037	0,074
-695,699	800,000	0,023	-0,071
-694,685	-200,000	-0,006	-0,113
-693,670	219,927	0,067	0,079
-692,656	-16,620	0,040	-0,018
-691,641	-7,917	0,068	0,033
-690,627	-119,224	0,129	-0,016
-689,612	42,048	-0,125	-0,082
-688,597	-72,963	-0,022	-0,006
-687,583	800,000	0,016	-0,047
-686,568	-5,355	-0,063	-0,031
-685,554	-3,657	0,080	0,040
-684,539	-200,000	0,031	-0,124
-683,524	269,689	0,076	-0,098
-682,510	800,000	0,039	0,104
-681,495	198,018	0,084	-0,093
-680,481	-104,201	-0,110	0,018
-679,466	800,000	-0,058	-0,134
-678,451	-110,300	-0,113	-0,017
-677,437	160,211	0,068	0,069
-676,422	-118,558	0,113	-0,014
-675,408	227,653	-0,006	0,007
-674,393	7,840	-0,152	-0,082
-673,378	-200,000	-0,003	0,122
-672,364	26,036	-0,150	-0,091
-671,349	-200,000	0,000	-0,039
-670,335	663,562	-0,055	0,103
-669,320	-135,345	0,068	-0,006
-668,305	134,001	-0,089	0,084
-667,291	-3,880	0,083	-0,041
-666,276	-31,754	-0,097	0,039
-665,262	16,861	-0,108	0,062
-664,247	21,927	0,017	0,010
-663,232	-6,497	-0,035	-0,017
-662,218	-153,020	-0,082	0,004
-661,203	47,379	0,152	-0,103
-660,189	49,934	-0,169	0,115
-659,174	-200,000	-0,007	0,075
-658,159	-59,669	0,093	-0,029
-657,145	-200,000	0,011	-0,085
-656,130	800,000	-0,038	-0,093
-655,116	74,590	0,051	-0,039
-654,101	-78,446	0,097	-0,024
-653,086	76,890	-0,177	0,136
-652,072	51,565	-0,025	-0,017
-651,057	800,000	-0,034	-0,095
-650,043	-200,000	-0,007	-0,117
-649,028	135,352	-0,064	-0,060
-648,014	-45,164	0,129	0,046
-646,999	-200,000	0,041	0,136
-645,984	-56,860	0,058	-0,019
-644,970	-151,832	-0,095	-0,005
-643,955	-200,000	0,000	-0,068
-642,941	-200,000	-0,005	-0,137
-641,926	649,501	-0,044	-0,083
-640,911	800,000	-0,017	-0,040
-639,897	-25,305	-0,076	0,033
-638,882	662,853	0,056	0,104
-637,868	164,420	-0,059	0,060
-636,853	-200,000	0,003	-0,099
-635,838	144,434	0,053	-0,052
-634,824	138,347	0,047	-0,045
-633,809	698,445	-0,065	-0,125
-632,795	703,796	0,051	-0,099
-631,780	-200,000	0,035	0,248
-630,765	-85,847	-0,056	0,012
-629,751	800,000	0,052	-0,143
-628,736	-200,000	0,030	-0,167
-627,722	141,419	0,068	-0,066
-626,707	-30,505	-0,060	0,024
-625,692	0,252	0,068	-0,035
-624,678	-200,000	0,010	0,149
-623,663	-29,474	0,134	0,055
-622,649	778,619	0,016	0,031
-621,634	99,611	0,071	-0,060
-620,619	-200,000	-0,013	-0,112
-619,605	-200,000	0,014	-0,062
-618,590	426,300	0,069	0,109
-617,576	528,307	0,022	0,038
-616,561	-88,439	-0,083	-0,018
-615,546	758,863	-0,033	0,065
-614,532	-200,000	0,016	0,097
-613,517	95,379	0,070	0,058
-612,503	146,945	0,056	-0,054
-611,488	-200,000	0,048	-0,157
-610,474	388,082	-0,087	0,130
-609,459	-200,000	0,019	-0,068
-608,444	8,536	0,061	0,033
-607,430	-200,000	-0,018	-0,106
-606,415	-200,000	-0,017	-0,099
-605,401	-100,772	-0,109	-0,019
-604,386	475,178	0,069	0,113
-603,371	473,652	0,013	-0,021
-602,357	-20,658	-0,011	0,005
-601,342	-106,823	0,062	-0,010
-600,328	-200,000	0,020	-0,088
-599,313	102,722	-0,099	-0,083
-598,298	46,900	0,038	-0,025
-597,284	51,260	0,164	0,113
-596,269	235,515	0,056	0,068
-595,255	-200,000	0,001	0,043
-594,240	800,000	0,051	0,126
-593,225	-7,468	0,172	-0,084
-592,211	-134,114	-0,115	-0,010
-591,196	-15,558	-0,068	0,031
-590,182	14,181	0,140	-0,079
-589,167	50,905	0,023	0,016
-588,152	-193,337	0,073	0,000
-587,138	-86,334	-0,096	0,021
-586,123	800,000	0,055	0,147
-585,109	51,748	-0,052	-0,036
-584,094	800,000	-0,023	-0,048
-583,079	-200,000	-0,008	0,036
-582,065	-71,831	0,050	0,013
-581,050	86,212	-0,068	-0,054
-580,036	-22,129	-0,096	-0,042
-579,021	-53,941	-0,071	-0,023
-578,006	-200,000	0,018	0,094
-576,992	38,071	-0,089	-0,057
-575,977	30,665	0,062	0,038
-574,963	-137,895	-0,054	-0,004
-573,948	-200,000	-0,024	0,107
-572,934	279,311	-0,037	-0,048
-571,919	40,063	-0,098	-0,063
-570,904	-146,389	-0,061	0,004
-569,890	94,738	-0,117	0,096
-568,875	-38,976	0,059	-0,022
-567,861	-200,000	0,019	0,070
-566,846	779,650	-0,081	0,160
-565,831	-85,679	0,186	0,041
-564,817	191,115	0,045	-0,049
-563,802	-200,000	-0,011	-0,046
-562,788	101,667	-0,122	-0,103
-561,773	-200,000	-0,000	0,050
-560,758	-102,309	-0,056	0,010
-559,744	800,000	0,022	0,055
-558,729	-200,000	0,000	-0,001
-557,715	399,120	-0,075	-0,114
-556,700	-166,237	-0,039	-0,001
-555,685	-34,176	0,031	-0,012
-554,671	-200,000	-0,038	-0,181
-553,656	28,939	0,045	-0,027
-552,642	118,118	0,078	-0,069
-551,627	-164,992	0,075	-0,002
-550,612	800,000	-0,061	-0,139
-549,598	-2,337	0,131	0,066
-548,583	730,052	-0,038	0,075
-547,569	-65,073	-0,088	-0,025
-546,554	800,000	0,035	0,098
-545,539	-200,000	0,004	-0,102
-544,525	800,000	0,052	0,117
-543,510	-135,662	-0,060	0,005
-542,496	366,882	-0,036	-0,053
-541,481	74,370	0,054	-0,041
-540,466	-200,000	0,144	0,000
-539,452	800,000	-0,056	0,125
-538,437	-190,911	0,018	0,000
-537,423	-99,050	0,016	0,003
-536,408	43,208	0,083	-0,055
-535,393	27,666	-0,168	-0,102
-534,379	-92,292	-0,075	-0,015
-533,364	341,845	-0,053	0,075
-532,350	97,638	0,071	0,059
-531,335	19,652	0,107	0,062
-530,321	207,561	-0,062	0,070
-529,306	-200,000	0,002	0,022
-528,291	-112,801	-0,054	0,008
-527,277	-200,000	0,006	0,041
-526,262	-66,078	-0,078	0,022
-525,248	800,000	-0,056	0,131
-524,233	-24,944	-0,149	0,063
-523,218	800,000	0,042	-0,110
-522,204	-65,029	0,069	-0,020
-521,189	-43,136	0,015	-0,005
-520,175	197,583	0,069	0,076
-519,160	-3,147	-0,103	-0,052
-518,145	800,000	-0,025	0,062
-517,131	-200,000	0,009	0,066
-516,116	364,700	-0,057	0,083
-515,102	-53,688	0,148	-0,049
-514,087	800,000	-0,018	-0,049
-513,072	-88,648	0,077	0,016
-512,058	33,057	0,047	0,029
-511,043	263,060	0,070	-0,088
-510,029	74,859	0,102	0,077
-509,014	800,000	-0,011	0,026
-507,999	800,000	0,024	0,050
-506,985	441,974	-0,067	-0,106
-505,970	-167,073	-0,091	0,003
-504,956	800,000	-0,007	0,018
-503,941	-35,427	-0,082	0,032
-502,926	118,869	0,082	0,073
-501,912	-10,296	0,014	-0,007
-500,897	-47,032	0,112	0,039
-499,883	374,955	0,019	0,028
-498,868	226,144	0,030	-0,035
-497,853	-163,102	-0,135	-0,005
-496,839	-170,107	0,107	-0,003
-495,824	249,609	0,049	0,060
-494,810	-200,000	-0,000	0,072
-493,795	448,444	0,055	0,087
-492,781	7,031	-0,099	-0,053
-491,766	-76,567	-0,164	-0,041
-490,751	-85,483	0,035	0,008
-489,737	-52,001	0,143	-0,047
-488,722	369,019	0,118	-0,173
-487,708	209,876	0,058	0,066
-486,693	372,868	0,012	0,017
-485,678	90,998	-0,051	-0,041
-484,664	-33,505	-0,164	-0,065
-483,649	-200,000	0,014	0,132
-482,635	763,754	-0,031	-0,061
-481,620	241,103	-0,017	-0,021
-480,605	-72,825	0,129	0,034
-479,591	549,303	0,043	0,074
-478,576	654,050	-0,057	-0,105
-477,562	-200,000	-0,101	0,000
-476,547	522,388	-0,032	-0,054
-475,532	14,918	0,106	-0,060
-474,518	191,197	-0,067	-0,072
-473,503	-200,000	-0,028	0,110
-472,489	506,359	0,019	0,033
-471,474	-22,736	0,064	0,028
-470,459	-8,865	-0,031	0,015
-469,445	-22,049	0,107	0,046
-468,430	39,246	-0,142	-0,091
-467,416	800,000	0,038	-0,103
-466,401	-200,000	-0,044	-0,175
-465,386	444,619	0,071	0,113
-464,372	124,507	-0,127	0,115
-463,357	369,782	0,054	0,079
-462,343	191,745	0,020	0,022
-461,328	-200,000	-0,002	0,044
-460,313	161,896	0,098	-0,099
-459,299	192,551	0,086	0,094
-458,284	-200,000	0,019	-0,096
-457,270	-200,000	0,034	0,168
-456,255	-200,000	0,014	0,078
-455,241	-200,000	0,016	-0,124
-454,226	-120,372	-0,163	0,020
-453,211	-119,023	-0,111	0,014
-452,197	-90,431	0,060	0,012
-451,182	800,000	-0,035	-0,078
-450,168	-154,551	-0,114	-0,005
-449,153	-76,386	0,128	0,032
-448,138	-200,000	-0,026	-0,303
-447,124	447,083	0,066	-0,105
-446,109	-48,835	0,177	0,061
-445,095	300,545	-0,074	-0,099
-444,080	-88,662	0,101	0,021
-443,065	-200,000	0,006	0,062
-442,051	-200,000	-0,033	0,124
-441,036	303,808	0,058	-0,078
-440,022	-2,860	0,028	-0,014
-439,007	-200,000	-0,010	-0,047
-437,992	550,126	0,105	0,182
-436,978	-88,371	-0,086	-0,018
-435,963	800,000	0,073	-0,163
-434,949	18,900	0,037	0,021
-433,934	-103,970	-0,116	0,019
-432,919	-125,636	-0,036	-0,004
-431,905	486,486	-0,065	-0,107
-430,890	-200,000	0,001	-0,057
-429,876	-200,000	0,009	0,067
-428,861	-144,866	0,117	0,008
-427,846	175,768	-0,106	0,111
-426,832	-105,458	0,143	0,023
-425,817	-200,000	-0,009	-0,071
-424,803	-117,523	-0,113	-0,015
-423,788	294,739	0,022	0,029
-422,773	800,000	-0,019	-0,047
-421,759	-200,000	0,026	0,102
-420,744	-200,000	-0,005	0,021
-419,730	114,988	0,031	-0,027
-418,715	-200,000	-0,013	-0,083
-417,701	250,647	-0,042	0,052
-416,686	800,000	-0,044	0,132
-415,671	19,107	0,087	0,050
-414,657	169,526	-0,100	-0,103
-413,642	101,204	-0,125	-0,105
-412,628	55,190	-0,067	0,047
-411,613	-50,209	-0,105	0,035
-410,598	-200,000	0,003	0,077
-409,584	166,560	-0,073	0,075
-408,569	-100,485	0,032	-0,006
-407,555	186,588	-0,084	-0,089
-406,540	-200,000	-0,008	0,036
-405,525	112,528	-0,030	-0,026
-404,511	-8,034	-0,096	-0,046
-403,496	-200,000	0,009	-0,031
-402,482	-200,000	0,024	-0,080
-401,467	763,365	-0,048	0,095
-400,452	-200,000	0,026	0,095
-399,438	5,334	0,081	-0,043
-398,423	142,264	0,066	-0,063
-397,409	-172,123	-0,123	-0,003
-396,394	173,771	-0,045	-0,047
-395,379	526,224	-0,032	0,054
-394,365	66,844	0,104	0,076
-393,350	83,096	-0,047	0,037
-392,336	292,523	0,048	0,063
-391,321	251,366	-0,098	0,119
-390,306	0,014	-0,036	-0,018
-389,292	93,459	0,097	-0,078
-388,277	10,717	0,064	0,035
-387,263	137,019	0,070	0,065
-386,248	-200,000	0,014	0,046
-385,233	-114,427	0,158	0,022
-384,219	524,996	0,032	-0,054
-383,204	-141,557	-0,024	0,002
-382,190	800,000	0,032	-0,088
-381,175	-200,000	-0,013	-0,069
-380,160	113,446	0,145	0,126
-379,146	60,928	-0,100	0,071
-378,131	326,197	-0,061	0,084
-377,117	251,922	0,019	0,023
-376,102	800,000	-0,045	-0,097
-375,088	-200,000	-0,019	-0,105
-374,073	800,000	0,044	-0,099
-373,058	-74,119	-0,067	0,017
-372,044	132,258	0,205	0,189
-371,029	-200,000	-0,032	0,159
-370,015	-51,617	-0,081	-0,027
-369,000	149,902	-0,073	-0,071
-367,985	-200,000	-0,017	-0,114
-366,971	-200,000	0,002	-0,059
-365,956	14,150	0,085	0,048
-364,942	-144,130	-0,081	-0,005
-363,927	800,000	-0,087	0,199
-362,912	85,573	-0,078	0,061
-361,898	331,209	0,056	-0,077
-360,883	-20,460	-0,067	-0,029
-359,869	-33,043	-0,030	0,012
-358,854	-153,481	0,047	0,002
-357,839	-200,000	-0,004	-0,020
-356,825	290,267	0,082	0,106
-355,810	305,081	-0,042	0,056
-354,796	85,223	-0,049	-0,039
-353,781	-31,277	-0,059	-0,024
-352,766	-135,335	0,082	-0,007
-351,752	-123,958	-0,143	-0,016
-350,737	-17,815	0,071	-0,032
-349,723	180,824	0,090	-0,094
-348,708	98,479	0,043	0,035
-347,693	122,381	0,059	0,053
-346,679	800,000	-0,026	0,068
-345,664	-200,000	0,015	0,131
-344,650	-47,527	0,100	0,035
-343,635	-132,622	0,030	0,003
-342,620	-130,553	0,195	-0,019
-341,606	-93,064	0,070	0,014
-340,591	-93,769	0,132	-0,026
-339,577	-79,148	-0,022	0,005
-338,562	-200,000	0,014	-0,130
-337,548	-136,801	0,042	0,003
-336,533	405,563	0,024	-0,036
-335,518	800,000	0,014	-0,037
-334,504	115,677	0,014	0,012
-333,489	800,000	-0,073	-0,201
-332,475	-76,841	-0,058	-0,014
-331,460	152,708	0,106	-0,104
-330,445	470,624	0,085	-0,137
-329,431	800,000	-0,051	-0,124
-328,416	-13,457	0,150	0,069
-327,402	256,324	0,049	-0,060
-326,387	-200,000	0,001	0,021
-325,372	146,929	-0,110	0,106
-324,358	-67,559	0,146	-0,041
-323,343	334,413	0,023	-0,032
-322,329	20,705	-0,045	-0,026
-321,314	-125,343	0,143	-0,015
-320,299	106,813	-0,048	0,041
-319,285	-200,000	-0,005	0,136
-318,270	-93,239	0,037	-0,007
-317,256	52,171	0,015	-0,010
-316,241	9,157	-0,061	-0,033
-315,226	94,289	0,081	-0,066
-314,212	800,000	-0,043	0,112
-313,197	800,000	0,035	0,098
-312,183	-132,984	0,124	0,011
-311,168	-8,195	-0,168	-0,081
-310,153	51,976	-0,060	0,041
-309,139	-200,000	-0,021	0,150
-308,124	130,005	-0,097	0,089
-307,110	791,609	0,019	0,037
-306,095	715,852	-0,041	0,079
-305,080	-200,000	-0,015	-0,055
-304,066	111,971	0,122	0,105
-303,051	-149,626	-0,142	-0,008
-302,037	-200,000	-0,015	-0,110
-301,022	-79,676	0,024	-0,006
-300,008	74,528	-0,056	0,042
-298,993	-200,000	-0,008	0,072
-297,978	-200,000	0,002	0,066
-296,964	-198,979	-0,107	-0,000
-295,949	36,289	-0,092	0,058
-294,935	242,034	-0,010	0,012
-293,920	-170,457	-0,004	0,000
-292,905	800,000	0,022	0,045
-291,891	-15,967	0,137	0,062
-290,876	-200,000	0,002	0,093
-289,862	224,947	0,033	0,039
-288,847	-200,000	-0,024	-0,094
-287,832	92,005	-0,136	-0,110
-286,818	306,165	0,037	-0,049
-285,803	25,165	0,113	-0,067
-284,789	-200,000	-0,006	0,074
-283,774	121,422	-0,049	0,043
-282,759	-23,369	0,057	-0,024
-281,745	-200,000	0,000	-0,081
-280,730	-165,863	-0,080	0,002
-279,716	-22,007	-0,046	0,020
-278,701	-74,895	0,167	0,042
-277,686	-76,420	0,111	0,028
-276,672	-200,000	0,016	0,060
-275,657	116,991	-0,040	0,035
-274,643	-98,036	-0,015	-0,003
-273,628	-12,615	-0,038	0,018
-272,613	134,441	-0,083	-0,077
-271,599	800,000	0,062	0,184
-270,584	-200,000	-0,015	0,050
-269,570	236,162	-0,089	0,106
-268,555	-123,078	0,056	-0,006
-267,540	-200,000	-0,024	-0,104
-266,526	174,115	0,040	-0,041
-265,511	-3,366	-0,081	-0,040
-264,497	95,368	0,043	-0,035
-263,482	800,000	0,097	-0,218
-262,467	-200,000	0,022	0,128
-261,453	-200,000	0,035	0,124
-260,438	7,786	-0,074	-0,039
-259,424	-35,226	0,088	-0,034
-258,409	-44,847	-0,063	-0,022
-257,395	-200,000	0,017	-0,153
-256,380	-200,000	-0,029	0,109
-255,365	124,160	-0,078	0,070
-254,351	92,719	0,096	0,077
-253,336	-200,000	-0,014	-0,136
-252,322	531,720	0,012	0,020
-251,307	528,206	-0,048	0,081
-250,292	-54,409	-0,050	0,016
-249,278	367,542	-0,036	-0,053
-248,263	-183,324	-0,136	0,002
-247,249	42,768	0,065	0,042
-246,234	78,841	-0,069	-0,053
-245,219	-200,000	-0,002	-0,051
-244,205	359,649	0,065	-0,094
-243,190	178,662	0,101	-0,106
-242,176	-123,425	-0,173	-0,019
-241,161	168,317	0,088	-0,090
-240,146	-200,000	0,006	0,021
-239,132	-200,000	0,006	-0,098
-238,117	800,000	-0,019	-0,041
-237,103	428,227	-0,020	-0,031
-236,088	9,572	0,113	-0,061
-235,073	-118,696	0,144	-0,018
-234,059	800,000	-0,026	0,072
-233,044	3,645	-0,049	0,025
-232,030	-48,372	0,087	0,030
-231,015	451,298	-0,112	-0,177
-230,000	-200,000	-0,030	0,112
-228,986	80,265	0,076	0,058
-227,971	800,000	-0,046	-0,114
-226,957	597,548	-0,030	0,053
-225,942	800,000	-0,031	0,089
-224,927	-106,637	-0,068	0,011
-223,913	-143,885	-0,177	-0,012
-222,898	-133,725	-0,100	0,009
-221,884	198,628	0,025	-0,027
-220,869	263,784	0,047	0,059
-219,855	-114,890	0,100	-0,013
-218,840	-2,173	-0,085	0,042
-217,825	-200,000	-0,041	-0,175
-216,811	800,000	0,043	-0,095
-215,796	334,652	0,042	-0,058
-214,782	17,450	-0,085	0,048
-213,767	-200,000	0,015	0,174
-212,752	399,756	-0,037	0,055
-211,738	205,914	-0,065	0,072
-210,723	-84,015	-0,103	0,023
-209,709	-123,884	0,088	-0,010
-208,694	-137,820	-0,060	-0,005
-207,679	-121,688	-0,075	-0,009
-206,665	-200,000	0,202	0,001
-205,650	366,044	0,107	0,154
-204,636	800,000	-0,016	0,041
-203,621	-55,233	-0,081	-0,026
-202,606	330,987	-0,004	-0,006
-201,592	523,952	-0,077	-0,129
-200,577	187,711	-0,049	-0,052
-199,563	107,126	0,131	-0,111
-198,548	800,000	0,027	-0,072
-197,533	-79,710	-0,064	-0,015
-196,519	-200,000	-0,003	-0,014
-195,504	202,080	0,075	-0,082
-194,490	-144,055	-0,122	0,008
-193,475	-88,926	-0,228	0,048
-192,460	22,723	0,104	-0,061
-191,446	39,809	-0,042	-0,027
-190,431	276,939	-0,138	0,175
-189,417	469,527	0,044	0,071
-188,402	-200,000	-0,013	0,061
-187,387	102,989	-0,062	-0,052
-186,373	800,000	-0,035	-0,080
-185,358	42,093	0,102	0,066
-184,344	-134,586	-0,073	-0,006
-183,329	146,826	0,036	0,035
-182,315	-38,162	-0,060	-0,022
-181,300	95,583	-0,068	-0,055
-180,285	99,532	0,059	0,049
-179,271	-115,796	-0,136	-0,018
-178,256	1,823	0,038	0,019
-177,242	-200,000	0,004	0,065
-176,227	-30,543	-0,104	-0,042
-175,212	-85,680	0,068	-0,015
-174,198	800,000	-0,027	0,084
-173,183	82,050	0,122	-0,094
-172,169	-200,000	-0,037	-0,119
-171,154	-188,653	-0,168	0,001
-170,139	-200,000	-0,033	0,108
-169,125	-25,577	0,093	0,039
-168,110	700,389	-0,052	-0,097
-167,096	-3,684	-0,119	-0,059
-166,081	113,295	0,065	-0,056
-165,066	-200,000	-0,054	-0,227
-164,052	800,000	-0,021	0,046
-163,037	84,699	0,055	0,043
-162,023	-200,000	-0,009	0,031
-161,008	-200,000	0,006	0,051
-159,993	8,669	0,040	-0,021
-158,979	800,000	-0,061	-0,191
-157,964	477,976	-0,054	-0,087
-156,950	43,437	0,098	-0,063
-155,935	71,289	0,163	0,120
-154,920	282,662	-0,098	0,125
-153,906	800,000	-0,024	0,049
-152,891	-200,000	0,004	0,034
-151,877	27,369	-0,053	0,032
-150,862	44,889	-0,143	-0,094
-149,847	145,293	0,026	-0,025
-148,833	-43,133	-0,133	-0,048
-147,818	125,160	0,019	-0,017
-146,804	394,455	0,061	-0,091
-145,789	90,929	0,132	0,105
-144,775	30,416	0,100	0,061
-143,760	-21,154	-0,121	0,052
-142,745	-160,712	-0,196	0,007
-141,731	-14,232	-0,083	0,038
-140,716	-200,000	0,002	0,088
-139,702	-200,000	-0,011	0,106
-138,687	297,249	0,097	0,126
-137,672	-33,494	-0,102	0,040
-136,658	32,229	-0,022	-0,014
-135,643	800,000	-0,023	-0,073
-134,629	115,106	0,052	-0,045
-133,614	-200,000	-0,003	0,083
-132,599	-126,205	0,165	-0,017
-131,585	554,886	-0,041	-0,070
-130,570	-16,415	-0,068	0,030
-129,556	800,000	0,050	-0,116
-128,541	366,750	-0,020	-0,029
-127,526	-27,629	-0,053	0,022
-126,512	184,936	0,058	-0,061
-125,497	523,462	0,019	0,032
-124,483	54,125	0,054	-0,037
-123,468	524,840	0,044	0,074
-122,453	-200,000	-0,015	-0,145
-121,439	800,000	0,011	-0,032
-120,424	-31,568	-0,155	0,061
-119,410	-131,446	0,098	-0,009
-118,395	13,917	0,079	0,043
-117,380	-108,983	-0,070	-0,010
-116,366	111,284	0,027	-0,023
-115,351	-200,000	0,039	0,000
-114,337	129,560	0,094	-0,085
-113,322	800,000	-0,024	-0,054
-112,307	87,245	-0,060	0,047
-111,293	-24,851	0,101	0,043
-110,278	800,000	0,041	0,105
-109,264	110,464	0,128	0,109
-108,249	-84,305	-0,083	0,018
-107,234	-3,085	-0,047	-0,023
-106,220	95,304	-0,013	-0,010
-105,205	-176,866	-0,149	0,003
-104,191	-105,463	0,125	-0,020
-103,176	-120,421	0,133	0,016
-102,162	-145,307	0,070	-0,004
-101,147	-28,251	0,049	0,020
-100,132	72,476	-0,083	-0,062
-99,118	-129,921	-0,097	-0,009
-98,103	-200,000	-0,016	-0,061
-97,089	-200,000	0,040	0,236
-96,074	-200,000	0,024	0,093
-95,059	-200,000	0,010	0,078
-94,045	800,000	0,034	0,105
-93,030	800,000	0,024	-0,066
-92,016	-45,590	0,041	0,014
-91,001	632,848	-0,008	0,014
-89,986	-48,165	-0,100	0,034
-88,972	-200,000	-0,004	0,041
-87,957	578,027	-0,014	0,025
-86,943	-90,845	-0,147	-0,030
-85,928	-200,000	-0,017	-0,085
-84,913	89,150	0,054	-0,043
-83,899	-151,523	-0,150	-0,008
-82,884	287,554	0,070	0,091
-81,870	-111,320	-0,051	-0,007
-80,855	-62,788	0,134	0,039
-79,840	206,504	0,032	-0,035
-78,826	9,057	-0,059	0,032
-77,811	-197,072	-0,031	0,000
-76,797	475,007	-0,008	0,014
-75,782	269,591	0,116	0,145
-74,767	-200,000	-0,031	0,100
-73,753	486,709	-0,042	0,068
-72,738	-168,696	-0,070	0,002
-71,724	-198,931	-0,137	-0,001
-70,709	-40,736	0,086	0,031
-69,694	-91,910	-0,117	0,023
-68,680	167,596	-0,022	0,022
-67,665	-31,282	-0,060	0,024
-66,651	-147,420	0,104	-0,006
-65,636	-148,361	0,066	-0,004
-64,622	800,000	0,015	0,041
-63,607	-179,987	0,061	0,001
-62,592	165,865	0,089	-0,089
-61,578	-14,874	0,038	-0,017
-60,563	127,042	0,065	-0,059
-59,549	-200,000	0,011	0,125
-58,534	-8,839	-1,660	-0,785
-57,519	431,357	-1,350	-2,078
-56,505	-200,000	-0,745	-4,553
-55,490	239,262	1,073	1,266
-54,476	800,000	4,808	11,250
-53,461	-200,000	19,473	322,364
-52,446	-200,000	743,002	2335,460
-51,432	570,714	1656,982	2866,313
-50,417	77,963	1671,562	1260,568
-49,403	21,115	1544,768	885,130
-48,388	15,040	1467,423	811,241
-47,373	18,048	1457,601	820,326
-46,359	16,646	1447,387	807,817
-45,344	13,315	1442,646	789,176
-44,330	13,221	1440,723	787,643
-43,315	13,210	1439,187	786,716
-42,300	13,247	1437,257	785,806
-41,286	13,245	1436,078	785,124
-40,271	13,220	1434,771	784,257
-39,257	13,175	1433,600	783,372
-38,242	13,257	1432,294	783,017
-37,227	13,235	1431,329	782,354
-36,213	13,251	1429,770	781,546
-35,198	13,241	1428,592	780,824
-34,184	13,299	1427,649	780,553
-33,169	13,244	1426,205	779,473
-32,154	13,268	1425,259	779,036
-31,140	13,267	1424,108	778,373
-30,125	13,300	1422,774	777,770
-29,111	13,315	1421,632	777,187
-28,096	13,304	1420,305	776,376
-27,082	13,212	1419,313	775,371
-26,067	13,227	1418,179	774,788
-25,052	13,210	1417,240	774,165
-24,038	13,172	1416,384	773,489
-23,023	13,209	1415,176	772,974
-22,009	13,215	1414,163	772,416
-20,994	13,108	1413,548	771,549
-19,979	13,120	1412,568	771,041
-18,965	13,154	1411,332	770,491
-17,950	13,155	1410,525	770,027
-16,936	13,138	1409,675	769,451
-15,921	13,117	1408,572	768,723
-14,906	13,119	1407,665	768,203
-13,892	13,118	1406,568	767,572
-12,877	13,089	1405,918	767,050
-11,863	13,099	1405,097	766,617
-10,848	13,062	1404,271	765,965
-9,833	13,080	1403,187	765,428
-8,819	13,061	1402,385	764,871
-7,804	13,013	1401,557	764,167
-6,790	13,011	1400,279	763,431
-5,775	13,034	1399,317	762,980
-4,760	13,036	1398,254	762,380
-3,746	13,010	1397,383	761,753
-2,731	13,025	1396,602	761,368
-1,717	12,982	1395,794	760,698
-0,702	12,975	1394,000	759,658
0,313	16,844	1310,143	731,877
1,327	33,176	702,865	430,341
2,342	51,370	123,112	82,581
3,356	3,785	16,643	8,570
4,371	6,565	3,169	1,661
5,386	62,939	0,472	0,334
6,400	587,199	0,137	0,240
7,415	36,994	-0,162	-0,101
8,429	108,802	-0,249	-0,210
9,444	-24,639	-0,377	-0,158
10,459	2,788	-0,241	-0,123
11,473	-98,122	-0,338	-0,061
12,488	-94,435	-0,282	-0,054
13,502	-33,731	-0,246	-0,096
14,517	-11,925	-0,322	-0,149
15,531	162,095	-0,320	-0,317
16,546	6,311	-0,453	-0,237
17,561	143,484	-0,444	-0,418
18,575	92,118	-0,184	-0,146
19,590	364,359	-0,177	-0,252
20,604	60,267	-0,285	-0,199
21,619	455,202	-0,304	-0,478
22,634	218,164	-0,429	-0,485
23,648	99,970	-0,442	-0,362
24,663	170,918	-0,305	-0,309
25,677	70,602	-0,248	-0,181
26,692	8,707	-0,456	-0,242
27,707	118,269	-0,240	-0,209
28,721	155,666	-0,331	-0,322
29,736	413,589	-0,273	-0,412
30,750	108,418	-0,416	-0,350
31,765	199,062	-0,386	-0,418
32,780	188,742	-0,285	-0,302
33,794	180,235	-0,219	-0,227
34,809	-0,623	-0,418	-0,209
35,823	97,944	-0,335	-0,272
36,838	257,104	-0,217	-0,264
37,853	25,583	-0,402	-0,235
38,867	58,258	-0,334	-0,230
39,882	285,194	-0,260	-0,331
40,896	139,664	-0,333	-0,309
41,911	69,402	-0,430	-0,312
42,926	1,269	-0,367	-0,185
43,940	125,476	-0,327	-0,291
44,955	24,279	-0,494	-0,287
45,969	61,440	-0,408	-0,286
46,984	73,720	-0,342	-0,253
47,999	71,181	-0,342	-0,249
49,013	18,526	-0,287	-0,161
50,028	-15,604	-0,458	-0,205
51,042	-64,066	-0,379	-0,108
52,057	-46,478	-0,361	-0,124
53,071	63,120	-0,426	-0,300
54,086	-15,111	-0,332	-0,149
55,101	293,476	-0,234	-0,302
56,115	-30,812	-0,287	-0,114
57,130	-21,749	-0,433	-0,185
58,144	800,000	-0,148	-0,320
59,159	51,475	-0,470	-0,314
60,174	346,517	-0,261	-0,362
61,188	353,504	-0,271	-0,380
62,203	118,628	-0,297	-0,258
63,217	-58,864	-0,343	-0,104
64,232	13,203	-0,394	-0,214
65,247	153,355	-0,200	-0,193
66,261	109,165	-0,339	-0,285
67,276	213,937	-0,313	-0,349
68,290	82,173	-0,257	-0,196
69,305	47,045	-0,303	-0,198
70,320	-3,591	-0,365	-0,178
71,334	-133,441	-0,220	-0,019
72,349	78,099	-0,391	-0,293
73,363	-15,008	-0,526	-0,236
74,378	75,904	-0,331	-0,246
75,393	-17,018	-0,417	-0,184
76,407	100,818	-0,208	-0,170
77,422	60,691	-0,136	-0,095
78,436	96,031	-0,296	-0,237
79,451	212,981	-0,224	-0,249
80,466	47,353	-0,422	-0,276
81,480	11,411	-0,275	-0,147
82,495	-32,661	-0,345	-0,134
83,509	157,854	-0,268	-0,261
84,524	-37,348	-0,291	-0,109
85,539	41,707	-0,204	-0,129
86,553	-35,905	-0,138	-0,052
87,568	-43,890	-0,313	-0,110
88,582	-40,682	-0,223	-0,081
89,597	58,312	-0,242	-0,166
90,611	56,326	-0,321	-0,219
91,626	170,709	-0,166	-0,168
92,641	-29,325	-0,344	-0,138
93,655	-66,138	-0,275	-0,076
94,670	145,418	-0,291	-0,273
95,684	132,008	-0,327	-0,296
96,699	57,983	-0,297	-0,204
97,714	337,075	-0,162	-0,222
98,728	-175,476	-0,143	-0,003
99,743	-31,593	-0,189	-0,074
100,757	33,714	-0,196	-0,120
101,772	-35,905	-0,396	-0,150
102,787	378,673	-0,148	-0,213
103,801	103,405	-0,196	-0,161
104,816	90,752	-0,233	-0,183
105,830	-31,610	-0,227	-0,089
106,845	-95,608	-0,154	0,029
107,860	364,213	-0,143	-0,202
108,874	128,554	-0,342	-0,305
109,889	70,071	-0,352	-0,254
110,903	168,658	-0,300	-0,300
111,918	-130,695	-0,371	-0,035
112,933	-23,853	-0,206	-0,086
113,947	9,179	-0,220	-0,116
114,962	-72,915	-0,245	-0,063
115,976	33,030	-0,250	-0,152
116,991	-3,406	-0,207	-0,100
118,006	4,019	-0,220	-0,112
119,020	-112,771	-0,257	-0,035
120,035	-61,067	-0,170	-0,050
121,049	2,740	-0,299	-0,151
122,064	47,041	-0,244	-0,158
123,079	-8,887	-0,358	-0,167
124,093	40,809	-0,344	-0,217
125,108	123,531	-0,278	-0,244
126,122	29,616	-0,249	-0,148
127,137	-6,398	-0,232	-0,110
128,151	-45,801	-0,264	-0,091
129,166	181,715	-0,106	-0,109
130,181	49,029	-0,225	-0,148
131,195	151,684	-0,252	-0,240
132,210	279,917	-0,193	-0,242
133,224	41,420	-0,282	-0,178
134,239	99,836	-0,232	-0,188
135,254	71,456	-0,192	-0,139
136,268	-100,550	-0,304	-0,052
137,283	14,372	-0,199	-0,108
138,297	37,093	-0,248	-0,153
139,312	-30,074	-0,363	-0,144
140,327	10,789	-0,323	-0,172
141,341	-16,997	-0,196	-0,086
142,356	800,000	-0,073	-0,203
143,370	800,000	-0,101	-0,226
144,385	36,092	-0,270	-0,166
145,400	47,864	-0,233	-0,152
146,414	200,827	-0,206	-0,221
147,429	61,157	-0,219	-0,152
148,443	98,758	-0,283	-0,228
149,458	81,968	-0,209	-0,158
150,473	0,064	-0,263	-0,131
151,487	-69,091	-0,212	-0,057
152,502	19,091	-0,259	-0,145
153,516	253,862	-0,215	-0,257
154,531	360,898	-0,172	-0,241
155,546	25,735	-0,258	-0,150
156,560	250,263	-0,219	-0,260
157,575	-58,882	-0,204	-0,061
158,589	4,516	-0,164	-0,084
159,604	134,791	-0,211	-0,191
160,619	-77,415	-0,271	-0,065
161,633	118,249	-0,286	-0,246
162,648	51,131	-0,229	-0,151
163,662	214,070	-0,210	-0,232
164,677	-2,557	-0,211	-0,102
165,692	43,199	-0,235	-0,149
166,706	-6,497	-0,285	-0,135
167,721	800,000	-0,100	-0,218
168,735	50,533	-0,307	-0,202
169,750	189,463	-0,197	-0,206
170,764	800,000	-0,078	-0,225
171,779	-26,368	-0,285	-0,116
172,794	-7,543	-0,226	-0,106
173,808	-44,683	-0,184	0,064
174,823	157,478	-0,263	-0,254
175,837	-65,188	-0,310	-0,087
176,852	91,683	-0,182	-0,142
177,867	508,186	-0,166	-0,270
178,881	800,000	-0,139	-0,328
179,896	-95,011	-0,195	0,036
180,910	151,329	-0,232	-0,220
181,925	64,198	-0,270	-0,189
182,940	54,422	-0,248	-0,166
183,954	-75,199	-0,223	-0,055
184,969	778,418	-0,142	-0,272
185,983	58,210	-0,236	-0,161
186,998	137,423	-0,124	-0,113
188,013	-4,149	-0,244	-0,117
189,027	58,103	-0,292	-0,199
190,042	79,305	-0,188	-0,140
191,056	-41,417	-0,295	-0,105
192,071	52,970	-0,180	-0,120
193,086	41,723	-0,297	-0,187
194,100	230,671	-0,130	-0,149
195,115	800,000	-0,049	-0,134
196,129	427,403	-0,228	-0,343
197,144	2,801	-0,155	-0,078
198,159	25,049	-0,375	-0,216
199,173	-21,913	-0,259	-0,109
200,188	97,941	-0,183	-0,146
201,202	-200,000	-0,049	-0,182
202,217	717,858	-0,169	-0,313
203,232	185,188	-0,188	-0,194
204,246	333,205	-0,150	-0,203
205,261	-12,220	-0,295	-0,134
206,275	207,879	-0,167	-0,181
207,290	23,521	-0,151	-0,086
208,304	89,116	-0,114	-0,088
209,319	218,484	-0,219	-0,243
210,334	-66,568	-0,140	-0,038
211,348	800,000	-0,118	-0,230
212,363	73,112	-0,270	-0,196
213,377	572,041	-0,124	-0,211
214,392	128,743	-0,185	-0,163
215,407	-97,631	-0,160	-0,028
216,421	-166,881	-0,161	-0,005
217,436	81,741	-0,180	-0,135
218,450	186,074	-0,120	-0,124
219,465	800,000	-0,091	-0,202
220,480	59,643	-0,212	-0,145
221,494	-2,148	-0,166	-0,081
222,509	377,787	-0,085	-0,122
223,523	124,647	-0,226	-0,197
224,538	-84,575	-0,142	-0,031
225,553	249,286	-0,167	-0,197
226,567	48,812	-0,208	-0,135
227,582	99,372	-0,242	-0,194
228,596	69,802	-0,089	-0,064
229,611	-21,458	-0,043	-0,018
230,626	-10,069	-0,188	-0,086
231,640	99,125	-0,106	-0,085
232,655	161,631	-0,126	-0,123
233,669	-22,743	-0,247	-0,103
234,684	420,700	-0,169	-0,252
235,699	258,181	-0,172	-0,206
236,713	384,826	-0,159	-0,228
237,728	109,889	-0,188	-0,156
238,742	286,964	-0,136	-0,171
239,757	144,702	-0,161	-0,149
240,772	26,438	-0,217	-0,126
241,786	4,559	-0,125	-0,063
242,801	304,174	-0,195	-0,251
243,815	5,126	-0,197	-0,100
244,830	1,592	-0,155	-0,077
245,844	78,089	-0,157	-0,116
246,859	122,282	-0,197	-0,170
247,874	359,059	-0,030	-0,041
248,888	348,507	-0,216	-0,296
249,903	28,152	-0,135	-0,079
250,917	-158,153	-0,150	0,006
251,932	-76,439	-0,161	-0,039
252,947	72,516	-0,064	-0,046
253,961	92,330	-0,091	-0,071
254,976	-14,957	-0,171	-0,076
255,990	225,146	-0,159	-0,178
257,005	201,209	-0,112	-0,119
258,020	-185,490	-0,240	-0,002
259,034	278,833	-0,149	-0,184
260,049	-9,000	-0,167	-0,077
261,063	-56,942	-0,227	-0,069
262,078	244,734	-0,177	-0,206
263,093	-73,984	-0,268	-0,067
264,107	95,809	-0,185	-0,146
265,122	333,822	-0,134	-0,180
266,136	-102,604	-0,176	-0,029
267,151	125,217	-0,182	-0,159
268,166	32,944	-0,200	-0,119
269,180	75,807	-0,241	-0,176
270,195	19,181	-0,222	-0,123
271,209	35,074	-0,196	-0,118
272,224	174,626	-0,222	-0,223
273,239	28,253	-0,011	0,006
274,253	31,350	-0,181	-0,107
275,268	178,722	-0,129	-0,130
276,282	87,459	-0,126	-0,096
277,297	-11,246	-0,306	-0,139
278,312	74,698	-0,131	-0,095
279,326	217,704	-0,107	-0,118
280,341	581,712	-0,119	-0,202
281,355	-42,816	-0,146	-0,051
282,370	-25,191	-0,203	-0,083
283,384	192,622	-0,140	-0,146
284,399	-115,747	-0,130	0,017
285,414	-95,964	-0,181	-0,033
286,428	396,167	-0,172	-0,249
287,443	456,749	-0,104	-0,159
288,457	209,664	-0,105	-0,114
289,472	13,190	-0,107	-0,057
290,487	-86,230	-0,127	0,027
291,501	174,789	-0,159	-0,159
292,516	800,000	-0,085	-0,217
293,530	140,539	-0,116	-0,106
294,545	544,490	-0,074	-0,123
295,560	249,580	-0,146	-0,171
296,574	-66,364	-0,211	-0,057
297,589	231,212	-0,164	-0,185
298,603	-1,396	-0,222	-0,108
299,618	662,896	-0,090	-0,161
300,633	189,006	-0,103	-0,106
301,647	86,166	-0,027	-0,021
302,662	625,034	-0,045	-0,078
303,676	-148,028	-0,127	0,007
304,691	197,453	-0,103	-0,108
305,706	85,325	-0,194	-0,146
306,720	30,574	-0,245	-0,144
307,735	800,000	-0,040	-0,105
308,749	-37,208	-0,151	-0,055
309,764	-70,950	-0,188	0,049
310,779	299,166	-0,078	-0,099
311,793	-72,268	-0,149	-0,038
312,808	139,148	-0,216	-0,196
313,822	180,106	-0,220	-0,222
314,837	-11,089	-0,102	-0,046
315,852	404,203	-0,092	-0,134
316,866	800,000	0,038	-0,073
317,881	-40,660	-0,250	-0,089
318,895	800,000	-0,121	-0,258
319,910	189,093	-0,172	-0,178
320,925	99,255	-0,196	-0,156
321,939	-118,599	-0,164	-0,020
322,954	161,393	-0,117	-0,113
323,968	-195,181	-0,166	-0,001
324,983	-120,156	-0,104	-0,012
325,997	21,508	-0,259	-0,145
327,012	318,228	-0,182	-0,237
328,027	-200,000	-0,052	-0,162
329,041	83,534	-0,170	-0,127
330,056	-51,414	-0,198	-0,063
331,070	-122,661	-0,071	0,008
332,085	-195,017	-0,090	0,000
333,100	-87,334	-0,249	-0,051
334,114	62,833	-0,122	-0,083
335,129	-0,054	-0,207	-0,101
336,143	620,211	-0,109	-0,190
337,158	79,185	-0,165	-0,121
338,173	-124,434	-0,227	-0,024
339,187	150,942	-0,181	-0,169
340,202	-35,195	-0,219	-0,081
341,216	414,440	-0,151	-0,222
342,231	208,396	-0,165	-0,177
343,246	176,178	-0,121	-0,121
344,260	369,819	-0,102	-0,143
345,275	-200,000	-0,025	-0,103
346,289	-174,417	-0,130	0,003
347,304	-200,000	0,026	-0,095
348,319	-0,134	-0,085	-0,041
349,333	-32,407	-0,127	-0,048
350,348	28,326	-0,109	-0,063
351,362	575,380	-0,109	-0,184
352,377	-200,000	-0,049	-0,153
353,392	-54,052	-0,139	0,043
354,406	28,279	-0,074	-0,043
355,421	209,514	1312,779	1413,090
356,435	161,257	1473,245	1413,572
