DTS Sentinel unit serial number:	SN410029Multiplexer serial number:	ORYXHardware model number:	OX2-SRSoftware version number:	ORYX F/W v4,00 Oryx Data Collector v3.7.2.0data status	okinstallation	B3 Nyhavnadifferential loss correction	single-endedforward channel	channel 1reverse channel	N/Adate	2023/12/04time	02:27:30forward acquisition time	300,00reverse acquisition time	0,00gamma	499,1914k internal	0,3205k external	0,3205temperature offset calibration	1,0000default loss term (dB/km)	0,3820temperature slope calibration	1,0000multiplexer offset coefficient	1,0000multiplexer slope coefficient	1,0000fibre end	0,00T internal ref (°C)	12,26T ext. ref 1 (°C)	-2,89T ext. ref 2 (°C)	-2,93length (m)	temperature (°C)	Stokes	anti-Stokes-744,400	239,159	-0,221	-0,268
-743,385	-200,000	-0,014	0,185
-742,371	517,762	-0,149	-0,254
-741,356	800,000	-0,073	0,198
-740,342	563,177	-0,072	-0,127
-739,327	-200,000	0,035	0,258
-738,312	93,511	-0,195	-0,161
-737,298	52,029	0,089	-0,062
-736,283	73,328	-0,180	-0,137
-735,269	800,000	-0,079	0,217
-734,254	71,394	-0,351	-0,264
-733,239	530,859	-0,084	0,145
-732,225	236,013	-0,133	-0,160
-731,210	-200,000	-0,005	0,106
-730,196	-103,096	0,107	-0,018
-729,181	-200,000	-0,008	-0,032
-728,167	139,263	-0,126	-0,121
-727,152	-200,000	-0,003	0,066
-726,137	-108,780	0,081	0,012
-725,123	-200,000	-0,003	-0,181
-724,108	-200,000	0,025	-0,097
-723,094	178,993	-0,169	-0,179
-722,079	137,527	-0,059	-0,056
-721,064	78,615	-0,049	0,038
-720,050	-200,000	0,016	0,053
-719,035	-128,152	-0,066	0,007
-718,021	568,514	0,016	-0,029
-717,006	-200,000	-0,014	-0,137
-715,991	-200,000	0,013	-0,095
-714,977	101,063	-0,053	-0,045
-713,962	800,000	0,043	-0,094
-712,948	11,175	-0,043	-0,024
-711,933	-52,529	0,156	0,052
-710,918	180,170	-0,114	0,121
-709,904	168,194	-0,062	0,064
-708,889	-200,000	-0,011	-0,093
-707,875	223,886	-0,121	-0,142
-706,860	335,117	-0,005	0,007
-705,845	-200,000	-0,001	0,092
-704,831	83,185	-0,048	-0,038
-703,816	-51,634	-0,055	-0,018
-702,802	23,630	-0,128	-0,076
-701,787	-148,266	0,113	0,007
-700,772	36,371	-0,046	0,029
-699,758	-38,368	0,074	0,028
-698,743	800,000	0,049	-0,151
-697,729	-92,153	0,055	0,011
-696,714	142,333	-0,044	0,043
-695,699	98,342	0,027	0,022
-694,685	-125,012	-0,050	-0,005
-693,670	8,205	-0,058	-0,032
-692,656	697,715	0,056	0,106
-691,641	-170,314	-0,084	-0,002
-690,627	30,243	0,095	-0,059
-689,612	-200,000	0,007	0,130
-688,597	97,947	-0,057	-0,047
-687,583	117,098	-0,069	-0,062
-686,568	-11,609	-0,065	-0,031
-685,554	138,074	-0,129	-0,123
-684,539	-9,565	-0,073	0,035
-683,524	-130,234	-0,107	0,010
-682,510	167,575	-0,024	0,024
-681,495	-200,000	-0,017	0,094
-680,481	-30,528	-0,083	0,034
-679,466	90,632	-0,052	0,042
-678,451	-200,000	-0,021	-0,143
-677,437	313,620	-0,015	0,020
-676,422	90,545	0,082	0,067
-675,408	-200,000	-0,005	0,056
-674,393	-24,488	-0,115	-0,049
-673,378	-200,000	-0,007	0,084
-672,364	-200,000	-0,017	-0,139
-671,349	-131,744	-0,035	0,003
-670,335	259,711	-0,027	-0,034
-669,320	169,334	-0,092	-0,095
-668,305	180,972	-0,057	-0,061
-667,291	103,379	0,088	0,075
-666,276	489,103	-0,055	-0,092
-665,262	183,770	-0,083	-0,089
-664,247	163,505	-0,043	-0,044
-663,232	-200,000	-0,008	0,028
-662,218	11,833	0,158	0,087
-661,203	-200,000	-0,002	0,151
-660,189	-200,000	0,004	-0,193
-659,174	103,913	-0,048	-0,041
-658,159	-200,000	-0,005	-0,135
-657,145	-200,000	0,015	-0,152
-656,130	164,149	0,079	-0,081
-655,116	-200,000	-0,022	0,092
-654,101	79,215	0,072	0,056
-653,086	-8,167	0,073	-0,035
-652,072	-200,000	0,015	0,100
-651,057	800,000	-0,037	-0,113
-650,043	-3,436	-0,159	0,080
-649,028	99,221	-0,110	0,092
-648,014	-200,000	0,021	0,094
-646,999	64,210	-0,069	0,050
-645,984	3,592	-0,058	0,031
-644,970	-20,063	0,038	-0,017
-643,955	-200,000	-0,003	-0,133
-642,941	-112,366	-0,074	-0,011
-641,926	-200,000	0,014	0,075
-640,911	179,906	0,077	0,082
-639,897	18,708	-0,097	-0,056
-638,882	748,922	-0,022	0,043
-637,868	88,183	-0,031	0,025
-636,853	-92,495	0,070	-0,014
-635,838	800,000	0,036	-0,077
-634,824	-200,000	-0,034	-0,111
-633,809	-44,110	0,107	-0,039
-632,795	-81,642	0,124	0,029
-631,780	67,550	-0,167	-0,123
-630,765	29,545	-0,046	-0,028
-629,751	226,666	-0,152	-0,179
-628,736	-200,000	-0,007	-0,109
-627,722	234,085	0,030	-0,035
-626,707	94,797	0,038	0,031
-625,692	317,252	-0,040	0,055
-624,678	-200,000	-0,024	0,206
-623,663	-30,064	-0,117	0,048
-622,649	-157,482	0,040	0,002
-621,634	-74,755	-0,211	-0,054
-620,619	97,730	-0,118	-0,098
-619,605	339,767	0,056	-0,079
-618,590	145,269	-0,050	0,048
-617,576	215,351	0,047	0,054
-616,561	148,515	-0,024	-0,023
-615,546	800,000	0,023	0,064
-614,532	800,000	0,018	-0,046
-613,517	6,964	-0,201	0,108
-612,503	179,765	0,059	0,063
-611,488	-200,000	-0,009	-0,061
-610,474	-13,788	-0,053	-0,025
-609,459	322,863	-0,045	0,062
-608,444	-181,927	0,107	-0,001
-607,430	169,921	0,029	-0,030
-606,415	-200,000	0,026	-0,093
-605,401	118,228	0,069	-0,062
-604,386	-174,712	0,158	-0,003
-603,371	437,437	-0,050	0,078
-602,357	17,427	-0,037	0,021
-601,342	40,785	-0,051	0,033
-600,328	-19,428	-0,187	-0,083
-599,313	800,000	0,002	0,007
-598,298	-27,892	0,065	0,027
-597,284	-200,000	-0,026	0,144
-596,269	-200,000	-0,029	0,114
-595,255	3,085	0,039	-0,020
-594,240	-200,000	-0,002	-0,032
-593,225	-66,379	-0,055	-0,016
-592,211	-120,706	0,081	0,010
-591,196	424,160	-0,025	0,038
-590,182	-200,000	-0,005	-0,022
-589,167	800,000	-0,014	0,031
-588,152	-200,000	-0,000	0,020
-587,138	-200,000	-0,019	0,159
-586,123	-169,266	-0,092	-0,002
-585,109	800,000	0,052	0,131
-584,094	94,965	-0,075	-0,062
-583,079	144,747	-0,082	0,079
-582,065	35,964	0,054	-0,034
-581,050	-124,079	-0,036	0,004
-580,036	-58,132	0,019	0,006
-579,021	491,442	0,069	-0,115
-578,006	800,000	-0,070	-0,194
-576,992	148,465	0,060	-0,059
-575,977	-63,287	0,033	0,010
-574,963	101,244	-0,085	0,071
-573,948	-54,155	0,008	-0,003
-572,934	-60,921	0,070	0,021
-571,919	-25,904	0,084	-0,035
-570,904	-200,000	0,002	-0,010
-569,890	106,060	0,032	0,027
-568,875	-2,632	0,127	0,064
-567,861	57,267	0,095	0,067
-566,846	800,000	-0,060	-0,141
-565,831	-200,000	-0,001	-0,079
-564,817	100,887	-0,029	-0,024
-563,802	-115,779	0,101	-0,014
-562,788	800,000	-0,035	-0,103
-561,773	-200,000	0,044	0,143
-560,758	-70,255	0,122	-0,033
-559,744	800,000	-0,035	-0,110
-558,729	-117,633	-0,097	-0,012
-557,715	800,000	0,049	-0,102
-556,700	425,878	0,054	-0,084
-555,685	231,467	-0,136	-0,161
-554,671	218,616	-0,055	-0,063
-553,656	-81,459	-0,125	-0,029
-552,642	128,060	0,094	-0,086
-551,627	419,121	-0,022	-0,034
-550,612	-200,000	0,014	-0,067
-549,598	-200,000	-0,004	-0,093
-548,583	-99,718	-0,017	-0,003
-547,569	50,031	-0,058	-0,039
-546,554	30,186	0,040	0,024
-545,539	-123,549	0,108	0,012
-544,525	59,415	-0,093	0,066
-543,510	-52,158	0,114	-0,038
-542,496	405,354	-0,015	-0,023
-541,481	-73,790	-0,185	-0,048
-540,466	-64,339	0,041	-0,012
-539,452	-7,009	0,057	-0,028
-538,437	-200,000	0,003	-0,019
-537,423	-14,213	0,012	0,006
-536,408	-200,000	-0,024	0,083
-535,393	-200,000	-0,010	-0,152
-534,379	116,912	-0,062	-0,055
-533,364	-102,799	0,037	0,006
-532,350	19,305	0,095	0,055
-531,335	-89,205	-0,098	-0,021
-530,321	-93,907	0,142	0,028
-529,306	-136,889	-0,139	0,011
-528,291	181,348	0,059	-0,063
-527,277	-110,485	0,041	0,006
-526,262	-123,219	-0,038	-0,004
-525,248	595,715	0,046	-0,082
-524,233	-200,000	0,011	-0,049
-523,218	756,597	0,061	0,120
-522,204	800,000	0,051	-0,134
-521,189	51,224	-0,183	-0,125
-520,175	-82,510	0,015	-0,004
-519,160	-154,303	-0,046	-0,002
-518,145	-200,000	-0,015	0,055
-517,131	153,884	0,026	0,026
-516,116	74,672	-0,026	0,020
-515,102	-200,000	-0,022	0,104
-514,087	800,000	-0,041	0,104
-513,072	-200,000	-0,011	-0,070
-512,058	-125,320	-0,049	0,005
-511,043	24,527	0,110	0,066
-510,029	-123,161	-0,011	0,001
-509,014	437,295	-0,073	0,115
-507,999	-28,668	-0,023	-0,009
-506,985	-200,000	0,009	0,093
-505,970	800,000	-0,036	-0,101
-504,956	800,000	-0,040	-0,124
-503,941	-200,000	0,020	-0,115
-502,926	-97,026	0,127	-0,024
-501,912	-200,000	0,010	0,098
-500,897	-200,000	-0,017	0,101
-499,883	227,256	-0,097	-0,113
-498,868	-200,000	0,013	-0,094
-497,853	292,899	0,081	0,106
-496,839	-200,000	-0,022	-0,112
-495,824	167,504	0,029	0,030
-494,810	-107,111	-0,044	-0,007
-493,795	-108,995	-0,108	-0,016
-492,781	-200,000	0,001	0,034
-491,766	280,268	-0,039	0,050
-490,751	-200,000	0,032	-0,106
-489,737	-85,569	-0,112	0,025
-488,722	-200,000	-0,015	0,127
-487,708	121,500	0,122	0,109
-486,693	-200,000	-0,000	-0,002
-485,678	-59,807	-0,133	-0,041
-484,664	106,278	0,109	-0,093
-483,649	-55,749	0,060	0,019
-482,635	-8,659	0,057	-0,027
-481,620	-47,147	0,131	0,046
-480,605	-200,000	0,040	0,146
-479,591	61,409	0,037	-0,026
-478,576	800,000	-0,050	-0,144
-477,562	-200,000	-0,012	-0,127
-476,547	9,634	-0,079	0,043
-475,532	800,000	0,023	0,047
-474,518	6,862	-0,037	0,020
-473,503	-200,000	-0,009	0,054
-472,489	206,998	0,031	0,035
-471,474	-84,980	-0,072	-0,016
-470,459	-30,095	0,081	-0,033
-469,445	-65,971	-0,032	0,009
-468,430	800,000	-0,012	-0,029
-467,416	-110,616	0,127	0,019
-466,401	38,048	0,095	0,060
-465,386	642,058	0,086	0,158
-464,372	800,000	0,038	-0,093
-463,357	150,811	0,061	0,060
-462,343	659,340	-0,037	-0,068
-461,328	800,000	-0,033	0,072
-460,313	-170,020	-0,102	0,003
-459,299	163,880	-0,024	0,024
-458,284	-200,000	-0,034	0,128
-457,270	-3,754	-0,035	0,017
-456,255	-118,921	0,039	-0,005
-455,241	-200,000	0,027	-0,107
-454,226	55,692	0,053	-0,037
-453,211	-124,988	-0,137	0,015
-452,197	-47,201	-0,150	0,052
-451,182	-116,769	0,022	0,003
-450,168	251,159	-0,093	0,114
-449,153	-200,000	0,023	-0,079
-448,138	146,222	-0,118	-0,114
-447,124	-44,995	-0,145	-0,052
-446,109	-200,000	-0,007	-0,043
-445,095	146,741	-0,054	-0,052
-444,080	294,912	0,135	0,177
-443,065	126,080	0,087	0,079
-442,051	547,345	0,014	0,024
-441,036	-200,000	-0,001	0,021
-440,022	90,314	-0,111	0,089
-439,007	-200,000	-0,029	-0,164
-437,992	203,701	-0,099	0,110
-436,978	226,409	0,033	-0,038
-435,963	-86,206	-0,055	-0,012
-434,949	-200,000	-0,025	0,098
-433,934	-154,492	-0,115	-0,005
-432,919	-162,841	-0,109	-0,004
-431,905	-200,000	-0,005	0,130
-430,890	-200,000	-0,001	-0,055
-429,876	1,119	0,177	0,091
-428,861	-68,123	0,108	-0,030
-427,846	-94,495	-0,170	0,033
-426,832	-99,566	-0,133	-0,024
-425,817	-190,727	0,048	-0,000
-424,803	800,000	-0,079	0,180
-423,788	-97,996	0,139	0,026
-422,773	800,000	0,030	0,076
-421,759	-200,000	-0,020	0,107
-420,744	194,238	0,092	0,100
-419,730	-200,000	0,016	-0,084
-418,715	38,455	-0,112	-0,072
-417,701	194,261	0,046	0,051
-416,686	800,000	0,018	0,054
-415,671	-200,000	0,004	-0,033
-414,657	210,140	0,099	0,112
-413,642	-134,654	0,017	-0,001
-412,628	209,267	-0,061	0,069
-411,613	107,180	-0,079	0,067
-410,598	95,307	-0,047	0,038
-409,584	-17,995	0,047	-0,021
-408,569	-167,714	-0,146	-0,004
-407,555	-200,000	0,020	0,154
-406,540	-200,000	0,001	-0,023
-405,525	44,242	0,081	-0,053
-404,511	307,318	-0,132	-0,177
-403,496	62,056	-0,021	-0,015
-402,482	-65,397	0,103	-0,030
-401,467	-200,000	-0,023	0,087
-400,452	649,173	0,038	-0,069
-399,438	-200,000	0,010	-0,068
-398,423	-95,500	0,007	0,001
-397,409	42,576	-0,034	-0,022
-396,394	103,142	-0,026	0,022
-395,379	800,000	0,032	-0,083
-394,365	14,487	-0,072	-0,040
-393,350	139,154	0,109	0,103
-392,336	-144,023	-0,071	-0,005
-391,321	-21,451	0,063	0,027
-390,306	-72,222	0,221	-0,058
-389,292	213,083	0,061	-0,069
-388,277	134,404	-0,098	-0,091
-387,263	353,402	0,089	0,127
-386,248	-200,000	0,001	-0,017
-385,233	29,124	0,061	-0,037
-384,219	18,208	0,057	0,032
-383,204	55,245	0,118	0,081
-382,190	-114,235	-0,156	-0,021
-381,175	800,000	0,035	0,099
-380,160	800,000	0,041	0,110
-379,146	-110,723	-0,024	0,004
-378,131	686,079	0,064	0,121
-377,117	-200,000	0,011	-0,116
-376,102	-164,846	0,060	-0,002
-375,088	182,041	-0,046	-0,049
-374,073	437,897	0,007	-0,012
-373,058	24,108	0,082	0,049
-372,044	365,959	0,052	0,076
-371,029	-14,136	0,045	-0,021
-370,015	213,851	-0,063	-0,071
-369,000	800,000	0,050	0,116
-367,985	800,000	-0,010	-0,019
-366,971	-77,608	-0,097	-0,024
-365,956	312,155	0,088	-0,119
-364,942	-200,000	-0,001	0,036
-363,927	22,130	0,036	0,021
-362,912	-84,319	0,066	-0,015
-361,898	-26,842	0,088	0,037
-360,883	-64,152	-0,053	-0,015
-359,869	800,000	-0,063	0,166
-358,854	800,000	0,021	0,065
-357,839	-149,480	0,051	-0,003
-356,825	247,530	0,068	-0,083
-355,810	361,698	0,018	-0,025
-354,796	14,991	0,121	0,068
-353,781	-152,337	0,069	-0,004
-352,766	248,084	-0,108	-0,131
-351,752	0,317	0,040	0,020
-350,737	-200,000	-0,023	0,094
-349,723	-47,371	0,060	-0,021
-348,708	-125,607	0,115	0,012
-347,693	727,367	0,081	-0,156
-346,679	-192,299	0,208	0,001
-345,664	473,205	-0,009	0,015
-344,650	-3,933	0,110	0,054
-343,635	-200,000	0,033	0,111
-342,620	158,407	0,031	0,031
-341,606	-32,359	0,155	0,062
-340,591	-16,674	-0,089	-0,040
-339,577	800,000	-0,025	0,076
-338,562	-162,937	0,132	0,005
-337,548	429,373	-0,037	0,057
-336,533	-200,000	-0,004	0,035
-335,518	-165,713	0,134	0,004
-334,504	800,000	-0,038	-0,096
-333,489	-133,623	0,242	0,021
-332,475	311,189	-0,117	-0,157
-331,460	-7,427	0,062	0,030
-330,445	-64,420	-0,104	-0,030
-329,431	230,240	0,172	-0,201
-328,416	-74,996	0,098	0,025
-327,402	800,000	0,022	0,063
-326,387	684,992	0,062	0,117
-325,372	12,846	0,066	-0,036
-324,358	-157,623	-0,094	-0,004
-323,343	129,612	0,107	0,098
-322,329	-108,930	-0,014	0,002
-321,314	-49,986	0,023	-0,008
-320,299	-200,000	-0,003	0,062
-319,285	66,262	0,030	-0,022
-318,270	138,653	0,088	0,083
-317,256	-36,965	-0,079	0,030
-316,241	-30,345	0,124	0,050
-315,226	-200,000	-0,029	0,090
-314,212	123,346	0,053	-0,048
-313,197	0,894	-0,070	0,036
-312,183	-200,000	0,020	-0,092
-311,168	306,230	-0,058	-0,077
-310,153	355,552	-0,089	-0,127
-309,139	-200,000	-0,020	-0,076
-308,124	-200,000	0,009	0,058
-307,110	-86,787	0,231	-0,050
-306,095	-26,798	-0,085	0,035
-305,080	-200,000	0,023	0,095
-304,066	244,914	-0,048	-0,058
-303,051	-95,636	-0,048	0,009
-302,037	170,385	-0,002	0,002
-301,022	43,390	-0,070	-0,046
-300,008	-106,811	0,134	0,021
-298,993	247,085	-0,097	0,117
-297,978	672,255	-0,022	-0,040
-296,964	-7,619	-0,070	-0,034
-295,949	-110,861	-0,041	-0,006
-294,935	151,685	0,039	-0,038
-293,920	157,957	-0,142	-0,140
-292,905	59,568	0,033	0,023
-291,891	800,000	0,047	0,144
-290,876	-196,611	0,081	0,000
-289,862	800,000	0,044	-0,107
-288,847	-200,000	-0,030	0,127
-287,832	237,162	-0,054	-0,064
-286,818	-78,554	0,106	0,026
-285,803	-156,143	-0,064	-0,003
-284,789	800,000	0,069	0,146
-283,774	470,725	-0,024	0,039
-282,759	-131,534	-0,024	0,002
-281,745	34,865	-0,082	-0,051
-280,730	165,930	0,033	0,033
-279,716	-62,978	-0,110	-0,032
-278,701	666,449	-0,017	0,032
-277,686	186,900	0,052	-0,055
-276,672	9,807	0,141	0,076
-275,657	-14,656	-0,022	0,010
-274,643	800,000	-0,037	0,077
-273,628	23,224	-0,031	0,018
-272,613	-79,597	-0,079	0,019
-271,599	116,913	-0,129	0,113
-270,584	32,547	0,091	0,056
-269,570	51,022	0,127	0,086
-268,555	526,163	-0,040	0,068
-267,540	122,673	0,025	-0,023
-266,526	800,000	0,038	-0,114
-265,511	800,000	-0,023	-0,071
-264,497	259,596	0,093	-0,115
-263,482	-156,171	0,014	0,001
-262,467	77,289	-0,089	0,068
-261,453	-110,424	0,086	0,013
-260,438	770,509	-0,020	-0,038
-259,424	388,094	0,025	0,037
-258,409	562,427	-0,043	-0,075
-257,395	606,869	-0,025	-0,044
-256,380	-130,652	0,140	-0,013
-255,365	-200,000	0,011	-0,073
-254,351	-200,000	0,039	-0,134
-253,336	800,000	-0,025	0,059
-252,322	131,881	-0,088	0,081
-251,307	169,741	-0,052	0,053
-250,292	-74,461	-0,059	0,015
-249,278	-66,749	0,137	-0,038
-248,263	-200,000	-0,004	0,087
-247,249	-200,000	-0,004	-0,026
-246,234	302,378	-0,098	0,130
-245,219	-200,000	0,006	0,095
-244,205	-8,342	0,025	0,012
-243,190	437,038	-0,027	0,041
-242,176	-135,523	-0,030	0,003
-241,161	113,054	-0,131	0,113
-240,146	-20,576	0,089	-0,039
-239,132	-200,000	0,004	-0,059
-238,117	-200,000	-0,007	-0,067
-237,103	-14,923	-0,038	-0,017
-236,088	-1,188	-0,173	-0,087
-235,073	-197,716	0,034	-0,000
-234,059	-82,250	0,163	0,038
-233,044	-60,257	-0,130	-0,039
-232,030	-132,508	0,083	-0,008
-231,015	-13,852	-0,080	-0,037
-230,000	223,576	-0,028	-0,033
-228,986	800,000	-0,036	-0,093
-227,971	482,159	-0,038	0,061
-226,957	-200,000	0,014	0,143
-225,942	-40,614	-0,124	-0,045
-224,927	61,110	-0,024	0,017
-223,913	86,619	-0,096	0,075
-222,898	389,646	0,092	-0,137
-221,884	-140,919	-0,119	0,009
-220,869	-44,863	0,052	0,018
-219,855	47,558	-0,027	0,018
-218,840	129,047	-0,064	0,058
-217,825	-200,000	0,003	0,099
-216,811	-200,000	0,004	-0,110
-215,796	85,533	-0,036	-0,028
-214,782	-129,394	0,061	0,006
-213,767	0,787	-0,043	-0,022
-212,752	800,000	-0,036	0,085
-211,738	-200,000	-0,006	0,079
-210,723	8,867	0,046	0,024
-209,709	306,687	-0,023	-0,031
-208,694	800,000	-0,019	-0,057
-207,679	-200,000	-0,001	0,138
-206,665	-200,000	0,006	0,029
-205,650	-84,727	0,160	0,035
-204,636	800,000	0,073	-0,178
-203,621	571,633	0,038	0,066
-202,606	-200,000	-0,008	-0,070
-201,592	-34,270	-0,081	-0,031
-200,577	-200,000	0,008	-0,140
-199,563	800,000	-0,054	-0,122
-198,548	-33,693	-0,069	0,027
-197,533	800,000	-0,045	-0,116
-196,519	338,265	0,064	0,089
-195,504	34,596	0,066	-0,041
-194,490	-9,718	-0,163	-0,077
-193,475	-200,000	0,014	-0,143
-192,460	268,833	-0,045	-0,056
-191,446	-200,000	0,026	-0,091
-190,431	-129,044	0,061	0,006
-189,417	227,842	-0,051	0,060
-188,402	-69,898	-0,029	-0,008
-187,387	703,930	-0,015	0,028
-186,373	183,318	0,053	0,055
-185,358	29,408	0,092	-0,055
-184,344	-7,670	-0,017	-0,008
-183,329	187,198	-0,079	-0,084
-182,315	-149,965	0,106	-0,006
-181,300	-109,354	0,213	0,032
-180,285	-200,000	-0,025	0,085
-179,271	-59,588	-0,078	0,023
-178,256	334,191	-0,015	-0,021
-177,242	-200,000	0,023	-0,123
-176,227	0,185	-0,024	-0,012
-175,212	800,000	0,020	-0,044
-174,198	378,119	-0,026	-0,038
-173,183	-200,000	-0,008	-0,032
-172,169	461,118	-0,102	0,163
-171,154	-200,000	0,004	-0,130
-170,139	141,442	-0,084	-0,079
-169,125	-19,017	0,073	0,032
-168,110	63,879	-0,123	-0,088
-167,096	-200,000	0,024	0,080
-166,081	650,225	0,036	0,067
-165,066	-28,993	-0,154	-0,063
-164,052	-8,584	-0,052	-0,025
-163,037	-200,000	-0,007	-0,101
-162,023	154,263	0,061	0,059
-161,008	213,516	-0,043	0,049
-159,993	800,000	0,027	0,082
-158,979	583,698	-0,097	-0,171
-157,964	-200,000	0,017	0,177
-156,950	562,624	-0,075	-0,129
-155,935	-200,000	-0,002	-0,021
-154,920	6,208	-0,022	0,012
-153,906	-200,000	0,006	0,051
-152,891	-142,532	0,152	0,010
-151,877	-200,000	-0,030	0,130
-150,862	393,470	-0,049	-0,073
-149,847	-200,000	0,001	0,179
-148,833	10,735	-0,022	0,012
-147,818	-82,925	0,067	-0,015
-146,804	274,104	0,093	0,117
-145,789	800,000	0,066	0,167
-144,775	234,215	-0,072	-0,084
-143,760	-200,000	-0,029	-0,187
-142,745	-200,000	0,017	-0,285
-141,731	15,669	0,028	0,016
-140,716	800,000	0,031	-0,083
-139,702	-200,000	-0,017	0,110
-138,687	100,541	-0,117	0,096
-137,672	800,000	0,055	0,162
-136,658	-200,000	0,016	-0,064
-135,643	-200,000	0,013	-0,146
-134,629	-200,000	-0,003	0,042
-133,614	-200,000	0,017	-0,064
-132,599	95,967	-0,088	0,071
-131,585	-200,000	0,017	-0,092
-130,570	-9,134	-0,045	0,021
-129,556	-31,871	-0,147	-0,058
-128,541	-200,000	0,027	-0,246
-127,526	443,016	0,062	-0,097
-126,512	-200,000	0,029	0,192
-125,497	427,542	-0,035	0,054
-124,483	-200,000	-0,024	0,129
-123,468	277,667	-0,032	-0,040
-122,453	-200,000	-0,013	-0,117
-121,439	71,697	-0,068	-0,050
-120,424	404,811	-0,068	-0,102
-119,410	-200,000	0,012	-0,059
-118,395	267,213	0,082	-0,102
-117,380	-117,230	0,101	0,013
-116,366	-200,000	0,006	0,044
-115,351	-42,340	0,056	-0,020
-114,337	-93,647	-0,037	0,007
-113,322	476,172	0,090	0,144
-112,307	312,626	-0,042	0,055
-111,293	-200,000	0,024	0,111
-110,278	-200,000	0,045	0,245
-109,264	800,000	-0,026	0,080
-108,249	800,000	0,029	0,063
-107,234	-200,000	0,002	0,008
-106,220	-200,000	-0,002	-0,019
-105,205	-200,000	-0,001	0,201
-104,191	800,000	0,021	-0,065
-103,176	27,831	-0,017	-0,010
-102,162	800,000	-0,023	-0,056
-101,147	125,375	0,052	-0,047
-100,132	203,282	-0,070	0,077
-99,118	347,624	-0,055	0,077
-98,103	325,095	0,015	-0,021
-97,089	800,000	-0,018	-0,051
-96,074	-45,980	0,139	-0,048
-95,059	800,000	0,041	0,085
-94,045	-58,769	-0,023	-0,007
-93,030	-180,730	-0,117	-0,002
-92,016	-86,250	-0,179	-0,039
-91,001	-88,223	0,168	0,035
-89,986	-78,276	-0,008	-0,002
-88,972	-200,000	-0,015	0,132
-87,957	158,928	-0,065	-0,064
-86,943	185,128	0,083	0,088
-85,928	-85,993	0,082	0,018
-84,913	141,714	-0,090	-0,084
-83,899	-115,964	-0,077	-0,010
-82,884	-200,000	-0,019	0,078
-81,870	-200,000	0,022	0,081
-80,855	-26,381	0,150	0,062
-79,840	742,113	-0,110	0,210
-78,826	-38,137	-0,062	-0,023
-77,811	800,000	-0,048	0,150
-76,797	-37,913	-0,132	0,050
-75,782	153,193	0,076	0,074
-74,767	800,000	0,039	0,089
-73,753	-200,000	-0,030	0,150
-72,738	-34,460	0,047	0,018
-71,724	67,913	-0,126	-0,091
-70,709	-68,724	0,173	-0,047
-69,694	351,829	0,061	0,085
-68,680	-200,000	-0,015	0,144
-67,665	-24,055	0,149	-0,063
-66,651	208,827	-0,072	-0,080
-65,636	-200,000	0,001	0,024
-64,622	-147,030	-0,145	-0,009
-63,607	132,776	0,021	0,019
-62,592	800,000	0,031	0,064
-61,578	-74,917	0,057	0,014
-60,563	305,480	0,074	0,098
-59,549	122,883	-0,071	0,063
-58,534	33,920	-1,665	-1,023
-57,519	445,531	-1,313	-2,047
-56,505	-200,000	-0,554	-4,535
-55,490	400,593	0,920	1,369
-54,476	800,000	5,109	11,287
-53,461	-200,000	20,170	324,612
-52,446	800,000	752,181	2314,027
-51,432	549,546	1663,530	2830,980
-50,417	75,220	1672,415	1245,763
-49,403	20,111	1545,237	879,279
-48,388	14,102	1467,435	805,766
-47,373	18,301	1457,652	820,654
-46,359	16,366	1447,286	805,507
-45,344	12,392	1442,571	783,815
-44,330	12,269	1440,803	782,234
-43,315	12,312	1438,951	781,403
-42,300	12,319	1437,271	780,494
-41,286	12,361	1435,915	779,927
-40,271	12,286	1434,682	778,871
-39,257	12,313	1433,481	778,315
-38,242	12,373	1432,158	777,850
-37,227	12,329	1431,175	777,076
-36,213	12,411	1429,524	776,543
-35,198	12,352	1428,542	775,698
-34,184	12,388	1427,632	775,341
-33,169	12,325	1426,054	774,156
-32,154	12,351	1425,100	773,731
-31,140	12,394	1423,817	773,206
-30,125	12,408	1422,734	772,656
-29,111	12,374	1421,554	771,821
-28,096	12,343	1420,462	771,051
-27,082	12,312	1419,294	770,239
-26,067	12,283	1418,445	769,613
-25,052	12,274	1417,241	768,885
-24,038	12,270	1416,220	768,283
-23,023	12,262	1415,403	767,774
-22,009	12,300	1413,941	767,126
-20,994	12,246	1413,270	766,477
-19,979	12,256	1412,481	766,070
-18,965	12,239	1411,383	765,362
-17,950	12,231	1410,468	764,800
-16,936	12,248	1409,664	764,410
-15,921	12,192	1408,629	763,557
-14,906	12,204	1407,749	763,106
-13,892	12,248	1406,717	762,724
-12,877	12,247	1405,893	762,242
-11,863	12,160	1405,120	761,383
-10,848	12,201	1404,127	761,006
-9,833	12,140	1403,215	760,197
-8,819	12,116	1402,576	759,710
-7,804	12,082	1401,722	759,061
-6,790	12,105	1400,483	758,467
-5,775	12,095	1399,406	757,807
-4,760	12,119	1398,498	757,395
-3,746	12,123	1397,529	756,860
-2,731	12,120	1396,723	756,376
-1,717	12,048	1396,047	755,648
-0,702	12,071	1394,103	754,675
0,313	15,991	1309,070	726,756
1,327	32,174	699,990	425,814
2,342	49,950	122,080	81,245
3,356	1,928	16,550	8,410
4,371	8,946	3,218	1,711
5,386	9,432	0,681	0,363
6,400	-200,000	0,088	0,482
7,415	-34,371	-0,223	-0,086
8,429	39,905	-0,274	-0,174
9,444	51,944	-0,355	-0,238
10,459	169,643	-0,286	-0,289
11,473	71,838	-0,305	-0,224
12,488	315,012	-0,183	-0,244
13,502	61,286	-0,242	-0,170
14,517	-3,119	-0,275	-0,135
15,531	74,900	-0,378	-0,281
16,546	48,999	-0,377	-0,250
17,561	122,708	-0,385	-0,340
18,575	-39,195	-0,135	0,050
19,590	31,635	-0,242	-0,147
20,604	-6,756	-0,229	-0,110
21,619	-53,960	-0,521	-0,166
22,634	94,623	-0,419	-0,335
23,648	66,020	-0,566	-0,405
24,663	164,094	-0,337	-0,335
25,677	56,475	-0,314	-0,215
26,692	31,444	-0,300	-0,182
27,707	169,438	-0,221	-0,223
28,721	104,551	-0,422	-0,350
29,736	448,639	-0,288	-0,449
30,750	152,879	-0,323	-0,312
31,765	20,446	-0,448	-0,254
32,780	278,814	-0,295	-0,372
33,794	102,337	-0,315	-0,259
34,809	10,626	-0,424	-0,227
35,823	123,295	-0,382	-0,338
36,838	174,821	-0,293	-0,299
37,853	174,022	-0,415	-0,423
38,867	19,063	-0,502	-0,283
39,882	588,578	-0,185	-0,322
40,896	15,584	-0,341	-0,188
41,911	206,277	-0,274	-0,301
42,926	126,612	-0,386	-0,344
43,940	382,424	-0,275	-0,400
44,955	-11,900	-0,427	-0,197
45,969	103,035	-0,318	-0,262
46,984	171,259	-0,289	-0,292
47,999	39,796	-0,285	-0,180
49,013	170,367	-0,294	-0,296
50,028	82,532	-0,312	-0,238
51,042	11,407	-0,315	-0,169
52,057	-2,616	-0,351	-0,172
53,071	135,833	-0,282	-0,258
54,086	106,213	-0,387	-0,322
55,101	-22,377	-0,345	-0,146
56,115	-45,865	-0,366	-0,126
57,130	-42,221	-0,346	-0,124
58,144	99,564	-0,310	-0,252
59,159	383,743	-0,321	-0,466
60,174	122,364	-0,359	-0,315
61,188	276,042	-0,246	-0,308
62,203	-24,225	-0,514	-0,215
63,217	45,938	-0,309	-0,200
64,232	82,153	-0,220	-0,168
65,247	61,992	-0,415	-0,290
66,261	103,310	-0,325	-0,267
67,276	19,213	-0,445	-0,250
68,290	-3,675	-0,362	-0,176
69,305	18,656	-0,311	-0,175
70,320	-66,053	-0,444	-0,124
71,334	57,038	-0,270	-0,185
72,349	-15,369	-0,402	-0,180
73,363	-2,418	-0,450	-0,221
74,378	18,818	-0,341	-0,191
75,393	26,596	-0,356	-0,209
76,407	75,749	-0,159	-0,118
77,422	77,240	-0,229	-0,171
78,436	0,763	-0,362	-0,181
79,451	-42,011	-0,302	-0,108
80,466	-15,539	-0,429	-0,191
81,480	173,115	-0,213	-0,216
82,495	148,667	-0,243	-0,230
83,509	-65,281	-0,204	-0,057
84,524	73,983	-0,237	-0,174
85,539	18,189	-0,259	-0,145
86,553	34,417	-0,322	-0,196
87,568	17,595	-0,345	-0,192
88,582	37,789	-0,340	-0,211
89,597	273,936	-0,173	-0,215
90,611	-111,912	-0,258	-0,036
91,626	14,153	-0,318	-0,173
92,641	-58,276	-0,245	-0,074
93,655	123,713	-0,185	-0,163
94,670	87,803	-0,281	-0,218
95,684	-8,957	-0,351	-0,164
96,699	172,184	-0,213	-0,215
97,714	-142,527	-0,266	0,018
98,728	-95,393	-0,250	-0,047
99,743	84,212	-0,245	-0,188
100,757	294,999	-0,197	-0,253
101,772	69,407	-0,418	-0,301
102,787	-163,690	-0,312	0,010
103,801	8,006	-0,276	-0,145
104,816	12,822	-0,295	-0,159
105,830	-154,831	-0,174	-0,008
106,845	65,143	-0,186	-0,131
107,860	55,983	-0,218	-0,148
108,874	47,224	-0,278	-0,181
109,889	-24,193	-0,263	-0,110
110,903	-54,413	-0,266	-0,084
111,918	90,039	-0,250	-0,196
112,933	-40,880	-0,277	-0,100
113,947	-12,011	-0,176	-0,081
114,962	36,291	-0,253	-0,155
115,976	-2,366	-0,303	-0,148
116,991	256,277	-0,256	-0,308
118,006	40,322	-0,331	-0,208
119,020	54,869	-0,244	-0,164
120,035	10,660	-0,164	-0,087
121,049	74,045	-0,188	-0,138
122,064	161,655	-0,278	-0,272
123,079	34,416	-0,265	-0,161
124,093	-7,911	-0,234	-0,110
125,108	62,500	-0,371	-0,259
126,122	139,155	-0,221	-0,203
127,137	23,092	-0,218	-0,125
128,151	231,035	-0,154	-0,177
129,166	-90,959	-0,342	-0,068
130,181	-200,000	-0,045	-0,203
131,195	123,560	-0,254	-0,222
132,210	66,265	-0,240	-0,170
133,224	103,295	-0,191	-0,156
134,239	278,090	-0,166	-0,207
135,254	-0,862	-0,181	-0,089
136,268	23,574	-0,211	-0,121
137,283	327,821	-0,186	-0,250
138,297	-44,515	-0,408	-0,142
139,312	472,333	-0,145	-0,229
140,327	37,317	-0,193	-0,119
141,341	170,842	-0,291	-0,291
142,356	299,737	-0,165	-0,212
143,370	164,023	-0,148	-0,145
144,385	50,585	-0,220	-0,145
145,400	-44,814	-0,270	-0,094
146,414	175,328	-0,201	-0,203
147,429	98,606	-0,261	-0,210
148,443	-6,755	-0,286	-0,135
149,458	190,873	-0,189	-0,199
150,473	-27,004	-0,350	-0,142
151,487	155,651	-0,258	-0,248
152,502	36,057	-0,246	-0,151
153,516	170,408	-0,308	-0,307
154,531	64,418	-0,187	-0,131
155,546	116,600	-0,245	-0,209
156,560	52,486	-0,270	-0,180
157,575	32,264	-0,233	-0,140
158,589	-110,945	-0,319	-0,045
159,604	-114,088	-0,231	-0,031
160,619	365,016	-0,129	-0,181
161,633	77,685	-0,205	-0,152
162,648	189,812	-0,085	-0,089
163,662	116,978	-0,177	-0,151
164,677	-96,256	-0,263	0,048
165,692	-114,268	-0,177	0,023
166,706	188,485	-0,137	-0,143
167,721	24,554	-0,320	-0,184
168,735	800,000	-0,129	-0,284
169,750	-18,618	-0,350	-0,152
170,764	-45,471	-0,327	-0,112
171,779	28,879	-0,169	-0,099
172,794	796,930	-0,157	-0,303
173,808	238,149	-0,215	-0,249
174,823	-68,202	-0,302	-0,081
175,837	-58,598	-0,322	-0,097
176,852	51,339	-0,134	-0,088
177,867	226,791	-0,195	-0,221
178,881	-179,206	-0,209	-0,003
179,896	-14,664	-0,212	0,094
180,910	309,754	-0,141	-0,184
181,925	48,742	-0,330	-0,215
182,940	681,992	-0,140	-0,254
183,954	51,580	-0,150	-0,099
184,969	78,673	-0,287	-0,213
185,983	299,947	-0,107	-0,138
186,998	216,395	-0,167	-0,185
188,013	29,197	-0,280	-0,165
189,027	236,800	-0,147	-0,169
190,042	332,166	-0,223	-0,300
191,056	227,278	-0,159	-0,180
192,071	51,230	-0,228	-0,150
193,086	182,682	-0,196	-0,201
194,100	102,140	-0,220	-0,178
195,115	-200,000	-0,074	-0,252
196,129	111,344	-0,242	-0,202
197,144	142,863	-0,169	-0,156
198,159	6,797	-0,220	-0,114
199,173	42,418	-0,206	-0,130
200,188	-5,707	-0,178	-0,084
201,202	90,685	-0,228	-0,178
202,217	-55,046	-0,215	-0,067
203,232	130,239	-0,167	-0,149
204,246	618,895	-0,103	-0,181
205,261	500,578	-0,157	-0,253
206,275	800,000	-0,066	-0,176
207,290	144,675	-0,204	-0,189
208,304	176,603	-0,137	-0,138
209,319	285,858	-0,190	-0,238
210,334	55,093	-0,303	-0,203
211,348	52,015	-0,183	-0,120
212,363	358,837	-0,183	-0,254
213,377	-44,494	-0,190	-0,066
214,392	42,777	-0,113	-0,072
215,407	38,659	-0,205	-0,127
216,421	35,641	-0,229	-0,139
217,436	297,502	-0,085	-0,108
218,450	114,911	-0,238	-0,201
219,465	505,796	-0,148	-0,239
220,480	99,920	-0,166	-0,133
221,494	-76,732	-0,162	-0,039
222,509	-5,581	-0,123	-0,058
223,523	5,087	-0,141	-0,072
224,538	4,102	-0,271	-0,137
225,553	30,631	-0,342	-0,202
226,567	80,386	-0,165	-0,123
227,582	211,494	-0,167	-0,183
228,596	60,682	-0,180	-0,124
229,611	800,000	-0,050	-0,153
230,626	149,027	-0,079	0,074
231,640	258,462	-0,152	-0,182
232,655	21,580	-0,274	-0,154
233,669	112,220	-0,261	-0,219
234,684	48,605	-0,247	-0,160
235,699	165,905	-0,136	-0,133
236,713	-200,000	-0,037	-0,205
237,728	276,186	-0,082	-0,101
238,742	-68,193	-0,198	-0,053
239,757	800,000	-0,124	-0,257
240,772	-85,807	-0,290	-0,062
241,786	-161,670	-0,223	0,008
242,801	-200,000	-0,031	-0,120
243,815	119,917	-0,174	-0,149
244,830	-200,000	-0,032	-0,123
245,844	279,167	-0,123	-0,152
246,859	9,338	-0,267	-0,139
247,874	263,469	-0,163	-0,197
248,888	300,584	-0,158	-0,202
249,903	273,265	-0,124	-0,152
250,917	36,500	-0,141	-0,086
251,932	-200,000	-0,044	-0,190
252,947	-10,148	-0,181	-0,083
253,961	22,645	-0,163	-0,092
254,976	52,766	-0,314	-0,207
255,990	389,076	-0,151	-0,217
257,005	524,887	-0,142	-0,232
258,020	184,232	-0,136	-0,139
259,034	300,587	-0,167	-0,213
260,049	694,070	-0,154	-0,280
261,063	-14,887	-0,257	-0,113
262,078	-73,190	-0,125	0,031
263,093	215,194	-0,211	-0,231
264,107	73,691	-0,143	-0,104
265,122	800,000	-0,049	-0,104
266,136	8,991	-0,233	-0,121
267,151	-174,590	-0,233	-0,004
268,166	112,484	-0,142	-0,118
269,180	494,125	-0,063	-0,100
270,195	248,515	-0,141	-0,165
271,209	37,672	-0,201	-0,123
272,224	-200,000	0,009	-0,123
273,239	433,307	-0,132	-0,199
274,253	-118,692	-0,192	-0,023
275,268	-200,000	-0,032	-0,110
276,282	282,829	-0,156	-0,194
277,297	453,994	-0,151	-0,232
278,312	380,148	-0,098	-0,140
279,326	800,000	-0,056	-0,118
280,341	359,975	-0,116	-0,160
281,355	58,427	-0,184	-0,124
282,370	-68,282	-0,201	-0,053
283,384	269,424	-0,128	-0,156
284,399	8,403	-0,290	-0,150
285,414	-24,907	-0,193	-0,079
286,428	11,364	-0,143	-0,075
287,443	800,000	-0,095	-0,190
288,457	800,000	-0,061	-0,178
289,472	662,623	-0,138	-0,245
290,487	-118,222	-0,250	-0,030
291,501	300,531	-0,221	-0,281
292,516	276,193	-0,179	-0,219
293,530	245,380	-0,093	-0,108
294,545	151,218	-0,128	-0,120
295,560	-156,427	-0,178	0,008
296,574	-9,267	-0,056	-0,026
297,589	114,202	-0,089	-0,075
298,603	741,528	-0,081	-0,151
299,618	78,463	-0,300	-0,221
300,633	-98,482	-0,125	-0,022
301,647	-200,000	0,007	-0,081
302,662	407,309	0,088	-0,128
303,676	-60,673	-0,107	-0,031
304,691	159,356	-0,201	-0,193
305,706	-200,000	-0,028	-0,131
306,720	800,000	-0,118	-0,297
307,735	195,825	-0,107	-0,112
308,749	669,186	-0,038	0,067
309,764	89,472	-0,102	-0,078
310,779	11,598	-0,019	-0,010
311,793	-188,931	-0,220	0,002
312,808	800,000	-0,100	-0,203
313,822	58,599	-0,095	-0,064
314,837	-2,423	-0,145	-0,070
315,852	-200,000	-0,065	-0,264
316,866	46,143	-0,119	-0,076
317,881	200,180	-0,074	-0,078
318,895	36,958	-0,168	-0,102
319,910	101,706	-0,155	-0,124
320,925	240,709	-0,144	-0,166
321,939	800,000	-0,027	-0,071
322,954	-154,583	-0,087	-0,004
323,968	713,855	-0,093	-0,171
324,983	30,198	-0,175	-0,102
325,997	-114,911	-0,228	-0,029
327,012	800,000	-0,031	-0,087
328,027	-200,000	-0,045	-0,304
329,041	800,000	-0,085	-0,177
330,056	266,812	-0,101	-0,122
331,070	180,752	-0,087	-0,088
332,085	800,000	0,028	-0,075
333,100	800,000	-0,087	-0,172
334,114	108,666	-0,127	-0,104
335,129	-200,000	-0,020	-0,210
336,143	333,683	-0,103	-0,136
337,158	-114,852	-0,187	-0,024
338,173	18,175	-0,171	-0,093
339,187	206,179	-0,100	-0,107
340,202	221,183	-0,197	-0,218
341,216	20,918	-0,181	-0,100
342,231	800,000	-0,041	-0,121
343,246	-200,000	0,002	-0,043
344,260	-26,751	-0,127	0,051
345,275	800,000	-0,099	-0,213
346,289	325,365	-0,088	-0,116
347,304	17,894	-0,060	0,033
348,319	22,030	-0,070	0,039
349,333	258,440	-0,128	-0,152
350,348	258,016	-0,135	-0,160
351,362	-200,000	-0,011	-0,079
352,377	-18,164	-0,070	-0,030
353,392	174,821	-0,076	-0,075
354,406	-200,000	0,020	-0,114
355,421	207,353	1314,915	1407,232
356,435	159,508	1475,625	1407,704
