DTS Sentinel unit serial number:	SN410029Multiplexer serial number:	ORYXHardware model number:	OX2-SRSoftware version number:	ORYX F/W v4,00 Oryx Data Collector v3.7.2.0data status	okinstallation	B3 Nyhavnadifferential loss correction	single-endedforward channel	channel 1reverse channel	N/Adate	2023/12/03time	14:12:30forward acquisition time	300,00reverse acquisition time	0,00gamma	499,1914k internal	0,3198k external	0,3198temperature offset calibration	1,0000default loss term (dB/km)	0,3820temperature slope calibration	1,0000multiplexer offset coefficient	1,0000multiplexer slope coefficient	1,0000fibre end	0,00T internal ref (°C)	15,69T ext. ref 1 (°C)	1,56T ext. ref 2 (°C)	1,55length (m)	temperature (°C)	Stokes	anti-Stokes-744,400	212,906	-0,208	-0,239
-743,385	800,000	0,101	0,224
-742,371	1,159	-0,117	-0,061
-741,356	-200,000	-0,034	0,416
-740,342	-44,719	-0,245	-0,089
-739,327	-200,000	-0,026	0,205
-738,312	354,515	-0,199	-0,289
-737,298	-200,000	0,069	0,357
-736,283	123,006	-0,155	-0,142
-735,269	-200,000	0,021	0,425
-734,254	27,317	-0,309	-0,188
-733,239	136,738	-0,161	0,153
-732,225	536,726	-0,154	-0,266
-731,210	-13,129	0,148	0,070
-730,196	315,416	-0,045	-0,062
-729,181	800,000	-0,039	-0,125
-728,167	156,078	-0,096	-0,096
-727,152	-86,726	0,039	0,009
-726,137	-200,000	-0,023	-0,216
-725,123	800,000	0,006	0,020
-724,108	-93,243	-0,073	0,015
-723,094	-75,798	-0,082	-0,021
-722,079	768,498	-0,034	-0,067
-721,064	800,000	-0,014	0,039
-720,050	-52,906	-0,110	-0,037
-719,035	800,000	-0,054	-0,147
-718,021	598,567	-0,052	0,094
-717,006	-200,000	-0,031	-0,160
-715,991	-200,000	-0,007	-0,059
-714,977	-6,696	-0,150	0,074
-713,962	-200,000	0,023	-0,201
-712,948	-46,994	-0,054	-0,019
-711,933	-33,117	-0,073	0,029
-710,918	78,942	-0,077	-0,060
-709,904	-147,617	0,028	-0,002
-708,889	-11,783	-0,176	-0,084
-707,875	800,000	-0,069	-0,156
-706,860	226,385	-0,015	-0,018
-705,845	-20,131	0,083	-0,037
-704,831	480,467	-0,020	-0,033
-703,816	-57,417	0,024	0,008
-702,802	-200,000	0,020	-0,135
-701,787	249,812	-0,044	-0,055
-700,772	-200,000	-0,005	-0,167
-699,758	800,000	-0,009	0,019
-698,743	-75,140	-0,065	0,017
-697,729	-200,000	0,024	0,119
-696,714	-105,948	0,066	0,011
-695,699	-148,964	-0,048	-0,003
-694,685	-27,526	-0,169	-0,071
-693,670	217,691	0,061	-0,071
-692,656	673,341	-0,051	-0,096
-691,641	75,887	0,093	0,071
-690,627	-200,000	0,006	0,058
-689,612	-133,394	0,032	-0,003
-688,597	136,268	-0,091	-0,086
-687,583	38,724	0,127	-0,082
-686,568	457,242	-0,109	-0,176
-685,554	-3,540	-0,121	0,061
-684,539	-108,565	-0,041	0,006
-683,524	800,000	0,006	-0,014
-682,510	131,848	-0,063	0,058
-681,495	-106,691	-0,038	-0,006
-680,481	259,860	0,050	-0,063
-679,466	9,917	-0,264	-0,145
-678,451	-200,000	-0,001	-0,118
-677,437	-200,000	-0,014	0,051
-676,422	-120,873	-0,092	-0,011
-675,408	81,795	0,011	0,009
-674,393	-31,610	-0,098	0,040
-673,378	-80,080	-0,133	-0,032
-672,364	485,027	0,058	-0,096
-671,349	51,765	0,030	0,021
-670,335	800,000	0,021	0,046
-669,320	-53,217	0,036	-0,012
-668,305	-200,000	0,021	-0,120
-667,291	40,144	-0,061	0,039
-666,276	-41,394	0,051	0,019
-665,262	695,312	0,025	-0,049
-664,247	-67,295	-0,090	-0,026
-663,232	-118,337	0,076	-0,010
-662,218	-166,354	0,064	0,002
-661,203	-200,000	0,016	-0,092
-660,189	593,595	-0,035	-0,063
-659,174	-141,612	-0,092	-0,007
-658,159	128,909	0,086	0,079
-657,145	-200,000	-0,007	0,043
-656,130	-62,095	0,139	-0,042
-655,116	-200,000	0,013	0,057
-654,101	103,025	0,092	-0,078
-653,086	-63,388	0,063	0,019
-652,072	76,047	-0,050	0,039
-651,057	253,566	0,103	0,127
-650,043	-12,118	0,021	0,010
-649,028	-61,798	0,075	0,023
-648,014	-131,774	0,124	-0,012
-646,999	-200,000	-0,003	0,061
-645,984	-110,729	-0,107	-0,016
-644,970	142,644	-0,073	-0,070
-643,955	331,905	0,069	0,097
-642,941	-92,215	-0,084	0,017
-641,926	377,906	-0,046	0,068
-640,911	502,578	0,015	0,026
-639,897	213,451	0,062	-0,071
-638,882	-154,047	-0,081	0,004
-637,868	800,000	-0,031	-0,097
-636,853	-61,382	-0,158	-0,048
-635,838	143,908	-0,078	0,075
-634,824	-36,717	0,026	-0,010
-633,809	536,559	0,015	-0,027
-632,795	50,750	0,071	0,048
-631,780	10,706	0,144	0,079
-630,765	800,000	-0,039	-0,112
-629,751	71,688	-0,085	-0,064
-628,736	193,163	-0,123	0,135
-627,722	425,178	-0,067	0,105
-626,707	-58,107	-0,096	0,030
-625,692	-147,810	0,033	-0,002
-624,678	64,516	0,068	-0,049
-623,663	-200,000	-0,008	0,041
-622,649	-151,950	-0,113	-0,006
-621,634	175,193	-0,065	0,068
-620,619	-109,881	0,044	-0,007
-619,605	-200,000	0,038	-0,202
-618,590	-52,340	-0,137	-0,046
-617,576	-145,764	0,174	-0,011
-616,561	171,148	0,058	0,061
-615,546	-105,902	-0,115	-0,019
-614,532	-200,000	-0,014	-0,066
-613,517	149,938	-0,012	-0,012
-612,503	800,000	0,042	0,102
-611,488	-200,000	-0,017	-0,086
-610,474	-200,000	0,005	0,096
-609,459	-200,000	0,012	-0,130
-608,444	368,103	0,026	-0,039
-607,430	62,840	-0,071	-0,051
-606,415	157,478	-0,055	-0,055
-605,401	-51,679	-0,102	0,034
-604,386	800,000	-0,017	-0,039
-603,371	-200,000	0,015	0,186
-602,357	-171,854	-0,049	0,001
-601,342	800,000	0,044	-0,098
-600,328	800,000	-0,021	-0,066
-599,313	-133,111	-0,133	-0,012
-598,298	-125,531	0,071	-0,008
-597,284	579,751	0,083	0,148
-596,269	-84,685	-0,143	0,032
-595,255	-64,250	0,047	0,014
-594,240	13,282	0,118	-0,066
-593,225	800,000	-0,077	-0,168
-592,211	22,658	0,038	-0,023
-591,196	-200,000	0,007	0,117
-590,182	-73,758	-0,149	0,039
-589,167	58,115	0,068	0,048
-588,152	-27,530	-0,098	0,041
-587,138	-144,565	-0,029	0,002
-586,123	73,761	0,039	0,029
-585,109	353,401	0,047	0,068
-584,094	33,365	0,029	0,018
-583,079	-35,883	-0,138	0,054
-582,065	800,000	-0,046	0,108
-581,050	34,603	-0,121	-0,076
-580,036	-200,000	-0,003	0,044
-579,021	-6,857	0,104	0,051
-578,006	-200,000	0,009	-0,120
-576,992	266,440	0,102	-0,129
-575,977	292,128	-0,014	0,018
-574,963	474,212	0,049	0,081
-573,948	384,878	0,041	-0,062
-572,934	37,186	-0,150	-0,096
-571,919	-10,297	0,053	-0,025
-570,904	-111,215	0,098	-0,014
-569,890	-102,570	-0,129	-0,022
-568,875	36,197	0,107	-0,068
-567,861	-130,137	0,061	-0,006
-566,846	400,416	0,054	0,083
-565,831	800,000	-0,025	-0,052
-564,817	-62,561	0,078	-0,023
-563,802	800,000	-0,043	-0,130
-562,788	-131,372	-0,168	0,016
-561,773	-200,000	-0,005	-0,053
-560,758	27,673	0,134	0,081
-559,744	-200,000	0,013	0,120
-558,729	656,335	-0,104	-0,194
-557,715	355,973	-0,024	-0,034
-556,700	73,959	-0,049	-0,037
-555,685	377,050	0,038	-0,056
-554,671	-116,922	-0,075	0,010
-553,656	-200,000	0,002	0,027
-552,642	138,404	0,032	-0,030
-551,627	800,000	0,043	0,127
-550,612	553,573	0,008	-0,014
-549,598	-200,000	-0,002	-0,089
-548,583	-200,000	-0,015	-0,134
-547,569	-78,291	0,150	-0,037
-546,554	800,000	0,027	0,057
-545,539	800,000	-0,051	0,135
-544,525	11,157	-0,027	-0,015
-543,510	175,509	-0,037	0,038
-542,496	-156,731	0,097	-0,004
-541,481	-85,234	-0,123	0,028
-540,466	-13,499	0,121	0,056
-539,452	532,137	0,026	-0,044
-538,437	-200,000	-0,004	0,091
-537,423	-200,000	-0,006	0,107
-536,408	-12,286	-0,074	-0,035
-535,393	234,931	0,025	-0,030
-534,379	170,219	-0,039	0,040
-533,364	116,732	0,096	-0,085
-532,350	-200,000	0,029	0,094
-531,335	405,151	-0,067	0,103
-530,321	93,105	0,097	0,079
-529,306	64,671	-0,026	-0,019
-528,291	-200,000	-0,017	-0,120
-527,277	-33,602	0,051	-0,020
-526,262	-3,593	0,065	-0,032
-525,248	63,160	-0,049	0,036
-524,233	286,497	0,098	0,129
-523,218	125,935	0,039	-0,035
-522,204	210,551	-0,085	0,096
-521,189	244,575	-0,092	-0,112
-520,175	206,099	-0,084	-0,095
-519,160	800,000	0,022	-0,056
-518,145	800,000	0,008	-0,019
-517,131	800,000	0,038	0,078
-516,116	-130,841	0,125	-0,012
-515,102	-24,752	-0,184	-0,079
-514,087	800,000	0,019	-0,047
-513,072	163,209	-0,070	-0,071
-512,058	443,624	-0,048	0,076
-511,043	-162,387	-0,146	-0,005
-510,029	12,248	0,065	0,036
-509,014	310,113	0,035	0,048
-507,999	224,938	-0,039	0,046
-506,985	-35,611	-0,100	-0,039
-505,970	107,184	-0,073	-0,062
-504,956	-200,000	-0,027	-0,157
-503,941	89,642	-0,018	-0,014
-502,926	800,000	-0,073	0,169
-501,912	-101,904	0,109	-0,019
-500,897	106,149	-0,043	-0,037
-499,883	173,914	0,028	0,029
-498,868	79,713	0,099	0,077
-497,853	-14,824	0,050	-0,023
-496,839	-30,821	0,069	0,028
-495,824	332,929	0,071	-0,099
-494,810	800,000	0,040	-0,094
-493,795	3,088	0,132	0,069
-492,781	317,226	0,009	-0,012
-491,766	33,865	0,026	-0,016
-490,751	-42,012	-0,045	-0,017
-489,737	-53,761	0,107	0,035
-488,722	-200,000	0,036	0,149
-487,708	-200,000	-0,015	0,086
-486,693	-200,000	0,018	0,099
-485,678	457,328	0,033	0,053
-484,664	-200,000	-0,012	0,075
-483,649	415,272	0,060	0,093
-482,635	40,372	0,107	0,069
-481,620	39,930	-0,080	0,051
-480,605	800,000	0,032	0,078
-479,591	-15,940	-0,016	0,008
-478,576	-200,000	0,013	0,076
-477,562	-69,608	-0,141	-0,039
-476,547	-139,662	0,077	-0,006
-475,532	-76,648	-0,045	-0,011
-474,518	-200,000	-0,001	-0,042
-473,503	743,176	0,024	-0,046
-472,489	-43,497	0,090	0,033
-471,474	274,076	0,131	0,168
-470,459	52,808	-0,063	-0,043
-469,445	800,000	-0,044	-0,090
-468,430	-200,000	0,004	0,065
-467,416	145,470	0,071	-0,069
-466,401	46,203	0,062	-0,041
-465,386	213,106	0,077	0,088
-464,372	502,207	0,061	0,102
-463,357	-67,262	-0,057	-0,016
-462,343	-74,341	-0,041	-0,011
-461,328	144,382	0,147	-0,142
-460,313	-116,407	0,057	-0,008
-459,299	-200,000	-0,009	0,082
-458,284	242,696	0,058	0,070
-457,270	-200,000	-0,033	-0,128
-456,255	-200,000	0,004	0,016
-455,241	29,542	-0,044	-0,027
-454,226	-200,000	-0,002	-0,014
-453,211	-72,020	0,017	0,004
-452,197	439,306	0,067	-0,106
-451,182	-200,000	-0,009	-0,050
-450,168	27,665	0,171	0,103
-449,153	28,371	0,039	-0,023
-448,138	77,853	0,064	0,049
-447,124	-71,299	-0,125	0,034
-446,109	80,927	0,058	0,045
-445,095	-83,573	0,076	0,017
-444,080	-90,025	0,038	-0,008
-443,065	54,819	0,072	-0,050
-442,051	800,000	0,006	-0,015
-441,036	-200,000	-0,012	-0,067
-440,022	-200,000	-0,010	-0,121
-439,007	41,834	0,025	-0,017
-437,992	-132,937	0,185	-0,017
-436,978	-33,399	0,186	0,074
-435,963	-200,000	0,011	0,059
-434,949	5,150	0,100	-0,053
-433,934	51,044	-0,090	-0,061
-432,919	365,079	-0,054	-0,078
-431,905	-158,192	0,132	0,005
-430,890	800,000	0,012	0,034
-429,876	331,031	0,026	-0,036
-428,861	373,607	0,078	-0,114
-427,846	-200,000	-0,036	-0,192
-426,832	800,000	0,047	-0,105
-425,817	-46,757	0,063	0,022
-424,803	-200,000	-0,007	-0,089
-423,788	-200,000	-0,018	0,099
-422,773	333,279	0,015	0,020
-421,759	800,000	-0,017	0,038
-420,744	-31,533	0,081	-0,033
-419,730	-200,000	0,005	-0,056
-418,715	-118,815	-0,093	-0,012
-417,701	100,544	-0,070	-0,058
-416,686	780,561	-0,023	0,046
-415,671	-200,000	-0,020	-0,158
-414,657	800,000	-0,055	0,153
-413,642	800,000	0,015	-0,045
-412,628	-200,000	-0,008	-0,162
-411,613	40,710	0,066	0,043
-410,598	94,554	0,066	-0,054
-409,584	-200,000	0,048	0,199
-408,569	-129,547	0,043	-0,004
-407,555	-156,492	-0,033	-0,001
-406,540	-200,000	-0,042	-0,148
-405,525	27,363	-0,051	-0,031
-404,511	34,511	-0,103	-0,065
-403,496	-200,000	0,013	-0,092
-402,482	25,618	-0,026	0,015
-401,467	800,000	-0,052	0,138
-400,452	-200,000	-0,016	0,139
-399,438	-98,300	0,080	0,015
-398,423	-23,686	-0,088	-0,038
-397,409	144,113	-0,100	-0,096
-396,394	105,919	-0,159	-0,135
-395,379	-200,000	-0,044	-0,163
-394,365	-102,286	-0,120	-0,020
-393,350	475,108	-0,031	0,050
-392,336	89,565	0,060	0,048
-391,321	655,436	-0,130	-0,241
-390,306	25,958	-0,132	0,079
-389,292	-56,786	-0,116	-0,037
-388,277	11,627	0,101	-0,056
-387,263	800,000	0,038	0,113
-386,248	-200,000	0,000	0,076
-385,233	-200,000	0,026	0,146
-384,219	-31,784	0,128	-0,051
-383,204	800,000	-0,036	-0,076
-382,190	54,043	0,067	-0,046
-381,175	-143,398	-0,149	-0,010
-380,160	444,504	0,065	0,103
-379,146	-200,000	-0,018	0,086
-378,131	103,490	-0,037	0,031
-377,117	-86,407	-0,022	0,005
-376,102	-41,373	-0,105	-0,038
-375,088	800,000	-0,038	-0,084
-374,073	-118,938	-0,028	-0,003
-373,058	-65,910	-0,056	-0,016
-372,044	-200,000	0,017	0,105
-371,029	10,796	-0,052	-0,028
-370,015	82,077	-0,120	-0,093
-369,000	800,000	0,046	-0,116
-367,985	526,515	-0,032	0,055
-366,971	-77,498	0,199	-0,049
-365,956	-63,452	-0,031	0,009
-364,942	186,235	0,111	0,119
-363,927	800,000	0,007	0,019
-362,912	467,782	-0,070	0,113
-361,898	393,560	-0,021	0,031
-360,883	36,088	-0,086	-0,054
-359,869	80,785	-0,073	-0,057
-358,854	78,561	-0,042	0,032
-357,839	800,000	-0,025	0,052
-356,825	68,090	-0,047	0,035
-355,810	-50,223	-0,035	-0,012
-354,796	-53,521	0,048	0,016
-353,781	459,083	-0,074	-0,119
-352,766	444,841	-0,063	-0,100
-351,752	622,684	0,061	-0,110
-350,737	-114,442	0,030	0,004
-349,723	800,000	-0,024	0,074
-348,708	-200,000	0,008	0,110
-347,693	8,918	-0,014	0,007
-346,679	-24,747	-0,121	0,051
-345,664	-200,000	-0,009	0,042
-344,650	-200,000	0,010	-0,042
-343,635	-135,282	0,041	-0,003
-342,620	-70,800	0,118	-0,032
-341,606	-200,000	-0,018	-0,064
-340,591	30,172	-0,067	-0,041
-339,577	800,000	0,013	0,041
-338,562	-200,000	-0,024	0,105
-337,548	435,615	0,032	-0,050
-336,533	4,957	-0,091	-0,048
-335,518	150,798	0,072	0,070
-334,504	-45,977	0,116	0,041
-333,489	116,343	-0,034	-0,030
-332,475	198,131	0,039	0,042
-331,460	90,126	0,032	0,026
-330,445	-93,902	-0,082	0,016
-329,431	167,116	0,037	0,037
-328,416	54,457	0,094	0,065
-327,402	-200,000	0,040	0,128
-326,387	-124,725	-0,201	0,022
-325,372	58,252	-0,133	-0,093
-324,358	80,859	-0,072	0,056
-323,343	-200,000	-0,025	-0,102
-322,329	-45,275	0,091	0,032
-321,314	329,752	0,021	0,029
-320,299	247,226	-0,040	0,048
-319,285	392,215	0,035	0,053
-318,270	-200,000	0,006	0,031
-317,256	38,109	-0,053	-0,034
-316,241	-97,723	-0,072	-0,013
-315,226	800,000	0,014	-0,027
-314,212	-200,000	0,012	0,063
-313,197	-200,000	-0,003	0,147
-312,183	165,168	0,024	-0,024
-311,168	-200,000	-0,004	0,129
-310,153	-200,000	-0,021	-0,146
-309,139	2,339	0,051	-0,026
-308,124	22,791	0,060	0,035
-307,110	800,000	0,028	-0,083
-306,095	-104,686	0,096	-0,016
-305,080	327,095	-0,037	-0,051
-304,066	800,000	-0,028	0,076
-303,051	-56,446	-0,145	-0,046
-302,037	223,278	0,034	-0,040
-301,022	-142,915	-0,045	-0,003
-300,008	89,619	-0,022	0,017
-298,993	102,991	0,111	0,093
-297,978	-53,908	0,123	0,040
-296,964	-200,000	-0,022	0,129
-295,949	800,000	0,013	0,033
-294,935	15,892	-0,134	-0,075
-293,920	-54,462	0,118	0,038
-292,905	800,000	-0,011	0,027
-291,891	800,000	-0,047	0,120
-290,876	-19,454	-0,043	0,019
-289,862	-200,000	-0,044	-0,172
-288,847	-200,000	0,016	-0,062
-287,832	-90,391	0,069	-0,014
-286,818	394,831	-0,073	-0,110
-285,803	277,692	-0,057	0,073
-284,789	-200,000	-0,004	0,067
-283,774	-122,762	0,083	-0,009
-282,759	800,000	-0,033	0,092
-281,745	-11,109	0,019	-0,009
-280,730	352,030	-0,059	-0,083
-279,716	-200,000	-0,001	-0,041
-278,701	800,000	0,021	-0,056
-277,686	86,286	0,166	-0,131
-276,672	-103,905	0,026	0,004
-275,657	-200,000	-0,026	0,130
-274,643	575,479	0,060	-0,105
-273,628	-200,000	-0,019	-0,099
-272,613	-200,000	-0,036	0,195
-271,599	-95,472	0,078	-0,015
-270,584	193,270	0,091	0,098
-269,570	53,632	0,037	-0,026
-268,555	197,678	0,112	0,122
-267,540	-200,000	-0,006	-0,063
-266,526	-200,000	0,001	-0,065
-265,511	800,000	0,013	0,040
-264,497	-135,810	-0,124	0,010
-263,482	71,218	-0,046	0,034
-262,467	-45,105	-0,123	0,043
-261,453	800,000	0,014	0,029
-260,438	731,820	-0,022	-0,042
-259,424	380,421	-0,049	-0,073
-258,409	-200,000	-0,022	-0,178
-257,395	173,405	-0,050	0,051
-256,380	-134,007	0,160	0,014
-255,365	118,661	0,078	-0,069
-254,351	60,238	-0,076	0,054
-253,336	8,210	0,175	0,094
-252,322	-26,314	-0,029	-0,012
-251,307	-200,000	-0,000	0,088
-250,292	-200,000	-0,019	0,084
-249,278	47,267	0,153	-0,102
-248,263	-200,000	0,012	0,139
-247,249	118,240	-0,037	0,032
-246,234	-200,000	0,010	-0,054
-245,219	-146,662	-0,113	-0,007
-244,205	-200,000	-0,013	0,052
-243,190	-79,838	-0,027	-0,006
-242,176	182,481	-0,074	-0,078
-241,161	-200,000	0,013	0,074
-240,146	21,556	-0,043	0,025
-239,132	615,026	0,044	-0,079
-238,117	44,523	-0,026	-0,017
-237,103	-60,040	-0,118	-0,036
-236,088	4,056	0,030	-0,015
-235,073	407,491	0,079	-0,120
-234,059	212,041	0,102	0,115
-233,044	236,856	0,031	0,037
-232,030	-70,003	-0,196	-0,053
-231,015	-52,086	-0,102	-0,034
-230,000	-200,000	-0,004	0,048
-228,986	-147,636	0,193	0,011
-227,971	800,000	0,036	0,081
-226,957	-200,000	0,010	0,082
-225,942	2,474	-0,076	0,039
-224,927	268,910	-0,027	-0,034
-223,913	-3,393	-0,109	0,054
-222,898	-88,480	0,130	-0,027
-221,884	298,880	-0,046	-0,060
-220,869	219,314	0,045	-0,052
-219,855	-39,733	0,071	0,026
-218,840	-67,550	0,108	-0,030
-217,825	688,847	-0,063	0,117
-216,811	-152,981	0,231	-0,011
-215,796	-200,000	-0,022	-0,183
-214,782	32,999	0,067	0,041
-213,767	-98,156	0,043	-0,008
-212,752	-200,000	-0,031	0,000
-211,738	800,000	0,013	-0,030
-210,723	-200,000	-0,011	0,061
-209,709	-194,190	-0,065	-0,000
-208,694	-160,280	0,107	-0,004
-207,679	529,868	0,126	0,213
-206,665	-73,270	0,035	0,009
-205,650	-200,000	-0,002	-0,113
-204,636	171,977	0,037	-0,038
-203,621	358,961	-0,036	-0,051
-202,606	37,669	0,135	0,085
-201,592	-36,084	-0,121	-0,046
-200,577	-68,639	-0,049	0,013
-199,563	-71,719	0,145	0,038
-198,548	59,459	-0,123	-0,086
-197,533	-82,120	0,038	-0,009
-196,519	-24,720	-0,105	-0,044
-195,504	152,034	0,114	-0,111
-194,490	39,845	-0,073	-0,047
-193,475	-200,000	-0,002	0,022
-192,460	-200,000	-0,021	-0,162
-191,446	28,466	-0,061	-0,036
-190,431	-81,571	0,096	0,022
-189,417	227,849	0,046	-0,054
-188,402	-155,169	-0,152	0,007
-187,387	800,000	-0,025	-0,064
-186,373	800,000	0,034	-0,092
-185,358	800,000	-0,029	-0,089
-184,344	208,455	-0,072	0,080
-183,329	-200,000	-0,033	0,149
-182,315	800,000	-0,050	-0,104
-181,300	15,643	0,060	0,033
-180,285	-200,000	-0,028	-0,117
-179,271	6,287	-0,104	0,055
-178,256	62,032	0,075	0,053
-177,242	329,989	0,063	-0,086
-176,227	-200,000	0,015	0,079
-175,212	379,871	0,062	0,090
-174,198	402,083	-0,045	0,067
-173,183	353,396	0,043	-0,061
-172,169	221,191	0,041	-0,047
-171,154	-200,000	0,000	-0,014
-170,139	-82,710	0,111	-0,025
-169,125	-16,937	0,059	0,027
-168,110	212,953	-0,066	0,074
-167,096	800,000	0,026	0,081
-166,081	-65,845	-0,185	-0,052
-165,066	-49,146	-0,106	-0,036
-164,052	-117,050	-0,208	-0,027
-163,037	-55,531	0,142	0,045
-162,023	-200,000	0,010	0,101
-161,008	261,251	0,067	0,083
-159,993	253,447	-0,073	0,088
-158,979	127,205	-0,082	-0,074
-157,964	-200,000	-0,002	0,028
-156,950	774,486	-0,057	0,111
-155,935	-43,842	0,161	0,057
-154,920	-67,533	-0,010	0,003
-153,906	17,044	-0,107	-0,060
-152,891	-102,564	0,032	0,005
-151,877	68,468	-0,120	0,087
-150,862	800,000	0,007	-0,015
-149,847	-200,000	0,000	-0,039
-148,833	-90,299	0,060	-0,012
-147,818	-54,241	0,143	0,046
-146,804	59,648	-0,094	0,066
-145,789	151,991	-0,021	0,020
-144,775	131,470	-0,005	-0,005
-143,760	104,129	0,098	0,082
-142,745	-124,115	0,082	0,009
-141,731	109,506	-0,030	0,025
-140,716	-200,000	0,001	-0,020
-139,702	-119,255	0,141	-0,017
-138,687	148,356	-0,035	0,033
-137,672	-200,000	0,008	0,083
-136,658	800,000	0,037	-0,109
-135,643	-200,000	-0,071	-0,231
-134,629	-154,932	-0,105	0,005
-133,614	-200,000	0,005	-0,019
-132,599	800,000	0,008	0,025
-131,585	-200,000	0,017	0,206
-130,570	-123,643	-0,071	-0,008
-129,556	-126,674	-0,066	-0,007
-128,541	173,113	-0,176	-0,180
-127,526	-200,000	-0,018	-0,074
-126,512	13,111	-0,019	-0,011
-125,497	117,722	0,118	-0,104
-124,483	352,820	-0,017	-0,024
-123,468	-200,000	0,014	-0,106
-122,453	-11,086	0,048	0,022
-121,439	53,876	-0,136	-0,093
-120,424	-200,000	0,006	-0,032
-119,410	26,944	0,041	-0,025
-118,395	800,000	0,051	-0,115
-117,380	-200,000	-0,002	-0,061
-116,366	-85,438	0,163	0,036
-115,351	-44,320	0,101	-0,036
-114,337	-132,333	-0,072	0,007
-113,322	-200,000	-0,013	0,192
-112,307	-16,083	0,104	-0,047
-111,293	800,000	-0,052	0,128
-110,278	458,468	0,058	0,092
-109,264	55,584	0,119	0,082
-108,249	-200,000	0,027	-0,132
-107,234	-200,000	-0,028	-0,096
-106,220	513,804	0,028	0,047
-105,205	84,418	0,009	-0,007
-104,191	-60,790	0,128	0,038
-103,176	155,800	-0,055	0,054
-102,162	12,394	-0,107	-0,058
-101,147	761,204	0,016	0,030
-100,132	15,960	-0,122	-0,068
-99,118	241,934	0,059	-0,070
-98,103	54,052	0,023	0,016
-97,089	-70,309	0,176	0,047
-96,074	-77,506	0,119	-0,029
-95,059	471,871	-0,080	0,128
-94,045	720,498	0,051	-0,096
-93,030	-128,849	0,057	0,006
-92,016	594,162	-0,087	-0,154
-91,001	365,752	-0,047	-0,067
-89,986	800,000	-0,008	0,020
-88,972	141,148	0,034	-0,032
-87,957	-25,982	0,046	0,019
-86,943	-151,618	-0,114	0,006
-85,928	-200,000	-0,013	-0,197
-84,913	-27,288	-0,030	-0,012
-83,899	-84,010	0,052	-0,012
-82,884	107,688	0,027	-0,023
-81,870	118,214	0,071	0,062
-80,855	-147,413	0,072	0,004
-79,840	-200,000	-0,002	-0,067
-78,826	-171,733	-0,068	0,002
-77,811	358,159	-0,079	-0,112
-76,797	330,182	-0,045	-0,062
-75,782	56,934	-0,074	0,051
-74,767	157,134	0,067	0,066
-73,753	-105,168	0,092	-0,015
-72,738	43,437	-0,045	-0,029
-71,724	376,666	-0,023	-0,033
-70,709	29,555	-0,070	-0,042
-69,694	-148,784	-0,148	0,008
-68,680	-38,639	0,125	-0,047
-67,665	-200,000	0,047	0,226
-66,651	-200,000	-0,013	0,046
-65,636	-143,554	0,024	0,002
-64,622	304,126	-0,030	-0,039
-63,607	-6,915	-0,045	-0,021
-62,592	800,000	-0,048	-0,113
-61,578	-135,744	-0,048	0,004
-60,563	-200,000	0,019	0,155
-59,549	249,125	-0,053	-0,063
-58,534	-107,236	-1,468	-0,227
-57,519	389,187	-1,471	-2,166
-56,505	-200,000	-0,654	-4,468
-55,490	170,106	1,063	1,079
-54,476	800,000	4,599	10,805
-53,461	-200,000	17,760	284,683
-52,446	800,000	722,026	2232,932
-51,432	563,537	1636,762	2819,453
-50,417	80,870	1660,153	1267,763
-49,403	23,544	1534,154	892,113
-48,388	17,503	1457,365	818,307
-47,373	18,066	1447,184	815,260
-46,359	17,664	1437,701	807,969
-45,344	15,805	1432,833	796,355
-44,330	15,712	1430,952	794,836
-43,315	15,745	1429,149	793,960
-42,300	15,736	1427,658	793,060
-41,286	15,863	1426,229	792,837
-40,271	15,814	1425,003	791,889
-39,257	15,772	1423,920	791,061
-38,242	15,774	1422,732	790,376
-37,227	15,837	1421,252	789,823
-36,213	15,779	1420,136	788,893
-35,198	15,763	1418,951	788,130
-34,184	15,853	1417,838	787,907
-33,169	15,690	1417,003	786,641
-32,154	15,830	1415,793	786,596
-31,140	15,803	1414,356	785,643
-30,125	15,852	1413,168	785,178
-29,111	15,819	1411,951	784,317
-28,096	15,760	1410,954	783,458
-27,082	15,756	1409,933	782,841
-26,067	15,755	1408,727	782,135
-25,052	15,748	1407,757	781,532
-24,038	15,745	1406,700	780,900
-23,023	15,724	1405,519	780,117
-22,009	15,673	1404,870	779,486
-20,994	15,665	1403,819	778,837
-19,979	15,650	1402,887	778,218
-18,965	15,615	1402,073	777,574
-17,950	15,661	1400,998	777,160
-16,936	15,653	1400,000	776,536
-15,921	15,658	1398,713	775,815
-14,906	15,619	1397,914	775,160
-13,892	15,627	1396,914	774,613
-12,877	15,632	1395,984	774,092
-11,863	15,644	1394,983	773,557
-10,848	15,615	1394,074	772,889
-9,833	15,595	1393,392	772,390
-8,819	15,570	1392,227	771,597
-7,804	15,508	1391,358	770,798
-6,790	15,558	1390,344	770,437
-5,775	15,522	1389,486	769,764
-4,760	15,470	1388,781	769,105
-3,746	15,524	1387,835	768,801
-2,731	15,517	1386,892	768,212
-1,717	15,512	1386,047	767,691
-0,702	15,529	1384,068	766,642
0,313	19,355	1304,786	740,381
1,327	35,672	707,052	439,024
2,342	55,287	124,987	85,465
3,356	3,621	16,694	8,595
4,371	3,376	3,097	1,592
5,386	-75,847	0,665	0,166
6,400	210,361	-0,061	0,067
7,415	-33,994	-0,261	-0,101
8,429	123,594	-0,233	-0,207
9,444	70,440	-0,270	-0,197
10,459	466,645	-0,134	-0,213
11,473	-24,737	-0,341	-0,143
12,488	-57,830	-0,281	-0,086
13,502	12,690	-0,362	-0,197
14,517	-42,620	-0,296	-0,106
15,531	69,481	-0,354	-0,257
16,546	45,810	-0,308	-0,201
17,561	139,658	-0,418	-0,389
18,575	-116,053	-0,249	0,032
19,590	47,287	-0,207	-0,136
20,604	92,153	-0,223	-0,178
21,619	175,760	-0,348	-0,358
22,634	225,169	-0,380	-0,436
23,648	144,202	-0,308	-0,290
24,663	31,579	-0,472	-0,286
25,677	49,973	-0,337	-0,224
26,692	104,304	-0,228	-0,189
27,707	233,218	-0,295	-0,343
28,721	158,031	-0,392	-0,384
29,736	62,500	-0,312	-0,220
30,750	62,192	-0,397	-0,279
31,765	234,237	-0,378	-0,440
32,780	257,109	-0,307	-0,373
33,794	99,599	-0,283	-0,231
34,809	-7,110	-0,274	-0,131
35,823	165,131	-0,239	-0,239
36,838	146,827	-0,397	-0,377
37,853	108,402	-0,417	-0,351
38,867	196,013	-0,318	-0,342
39,882	121,366	-0,342	-0,301
40,896	64,274	-0,374	-0,266
41,911	184,747	-0,239	-0,250
42,926	-23,806	-0,361	-0,152
43,940	43,287	-0,245	-0,158
44,955	120,016	-0,205	-0,179
45,969	146,258	-0,336	-0,318
46,984	155,890	-0,329	-0,320
47,999	7,921	-0,248	-0,131
49,013	126,415	-0,307	-0,274
50,028	51,505	-0,283	-0,189
51,042	30,936	-0,292	-0,176
52,057	307,188	-0,206	-0,272
53,071	100,249	-0,341	-0,278
54,086	70,229	-0,283	-0,206
55,101	66,992	-0,333	-0,239
56,115	137,775	-0,237	-0,219
57,130	-26,156	-0,335	-0,138
58,144	-58,144	-0,309	-0,094
59,159	153,542	-0,331	-0,320
60,174	47,882	-0,390	-0,256
61,188	-30,836	-0,459	-0,182
62,203	172,848	-0,238	-0,242
63,217	2,128	-0,277	-0,140
64,232	64,105	-0,252	-0,178
65,247	-3,768	-0,399	-0,194
66,261	52,266	-0,409	-0,274
67,276	227,064	-0,290	-0,332
68,290	115,310	-0,333	-0,286
69,305	-81,057	-0,317	-0,073
70,320	24,450	-0,206	-0,120
71,334	39,047	-0,454	-0,285
72,349	-11,411	-0,295	-0,136
73,363	-21,884	-0,399	-0,170
74,378	17,735	-0,372	-0,208
75,393	33,082	-0,273	-0,166
76,407	-61,592	-0,202	-0,059
77,422	0,509	-0,369	-0,185
78,436	123,487	-0,293	-0,259
79,451	339,087	-0,236	-0,325
80,466	147,566	-0,309	-0,293
81,480	153,021	-0,284	-0,273
82,495	9,444	-0,324	-0,172
83,509	-20,544	-0,372	-0,160
84,524	287,720	-0,240	-0,305
85,539	6,347	-0,354	-0,184
86,553	16,634	-0,339	-0,188
87,568	105,556	-0,259	-0,215
88,582	136,630	-0,247	-0,227
89,597	111,750	-0,430	-0,364
90,611	479,913	-0,196	-0,313
91,626	0,982	-0,325	-0,163
92,641	83,186	-0,309	-0,236
93,655	14,277	-0,233	-0,127
94,670	47,361	-0,310	-0,203
95,684	250,571	-0,282	-0,337
96,699	377,654	-0,273	-0,394
97,714	-45,186	-0,301	-0,104
98,728	21,258	-0,202	-0,115
99,743	70,040	-0,278	-0,201
100,757	36,366	-0,386	-0,238
101,772	-36,621	-0,245	-0,092
102,787	114,767	-0,267	-0,229
103,801	3,966	-0,268	-0,137
104,816	-91,454	-0,343	-0,068
105,830	-7,436	-0,292	-0,138
106,845	129,495	-0,206	-0,185
107,860	-61,265	-0,380	-0,112
108,874	-32,307	-0,264	-0,103
109,889	54,823	-0,290	-0,196
110,903	800,000	-0,133	-0,296
111,918	140,305	-0,262	-0,243
112,933	228,170	-0,214	-0,245
113,947	39,071	-0,210	-0,131
114,962	131,265	-0,347	-0,312
115,976	4,187	-0,267	-0,137
116,991	341,352	-0,205	-0,281
118,006	64,844	-0,389	-0,275
119,020	122,215	-0,233	-0,204
120,035	26,519	-0,212	-0,124
121,049	-116,389	-0,328	0,042
122,064	12,686	-0,423	-0,228
123,079	56,410	-0,157	-0,107
124,093	101,437	-0,318	-0,259
125,108	46,186	-0,265	-0,172
126,122	46,395	-0,126	-0,081
127,137	607,489	-0,179	-0,313
128,151	315,650	-0,174	-0,231
129,166	66,044	-0,211	-0,150
130,181	89,940	-0,291	-0,227
131,195	90,747	-0,322	-0,252
132,210	16,395	-0,344	-0,189
133,224	-136,981	-0,300	0,024
134,239	45,638	-0,249	-0,161
135,254	295,675	-0,197	-0,253
136,268	136,669	-0,275	-0,251
137,283	73,632	-0,196	-0,144
138,297	-20,645	-0,283	-0,121
139,312	-39,698	-0,360	-0,131
140,327	356,968	-0,202	-0,282
141,341	176,462	-0,211	-0,215
142,356	94,352	-0,275	-0,218
143,370	141,723	-0,283	-0,262
144,385	4,752	-0,347	-0,178
145,400	190,076	-0,299	-0,315
146,414	-1,617	-0,357	-0,175
147,429	265,793	-0,202	-0,247
148,443	215,083	-0,139	-0,155
149,458	525,349	-0,137	-0,227
150,473	170,897	-0,275	-0,276
151,487	800,000	-0,083	-0,214
152,502	-56,925	-0,389	-0,119
153,516	90,494	-0,283	-0,221
154,531	268,397	-0,226	-0,277
155,546	26,806	-0,248	-0,145
156,560	91,829	-0,245	-0,193
157,575	-42,845	-0,219	-0,077
158,589	139,431	-0,202	-0,185
159,604	46,855	-0,269	-0,174
160,619	140,259	-0,269	-0,247
161,633	188,189	-0,194	-0,202
162,648	107,835	-0,205	-0,171
163,662	483,772	-0,110	-0,175
164,677	-61,210	-0,197	-0,058
165,692	563,388	-0,095	-0,161
166,706	277,547	-0,189	-0,235
167,721	285,765	-0,133	-0,167
168,735	145,221	-0,236	-0,220
169,750	-68,640	-0,150	-0,040
170,764	69,664	-0,184	-0,132
171,779	261,288	-0,212	-0,257
172,794	65,268	-0,295	-0,208
173,808	46,008	-0,175	-0,112
174,823	-62,185	-0,266	-0,077
175,837	250,949	-0,203	-0,241
176,852	800,000	-0,167	-0,336
177,867	-87,323	-0,240	-0,050
178,881	325,807	-0,140	-0,187
179,896	112,228	-0,128	-0,108
180,910	-9,908	-0,211	-0,097
181,925	-22,293	-0,266	-0,112
182,940	-9,072	-0,297	-0,138
183,954	189,055	-0,213	-0,223
184,969	-48,178	-0,090	-0,030
185,983	104,268	-0,236	-0,193
186,998	74,897	-0,183	-0,134
188,013	105,222	-0,220	-0,181
189,027	96,920	-0,238	-0,190
190,042	123,116	-0,197	-0,172
191,056	349,686	-0,166	-0,229
192,071	-36,720	-0,195	-0,073
193,086	45,925	-0,147	-0,094
194,100	141,764	-0,110	-0,102
195,115	83,297	-0,231	-0,175
196,129	-69,147	-0,243	-0,065
197,144	71,468	-0,335	-0,242
198,159	-9,280	-0,271	-0,125
199,173	195,231	-0,123	-0,130
200,188	-56,665	-0,239	-0,073
201,202	-55,906	-0,188	0,058
202,217	-105,960	-0,149	0,023
203,232	376,416	-0,144	-0,205
204,246	113,817	-0,268	-0,226
205,261	-187,893	-0,277	-0,002
206,275	510,393	-0,132	-0,214
207,290	416,011	-0,134	-0,199
208,304	279,705	-0,155	-0,193
209,319	-12,854	-0,148	-0,067
210,334	34,303	-0,146	-0,088
211,348	771,080	-0,116	-0,221
212,363	159,588	-0,259	-0,250
213,377	-169,563	-0,234	-0,006
214,392	39,351	-0,229	-0,142
215,407	-150,522	-0,071	0,004
216,421	-200,000	0,010	-0,086
217,436	102,710	-0,113	-0,092
218,450	36,700	-0,218	-0,134
219,465	116,437	-0,173	-0,148
220,480	-36,408	-0,207	-0,077
221,494	281,898	-0,185	-0,231
222,509	-67,187	-0,158	-0,043
223,523	137,908	-0,158	-0,144
224,538	38,901	-0,125	-0,077
225,553	289,931	-0,212	-0,268
226,567	800,000	-0,088	-0,216
227,582	441,378	-0,087	-0,133
228,596	800,000	-0,145	-0,297
229,611	176,037	-0,184	-0,186
230,626	-137,572	-0,128	-0,010
231,640	-131,475	-0,290	-0,026
232,655	229,058	-0,180	-0,204
233,669	111,274	-0,221	-0,185
234,684	279,540	-0,114	-0,142
235,699	31,876	-0,215	-0,128
236,713	-200,000	-0,011	0,049
237,728	-3,226	-0,142	-0,068
238,742	258,531	-0,172	-0,206
239,757	-11,733	-0,268	-0,121
240,772	7,125	-0,142	-0,073
241,786	800,000	-0,112	-0,280
242,801	4,500	-0,228	-0,116
243,815	-200,000	0,001	-0,067
244,830	-61,908	-0,223	-0,064
245,844	-39,158	-0,152	-0,055
246,859	271,483	-0,134	-0,164
247,874	-19,167	-0,211	-0,090
248,888	228,353	-0,132	-0,149
249,903	-95,091	-0,246	0,046
250,917	52,943	-0,139	-0,092
251,932	44,235	-0,174	-0,110
252,947	-73,133	-0,208	-0,053
253,961	133,868	-0,186	-0,167
254,976	-93,526	-0,121	-0,023
255,990	27,332	-0,158	-0,092
257,005	122,393	-0,153	-0,132
258,020	70,094	-0,176	-0,126
259,034	317,749	-0,132	-0,173
260,049	72,414	-0,082	-0,059
261,063	117,532	-0,239	-0,204
262,078	-26,686	-0,094	-0,038
263,093	-11,768	-0,323	-0,146
264,107	173,855	-0,175	-0,175
265,122	43,883	-0,178	-0,113
266,136	288,515	-0,158	-0,198
267,151	16,719	-0,174	-0,095
268,166	376,846	-0,104	-0,148
269,180	-127,680	-0,180	-0,018
270,195	49,694	-0,104	-0,068
271,209	-158,215	-0,266	0,011
272,224	287,902	-0,144	-0,181
273,239	-200,000	-0,036	-0,194
274,253	-50,740	-0,284	-0,092
275,268	28,908	-0,140	-0,082
276,282	150,486	-0,202	-0,190
277,297	10,043	-0,350	-0,183
278,312	66,307	-0,181	-0,127
279,326	-46,437	-0,211	-0,071
280,341	-6,813	-0,050	-0,023
281,355	-67,267	-0,148	-0,040
282,370	49,554	-0,122	-0,079
283,384	-68,733	-0,255	-0,068
284,399	392,811	-0,165	-0,237
285,414	146,491	-0,117	-0,109
286,428	-200,000	-0,024	-0,084
287,443	41,661	-0,153	-0,096
288,457	719,295	-0,091	-0,167
289,472	327,157	-0,083	-0,111
290,487	157,839	-0,124	-0,118
291,501	21,185	-0,173	-0,097
292,516	708,224	-0,133	-0,244
293,530	103,591	-0,163	-0,132
294,545	-200,000	-0,036	-0,113
295,560	-154,283	-0,146	0,007
296,574	104,826	-0,106	-0,086
297,589	33,580	-0,138	-0,083
298,603	54,266	-0,274	-0,182
299,618	9,310	-0,222	-0,116
300,633	142,950	-0,167	-0,154
301,647	-143,114	-0,192	0,013
302,662	-200,000	-0,005	-0,196
303,676	-200,000	0,028	-0,206
304,691	54,713	-0,151	-0,100
305,706	-37,821	-0,243	-0,089
306,720	106,825	-0,122	-0,100
307,735	127,259	-0,184	-0,161
308,749	-65,308	-0,195	-0,054
309,764	-140,144	-0,090	-0,006
310,779	16,672	-0,186	-0,101
311,793	-53,067	-0,119	-0,037
312,808	76,876	-0,107	0,078
313,822	124,854	-0,141	0,123
314,837	102,726	-0,129	-0,104
315,852	77,917	-0,060	-0,044
316,866	-155,652	-0,148	-0,006
317,881	347,789	-0,062	-0,084
318,895	-126,952	-0,324	0,032
319,910	17,803	-0,138	-0,076
320,925	102,611	-0,149	-0,120
321,939	18,209	-0,287	-0,157
322,954	38,143	-0,139	-0,085
323,968	59,845	-0,134	-0,091
324,983	36,565	-0,140	-0,085
325,997	395,209	-0,163	-0,235
327,012	36,815	-0,134	-0,081
328,027	-108,121	-0,166	-0,025
329,041	710,917	-0,105	-0,193
330,056	-101,082	-0,097	-0,016
331,070	96,860	-0,101	-0,080
332,085	385,986	-0,141	-0,201
333,100	245,641	-0,157	-0,182
334,114	71,798	-0,067	-0,048
335,129	-106,352	-0,232	0,035
336,143	800,000	-0,072	-0,139
337,158	107,681	-0,105	-0,086
338,173	-64,434	-0,064	0,018
339,187	353,867	-0,141	-0,193
340,202	50,590	-0,134	-0,087
341,216	254,428	-0,163	-0,192
342,231	-66,786	-0,180	-0,049
343,246	800,000	-0,077	-0,192
344,260	353,085	-0,182	-0,249
345,275	-64,498	-0,245	-0,068
346,289	-39,059	-0,130	-0,047
347,304	-155,796	-0,074	-0,003
348,319	400,367	-0,137	-0,198
349,333	-57,696	-0,178	-0,053
350,348	800,000	-0,042	-0,106
351,362	-200,000	0,011	-0,081
352,377	-11,535	-0,094	-0,042
353,392	-54,485	-0,094	-0,029
354,406	0,925	-0,112	-0,055
355,421	208,933	1315,526	1415,512
356,435	160,779	1476,380	1416,016
