DTS Sentinel unit serial number:	SN410029Multiplexer serial number:	ORYXHardware model number:	OX2-SRSoftware version number:	ORYX F/W v4,00 Oryx Data Collector v3.7.2.0data status	okinstallation	B3 Nyhavnadifferential loss correction	single-endedforward channel	channel 1reverse channel	N/Adate	2023/12/02time	18:27:30forward acquisition time	300,00reverse acquisition time	0,00gamma	499,1914k internal	0,3200k external	0,3200temperature offset calibration	1,0000default loss term (dB/km)	0,3820temperature slope calibration	1,0000multiplexer offset coefficient	1,0000multiplexer slope coefficient	1,0000fibre end	0,00T internal ref (°C)	13,61T ext. ref 1 (°C)	-1,69T ext. ref 2 (°C)	-1,70length (m)	temperature (°C)	Stokes	anti-Stokes-744,400	-4,063	-0,134	-0,067
-743,385	-200,000	0,078	0,330
-742,371	429,856	-0,197	-0,312
-741,356	-200,000	0,025	0,182
-740,342	221,531	-0,174	-0,204
-739,327	-200,000	-0,039	0,294
-738,312	476,448	-0,135	-0,222
-737,298	800,000	0,132	0,314
-736,283	104,533	-0,186	-0,159
-735,269	800,000	-0,147	0,347
-734,254	-121,052	-0,111	-0,013
-733,239	132,847	-0,166	0,156
-732,225	800,000	0,064	-0,174
-731,210	277,634	0,025	-0,032
-730,196	-200,000	-0,015	-0,059
-729,181	195,989	-0,089	0,099
-728,167	-92,391	0,068	0,014
-727,152	-100,890	-0,070	0,012
-726,137	-136,217	-0,107	0,009
-725,123	433,181	-0,022	-0,035
-724,108	-1,023	-0,112	-0,058
-723,094	-82,167	-0,093	0,022
-722,079	12,310	0,047	-0,026
-721,064	723,267	0,025	0,049
-720,050	-51,079	0,107	0,036
-719,035	46,111	-0,116	0,078
-718,021	28,258	-0,157	-0,096
-717,006	291,485	-0,064	-0,085
-715,991	-127,820	-0,087	0,009
-714,977	109,368	0,049	-0,043
-713,962	110,671	-0,015	-0,013
-712,948	30,918	0,100	0,062
-711,933	800,000	-0,019	-0,038
-710,918	800,000	-0,044	0,129
-709,904	170,417	-0,054	-0,056
-708,889	49,194	0,061	-0,042
-707,875	13,096	-0,044	0,025
-706,860	-54,128	0,105	-0,034
-705,845	34,300	0,194	-0,123
-704,831	-26,859	0,045	-0,019
-703,816	316,964	0,064	0,087
-702,802	800,000	-0,053	0,115
-701,787	-109,729	0,098	-0,015
-700,772	-114,042	-0,043	-0,006
-699,758	-163,101	-0,072	-0,002
-698,743	238,316	-0,029	0,035
-697,729	209,855	0,056	0,063
-696,714	-200,000	0,026	0,096
-695,699	-58,512	-0,109	-0,034
-694,685	-39,259	-0,079	0,030
-693,670	-200,000	-0,002	-0,055
-692,656	-99,580	-0,080	0,014
-691,641	112,667	0,076	0,067
-690,627	-94,819	0,130	-0,025
-689,612	-74,511	-0,089	0,023
-688,597	-200,000	-0,018	-0,076
-687,583	16,956	-0,042	0,024
-686,568	49,664	-0,050	0,034
-685,554	-200,000	0,003	-0,034
-684,539	288,870	0,072	-0,095
-683,524	27,386	0,069	0,042
-682,510	-38,687	-0,060	-0,023
-681,495	688,290	0,032	0,062
-680,481	800,000	-0,053	-0,151
-679,466	359,378	-0,046	-0,066
-678,451	352,885	-0,060	-0,087
-677,437	-186,874	0,078	0,001
-676,422	-200,000	0,009	-0,041
-675,408	-200,000	-0,003	0,029
-674,393	-200,000	-0,026	0,103
-673,378	239,771	0,034	0,041
-672,364	405,456	0,033	-0,051
-671,349	-200,000	0,023	-0,083
-670,335	-200,000	-0,018	-0,094
-669,320	-200,000	0,007	0,027
-668,305	89,451	-0,051	-0,041
-667,291	533,101	0,003	-0,005
-666,276	-79,600	-0,097	-0,024
-665,262	-200,000	-0,017	-0,109
-664,247	440,273	-0,026	-0,041
-663,232	800,000	0,050	-0,111
-662,218	-19,446	0,099	0,044
-661,203	84,909	-0,032	0,025
-660,189	-200,000	0,001	-0,006
-659,174	800,000	-0,044	0,116
-658,159	-200,000	-0,029	-0,105
-657,145	800,000	0,033	-0,098
-656,130	558,063	0,025	-0,044
-655,116	-27,040	-0,058	0,024
-654,101	259,294	0,023	-0,029
-653,086	13,805	0,113	-0,064
-652,072	-200,000	-0,004	0,020
-651,057	88,386	-0,151	-0,122
-650,043	-103,662	-0,090	0,015
-649,028	392,079	-0,059	-0,090
-648,014	-200,000	0,011	0,075
-646,999	683,823	0,020	0,039
-645,984	-200,000	-0,036	0,184
-644,970	45,692	-0,078	0,052
-643,955	800,000	-0,032	-0,089
-642,941	-200,000	0,016	-0,111
-641,926	387,676	0,048	0,073
-640,911	-200,000	0,061	0,205
-639,897	800,000	0,075	0,163
-638,882	-114,650	-0,059	0,008
-637,868	594,159	0,046	0,083
-636,853	800,000	-0,034	0,100
-635,838	-97,974	-0,090	-0,017
-634,824	1,780	-0,052	0,027
-633,809	800,000	0,065	0,139
-632,795	-74,070	0,125	-0,033
-631,780	-11,404	0,081	0,039
-630,765	-19,894	-0,057	-0,025
-629,751	-113,844	-0,010	0,001
-628,736	14,319	0,058	-0,033
-627,722	800,000	0,057	-0,117
-626,707	346,719	0,027	-0,038
-625,692	-194,713	0,149	0,001
-624,678	-80,825	-0,076	0,018
-623,663	-200,000	0,016	0,063
-622,649	59,755	-0,051	0,036
-621,634	127,632	-0,082	-0,076
-620,619	-200,000	-0,049	-0,185
-619,605	800,000	-0,029	0,075
-618,590	37,694	0,057	0,037
-617,576	-46,220	-0,063	0,022
-616,561	-117,507	-0,055	-0,007
-615,546	-200,000	-0,024	-0,119
-614,532	-200,000	-0,008	0,077
-613,517	206,753	0,048	0,054
-612,503	-109,896	0,128	-0,019
-611,488	22,948	0,045	0,027
-610,474	-174,213	-0,036	-0,001
-609,459	69,752	0,117	-0,087
-608,444	481,296	0,042	-0,070
-607,430	-200,000	-0,016	-0,097
-606,415	-200,000	0,024	-0,151
-605,401	-83,625	0,120	0,027
-604,386	-129,800	-0,087	-0,009
-603,371	-200,000	-0,014	0,126
-602,357	-32,764	-0,163	0,065
-601,342	-155,912	-0,118	-0,005
-600,328	44,582	-0,047	0,031
-599,313	197,722	-0,078	-0,087
-598,298	55,559	-0,034	0,024
-597,284	158,239	-0,030	-0,030
-596,269	-177,526	0,094	0,002
-595,255	800,000	-0,059	0,141
-594,240	323,477	0,052	0,072
-593,225	733,682	0,024	-0,046
-592,211	-50,198	-0,118	0,040
-591,196	337,171	-0,056	-0,079
-590,182	800,000	-0,061	-0,128
-589,167	-200,000	-0,004	0,054
-588,152	-200,000	0,012	0,067
-587,138	-200,000	-0,029	-0,151
-586,123	-200,000	-0,001	-0,023
-585,109	-200,000	0,029	-0,135
-584,094	-200,000	0,004	-0,102
-583,079	321,775	0,096	-0,132
-582,065	184,183	-0,045	0,048
-581,050	-13,163	0,137	0,064
-580,036	35,303	0,028	0,018
-579,021	-200,000	-0,001	0,012
-578,006	-133,591	-0,091	0,008
-576,992	193,729	-0,085	-0,093
-575,977	-200,000	0,004	-0,049
-574,963	40,134	0,087	0,056
-573,948	-200,000	-0,031	0,105
-572,934	-143,905	0,123	0,008
-571,919	800,000	0,052	-0,139
-570,904	-200,000	-0,031	0,106
-569,890	-200,000	-0,001	-0,006
-568,875	197,779	-0,033	-0,036
-567,861	-200,000	0,019	0,067
-566,846	-119,471	0,029	-0,004
-565,831	423,516	-0,024	-0,038
-564,817	-200,000	0,013	-0,076
-563,802	126,471	-0,046	0,042
-562,788	123,305	-0,139	-0,126
-561,773	800,000	-0,042	-0,114
-560,758	-41,437	0,060	0,022
-559,744	432,019	0,067	-0,105
-558,729	800,000	-0,013	-0,033
-557,715	61,278	-0,194	-0,139
-556,700	348,362	-0,046	-0,066
-555,685	-49,842	-0,085	-0,029
-554,671	-200,000	0,019	-0,108
-553,656	203,387	0,088	0,098
-552,642	-200,000	0,008	0,032
-551,627	31,229	-0,028	0,017
-550,612	800,000	-0,022	-0,056
-549,598	11,761	-0,130	-0,072
-548,583	-100,432	0,072	0,013
-547,569	550,076	-0,065	0,113
-546,554	800,000	-0,043	0,132
-545,539	-200,000	0,017	0,062
-544,525	-28,717	-0,050	0,021
-543,510	-200,000	0,024	-0,139
-542,496	-200,000	0,021	-0,081
-541,481	124,972	0,111	-0,101
-540,466	39,262	0,009	0,006
-539,452	355,455	-0,036	-0,052
-538,437	800,000	0,010	0,031
-537,423	-82,437	-0,064	0,015
-536,408	-94,794	-0,080	0,016
-535,393	-69,939	-0,123	0,034
-534,379	800,000	0,028	-0,071
-533,364	272,116	0,075	0,096
-532,350	-200,000	-0,003	0,021
-531,335	135,522	0,052	0,049
-530,321	143,201	0,066	-0,064
-529,306	408,723	-0,087	0,134
-528,291	317,115	0,056	0,076
-527,277	-178,410	-0,151	-0,002
-526,262	-200,000	-0,027	-0,208
-525,248	-138,303	0,115	-0,009
-524,233	-200,000	0,017	0,214
-523,218	187,052	-0,054	-0,058
-522,204	-132,962	-0,108	-0,010
-521,189	800,000	0,022	-0,066
-520,175	-93,673	0,079	0,016
-519,160	-42,931	0,087	-0,032
-518,145	83,777	0,110	-0,087
-517,131	71,815	-0,031	0,023
-516,116	199,248	-0,037	0,041
-515,102	81,138	-0,059	0,046
-514,087	-200,000	0,003	0,038
-513,072	-136,373	-0,059	-0,005
-512,058	-200,000	-0,025	0,138
-511,043	-90,189	-0,090	-0,019
-510,029	11,666	0,088	0,049
-509,014	-6,987	0,079	-0,039
-507,999	-81,576	-0,075	-0,018
-506,985	377,979	0,021	0,031
-505,970	800,000	0,026	-0,053
-504,956	150,383	0,007	0,007
-503,941	-200,000	0,031	-0,218
-502,926	800,000	0,004	0,013
-501,912	-200,000	0,017	0,095
-500,897	-200,000	-0,002	0,148
-499,883	87,639	0,107	-0,086
-498,868	55,111	-0,111	-0,077
-497,853	294,433	-0,009	0,012
-496,839	372,095	0,061	0,089
-495,824	266,243	0,051	0,064
-494,810	66,175	-0,053	-0,039
-493,795	239,909	-0,131	0,158
-492,781	116,179	0,072	0,064
-491,766	-62,352	-0,112	-0,033
-490,751	-126,839	-0,076	-0,008
-489,737	747,097	0,036	0,071
-488,722	800,000	0,038	0,088
-487,708	2,783	0,127	-0,066
-486,693	20,631	-0,118	-0,068
-485,678	694,729	0,019	0,036
-484,664	800,000	-0,019	0,048
-483,649	-19,517	-0,016	-0,007
-482,635	-157,534	0,105	0,004
-481,620	-68,026	-0,106	0,029
-480,605	-200,000	-0,009	0,086
-479,591	-18,406	0,066	-0,030
-478,576	-200,000	0,012	0,090
-477,562	11,647	-0,045	-0,025
-476,547	103,658	0,118	-0,100
-475,532	-66,195	0,049	-0,014
-474,518	101,387	0,071	-0,060
-473,503	200,102	0,051	-0,057
-472,489	-200,000	0,008	0,034
-471,474	-50,068	-0,121	0,041
-470,459	-200,000	-0,005	0,098
-469,445	97,384	-0,055	0,046
-468,430	-58,340	-0,073	-0,023
-467,416	-200,000	-0,008	-0,030
-466,401	-200,000	0,019	0,221
-465,386	-200,000	0,040	0,133
-464,372	184,589	-0,120	-0,128
-463,357	-200,000	-0,010	-0,067
-462,343	86,375	-0,086	-0,068
-461,328	-100,112	-0,097	-0,017
-460,313	-109,360	-0,085	-0,013
-459,299	218,241	-0,116	-0,133
-458,284	326,177	0,043	-0,059
-457,270	-200,000	0,002	-0,074
-456,255	-200,000	-0,023	0,113
-455,241	-93,892	0,049	0,010
-454,226	448,349	-0,045	-0,071
-453,211	-181,673	0,067	-0,001
-452,197	85,755	-0,086	0,068
-451,182	41,748	0,051	0,033
-450,168	-46,066	-0,064	-0,023
-449,153	-42,629	-0,022	0,008
-448,138	-69,962	-0,150	-0,041
-447,124	727,945	0,009	-0,018
-446,109	200,548	-0,107	-0,119
-445,095	-37,951	0,087	0,033
-444,080	118,300	-0,023	-0,021
-443,065	-34,058	-0,059	0,023
-442,051	800,000	-0,030	0,089
-441,036	-200,000	0,021	-0,128
-440,022	87,211	-0,083	-0,066
-439,007	-6,508	-0,061	-0,030
-437,992	8,376	0,149	-0,080
-436,978	70,545	-0,026	-0,020
-435,963	176,444	0,155	0,162
-434,949	2,621	-0,083	0,043
-433,934	28,071	-0,110	0,066
-432,919	800,000	0,036	0,073
-431,905	97,437	-0,061	-0,051
-430,890	78,059	0,069	0,053
-429,876	-200,000	-0,017	0,056
-428,861	-200,000	-0,003	-0,049
-427,846	800,000	0,064	-0,142
-426,832	-69,280	-0,026	-0,007
-425,817	-200,000	-0,012	0,124
-424,803	-64,018	0,075	0,022
-423,788	-157,951	0,169	0,007
-422,773	-38,410	0,096	0,036
-421,759	-6,031	-0,070	-0,034
-420,744	800,000	0,022	0,063
-419,730	-200,000	-0,004	0,051
-418,715	-200,000	-0,021	0,090
-417,701	371,128	0,028	-0,040
-416,686	-134,604	-0,011	0,001
-415,671	-200,000	0,032	0,141
-414,657	273,048	-0,024	-0,031
-413,642	216,006	-0,096	-0,110
-412,628	278,178	-0,078	0,100
-411,613	211,089	0,055	-0,062
-410,598	-51,852	0,016	-0,005
-409,584	524,230	0,054	0,091
-408,569	426,696	0,052	0,081
-407,555	26,384	0,059	0,036
-406,540	800,000	-0,021	0,048
-405,525	168,293	-0,081	-0,083
-404,511	17,026	0,027	-0,015
-403,496	-200,000	0,022	-0,095
-402,482	67,146	0,113	-0,083
-401,467	-69,279	-0,096	0,026
-400,452	452,928	0,048	0,077
-399,438	4,927	0,071	0,037
-398,423	-127,926	-0,203	0,021
-397,409	-29,034	-0,059	0,024
-396,394	263,934	0,067	0,083
-395,379	800,000	0,010	0,026
-394,365	-200,000	-0,013	0,117
-393,350	-62,655	0,139	0,041
-392,336	800,000	0,010	-0,020
-391,321	-92,546	-0,080	0,016
-390,306	-159,509	-0,056	-0,002
-389,292	-128,872	0,013	-0,001
-388,277	484,646	-0,076	-0,124
-387,263	-200,000	-0,019	0,111
-386,248	79,938	0,194	0,149
-385,233	-200,000	-0,009	-0,112
-384,219	-200,000	-0,021	-0,092
-383,204	-19,342	0,073	-0,032
-382,190	460,986	-0,107	-0,171
-381,175	-200,000	-0,008	-0,150
-380,160	15,929	0,028	-0,016
-379,146	-200,000	-0,011	-0,118
-378,131	-27,011	-0,130	0,054
-377,117	-63,160	-0,107	0,031
-376,102	103,267	0,019	-0,016
-375,088	474,966	0,026	-0,042
-374,073	114,771	0,053	0,047
-373,058	-67,895	0,033	0,009
-372,044	387,350	0,079	0,117
-371,029	-54,301	0,180	0,058
-370,015	-128,851	0,048	0,005
-369,000	-200,000	0,006	-0,056
-367,985	35,472	0,035	0,022
-366,971	800,000	-0,004	-0,010
-365,956	368,710	0,019	0,028
-364,942	42,298	-0,062	-0,040
-363,927	101,968	0,126	-0,106
-362,912	-15,312	0,074	0,034
-361,898	66,213	-0,056	0,040
-360,883	246,311	0,085	-0,103
-359,869	-121,944	-0,200	-0,023
-358,854	443,462	0,067	0,105
-357,839	-200,000	0,006	-0,019
-356,825	-11,632	0,109	0,051
-355,810	-7,941	-0,105	-0,050
-354,796	189,004	-0,060	-0,065
-353,781	-119,313	0,066	-0,008
-352,766	-167,484	-0,126	-0,004
-351,752	-85,381	-0,144	0,032
-350,737	307,587	0,050	0,068
-349,723	-145,777	0,044	-0,003
-348,708	-83,576	-0,102	0,023
-347,693	-118,242	-0,116	-0,015
-346,679	-200,000	0,014	0,082
-345,664	123,712	-0,024	-0,022
-344,650	180,156	-0,066	-0,069
-343,635	-55,745	-0,022	-0,007
-342,620	449,351	0,065	-0,102
-341,606	-95,664	-0,161	-0,030
-340,591	-200,000	0,010	-0,042
-339,577	-138,492	-0,062	0,005
-338,562	-140,825	-0,162	0,012
-337,548	-34,519	-0,106	0,042
-336,533	-29,990	0,046	-0,019
-335,518	234,944	-0,038	0,045
-334,504	31,282	0,092	0,056
-333,489	-46,293	0,153	-0,054
-332,475	800,000	-0,020	-0,052
-331,460	409,938	-0,025	0,039
-330,445	-61,698	-0,045	0,014
-329,431	-200,000	0,010	0,109
-328,416	539,411	0,041	0,069
-327,402	800,000	-0,043	-0,096
-326,387	-33,160	-0,060	0,024
-325,372	-200,000	-0,013	-0,154
-324,358	-197,971	0,050	-0,000
-323,343	800,000	-0,017	-0,049
-322,329	195,430	-0,084	-0,092
-321,314	313,338	-0,029	0,039
-320,299	151,963	0,058	-0,057
-319,285	-200,000	0,015	0,056
-318,270	350,029	0,031	-0,044
-317,256	70,491	-0,038	0,028
-316,241	147,702	-0,063	-0,061
-315,226	253,038	-0,054	-0,066
-314,212	-101,309	0,043	0,007
-313,197	-134,302	0,054	-0,005
-312,183	-19,944	0,195	-0,086
-311,168	-200,000	0,007	-0,031
-310,153	438,006	0,067	-0,105
-309,139	-67,809	-0,191	-0,053
-308,124	280,855	0,062	-0,080
-307,110	-61,543	0,084	-0,025
-306,095	-39,693	0,093	-0,035
-305,080	800,000	-0,033	-0,067
-304,066	153,134	-0,059	0,057
-303,051	-35,978	0,197	-0,076
-302,037	-59,420	-0,111	0,034
-301,022	252,400	0,100	-0,123
-300,008	-200,000	0,040	0,147
-298,993	242,799	0,046	0,055
-297,978	61,220	0,042	-0,030
-296,964	-126,943	-0,123	-0,013
-295,949	800,000	-0,039	-0,115
-294,935	32,738	-0,122	-0,075
-293,920	-200,000	-0,026	-0,088
-292,905	-13,895	0,204	0,094
-291,891	800,000	0,051	-0,112
-290,876	-200,000	-0,007	-0,031
-289,862	109,210	0,020	0,018
-288,847	335,500	0,030	0,042
-287,832	-89,010	-0,051	-0,011
-286,818	484,011	0,057	0,093
-285,803	55,142	-0,116	0,080
-284,789	74,895	-0,066	0,049
-283,774	-20,766	0,134	0,058
-282,759	-200,000	-0,000	-0,075
-281,745	513,557	-0,089	0,149
-280,730	-200,000	0,015	-0,075
-279,716	351,843	-0,064	-0,091
-278,701	-13,311	0,126	0,058
-277,686	-11,134	-0,016	0,008
-276,672	173,791	-0,088	0,091
-275,657	182,676	0,105	0,111
-274,643	-86,859	-0,058	0,012
-273,628	-114,943	-0,063	-0,008
-272,613	800,000	-0,055	-0,112
-271,599	184,111	0,099	-0,104
-270,584	9,626	0,078	0,042
-269,570	-200,000	0,019	0,133
-268,555	-129,810	-0,089	0,009
-267,540	-102,232	-0,126	-0,021
-266,526	-68,645	0,054	0,015
-265,511	135,115	0,096	0,089
-264,497	274,238	0,035	0,045
-263,482	-121,111	0,093	0,011
-262,467	-41,521	0,048	0,018
-261,453	-200,000	0,018	-0,079
-260,438	118,055	-0,065	-0,057
-259,424	758,283	0,017	-0,033
-258,409	752,792	0,045	-0,087
-257,395	271,545	0,046	-0,058
-256,380	462,004	0,063	0,101
-255,365	-200,000	0,022	0,158
-254,351	131,927	0,019	-0,018
-253,336	3,832	-0,065	0,034
-252,322	356,673	-0,130	-0,185
-251,307	533,111	-0,061	-0,103
-250,292	800,000	0,027	0,064
-249,278	-109,877	0,065	0,010
-248,263	-200,000	-0,002	0,087
-247,249	-200,000	0,023	0,100
-246,234	-135,160	-0,149	0,013
-245,219	712,330	0,057	0,109
-244,205	217,549	0,108	-0,124
-243,190	-80,156	0,126	0,030
-242,176	-56,643	0,121	0,038
-241,161	-125,712	0,066	0,007
-240,146	800,000	0,012	0,029
-239,132	800,000	0,073	0,209
-238,117	-200,000	-0,030	-0,107
-237,103	-25,703	-0,128	-0,053
-236,088	-90,227	-0,049	0,010
-235,073	-46,941	0,018	0,006
-234,059	561,317	-0,026	-0,045
-233,044	-140,476	0,103	0,008
-232,030	-200,000	-0,023	0,104
-231,015	184,611	0,077	-0,081
-230,000	95,640	-0,058	0,047
-228,986	408,464	-0,009	-0,014
-227,971	-200,000	0,000	0,012
-226,957	51,413	-0,018	-0,012
-225,942	419,175	0,042	0,064
-224,927	-51,057	0,010	0,003
-223,913	3,170	-0,048	0,025
-222,898	491,339	-0,052	0,086
-221,884	106,812	0,120	-0,102
-220,869	-200,000	-0,003	-0,063
-219,855	-162,209	-0,064	0,002
-218,840	489,540	0,110	0,180
-217,825	473,289	-0,014	0,022
-216,811	-132,906	-0,060	0,005
-215,796	259,182	-0,098	-0,121
-214,782	-200,000	0,030	-0,140
-213,767	-103,952	0,091	0,015
-212,752	239,245	0,092	0,110
-211,738	638,488	0,038	0,069
-210,723	307,338	-0,059	-0,079
-209,709	-200,000	-0,004	-0,022
-208,694	94,651	-0,104	-0,084
-207,679	-200,000	-0,009	-0,062
-206,665	-6,306	0,137	0,066
-205,650	-200,000	-0,002	-0,121
-204,636	5,185	0,059	0,031
-203,621	684,896	0,033	0,062
-202,606	-20,182	0,023	-0,010
-201,592	4,441	-0,059	-0,031
-200,577	-71,696	-0,074	-0,020
-199,563	-113,053	0,086	0,012
-198,548	-66,759	0,142	-0,040
-197,533	-45,298	-0,162	0,057
-196,519	-26,369	0,085	-0,035
-195,504	-200,000	-0,009	-0,029
-194,490	-200,000	0,008	-0,090
-193,475	492,407	-0,088	-0,144
-192,460	143,590	0,035	-0,033
-191,446	528,686	0,012	-0,020
-190,431	212,648	0,064	0,071
-189,417	533,521	0,038	0,065
-188,402	336,374	0,104	-0,144
-187,387	-200,000	0,000	-0,084
-186,373	-181,791	-0,090	0,001
-185,358	-200,000	0,001	0,110
-184,344	257,955	-0,029	0,036
-183,329	-200,000	0,001	0,144
-182,315	38,031	0,103	0,065
-181,300	-52,222	-0,024	0,008
-180,285	-78,429	-0,061	-0,015
-179,271	150,510	0,106	0,102
-178,256	-22,275	-0,019	0,008
-177,242	-48,571	0,034	-0,011
-176,227	-100,545	0,038	-0,007
-175,212	697,991	0,071	-0,134
-174,198	800,000	-0,033	0,091
-173,183	6,889	-0,115	-0,061
-172,169	800,000	0,022	0,065
-171,154	71,486	-0,117	-0,086
-170,139	112,735	0,068	-0,058
-169,125	-200,000	-0,021	0,109
-168,110	-200,000	0,025	-0,102
-167,096	656,263	0,035	0,064
-166,081	230,397	0,043	0,051
-165,066	253,683	0,057	-0,070
-164,052	-102,789	-0,111	0,019
-163,037	-137,772	0,170	0,013
-162,023	204,957	0,063	0,070
-161,008	-200,000	-0,003	0,128
-159,993	-200,000	0,014	0,149
-158,979	-72,382	-0,051	-0,013
-157,964	-200,000	0,016	-0,052
-156,950	-200,000	-0,000	0,059
-155,935	441,349	-0,036	-0,056
-154,920	48,031	0,042	0,028
-153,906	-5,040	0,068	0,033
-152,891	47,395	-0,053	0,035
-151,877	-200,000	0,029	-0,093
-150,862	-93,615	-0,158	0,031
-149,847	800,000	0,035	0,070
-148,833	149,654	0,093	0,089
-147,818	-44,541	-0,040	-0,014
-146,804	427,233	0,102	0,157
-145,789	-200,000	0,050	0,208
-144,775	-200,000	-0,002	-0,175
-143,760	209,355	-0,088	-0,098
-142,745	800,000	0,028	-0,062
-141,731	180,478	0,099	-0,104
-140,716	108,009	0,089	-0,075
-139,702	411,636	0,043	0,064
-138,687	393,093	0,096	0,142
-137,672	-200,000	0,012	-0,131
-136,658	36,423	-0,060	-0,037
-135,643	-200,000	-0,007	-0,044
-134,629	156,383	0,128	-0,126
-133,614	22,243	0,122	0,071
-132,599	-105,066	0,202	0,032
-131,585	-200,000	0,027	0,200
-130,570	59,411	-0,133	-0,093
-129,556	-82,868	0,005	-0,001
-128,541	-200,000	0,027	-0,133
-127,526	33,258	-0,110	-0,068
-126,512	800,000	-0,039	0,088
-125,497	67,717	0,136	0,099
-124,483	4,093	0,061	0,032
-123,468	-73,295	0,034	-0,009
-122,453	-200,000	-0,010	0,082
-121,439	-200,000	0,005	-0,033
-120,424	-1,547	0,044	-0,022
-119,410	406,469	-0,032	-0,049
-118,395	-200,000	0,027	0,132
-117,380	127,787	0,048	-0,044
-116,366	-78,644	0,047	-0,011
-115,351	373,178	0,068	-0,099
-114,337	82,381	-0,030	-0,023
-113,322	6,459	-0,058	0,031
-112,307	532,314	-0,028	0,048
-111,293	236,181	-0,161	0,189
-110,278	109,398	0,124	0,105
-109,264	-84,226	0,065	0,015
-108,249	-200,000	0,002	-0,023
-107,234	-74,055	-0,146	0,037
-106,220	-200,000	0,003	-0,030
-105,205	502,072	0,060	0,099
-104,191	-44,387	0,154	0,054
-103,176	-200,000	-0,006	0,065
-102,162	-200,000	-0,014	-0,046
-101,147	-180,437	0,187	-0,003
-100,132	263,595	-0,101	-0,125
-99,118	-200,000	-0,000	-0,031
-98,103	563,017	0,047	0,081
-97,089	117,976	-0,047	-0,041
-96,074	32,704	-0,007	0,004
-95,059	137,518	-0,016	-0,015
-94,045	-99,673	-0,068	-0,012
-93,030	231,349	-0,021	0,024
-92,016	-54,858	-0,149	-0,047
-91,001	106,199	-0,101	-0,085
-89,986	717,699	0,014	0,026
-88,972	100,647	-0,046	-0,038
-87,957	648,757	0,067	0,123
-86,943	-200,000	0,000	0,058
-85,928	-98,685	-0,074	-0,013
-84,913	-83,845	-0,072	-0,016
-83,899	-93,862	-0,057	0,011
-82,884	-165,895	-0,120	0,004
-81,870	-200,000	-0,047	0,163
-80,855	-200,000	-0,016	0,130
-79,840	800,000	0,054	0,152
-78,826	44,472	0,018	-0,012
-77,811	422,429	-0,104	-0,159
-76,797	240,294	-0,055	0,065
-75,782	-200,000	-0,019	0,059
-74,767	-123,486	0,065	-0,007
-73,753	-200,000	-0,020	0,110
-72,738	84,581	-0,033	-0,026
-71,724	485,335	-0,026	-0,042
-70,709	-200,000	-0,036	-0,119
-69,694	-125,440	0,028	0,003
-68,680	800,000	0,046	0,137
-67,665	301,561	0,036	-0,047
-66,651	274,232	-0,033	-0,041
-65,636	-200,000	0,011	-0,096
-64,622	221,937	0,038	-0,043
-63,607	26,257	0,122	-0,072
-62,592	10,185	0,072	0,039
-61,578	-4,741	-0,071	0,035
-60,563	-97,211	0,117	-0,021
-59,549	-200,000	0,027	0,095
-58,534	-21,351	-1,540	-0,663
-57,519	376,278	-1,438	-2,085
-56,505	-200,000	-0,412	-4,604
-55,490	231,974	1,006	1,171
-54,476	800,000	4,988	11,416
-53,461	-200,000	19,181	317,003
-52,446	-200,000	739,393	2334,172
-51,432	576,255	1655,423	2875,699
-50,417	78,826	1671,492	1265,359
-49,403	21,648	1544,047	887,746
-48,388	15,492	1466,468	813,201
-47,373	17,961	1456,443	819,546
-46,359	16,775	1446,672	808,323
-45,344	13,735	1441,796	791,003
-44,330	13,660	1439,935	789,590
-43,315	13,681	1438,198	788,708
-42,300	13,624	1436,668	787,566
-41,286	13,673	1435,336	787,039
-40,271	13,622	1434,056	786,061
-39,257	13,649	1432,799	785,469
-38,242	13,707	1431,604	785,060
-37,227	13,715	1430,165	784,277
-36,213	13,712	1428,843	783,507
-35,198	13,696	1427,833	782,843
-34,184	13,790	1426,885	782,741
-33,169	13,679	1425,668	781,517
-32,154	13,734	1424,325	781,007
-31,140	13,715	1423,061	780,195
-30,125	13,753	1421,990	779,757
-29,111	13,726	1420,852	778,974
-28,096	13,675	1419,894	778,178
-27,082	13,662	1418,835	777,505
-26,067	13,641	1417,613	776,703
-25,052	13,645	1416,216	775,927
-24,038	13,594	1415,580	775,307
-23,023	13,619	1414,559	774,838
-22,009	13,620	1413,364	774,157
-20,994	13,584	1412,700	773,591
-19,979	13,603	1411,733	773,119
-18,965	13,548	1410,999	772,431
-17,950	13,579	1409,877	771,932
-16,936	13,567	1409,103	771,421
-15,921	13,529	1407,649	770,414
-14,906	13,542	1406,909	770,042
-13,892	13,523	1405,975	769,408
-12,877	13,585	1405,164	769,223
-11,863	13,547	1404,352	768,575
-10,848	13,536	1403,351	767,942
-9,833	13,523	1402,461	767,366
-8,819	13,470	1401,732	766,687
-7,804	13,448	1400,577	765,926
-6,790	13,399	1399,782	765,232
-5,775	13,443	1398,569	764,743
-4,760	13,445	1397,794	764,297
-3,746	13,442	1396,732	763,674
-2,731	13,443	1396,103	763,303
-1,717	13,426	1395,174	762,687
-0,702	13,411	1393,300	761,563
0,313	17,180	1310,581	733,842
1,327	33,398	704,708	432,130
2,342	51,495	123,562	82,961
3,356	3,783	16,625	8,564
4,371	10,415	3,225	1,732
5,386	-2,185	0,592	0,293
6,400	800,000	0,097	0,238
7,415	635,727	-0,074	-0,133
8,429	36,222	-0,305	-0,190
9,444	-16,715	-0,317	-0,141
10,459	50,117	-0,180	-0,120
11,473	3,135	-0,278	-0,143
12,488	47,147	-0,236	-0,155
13,502	115,179	-0,321	-0,277
14,517	-74,916	-0,411	-0,103
15,531	8,151	-0,414	-0,219
16,546	-53,356	-0,358	-0,115
17,561	139,807	-0,333	-0,310
18,575	-108,709	-0,113	-0,017
19,590	8,814	-0,255	-0,135
20,604	-25,773	-0,285	-0,118
21,619	-66,117	-0,404	-0,113
22,634	274,139	-0,322	-0,404
23,648	100,839	-0,461	-0,378
24,663	130,679	-0,317	-0,287
25,677	37,250	-0,323	-0,202
26,692	53,888	-0,283	-0,192
27,707	13,587	-0,356	-0,194
28,721	137,328	-0,249	-0,230
29,736	97,217	-0,404	-0,327
30,750	75,951	-0,434	-0,324
31,765	25,773	-0,493	-0,289
32,780	-4,375	-0,431	-0,209
33,794	70,423	-0,355	-0,259
34,809	-20,234	-0,368	-0,159
35,823	150,484	-0,252	-0,241
36,838	192,499	-0,317	-0,338
37,853	63,996	-0,454	-0,321
38,867	87,442	-0,304	-0,237
39,882	33,757	-0,249	-0,152
40,896	45,854	-0,319	-0,208
41,911	54,066	-0,334	-0,226
42,926	62,794	-0,356	-0,251
43,940	102,996	-0,360	-0,297
44,955	364,254	-0,273	-0,388
45,969	9,369	-0,419	-0,223
46,984	55,230	-0,275	-0,187
47,999	62,290	-0,252	-0,177
49,013	26,270	-0,396	-0,232
50,028	36,873	-0,388	-0,242
51,042	-34,313	-0,378	-0,146
52,057	-47,230	-0,396	-0,135
53,071	205,700	-0,258	-0,283
54,086	-24,169	-0,283	-0,119
55,101	-2,816	-0,319	-0,157
56,115	71,607	-0,432	-0,316
57,130	13,025	-0,396	-0,215
58,144	69,909	-0,340	-0,247
59,159	153,131	-0,339	-0,327
60,174	-23,822	-0,474	-0,199
61,188	79,041	-0,317	-0,239
62,203	135,111	-0,352	-0,322
63,217	136,674	-0,335	-0,308
64,232	83,875	-0,263	-0,202
65,247	6,584	-0,408	-0,213
66,261	-22,768	-0,313	-0,132
67,276	112,114	-0,305	-0,259
68,290	21,474	-0,493	-0,281
69,305	-19,918	-0,465	-0,201
70,320	-50,926	-0,380	-0,125
71,334	148,821	-0,339	-0,323
72,349	69,456	-0,241	-0,174
73,363	21,828	-0,331	-0,189
74,378	32,510	-0,309	-0,187
75,393	218,545	-0,193	-0,217
76,407	122,090	-0,187	-0,164
77,422	148,001	-0,298	-0,283
78,436	80,295	-0,350	-0,265
79,451	16,185	-0,374	-0,207
80,466	182,980	-0,244	-0,254
81,480	70,410	-0,344	-0,249
82,495	-105,184	-0,320	-0,051
83,509	140,435	-0,269	-0,250
84,524	-27,884	-0,275	-0,111
85,539	54,164	-0,308	-0,208
86,553	-114,638	-0,317	-0,042
87,568	12,373	-0,342	-0,185
88,582	14,825	-0,249	-0,136
89,597	8,912	-0,278	-0,147
90,611	800,000	-0,099	-0,233
91,626	21,318	-0,348	-0,198
92,641	238,714	-0,317	-0,370
93,655	-28,611	-0,332	-0,134
94,670	-47,268	-0,279	-0,095
95,684	84,524	-0,293	-0,225
96,699	103,752	-0,322	-0,265
97,714	41,547	-0,364	-0,231
98,728	-8,054	-0,279	-0,131
99,743	392,721	-0,209	-0,305
100,757	95,359	-0,279	-0,223
101,772	247,443	-0,225	-0,267
102,787	116,933	-0,163	-0,141
103,801	15,649	-0,336	-0,185
104,816	76,889	-0,259	-0,192
105,830	-167,277	-0,221	-0,006
106,845	-88,690	-0,303	-0,063
107,860	40,353	-0,244	-0,154
108,874	107,226	-0,292	-0,243
109,889	12,269	-0,264	-0,142
110,903	9,509	-0,225	-0,119
111,918	33,723	-0,270	-0,164
112,933	572,742	-0,162	-0,277
113,947	44,739	-0,237	-0,152
114,962	-19,823	-0,300	-0,129
115,976	154,185	-0,199	-0,192
116,991	397,998	-0,208	-0,306
118,006	66,233	-0,293	-0,208
119,020	122,450	-0,333	-0,292
120,035	-33,972	-0,206	-0,079
121,049	-24,034	-0,228	-0,095
122,064	-19,497	-0,193	-0,083
123,079	59,406	-0,231	-0,159
124,093	399,856	-0,167	-0,245
125,108	158,374	-0,296	-0,288
126,122	462,762	-0,201	-0,315
127,137	-28,901	-0,360	-0,144
128,151	0,547	-0,250	-0,125
129,166	-54,836	-0,250	-0,078
130,181	86,113	-0,283	-0,218
131,195	51,445	-0,422	-0,280
132,210	90,885	-0,247	-0,194
133,224	-3,415	-0,292	-0,142
134,239	7,629	-0,262	-0,137
135,254	76,296	-0,161	-0,119
136,268	-29,523	-0,253	-0,101
137,283	-31,856	-0,316	-0,123
138,297	79,183	-0,336	-0,252
139,312	152,762	-0,261	-0,249
140,327	13,395	-0,356	-0,193
141,341	340,737	-0,198	-0,271
142,356	568,519	-0,123	-0,209
143,370	-94,397	-0,205	-0,039
144,385	-23,579	-0,158	-0,066
145,400	83,616	-0,274	-0,209
146,414	398,123	-0,147	-0,216
147,429	227,304	-0,190	-0,216
148,443	41,298	-0,288	-0,181
149,458	-34,040	-0,318	-0,122
150,473	32,327	-0,185	-0,112
151,487	-22,015	-0,197	-0,083
152,502	24,887	-0,420	-0,243
153,516	65,426	-0,291	-0,206
154,531	187,457	-0,167	-0,175
155,546	-52,919	-0,340	-0,109
156,560	-168,469	-0,404	-0,011
157,575	-85,114	-0,303	-0,066
158,589	289,686	-0,123	-0,156
159,604	64,871	-0,172	-0,121
160,619	8,375	-0,261	-0,137
161,633	64,154	-0,277	-0,194
162,648	-113,380	-0,183	-0,025
163,662	22,404	-0,211	-0,120
164,677	-200,000	-0,055	-0,256
165,692	409,433	-0,089	-0,132
166,706	153,091	-0,176	-0,168
167,721	163,411	-0,209	-0,205
168,735	-27,884	-0,323	-0,130
169,750	175,243	-0,166	-0,168
170,764	28,798	-0,275	-0,162
171,779	189,286	-0,125	-0,131
172,794	89,332	-0,193	-0,150
173,808	412,588	-0,109	-0,161
174,823	283,746	-0,151	-0,190
175,837	-5,503	-0,360	-0,172
176,852	396,115	-0,122	-0,178
177,867	193,963	-0,109	-0,115
178,881	-200,000	-0,309	0,001
179,896	-90,591	-0,180	-0,036
180,910	-39,611	-0,222	-0,081
181,925	-152,756	-0,254	0,012
182,940	-84,675	-0,217	-0,047
183,954	609,219	-0,238	-0,415
184,969	59,033	-0,309	-0,212
185,983	450,320	-0,153	-0,236
186,998	270,833	-0,150	-0,184
188,013	72,115	-0,228	-0,165
189,027	434,990	-0,163	-0,248
190,042	-31,235	-0,265	-0,103
191,056	-60,946	-0,305	-0,089
192,071	24,004	-0,149	-0,085
193,086	69,091	-0,221	-0,158
194,100	-98,448	-0,284	-0,050
195,115	8,919	-0,176	-0,092
196,129	494,864	-0,101	-0,161
197,144	-27,467	-0,226	-0,091
198,159	196,318	-0,155	-0,164
199,173	423,097	-0,062	-0,093
200,188	-93,286	-0,085	0,016
201,202	12,760	-0,199	-0,107
202,217	44,699	-0,239	-0,153
203,232	82,536	-0,200	-0,151
204,246	25,043	-0,178	-0,102
205,261	75,965	-0,195	-0,144
206,275	-76,998	-0,295	-0,071
207,290	90,247	-0,238	-0,185
208,304	18,817	-0,075	-0,042
209,319	41,336	-0,219	-0,137
210,334	275,529	-0,181	-0,224
211,348	478,825	-0,169	-0,267
212,363	164,274	-0,209	-0,205
213,377	-19,536	-0,268	-0,115
214,392	346,306	-0,117	-0,160
215,407	-64,081	-0,140	-0,039
216,421	-126,780	-0,134	-0,014
217,436	213,234	-0,179	-0,197
218,450	181,840	-0,199	-0,204
219,465	800,000	-0,068	-0,196
220,480	471,097	-0,127	-0,199
221,494	18,276	-0,124	-0,068
222,509	-50,951	-0,139	-0,045
223,523	21,492	-0,232	-0,131
224,538	-8,962	-0,302	-0,140
225,553	144,921	-0,189	-0,176
226,567	182,080	-0,232	-0,238
227,582	1,864	-0,215	-0,107
228,596	24,831	-0,175	-0,100
229,611	35,015	-0,212	-0,128
230,626	58,907	-0,257	-0,175
231,640	66,512	-0,104	-0,074
232,655	-125,837	-0,146	-0,015
233,669	333,506	-0,171	-0,230
234,684	221,469	-0,140	-0,156
235,699	-67,752	-0,143	-0,038
236,713	-62,943	-0,264	-0,075
237,728	239,853	-0,137	-0,159
238,742	493,387	-0,091	-0,146
239,757	-115,335	-0,221	0,029
240,772	27,500	-0,188	-0,109
241,786	140,050	-0,219	-0,200
242,801	188,227	-0,089	-0,093
243,815	408,808	-0,130	-0,191
244,830	-99,849	-0,137	-0,023
245,844	133,974	-0,258	-0,231
246,859	193,607	-0,163	-0,171
247,874	800,000	-0,078	-0,192
248,888	142,020	-0,197	-0,181
249,903	10,328	-0,142	-0,075
250,917	-122,670	-0,257	-0,028
251,932	43,499	-0,067	-0,043
252,947	800,000	-0,037	-0,108
253,961	165,309	-0,163	-0,160
254,976	552,880	-0,184	-0,308
255,990	256,517	-0,160	-0,190
257,005	774,894	-0,134	-0,254
258,020	800,000	-0,014	-0,035
259,034	69,639	-0,113	-0,080
260,049	-34,958	-0,256	-0,096
261,063	-112,882	-0,099	-0,013
262,078	257,643	-0,106	-0,127
263,093	800,000	-0,100	-0,214
264,107	800,000	-0,144	-0,283
265,122	301,901	-0,115	-0,147
266,136	363,340	-0,172	-0,239
267,151	800,000	-0,093	-0,182
268,166	72,862	-0,222	-0,160
269,180	800,000	-0,115	-0,284
270,195	-65,576	-0,293	-0,081
271,209	-41,787	-0,155	-0,055
272,224	72,779	-0,123	-0,088
273,239	-200,000	0,023	-0,120
274,253	70,520	-0,126	-0,090
275,268	85,828	-0,117	-0,088
276,282	123,517	-0,216	-0,187
277,297	-46,604	-0,299	-0,101
278,312	117,865	-0,200	-0,170
279,326	263,153	-0,094	-0,114
280,341	-200,000	-0,015	-0,098
281,355	95,860	-0,112	-0,088
282,370	-191,870	-0,212	-0,001
283,384	-196,890	-0,306	-0,001
284,399	354,697	-0,164	-0,226
285,414	-45,389	-0,206	-0,070
286,428	-35,172	-0,151	-0,056
287,443	105,534	-0,046	-0,037
288,457	173,659	-0,088	-0,087
289,472	800,000	-0,042	-0,095
290,487	407,407	-0,068	-0,100
291,501	220,355	-0,154	-0,170
292,516	-15,164	-0,249	-0,109
293,530	-57,731	-0,196	-0,059
294,545	395,771	-0,037	-0,054
295,560	-186,446	-0,196	-0,002
296,574	125,551	-0,160	-0,139
297,589	-68,404	-0,213	-0,057
298,603	147,305	-0,159	-0,147
299,618	48,823	-0,253	-0,163
300,633	646,216	-0,134	-0,236
301,647	-200,000	-0,010	-0,169
302,662	31,142	-0,202	-0,119
303,676	174,072	-0,183	-0,183
304,691	311,679	-0,124	-0,161
305,706	64,399	-0,234	-0,162
306,720	733,887	-0,136	-0,251
307,735	-54,125	-0,136	-0,042
308,749	209,276	-0,084	-0,091
309,764	-51,148	-0,176	0,057
310,779	333,770	-0,036	-0,048
311,793	16,868	-0,220	-0,120
312,808	-28,796	-0,234	-0,092
313,822	5,618	-0,165	-0,084
314,837	98,763	-0,098	-0,078
315,852	352,561	-0,022	0,031
316,866	8,532	-0,084	-0,044
317,881	132,632	-0,179	-0,159
318,895	-54,255	-0,034	0,011
319,910	-35,690	-0,052	0,019
320,925	800,000	-0,159	-0,304
321,939	-83,825	-0,125	-0,027
322,954	800,000	-0,010	-0,029
323,968	288,040	-0,147	-0,183
324,983	89,865	-0,085	-0,065
325,997	13,488	-0,222	-0,118
327,012	-95,898	-0,179	-0,033
328,027	70,649	-0,189	-0,134
329,041	-200,000	-0,038	-0,204
330,056	-50,706	-0,192	-0,062
331,070	-200,000	0,002	0,013
332,085	-128,927	-0,097	0,009
333,100	-105,433	-0,156	0,024
334,114	89,775	-0,257	-0,197
335,129	25,582	-0,219	-0,125
336,143	-200,000	-0,037	-0,141
337,158	62,247	-0,122	-0,084
338,173	-79,839	0,033	-0,007
339,187	91,208	-0,214	-0,165
340,202	243,988	-0,128	-0,148
341,216	66,921	-0,130	-0,091
342,231	800,000	-0,063	-0,180
343,246	133,050	-0,102	-0,091
344,260	551,528	-0,082	-0,136
345,275	273,412	-0,146	-0,178
346,289	-155,800	-0,074	-0,003
347,304	-71,786	-0,210	0,053
348,319	-44,241	-0,145	-0,050
349,333	-28,349	-0,158	-0,063
350,348	138,535	-0,111	-0,100
351,362	-170,727	-0,005	0,000
352,377	-200,000	-0,016	-0,079
353,392	-200,000	-0,036	-0,181
354,406	800,000	-0,029	-0,079
355,421	210,455	1312,048	1415,644
356,435	162,018	1472,445	1416,143
