DTS Sentinel unit serial number:	SN410029Multiplexer serial number:	ORYXHardware model number:	OX2-SRSoftware version number:	ORYX F/W v4,00 Oryx Data Collector v3.7.2.0data status	okinstallation	B3 Nyhavnadifferential loss correction	single-endedforward channel	channel 1reverse channel	N/Adate	2023/12/02time	00:32:30forward acquisition time	300,00reverse acquisition time	0,00gamma	499,1914k internal	0,3196k external	0,3196temperature offset calibration	1,0000default loss term (dB/km)	0,3820temperature slope calibration	1,0000multiplexer offset coefficient	1,0000multiplexer slope coefficient	1,0000fibre end	0,00T internal ref (°C)	16,22T ext. ref 1 (°C)	1,77T ext. ref 2 (°C)	1,77length (m)	temperature (°C)	Stokes	anti-Stokes-744,400	-200,000	-0,054	-0,186
-743,385	774,995	0,113	0,226
-742,371	-200,000	-0,090	-0,331
-741,356	-200,000	-0,104	0,396
-740,342	25,247	-0,279	-0,168
-739,327	-200,000	0,035	0,383
-738,312	53,906	-0,250	-0,175
-737,298	-200,000	0,011	0,419
-736,283	301,404	-0,077	-0,104
-735,269	-200,000	-0,001	0,366
-734,254	23,709	-0,200	-0,120
-733,239	154,607	-0,213	0,213
-732,225	254,227	-0,074	-0,092
-731,210	-190,046	0,207	0,002
-730,196	5,130	-0,019	0,010
-729,181	332,033	-0,058	-0,081
-728,167	351,426	0,027	-0,039
-727,152	4,484	0,093	-0,050
-726,137	-99,100	-0,092	0,017
-725,123	585,491	-0,050	-0,090
-724,108	148,870	-0,093	-0,092
-723,094	-200,000	0,010	-0,110
-722,079	-159,269	-0,152	0,006
-721,064	439,795	-0,050	-0,080
-720,050	127,207	-0,048	0,045
-719,035	-200,000	-0,006	-0,024
-718,021	172,618	-0,049	-0,051
-717,006	129,524	0,052	-0,049
-715,991	800,000	-0,025	-0,066
-714,977	800,000	-0,062	-0,150
-713,962	-200,000	0,004	-0,065
-712,948	-200,000	0,014	0,081
-711,933	96,469	0,054	0,045
-710,918	-91,197	0,135	0,028
-709,904	-200,000	-0,017	-0,098
-708,889	-200,000	-0,002	-0,038
-707,875	-200,000	0,022	-0,169
-706,860	144,890	0,056	-0,054
-705,845	250,892	-0,074	0,091
-704,831	800,000	0,014	0,045
-703,816	-90,892	0,105	-0,022
-702,802	244,284	-0,106	-0,130
-701,787	17,069	-0,159	-0,091
-700,772	-200,000	0,010	-0,039
-699,758	-200,000	0,004	-0,155
-698,743	51,767	-0,104	0,072
-697,729	-200,000	0,005	0,035
-696,714	249,250	0,071	-0,088
-695,699	-200,000	-0,016	0,101
-694,685	173,259	-0,037	0,039
-693,670	142,474	-0,032	0,031
-692,656	197,373	0,124	-0,137
-691,641	-200,000	-0,002	-0,210
-690,627	-135,423	0,078	-0,007
-689,612	-76,346	-0,216	-0,055
-688,597	162,819	-0,050	0,051
-687,583	-1,782	-0,083	-0,042
-686,568	800,000	-0,016	-0,044
-685,554	-27,992	-0,060	-0,025
-684,539	-200,000	0,005	-0,030
-683,524	-200,000	-0,001	-0,029
-682,510	141,263	0,048	-0,046
-681,495	-200,000	0,016	-0,063
-680,481	60,743	-0,087	-0,063
-679,466	438,595	-0,067	0,107
-678,451	-37,994	-0,051	0,020
-677,437	126,649	-0,035	-0,033
-676,422	-89,520	0,077	-0,016
-675,408	-43,021	0,087	0,032
-674,393	31,779	-0,035	0,022
-673,378	644,715	-0,014	0,026
-672,364	-115,589	-0,089	-0,012
-671,349	-200,000	-0,001	-0,013
-670,335	499,270	-0,051	0,086
-669,320	-50,100	0,087	0,030
-668,305	-84,293	-0,016	0,004
-667,291	-200,000	0,022	-0,095
-666,276	800,000	-0,033	-0,067
-665,262	-54,692	-0,119	0,039
-664,247	800,000	0,013	-0,039
-663,232	-44,123	-0,095	0,034
-662,218	-200,000	0,036	0,172
-661,203	37,506	-0,060	-0,039
-660,189	81,673	-0,128	-0,101
-659,174	-200,000	0,022	-0,090
-658,159	114,028	0,126	-0,112
-657,145	-200,000	-0,039	-0,222
-656,130	800,000	0,058	-0,120
-655,116	-200,000	-0,039	0,170
-654,101	177,529	0,140	0,149
-653,086	316,715	-0,040	0,055
-652,072	-200,000	0,027	-0,096
-651,057	-200,000	0,018	-0,115
-650,043	-0,285	-0,079	0,041
-649,028	138,287	0,043	0,041
-648,014	161,548	0,034	-0,035
-646,999	-126,981	0,074	0,008
-645,984	-57,761	0,084	-0,026
-644,970	-147,899	-0,177	0,011
-643,955	-200,000	-0,008	-0,065
-642,941	-0,090	-0,106	-0,055
-641,926	69,328	0,075	0,056
-640,911	254,770	0,069	-0,085
-639,897	-200,000	0,028	0,093
-638,882	-12,924	0,065	0,030
-637,868	170,227	0,064	-0,067
-636,853	233,480	-0,121	-0,144
-635,838	93,614	0,065	-0,053
-634,824	-162,495	0,121	-0,004
-633,809	106,221	0,128	0,110
-632,795	65,625	0,049	-0,036
-631,780	-200,000	-0,001	-0,105
-630,765	599,607	-0,080	-0,145
-629,751	-24,440	0,070	0,030
-628,736	-106,710	0,036	0,006
-627,722	-200,000	-0,007	-0,116
-626,707	250,596	-0,143	0,176
-625,692	41,061	-0,014	0,009
-624,678	219,168	0,055	-0,064
-623,663	206,259	-0,082	0,093
-622,649	-200,000	-0,004	0,016
-621,634	800,000	0,055	-0,145
-620,619	522,503	0,057	-0,097
-619,605	326,461	-0,019	-0,027
-618,590	635,089	0,046	-0,084
-617,576	169,345	0,095	0,098
-616,561	-58,722	-0,144	0,045
-615,546	-91,975	-0,015	0,003
-614,532	-22,787	-0,065	-0,028
-613,517	-200,000	-0,024	0,082
-612,503	755,225	0,047	-0,093
-611,488	-167,456	-0,132	-0,004
-610,474	-34,480	0,077	-0,031
-609,459	-53,941	0,016	0,005
-608,444	219,222	-0,023	0,026
-607,430	149,613	-0,107	-0,105
-606,415	-200,000	-0,002	-0,024
-605,401	308,758	0,101	-0,137
-604,386	800,000	-0,041	0,090
-603,371	28,502	0,124	0,076
-602,357	800,000	-0,026	0,082
-601,342	153,424	-0,050	-0,050
-600,328	476,141	-0,036	-0,059
-599,313	184,702	-0,033	0,035
-598,298	596,947	-0,020	-0,035
-597,284	-200,000	0,026	0,133
-596,269	419,769	0,007	0,010
-595,255	-200,000	0,014	0,046
-594,240	198,142	-0,036	-0,039
-593,225	-59,802	-0,077	0,024
-592,211	479,720	-0,041	-0,068
-591,196	175,344	-0,025	0,027
-590,182	-67,619	0,089	-0,025
-589,167	-200,000	-0,036	0,147
-588,152	800,000	-0,031	0,089
-587,138	-191,954	0,156	-0,001
-586,123	-102,197	0,096	0,017
-585,109	51,403	-0,059	-0,041
-584,094	-42,891	0,056	-0,020
-583,079	800,000	-0,033	0,094
-582,065	-28,086	-0,034	-0,014
-581,050	-200,000	-0,019	0,096
-580,036	-120,234	-0,136	-0,017
-579,021	-174,583	0,076	0,002
-578,006	800,000	0,024	-0,073
-576,992	6,848	0,116	-0,062
-575,977	-200,000	0,002	-0,091
-574,963	-78,879	0,061	0,015
-573,948	800,000	0,022	-0,056
-572,934	-15,122	0,075	-0,034
-571,919	-200,000	-0,001	0,116
-570,904	-200,000	-0,022	0,083
-569,890	800,000	-0,034	-0,077
-568,875	-200,000	-0,018	0,085
-567,861	564,386	-0,039	-0,068
-566,846	133,449	0,020	-0,019
-565,831	229,919	0,096	-0,113
-564,817	-175,126	-0,215	0,004
-563,802	67,531	-0,080	-0,059
-562,788	-200,000	0,001	-0,058
-561,773	132,931	-0,033	0,031
-560,758	496,558	0,048	-0,081
-559,744	-107,912	-0,101	0,016
-558,729	230,501	0,084	0,100
-557,715	800,000	-0,052	-0,104
-556,700	114,967	0,114	-0,100
-555,685	-110,582	-0,135	0,020
-554,671	-25,610	-0,082	-0,035
-553,656	800,000	0,026	-0,064
-552,642	-29,920	0,087	0,036
-551,627	257,625	0,030	-0,038
-550,612	97,581	0,098	-0,081
-549,598	800,000	0,010	0,024
-548,583	232,646	-0,092	-0,109
-547,569	-200,000	0,015	0,100
-546,554	69,938	-0,040	-0,030
-545,539	-5,029	-0,089	-0,044
-544,525	522,336	0,062	0,106
-543,510	481,144	-0,037	0,061
-542,496	-200,000	-0,028	-0,150
-541,481	-200,000	0,019	0,087
-540,466	-200,000	-0,005	-0,083
-539,452	-200,000	-0,035	0,146
-538,437	33,005	-0,137	0,086
-537,423	73,088	0,040	0,030
-536,408	-187,357	0,078	-0,001
-535,393	397,760	-0,037	0,057
-534,379	800,000	0,032	-0,065
-533,364	-128,074	0,042	-0,004
-532,350	-21,025	-0,030	0,013
-531,335	800,000	0,025	0,067
-530,321	67,833	0,099	0,073
-529,306	561,551	0,030	0,052
-528,291	-103,099	-0,138	-0,023
-527,277	-44,377	-0,100	-0,036
-526,262	-200,000	-0,010	0,072
-525,248	2,166	0,108	-0,056
-524,233	-143,449	0,059	0,004
-523,218	133,874	0,117	0,109
-522,204	800,000	-0,078	0,171
-521,189	-18,114	-0,063	-0,028
-520,175	-10,183	-0,050	-0,024
-519,160	20,338	0,089	0,052
-518,145	69,882	-0,038	-0,028
-517,131	182,941	0,024	0,026
-516,116	126,625	0,061	0,056
-515,102	-200,000	0,003	-0,111
-514,087	-200,000	0,020	0,090
-513,072	-56,647	0,104	0,033
-512,058	64,088	-0,086	-0,063
-511,043	175,249	0,023	0,024
-510,029	-200,000	0,020	0,183
-509,014	-200,000	0,108	0,000
-507,999	104,359	0,064	0,055
-506,985	-110,020	-0,075	-0,011
-505,970	-200,000	0,020	-0,110
-504,956	-104,831	-0,062	0,010
-503,941	107,535	0,038	0,033
-502,926	800,000	0,059	0,134
-501,912	-49,593	0,090	0,031
-500,897	-62,593	0,091	0,027
-499,883	622,076	-0,045	0,081
-498,868	800,000	0,022	0,056
-497,853	41,653	-0,068	-0,045
-496,839	-200,000	0,026	-0,100
-495,824	800,000	-0,026	0,071
-494,810	225,969	-0,031	-0,036
-493,795	547,490	-0,057	-0,100
-492,781	317,082	0,068	-0,093
-491,766	541,599	-0,085	-0,147
-490,751	199,110	-0,005	-0,005
-489,737	-200,000	-0,003	0,076
-488,722	-125,157	0,080	0,009
-487,708	174,906	-0,067	0,070
-486,693	-200,000	0,031	0,102
-485,678	48,376	-0,163	0,110
-484,664	-90,303	-0,042	-0,009
-483,649	-142,764	-0,081	0,006
-482,635	-200,000	-0,023	0,102
-481,620	800,000	0,048	-0,100
-480,605	800,000	-0,023	-0,064
-479,591	-158,073	0,132	-0,005
-478,576	-200,000	-0,010	0,042
-477,562	-61,148	-0,038	-0,011
-476,547	130,492	0,028	-0,026
-475,532	-200,000	-0,017	0,130
-474,518	126,457	-0,040	0,036
-473,503	-22,228	-0,057	-0,025
-472,489	800,000	0,084	0,188
-471,474	51,946	-0,112	-0,077
-470,459	800,000	-0,027	-0,063
-469,445	-172,224	-0,096	0,002
-468,430	185,495	0,061	0,065
-467,416	43,807	-0,051	0,033
-466,401	234,482	0,077	-0,091
-465,386	800,000	-0,027	0,071
-464,372	-81,782	-0,133	0,031
-463,357	-15,425	-0,067	-0,031
-462,343	-200,000	-0,007	-0,108
-461,328	800,000	0,011	0,033
-460,313	800,000	0,077	-0,200
-459,299	-200,000	-0,008	-0,080
-458,284	623,253	0,073	0,132
-457,270	335,309	-0,042	0,058
-456,255	800,000	0,018	-0,055
-455,241	800,000	-0,035	-0,088
-454,226	-22,340	-0,040	0,017
-453,211	233,980	0,051	0,061
-452,197	-69,250	0,118	-0,032
-451,182	455,797	0,076	-0,121
-450,168	60,611	-0,070	0,050
-449,153	-200,000	-0,002	0,033
-448,138	-86,286	-0,158	-0,035
-447,124	-195,052	0,139	-0,001
-446,109	-200,000	0,029	-0,105
-445,095	436,457	-0,064	0,100
-444,080	-8,099	0,112	0,054
-443,065	-157,705	0,039	0,002
-442,051	759,008	-0,007	-0,015
-441,036	-130,675	-0,175	0,017
-440,022	-110,914	0,076	0,011
-439,007	55,169	0,100	-0,069
-437,992	-200,000	0,023	0,091
-436,978	665,256	0,043	0,081
-435,963	-177,044	0,095	-0,002
-434,949	220,278	0,081	-0,093
-433,934	-10,518	0,137	-0,065
-432,919	-200,000	-0,036	-0,158
-431,905	578,527	-0,032	0,057
-430,890	800,000	0,017	-0,042
-429,876	236,176	0,130	0,155
-428,861	-51,390	0,026	-0,009
-427,846	636,208	0,030	-0,056
-426,832	800,000	0,021	0,052
-425,817	143,624	0,076	0,073
-424,803	-200,000	0,004	-0,064
-423,788	-9,357	-0,106	-0,051
-422,773	258,052	-0,091	0,113
-421,759	800,000	0,056	0,146
-420,744	-200,000	0,050	0,000
-419,730	-200,000	0,014	0,103
-418,715	-65,906	-0,104	-0,030
-417,701	-20,657	-0,072	-0,032
-416,686	361,265	0,045	0,065
-415,671	308,601	-0,102	0,138
-414,657	384,952	0,057	-0,084
-413,642	-200,000	0,016	-0,056
-412,628	263,563	-0,049	-0,062
-411,613	639,142	-0,015	-0,028
-410,598	55,630	-0,155	0,108
-409,584	-104,178	0,096	-0,016
-408,569	95,325	0,074	-0,061
-407,555	57,965	-0,111	0,078
-406,540	38,758	-0,033	0,021
-405,525	-200,000	0,012	-0,047
-404,511	-200,000	-0,001	0,012
-403,496	46,818	-0,034	-0,023
-402,482	-200,000	-0,000	0,136
-401,467	212,351	0,077	0,087
-400,452	-200,000	-0,012	0,056
-399,438	443,864	-0,030	0,048
-398,423	306,518	0,071	-0,095
-397,409	518,095	-0,025	-0,043
-396,394	184,618	0,059	-0,063
-395,379	-183,425	-0,040	0,000
-394,365	-171,235	0,054	-0,001
-393,350	-133,019	0,122	-0,011
-392,336	-200,000	0,023	0,212
-391,321	-200,000	-0,009	0,044
-390,306	-200,000	0,027	0,128
-389,292	61,182	0,025	-0,018
-388,277	-186,647	-0,097	-0,001
-387,263	625,302	0,022	-0,040
-386,248	22,863	-0,011	-0,007
-385,233	-200,000	0,031	0,105
-384,219	262,949	0,084	-0,105
-383,204	240,813	-0,075	-0,090
-382,190	-200,000	-0,021	-0,146
-381,175	-40,944	0,032	0,012
-380,160	-200,000	-0,002	0,033
-379,146	-200,000	-0,046	0,197
-378,131	293,014	-0,106	0,139
-377,117	800,000	-0,034	-0,091
-376,102	154,452	-0,109	-0,107
-375,088	-151,674	-0,082	-0,004
-374,073	-200,000	-0,012	-0,074
-373,058	-61,433	0,129	0,039
-372,044	800,000	0,043	0,118
-371,029	234,878	-0,021	0,025
-370,015	-150,483	-0,076	0,004
-369,000	450,181	-0,098	-0,155
-367,985	243,108	-0,047	-0,057
-366,971	-77,308	0,101	-0,025
-365,956	1,436	0,102	0,053
-364,942	196,960	0,103	0,112
-363,927	-100,180	-0,114	0,020
-362,912	-152,744	-0,104	-0,005
-361,898	101,075	-0,029	0,024
-360,883	10,473	-0,076	-0,041
-359,869	534,485	0,085	-0,145
-358,854	-200,000	-0,002	-0,041
-357,839	-60,208	0,078	-0,024
-356,825	164,921	-0,046	0,047
-355,810	36,641	0,023	0,015
-354,796	-200,000	-0,048	-0,187
-353,781	-200,000	-0,002	-0,092
-352,766	-97,117	-0,028	0,005
-351,752	-200,000	-0,019	-0,109
-350,737	31,868	-0,005	0,003
-349,723	-64,025	0,042	0,012
-348,708	-200,000	-0,002	0,090
-347,693	-136,594	-0,126	0,010
-346,679	-103,570	-0,040	-0,007
-345,664	-200,000	0,004	0,027
-344,650	573,823	-0,032	0,056
-343,635	-200,000	0,007	0,037
-342,620	295,767	0,063	0,083
-341,606	-1,098	0,135	0,068
-340,591	386,432	-0,040	-0,060
-339,577	-200,000	-0,005	-0,101
-338,562	93,968	-0,062	-0,051
-337,548	-200,000	-0,034	0,112
-336,533	-200,000	-0,004	0,040
-335,518	-63,967	0,036	0,010
-334,504	64,440	0,095	0,069
-333,489	-190,879	0,027	-0,000
-332,475	-200,000	-0,019	-0,066
-331,460	-200,000	-0,032	-0,109
-330,445	17,421	-0,044	-0,025
-329,431	532,068	-0,067	0,114
-328,416	86,609	0,132	-0,104
-327,402	-98,220	0,021	0,004
-326,387	274,453	-0,042	0,054
-325,372	-58,853	-0,156	-0,048
-324,358	203,762	-0,131	-0,146
-323,343	800,000	0,029	-0,058
-322,329	108,488	-0,099	0,085
-321,314	-200,000	-0,009	-0,076
-320,299	22,807	-0,070	-0,041
-319,285	794,101	-0,020	0,041
-318,270	15,144	-0,120	-0,067
-317,256	800,000	0,030	0,068
-316,241	-51,464	-0,075	0,025
-315,226	-154,384	0,009	0,000
-314,212	-169,266	-0,069	0,002
-313,197	309,758	0,082	0,110
-312,183	-200,000	-0,015	-0,079
-311,168	800,000	-0,011	-0,028
-310,153	-137,897	0,143	0,011
-309,139	-90,429	-0,081	-0,017
-308,124	309,973	-0,014	0,019
-307,110	-75,410	0,073	0,018
-306,095	107,365	0,071	0,061
-305,080	-200,000	-0,009	0,079
-304,066	136,880	0,121	-0,113
-303,051	-182,382	-0,082	-0,001
-302,037	120,441	-0,016	0,014
-301,022	-2,466	-0,024	0,012
-300,008	-200,000	-0,004	0,045
-298,993	-67,983	-0,055	-0,015
-297,978	58,591	0,008	0,006
-296,964	-28,484	-0,004	0,002
-295,949	-200,000	-0,000	0,088
-294,935	441,429	-0,032	-0,051
-293,920	-200,000	0,021	0,096
-292,905	309,075	0,047	-0,063
-291,891	212,247	0,128	0,145
-290,876	165,176	0,041	0,041
-289,862	271,492	0,024	-0,030
-288,847	-200,000	-0,010	0,036
-287,832	-35,782	-0,091	0,035
-286,818	461,589	0,073	-0,117
-285,803	426,078	-0,037	-0,057
-284,789	-0,949	0,018	0,009
-283,774	800,000	-0,026	0,068
-282,759	208,761	0,106	-0,119
-281,745	344,376	-0,054	-0,076
-280,730	215,781	0,078	-0,088
-279,716	-200,000	-0,001	0,084
-278,701	-200,000	-0,012	0,120
-277,686	-20,591	0,074	-0,032
-276,672	8,266	-0,072	0,039
-275,657	-41,374	-0,092	-0,034
-274,643	-200,000	-0,011	-0,181
-273,628	-1,396	0,029	0,014
-272,613	-200,000	-0,005	0,030
-271,599	492,823	-0,008	0,013
-270,584	280,581	0,097	0,125
-269,570	-200,000	0,001	-0,193
-268,555	149,393	0,128	-0,124
-267,540	495,988	-0,057	-0,094
-266,526	-152,346	-0,055	-0,003
-265,511	-200,000	-0,002	-0,043
-264,497	-85,737	-0,089	0,020
-263,482	-200,000	0,037	0,218
-262,467	-140,252	0,073	0,005
-261,453	539,118	0,048	0,083
-260,438	-200,000	-0,007	0,074
-259,424	-200,000	0,029	-0,141
-258,409	-200,000	-0,006	-0,047
-257,395	-64,865	-0,093	0,027
-256,380	-105,835	-0,094	-0,015
-255,365	5,089	0,132	0,069
-254,351	264,619	-0,088	-0,110
-253,336	800,000	0,018	0,037
-252,322	287,827	0,042	-0,054
-251,307	2,882	0,046	0,024
-250,292	168,306	-0,122	0,125
-249,278	156,146	0,125	-0,123
-248,263	3,043	0,106	0,055
-247,249	-99,882	0,022	0,004
-246,234	-156,742	-0,053	0,002
-245,219	-200,000	-0,018	-0,108
-244,205	348,208	-0,035	-0,049
-243,190	86,318	-0,024	-0,019
-242,176	172,515	0,013	0,013
-241,161	103,503	-0,034	0,029
-240,146	61,897	0,065	0,046
-239,132	-23,211	0,042	0,018
-238,117	330,751	0,020	-0,028
-237,103	42,173	0,070	-0,045
-236,088	-200,000	0,004	-0,106
-235,073	-200,000	-0,008	-0,112
-234,059	-20,293	0,114	0,050
-233,044	126,606	0,028	0,025
-232,030	-24,652	0,028	0,012
-231,015	-200,000	0,000	0,048
-230,000	-148,218	0,101	0,006
-228,986	118,918	-0,055	-0,049
-227,971	35,027	-0,069	0,043
-226,957	24,165	-0,066	0,039
-225,942	-200,000	-0,004	0,109
-224,927	247,486	0,063	-0,076
-223,913	-149,568	0,117	0,006
-222,898	477,321	-0,034	-0,055
-221,884	-200,000	0,005	0,132
-220,869	-200,000	0,007	-0,104
-219,855	-200,000	-0,001	-0,006
-218,840	3,291	-0,077	0,040
-217,825	306,462	-0,040	0,054
-216,811	37,422	-0,016	-0,010
-215,796	262,675	-0,086	-0,106
-214,782	183,835	0,050	-0,052
-213,767	-58,090	0,048	0,015
-212,752	800,000	-0,036	0,076
-211,738	-64,270	-0,074	-0,021
-210,723	317,970	0,037	-0,050
-209,709	133,377	0,026	-0,024
-208,694	238,844	0,047	-0,056
-207,679	-200,000	0,023	-0,151
-206,665	18,257	0,075	0,043
-205,650	-200,000	0,024	-0,082
-204,636	-33,110	0,028	-0,011
-203,621	-200,000	0,000	-0,090
-202,606	361,400	-0,072	0,103
-201,592	43,911	-0,048	0,031
-200,577	-22,117	-0,134	0,058
-199,563	56,292	0,078	-0,054
-198,548	-200,000	-0,007	0,089
-197,533	-200,000	0,019	0,076
-196,519	452,530	0,046	0,073
-195,504	3,206	0,028	-0,015
-194,490	81,383	-0,077	0,059
-193,475	-23,339	-0,042	0,018
-192,460	39,619	-0,040	-0,026
-191,446	-111,570	0,078	0,011
-190,431	-200,000	-0,012	0,128
-189,417	44,371	0,103	0,068
-188,402	154,740	-0,153	0,150
-187,387	-200,000	-0,018	-0,098
-186,373	21,128	0,087	-0,050
-185,358	-52,978	-0,063	0,021
-184,344	456,102	-0,060	-0,095
-183,329	-200,000	-0,017	-0,064
-182,315	241,390	-0,051	-0,061
-181,300	-200,000	0,022	0,139
-180,285	-49,620	-0,027	0,009
-179,271	800,000	-0,027	-0,057
-178,256	160,238	-0,118	0,117
-177,242	-71,426	0,065	-0,017
-176,227	-49,925	-0,036	-0,012
-175,212	800,000	-0,020	-0,047
-174,198	-200,000	-0,035	-0,182
-173,183	-26,978	0,066	-0,027
-172,169	501,712	0,042	-0,069
-171,154	-176,285	-0,114	0,002
-170,139	-200,000	0,006	-0,054
-169,125	204,004	-0,068	0,075
-168,110	306,177	0,114	0,152
-167,096	18,748	-0,098	-0,056
-166,081	800,000	-0,005	-0,010
-165,066	-200,000	0,005	-0,034
-164,052	155,893	0,018	-0,017
-163,037	148,372	-0,040	0,039
-162,023	645,324	-0,046	-0,084
-161,008	518,835	0,025	-0,041
-159,993	-136,537	0,067	-0,005
-158,979	-200,000	-0,011	0,043
-157,964	67,207	0,177	-0,128
-156,950	26,826	-0,026	-0,015
-155,935	-11,060	-0,062	0,029
-154,920	186,305	0,043	-0,046
-153,906	-200,000	-0,015	0,209
-152,891	-93,140	-0,045	0,009
-151,877	62,771	0,096	-0,068
-150,862	-83,621	-0,013	0,003
-149,847	800,000	-0,014	0,035
-148,833	-30,683	0,082	-0,033
-147,818	800,000	0,032	0,078
-146,804	164,088	-0,051	-0,051
-145,789	363,970	-0,026	0,037
-144,775	113,064	-0,105	-0,091
-143,760	-123,143	0,075	-0,008
-142,745	16,995	-0,053	0,030
-141,731	-200,000	0,004	0,137
-140,716	-23,285	-0,099	0,042
-139,702	-200,000	0,026	0,108
-138,687	-200,000	-0,025	0,106
-137,672	-115,560	0,129	-0,017
-136,658	-200,000	0,010	0,053
-135,643	-200,000	-0,005	0,039
-134,629	-200,000	0,001	0,008
-133,614	108,721	0,085	0,073
-132,599	733,353	0,005	0,010
-131,585	800,000	0,028	-0,056
-130,570	-200,000	-0,030	-0,160
-129,556	388,539	-0,084	-0,123
-128,541	800,000	0,028	-0,086
-127,526	277,204	-0,070	0,089
-126,512	800,000	0,055	0,134
-125,497	-14,515	-0,116	0,053
-124,483	-200,000	0,019	0,072
-123,468	288,708	-0,089	-0,115
-122,453	399,133	0,035	0,052
-121,439	-186,027	-0,090	-0,001
-120,424	-67,496	0,037	-0,010
-119,410	800,000	0,040	0,096
-118,395	482,473	-0,032	0,052
-117,380	800,000	-0,079	0,202
-116,366	-200,000	-0,003	0,105
-115,351	-200,000	-0,010	-0,132
-114,337	-115,275	-0,078	-0,010
-113,322	-62,178	-0,037	-0,011
-112,307	-166,285	-0,026	0,001
-111,293	800,000	0,015	-0,043
-110,278	-200,000	0,016	0,095
-109,264	216,190	0,021	0,023
-108,249	-172,948	-0,106	0,002
-107,234	130,689	-0,153	-0,139
-106,220	800,000	-0,047	-0,104
-105,205	-200,000	-0,018	-0,057
-104,191	156,187	0,044	-0,043
-103,176	-27,840	-0,018	-0,007
-102,162	337,128	0,027	0,037
-101,147	199,374	-0,073	-0,079
-100,132	-200,000	-0,031	0,119
-99,118	-80,755	-0,028	0,007
-98,103	-30,664	-0,010	0,004
-97,089	-200,000	0,008	0,049
-96,074	-200,000	-0,003	0,049
-95,059	-117,274	0,035	-0,004
-94,045	-133,070	-0,067	-0,006
-93,030	32,361	0,042	0,026
-92,016	666,864	-0,038	-0,070
-91,001	-200,000	-0,014	-0,122
-89,986	-81,790	0,148	0,034
-88,972	-200,000	0,008	0,086
-87,957	-200,000	-0,015	0,049
-86,943	800,000	-0,042	-0,087
-85,928	-200,000	-0,004	0,142
-84,913	800,000	0,048	-0,115
-83,899	-37,283	0,062	0,024
-82,884	-149,243	-0,084	-0,005
-81,870	315,229	0,071	-0,095
-80,855	516,949	-0,052	0,087
-79,840	-38,430	0,023	-0,009
-78,826	-200,000	0,006	-0,064
-77,811	419,459	-0,035	-0,054
-76,797	-149,734	0,029	0,002
-75,782	20,105	-0,077	-0,044
-74,767	39,170	0,005	-0,003
-73,753	162,513	0,133	0,133
-72,738	414,307	-0,045	0,068
-71,724	-200,000	-0,001	-0,069
-70,709	19,094	-0,100	-0,057
-69,694	800,000	-0,019	-0,057
-68,680	392,056	-0,059	0,088
-67,665	800,000	0,023	0,070
-66,651	800,000	-0,044	-0,105
-65,636	-2,733	0,053	0,026
-64,622	-129,679	-0,043	-0,004
-63,607	12,912	-0,119	-0,065
-62,592	36,719	0,036	0,023
-61,578	-200,000	-0,009	0,098
-60,563	-200,000	0,003	-0,011
-59,549	-169,980	-0,153	0,004
-58,534	-80,193	-1,402	-0,330
-57,519	461,204	-1,479	-2,346
-56,505	-200,000	-0,446	-4,328
-55,490	58,914	0,968	0,674
-54,476	800,000	4,903	11,373
-53,461	-200,000	17,652	275,671
-52,446	800,000	718,270	2202,547
-51,432	555,905	1632,651	2799,190
-50,417	81,173	1656,834	1267,767
-49,403	24,042	1531,266	893,658
-48,388	18,007	1454,602	819,839
-47,373	18,355	1443,994	815,493
-46,359	18,055	1434,595	808,726
-45,344	16,400	1429,929	798,202
-44,330	16,282	1428,068	796,572
-43,315	16,254	1426,376	795,464
-42,300	16,324	1424,535	794,737
-41,286	16,365	1423,583	794,367
-40,271	16,304	1422,320	793,342
-39,257	16,272	1420,913	792,378
-38,242	16,363	1419,580	792,031
-37,227	16,326	1418,487	791,215
-36,213	16,321	1417,076	790,372
-35,198	16,332	1415,994	789,792
-34,184	16,340	1414,941	789,211
-33,169	16,282	1413,694	788,210
-32,154	16,291	1412,865	787,759
-31,140	16,332	1411,374	787,090
-30,125	16,376	1410,001	786,500
-29,111	16,359	1409,019	785,838
-28,096	16,317	1408,022	785,054
-27,082	16,272	1406,999	784,246
-26,067	16,254	1405,625	783,361
-25,052	16,274	1404,663	782,888
-24,038	16,266	1403,645	782,256
-23,023	16,242	1402,783	781,632
-22,009	16,175	1401,867	780,776
-20,994	16,175	1400,917	780,215
-19,979	16,165	1399,852	779,544
-18,965	16,154	1399,111	779,051
-17,950	16,199	1397,869	778,539
-16,936	16,178	1396,879	777,857
-15,921	16,186	1395,548	777,123
-14,906	16,150	1394,756	776,485
-13,892	16,164	1393,869	776,027
-12,877	16,161	1392,979	775,484
-11,863	16,132	1392,219	774,896
-10,848	16,168	1391,106	774,411
-9,833	16,187	1390,183	773,955
-8,819	16,094	1389,274	772,991
-7,804	16,077	1388,384	772,388
-6,790	16,051	1387,346	771,656
-5,775	16,055	1386,378	771,105
-4,760	16,064	1385,432	770,592
-3,746	16,005	1384,772	769,923
-2,731	16,056	1383,865	769,621
-1,717	16,011	1382,905	768,850
-0,702	16,039	1381,060	767,925
0,313	19,900	1302,591	742,071
1,327	36,466	707,716	441,613
2,342	55,860	125,739	86,275
3,356	3,827	16,586	8,557
4,371	8,765	3,120	1,661
5,386	-38,917	0,548	0,203
6,400	-200,000	0,002	0,119
7,415	121,935	-0,238	-0,210
8,429	-20,359	-0,315	-0,137
9,444	-64,012	-0,321	-0,092
10,459	15,003	-0,318	-0,176
11,473	-125,583	-0,206	-0,022
12,488	-48,355	-0,278	-0,094
13,502	-33,947	-0,273	-0,106
14,517	28,082	-0,339	-0,202
15,531	9,349	-0,375	-0,200
16,546	156,798	-0,372	-0,364
17,561	203,781	-0,276	-0,302
18,575	-76,954	-0,280	-0,069
19,590	691,314	-0,118	-0,220
20,604	-33,916	-0,357	-0,138
21,619	125,274	-0,430	-0,384
22,634	203,088	-0,399	-0,437
23,648	229,282	-0,429	-0,496
24,663	58,292	-0,479	-0,332
25,677	363,986	-0,242	-0,346
26,692	121,451	-0,451	-0,397
27,707	113,450	-0,379	-0,325
28,721	161,394	-0,406	-0,401
29,736	123,797	-0,388	-0,344
30,750	195,686	-0,341	-0,366
31,765	-9,258	-0,472	-0,222
32,780	140,887	-0,324	-0,303
33,794	108,397	-0,296	-0,250
34,809	45,559	-0,295	-0,192
35,823	133,259	-0,298	-0,272
36,838	-63,383	-0,488	-0,141
37,853	512,210	-0,180	-0,297
38,867	74,704	-0,406	-0,302
39,882	97,106	-0,313	-0,254
40,896	71,905	-0,347	-0,255
41,911	-42,017	-0,173	0,062
42,926	64,369	-0,472	-0,335
43,940	60,600	-0,331	-0,231
44,955	69,421	-0,399	-0,290
45,969	170,172	-0,284	-0,288
46,984	56,794	-0,419	-0,287
47,999	217,076	-0,246	-0,276
49,013	79,791	-0,390	-0,296
50,028	41,866	-0,264	-0,169
51,042	88,525	-0,239	-0,188
52,057	74,299	-0,352	-0,261
53,071	94,401	-0,411	-0,329
54,086	25,536	-0,312	-0,183
55,101	-55,039	-0,232	-0,073
56,115	82,897	-0,213	-0,163
57,130	-13,099	-0,443	-0,202
58,144	-30,702	-0,353	-0,140
59,159	31,069	-0,471	-0,284
60,174	139,679	-0,308	-0,286
61,188	20,391	-0,367	-0,209
62,203	92,102	-0,300	-0,238
63,217	66,355	-0,298	-0,213
64,232	54,212	-0,250	-0,169
65,247	347,406	-0,290	-0,404
66,261	96,651	-0,236	-0,191
67,276	37,363	-0,314	-0,196
68,290	-41,692	-0,369	-0,133
69,305	31,434	-0,238	-0,144
70,320	149,287	-0,227	-0,217
71,334	110,641	-0,370	-0,313
72,349	82,248	-0,324	-0,247
73,363	45,328	-0,338	-0,219
74,378	338,863	-0,229	-0,316
75,393	68,002	-0,370	-0,266
76,407	-53,653	-0,146	-0,047
77,422	161,590	-0,380	-0,374
78,436	-1,724	-0,295	-0,146
79,451	114,227	-0,338	-0,290
80,466	241,929	-0,261	-0,308
81,480	22,692	-0,322	-0,185
82,495	4,631	-0,309	-0,159
83,509	-62,679	-0,216	-0,063
84,524	-32,653	-0,285	-0,111
85,539	166,475	-0,227	-0,227
86,553	-58,087	-0,313	-0,096
87,568	-53,139	-0,292	-0,094
88,582	76,295	-0,407	-0,303
89,597	166,584	-0,358	-0,357
90,611	275,161	-0,236	-0,295
91,626	192,717	-0,290	-0,309
92,641	43,055	-0,378	-0,242
93,655	28,021	-0,211	-0,125
94,670	196,125	-0,294	-0,315
95,684	74,001	-0,297	-0,219
96,699	388,652	-0,178	-0,260
97,714	162,927	-0,305	-0,301
98,728	72,255	-0,265	-0,194
99,743	-26,249	-0,282	-0,116
100,757	5,536	-0,346	-0,179
101,772	116,930	-0,264	-0,227
102,787	139,466	-0,252	-0,233
103,801	800,000	-0,125	-0,273
104,816	-101,105	-0,297	-0,051
105,830	54,052	-0,249	-0,168
106,845	114,107	-0,234	-0,200
107,860	58,384	-0,287	-0,197
108,874	43,774	-0,323	-0,207
109,889	198,719	-0,329	-0,354
110,903	140,068	-0,288	-0,267
111,918	156,603	-0,360	-0,350
112,933	234,139	-0,217	-0,251
113,947	63,619	-0,231	-0,163
114,962	229,829	-0,158	-0,181
115,976	83,511	-0,262	-0,200
116,991	95,615	-0,340	-0,272
118,006	39,697	-0,270	-0,170
119,020	152,836	-0,200	-0,192
120,035	139,017	-0,165	-0,152
121,049	292,239	-0,119	-0,153
122,064	70,756	-0,211	-0,153
123,079	48,355	-0,342	-0,224
124,093	25,676	-0,272	-0,159
125,108	376,923	-0,103	-0,147
126,122	-36,438	-0,215	-0,081
127,137	190,784	-0,237	-0,250
128,151	-0,749	-0,249	-0,123
129,166	-35,637	-0,157	-0,059
130,181	-70,979	-0,234	-0,061
131,195	146,692	-0,284	-0,268
132,210	163,225	-0,230	-0,227
133,224	38,033	-0,349	-0,217
134,239	720,848	-0,129	-0,241
135,254	36,601	-0,216	-0,133
136,268	60,992	-0,169	-0,117
137,283	81,282	-0,275	-0,208
138,297	48,344	-0,334	-0,219
139,312	-19,504	-0,291	-0,126
140,327	34,886	-0,287	-0,175
141,341	-8,638	-0,328	-0,153
142,356	10,570	-0,247	-0,131
143,370	52,853	-0,268	-0,179
144,385	14,140	-0,329	-0,179
145,400	67,213	-0,221	-0,157
146,414	162,790	-0,205	-0,201
147,429	-200,000	-0,023	-0,223
148,443	93,111	-0,242	-0,191
149,458	38,312	-0,231	-0,144
150,473	-57,434	-0,243	-0,074
151,487	-175,347	-0,276	-0,005
152,502	28,354	-0,157	-0,093
153,516	-157,627	-0,316	-0,013
154,531	-123,092	-0,308	-0,034
155,546	-51,673	-0,346	-0,112
156,560	-18,769	-0,192	-0,083
157,575	342,477	-0,122	-0,167
158,589	137,905	-0,246	-0,225
159,604	-152,284	-0,235	-0,012
160,619	54,278	-0,379	-0,254
161,633	72,218	-0,251	-0,183
162,648	268,459	-0,218	-0,268
163,662	100,919	-0,249	-0,202
164,677	60,019	-0,258	-0,178
165,692	19,343	-0,123	-0,069
166,706	545,096	-0,136	-0,227
167,721	326,097	-0,112	-0,150
168,735	674,227	-0,098	-0,179
169,750	315,305	-0,174	-0,229
170,764	-200,000	-0,082	-0,288
171,779	-5,203	-0,137	-0,065
172,794	28,172	-0,245	-0,144
173,808	212,754	-0,152	-0,168
174,823	87,962	-0,300	-0,232
175,837	29,017	-0,289	-0,171
176,852	131,767	-0,203	-0,182
177,867	-54,100	-0,227	-0,072
178,881	-184,247	-0,245	-0,003
179,896	550,713	-0,069	-0,115
180,910	-168,935	-0,293	-0,008
181,925	36,936	-0,312	-0,192
182,940	66,411	-0,320	-0,227
183,954	38,666	-0,303	-0,188
184,969	350,418	-0,138	-0,191
185,983	337,817	-0,134	-0,183
186,998	87,874	-0,196	-0,151
188,013	421,491	-0,117	-0,176
189,027	73,475	-0,164	-0,119
190,042	139,972	-0,034	-0,031
191,056	595,890	-0,132	-0,228
192,071	99,077	-0,239	-0,192
193,086	33,978	-0,164	-0,099
194,100	-55,582	-0,180	0,056
195,115	255,934	-0,178	-0,214
196,129	-51,876	-0,162	-0,052
197,144	-46,596	-0,250	-0,085
198,159	451,077	-0,162	-0,249
199,173	13,853	-0,201	-0,108
200,188	-89,376	-0,270	-0,055
201,202	-107,226	-0,207	-0,031
202,217	25,972	-0,222	0,129
203,232	190,795	-0,217	-0,227
204,246	-106,247	-0,180	-0,028
205,261	800,000	-0,111	-0,243
206,275	-98,512	-0,253	-0,045
207,290	25,555	-0,364	-0,211
208,304	74,593	-0,196	-0,143
209,319	268,395	-0,171	-0,209
210,334	800,000	-0,110	-0,238
211,348	795,461	-0,168	-0,323
212,363	-49,761	-0,280	-0,092
213,377	171,197	-0,201	-0,201
214,392	-119,789	-0,165	-0,020
215,407	39,779	-0,186	-0,116
216,421	30,294	-0,189	-0,112
217,436	84,922	-0,169	-0,129
218,450	282,051	-0,120	-0,150
219,465	23,523	-0,266	-0,152
220,480	169,313	-0,198	-0,197
221,494	800,000	-0,157	-0,326
222,509	92,106	-0,167	-0,131
223,523	-20,999	-0,267	-0,113
224,538	-49,181	-0,288	-0,095
225,553	206,067	-0,201	-0,218
226,567	-200,000	-0,085	-0,294
227,582	402,160	-0,131	-0,192
228,596	108,778	-0,199	-0,165
229,611	-54,644	-0,154	-0,048
230,626	5,379	-0,169	-0,086
231,640	-43,537	-0,169	-0,059
232,655	297,194	-0,200	-0,256
233,669	-200,000	0,036	-0,135
234,684	-154,242	-0,169	0,008
235,699	114,384	-0,162	-0,137
236,713	81,365	-0,176	-0,132
237,728	1,761	-0,198	-0,099
238,742	-87,630	-0,147	-0,031
239,757	351,627	-0,159	-0,219
240,772	371,753	-0,174	-0,246
241,786	154,451	-0,242	-0,230
242,801	46,497	-0,152	-0,097
243,815	20,551	-0,088	0,049
244,830	303,953	-0,130	-0,167
245,844	186,966	-0,076	-0,079
246,859	36,107	-0,255	-0,155
247,874	98,915	-0,265	-0,212
248,888	379,504	-0,164	-0,234
249,903	-83,609	-0,253	0,056
250,917	-161,118	-0,155	0,006
251,932	-7,890	-0,252	-0,117
252,947	159,950	-0,176	-0,170
253,961	-42,450	-0,204	-0,072
254,976	73,770	-0,267	-0,194
255,990	-66,835	-0,182	-0,050
257,005	-35,239	-0,055	0,021
258,020	72,689	-0,062	-0,045
259,034	288,162	0,068	-0,085
260,049	637,473	-0,058	-0,103
261,063	-18,266	-0,132	-0,057
262,078	93,291	-0,223	-0,174
263,093	387,490	-0,132	-0,189
264,107	226,142	-0,126	-0,141
265,122	-200,000	-0,066	-0,376
266,136	-34,459	-0,163	-0,061
267,151	310,681	-0,133	-0,172
268,166	453,018	-0,082	-0,127
269,180	129,326	-0,045	-0,040
270,195	800,000	-0,078	-0,191
271,209	152,388	-0,156	-0,148
272,224	-62,699	-0,272	-0,077
273,239	244,699	-0,059	-0,068
274,253	328,413	-0,104	-0,138
275,268	-100,855	-0,055	0,009
276,282	89,499	-0,212	-0,164
277,297	0,271	-0,254	-0,125
278,312	-18,253	-0,187	-0,081
279,326	528,558	-0,087	-0,142
280,341	121,190	-0,050	-0,043
281,355	800,000	-0,019	-0,051
282,370	-120,850	-0,064	-0,007
283,384	-4,232	-0,169	-0,081
284,399	800,000	-0,102	-0,198
285,414	607,623	-0,109	-0,188
286,428	-70,819	-0,200	-0,052
287,443	79,288	-0,139	-0,103
288,457	21,797	-0,155	-0,087
289,472	9,834	-0,245	-0,128
290,487	189,038	-0,173	-0,179
291,501	800,000	-0,122	-0,245
292,516	46,086	-0,224	-0,143
293,530	313,061	-0,077	-0,100
294,545	-200,000	-0,030	-0,125
295,560	-58,439	-0,147	0,044
296,574	-56,001	-0,212	-0,065
297,589	-4,999	-0,249	-0,118
298,603	-82,812	-0,239	-0,053
299,618	735,151	-0,090	-0,167
300,633	118,338	-0,089	-0,075
301,647	800,000	-0,035	-0,088
302,662	24,339	-0,117	-0,067
303,676	-35,663	-0,268	0,100
304,691	321,121	-0,111	-0,146
305,706	-200,000	-0,044	-0,216
306,720	-87,817	-0,103	-0,021
307,735	-142,158	-0,247	-0,017
308,749	-128,411	-0,151	0,015
309,764	-17,505	-0,143	-0,062
310,779	763,415	-0,022	-0,041
311,793	469,408	-0,041	-0,064
312,808	234,926	-0,098	0,112
313,822	331,725	-0,159	-0,212
314,837	321,304	-0,029	0,038
315,852	2,487	-0,179	-0,089
316,866	-39,745	-0,142	-0,051
317,881	399,872	-0,059	-0,086
318,895	92,356	-0,146	-0,114
319,910	82,823	-0,240	-0,180
320,925	4,281	-0,113	-0,057
321,939	-106,009	-0,187	-0,029
322,954	111,815	-0,175	-0,145
323,968	-72,627	-0,054	0,014
324,983	19,856	-0,184	-0,102
325,997	800,000	-0,051	-0,129
327,012	240,276	-0,208	-0,239
328,027	-50,247	-0,178	-0,058
329,041	1,003	-0,086	-0,042
330,056	-88,309	-0,215	-0,044
331,070	-200,000	0,008	-0,069
332,085	67,558	-0,160	-0,112
333,100	-36,937	-0,212	-0,078
334,114	-4,568	-0,192	-0,091
335,129	213,602	-0,134	-0,146
336,143	464,727	-0,070	-0,108
337,158	262,087	-0,144	-0,172
338,173	756,721	-0,103	-0,192
339,187	63,605	-0,051	-0,035
340,202	5,110	-0,096	-0,048
341,216	60,719	-0,153	-0,104
342,231	-76,841	-0,127	0,030
343,246	800,000	-0,085	-0,175
344,260	-13,345	-0,085	-0,038
345,275	-85,144	-0,027	0,006
346,289	-115,049	-0,256	-0,033
347,304	436,335	-0,137	-0,206
348,319	206,764	-0,229	-0,246
349,333	472,220	-0,111	-0,173
350,348	39,414	-0,101	-0,062
351,362	63,859	-0,167	-0,115
352,377	-80,514	-0,070	-0,016
353,392	142,793	-0,093	-0,085
354,406	-127,298	-0,205	0,020
355,421	209,662	1312,375	1415,453
356,435	161,371	1472,867	1415,989
