DTS Sentinel unit serial number:	SN410029Multiplexer serial number:	ORYXHardware model number:	OX2-SRSoftware version number:	ORYX F/W v4,00 Oryx Data Collector v3.7.2.0data status	okinstallation	B3 Nyhavnadifferential loss correction	single-endedforward channel	channel 1reverse channel	N/Adate	2023/11/29time	10:27:30forward acquisition time	300,00reverse acquisition time	0,00gamma	499,1914k internal	0,3212k external	0,3212temperature offset calibration	1,0000default loss term (dB/km)	0,3820temperature slope calibration	1,0000multiplexer offset coefficient	1,0000multiplexer slope coefficient	1,0000fibre end	0,00T internal ref (°C)	9,40T ext. ref 1 (°C)	-5,59T ext. ref 2 (°C)	-5,73length (m)	temperature (°C)	Stokes	anti-Stokes-744,400	248,067	-0,085	-0,104
-743,385	538,350	0,194	0,336
-742,371	110,437	-0,262	-0,229
-741,356	800,000	-0,098	0,276
-740,342	79,082	-0,137	-0,106
-739,327	-200,000	-0,048	0,274
-738,312	5,073	-0,350	-0,186
-737,298	-200,000	-0,035	0,270
-736,283	169,744	-0,261	-0,271
-735,269	148,529	-0,094	0,092
-734,254	232,771	-0,190	-0,226
-733,239	-129,934	-0,198	-0,019
-732,225	-200,000	-0,037	-0,213
-731,210	-150,607	0,215	0,012
-730,196	-200,000	0,022	-0,114
-729,181	-104,508	-0,057	0,009
-728,167	-200,000	0,035	-0,180
-727,152	305,185	0,098	-0,133
-726,137	-200,000	0,011	-0,056
-725,123	128,043	-0,034	0,032
-724,108	800,000	-0,034	-0,097
-723,094	323,879	-0,081	-0,112
-722,079	151,127	-0,039	0,038
-721,064	169,668	-0,085	-0,088
-720,050	-200,000	-0,002	-0,057
-719,035	800,000	-0,007	-0,015
-718,021	-200,000	-0,011	-0,234
-717,006	265,755	-0,096	-0,122
-715,991	-200,000	0,004	-0,044
-714,977	27,200	-0,192	0,117
-713,962	139,970	0,134	-0,128
-712,948	800,000	-0,037	-0,084
-711,933	-200,000	0,036	-0,146
-710,918	19,243	-0,091	-0,053
-709,904	158,438	-0,050	-0,050
-708,889	118,130	-0,141	-0,126
-707,875	-200,000	-0,037	-0,154
-706,860	95,510	0,061	0,050
-705,845	-70,640	0,095	0,026
-704,831	-30,674	-0,067	0,027
-703,816	-25,363	0,165	0,070
-702,802	-15,883	-0,082	0,038
-701,787	299,474	-0,074	-0,099
-700,772	-62,787	-0,142	0,042
-699,758	59,220	0,047	-0,034
-698,743	-200,000	-0,001	0,140
-697,729	800,000	-0,041	0,128
-696,714	800,000	-0,038	-0,088
-695,699	117,022	-0,100	-0,089
-694,685	-200,000	0,044	-0,154
-693,670	800,000	-0,055	-0,110
-692,656	-200,000	0,011	0,053
-691,641	-62,307	0,055	0,016
-690,627	800,000	-0,026	0,062
-689,612	455,531	-0,045	-0,073
-688,597	83,760	0,039	-0,031
-687,583	-107,811	-0,043	-0,007
-686,568	362,416	-0,053	-0,077
-685,554	152,696	-0,020	0,019
-684,539	53,868	0,125	-0,087
-683,524	800,000	0,050	0,110
-682,510	-200,000	0,003	-0,068
-681,495	-200,000	0,029	-0,093
-680,481	281,870	-0,088	-0,115
-679,466	-200,000	0,012	-0,122
-678,451	431,346	-0,102	-0,161
-677,437	800,000	0,066	0,193
-676,422	-92,288	-0,103	0,021
-675,408	800,000	-0,066	0,137
-674,393	800,000	-0,030	0,080
-673,378	-200,000	-0,003	0,072
-672,364	34,217	-0,110	-0,069
-671,349	276,250	-0,029	0,037
-670,335	-200,000	-0,019	-0,063
-669,320	274,368	0,087	-0,112
-668,305	120,648	0,041	-0,037
-667,291	-200,000	-0,004	0,022
-666,276	-160,048	0,063	-0,002
-665,262	-200,000	-0,023	-0,192
-664,247	122,730	0,027	-0,024
-663,232	800,000	-0,017	-0,045
-662,218	-52,820	0,116	0,038
-661,203	782,388	-0,043	-0,086
-660,189	-200,000	-0,010	0,035
-659,174	66,675	-0,092	-0,068
-658,159	-43,640	-0,148	-0,054
-657,145	328,681	0,012	0,017
-656,130	711,355	0,048	0,091
-655,116	-150,291	-0,081	0,004
-654,101	-71,801	0,121	-0,032
-653,086	211,129	-0,049	0,055
-652,072	800,000	0,029	-0,082
-651,057	227,272	-0,059	0,069
-650,043	125,908	0,054	-0,050
-649,028	412,062	-0,088	0,136
-648,014	-10,410	0,135	0,065
-646,999	202,942	-0,067	-0,074
-645,984	-92,553	0,054	0,011
-644,970	-200,000	0,001	-0,055
-643,955	-49,443	-0,150	-0,051
-642,941	320,167	0,041	0,057
-641,926	-43,321	0,123	-0,045
-640,911	-48,562	0,086	-0,030
-639,897	154,634	-0,096	-0,095
-638,882	-200,000	0,043	0,137
-637,868	800,000	-0,025	-0,052
-636,853	0,801	-0,107	-0,055
-635,838	777,397	-0,030	-0,060
-634,824	23,334	0,069	-0,041
-633,809	525,609	0,077	-0,131
-632,795	214,161	0,082	-0,094
-631,780	-200,000	0,022	0,130
-630,765	405,301	0,063	-0,097
-629,751	-26,914	-0,107	0,045
-628,736	-198,983	-0,121	0,000
-627,722	612,511	0,024	0,043
-626,707	17,682	0,033	-0,019
-625,692	302,135	-0,035	-0,047
-624,678	-25,103	0,193	-0,082
-623,663	769,739	-0,025	-0,050
-622,649	-63,430	-0,107	-0,032
-621,634	-200,000	0,014	0,071
-620,619	800,000	-0,028	-0,066
-619,605	102,774	0,058	-0,049
-618,590	19,108	-0,045	0,026
-617,576	800,000	-0,008	0,022
-616,561	108,266	-0,137	0,118
-615,546	-129,996	-0,094	-0,009
-614,532	-200,000	0,007	-0,078
-613,517	-36,797	-0,127	-0,049
-612,503	800,000	0,039	-0,108
-611,488	800,000	-0,008	-0,022
-610,474	-167,004	-0,139	0,004
-609,459	-200,000	0,037	-0,135
-608,444	418,857	-0,049	0,075
-607,430	800,000	-0,026	0,072
-606,415	800,000	0,025	0,063
-605,401	-200,000	-0,001	0,041
-604,386	-72,770	0,126	-0,033
-603,371	641,999	0,012	-0,023
-602,357	131,645	-0,177	0,164
-601,342	800,000	0,021	-0,052
-600,328	-200,000	-0,002	-0,058
-599,313	800,000	0,049	-0,121
-598,298	-112,431	0,128	0,018
-597,284	-200,000	-0,028	0,127
-596,269	129,670	0,081	-0,075
-595,255	362,650	0,105	0,152
-594,240	-15,768	-0,109	0,050
-593,225	-65,358	-0,076	0,022
-592,211	86,196	-0,080	-0,063
-591,196	-72,921	0,038	0,010
-590,182	203,768	0,028	-0,031
-589,167	-200,000	-0,014	0,146
-588,152	469,764	-0,060	-0,098
-587,138	800,000	-0,044	0,121
-586,123	-200,000	-0,018	-0,068
-585,109	-85,531	-0,164	-0,036
-584,094	172,353	0,084	-0,087
-583,079	42,967	0,101	0,066
-582,065	82,116	-0,070	0,054
-581,050	46,206	0,109	-0,073
-580,036	28,450	0,056	-0,034
-579,021	-137,859	-0,091	-0,007
-578,006	800,000	0,032	0,079
-576,992	-200,000	-0,038	-0,199
-575,977	-200,000	0,000	-0,028
-574,963	266,887	-0,017	-0,022
-573,948	209,372	0,048	-0,055
-572,934	-23,041	-0,152	-0,066
-571,919	-14,647	-0,059	0,027
-570,904	-200,000	0,034	-0,138
-569,890	295,407	-0,062	-0,081
-568,875	407,574	-0,028	-0,043
-567,861	-118,998	0,034	-0,004
-566,846	276,483	0,047	-0,060
-565,831	43,161	-0,068	-0,044
-564,817	678,679	-0,011	-0,021
-563,802	-98,245	-0,033	0,006
-562,788	-119,706	0,126	0,015
-561,773	278,316	0,060	0,077
-560,758	-78,456	0,062	-0,015
-559,744	301,478	0,059	-0,079
-558,729	-166,933	-0,058	-0,002
-557,715	800,000	-0,051	0,155
-556,700	-18,819	-0,064	-0,028
-555,685	531,746	0,075	0,127
-554,671	-129,099	-0,039	-0,004
-553,656	0,448	0,073	-0,037
-552,642	-122,876	0,106	0,012
-551,627	55,931	0,078	-0,055
-550,612	-0,831	-0,050	0,026
-549,598	413,901	-0,088	-0,135
-548,583	61,121	-0,101	-0,072
-547,569	800,000	0,026	-0,066
-546,554	800,000	0,023	0,062
-545,539	-41,768	-0,032	0,012
-544,525	800,000	0,054	-0,137
-543,510	-134,697	-0,060	-0,005
-542,496	-146,644	-0,012	-0,001
-541,481	800,000	-0,028	-0,074
-540,466	3,306	0,112	-0,059
-539,452	93,162	-0,095	-0,077
-538,437	-200,000	-0,017	0,091
-537,423	-100,398	0,040	0,007
-536,408	227,634	-0,072	-0,085
-535,393	34,530	0,074	-0,046
-534,379	94,910	-0,071	-0,058
-533,364	12,755	0,057	0,032
-532,350	-200,000	0,017	0,077
-531,335	13,808	0,100	0,056
-530,321	-200,000	-0,023	0,126
-529,306	68,986	0,086	-0,064
-528,291	156,526	-0,075	-0,075
-527,277	-200,000	-0,015	-0,076
-526,262	-9,604	0,064	0,031
-525,248	97,704	0,109	0,090
-524,233	800,000	0,038	-0,076
-523,218	46,719	0,077	0,051
-522,204	241,306	0,067	0,080
-521,189	-184,980	-0,095	-0,001
-520,175	84,696	0,034	-0,027
-519,160	-128,129	-0,102	-0,010
-518,145	-141,619	0,120	0,009
-517,131	-200,000	-0,005	-0,060
-516,116	-51,844	-0,065	-0,022
-515,102	-151,973	0,098	-0,005
-514,087	-200,000	-0,029	-0,161
-513,072	-20,966	-0,064	0,028
-512,058	373,449	-0,058	0,086
-511,043	-145,168	0,074	-0,005
-510,029	800,000	-0,034	0,083
-509,014	-53,008	-0,084	0,028
-507,999	244,758	0,030	0,037
-506,985	9,824	-0,071	-0,039
-505,970	-149,691	-0,139	-0,008
-504,956	800,000	-0,030	-0,090
-503,941	800,000	0,033	0,087
-502,926	-163,954	0,159	0,005
-501,912	-51,610	-0,021	0,007
-500,897	28,102	-0,089	-0,054
-499,883	350,279	0,048	-0,068
-498,868	-92,895	-0,080	-0,016
-497,853	-200,000	0,020	0,066
-496,839	743,925	0,046	0,088
-495,824	800,000	-0,071	-0,151
-494,810	383,803	0,094	0,140
-493,795	-15,945	-0,030	0,013
-492,781	-68,515	0,005	-0,001
-491,766	-60,715	-0,076	0,023
-490,751	-149,824	-0,127	0,007
-489,737	-150,328	0,070	0,004
-488,722	-11,695	0,075	-0,035
-487,708	-120,236	0,103	-0,012
-486,693	283,243	-0,077	0,099
-485,678	553,216	0,050	-0,087
-484,664	151,296	0,128	-0,126
-483,649	-48,195	-0,102	-0,035
-482,635	69,878	0,035	0,026
-481,620	800,000	0,054	0,146
-480,605	-200,000	0,007	0,113
-479,591	-26,168	0,085	0,036
-478,576	-200,000	0,013	-0,104
-477,562	800,000	0,049	0,133
-476,547	188,792	-0,005	-0,005
-475,532	-134,592	0,026	-0,002
-474,518	-182,020	-0,043	0,001
-473,503	141,833	0,126	0,120
-472,489	70,470	-0,058	-0,043
-471,474	529,137	-0,053	-0,091
-470,459	-200,000	0,001	-0,054
-469,445	800,000	0,037	-0,109
-468,430	800,000	-0,082	-0,189
-467,416	800,000	-0,032	0,096
-466,401	-12,799	0,116	-0,054
-465,386	-134,747	0,022	0,002
-464,372	5,961	-0,091	0,048
-463,357	-200,000	-0,010	0,041
-462,343	275,999	0,026	-0,033
-461,328	173,084	0,047	-0,049
-460,313	-200,000	0,036	0,141
-459,299	-110,423	-0,075	0,011
-458,284	-180,973	0,063	0,001
-457,270	72,017	0,068	0,051
-456,255	60,798	-0,052	-0,037
-455,241	-111,525	-0,074	0,011
-454,226	800,000	0,032	0,081
-453,211	800,000	-0,010	0,030
-452,197	-200,000	-0,006	0,055
-451,182	-200,000	0,001	-0,025
-450,168	-200,000	0,037	0,124
-449,153	200,545	-0,118	-0,130
-448,138	298,701	0,039	-0,051
-447,124	159,619	-0,169	-0,168
-446,109	-200,000	0,028	-0,132
-445,095	222,560	0,063	0,073
-444,080	800,000	0,022	0,060
-443,065	-29,101	-0,056	0,023
-442,051	106,279	-0,066	-0,056
-441,036	133,631	-0,060	-0,056
-440,022	-141,549	-0,034	-0,002
-439,007	543,776	0,030	0,052
-437,992	-200,000	-0,002	-0,099
-436,978	182,310	-0,080	0,084
-435,963	3,956	0,095	0,050
-434,949	-19,597	0,191	0,084
-433,934	800,000	0,025	0,055
-432,919	12,997	-0,009	0,005
-431,905	84,742	-0,064	-0,050
-430,890	332,843	0,090	0,125
-429,876	-118,900	0,127	-0,016
-428,861	-128,152	0,144	0,015
-427,846	21,390	0,162	0,094
-426,832	116,694	0,033	-0,029
-425,817	-200,000	0,003	-0,101
-424,803	-48,408	-0,071	0,024
-423,788	67,549	0,078	-0,057
-422,773	-200,000	0,034	0,177
-421,759	-181,791	0,079	-0,001
-420,744	-41,324	-0,090	0,033
-419,730	-200,000	-0,012	0,126
-418,715	-200,000	-0,020	-0,140
-417,701	788,340	0,020	-0,039
-416,686	800,000	-0,031	0,091
-415,671	514,877	0,091	0,153
-414,657	404,078	0,059	0,090
-413,642	62,642	0,052	-0,037
-412,628	66,002	0,037	0,027
-411,613	-141,453	-0,187	-0,013
-410,598	400,867	0,072	-0,108
-409,584	-46,532	-0,108	-0,038
-408,569	1,233	-0,106	-0,054
-407,555	42,075	-0,024	-0,016
-406,540	-60,753	-0,092	-0,028
-405,525	-140,369	-0,037	0,003
-404,511	-200,000	0,027	0,207
-403,496	800,000	0,040	0,085
-402,482	-45,920	0,026	0,009
-401,467	-177,276	0,011	-0,000
-400,452	-18,087	0,073	-0,032
-399,438	530,108	0,053	0,089
-398,423	239,088	-0,085	-0,102
-397,409	-200,000	-0,000	0,053
-396,394	460,068	0,024	-0,038
-395,379	800,000	-0,051	-0,124
-394,365	-200,000	0,021	-0,113
-393,350	225,066	0,082	-0,095
-392,336	157,558	0,081	-0,080
-391,321	-200,000	-0,011	-0,038
-390,306	201,216	-0,053	0,058
-389,292	-28,948	-0,080	-0,033
-388,277	-200,000	0,008	-0,049
-387,263	-141,288	-0,053	0,004
-386,248	151,355	0,049	-0,048
-385,233	800,000	-0,059	0,122
-384,219	294,875	0,079	0,104
-383,204	-200,000	0,020	-0,079
-382,190	-1,182	-0,054	0,027
-381,175	-179,271	-0,148	0,002
-380,160	-200,000	0,009	0,108
-379,146	800,000	0,032	-0,093
-378,131	310,596	0,058	-0,078
-377,117	-87,930	-0,110	-0,023
-376,102	100,809	0,027	0,023
-375,088	-200,000	-0,049	0,194
-374,073	-200,000	-0,022	0,162
-373,058	-57,374	0,035	0,011
-372,044	-200,000	0,009	-0,112
-371,029	800,000	0,104	0,274
-370,015	-60,033	0,178	0,054
-369,000	-117,784	0,052	0,007
-367,985	800,000	-0,040	0,089
-366,971	373,928	0,007	-0,011
-365,956	-2,870	0,139	0,069
-364,942	296,046	-0,065	-0,086
-363,927	15,256	-0,058	-0,032
-362,912	386,025	0,032	0,047
-361,898	-1,704	-0,078	-0,039
-360,883	-200,000	0,001	-0,083
-359,869	-200,000	-0,016	-0,155
-358,854	-200,000	0,006	-0,081
-357,839	505,259	0,065	0,109
-356,825	-200,000	0,019	-0,143
-355,810	-200,000	0,006	-0,084
-354,796	800,000	0,011	0,024
-353,781	-200,000	-0,029	-0,146
-352,766	247,962	0,036	-0,043
-351,752	-200,000	0,078	0,000
-350,737	282,787	-0,079	0,102
-349,723	-200,000	0,010	0,046
-348,708	170,135	-0,029	0,030
-347,693	-200,000	-0,011	0,107
-346,679	140,879	-0,060	-0,057
-345,664	29,150	-0,039	-0,023
-344,650	198,142	0,099	0,108
-343,635	-200,000	-0,019	0,196
-342,620	-134,174	-0,127	0,011
-341,606	-200,000	0,013	-0,071
-340,591	0,753	-0,113	-0,058
-339,577	-62,060	-0,044	-0,013
-338,562	-187,183	-0,026	0,000
-337,548	-200,000	0,002	-0,050
-336,533	10,921	-0,112	-0,061
-335,518	156,049	-0,021	0,020
-334,504	-80,651	0,177	0,042
-333,489	-100,006	-0,147	-0,026
-332,475	74,005	0,038	-0,028
-331,460	-200,000	-0,009	-0,133
-330,445	-200,000	-0,017	0,083
-329,431	-63,426	0,125	-0,036
-328,416	-80,934	0,117	-0,027
-327,402	-52,710	0,071	0,023
-326,387	-200,000	-0,005	0,094
-325,372	69,024	-0,088	0,064
-324,358	60,107	0,113	-0,079
-323,343	-106,512	0,092	-0,014
-322,329	-117,134	0,089	0,011
-321,314	198,196	0,107	0,117
-320,299	222,362	0,056	0,064
-319,285	20,418	-0,020	0,011
-318,270	143,005	-0,016	-0,015
-317,256	-6,110	-0,076	0,037
-316,241	-119,035	-0,128	-0,016
-315,226	669,580	-0,062	0,115
-314,212	125,778	0,071	0,064
-313,197	-200,000	-0,018	-0,122
-312,183	-136,469	0,140	-0,011
-311,168	-200,000	-0,011	0,041
-310,153	-77,618	-0,082	0,020
-309,139	-29,586	-0,092	0,037
-308,124	214,995	0,046	-0,052
-307,110	61,840	0,084	-0,059
-306,095	335,510	0,076	-0,106
-305,080	-200,000	0,011	0,126
-304,066	-73,165	-0,131	0,034
-303,051	60,003	0,035	0,024
-302,037	90,089	-0,195	0,155
-301,022	-200,000	0,027	0,137
-300,008	-132,988	-0,081	-0,007
-298,993	319,393	0,101	-0,137
-297,978	48,869	0,085	-0,057
-296,964	-58,465	-0,172	-0,053
-295,949	397,001	-0,073	0,110
-294,935	353,376	0,023	0,033
-293,920	-200,000	-0,008	0,041
-292,905	305,975	-0,025	-0,034
-291,891	-200,000	-0,072	0,000
-290,876	-112,998	0,102	0,014
-289,862	-200,000	-0,020	0,080
-288,847	54,348	-0,043	0,029
-287,832	-26,386	-0,037	-0,015
-286,818	166,386	0,122	-0,123
-285,803	-174,384	0,109	0,002
-284,789	167,566	-0,070	-0,070
-283,774	124,555	-0,072	0,064
-282,759	399,864	0,068	-0,102
-281,745	5,308	-0,077	0,040
-280,730	422,552	-0,048	-0,074
-279,716	-51,162	0,032	-0,011
-278,701	-200,000	-0,017	-0,054
-277,686	-200,000	0,069	0,219
-276,672	48,330	0,047	0,031
-275,657	59,230	0,035	0,025
-274,643	324,487	-0,048	0,066
-273,628	-200,000	0,007	-0,125
-272,613	39,347	-0,005	-0,003
-271,599	87,450	0,141	0,111
-270,584	178,300	0,062	0,064
-269,570	392,108	0,035	-0,052
-268,555	-97,209	0,032	-0,006
-267,540	-200,000	0,018	-0,089
-266,526	330,978	-0,037	-0,050
-265,511	131,120	-0,061	0,056
-264,497	23,628	0,029	-0,017
-263,482	490,209	-0,012	-0,020
-262,467	-200,000	-0,025	0,134
-261,453	144,425	-0,055	-0,053
-260,438	-92,290	-0,109	0,022
-259,424	92,092	-0,058	-0,046
-258,409	-156,453	-0,051	0,002
-257,395	-200,000	0,011	-0,069
-256,380	37,578	-0,066	-0,042
-255,365	-67,473	-0,131	0,036
-254,351	115,785	0,013	0,012
-253,336	57,764	-0,025	0,017
-252,322	-139,214	-0,107	-0,008
-251,307	5,382	-0,040	-0,021
-250,292	116,833	-0,055	-0,048
-249,278	-200,000	-0,013	-0,058
-248,263	127,382	0,059	0,053
-247,249	269,293	-0,077	0,096
-246,234	-148,700	-0,085	-0,005
-245,219	533,644	-0,049	-0,084
-244,205	800,000	-0,032	0,093
-243,190	-200,000	0,014	-0,046
-242,176	-56,009	0,143	-0,045
-241,161	-200,000	0,031	-0,123
-240,146	142,752	-0,041	-0,039
-239,132	-200,000	0,019	0,100
-238,117	800,000	-0,024	-0,051
-237,103	179,639	0,096	-0,100
-236,088	-200,000	0,030	0,149
-235,073	350,409	0,103	-0,145
-234,059	188,595	-0,062	0,066
-233,044	3,115	0,115	0,059
-232,030	-49,068	0,005	0,002
-231,015	-200,000	0,015	-0,122
-230,000	546,641	0,063	-0,108
-228,986	529,770	-0,030	-0,051
-227,971	800,000	-0,051	-0,104
-226,957	800,000	-0,035	-0,078
-225,942	-200,000	-0,078	0,248
-224,927	12,496	0,087	0,048
-223,913	800,000	-0,024	0,054
-222,898	135,441	0,044	-0,041
-221,884	-127,259	0,131	-0,013
-220,869	-200,000	0,018	0,121
-219,855	502,444	0,078	0,129
-218,840	-109,595	-0,141	0,021
-217,825	-95,774	0,040	0,008
-216,811	-120,621	-0,123	0,015
-215,796	-200,000	0,008	-0,183
-214,782	-200,000	0,016	0,055
-213,767	79,791	-0,075	-0,057
-212,752	152,433	0,034	0,033
-211,738	70,809	-0,123	-0,091
-210,723	-115,968	0,177	-0,023
-209,709	482,090	-0,089	0,144
-208,694	-200,000	0,023	-0,097
-207,679	91,965	-0,023	0,018
-206,665	-200,000	-0,036	0,117
-205,650	-190,238	-0,063	0,000
-204,636	588,617	-0,033	0,058
-203,621	27,118	-0,092	0,055
-202,606	-41,220	0,057	0,021
-201,592	79,126	0,075	-0,057
-200,577	253,556	-0,044	0,054
-199,563	800,000	-0,048	0,133
-198,548	-79,161	0,046	-0,011
-197,533	800,000	-0,034	-0,082
-196,519	-7,791	0,051	-0,024
-195,504	-200,000	0,015	-0,057
-194,490	-97,843	0,071	-0,013
-193,475	-67,421	0,095	-0,026
-192,460	649,340	0,058	0,105
-191,446	340,700	0,008	0,011
-190,431	207,210	-0,061	0,068
-189,417	800,000	0,030	-0,082
-188,402	800,000	-0,023	0,057
-187,387	-34,136	-0,151	-0,059
-186,373	-41,941	-0,100	-0,036
-185,358	800,000	0,039	-0,096
-184,344	-189,369	-0,084	0,001
-183,329	-79,105	0,079	-0,019
-182,315	-45,032	0,065	0,023
-181,300	478,510	-0,049	0,079
-180,285	223,044	0,060	-0,068
-179,271	324,064	0,061	-0,083
-178,256	547,673	-0,060	-0,103
-177,242	198,465	0,076	-0,083
-176,227	-200,000	-0,029	0,111
-175,212	477,171	0,014	0,023
-174,198	-200,000	-0,010	0,051
-173,183	62,577	0,089	-0,063
-172,169	170,462	0,055	-0,056
-171,154	-28,547	0,019	-0,008
-170,139	654,539	-0,068	0,125
-169,125	-109,431	0,096	0,014
-168,110	800,000	0,003	-0,007
-167,096	493,512	0,037	0,060
-166,081	113,388	-0,077	-0,066
-165,066	29,763	-0,100	-0,060
-164,052	114,213	0,044	-0,038
-163,037	-200,000	0,004	-0,027
-162,023	126,081	0,021	0,019
-161,008	-200,000	0,003	0,079
-159,993	27,401	0,120	0,071
-158,979	673,188	0,036	0,066
-157,964	146,231	-0,095	0,091
-156,950	-200,000	0,021	0,087
-155,935	76,707	-0,197	0,148
-154,920	-200,000	-0,005	0,041
-153,906	277,539	0,021	0,027
-152,891	-17,277	-0,022	0,010
-151,877	105,086	-0,073	-0,061
-150,862	15,176	-0,066	-0,037
-149,847	800,000	-0,061	-0,120
-148,833	-195,466	0,162	-0,001
-147,818	-137,782	0,072	0,006
-146,804	-92,770	-0,015	-0,003
-145,789	-65,781	0,133	0,037
-144,775	81,782	-0,134	-0,102
-143,760	-200,000	0,003	0,014
-142,745	800,000	-0,021	-0,045
-141,731	-48,537	0,057	-0,019
-140,716	-200,000	0,009	0,070
-139,702	11,771	-0,063	0,034
-138,687	-200,000	0,020	-0,076
-137,672	58,106	0,111	-0,077
-136,658	257,694	0,027	0,033
-135,643	296,858	0,025	0,033
-134,629	-200,000	0,009	0,036
-133,614	294,818	-0,050	-0,065
-132,599	657,057	0,035	-0,065
-131,585	-127,292	0,158	-0,016
-130,570	-102,375	0,026	-0,004
-129,556	423,970	-0,080	-0,122
-128,541	83,629	-0,029	0,022
-127,526	-200,000	-0,001	-0,075
-126,512	-26,879	0,119	-0,049
-125,497	-45,603	0,130	0,045
-124,483	-94,634	0,112	-0,021
-123,468	-200,000	-0,031	-0,104
-122,453	-200,000	0,035	-0,119
-121,439	-141,201	-0,014	0,001
-120,424	-200,000	0,018	-0,138
-119,410	800,000	0,052	-0,115
-118,395	800,000	0,024	-0,049
-117,380	41,951	0,086	0,055
-116,366	229,484	-0,076	0,088
-115,351	-200,000	-0,015	-0,079
-114,337	105,112	0,056	0,047
-113,322	-200,000	0,004	0,045
-112,307	800,000	0,059	0,122
-111,293	773,014	0,071	0,138
-110,278	647,162	-0,044	-0,080
-109,264	19,570	0,049	0,028
-108,249	118,747	0,043	0,037
-107,234	120,652	0,078	-0,069
-106,220	-200,000	0,020	-0,066
-105,205	48,923	0,041	0,027
-104,191	800,000	0,056	0,118
-103,176	-51,316	0,161	0,053
-102,162	187,955	-0,068	-0,072
-101,147	800,000	-0,018	-0,052
-100,132	487,209	0,032	-0,053
-99,118	57,973	-0,042	0,029
-98,103	146,613	-0,030	-0,028
-97,089	-128,761	0,073	0,007
-96,074	186,313	-0,115	0,121
-95,059	9,975	0,044	0,024
-94,045	791,508	0,036	0,070
-93,030	-200,000	0,015	0,049
-92,016	-128,601	0,146	0,014
-91,001	-62,993	0,066	-0,019
-89,986	46,857	0,127	0,083
-88,972	-32,101	0,227	-0,089
-87,957	786,416	0,046	-0,091
-86,943	149,640	-0,010	0,010
-85,928	-125,093	0,033	0,003
-84,913	-200,000	0,003	-0,112
-83,899	-149,490	-0,013	0,001
-82,884	-200,000	-0,012	0,094
-81,870	-200,000	0,025	0,161
-80,855	800,000	0,023	0,062
-79,840	800,000	0,050	0,113
-78,826	-200,000	-0,021	-0,085
-77,811	800,000	-0,029	-0,088
-76,797	41,903	0,035	0,022
-75,782	96,458	-0,134	0,108
-74,767	-151,001	0,138	-0,007
-73,753	-12,647	0,084	-0,039
-72,738	432,613	0,040	-0,062
-71,724	701,262	-0,065	-0,121
-70,709	127,035	-0,036	-0,032
-69,694	800,000	-0,028	0,057
-68,680	800,000	-0,048	0,116
-67,665	34,032	-0,019	0,011
-66,651	-4,264	0,141	-0,069
-65,636	-200,000	-0,010	-0,081
-64,622	-90,081	0,086	0,018
-63,607	-200,000	0,038	-0,181
-62,592	-200,000	0,020	-0,064
-61,578	-110,079	0,071	0,010
-60,563	-21,156	-0,111	0,048
-59,549	-200,000	-0,016	0,123
-58,534	34,605	-1,954	-1,202
-57,519	498,475	-1,187	-1,936
-56,505	-200,000	-0,281	-4,413
-55,490	643,540	0,901	1,629
-54,476	800,000	5,285	11,381
-53,461	-200,000	21,620	342,514
-52,446	800,000	762,661	2339,652
-51,432	546,852	1660,688	2814,174
-50,417	71,252	1656,998	1211,344
-49,403	17,172	1530,517	854,098
-48,388	11,251	1454,485	783,095
-47,373	19,336	1445,982	817,187
-46,359	14,718	1435,378	789,257
-45,344	9,497	1431,131	762,085
-44,330	9,476	1429,213	760,935
-43,315	9,410	1427,597	759,728
-42,300	9,436	1425,516	758,713
-41,286	9,439	1424,566	758,192
-40,271	9,425	1423,192	757,363
-39,257	9,451	1421,843	756,739
-38,242	9,493	1420,871	756,392
-37,227	9,464	1419,802	755,654
-36,213	9,467	1418,471	754,931
-35,198	9,500	1417,249	754,408
-34,184	9,538	1416,412	754,111
-33,169	9,423	1414,930	752,750
-32,154	9,497	1414,022	752,584
-31,140	9,499	1412,623	751,821
-30,125	9,528	1411,557	751,357
-29,111	9,490	1410,440	750,557
-28,096	9,450	1409,358	749,765
-27,082	9,433	1408,042	748,955
-26,067	9,384	1407,094	748,189
-25,052	9,434	1406,025	747,826
-24,038	9,507	1405,048	747,616
-23,023	9,430	1404,230	746,792
-22,009	9,380	1403,215	745,992
-20,994	9,446	1402,053	745,650
-19,979	9,426	1401,176	745,062
-18,965	9,430	1400,268	744,566
-17,950	9,386	1399,092	743,708
-16,936	9,346	1398,677	743,273
-15,921	9,293	1397,534	742,389
-14,906	9,299	1396,715	741,953
-13,892	9,405	1395,453	741,746
-12,877	9,395	1394,610	741,221
-11,863	9,344	1394,009	740,636
-10,848	9,317	1393,071	739,984
-9,833	9,272	1392,153	739,258
-8,819	9,282	1391,272	738,808
-7,804	9,294	1390,276	738,302
-6,790	9,280	1389,325	737,707
-5,775	9,263	1388,105	736,948
-4,760	9,286	1387,239	736,567
-3,746	9,262	1386,137	735,841
-2,731	9,271	1385,608	735,572
-1,717	9,244	1384,582	734,873
-0,702	9,287	1382,834	734,114
0,313	13,367	1295,241	706,208
1,327	29,655	686,263	410,898
2,342	45,958	118,319	77,061
3,356	-2,052	16,468	8,130
4,371	-2,246	3,684	1,816
5,386	-1,129	1,175	0,584
6,400	800,000	0,331	0,727
7,415	-32,075	-0,075	0,029
8,429	-200,000	-0,003	-0,179
9,444	18,245	-0,350	-0,196
10,459	56,568	-0,237	-0,162
11,473	-28,657	-0,306	-0,124
12,488	39,424	-0,245	-0,155
13,502	158,954	-0,187	-0,183
14,517	68,983	-0,314	-0,227
15,531	60,416	-0,353	-0,246
16,546	191,790	-0,299	-0,317
17,561	264,958	-0,279	-0,343
18,575	-40,132	-0,252	-0,092
19,590	117,540	-0,290	-0,251
20,604	91,861	-0,219	-0,173
21,619	76,577	-0,454	-0,338
22,634	39,480	-0,479	-0,302
23,648	190,570	-0,363	-0,384
24,663	33,960	-0,299	-0,183
25,677	51,853	-0,358	-0,240
26,692	-19,974	-0,411	-0,178
27,707	33,792	-0,320	-0,195
28,721	38,875	-0,439	-0,275
29,736	116,636	-0,379	-0,327
30,750	127,656	-0,352	-0,315
31,765	325,293	-0,227	-0,306
32,780	-0,349	-0,466	-0,232
33,794	107,072	-0,297	-0,248
34,809	-39,455	-0,283	-0,104
35,823	71,648	-0,371	-0,271
36,838	63,697	-0,434	-0,306
37,853	-30,528	-0,538	-0,213
38,867	447,410	-0,255	-0,396
39,882	218,681	-0,334	-0,376
40,896	173,240	-0,319	-0,323
41,911	280,299	-0,317	-0,399
42,926	-6,208	-0,469	-0,224
43,940	379,602	-0,173	-0,250
44,955	-31,286	-0,500	-0,197
45,969	98,676	-0,359	-0,291
46,984	201,713	-0,262	-0,284
47,999	-17,138	-0,365	-0,161
49,013	45,473	-0,264	-0,171
50,028	150,394	-0,346	-0,330
51,042	274,759	-0,280	-0,349
52,057	97,815	-0,438	-0,353
53,071	-13,040	-0,430	-0,195
54,086	17,998	-0,385	-0,215
55,101	167,095	-0,234	-0,233
56,115	-56,671	-0,475	-0,147
57,130	269,222	-0,251	-0,310
58,144	88,029	-0,432	-0,336
59,159	234,803	-0,375	-0,434
60,174	397,375	-0,268	-0,394
61,188	139,143	-0,344	-0,318
62,203	78,902	-0,307	-0,230
63,217	72,368	-0,363	-0,265
64,232	-1,296	-0,452	-0,223
65,247	58,171	-0,350	-0,240
66,261	32,081	-0,316	-0,191
67,276	60,371	-0,315	-0,218
68,290	200,924	-0,268	-0,289
69,305	123,606	-0,259	-0,228
70,320	20,240	-0,234	-0,132
71,334	83,243	-0,248	-0,189
72,349	800,000	-0,106	-0,235
73,363	-64,202	-0,320	-0,091
74,378	27,069	-0,260	-0,153
75,393	55,377	-0,408	-0,276
76,407	15,063	-0,288	-0,157
77,422	32,884	-0,344	-0,208
78,436	95,893	-0,336	-0,269
79,451	1,777	-0,226	-0,113
80,466	100,494	-0,361	-0,293
81,480	189,936	-0,246	-0,259
82,495	54,094	-0,365	-0,245
83,509	38,262	-0,209	-0,130
84,524	76,675	-0,256	-0,190
85,539	42,136	-0,288	-0,183
86,553	86,010	-0,237	-0,183
87,568	255,912	-0,305	-0,367
88,582	543,500	-0,208	-0,349
89,597	124,585	-0,235	-0,207
90,611	206,637	-0,306	-0,334
91,626	34,241	-0,282	-0,172
92,641	91,364	-0,375	-0,295
93,655	201,236	-0,279	-0,301
94,670	-74,368	-0,310	-0,078
95,684	250,134	-0,280	-0,333
96,699	171,142	-0,305	-0,306
97,714	45,636	-0,360	-0,232
98,728	-3,792	-0,406	-0,196
99,743	-95,390	-0,227	-0,042
100,757	-43,752	-0,281	-0,099
101,772	237,209	-0,222	-0,258
102,787	22,665	-0,227	-0,130
103,801	16,582	-0,290	-0,160
104,816	206,955	-0,286	-0,312
105,830	-41,079	-0,231	-0,083
106,845	623,111	-0,115	-0,203
107,860	-73,631	-0,189	-0,048
108,874	-47,807	-0,158	-0,053
109,889	174,395	-0,173	-0,175
110,903	37,981	-0,268	-0,166
111,918	163,538	-0,244	-0,239
112,933	203,267	-0,104	-0,112
113,947	-20,143	-0,310	-0,133
114,962	-8,734	-0,230	-0,107
115,976	285,364	-0,232	-0,292
116,991	108,035	-0,350	-0,291
118,006	300,115	-0,263	-0,339
119,020	23,930	-0,177	-0,102
120,035	60,720	-0,191	-0,132
121,049	8,033	-0,154	-0,080
122,064	153,816	-0,203	-0,195
123,079	6,908	-0,201	-0,104
124,093	92,358	-0,257	-0,202
125,108	118,625	-0,328	-0,283
126,122	-23,342	-0,221	-0,092
127,137	79,146	-0,184	-0,137
128,151	307,955	-0,216	-0,282
129,166	173,863	-0,137	-0,138
130,181	132,857	-0,227	-0,204
131,195	103,942	-0,244	-0,200
132,210	207,349	-0,271	-0,295
133,224	24,835	-0,296	-0,171
134,239	-101,803	-0,194	-0,032
135,254	32,241	-0,293	-0,176
136,268	91,082	-0,138	-0,108
137,283	92,957	-0,188	-0,148
138,297	425,464	-0,160	-0,241
139,312	-26,484	-0,318	-0,129
140,327	22,491	-0,295	-0,168
141,341	16,936	-0,298	-0,164
142,356	199,757	-0,248	-0,266
143,370	755,165	-0,104	-0,198
144,385	164,339	-0,291	-0,285
145,400	193,474	-0,227	-0,240
146,414	-186,841	-0,254	0,002
147,429	340,283	-0,189	-0,258
148,443	21,013	-0,285	-0,161
149,458	13,594	-0,261	-0,141
150,473	165,462	-0,181	-0,178
151,487	77,917	-0,273	-0,203
152,502	231,102	-0,170	-0,194
153,516	335,348	-0,234	-0,317
154,531	38,763	-0,353	-0,219
155,546	131,221	-0,352	-0,315
156,560	30,632	-0,228	-0,136
157,575	107,293	-0,247	-0,204
158,589	191,041	-0,263	-0,276
159,604	61,883	-0,390	-0,270
160,619	175,091	-0,206	-0,208
161,633	324,963	-0,255	-0,340
162,648	150,720	-0,218	-0,206
163,662	13,482	-0,221	-0,119
164,677	-90,304	-0,244	-0,049
165,692	97,905	-0,183	-0,146
166,706	9,795	-0,287	-0,151
167,721	345,598	-0,240	-0,328
168,735	125,966	-0,178	-0,157
169,750	639,464	-0,128	-0,227
170,764	-200,000	-0,024	-0,216
171,779	168,326	-0,237	-0,234
172,794	203,423	-0,247	-0,265
173,808	102,234	-0,164	-0,133
174,823	-91,280	-0,282	-0,056
175,837	-22,777	-0,269	-0,112
176,852	-25,262	-0,423	-0,173
177,867	158,884	-0,206	-0,199
178,881	159,330	-0,131	-0,126
179,896	-54,366	-0,138	-0,043
180,910	-75,021	-0,282	-0,070
181,925	144,979	-0,244	-0,227
182,940	38,346	-0,245	-0,151
183,954	-23,322	-0,205	-0,085
184,969	-68,906	-0,243	-0,065
185,983	536,932	-0,124	-0,205
186,998	50,327	-0,220	-0,144
188,013	-200,000	-0,088	-0,290
189,027	-40,771	-0,337	-0,121
190,042	-200,000	-0,021	-0,167
191,056	14,754	-0,204	-0,110
192,071	333,677	-0,178	-0,239
193,086	363,559	-0,124	-0,173
194,100	407,781	-0,176	-0,259
195,115	146,688	-0,203	-0,190
196,129	188,671	-0,177	-0,184
197,144	-142,260	-0,196	0,013
198,159	-37,580	-0,231	-0,085
199,173	19,465	-0,318	-0,177
200,188	-103,083	-0,213	-0,035
201,202	-13,132	-0,392	-0,176
202,217	244,514	-0,200	-0,233
203,232	74,108	-0,216	-0,157
204,246	210,570	-0,185	-0,201
205,261	32,410	-0,201	-0,120
206,275	397,088	-0,101	-0,147
207,290	193,851	-0,228	-0,239
208,304	800,000	-0,104	-0,252
209,319	714,017	-0,160	-0,296
210,334	124,799	-0,187	-0,163
211,348	231,528	-0,257	-0,292
212,363	371,741	-0,160	-0,225
213,377	55,541	-0,240	-0,161
214,392	86,187	-0,107	-0,081
215,407	235,150	-0,155	-0,178
216,421	321,947	-0,204	-0,269
217,436	-91,851	-0,105	-0,020
218,450	800,000	-0,094	-0,253
219,465	8,462	-0,279	-0,145
220,480	145,084	-0,172	-0,160
221,494	-41,212	-0,274	-0,097
222,509	-200,000	-0,045	-0,186
223,523	800,000	-0,046	-0,141
224,538	29,384	-0,245	-0,144
225,553	55,220	-0,236	-0,157
226,567	-7,835	-0,213	-0,099
227,582	446,128	-0,149	-0,227
228,596	242,587	-0,177	-0,205
229,611	-132,870	-0,212	-0,018
230,626	-109,815	-0,216	-0,031
231,640	47,953	-0,260	-0,168
232,655	-67,710	-0,325	-0,087
233,669	70,172	-0,208	-0,148
234,684	5,627	-0,157	-0,080
235,699	-100,972	-0,216	-0,036
236,713	-57,954	-0,044	-0,013
237,728	212,529	-0,153	-0,167
238,742	11,311	-0,177	-0,094
239,757	500,345	-0,162	-0,259
240,772	88,118	-0,195	-0,149
241,786	-200,000	-0,152	-0,000
242,801	76,650	-0,173	-0,127
243,815	337,842	-0,134	-0,180
244,830	-200,000	-0,050	-0,201
245,844	164,494	-0,155	-0,151
246,859	361,768	-0,160	-0,223
247,874	43,752	-0,281	-0,177
248,888	253,459	-0,178	-0,210
249,903	321,053	-0,189	-0,249
250,917	-200,000	-0,053	-0,195
251,932	-113,761	-0,117	-0,016
252,947	-200,000	-0,030	-0,210
253,961	145,518	-0,222	-0,205
254,976	265,635	-0,125	-0,151
255,990	209,167	-0,155	-0,168
257,005	112,531	-0,147	-0,122
258,020	122,093	-0,185	-0,159
259,034	127,078	-0,191	-0,167
260,049	-13,405	-0,186	-0,083
261,063	147,771	-0,239	-0,222
262,078	-76,626	-0,164	0,039
263,093	240,078	-0,108	-0,124
264,107	-52,174	-0,338	-0,108
265,122	309,066	-0,141	-0,182
266,136	-46,706	-0,086	-0,029
267,151	98,019	-0,058	-0,046
268,166	-17,695	-0,256	-0,110
269,180	-58,537	-0,272	-0,081
270,195	178,085	-0,134	-0,135
271,209	78,366	-0,271	-0,199
272,224	101,595	-0,141	-0,113
273,239	449,111	-0,091	-0,138
274,253	298,345	-0,128	-0,162
275,268	295,364	-0,140	-0,177
276,282	-88,176	-0,279	-0,057
277,297	800,000	-0,075	-0,202
278,312	175,882	-0,163	-0,163
279,326	1,055	-0,175	-0,086
280,341	-41,054	-0,158	-0,056
281,355	-200,000	-0,034	0,134
282,370	665,970	-0,153	-0,273
283,384	800,000	-0,030	-0,080
284,399	-1,549	-0,228	-0,110
285,414	58,180	-0,101	-0,068
286,428	637,346	-0,024	-0,042
287,443	-28,227	-0,171	-0,068
288,457	79,117	-0,184	-0,135
289,472	261,331	-0,114	-0,135
290,487	51,737	-0,156	-0,102
291,501	-200,000	-0,013	-0,257
292,516	334,465	-0,092	-0,123
293,530	-55,553	-0,078	-0,024
294,545	-102,566	-0,099	-0,016
295,560	-130,989	-0,165	-0,015
296,574	-56,449	-0,062	-0,019
297,589	66,025	-0,086	-0,060
298,603	-28,300	-0,194	-0,077
299,618	71,202	-0,117	-0,083
300,633	-123,831	-0,155	0,017
301,647	-28,611	-0,200	-0,079
302,662	102,099	-0,131	0,105
303,676	-81,512	-0,159	-0,036
304,691	-6,165	-0,258	-0,121
305,706	-126,349	-0,242	-0,024
306,720	-51,867	-0,248	-0,079
307,735	382,687	-0,140	-0,198
308,749	800,000	-0,038	-0,082
309,764	178,484	-0,176	-0,177
310,779	-157,267	-0,216	-0,009
311,793	218,165	-0,198	-0,218
312,808	584,422	-0,117	-0,198
313,822	31,276	-0,189	-0,111
314,837	-200,000	0,021	-0,166
315,852	-200,000	0,001	0,092
316,866	-135,955	-0,187	-0,015
317,881	211,229	-0,216	-0,234
318,895	230,549	-0,190	-0,214
319,910	276,894	-0,138	-0,168
320,925	433,919	-0,113	-0,169
321,939	212,042	-0,170	-0,184
322,954	-64,398	-0,253	-0,070
323,968	-97,724	-0,061	-0,011
324,983	-200,000	-0,028	-0,134
325,997	364,658	-0,114	-0,157
327,012	678,603	-0,122	-0,218
328,027	375,601	-0,160	-0,224
329,041	-19,574	-0,185	-0,078
330,056	800,000	0,037	-0,083
331,070	114,971	-0,073	0,061
332,085	125,902	-0,100	-0,087
333,100	-200,000	0,012	-0,172
334,114	74,503	-0,232	-0,167
335,129	800,000	-0,070	-0,135
336,143	88,751	-0,153	-0,116
337,158	800,000	-0,078	-0,151
338,173	800,000	-0,126	-0,251
339,187	87,908	-0,062	-0,047
340,202	-124,507	-0,192	-0,020
341,216	-96,770	-0,178	-0,032
342,231	82,957	-0,179	-0,133
343,246	146,609	-0,098	-0,090
344,260	-200,000	-0,037	-0,140
345,275	288,073	-0,151	-0,188
346,289	31,236	-0,134	-0,079
347,304	62,739	-0,146	-0,100
348,319	-45,852	-0,146	-0,049
349,333	800,000	-0,123	-0,292
350,348	-200,000	-0,001	-0,116
351,362	61,748	-0,204	-0,139
352,377	-4,636	-0,052	-0,024
353,392	182,372	-0,103	-0,104
354,406	443,392	-0,074	-0,112
355,421	208,996	1305,790	1399,270
356,435	160,837	1465,395	1399,740
