DTS Sentinel unit serial number:	SN410029Multiplexer serial number:	ORYXHardware model number:	OX2-SRSoftware version number:	ORYX F/W v4,00 Oryx Data Collector v3.7.2.0data status	okinstallation	B3 Nyhavnadifferential loss correction	single-endedforward channel	channel 1reverse channel	N/Adate	2023/12/01time	19:07:30forward acquisition time	300,00reverse acquisition time	0,00gamma	499,1914k internal	0,3200k external	0,3200temperature offset calibration	1,0000default loss term (dB/km)	0,3820temperature slope calibration	1,0000multiplexer offset coefficient	1,0000multiplexer slope coefficient	1,0000fibre end	0,00T internal ref (°C)	15,26T ext. ref 1 (°C)	1,16T ext. ref 2 (°C)	1,15length (m)	temperature (°C)	Stokes	anti-Stokes-744,400	199,961	-0,193	-0,215
-743,385	-200,000	-0,014	0,338
-742,371	592,351	-0,180	-0,325
-741,356	-200,000	0,087	0,326
-740,342	213,557	-0,215	-0,248
-739,327	-200,000	-0,009	0,344
-738,312	128,685	-0,314	-0,292
-737,298	-200,000	0,013	0,239
-736,283	15,336	-0,165	-0,094
-735,269	-200,000	0,063	0,222
-734,254	334,982	-0,323	-0,456
-733,239	159,935	-0,152	0,154
-732,225	383,623	-0,219	-0,329
-731,210	-86,132	0,221	0,049
-730,196	-200,000	-0,030	-0,104
-729,181	-200,000	-0,004	-0,014
-728,167	61,537	0,080	0,058
-727,152	-200,000	0,027	-0,212
-726,137	-99,771	-0,097	-0,017
-725,123	114,505	0,028	0,025
-724,108	70,094	-0,132	-0,099
-723,094	-200,000	-0,024	-0,111
-722,079	-200,000	-0,017	0,109
-721,064	379,049	-0,022	0,032
-720,050	142,566	0,063	0,061
-719,035	-25,296	0,042	0,018
-718,021	16,182	0,054	-0,031
-717,006	800,000	0,028	0,060
-715,991	-6,940	-0,086	-0,042
-714,977	-134,921	-0,135	-0,012
-713,962	217,748	-0,073	0,085
-712,948	257,250	-0,019	0,023
-711,933	-200,000	-0,039	0,139
-710,918	106,837	0,054	0,046
-709,904	-119,218	0,061	0,008
-708,889	-35,769	-0,080	-0,031
-707,875	207,445	-0,176	-0,200
-706,860	244,931	0,058	0,071
-705,845	322,137	0,008	0,011
-704,831	187,901	0,032	0,035
-703,816	-200,000	-0,022	0,074
-702,802	144,078	0,044	-0,043
-701,787	395,524	-0,101	0,154
-700,772	-200,000	0,016	-0,078
-699,758	148,745	-0,073	-0,072
-698,743	63,988	-0,089	0,065
-697,729	-16,544	0,134	0,061
-696,714	800,000	0,034	0,086
-695,699	800,000	-0,028	0,085
-694,685	-200,000	0,008	-0,034
-693,670	-20,455	-0,213	-0,095
-692,656	-200,000	0,049	-0,212
-691,641	-200,000	0,003	0,033
-690,627	75,132	-0,031	-0,024
-689,612	61,400	-0,041	0,029
-688,597	-200,000	0,018	0,138
-687,583	-106,136	-0,182	-0,029
-686,568	344,436	-0,038	-0,054
-685,554	26,042	-0,049	0,030
-684,539	275,504	0,043	0,055
-683,524	800,000	0,048	0,139
-682,510	-200,000	-0,015	0,060
-681,495	295,442	-0,128	-0,171
-680,481	-200,000	-0,030	-0,205
-679,466	-200,000	-0,001	-0,048
-678,451	-13,551	0,059	0,028
-677,437	800,000	-0,061	0,142
-676,422	800,000	-0,024	0,071
-675,408	-158,360	-0,049	0,002
-674,393	-200,000	0,027	-0,099
-673,378	-200,000	-0,010	-0,073
-672,364	156,021	-0,048	-0,048
-671,349	800,000	-0,023	-0,051
-670,335	-200,000	-0,016	0,154
-669,320	123,304	0,120	0,109
-668,305	-26,055	-0,153	0,065
-667,291	130,152	0,051	-0,047
-666,276	-200,000	-0,016	0,092
-665,262	623,455	-0,083	-0,152
-664,247	800,000	0,037	-0,074
-663,232	72,978	0,031	0,024
-662,218	800,000	-0,026	0,070
-661,203	800,000	0,024	0,077
-660,189	9,139	-0,041	0,022
-659,174	-33,204	-0,128	-0,051
-658,159	-85,301	-0,121	0,027
-657,145	42,418	0,047	0,031
-656,130	800,000	0,047	-0,095
-655,116	-59,345	0,107	0,033
-654,101	-32,542	0,064	0,026
-653,086	197,139	0,025	-0,027
-652,072	116,521	0,017	-0,015
-651,057	-200,000	0,002	-0,121
-650,043	89,141	-0,095	-0,077
-649,028	-67,744	-0,093	0,026
-648,014	-200,000	-0,034	0,128
-646,999	800,000	0,049	-0,101
-645,984	800,000	-0,023	-0,061
-644,970	800,000	0,081	-0,197
-643,955	800,000	-0,061	-0,151
-642,941	-35,192	0,094	-0,037
-641,926	-107,307	-0,023	-0,004
-640,911	-98,394	0,086	0,016
-639,897	-200,000	0,009	0,133
-638,882	233,909	0,029	-0,035
-637,868	-74,511	-0,148	0,038
-636,853	-200,000	0,010	-0,126
-635,838	-200,000	-0,053	-0,200
-634,824	-200,000	0,026	-0,108
-633,809	-200,000	0,001	-0,113
-632,795	-200,000	-0,026	-0,121
-631,780	800,000	0,033	0,092
-630,765	409,306	-0,034	0,052
-629,751	800,000	-0,091	-0,211
-628,736	113,219	-0,101	-0,089
-627,722	-0,666	-0,110	0,056
-626,707	113,594	0,119	0,105
-625,692	431,135	-0,045	-0,071
-624,678	800,000	-0,028	0,065
-623,663	30,118	0,063	-0,039
-622,649	-80,418	0,081	0,020
-621,634	-200,000	-0,036	-0,120
-620,619	-44,517	0,013	0,005
-619,605	-150,975	-0,071	0,004
-618,590	-47,855	0,079	0,028
-617,576	191,498	0,022	0,024
-616,561	-27,153	-0,078	-0,033
-615,546	-200,000	0,018	-0,148
-614,532	-1,973	-0,054	0,027
-613,517	23,838	-0,197	-0,117
-612,503	-66,611	-0,085	-0,024
-611,488	-68,807	-0,023	-0,006
-610,474	-99,180	0,042	0,008
-609,459	-52,124	0,045	0,015
-608,444	74,549	-0,037	-0,028
-607,430	-200,000	0,014	-0,056
-606,415	-85,622	-0,176	0,039
-605,401	90,643	0,034	0,028
-604,386	800,000	-0,030	0,081
-603,371	84,380	0,136	-0,108
-602,357	-200,000	-0,021	0,133
-601,342	-104,862	-0,086	-0,014
-600,328	-9,703	-0,059	-0,029
-599,313	-169,803	-0,057	0,001
-598,298	-43,487	0,088	-0,032
-597,284	-200,000	-0,035	0,141
-596,269	-200,000	0,007	0,036
-595,255	12,278	0,008	-0,004
-594,240	-89,187	0,060	-0,013
-593,225	-33,010	-0,080	0,032
-592,211	-118,497	0,061	0,008
-591,196	48,807	-0,080	0,054
-590,182	621,443	0,047	0,086
-589,167	397,723	0,077	0,116
-588,152	453,154	0,029	0,046
-587,138	441,876	-0,022	-0,035
-586,123	164,866	-0,081	-0,083
-585,109	-200,000	0,021	0,107
-584,094	-113,672	-0,076	-0,011
-583,079	122,577	0,071	0,065
-582,065	188,620	0,042	0,045
-581,050	104,680	0,058	0,049
-580,036	-200,000	0,002	-0,039
-579,021	273,965	0,025	0,032
-578,006	476,438	0,016	-0,027
-576,992	800,000	-0,008	0,023
-575,977	-200,000	0,020	-0,091
-574,963	-16,644	0,098	-0,045
-573,948	108,143	-0,156	0,134
-572,934	460,527	-0,046	0,075
-571,919	-200,000	0,006	-0,078
-570,904	251,823	0,049	0,061
-569,890	19,309	0,034	-0,020
-568,875	-139,012	0,104	0,008
-567,861	339,460	-0,043	0,060
-566,846	94,924	0,122	-0,100
-565,831	137,824	0,058	-0,054
-564,817	322,897	0,099	0,137
-563,802	800,000	0,056	-0,153
-562,788	7,050	-0,101	0,054
-561,773	-200,000	0,013	-0,134
-560,758	334,418	-0,035	0,050
-559,744	-200,000	-0,012	0,086
-558,729	-168,127	0,178	-0,005
-557,715	382,090	-0,059	0,088
-556,700	-135,286	-0,017	0,001
-555,685	118,741	-0,060	-0,054
-554,671	800,000	0,036	0,080
-553,656	199,610	0,065	-0,072
-552,642	-77,329	-0,054	0,013
-551,627	-182,578	-0,031	0,000
-550,612	-200,000	-0,015	0,174
-549,598	-92,416	-0,065	-0,013
-548,583	333,359	-0,051	-0,072
-547,569	-14,930	0,052	-0,024
-546,554	217,683	-0,081	0,093
-545,539	289,103	0,039	0,051
-544,525	59,769	-0,106	-0,076
-543,510	800,000	-0,017	-0,055
-542,496	132,800	-0,145	-0,135
-541,481	658,426	-0,143	-0,267
-540,466	30,552	0,086	-0,053
-539,452	-51,228	0,113	0,038
-538,437	-72,699	0,205	-0,054
-537,423	21,375	-0,076	0,044
-536,408	40,253	-0,017	-0,011
-535,393	-189,182	-0,074	0,001
-534,379	800,000	0,043	-0,105
-533,364	-183,999	0,314	-0,004
-532,350	-200,000	-0,006	-0,037
-531,335	55,479	-0,032	-0,022
-530,321	-64,303	0,086	-0,025
-529,306	11,404	-0,041	-0,023
-528,291	-159,542	-0,086	-0,003
-527,277	382,118	-0,071	-0,106
-526,262	-200,000	-0,017	-0,064
-525,248	-154,334	0,080	-0,004
-524,233	20,958	0,053	0,031
-523,218	224,901	0,109	0,128
-522,204	-38,437	0,157	0,060
-521,189	-200,000	0,001	-0,180
-520,175	477,965	-0,065	-0,107
-519,160	98,480	0,073	-0,061
-518,145	36,721	0,077	0,049
-517,131	-17,186	0,013	-0,006
-516,116	-89,501	0,094	0,020
-515,102	-45,887	-0,115	0,041
-514,087	-80,980	-0,107	0,025
-513,072	-200,000	0,028	0,125
-512,058	-95,159	0,021	0,004
-511,043	162,558	-0,053	-0,053
-510,029	538,835	0,075	0,130
-509,014	-145,006	0,076	0,005
-507,999	375,610	-0,065	0,096
-506,985	-200,000	-0,005	-0,042
-505,970	189,415	-0,071	-0,077
-504,956	800,000	0,019	-0,059
-503,941	217,491	-0,066	-0,076
-502,926	-24,769	0,036	-0,015
-501,912	305,670	-0,087	0,117
-500,897	-91,166	-0,045	-0,009
-499,883	800,000	0,050	-0,106
-498,868	113,662	-0,068	0,060
-497,853	194,273	-0,046	-0,050
-496,839	-9,255	-0,042	0,020
-495,824	141,124	-0,031	-0,030
-494,810	-113,837	0,133	-0,018
-493,795	-66,567	0,099	0,028
-492,781	-99,883	-0,095	0,017
-491,766	-56,185	0,052	0,017
-490,751	-200,000	0,004	0,041
-489,737	800,000	-0,061	-0,141
-488,722	-101,036	0,272	0,048
-487,708	-37,771	0,107	0,041
-486,693	86,248	-0,138	0,109
-485,678	-200,000	-0,005	-0,059
-484,664	29,999	-0,032	0,019
-483,649	139,012	0,046	0,043
-482,635	-26,954	0,017	0,007
-481,620	-5,117	0,027	-0,013
-480,605	-122,580	-0,091	0,011
-479,591	-14,654	-0,061	0,028
-478,576	-41,316	-0,032	-0,012
-477,562	-11,128	-0,048	-0,023
-476,547	228,175	-0,084	0,099
-475,532	146,119	-0,027	0,026
-474,518	800,000	0,018	-0,051
-473,503	-200,000	0,011	-0,100
-472,489	397,526	0,086	0,130
-471,474	-200,000	0,032	0,170
-470,459	244,349	-0,071	0,086
-469,445	155,698	-0,036	-0,035
-468,430	-200,000	0,019	-0,067
-467,416	447,032	0,082	0,131
-466,401	-102,016	-0,117	0,020
-465,386	-1,408	-0,087	-0,044
-464,372	-24,495	0,100	-0,043
-463,357	-200,000	-0,020	0,156
-462,343	-98,767	-0,046	0,008
-461,328	800,000	0,021	0,061
-460,313	-24,392	0,167	0,071
-459,299	-98,274	-0,151	-0,028
-458,284	122,187	0,078	0,070
-457,270	-62,068	-0,025	-0,008
-456,255	122,436	-0,025	0,023
-455,241	800,000	-0,023	-0,066
-454,226	-62,532	0,120	-0,036
-453,211	-200,000	0,009	-0,082
-452,197	73,181	0,084	-0,063
-451,182	473,213	-0,048	0,078
-450,168	-97,419	0,098	-0,018
-449,153	705,017	0,032	-0,060
-448,138	800,000	-0,031	-0,084
-447,124	800,000	0,071	-0,216
-446,109	594,632	-0,131	-0,234
-445,095	141,379	-0,089	-0,085
-444,080	198,893	-0,081	0,090
-443,065	-71,794	-0,090	0,024
-442,051	-200,000	0,007	0,114
-441,036	800,000	-0,053	0,136
-440,022	-144,569	0,088	-0,006
-439,007	314,917	-0,021	0,029
-437,992	-200,000	0,018	0,094
-436,978	-200,000	0,020	0,115
-435,963	55,668	-0,033	0,023
-434,949	-56,398	-0,117	0,037
-433,934	-128,925	0,039	0,004
-432,919	-147,423	-0,100	-0,006
-431,905	800,000	-0,018	0,056
-430,890	-200,000	0,024	0,159
-429,876	-178,698	0,022	-0,000
-428,861	50,393	-0,032	-0,022
-427,846	-139,364	0,029	0,002
-426,832	113,273	0,050	0,044
-425,817	-89,542	-0,171	-0,036
-424,803	313,460	-0,062	-0,084
-423,788	-16,229	0,164	0,074
-422,773	203,280	0,057	0,064
-421,759	293,350	0,085	0,111
-420,744	357,196	-0,049	0,071
-419,730	-200,000	0,019	-0,062
-418,715	47,722	-0,045	-0,030
-417,701	206,163	0,030	-0,033
-416,686	18,296	0,094	-0,054
-415,671	-200,000	0,029	0,091
-414,657	800,000	0,027	0,057
-413,642	-200,000	0,026	-0,157
-412,628	79,712	-0,118	-0,091
-411,613	-200,000	-0,001	-0,094
-410,598	211,539	0,027	0,030
-409,584	-200,000	-0,015	0,050
-408,569	361,403	-0,014	0,021
-407,555	800,000	0,016	0,033
-406,540	-141,537	0,036	0,003
-405,525	269,921	-0,067	0,084
-404,511	800,000	-0,014	-0,035
-403,496	135,966	-0,052	-0,049
-402,482	-45,035	0,058	-0,021
-401,467	564,497	0,019	0,034
-400,452	102,519	0,079	0,066
-399,438	18,510	0,061	-0,035
-398,423	300,237	-0,057	0,076
-397,409	-92,796	0,022	0,004
-396,394	335,868	0,054	0,076
-395,379	344,806	-0,052	0,073
-394,365	113,711	0,121	0,105
-393,350	19,744	0,151	-0,087
-392,336	-29,713	0,093	0,038
-391,321	144,039	-0,030	0,028
-390,306	58,701	0,125	-0,088
-389,292	-200,000	0,005	-0,177
-388,277	-200,000	0,021	-0,074
-387,263	-200,000	-0,014	-0,057
-386,248	314,414	0,051	0,069
-385,233	168,143	0,099	0,101
-384,219	-76,165	0,125	-0,031
-383,204	-63,794	-0,064	-0,019
-382,190	771,558	-0,059	-0,115
-381,175	203,417	-0,082	-0,091
-380,160	-200,000	-0,015	-0,195
-379,146	97,993	0,038	-0,031
-378,131	-67,498	0,099	0,028
-377,117	99,794	0,045	-0,037
-376,102	800,000	0,054	-0,147
-375,088	10,651	-0,056	-0,031
-374,073	282,698	-0,079	0,101
-373,058	-169,392	-0,051	-0,001
-372,044	467,759	0,021	-0,034
-371,029	-154,123	0,060	0,003
-370,015	-200,000	0,013	0,081
-369,000	-200,000	0,003	-0,126
-367,985	94,621	-0,144	0,117
-366,971	-200,000	0,013	0,096
-365,956	-136,837	0,095	-0,008
-364,942	20,288	-0,022	-0,013
-363,927	-200,000	0,029	0,218
-362,912	-200,000	-0,000	0,038
-361,898	-22,047	0,096	-0,042
-360,883	-200,000	0,005	-0,189
-359,869	253,001	0,021	0,026
-358,854	800,000	0,057	-0,144
-357,839	-95,847	0,083	-0,016
-356,825	99,185	-0,056	-0,046
-355,810	166,161	0,108	-0,109
-354,796	-14,764	-0,156	-0,072
-353,781	-89,079	-0,146	-0,031
-352,766	45,655	-0,049	-0,032
-351,752	-200,000	0,002	0,044
-350,737	104,184	0,091	0,077
-349,723	-53,164	0,124	-0,040
-348,708	253,219	0,047	-0,057
-347,693	109,054	-0,004	0,004
-346,679	-200,000	0,001	-0,086
-345,664	197,903	0,043	-0,047
-344,650	-104,868	-0,125	-0,020
-343,635	-200,000	0,012	0,042
-342,620	251,659	0,037	0,045
-341,606	-200,000	0,009	0,131
-340,591	169,670	-0,067	-0,068
-339,577	-78,500	-0,053	-0,013
-338,562	-200,000	-0,002	0,029
-337,548	-85,458	0,084	-0,019
-336,533	800,000	0,050	0,114
-335,518	800,000	0,048	0,110
-334,504	47,585	0,083	0,055
-333,489	-88,766	-0,120	-0,025
-332,475	0,895	-0,063	-0,032
-331,460	-200,000	-0,003	-0,150
-330,445	-200,000	-0,002	0,149
-329,431	-200,000	-0,013	0,054
-328,416	-200,000	-0,007	0,096
-327,402	434,125	-0,041	0,065
-326,387	-200,000	-0,008	0,034
-325,372	202,511	0,062	-0,069
-324,358	591,309	-0,069	0,123
-323,343	-45,823	0,056	-0,020
-322,329	-200,000	0,020	0,098
-321,314	800,000	0,040	-0,080
-320,299	7,923	0,032	-0,017
-319,285	25,692	0,101	0,060
-318,270	-200,000	-0,015	-0,082
-317,256	800,000	-0,014	-0,037
-316,241	12,146	0,110	0,060
-315,226	34,945	-0,085	0,053
-314,212	645,784	0,022	-0,040
-313,197	-200,000	0,007	0,072
-312,183	-34,434	0,081	-0,032
-311,168	411,456	0,058	-0,088
-310,153	-39,431	-0,112	-0,042
-309,139	107,132	-0,077	-0,066
-308,124	33,388	0,075	-0,047
-307,110	800,000	-0,071	0,177
-306,095	800,000	0,030	0,088
-305,080	800,000	-0,041	-0,081
-304,066	701,475	-0,049	0,092
-303,051	800,000	0,008	0,025
-302,037	466,569	-0,095	-0,153
-301,022	200,860	-0,089	-0,098
-300,008	-137,715	0,118	0,009
-298,993	381,006	-0,032	0,047
-297,978	-200,000	-0,019	0,126
-296,964	-168,226	0,081	-0,002
-295,949	-90,650	-0,115	0,024
-294,935	-159,273	-0,086	-0,003
-293,920	185,238	-0,129	0,137
-292,905	-150,603	-0,017	-0,001
-291,891	-200,000	-0,022	0,114
-290,876	29,561	-0,056	-0,034
-289,862	94,475	-0,164	-0,133
-288,847	-44,554	-0,103	-0,037
-287,832	-105,536	-0,109	0,017
-286,818	594,686	0,127	-0,226
-285,803	87,461	-0,047	-0,037
-284,789	800,000	0,036	0,080
-283,774	238,633	-0,132	0,157
-282,759	-142,085	-0,021	-0,001
-281,745	311,933	-0,037	0,049
-280,730	190,303	-0,065	-0,069
-279,716	161,561	0,023	0,023
-278,701	-74,641	-0,067	-0,017
-277,686	389,815	0,083	-0,123
-276,672	-154,385	0,150	-0,007
-275,657	800,000	0,020	0,043
-274,643	16,794	-0,080	-0,045
-273,628	-73,983	-0,078	-0,020
-272,613	800,000	-0,050	-0,135
-271,599	-56,309	0,071	0,023
-270,584	-18,527	0,062	0,028
-269,570	167,381	0,075	-0,076
-268,555	800,000	-0,058	-0,126
-267,540	-200,000	-0,027	0,085
-266,526	-81,049	0,088	0,021
-265,511	119,368	-0,071	-0,062
-264,497	-200,000	0,021	-0,120
-263,482	-103,630	-0,016	-0,003
-262,467	-200,000	-0,006	-0,032
-261,453	34,108	0,057	0,035
-260,438	224,288	-0,093	-0,108
-259,424	-200,000	-0,016	0,104
-258,409	-88,747	-0,126	-0,027
-257,395	-200,000	0,011	0,073
-256,380	-200,000	0,010	0,196
-255,365	180,123	0,077	0,081
-254,351	-200,000	-0,039	-0,128
-253,336	-105,707	0,011	0,002
-252,322	-200,000	-0,013	-0,181
-251,307	114,700	-0,095	-0,082
-250,292	-41,868	-0,057	-0,021
-249,278	800,000	0,033	0,068
-248,263	150,646	0,103	-0,100
-247,249	328,127	-0,006	-0,008
-246,234	370,468	0,033	-0,047
-245,219	-200,000	-0,034	-0,121
-244,205	-35,927	-0,095	-0,036
-243,190	5,614	0,070	-0,037
-242,176	800,000	-0,033	0,067
-241,161	103,230	-0,044	0,037
-240,146	164,439	0,027	0,027
-239,132	-200,000	-0,006	0,026
-238,117	25,827	-0,104	-0,062
-237,103	151,470	0,042	0,041
-236,088	94,823	0,068	-0,055
-235,073	-21,943	0,041	0,018
-234,059	28,899	0,120	0,072
-233,044	-64,418	-0,082	0,024
-232,030	-200,000	0,044	0,181
-231,015	132,980	-0,034	-0,032
-230,000	800,000	0,025	-0,066
-228,986	-200,000	0,038	0,139
-227,971	243,314	0,039	-0,047
-226,957	0,946	0,160	0,082
-225,942	166,742	-0,141	0,143
-224,927	-46,026	-0,031	0,011
-223,913	25,879	0,109	0,065
-222,898	-119,219	-0,157	0,019
-221,884	-70,766	-0,023	-0,006
-220,869	-150,082	0,127	-0,007
-219,855	-17,264	0,088	0,039
-218,840	800,000	-0,026	-0,073
-217,825	33,853	-0,075	0,046
-216,811	-200,000	-0,151	-0,000
-215,796	-200,000	0,013	0,187
-214,782	179,235	0,097	0,101
-213,767	-200,000	-0,015	0,049
-212,752	-100,217	0,186	0,033
-211,738	-108,904	-0,098	-0,015
-210,723	-44,393	0,074	-0,026
-209,709	18,750	-0,119	-0,068
-208,694	-200,000	0,006	0,073
-207,679	-45,319	-0,153	0,054
-206,665	349,695	-0,022	0,031
-205,650	-166,989	0,222	0,006
-204,636	-200,000	0,001	-0,107
-203,621	-200,000	0,001	0,103
-202,606	171,712	-0,131	-0,134
-201,592	481,732	-0,042	0,068
-200,577	-52,595	0,067	-0,022
-199,563	53,838	0,021	0,015
-198,548	-200,000	-0,002	0,009
-197,533	35,002	-0,042	0,026
-196,519	81,902	-0,069	0,053
-195,504	-200,000	-0,028	0,103
-194,490	-143,588	-0,159	-0,011
-193,475	-200,000	-0,013	-0,105
-192,460	295,941	0,067	-0,087
-191,446	-155,690	0,100	0,004
-190,431	800,000	0,056	0,154
-189,417	-200,000	-0,015	-0,095
-188,402	0,766	-0,041	0,021
-187,387	140,300	-0,060	0,056
-186,373	-162,449	-0,205	0,007
-185,358	-114,675	-0,094	0,013
-184,344	-200,000	-0,014	-0,087
-183,329	202,974	-0,026	-0,029
-182,315	800,000	0,028	0,077
-181,300	800,000	-0,035	0,094
-180,285	-83,303	0,174	-0,039
-179,271	800,000	-0,043	0,113
-178,256	-107,827	-0,204	-0,031
-177,242	70,139	0,105	0,077
-176,227	-7,875	0,176	0,084
-175,212	-122,660	0,048	0,005
-174,198	340,454	-0,085	0,119
-173,183	800,000	0,025	0,050
-172,169	-17,961	-0,073	-0,033
-171,154	-12,574	0,060	0,028
-170,139	-200,000	-0,000	0,109
-169,125	-122,219	0,125	0,014
-168,110	-25,260	-0,048	-0,020
-167,096	-31,994	0,074	-0,029
-166,081	-93,393	0,118	-0,023
-165,066	-200,000	-0,028	-0,115
-164,052	548,434	-0,068	0,117
-163,037	-200,000	-0,002	-0,081
-162,023	-157,862	0,281	0,012
-161,008	-18,970	0,091	0,040
-159,993	-100,303	-0,095	0,017
-158,979	-51,944	-0,044	-0,015
-157,964	800,000	0,064	-0,171
-156,950	-168,209	-0,054	-0,001
-155,935	-135,461	-0,096	-0,008
-154,920	77,712	0,120	0,091
-153,906	800,000	-0,019	-0,043
-152,891	89,208	0,030	-0,024
-151,877	157,027	-0,095	0,094
-150,862	273,070	-0,025	-0,031
-149,847	-200,000	0,044	-0,211
-148,833	51,850	-0,095	-0,064
-147,818	252,692	0,016	0,020
-146,804	47,879	0,105	-0,070
-145,789	800,000	-0,058	-0,116
-144,775	-200,000	0,013	0,051
-143,760	800,000	-0,043	-0,113
-142,745	-200,000	-0,022	-0,079
-141,731	39,049	0,066	-0,042
-140,716	189,835	0,048	0,051
-139,702	433,284	0,035	-0,054
-138,687	-200,000	0,035	0,199
-137,672	-200,000	0,020	0,115
-136,658	388,099	0,065	0,096
-135,643	10,423	-0,070	0,038
-134,629	-47,481	0,059	-0,020
-133,614	145,043	0,049	-0,046
-132,599	35,740	-0,115	-0,072
-131,585	-200,000	0,015	0,133
-130,570	-200,000	0,001	-0,006
-129,556	-200,000	-0,004	0,028
-128,541	9,508	0,100	-0,053
-127,526	222,905	0,092	0,106
-126,512	-200,000	-0,017	-0,063
-125,497	-116,906	0,071	0,009
-124,483	214,149	0,043	-0,048
-123,468	669,107	0,046	-0,085
-122,453	33,296	-0,053	-0,032
-121,439	750,903	-0,006	-0,012
-120,424	-200,000	0,013	0,079
-119,410	10,407	-0,183	-0,099
-118,395	395,185	-0,019	-0,028
-117,380	-112,906	-0,087	-0,012
-116,366	38,208	0,106	-0,067
-115,351	800,000	-0,046	0,131
-114,337	-77,615	-0,060	-0,015
-113,322	-42,612	0,030	0,011
-112,307	88,118	0,051	0,040
-111,293	202,183	0,061	0,066
-110,278	-200,000	-0,012	-0,042
-109,264	800,000	0,013	0,026
-108,249	-104,225	-0,074	-0,012
-107,234	369,200	-0,006	0,009
-106,220	800,000	0,039	-0,084
-105,205	222,644	-0,072	-0,083
-104,191	-123,617	-0,129	-0,014
-103,176	-54,364	0,170	0,054
-102,162	-8,497	-0,065	-0,031
-101,147	49,326	-0,103	0,069
-100,132	800,000	-0,046	0,121
-99,118	394,660	-0,082	0,121
-98,103	800,000	0,037	-0,100
-97,089	2,893	0,024	0,012
-96,074	-200,000	0,008	0,124
-95,059	130,119	0,035	0,032
-94,045	228,350	-0,059	0,068
-93,030	800,000	-0,009	0,027
-92,016	-200,000	0,014	0,087
-91,001	-200,000	0,008	0,130
-89,986	126,270	0,047	0,042
-88,972	-38,372	-0,020	0,007
-87,957	800,000	0,006	-0,015
-86,943	800,000	-0,036	-0,094
-85,928	10,220	-0,133	-0,072
-84,913	-200,000	0,001	-0,049
-83,899	-200,000	-0,008	0,084
-82,884	-200,000	0,005	0,113
-81,870	-200,000	-0,027	-0,089
-80,855	135,265	0,051	0,047
-79,840	-99,539	-0,076	-0,013
-78,826	-200,000	0,042	0,208
-77,811	478,816	-0,114	-0,184
-76,797	-200,000	0,011	-0,072
-75,782	149,028	0,091	0,087
-74,767	-200,000	0,015	0,171
-73,753	289,518	0,045	0,058
-72,738	-200,000	0,005	0,095
-71,724	695,293	0,036	-0,067
-70,709	27,847	-0,038	0,023
-69,694	800,000	-0,038	-0,118
-68,680	151,038	0,104	-0,100
-67,665	800,000	0,048	0,135
-66,651	113,593	0,062	-0,053
-65,636	-41,166	0,080	0,029
-64,622	102,668	0,091	0,076
-63,607	-200,000	0,010	0,043
-62,592	-52,986	-0,043	0,014
-61,578	186,707	0,074	0,078
-60,563	378,302	0,043	0,063
-59,549	-200,000	0,060	0,212
-58,534	-48,033	-1,550	-0,528
-57,519	380,811	-1,558	-2,271
-56,505	-200,000	-0,353	-4,394
-55,490	255,571	0,788	0,959
-54,476	800,000	4,844	11,352
-53,461	-200,000	17,987	286,421
-52,446	800,000	723,793	2227,806
-51,432	559,013	1638,198	2810,906
-50,417	79,918	1661,279	1262,963
-49,403	23,176	1535,044	890,171
-48,388	17,093	1458,615	816,476
-47,373	17,964	1448,477	814,951
-46,359	17,432	1438,831	806,956
-45,344	15,386	1434,222	794,601
-44,330	15,300	1432,429	793,166
-43,315	15,295	1430,831	792,227
-42,300	15,337	1428,923	791,337
-41,286	15,404	1427,795	790,999
-40,271	15,412	1426,463	790,266
-39,257	15,298	1425,610	789,226
-38,242	15,398	1424,102	788,831
-37,227	15,436	1422,703	788,204
-36,213	15,384	1421,543	787,284
-35,198	15,327	1420,650	786,490
-34,184	15,385	1419,469	786,076
-33,169	15,325	1418,290	785,112
-32,154	15,354	1417,218	784,622
-31,140	15,377	1415,906	783,975
-30,125	15,406	1414,766	783,450
-29,111	15,404	1413,508	782,711
-28,096	15,342	1412,400	781,775
-27,082	15,292	1411,430	780,975
-26,067	15,288	1410,151	780,217
-25,052	15,300	1409,180	779,705
-24,038	15,241	1408,482	779,009
-23,023	15,254	1407,319	778,399
-22,009	15,289	1406,202	777,913
-20,994	15,233	1405,477	777,219
-19,979	15,267	1404,274	776,680
-18,965	15,245	1403,208	775,956
-17,950	15,254	1402,198	775,412
-16,936	15,197	1401,550	774,757
-15,921	15,162	1400,321	773,885
-14,906	15,195	1399,345	773,468
-13,892	15,242	1398,458	773,162
-12,877	15,216	1397,628	772,556
-11,863	15,191	1396,805	771,953
-10,848	15,214	1395,760	771,449
-9,833	15,123	1394,891	770,517
-8,819	15,135	1393,992	770,048
-7,804	15,113	1392,922	769,323
-6,790	15,085	1391,945	768,625
-5,775	15,099	1391,065	768,171
-4,760	15,113	1390,075	767,662
-3,746	15,094	1389,528	767,238
-2,731	15,086	1388,543	766,630
-1,717	15,106	1387,583	766,160
-0,702	15,082	1385,630	764,940
0,313	18,962	1305,879	738,805
1,327	35,365	706,565	437,724
2,342	54,446	124,828	84,967
3,356	6,283	16,385	8,576
4,371	7,169	3,028	1,594
5,386	-17,790	0,502	0,222
6,400	-200,000	-0,004	0,100
7,415	113,826	-0,235	-0,202
8,429	82,427	-0,333	-0,256
9,444	128,306	-0,261	-0,235
10,459	56,847	-0,222	-0,153
11,473	9,762	-0,313	-0,167
12,488	-111,388	-0,337	-0,048
13,502	-25,938	-0,411	-0,170
14,517	-3,948	-0,409	-0,200
15,531	149,378	-0,293	-0,280
16,546	-4,245	-0,415	-0,202
17,561	64,370	-0,370	-0,263
18,575	135,744	-0,181	-0,167
19,590	228,813	-0,195	-0,225
20,604	-16,572	-0,323	-0,144
21,619	-13,432	-0,483	-0,220
22,634	75,465	-0,465	-0,346
23,648	110,855	-0,340	-0,289
24,663	22,211	-0,502	-0,289
25,677	161,900	-0,226	-0,224
26,692	71,683	-0,340	-0,249
27,707	49,351	-0,427	-0,283
28,721	3,435	-0,402	-0,206
29,736	13,506	-0,391	-0,213
30,750	159,909	-0,305	-0,300
31,765	162,223	-0,275	-0,273
32,780	80,046	-0,410	-0,311
33,794	180,169	-0,241	-0,250
34,809	177,946	-0,320	-0,330
35,823	71,949	-0,348	-0,255
36,838	145,496	-0,314	-0,296
37,853	2,478	-0,427	-0,218
38,867	248,138	-0,326	-0,390
39,882	200,726	-0,249	-0,270
40,896	86,974	-0,281	-0,219
41,911	-35,169	-0,232	-0,089
42,926	97,258	-0,341	-0,276
43,940	44,446	-0,353	-0,228
44,955	200,853	-0,338	-0,367
45,969	-2,756	-0,319	-0,157
46,984	-21,140	-0,371	-0,159
47,999	-39,885	-0,390	-0,143
49,013	6,230	-0,371	-0,194
50,028	-60,106	-0,396	-0,118
51,042	131,933	-0,312	-0,283
52,057	69,126	-0,365	-0,264
53,071	173,380	-0,289	-0,294
54,086	66,059	-0,298	-0,212
55,101	219,863	-0,278	-0,314
56,115	166,612	-0,283	-0,283
57,130	1,779	-0,370	-0,187
58,144	52,522	-0,300	-0,202
59,159	80,271	-0,359	-0,272
60,174	77,548	-0,389	-0,292
61,188	-42,918	-0,369	-0,131
62,203	42,243	-0,436	-0,278
63,217	139,901	-0,210	-0,195
64,232	-85,131	-0,369	-0,080
65,247	44,565	-0,468	-0,302
66,261	46,899	-0,435	-0,284
67,276	-20,203	-0,468	-0,202
68,290	-19,625	-0,387	-0,168
69,305	22,760	-0,322	-0,185
70,320	70,323	-0,247	-0,179
71,334	-150,895	-0,345	-0,018
72,349	168,203	-0,258	-0,259
73,363	186,122	-0,280	-0,293
74,378	131,681	-0,304	-0,275
75,393	76,409	-0,306	-0,228
76,407	130,892	-0,286	-0,258
77,422	-61,409	-0,352	-0,103
78,436	-3,259	-0,313	-0,153
79,451	135,826	-0,313	-0,286
80,466	59,964	-0,259	-0,180
81,480	258,981	-0,200	-0,243
82,495	91,312	-0,294	-0,232
83,509	105,720	-0,288	-0,239
84,524	-44,229	-0,354	-0,124
85,539	-47,587	-0,362	-0,123
86,553	125,954	-0,123	-0,109
87,568	-13,023	-0,349	-0,159
88,582	-9,515	-0,305	-0,143
89,597	-100,175	-0,265	-0,046
90,611	145,264	-0,284	-0,267
91,626	399,717	-0,165	-0,243
92,641	-45,203	-0,198	-0,069
93,655	51,143	-0,350	-0,233
94,670	33,241	-0,317	-0,193
95,684	72,153	-0,438	-0,320
96,699	91,408	-0,210	-0,166
97,714	477,062	-0,191	-0,304
98,728	-15,649	-0,259	-0,115
99,743	34,239	-0,141	-0,086
100,757	244,616	-0,176	-0,208
101,772	476,697	-0,178	-0,284
102,787	58,412	-0,302	-0,208
103,801	67,496	-0,327	-0,234
104,816	2,502	-0,265	-0,134
105,830	66,813	-0,198	-0,141
106,845	-43,728	-0,357	-0,125
107,860	-87,384	-0,190	-0,040
108,874	-7,897	-0,238	-0,112
109,889	-20,979	-0,357	-0,152
110,903	61,330	-0,293	-0,204
111,918	176,400	-0,264	-0,270
112,933	208,757	-0,197	-0,217
113,947	-120,857	-0,080	0,009
114,962	-13,570	-0,237	-0,107
115,976	37,281	-0,195	-0,121
116,991	71,779	-0,331	-0,241
118,006	104,488	-0,286	-0,235
119,020	45,116	-0,401	-0,258
120,035	97,219	-0,250	-0,201
121,049	158,189	-0,244	-0,237
122,064	285,734	-0,208	-0,263
123,079	285,083	-0,252	-0,318
124,093	267,834	-0,323	-0,396
125,108	16,295	-0,172	-0,095
126,122	436,072	-0,247	-0,378
127,137	435,607	-0,174	-0,266
128,151	75,734	-0,225	-0,167
129,166	153,269	-0,182	-0,174
130,181	108,242	-0,214	-0,179
131,195	51,761	-0,267	-0,177
132,210	18,080	-0,236	-0,131
133,224	9,303	-0,229	-0,121
134,239	80,581	-0,158	-0,119
135,254	-124,690	-0,228	-0,024
136,268	71,907	-0,196	-0,142
137,283	150,840	-0,208	-0,198
138,297	-15,438	-0,223	-0,099
139,312	-67,575	-0,290	-0,079
140,327	226,696	-0,241	-0,274
141,341	-57,306	-0,197	-0,060
142,356	197,326	-0,213	-0,228
143,370	57,197	-0,177	-0,120
144,385	30,876	-0,226	-0,135
145,400	233,311	-0,300	-0,345
146,414	59,083	-0,346	-0,237
147,429	59,159	-0,222	-0,153
148,443	-77,873	-0,270	-0,064
149,458	-4,060	-0,270	-0,130
150,473	-93,477	-0,234	0,045
151,487	-28,774	-0,353	-0,141
152,502	-73,643	-0,333	-0,084
153,516	23,358	-0,331	-0,190
154,531	410,979	-0,154	-0,229
155,546	52,724	-0,227	-0,151
156,560	-200,000	-0,044	-0,174
157,575	253,991	-0,204	-0,243
158,589	347,442	-0,209	-0,287
159,604	5,418	-0,289	-0,148
160,619	-102,172	-0,165	0,027
161,633	107,147	-0,262	-0,218
162,648	143,689	-0,245	-0,228
163,662	129,914	-0,240	-0,214
164,677	349,488	-0,112	-0,155
165,692	-152,808	-0,181	-0,009
166,706	81,474	-0,149	-0,112
167,721	413,969	-0,189	-0,281
168,735	134,658	-0,194	-0,175
169,750	-2,315	-0,192	-0,094
170,764	501,516	-0,107	-0,173
171,779	140,257	-0,328	-0,302
172,794	-200,000	0,005	0,116
173,808	188,408	-0,189	-0,197
174,823	800,000	-0,074	-0,170
175,837	117,434	-0,311	-0,266
176,852	100,904	-0,291	-0,236
177,867	221,405	-0,197	-0,220
178,881	-200,000	-0,024	-0,172
179,896	232,420	-0,121	-0,139
180,910	-34,807	-0,165	-0,062
181,925	298,233	-0,200	-0,256
182,940	15,743	-0,314	-0,171
183,954	-19,423	-0,175	-0,075
184,969	14,135	-0,250	-0,135
185,983	26,149	-0,231	-0,134
186,998	39,992	-0,180	-0,113
188,013	363,956	-0,136	-0,191
189,027	240,547	-0,210	-0,244
190,042	33,544	-0,337	-0,203
191,056	92,804	-0,325	-0,256
192,071	800,000	-0,097	-0,212
193,086	-5,814	-0,117	-0,056
194,100	306,002	-0,125	-0,163
195,115	39,894	-0,296	-0,184
196,129	194,027	-0,156	-0,165
197,144	104,444	-0,074	-0,060
198,159	93,271	-0,253	-0,199
199,173	139,050	-0,227	-0,208
200,188	-200,000	-0,063	-0,211
201,202	-200,000	-0,100	-0,309
202,217	96,754	-0,216	-0,172
203,232	232,127	-0,172	-0,196
204,246	3,695	-0,222	-0,112
205,261	-4,624	-0,260	-0,124
206,275	-168,582	-0,198	-0,005
207,290	-61,562	-0,248	-0,072
208,304	341,732	-0,142	-0,194
209,319	753,717	-0,146	-0,276
210,334	800,000	-0,108	-0,211
211,348	21,759	-0,152	-0,086
212,363	310,028	-0,176	-0,229
213,377	44,362	-0,214	-0,136
214,392	7,182	-0,106	-0,055
215,407	109,268	-0,167	-0,138
216,421	17,452	-0,186	-0,102
217,436	-33,505	-0,104	-0,040
218,450	102,221	-0,211	-0,171
219,465	139,468	-0,224	-0,205
220,480	51,347	-0,277	-0,182
221,494	-17,625	-0,246	-0,107
222,509	20,077	-0,229	-0,128
223,523	378,354	-0,109	-0,156
224,538	-78,629	-0,131	0,031
225,553	394,300	-0,137	-0,199
226,567	85,045	-0,282	-0,214
227,582	214,044	-0,212	-0,233
228,596	297,398	-0,144	-0,183
229,611	49,862	-0,152	-0,099
230,626	-10,306	-0,233	-0,107
231,640	800,000	-0,062	-0,132
232,655	67,759	-0,210	-0,149
233,669	-34,374	-0,204	-0,077
234,684	227,612	-0,235	-0,266
235,699	92,103	-0,147	-0,114
236,713	396,275	-0,120	-0,174
237,728	800,000	-0,069	-0,166
238,742	-200,000	-0,038	-0,325
239,757	234,982	-0,165	-0,189
240,772	225,332	-0,253	-0,284
241,786	156,416	-0,240	-0,230
242,801	80,086	-0,266	-0,198
243,815	422,647	-0,102	-0,153
244,830	-200,000	-0,012	-0,112
245,844	32,010	-0,104	0,062
246,859	-34,470	-0,237	-0,089
247,874	116,698	-0,260	-0,221
248,888	98,782	-0,286	-0,229
249,903	38,930	-0,214	-0,132
250,917	800,000	-0,067	-0,161
251,932	287,718	-0,194	-0,243
252,947	-97,198	-0,239	-0,043
253,961	80,338	-0,225	-0,168
254,976	266,386	-0,190	-0,231
255,990	138,456	-0,189	-0,172
257,005	316,532	-0,102	-0,134
258,020	200,743	-0,194	-0,206
259,034	-33,529	-0,153	-0,058
260,049	42,546	-0,195	-0,123
261,063	259,496	-0,162	-0,194
262,078	800,000	-0,099	-0,191
263,093	293,623	-0,258	-0,326
264,107	178,652	-0,073	-0,073
265,122	89,596	-0,107	-0,083
266,136	28,323	-0,212	-0,124
267,151	454,515	-0,068	-0,105
268,166	27,540	-0,190	-0,110
269,180	-23,097	-0,135	-0,056
270,195	138,925	-0,171	-0,155
271,209	245,646	-0,139	-0,162
272,224	90,814	-0,138	-0,107
273,239	-3,833	-0,160	-0,077
274,253	196,817	-0,104	-0,110
275,268	85,167	-0,277	-0,210
276,282	35,552	-0,312	-0,189
277,297	69,458	-0,168	-0,119
278,312	111,554	-0,113	-0,094
279,326	443,358	-0,112	-0,171
280,341	117,836	-0,111	-0,094
281,355	165,934	-0,116	-0,114
282,370	-34,005	-0,062	-0,023
283,384	124,113	-0,243	-0,211
284,399	216,773	-0,179	-0,197
285,414	-90,468	-0,194	-0,038
286,428	414,893	-0,060	-0,088
287,443	77,789	-0,059	-0,044
288,457	-165,941	-0,217	-0,006
289,472	340,580	-0,161	-0,217
290,487	800,000	-0,091	-0,226
291,501	85,042	-0,233	-0,176
292,516	-10,996	-0,198	-0,090
293,530	-161,074	-0,187	-0,007
294,545	-105,296	-0,081	0,013
295,560	-41,673	-0,089	-0,031
296,574	3,562	-0,187	-0,094
297,589	-67,654	-0,148	-0,040
298,603	-34,605	-0,270	-0,102
299,618	62,503	-0,265	-0,182
300,633	265,895	-0,152	-0,183
301,647	0,793	-0,200	-0,099
302,662	800,000	-0,031	0,082
303,676	237,141	-0,051	-0,059
304,691	-200,000	-0,012	-0,107
305,706	-200,000	-0,046	-0,189
306,720	378,266	-0,199	-0,281
307,735	-26,747	-0,129	-0,052
308,749	-73,938	-0,159	-0,040
309,764	204,363	-0,045	-0,048
310,779	96,261	-0,197	-0,155
311,793	-41,256	-0,201	-0,071
312,808	132,965	-0,184	-0,163
313,822	396,922	-0,128	-0,185
314,837	735,078	-0,100	-0,184
315,852	190,345	-0,086	-0,089
316,866	103,967	-0,159	-0,128
317,881	-200,000	-0,131	0,000
318,895	-28,193	-0,120	-0,047
319,910	-27,597	-0,227	-0,090
320,925	800,000	-0,134	-0,264
321,939	477,573	-0,152	-0,237
322,954	21,761	-0,173	-0,097
323,968	98,649	-0,128	-0,102
324,983	-200,000	-0,014	-0,057
325,997	117,258	-0,139	-0,118
327,012	658,837	-0,120	-0,214
328,027	31,043	-0,156	-0,092
329,041	30,443	-0,176	-0,103
330,056	-71,663	-0,149	-0,038
331,070	-46,545	-0,128	0,043
332,085	-140,120	-0,157	-0,011
333,100	113,145	-0,186	-0,155
334,114	-48,357	-0,208	-0,068
335,129	-89,927	-0,200	-0,040
336,143	389,428	-0,076	-0,108
337,158	154,362	-0,152	-0,144
338,173	-52,552	0,054	0,017
339,187	-65,944	-0,136	0,037
340,202	53,957	-0,206	-0,136
341,216	-51,013	-0,159	0,051
342,231	-60,340	-0,208	-0,060
343,246	800,000	-0,038	-0,078
344,260	41,789	-0,069	-0,043
345,275	-59,036	-0,169	-0,050
346,289	-200,000	-0,043	-0,142
347,304	-87,290	-0,105	-0,022
348,319	-6,838	-0,129	-0,060
349,333	622,176	-0,125	-0,217
350,348	9,925	-0,113	-0,058
351,362	213,492	-0,126	-0,137
352,377	-113,352	-0,141	-0,019
353,392	-46,379	-0,207	-0,069
354,406	-24,669	-0,154	0,062
355,421	208,236	1314,451	1411,291
356,435	160,214	1475,187	1411,804
