DTS Sentinel unit serial number:	SN410029Multiplexer serial number:	ORYXHardware model number:	OX2-SRSoftware version number:	ORYX F/W v4,00 Oryx Data Collector v3.7.2.0data status	okinstallation	B3 Nyhavnadifferential loss correction	single-endedforward channel	channel 1reverse channel	N/Adate	2023/11/29time	11:52:30forward acquisition time	300,00reverse acquisition time	0,00gamma	499,1914k internal	0,3212k external	0,3212temperature offset calibration	1,0000default loss term (dB/km)	0,3820temperature slope calibration	1,0000multiplexer offset coefficient	1,0000multiplexer slope coefficient	1,0000fibre end	0,00T internal ref (°C)	9,64T ext. ref 1 (°C)	-5,08T ext. ref 2 (°C)	-5,21length (m)	temperature (°C)	Stokes	anti-Stokes-744,400	208,384	-0,199	-0,226
-743,385	-200,000	0,060	0,250
-742,371	800,000	-0,082	-0,191
-741,356	-200,000	0,101	0,398
-740,342	226,878	-0,138	-0,163
-739,327	85,892	0,156	0,124
-738,312	66,796	-0,268	-0,198
-737,298	-200,000	0,019	0,258
-736,283	83,567	-0,134	-0,106
-735,269	-200,000	0,036	0,367
-734,254	57,591	-0,226	-0,160
-733,239	-168,323	-0,275	0,008
-732,225	800,000	-0,093	-0,191
-731,210	800,000	0,042	0,099
-730,196	224,392	-0,071	0,084
-729,181	125,966	0,062	0,057
-728,167	358,464	-0,028	-0,040
-727,152	41,313	-0,142	0,093
-726,137	74,772	-0,050	0,038
-725,123	-200,000	0,009	-0,041
-724,108	800,000	0,050	-0,107
-723,094	578,348	-0,098	-0,174
-722,079	214,860	-0,071	-0,081
-721,064	260,478	0,064	-0,080
-720,050	146,771	-0,033	-0,032
-719,035	280,052	0,032	0,042
-718,021	-63,891	-0,034	0,010
-717,006	-200,000	0,004	-0,176
-715,991	359,409	-0,049	-0,070
-714,977	-200,000	-0,024	-0,149
-713,962	-126,642	-0,085	0,009
-712,948	-170,515	0,217	0,005
-711,933	-102,232	-0,062	0,011
-710,918	250,395	0,101	-0,124
-709,904	38,200	-0,139	-0,089
-708,889	-153,374	-0,121	-0,006
-707,875	-115,731	0,116	0,016
-706,860	-51,420	0,112	-0,038
-705,845	487,662	0,041	-0,068
-704,831	785,481	-0,011	0,023
-703,816	-58,871	-0,086	0,027
-702,802	800,000	0,009	0,030
-701,787	71,590	-0,101	-0,076
-700,772	800,000	-0,026	-0,072
-699,758	243,886	-0,100	-0,122
-698,743	88,514	0,061	-0,049
-697,729	284,753	-0,073	-0,095
-696,714	-200,000	0,004	-0,153
-695,699	-54,160	-0,073	-0,024
-694,685	-200,000	-0,060	-0,212
-693,670	-200,000	-0,022	-0,141
-692,656	-145,725	0,045	-0,003
-691,641	-16,374	-0,054	0,025
-690,627	332,354	-0,046	-0,064
-689,612	109,046	0,047	0,041
-688,597	-134,632	-0,171	-0,015
-687,583	-200,000	-0,020	-0,104
-686,568	-78,046	-0,071	-0,018
-685,554	9,563	-0,168	-0,092
-684,539	800,000	0,045	0,107
-683,524	-105,078	0,045	0,007
-682,510	70,338	-0,082	-0,061
-681,495	536,344	0,040	-0,069
-680,481	194,788	-0,076	0,083
-679,466	-200,000	-0,004	-0,017
-678,451	-3,650	-0,130	-0,065
-677,437	289,901	-0,038	-0,050
-676,422	-34,332	0,080	0,031
-675,408	-79,789	0,033	0,008
-674,393	800,000	-0,022	0,053
-673,378	199,568	-0,140	-0,156
-672,364	-200,000	0,018	0,106
-671,349	171,970	-0,076	-0,079
-670,335	227,468	-0,089	0,105
-669,320	100,671	-0,126	-0,106
-668,305	-102,663	-0,059	0,010
-667,291	800,000	-0,003	0,010
-666,276	-6,452	-0,125	-0,061
-665,262	-200,000	-0,003	-0,046
-664,247	-147,561	-0,199	0,012
-663,232	-160,372	-0,078	-0,003
-662,218	-200,000	0,033	-0,150
-661,203	800,000	0,042	-0,106
-660,189	-200,000	-0,021	-0,077
-659,174	-58,813	0,072	-0,023
-658,159	252,447	-0,082	-0,102
-657,145	-200,000	-0,012	-0,142
-656,130	157,998	-0,104	0,104
-655,116	-54,282	0,047	-0,015
-654,101	-200,000	0,026	0,000
-653,086	-23,878	0,060	-0,026
-652,072	768,269	-0,047	-0,092
-651,057	129,842	-0,146	-0,135
-650,043	-200,000	0,010	-0,043
-649,028	800,000	0,037	-0,075
-648,014	800,000	-0,013	-0,034
-646,999	-200,000	0,008	-0,052
-645,984	-118,668	0,089	-0,011
-644,970	-200,000	0,029	-0,108
-643,955	-156,368	-0,172	0,008
-642,941	-136,031	-0,055	0,005
-641,926	-200,000	-0,016	-0,079
-640,911	-200,000	-0,038	-0,136
-639,897	-200,000	0,022	-0,092
-638,882	16,929	0,026	0,015
-637,868	-107,829	-0,042	-0,007
-636,853	-162,431	0,060	-0,002
-635,838	82,276	0,083	-0,065
-634,824	800,000	-0,044	-0,128
-633,809	-200,000	0,007	0,093
-632,795	-109,782	-0,027	-0,004
-631,780	46,007	0,044	0,029
-630,765	77,326	0,018	0,014
-629,751	-171,980	-0,036	0,001
-628,736	174,616	-0,048	-0,051
-627,722	120,071	0,102	-0,091
-626,707	-15,671	0,067	-0,031
-625,692	-192,344	0,044	0,000
-624,678	-200,000	-0,005	0,132
-623,663	-24,814	-0,170	-0,072
-622,649	-200,000	0,017	-0,093
-621,634	-9,695	-0,200	-0,096
-620,619	-99,875	-0,118	-0,021
-619,605	800,000	-0,054	-0,166
-618,590	800,000	0,039	-0,081
-617,576	-120,306	0,065	-0,008
-616,561	-157,560	-0,141	-0,006
-615,546	-200,000	0,008	-0,067
-614,532	468,844	-0,049	-0,080
-613,517	454,285	0,018	-0,029
-612,503	-200,000	-0,013	-0,126
-611,488	318,110	-0,077	-0,105
-610,474	-18,264	0,110	-0,050
-609,459	37,236	0,127	0,081
-608,444	-200,000	-0,003	0,044
-607,430	-200,000	0,015	-0,189
-606,415	-8,812	-0,134	-0,065
-605,401	456,169	-0,067	0,107
-604,386	800,000	0,053	0,134
-603,371	-200,000	0,015	-0,066
-602,357	-122,347	0,087	-0,010
-601,342	-200,000	-0,003	-0,032
-600,328	-200,000	-0,006	-0,144
-599,313	407,669	-0,011	-0,016
-598,298	720,823	-0,039	0,076
-597,284	-84,693	-0,057	0,013
-596,269	800,000	0,013	-0,032
-595,255	-114,143	0,092	-0,013
-594,240	-20,580	-0,208	-0,092
-593,225	-100,071	0,088	0,016
-592,211	800,000	0,022	-0,070
-591,196	-183,092	0,098	-0,001
-590,182	-140,883	-0,005	0,000
-589,167	800,000	0,004	0,012
-588,152	176,233	0,088	-0,092
-587,138	-86,467	-0,061	0,013
-586,123	169,940	-0,081	0,084
-585,109	417,089	-0,020	-0,030
-584,094	-82,442	-0,064	-0,015
-583,079	-23,298	-0,038	0,016
-582,065	27,539	0,087	0,053
-581,050	-75,791	-0,036	-0,009
-580,036	98,788	-0,059	-0,049
-579,021	199,619	0,076	0,085
-578,006	-37,347	-0,115	0,044
-576,992	71,775	0,085	0,063
-575,977	56,347	-0,118	0,082
-574,963	800,000	-0,046	0,110
-573,948	800,000	-0,107	0,281
-572,934	80,396	0,049	0,038
-571,919	-200,000	0,016	-0,057
-570,904	302,507	-0,068	-0,091
-569,890	-200,000	0,024	0,096
-568,875	-200,000	-0,004	-0,037
-567,861	169,369	0,055	-0,056
-566,846	-53,967	0,128	0,042
-565,831	-200,000	-0,002	0,023
-564,817	800,000	0,044	-0,104
-563,802	800,000	0,013	0,037
-562,788	-138,726	-0,170	0,013
-561,773	-200,000	0,000	-0,111
-560,758	-200,000	0,024	0,111
-559,744	26,040	-0,114	-0,068
-558,729	-200,000	0,004	-0,019
-557,715	42,852	0,103	-0,067
-556,700	-200,000	0,010	-0,088
-555,685	800,000	0,054	-0,121
-554,671	120,918	0,083	0,074
-553,656	800,000	0,062	0,141
-552,642	-200,000	0,022	0,188
-551,627	-78,498	-0,071	-0,017
-550,612	-200,000	0,009	0,123
-549,598	368,695	-0,026	0,038
-548,583	300,488	-0,020	-0,026
-547,569	-200,000	0,010	0,106
-546,554	81,105	0,053	0,041
-545,539	146,701	-0,167	-0,162
-544,525	193,447	-0,077	-0,084
-543,510	432,325	-0,023	0,036
-542,496	147,025	-0,095	-0,092
-541,481	-200,000	-0,013	0,074
-540,466	221,440	-0,088	-0,101
-539,452	743,447	0,025	0,048
-538,437	-200,000	0,001	0,213
-537,423	-35,179	0,037	-0,014
-536,408	-25,701	0,018	0,008
-535,393	-35,905	-0,186	-0,072
-534,379	258,102	0,041	-0,051
-533,364	92,426	-0,050	0,041
-532,350	-62,178	0,050	-0,015
-531,335	800,000	-0,051	0,123
-530,321	35,221	-0,060	-0,038
-529,306	279,428	-0,075	-0,097
-528,291	-141,923	-0,143	0,010
-527,277	-200,000	0,020	-0,184
-526,262	-104,177	-0,065	0,011
-525,248	193,609	0,095	-0,104
-524,233	586,723	0,053	-0,094
-523,218	329,362	-0,027	0,037
-522,204	-200,000	0,030	0,154
-521,189	800,000	-0,072	-0,172
-520,175	90,588	-0,091	-0,073
-519,160	-7,847	0,100	-0,049
-518,145	18,137	-0,114	-0,065
-517,131	21,216	0,088	0,051
-516,116	320,853	-0,062	0,085
-515,102	-200,000	-0,003	0,067
-514,087	800,000	-0,038	-0,107
-513,072	19,666	0,053	0,031
-512,058	230,648	0,095	-0,112
-511,043	-49,986	0,147	0,050
-510,029	24,207	0,141	-0,084
-509,014	-200,000	0,030	0,102
-507,999	386,847	-0,083	0,123
-506,985	299,541	0,082	-0,109
-505,970	-140,979	-0,084	0,006
-504,956	-200,000	0,004	0,030
-503,941	800,000	-0,023	-0,065
-502,926	223,842	0,036	0,042
-501,912	-129,193	-0,048	0,005
-500,897	-77,198	-0,053	-0,013
-499,883	398,485	-0,068	-0,103
-498,868	774,836	-0,013	0,026
-497,853	-122,799	0,154	-0,018
-496,839	-200,000	0,001	0,054
-495,824	242,229	0,047	0,056
-494,810	332,148	-0,030	0,042
-493,795	39,438	-0,141	-0,091
-492,781	-33,532	-0,144	0,057
-491,766	0,941	0,210	0,108
-490,751	13,072	-0,106	0,059
-489,737	-200,000	0,008	0,029
-488,722	-14,355	0,026	-0,012
-487,708	-99,745	0,040	0,007
-486,693	-200,000	-0,002	0,126
-485,678	-2,877	-0,184	-0,092
-484,664	-200,000	-0,010	-0,049
-483,649	-200,000	-0,010	-0,045
-482,635	424,062	0,067	0,104
-481,620	800,000	-0,037	-0,103
-480,605	-200,000	-0,001	0,097
-479,591	116,188	0,153	0,135
-478,576	-200,000	-0,043	0,151
-477,562	-94,462	-0,039	-0,007
-476,547	-200,000	0,000	-0,071
-475,532	-200,000	-0,014	0,057
-474,518	114,508	0,047	-0,041
-473,503	182,852	0,038	0,041
-472,489	-200,000	0,010	0,074
-471,474	710,286	-0,095	0,181
-470,459	-89,324	-0,095	0,020
-469,445	-98,961	-0,004	-0,001
-468,430	479,056	0,066	-0,107
-467,416	-200,000	0,007	-0,079
-466,401	120,087	0,098	0,087
-465,386	-200,000	-0,003	-0,099
-464,372	-200,000	0,003	0,023
-463,357	102,392	0,032	0,027
-462,343	-200,000	-0,005	0,128
-461,328	-200,000	0,001	-0,017
-460,313	800,000	-0,033	0,075
-459,299	-61,876	0,173	0,051
-458,284	-91,495	0,167	-0,034
-457,270	288,599	0,007	0,009
-456,255	-132,258	-0,036	0,003
-455,241	800,000	-0,040	0,082
-454,226	177,759	0,048	-0,051
-453,211	21,308	-0,049	-0,028
-452,197	-50,196	-0,098	0,033
-451,182	-200,000	-0,025	0,083
-450,168	238,570	0,072	0,085
-449,153	411,198	-0,014	0,021
-448,138	-88,882	0,129	0,027
-447,124	-60,477	0,024	0,007
-446,109	-200,000	0,006	-0,068
-445,095	800,000	-0,036	0,078
-444,080	800,000	0,027	0,064
-443,065	-200,000	0,024	0,131
-442,051	103,528	-0,048	-0,040
-441,036	-200,000	-0,003	-0,164
-440,022	-200,000	0,015	-0,128
-439,007	109,657	-0,051	-0,044
-437,992	-200,000	-0,014	-0,134
-436,978	78,524	-0,068	-0,052
-435,963	800,000	0,048	0,147
-434,949	340,002	0,094	-0,132
-433,934	-200,000	0,005	0,019
-432,919	34,785	-0,081	-0,050
-431,905	-200,000	0,024	0,078
-430,890	-200,000	0,001	-0,009
-429,876	99,605	-0,040	-0,033
-428,861	800,000	0,056	-0,161
-427,846	352,768	-0,062	-0,089
-426,832	-200,000	0,011	-0,077
-425,817	-200,000	-0,005	-0,021
-424,803	250,686	-0,119	-0,145
-423,788	-200,000	0,006	0,122
-422,773	68,657	0,112	-0,082
-421,759	-119,621	0,041	0,005
-420,744	800,000	-0,037	-0,085
-419,730	-61,461	-0,162	-0,049
-418,715	800,000	0,040	-0,117
-417,701	314,778	-0,066	-0,090
-416,686	-200,000	0,013	-0,094
-415,671	-79,421	0,147	0,035
-414,657	-44,437	-0,057	-0,020
-413,642	-200,000	-0,002	-0,042
-412,628	255,985	-0,042	-0,051
-411,613	38,985	-0,095	0,061
-410,598	264,551	-0,081	0,101
-409,584	24,266	-0,073	0,043
-408,569	207,863	0,090	0,101
-407,555	800,000	0,032	0,068
-406,540	276,745	0,065	0,083
-405,525	-200,000	0,005	0,019
-404,511	800,000	-0,076	-0,165
-403,496	406,437	-0,043	-0,065
-402,482	-200,000	0,024	-0,185
-401,467	273,094	-0,007	-0,009
-400,452	-200,000	0,007	0,033
-399,438	-200,000	-0,030	0,100
-398,423	-69,913	-0,171	0,046
-397,409	-38,372	0,113	-0,043
-396,394	800,000	-0,016	-0,036
-395,379	-200,000	-0,034	0,138
-394,365	608,058	-0,058	-0,104
-393,350	104,670	-0,025	-0,021
-392,336	-200,000	-0,001	-0,013
-391,321	-200,000	-0,022	0,120
-390,306	372,842	0,048	-0,069
-389,292	251,387	-0,045	-0,054
-388,277	-25,909	-0,051	0,021
-387,263	147,375	0,100	0,096
-386,248	259,458	0,075	0,093
-385,233	-72,074	0,180	0,047
-384,219	-200,000	0,011	0,086
-383,204	-39,463	0,021	0,008
-382,190	-59,513	-0,029	-0,009
-381,175	77,275	-0,058	-0,044
-380,160	104,375	0,089	0,075
-379,146	683,986	-0,002	-0,003
-378,131	31,425	0,092	0,057
-377,117	800,000	0,042	0,095
-376,102	-200,000	-0,029	0,095
-375,088	144,197	-0,046	0,044
-374,073	-94,531	0,097	0,019
-373,058	560,204	0,060	-0,104
-372,044	151,803	0,085	-0,083
-371,029	-83,021	-0,080	0,018
-370,015	514,944	-0,009	-0,014
-369,000	-104,073	-0,078	0,013
-367,985	-200,000	-0,000	-0,086
-366,971	-200,000	-0,000	-0,138
-365,956	-55,264	0,207	-0,066
-364,942	12,170	0,059	-0,033
-363,927	-6,784	0,094	-0,045
-362,912	800,000	0,023	0,066
-361,898	21,682	-0,069	0,040
-360,883	-81,586	0,093	-0,022
-359,869	487,531	-0,062	-0,101
-358,854	-32,012	0,102	-0,041
-357,839	800,000	-0,042	0,084
-356,825	-28,350	0,176	-0,072
-355,810	-200,000	0,022	-0,089
-354,796	-200,000	-0,021	-0,171
-353,781	-93,261	-0,125	-0,025
-352,766	381,525	-0,086	-0,126
-351,752	-34,591	0,166	0,064
-350,737	376,857	0,100	0,147
-349,723	121,040	0,020	-0,018
-348,708	150,700	-0,040	-0,039
-347,693	-55,643	-0,047	-0,015
-346,679	-158,913	0,093	-0,004
-345,664	-17,865	-0,045	0,020
-344,650	-39,650	-0,033	-0,012
-343,635	232,598	0,008	0,010
-342,620	800,000	0,042	0,093
-341,606	-200,000	0,024	0,156
-340,591	-43,185	-0,105	-0,038
-339,577	430,241	-0,072	-0,111
-338,562	-200,000	-0,020	-0,084
-337,548	239,574	-0,024	0,029
-336,533	-200,000	-0,003	0,098
-335,518	86,186	0,190	0,149
-334,504	-200,000	0,000	0,102
-333,489	-94,531	0,064	0,012
-332,475	135,036	-0,088	0,082
-331,460	180,724	-0,091	0,096
-330,445	-200,000	0,033	-0,120
-329,431	133,524	0,137	0,126
-328,416	47,081	0,050	0,033
-327,402	-69,552	0,149	0,040
-326,387	-34,259	0,016	-0,006
-325,372	342,614	-0,102	0,143
-324,358	3,162	-0,038	0,020
-323,343	-54,303	-0,082	0,027
-322,329	12,807	0,086	0,047
-321,314	373,318	0,067	0,098
-320,299	29,794	0,094	-0,057
-319,285	-200,000	-0,027	-0,111
-318,270	800,000	0,004	0,010
-317,256	-200,000	-0,017	-0,085
-316,241	-200,000	-0,002	0,042
-315,226	3,546	0,146	0,076
-314,212	-200,000	-0,007	0,060
-313,197	49,330	0,044	0,030
-312,183	317,741	-0,025	0,033
-311,168	-81,569	-0,117	-0,027
-310,153	14,214	-0,079	0,044
-309,139	-128,589	-0,074	0,007
-308,124	-117,808	-0,110	0,014
-307,110	136,999	-0,046	0,043
-306,095	490,296	0,080	-0,131
-305,080	-200,000	-0,031	0,125
-304,066	743,454	-0,023	-0,045
-303,051	-56,158	-0,155	-0,049
-302,037	-15,287	-0,044	-0,020
-301,022	583,814	0,091	0,160
-300,008	-10,911	0,093	-0,044
-298,993	-180,263	0,057	0,001
-297,978	-200,000	0,003	-0,084
-296,964	-97,576	0,164	0,030
-295,949	-152,099	-0,131	0,007
-294,935	-200,000	-0,030	0,117
-293,920	800,000	0,043	-0,117
-292,905	-67,671	-0,095	0,026
-291,891	4,156	0,090	-0,047
-290,876	800,000	0,060	0,138
-289,862	-200,000	-0,007	0,158
-288,847	-73,205	-0,030	0,008
-287,832	278,589	0,064	-0,082
-286,818	-200,000	-0,005	0,103
-285,803	800,000	0,038	0,091
-284,789	-69,777	0,112	-0,030
-283,774	-69,144	0,122	0,033
-282,759	338,218	0,043	0,059
-281,745	-200,000	-0,041	0,151
-280,730	-200,000	0,017	-0,127
-279,716	172,308	0,103	-0,105
-278,701	800,000	0,019	-0,059
-277,686	-85,342	-0,056	0,012
-276,672	800,000	-0,034	-0,095
-275,657	-200,000	-0,022	-0,120
-274,643	-50,798	0,180	-0,060
-273,628	242,696	-0,026	-0,031
-272,613	-1,222	-0,047	-0,024
-271,599	428,784	0,078	0,120
-270,584	153,882	-0,033	-0,032
-269,570	256,238	-0,067	-0,082
-268,555	536,086	0,028	-0,047
-267,540	800,000	-0,045	0,137
-266,526	676,510	0,045	0,084
-265,511	800,000	-0,086	-0,228
-264,497	94,390	0,076	-0,062
-263,482	242,903	0,084	0,100
-262,467	424,241	-0,082	0,125
-261,453	-200,000	0,014	0,105
-260,438	-176,397	-0,038	-0,001
-259,424	235,816	0,076	-0,090
-258,409	-94,785	-0,148	-0,028
-257,395	-115,619	0,110	-0,015
-256,380	-189,395	0,124	-0,001
-255,365	-82,662	0,123	-0,028
-254,351	338,201	-0,041	0,056
-253,336	113,210	-0,115	-0,100
-252,322	-0,301	-0,163	0,082
-251,307	-12,048	-0,076	-0,035
-250,292	-82,318	0,029	0,007
-249,278	-200,000	-0,011	0,075
-248,263	465,627	-0,027	-0,043
-247,249	-10,414	0,173	0,081
-246,234	-200,000	-0,016	-0,105
-245,219	144,003	0,047	-0,045
-244,205	48,194	-0,108	-0,072
-243,190	-45,786	0,105	-0,037
-242,176	434,945	0,070	0,109
-241,161	-68,978	0,070	-0,019
-240,146	-110,660	-0,096	-0,014
-239,132	294,885	0,007	-0,009
-238,117	428,234	0,045	-0,070
-237,103	221,532	0,071	-0,081
-236,088	114,023	0,024	-0,021
-235,073	-41,609	-0,106	-0,038
-234,059	223,815	0,039	0,045
-233,044	-164,134	0,019	0,001
-232,030	-72,319	-0,108	0,028
-231,015	-200,000	0,021	-0,075
-230,000	177,666	-0,093	-0,097
-228,986	155,632	-0,051	-0,050
-227,971	78,220	0,064	-0,049
-226,957	-20,174	0,093	0,041
-225,942	93,507	0,157	0,126
-224,927	-11,936	-0,049	0,023
-223,913	-200,000	-0,019	0,094
-222,898	-65,490	0,145	-0,041
-221,884	-58,308	-0,046	-0,014
-220,869	365,107	0,029	-0,042
-219,855	-200,000	-0,016	0,078
-218,840	-200,000	0,021	-0,072
-217,825	-200,000	0,016	0,080
-216,811	-76,098	-0,067	-0,017
-215,796	-93,984	0,132	0,026
-214,782	13,619	0,138	-0,076
-213,767	179,832	-0,016	0,016
-212,752	-41,580	-0,169	0,061
-211,738	-73,264	0,048	0,012
-210,723	-200,000	-0,023	0,138
-209,709	-100,576	-0,143	0,025
-208,694	99,681	-0,073	0,060
-207,679	-200,000	0,015	0,056
-206,665	43,416	-0,071	0,046
-205,650	-70,305	-0,074	0,020
-204,636	-113,358	0,159	-0,022
-203,621	171,909	-0,055	-0,057
-202,606	-200,000	-0,055	0,173
-201,592	-200,000	-0,007	0,093
-200,577	800,000	-0,030	-0,077
-199,563	470,588	-0,070	-0,112
-198,548	217,671	-0,098	-0,111
-197,533	122,108	0,115	-0,102
-196,519	800,000	0,026	0,070
-195,504	800,000	-0,035	0,079
-194,490	273,967	-0,042	0,052
-193,475	-200,000	0,027	-0,088
-192,460	105,931	-0,057	-0,048
-191,446	-200,000	0,041	0,201
-190,431	588,432	0,017	0,030
-189,417	-200,000	0,013	0,041
-188,402	-92,922	-0,141	-0,028
-187,387	351,431	-0,074	-0,104
-186,373	40,519	0,098	0,062
-185,358	-84,823	-0,088	0,019
-184,344	68,246	0,033	0,024
-183,329	224,274	0,045	-0,051
-182,315	800,000	0,009	0,018
-181,300	674,266	0,032	-0,059
-180,285	-154,055	-0,109	0,005
-179,271	163,539	-0,018	-0,018
-178,256	295,739	-0,012	0,015
-177,242	-108,865	0,078	-0,012
-176,227	-200,000	-0,005	0,127
-175,212	656,905	0,078	0,143
-174,198	-27,398	-0,132	-0,054
-173,183	-17,533	0,074	-0,033
-172,169	192,833	-0,041	-0,044
-171,154	-200,000	-0,028	0,234
-170,139	-37,872	-0,073	0,027
-169,125	-55,527	0,064	-0,020
-168,110	-200,000	-0,010	0,084
-167,096	293,183	0,069	0,089
-166,081	-70,005	-0,011	-0,003
-165,066	-97,367	-0,125	0,023
-164,052	-50,829	0,089	0,029
-163,037	170,056	0,090	-0,091
-162,023	800,000	0,044	0,112
-161,008	-38,020	0,032	-0,012
-159,993	-111,523	-0,072	-0,010
-158,979	-200,000	-0,004	-0,030
-157,964	-200,000	-0,028	-0,144
-156,950	-127,778	-0,202	0,020
-155,935	-50,784	0,109	0,036
-154,920	-181,171	0,105	-0,001
-153,906	189,775	-0,046	0,049
-152,891	171,717	-0,095	0,096
-151,877	240,960	-0,097	-0,115
-150,862	-119,501	-0,031	0,004
-149,847	-124,183	-0,068	-0,007
-148,833	603,190	-0,071	-0,125
-147,818	93,155	0,060	0,048
-146,804	-77,710	0,081	0,020
-145,789	-200,000	-0,003	-0,027
-144,775	102,739	0,082	-0,068
-143,760	606,088	0,079	-0,139
-142,745	726,387	-0,043	-0,082
-141,731	95,114	0,083	0,067
-140,716	-200,000	0,010	0,058
-139,702	6,131	0,119	0,062
-138,687	800,000	-0,021	0,054
-137,672	-26,567	-0,057	-0,023
-136,658	373,987	0,054	-0,077
-135,643	800,000	-0,026	-0,076
-134,629	-85,366	0,044	-0,010
-133,614	800,000	0,020	-0,055
-132,599	-4,960	0,007	-0,003
-131,585	317,193	-0,067	-0,090
-130,570	-200,000	-0,008	-0,081
-129,556	205,846	-0,135	-0,148
-128,541	199,953	-0,032	-0,034
-127,526	-200,000	-0,011	-0,068
-126,512	-200,000	-0,001	0,027
-125,497	-176,662	-0,034	0,001
-124,483	431,997	-0,064	0,099
-123,468	373,663	-0,049	-0,071
-122,453	800,000	0,021	0,052
-121,439	800,000	-0,036	-0,090
-120,424	87,449	-0,048	-0,037
-119,410	9,709	-0,020	0,011
-118,395	8,169	0,095	-0,050
-117,380	8,767	0,084	-0,045
-116,366	-94,846	-0,110	-0,021
-115,351	-37,382	-0,086	-0,032
-114,337	-200,000	-0,015	0,081
-113,322	-200,000	0,011	0,087
-112,307	148,745	-0,163	0,156
-111,293	361,021	0,107	0,152
-110,278	485,637	-0,043	0,070
-109,264	-200,000	-0,044	-0,181
-108,249	150,917	-0,020	0,019
-107,234	268,041	-0,057	0,071
-106,220	800,000	0,028	-0,057
-105,205	3,340	-0,069	0,036
-104,191	-200,000	-0,023	0,083
-103,176	800,000	-0,009	0,019
-102,162	-200,000	0,004	0,047
-101,147	12,126	-0,075	0,041
-100,132	-116,059	-0,074	0,010
-99,118	-200,000	0,041	0,140
-98,103	-62,323	0,071	-0,021
-97,089	-16,928	-0,092	0,041
-96,074	23,294	-0,174	-0,101
-95,059	217,862	0,108	0,122
-94,045	800,000	0,021	0,050
-93,030	-200,000	-0,024	-0,105
-92,016	-136,617	-0,150	0,012
-91,001	-112,967	0,036	0,005
-89,986	-200,000	-0,025	0,082
-88,972	800,000	0,027	0,070
-87,957	-200,000	0,060	0,000
-86,943	-74,557	0,144	-0,036
-85,928	800,000	-0,012	-0,024
-84,913	800,000	0,045	-0,107
-83,899	474,737	-0,054	0,086
-82,884	-200,000	-0,029	0,094
-81,870	-200,000	0,032	0,134
-80,855	-147,424	0,072	-0,004
-79,840	170,647	-0,069	0,070
-78,826	155,852	-0,195	-0,190
-77,811	355,189	0,036	-0,051
-76,797	635,072	0,067	-0,120
-75,782	800,000	-0,039	0,100
-74,767	-46,181	0,094	-0,033
-73,753	153,087	-0,042	0,040
-72,738	351,137	-0,021	0,029
-71,724	800,000	-0,030	-0,059
-70,709	-200,000	-0,005	-0,131
-69,694	-96,817	0,033	0,006
-68,680	255,281	0,127	-0,154
-67,665	-200,000	-0,008	-0,073
-66,651	800,000	0,030	0,090
-65,636	567,001	-0,036	-0,062
-64,622	800,000	-0,046	-0,138
-63,607	800,000	0,036	-0,078
-62,592	-24,871	-0,023	-0,010
-61,578	397,638	-0,070	-0,104
-60,563	33,739	-0,115	0,070
-59,549	-87,546	-0,076	-0,016
-58,534	29,232	-2,063	-1,233
-57,519	473,863	-1,189	-1,898
-56,505	-200,000	-0,221	-4,259
-55,490	765,301	0,838	1,614
-54,476	800,000	5,146	11,267
-53,461	-200,000	21,518	343,755
-52,446	800,000	762,962	2358,278
-51,432	553,633	1663,364	2833,004
-50,417	72,364	1659,760	1219,117
-49,403	17,494	1533,001	857,173
-48,388	11,459	1456,794	785,399
-47,373	19,422	1448,288	818,958
-46,359	15,021	1437,270	791,792
-45,344	9,759	1433,250	764,511
-44,330	9,712	1431,300	763,216
-43,315	9,669	1429,539	762,044
-42,300	9,714	1427,547	761,167
-41,286	9,755	1426,263	760,645
-40,271	9,650	1425,438	759,675
-39,257	9,659	1424,139	758,999
-38,242	9,660	1423,040	758,388
-37,227	9,721	1421,928	758,054
-36,213	9,744	1420,497	757,367
-35,198	9,747	1419,439	756,786
-34,184	9,772	1418,469	756,361
-33,169	9,672	1417,026	755,089
-32,154	9,739	1415,984	754,818
-31,140	9,708	1414,822	754,021
-30,125	9,734	1413,588	753,460
-29,111	9,757	1412,530	752,973
-28,096	9,721	1411,219	752,076
-27,082	9,630	1410,247	751,101
-26,067	9,639	1409,098	750,500
-25,052	9,712	1408,102	750,281
-24,038	9,728	1406,999	749,741
-23,023	9,715	1406,149	749,196
-22,009	9,657	1405,053	748,312
-20,994	9,654	1404,255	747,840
-19,979	9,644	1403,173	747,190
-18,965	9,655	1402,033	746,605
-17,950	9,642	1401,302	746,125
-16,936	9,642	1400,521	745,679
-15,921	9,602	1399,573	744,959
-14,906	9,590	1398,552	744,328
-13,892	9,610	1397,652	743,914
-12,877	9,595	1396,860	743,391
-11,863	9,529	1396,160	742,684
-10,848	9,523	1395,233	742,135
-9,833	9,566	1393,972	741,634
-8,819	9,503	1393,355	740,984
-7,804	9,489	1392,517	740,443
-6,790	9,501	1391,397	739,876
-5,775	9,465	1390,442	739,170
-4,760	9,508	1389,171	738,663
-3,746	9,486	1388,542	738,200
-2,731	9,489	1387,668	737,722
-1,717	9,493	1386,762	737,226
-0,702	9,458	1384,957	736,077
0,313	13,475	1297,291	707,835
1,327	29,380	688,184	411,457
2,342	45,252	119,024	77,257
3,356	1,155	16,497	8,322
4,371	7,644	3,635	1,912
5,386	-4,551	1,091	0,529
6,400	717,159	0,284	0,533
7,415	-72,603	-0,224	-0,058
8,429	-3,389	-0,336	-0,164
9,444	28,204	-0,377	-0,224
10,459	92,967	-0,319	-0,254
11,473	-72,281	-0,284	-0,074
12,488	-98,598	-0,362	-0,065
13,502	33,387	-0,371	-0,227
14,517	276,972	-0,206	-0,258
15,531	56,983	-0,395	-0,271
16,546	195,162	-0,261	-0,280
17,561	135,076	-0,380	-0,348
18,575	-6,374	-0,249	-0,119
19,590	36,071	-0,190	-0,117
20,604	-39,281	-0,299	-0,110
21,619	83,492	-0,432	-0,331
22,634	99,789	-0,341	-0,277
23,648	188,792	-0,405	-0,427
24,663	158,160	-0,308	-0,301
25,677	143,722	-0,289	-0,271
26,692	60,412	-0,319	-0,222
27,707	85,395	-0,344	-0,265
28,721	60,326	-0,304	-0,211
29,736	126,563	-0,378	-0,337
30,750	146,996	-0,399	-0,378
31,765	64,324	-0,409	-0,289
32,780	395,928	-0,228	-0,336
33,794	233,930	-0,258	-0,299
34,809	-28,398	-0,323	-0,130
35,823	10,071	-0,450	-0,240
36,838	228,388	-0,260	-0,299
37,853	199,069	-0,299	-0,322
38,867	193,550	-0,317	-0,337
39,882	0,035	-0,407	-0,203
40,896	30,883	-0,359	-0,216
41,911	76,538	-0,248	-0,185
42,926	122,459	-0,261	-0,229
43,940	248,371	-0,277	-0,330
44,955	191,086	-0,328	-0,347
45,969	112,067	-0,399	-0,338
46,984	42,352	-0,250	-0,159
47,999	-46,026	-0,381	-0,131
49,013	800,000	-0,143	-0,287
50,028	154,465	-0,253	-0,244
51,042	14,565	-0,335	-0,183
52,057	72,488	-0,395	-0,289
53,071	100,140	-0,360	-0,293
54,086	30,501	-0,367	-0,220
55,101	13,534	-0,473	-0,257
56,115	299,433	-0,318	-0,412
57,130	34,430	-0,282	-0,173
58,144	218,229	-0,231	-0,259
59,159	140,286	-0,403	-0,373
60,174	45,095	-0,335	-0,216
61,188	-7,335	-0,276	-0,130
62,203	-1,626	-0,326	-0,160
63,217	-18,095	-0,308	-0,135
64,232	-81,650	-0,346	-0,079
65,247	12,567	-0,306	-0,165
66,261	37,897	-0,329	-0,205
67,276	70,331	-0,282	-0,204
68,290	-8,469	-0,335	-0,157
69,305	-62,414	-0,420	-0,122
70,320	122,911	-0,276	-0,242
71,334	-9,333	-0,379	-0,177
72,349	15,506	-0,283	-0,156
73,363	26,692	-0,284	-0,166
74,378	84,602	-0,221	-0,169
75,393	161,486	-0,330	-0,323
76,407	459,384	-0,143	-0,223
77,422	-10,490	-0,312	-0,144
78,436	29,659	-0,349	-0,207
79,451	-30,106	-0,240	-0,095
80,466	-21,915	-0,328	-0,139
81,480	169,281	-0,287	-0,287
82,495	369,265	-0,218	-0,310
83,509	-72,243	-0,424	-0,109
84,524	-24,971	-0,166	-0,069
85,539	-35,609	-0,332	-0,126
86,553	33,432	-0,236	-0,143
87,568	133,144	-0,266	-0,241
88,582	54,189	-0,305	-0,205
89,597	212,251	-0,237	-0,262
90,611	-104,237	-0,232	0,037
91,626	-29,366	-0,378	-0,151
92,641	332,967	-0,163	-0,221
93,655	10,737	-0,172	-0,091
94,670	77,631	-0,351	-0,261
95,684	149,184	-0,201	-0,190
96,699	39,005	-0,340	-0,212
97,714	-88,843	-0,359	-0,074
98,728	163,214	-0,150	-0,147
99,743	81,305	-0,160	-0,121
100,757	-14,316	-0,247	-0,111
101,772	-61,534	-0,240	-0,070
102,787	155,450	-0,289	-0,278
103,801	-148,659	-0,325	-0,018
104,816	122,386	-0,226	-0,197
105,830	-136,564	-0,199	-0,016
106,845	-6,803	-0,147	-0,069
107,860	65,696	-0,221	-0,157
108,874	16,324	-0,268	-0,147
109,889	60,094	-0,236	-0,163
110,903	321,219	-0,231	-0,307
111,918	-72,177	-0,295	-0,076
112,933	28,156	-0,214	-0,126
113,947	113,175	-0,169	-0,143
114,962	485,399	-0,156	-0,249
115,976	72,027	-0,183	-0,133
116,991	-47,775	-0,259	-0,087
118,006	248,576	-0,245	-0,290
119,020	100,346	-0,295	-0,239
120,035	77,867	-0,241	-0,179
121,049	47,284	-0,329	-0,213
122,064	-65,698	-0,397	-0,110
123,079	-109,570	-0,230	-0,034
124,093	-159,835	-0,203	0,008
125,108	-4,289	-0,310	-0,149
126,122	220,629	-0,213	-0,239
127,137	152,022	-0,183	-0,174
128,151	53,691	-0,363	-0,242
129,166	-32,356	-0,186	-0,072
130,181	-12,030	-0,416	-0,189
131,195	42,142	-0,284	-0,179
132,210	74,656	-0,263	-0,192
133,224	479,760	-0,130	-0,206
134,239	-41,014	-0,222	-0,080
135,254	-66,662	-0,269	-0,074
136,268	37,210	-0,275	-0,169
137,283	9,405	-0,160	-0,084
138,297	72,041	-0,263	-0,191
139,312	-51,353	-0,309	-0,100
140,327	42,660	-0,283	-0,179
141,341	-105,113	-0,304	-0,048
142,356	-60,943	-0,224	-0,065
143,370	16,775	-0,272	-0,150
144,385	-84,073	-0,239	-0,052
145,400	55,097	-0,283	-0,190
146,414	10,549	-0,368	-0,195
147,429	66,234	-0,296	-0,209
148,443	141,808	-0,177	-0,164
149,458	-147,590	-0,318	0,018
150,473	-60,611	-0,292	-0,086
151,487	-200,000	-0,068	-0,211
152,502	138,633	-0,296	-0,271
153,516	51,201	-0,269	-0,177
154,531	150,921	-0,211	-0,200
155,546	-200,000	0,035	-0,267
156,560	43,112	-0,179	-0,114
157,575	106,549	-0,113	-0,093
158,589	41,665	-0,234	-0,147
159,604	-56,470	-0,273	-0,084
160,619	279,751	-0,219	-0,273
161,633	-26,451	-0,240	-0,097
162,648	-72,816	-0,289	-0,073
163,662	81,485	-0,104	-0,078
164,677	15,377	-0,240	-0,130
165,692	37,587	-0,261	-0,160
166,706	46,589	-0,201	-0,129
167,721	189,504	-0,246	-0,257
168,735	-35,249	-0,212	-0,080
169,750	36,195	-0,280	-0,171
170,764	153,651	-0,174	-0,165
171,779	228,315	-0,120	-0,136
172,794	-40,475	-0,280	-0,101
173,808	-33,534	-0,342	-0,131
174,823	1,722	-0,237	-0,118
175,837	-83,743	-0,267	-0,059
176,852	8,055	-0,261	-0,136
177,867	18,249	-0,219	-0,121
178,881	82,602	-0,272	-0,205
179,896	321,118	-0,203	-0,268
180,910	142,099	-0,118	-0,109
181,925	116,993	-0,240	-0,205
182,940	-39,636	-0,235	-0,085
183,954	244,597	-0,174	-0,204
184,969	195,323	-0,200	-0,211
185,983	8,705	-0,258	-0,134
186,998	13,280	-0,221	-0,118
188,013	25,043	-0,271	-0,156
189,027	-67,195	-0,346	-0,094
190,042	127,311	-0,227	-0,200
191,056	218,460	-0,222	-0,246
192,071	37,531	-0,243	-0,149
193,086	228,258	-0,152	-0,172
194,100	153,014	-0,182	-0,173
195,115	110,288	-0,230	-0,191
196,129	375,712	-0,120	-0,170
197,144	440,107	-0,157	-0,238
198,159	-98,738	-0,176	-0,031
199,173	-109,703	-0,268	0,039
200,188	491,711	-0,121	-0,192
201,202	100,770	-0,197	-0,159
202,217	10,790	-0,255	-0,134
203,232	-127,160	-0,284	-0,028
204,246	800,000	-0,092	-0,239
205,261	679,706	-0,120	-0,216
206,275	174,674	-0,139	-0,139
207,290	50,783	-0,228	-0,149
208,304	-200,000	0,011	-0,067
209,319	-23,524	-0,310	-0,128
210,334	401,720	-0,161	-0,234
211,348	280,479	-0,231	-0,287
212,363	-78,249	-0,162	-0,038
213,377	231,393	-0,126	-0,143
214,392	-80,772	-0,220	0,050
215,407	-200,000	-0,003	-0,068
216,421	25,066	-0,268	-0,154
217,436	57,172	-0,209	-0,141
218,450	176,246	-0,194	-0,195
219,465	132,720	-0,346	-0,309
220,480	-26,014	-0,201	-0,081
221,494	339,383	-0,106	-0,143
222,509	227,022	-0,102	-0,115
223,523	18,088	-0,171	-0,094
224,538	67,859	-0,270	-0,191
225,553	105,913	-0,234	-0,191
226,567	30,053	-0,205	-0,120
227,582	800,000	-0,086	-0,235
228,596	-45,906	-0,240	-0,081
229,611	620,443	-0,134	-0,234
230,626	800,000	-0,071	-0,147
231,640	80,414	-0,169	-0,126
232,655	188,304	-0,174	-0,180
233,669	197,932	-0,203	-0,215
234,684	270,150	-0,166	-0,202
235,699	284,029	-0,075	-0,094
236,713	65,621	-0,182	-0,127
237,728	80,451	-0,096	-0,071
238,742	-162,327	-0,230	0,008
239,757	800,000	-0,077	-0,182
240,772	442,333	-0,160	-0,242
241,786	462,089	-0,179	-0,277
242,801	56,313	-0,163	-0,109
243,815	120,280	-0,176	-0,151
244,830	256,895	-0,155	-0,184
245,844	-4,508	-0,229	-0,109
246,859	692,020	-0,150	-0,272
247,874	45,500	-0,189	-0,120
248,888	184,414	-0,083	-0,085
249,903	-70,934	-0,142	-0,037
250,917	-122,137	-0,239	-0,027
251,932	124,872	-0,097	-0,084
252,947	-0,424	-0,212	-0,103
253,961	292,050	-0,179	-0,226
254,976	156,126	-0,190	-0,180
255,990	108,871	-0,257	-0,212
257,005	622,795	-0,144	-0,252
258,020	17,894	-0,164	-0,090
259,034	-114,467	-0,152	0,020
260,049	800,000	-0,091	-0,264
261,063	285,139	-0,172	-0,213
262,078	800,000	-0,149	-0,313
263,093	216,166	-0,099	-0,108
264,107	-51,295	-0,214	-0,069
265,122	-101,431	-0,174	-0,029
266,136	24,125	-0,216	-0,123
267,151	-130,407	-0,276	-0,025
268,166	451,581	-0,103	-0,157
269,180	511,567	-0,081	-0,130
270,195	-200,000	-0,058	-0,200
271,209	74,665	-0,159	-0,115
272,224	222,386	-0,075	-0,083
273,239	9,683	-0,147	0,077
274,253	67,386	-0,201	-0,141
275,268	-20,973	-0,171	-0,072
276,282	-200,000	-0,018	-0,131
277,297	800,000	-0,066	-0,197
278,312	794,984	-0,087	-0,166
279,326	109,130	-0,133	-0,110
280,341	75,635	-0,244	-0,177
281,355	146,494	-0,119	-0,110
282,370	254,899	-0,130	-0,153
283,384	-49,756	-0,246	-0,080
284,399	328,397	-0,161	-0,213
285,414	800,000	-0,144	-0,304
286,428	255,392	-0,130	-0,153
287,443	379,194	-0,093	-0,131
288,457	-26,238	-0,074	0,030
289,472	90,903	-0,175	-0,135
290,487	102,217	-0,171	-0,137
291,501	-111,515	-0,210	-0,029
292,516	-200,000	0,003	-0,132
293,530	-90,942	-0,152	-0,030
294,545	127,460	-0,170	-0,149
295,560	-64,986	-0,201	-0,055
296,574	-17,659	-0,304	-0,131
297,589	24,135	-0,238	-0,134
298,603	127,208	-0,176	-0,154
299,618	363,000	-0,102	-0,141
300,633	307,069	-0,181	-0,232
301,647	108,207	-0,119	-0,098
302,662	27,451	-0,098	-0,056
303,676	-123,812	-0,149	0,016
304,691	-200,000	-0,054	-0,224
305,706	-200,000	-0,053	-0,273
306,720	138,390	-0,120	-0,108
307,735	115,261	-0,177	-0,148
308,749	59,679	-0,105	-0,071
309,764	-21,910	-0,154	-0,064
310,779	103,148	-0,166	-0,134
311,793	42,318	-0,258	-0,161
312,808	71,860	-0,241	-0,172
313,822	367,055	-0,104	-0,145
314,837	-200,000	-0,047	-0,229
315,852	-13,449	-0,051	-0,023
316,866	-200,000	-0,019	-0,089
317,881	121,466	-0,164	-0,140
318,895	221,827	-0,139	-0,153
319,910	91,188	-0,224	-0,173
320,925	93,026	-0,114	-0,088
321,939	184,350	-0,161	-0,164
322,954	234,869	-0,055	-0,062
323,968	685,049	-0,068	-0,122
324,983	331,389	-0,057	-0,075
325,997	408,728	-0,064	-0,093
327,012	562,083	-0,102	-0,170
328,027	-39,187	-0,208	-0,075
329,041	271,672	-0,078	-0,094
330,056	482,956	-0,090	-0,140
331,070	55,695	-0,147	-0,098
332,085	-133,299	-0,142	-0,012
333,100	57,650	-0,020	-0,014
334,114	-17,300	-0,132	0,057
335,129	37,582	-0,170	-0,103
336,143	34,720	-0,118	-0,070
337,158	5,822	-0,205	0,104
338,173	-122,809	-0,096	-0,011
339,187	-200,000	0,004	0,104
340,202	679,985	-0,054	-0,097
341,216	-126,642	-0,117	0,012
342,231	577,241	-0,093	-0,157
343,246	279,444	-0,056	-0,069
344,260	131,889	-0,166	-0,146
345,275	800,000	-0,043	0,083
346,289	425,118	-0,068	-0,100
347,304	800,000	-0,099	-0,263
348,319	94,182	-0,148	-0,115
349,333	-29,793	-0,179	-0,069
350,348	3,863	-0,147	-0,073
351,362	54,568	-0,127	-0,083
352,377	67,459	-0,149	-0,104
353,392	85,685	-0,128	-0,096
354,406	-85,846	-0,090	0,019
355,421	207,016	1307,162	1394,863
356,435	159,240	1466,925	1395,352
