DTS Sentinel unit serial number:	SN410029Multiplexer serial number:	ORYXHardware model number:	OX2-SRSoftware version number:	ORYX F/W v4,00 Oryx Data Collector v3.7.2.0data status	okinstallation	B3 Nyhavnadifferential loss correction	single-endedforward channel	channel 1reverse channel	N/Adate	2023/12/04time	22:32:30forward acquisition time	300,00reverse acquisition time	0,00gamma	499,1914k internal	0,3200k external	0,3200temperature offset calibration	1,0000default loss term (dB/km)	0,3820temperature slope calibration	1,0000multiplexer offset coefficient	1,0000multiplexer slope coefficient	1,0000fibre end	0,00T internal ref (°C)	14,46T ext. ref 1 (°C)	-0,79T ext. ref 2 (°C)	-0,79length (m)	temperature (°C)	Stokes	anti-Stokes-744,400	37,744	-0,324	-0,209
-743,385	-200,000	0,008	0,227
-742,371	46,981	-0,264	-0,178
-741,356	-200,000	-0,005	0,356
-740,342	-13,521	-0,178	-0,083
-739,327	-200,000	0,021	0,298
-738,312	214,314	-0,225	-0,260
-737,298	-200,000	-0,024	0,355
-736,283	278,093	-0,156	-0,203
-735,269	772,505	0,126	0,251
-734,254	109,566	-0,345	-0,300
-733,239	-137,325	-0,223	0,018
-732,225	251,001	-0,098	-0,122
-731,210	145,976	-0,091	0,089
-730,196	49,873	-0,107	-0,073
-729,181	-200,000	-0,018	-0,095
-728,167	800,000	0,052	-0,154
-727,152	3,017	0,048	0,025
-726,137	89,091	-0,034	-0,028
-725,123	176,106	-0,062	0,066
-724,108	-3,064	-0,096	-0,049
-723,094	47,436	-0,087	-0,059
-722,079	-200,000	-0,005	-0,042
-721,064	-70,501	0,128	0,035
-720,050	57,235	-0,090	0,064
-719,035	631,691	-0,020	-0,037
-718,021	513,309	0,033	-0,055
-717,006	-12,287	-0,040	-0,019
-715,991	267,983	-0,047	-0,060
-714,977	452,731	-0,059	-0,095
-713,962	-103,434	0,087	-0,015
-712,948	-200,000	-0,005	0,046
-711,933	-167,347	-0,178	0,005
-710,918	-7,471	-0,106	-0,052
-709,904	-132,870	0,041	-0,004
-708,889	51,464	-0,076	-0,052
-707,875	-138,624	-0,191	-0,015
-706,860	-117,448	-0,105	0,014
-705,845	800,000	-0,032	0,077
-704,831	210,627	-0,076	0,087
-703,816	800,000	0,080	0,167
-702,802	127,927	-0,164	0,151
-701,787	-107,572	-0,069	0,011
-700,772	-35,634	-0,140	-0,055
-699,758	300,224	0,056	-0,075
-698,743	228,786	-0,045	-0,054
-697,729	-139,123	0,047	-0,004
-696,714	4,732	-0,124	-0,066
-695,699	-34,658	0,130	-0,051
-694,685	150,481	-0,064	-0,063
-693,670	638,983	0,026	0,048
-692,656	800,000	0,071	-0,147
-691,641	-155,419	0,063	-0,003
-690,627	-145,401	0,070	0,005
-689,612	480,578	0,035	0,058
-688,597	-109,780	-0,188	-0,028
-687,583	203,196	-0,099	-0,111
-686,568	151,872	-0,065	-0,064
-685,554	-124,341	-0,195	-0,022
-684,539	-171,461	0,090	0,002
-683,524	800,000	0,069	0,149
-682,510	50,807	0,026	0,018
-681,495	13,906	-0,216	-0,122
-680,481	111,024	0,092	-0,080
-679,466	-200,000	-0,003	-0,014
-678,451	62,421	-0,025	-0,018
-677,437	-200,000	0,032	-0,155
-676,422	-100,086	-0,111	0,020
-675,408	16,384	0,140	0,080
-674,393	800,000	-0,019	0,039
-673,378	68,874	0,054	-0,040
-672,364	-116,860	0,091	0,012
-671,349	40,921	-0,123	-0,081
-670,335	-200,000	0,006	-0,043
-669,320	46,193	-0,090	0,060
-668,305	28,403	0,117	0,072
-667,291	800,000	-0,023	0,055
-666,276	-200,000	0,019	-0,212
-665,262	38,168	0,034	0,022
-664,247	-50,719	-0,192	-0,065
-663,232	-124,263	-0,008	0,001
-662,218	-71,694	0,036	0,010
-661,203	-200,000	0,007	-0,119
-660,189	105,195	-0,065	-0,056
-659,174	-4,556	-0,065	-0,033
-658,159	-172,274	-0,125	-0,003
-657,145	-200,000	0,010	-0,098
-656,130	244,059	0,028	-0,034
-655,116	-178,399	0,070	-0,001
-654,101	172,914	-0,055	-0,058
-653,086	-44,067	0,034	0,012
-652,072	86,561	0,027	-0,022
-651,057	248,493	-0,092	-0,113
-650,043	-200,000	0,018	-0,094
-649,028	-200,000	0,001	-0,028
-648,014	-200,000	-0,008	-0,028
-646,999	273,564	0,016	-0,021
-645,984	475,868	0,005	0,009
-644,970	-200,000	-0,001	-0,040
-643,955	3,755	-0,111	-0,059
-642,941	-116,029	-0,084	-0,011
-641,926	-200,000	0,006	-0,080
-640,911	728,936	0,019	0,036
-639,897	-43,325	0,135	0,049
-638,882	-91,206	-0,080	0,017
-637,868	72,636	0,070	-0,053
-636,853	-200,000	-0,004	-0,060
-635,838	-180,059	-0,182	-0,003
-634,824	-200,000	0,105	0,000
-633,809	548,391	-0,060	0,105
-632,795	150,244	0,091	-0,089
-631,780	153,729	0,035	0,035
-630,765	594,037	0,057	-0,102
-629,751	-83,474	-0,118	-0,027
-628,736	-93,033	-0,060	-0,012
-627,722	642,257	0,068	-0,126
-626,707	-200,000	-0,015	-0,106
-625,692	287,455	-0,062	0,082
-624,678	-200,000	0,000	-0,067
-623,663	50,368	-0,139	-0,095
-622,649	282,840	0,016	-0,021
-621,634	180,204	0,042	-0,044
-620,619	-200,000	-0,007	-0,061
-619,605	198,838	0,117	-0,130
-618,590	-121,556	0,148	0,018
-617,576	214,065	0,058	0,066
-616,561	372,764	0,062	0,091
-615,546	205,129	-0,064	-0,072
-614,532	435,116	-0,039	0,062
-613,517	-28,560	-0,083	0,035
-612,503	-73,440	0,053	-0,014
-611,488	-106,023	-0,074	-0,012
-610,474	-74,756	0,088	0,023
-609,459	110,190	-0,048	-0,041
-608,444	393,192	-0,004	-0,006
-607,430	744,983	-0,002	-0,004
-606,415	800,000	-0,042	-0,090
-605,401	22,155	0,047	-0,028
-604,386	-200,000	0,024	0,113
-603,371	-200,000	0,024	0,094
-602,357	-200,000	-0,004	0,040
-601,342	-200,000	-0,010	-0,164
-600,328	38,275	0,030	-0,019
-599,313	-74,310	0,046	0,012
-598,298	96,112	-0,119	-0,098
-597,284	800,000	-0,025	0,074
-596,269	800,000	0,038	0,084
-595,255	800,000	-0,047	0,107
-594,240	800,000	-0,039	-0,078
-593,225	315,504	0,040	0,055
-592,211	-200,000	-0,013	-0,156
-591,196	-200,000	0,000	-0,134
-590,182	208,163	-0,014	0,015
-589,167	800,000	0,024	0,063
-588,152	-200,000	-0,026	0,172
-587,138	800,000	0,033	0,068
-586,123	68,920	-0,052	-0,039
-585,109	-10,537	0,069	-0,033
-584,094	800,000	-0,019	-0,043
-583,079	-200,000	-0,007	-0,048
-582,065	800,000	0,044	-0,102
-581,050	136,549	-0,062	0,059
-580,036	-3,589	0,119	0,060
-579,021	-153,578	-0,109	0,005
-578,006	-154,838	-0,119	-0,006
-576,992	-200,000	-0,003	-0,040
-575,977	56,265	-0,097	-0,068
-574,963	-200,000	0,016	-0,074
-573,948	800,000	0,033	-0,097
-572,934	-200,000	-0,030	0,101
-571,919	22,291	0,059	0,035
-570,904	-200,000	0,024	-0,148
-569,890	800,000	0,036	-0,098
-568,875	-79,305	0,033	-0,008
-567,861	-138,351	0,134	-0,011
-566,846	-155,618	0,062	-0,003
-565,831	-139,096	-0,146	0,011
-564,817	244,555	0,083	-0,100
-563,802	-115,668	-0,218	-0,029
-562,788	130,181	0,075	-0,069
-561,773	-168,764	-0,025	0,001
-560,758	-200,000	-0,018	0,090
-559,744	214,902	0,015	-0,017
-558,729	490,598	0,034	0,056
-557,715	197,630	-0,057	0,062
-556,700	-15,848	-0,149	-0,068
-555,685	722,831	-0,048	-0,093
-554,671	-113,654	-0,082	-0,011
-553,656	-200,000	0,011	0,198
-552,642	800,000	-0,018	0,053
-551,627	515,240	0,066	0,112
-550,612	146,415	0,111	-0,107
-549,598	-200,000	-0,026	-0,112
-548,583	800,000	0,022	-0,045
-547,569	61,049	-0,099	-0,071
-546,554	-22,940	0,091	-0,040
-545,539	-22,608	0,029	0,013
-544,525	-200,000	-0,010	-0,041
-543,510	-200,000	-0,004	0,024
-542,496	800,000	-0,017	-0,039
-541,481	244,523	0,065	-0,079
-540,466	800,000	0,055	-0,130
-539,452	-200,000	0,001	-0,049
-538,437	-92,947	-0,029	0,006
-537,423	-26,129	0,163	-0,069
-536,408	-37,747	-0,098	0,037
-535,393	-42,475	0,062	-0,023
-534,379	-200,000	-0,009	-0,111
-533,364	-200,000	-0,002	0,034
-532,350	108,329	0,052	-0,045
-531,335	-79,992	-0,021	0,005
-530,321	800,000	-0,051	0,146
-529,306	189,383	0,019	-0,020
-528,291	-101,447	0,108	-0,019
-527,277	-86,073	-0,124	-0,027
-526,262	-117,723	0,058	-0,007
-525,248	154,115	0,095	-0,094
-524,233	-200,000	-0,003	0,010
-523,218	-200,000	-0,024	-0,111
-522,204	97,988	0,102	-0,085
-521,189	151,983	-0,070	0,069
-520,175	37,846	0,047	0,030
-519,160	34,233	-0,074	-0,046
-518,145	-91,772	-0,086	-0,017
-517,131	-121,200	-0,046	0,005
-516,116	800,000	0,028	-0,067
-515,102	-10,086	-0,098	-0,047
-514,087	-36,316	-0,019	-0,007
-513,072	23,804	0,064	-0,038
-512,058	-200,000	-0,024	-0,143
-511,043	60,044	-0,070	-0,050
-510,029	-200,000	-0,008	0,055
-509,014	-200,000	-0,015	-0,084
-507,999	-200,000	-0,019	0,163
-506,985	52,231	-0,066	-0,046
-505,970	-200,000	0,010	-0,112
-504,956	0,603	-0,070	0,036
-503,941	19,507	0,057	0,033
-502,926	87,752	0,043	-0,034
-501,912	-53,643	0,180	0,059
-500,897	-200,000	0,005	-0,021
-499,883	-144,512	-0,086	-0,006
-498,868	-200,000	0,005	-0,018
-497,853	297,758	-0,015	-0,019
-496,839	-8,753	-0,012	-0,006
-495,824	-200,000	-0,007	0,055
-494,810	-44,359	-0,073	-0,026
-493,795	321,318	0,061	0,084
-492,781	-116,740	-0,144	0,019
-491,766	-200,000	-0,013	0,055
-490,751	-200,000	0,004	0,015
-489,737	-134,030	-0,083	-0,007
-488,722	800,000	0,051	0,150
-487,708	-30,245	0,170	0,069
-486,693	-200,000	-0,007	0,138
-485,678	-146,322	-0,160	-0,010
-484,664	479,881	0,089	-0,146
-483,649	-200,000	-0,012	-0,175
-482,635	343,904	0,097	-0,138
-481,620	164,333	-0,029	-0,029
-480,605	-200,000	-0,013	0,093
-479,591	-101,452	-0,135	0,023
-478,576	335,008	0,050	-0,070
-477,562	-200,000	-0,013	-0,145
-476,547	800,000	-0,052	-0,118
-475,532	193,755	-0,081	0,089
-474,518	67,676	0,225	-0,166
-473,503	4,924	0,073	0,038
-472,489	-200,000	0,019	-0,085
-471,474	-27,510	0,044	0,018
-470,459	554,745	-0,066	0,115
-469,445	-71,481	-0,135	0,036
-468,430	-171,273	-0,115	0,003
-467,416	-200,000	0,001	-0,051
-466,401	-177,931	0,149	0,003
-465,386	743,790	0,045	0,088
-464,372	606,514	0,050	0,091
-463,357	70,816	0,074	-0,055
-462,343	13,718	-0,026	0,015
-461,328	-17,066	0,059	0,027
-460,313	252,109	0,061	-0,075
-459,299	-200,000	0,020	0,115
-458,284	260,710	-0,016	0,021
-457,270	-200,000	0,021	0,102
-456,255	-200,000	0,008	-0,035
-455,241	-9,998	-0,183	-0,087
-454,226	48,738	-0,069	-0,046
-453,211	333,078	-0,043	0,060
-452,197	167,288	0,088	-0,090
-451,182	-52,552	0,137	-0,045
-450,168	-200,000	-0,012	-0,065
-449,153	32,197	0,110	0,068
-448,138	-200,000	-0,002	-0,014
-447,124	-115,595	-0,018	0,002
-446,109	-117,963	-0,127	0,016
-445,095	-200,000	0,014	-0,117
-444,080	-200,000	0,002	-0,055
-443,065	-200,000	-0,002	-0,091
-442,051	-200,000	0,005	-0,067
-441,036	25,013	-0,099	0,059
-440,022	-200,000	-0,008	-0,081
-439,007	-200,000	0,025	0,114
-437,992	-113,377	-0,085	-0,012
-436,978	-42,550	0,110	-0,040
-435,963	-38,637	-0,042	0,016
-434,949	-200,000	-0,003	0,014
-433,934	-200,000	0,006	0,076
-432,919	209,543	0,051	-0,057
-431,905	-79,852	-0,068	0,016
-430,890	-81,631	-0,060	-0,014
-429,876	-200,000	0,009	0,088
-428,861	171,597	0,115	0,119
-427,846	-200,000	-0,005	-0,037
-426,832	16,540	0,080	-0,045
-425,817	415,770	-0,065	-0,100
-424,803	280,322	-0,021	0,027
-423,788	-67,118	-0,099	0,028
-422,773	-44,877	0,073	0,026
-421,759	771,221	0,009	0,017
-420,744	-200,000	-0,008	-0,113
-419,730	800,000	0,025	0,061
-418,715	-110,901	-0,090	-0,013
-417,701	537,082	0,026	0,045
-416,686	-61,572	0,219	0,066
-415,671	35,545	0,036	-0,023
-414,657	-50,664	0,071	-0,024
-413,642	-42,648	0,180	0,065
-412,628	198,335	0,114	0,126
-411,613	-200,000	0,001	-0,070
-410,598	268,819	0,057	-0,071
-409,584	23,723	-0,077	0,045
-408,569	-74,137	0,030	0,008
-407,555	-33,738	0,144	0,057
-406,540	-200,000	0,012	0,087
-405,525	246,088	-0,127	0,153
-404,511	-85,483	-0,041	0,009
-403,496	-200,000	0,004	-0,038
-402,482	-102,142	-0,055	-0,009
-401,467	-98,237	0,059	0,011
-400,452	800,000	-0,020	-0,043
-399,438	721,813	-0,040	-0,078
-398,423	466,470	0,062	0,100
-397,409	42,606	-0,075	0,049
-396,394	800,000	0,015	-0,040
-395,379	482,499	-0,063	0,103
-394,365	46,635	0,087	0,058
-393,350	-200,000	-0,007	-0,036
-392,336	53,070	0,095	-0,065
-391,321	-163,823	0,127	-0,004
-390,306	-119,607	-0,158	-0,019
-389,292	-200,000	0,009	-0,190
-388,277	-200,000	-0,057	-0,212
-387,263	587,249	0,045	0,080
-386,248	440,489	0,027	0,042
-385,233	-110,268	-0,093	-0,014
-384,219	131,626	-0,102	-0,094
-383,204	-200,000	0,030	-0,131
-382,190	800,000	-0,056	-0,158
-381,175	-200,000	-0,011	-0,063
-380,160	515,812	0,092	-0,155
-379,146	570,772	0,028	0,049
-378,131	-200,000	-0,001	0,085
-377,117	178,910	-0,055	-0,058
-376,102	-103,267	0,160	-0,027
-375,088	129,683	-0,049	0,045
-374,073	-104,783	-0,087	-0,014
-373,058	96,371	0,031	0,025
-372,044	-68,503	-0,057	0,016
-371,029	-200,000	0,008	-0,032
-370,015	-80,927	-0,092	0,022
-369,000	168,505	-0,149	0,152
-367,985	-200,000	0,003	-0,041
-366,971	-200,000	0,016	0,058
-365,956	94,897	0,049	0,040
-364,942	-200,000	0,014	0,109
-363,927	-88,458	0,058	0,012
-362,912	72,176	0,083	0,062
-361,898	208,368	-0,047	-0,053
-360,883	625,384	-0,061	-0,110
-359,869	-200,000	0,017	-0,091
-358,854	-34,455	0,138	0,054
-357,839	-94,089	0,137	0,027
-356,825	-200,000	0,017	0,177
-355,810	800,000	0,052	0,151
-354,796	129,203	0,111	-0,102
-353,781	-200,000	-0,031	-0,129
-352,766	800,000	-0,033	0,077
-351,752	800,000	-0,030	0,089
-350,737	154,589	0,005	-0,005
-349,723	-200,000	0,012	-0,043
-348,708	-181,675	-0,166	-0,002
-347,693	295,895	0,039	0,052
-346,679	-200,000	0,020	-0,146
-345,664	-200,000	0,027	-0,100
-344,650	748,739	0,070	0,136
-343,635	16,737	-0,043	-0,024
-342,620	139,105	0,060	0,057
-341,606	-88,238	-0,092	0,020
-340,591	113,904	-0,028	0,024
-339,577	-129,213	0,046	-0,005
-338,562	800,000	-0,030	-0,082
-337,548	-47,519	0,099	-0,034
-336,533	800,000	0,016	0,036
-335,518	-200,000	0,014	0,178
-334,504	344,457	-0,022	-0,031
-333,489	-200,000	0,018	-0,098
-332,475	-49,161	-0,052	0,018
-331,460	-22,786	-0,140	-0,060
-330,445	53,325	-0,062	0,042
-329,431	96,086	-0,088	0,072
-328,416	300,600	0,079	-0,105
-327,402	-163,828	0,103	-0,003
-326,387	7,373	-0,109	-0,058
-325,372	-67,912	0,076	-0,021
-324,358	-53,225	-0,118	-0,038
-323,343	224,713	-0,050	0,058
-322,329	800,000	-0,039	0,090
-321,314	-200,000	-0,003	0,039
-320,299	800,000	0,064	0,171
-319,285	92,616	-0,019	0,016
-318,270	173,640	0,059	-0,061
-317,256	10,658	-0,106	0,058
-316,241	88,409	0,037	-0,029
-315,226	-200,000	-0,008	0,043
-314,212	-150,940	0,143	0,008
-313,197	-200,000	-0,027	0,118
-312,183	-74,560	0,106	-0,027
-311,168	-200,000	-0,045	0,199
-310,153	158,799	-0,092	-0,091
-309,139	-127,701	-0,074	0,008
-308,124	752,810	0,027	0,052
-307,110	-146,308	0,103	0,006
-306,095	-200,000	0,002	0,007
-305,080	800,000	-0,039	0,094
-304,066	-200,000	-0,004	0,081
-303,051	-124,811	0,062	0,007
-302,037	87,204	-0,064	-0,051
-301,022	800,000	-0,017	0,053
-300,008	-91,229	-0,033	0,007
-298,993	91,919	0,152	0,122
-297,978	800,000	0,048	0,107
-296,964	48,737	-0,035	-0,023
-295,949	78,696	-0,073	-0,055
-294,935	-89,914	0,128	0,027
-293,920	800,000	0,037	0,108
-292,905	-166,340	-0,025	0,001
-291,891	366,743	0,072	0,103
-290,876	-44,281	0,129	0,046
-289,862	61,342	0,148	-0,105
-288,847	800,000	-0,018	-0,054
-287,832	-146,639	-0,129	-0,008
-286,818	-200,000	-0,003	0,045
-285,803	204,779	0,030	0,034
-284,789	-200,000	0,014	0,074
-283,774	-200,000	0,004	0,046
-282,759	-71,440	0,038	0,010
-281,745	440,278	0,025	0,039
-280,730	26,292	-0,106	0,063
-279,716	-97,678	-0,082	-0,015
-278,701	58,483	-0,046	0,032
-277,686	562,853	0,093	0,162
-276,672	209,991	-0,078	0,088
-275,657	-80,086	-0,043	0,010
-274,643	-68,086	-0,134	-0,037
-273,628	800,000	-0,036	-0,089
-272,613	800,000	0,005	-0,014
-271,599	-200,000	0,005	0,022
-270,584	-113,510	-0,061	0,008
-269,570	-200,000	-0,004	-0,151
-268,555	-200,000	0,023	0,097
-267,540	-200,000	0,006	0,026
-266,526	-200,000	-0,012	0,088
-265,511	-150,251	-0,048	0,003
-264,497	-200,000	0,009	-0,213
-263,482	-200,000	0,007	-0,101
-262,467	-74,409	0,174	0,045
-261,453	8,728	-0,033	-0,017
-260,438	491,338	0,054	0,089
-259,424	-93,146	-0,185	-0,036
-258,409	-3,399	-0,099	0,049
-257,395	24,801	-0,060	0,035
-256,380	-70,682	0,154	-0,041
-255,365	-200,000	0,000	-0,031
-254,351	-109,669	0,203	-0,030
-253,336	-132,155	-0,064	0,006
-252,322	-54,259	-0,096	0,031
-251,307	155,937	-0,058	0,057
-250,292	-200,000	-0,020	0,194
-249,278	329,653	-0,082	0,113
-248,263	-200,000	0,030	0,114
-247,249	-108,757	0,013	-0,002
-246,234	98,168	0,085	-0,070
-245,219	10,427	-0,185	-0,100
-244,205	313,441	-0,045	-0,060
-243,190	147,937	0,148	0,142
-242,176	644,148	-0,042	0,076
-241,161	588,230	-0,049	-0,087
-240,146	198,092	-0,065	0,071
-239,132	-72,761	0,136	-0,036
-238,117	-200,000	-0,015	-0,125
-237,103	-174,234	-0,081	0,002
-236,088	530,843	-0,065	-0,109
-235,073	510,039	0,055	-0,092
-234,059	79,369	-0,026	-0,020
-233,044	-76,750	0,147	-0,036
-232,030	800,000	-0,037	0,091
-231,015	-173,822	-0,088	-0,002
-230,000	-120,380	-0,017	0,002
-228,986	800,000	-0,021	-0,061
-227,971	76,895	0,090	0,068
-226,957	-200,000	-0,001	0,066
-225,942	97,501	0,081	-0,066
-224,927	-200,000	-0,004	0,032
-223,913	108,390	0,123	-0,104
-222,898	138,417	-0,033	-0,031
-221,884	134,283	-0,055	-0,051
-220,869	-138,049	0,154	0,012
-219,855	800,000	-0,033	0,072
-218,840	139,218	0,056	0,053
-217,825	-200,000	-0,016	-0,065
-216,811	800,000	-0,013	0,031
-215,796	-17,889	-0,168	-0,075
-214,782	374,429	-0,042	-0,060
-213,767	30,417	-0,057	-0,035
-212,752	-200,000	0,023	0,074
-211,738	-169,016	-0,038	-0,001
-210,723	148,438	-0,056	0,054
-209,709	-24,411	-0,156	-0,066
-208,694	125,114	-0,168	-0,151
-207,679	-27,088	-0,054	-0,022
-206,665	399,783	0,049	-0,073
-205,650	800,000	0,034	-0,088
-204,636	800,000	0,081	0,169
-203,621	-200,000	0,006	0,182
-202,606	0,054	-0,091	0,046
-201,592	-32,434	-0,081	0,032
-200,577	275,551	0,073	0,093
-199,563	109,831	-0,088	-0,075
-198,548	-186,110	0,162	0,002
-197,533	13,668	0,071	0,039
-196,519	529,078	0,080	0,135
-195,504	183,396	0,044	0,046
-194,490	-53,312	-0,086	0,028
-193,475	-200,000	-0,027	0,126
-192,460	-164,333	-0,095	0,003
-191,446	-200,000	0,004	-0,082
-190,431	472,900	0,038	0,062
-189,417	-200,000	0,005	-0,051
-188,402	-200,000	0,010	0,055
-187,387	338,000	-0,050	-0,070
-186,373	-108,714	0,104	-0,016
-185,358	20,524	-0,222	-0,128
-184,344	-177,638	0,091	0,002
-183,329	-200,000	0,016	-0,097
-182,315	-57,850	-0,069	0,021
-181,300	1,695	-0,090	-0,046
-180,285	-81,871	0,134	-0,031
-179,271	-200,000	-0,001	0,075
-178,256	-200,000	0,024	0,124
-177,242	-200,000	-0,028	0,160
-176,227	22,133	0,114	0,066
-175,212	800,000	-0,057	0,112
-174,198	800,000	0,074	0,223
-173,183	800,000	-0,061	-0,142
-172,169	-200,000	0,008	-0,030
-171,154	800,000	0,061	-0,140
-170,139	-200,000	-0,028	0,104
-169,125	134,792	-0,048	-0,044
-168,110	-68,373	-0,156	0,043
-167,096	11,129	-0,101	-0,055
-166,081	-109,706	-0,065	0,010
-165,066	553,518	-0,036	0,062
-164,052	-75,944	0,215	0,054
-163,037	-129,199	0,063	-0,006
-162,023	-200,000	0,005	0,081
-161,008	529,617	0,039	0,065
-159,993	244,576	0,066	-0,080
-158,979	-95,143	0,073	0,014
-157,964	-95,211	-0,157	0,030
-156,950	142,460	-0,046	-0,044
-155,935	348,704	-0,009	-0,013
-154,920	-200,000	-0,029	0,181
-153,906	144,892	0,201	0,191
-152,891	131,521	0,135	0,123
-151,877	227,345	-0,123	-0,142
-150,862	200,225	0,053	0,058
-149,847	-56,362	0,029	0,009
-148,833	185,153	0,096	0,101
-147,818	61,159	-0,027	-0,019
-146,804	289,952	0,028	-0,037
-145,789	-200,000	-0,005	-0,018
-144,775	169,089	0,028	0,028
-143,760	-200,000	-0,007	-0,094
-142,745	73,799	-0,029	-0,022
-141,731	237,603	-0,104	0,123
-140,716	-160,503	0,092	0,003
-139,702	-58,342	0,151	0,046
-138,687	305,598	-0,071	0,094
-137,672	-200,000	0,031	0,120
-136,658	200,712	0,089	-0,097
-135,643	-200,000	-0,003	-0,101
-134,629	800,000	-0,090	-0,221
-133,614	89,575	-0,014	0,011
-132,599	-200,000	0,056	0,205
-131,585	-137,400	0,088	-0,007
-130,570	-11,810	-0,080	0,037
-129,556	-16,786	-0,040	0,018
-128,541	-200,000	-0,010	-0,068
-127,526	1,103	-0,067	0,034
-126,512	608,200	0,102	0,182
-125,497	-61,534	0,121	0,036
-124,483	10,551	0,112	0,061
-123,468	100,275	-0,036	0,029
-122,453	196,705	0,026	-0,029
-121,439	-200,000	0,024	-0,084
-120,424	301,068	0,113	-0,148
-119,410	687,902	-0,071	-0,133
-118,395	188,637	0,132	-0,140
-117,380	-136,576	0,046	0,004
-116,366	-200,000	-0,010	-0,067
-115,351	-109,614	0,013	0,002
-114,337	217,009	-0,029	0,033
-113,322	23,219	-0,121	0,070
-112,307	21,434	-0,039	-0,022
-111,293	800,000	0,039	-0,108
-110,278	368,723	-0,022	0,032
-109,264	800,000	-0,049	0,102
-108,249	-75,069	0,094	-0,024
-107,234	-200,000	-0,016	-0,117
-106,220	-200,000	-0,007	0,075
-105,205	565,766	0,019	0,032
-104,191	215,121	0,064	0,073
-103,176	-81,803	-0,033	0,008
-102,162	136,668	-0,048	0,044
-101,147	288,115	0,019	0,024
-100,132	1,018	0,027	0,014
-99,118	299,332	-0,023	-0,030
-98,103	13,243	0,032	-0,018
-97,089	453,720	0,029	-0,045
-96,074	-90,194	0,229	-0,047
-95,059	118,950	-0,032	-0,028
-94,045	-7,270	-0,122	-0,059
-93,030	100,162	-0,009	0,007
-92,016	26,825	-0,079	0,047
-91,001	-200,000	0,002	0,032
-89,986	686,736	0,044	0,083
-88,972	-200,000	0,007	-0,084
-87,957	-136,033	0,035	-0,003
-86,943	-2,299	-0,126	-0,063
-85,928	-150,747	0,166	-0,009
-84,913	-200,000	0,011	-0,056
-83,899	800,000	0,005	-0,012
-82,884	172,603	-0,074	0,076
-81,870	303,363	0,081	0,107
-80,855	107,516	0,042	-0,035
-79,840	33,091	0,173	-0,106
-78,826	-200,000	-0,025	-0,156
-77,811	138,824	-0,009	-0,009
-76,797	800,000	-0,060	-0,119
-75,782	346,145	0,072	-0,100
-74,767	800,000	-0,043	0,109
-73,753	657,255	-0,079	-0,144
-72,738	-81,447	0,006	-0,001
-71,724	529,213	0,029	-0,048
-70,709	-83,238	-0,050	0,011
-69,694	-200,000	-0,074	-0,241
-68,680	-5,070	-0,043	0,021
-67,665	101,491	0,063	-0,052
-66,651	800,000	-0,038	0,118
-65,636	285,103	-0,038	-0,048
-64,622	-200,000	-0,029	-0,098
-63,607	800,000	-0,084	-0,171
-62,592	29,803	0,052	0,031
-61,578	265,727	-0,029	-0,036
-60,563	-118,273	0,078	0,010
-59,549	183,112	-0,104	0,109
-58,534	-44,885	-1,496	-0,525
-57,519	392,338	-1,425	-2,105
-56,505	-200,000	-0,616	-4,531
-55,490	85,225	1,031	0,801
-54,476	800,000	4,946	11,358
-53,461	-200,000	18,504	297,629
-52,446	800,000	732,011	2261,147
-51,432	559,531	1648,689	2830,219
-50,417	78,869	1668,496	1263,236
-49,403	22,419	1541,416	890,098
-48,388	16,366	1464,576	816,354
-47,373	17,764	1454,564	817,488
-46,359	17,065	1444,660	808,540
-45,344	14,598	1440,232	794,228
-44,330	14,533	1438,258	792,798
-43,315	14,547	1436,535	791,885
-42,300	14,554	1434,961	791,020
-41,286	14,627	1433,491	790,524
-40,271	14,504	1432,474	789,346
-39,257	14,529	1431,335	788,806
-38,242	14,642	1429,735	788,433
-37,227	14,611	1428,692	787,676
-36,213	14,549	1427,303	786,584
-35,198	14,559	1426,261	786,028
-34,184	14,586	1425,336	785,614
-33,169	14,533	1423,909	784,548
-32,154	14,566	1422,866	784,096
-31,140	14,552	1421,646	783,329
-30,125	14,652	1420,342	783,049
-29,111	14,531	1419,530	781,999
-28,096	14,584	1418,131	781,448
-27,082	14,482	1417,187	780,416
-26,067	14,490	1416,095	779,822
-25,052	14,504	1415,029	779,271
-24,038	14,464	1414,093	778,536
-23,023	14,448	1413,095	777,879
-22,009	14,452	1412,108	777,322
-20,994	14,420	1411,253	776,674
-19,979	14,463	1410,267	776,299
-18,965	14,413	1409,253	775,478
-17,950	14,422	1408,343	774,990
-16,936	14,423	1407,528	774,515
-15,921	14,373	1406,415	773,635
-14,906	14,371	1405,556	773,125
-13,892	14,438	1404,505	772,827
-12,877	14,413	1403,589	772,176
-11,863	14,408	1402,762	771,668
-10,848	14,398	1401,919	771,125
-9,833	14,373	1401,027	770,487
-8,819	14,335	1399,980	769,708
-7,804	14,312	1399,303	769,198
-6,790	14,316	1397,996	768,466
-5,775	14,255	1397,208	767,721
-4,760	14,298	1396,262	767,367
-3,746	14,305	1395,430	766,913
-2,731	14,303	1394,631	766,435
-1,717	14,264	1393,698	765,709
-0,702	14,267	1391,973	764,748
0,313	18,117	1310,203	737,652
1,327	34,382	706,271	435,325
2,342	52,659	124,349	83,944
3,356	1,520	16,630	8,440
4,371	-15,139	3,183	1,437
5,386	-27,907	0,496	0,202
6,400	-200,000	0,054	0,227
7,415	207,398	-0,130	-0,144
8,429	134,940	-0,322	-0,296
9,444	69,355	-0,327	-0,238
10,459	118,447	-0,301	-0,263
11,473	-24,399	-0,318	-0,133
12,488	25,327	-0,259	-0,152
13,502	-43,268	-0,296	-0,105
14,517	276,388	-0,269	-0,338
15,531	-19,549	-0,493	-0,215
16,546	84,348	-0,323	-0,249
17,561	188,426	-0,260	-0,275
18,575	41,271	-0,222	-0,141
19,590	155,944	-0,247	-0,241
20,604	33,191	-0,309	-0,189
21,619	49,288	-0,399	-0,264
22,634	21,161	-0,455	-0,260
23,648	95,395	-0,378	-0,304
24,663	99,649	-0,389	-0,318
25,677	79,613	-0,362	-0,274
26,692	216,335	-0,233	-0,262
27,707	-34,191	-0,357	-0,138
28,721	98,085	-0,389	-0,316
29,736	36,186	-0,376	-0,233
30,750	86,851	-0,405	-0,316
31,765	52,407	-0,343	-0,230
32,780	102,124	-0,464	-0,383
33,794	133,557	-0,323	-0,295
34,809	48,499	-0,339	-0,224
35,823	48,370	-0,312	-0,206
36,838	182,475	-0,278	-0,290
37,853	72,455	-0,476	-0,350
38,867	100,767	-0,492	-0,403
39,882	-23,043	-0,306	-0,129
40,896	-9,098	-0,356	-0,168
41,911	200,931	-0,337	-0,366
42,926	-16,018	-0,268	-0,120
43,940	94,939	-0,480	-0,385
44,955	51,736	-0,410	-0,275
45,969	89,564	-0,408	-0,320
46,984	-60,599	-0,296	-0,088
47,999	-131,328	-0,296	-0,027
49,013	-33,392	-0,379	-0,147
50,028	20,398	-0,319	-0,181
51,042	109,046	-0,289	-0,243
52,057	92,712	-0,354	-0,282
53,071	61,685	-0,325	-0,227
54,086	147,032	-0,265	-0,251
55,101	32,175	-0,354	-0,215
56,115	118,200	-0,265	-0,230
57,130	73,856	-0,307	-0,226
58,144	-33,440	-0,381	-0,147
59,159	91,794	-0,367	-0,290
60,174	25,769	-0,458	-0,268
61,188	174,917	-0,292	-0,298
62,203	8,377	-0,265	-0,140
63,217	25,652	-0,398	-0,233
64,232	-45,449	-0,369	-0,128
65,247	55,814	-0,256	-0,174
66,261	87,126	-0,394	-0,307
67,276	-35,224	-0,391	-0,149
68,290	139,799	-0,281	-0,260
69,305	143,009	-0,263	-0,246
70,320	98,962	-0,262	-0,213
71,334	101,999	-0,411	-0,337
72,349	2,527	-0,384	-0,195
73,363	126,989	-0,272	-0,242
74,378	93,513	-0,327	-0,260
75,393	130,453	-0,264	-0,238
76,407	178,594	-0,200	-0,205
77,422	-91,296	-0,295	0,059
78,436	129,428	-0,246	-0,221
79,451	69,858	-0,276	-0,200
80,466	-19,092	-0,388	-0,169
81,480	2,975	-0,445	-0,226
82,495	71,737	-0,252	-0,184
83,509	135,801	-0,285	-0,261
84,524	166,807	-0,193	-0,192
85,539	50,650	-0,262	-0,174
86,553	86,909	-0,317	-0,245
87,568	115,096	-0,249	-0,214
88,582	11,649	-0,298	-0,160
89,597	-15,170	-0,340	-0,152
90,611	243,455	-0,188	-0,222
91,626	82,651	-0,196	-0,150
92,641	149,260	-0,145	-0,138
93,655	76,626	-0,257	-0,191
94,670	371,507	-0,194	-0,277
95,684	-56,137	-0,289	-0,090
96,699	11,084	-0,196	-0,105
97,714	-22,650	-0,245	-0,103
98,728	-145,165	-0,231	-0,015
99,743	65,148	-0,211	-0,149
100,757	37,093	-0,187	-0,116
101,772	-9,228	-0,218	-0,102
102,787	167,344	-0,287	-0,286
103,801	132,329	-0,224	-0,203
104,816	65,300	-0,275	-0,195
105,830	-117,624	-0,302	-0,038
106,845	265,387	-0,129	-0,158
107,860	102,103	-0,224	-0,184
108,874	172,024	-0,226	-0,228
109,889	21,162	-0,232	-0,132
110,903	211,599	-0,303	-0,335
111,918	6,869	-0,220	-0,115
112,933	-85,104	-0,274	-0,060
113,947	7,833	-0,209	-0,109
114,962	-1,213	-0,221	-0,109
115,976	41,933	-0,313	-0,198
116,991	-29,461	-0,300	-0,120
118,006	185,021	-0,217	-0,226
119,020	-59,265	-0,197	-0,059
120,035	54,766	-0,214	-0,144
121,049	-98,360	-0,249	-0,044
122,064	9,474	-0,345	-0,182
123,079	92,251	-0,136	-0,107
124,093	-100,470	-0,350	-0,060
125,108	7,739	-0,315	-0,165
126,122	326,175	-0,234	-0,314
127,137	200,493	-0,238	-0,257
128,151	-113,450	-0,352	-0,048
129,166	72,246	-0,242	-0,176
130,181	800,000	-0,105	-0,268
131,195	101,923	-0,270	-0,221
132,210	57,305	-0,298	-0,203
133,224	82,368	-0,312	-0,237
134,239	220,422	-0,184	-0,206
135,254	210,338	-0,181	-0,199
136,268	200,932	-0,152	-0,163
137,283	7,413	-0,189	-0,099
138,297	94,223	-0,242	-0,192
139,312	263,988	-0,150	-0,183
140,327	62,694	-0,267	-0,186
141,341	104,713	-0,168	-0,138
142,356	91,898	-0,145	-0,114
143,370	290,727	-0,114	-0,145
144,385	111,699	-0,288	-0,243
145,400	329,818	-0,122	-0,164
146,414	285,839	-0,157	-0,198
147,429	266,361	-0,198	-0,243
148,443	200,708	-0,239	-0,257
149,458	77,231	-0,184	-0,137
150,473	-88,643	-0,359	-0,074
151,487	93,056	-0,256	-0,202
152,502	167,075	-0,227	-0,226
153,516	77,683	-0,255	-0,189
154,531	-79,844	-0,323	-0,075
155,546	85,439	-0,203	-0,155
156,560	-18,518	-0,224	-0,097
157,575	26,484	-0,138	-0,080
158,589	781,581	-0,086	-0,166
159,604	107,071	-0,372	-0,309
160,619	169,470	-0,255	-0,254
161,633	64,713	-0,221	-0,155
162,648	15,619	-0,310	-0,170
163,662	360,891	-0,131	-0,184
164,677	21,085	-0,298	-0,168
165,692	-200,000	-0,310	0,000
166,706	-115,781	-0,142	-0,018
167,721	86,488	-0,269	-0,207
168,735	-68,164	-0,391	-0,105
169,750	28,827	-0,287	-0,169
170,764	-59,690	-0,177	-0,053
171,779	800,000	-0,085	-0,168
172,794	-41,751	-0,271	-0,096
173,808	-192,551	-0,331	-0,002
174,823	163,117	-0,212	-0,207
175,837	76,780	-0,143	-0,106
176,852	79,389	-0,285	-0,213
177,867	3,651	-0,367	-0,186
178,881	422,120	-0,138	-0,207
179,896	154,666	-0,191	-0,183
180,910	69,626	-0,185	-0,133
181,925	-23,391	-0,267	-0,111
182,940	270,077	-0,217	-0,267
183,954	39,260	-0,243	-0,151
184,969	350,146	-0,094	-0,130
185,983	366,315	-0,120	-0,170
186,998	193,248	-0,156	-0,164
188,013	19,264	-0,177	-0,098
189,027	108,208	-0,222	-0,184
190,042	84,970	-0,234	-0,179
191,056	74,049	-0,205	-0,150
192,071	-62,377	-0,067	-0,019
193,086	254,614	-0,177	-0,212
194,100	21,268	-0,207	-0,117
195,115	800,000	-0,111	-0,222
196,129	606,172	-0,194	-0,338
197,144	-22,886	-0,267	-0,112
198,159	398,721	-0,240	-0,350
199,173	149,058	-0,262	-0,247
200,188	145,670	-0,155	-0,145
201,202	130,807	-0,220	-0,196
202,217	94,735	-0,203	-0,161
203,232	106,594	-0,224	-0,185
204,246	223,801	-0,230	-0,259
205,261	-115,712	-0,252	-0,032
206,275	262,742	-0,133	-0,161
207,290	-77,133	-0,190	-0,046
208,304	57,186	-0,142	-0,096
209,319	-23,379	-0,146	-0,061
210,334	430,428	-0,119	-0,180
211,348	-99,273	-0,273	-0,047
212,363	77,539	-0,225	-0,166
213,377	31,206	-0,259	-0,154
214,392	352,228	-0,107	-0,147
215,407	-70,258	-0,172	-0,045
216,421	30,386	-0,291	-0,172
217,436	-11,776	-0,309	-0,140
218,450	800,000	-0,072	-0,186
219,465	373,139	-0,149	-0,212
220,480	24,628	-0,210	-0,120
221,494	-59,232	-0,181	-0,054
222,509	-143,234	-0,227	-0,015
223,523	110,773	-0,165	-0,137
224,538	561,139	-0,099	-0,166
225,553	-4,480	-0,241	-0,115
226,567	354,373	-0,198	-0,273
227,582	377,798	-0,123	-0,175
228,596	800,000	-0,092	-0,192
229,611	365,193	-0,138	-0,193
230,626	-53,627	-0,282	-0,089
231,640	57,020	-0,118	-0,080
232,655	175,341	-0,151	-0,152
233,669	276,196	-0,212	-0,262
234,684	148,754	-0,200	-0,188
235,699	800,000	-0,110	-0,223
236,713	-7,437	-0,244	-0,114
237,728	-126,174	-0,124	-0,013
238,742	261,335	-0,152	-0,182
239,757	800,000	-0,043	-0,091
240,772	722,967	-0,135	-0,250
241,786	-80,886	-0,173	-0,039
242,801	355,540	-0,130	-0,179
243,815	38,281	-0,148	-0,091
244,830	75,325	-0,127	-0,093
245,844	-200,000	0,008	-0,080
246,859	-17,437	-0,259	-0,112
247,874	298,600	-0,200	-0,255
248,888	108,945	-0,179	-0,148
249,903	-63,653	-0,181	-0,051
250,917	519,660	-0,079	-0,129
251,932	-31,269	-0,261	-0,101
252,947	105,071	-0,279	-0,228
253,961	-178,134	-0,161	-0,003
254,976	60,717	-0,219	-0,150
255,990	523,631	-0,131	-0,214
257,005	220,667	-0,128	-0,142
258,020	-77,094	-0,221	-0,053
259,034	10,875	-0,217	-0,114
260,049	-158,908	-0,164	-0,006
261,063	94,611	-0,191	-0,150
262,078	77,602	-0,223	-0,164
263,093	-143,212	-0,144	-0,009
264,107	155,351	-0,190	-0,181
265,122	-82,143	-0,199	-0,045
266,136	-32,034	-0,109	-0,042
267,151	648,121	-0,140	-0,248
268,166	126,671	-0,202	-0,177
269,180	-160,202	-0,143	0,005
270,195	800,000	-0,127	-0,297
271,209	621,117	-0,115	-0,200
272,224	-76,475	-0,152	0,037
273,239	336,951	-0,050	-0,067
274,253	-114,660	-0,191	-0,025
275,268	-115,412	-0,263	-0,034
276,282	663,432	-0,168	-0,301
277,297	79,790	-0,184	-0,136
278,312	0,993	-0,241	-0,119
279,326	-144,727	-0,286	0,018
280,341	-117,089	-0,074	-0,009
281,355	75,838	-0,140	-0,102
282,370	130,856	-0,082	-0,073
283,384	177,204	-0,220	-0,222
284,399	95,617	-0,101	-0,079
285,414	560,779	-0,102	-0,171
286,428	49,663	-0,232	-0,151
287,443	183,355	-0,153	-0,157
288,457	147,326	-0,170	-0,158
289,472	-200,000	-0,175	-0,000
290,487	-103,315	-0,181	-0,029
291,501	99,908	-0,117	-0,094
292,516	63,118	-0,053	-0,037
293,530	111,467	-0,178	-0,148
294,545	3,669	-0,118	-0,059
295,560	-200,000	-0,001	-0,077
296,574	-152,865	-0,290	-0,014
297,589	800,000	-0,078	-0,168
298,603	-200,000	-0,028	-0,154
299,618	264,313	-0,174	-0,209
300,633	194,037	-0,154	-0,161
301,647	-69,416	-0,140	-0,037
302,662	358,394	-0,045	-0,062
303,676	304,059	-0,087	-0,112
304,691	109,209	-0,199	-0,164
305,706	525,625	-0,120	-0,196
306,720	-200,000	-0,001	-0,232
307,735	800,000	-0,033	-0,092
308,749	742,284	-0,114	-0,213
309,764	176,697	-0,131	-0,132
310,779	-22,845	-0,246	-0,102
311,793	169,470	-0,162	-0,159
312,808	84,271	-0,273	-0,206
313,822	201,568	-0,185	-0,197
314,837	-96,616	-0,219	-0,039
315,852	-121,999	-0,040	-0,004
316,866	800,000	-0,048	-0,124
317,881	144,559	-0,038	-0,035
318,895	59,107	-0,117	-0,079
319,910	800,000	-0,042	-0,122
320,925	10,751	-0,177	-0,093
321,939	174,420	-0,196	-0,195
322,954	10,247	-0,129	-0,067
323,968	-61,114	-0,138	-0,040
324,983	-106,544	-0,129	0,020
325,997	124,806	-0,102	0,089
327,012	-60,920	-0,147	-0,042
328,027	-9,903	-0,193	-0,088
329,041	11,893	-0,255	-0,135
330,056	-56,449	-0,102	-0,031
331,070	-3,184	-0,207	-0,099
332,085	289,013	-0,068	0,085
333,100	-43,957	0,032	-0,011
334,114	-30,518	-0,192	-0,074
335,129	-21,054	-0,185	-0,078
336,143	275,380	-0,105	-0,128
337,158	-46,458	-0,144	-0,048
338,173	-0,989	-0,178	-0,086
339,187	29,018	-0,087	-0,051
340,202	-135,188	-0,049	-0,004
341,216	241,099	-0,140	-0,161
342,231	217,797	-0,119	-0,131
343,246	71,231	-0,113	-0,080
344,260	-4,773	-0,169	-0,080
345,275	-200,000	-0,004	-0,087
346,289	-200,000	0,005	-0,107
347,304	-42,149	-0,108	-0,038
348,319	-83,319	-0,190	0,042
349,333	-52,377	-0,190	-0,060
350,348	-43,270	-0,154	-0,053
351,362	182,950	-0,125	-0,127
352,377	67,257	-0,126	-0,088
353,392	10,736	-0,152	-0,079
354,406	47,191	-0,217	-0,138
355,421	208,200	1318,214	1415,348
356,435	160,184	1479,388	1415,840
