DTS Sentinel unit serial number:	SN410029Multiplexer serial number:	ORYXHardware model number:	OX2-SRSoftware version number:	ORYX F/W v4,00 Oryx Data Collector v3.7.2.0data status	okinstallation	B3 Nyhavnadifferential loss correction	single-endedforward channel	channel 1reverse channel	N/Adate	2023/11/30time	12:27:30forward acquisition time	300,00reverse acquisition time	0,00gamma	499,1914k internal	0,3212k external	0,3212temperature offset calibration	1,0000default loss term (dB/km)	0,3820temperature slope calibration	1,0000multiplexer offset coefficient	1,0000multiplexer slope coefficient	1,0000fibre end	0,00T internal ref (°C)	9,67T ext. ref 1 (°C)	-4,49T ext. ref 2 (°C)	-4,55length (m)	temperature (°C)	Stokes	anti-Stokes-744,400	373,941	-0,192	-0,285
-743,385	-200,000	-0,066	0,337
-742,371	107,221	-0,197	-0,170
-741,356	-200,000	0,065	0,270
-740,342	-58,071	-0,152	-0,048
-739,327	-200,000	-0,027	0,256
-738,312	254,740	-0,300	-0,373
-737,298	-200,000	-0,012	0,150
-736,283	93,401	-0,177	-0,145
-735,269	-200,000	-0,077	0,336
-734,254	266,491	-0,169	-0,215
-733,239	-101,751	-0,184	0,032
-732,225	218,024	-0,090	-0,105
-731,210	-200,000	-0,001	0,060
-730,196	160,120	-0,103	-0,105
-729,181	-23,656	-0,060	-0,026
-728,167	-100,155	-0,108	0,019
-727,152	380,050	-0,049	0,074
-726,137	132,292	-0,138	-0,129
-725,123	800,000	-0,026	0,067
-724,108	218,021	-0,091	-0,105
-723,094	-65,216	-0,149	-0,043
-722,079	36,004	-0,086	-0,055
-721,064	-74,213	-0,198	0,052
-720,050	169,246	0,031	0,032
-719,035	-56,916	-0,078	-0,025
-718,021	2,692	-0,093	-0,049
-717,006	295,128	-0,041	-0,054
-715,991	-200,000	0,003	-0,200
-714,977	241,384	-0,080	-0,097
-713,962	184,704	0,113	-0,122
-712,948	-200,000	-0,031	-0,120
-711,933	-9,781	-0,044	0,021
-710,918	406,430	0,068	-0,104
-709,904	-98,428	-0,067	0,012
-708,889	-51,872	-0,037	-0,012
-707,875	-200,000	-0,056	-0,182
-706,860	-200,000	0,021	-0,084
-705,845	230,729	-0,059	0,069
-704,831	293,407	0,065	0,086
-703,816	355,170	-0,079	-0,114
-702,802	-114,128	-0,104	-0,014
-701,787	-200,000	-0,007	-0,167
-700,772	-132,864	-0,058	-0,005
-699,758	87,820	-0,084	0,067
-698,743	367,084	0,063	-0,093
-697,729	283,476	0,067	0,087
-696,714	-107,624	0,096	0,015
-695,699	800,000	-0,024	-0,049
-694,685	252,800	0,012	-0,015
-693,670	159,104	-0,035	0,035
-692,656	320,368	0,091	0,125
-691,641	169,888	-0,065	0,067
-690,627	-200,000	-0,019	0,111
-689,612	-45,997	0,081	0,029
-688,597	168,731	-0,089	-0,092
-687,583	133,962	-0,168	-0,157
-686,568	-110,354	-0,026	-0,004
-685,554	91,804	-0,098	-0,080
-684,539	301,733	0,099	-0,132
-683,524	132,429	-0,065	-0,061
-682,510	531,888	0,060	0,103
-681,495	510,642	0,060	-0,102
-680,481	550,079	-0,121	-0,211
-679,466	-200,000	-0,005	-0,075
-678,451	-200,000	-0,019	-0,167
-677,437	-200,000	0,002	0,061
-676,422	800,000	-0,026	0,067
-675,408	269,934	0,025	0,032
-674,393	47,125	-0,012	-0,008
-673,378	-162,562	-0,155	-0,005
-672,364	235,552	-0,036	-0,043
-671,349	396,632	0,055	0,083
-670,335	357,181	0,038	0,055
-669,320	365,568	0,051	0,074
-668,305	36,541	-0,133	0,085
-667,291	-37,242	0,046	0,018
-666,276	-200,000	0,020	0,069
-665,262	-200,000	0,000	-0,088
-664,247	-66,670	0,016	-0,005
-663,232	800,000	0,030	0,090
-662,218	228,717	0,021	0,025
-661,203	54,851	0,045	-0,031
-660,189	-118,118	-0,056	0,007
-659,174	800,000	-0,032	0,092
-658,159	94,633	-0,074	-0,061
-657,145	-127,967	-0,177	0,018
-656,130	59,077	-0,052	0,037
-655,116	-107,662	0,075	-0,012
-654,101	208,279	-0,049	0,055
-653,086	36,216	-0,110	-0,070
-652,072	222,799	0,046	-0,054
-651,057	-55,732	-0,160	-0,051
-650,043	-200,000	0,016	-0,079
-649,028	146,472	0,044	-0,043
-648,014	800,000	-0,059	-0,178
-646,999	62,710	-0,114	-0,082
-645,984	-200,000	-0,038	0,133
-644,970	258,623	-0,148	-0,184
-643,955	-4,997	0,088	0,043
-642,941	-200,000	-0,010	-0,036
-641,926	355,554	0,042	-0,061
-640,911	-200,000	-0,005	0,047
-639,897	800,000	0,029	0,068
-638,882	71,903	-0,127	0,096
-637,868	-153,714	0,051	-0,002
-636,853	268,496	0,017	0,022
-635,838	112,410	-0,124	0,108
-634,824	800,000	0,067	-0,198
-633,809	-200,000	-0,019	-0,068
-632,795	-73,707	0,098	-0,025
-631,780	68,086	0,051	0,037
-630,765	800,000	-0,050	-0,128
-629,751	-149,573	-0,095	-0,005
-628,736	172,690	0,057	0,059
-627,722	-102,419	-0,096	-0,016
-626,707	-128,487	0,099	0,010
-625,692	-151,813	0,133	0,007
-624,678	-120,117	-0,046	0,006
-623,663	91,077	0,083	-0,067
-622,649	240,193	0,052	-0,062
-621,634	-171,285	-0,077	0,002
-620,619	183,943	0,076	0,081
-619,605	13,032	0,086	0,048
-618,590	118,254	-0,069	0,062
-617,576	-200,000	-0,005	-0,026
-616,561	150,777	-0,044	-0,044
-615,546	706,065	0,004	0,008
-614,532	29,376	0,085	-0,052
-613,517	455,027	0,017	0,027
-612,503	208,146	0,045	-0,050
-611,488	800,000	0,042	-0,118
-610,474	-200,000	0,034	0,179
-609,459	-22,661	0,167	0,072
-608,444	11,550	-0,112	0,062
-607,430	-72,132	-0,111	0,030
-606,415	446,233	-0,018	-0,029
-605,401	174,979	-0,102	-0,107
-604,386	240,494	-0,029	-0,034
-603,371	-43,885	-0,050	0,018
-602,357	325,428	0,106	0,147
-601,342	-130,107	-0,108	0,010
-600,328	800,000	-0,038	-0,081
-599,313	-200,000	-0,004	-0,137
-598,298	-87,600	-0,093	-0,020
-597,284	111,627	0,041	-0,036
-596,269	413,706	0,014	-0,021
-595,255	-200,000	0,019	-0,074
-594,240	-200,000	-0,000	-0,020
-593,225	168,102	-0,053	0,055
-592,211	172,016	-0,048	-0,049
-591,196	-109,120	-0,013	0,002
-590,182	800,000	0,028	0,080
-589,167	377,680	0,073	0,107
-588,152	105,911	-0,042	-0,036
-587,138	800,000	-0,058	-0,180
-586,123	-47,129	-0,104	-0,036
-585,109	320,506	-0,072	-0,099
-584,094	-125,353	-0,204	-0,022
-583,079	-200,000	0,009	-0,034
-582,065	-176,362	0,053	-0,001
-581,050	800,000	0,039	0,098
-580,036	-119,429	-0,085	-0,010
-579,021	-72,224	-0,110	0,029
-578,006	0,440	-0,165	-0,085
-576,992	8,083	-0,084	-0,045
-575,977	-200,000	0,038	-0,135
-574,963	30,061	0,097	-0,059
-573,948	-11,077	0,119	0,056
-572,934	800,000	-0,025	0,051
-571,919	-80,571	-0,146	0,035
-570,904	-200,000	0,006	-0,056
-569,890	-44,396	0,053	0,019
-568,875	5,041	0,072	0,038
-567,861	-56,486	-0,108	0,034
-566,846	-200,000	0,008	-0,076
-565,831	-200,000	-0,037	0,123
-564,817	603,970	0,032	0,058
-563,802	198,351	0,029	-0,033
-562,788	-200,000	-0,003	-0,089
-561,773	405,956	0,078	0,118
-560,758	-62,670	-0,108	0,032
-559,744	-58,132	-0,095	0,030
-558,729	800,000	0,026	0,060
-557,715	206,765	0,068	-0,076
-556,700	-200,000	-0,031	-0,153
-555,685	-146,579	-0,032	-0,002
-554,671	247,562	0,084	-0,103
-553,656	-200,000	0,005	-0,175
-552,642	196,490	-0,041	0,045
-551,627	800,000	-0,044	-0,088
-550,612	-200,000	0,044	-0,143
-549,598	800,000	0,004	-0,014
-548,583	-200,000	0,003	0,058
-547,569	-146,032	0,130	-0,008
-546,554	158,833	0,022	-0,022
-545,539	260,218	0,086	0,107
-544,525	461,640	-0,077	0,125
-543,510	-79,024	-0,124	-0,030
-542,496	-200,000	0,040	-0,142
-541,481	-105,326	-0,108	0,017
-540,466	-200,000	-0,036	0,120
-539,452	307,666	0,005	0,007
-538,437	-200,000	-0,012	0,069
-537,423	-159,157	-0,111	-0,004
-536,408	-200,000	-0,006	-0,124
-535,393	-121,399	-0,036	0,004
-534,379	-62,986	0,142	0,042
-533,364	225,804	-0,036	-0,042
-532,350	126,414	0,088	0,080
-531,335	380,336	0,078	-0,115
-530,321	-82,160	-0,119	0,028
-529,306	-105,129	-0,175	0,028
-528,291	-200,000	-0,008	0,043
-527,277	-200,000	0,014	-0,057
-526,262	800,000	-0,061	-0,125
-525,248	58,970	-0,126	-0,089
-524,233	-89,542	0,153	-0,032
-523,218	450,464	0,045	-0,071
-522,204	-119,869	-0,095	0,012
-521,189	222,363	-0,038	0,044
-520,175	-200,000	-0,005	0,092
-519,160	10,371	-0,024	-0,013
-518,145	23,076	0,020	-0,012
-517,131	43,556	0,104	0,068
-516,116	17,456	0,115	0,066
-515,102	63,881	-0,113	0,082
-514,087	-200,000	0,020	0,085
-513,072	611,317	-0,060	-0,109
-512,058	-105,555	0,074	0,012
-511,043	-102,839	0,071	0,012
-510,029	45,099	0,052	0,034
-509,014	-200,000	-0,022	0,129
-507,999	-200,000	0,011	0,037
-506,985	172,193	0,035	-0,036
-505,970	-200,000	-0,013	-0,081
-504,956	50,291	0,067	-0,045
-503,941	-200,000	-0,001	-0,003
-502,926	-200,000	-0,002	0,014
-501,912	-200,000	0,007	0,080
-500,897	-108,097	-0,025	-0,004
-499,883	-14,353	0,101	0,046
-498,868	-28,773	-0,136	-0,056
-497,853	-200,000	0,000	-0,012
-496,839	800,000	-0,032	-0,078
-495,824	-200,000	-0,001	-0,166
-494,810	17,154	0,060	0,034
-493,795	-200,000	0,019	0,119
-492,781	-112,552	-0,069	-0,010
-491,766	80,547	-0,037	0,029
-490,751	-200,000	-0,026	-0,122
-489,737	-96,538	0,026	0,005
-488,722	-7,352	-0,086	0,042
-487,708	-122,287	0,056	-0,006
-486,693	-200,000	0,008	-0,079
-485,678	-51,919	0,018	-0,006
-484,664	800,000	-0,034	-0,075
-483,649	-200,000	0,015	-0,048
-482,635	-200,000	-0,013	-0,087
-481,620	93,170	0,142	0,115
-480,605	-155,127	0,063	-0,003
-479,591	-110,441	0,117	-0,017
-478,576	211,172	-0,102	0,115
-477,562	-200,000	-0,009	0,048
-476,547	652,459	0,039	0,072
-475,532	342,704	-0,034	0,048
-474,518	-200,000	-0,005	0,037
-473,503	140,824	0,051	0,048
-472,489	6,898	0,013	-0,007
-471,474	241,769	0,035	0,042
-470,459	-63,093	-0,123	-0,036
-469,445	-12,035	-0,060	-0,028
-468,430	-200,000	0,001	-0,147
-467,416	146,948	0,056	0,054
-466,401	800,000	0,063	0,168
-465,386	-200,000	0,025	0,188
-464,372	-200,000	0,009	0,065
-463,357	5,134	-0,051	0,027
-462,343	121,444	0,068	-0,061
-461,328	244,875	0,036	0,044
-460,313	82,253	0,115	0,090
-459,299	-146,789	-0,101	0,006
-458,284	-200,000	-0,006	-0,124
-457,270	-200,000	0,004	-0,023
-456,255	309,215	-0,047	-0,064
-455,241	-54,354	-0,047	0,015
-454,226	-145,435	0,065	0,004
-453,211	-149,244	0,121	-0,007
-452,197	800,000	-0,037	0,091
-451,182	-117,264	0,025	-0,003
-450,168	9,688	-0,083	0,045
-449,153	471,241	-0,017	-0,027
-448,138	-200,000	0,033	-0,114
-447,124	-111,883	-0,107	-0,015
-446,109	210,997	0,081	0,091
-445,095	96,018	-0,063	-0,052
-444,080	49,960	-0,023	0,015
-443,065	77,646	0,062	0,048
-442,051	800,000	-0,021	-0,054
-441,036	51,224	-0,122	-0,083
-440,022	404,101	0,143	-0,216
-439,007	-94,680	-0,152	-0,029
-437,992	351,748	0,071	0,100
-436,978	36,654	0,018	0,011
-435,963	61,113	-0,111	0,079
-434,949	-116,126	-0,078	-0,010
-433,934	800,000	-0,027	0,064
-432,919	333,444	-0,039	-0,055
-431,905	234,303	0,006	-0,008
-430,890	454,847	-0,094	-0,150
-429,876	800,000	0,046	0,141
-428,861	98,258	-0,032	0,026
-427,846	-200,000	0,028	-0,137
-426,832	-0,046	-0,069	-0,035
-425,817	-200,000	-0,015	0,053
-424,803	444,047	-0,028	-0,044
-423,788	212,062	-0,094	-0,106
-422,773	-85,417	0,089	-0,020
-421,759	303,732	0,049	0,065
-420,744	-200,000	-0,017	-0,081
-419,730	-97,858	-0,126	-0,023
-418,715	-37,382	0,091	0,035
-417,701	800,000	-0,068	-0,171
-416,686	-22,680	0,042	-0,018
-415,671	-165,097	-0,048	0,002
-414,657	800,000	0,019	-0,041
-413,642	105,683	0,015	-0,013
-412,628	800,000	-0,022	0,047
-411,613	16,252	-0,116	-0,065
-410,598	11,896	0,135	0,074
-409,584	181,226	-0,070	0,073
-408,569	-124,447	0,205	0,023
-407,555	-200,000	0,001	0,071
-406,540	451,216	0,077	0,122
-405,525	-125,232	0,148	0,016
-404,511	23,748	-0,087	0,051
-403,496	-119,260	0,189	0,023
-402,482	73,196	-0,095	0,071
-401,467	382,322	0,089	0,131
-400,452	434,695	0,065	0,102
-399,438	-38,586	0,069	0,026
-398,423	-90,605	-0,173	-0,036
-397,409	-200,000	0,019	0,104
-396,394	800,000	-0,013	0,027
-395,379	288,350	-0,030	-0,039
-394,365	800,000	-0,041	0,125
-393,350	-146,999	0,152	0,009
-392,336	267,274	-0,044	-0,055
-391,321	580,716	0,049	-0,087
-390,306	-200,000	-0,004	0,083
-389,292	-200,000	-0,021	0,128
-388,277	800,000	-0,013	-0,036
-387,263	-170,459	0,057	0,001
-386,248	-200,000	0,024	-0,076
-385,233	140,906	-0,092	0,087
-384,219	152,823	0,059	0,058
-383,204	-68,789	-0,086	-0,024
-382,190	83,959	-0,188	-0,147
-381,175	57,866	-0,133	0,093
-380,160	-200,000	-0,005	-0,050
-379,146	365,404	0,092	0,133
-378,131	264,999	0,106	0,133
-377,117	800,000	0,031	-0,091
-376,102	-200,000	-0,007	0,132
-375,088	-3,268	0,044	0,022
-374,073	-66,607	-0,083	0,023
-373,058	138,808	0,021	0,020
-372,044	-38,953	0,149	0,056
-371,029	-200,000	-0,025	0,119
-370,015	543,103	-0,024	-0,041
-369,000	800,000	-0,066	0,134
-367,985	-200,000	-0,006	-0,020
-366,971	-200,000	0,003	-0,026
-365,956	-19,030	0,147	-0,065
-364,942	-93,481	0,096	0,019
-363,927	-200,000	0,025	0,108
-362,912	476,549	-0,035	0,057
-361,898	-28,218	-0,201	0,082
-360,883	-26,944	0,010	0,004
-359,869	800,000	0,042	0,086
-358,854	-102,799	0,054	0,009
-357,839	375,299	0,034	0,050
-356,825	-54,184	0,213	0,069
-355,810	513,426	0,048	-0,080
-354,796	46,472	-0,095	-0,063
-353,781	-200,000	0,010	0,036
-352,766	254,763	0,081	-0,099
-351,752	374,950	-0,013	-0,020
-350,737	-200,000	0,030	0,149
-349,723	20,990	0,153	0,089
-348,708	616,369	0,025	-0,045
-347,693	-200,000	-0,007	-0,036
-346,679	241,537	0,058	0,069
-345,664	-100,345	-0,153	0,027
-344,650	-53,210	-0,037	0,012
-343,635	-113,836	0,111	-0,015
-342,620	-200,000	-0,021	0,079
-341,606	-36,998	0,009	0,003
-340,591	-200,000	0,018	0,137
-339,577	522,828	-0,046	-0,078
-338,562	684,837	-0,011	-0,020
-337,548	-35,454	0,062	0,024
-336,533	-148,874	-0,101	0,006
-335,518	-110,363	0,031	-0,005
-334,504	-149,908	0,114	-0,006
-333,489	-63,746	-0,191	-0,056
-332,475	800,000	-0,037	-0,091
-331,460	-96,312	0,105	-0,020
-330,445	-178,337	-0,113	-0,002
-329,431	800,000	0,086	0,183
-328,416	-200,000	0,003	-0,022
-327,402	-138,128	0,023	0,002
-326,387	-4,799	0,060	-0,029
-325,372	576,349	0,054	-0,094
-324,358	161,532	-0,124	-0,124
-323,343	673,455	0,053	0,099
-322,329	128,987	-0,076	0,070
-321,314	-200,000	-0,042	0,164
-320,299	-39,225	0,085	0,032
-319,285	46,009	-0,072	0,048
-318,270	-14,670	0,022	-0,010
-317,256	-200,000	-0,028	-0,146
-316,241	-105,893	0,034	0,005
-315,226	800,000	0,053	0,135
-314,212	-200,000	0,010	0,084
-313,197	-200,000	-0,011	0,075
-312,183	617,526	0,047	-0,084
-311,168	664,175	-0,089	-0,164
-310,153	21,671	0,052	0,030
-309,139	-23,436	-0,127	-0,054
-308,124	99,620	0,158	0,130
-307,110	-140,209	-0,116	-0,009
-306,095	-48,256	0,094	-0,032
-305,080	177,005	-0,058	-0,060
-304,066	-200,000	0,015	-0,088
-303,051	154,527	0,108	-0,106
-302,037	-35,792	-0,137	0,053
-301,022	39,900	0,103	0,066
-300,008	20,452	0,127	0,073
-298,993	-167,065	-0,079	0,002
-297,978	-200,000	0,004	-0,084
-296,964	543,396	0,068	-0,116
-295,949	105,346	-0,089	-0,075
-294,935	283,492	-0,022	0,028
-293,920	-200,000	0,040	-0,133
-292,905	233,943	0,135	0,159
-291,891	-74,783	0,070	-0,018
-290,876	-97,070	-0,087	-0,016
-289,862	-65,293	0,116	0,033
-288,847	800,000	-0,043	0,105
-287,832	512,550	0,035	-0,058
-286,818	8,409	-0,116	-0,062
-285,803	0,738	0,149	-0,076
-284,789	152,659	0,118	0,115
-283,774	-37,895	-0,053	0,020
-282,759	-7,973	0,090	-0,043
-281,745	24,272	-0,039	0,023
-280,730	-189,586	-0,187	0,001
-279,716	-200,000	0,003	0,019
-278,701	800,000	0,014	0,039
-277,686	412,728	0,064	-0,097
-276,672	800,000	-0,035	0,107
-275,657	-158,038	0,163	-0,007
-274,643	-200,000	0,021	-0,178
-273,628	-24,576	-0,132	0,056
-272,613	-141,490	0,118	-0,008
-271,599	-144,142	0,135	-0,009
-270,584	800,000	0,035	0,075
-269,570	354,338	0,051	0,073
-268,555	-108,227	-0,101	0,015
-267,540	256,184	0,040	-0,048
-266,526	137,513	-0,025	0,023
-265,511	-200,000	-0,013	-0,067
-264,497	217,819	-0,027	0,031
-263,482	-200,000	-0,030	0,156
-262,467	-121,053	-0,049	0,006
-261,453	303,000	0,048	0,064
-260,438	-60,483	-0,121	0,036
-259,424	31,902	-0,017	0,011
-258,409	9,357	-0,058	-0,031
-257,395	173,372	-0,070	-0,071
-256,380	-200,000	0,026	0,185
-255,365	283,142	0,052	0,067
-254,351	423,669	-0,063	0,097
-253,336	734,467	0,004	-0,007
-252,322	-80,605	-0,051	-0,012
-251,307	-82,981	0,047	-0,011
-250,292	100,904	0,079	0,065
-249,278	-34,471	-0,033	0,013
-248,263	46,974	0,032	-0,021
-247,249	-200,000	-0,022	-0,069
-246,234	410,322	-0,085	-0,129
-245,219	-81,958	0,099	0,023
-244,205	-57,074	-0,138	0,043
-243,190	90,203	0,105	0,083
-242,176	413,961	0,029	0,044
-241,161	18,280	0,118	0,067
-240,146	-135,009	-0,092	-0,008
-239,132	209,083	-0,071	-0,079
-238,117	-200,000	-0,043	-0,168
-237,103	-52,237	-0,104	-0,034
-236,088	124,077	0,018	-0,016
-235,073	800,000	0,045	0,096
-234,059	-48,895	-0,064	-0,022
-233,044	-200,000	-0,039	0,180
-232,030	174,715	-0,031	-0,032
-231,015	-138,116	-0,128	-0,010
-230,000	-200,000	0,069	-0,233
-228,986	-29,141	0,054	0,022
-227,971	169,980	-0,013	0,013
-226,957	197,903	-0,062	0,068
-225,942	-160,620	0,058	0,002
-224,927	-200,000	-0,004	0,043
-223,913	-200,000	0,032	0,164
-222,898	72,639	0,089	-0,066
-221,884	-150,228	-0,040	0,002
-220,869	54,631	-0,083	0,056
-219,855	261,722	0,046	0,057
-218,840	-88,817	0,096	0,020
-217,825	800,000	-0,037	-0,094
-216,811	211,489	-0,101	-0,113
-215,796	6,167	0,115	-0,061
-214,782	-95,145	-0,127	0,024
-213,767	93,574	0,048	0,039
-212,752	-200,000	-0,012	0,073
-211,738	800,000	-0,042	0,088
-210,723	-200,000	-0,023	-0,097
-209,709	800,000	-0,050	-0,105
-208,694	113,787	-0,031	-0,026
-207,679	800,000	-0,069	-0,138
-206,665	164,740	0,044	0,044
-205,650	206,880	0,124	-0,138
-204,636	187,721	0,064	-0,068
-203,621	-63,316	-0,116	-0,034
-202,606	641,492	-0,052	0,094
-201,592	800,000	0,042	-0,132
-200,577	800,000	-0,024	-0,051
-199,563	-200,000	-0,006	-0,023
-198,548	70,714	-0,090	0,066
-197,533	-200,000	0,008	0,075
-196,519	-200,000	-0,013	0,056
-195,504	644,101	-0,041	-0,074
-194,490	800,000	-0,099	-0,239
-193,475	225,891	0,012	0,014
-192,460	-135,940	0,106	0,009
-191,446	180,012	0,092	0,096
-190,431	243,172	0,080	0,095
-189,417	277,332	0,065	0,082
-188,402	-37,892	-0,043	-0,016
-187,387	114,560	-0,094	-0,081
-186,373	-34,455	-0,022	-0,009
-185,358	-200,000	-0,015	-0,067
-184,344	633,299	-0,025	-0,046
-183,329	-200,000	0,008	-0,114
-182,315	-15,121	0,101	-0,046
-181,300	487,133	0,062	-0,101
-180,285	-200,000	-0,005	-0,053
-179,271	296,466	-0,064	-0,084
-178,256	-116,137	0,018	-0,002
-177,242	53,707	-0,061	0,041
-176,227	365,694	0,048	0,069
-175,212	327,622	0,043	-0,058
-174,198	-98,942	0,084	0,015
-173,183	-41,792	-0,026	-0,009
-172,169	-200,000	-0,001	-0,060
-171,154	71,985	-0,010	0,008
-170,139	157,957	-0,044	-0,043
-169,125	-153,983	0,128	-0,006
-168,110	800,000	0,028	0,068
-167,096	315,753	0,097	0,130
-166,081	800,000	-0,007	-0,015
-165,066	292,893	-0,040	-0,051
-164,052	28,785	-0,088	0,053
-163,037	544,615	0,034	-0,058
-162,023	120,174	0,108	-0,095
-161,008	47,641	0,063	-0,041
-159,993	298,788	-0,093	0,121
-158,979	236,523	-0,055	-0,064
-157,964	-43,285	0,057	0,020
-156,950	46,252	-0,007	0,004
-155,935	-200,000	0,011	0,035
-154,920	7,738	0,114	-0,060
-153,906	-200,000	0,040	-0,132
-152,891	800,000	-0,032	0,082
-151,877	800,000	-0,010	0,025
-150,862	129,659	0,006	-0,005
-149,847	-200,000	-0,004	0,104
-148,833	27,063	0,077	-0,046
-147,818	306,448	0,054	-0,072
-146,804	800,000	-0,064	0,164
-145,789	82,125	-0,075	0,058
-144,775	-200,000	0,016	0,099
-143,760	86,610	-0,111	-0,087
-142,745	479,537	0,036	0,058
-141,731	-200,000	0,001	-0,101
-140,716	-117,867	0,096	0,012
-139,702	-200,000	-0,005	0,057
-138,687	-200,000	-0,008	0,029
-137,672	-200,000	-0,004	0,051
-136,658	800,000	-0,045	-0,137
-135,643	59,369	-0,117	-0,081
-134,629	800,000	-0,053	-0,139
-133,614	-200,000	-0,019	-0,068
-132,599	26,833	0,047	0,028
-131,585	-200,000	0,006	-0,034
-130,570	165,092	-0,027	0,027
-129,556	800,000	0,039	0,077
-128,541	98,667	-0,100	-0,081
-127,526	-200,000	0,014	0,061
-126,512	-200,000	-0,008	-0,085
-125,497	800,000	0,036	0,111
-124,483	79,559	0,070	-0,053
-123,468	-175,698	0,064	-0,001
-122,453	-200,000	0,002	-0,104
-121,439	30,008	-0,148	-0,089
-120,424	13,808	0,073	0,040
-119,410	-200,000	-0,018	0,215
-118,395	207,741	0,068	0,075
-117,380	800,000	0,036	-0,105
-116,366	-200,000	-0,034	0,148
-115,351	-60,827	-0,097	0,029
-114,337	229,450	-0,073	0,085
-113,322	283,869	-0,100	0,127
-112,307	-200,000	-0,014	0,080
-111,293	104,871	-0,030	0,025
-110,278	35,314	0,061	0,038
-109,264	557,427	-0,012	0,020
-108,249	10,441	-0,035	0,019
-107,234	800,000	0,013	0,027
-106,220	-94,566	-0,136	0,026
-105,205	131,945	-0,085	0,078
-104,191	-200,000	0,003	0,103
-103,176	-71,080	0,080	-0,021
-102,162	479,998	0,047	-0,076
-101,147	71,913	-0,015	-0,011
-100,132	-86,985	-0,159	0,034
-99,118	-20,682	-0,186	-0,080
-98,103	800,000	0,077	-0,215
-97,089	-120,367	-0,151	0,018
-96,074	316,290	-0,068	0,091
-95,059	10,018	0,038	0,020
-94,045	-1,201	-0,117	0,058
-93,030	51,637	0,076	0,051
-92,016	-45,922	0,079	-0,027
-91,001	-200,000	0,035	0,132
-89,986	-200,000	-0,001	0,067
-88,972	65,066	0,070	-0,050
-87,957	-200,000	0,020	-0,064
-86,943	578,583	0,016	-0,028
-85,928	373,975	0,040	0,057
-84,913	58,246	-0,108	-0,075
-83,899	-200,000	-0,016	0,096
-82,884	800,000	0,085	0,178
-81,870	450,879	-0,062	0,097
-80,855	-200,000	0,013	0,206
-79,840	800,000	-0,024	-0,049
-78,826	216,608	-0,109	-0,122
-77,811	175,364	0,047	0,049
-76,797	26,592	0,158	0,093
-75,782	-200,000	0,000	-0,046
-74,767	274,501	0,014	0,017
-73,753	-200,000	0,014	-0,115
-72,738	266,791	0,118	-0,146
-71,724	-200,000	0,009	-0,091
-70,709	800,000	-0,144	-0,309
-69,694	732,044	-0,081	-0,154
-68,680	761,049	0,035	-0,068
-67,665	752,665	0,047	0,089
-66,651	46,206	-0,070	0,046
-65,636	800,000	0,037	0,111
-64,622	-50,428	-0,124	0,041
-63,607	-200,000	-0,006	-0,019
-62,592	-74,950	-0,077	0,019
-61,578	-0,336	-0,069	0,034
-60,563	-43,743	0,085	-0,030
-59,549	800,000	0,041	0,093
-58,534	56,993	-2,014	-1,383
-57,519	605,211	-1,119	-1,975
-56,505	-200,000	-0,328	-4,322
-55,490	664,918	0,876	1,603
-54,476	800,000	5,034	11,115
-53,461	-200,000	21,688	344,706
-52,446	800,000	762,744	2359,254
-51,432	555,266	1664,091	2837,071
-50,417	72,637	1661,232	1221,356
-49,403	17,532	1534,638	858,114
-48,388	11,483	1458,279	786,164
-47,373	19,523	1449,428	819,926
-46,359	15,069	1438,785	792,703
-45,344	9,780	1434,509	765,138
-44,330	9,740	1432,506	763,848
-43,315	9,692	1430,923	762,746
-42,300	9,733	1428,805	761,780
-41,286	9,765	1427,673	761,299
-40,271	9,721	1426,493	760,430
-39,257	9,704	1425,259	759,661
-38,242	9,784	1424,234	759,467
-37,227	9,720	1423,396	758,683
-36,213	9,748	1421,841	757,959
-35,198	9,775	1420,568	757,378
-34,184	9,801	1419,491	756,894
-33,169	9,677	1418,287	755,637
-32,154	9,744	1417,338	755,420
-31,140	9,753	1416,102	754,770
-30,125	9,781	1414,857	754,210
-29,111	9,824	1413,634	753,732
-28,096	9,791	1412,215	752,790
-27,082	9,732	1411,396	752,047
-26,067	9,672	1410,412	751,212
-25,052	9,718	1409,286	750,795
-24,038	9,718	1408,367	750,277
-23,023	9,693	1407,620	749,730
-22,009	9,727	1406,323	749,168
-20,994	9,713	1405,252	748,505
-19,979	9,718	1404,456	748,074
-18,965	9,648	1403,461	747,186
-17,950	9,661	1402,555	746,738
-16,936	9,640	1401,703	746,156
-15,921	9,623	1400,646	745,486
-14,906	9,589	1399,948	744,925
-13,892	9,663	1398,866	744,662
-12,877	9,684	1398,191	744,372
-11,863	9,604	1397,336	743,516
-10,848	9,571	1396,356	742,814
-9,833	9,562	1395,417	742,244
-8,819	9,509	1394,761	741,618
-7,804	9,524	1393,573	741,025
-6,790	9,510	1392,671	740,452
-5,775	9,504	1391,785	739,922
-4,760	9,536	1390,595	739,408
-3,746	9,553	1389,679	738,973
-2,731	9,557	1388,917	738,557
-1,717	9,542	1388,094	738,022
-0,702	9,531	1386,522	737,106
0,313	13,561	1298,736	708,859
1,327	29,516	689,765	412,630
2,342	46,158	119,347	77,797
3,356	-0,429	16,505	8,236
4,371	1,580	3,599	1,820
5,386	-6,012	1,310	0,629
6,400	800,000	0,183	0,524
7,415	-4,340	-0,209	-0,102
8,429	800,000	-0,164	-0,376
9,444	-72,346	-0,383	-0,099
10,459	19,015	-0,288	-0,162
11,473	159,004	-0,148	-0,145
12,488	-86,678	-0,311	-0,066
13,502	126,165	-0,306	-0,273
14,517	99,665	-0,277	-0,225
15,531	23,456	-0,438	-0,253
16,546	69,376	-0,397	-0,288
17,561	89,286	-0,274	-0,215
18,575	-50,708	-0,146	-0,048
19,590	2,364	-0,166	-0,084
20,604	129,144	-0,215	-0,193
21,619	-0,236	-0,554	-0,276
22,634	111,319	-0,415	-0,352
23,648	103,808	-0,399	-0,330
24,663	66,060	-0,442	-0,315
25,677	204,072	-0,298	-0,325
26,692	350,979	-0,307	-0,428
27,707	9,799	-0,420	-0,224
28,721	94,533	-0,282	-0,226
29,736	64,790	-0,337	-0,239
30,750	241,847	-0,227	-0,267
31,765	246,881	-0,319	-0,379
32,780	112,156	-0,358	-0,304
33,794	70,351	-0,360	-0,261
34,809	80,837	-0,256	-0,194
35,823	114,369	-0,406	-0,347
36,838	181,906	-0,293	-0,304
37,853	9,131	-0,337	-0,178
38,867	210,894	-0,316	-0,350
39,882	73,308	-0,391	-0,287
40,896	171,183	-0,299	-0,301
41,911	48,111	-0,292	-0,192
42,926	104,460	-0,303	-0,251
43,940	28,726	-0,370	-0,220
44,955	61,199	-0,537	-0,374
45,969	96,844	-0,323	-0,260
46,984	180,016	-0,350	-0,360
47,999	-184,854	-0,367	0,004
49,013	-128,903	-0,363	-0,035
50,028	-66,162	-0,231	-0,064
51,042	190,536	-0,298	-0,315
52,057	125,496	-0,253	-0,224
53,071	127,669	-0,315	-0,281
54,086	111,306	-0,363	-0,307
55,101	201,544	-0,246	-0,266
56,115	36,893	-0,345	-0,213
57,130	39,998	-0,264	-0,166
58,144	-67,263	-0,356	-0,098
59,159	44,935	-0,326	-0,210
60,174	161,287	-0,238	-0,234
61,188	23,980	-0,397	-0,229
62,203	23,652	-0,248	-0,143
63,217	112,324	-0,246	-0,209
64,232	-5,393	-0,313	-0,150
65,247	231,707	-0,255	-0,294
66,261	148,299	-0,295	-0,279
67,276	-104,552	-0,346	-0,055
68,290	110,995	-0,330	-0,278
69,305	25,845	-0,145	-0,084
70,320	89,513	-0,224	-0,175
71,334	-132,213	-0,316	-0,028
72,349	26,032	-0,367	-0,214
73,363	64,092	-0,335	-0,236
74,378	124,718	-0,314	-0,277
75,393	-4,096	-0,371	-0,179
76,407	-52,979	-0,402	-0,129
77,422	-27,772	-0,222	-0,090
78,436	56,607	-0,263	-0,179
79,451	154,969	-0,191	-0,184
80,466	134,726	-0,275	-0,250
81,480	174,299	-0,225	-0,228
82,495	7,909	-0,360	-0,188
83,509	106,798	-0,291	-0,241
84,524	-129,400	-0,310	0,030
85,539	-45,147	-0,353	-0,122
86,553	-63,908	-0,256	-0,073
87,568	137,642	-0,282	-0,258
88,582	147,653	-0,289	-0,272
89,597	32,679	-0,178	-0,108
90,611	-25,932	-0,202	-0,083
91,626	-97,824	-0,347	-0,062
92,641	27,469	-0,346	-0,203
93,655	117,311	-0,164	-0,141
94,670	40,327	-0,270	-0,170
95,684	108,718	-0,379	-0,317
96,699	57,220	-0,241	-0,164
97,714	37,593	-0,282	-0,174
98,728	1,691	-0,217	-0,109
99,743	3,005	-0,293	-0,148
100,757	370,488	-0,191	-0,271
101,772	552,376	-0,171	-0,288
102,787	261,346	-0,238	-0,289
103,801	162,955	-0,302	-0,297
104,816	86,639	-0,242	-0,186
105,830	-117,184	-0,286	-0,036
106,845	-140,474	-0,225	-0,016
107,860	-112,684	-0,197	-0,027
108,874	73,939	-0,255	-0,186
109,889	151,354	-0,223	-0,212
110,903	-108,571	-0,231	-0,034
111,918	44,497	-0,269	-0,172
112,933	59,377	-0,230	-0,158
113,947	-56,797	-0,270	-0,083
114,962	108,816	-0,213	-0,178
115,976	2,174	-0,243	-0,122
116,991	12,428	-0,333	-0,179
118,006	650,598	-0,148	-0,266
119,020	-44,527	-0,194	-0,067
120,035	104,237	-0,199	-0,163
121,049	159,648	-0,152	-0,148
122,064	-118,382	-0,230	-0,028
123,079	137,042	-0,257	-0,234
124,093	-10,496	-0,361	-0,166
125,108	-15,042	-0,323	-0,144
126,122	-20,146	-0,241	-0,103
127,137	171,701	-0,188	-0,188
128,151	30,063	-0,199	-0,118
129,166	-85,105	-0,119	0,026
130,181	-9,749	-0,239	-0,111
131,195	100,592	-0,222	-0,179
132,210	265,571	-0,162	-0,197
133,224	59,724	-0,265	-0,182
134,239	33,142	-0,334	-0,201
135,254	179,550	-0,165	-0,169
136,268	492,217	-0,074	-0,119
137,283	-35,227	-0,307	-0,116
138,297	93,531	-0,242	-0,191
139,312	263,129	-0,261	-0,317
140,327	134,285	-0,234	-0,212
141,341	63,908	-0,191	-0,134
142,356	28,450	-0,129	-0,076
143,370	-47,037	-0,241	-0,081
144,385	200,092	-0,175	-0,187
145,400	-14,998	-0,325	-0,144
146,414	-8,431	-0,345	-0,161
147,429	84,755	-0,294	-0,224
148,443	440,946	-0,074	-0,113
149,458	-44,381	-0,272	-0,094
150,473	26,821	-0,306	-0,178
151,487	208,553	-0,183	-0,199
152,502	-149,494	-0,221	-0,012
153,516	131,679	-0,150	-0,135
154,531	215,731	-0,147	-0,163
155,546	36,386	-0,171	-0,105
156,560	58,974	-0,103	-0,070
157,575	-21,678	-0,156	-0,066
158,589	10,561	-0,280	-0,148
159,604	169,266	-0,058	-0,058
160,619	85,826	-0,348	-0,266
161,633	800,000	-0,131	-0,321
162,648	182,793	-0,237	-0,243
163,662	-107,438	-0,334	-0,050
164,677	-4,800	-0,158	-0,076
165,692	-72,549	-0,206	-0,053
166,706	58,738	-0,331	-0,225
167,721	210,522	-0,255	-0,279
168,735	-87,395	-0,336	-0,070
169,750	131,468	-0,278	-0,248
170,764	124,875	-0,250	-0,219
171,779	-200,000	-0,031	-0,171
172,794	118,447	-0,171	-0,146
173,808	-14,267	-0,370	-0,165
174,823	14,607	-0,248	-0,134
175,837	319,001	-0,247	-0,326
176,852	548,740	-0,149	-0,250
177,867	147,810	-0,179	-0,168
178,881	-119,057	-0,241	0,029
179,896	14,154	-0,233	-0,126
180,910	-86,260	-0,340	-0,072
181,925	-34,783	-0,221	-0,083
182,940	24,843	-0,164	-0,094
183,954	213,615	-0,177	-0,195
184,969	182,281	-0,219	-0,225
185,983	800,000	-0,099	-0,225
186,998	-95,882	-0,223	-0,041
188,013	-46,613	-0,171	-0,058
189,027	225,642	-0,175	-0,197
190,042	-52,384	-0,280	-0,089
191,056	182,301	-0,218	-0,223
192,071	800,000	-0,087	-0,195
193,086	-10,356	-0,356	-0,163
194,100	-155,611	-0,212	-0,009
195,115	-129,724	-0,190	-0,018
196,129	223,325	-0,260	-0,291
197,144	24,825	-0,192	-0,110
198,159	449,266	-0,099	-0,152
199,173	-37,841	-0,248	-0,091
200,188	-18,783	-0,260	-0,112
201,202	332,693	-0,113	-0,152
202,217	163,082	-0,233	-0,227
203,232	-40,625	-0,313	-0,112
204,246	197,508	-0,165	-0,174
205,261	-85,090	-0,245	-0,053
206,275	-144,158	-0,167	0,011
207,290	-98,009	-0,305	-0,054
208,304	-91,738	-0,148	-0,029
209,319	170,104	-0,135	-0,134
210,334	-88,395	-0,251	-0,052
211,348	4,810	-0,222	-0,113
212,363	51,389	-0,184	-0,121
213,377	387,243	-0,109	-0,156
214,392	800,000	-0,076	-0,171
215,407	276,380	-0,081	-0,100
216,421	126,061	-0,218	-0,191
217,436	152,279	-0,197	-0,186
218,450	194,217	-0,182	-0,191
219,465	95,321	-0,300	-0,236
220,480	-106,521	-0,125	-0,019
221,494	-50,648	-0,257	-0,083
222,509	57,537	-0,186	-0,126
223,523	-200,000	-0,146	-0,000
224,538	218,490	-0,098	-0,108
225,553	154,357	-0,204	-0,194
226,567	100,783	-0,311	-0,250
227,582	-53,398	-0,300	-0,094
228,596	-142,107	-0,144	0,010
229,611	316,710	-0,169	-0,221
230,626	335,827	-0,121	-0,163
231,640	117,246	-0,222	-0,188
232,655	321,977	-0,181	-0,238
233,669	261,971	-0,228	-0,273
234,684	345,451	-0,119	-0,163
235,699	298,281	-0,161	-0,205
236,713	85,519	-0,078	-0,059
237,728	-32,478	-0,112	-0,043
238,742	800,000	-0,111	-0,303
239,757	-200,000	-0,015	-0,114
240,772	143,227	-0,200	-0,184
241,786	298,556	-0,209	-0,266
242,801	141,023	-0,174	-0,159
243,815	136,850	-0,200	-0,180
244,830	126,226	-0,130	-0,114
245,844	-146,479	-0,164	-0,010
246,859	-78,403	-0,186	0,044
247,874	382,363	-0,174	-0,247
248,888	47,757	-0,151	-0,097
249,903	185,811	-0,085	-0,087
250,917	72,576	-0,145	-0,104
251,932	-151,369	-0,205	-0,010
252,947	-70,744	-0,134	0,035
253,961	800,000	-0,094	-0,223
254,976	-137,147	-0,133	-0,010
255,990	800,000	-0,008	-0,018
257,005	-106,429	-0,092	-0,014
258,020	55,756	-0,116	-0,077
259,034	458,245	-0,063	-0,097
260,049	588,669	-0,119	-0,204
261,063	156,460	-0,208	-0,198
262,078	52,262	-0,304	-0,199
263,093	301,236	-0,163	-0,208
264,107	180,055	-0,089	-0,090
265,122	239,686	-0,119	-0,137
266,136	-23,983	-0,176	-0,072
267,151	-7,682	-0,168	-0,078
268,166	800,000	-0,080	-0,235
269,180	-200,000	-0,059	-0,277
270,195	798,616	-0,046	-0,088
271,209	46,864	-0,188	-0,120
272,224	-200,000	-0,031	-0,123
273,239	-200,000	-0,016	-0,195
274,253	-19,630	-0,101	-0,043
275,268	-58,371	-0,259	-0,077
276,282	138,277	-0,210	-0,190
277,297	511,213	-0,096	-0,154
278,312	535,359	-0,157	-0,258
279,326	193,246	-0,110	-0,115
280,341	-88,318	-0,202	-0,041
281,355	230,078	-0,154	-0,173
282,370	82,985	-0,253	-0,189
283,384	800,000	-0,036	-0,095
284,399	223,331	-0,081	-0,090
285,414	211,501	-0,120	-0,130
286,428	-5,455	-0,325	-0,153
287,443	-106,975	-0,076	-0,011
288,457	-186,273	-0,212	-0,002
289,472	-14,254	-0,165	-0,073
290,487	108,466	-0,146	-0,120
291,501	91,947	-0,241	-0,186
292,516	32,575	-0,214	-0,127
293,530	-46,650	-0,042	-0,014
294,545	-25,069	-0,089	-0,036
295,560	-10,894	-0,086	-0,039
296,574	-134,092	-0,195	0,016
297,589	-200,000	-0,059	-0,196
298,603	245,632	-0,115	-0,133
299,618	117,437	-0,171	-0,145
300,633	-75,160	-0,216	-0,053
301,647	163,808	-0,238	-0,230
302,662	-17,711	-0,165	-0,071
303,676	-160,265	-0,178	0,006
304,691	-0,002	-0,157	-0,077
305,706	800,000	-0,105	-0,278
306,720	-117,597	-0,142	-0,017
307,735	93,536	-0,149	-0,116
308,749	800,000	-0,058	-0,110
309,764	800,000	-0,048	-0,132
310,779	800,000	-0,063	-0,148
311,793	442,064	-0,066	-0,099
312,808	133,115	-0,162	-0,144
313,822	-96,780	-0,190	-0,034
314,837	-33,907	-0,126	0,048
315,852	312,635	-0,109	-0,141
316,866	-200,000	-0,023	-0,097
317,881	1,960	-0,045	-0,022
318,895	-63,266	-0,163	-0,046
319,910	250,694	-0,181	-0,211
320,925	129,795	-0,235	-0,206
321,939	-93,841	-0,219	0,041
322,954	-200,000	-0,001	-0,195
323,968	244,621	-0,092	-0,106
324,983	800,000	-0,093	-0,188
325,997	-37,990	-0,242	-0,087
327,012	800,000	-0,087	-0,187
328,027	-200,000	-0,017	-0,248
329,041	-200,000	-0,047	-0,262
330,056	-200,000	-0,043	-0,197
331,070	777,762	-0,125	-0,235
332,085	-74,891	-0,205	0,050
333,100	8,546	-0,120	0,062
334,114	173,375	-0,202	-0,200
335,129	475,651	-0,156	-0,242
336,143	783,335	-0,100	-0,189
337,158	800,000	-0,042	-0,105
338,173	-44,656	-0,135	-0,046
339,187	-116,511	-0,256	-0,032
340,202	103,960	-0,089	-0,072
341,216	-97,495	-0,214	0,038
342,231	-52,862	-0,141	0,044
343,246	143,407	-0,163	-0,148
344,260	294,238	-0,163	-0,204
345,275	86,617	-0,176	-0,133
346,289	29,800	-0,101	0,059
347,304	-24,303	-0,133	-0,054
348,319	800,000	-0,141	-0,355
349,333	53,506	-0,255	-0,167
350,348	650,731	-0,085	-0,149
351,362	800,000	-0,108	-0,228
352,377	-92,462	-0,113	0,021
353,392	649,749	-0,083	-0,146
354,406	9,485	-0,166	-0,086
355,421	208,584	1309,614	1401,947
356,435	160,501	1469,693	1402,418
