DTS Sentinel unit serial number:	SN410029Multiplexer serial number:	ORYXHardware model number:	OX2-SRSoftware version number:	ORYX F/W v4,00 Oryx Data Collector v3.7.2.0data status	okinstallation	B3 Nyhavnadifferential loss correction	single-endedforward channel	channel 1reverse channel	N/Adate	2023/11/30time	15:27:30forward acquisition time	300,00reverse acquisition time	0,00gamma	499,1914k internal	0,3207k external	0,3207temperature offset calibration	1,0000default loss term (dB/km)	0,3820temperature slope calibration	1,0000multiplexer offset coefficient	1,0000multiplexer slope coefficient	1,0000fibre end	0,00T internal ref (°C)	12,38T ext. ref 1 (°C)	-1,77T ext. ref 2 (°C)	-1,81length (m)	temperature (°C)	Stokes	anti-Stokes-744,400	791,366	-0,153	-0,307
-743,385	-200,000	-0,023	0,418
-742,371	727,361	-0,131	-0,254
-741,356	-200,000	0,007	0,290
-740,342	65,967	-0,256	-0,188
-739,327	800,000	0,096	0,253
-738,312	425,595	-0,118	-0,185
-737,298	-200,000	0,040	0,193
-736,283	-19,511	-0,271	-0,121
-735,269	-200,000	-0,016	0,257
-734,254	417,748	-0,218	-0,339
-733,239	306,378	-0,134	0,182
-732,225	58,746	-0,094	-0,067
-731,210	128,876	0,118	0,110
-730,196	638,587	-0,066	-0,123
-729,181	800,000	-0,007	-0,014
-728,167	-200,000	0,022	-0,099
-727,152	-200,000	-0,014	-0,052
-726,137	635,452	0,073	0,135
-725,123	445,566	-0,075	-0,120
-724,108	-200,000	-0,006	0,051
-723,094	66,849	-0,066	-0,049
-722,079	40,636	-0,062	0,041
-721,064	-200,000	0,010	-0,114
-720,050	-158,456	0,067	0,003
-719,035	-200,000	0,009	-0,033
-718,021	362,347	-0,079	-0,116
-717,006	-200,000	-0,005	-0,057
-715,991	-200,000	0,023	-0,088
-714,977	800,000	-0,056	-0,122
-713,962	442,703	-0,043	0,068
-712,948	-105,311	-0,170	-0,028
-711,933	39,487	0,029	-0,019
-710,918	-40,382	-0,111	0,042
-709,904	405,409	-0,060	-0,092
-708,889	370,335	-0,067	-0,099
-707,875	-52,612	0,051	0,017
-706,860	82,454	-0,054	-0,043
-705,845	80,585	-0,127	0,099
-704,831	800,000	0,035	0,076
-703,816	800,000	0,014	0,035
-702,802	-52,536	-0,047	-0,016
-701,787	51,870	0,038	0,026
-700,772	-39,441	-0,019	0,007
-699,758	-200,000	0,004	-0,049
-698,743	-77,055	0,065	-0,016
-697,729	205,582	-0,049	0,055
-696,714	128,089	-0,091	-0,083
-695,699	800,000	-0,034	-0,090
-694,685	-200,000	-0,008	-0,107
-693,670	29,114	0,089	-0,055
-692,656	-151,527	0,033	0,002
-691,641	-42,100	0,115	0,043
-690,627	2,593	0,108	0,056
-689,612	-200,000	0,024	0,133
-688,597	67,154	0,027	-0,020
-687,583	419,333	-0,062	-0,097
-686,568	-28,211	-0,110	-0,046
-685,554	90,753	0,080	-0,065
-684,539	328,551	0,080	0,111
-683,524	-200,000	-0,009	0,042
-682,510	247,385	-0,015	-0,019
-681,495	48,430	-0,126	-0,085
-680,481	14,343	-0,105	-0,059
-679,466	-181,724	-0,130	-0,002
-678,451	-67,272	-0,081	0,023
-677,437	628,322	0,029	-0,053
-676,422	75,556	0,100	0,076
-675,408	800,000	0,050	-0,108
-674,393	-1,217	-0,086	-0,044
-673,378	800,000	-0,048	0,112
-672,364	-200,000	-0,012	-0,057
-671,349	85,626	-0,049	-0,039
-670,335	-200,000	-0,006	-0,025
-669,320	-48,795	0,123	0,043
-668,305	-200,000	-0,005	0,047
-667,291	800,000	0,038	-0,095
-666,276	12,351	-0,082	-0,046
-665,262	83,382	0,115	-0,090
-664,247	-17,115	0,090	0,041
-663,232	4,956	-0,014	0,008
-662,218	800,000	0,065	0,132
-661,203	123,989	-0,021	0,019
-660,189	62,489	0,060	0,043
-659,174	-200,000	0,013	-0,094
-658,159	800,000	-0,022	0,046
-657,145	-200,000	0,015	0,089
-656,130	26,275	-0,087	0,052
-655,116	180,450	-0,053	-0,057
-654,101	-92,349	-0,097	0,020
-653,086	800,000	-0,011	0,031
-652,072	73,183	0,071	-0,053
-651,057	0,773	-0,028	-0,014
-650,043	-170,010	-0,094	0,002
-649,028	-115,988	-0,131	-0,017
-648,014	800,000	0,054	0,114
-646,999	-200,000	0,029	0,150
-645,984	800,000	-0,039	0,096
-644,970	-200,000	0,003	0,057
-643,955	89,820	-0,103	-0,083
-642,941	145,528	-0,104	-0,101
-641,926	110,915	-0,059	-0,051
-640,911	24,983	0,101	0,061
-639,897	-200,000	-0,004	0,054
-638,882	706,722	-0,050	0,096
-637,868	-200,000	0,019	-0,066
-636,853	96,528	-0,180	-0,149
-635,838	-200,000	0,015	-0,088
-634,824	-17,998	-0,061	0,027
-633,809	800,000	-0,027	-0,074
-632,795	-153,517	0,120	0,006
-631,780	679,167	0,017	0,032
-630,765	-200,000	0,003	-0,081
-629,751	-35,511	-0,097	0,038
-628,736	88,957	-0,058	-0,047
-627,722	-173,329	-0,251	-0,005
-626,707	15,746	0,085	0,048
-625,692	-64,137	-0,085	-0,025
-624,678	-114,600	0,138	0,019
-623,663	800,000	0,010	-0,024
-622,649	-200,000	-0,003	-0,119
-621,634	-190,638	-0,115	0,001
-620,619	-89,646	-0,088	0,019
-619,605	281,957	-0,078	0,101
-618,590	-20,506	-0,028	-0,012
-617,576	-200,000	-0,021	-0,083
-616,561	125,499	-0,084	-0,077
-615,546	80,969	-0,027	-0,021
-614,532	10,926	-0,046	-0,025
-613,517	-200,000	-0,007	-0,028
-612,503	-200,000	0,003	0,012
-611,488	-87,361	0,069	0,015
-610,474	-70,228	0,182	0,050
-609,459	-99,342	-0,104	-0,019
-608,444	-200,000	-0,018	-0,101
-607,430	-65,342	-0,172	-0,050
-606,415	-200,000	0,006	-0,027
-605,401	81,780	0,152	-0,119
-604,386	27,795	-0,149	0,090
-603,371	-75,705	0,046	0,012
-602,357	-25,653	-0,077	0,033
-601,342	-98,081	-0,101	0,019
-600,328	10,996	-0,072	-0,039
-599,313	800,000	-0,028	0,076
-598,298	-23,317	0,164	-0,071
-597,284	-14,565	0,126	-0,058
-596,269	800,000	-0,004	-0,012
-595,255	-19,513	0,030	-0,013
-594,240	-200,000	-0,022	-0,119
-593,225	22,034	-0,101	-0,059
-592,211	67,602	-0,082	-0,060
-591,196	91,462	0,096	-0,078
-590,182	-4,616	0,094	-0,047
-589,167	-166,184	-0,097	0,003
-588,152	-97,247	0,079	0,015
-587,138	-170,502	-0,057	0,001
-586,123	278,260	0,048	0,062
-585,109	84,075	-0,126	-0,099
-584,094	-79,608	0,032	0,008
-583,079	292,223	0,024	-0,032
-582,065	-50,360	0,119	0,040
-581,050	235,020	0,090	0,107
-580,036	163,340	-0,102	-0,104
-579,021	642,813	-0,029	0,054
-578,006	-200,000	0,013	-0,082
-576,992	800,000	0,019	-0,043
-575,977	800,000	-0,104	-0,216
-574,963	116,994	0,112	0,099
-573,948	-17,573	-0,121	0,055
-572,934	-142,972	0,124	0,009
-571,919	549,717	-0,040	0,069
-570,904	-200,000	-0,009	-0,041
-569,890	-200,000	-0,023	-0,160
-568,875	219,924	0,068	0,078
-567,861	-200,000	-0,021	0,099
-566,846	446,094	-0,049	0,078
-565,831	800,000	0,061	0,138
-564,817	220,956	0,035	-0,040
-563,802	-200,000	-0,085	-0,282
-562,788	-27,672	-0,015	0,006
-561,773	253,320	0,048	-0,060
-560,758	-42,313	0,178	0,065
-559,744	209,990	0,068	0,077
-558,729	31,756	-0,075	0,047
-557,715	90,356	0,092	0,074
-556,700	16,026	0,044	-0,025
-555,685	-184,915	-0,091	-0,001
-554,671	-127,832	0,103	-0,011
-553,656	-191,472	0,179	0,001
-552,642	383,871	-0,077	0,115
-551,627	74,734	-0,043	0,032
-550,612	-78,885	-0,111	-0,027
-549,598	183,449	-0,015	-0,016
-548,583	-200,000	-0,028	-0,110
-547,569	-200,000	-0,028	0,091
-546,554	-32,613	0,062	0,025
-545,539	-200,000	-0,020	0,107
-544,525	102,215	0,022	0,019
-543,510	70,685	-0,111	0,083
-542,496	141,565	-0,069	-0,066
-541,481	-20,291	-0,171	-0,075
-540,466	-200,000	-0,006	0,089
-539,452	155,702	0,061	0,061
-538,437	318,646	0,034	-0,046
-537,423	302,435	-0,061	0,081
-536,408	-200,000	-0,003	0,080
-535,393	232,328	0,085	0,101
-534,379	-200,000	0,005	-0,140
-533,364	800,000	-0,025	-0,067
-532,350	28,758	0,146	-0,089
-531,335	-0,467	-0,068	0,035
-530,321	-200,000	-0,008	0,051
-529,306	800,000	-0,042	-0,108
-528,291	111,999	-0,040	0,035
-527,277	111,921	0,045	0,039
-526,262	277,336	-0,072	-0,093
-525,248	258,009	-0,031	0,039
-524,233	-157,163	0,063	0,003
-523,218	800,000	0,047	0,128
-522,204	-200,000	-0,030	-0,110
-521,189	487,981	0,079	-0,131
-520,175	346,257	-0,112	-0,159
-519,160	-200,000	0,015	0,053
-518,145	-129,498	0,033	-0,003
-517,131	-40,203	-0,007	-0,003
-516,116	218,364	-0,093	0,107
-515,102	-116,840	-0,092	0,012
-514,087	282,842	0,050	-0,064
-513,072	-153,605	-0,152	0,007
-512,058	-200,000	-0,003	0,036
-511,043	120,445	0,021	-0,018
-510,029	-200,000	0,005	0,088
-509,014	-11,084	-0,069	0,033
-507,999	-13,721	0,221	0,102
-506,985	122,803	0,042	-0,037
-505,970	800,000	0,039	0,079
-504,956	104,933	0,092	0,078
-503,941	800,000	-0,018	0,042
-502,926	-126,490	0,067	-0,007
-501,912	-200,000	0,008	0,028
-500,897	46,480	-0,030	-0,020
-499,883	682,499	0,033	-0,062
-498,868	391,062	-0,123	-0,184
-497,853	-14,818	0,065	-0,030
-496,839	150,717	0,083	0,081
-495,824	440,396	0,058	0,091
-494,810	450,867	0,017	0,027
-493,795	800,000	0,012	0,029
-492,781	-200,000	0,010	-0,054
-491,766	-124,462	-0,075	-0,008
-490,751	-200,000	-0,014	0,078
-489,737	174,316	-0,121	0,125
-488,722	-42,020	0,104	-0,038
-487,708	-110,413	0,039	-0,006
-486,693	462,313	-0,050	0,081
-485,678	79,185	0,106	0,081
-484,664	309,211	0,077	0,104
-483,649	-79,806	-0,079	-0,019
-482,635	800,000	0,015	-0,039
-481,620	-117,812	0,160	0,020
-480,605	800,000	0,023	0,050
-479,591	-93,023	0,027	-0,005
-478,576	523,008	-0,059	0,100
-477,562	-22,495	-0,057	0,025
-476,547	16,187	-0,080	0,045
-475,532	659,125	0,075	0,139
-474,518	-147,924	0,068	-0,004
-473,503	-48,650	-0,042	-0,014
-472,489	800,000	0,026	-0,052
-471,474	-155,249	-0,214	0,010
-470,459	56,022	0,100	-0,070
-469,445	264,015	-0,084	-0,105
-468,430	18,955	-0,107	0,062
-467,416	202,604	0,070	-0,077
-466,401	-83,045	-0,026	0,006
-465,386	-200,000	0,035	0,152
-464,372	-65,182	0,049	-0,014
-463,357	54,632	-0,054	-0,038
-462,343	-200,000	-0,037	-0,132
-461,328	-67,100	-0,023	-0,006
-460,313	-16,431	0,048	-0,022
-459,299	-200,000	0,010	0,087
-458,284	66,327	0,105	0,076
-457,270	-200,000	0,005	0,084
-456,255	78,845	-0,059	-0,046
-455,241	-200,000	-0,027	-0,120
-454,226	-200,000	-0,001	0,011
-453,211	163,402	-0,007	-0,007
-452,197	-200,000	-0,001	0,090
-451,182	109,196	0,067	0,058
-450,168	-37,557	-0,137	0,052
-449,153	-200,000	0,004	0,080
-448,138	-14,825	-0,119	-0,054
-447,124	20,400	-0,113	-0,065
-446,109	196,437	0,048	0,053
-445,095	34,257	0,219	-0,137
-444,080	75,596	0,071	0,054
-443,065	-200,000	-0,096	0,000
-442,051	-200,000	0,015	-0,065
-441,036	122,355	-0,107	-0,096
-440,022	126,359	-0,110	-0,100
-439,007	800,000	-0,020	0,047
-437,992	-200,000	-0,022	-0,070
-436,978	800,000	-0,051	0,123
-435,963	-80,860	-0,085	0,020
-434,949	304,465	0,106	-0,141
-433,934	424,063	-0,042	-0,065
-432,919	-200,000	-0,013	-0,119
-431,905	-78,629	0,086	-0,021
-430,890	-24,040	0,043	0,018
-429,876	-200,000	-0,007	-0,023
-428,861	21,763	-0,063	0,037
-427,846	657,554	0,014	0,025
-426,832	-200,000	0,011	0,052
-425,817	-13,926	0,027	-0,012
-424,803	44,648	-0,120	-0,079
-423,788	300,382	0,037	0,049
-422,773	-200,000	-0,034	0,158
-421,759	-200,000	-0,012	0,067
-420,744	-8,334	-0,054	-0,026
-419,730	800,000	-0,018	-0,039
-418,715	800,000	0,039	-0,090
-417,701	-200,000	-0,024	0,084
-416,686	373,272	0,034	-0,050
-415,671	428,635	-0,031	-0,048
-414,657	-148,936	0,085	0,005
-413,642	665,981	0,042	-0,079
-412,628	174,695	0,038	-0,039
-411,613	800,000	-0,020	-0,047
-410,598	-200,000	0,011	-0,072
-409,584	-76,927	0,135	-0,034
-408,569	800,000	0,036	0,087
-407,555	-130,589	-0,027	0,003
-406,540	37,202	-0,123	0,078
-405,525	403,486	-0,021	-0,032
-404,511	-6,478	-0,097	0,047
-403,496	800,000	-0,035	-0,085
-402,482	154,563	-0,023	-0,023
-401,467	-143,481	-0,183	-0,012
-400,452	673,919	0,072	0,134
-399,438	20,010	-0,119	-0,069
-398,423	-6,023	-0,146	-0,071
-397,409	-59,972	-0,101	-0,031
-396,394	800,000	0,027	-0,069
-395,379	-200,000	0,011	-0,128
-394,365	-163,580	-0,036	-0,001
-393,350	-200,000	0,053	0,171
-392,336	-129,615	-0,084	-0,008
-391,321	-106,821	-0,120	-0,019
-390,306	800,000	-0,015	-0,046
-389,292	-29,848	-0,035	-0,014
-388,277	163,359	0,034	-0,034
-387,263	-177,095	-0,023	0,000
-386,248	237,394	-0,078	0,092
-385,233	-89,385	0,104	-0,022
-384,219	150,998	0,024	0,023
-383,204	-64,334	-0,082	-0,024
-382,190	161,956	0,073	-0,074
-381,175	331,993	-0,032	-0,044
-380,160	-97,643	0,180	0,033
-379,146	-1,281	0,113	-0,057
-378,131	-200,000	-0,001	0,091
-377,117	-106,698	-0,118	0,019
-376,102	36,120	0,062	-0,039
-375,088	-87,061	-0,098	0,021
-374,073	-200,000	-0,048	-0,287
-373,058	-200,000	-0,035	-0,117
-372,044	248,744	0,083	0,101
-371,029	-70,720	-0,010	0,003
-370,015	212,122	-0,045	-0,051
-369,000	-200,000	-0,003	0,008
-367,985	55,530	0,057	-0,039
-366,971	-103,854	-0,021	-0,003
-365,956	-115,545	-0,068	-0,009
-364,942	-142,504	0,104	0,007
-363,927	-65,628	-0,075	-0,021
-362,912	-82,138	-0,076	0,018
-361,898	-10,230	0,135	-0,064
-360,883	76,222	-0,177	0,134
-359,869	-76,340	-0,065	0,016
-358,854	-200,000	0,003	-0,034
-357,839	353,468	0,068	0,096
-356,825	210,871	0,062	0,070
-355,810	800,000	0,043	-0,086
-354,796	800,000	0,016	-0,034
-353,781	794,894	-0,063	-0,124
-352,766	-87,523	-0,086	-0,018
-351,752	83,268	-0,040	-0,031
-350,737	-188,002	0,028	-0,000
-349,723	-72,522	0,103	0,027
-348,708	800,000	0,004	0,009
-347,693	199,748	-0,072	-0,079
-346,679	-198,287	-0,045	0,000
-345,664	800,000	-0,011	0,026
-344,650	-200,000	-0,007	0,038
-343,635	-7,097	0,061	-0,029
-342,620	21,810	0,051	0,029
-341,606	124,888	-0,098	0,088
-340,591	-22,012	0,127	0,055
-339,577	800,000	0,052	-0,108
-338,562	-200,000	0,014	-0,152
-337,548	15,208	-0,106	-0,059
-336,533	-40,488	0,107	0,039
-335,518	28,983	0,107	0,064
-334,504	-106,554	-0,058	0,009
-333,489	-200,000	-0,005	0,081
-332,475	800,000	0,046	0,124
-331,460	-11,938	-0,113	0,053
-330,445	-139,363	0,139	-0,011
-329,431	303,307	0,116	0,154
-328,416	-200,000	0,031	0,101
-327,402	629,380	-0,071	-0,128
-326,387	-87,939	-0,059	0,012
-325,372	-67,666	0,065	-0,018
-324,358	-118,572	0,092	0,012
-323,343	-41,604	-0,156	-0,057
-322,329	800,000	-0,014	0,028
-321,314	-200,000	0,025	0,160
-320,299	41,885	0,065	-0,042
-319,285	-200,000	0,007	-0,195
-318,270	-42,080	-0,118	0,043
-317,256	800,000	0,038	-0,115
-316,241	800,000	-0,060	-0,127
-315,226	-35,777	0,113	0,043
-314,212	168,243	0,138	0,140
-313,197	800,000	-0,049	-0,136
-312,183	242,710	0,026	0,031
-311,168	-200,000	0,013	0,106
-310,153	800,000	-0,053	-0,118
-309,139	313,318	0,013	-0,017
-308,124	-108,622	0,027	-0,004
-307,110	-89,273	-0,039	-0,008
-306,095	121,181	0,053	0,047
-305,080	76,066	0,123	0,093
-304,066	314,335	0,013	0,018
-303,051	188,284	-0,155	-0,166
-302,037	-200,000	0,015	-0,062
-301,022	138,947	-0,018	0,017
-300,008	4,259	0,015	-0,008
-298,993	-200,000	-0,036	-0,128
-297,978	353,723	-0,013	0,019
-296,964	800,000	0,049	-0,126
-295,949	800,000	0,015	-0,031
-294,935	122,686	0,063	-0,056
-293,920	6,259	0,008	-0,004
-292,905	-102,931	0,180	0,030
-291,891	-200,000	0,017	-0,106
-290,876	-200,000	0,015	0,125
-289,862	-62,515	-0,078	-0,023
-288,847	-200,000	-0,013	0,041
-287,832	9,738	0,041	0,022
-286,818	-200,000	-0,006	0,068
-285,803	-164,666	-0,033	0,001
-284,789	800,000	0,020	0,058
-283,774	-179,080	0,134	-0,002
-282,759	36,867	-0,114	0,071
-281,745	800,000	0,028	-0,077
-280,730	-190,738	-0,132	0,001
-279,716	97,264	-0,067	0,055
-278,701	-200,000	-0,022	-0,083
-277,686	-61,147	-0,044	0,013
-276,672	-153,592	0,107	-0,005
-275,657	-200,000	-0,006	0,047
-274,643	-8,478	-0,072	0,034
-273,628	-64,311	0,084	-0,024
-272,613	800,000	0,050	0,134
-271,599	-32,153	0,192	-0,076
-270,584	-7,868	0,106	0,051
-269,570	800,000	0,037	0,096
-268,555	-73,991	-0,121	-0,031
-267,540	107,397	-0,074	0,063
-266,526	374,821	0,005	-0,007
-265,511	420,794	0,028	-0,042
-264,497	800,000	-0,037	0,074
-263,482	23,014	0,039	-0,023
-262,467	-200,000	-0,012	0,107
-261,453	-200,000	-0,006	0,062
-260,438	119,601	0,049	-0,044
-259,424	-200,000	0,017	-0,095
-258,409	13,723	-0,194	0,107
-257,395	151,105	0,128	0,124
-256,380	-115,932	0,246	-0,032
-255,365	-89,921	-0,109	-0,022
-254,351	94,581	0,038	-0,031
-253,336	-200,000	-0,024	0,125
-252,322	-57,149	-0,177	0,055
-251,307	153,550	-0,022	-0,022
-250,292	213,039	0,051	0,057
-249,278	-38,898	-0,110	0,041
-248,263	-200,000	0,009	-0,084
-247,249	200,076	0,022	-0,024
-246,234	35,081	-0,252	-0,157
-245,219	725,165	0,004	-0,007
-244,205	-200,000	-0,029	-0,101
-243,190	-200,000	-0,007	0,044
-242,176	-72,441	0,087	0,023
-241,161	-147,757	0,171	0,010
-240,146	47,405	-0,109	0,072
-239,132	499,270	-0,053	0,087
-238,117	800,000	-0,027	0,085
-237,103	367,474	-0,032	-0,045
-236,088	-200,000	0,012	-0,090
-235,073	-88,197	0,140	0,030
-234,059	113,604	0,043	0,038
-233,044	800,000	-0,029	0,069
-232,030	172,743	-0,062	0,064
-231,015	126,094	-0,029	0,026
-230,000	538,812	-0,059	-0,100
-228,986	-200,000	-0,011	0,039
-227,971	800,000	-0,044	-0,120
-226,957	110,016	0,052	0,044
-225,942	800,000	-0,029	0,060
-224,927	97,811	0,053	0,043
-223,913	-200,000	0,009	0,083
-222,898	800,000	0,037	-0,102
-221,884	168,077	0,060	-0,061
-220,869	68,149	0,120	0,087
-219,855	-200,000	-0,029	0,135
-218,840	147,467	0,091	0,087
-217,825	96,956	-0,057	0,047
-216,811	289,736	-0,052	0,068
-215,796	-200,000	-0,001	0,085
-214,782	-200,000	-0,020	0,085
-213,767	51,420	0,050	0,034
-212,752	-175,127	0,060	0,001
-211,738	12,121	0,093	0,051
-210,723	-200,000	-0,003	0,036
-209,709	9,571	-0,088	-0,048
-208,694	3,673	-0,023	-0,012
-207,679	45,146	0,052	0,034
-206,665	-75,594	0,132	0,033
-205,650	378,319	0,076	0,110
-204,636	-12,719	-0,041	0,019
-203,621	-78,601	0,072	0,017
-202,606	323,370	0,050	-0,068
-201,592	-98,519	-0,021	-0,004
-200,577	-81,388	0,112	-0,026
-199,563	-115,642	0,014	-0,002
-198,548	800,000	0,056	0,125
-197,533	-92,112	0,037	0,007
-196,519	722,307	0,016	-0,031
-195,504	-200,000	0,014	-0,217
-194,490	582,014	-0,041	0,072
-193,475	72,914	0,031	0,023
-192,460	173,104	0,042	-0,043
-191,446	-200,000	0,027	-0,192
-190,431	122,619	0,035	-0,031
-189,417	14,739	0,107	0,059
-188,402	-58,940	0,178	-0,054
-187,387	-79,576	-0,068	-0,016
-186,373	-200,000	-0,014	-0,068
-185,358	-200,000	-0,003	-0,025
-184,344	800,000	0,037	-0,078
-183,329	112,252	0,123	0,105
-182,315	-85,617	-0,049	-0,011
-181,300	126,504	0,117	0,106
-180,285	-34,114	0,067	0,026
-179,271	800,000	0,052	-0,128
-178,256	-147,288	-0,136	0,008
-177,242	-200,000	-0,000	0,058
-176,227	178,742	-0,050	-0,052
-175,212	-105,738	0,095	-0,015
-174,198	-200,000	0,010	-0,119
-173,183	-200,000	-0,014	-0,076
-172,169	95,235	-0,094	-0,076
-171,154	-200,000	0,015	-0,059
-170,139	205,668	0,086	0,095
-169,125	602,355	0,102	0,181
-168,110	-200,000	-0,006	0,119
-167,096	-200,000	-0,006	0,121
-166,081	-90,448	-0,151	-0,031
-165,066	126,003	-0,049	0,044
-164,052	373,804	0,060	-0,087
-163,037	-51,450	0,006	0,002
-162,023	-60,683	-0,062	0,019
-161,008	-26,685	0,027	-0,011
-159,993	180,547	-0,066	-0,069
-158,979	-132,736	0,074	0,007
-157,964	-5,429	0,031	0,015
-156,950	92,826	0,086	-0,069
-155,935	-134,705	0,058	0,005
-154,920	-54,693	0,192	-0,061
-153,906	800,000	-0,003	0,008
-152,891	473,958	-0,075	0,121
-151,877	-200,000	0,015	-0,049
-150,862	-200,000	0,001	-0,041
-149,847	-161,596	-0,119	-0,004
-148,833	491,135	0,094	0,153
-147,818	76,608	0,020	-0,015
-146,804	792,895	0,069	0,136
-145,789	-200,000	-0,004	0,133
-144,775	-22,695	-0,041	-0,018
-143,760	-200,000	-0,001	0,010
-142,745	426,702	-0,019	-0,029
-141,731	-27,487	0,092	-0,038
-140,716	-16,303	0,147	-0,066
-139,702	-200,000	0,016	0,079
-138,687	-200,000	0,003	-0,031
-137,672	-123,841	-0,047	0,005
-136,658	-95,012	-0,060	0,011
-135,643	-68,132	-0,057	0,016
-134,629	279,864	-0,034	-0,044
-133,614	130,409	-0,104	-0,094
-132,599	220,980	-0,058	0,066
-131,585	800,000	-0,054	-0,113
-130,570	163,173	-0,044	-0,044
-129,556	40,438	0,129	-0,082
-128,541	125,762	-0,112	-0,100
-127,526	-200,000	0,025	-0,105
-126,512	800,000	0,034	0,073
-125,497	-200,000	0,009	-0,069
-124,483	82,940	-0,035	-0,027
-123,468	81,268	0,051	0,039
-122,453	-38,324	-0,010	-0,004
-121,439	61,562	-0,043	0,030
-120,424	800,000	0,028	-0,058
-119,410	-137,165	-0,085	0,007
-118,395	-94,178	-0,032	-0,006
-117,380	168,339	0,044	0,045
-116,366	-174,860	-0,111	0,002
-115,351	-200,000	-0,016	-0,072
-114,337	800,000	-0,015	-0,031
-113,322	-81,525	-0,036	-0,008
-112,307	800,000	0,054	0,114
-111,293	45,185	0,141	0,092
-110,278	-200,000	-0,008	0,136
-109,264	408,069	-0,060	-0,090
-108,249	-108,832	-0,021	-0,003
-107,234	-90,590	-0,015	0,003
-106,220	97,566	-0,128	-0,104
-105,205	-200,000	-0,021	-0,205
-104,191	276,504	-0,027	0,034
-103,176	-200,000	-0,001	0,029
-102,162	800,000	0,046	-0,116
-101,147	97,231	0,076	-0,062
-100,132	-4,995	0,052	-0,025
-99,118	-200,000	0,001	-0,019
-98,103	81,195	-0,031	0,024
-97,089	800,000	0,041	0,095
-96,074	-200,000	-0,042	0,170
-95,059	-16,538	0,155	-0,069
-94,045	-200,000	-0,001	0,128
-93,030	732,858	0,059	-0,112
-92,016	44,188	-0,139	-0,090
-91,001	-142,142	0,069	-0,005
-89,986	-10,162	0,047	-0,022
-88,972	-200,000	0,108	-0,000
-87,957	-100,955	-0,188	-0,032
-86,943	-106,962	0,093	0,014
-85,928	-200,000	-0,022	-0,080
-84,913	-119,964	0,047	0,006
-83,899	-200,000	-0,007	0,025
-82,884	239,304	-0,104	-0,122
-81,870	668,267	0,103	-0,189
-80,855	-200,000	0,024	0,082
-79,840	520,427	0,069	0,114
-78,826	535,458	-0,092	-0,156
-77,811	35,758	-0,091	0,056
-76,797	312,262	0,127	-0,169
-75,782	441,459	-0,073	0,113
-74,767	-36,142	-0,042	0,016
-73,753	58,712	0,070	0,049
-72,738	800,000	0,013	-0,038
-71,724	1,545	0,070	0,035
-70,709	20,926	-0,193	-0,110
-69,694	800,000	0,037	0,085
-68,680	800,000	0,077	-0,193
-67,665	-200,000	0,002	-0,012
-66,651	-200,000	-0,011	0,034
-65,636	-100,931	-0,039	-0,007
-64,622	474,977	0,010	-0,016
-63,607	197,125	0,056	0,060
-62,592	-55,456	-0,109	0,034
-61,578	130,517	0,112	0,102
-60,563	800,000	-0,019	0,037
-59,549	-200,000	-0,002	0,098
-58,534	12,696	-1,687	-0,918
-57,519	415,214	-1,376	-2,079
-56,505	-200,000	-0,434	-4,444
-55,490	286,310	0,953	1,218
-54,476	800,000	5,078	11,267
-53,461	-200,000	19,601	331,109
-52,446	-200,000	744,928	2333,462
-51,432	565,464	1653,890	2845,053
-50,417	76,516	1666,003	1246,668
-49,403	20,321	1539,589	876,474
-48,388	14,236	1461,676	802,652
-47,373	18,753	1451,877	818,959
-46,359	16,775	1441,622	803,709
-45,344	12,521	1436,989	780,818
-44,330	12,369	1435,427	779,212
-43,315	12,443	1433,621	778,552
-42,300	12,443	1431,929	777,605
-41,286	12,468	1430,532	776,933
-40,271	12,384	1429,297	775,834
-39,257	12,420	1427,879	775,202
-38,242	12,469	1426,738	774,786
-37,227	12,430	1425,591	773,946
-36,213	12,490	1424,185	773,437
-35,198	12,450	1423,054	772,602
-34,184	12,499	1422,104	772,289
-33,169	12,446	1420,699	771,243
-32,154	12,516	1419,608	770,949
-31,140	12,502	1418,433	770,218
-30,125	12,511	1417,283	769,604
-29,111	12,456	1416,224	768,738
-28,096	12,502	1415,133	768,332
-27,082	12,426	1414,115	767,392
-26,067	12,371	1413,303	766,662
-25,052	12,454	1411,878	766,247
-24,038	12,417	1410,915	765,524
-23,023	12,403	1410,049	764,955
-22,009	12,426	1408,771	764,343
-20,994	12,394	1407,796	763,631
-19,979	12,406	1407,035	763,246
-18,965	12,357	1406,171	762,516
-17,950	12,395	1405,135	762,102
-16,936	12,362	1404,555	761,605
-15,921	12,335	1403,227	760,730
-14,906	12,329	1402,389	760,217
-13,892	12,327	1401,345	759,611
-12,877	12,301	1400,683	759,098
-11,863	12,296	1399,837	758,588
-10,848	12,291	1398,819	757,982
-9,833	12,287	1397,916	757,446
-8,819	12,247	1397,012	756,738
-7,804	12,182	1396,352	756,052
-6,790	12,241	1395,011	755,570
-5,775	12,280	1394,021	755,182
-4,760	12,266	1393,107	754,593
-3,746	12,214	1392,316	753,894
-2,731	12,214	1391,513	753,431
-1,717	12,188	1390,917	752,957
-0,702	12,179	1388,936	751,814
0,313	16,200	1304,972	724,841
1,327	32,597	698,844	425,761
2,342	50,363	122,155	81,395
3,356	-1,471	16,602	8,241
4,371	11,541	3,204	1,730
5,386	26,215	0,658	0,387
6,400	-200,000	-0,031	0,373
7,415	12,647	-0,145	-0,079
8,429	169,298	-0,294	-0,297
9,444	9,483	-0,392	-0,209
10,459	52,501	-0,246	-0,165
11,473	-20,785	-0,320	-0,138
12,488	-3,305	-0,370	-0,181
13,502	0,530	-0,348	-0,175
14,517	366,061	-0,201	-0,286
15,531	26,030	-0,347	-0,204
16,546	73,573	-0,301	-0,222
17,561	153,511	-0,377	-0,365
18,575	-153,720	-0,298	-0,014
19,590	138,717	-0,272	-0,252
20,604	-29,296	-0,199	-0,080
21,619	270,737	-0,233	-0,290
22,634	183,537	-0,409	-0,427
23,648	96,542	-0,461	-0,372
24,663	66,787	-0,390	-0,279
25,677	81,150	-0,360	-0,274
26,692	121,035	-0,303	-0,265
27,707	162,737	-0,232	-0,230
28,721	88,411	-0,371	-0,290
29,736	81,511	-0,452	-0,344
30,750	68,371	-0,384	-0,277
31,765	208,915	-0,289	-0,319
32,780	650,765	-0,194	-0,351
33,794	29,457	-0,239	-0,143
34,809	44,913	-0,394	-0,255
35,823	68,529	-0,391	-0,282
36,838	147,288	-0,378	-0,359
37,853	313,060	-0,256	-0,339
38,867	33,306	-0,437	-0,267
39,882	111,475	-0,394	-0,334
40,896	262,754	-0,313	-0,384
41,911	260,880	-0,369	-0,451
42,926	-29,922	-0,313	-0,125
43,940	26,302	-0,460	-0,270
44,955	99,112	-0,232	-0,188
45,969	132,005	-0,341	-0,309
46,984	117,972	-0,348	-0,302
47,999	467,203	-0,167	-0,265
49,013	66,233	-0,342	-0,244
50,028	-53,078	-0,369	-0,119
51,042	182,561	-0,332	-0,345
52,057	44,199	-0,332	-0,214
53,071	-14,698	-0,414	-0,186
54,086	145,558	-0,245	-0,231
55,101	140,418	-0,231	-0,214
56,115	26,923	-0,360	-0,212
57,130	56,716	-0,335	-0,229
58,144	85,722	-0,329	-0,254
59,159	322,568	-0,316	-0,424
60,174	277,463	-0,250	-0,314
61,188	-8,774	-0,535	-0,251
62,203	231,120	-0,255	-0,294
63,217	-96,209	-0,353	-0,065
64,232	232,131	-0,262	-0,302
65,247	97,889	-0,346	-0,279
66,261	124,468	-0,372	-0,329
67,276	97,885	-0,252	-0,203
68,290	226,918	-0,213	-0,244
69,305	45,435	-0,275	-0,178
70,320	200,272	-0,186	-0,201
71,334	68,012	-0,358	-0,257
72,349	9,417	-0,348	-0,184
73,363	28,465	-0,270	-0,160
74,378	85,300	-0,334	-0,257
75,393	162,604	-0,217	-0,214
76,407	12,141	-0,408	-0,220
77,422	75,193	-0,340	-0,251
78,436	-103,125	-0,440	-0,072
79,451	270,375	-0,206	-0,254
80,466	134,862	-0,182	-0,166
81,480	87,603	-0,348	-0,270
82,495	67,568	-0,307	-0,220
83,509	-55,743	-0,203	-0,063
84,524	267,045	-0,205	-0,252
85,539	96,858	-0,318	-0,255
86,553	-41,898	-0,382	-0,136
87,568	316,007	-0,172	-0,228
88,582	148,394	-0,232	-0,220
89,597	75,476	-0,293	-0,217
90,611	95,390	-0,243	-0,194
91,626	19,164	-0,329	-0,184
92,641	-131,077	-0,193	0,018
93,655	-67,782	-0,338	-0,092
94,670	20,774	-0,347	-0,197
95,684	15,250	-0,340	-0,186
96,699	196,095	-0,241	-0,257
97,714	39,552	-0,306	-0,192
98,728	318,980	-0,219	-0,291
99,743	-60,987	-0,306	-0,090
100,757	-79,324	-0,300	-0,071
101,772	26,184	-0,329	-0,192
102,787	218,274	-0,264	-0,296
103,801	77,093	-0,243	-0,181
104,816	-32,390	-0,226	-0,088
105,830	266,632	-0,246	-0,301
106,845	191,977	-0,233	-0,246
107,860	226,216	-0,168	-0,191
108,874	1,184	-0,294	-0,147
109,889	-16,943	-0,350	-0,154
110,903	39,400	-0,266	-0,166
111,918	74,112	-0,172	-0,126
112,933	54,710	-0,275	-0,185
113,947	-198,415	-0,204	-0,001
114,962	118,426	-0,213	-0,184
115,976	301,797	-0,093	-0,121
116,991	309,386	-0,218	-0,286
118,006	-23,380	-0,289	-0,121
119,020	81,302	-0,217	-0,164
120,035	800,000	-0,105	-0,292
121,049	-93,071	-0,254	-0,049
122,064	45,965	-0,179	-0,115
123,079	92,768	-0,234	-0,185
124,093	-93,322	-0,331	0,064
125,108	1,897	-0,318	-0,160
126,122	75,371	-0,315	-0,232
127,137	238,865	-0,135	-0,157
128,151	-45,518	-0,223	-0,077
129,166	133,729	-0,215	-0,194
130,181	30,467	-0,287	-0,171
131,195	54,179	-0,261	-0,175
132,210	31,191	-0,321	-0,192
133,224	55,945	-0,239	-0,162
134,239	384,333	-0,216	-0,312
135,254	63,378	-0,265	-0,185
136,268	-51,092	-0,123	-0,040
137,283	-21,653	-0,269	-0,114
138,297	6,640	-0,302	-0,156
139,312	46,338	-0,201	-0,130
140,327	240,592	-0,224	-0,261
141,341	237,529	-0,205	-0,238
142,356	322,093	-0,173	-0,230
143,370	55,984	-0,256	-0,173
144,385	-48,734	-0,283	-0,094
145,400	-24,520	-0,355	-0,147
146,414	171,459	-0,256	-0,256
147,429	-65,682	-0,391	-0,109
148,443	185,080	-0,201	-0,208
149,458	30,088	-0,264	-0,157
150,473	107,718	-0,187	-0,155
151,487	-98,190	-0,165	0,029
152,502	-31,072	-0,370	-0,145
153,516	190,464	-0,206	-0,216
154,531	14,146	-0,339	-0,183
155,546	58,224	-0,297	-0,202
156,560	200,954	-0,156	-0,167
157,575	753,906	-0,161	-0,305
158,589	180,576	-0,261	-0,267
159,604	-9,661	-0,350	-0,162
160,619	800,000	-0,133	-0,289
161,633	234,630	-0,214	-0,246
162,648	150,678	-0,234	-0,222
163,662	211,869	-0,238	-0,261
164,677	344,372	-0,151	-0,206
165,692	800,000	-0,082	-0,237
166,706	9,293	-0,271	-0,142
167,721	-83,192	-0,182	-0,040
168,735	-86,488	-0,278	-0,059
169,750	19,594	-0,205	-0,114
170,764	250,544	-0,247	-0,293
171,779	-61,456	-0,207	-0,060
172,794	-51,915	-0,258	-0,083
173,808	289,604	-0,177	-0,224
174,823	-80,745	-0,289	-0,066
175,837	-24,287	-0,262	-0,108
176,852	-104,849	-0,314	-0,050
177,867	91,286	-0,218	-0,170
178,881	-30,001	-0,248	-0,098
179,896	65,876	-0,253	-0,178
180,910	-11,379	-0,210	-0,096
181,925	-50,172	-0,250	-0,082
182,940	37,011	-0,281	-0,172
183,954	-7,349	-0,206	-0,097
184,969	103,012	-0,279	-0,227
185,983	-0,863	-0,187	-0,092
186,998	214,256	-0,163	-0,180
188,013	-134,341	-0,273	-0,023
189,027	109,056	-0,265	-0,220
190,042	400,442	-0,180	-0,263
191,056	487,542	-0,165	-0,262
192,071	306,726	-0,108	-0,140
193,086	148,764	-0,192	-0,180
194,100	16,145	-0,221	-0,121
195,115	282,853	-0,166	-0,208
196,129	33,966	-0,263	-0,159
197,144	177,583	-0,250	-0,253
198,159	-95,115	-0,263	-0,049
199,173	212,209	-0,175	-0,191
200,188	295,798	-0,146	-0,186
201,202	-117,443	-0,149	-0,018
202,217	605,754	-0,135	-0,235
203,232	98,335	-0,261	-0,208
204,246	39,421	-0,234	-0,145
205,261	370,922	-0,121	-0,170
206,275	130,513	-0,135	-0,120
207,290	-18,348	-0,176	-0,076
208,304	120,924	-0,200	-0,172
209,319	68,239	-0,223	-0,158
210,334	33,334	-0,242	-0,145
211,348	209,821	-0,253	-0,275
212,363	-37,359	-0,199	-0,073
213,377	800,000	-0,104	-0,252
214,392	372,297	-0,125	-0,176
215,407	220,891	-0,084	-0,093
216,421	149,845	-0,090	-0,084
217,436	81,727	-0,251	-0,188
218,450	-52,194	-0,285	-0,091
219,465	-32,932	-0,217	-0,083
220,480	-73,699	-0,150	-0,038
221,494	800,000	-0,091	-0,212
222,509	391,132	-0,106	-0,152
223,523	56,181	-0,289	-0,194
224,538	441,187	-0,143	-0,218
225,553	52,117	-0,255	-0,168
226,567	-58,302	-0,312	-0,093
227,582	231,249	-0,170	-0,193
228,596	144,944	-0,146	-0,135
229,611	287,858	-0,098	-0,123
230,626	161,282	-0,160	-0,155
231,640	331,998	-0,241	-0,323
232,655	152,155	-0,245	-0,232
233,669	199,341	-0,197	-0,209
234,684	-47,048	-0,286	-0,096
235,699	15,141	-0,200	-0,108
236,713	48,597	-0,210	-0,136
237,728	140,866	-0,088	-0,081
238,742	800,000	-0,105	-0,211
239,757	47,653	-0,249	-0,160
240,772	203,347	-0,203	-0,217
241,786	261,013	-0,179	-0,215
242,801	381,369	-0,122	-0,173
243,815	-200,000	-0,017	-0,116
244,830	-142,656	-0,230	-0,015
245,844	-153,424	-0,196	0,009
246,859	-20,211	-0,136	-0,058
247,874	26,377	-0,090	-0,052
248,888	182,805	-0,191	-0,195
249,903	216,760	-0,132	-0,145
250,917	688,154	-0,111	-0,201
251,932	800,000	-0,067	-0,149
252,947	-200,000	-0,026	-0,118
253,961	106,113	-0,200	-0,164
254,976	-71,470	-0,172	-0,044
255,990	-200,000	-0,084	-0,284
257,005	800,000	-0,138	-0,306
258,020	-130,030	-0,229	-0,021
259,034	219,997	-0,090	-0,100
260,049	800,000	-0,115	-0,223
261,063	-111,072	-0,211	-0,030
262,078	60,446	-0,293	-0,200
263,093	99,104	-0,153	-0,122
264,107	-124,841	-0,133	-0,014
265,122	161,627	-0,049	-0,048
266,136	-1,384	-0,203	-0,098
267,151	800,000	-0,038	-0,099
268,166	10,769	-0,147	-0,077
269,180	-107,231	-0,225	0,034
270,195	122,229	-0,190	-0,164
271,209	-2,817	-0,179	-0,086
272,224	-11,505	-0,222	-0,100
273,239	17,550	-0,174	-0,095
274,253	34,088	-0,089	-0,054
275,268	-52,004	-0,250	-0,080
276,282	244,433	-0,120	-0,140
277,297	61,971	-0,287	-0,197
278,312	800,000	-0,091	-0,222
279,326	-200,000	0,016	-0,103
280,341	-31,252	-0,145	-0,056
281,355	-200,000	-0,013	-0,091
282,370	48,479	-0,063	-0,041
283,384	74,009	-0,053	-0,038
284,399	342,233	-0,129	-0,174
285,414	86,679	-0,228	-0,174
286,428	800,000	-0,096	-0,260
287,443	-200,000	-0,039	-0,123
288,457	26,435	0,029	0,016
289,472	800,000	-0,046	-0,103
290,487	102,430	-0,205	-0,165
291,501	-40,330	-0,308	-0,110
292,516	77,710	-0,162	-0,119
293,530	135,032	-0,137	-0,123
294,545	378,521	-0,064	-0,090
295,560	641,193	-0,128	-0,225
296,574	-200,000	-0,021	-0,165
297,589	211,869	-0,178	-0,193
298,603	47,785	-0,285	-0,183
299,618	27,830	-0,067	-0,039
300,633	90,092	-0,191	-0,147
301,647	153,376	-0,088	-0,083
302,662	343,784	-0,103	-0,140
303,676	-158,710	-0,134	0,005
304,691	-200,000	-0,038	-0,236
305,706	643,534	-0,098	-0,173
306,720	165,983	-0,154	-0,150
307,735	1,657	-0,127	-0,063
308,749	-80,226	-0,165	0,038
309,764	136,553	-0,039	-0,035
310,779	-179,085	-0,117	-0,002
311,793	379,749	-0,125	-0,177
312,808	160,554	-0,223	-0,214
313,822	164,845	-0,196	-0,190
314,837	-123,006	-0,120	-0,013
315,852	-200,000	-0,028	-0,247
316,866	607,742	-0,109	-0,187
317,881	-200,000	-0,038	-0,130
318,895	514,406	-0,093	-0,149
319,910	27,366	-0,209	-0,120
320,925	-200,000	-0,007	-0,127
321,939	7,088	-0,172	-0,088
322,954	35,922	-0,096	-0,058
323,968	-42,300	-0,090	-0,032
324,983	-22,640	-0,185	-0,076
325,997	90,282	-0,209	-0,160
327,012	203,857	-0,165	-0,176
328,027	16,684	-0,194	-0,105
329,041	-58,816	-0,150	0,044
330,056	800,000	-0,079	-0,155
331,070	126,311	-0,052	0,045
332,085	101,841	-0,131	0,105
333,100	-83,689	-0,175	-0,038
334,114	197,498	-0,135	-0,142
335,129	681,388	-0,136	-0,244
336,143	315,394	-0,052	-0,068
337,158	-53,140	-0,128	-0,040
338,173	-46,293	-0,033	-0,011
339,187	-189,698	-0,132	-0,001
340,202	112,961	-0,162	-0,134
341,216	77,513	-0,181	-0,132
342,231	-32,777	-0,089	-0,034
343,246	151,169	-0,039	-0,036
344,260	-126,221	-0,107	-0,011
345,275	-45,413	-0,183	-0,062
346,289	39,602	0,109	0,067
347,304	-34,989	-0,207	-0,077
348,319	-10,382	-0,200	-0,091
349,333	414,928	-0,133	-0,194
350,348	156,875	-0,183	-0,173
351,362	-132,193	-0,169	-0,015
352,377	-57,590	-0,107	-0,032
353,392	-101,247	-0,085	-0,014
354,406	-200,000	-0,001	-0,112
355,421	207,130	1312,130	1402,527
356,435	159,331	1472,518	1403,031
