DTS Sentinel unit serial number:	SN410029Multiplexer serial number:	ORYXHardware model number:	OX2-SRSoftware version number:	ORYX F/W v4,00 Oryx Data Collector v3.7.2.0data status	okinstallation	B3 Nyhavnadifferential loss correction	single-endedforward channel	channel 1reverse channel	N/Adate	2023/12/01time	10:57:30forward acquisition time	300,00reverse acquisition time	0,00gamma	499,1914k internal	0,3213k external	0,3213temperature offset calibration	1,0000default loss term (dB/km)	0,3820temperature slope calibration	1,0000multiplexer offset coefficient	1,0000multiplexer slope coefficient	1,0000fibre end	0,00T internal ref (°C)	8,20T ext. ref 1 (°C)	-6,02T ext. ref 2 (°C)	-6,10length (m)	temperature (°C)	Stokes	anti-Stokes-744,400	612,318	-0,146	-0,266
-743,385	-200,000	-0,072	0,314
-742,371	-200,000	-0,068	-0,287
-741,356	-200,000	-0,024	0,178
-740,342	800,000	-0,099	-0,276
-739,327	421,705	-0,103	0,160
-738,312	800,000	-0,137	-0,316
-737,298	800,000	-0,083	0,187
-736,283	582,135	-0,115	-0,205
-735,269	-200,000	-0,031	0,297
-734,254	50,052	-0,203	-0,139
-733,239	244,056	-0,283	0,344
-732,225	-83,867	-0,213	-0,049
-731,210	102,504	0,115	0,097
-730,196	-122,691	0,019	-0,002
-729,181	800,000	0,020	0,052
-728,167	533,442	-0,095	-0,164
-727,152	800,000	0,037	-0,083
-726,137	32,589	-0,086	-0,054
-725,123	-200,000	-0,018	0,078
-724,108	123,516	-0,107	-0,097
-723,094	122,611	0,044	-0,039
-722,079	92,272	-0,067	-0,055
-721,064	-200,000	-0,006	0,066
-720,050	-57,798	0,054	0,017
-719,035	764,088	0,035	-0,068
-718,021	-200,000	0,020	-0,115
-717,006	800,000	-0,057	-0,115
-715,991	434,415	0,039	-0,061
-714,977	55,657	-0,133	-0,093
-713,962	250,771	0,071	0,088
-712,948	-200,000	-0,003	-0,042
-711,933	-200,000	-0,001	0,125
-710,918	-8,414	-0,105	-0,051
-709,904	-200,000	0,023	-0,231
-708,889	238,570	-0,118	-0,142
-707,875	800,000	-0,081	-0,169
-706,860	-200,000	0,007	-0,054
-705,845	533,756	-0,009	-0,015
-704,831	-9,491	-0,073	0,035
-703,816	-200,000	0,006	-0,194
-702,802	661,954	0,023	-0,043
-701,787	131,104	-0,104	0,097
-700,772	270,468	0,059	-0,076
-699,758	367,061	-0,032	-0,046
-698,743	-200,000	-0,000	-0,094
-697,729	729,271	0,036	0,070
-696,714	800,000	-0,028	0,077
-695,699	65,936	-0,035	-0,025
-694,685	-200,000	-0,025	-0,114
-693,670	227,911	-0,039	0,046
-692,656	20,613	0,164	0,095
-691,641	-140,650	-0,117	-0,009
-690,627	-0,029	0,076	-0,039
-689,612	204,512	-0,006	-0,007
-688,597	800,000	-0,077	-0,165
-687,583	383,908	-0,071	-0,106
-686,568	511,495	-0,058	-0,098
-685,554	17,274	-0,166	-0,095
-684,539	116,992	0,184	-0,163
-683,524	-99,093	0,085	-0,015
-682,510	800,000	0,024	0,071
-681,495	194,543	-0,034	-0,037
-680,481	-200,000	0,015	-0,054
-679,466	-200,000	-0,034	0,156
-678,451	800,000	0,058	-0,162
-677,437	-36,234	0,040	0,015
-676,422	-200,000	-0,015	0,188
-675,408	144,437	-0,133	-0,129
-674,393	-200,000	0,004	0,037
-673,378	353,968	-0,082	-0,118
-672,364	-42,105	0,085	-0,031
-671,349	75,044	-0,078	-0,059
-670,335	276,240	-0,037	0,048
-669,320	800,000	0,018	0,038
-668,305	17,111	0,013	0,008
-667,291	67,083	-0,085	0,062
-666,276	127,598	-0,080	0,073
-665,262	283,836	0,017	-0,022
-664,247	-74,113	-0,173	-0,045
-663,232	652,439	-0,030	0,056
-662,218	-200,000	-0,009	-0,096
-661,203	-200,000	0,015	-0,051
-660,189	33,269	-0,034	-0,021
-659,174	187,265	-0,064	-0,069
-658,159	800,000	0,040	-0,111
-657,145	434,648	-0,013	0,020
-656,130	-200,000	-0,037	-0,126
-655,116	76,721	-0,083	0,064
-654,101	242,431	-0,055	-0,067
-653,086	-200,000	0,008	0,079
-652,072	-50,073	-0,135	0,046
-651,057	-68,494	-0,144	-0,040
-650,043	187,392	0,086	0,093
-649,028	-200,000	0,039	0,137
-648,014	672,686	-0,072	0,136
-646,999	254,531	-0,040	0,050
-645,984	28,232	0,080	-0,049
-644,970	-73,754	0,031	0,008
-643,955	202,128	-0,153	-0,171
-642,941	-6,665	-0,144	-0,070
-641,926	642,200	-0,085	-0,157
-640,911	313,969	-0,020	0,027
-639,897	-90,907	0,066	0,014
-638,882	-200,000	-0,029	-0,148
-637,868	210,531	-0,163	-0,185
-636,853	-81,998	-0,146	0,034
-635,838	479,891	-0,096	-0,157
-634,824	59,895	0,063	-0,045
-633,809	205,904	-0,045	0,050
-632,795	155,898	0,050	0,050
-631,780	-83,284	0,126	0,029
-630,765	181,246	-0,041	-0,043
-629,751	-39,407	-0,189	-0,071
-628,736	256,145	0,035	0,043
-627,722	-101,370	0,087	0,015
-626,707	-200,000	0,020	-0,078
-625,692	51,683	-0,097	-0,066
-624,678	-200,000	0,000	-0,012
-623,663	5,199	-0,131	-0,070
-622,649	800,000	-0,004	-0,011
-621,634	-200,000	0,039	-0,182
-620,619	265,850	-0,067	0,084
-619,605	-32,656	0,029	-0,011
-618,590	-200,000	-0,014	-0,085
-617,576	-43,533	-0,045	0,016
-616,561	-200,000	-0,011	0,084
-615,546	17,934	0,009	0,005
-614,532	247,936	-0,040	-0,048
-613,517	800,000	0,056	-0,119
-612,503	-200,000	0,020	-0,113
-611,488	169,913	0,018	0,019
-610,474	39,723	0,098	-0,063
-609,459	708,838	-0,045	0,087
-608,444	-200,000	0,008	-0,109
-607,430	-200,000	-0,038	-0,164
-606,415	-118,268	-0,169	-0,021
-605,401	52,539	0,079	0,054
-604,386	-129,139	-0,061	-0,006
-603,371	139,293	-0,071	0,067
-602,357	-138,106	0,053	-0,004
-601,342	-161,366	0,083	0,003
-600,328	5,610	0,034	-0,018
-599,313	-86,485	-0,197	-0,043
-598,298	-122,804	-0,108	-0,012
-597,284	92,339	0,053	-0,043
-596,269	-200,000	0,019	-0,128
-595,255	-200,000	-0,038	0,152
-594,240	-34,310	0,124	0,049
-593,225	-200,000	0,006	-0,020
-592,211	478,671	-0,069	-0,112
-591,196	168,519	0,120	-0,123
-590,182	161,217	0,080	0,081
-589,167	176,655	0,072	-0,075
-588,152	167,516	-0,061	0,062
-587,138	22,469	0,096	-0,056
-586,123	67,170	0,091	-0,067
-585,109	69,579	-0,105	-0,078
-584,094	-200,000	0,022	-0,109
-583,079	-200,000	-0,011	-0,175
-582,065	4,413	0,024	0,013
-581,050	-200,000	0,005	0,121
-580,036	71,439	-0,155	-0,116
-579,021	-89,486	0,110	0,023
-578,006	-104,496	-0,077	0,013
-576,992	465,188	-0,043	-0,070
-575,977	9,219	0,051	-0,028
-574,963	407,607	-0,043	-0,066
-573,948	170,919	0,024	-0,025
-572,934	72,984	-0,124	-0,093
-571,919	800,000	0,079	-0,162
-570,904	200,265	-0,113	0,125
-569,890	-8,817	-0,093	0,045
-568,875	-6,220	0,095	-0,047
-567,861	168,656	0,071	-0,072
-566,846	-110,407	-0,047	0,007
-565,831	-37,621	-0,219	0,083
-564,817	-74,767	-0,136	-0,035
-563,802	-200,000	-0,038	-0,130
-562,788	800,000	-0,003	0,009
-561,773	-109,454	-0,038	0,006
-560,758	131,915	0,061	0,056
-559,744	-57,177	0,031	0,010
-558,729	71,593	-0,174	0,130
-557,715	800,000	-0,025	-0,055
-556,700	78,984	-0,075	-0,057
-555,685	-200,000	0,018	-0,105
-554,671	800,000	-0,022	-0,063
-553,656	-61,687	-0,074	-0,022
-552,642	-200,000	-0,019	0,164
-551,627	-49,322	-0,071	-0,024
-550,612	525,175	0,051	-0,087
-549,598	-200,000	0,026	-0,121
-548,583	-200,000	-0,035	-0,178
-547,569	280,667	0,076	-0,098
-546,554	800,000	-0,045	-0,124
-545,539	-200,000	-0,006	0,125
-544,525	-200,000	0,014	0,054
-543,510	800,000	0,025	0,063
-542,496	-200,000	0,016	-0,101
-541,481	-7,164	0,042	-0,020
-540,466	-200,000	-0,009	-0,062
-539,452	-46,195	0,043	-0,015
-538,437	324,282	0,046	0,064
-537,423	-2,303	-0,112	-0,056
-536,408	-40,164	-0,154	0,057
-535,393	-35,752	0,023	-0,009
-534,379	-108,226	-0,127	0,020
-533,364	800,000	0,028	-0,079
-532,350	800,000	0,022	0,065
-531,335	-200,000	0,003	0,055
-530,321	172,863	-0,119	-0,124
-529,306	800,000	0,019	-0,059
-528,291	218,662	-0,149	-0,171
-527,277	-200,000	0,017	-0,202
-526,262	273,228	0,044	-0,055
-525,248	-200,000	0,016	0,083
-524,233	-2,157	0,095	-0,048
-523,218	800,000	-0,021	0,063
-522,204	602,925	0,071	-0,127
-521,189	800,000	-0,037	-0,074
-520,175	800,000	-0,016	0,039
-519,160	800,000	-0,031	-0,080
-518,145	760,112	0,029	-0,057
-517,131	414,249	0,118	-0,181
-516,116	-166,653	0,034	0,001
-515,102	800,000	-0,015	0,044
-514,087	800,000	0,044	0,108
-513,072	27,745	0,035	0,021
-512,058	-98,227	-0,066	0,012
-511,043	-188,239	0,168	-0,001
-510,029	800,000	0,009	-0,021
-509,014	657,804	-0,081	0,149
-507,999	497,728	-0,051	-0,085
-506,985	-66,352	0,039	-0,011
-505,970	-200,000	-0,005	-0,127
-504,956	130,226	0,075	-0,069
-503,941	800,000	0,027	0,071
-502,926	382,281	-0,077	0,114
-501,912	-18,815	0,137	0,061
-500,897	24,455	0,153	-0,091
-499,883	-200,000	-0,049	0,000
-498,868	-188,652	-0,023	-0,000
-497,853	-54,979	0,047	-0,015
-496,839	-200,000	0,016	0,061
-495,824	5,202	0,049	-0,026
-494,810	-200,000	0,033	0,134
-493,795	137,775	-0,116	-0,109
-492,781	-62,843	0,161	0,047
-491,766	-163,492	0,056	0,002
-490,751	-8,241	-0,161	0,078
-489,737	800,000	-0,021	0,063
-488,722	-135,958	0,124	-0,010
-487,708	-200,000	0,035	0,112
-486,693	-23,248	0,041	0,018
-485,678	294,610	-0,027	0,035
-484,664	-200,000	-0,023	-0,197
-483,649	800,000	-0,035	-0,075
-482,635	39,635	0,094	-0,060
-481,620	-40,105	-0,038	-0,014
-480,605	83,169	0,154	0,120
-479,591	800,000	-0,012	0,024
-478,576	-0,127	0,061	0,031
-477,562	22,488	-0,051	-0,030
-476,547	800,000	0,001	-0,005
-475,532	-106,963	-0,082	0,013
-474,518	-98,787	-0,053	0,010
-473,503	563,047	0,041	0,071
-472,489	333,259	0,053	0,074
-471,474	-141,522	0,057	-0,004
-470,459	129,670	0,020	0,018
-469,445	-123,017	0,105	0,012
-468,430	-1,239	-0,125	0,063
-467,416	800,000	-0,017	0,039
-466,401	-50,753	0,091	0,030
-465,386	-51,902	0,121	0,040
-464,372	152,187	0,049	-0,048
-463,357	442,707	-0,015	0,024
-462,343	800,000	0,038	0,099
-461,328	-37,871	-0,079	0,030
-460,313	362,824	0,046	0,066
-459,299	-18,482	0,024	0,011
-458,284	-38,625	0,106	-0,040
-457,270	-200,000	0,001	-0,013
-456,255	800,000	-0,056	0,113
-455,241	275,623	-0,109	-0,139
-454,226	-135,616	0,110	-0,009
-453,211	-200,000	0,002	-0,114
-452,197	578,247	-0,076	0,133
-451,182	-29,908	0,049	0,020
-450,168	-41,846	0,110	-0,040
-449,153	-14,795	0,092	-0,042
-448,138	-200,000	0,037	-0,119
-447,124	133,593	-0,096	0,089
-446,109	400,685	0,044	-0,066
-445,095	421,472	0,080	0,123
-444,080	800,000	-0,011	0,022
-443,065	164,464	-0,135	0,136
-442,051	58,641	0,036	0,025
-441,036	-92,539	-0,193	-0,039
-440,022	81,122	-0,054	-0,041
-439,007	386,404	-0,016	0,024
-437,992	-173,298	0,067	0,001
-436,978	139,787	0,101	0,095
-435,963	-20,287	0,090	0,040
-434,949	-64,344	0,057	0,016
-433,934	95,603	-0,101	0,082
-432,919	800,000	-0,009	0,028
-431,905	-89,973	0,053	-0,011
-430,890	292,623	0,070	0,092
-429,876	334,931	-0,022	-0,030
-428,861	115,011	-0,106	0,092
-427,846	438,854	0,027	0,043
-426,832	94,399	0,049	0,040
-425,817	58,524	-0,034	-0,024
-424,803	30,380	0,029	0,018
-423,788	40,465	0,034	0,022
-422,773	-200,000	0,027	0,141
-421,759	-200,000	-0,007	-0,061
-420,744	295,434	0,069	0,090
-419,730	-32,731	0,038	0,015
-418,715	185,509	0,067	0,071
-417,701	-90,581	-0,057	0,012
-416,686	-200,000	0,010	0,112
-415,671	800,000	0,046	0,131
-414,657	174,590	0,170	0,176
-413,642	786,441	-0,030	0,058
-412,628	-200,000	-0,025	0,084
-411,613	-153,232	-0,003	0,000
-410,598	258,776	-0,064	-0,079
-409,584	144,982	0,064	-0,062
-408,569	795,325	0,039	0,077
-407,555	654,740	-0,061	0,112
-406,540	-141,709	-0,142	-0,010
-405,525	155,697	-0,058	-0,057
-404,511	-77,777	-0,142	-0,035
-403,496	-200,000	-0,008	-0,051
-402,482	86,873	0,050	0,039
-401,467	-172,138	0,020	0,000
-400,452	359,298	-0,041	0,058
-399,438	-200,000	0,007	0,060
-398,423	-3,003	-0,116	0,058
-397,409	-200,000	0,019	-0,168
-396,394	800,000	0,040	-0,112
-395,379	-140,817	0,031	-0,002
-394,365	48,951	0,063	-0,042
-393,350	194,052	0,074	0,080
-392,336	385,111	0,048	0,070
-391,321	-40,300	-0,119	0,044
-390,306	93,932	0,147	-0,119
-389,292	-200,000	-0,001	-0,013
-388,277	91,490	0,125	0,100
-387,263	-16,139	0,092	-0,041
-386,248	79,538	0,030	-0,023
-385,233	-44,040	0,083	-0,030
-384,219	262,729	0,106	0,131
-383,204	-100,140	-0,093	0,016
-382,190	399,657	0,048	0,072
-381,175	-139,591	0,018	0,001
-380,160	100,022	0,104	0,086
-379,146	250,220	0,042	0,050
-378,131	-17,912	0,034	-0,015
-377,117	-53,133	-0,055	0,018
-376,102	449,171	-0,058	-0,092
-375,088	58,965	-0,041	-0,029
-374,073	-85,336	0,115	-0,025
-373,058	-200,000	-0,012	-0,057
-372,044	-63,923	0,182	0,053
-371,029	-27,692	0,065	-0,027
-370,015	185,383	0,086	-0,091
-369,000	-103,377	-0,082	0,014
-367,985	90,385	-0,037	-0,029
-366,971	140,237	0,014	0,013
-365,956	800,000	-0,038	0,093
-364,942	-43,581	0,090	0,032
-363,927	800,000	-0,011	0,027
-362,912	-89,976	0,094	-0,019
-361,898	-130,305	0,025	-0,002
-360,883	-200,000	-0,003	-0,131
-359,869	800,000	0,055	-0,112
-358,854	-200,000	0,010	0,068
-357,839	-95,337	-0,047	0,009
-356,825	439,575	0,021	-0,033
-355,810	-20,147	0,044	-0,019
-354,796	624,436	-0,124	-0,223
-353,781	800,000	-0,048	0,099
-352,766	-54,178	-0,190	0,061
-351,752	-113,294	-0,013	-0,002
-350,737	431,904	0,049	-0,076
-349,723	389,555	0,048	-0,072
-348,708	156,710	0,049	0,049
-347,693	9,275	-0,033	0,018
-346,679	66,449	-0,071	0,051
-345,664	357,953	0,042	0,060
-344,650	-52,087	0,079	0,026
-343,635	-59,219	0,097	-0,030
-342,620	144,307	-0,067	0,064
-341,606	-200,000	0,007	0,175
-340,591	-32,777	0,102	-0,040
-339,577	-77,449	-0,121	0,030
-338,562	-200,000	-0,030	-0,112
-337,548	-200,000	-0,010	-0,170
-336,533	-200,000	-0,003	0,130
-335,518	396,269	0,042	-0,063
-334,504	-200,000	0,030	0,118
-333,489	-200,000	0,005	-0,103
-332,475	-200,000	-0,029	0,131
-331,460	199,703	-0,070	0,077
-330,445	800,000	-0,031	0,088
-329,431	-200,000	-0,004	0,018
-328,416	-54,991	0,069	0,022
-327,402	-200,000	0,002	0,124
-326,387	83,790	-0,062	0,048
-325,372	-200,000	-0,048	-0,166
-324,358	-200,000	-0,022	-0,102
-323,343	-200,000	-0,014	0,138
-322,329	85,456	0,074	0,058
-321,314	-40,637	0,081	-0,030
-320,299	282,000	-0,029	0,037
-319,285	126,157	-0,023	-0,021
-318,270	60,527	-0,099	-0,070
-317,256	13,183	-0,102	-0,056
-316,241	26,662	0,074	-0,044
-315,226	-25,598	0,039	-0,017
-314,212	-200,000	-0,019	-0,072
-313,197	187,005	0,101	0,108
-312,183	151,213	-0,106	0,103
-311,168	-200,000	0,005	0,084
-310,153	236,137	-0,128	0,151
-309,139	-100,226	-0,061	-0,011
-308,124	-85,810	-0,119	0,026
-307,110	668,568	0,032	-0,059
-306,095	76,610	-0,068	-0,051
-305,080	-200,000	-0,023	0,101
-304,066	-131,921	0,045	0,004
-303,051	-29,140	0,051	0,021
-302,037	-183,845	0,062	-0,001
-301,022	-200,000	0,019	0,128
-300,008	104,324	0,079	0,066
-298,993	30,913	0,055	0,033
-297,978	142,910	0,043	0,041
-296,964	373,075	-0,022	0,033
-295,949	-11,051	-0,103	-0,048
-294,935	289,882	0,090	0,116
-293,920	-162,656	0,136	0,005
-292,905	-200,000	-0,007	0,112
-291,891	800,000	-0,033	0,092
-290,876	-12,270	0,045	0,021
-289,862	463,076	-0,032	0,051
-288,847	-200,000	0,047	-0,182
-287,832	515,508	-0,084	-0,140
-286,818	800,000	0,020	-0,050
-285,803	-66,164	0,095	-0,027
-284,789	-200,000	0,000	-0,083
-283,774	206,032	0,038	-0,042
-282,759	-77,449	0,167	0,041
-281,745	-78,698	-0,117	-0,028
-280,730	-5,016	-0,094	-0,046
-279,716	-9,893	0,109	0,051
-278,701	-146,500	-0,068	0,004
-277,686	764,768	-0,033	0,064
-276,672	-134,820	-0,085	-0,007
-275,657	215,016	0,045	-0,051
-274,643	220,584	-0,094	-0,107
-273,628	-139,455	0,062	0,005
-272,613	-101,751	0,141	0,024
-271,599	-122,316	-0,097	0,011
-270,584	329,174	0,059	-0,081
-269,570	421,062	0,061	-0,094
-268,555	-200,000	0,028	-0,120
-267,540	-114,689	-0,091	0,012
-266,526	-200,000	0,030	-0,295
-265,511	-200,000	-0,044	-0,147
-264,497	115,626	0,092	0,080
-263,482	31,391	0,071	0,044
-262,467	475,897	0,049	0,080
-261,453	-76,295	-0,072	0,018
-260,438	-200,000	-0,016	0,085
-259,424	-200,000	-0,013	0,050
-258,409	1,014	-0,061	0,031
-257,395	-200,000	0,010	-0,065
-256,380	-200,000	0,020	0,138
-255,365	800,000	-0,048	0,129
-254,351	-132,498	0,246	-0,022
-253,336	771,265	0,064	-0,125
-252,322	125,419	-0,151	0,135
-251,307	-200,000	-0,022	0,164
-250,292	-200,000	0,016	0,112
-249,278	-56,263	0,073	-0,023
-248,263	-200,000	0,028	0,140
-247,249	107,987	-0,126	-0,107
-246,234	-200,000	-0,015	-0,103
-245,219	460,978	0,031	-0,049
-244,205	191,920	0,112	-0,120
-243,190	-88,221	0,105	-0,022
-242,176	-101,964	0,084	-0,014
-241,161	725,754	0,033	0,063
-240,146	-200,000	-0,009	-0,111
-239,132	58,787	-0,048	-0,033
-238,117	-90,245	-0,036	0,007
-237,103	70,897	-0,071	0,053
-236,088	-200,000	0,009	-0,109
-235,073	-168,388	0,040	-0,001
-234,059	778,806	0,024	-0,047
-233,044	47,582	0,110	0,073
-232,030	-200,000	-0,005	0,045
-231,015	275,462	-0,045	0,056
-230,000	-200,000	0,004	-0,136
-228,986	-200,000	0,005	0,052
-227,971	800,000	0,036	0,079
-226,957	-200,000	-0,013	0,091
-225,942	196,912	-0,023	0,025
-224,927	-200,000	0,009	-0,040
-223,913	800,000	-0,018	0,046
-222,898	-200,000	-0,043	-0,150
-221,884	559,585	-0,053	0,092
-220,869	-76,311	-0,010	0,003
-219,855	-34,448	-0,019	-0,007
-218,840	-200,000	0,004	0,169
-217,825	800,000	-0,018	0,041
-216,811	173,455	-0,064	0,066
-215,796	58,030	0,008	0,005
-214,782	800,000	-0,028	0,079
-213,767	93,488	-0,047	-0,038
-212,752	-200,000	-0,007	0,150
-211,738	120,817	0,115	0,101
-210,723	-200,000	0,007	0,126
-209,709	-74,381	-0,074	0,019
-208,694	-7,835	-0,071	-0,034
-207,679	800,000	0,027	0,059
-206,665	192,187	0,019	0,021
-205,650	376,267	0,069	0,101
-204,636	98,344	0,068	0,056
-203,621	800,000	-0,017	0,046
-202,606	217,361	-0,046	0,053
-201,592	-5,232	0,047	-0,023
-200,577	204,299	-0,095	0,105
-199,563	-25,214	0,206	0,086
-198,548	-200,000	-0,002	0,120
-197,533	-134,830	0,040	0,003
-196,519	753,088	-0,042	-0,081
-195,504	126,310	0,033	-0,029
-194,490	-151,931	-0,137	-0,007
-193,475	23,264	0,064	-0,037
-192,460	186,196	0,013	0,014
-191,446	-200,000	0,042	-0,162
-190,431	-76,483	-0,088	0,022
-189,417	-95,511	0,088	-0,017
-188,402	-200,000	-0,009	-0,158
-187,387	53,950	-0,076	-0,052
-186,373	-156,733	-0,046	0,002
-185,358	800,000	0,049	0,120
-184,344	138,115	0,047	0,043
-183,329	736,444	-0,021	0,041
-182,315	-111,051	-0,117	0,017
-181,300	216,071	0,052	0,058
-180,285	406,653	-0,072	-0,108
-179,271	800,000	-0,017	0,038
-178,256	60,407	-0,098	-0,069
-177,242	-43,120	-0,162	-0,058
-176,227	-64,304	0,058	0,017
-175,212	95,339	-0,061	-0,049
-174,198	108,957	0,057	0,048
-173,183	-143,150	-0,074	-0,005
-172,169	-136,019	0,088	0,007
-171,154	-10,801	-0,080	-0,037
-170,139	-200,000	-0,005	-0,080
-169,125	-200,000	0,011	-0,035
-168,110	-200,000	0,024	0,095
-167,096	800,000	-0,023	-0,050
-166,081	800,000	-0,035	-0,078
-165,066	-31,295	-0,082	0,032
-164,052	173,940	0,110	-0,112
-163,037	800,000	0,051	0,117
-162,023	191,004	0,074	0,079
-161,008	728,173	-0,083	0,157
-159,993	800,000	-0,077	0,188
-158,979	-59,769	-0,108	0,032
-157,964	-200,000	0,001	-0,061
-156,950	-121,093	-0,029	-0,003
-155,935	302,214	-0,035	-0,045
-154,920	199,985	-0,023	-0,025
-153,906	40,245	0,033	0,021
-152,891	-27,920	-0,127	-0,052
-151,877	-37,668	0,113	0,042
-150,862	123,242	-0,107	-0,095
-149,847	800,000	-0,032	0,080
-148,833	76,193	-0,144	0,107
-147,818	800,000	-0,033	-0,089
-146,804	-53,810	-0,136	-0,044
-145,789	-200,000	-0,020	0,118
-144,775	43,598	-0,102	-0,066
-143,760	16,919	-0,022	0,012
-142,745	321,544	-0,063	-0,085
-141,731	29,113	-0,171	0,102
-140,716	57,059	0,049	-0,034
-139,702	800,000	-0,087	0,219
-138,687	-116,818	0,032	0,004
-137,672	-97,492	-0,084	0,015
-136,658	352,343	-0,031	0,043
-135,643	-57,450	-0,057	-0,018
-134,629	-160,678	-0,150	0,006
-133,614	-89,254	0,061	-0,013
-132,599	204,833	0,104	-0,115
-131,585	-43,788	0,075	-0,027
-130,570	217,332	-0,059	0,066
-129,556	86,724	-0,012	0,009
-128,541	131,902	-0,092	-0,084
-127,526	-51,577	0,041	0,014
-126,512	-114,739	-0,038	0,005
-125,497	-29,257	0,072	0,029
-124,483	-191,924	0,142	-0,001
-123,468	-200,000	0,011	0,116
-122,453	99,250	0,007	0,006
-121,439	800,000	-0,022	-0,057
-120,424	152,538	-0,075	-0,072
-119,410	-161,089	0,048	0,002
-118,395	606,712	-0,024	0,042
-117,380	800,000	-0,063	0,127
-116,366	-200,000	0,005	0,087
-115,351	118,821	-0,127	-0,111
-114,337	59,830	-0,025	0,018
-113,322	-200,000	-0,025	-0,135
-112,307	8,883	0,017	-0,009
-111,293	-200,000	-0,004	0,064
-110,278	146,324	0,102	0,097
-109,264	-200,000	0,009	-0,103
-108,249	426,948	-0,097	-0,149
-107,234	26,615	0,076	0,045
-106,220	-148,341	0,121	0,007
-105,205	-66,873	-0,150	-0,042
-104,191	800,000	-0,007	0,017
-103,176	-84,924	0,022	0,005
-102,162	-25,561	-0,046	0,019
-101,147	35,630	0,061	0,037
-100,132	266,326	-0,126	-0,156
-99,118	-135,555	0,081	0,007
-98,103	-200,000	-0,009	0,057
-97,089	-27,435	0,062	-0,025
-96,074	-200,000	-0,008	0,061
-95,059	-122,716	-0,172	0,019
-94,045	-111,122	0,077	-0,011
-93,030	-144,741	-0,148	-0,009
-92,016	-200,000	0,003	-0,071
-91,001	-9,165	-0,057	-0,027
-89,986	76,403	0,091	0,068
-88,972	800,000	-0,027	0,063
-87,957	800,000	-0,029	0,084
-86,943	366,324	-0,036	-0,052
-85,928	-200,000	-0,006	-0,075
-84,913	-200,000	-0,045	-0,201
-83,899	109,539	0,064	0,054
-82,884	-200,000	0,022	0,192
-81,870	232,592	-0,107	-0,124
-80,855	-95,417	0,235	0,044
-79,840	-103,105	-0,046	0,008
-78,826	-10,061	-0,035	0,016
-77,811	-74,069	-0,083	-0,021
-76,797	253,276	-0,096	0,115
-75,782	-200,000	-0,012	-0,063
-74,767	187,467	-0,045	0,048
-73,753	-21,651	-0,040	0,017
-72,738	-200,000	-0,027	0,129
-71,724	180,539	0,059	0,062
-70,709	22,412	0,088	-0,051
-69,694	-121,584	-0,247	0,029
-68,680	126,011	0,082	-0,073
-67,665	30,122	-0,105	0,063
-66,651	800,000	-0,044	0,115
-65,636	800,000	-0,010	-0,021
-64,622	-200,000	-0,016	-0,084
-63,607	800,000	0,030	-0,069
-62,592	-103,320	0,093	-0,015
-61,578	-73,442	0,090	-0,023
-60,563	-200,000	-0,054	0,209
-59,549	-200,000	0,023	0,111
-58,534	48,867	-2,156	-1,425
-57,519	512,652	-1,118	-1,845
-56,505	-200,000	-0,435	-4,471
-55,490	715,524	0,945	1,776
-54,476	800,000	5,274	11,305
-53,461	-200,000	22,401	345,829
-52,446	800,000	758,251	2299,174
-51,432	534,609	1647,100	2764,368
-50,417	68,363	1645,631	1187,879
-49,403	15,864	1522,344	842,604
-48,388	10,076	1447,833	773,539
-47,373	19,228	1440,362	813,162
-46,359	13,519	1428,823	779,652
-45,344	8,387	1424,869	753,175
-44,330	8,286	1423,033	751,693
-43,315	8,251	1421,139	750,496
-42,300	8,269	1419,388	749,631
-41,286	8,334	1417,976	749,161
-40,271	8,310	1416,739	748,364
-39,257	8,278	1415,640	747,601
-38,242	8,305	1414,643	747,173
-37,227	8,332	1413,389	746,610
-36,213	8,337	1412,199	745,974
-35,198	8,275	1410,950	744,995
-34,184	8,310	1410,081	744,671
-33,169	8,240	1408,759	743,615
-32,154	8,290	1407,839	743,330
-31,140	8,238	1406,624	742,419
-30,125	8,259	1405,484	741,886
-29,111	8,277	1404,139	741,231
-28,096	8,277	1403,041	740,621
-27,082	8,225	1401,703	739,644
-26,067	8,205	1400,762	739,025
-25,052	8,251	1399,718	738,656
-24,038	8,298	1398,422	738,164
-23,023	8,219	1397,857	737,467
-22,009	8,197	1396,932	736,847
-20,994	8,207	1395,822	736,278
-19,979	8,196	1394,707	735,611
-18,965	8,165	1393,791	734,957
-17,950	8,148	1392,862	734,360
-16,936	8,184	1391,895	733,986
-15,921	8,139	1390,936	733,241
-14,906	8,118	1390,232	732,747
-13,892	8,193	1388,956	732,388
-12,877	8,168	1388,368	731,933
-11,863	8,151	1387,793	731,523
-10,848	8,102	1386,749	730,717
-9,833	8,101	1385,612	730,088
-8,819	8,064	1384,883	729,502
-7,804	8,062	1384,034	729,016
-6,790	8,046	1382,964	728,354
-5,775	8,075	1381,941	727,919
-4,760	8,041	1381,144	727,313
-3,746	8,047	1380,190	726,810
-2,731	8,116	1379,155	726,551
-1,717	8,078	1378,179	725,833
-0,702	8,055	1376,471	724,803
0,313	12,152	1287,272	696,386
1,327	28,075	678,857	402,798
2,342	43,902	116,771	75,254
3,356	0,753	16,661	8,378
4,371	-12,534	3,920	1,796
5,386	19,310	1,338	0,755
6,400	800,000	0,330	0,647
7,415	280,204	-0,159	-0,201
8,429	27,267	-0,276	-0,163
9,444	68,107	-0,259	-0,187
10,459	51,606	-0,319	-0,213
11,473	-57,605	-0,311	-0,095
12,488	-3,379	-0,154	-0,075
13,502	25,971	-0,221	-0,129
14,517	43,925	-0,339	-0,218
15,531	164,573	-0,302	-0,300
16,546	30,911	-0,353	-0,212
17,561	115,344	-0,320	-0,275
18,575	-109,011	-0,223	-0,033
19,590	13,882	-0,233	-0,127
20,604	5,260	-0,294	-0,152
21,619	97,918	-0,381	-0,309
22,634	111,310	-0,500	-0,424
23,648	100,680	-0,329	-0,268
24,663	132,031	-0,318	-0,288
25,677	9,050	-0,475	-0,252
26,692	81,863	-0,349	-0,266
27,707	60,467	-0,347	-0,242
28,721	178,247	-0,315	-0,324
29,736	113,685	-0,310	-0,265
30,750	146,940	-0,358	-0,339
31,765	163,529	-0,328	-0,324
32,780	-49,073	-0,160	-0,054
33,794	36,046	-0,300	-0,185
34,809	11,025	-0,399	-0,214
35,823	231,563	-0,277	-0,320
36,838	24,042	-0,382	-0,221
37,853	243,539	-0,293	-0,346
38,867	178,791	-0,312	-0,321
39,882	34,530	-0,298	-0,182
40,896	157,234	-0,296	-0,288
41,911	66,951	-0,443	-0,317
42,926	78,098	-0,420	-0,315
43,940	-45,591	-0,401	-0,139
44,955	62,269	-0,382	-0,267
45,969	95,283	-0,351	-0,281
46,984	73,575	-0,384	-0,282
47,999	-26,647	-0,374	-0,153
49,013	12,965	-0,315	-0,170
50,028	16,574	-0,371	-0,205
51,042	73,198	-0,350	-0,257
52,057	0,258	-0,351	-0,175
53,071	37,802	-0,327	-0,203
54,086	4,736	-0,410	-0,211
55,101	-1,133	-0,316	-0,156
56,115	-17,991	-0,286	-0,125
57,130	19,677	-0,417	-0,235
58,144	-70,682	-0,382	-0,101
59,159	44,883	-0,356	-0,230
60,174	162,608	-0,338	-0,333
61,188	216,556	-0,297	-0,331
62,203	137,625	-0,305	-0,280
63,217	22,817	-0,351	-0,201
64,232	143,925	-0,334	-0,312
65,247	86,069	-0,322	-0,248
66,261	46,554	-0,269	-0,174
67,276	82,025	-0,328	-0,249
68,290	-153,559	-0,276	-0,013
69,305	80,767	-0,273	-0,206
70,320	-11,826	-0,253	-0,116
71,334	109,592	-0,258	-0,217
72,349	34,126	-0,234	-0,142
73,363	30,630	-0,417	-0,249
74,378	230,872	-0,284	-0,326
75,393	146,504	-0,285	-0,268
76,407	133,784	-0,325	-0,295
77,422	175,513	-0,306	-0,311
78,436	-4,796	-0,328	-0,158
79,451	89,821	-0,245	-0,192
80,466	117,163	-0,411	-0,354
81,480	122,907	-0,311	-0,272
82,495	70,849	-0,310	-0,225
83,509	66,049	-0,414	-0,293
84,524	-66,915	-0,364	-0,100
85,539	449,396	-0,146	-0,227
86,553	10,564	-0,175	-0,093
87,568	66,570	-0,370	-0,263
88,582	104,161	-0,190	-0,157
89,597	33,509	-0,295	-0,179
90,611	61,335	-0,243	-0,168
91,626	62,065	-0,206	-0,143
92,641	-18,451	-0,210	-0,091
93,655	79,656	-0,237	-0,178
94,670	68,409	-0,261	-0,186
95,684	16,418	-0,301	-0,166
96,699	151,857	-0,274	-0,261
97,714	64,897	-0,234	-0,165
98,728	-165,844	-0,366	-0,011
99,743	-37,063	-0,221	-0,082
100,757	-48,518	-0,248	-0,083
101,772	106,739	-0,291	-0,241
102,787	-37,829	-0,325	-0,120
103,801	8,318	-0,309	-0,162
104,816	488,563	-0,094	-0,151
105,830	76,897	-0,253	-0,187
106,845	18,663	-0,253	-0,141
107,860	-100,361	-0,244	-0,042
108,874	-62,269	-0,357	-0,103
109,889	61,037	-0,173	-0,120
110,903	13,615	-0,288	-0,156
111,918	-13,682	-0,181	-0,082
112,933	-52,665	-0,259	-0,083
113,947	800,000	-0,106	-0,272
114,962	22,358	-0,195	-0,111
115,976	20,223	-0,227	-0,127
116,991	-2,274	-0,303	-0,148
118,006	133,570	-0,291	-0,262
119,020	-35,922	-0,354	-0,133
120,035	265,948	-0,217	-0,265
121,049	513,779	-0,216	-0,353
122,064	15,970	-0,343	-0,188
123,079	-117,461	-0,188	-0,023
124,093	-91,854	-0,403	-0,079
125,108	55,789	-0,266	-0,179
126,122	-151,329	-0,264	-0,013
127,137	34,081	-0,262	-0,159
128,151	-13,993	-0,323	-0,145
129,166	81,955	-0,139	-0,105
130,181	387,237	-0,130	-0,188
131,195	58,388	-0,383	-0,261
132,210	-128,424	-0,240	0,023
133,224	38,776	-0,312	-0,194
134,239	-87,148	-0,377	-0,079
135,254	253,602	-0,092	-0,109
136,268	33,939	-0,203	-0,123
137,283	280,340	-0,090	-0,112
138,297	40,538	-0,291	-0,182
139,312	70,329	-0,281	-0,202
140,327	50,616	-0,235	-0,155
141,341	23,671	-0,194	-0,111
142,356	280,279	-0,247	-0,307
143,370	-99,928	-0,201	-0,035
144,385	-145,070	-0,173	-0,011
145,400	-29,372	-0,326	-0,129
146,414	299,773	-0,156	-0,201
147,429	315,766	-0,213	-0,281
148,443	259,168	-0,169	-0,203
149,458	185,499	-0,172	-0,178
150,473	-11,099	-0,234	-0,107
151,487	-17,956	-0,242	-0,105
152,502	212,688	-0,255	-0,281
153,516	114,617	-0,273	-0,231
154,531	-68,296	-0,376	-0,101
155,546	68,324	-0,286	-0,203
156,560	195,472	-0,193	-0,204
157,575	-39,247	-0,239	-0,087
158,589	73,955	-0,280	-0,204
159,604	3,064	-0,295	-0,148
160,619	91,283	-0,310	-0,241
161,633	-49,702	-0,254	-0,083
162,648	356,940	-0,196	-0,273
163,662	53,329	-0,335	-0,223
164,677	-136,944	-0,315	-0,025
165,692	-40,989	-0,157	-0,056
166,706	-153,092	-0,342	-0,016
167,721	-56,739	-0,251	-0,077
168,735	-98,530	-0,349	-0,061
169,750	216,424	-0,108	-0,119
170,764	42,117	-0,265	-0,167
171,779	138,354	-0,200	-0,183
172,794	79,761	-0,143	-0,106
173,808	73,086	-0,253	-0,183
174,823	123,481	-0,352	-0,306
175,837	-34,011	-0,286	-0,109
176,852	-8,862	-0,217	-0,101
177,867	-56,249	-0,208	-0,064
178,881	141,704	-0,240	-0,221
179,896	82,677	-0,159	-0,120
180,910	116,445	-0,214	-0,182
181,925	69,234	-0,191	-0,136
182,940	-200,000	-0,025	-0,146
183,954	30,086	-0,191	-0,113
184,969	-82,380	-0,241	-0,054
185,983	4,888	-0,084	-0,043
186,998	123,634	-0,225	-0,195
188,013	247,629	-0,148	-0,174
189,027	26,311	-0,297	-0,172
190,042	-6,188	-0,253	-0,119
191,056	157,470	-0,248	-0,238
192,071	21,388	-0,188	-0,106
193,086	113,618	-0,149	-0,125
194,100	356,009	-0,147	-0,204
195,115	200,671	-0,222	-0,236
196,129	184,885	-0,261	-0,269
197,144	34,421	-0,263	-0,159
198,159	-89,956	-0,303	-0,061
199,173	175,287	-0,155	-0,156
200,188	-200,000	-0,047	-0,273
201,202	121,012	-0,140	-0,121
202,217	177,727	-0,155	-0,157
203,232	-8,809	-0,261	-0,121
204,246	191,517	-0,127	-0,132
205,261	39,422	-0,224	-0,138
206,275	174,888	-0,206	-0,206
207,290	69,169	-0,224	-0,159
208,304	7,204	-0,180	-0,093
209,319	15,763	-0,194	-0,105
210,334	309,109	-0,169	-0,219
211,348	58,071	-0,194	-0,132
212,363	-80,344	-0,204	-0,047
213,377	61,335	-0,167	-0,115
214,392	-130,802	-0,189	0,017
215,407	76,369	-0,103	-0,076
216,421	682,826	-0,085	-0,153
217,436	800,000	-0,131	-0,327
218,450	-23,740	-0,256	-0,106
219,465	196,044	-0,228	-0,240
220,480	-50,250	-0,177	-0,058
221,494	112,744	-0,085	-0,071
222,509	-2,230	-0,141	-0,068
223,523	-3,600	-0,097	-0,047
224,538	-6,888	-0,236	-0,111
225,553	8,350	-0,124	-0,064
226,567	-17,248	-0,112	-0,048
227,582	450,782	-0,188	-0,288
228,596	113,709	-0,137	-0,115
229,611	296,138	-0,133	-0,168
230,626	491,729	-0,114	-0,181
231,640	271,155	-0,200	-0,243
232,655	-23,410	-0,351	-0,145
233,669	270,374	-0,179	-0,218
234,684	800,000	-0,124	-0,253
235,699	67,396	-0,180	-0,127
236,713	-42,027	-0,131	-0,046
237,728	13,713	-0,103	-0,055
238,742	66,249	-0,218	-0,153
239,757	248,644	-0,216	-0,252
240,772	397,321	-0,111	-0,161
241,786	218,844	-0,165	-0,182
242,801	-200,000	-0,005	-0,055
243,815	104,868	-0,232	-0,189
244,830	20,707	-0,180	-0,100
245,844	167,452	-0,148	-0,146
246,859	51,069	-0,154	-0,101
247,874	284,334	-0,152	-0,189
248,888	299,379	-0,177	-0,226
249,903	-66,180	-0,079	-0,022
250,917	148,146	-0,150	-0,139
251,932	118,830	-0,148	-0,126
252,947	-95,924	-0,182	-0,033
253,961	143,524	-0,143	-0,132
254,976	-102,451	-0,151	-0,025
255,990	-84,973	-0,215	0,046
257,005	-11,683	-0,146	-0,066
258,020	-57,591	-0,123	-0,037
259,034	-123,436	-0,248	0,027
260,049	-88,530	-0,184	-0,038
261,063	48,138	-0,257	-0,165
262,078	800,000	-0,152	-0,299
263,093	-130,547	-0,106	-0,010
264,107	232,216	-0,121	-0,137
265,122	800,000	0,056	-0,168
266,136	35,752	-0,188	-0,113
267,151	56,195	-0,179	-0,120
268,166	-47,045	-0,139	-0,046
269,180	106,134	-0,244	-0,199
270,195	41,337	-0,203	-0,126
271,209	97,078	-0,146	-0,115
272,224	525,394	-0,072	-0,117
273,239	-29,300	-0,164	0,064
274,253	-120,373	-0,119	-0,014
275,268	-96,141	-0,232	-0,042
276,282	188,210	-0,101	-0,104
277,297	134,905	-0,206	-0,184
278,312	-51,868	-0,097	-0,031
279,326	800,000	-0,113	-0,245
280,341	-200,000	0,003	-0,091
281,355	49,064	-0,076	-0,049
282,370	-21,218	-0,220	-0,092
283,384	402,792	-0,113	-0,164
284,399	241,832	-0,152	-0,176
285,414	-200,000	-0,011	-0,136
286,428	800,000	-0,052	-0,127
287,443	198,162	-0,167	-0,176
288,457	117,158	-0,151	-0,128
289,472	31,332	-0,246	-0,145
290,487	19,725	-0,197	-0,109
291,501	186,522	-0,133	-0,136
292,516	197,443	-0,133	-0,139
293,530	218,284	-0,188	-0,207
294,545	-34,702	-0,099	-0,037
295,560	-24,304	-0,155	0,063
296,574	46,357	-0,138	-0,088
297,589	-97,101	-0,216	-0,038
298,603	15,830	-0,267	-0,144
299,618	371,079	-0,150	-0,210
300,633	-19,990	-0,235	-0,099
301,647	-200,000	0,008	-0,168
302,662	-123,035	-0,215	-0,023
303,676	-112,607	-0,271	-0,037
304,691	418,185	-0,077	-0,113
305,706	206,970	-0,214	-0,229
306,720	-139,673	-0,355	-0,026
307,735	387,154	-0,115	-0,164
308,749	240,425	-0,110	-0,126
309,764	205,995	-0,033	0,035
310,779	-74,030	-0,195	-0,048
311,793	-158,762	-0,190	-0,007
312,808	-200,000	-0,030	-0,186
313,822	442,662	-0,103	-0,155
314,837	228,831	-0,122	-0,136
315,852	598,994	-0,071	-0,121
316,866	34,406	-0,126	-0,075
317,881	95,737	-0,102	-0,079
318,895	84,101	-0,146	-0,109
319,910	404,198	-0,076	-0,110
320,925	135,537	-0,203	-0,182
321,939	-180,889	-0,073	0,001
322,954	-3,725	-0,176	-0,083
323,968	475,810	-0,054	-0,084
324,983	40,938	-0,094	-0,058
325,997	1,475	-0,168	-0,083
327,012	145,471	-0,130	-0,120
328,027	800,000	-0,087	-0,230
329,041	205,330	-0,137	-0,146
330,056	-23,048	-0,148	-0,061
331,070	-65,506	-0,139	-0,038
332,085	-24,410	-0,174	-0,071
333,100	185,804	-0,190	-0,194
334,114	527,799	-0,071	-0,114
335,129	49,666	-0,222	-0,143
336,143	800,000	-0,055	-0,110
337,158	-152,632	-0,085	-0,004
338,173	158,549	0,062	-0,059
339,187	-61,867	0,095	-0,027
340,202	800,000	-0,028	-0,070
341,216	-145,134	-0,233	-0,014
342,231	389,241	-0,044	-0,063
343,246	9,839	-0,099	-0,051
344,260	14,754	-0,113	-0,060
345,275	4,734	-0,151	-0,076
346,289	450,542	-0,111	-0,167
347,304	800,000	-0,109	-0,209
348,319	-160,694	-0,119	0,004
349,333	49,939	-0,143	-0,092
350,348	401,614	-0,077	-0,111
351,362	800,000	0,048	-0,120
352,377	1,640	-0,188	-0,092
353,392	34,071	-0,036	-0,021
354,406	239,882	-0,200	-0,228
355,421	207,294	1312,082	1400,286
356,435	159,455	1472,434	1400,723
