DTS Sentinel unit serial number:	SN410029Multiplexer serial number:	ORYXHardware model number:	OX2-SRSoftware version number:	ORYX F/W v4,00 Oryx Data Collector v3.7.2.0data status	okinstallation	B3 Nyhavnadifferential loss correction	single-endedforward channel	channel 1reverse channel	N/Adate	2023/11/29time	10:47:30forward acquisition time	300,00reverse acquisition time	0,00gamma	499,1914k internal	0,3211k external	0,3211temperature offset calibration	1,0000default loss term (dB/km)	0,3820temperature slope calibration	1,0000multiplexer offset coefficient	1,0000multiplexer slope coefficient	1,0000fibre end	0,00T internal ref (°C)	9,45T ext. ref 1 (°C)	-5,57T ext. ref 2 (°C)	-5,71length (m)	temperature (°C)	Stokes	anti-Stokes-744,400	800,000	-0,147	-0,327
-743,385	-200,000	-0,065	0,307
-742,371	150,041	-0,251	-0,247
-741,356	800,000	-0,133	0,289
-740,342	249,742	-0,140	-0,172
-739,327	-200,000	-0,025	0,167
-738,312	506,732	-0,172	-0,290
-737,298	-200,000	0,031	0,344
-736,283	187,362	-0,139	-0,150
-735,269	-200,000	0,056	0,221
-734,254	-64,832	-0,328	-0,096
-733,239	62,560	-0,149	0,108
-732,225	-200,000	-0,013	-0,207
-731,210	-25,166	0,153	0,065
-730,196	-4,512	0,133	-0,067
-729,181	-200,000	-0,009	-0,071
-728,167	800,000	-0,032	-0,075
-727,152	-200,000	0,031	0,000
-726,137	-136,021	-0,103	-0,009
-725,123	800,000	0,062	-0,160
-724,108	-93,541	-0,258	0,051
-723,094	800,000	-0,075	-0,178
-722,079	30,557	-0,139	-0,086
-721,064	202,976	-0,065	-0,073
-720,050	800,000	0,008	-0,022
-719,035	-35,160	-0,123	-0,048
-718,021	-36,853	-0,047	-0,018
-717,006	356,225	0,045	-0,064
-715,991	323,021	-0,075	-0,103
-714,977	-200,000	-0,037	-0,243
-713,962	-6,644	0,129	0,063
-712,948	156,988	-0,028	-0,028
-711,933	800,000	-0,067	-0,145
-710,918	-92,050	-0,155	-0,031
-709,904	146,510	0,015	0,014
-708,889	151,608	-0,128	-0,127
-707,875	-200,000	-0,002	-0,023
-706,860	-200,000	-0,005	-0,069
-705,845	-200,000	-0,010	-0,033
-704,831	-200,000	0,003	0,103
-703,816	256,551	0,037	-0,047
-702,802	440,819	-0,081	-0,129
-701,787	105,113	-0,119	-0,102
-700,772	-200,000	0,031	-0,141
-699,758	-84,189	0,135	0,031
-698,743	800,000	0,038	-0,114
-697,729	800,000	-0,029	0,085
-696,714	-200,000	-0,006	0,040
-695,699	800,000	0,037	-0,078
-694,685	-8,401	-0,114	0,055
-693,670	392,931	0,013	0,020
-692,656	77,351	0,024	0,018
-691,641	-200,000	-0,073	-0,232
-690,627	81,570	0,075	0,059
-689,612	296,321	0,084	0,112
-688,597	460,204	-0,032	0,052
-687,583	-102,586	0,039	-0,007
-686,568	-136,799	-0,179	0,015
-685,554	246,556	-0,046	0,056
-684,539	800,000	0,002	0,005
-683,524	-200,000	-0,003	0,084
-682,510	-200,000	-0,015	0,053
-681,495	73,152	-0,111	-0,084
-680,481	-186,335	-0,073	-0,001
-679,466	78,404	-0,059	0,046
-678,451	-200,000	-0,009	0,061
-677,437	143,717	0,116	0,112
-676,422	-85,158	-0,113	-0,025
-675,408	18,437	0,133	0,077
-674,393	78,155	-0,071	-0,055
-673,378	-95,297	-0,267	-0,052
-672,364	-200,000	-0,017	-0,130
-671,349	209,601	-0,047	-0,053
-670,335	18,623	0,089	-0,051
-669,320	800,000	-0,029	0,076
-668,305	-200,000	0,013	0,061
-667,291	-200,000	-0,006	0,096
-666,276	390,546	0,038	-0,057
-665,262	376,986	-0,077	-0,114
-664,247	-200,000	0,018	-0,111
-663,232	-68,517	-0,123	0,034
-662,218	172,019	0,056	0,058
-661,203	-41,134	0,070	0,026
-660,189	776,304	0,013	0,025
-659,174	-77,080	-0,021	0,005
-658,159	295,708	0,063	0,083
-657,145	-8,771	-0,114	0,055
-656,130	-200,000	0,003	-0,090
-655,116	-16,603	0,074	0,034
-654,101	-7,063	-0,091	0,044
-653,086	-200,000	-0,016	0,054
-652,072	-78,961	-0,115	0,028
-651,057	86,869	0,140	0,112
-650,043	8,325	-0,131	-0,071
-649,028	-200,000	0,019	-0,114
-648,014	-200,000	-0,002	-0,072
-646,999	800,000	-0,059	0,154
-645,984	789,667	-0,028	0,056
-644,970	-44,690	-0,099	-0,035
-643,955	-200,000	0,019	-0,165
-642,941	450,674	-0,063	-0,101
-641,926	160,865	0,061	-0,062
-640,911	-90,822	0,079	0,016
-639,897	307,552	0,094	0,127
-638,882	-200,000	0,024	-0,112
-637,868	12,308	-0,074	0,041
-636,853	-168,874	0,050	-0,001
-635,838	-198,362	0,157	-0,001
-634,824	68,364	-0,058	-0,043
-633,809	-200,000	-0,009	-0,129
-632,795	-200,000	-0,024	0,154
-631,780	79,978	0,122	0,094
-630,765	137,978	-0,123	-0,117
-629,751	-146,327	-0,096	0,006
-628,736	656,925	-0,103	-0,193
-627,722	800,000	0,049	-0,137
-626,707	800,000	-0,021	0,060
-625,692	16,980	0,092	-0,053
-624,678	-200,000	-0,011	0,095
-623,663	440,430	0,014	-0,023
-622,649	85,880	-0,070	-0,056
-621,634	-200,000	-0,001	0,087
-620,619	-137,853	0,086	0,007
-619,605	800,000	-0,007	-0,017
-618,590	665,407	0,016	0,030
-617,576	14,244	-0,124	-0,069
-616,561	402,564	0,044	0,067
-615,546	-98,047	-0,108	0,020
-614,532	-61,122	-0,149	-0,045
-613,517	-114,080	-0,144	-0,020
-612,503	179,969	0,017	-0,018
-611,488	-6,299	-0,117	-0,057
-610,474	135,562	0,116	-0,109
-609,459	261,109	-0,077	-0,096
-608,444	5,164	0,069	0,037
-607,430	368,282	-0,050	0,073
-606,415	28,493	-0,011	0,007
-605,401	-62,968	-0,110	-0,033
-604,386	69,420	0,026	0,019
-603,371	-200,000	-0,005	0,168
-602,357	-52,950	-0,070	-0,023
-601,342	-8,037	0,015	0,007
-600,328	167,881	-0,044	-0,045
-599,313	-200,000	-0,003	-0,028
-598,298	-18,387	0,036	-0,016
-597,284	68,327	0,029	0,021
-596,269	-149,601	0,044	0,002
-595,255	-90,213	-0,073	0,015
-594,240	-1,659	-0,089	-0,045
-593,225	-200,000	-0,023	-0,095
-592,211	143,467	-0,101	-0,097
-591,196	-90,411	0,067	0,014
-590,182	800,000	-0,045	0,099
-589,167	-156,143	-0,113	-0,005
-588,152	-115,175	0,022	-0,003
-587,138	-114,096	-0,117	-0,016
-586,123	106,377	-0,069	-0,059
-585,109	388,504	-0,020	-0,030
-584,094	-55,087	-0,071	-0,023
-583,079	-53,303	-0,035	-0,012
-582,065	69,182	0,149	0,110
-581,050	71,108	-0,038	0,029
-580,036	-11,983	-0,128	0,060
-579,021	140,005	-0,049	-0,046
-578,006	-200,000	0,009	-0,048
-576,992	-161,217	-0,053	0,002
-575,977	23,928	0,102	0,060
-574,963	427,782	0,031	-0,049
-573,948	109,631	0,072	-0,062
-572,934	596,607	-0,044	-0,080
-571,919	139,910	-0,018	-0,017
-570,904	39,687	0,071	-0,046
-569,890	663,748	-0,081	-0,150
-568,875	-170,799	-0,036	0,001
-567,861	-200,000	0,002	0,089
-566,846	164,052	0,048	0,049
-565,831	348,523	0,112	-0,159
-564,817	354,248	-0,118	-0,170
-563,802	56,974	-0,107	-0,075
-562,788	261,943	-0,039	0,049
-561,773	194,305	-0,040	-0,044
-560,758	800,000	0,047	0,128
-559,744	-200,000	0,003	-0,039
-558,729	83,161	-0,039	0,030
-557,715	-125,270	-0,078	-0,008
-556,700	800,000	-0,056	-0,172
-555,685	-200,000	-0,003	0,063
-554,671	-100,247	0,018	0,003
-553,656	800,000	0,026	0,062
-552,642	18,410	-0,089	-0,051
-551,627	-100,164	0,123	-0,022
-550,612	-24,736	-0,070	-0,030
-549,598	-99,844	-0,080	-0,014
-548,583	698,055	-0,033	0,063
-547,569	-73,484	-0,116	0,030
-546,554	92,678	0,165	-0,134
-545,539	-44,822	0,070	-0,025
-544,525	252,840	0,073	0,089
-543,510	82,966	-0,057	-0,045
-542,496	-111,118	-0,044	-0,006
-541,481	-188,160	-0,016	-0,000
-540,466	-111,785	0,089	0,013
-539,452	142,201	0,023	0,022
-538,437	470,201	0,022	0,036
-537,423	162,789	-0,115	0,117
-536,408	800,000	0,031	0,084
-535,393	102,773	0,086	0,072
-534,379	42,174	0,053	-0,034
-533,364	-34,694	-0,017	-0,007
-532,350	800,000	-0,037	-0,111
-531,335	-200,000	-0,025	0,138
-530,321	-19,966	0,005	0,002
-529,306	76,898	0,115	0,088
-528,291	453,569	-0,074	0,118
-527,277	-200,000	-0,012	-0,085
-526,262	126,237	0,058	0,053
-525,248	-17,950	0,159	-0,071
-524,233	103,889	-0,091	-0,077
-523,218	800,000	0,009	0,021
-522,204	-200,000	0,012	-0,092
-521,189	286,595	-0,099	-0,129
-520,175	800,000	-0,037	-0,101
-519,160	800,000	0,033	-0,084
-518,145	110,764	0,105	0,091
-517,131	-200,000	-0,012	0,054
-516,116	-102,145	-0,057	0,010
-515,102	83,809	0,081	-0,063
-514,087	-0,620	-0,026	0,013
-513,072	80,977	0,045	-0,035
-512,058	128,391	-0,120	-0,110
-511,043	119,487	0,061	-0,054
-510,029	746,513	-0,055	0,107
-509,014	273,480	-0,048	0,062
-507,999	-200,000	0,031	-0,129
-506,985	-123,632	0,038	-0,004
-505,970	334,388	0,021	0,029
-504,956	-200,000	-0,004	-0,022
-503,941	-84,402	0,074	-0,017
-502,926	-200,000	0,011	0,069
-501,912	565,107	-0,149	0,260
-500,897	-42,850	-0,067	0,024
-499,883	-84,491	-0,047	0,011
-498,868	-200,000	0,010	-0,041
-497,853	-119,656	-0,105	0,013
-496,839	800,000	-0,012	0,026
-495,824	71,278	0,033	0,024
-494,810	-95,982	0,004	0,001
-493,795	-136,594	-0,004	0,000
-492,781	-200,000	0,002	-0,043
-491,766	-200,000	-0,017	-0,118
-490,751	-162,530	0,102	0,004
-489,737	-100,094	-0,013	0,002
-488,722	-12,257	0,101	-0,047
-487,708	-97,506	0,115	0,021
-486,693	488,893	0,051	0,084
-485,678	-200,000	-0,006	0,030
-484,664	254,726	0,044	-0,054
-483,649	-200,000	-0,015	0,063
-482,635	740,854	-0,043	-0,083
-481,620	192,662	0,072	-0,078
-480,605	164,666	0,119	0,121
-479,591	269,471	-0,046	0,059
-478,576	-42,562	-0,036	-0,013
-477,562	3,053	-0,083	-0,043
-476,547	800,000	-0,017	-0,050
-475,532	18,445	0,072	-0,041
-474,518	800,000	0,093	-0,195
-473,503	202,629	0,020	-0,022
-472,489	-200,000	0,021	0,159
-471,474	800,000	-0,041	-0,085
-470,459	520,127	-0,054	-0,091
-469,445	800,000	0,023	-0,065
-468,430	112,790	0,049	-0,042
-467,416	19,898	0,088	-0,051
-466,401	38,645	0,071	0,046
-465,386	-200,000	0,005	-0,047
-464,372	261,685	-0,136	-0,169
-463,357	628,136	0,043	0,077
-462,343	-160,977	-0,127	-0,005
-461,328	-200,000	-0,002	0,042
-460,313	-55,948	-0,067	0,021
-459,299	-64,240	0,072	0,021
-458,284	386,610	-0,054	0,080
-457,270	-48,174	-0,130	-0,045
-456,255	-200,000	0,009	-0,088
-455,241	14,671	-0,100	-0,056
-454,226	0,624	-0,068	-0,035
-453,211	-115,385	0,058	0,008
-452,197	-52,111	0,145	-0,048
-451,182	165,347	0,065	-0,066
-450,168	-200,000	0,004	0,081
-449,153	800,000	-0,029	-0,075
-448,138	61,369	-0,135	0,096
-447,124	-112,215	0,068	0,010
-446,109	161,744	0,055	-0,055
-445,095	-200,000	0,019	-0,084
-444,080	243,369	0,053	-0,064
-443,065	179,647	0,059	0,062
-442,051	-200,000	-0,002	0,007
-441,036	787,313	-0,097	-0,192
-440,022	-57,831	0,056	0,017
-439,007	23,397	0,056	-0,033
-437,992	39,964	0,039	0,025
-436,978	-7,432	-0,042	0,020
-435,963	-147,551	-0,166	-0,010
-434,949	578,853	0,072	-0,127
-433,934	-72,628	0,051	0,013
-432,919	-11,912	-0,048	-0,023
-431,905	-200,000	0,032	0,110
-430,890	122,966	0,052	0,046
-429,876	345,376	0,100	0,140
-428,861	-23,119	0,139	0,060
-427,846	-200,000	0,028	-0,092
-426,832	-53,780	-0,046	0,015
-425,817	339,401	0,061	-0,085
-424,803	50,364	-0,079	0,053
-423,788	179,476	0,073	0,077
-422,773	-93,680	0,105	-0,021
-421,759	171,038	0,055	-0,057
-420,744	77,104	-0,093	0,071
-419,730	-5,071	-0,020	0,010
-418,715	62,139	-0,130	0,093
-417,701	800,000	-0,056	0,119
-416,686	-76,692	0,161	0,040
-415,671	27,079	0,154	0,092
-414,657	800,000	-0,056	-0,113
-413,642	-200,000	-0,005	0,065
-412,628	75,304	-0,046	-0,035
-411,613	231,431	-0,045	0,053
-410,598	-200,000	0,003	0,024
-409,584	-133,641	0,186	0,016
-408,569	-124,072	0,137	0,015
-407,555	-87,249	-0,030	0,007
-406,540	-28,532	-0,104	-0,043
-405,525	-82,862	-0,095	-0,022
-404,511	73,864	-0,144	-0,108
-403,496	116,910	0,065	-0,057
-402,482	-200,000	-0,009	-0,071
-401,467	627,773	0,008	0,015
-400,452	-200,000	0,031	0,155
-399,438	-10,290	-0,012	0,006
-398,423	177,998	0,040	-0,041
-397,409	-200,000	-0,006	-0,076
-396,394	187,888	-0,124	0,133
-395,379	223,664	0,046	0,053
-394,365	-200,000	0,023	0,105
-393,350	-159,952	0,116	-0,004
-392,336	800,000	-0,036	0,112
-391,321	-101,356	0,067	-0,012
-390,306	800,000	-0,024	-0,072
-389,292	800,000	-0,016	-0,033
-388,277	-22,719	0,085	-0,036
-387,263	-68,977	0,136	-0,037
-386,248	659,221	-0,049	0,090
-385,233	-69,519	0,109	0,030
-384,219	-174,348	0,129	0,003
-383,204	-126,381	-0,132	-0,014
-382,190	800,000	-0,023	-0,050
-381,175	172,050	-0,021	-0,022
-380,160	-26,017	0,181	0,076
-379,146	-200,000	-0,022	0,075
-378,131	212,212	-0,095	0,107
-377,117	-153,040	0,063	0,003
-376,102	321,948	-0,038	-0,052
-375,088	-97,757	-0,072	0,013
-374,073	800,000	-0,063	0,130
-373,058	-200,000	-0,003	0,185
-372,044	-200,000	0,056	0,210
-371,029	151,386	-0,040	0,039
-370,015	225,848	0,103	0,119
-369,000	-174,413	0,068	0,001
-367,985	-155,695	0,124	-0,006
-366,971	-200,000	-0,014	-0,151
-365,956	210,788	-0,070	-0,079
-364,942	-186,525	0,101	-0,001
-363,927	-152,666	0,047	-0,002
-362,912	-16,600	-0,089	-0,040
-361,898	798,981	-0,041	0,080
-360,883	800,000	0,047	-0,137
-359,869	800,000	-0,046	-0,111
-358,854	-81,209	0,128	-0,030
-357,839	133,318	0,070	0,064
-356,825	68,916	-0,077	0,056
-355,810	-88,051	0,087	-0,019
-354,796	-132,637	-0,054	-0,005
-353,781	800,000	-0,027	-0,061
-352,766	99,327	-0,144	-0,119
-351,752	-49,151	0,136	-0,046
-350,737	211,669	-0,027	-0,031
-349,723	-200,000	-0,015	0,158
-348,708	-200,000	-0,031	-0,120
-347,693	-92,709	0,129	0,026
-346,679	-200,000	0,006	-0,026
-345,664	-200,000	0,011	0,083
-344,650	-78,036	0,184	-0,045
-343,635	35,571	-0,030	0,019
-342,620	-200,000	-0,020	0,079
-341,606	-128,453	-0,035	-0,004
-340,591	74,484	0,041	-0,030
-339,577	800,000	0,035	-0,073
-338,562	152,434	0,072	0,070
-337,548	176,573	-0,061	0,064
-336,533	116,867	0,088	0,078
-335,518	-36,428	0,235	0,090
-334,504	51,005	-0,052	-0,035
-333,489	-58,391	0,115	-0,035
-332,475	57,851	-0,059	-0,041
-331,460	-153,108	-0,094	-0,005
-330,445	-98,338	-0,147	0,027
-329,431	-47,836	0,056	0,019
-328,416	-30,745	-0,053	0,021
-327,402	-200,000	-0,018	0,084
-326,387	-116,029	-0,083	0,011
-325,372	422,505	-0,067	0,103
-324,358	40,122	0,090	-0,057
-323,343	-88,507	-0,010	-0,002
-322,329	126,449	0,040	-0,036
-321,314	-12,629	0,115	0,053
-320,299	64,052	0,053	0,038
-319,285	-41,106	-0,026	0,010
-318,270	150,226	-0,032	-0,031
-317,256	-200,000	0,026	-0,117
-316,241	81,912	-0,111	-0,086
-315,226	-200,000	-0,026	-0,096
-314,212	800,000	-0,021	0,066
-313,197	154,439	0,087	-0,086
-312,183	242,265	0,023	0,027
-311,168	-14,483	-0,141	-0,064
-310,153	-59,790	-0,123	0,037
-309,139	238,838	-0,053	-0,063
-308,124	290,773	0,085	0,110
-307,110	87,784	0,129	0,102
-306,095	-84,944	0,023	-0,005
-305,080	-200,000	0,016	0,122
-304,066	-4,766	-0,032	-0,016
-303,051	800,000	-0,045	-0,116
-302,037	537,562	0,036	-0,062
-301,022	-89,630	0,102	0,021
-300,008	-200,000	0,019	0,080
-298,993	175,698	0,064	-0,066
-297,978	-107,977	-0,102	0,016
-296,964	800,000	-0,030	-0,063
-295,949	-67,918	-0,157	-0,043
-294,935	629,202	-0,044	0,080
-293,920	64,653	0,053	0,038
-292,905	-200,000	0,025	0,103
-291,891	-13,976	0,106	-0,048
-290,876	415,297	0,070	0,106
-289,862	527,277	0,095	0,160
-288,847	166,430	-0,069	-0,070
-287,832	100,595	-0,121	0,100
-286,818	-25,764	-0,015	-0,006
-285,803	-133,456	0,087	0,008
-284,789	-87,639	-0,046	-0,010
-283,774	126,221	0,043	0,039
-282,759	-200,000	0,009	0,146
-281,745	176,137	-0,047	0,048
-280,730	-200,000	0,049	-0,165
-279,716	27,778	-0,021	0,012
-278,701	-200,000	-0,016	0,097
-277,686	-200,000	-0,018	0,060
-276,672	99,723	0,004	0,003
-275,657	-21,127	0,056	-0,024
-274,643	165,772	-0,048	-0,048
-273,628	-28,493	0,068	0,028
-272,613	-3,067	0,127	-0,063
-271,599	183,187	-0,034	-0,036
-270,584	783,642	0,051	-0,100
-269,570	80,623	-0,096	0,073
-268,555	-200,000	-0,001	-0,102
-267,540	-138,687	-0,225	0,017
-266,526	-200,000	-0,006	0,108
-265,511	-93,843	0,077	0,015
-264,497	-200,000	-0,007	-0,030
-263,482	23,884	-0,046	-0,027
-262,467	159,577	0,041	0,041
-261,453	-200,000	0,015	-0,071
-260,438	49,379	0,103	0,069
-259,424	-109,926	0,048	0,007
-258,409	54,820	-0,143	-0,098
-257,395	-145,824	0,069	0,004
-256,380	-200,000	0,015	0,051
-255,365	-200,000	-0,001	-0,026
-254,351	-200,000	0,001	-0,097
-253,336	403,589	-0,083	-0,125
-252,322	-32,405	0,058	-0,023
-251,307	526,544	-0,051	-0,086
-250,292	374,188	-0,024	-0,035
-249,278	13,026	-0,063	0,035
-248,263	242,329	0,079	-0,094
-247,249	-108,877	-0,096	-0,014
-246,234	-106,368	-0,088	-0,014
-245,219	-200,000	-0,027	-0,088
-244,205	-44,720	-0,094	0,033
-243,190	800,000	0,005	-0,010
-242,176	747,193	0,079	-0,152
-241,161	77,082	0,113	-0,085
-240,146	69,480	-0,031	-0,023
-239,132	800,000	-0,027	-0,059
-238,117	-5,089	-0,086	0,042
-237,103	800,000	0,053	0,120
-236,088	-134,198	-0,069	0,006
-235,073	-121,352	-0,138	0,016
-234,059	144,520	0,042	-0,040
-233,044	190,406	0,052	-0,055
-232,030	-200,000	-0,013	0,072
-231,015	-166,077	-0,027	-0,001
-230,000	400,702	-0,036	0,054
-228,986	525,561	-0,033	-0,056
-227,971	76,944	-0,074	0,056
-226,957	-200,000	-0,026	0,161
-225,942	676,691	-0,031	-0,058
-224,927	800,000	-0,038	0,104
-223,913	-200,000	-0,005	0,022
-222,898	-64,844	-0,129	0,037
-221,884	800,000	0,041	0,119
-220,869	-58,188	-0,074	-0,023
-219,855	-200,000	0,031	0,129
-218,840	800,000	0,026	0,070
-217,825	-69,307	0,107	0,029
-216,811	-93,028	0,044	-0,009
-215,796	317,425	0,080	0,107
-214,782	2,876	0,027	0,014
-213,767	-29,054	0,085	-0,035
-212,752	800,000	0,022	0,056
-211,738	70,573	-0,028	-0,020
-210,723	-200,000	0,034	0,108
-209,709	159,178	-0,139	-0,138
-208,694	-103,692	-0,033	0,005
-207,679	406,782	-0,083	-0,125
-206,665	-200,000	0,011	0,060
-205,650	84,289	-0,028	-0,021
-204,636	143,609	0,102	-0,097
-203,621	800,000	0,074	-0,177
-202,606	-200,000	0,017	0,131
-201,592	-83,489	-0,048	-0,011
-200,577	-200,000	-0,001	-0,019
-199,563	239,349	0,024	0,028
-198,548	299,644	0,037	0,048
-197,533	-69,568	-0,023	-0,006
-196,519	169,129	0,059	0,060
-195,504	62,414	0,066	0,047
-194,490	-200,000	-0,033	-0,114
-193,475	-106,135	0,090	0,014
-192,460	142,858	0,046	-0,043
-191,446	722,066	-0,029	0,055
-190,431	-98,148	0,111	-0,020
-189,417	-55,872	0,025	-0,008
-188,402	800,000	-0,048	-0,100
-187,387	-200,000	-0,008	-0,060
-186,373	800,000	0,030	0,064
-185,358	-35,215	-0,050	0,019
-184,344	800,000	-0,045	-0,121
-183,329	-200,000	0,021	0,089
-182,315	-15,698	0,072	0,032
-181,300	-21,039	0,104	-0,045
-180,285	-121,798	-0,135	0,016
-179,271	-200,000	-0,027	0,144
-178,256	800,000	-0,044	0,100
-177,242	-200,000	0,013	-0,060
-176,227	433,610	0,074	0,114
-175,212	800,000	0,032	0,066
-174,198	100,325	0,057	0,047
-173,183	220,505	-0,068	0,077
-172,169	-200,000	0,011	-0,061
-171,154	-166,915	0,145	0,004
-170,139	312,933	0,029	-0,038
-169,125	800,000	0,016	0,047
-168,110	-128,033	-0,043	-0,004
-167,096	800,000	0,022	0,060
-166,081	800,000	0,054	-0,114
-165,066	-200,000	0,000	0,066
-164,052	800,000	-0,033	0,074
-163,037	47,847	-0,027	0,018
-162,023	800,000	0,067	0,172
-161,008	-200,000	-0,014	0,079
-159,993	135,146	-0,090	0,083
-158,979	403,121	-0,006	-0,009
-157,964	2,167	0,017	-0,009
-156,950	-24,462	-0,077	0,032
-155,935	626,434	-0,061	0,110
-154,920	800,000	-0,027	0,069
-153,906	500,697	-0,033	-0,054
-152,891	800,000	-0,030	-0,070
-151,877	-95,864	0,189	0,035
-150,862	-53,340	-0,133	0,043
-149,847	800,000	0,044	-0,103
-148,833	-200,000	0,024	0,092
-147,818	-15,785	0,067	-0,030
-146,804	-200,000	-0,004	0,124
-145,789	800,000	-0,042	0,115
-144,775	146,973	0,061	0,058
-143,760	231,067	-0,024	0,028
-142,745	-200,000	-0,019	-0,097
-141,731	612,612	0,049	-0,087
-140,716	-200,000	0,088	0,000
-139,702	-200,000	-0,006	0,089
-138,687	260,942	-0,071	0,087
-137,672	-200,000	-0,013	0,142
-136,658	-5,956	-0,123	-0,059
-135,643	305,680	0,053	-0,070
-134,629	800,000	-0,056	-0,135
-133,614	265,494	0,052	0,064
-132,599	-200,000	0,006	0,158
-131,585	79,723	0,018	-0,014
-130,570	611,404	0,017	-0,030
-129,556	391,212	-0,015	-0,023
-128,541	-100,615	-0,139	0,024
-127,526	-45,466	0,176	-0,061
-126,512	124,769	0,058	-0,052
-125,497	-200,000	-0,027	-0,185
-124,483	-200,000	-0,003	0,056
-123,468	-11,082	-0,188	-0,088
-122,453	191,969	0,043	-0,046
-121,439	800,000	-0,030	-0,073
-120,424	77,581	-0,044	-0,033
-119,410	131,597	-0,064	-0,058
-118,395	800,000	0,085	0,191
-117,380	403,805	-0,142	0,213
-116,366	201,600	-0,016	0,018
-115,351	-200,000	0,001	-0,027
-114,337	172,386	-0,125	-0,127
-113,322	800,000	-0,072	0,194
-112,307	-200,000	0,023	0,086
-111,293	-200,000	0,003	0,071
-110,278	355,443	0,020	0,029
-109,264	111,869	0,027	-0,023
-108,249	268,363	-0,109	0,136
-107,234	277,149	-0,031	-0,039
-106,220	-200,000	0,001	-0,003
-105,205	-200,000	-0,043	-0,139
-104,191	-150,165	0,128	-0,007
-103,176	35,769	-0,111	0,069
-102,162	800,000	0,027	-0,062
-101,147	-200,000	0,022	-0,078
-100,132	800,000	-0,077	-0,159
-99,118	5,049	-0,063	-0,033
-98,103	-200,000	0,000	-0,107
-97,089	520,625	-0,058	0,097
-96,074	66,422	-0,096	0,069
-95,059	-94,617	-0,114	0,022
-94,045	800,000	0,034	-0,070
-93,030	330,500	-0,062	-0,085
-92,016	258,893	-0,096	-0,117
-91,001	800,000	0,058	0,124
-89,986	190,151	0,089	0,095
-88,972	227,701	0,104	-0,120
-87,957	-200,000	-0,007	0,172
-86,943	-200,000	0,018	-0,094
-85,928	-106,834	-0,195	0,030
-84,913	-200,000	-0,001	0,121
-83,899	110,451	0,125	0,107
-82,884	-32,870	0,021	0,008
-81,870	-200,000	-0,010	0,067
-80,855	-107,173	-0,086	-0,013
-79,840	321,310	-0,040	-0,054
-78,826	-24,147	-0,049	-0,020
-77,811	353,855	-0,076	-0,107
-76,797	19,968	0,036	-0,020
-75,782	-187,965	-0,075	0,001
-74,767	-25,887	0,096	0,040
-73,753	-111,645	0,078	-0,011
-72,738	-200,000	-0,061	0,000
-71,724	-200,000	-0,005	-0,057
-70,709	-81,801	0,033	-0,008
-69,694	196,950	0,049	0,053
-68,680	800,000	0,010	0,021
-67,665	800,000	0,041	0,081
-66,651	126,312	-0,010	0,009
-65,636	231,421	0,054	-0,062
-64,622	-200,000	-0,008	-0,148
-63,607	261,952	-0,054	0,066
-62,592	351,889	0,031	-0,044
-61,578	63,429	0,083	-0,059
-60,563	429,149	-0,069	-0,106
-59,549	-18,677	0,061	-0,027
-58,534	53,014	-1,937	-1,306
-57,519	492,914	-1,129	-1,834
-56,505	-200,000	-0,389	-4,327
-55,490	518,198	0,855	1,417
-54,476	800,000	5,175	11,470
-53,461	-200,000	21,658	343,080
-52,446	800,000	763,006	2344,648
-51,432	548,222	1661,642	2818,982
-50,417	71,489	1657,620	1213,148
-49,403	17,215	1531,209	854,802
-48,388	11,238	1455,143	783,480
-47,373	19,331	1446,758	817,701
-46,359	14,815	1435,486	789,871
-45,344	9,578	1431,626	762,821
-44,330	9,456	1429,938	761,314
-43,315	9,516	1427,965	760,517
-42,300	9,510	1426,130	759,482
-41,286	9,565	1424,621	758,909
-40,271	9,467	1423,892	758,027
-39,257	9,469	1422,590	757,310
-38,242	9,555	1421,298	757,001
-37,227	9,564	1420,180	756,416
-36,213	9,552	1419,002	755,703
-35,198	9,552	1417,805	755,036
-34,184	9,542	1416,857	754,453
-33,169	9,453	1415,624	753,348
-32,154	9,495	1414,586	752,965
-31,140	9,516	1413,237	752,317
-30,125	9,575	1412,169	751,992
-29,111	9,572	1410,851	751,249
-28,096	9,567	1409,892	750,684
-27,082	9,489	1408,608	749,603
-26,067	9,481	1407,654	749,030
-25,052	9,484	1406,550	748,425
-24,038	9,469	1405,718	747,883
-23,023	9,519	1404,505	747,441
-22,009	9,487	1403,672	746,818
-20,994	9,509	1402,564	746,306
-19,979	9,466	1401,686	745,606
-18,965	9,439	1400,744	744,952
-17,950	9,436	1399,900	744,460
-16,936	9,416	1399,079	743,897
-15,921	9,393	1397,897	743,133
-14,906	9,383	1397,228	742,701
-13,892	9,424	1396,066	742,246
-12,877	9,421	1395,148	741,715
-11,863	9,395	1394,503	741,221
-10,848	9,334	1393,455	740,351
-9,833	9,342	1392,538	739,873
-8,819	9,322	1391,666	739,288
-7,804	9,245	1391,133	738,618
-6,790	9,294	1389,892	738,155
-5,775	9,278	1388,525	737,327
-4,760	9,290	1387,854	736,999
-3,746	9,325	1386,669	736,498
-2,731	9,332	1386,016	736,158
-1,717	9,301	1384,985	735,437
-0,702	9,291	1383,612	734,633
0,313	13,344	1295,754	706,470
1,327	29,436	686,850	410,807
2,342	46,360	118,504	77,343
3,356	1,990	16,639	8,440
4,371	4,418	3,570	1,840
5,386	1,982	1,106	0,561
6,400	-200,000	0,071	0,556
7,415	31,888	-0,219	-0,133
8,429	-29,651	-0,296	-0,119
9,444	15,668	-0,361	-0,200
10,459	6,990	-0,299	-0,157
11,473	-155,496	-0,394	-0,018
12,488	65,848	-0,338	-0,241
13,502	6,113	-0,254	-0,132
14,517	-144,635	-0,345	-0,022
15,531	-37,025	-0,385	-0,145
16,546	230,111	-0,307	-0,354
17,561	169,996	-0,313	-0,316
18,575	376,076	-0,155	-0,223
19,590	175,251	-0,205	-0,209
20,604	18,174	-0,284	-0,159
21,619	103,093	-0,403	-0,332
22,634	72,575	-0,331	-0,243
23,648	183,338	-0,357	-0,372
24,663	18,380	-0,422	-0,237
25,677	-18,215	-0,329	-0,144
26,692	46,213	-0,349	-0,227
27,707	8,756	-0,269	-0,142
28,721	39,224	-0,349	-0,219
29,736	78,452	-0,433	-0,325
30,750	43,349	-0,423	-0,271
31,765	103,991	-0,420	-0,347
32,780	69,332	-0,450	-0,325
33,794	147,813	-0,345	-0,327
34,809	183,286	-0,370	-0,385
35,823	89,618	-0,305	-0,239
36,838	94,408	-0,326	-0,260
37,853	22,120	-0,312	-0,179
38,867	-32,044	-0,463	-0,181
39,882	82,135	-0,420	-0,320
40,896	22,099	-0,461	-0,264
41,911	26,674	-0,386	-0,227
42,926	2,707	-0,396	-0,201
43,940	176,809	-0,319	-0,327
44,955	9,968	-0,449	-0,239
45,969	51,797	-0,347	-0,232
46,984	98,259	-0,336	-0,272
47,999	2,019	-0,343	-0,173
49,013	111,039	-0,317	-0,268
50,028	39,091	-0,339	-0,213
51,042	101,219	-0,335	-0,274
52,057	228,278	-0,322	-0,368
53,071	8,893	-0,323	-0,171
54,086	114,765	-0,309	-0,264
55,101	39,875	-0,253	-0,159
56,115	-29,285	-0,305	-0,122
57,130	61,739	-0,251	-0,175
58,144	104,708	-0,355	-0,294
59,159	26,978	-0,474	-0,278
60,174	8,952	-0,391	-0,206
61,188	223,808	-0,284	-0,323
62,203	281,573	-0,173	-0,218
63,217	158,134	-0,218	-0,212
64,232	39,468	-0,390	-0,245
65,247	19,509	-0,346	-0,195
66,261	265,464	-0,261	-0,319
67,276	-36,168	-0,420	-0,158
68,290	195,624	-0,301	-0,322
69,305	15,606	-0,231	-0,127
70,320	46,909	-0,325	-0,212
71,334	43,325	-0,314	-0,201
72,349	15,088	-0,330	-0,181
73,363	112,153	-0,263	-0,223
74,378	-5,290	-0,194	-0,093
75,393	71,749	-0,380	-0,277
76,407	175,123	-0,191	-0,194
77,422	-50,372	-0,262	-0,086
78,436	-38,516	-0,249	-0,092
79,451	63,660	-0,358	-0,251
80,466	31,520	-0,223	-0,134
81,480	83,849	-0,284	-0,217
82,495	73,062	-0,351	-0,256
83,509	63,985	-0,263	-0,185
84,524	248,002	-0,118	-0,139
85,539	-112,419	-0,236	-0,033
86,553	116,972	-0,277	-0,238
87,568	-20,811	-0,241	-0,103
88,582	118,839	-0,216	-0,187
89,597	215,091	-0,189	-0,210
90,611	192,936	-0,191	-0,202
91,626	-20,606	-0,224	-0,096
92,641	2,244	-0,249	-0,126
93,655	-44,891	-0,389	-0,135
94,670	140,027	-0,267	-0,247
95,684	-10,896	-0,161	-0,074
96,699	-31,474	-0,320	-0,125
97,714	72,608	-0,189	-0,138
98,728	-21,222	-0,314	-0,134
99,743	33,667	-0,345	-0,209
100,757	221,057	-0,285	-0,320
101,772	382,321	-0,199	-0,287
102,787	61,463	-0,303	-0,210
103,801	127,990	-0,359	-0,319
104,816	91,747	-0,380	-0,299
105,830	25,657	-0,236	-0,137
106,845	-61,491	-0,242	-0,071
107,860	-119,722	-0,201	-0,024
108,874	395,106	-0,099	-0,144
109,889	147,048	-0,289	-0,272
110,903	116,532	-0,318	-0,273
111,918	95,569	-0,351	-0,280
112,933	-167,826	-0,216	-0,006
113,947	179,031	-0,211	-0,215
114,962	88,843	-0,278	-0,216
115,976	-30,530	-0,394	-0,155
116,991	-26,994	-0,261	-0,106
118,006	491,617	-0,174	-0,280
119,020	193,847	-0,221	-0,234
120,035	-5,866	-0,327	-0,156
121,049	-187,801	-0,160	0,001
122,064	51,585	-0,258	-0,171
123,079	58,583	-0,239	-0,164
124,093	-14,044	-0,278	-0,125
125,108	43,913	-0,401	-0,256
126,122	124,104	-0,194	-0,170
127,137	-75,437	-0,235	-0,058
128,151	116,025	-0,236	-0,201
129,166	171,781	-0,249	-0,250
130,181	11,375	-0,305	-0,163
131,195	9,774	-0,188	-0,099
132,210	241,709	-0,199	-0,232
133,224	1,955	-0,164	-0,082
134,239	67,903	-0,314	-0,224
135,254	83,131	-0,243	-0,184
136,268	100,334	-0,213	-0,172
137,283	-43,384	-0,354	-0,124
138,297	224,891	-0,202	-0,228
139,312	89,109	-0,381	-0,296
140,327	11,962	-0,356	-0,190
141,341	205,264	-0,168	-0,183
142,356	20,915	-0,199	-0,112
143,370	6,864	-0,400	-0,207
144,385	-48,326	-0,345	-0,115
145,400	-9,684	-0,225	-0,104
146,414	158,494	-0,217	-0,210
147,429	232,676	-0,169	-0,194
148,443	61,850	-0,272	-0,188
149,458	74,515	-0,193	-0,141
150,473	185,699	-0,123	-0,127
151,487	112,613	-0,136	-0,114
152,502	42,681	-0,308	-0,195
153,516	202,392	-0,209	-0,224
154,531	174,712	-0,251	-0,253
155,546	-49,970	-0,259	-0,085
156,560	-58,334	-0,185	-0,056
157,575	232,079	-0,182	-0,208
158,589	219,492	-0,228	-0,254
159,604	-200,000	-0,047	-0,263
160,619	360,766	-0,193	-0,270
161,633	294,276	-0,257	-0,328
162,648	-42,519	-0,234	-0,082
163,662	26,229	-0,197	-0,114
164,677	-40,190	-0,209	-0,075
165,692	4,931	-0,204	-0,104
166,706	73,987	-0,267	-0,195
167,721	103,726	-0,196	-0,160
168,735	100,977	-0,213	-0,172
169,750	35,194	-0,293	-0,178
170,764	-89,393	-0,158	-0,032
171,779	-68,195	-0,063	0,017
172,794	158,228	-0,285	-0,275
173,808	-53,229	-0,391	-0,124
174,823	800,000	-0,110	-0,276
175,837	27,557	-0,273	-0,159
176,852	190,928	-0,174	-0,182
177,867	381,792	-0,128	-0,183
178,881	-45,668	-0,176	-0,060
179,896	-62,538	-0,214	-0,061
180,910	172,689	-0,203	-0,203
181,925	433,016	-0,101	-0,152
182,940	160,147	-0,187	-0,181
183,954	185,855	-0,205	-0,211
184,969	0,740	-0,235	-0,117
185,983	-6,267	-0,152	-0,072
186,998	509,134	-0,094	-0,153
188,013	64,773	-0,239	-0,167
189,027	91,674	-0,271	-0,211
190,042	7,225	-0,285	-0,147
191,056	800,000	-0,085	-0,235
192,071	130,509	-0,132	-0,117
193,086	667,005	-0,114	-0,204
194,100	800,000	-0,073	-0,198
195,115	110,327	-0,232	-0,194
196,129	66,278	-0,221	-0,155
197,144	-200,000	-0,026	-0,311
198,159	11,936	-0,294	-0,156
199,173	-45,686	-0,291	-0,099
200,188	-200,000	-0,061	-0,291
201,202	-200,000	-0,009	-0,169
202,217	34,113	-0,239	-0,144
203,232	87,377	-0,161	-0,123
204,246	543,181	-0,177	-0,294
205,261	-200,000	-0,064	-0,296
206,275	-200,000	-0,008	-0,060
207,290	484,921	-0,063	-0,099
208,304	116,830	-0,233	-0,198
209,319	194,136	-0,169	-0,178
210,334	-200,000	-0,279	-0,000
211,348	-22,223	-0,177	-0,074
212,363	253,779	-0,220	-0,261
213,377	349,128	-0,162	-0,221
214,392	35,297	-0,135	-0,082
215,407	37,856	-0,216	-0,132
216,421	556,830	-0,106	-0,178
217,436	56,267	-0,301	-0,202
218,450	178,598	-0,183	-0,185
219,465	186,507	-0,292	-0,301
220,480	159,381	-0,236	-0,227
221,494	116,220	-0,112	-0,095
222,509	-200,000	-0,020	-0,100
223,523	14,026	-0,253	-0,136
224,538	209,094	-0,102	-0,110
225,553	87,715	-0,204	-0,157
226,567	149,900	-0,245	-0,230
227,582	140,492	-0,187	-0,171
228,596	281,660	-0,098	-0,121
229,611	133,763	-0,166	-0,149
230,626	800,000	-0,128	-0,264
231,640	110,250	-0,248	-0,206
232,655	-110,885	-0,195	-0,027
233,669	88,619	-0,195	-0,149
234,684	155,761	-0,144	-0,137
235,699	262,047	-0,151	-0,181
236,713	-108,835	-0,219	-0,032
237,728	172,727	-0,062	-0,061
238,742	196,219	-0,185	-0,195
239,757	399,907	-0,176	-0,256
240,772	-7,307	-0,172	-0,080
241,786	800,000	-0,079	-0,195
242,801	2,265	-0,178	-0,089
243,815	29,019	-0,138	-0,080
244,830	-8,341	-0,253	-0,117
245,844	800,000	-0,052	-0,109
246,859	139,931	-0,166	-0,151
247,874	152,173	-0,139	-0,131
248,888	18,376	-0,184	-0,101
249,903	-84,712	-0,272	-0,059
250,917	695,771	-0,093	-0,170
251,932	-61,271	-0,196	-0,057
252,947	-44,732	-0,176	-0,060
253,961	-23,036	-0,092	-0,038
254,976	-15,955	-0,148	-0,065
255,990	-67,377	-0,233	-0,063
257,005	310,179	-0,110	-0,143
258,020	563,776	-0,070	-0,117
259,034	191,691	-0,158	-0,164
260,049	-81,718	-0,138	-0,031
261,063	96,979	-0,145	-0,114
262,078	48,648	-0,240	-0,155
263,093	-60,850	-0,207	-0,060
264,107	658,547	-0,092	-0,164
265,122	800,000	-0,090	-0,210
266,136	154,040	-0,165	-0,156
267,151	-122,976	-0,217	-0,024
268,166	720,604	-0,051	-0,095
269,180	63,095	-0,171	-0,118
270,195	175,282	-0,239	-0,239
271,209	-103,802	-0,250	-0,040
272,224	620,909	-0,142	-0,247
273,239	-184,094	-0,076	-0,001
274,253	111,411	-0,037	0,031
275,268	-108,751	-0,260	-0,038
276,282	11,756	-0,236	-0,125
277,297	800,000	-0,063	-0,125
278,312	129,656	-0,184	-0,162
279,326	-19,252	-0,231	-0,098
280,341	278,005	-0,084	-0,103
281,355	2,862	-0,172	-0,085
282,370	800,000	-0,128	-0,291
283,384	81,735	-0,184	-0,137
284,399	548,598	-0,145	-0,241
285,414	263,455	-0,140	-0,168
286,428	205,035	-0,147	-0,157
287,443	-45,621	-0,167	-0,057
288,457	-198,721	-0,311	0,001
289,472	-78,179	-0,270	-0,063
290,487	-65,382	-0,209	-0,057
291,501	-8,247	-0,156	-0,072
292,516	327,529	-0,097	-0,128
293,530	-44,321	-0,246	-0,084
294,545	284,939	-0,115	-0,143
295,560	800,000	-0,137	-0,298
296,574	149,093	-0,100	-0,093
297,589	-164,344	-0,196	0,006
298,603	33,138	-0,274	-0,163
299,618	112,218	-0,146	-0,122
300,633	-16,253	-0,147	-0,064
301,647	-117,735	-0,059	0,007
302,662	-163,281	-0,219	-0,007
303,676	800,000	-0,084	-0,231
304,691	276,802	-0,185	-0,227
305,706	594,183	-0,107	-0,182
306,720	194,414	-0,098	-0,102
307,735	800,000	-0,093	-0,187
308,749	-116,546	-0,082	-0,010
309,764	291,376	-0,026	0,032
310,779	44,480	-0,171	-0,108
311,793	410,303	-0,138	-0,201
312,808	-52,186	-0,137	0,043
313,822	140,413	-0,204	-0,185
314,837	685,443	-0,076	-0,136
315,852	-110,825	-0,080	0,011
316,866	416,446	-0,057	-0,084
317,881	326,805	-0,049	-0,065
318,895	116,148	-0,214	-0,180
319,910	279,561	-0,124	-0,152
320,925	769,258	-0,078	-0,147
321,939	-157,041	-0,076	-0,003
322,954	217,266	-0,188	-0,206
323,968	-59,091	-0,147	-0,043
324,983	143,093	-0,198	-0,181
325,997	-105,582	-0,169	-0,026
327,012	-151,111	-0,197	-0,010
328,027	-58,013	-0,175	-0,052
329,041	107,721	-0,147	-0,120
330,056	-18,198	-0,208	-0,089
331,070	800,000	-0,046	0,114
332,085	115,049	-0,218	-0,182
333,100	800,000	-0,096	-0,262
334,114	75,388	-0,172	-0,124
335,129	316,475	-0,058	-0,076
336,143	-173,722	-0,080	-0,002
337,158	-102,685	-0,163	-0,026
338,173	-67,300	-0,081	-0,022
339,187	72,641	-0,206	-0,147
340,202	-200,000	-0,000	-0,017
341,216	71,391	-0,114	-0,081
342,231	-134,881	-0,180	-0,015
343,246	24,434	-0,141	-0,080
344,260	-200,000	-0,013	-0,106
345,275	-115,786	-0,181	0,023
346,289	493,442	-0,047	-0,074
347,304	291,146	-0,198	-0,247
348,319	202,691	-0,078	-0,083
349,333	800,000	-0,151	-0,370
350,348	176,655	-0,097	-0,096
351,362	590,702	-0,113	-0,191
352,377	-65,271	-0,051	-0,014
353,392	-87,694	-0,123	-0,025
354,406	259,391	-0,153	-0,181
355,421	207,926	1306,327	1396,790
356,435	159,975	1465,994	1397,274
