DTS Sentinel unit serial number:	SN410029Multiplexer serial number:	ORYXHardware model number:	OX2-SRSoftware version number:	ORYX F/W v4,00 Oryx Data Collector v3.7.2.0data status	okinstallation	B3 Nyhavnadifferential loss correction	single-endedforward channel	channel 1reverse channel	N/Adate	2023/11/30time	17:52:30forward acquisition time	300,00reverse acquisition time	0,00gamma	499,1914k internal	0,3203k external	0,3203temperature offset calibration	1,0000default loss term (dB/km)	0,3820temperature slope calibration	1,0000multiplexer offset coefficient	1,0000multiplexer slope coefficient	1,0000fibre end	0,00T internal ref (°C)	13,00T ext. ref 1 (°C)	-2,21T ext. ref 2 (°C)	-2,30length (m)	temperature (°C)	Stokes	anti-Stokes-744,400	435,175	-0,198	-0,313
-743,385	-200,000	0,048	0,391
-742,371	40,066	-0,131	-0,085
-741,356	-200,000	0,042	0,280
-740,342	150,937	-0,138	-0,137
-739,327	-200,000	0,063	0,233
-738,312	186,322	-0,249	-0,270
-737,298	-200,000	-0,056	0,214
-736,283	800,000	-0,060	-0,139
-735,269	287,078	0,099	0,130
-734,254	-98,821	-0,210	-0,038
-733,239	57,588	-0,163	0,116
-732,225	266,927	-0,113	-0,144
-731,210	-200,000	0,015	0,066
-730,196	63,803	-0,024	0,017
-729,181	-182,707	-0,032	0,000
-728,167	441,642	-0,086	-0,137
-727,152	-158,987	-0,133	0,005
-726,137	563,765	-0,032	0,056
-725,123	123,672	-0,099	-0,091
-724,108	720,135	-0,071	-0,138
-723,094	800,000	-0,104	-0,248
-722,079	608,573	-0,035	-0,064
-721,064	-200,000	0,021	0,094
-720,050	-200,000	0,030	-0,000
-719,035	405,803	-0,046	-0,071
-718,021	800,000	-0,024	-0,070
-717,006	-54,715	-0,026	0,009
-715,991	487,523	-0,031	-0,052
-714,977	328,651	-0,089	-0,125
-713,962	800,000	-0,055	-0,123
-712,948	333,014	0,051	0,072
-711,933	-200,000	-0,008	-0,039
-710,918	-200,000	-0,028	-0,150
-709,904	232,538	0,016	-0,019
-708,889	-114,306	0,010	-0,001
-707,875	-3,336	-0,080	-0,040
-706,860	800,000	-0,032	-0,073
-705,845	-104,141	0,144	0,024
-704,831	20,806	0,034	0,020
-703,816	-200,000	-0,008	0,036
-702,802	610,391	-0,054	0,098
-701,787	244,350	-0,047	0,058
-700,772	287,940	0,046	-0,061
-699,758	285,163	-0,086	-0,112
-698,743	800,000	0,067	-0,138
-697,729	111,002	0,084	-0,074
-696,714	-183,200	0,076	0,001
-695,699	-200,000	-0,011	-0,090
-694,685	-200,000	-0,016	-0,059
-693,670	39,296	-0,052	-0,033
-692,656	-200,000	-0,010	0,106
-691,641	39,060	0,067	-0,043
-690,627	72,933	0,015	0,012
-689,612	-18,797	-0,090	0,040
-688,597	-200,000	-0,015	0,129
-687,583	-8,057	-0,177	-0,086
-686,568	781,066	-0,037	-0,074
-685,554	-159,517	-0,068	0,003
-684,539	800,000	-0,043	0,098
-683,524	-40,074	0,104	-0,039
-682,510	1,701	0,060	-0,031
-681,495	-200,000	-0,017	-0,162
-680,481	-49,782	-0,129	-0,044
-679,466	-200,000	-0,036	-0,210
-678,451	-161,024	-0,089	0,003
-677,437	111,530	-0,037	0,032
-676,422	-157,028	-0,045	-0,002
-675,408	126,027	0,124	0,113
-674,393	-157,413	-0,137	-0,006
-673,378	-83,992	-0,025	-0,006
-672,364	800,000	0,018	-0,056
-671,349	800,000	-0,068	-0,182
-670,335	-200,000	0,001	0,130
-669,320	346,824	0,053	0,076
-668,305	800,000	0,017	0,039
-667,291	-120,592	-0,084	0,010
-666,276	9,857	-0,131	0,072
-665,262	-13,216	-0,128	0,060
-664,247	-78,069	0,108	-0,027
-663,232	450,908	-0,031	0,050
-662,218	-54,425	0,110	0,036
-661,203	-45,656	-0,066	-0,024
-660,189	792,207	-0,032	0,064
-659,174	492,983	-0,088	0,146
-658,159	800,000	-0,058	-0,142
-657,145	95,261	0,018	-0,015
-656,130	166,298	0,051	-0,052
-655,116	76,438	-0,071	0,055
-654,101	594,092	-0,032	-0,057
-653,086	186,129	-0,018	0,019
-652,072	-80,802	-0,239	-0,057
-651,057	800,000	-0,026	0,074
-650,043	-200,000	-0,000	-0,090
-649,028	-113,198	-0,083	0,012
-648,014	-74,061	0,091	-0,024
-646,999	402,274	-0,050	0,076
-645,984	-200,000	0,000	0,005
-644,970	47,087	-0,084	0,057
-643,955	-32,212	0,026	-0,010
-642,941	218,360	-0,037	-0,043
-641,926	23,207	-0,056	0,033
-640,911	35,980	0,139	-0,088
-639,897	800,000	0,047	0,107
-638,882	-200,000	0,018	0,070
-637,868	-91,572	0,104	-0,021
-636,853	-100,675	-0,139	-0,025
-635,838	-200,000	-0,002	-0,159
-634,824	-165,656	0,085	0,003
-633,809	480,170	-0,007	0,011
-632,795	-200,000	-0,004	0,043
-631,780	550,628	-0,086	0,150
-630,765	800,000	-0,030	-0,084
-629,751	-130,055	-0,039	0,004
-628,736	-128,649	-0,047	-0,005
-627,722	-154,375	-0,055	-0,003
-626,707	-200,000	-0,010	-0,060
-625,692	207,027	-0,015	0,017
-624,678	3,071	0,154	0,081
-623,663	800,000	-0,044	0,091
-622,649	-141,828	-0,147	0,010
-621,634	800,000	-0,052	-0,119
-620,619	141,625	-0,045	-0,043
-619,605	-196,111	-0,106	0,001
-618,590	207,695	0,111	-0,125
-617,576	-82,400	0,227	0,053
-616,561	-56,323	-0,060	0,019
-615,546	-123,251	-0,088	-0,010
-614,532	-134,299	-0,080	0,007
-613,517	139,519	-0,039	-0,038
-612,503	-54,513	0,065	-0,021
-611,488	-200,000	0,003	-0,095
-610,474	-116,636	-0,065	0,009
-609,459	60,472	0,074	-0,053
-608,444	-200,000	-0,038	-0,193
-607,430	428,670	-0,081	-0,126
-606,415	-200,000	0,006	-0,064
-605,401	26,793	0,089	-0,054
-604,386	105,245	0,094	0,080
-603,371	61,884	0,029	-0,021
-602,357	93,373	-0,080	-0,065
-601,342	-107,600	-0,084	-0,013
-600,328	-88,074	-0,053	0,011
-599,313	134,626	0,069	-0,064
-598,298	800,000	0,011	0,033
-597,284	358,073	0,023	0,033
-596,269	2,475	-0,217	-0,113
-595,255	-200,000	-0,007	-0,138
-594,240	800,000	-0,045	-0,122
-593,225	575,782	-0,066	-0,117
-592,211	-200,000	0,020	-0,096
-591,196	12,957	-0,125	-0,070
-590,182	-200,000	0,011	0,093
-589,167	800,000	0,075	0,185
-588,152	-200,000	-0,005	-0,026
-587,138	-200,000	-0,026	-0,152
-586,123	-119,128	-0,106	-0,013
-585,109	-158,895	-0,094	-0,004
-584,094	-200,000	0,021	-0,197
-583,079	800,000	-0,024	-0,058
-582,065	-200,000	0,008	-0,097
-581,050	-200,000	0,009	0,108
-580,036	-146,982	-0,158	0,010
-579,021	128,513	-0,075	0,069
-578,006	-91,663	-0,082	0,017
-576,992	-94,061	0,132	0,026
-575,977	800,000	-0,011	0,024
-574,963	-153,314	0,139	0,007
-573,948	86,133	-0,131	0,104
-572,934	-200,000	-0,006	0,036
-571,919	61,377	0,051	0,036
-570,904	62,977	-0,080	0,058
-569,890	293,776	-0,124	-0,163
-568,875	-200,000	0,003	-0,015
-567,861	-59,744	0,109	0,033
-566,846	-200,000	0,017	0,082
-565,831	800,000	-0,055	0,112
-564,817	800,000	-0,047	-0,111
-563,802	800,000	-0,034	-0,098
-562,788	34,325	0,057	0,036
-561,773	245,101	-0,062	0,075
-560,758	-200,000	0,003	0,100
-559,744	315,731	-0,085	-0,117
-558,729	800,000	0,010	-0,024
-557,715	348,603	0,104	-0,148
-556,700	800,000	0,008	0,021
-555,685	81,461	-0,084	0,065
-554,671	678,375	-0,015	0,029
-553,656	267,454	0,132	0,167
-552,642	-50,485	-0,146	0,049
-551,627	-144,330	-0,028	0,002
-550,612	-200,000	0,024	0,149
-549,598	-82,832	-0,071	-0,016
-548,583	404,773	-0,006	-0,009
-547,569	800,000	-0,030	-0,080
-546,554	-200,000	0,001	-0,056
-545,539	-45,831	0,115	-0,041
-544,525	-200,000	0,045	0,212
-543,510	-5,396	0,039	0,019
-542,496	1,795	-0,056	-0,029
-541,481	800,000	0,014	-0,032
-540,466	800,000	-0,032	-0,080
-539,452	291,620	0,097	0,127
-538,437	-47,495	-0,050	-0,017
-537,423	800,000	0,064	0,173
-536,408	141,724	-0,030	-0,029
-535,393	-61,065	0,023	0,007
-534,379	-40,010	-0,048	0,018
-533,364	-200,000	0,009	0,144
-532,350	800,000	-0,075	0,192
-531,335	800,000	-0,036	0,094
-530,321	-33,689	-0,021	0,008
-529,306	634,660	-0,069	0,128
-528,291	-147,954	-0,055	-0,003
-527,277	-200,000	-0,005	-0,045
-526,262	-168,483	0,099	0,003
-525,248	223,431	0,027	0,032
-524,233	22,487	-0,053	0,031
-523,218	639,314	-0,036	0,067
-522,204	-200,000	-0,014	-0,121
-521,189	537,598	-0,067	-0,115
-520,175	-200,000	-0,009	0,076
-519,160	274,470	-0,032	-0,041
-518,145	-67,580	0,102	0,028
-517,131	744,876	0,024	0,047
-516,116	204,190	0,130	0,145
-515,102	-36,124	-0,079	0,031
-514,087	800,000	-0,040	-0,080
-513,072	-82,473	-0,125	-0,029
-512,058	214,495	0,104	-0,119
-511,043	341,268	0,032	0,045
-510,029	509,141	-0,075	-0,126
-509,014	800,000	-0,094	0,227
-507,999	14,083	-0,143	0,080
-506,985	-150,753	-0,148	-0,008
-505,970	16,736	0,173	-0,098
-504,956	54,209	-0,115	0,080
-503,941	-200,000	0,002	-0,039
-502,926	-28,912	0,050	-0,020
-501,912	-76,765	0,089	0,022
-500,897	-46,192	0,096	-0,034
-499,883	261,024	0,034	0,043
-498,868	587,568	-0,070	-0,125
-497,853	-141,123	-0,201	-0,015
-496,839	-144,397	-0,044	0,003
-495,824	-72,643	0,117	0,031
-494,810	-200,000	0,009	0,061
-493,795	120,788	-0,048	0,043
-492,781	-200,000	-0,021	-0,159
-491,766	232,505	-0,134	-0,158
-490,751	232,731	0,038	-0,045
-489,737	238,342	-0,062	-0,074
-488,722	17,819	0,089	0,051
-487,708	145,079	-0,027	-0,026
-486,693	192,572	-0,030	-0,033
-485,678	-32,616	-0,055	-0,022
-484,664	-114,107	-0,112	-0,015
-483,649	800,000	0,022	-0,056
-482,635	277,683	-0,062	-0,080
-481,620	-200,000	-0,012	0,044
-480,605	43,714	0,090	0,059
-479,591	526,428	0,068	0,116
-478,576	-46,781	-0,062	0,022
-477,562	221,965	-0,040	0,046
-476,547	800,000	-0,006	-0,019
-475,532	-37,269	0,061	0,023
-474,518	611,560	-0,066	-0,119
-473,503	28,287	-0,018	0,011
-472,489	-200,000	0,003	-0,022
-471,474	-200,000	-0,004	-0,014
-470,459	800,000	0,026	-0,081
-469,445	-34,830	0,035	-0,014
-468,430	800,000	-0,015	-0,031
-467,416	365,020	-0,021	-0,030
-466,401	75,844	0,166	0,126
-465,386	-85,822	0,113	0,025
-464,372	-98,804	-0,097	-0,018
-463,357	581,679	-0,016	0,029
-462,343	94,202	-0,050	-0,041
-461,328	-200,000	0,017	-0,111
-460,313	800,000	-0,068	-0,138
-459,299	800,000	0,045	-0,103
-458,284	-132,490	0,194	0,018
-457,270	253,448	0,045	0,056
-456,255	638,997	-0,039	0,072
-455,241	87,443	-0,031	-0,024
-454,226	-95,493	-0,067	0,013
-453,211	-36,881	0,077	-0,030
-452,197	50,023	0,084	-0,057
-451,182	-19,422	-0,016	0,007
-450,168	800,000	0,016	0,040
-449,153	-11,760	-0,085	-0,040
-448,138	118,922	0,084	0,074
-447,124	-200,000	-0,018	0,106
-446,109	70,120	-0,035	-0,026
-445,095	-118,013	-0,126	0,016
-444,080	800,000	0,045	0,106
-443,065	-200,000	0,028	0,182
-442,051	715,998	-0,042	0,081
-441,036	-200,000	0,030	-0,148
-440,022	-65,033	-0,052	0,015
-439,007	-99,227	-0,050	0,009
-437,992	-200,000	-0,016	0,154
-436,978	565,679	0,037	0,065
-435,963	747,959	0,052	0,101
-434,949	-25,054	-0,054	0,023
-433,934	-78,752	0,036	-0,009
-432,919	-7,222	-0,022	0,011
-431,905	164,268	-0,059	0,059
-430,890	-43,407	0,134	0,048
-429,876	177,105	0,050	0,052
-428,861	-200,000	-0,028	0,096
-427,846	442,066	-0,046	-0,073
-426,832	800,000	-0,042	0,092
-425,817	38,502	0,020	0,013
-424,803	109,569	0,016	-0,013
-423,788	191,003	0,020	0,022
-422,773	407,025	-0,033	0,050
-421,759	-30,871	0,062	0,025
-420,744	-105,152	0,047	-0,008
-419,730	-63,535	0,209	0,061
-418,715	7,874	-0,138	-0,074
-417,701	281,001	0,075	-0,097
-416,686	33,067	0,039	0,024
-415,671	3,624	0,134	-0,070
-414,657	-14,439	0,112	-0,052
-413,642	-200,000	0,032	0,185
-412,628	-110,010	-0,211	0,031
-411,613	800,000	0,026	-0,073
-410,598	-85,097	0,127	-0,028
-409,584	21,606	0,100	-0,058
-408,569	140,014	0,059	0,056
-407,555	-174,175	0,037	0,001
-406,540	-78,245	0,110	0,027
-405,525	122,179	0,060	0,054
-404,511	-72,231	-0,109	0,029
-403,496	494,633	0,077	-0,127
-402,482	234,866	-0,060	-0,071
-401,467	-62,334	0,038	0,011
-400,452	282,228	-0,129	0,166
-399,438	-200,000	-0,009	-0,080
-398,423	-200,000	-0,031	-0,144
-397,409	38,121	-0,093	0,059
-396,394	-162,826	0,091	0,003
-395,379	-83,836	0,150	0,034
-394,365	800,000	0,012	-0,036
-393,350	800,000	0,006	-0,018
-392,336	-30,789	0,147	0,059
-391,321	-103,451	-0,147	0,025
-390,306	800,000	0,029	-0,071
-389,292	177,146	-0,099	-0,103
-388,277	-31,792	0,065	-0,026
-387,263	800,000	0,026	0,079
-386,248	-127,049	0,027	0,003
-385,233	800,000	-0,076	0,169
-384,219	800,000	-0,047	0,099
-383,204	-200,000	-0,002	0,049
-382,190	800,000	-0,044	-0,089
-381,175	528,503	0,135	-0,229
-380,160	220,393	0,036	-0,041
-379,146	-169,556	0,072	0,002
-378,131	-1,261	0,039	0,020
-377,117	800,000	-0,024	0,049
-376,102	-200,000	-0,003	-0,026
-375,088	692,951	-0,061	-0,116
-374,073	334,365	0,105	-0,146
-373,058	374,002	0,030	-0,043
-372,044	363,367	-0,024	0,035
-371,029	-100,190	0,108	0,019
-370,015	-35,363	-0,078	-0,030
-369,000	-129,692	-0,206	0,020
-367,985	-101,699	0,180	0,031
-366,971	50,961	0,079	0,054
-365,956	75,843	-0,081	0,062
-364,942	800,000	-0,009	0,025
-363,927	-56,334	-0,101	-0,032
-362,912	210,572	0,036	0,041
-361,898	-182,145	-0,043	-0,001
-360,883	474,900	-0,055	-0,089
-359,869	-116,443	0,108	0,014
-358,854	44,580	0,099	-0,065
-357,839	800,000	0,015	-0,045
-356,825	-5,992	0,022	-0,011
-355,810	45,168	-0,025	-0,017
-354,796	-138,852	0,142	-0,011
-353,781	118,877	-0,106	0,093
-352,766	-25,167	-0,140	-0,059
-351,752	-200,000	-0,004	-0,056
-350,737	65,547	-0,045	0,032
-349,723	800,000	-0,024	0,075
-348,708	8,065	0,154	0,082
-347,693	281,086	-0,065	-0,083
-346,679	74,652	0,065	-0,049
-345,664	240,132	-0,112	-0,134
-344,650	-127,685	0,099	0,010
-343,635	-200,000	-0,008	-0,130
-342,620	-68,057	0,183	0,051
-341,606	74,295	0,087	0,065
-340,591	-26,038	0,079	0,033
-339,577	101,229	0,047	-0,039
-338,562	-3,446	-0,119	-0,059
-337,548	-115,587	-0,140	0,019
-336,533	-129,257	0,047	0,005
-335,518	800,000	0,042	-0,086
-334,504	-200,000	-0,010	0,162
-333,489	181,511	-0,066	-0,069
-332,475	65,556	-0,132	-0,096
-331,460	-200,000	-0,006	-0,143
-330,445	-120,584	0,060	-0,007
-329,431	766,030	0,039	0,077
-328,416	19,049	0,167	0,095
-327,402	30,644	0,090	-0,055
-326,387	-29,958	0,136	0,055
-325,372	-97,377	0,053	-0,010
-324,358	538,942	0,014	0,024
-323,343	115,565	0,105	0,092
-322,329	-36,940	0,176	0,067
-321,314	-169,022	-0,065	0,002
-320,299	55,853	0,031	-0,022
-319,285	-200,000	0,011	0,049
-318,270	-200,000	0,038	0,127
-317,256	435,018	-0,043	-0,067
-316,241	-10,780	-0,081	0,038
-315,226	800,000	-0,044	0,113
-314,212	331,098	0,069	-0,095
-313,197	-200,000	-0,004	-0,110
-312,183	377,572	0,021	0,030
-311,168	-21,921	-0,109	-0,047
-310,153	-34,973	0,128	0,050
-309,139	194,001	-0,079	-0,086
-308,124	-200,000	0,004	0,123
-307,110	800,000	0,039	0,093
-306,095	-200,000	-0,021	0,105
-305,080	174,051	-0,061	-0,063
-304,066	163,818	-0,032	0,032
-303,051	-84,208	-0,077	-0,017
-302,037	57,920	0,087	-0,060
-301,022	-200,000	0,030	0,106
-300,008	-134,385	-0,041	-0,004
-298,993	-59,023	-0,216	0,066
-297,978	188,958	0,069	-0,074
-296,964	800,000	0,054	0,118
-295,949	-111,418	-0,155	-0,022
-294,935	-200,000	0,004	0,089
-293,920	-18,004	0,144	0,064
-292,905	412,461	0,044	-0,067
-291,891	-23,768	0,059	-0,025
-290,876	33,183	0,055	-0,034
-289,862	447,682	-0,069	-0,109
-288,847	-68,555	0,122	-0,034
-287,832	140,216	0,118	-0,111
-286,818	94,315	-0,096	0,077
-285,803	-200,000	-0,010	0,055
-284,789	-200,000	-0,011	0,069
-283,774	-78,635	-0,125	-0,030
-282,759	-14,201	-0,044	0,020
-281,745	-14,422	0,109	0,050
-280,730	-135,744	-0,136	-0,011
-279,716	264,722	0,051	0,063
-278,701	-50,690	-0,122	0,041
-277,686	188,081	-0,065	0,070
-276,672	-175,244	-0,004	0,000
-275,657	-200,000	0,014	-0,171
-274,643	121,703	-0,039	0,035
-273,628	800,000	0,038	0,118
-272,613	-200,000	0,011	0,079
-271,599	-200,000	0,013	-0,049
-270,584	330,977	-0,074	0,103
-269,570	357,466	0,065	0,093
-268,555	800,000	0,027	0,062
-267,540	349,711	-0,072	-0,102
-266,526	318,393	-0,043	-0,058
-265,511	430,910	-0,022	-0,034
-264,497	-91,223	-0,012	-0,002
-263,482	98,764	-0,040	0,033
-262,467	229,730	0,013	-0,015
-261,453	201,726	-0,042	0,046
-260,438	650,209	-0,048	-0,088
-259,424	475,260	-0,084	0,136
-258,409	-200,000	-0,009	0,040
-257,395	113,011	-0,071	-0,061
-256,380	-29,702	0,114	-0,046
-255,365	-99,333	-0,084	-0,015
-254,351	-39,996	0,089	0,033
-253,336	-124,476	-0,133	0,015
-252,322	800,000	0,056	-0,125
-251,307	-50,343	-0,058	-0,019
-250,292	-200,000	-0,005	-0,018
-249,278	-92,486	-0,023	-0,005
-248,263	198,586	0,081	0,089
-247,249	-200,000	-0,001	0,051
-246,234	-200,000	0,001	-0,166
-245,219	545,118	0,069	-0,118
-244,205	-140,890	-0,073	0,005
-243,190	800,000	0,035	0,082
-242,176	26,446	-0,039	-0,023
-241,161	800,000	0,052	0,113
-240,146	113,294	0,048	0,041
-239,132	-132,489	-0,033	0,003
-238,117	52,019	-0,091	0,062
-237,103	394,807	0,091	-0,135
-236,088	-200,000	-0,029	0,095
-235,073	-76,774	0,063	0,016
-234,059	-200,000	0,002	0,145
-233,044	-80,102	0,086	0,020
-232,030	800,000	-0,006	0,015
-231,015	-41,377	-0,104	-0,038
-230,000	239,926	-0,115	-0,137
-228,986	135,662	0,044	0,041
-227,971	-90,135	0,068	0,014
-226,957	235,637	0,042	0,049
-225,942	800,000	0,066	0,158
-224,927	-200,000	0,001	0,056
-223,913	437,143	0,029	-0,046
-222,898	-55,800	-0,109	-0,034
-221,884	200,539	0,090	0,099
-220,869	-200,000	0,003	-0,011
-219,855	577,914	-0,056	-0,098
-218,840	59,028	-0,039	0,027
-217,825	-200,000	-0,010	-0,117
-216,811	-200,000	0,030	-0,123
-215,796	210,771	0,028	-0,031
-214,782	549,853	-0,027	0,046
-213,767	-200,000	0,004	0,031
-212,752	800,000	-0,054	0,153
-211,738	-53,457	0,157	-0,051
-210,723	-200,000	0,033	-0,136
-209,709	800,000	0,067	-0,165
-208,694	210,968	-0,132	-0,148
-207,679	-200,000	-0,016	-0,084
-206,665	-175,091	-0,067	-0,001
-205,650	800,000	0,057	0,131
-204,636	-200,000	0,004	-0,136
-203,621	-151,973	0,155	-0,008
-202,606	800,000	-0,011	-0,029
-201,592	-63,400	-0,131	-0,038
-200,577	800,000	-0,045	-0,101
-199,563	579,447	0,044	-0,077
-198,548	-200,000	0,030	0,096
-197,533	115,960	0,129	0,113
-196,519	418,529	-0,054	-0,082
-195,504	131,219	0,111	0,102
-194,490	-57,413	0,025	0,008
-193,475	542,012	0,090	-0,153
-192,460	173,668	0,071	-0,073
-191,446	262,493	-0,126	0,155
-190,431	6,617	0,169	0,089
-189,417	-200,000	-0,033	0,145
-188,402	35,822	-0,053	0,033
-187,387	-14,421	0,183	-0,083
-186,373	-200,000	-0,004	-0,091
-185,358	-58,847	0,121	0,037
-184,344	-36,826	0,113	-0,043
-183,329	766,089	0,063	-0,122
-182,315	722,173	0,031	-0,060
-181,300	80,601	0,015	-0,011
-180,285	-45,216	-0,047	-0,017
-179,271	412,259	0,015	0,023
-178,256	-200,000	-0,015	-0,054
-177,242	119,065	0,042	-0,037
-176,227	48,748	0,067	-0,044
-175,212	-44,072	-0,076	-0,027
-174,198	190,882	-0,012	0,013
-173,183	57,412	-0,040	-0,028
-172,169	88,721	-0,052	-0,041
-171,154	-106,794	0,017	-0,003
-170,139	282,515	0,114	0,146
-169,125	-123,196	0,071	0,008
-168,110	-200,000	-0,013	0,129
-167,096	-116,363	-0,114	-0,015
-166,081	111,431	-0,103	-0,088
-165,066	159,123	-0,093	0,092
-164,052	-20,072	-0,139	0,061
-163,037	349,709	0,026	0,037
-162,023	-104,023	0,128	0,021
-161,008	-26,168	0,032	-0,013
-159,993	62,806	-0,102	-0,072
-158,979	564,375	-0,010	-0,018
-157,964	-200,000	-0,023	-0,083
-156,950	574,869	0,048	-0,083
-155,935	-75,084	-0,061	0,015
-154,920	201,434	0,067	0,074
-153,906	800,000	-0,036	0,081
-152,891	71,351	0,079	0,058
-151,877	-200,000	-0,000	0,092
-150,862	661,055	-0,078	-0,144
-149,847	107,785	0,081	-0,069
-148,833	-200,000	0,008	-0,031
-147,818	800,000	-0,055	-0,112
-146,804	149,407	0,118	0,114
-145,789	-15,528	0,031	0,014
-144,775	7,613	0,058	0,031
-143,760	674,528	-0,058	-0,108
-142,745	758,966	0,084	-0,163
-141,731	101,499	0,056	0,046
-140,716	-103,409	0,068	-0,011
-139,702	69,194	-0,072	0,052
-138,687	229,471	-0,128	0,149
-137,672	96,462	-0,031	-0,025
-136,658	141,990	-0,066	0,062
-135,643	25,603	0,087	-0,051
-134,629	67,357	-0,042	-0,030
-133,614	800,000	-0,107	0,244
-132,599	800,000	0,033	0,090
-131,585	-152,655	0,033	0,002
-130,570	153,497	-0,023	0,022
-129,556	800,000	0,015	-0,038
-128,541	800,000	0,017	-0,040
-127,526	-26,629	-0,101	0,042
-126,512	458,289	-0,032	-0,050
-125,497	-146,467	0,188	0,011
-124,483	-157,838	-0,146	0,006
-123,468	-120,133	0,095	0,011
-122,453	-14,144	-0,223	-0,102
-121,439	800,000	0,006	0,018
-120,424	-121,476	0,025	-0,003
-119,410	-200,000	-0,024	0,206
-118,395	582,006	0,040	0,070
-117,380	800,000	-0,023	-0,059
-116,366	7,100	0,109	0,057
-115,351	-105,085	-0,198	0,032
-114,337	260,425	-0,044	-0,054
-113,322	60,907	-0,031	0,022
-112,307	63,672	0,110	-0,078
-111,293	-200,000	0,007	0,143
-110,278	-200,000	0,011	0,054
-109,264	-101,568	0,066	0,011
-108,249	800,000	-0,011	-0,032
-107,234	-15,050	0,014	-0,006
-106,220	184,275	-0,108	0,114
-105,205	800,000	0,096	0,250
-104,191	-200,000	-0,001	0,025
-103,176	-200,000	0,027	0,118
-102,162	351,103	-0,045	0,063
-101,147	405,864	0,059	-0,088
-100,132	-200,000	0,002	-0,013
-99,118	-200,000	-0,023	-0,094
-98,103	-99,960	0,056	-0,010
-97,089	800,000	-0,024	0,053
-96,074	251,161	-0,047	-0,057
-95,059	30,238	0,105	0,064
-94,045	-13,713	-0,047	0,022
-93,030	-17,368	-0,058	-0,026
-92,016	-200,000	0,009	-0,101
-91,001	-2,559	-0,068	0,034
-89,986	-53,403	0,063	-0,020
-88,972	-45,915	0,043	-0,015
-87,957	-200,000	0,012	0,048
-86,943	472,549	-0,029	0,047
-85,928	-47,743	-0,157	0,054
-84,913	800,000	0,037	0,116
-83,899	-200,000	-0,006	0,112
-82,884	800,000	-0,026	-0,059
-81,870	349,667	0,058	0,082
-80,855	-27,474	0,084	0,035
-79,840	23,178	-0,144	-0,084
-78,826	-200,000	-0,020	-0,069
-77,811	-56,439	-0,241	0,075
-76,797	11,651	-0,037	-0,020
-75,782	181,223	0,029	0,030
-74,767	47,551	-0,022	-0,014
-73,753	800,000	-0,008	-0,021
-72,738	-78,177	0,061	-0,015
-71,724	-200,000	-0,041	-0,129
-70,709	-184,559	-0,067	-0,001
-69,694	24,141	-0,023	-0,013
-68,680	238,694	0,082	0,097
-67,665	800,000	0,025	0,063
-66,651	-200,000	-0,013	-0,095
-65,636	-200,000	0,006	-0,080
-64,622	73,049	-0,152	-0,112
-63,607	-172,514	-0,073	0,002
-62,592	272,458	0,160	-0,200
-61,578	121,692	0,115	0,102
-60,563	97,826	0,053	0,043
-59,549	-200,000	-0,007	0,187
-58,534	-12,010	-1,727	-0,798
-57,519	502,457	-1,249	-2,050
-56,505	-200,000	-0,312	-4,391
-55,490	330,699	0,895	1,223
-54,476	800,000	5,065	11,175
-53,461	-200,000	19,461	326,578
-52,446	-200,000	742,007	2337,869
-51,432	571,573	1652,340	2858,147
-50,417	77,567	1666,728	1254,092
-49,403	20,975	1539,971	881,093
-48,388	14,858	1462,615	807,173
-47,373	18,387	1452,941	818,805
-46,359	16,775	1442,714	805,303
-45,344	13,073	1438,193	785,070
-44,330	13,081	1435,915	783,835
-43,315	13,069	1434,466	782,955
-42,300	13,079	1432,638	781,971
-41,286	13,078	1431,733	781,445
-40,271	13,043	1430,339	780,483
-39,257	13,066	1428,856	779,753
-38,242	13,074	1427,565	779,059
-37,227	13,113	1426,380	778,566
-36,213	13,082	1425,235	777,763
-35,198	13,092	1423,866	777,029
-34,184	13,121	1423,023	776,677
-33,169	13,024	1421,653	775,439
-32,154	13,137	1420,625	775,381
-31,140	13,110	1419,497	774,609
-30,125	13,158	1418,202	774,098
-29,111	13,105	1417,140	773,238
-28,096	13,059	1416,134	772,443
-27,082	13,055	1414,810	771,672
-26,067	13,053	1414,164	771,279
-25,052	13,014	1412,987	770,422
-24,038	13,033	1411,908	769,890
-23,023	13,022	1410,884	769,251
-22,009	13,010	1409,908	768,631
-20,994	13,003	1409,033	768,093
-19,979	12,974	1408,222	767,486
-18,965	12,982	1407,328	767,004
-17,950	12,957	1406,205	766,245
-16,936	12,983	1405,534	765,971
-15,921	12,930	1404,359	765,051
-14,906	12,965	1403,238	764,572
-13,892	12,980	1402,299	764,103
-12,877	12,938	1401,561	763,473
-11,863	12,944	1400,677	762,990
-10,848	12,920	1399,737	762,338
-9,833	12,870	1399,149	761,754
-8,819	12,807	1398,316	760,974
-7,804	12,812	1397,504	760,527
-6,790	12,864	1396,180	760,018
-5,775	12,893	1395,155	759,566
-4,760	12,837	1394,211	758,762
-3,746	12,807	1393,430	758,168
-2,731	12,781	1392,614	757,573
-1,717	12,806	1391,548	757,079
-0,702	12,794	1389,859	756,073
0,313	16,764	1305,767	728,616
1,327	33,132	699,863	428,123
2,342	50,843	122,439	81,872
3,356	2,181	16,525	8,415
4,371	14,204	3,200	1,758
5,386	-0,268	0,638	0,320
6,400	800,000	0,076	0,234
7,415	174,543	-0,217	-0,222
8,429	-9,383	-0,360	-0,169
9,444	97,113	-0,226	-0,183
10,459	-34,437	-0,263	-0,101
11,473	99,274	-0,300	-0,245
12,488	77,476	-0,307	-0,231
13,502	-31,072	-0,301	-0,119
14,517	-27,880	-0,256	-0,104
15,531	-74,505	-0,385	-0,097
16,546	44,541	-0,538	-0,349
17,561	59,719	-0,433	-0,301
18,575	197,754	-0,090	-0,098
19,590	82,561	-0,367	-0,281
20,604	-37,214	-0,239	-0,090
21,619	-43,267	-0,457	-0,162
22,634	120,496	-0,476	-0,417
23,648	21,140	-0,520	-0,297
24,663	19,065	-0,301	-0,170
25,677	5,042	-0,351	-0,182
26,692	87,590	-0,219	-0,171
27,707	155,820	-0,277	-0,270
28,721	-64,890	-0,384	-0,109
29,736	114,420	-0,325	-0,279
30,750	128,750	-0,461	-0,414
31,765	-11,120	-0,372	-0,172
32,780	129,228	-0,257	-0,232
33,794	-31,521	-0,361	-0,142
34,809	66,860	-0,343	-0,246
35,823	-37,476	-0,396	-0,148
36,838	46,587	-0,413	-0,269
37,853	348,422	-0,291	-0,405
38,867	156,770	-0,400	-0,390
39,882	198,791	-0,323	-0,348
40,896	-11,987	-0,341	-0,157
41,911	101,884	-0,323	-0,266
42,926	3,676	-0,391	-0,200
43,940	302,600	-0,223	-0,292
44,955	85,195	-0,384	-0,296
45,969	-42,403	-0,468	-0,167
46,984	38,235	-0,286	-0,179
47,999	151,526	-0,275	-0,264
49,013	-66,736	-0,282	-0,078
50,028	-35,305	-0,301	-0,115
51,042	249,285	-0,284	-0,339
52,057	406,500	-0,280	-0,417
53,071	-16,953	-0,390	-0,173
54,086	185,881	-0,323	-0,338
55,101	48,940	-0,339	-0,224
56,115	97,707	-0,375	-0,304
57,130	18,324	-0,352	-0,197
58,144	42,001	-0,410	-0,262
59,159	-16,478	-0,428	-0,190
60,174	15,463	-0,341	-0,188
61,188	169,965	-0,276	-0,278
62,203	48,792	-0,305	-0,201
63,217	9,757	-0,268	-0,142
64,232	62,052	-0,418	-0,293
65,247	401,988	-0,235	-0,348
66,261	129,345	-0,300	-0,270
67,276	127,220	-0,277	-0,247
68,290	131,629	-0,274	-0,248
69,305	132,493	-0,303	-0,274
70,320	71,909	-0,372	-0,272
71,334	-71,516	-0,340	-0,089
72,349	107,723	-0,329	-0,275
73,363	-79,780	-0,361	-0,085
74,378	53,486	-0,275	-0,185
75,393	56,403	-0,265	-0,181
76,407	16,746	-0,331	-0,184
77,422	-27,593	-0,351	-0,143
78,436	-49,838	-0,271	-0,090
79,451	-11,443	-0,387	-0,178
80,466	36,024	-0,386	-0,238
81,480	90,178	-0,257	-0,202
82,495	164,184	-0,311	-0,308
83,509	42,953	-0,338	-0,216
84,524	91,962	-0,209	-0,165
85,539	12,031	-0,303	-0,163
86,553	283,252	-0,276	-0,348
87,568	32,377	-0,282	-0,170
88,582	20,793	-0,394	-0,223
89,597	46,986	-0,224	-0,146
90,611	17,990	-0,248	-0,138
91,626	800,000	-0,069	-0,193
92,641	160,233	-0,259	-0,253
93,655	38,210	-0,364	-0,227
94,670	138,586	-0,276	-0,255
95,684	54,292	-0,263	-0,177
96,699	110,333	-0,246	-0,207
97,714	-87,271	-0,341	-0,072
98,728	343,541	-0,123	-0,169
99,743	-131,468	-0,262	-0,024
100,757	-146,936	-0,252	-0,015
101,772	81,400	-0,307	-0,233
102,787	72,986	-0,344	-0,251
103,801	229,534	-0,327	-0,375
104,816	330,471	-0,210	-0,284
105,830	104,346	-0,171	-0,141
106,845	65,323	-0,208	-0,147
107,860	63,652	-0,214	-0,150
108,874	174,472	-0,328	-0,332
109,889	506,341	-0,139	-0,226
110,903	-74,623	-0,215	-0,054
111,918	-58,300	-0,313	-0,095
112,933	37,214	-0,275	-0,170
113,947	12,265	-0,229	-0,123
114,962	10,058	-0,276	-0,146
115,976	190,069	-0,304	-0,319
116,991	66,483	-0,305	-0,217
118,006	86,021	-0,231	-0,178
119,020	101,584	-0,290	-0,237
120,035	34,152	-0,250	-0,152
121,049	800,000	-0,168	-0,356
122,064	-110,316	-0,323	-0,047
123,079	-25,320	-0,305	-0,126
124,093	449,786	-0,289	-0,447
125,108	43,546	-0,180	-0,115
126,122	476,339	-0,165	-0,262
127,137	307,250	-0,132	-0,172
128,151	102,122	-0,216	-0,177
129,166	-110,449	-0,148	-0,021
130,181	622,261	-0,140	-0,247
131,195	-43,919	-0,330	-0,115
132,210	-3,218	-0,339	-0,164
133,224	-62,184	-0,366	-0,106
134,239	-10,756	-0,155	-0,071
135,254	-24,090	-0,211	-0,088
136,268	-142,470	-0,199	-0,013
137,283	-120,128	-0,347	-0,041
138,297	362,033	-0,204	-0,287
139,312	-0,829	-0,350	-0,173
140,327	190,025	-0,194	-0,204
141,341	-6,730	-0,209	-0,099
142,356	191,688	-0,174	-0,184
143,370	91,531	-0,195	-0,153
144,385	416,637	-0,130	-0,195
145,400	188,704	-0,294	-0,307
146,414	42,084	-0,248	-0,157
147,429	23,747	-0,310	-0,178
148,443	145,190	-0,223	-0,208
149,458	349,355	-0,175	-0,242
150,473	-108,566	-0,306	-0,045
151,487	13,761	-0,142	-0,077
152,502	800,000	-0,063	-0,178
153,516	-49,247	-0,278	-0,092
154,531	202,924	-0,204	-0,220
155,546	-1,313	-0,223	-0,110
156,560	-42,653	-0,311	-0,110
157,575	-55,770	-0,240	-0,074
158,589	308,752	-0,139	-0,181
159,604	14,910	-0,362	-0,197
160,619	-19,288	-0,328	-0,141
161,633	57,196	-0,222	-0,151
162,648	-19,485	-0,188	0,081
163,662	117,819	-0,222	-0,190
164,677	95,153	-0,191	-0,151
165,692	22,090	-0,253	-0,144
166,706	-4,506	-0,188	-0,090
167,721	261,661	-0,263	-0,318
168,735	46,826	-0,269	-0,174
169,750	187,159	-0,217	-0,225
170,764	161,160	-0,155	-0,151
171,779	-4,742	-0,284	-0,136
172,794	-174,113	-0,266	-0,005
173,808	800,000	-0,058	-0,143
174,823	414,123	-0,173	-0,257
175,837	-59,621	-0,247	-0,073
176,852	136,163	-0,245	-0,222
177,867	-77,070	-0,277	-0,067
178,881	-184,067	-0,238	-0,003
179,896	7,897	-0,147	0,076
180,910	-91,354	-0,298	-0,059
181,925	25,206	-0,333	-0,192
182,940	2,394	-0,220	-0,111
183,954	72,511	-0,177	-0,128
184,969	-47,262	-0,172	-0,058
185,983	79,429	-0,282	-0,210
186,998	81,800	-0,205	-0,154
188,013	692,158	-0,135	-0,247
189,027	-200,000	-0,110	-0,352
190,042	343,302	-0,215	-0,293
191,056	75,807	-0,153	-0,113
192,071	132,371	-0,077	-0,069
193,086	280,054	-0,178	-0,222
194,100	-88,515	-0,173	-0,036
195,115	-105,269	-0,128	-0,020
196,129	30,258	-0,177	-0,105
197,144	58,911	-0,203	-0,138
198,159	161,506	-0,155	-0,151
199,173	-122,445	-0,184	-0,021
200,188	18,863	-0,182	-0,101
201,202	384,656	-0,127	-0,182
202,217	168,726	-0,136	-0,135
203,232	-0,544	-0,210	-0,103
204,246	221,963	-0,206	-0,231
205,261	793,669	-0,150	-0,288
206,275	339,472	-0,203	-0,276
207,290	-200,000	-0,058	-0,198
208,304	687,203	-0,104	-0,190
209,319	67,722	-0,159	-0,113
210,334	73,038	-0,225	-0,163
211,348	137,143	-0,188	-0,170
212,363	800,000	-0,078	-0,224
213,377	129,624	-0,267	-0,237
214,392	233,103	-0,236	-0,270
215,407	57,158	-0,098	-0,066
216,421	-154,472	-0,235	-0,011
217,436	51,399	-0,091	-0,060
218,450	337,771	-0,219	-0,296
219,465	90,869	-0,189	-0,147
220,480	367,016	-0,161	-0,227
221,494	74,684	-0,272	-0,198
222,509	21,151	-0,257	-0,144
223,523	-16,920	-0,231	-0,101
224,538	86,843	-0,169	-0,130
225,553	800,000	-0,041	-0,088
226,567	391,379	-0,138	-0,199
227,582	800,000	-0,125	-0,350
228,596	7,362	-0,273	-0,141
229,611	87,204	-0,181	-0,139
230,626	234,306	-0,184	-0,211
231,640	-14,652	-0,246	-0,109
232,655	-63,315	-0,330	-0,094
233,669	-200,000	-0,312	-0,001
234,684	-37,932	-0,251	-0,092
235,699	800,000	-0,083	-0,218
236,713	28,533	-0,097	-0,057
237,728	800,000	-0,038	-0,099
238,742	47,044	-0,250	-0,161
239,757	2,302	-0,148	-0,074
240,772	800,000	-0,074	-0,195
241,786	73,105	-0,206	-0,149
242,801	118,566	-0,247	-0,211
243,815	490,094	-0,116	-0,185
244,830	77,027	-0,072	-0,053
245,844	-3,991	-0,134	-0,064
246,859	-200,000	-0,029	-0,118
247,874	36,253	-0,266	-0,162
248,888	120,452	-0,257	-0,221
249,903	105,355	-0,177	-0,145
250,917	239,026	-0,184	-0,212
251,932	-56,017	-0,160	-0,049
252,947	134,061	-0,122	-0,109
253,961	0,914	-0,174	-0,086
254,976	-6,631	-0,262	-0,123
255,990	40,085	-0,158	-0,098
257,005	-72,189	-0,212	-0,054
258,020	242,626	-0,159	-0,185
259,034	219,249	-0,139	-0,154
260,049	205,937	-0,106	-0,114
261,063	0,890	-0,138	-0,068
262,078	63,464	-0,315	-0,218
263,093	800,000	-0,121	-0,286
264,107	164,503	-0,243	-0,237
265,122	-200,000	-0,001	-0,087
266,136	-23,706	-0,137	0,057
267,151	280,757	-0,136	-0,168
268,166	311,563	-0,097	-0,126
269,180	74,500	-0,220	-0,159
270,195	132,100	-0,223	-0,198
271,209	110,102	-0,136	-0,112
272,224	454,286	-0,142	-0,217
273,239	45,174	-0,180	-0,114
274,253	800,000	-0,171	-0,330
275,268	88,498	-0,181	-0,139
276,282	800,000	-0,148	-0,313
277,297	67,043	-0,231	-0,162
278,312	-34,147	-0,197	-0,074
279,326	22,485	-0,196	-0,110
280,341	39,406	-0,161	-0,099
281,355	106,492	-0,093	-0,076
282,370	-0,418	-0,229	-0,112
283,384	201,664	-0,253	-0,270
284,399	238,386	-0,217	-0,249
285,414	385,039	-0,084	-0,120
286,428	800,000	-0,073	-0,151
287,443	313,282	-0,105	-0,136
288,457	208,332	-0,117	-0,126
289,472	-12,458	-0,245	-0,110
290,487	13,594	-0,216	-0,116
291,501	-104,268	-0,252	-0,040
292,516	-4,726	-0,211	-0,100
293,530	-96,570	-0,195	-0,035
294,545	42,025	-0,060	-0,038
295,560	-147,196	-0,065	0,004
296,574	-129,429	-0,212	-0,020
297,589	-32,143	-0,246	-0,094
298,603	307,133	-0,216	-0,278
299,618	786,005	-0,077	-0,146
300,633	-55,941	-0,136	-0,042
301,647	-5,119	-0,175	-0,083
302,662	800,000	-0,072	-0,156
303,676	65,782	-0,306	-0,213
304,691	10,486	-0,159	-0,083
305,706	23,687	-0,116	-0,066
306,720	-200,000	-0,002	-0,123
307,735	199,404	-0,113	-0,120
308,749	314,801	-0,070	-0,091
309,764	-55,893	0,129	-0,039
310,779	800,000	-0,064	-0,125
311,793	-71,107	-0,196	0,050
312,808	373,511	-0,112	-0,157
313,822	374,375	-0,049	-0,068
314,837	-200,000	-0,012	-0,152
315,852	-52,311	-0,072	-0,023
316,866	374,620	0,036	-0,050
317,881	-58,346	-0,187	-0,056
318,895	84,562	-0,143	-0,108
319,910	800,000	-0,076	-0,191
320,925	578,877	-0,088	-0,149
321,939	-120,201	-0,203	-0,024
322,954	-136,897	-0,217	0,017
323,968	121,432	-0,068	-0,058
324,983	800,000	-0,012	-0,024
325,997	-46,778	-0,168	-0,056
327,012	446,480	-0,115	-0,174
328,027	-10,118	-0,247	-0,112
329,041	11,605	-0,174	-0,091
330,056	-145,156	-0,059	0,004
331,070	251,082	-0,134	-0,156
332,085	88,663	-0,133	-0,101
333,100	512,738	-0,114	-0,183
334,114	177,260	-0,102	-0,102
335,129	16,881	-0,239	-0,130
336,143	122,342	-0,189	-0,162
337,158	-73,648	-0,107	-0,027
338,173	-35,782	-0,194	-0,072
339,187	207,467	-0,148	-0,159
340,202	-37,101	-0,174	-0,064
341,216	67,722	-0,247	-0,173
342,231	720,054	-0,091	-0,167
343,246	-200,000	-0,070	-0,276
344,260	161,315	-0,099	-0,095
345,275	191,192	-0,166	-0,171
346,289	-45,672	-0,086	-0,029
347,304	174,777	-0,095	0,094
348,319	-84,457	-0,085	0,018
349,333	-125,787	-0,312	-0,032
350,348	187,635	-0,199	-0,204
351,362	133,943	-0,166	-0,147
352,377	146,686	-0,137	-0,126
353,392	-167,411	-0,156	-0,004
354,406	-72,670	-0,213	-0,053
355,421	208,207	1312,275	1407,670
356,435	160,197	1472,710	1408,175
