DTS Sentinel unit serial number:	SN410029Multiplexer serial number:	ORYXHardware model number:	OX2-SRSoftware version number:	ORYX F/W v4,00 Oryx Data Collector v3.7.2.0data status	okinstallation	B3 Nyhavnadifferential loss correction	single-endedforward channel	channel 1reverse channel	N/Adate	2023/11/30time	16:42:30forward acquisition time	300,00reverse acquisition time	0,00gamma	499,1914k internal	0,3204k external	0,3204temperature offset calibration	1,0000default loss term (dB/km)	0,3820temperature slope calibration	1,0000multiplexer offset coefficient	1,0000multiplexer slope coefficient	1,0000fibre end	0,00T internal ref (°C)	12,99T ext. ref 1 (°C)	-1,49T ext. ref 2 (°C)	-1,51length (m)	temperature (°C)	Stokes	anti-Stokes-744,400	237,838	-0,220	-0,266
-743,385	-200,000	0,063	0,324
-742,371	648,957	-0,108	-0,201
-741,356	-200,000	0,016	0,413
-740,342	800,000	-0,135	-0,368
-739,327	-200,000	-0,081	0,282
-738,312	800,000	-0,137	-0,292
-737,298	-200,000	-0,071	0,272
-736,283	800,000	-0,159	-0,370
-735,269	348,981	0,153	0,220
-734,254	800,000	-0,112	-0,244
-733,239	-71,176	-0,268	0,072
-732,225	656,495	-0,163	-0,306
-731,210	69,607	0,143	0,107
-730,196	-131,748	-0,170	0,016
-729,181	411,396	-0,080	-0,124
-728,167	199,685	0,116	-0,130
-727,152	57,178	0,023	0,016
-726,137	106,220	-0,183	-0,157
-725,123	800,000	-0,054	-0,174
-724,108	77,437	-0,121	-0,093
-723,094	137,700	-0,179	-0,171
-722,079	-200,000	-0,010	-0,083
-721,064	-34,663	-0,146	-0,058
-720,050	2,028	0,023	-0,012
-719,035	-72,004	-0,094	0,025
-718,021	-68,856	-0,246	-0,069
-717,006	-200,000	-0,004	-0,111
-715,991	17,589	-0,081	-0,046
-714,977	-78,168	-0,061	-0,015
-713,962	800,000	-0,044	-0,093
-712,948	-200,000	-0,003	0,043
-711,933	-200,000	-0,002	0,024
-710,918	-145,089	0,175	0,011
-709,904	56,110	-0,148	-0,104
-708,889	379,692	-0,083	-0,124
-707,875	136,445	-0,095	-0,090
-706,860	-6,307	0,085	0,042
-705,845	-200,000	-0,010	0,142
-704,831	-14,339	0,060	0,028
-703,816	27,621	-0,105	0,064
-702,802	18,988	-0,083	-0,048
-701,787	-41,128	-0,062	0,023
-700,772	270,526	-0,010	-0,012
-699,758	28,115	0,066	-0,040
-698,743	-114,334	-0,051	0,007
-697,729	-60,985	0,118	-0,036
-696,714	-200,000	0,007	0,031
-695,699	44,305	-0,089	0,059
-694,685	-200,000	-0,001	-0,149
-693,670	800,000	-0,038	-0,089
-692,656	-155,310	-0,015	0,001
-691,641	435,533	0,025	-0,039
-690,627	-45,034	0,049	0,018
-689,612	59,671	0,030	-0,021
-688,597	-13,275	-0,063	-0,030
-687,583	-200,000	0,031	-0,133
-686,568	-69,947	-0,159	0,044
-685,554	412,373	-0,033	-0,051
-684,539	306,299	0,090	0,122
-683,524	109,117	-0,058	-0,050
-682,510	62,981	-0,082	0,059
-681,495	-200,000	0,005	-0,056
-680,481	-200,000	-0,002	0,032
-679,466	-112,491	0,066	-0,010
-678,451	176,984	-0,071	-0,075
-677,437	-155,919	-0,036	-0,002
-676,422	410,381	-0,024	-0,037
-675,408	800,000	-0,029	0,087
-674,393	-200,000	-0,022	0,084
-673,378	244,243	-0,072	-0,087
-672,364	185,545	-0,033	-0,036
-671,349	-12,346	-0,022	0,011
-670,335	209,425	-0,089	0,101
-669,320	549,439	-0,034	-0,059
-668,305	-95,426	0,114	-0,022
-667,291	16,666	-0,069	-0,040
-666,276	90,736	0,075	-0,061
-665,262	75,627	-0,084	-0,064
-664,247	124,095	-0,081	-0,074
-663,232	-166,975	-0,093	0,003
-662,218	-200,000	0,021	-0,088
-661,203	-200,000	0,007	-0,070
-660,189	-65,308	-0,132	-0,038
-659,174	-200,000	0,019	0,000
-658,159	800,000	0,060	0,128
-657,145	800,000	-0,058	-0,168
-656,130	309,554	-0,069	-0,094
-655,116	800,000	-0,050	-0,109
-654,101	262,087	-0,011	-0,014
-653,086	-74,939	-0,061	0,016
-652,072	-11,896	-0,087	-0,041
-651,057	-200,000	-0,023	-0,111
-650,043	-200,000	0,006	-0,019
-649,028	-175,116	-0,149	-0,003
-648,014	16,094	0,126	0,072
-646,999	-200,000	0,015	0,082
-645,984	-200,000	-0,013	0,114
-644,970	-26,002	-0,062	0,026
-643,955	800,000	-0,032	-0,091
-642,941	42,338	-0,117	0,077
-641,926	-55,224	-0,108	0,035
-640,911	104,361	0,084	-0,071
-639,897	-200,000	0,023	0,080
-638,882	800,000	0,028	-0,088
-637,868	6,098	-0,085	0,046
-636,853	334,882	0,080	-0,113
-635,838	-81,286	-0,052	-0,012
-634,824	40,132	-0,106	0,069
-633,809	159,451	0,080	-0,081
-632,795	143,100	-0,059	-0,057
-631,780	-200,000	-0,018	0,111
-630,765	41,247	-0,067	-0,044
-629,751	-161,214	-0,128	-0,005
-628,736	-68,732	-0,047	-0,013
-627,722	-200,000	0,000	0,114
-626,707	319,544	-0,029	-0,040
-625,692	800,000	-0,028	0,067
-624,678	-200,000	-0,017	0,080
-623,663	-59,258	0,181	0,056
-622,649	-8,664	-0,078	0,038
-621,634	159,568	0,082	-0,083
-620,619	119,102	-0,091	-0,082
-619,605	106,242	0,046	-0,040
-618,590	306,833	0,066	0,090
-617,576	800,000	0,029	0,065
-616,561	-200,000	-0,007	0,056
-615,546	-82,901	-0,229	-0,053
-614,532	-122,681	-0,114	-0,013
-613,517	31,775	-0,204	-0,127
-612,503	800,000	0,057	-0,121
-611,488	133,966	0,026	-0,025
-610,474	-39,785	-0,135	-0,051
-609,459	-161,594	-0,112	-0,004
-608,444	280,811	-0,074	-0,096
-607,430	800,000	0,031	-0,089
-606,415	-200,000	-0,027	-0,099
-605,401	-200,000	0,004	-0,093
-604,386	444,433	0,056	-0,089
-603,371	68,325	-0,112	0,083
-602,357	-30,604	-0,057	0,023
-601,342	14,382	0,085	0,048
-600,328	291,919	-0,088	-0,116
-599,313	800,000	-0,070	-0,158
-598,298	136,252	-0,048	0,045
-597,284	292,921	-0,064	0,084
-596,269	-73,394	0,125	-0,033
-595,255	-200,000	-0,041	-0,130
-594,240	275,060	-0,019	0,024
-593,225	-200,000	0,008	-0,096
-592,211	-29,653	0,106	-0,043
-591,196	-200,000	-0,011	0,042
-590,182	138,062	0,087	-0,082
-589,167	70,263	0,034	0,026
-588,152	81,972	-0,120	0,094
-587,138	96,375	-0,080	0,066
-586,123	-200,000	0,007	-0,095
-585,109	343,723	-0,019	0,028
-584,094	-200,000	-0,013	-0,142
-583,079	25,570	0,042	-0,025
-582,065	201,906	0,068	0,076
-581,050	-65,253	0,084	0,024
-580,036	-200,000	-0,020	0,162
-579,021	-117,915	0,049	0,006
-578,006	-89,638	-0,096	-0,020
-576,992	-200,000	-0,021	0,111
-575,977	-123,022	0,083	-0,010
-574,963	-200,000	0,020	0,093
-573,948	-200,000	-0,022	0,118
-572,934	378,745	0,006	-0,009
-571,919	-200,000	0,010	-0,102
-570,904	-200,000	-0,005	-0,035
-569,890	-159,123	-0,068	-0,003
-568,875	19,811	0,070	0,041
-567,861	1,600	0,078	-0,040
-566,846	491,851	0,068	0,113
-565,831	-95,622	0,048	0,009
-564,817	-200,000	-0,001	-0,071
-563,802	79,770	-0,115	-0,089
-562,788	800,000	0,014	-0,037
-561,773	155,420	0,129	-0,128
-560,758	-200,000	-0,004	0,136
-559,744	-200,000	0,002	0,035
-558,729	-200,000	-0,009	0,048
-557,715	-71,480	-0,191	-0,051
-556,700	145,940	0,033	0,032
-555,685	-200,000	-0,004	-0,044
-554,671	-41,433	0,110	-0,041
-553,656	-32,139	-0,041	0,016
-552,642	153,625	0,121	0,119
-551,627	-200,000	-0,011	-0,038
-550,612	3,271	0,069	0,036
-549,598	516,634	-0,062	-0,104
-548,583	-41,943	-0,103	-0,038
-547,569	-20,444	-0,106	-0,047
-546,554	-61,217	0,035	-0,010
-545,539	210,653	0,180	0,205
-544,525	267,569	0,037	-0,047
-543,510	800,000	0,025	-0,061
-542,496	643,042	0,031	-0,058
-541,481	800,000	-0,030	0,066
-540,466	-200,000	-0,009	-0,063
-539,452	0,499	0,111	-0,057
-538,437	800,000	0,053	0,167
-537,423	193,301	0,044	0,048
-536,408	351,917	0,064	-0,092
-535,393	-103,388	-0,062	-0,010
-534,379	650,808	-0,060	0,111
-533,364	-200,000	-0,006	-0,197
-532,350	206,067	-0,004	-0,005
-531,335	-31,065	0,100	0,040
-530,321	418,673	-0,058	-0,090
-529,306	0,578	-0,045	0,023
-528,291	800,000	-0,017	-0,034
-527,277	100,000	-0,038	-0,031
-526,262	165,872	-0,078	-0,080
-525,248	-7,926	0,130	0,063
-524,233	63,352	0,055	0,040
-523,218	-150,561	0,165	0,009
-522,204	-15,941	0,098	0,045
-521,189	-200,000	-0,017	-0,121
-520,175	509,593	0,032	-0,054
-519,160	-28,735	0,087	-0,036
-518,145	-88,524	0,123	-0,026
-517,131	-200,000	0,017	-0,183
-516,116	115,055	-0,058	0,051
-515,102	-200,000	0,007	-0,039
-514,087	49,810	-0,030	-0,020
-513,072	102,555	-0,088	-0,074
-512,058	92,480	0,183	-0,149
-511,043	479,428	-0,030	-0,049
-510,029	-82,369	0,058	-0,014
-509,014	-200,000	0,039	-0,127
-507,999	105,707	-0,094	-0,080
-506,985	125,303	-0,039	-0,036
-505,970	-200,000	0,011	-0,052
-504,956	167,310	0,156	-0,160
-503,941	430,828	0,008	0,012
-502,926	800,000	-0,018	0,044
-501,912	307,633	0,029	0,038
-500,897	-200,000	0,019	0,098
-499,883	-5,542	-0,083	0,041
-498,868	246,730	-0,073	0,089
-497,853	148,125	-0,089	0,087
-496,839	-200,000	-0,025	0,099
-495,824	-17,110	0,049	0,022
-494,810	334,152	0,104	0,145
-493,795	791,846	-0,019	-0,038
-492,781	-200,000	-0,001	-0,010
-491,766	-4,594	0,049	0,024
-490,751	545,642	-0,088	0,153
-489,737	122,368	0,087	-0,078
-488,722	-200,000	-0,000	0,136
-487,708	-200,000	0,040	-0,200
-486,693	332,043	0,041	-0,057
-485,678	-82,213	-0,109	0,025
-484,664	242,293	-0,040	0,048
-483,649	-38,268	-0,093	-0,035
-482,635	-87,784	-0,072	-0,016
-481,620	-100,670	0,065	0,011
-480,605	312,101	0,061	0,083
-479,591	-200,000	0,003	0,052
-478,576	800,000	-0,019	0,042
-477,562	-26,874	0,122	-0,051
-476,547	-78,602	-0,134	0,033
-475,532	-200,000	0,003	-0,037
-474,518	-29,678	0,140	0,057
-473,503	-155,460	0,032	0,001
-472,489	-200,000	-0,002	-0,028
-471,474	-200,000	-0,024	0,102
-470,459	-45,804	-0,058	0,021
-469,445	-200,000	-0,037	-0,119
-468,430	-155,203	0,019	0,001
-467,416	306,869	-0,059	0,080
-466,401	800,000	-0,053	0,118
-465,386	-200,000	0,010	0,124
-464,372	238,902	0,084	-0,101
-463,357	-199,855	-0,010	0,000
-462,343	-24,882	-0,082	-0,035
-461,328	-92,513	-0,155	0,031
-460,313	-200,000	-0,009	0,034
-459,299	534,443	-0,022	0,038
-458,284	498,917	0,051	0,084
-457,270	800,000	-0,024	-0,058
-456,255	-73,808	0,085	0,022
-455,241	259,818	0,025	0,031
-454,226	62,856	0,029	0,021
-453,211	-20,430	0,136	0,060
-452,197	-200,000	0,022	0,117
-451,182	-75,362	0,124	0,031
-450,168	462,678	-0,024	0,039
-449,153	-61,180	0,105	0,031
-448,138	612,403	-0,059	-0,107
-447,124	-200,000	-0,021	-0,175
-446,109	67,871	0,079	-0,058
-445,095	-200,000	-0,007	-0,028
-444,080	-83,996	-0,060	0,013
-443,065	-200,000	-0,037	0,146
-442,051	49,848	-0,100	0,067
-441,036	-47,654	0,153	-0,053
-440,022	-200,000	0,019	-0,146
-439,007	800,000	0,025	-0,057
-437,992	180,302	0,073	-0,077
-436,978	343,432	0,034	0,048
-435,963	800,000	-0,031	0,083
-434,949	800,000	0,038	0,089
-433,934	-200,000	0,018	-0,082
-432,919	327,802	-0,052	-0,072
-431,905	359,279	0,057	0,082
-430,890	118,417	-0,045	0,040
-429,876	520,596	0,074	0,125
-428,861	-123,711	0,031	0,003
-427,846	108,333	0,038	-0,032
-426,832	-143,366	-0,143	-0,010
-425,817	-125,667	-0,081	0,009
-424,803	300,563	-0,015	0,020
-423,788	-5,155	0,029	-0,014
-422,773	427,247	-0,088	0,137
-421,759	-188,436	-0,075	-0,001
-420,744	-95,791	0,043	0,008
-419,730	230,368	0,091	0,107
-418,715	-148,653	0,097	-0,006
-417,701	155,906	0,037	0,037
-416,686	101,766	0,078	-0,065
-415,671	-29,944	-0,102	0,041
-414,657	800,000	0,030	-0,068
-413,642	339,180	-0,014	0,020
-412,628	-200,000	-0,003	0,017
-411,613	-68,401	0,038	-0,010
-410,598	-149,328	-0,114	0,006
-409,584	-106,940	0,092	-0,014
-408,569	-108,132	-0,104	0,016
-407,555	719,265	0,051	0,097
-406,540	-200,000	-0,002	0,050
-405,525	800,000	-0,016	0,032
-404,511	468,827	-0,098	-0,158
-403,496	118,570	-0,145	-0,129
-402,482	-164,960	-0,025	0,001
-401,467	29,949	-0,066	-0,040
-400,452	-200,000	-0,012	0,083
-399,438	-55,493	-0,033	0,011
-398,423	-189,423	0,155	-0,001
-397,409	-102,283	-0,219	0,037
-396,394	800,000	-0,038	-0,104
-395,379	408,167	-0,053	-0,081
-394,365	-158,777	0,093	-0,004
-393,350	341,432	-0,038	0,053
-392,336	74,360	-0,069	-0,052
-391,321	-131,678	0,058	-0,005
-390,306	-200,000	-0,019	-0,171
-389,292	77,218	-0,034	0,026
-388,277	-200,000	-0,016	0,097
-387,263	800,000	0,001	0,002
-386,248	-142,072	-0,035	-0,002
-385,233	-139,781	0,055	-0,004
-384,219	-30,856	-0,131	-0,053
-383,204	-200,000	0,017	-0,141
-382,190	-16,434	0,028	0,013
-381,175	-162,344	-0,183	-0,006
-380,160	193,618	0,084	0,091
-379,146	-21,407	0,057	-0,025
-378,131	-28,568	0,070	-0,029
-377,117	-129,478	0,040	0,004
-376,102	-200,000	-0,006	0,069
-375,088	800,000	-0,024	-0,052
-374,073	538,691	0,060	-0,102
-373,058	-200,000	0,000	0,008
-372,044	-78,827	-0,079	0,019
-371,029	-132,698	0,092	-0,008
-370,015	800,000	0,032	0,065
-369,000	2,937	-0,140	-0,073
-367,985	390,738	0,023	-0,034
-366,971	-200,000	-0,035	0,175
-365,956	-192,737	0,045	-0,000
-364,942	-149,618	-0,115	-0,006
-363,927	-71,607	0,010	-0,003
-362,912	-200,000	0,000	-0,010
-361,898	25,821	-0,053	0,032
-360,883	-200,000	0,002	-0,045
-359,869	-71,103	-0,132	0,035
-358,854	-200,000	-0,005	-0,036
-357,839	-171,179	0,081	-0,002
-356,825	614,791	0,044	0,079
-355,810	474,295	0,057	0,093
-354,796	800,000	0,051	0,155
-353,781	-200,000	-0,001	-0,120
-352,766	-200,000	-0,019	-0,066
-351,752	463,616	0,045	-0,073
-350,737	-64,089	0,008	0,002
-349,723	212,274	-0,076	-0,086
-348,708	-183,078	-0,018	-0,000
-347,693	239,066	-0,030	-0,035
-346,679	-200,000	0,011	0,137
-345,664	-150,107	0,021	-0,001
-344,650	-200,000	-0,013	-0,043
-343,635	535,153	0,079	-0,135
-342,620	-111,155	0,076	-0,011
-341,606	-136,594	-0,037	-0,003
-340,591	800,000	-0,011	-0,034
-339,577	800,000	0,043	-0,089
-338,562	56,846	-0,108	-0,075
-337,548	-15,306	0,060	0,027
-336,533	198,172	0,030	-0,033
-335,518	624,133	0,055	0,100
-334,504	-96,963	0,116	0,022
-333,489	150,145	-0,039	0,038
-332,475	800,000	-0,073	-0,202
-331,460	159,778	-0,079	0,078
-330,445	-145,335	-0,064	0,004
-329,431	1,444	0,162	0,083
-328,416	800,000	0,010	0,033
-327,402	146,060	-0,092	0,088
-326,387	800,000	0,042	0,108
-325,372	380,486	-0,063	-0,092
-324,358	114,040	-0,088	-0,076
-323,343	800,000	0,011	-0,025
-322,329	-127,045	0,050	0,005
-321,314	-200,000	-0,017	0,107
-320,299	-200,000	0,000	0,058
-319,285	-74,624	-0,029	-0,008
-318,270	20,800	0,010	-0,006
-317,256	116,388	-0,022	0,019
-316,241	-200,000	0,013	0,097
-315,226	-52,535	-0,085	0,028
-314,212	357,551	0,066	0,095
-313,197	-200,000	0,007	-0,055
-312,183	44,422	-0,018	-0,012
-311,168	42,830	0,152	-0,099
-310,153	-161,921	0,104	-0,004
-309,139	800,000	0,053	-0,106
-308,124	-157,973	0,042	0,002
-307,110	-1,143	0,069	-0,035
-306,095	12,292	-0,082	0,045
-305,080	-79,712	0,033	0,008
-304,066	-200,000	0,013	0,063
-303,051	-14,098	-0,027	0,012
-302,037	-200,000	0,022	0,096
-301,022	-200,000	0,006	0,051
-300,008	-60,028	0,041	0,013
-298,993	332,492	-0,024	0,034
-297,978	-34,748	0,092	0,036
-296,964	-200,000	0,003	-0,055
-295,949	-48,795	-0,033	-0,011
-294,935	92,482	-0,102	-0,082
-293,920	121,170	-0,024	-0,021
-292,905	-200,000	0,007	0,058
-291,891	225,167	0,068	-0,079
-290,876	800,000	-0,047	-0,107
-289,862	-37,295	-0,093	0,035
-288,847	-200,000	0,003	0,028
-287,832	-60,976	0,095	0,028
-286,818	-84,942	-0,085	0,019
-285,803	-35,666	-0,054	0,021
-284,789	69,126	-0,066	-0,049
-283,774	800,000	0,061	0,151
-282,759	-200,000	0,028	0,138
-281,745	207,826	0,079	-0,088
-280,730	800,000	0,043	0,097
-279,716	227,205	0,040	0,046
-278,701	179,558	-0,028	-0,029
-277,686	-113,167	0,070	0,010
-276,672	287,726	-0,064	0,083
-275,657	221,709	0,046	0,053
-274,643	-6,806	-0,080	-0,039
-273,628	-200,000	-0,003	0,048
-272,613	-103,306	0,135	-0,022
-271,599	7,121	0,024	-0,013
-270,584	175,580	0,026	-0,027
-269,570	225,867	0,065	0,075
-268,555	203,969	-0,033	0,037
-267,540	-200,000	0,008	-0,059
-266,526	81,645	-0,085	-0,065
-265,511	-200,000	-0,030	-0,191
-264,497	-150,143	-0,098	0,005
-263,482	155,364	0,100	0,098
-262,467	-200,000	0,002	0,041
-261,453	-200,000	0,010	0,047
-260,438	-145,389	0,038	0,002
-259,424	-150,699	-0,158	-0,008
-258,409	123,035	-0,051	0,046
-257,395	-78,426	0,189	0,046
-256,380	154,669	0,058	0,057
-255,365	8,784	0,049	0,026
-254,351	-200,000	-0,023	0,128
-253,336	17,776	-0,130	0,073
-252,322	-200,000	0,002	-0,094
-251,307	408,630	-0,052	-0,079
-250,292	-41,922	0,095	-0,034
-249,278	456,293	0,075	0,119
-248,263	160,611	0,137	0,137
-247,249	-200,000	0,014	0,103
-246,234	82,864	0,029	0,022
-245,219	-49,200	-0,035	0,012
-244,205	-200,000	-0,009	0,047
-243,190	709,009	0,071	0,135
-242,176	-200,000	0,056	0,224
-241,161	-200,000	-0,026	0,084
-240,146	800,000	-0,038	0,100
-239,132	-200,000	0,018	0,117
-238,117	187,581	-0,090	-0,096
-237,103	32,478	0,015	0,009
-236,088	-97,109	-0,092	-0,017
-235,073	68,795	0,132	0,097
-234,059	-70,010	0,012	-0,003
-233,044	-200,000	-0,105	-0,000
-232,030	-200,000	-0,013	-0,109
-231,015	-8,368	0,048	-0,023
-230,000	331,664	-0,033	0,046
-228,986	69,328	0,124	-0,091
-227,971	-200,000	0,035	-0,116
-226,957	-200,000	0,026	-0,105
-225,942	73,738	-0,069	0,051
-224,927	232,972	0,032	-0,037
-223,913	175,687	0,091	-0,095
-222,898	179,696	-0,018	0,019
-221,884	69,780	-0,034	-0,025
-220,869	-20,179	0,010	-0,004
-219,855	-200,000	0,002	0,085
-218,840	-200,000	0,031	0,111
-217,825	-75,671	0,038	0,009
-216,811	531,435	0,079	-0,133
-215,796	-71,417	-0,051	-0,014
-214,782	-200,000	-0,006	0,070
-213,767	-114,160	0,042	-0,006
-212,752	800,000	0,055	0,152
-211,738	-64,385	0,028	-0,008
-210,723	184,890	-0,076	-0,080
-209,709	512,510	0,054	0,089
-208,694	97,298	-0,054	0,044
-207,679	-200,000	0,007	0,038
-206,665	-64,063	-0,045	0,013
-205,650	-181,620	0,045	-0,001
-204,636	172,651	0,079	0,081
-203,621	-79,508	0,104	-0,025
-202,606	-58,957	-0,134	-0,041
-201,592	-108,515	0,051	0,008
-200,577	301,357	-0,069	-0,090
-199,563	800,000	0,043	-0,088
-198,548	-200,000	0,024	-0,091
-197,533	-18,179	-0,047	0,021
-196,519	800,000	0,042	0,100
-195,504	304,124	0,081	-0,107
-194,490	760,729	-0,019	0,037
-193,475	-200,000	-0,004	-0,130
-192,460	-200,000	0,003	0,106
-191,446	800,000	-0,012	0,035
-190,431	-133,905	0,127	-0,011
-189,417	-38,326	-0,122	-0,046
-188,402	-14,973	0,046	-0,021
-187,387	675,123	-0,037	-0,069
-186,373	-194,457	0,115	0,001
-185,358	-142,244	-0,094	0,007
-184,344	-200,000	0,023	0,102
-183,329	-200,000	-0,017	0,240
-182,315	-135,840	-0,068	-0,006
-181,300	144,684	-0,053	-0,050
-180,285	136,394	0,072	-0,067
-179,271	38,961	0,037	0,023
-178,256	-159,238	-0,033	-0,001
-177,242	800,000	-0,026	0,081
-176,227	-200,000	-0,019	0,095
-175,212	-75,546	-0,085	-0,021
-174,198	54,848	-0,125	-0,086
-173,183	-33,501	-0,131	0,051
-172,169	594,650	-0,060	-0,105
-171,154	240,411	-0,098	-0,116
-170,139	-200,000	0,050	-0,184
-169,125	399,447	-0,019	-0,028
-168,110	-199,124	-0,061	-0,000
-167,096	72,396	0,042	0,031
-166,081	-17,010	-0,052	-0,023
-165,066	800,000	-0,033	-0,092
-164,052	-33,663	-0,016	-0,006
-163,037	-127,574	0,140	-0,014
-162,023	800,000	0,051	-0,103
-161,008	-200,000	-0,015	0,050
-159,993	800,000	0,041	-0,089
-158,979	348,228	-0,037	-0,052
-157,964	24,264	-0,059	-0,034
-156,950	-200,000	0,014	-0,086
-155,935	29,347	0,022	-0,013
-154,920	800,000	-0,020	-0,052
-153,906	800,000	0,060	-0,145
-152,891	414,764	-0,018	-0,027
-151,877	11,122	-0,086	-0,046
-150,862	-200,000	-0,014	-0,051
-149,847	-181,251	-0,039	0,001
-148,833	96,203	0,050	0,041
-147,818	800,000	0,023	0,050
-146,804	-47,512	0,078	0,027
-145,789	125,243	0,070	-0,063
-144,775	-158,879	-0,080	0,003
-143,760	800,000	0,026	-0,052
-142,745	-27,536	-0,076	0,031
-141,731	79,584	-0,117	-0,089
-140,716	-200,000	0,042	-0,138
-139,702	-56,448	-0,079	0,025
-138,687	-200,000	0,003	0,055
-137,672	114,057	-0,112	0,097
-136,658	-56,724	0,044	-0,014
-135,643	-200,000	-0,005	-0,102
-134,629	-200,000	0,006	0,115
-133,614	-200,000	0,025	0,188
-132,599	-157,315	0,102	-0,004
-131,585	800,000	-0,039	0,094
-130,570	6,029	0,157	0,082
-129,556	-75,200	0,086	-0,022
-128,541	-84,605	-0,021	0,005
-127,526	-116,816	0,148	0,019
-126,512	30,573	-0,045	0,027
-125,497	-24,286	0,094	0,040
-124,483	124,481	-0,046	0,041
-123,468	800,000	0,028	0,072
-122,453	327,405	-0,082	-0,112
-121,439	-75,996	0,077	-0,019
-120,424	305,526	-0,059	0,077
-119,410	-200,000	0,017	0,147
-118,395	-200,000	0,005	0,103
-117,380	86,728	-0,025	0,019
-116,366	6,103	-0,081	0,042
-115,351	-108,183	0,063	0,010
-114,337	-6,686	-0,065	0,031
-113,322	-200,000	-0,022	-0,157
-112,307	-138,316	0,068	0,005
-111,293	-196,509	0,026	-0,000
-110,278	13,999	0,035	-0,019
-109,264	800,000	0,101	0,229
-108,249	-200,000	0,031	-0,139
-107,234	-79,626	0,038	-0,009
-106,220	-200,000	-0,023	-0,148
-105,205	-80,314	0,108	-0,025
-104,191	-1,967	-0,081	0,040
-103,176	-200,000	0,001	0,039
-102,162	-200,000	-0,026	-0,118
-101,147	229,825	-0,053	-0,062
-100,132	369,730	-0,086	-0,124
-99,118	425,069	-0,041	0,063
-98,103	-78,834	0,077	-0,018
-97,089	12,828	0,154	-0,084
-96,074	41,150	0,013	-0,008
-95,059	800,000	0,050	0,123
-94,045	-200,000	-0,021	-0,101
-93,030	-169,272	-0,102	-0,003
-92,016	-147,303	-0,165	-0,010
-91,001	-92,108	-0,014	-0,003
-89,986	-42,677	-0,042	0,015
-88,972	-200,000	-0,003	0,014
-87,957	800,000	0,040	0,107
-86,943	256,745	-0,034	0,041
-85,928	-200,000	-0,002	-0,024
-84,913	-108,170	-0,094	0,014
-83,899	314,631	0,080	-0,106
-82,884	-200,000	-0,030	0,114
-81,870	191,538	0,071	0,075
-80,855	-42,745	0,009	0,003
-79,840	-64,989	0,111	-0,032
-78,826	70,711	-0,103	-0,076
-77,811	329,570	-0,078	0,107
-76,797	-69,142	-0,083	-0,022
-75,782	-200,000	-0,003	0,078
-74,767	461,384	0,044	-0,069
-73,753	-82,472	0,133	-0,030
-72,738	-200,000	-0,009	0,061
-71,724	-200,000	-0,013	-0,081
-70,709	-120,423	0,036	0,004
-69,694	297,065	-0,021	0,028
-68,680	495,276	0,023	-0,037
-67,665	-42,208	0,045	0,016
-66,651	-200,000	0,015	0,155
-65,636	800,000	-0,034	0,092
-64,622	-64,725	-0,096	0,027
-63,607	-200,000	0,006	0,026
-62,592	113,008	-0,025	-0,022
-61,578	148,670	-0,091	0,087
-60,563	54,319	0,125	0,085
-59,549	37,075	-0,073	0,046
-58,534	14,985	-1,679	-0,927
-57,519	355,449	-1,509	-2,130
-56,505	-200,000	-0,263	-4,601
-55,490	237,655	0,902	1,060
-54,476	800,000	4,894	11,351
-53,461	-200,000	19,313	324,768
-52,446	-200,000	740,228	2335,826
-51,432	572,728	1651,380	2857,797
-50,417	77,770	1666,258	1254,334
-49,403	20,967	1539,702	880,593
-48,388	14,865	1462,064	806,622
-47,373	18,276	1452,478	817,725
-46,359	16,762	1442,206	804,680
-45,344	13,108	1437,481	784,576
-44,330	13,043	1435,578	783,195
-43,315	13,051	1433,873	782,272
-42,300	13,041	1432,085	781,217
-41,286	13,078	1430,925	780,732
-40,271	13,009	1429,838	779,779
-39,257	13,038	1428,289	779,040
-38,242	13,043	1426,998	778,328
-37,227	13,073	1425,851	777,817
-36,213	13,095	1424,533	777,171
-35,198	13,063	1423,524	776,439
-34,184	13,139	1422,432	776,168
-33,169	13,085	1421,140	775,180
-32,154	13,143	1420,045	774,824
-31,140	13,161	1418,704	774,146
-30,125	13,093	1417,833	773,322
-29,111	13,122	1416,692	772,806
-28,096	13,097	1415,461	771,983
-27,082	13,016	1414,561	771,082
-26,067	13,032	1413,631	770,621
-25,052	12,996	1412,358	769,728
-24,038	13,001	1411,309	769,147
-23,023	12,972	1410,492	768,536
-22,009	12,996	1409,435	768,040
-20,994	12,978	1408,483	767,410
-19,979	12,953	1407,727	766,851
-18,965	12,978	1406,703	766,379
-17,950	12,991	1405,565	765,785
-16,936	12,987	1404,904	765,377
-15,921	12,915	1403,727	764,371
-14,906	12,874	1402,842	763,670
-13,892	12,936	1401,878	763,400
-12,877	12,905	1401,133	762,822
-11,863	12,923	1400,123	762,324
-10,848	12,920	1399,252	761,806
-9,833	12,856	1398,641	761,147
-8,819	12,862	1397,461	760,499
-7,804	12,814	1396,827	759,904
-6,790	12,822	1395,768	759,334
-5,775	12,843	1394,545	758,734
-4,760	12,801	1393,564	757,978
-3,746	12,831	1392,740	757,639
-2,731	12,814	1392,057	757,161
-1,717	12,782	1391,119	756,473
-0,702	12,801	1389,305	755,539
0,313	16,737	1305,729	728,222
1,327	33,080	700,313	428,132
2,342	51,040	122,564	82,002
3,356	1,158	16,655	8,421
4,371	8,801	3,306	1,756
5,386	-4,692	0,626	0,304
6,400	-200,000	0,052	0,191
7,415	-44,891	-0,261	-0,091
8,429	102,438	-0,300	-0,248
9,444	20,782	-0,352	-0,201
10,459	-46,917	-0,299	-0,103
11,473	167,776	-0,246	-0,247
12,488	408,776	-0,152	-0,227
13,502	45,570	-0,220	-0,143
14,517	79,808	-0,491	-0,372
15,531	142,287	-0,362	-0,339
16,546	243,727	-0,277	-0,328
17,561	353,753	-0,296	-0,416
18,575	51,533	-0,239	-0,160
19,590	75,585	-0,374	-0,279
20,604	65,789	-0,257	-0,184
21,619	300,894	-0,336	-0,439
22,634	102,918	-0,448	-0,370
23,648	103,104	-0,377	-0,312
24,663	174,345	-0,449	-0,459
25,677	174,445	-0,257	-0,262
26,692	-21,446	-0,390	-0,167
27,707	89,696	-0,375	-0,295
28,721	54,123	-0,436	-0,295
29,736	63,620	-0,435	-0,308
30,750	152,258	-0,281	-0,270
31,765	80,073	-0,396	-0,300
32,780	-23,031	-0,410	-0,173
33,794	-21,870	-0,370	-0,158
34,809	116,925	-0,273	-0,236
35,823	34,984	-0,421	-0,259
36,838	113,676	-0,426	-0,364
37,853	47,816	-0,325	-0,214
38,867	182,099	-0,409	-0,425
39,882	389,716	-0,260	-0,381
40,896	54,580	-0,308	-0,209
41,911	511,580	-0,194	-0,319
42,926	36,955	-0,295	-0,183
43,940	259,291	-0,259	-0,315
44,955	168,075	-0,308	-0,309
45,969	44,133	-0,405	-0,261
46,984	67,672	-0,218	-0,157
47,999	-77,449	-0,297	-0,072
49,013	93,450	-0,292	-0,233
50,028	41,144	-0,457	-0,290
51,042	255,758	-0,352	-0,426
52,057	286,897	-0,267	-0,340
53,071	50,116	-0,476	-0,316
54,086	150,375	-0,332	-0,317
55,101	43,334	-0,333	-0,213
56,115	116,894	-0,296	-0,255
57,130	86,164	-0,332	-0,257
58,144	-71,134	-0,301	-0,079
59,159	12,922	-0,370	-0,201
60,174	218,085	-0,402	-0,451
61,188	17,194	-0,335	-0,187
62,203	160,377	-0,229	-0,225
63,217	42,161	-0,215	-0,137
64,232	29,432	-0,431	-0,257
65,247	53,382	-0,432	-0,291
66,261	33,808	-0,370	-0,226
67,276	199,643	-0,247	-0,267
68,290	66,381	-0,245	-0,175
69,305	0,772	-0,311	-0,156
70,320	55,419	-0,291	-0,198
71,334	-17,080	-0,366	-0,162
72,349	72,404	-0,342	-0,250
73,363	167,471	-0,336	-0,336
74,378	60,494	-0,364	-0,253
75,393	95,802	-0,300	-0,241
76,407	800,000	-0,171	-0,401
77,422	162,959	-0,213	-0,210
78,436	114,844	-0,329	-0,281
79,451	29,174	-0,332	-0,198
80,466	-2,080	-0,370	-0,182
81,480	49,816	-0,298	-0,197
82,495	3,426	-0,370	-0,189
83,509	97,549	-0,131	-0,106
84,524	-33,350	-0,263	-0,102
85,539	120,906	-0,201	-0,176
86,553	9,883	-0,295	-0,157
87,568	2,914	-0,447	-0,227
88,582	128,726	-0,206	-0,184
89,597	4,743	-0,297	-0,152
90,611	14,149	-0,249	-0,135
91,626	-200,000	-0,024	-0,133
92,641	-63,060	-0,319	-0,092
93,655	-58,683	-0,210	-0,064
94,670	-63,470	-0,225	-0,064
95,684	-54,060	-0,355	-0,113
96,699	36,452	-0,329	-0,203
97,714	142,993	-0,216	-0,202
98,728	201,922	-0,283	-0,306
99,743	70,409	-0,286	-0,207
100,757	-126,130	-0,315	-0,033
101,772	-31,440	-0,402	-0,158
102,787	96,067	-0,469	-0,375
103,801	205,808	-0,212	-0,232
104,816	-131,497	-0,298	-0,027
105,830	54,153	-0,316	-0,213
106,845	13,753	-0,274	-0,149
107,860	112,551	-0,259	-0,220
108,874	15,892	-0,351	-0,193
109,889	5,596	-0,295	-0,152
110,903	135,538	-0,357	-0,325
111,918	800,000	-0,148	-0,327
112,933	263,442	-0,212	-0,258
113,947	140,326	-0,190	-0,176
114,962	-153,240	-0,246	0,012
115,976	125,182	-0,182	-0,160
116,991	-0,090	-0,226	-0,112
118,006	133,143	-0,236	-0,214
119,020	57,844	-0,197	-0,135
120,035	188,190	-0,115	-0,121
121,049	-200,000	-0,077	-0,263
122,064	28,384	-0,273	-0,161
123,079	25,215	-0,191	-0,111
124,093	48,950	-0,326	-0,214
125,108	800,000	-0,111	-0,219
126,122	-118,015	-0,094	-0,012
127,137	-25,201	-0,345	-0,142
128,151	-119,763	-0,193	-0,023
129,166	800,000	-0,127	-0,297
130,181	98,935	-0,280	-0,226
131,195	-18,281	-0,326	-0,142
132,210	479,335	-0,203	-0,323
133,224	26,842	-0,199	-0,116
134,239	298,214	-0,200	-0,257
135,254	17,049	-0,339	-0,187
136,268	-47,751	-0,237	-0,080
137,283	-110,082	-0,227	-0,033
138,297	291,499	-0,214	-0,273
139,312	113,651	-0,201	-0,170
140,327	36,003	-0,379	-0,233
141,341	52,222	-0,256	-0,170
142,356	125,520	-0,278	-0,245
143,370	-14,772	-0,319	-0,143
144,385	224,653	-0,163	-0,185
145,400	147,110	-0,177	-0,167
146,414	89,289	-0,299	-0,232
147,429	152,656	-0,218	-0,208
148,443	360,940	-0,216	-0,302
149,458	398,568	-0,171	-0,251
150,473	313,909	-0,165	-0,218
151,487	66,280	-0,212	-0,150
152,502	-200,000	-0,029	-0,267
153,516	64,309	-0,314	-0,220
154,531	-68,944	-0,251	-0,067
155,546	-1,816	-0,163	-0,080
156,560	221,558	-0,113	-0,127
157,575	-42,522	-0,203	-0,072
158,589	90,411	-0,111	-0,086
159,604	55,977	-0,345	-0,233
160,619	131,471	-0,281	-0,252
161,633	207,273	-0,301	-0,327
162,648	-113,242	-0,127	0,017
163,662	295,520	-0,210	-0,269
164,677	38,883	-0,132	-0,082
165,692	-22,289	-0,191	-0,080
166,706	593,344	-0,188	-0,324
167,721	8,675	-0,306	-0,160
168,735	-12,012	-0,222	-0,101
169,750	317,076	-0,193	-0,255
170,764	-122,746	-0,252	-0,028
171,779	-2,369	-0,238	-0,116
172,794	3,448	-0,178	-0,090
173,808	2,924	-0,226	-0,114
174,823	167,418	-0,284	-0,281
175,837	-22,595	-0,279	-0,117
176,852	167,812	-0,287	-0,284
177,867	235,152	-0,099	-0,114
178,881	-28,619	-0,349	-0,139
179,896	-41,427	-0,233	-0,083
180,910	-162,638	-0,219	0,007
181,925	71,565	-0,208	-0,150
182,940	90,367	-0,117	-0,091
183,954	48,376	-0,303	-0,197
184,969	284,136	-0,166	-0,209
185,983	90,206	-0,179	-0,139
186,998	165,976	-0,196	-0,193
188,013	-62,141	-0,285	-0,082
189,027	-5,443	-0,251	-0,119
190,042	124,074	-0,202	-0,176
191,056	-27,196	-0,209	-0,084
192,071	8,531	-0,281	-0,147
193,086	800,000	-0,079	-0,209
194,100	-37,324	-0,224	-0,083
195,115	25,216	-0,334	-0,192
196,129	136,179	-0,230	-0,208
197,144	-152,519	-0,168	-0,008
198,159	170,096	-0,112	-0,112
199,173	240,383	-0,075	-0,087
200,188	20,995	-0,187	-0,105
201,202	-175,076	-0,235	-0,004
202,217	0,470	-0,200	-0,099
203,232	232,335	-0,190	-0,217
204,246	75,221	-0,278	-0,203
205,261	67,398	-0,226	-0,160
206,275	418,676	-0,129	-0,193
207,290	268,459	-0,163	-0,199
208,304	-200,000	-0,043	-0,147
209,319	52,592	-0,207	-0,137
210,334	223,267	-0,172	-0,193
211,348	-143,384	-0,286	-0,019
212,363	18,572	-0,225	-0,124
213,377	146,137	-0,105	-0,097
214,392	-23,487	-0,136	-0,056
215,407	170,704	-0,179	-0,178
216,421	89,950	-0,167	-0,129
217,436	-95,685	-0,235	-0,043
218,450	275,382	-0,149	-0,183
219,465	113,574	-0,283	-0,239
220,480	42,315	-0,282	-0,177
221,494	56,872	-0,099	-0,067
222,509	-51,218	-0,230	-0,074
223,523	31,916	-0,226	-0,135
224,538	738,025	0,039	-0,072
225,553	415,970	-0,176	-0,261
226,567	-18,210	-0,192	-0,083
227,582	110,111	-0,207	-0,172
228,596	-0,553	-0,276	-0,135
229,611	-200,000	-0,071	-0,224
230,626	-98,977	-0,185	-0,032
231,640	-171,482	-0,269	-0,006
232,655	727,252	-0,146	-0,271
233,669	214,598	-0,221	-0,243
234,684	556,272	-0,083	-0,139
235,699	246,367	-0,229	-0,268
236,713	170,259	-0,118	-0,117
237,728	176,579	-0,140	-0,141
238,742	800,000	-0,060	-0,179
239,757	800,000	-0,080	-0,240
240,772	14,881	-0,315	-0,170
241,786	20,308	-0,241	-0,135
242,801	-70,490	-0,208	0,054
243,815	185,557	-0,129	-0,133
244,830	26,911	-0,145	-0,084
245,844	-69,302	-0,108	-0,029
246,859	25,328	-0,200	-0,115
247,874	-10,667	-0,266	-0,121
248,888	105,554	-0,115	-0,094
249,903	-98,629	-0,261	-0,046
250,917	372,154	-0,086	-0,121
251,932	-109,048	-0,105	-0,015
252,947	-104,423	-0,153	0,024
253,961	-3,095	-0,143	-0,069
254,976	240,688	-0,182	-0,211
255,990	800,000	-0,138	-0,335
257,005	243,891	-0,128	-0,149
258,020	-16,768	-0,261	-0,114
259,034	35,769	-0,192	-0,117
260,049	310,463	-0,137	-0,178
261,063	317,899	-0,099	-0,129
262,078	100,246	-0,262	-0,210
263,093	139,808	-0,154	-0,140
264,107	239,759	-0,135	-0,156
265,122	42,853	-0,247	-0,155
266,136	-22,545	-0,196	-0,082
267,151	-171,631	-0,163	-0,004
268,166	361,584	-0,081	-0,113
269,180	-13,056	-0,198	-0,089
270,195	581,579	-0,143	-0,243
271,209	149,017	-0,118	-0,110
272,224	420,653	-0,118	-0,175
273,239	-106,696	-0,158	-0,024
274,253	94,772	-0,161	-0,126
275,268	742,535	-0,071	-0,133
276,282	-86,465	-0,191	-0,040
277,297	118,466	-0,175	-0,149
278,312	800,000	-0,102	-0,210
279,326	-1,678	-0,189	-0,092
280,341	-32,324	-0,155	-0,059
281,355	253,388	-0,127	-0,150
282,370	191,843	-0,152	-0,158
283,384	-56,780	-0,220	-0,067
284,399	-23,287	-0,180	-0,074
285,414	221,487	-0,111	-0,123
286,428	-34,118	-0,128	-0,048
287,443	-55,428	-0,211	0,065
288,457	-200,000	-0,044	-0,172
289,472	-200,000	-0,057	-0,322
290,487	-47,758	-0,251	-0,083
291,501	25,173	-0,269	-0,153
292,516	92,828	-0,228	-0,177
293,530	69,449	-0,158	-0,112
294,545	95,535	-0,129	-0,102
295,560	71,202	-0,070	-0,050
296,574	-95,104	-0,246	-0,045
297,589	70,917	-0,198	-0,141
298,603	13,520	-0,229	-0,122
299,618	-8,808	-0,230	-0,106
300,633	-68,755	-0,241	-0,064
301,647	-129,694	-0,116	-0,011
302,662	-13,003	-0,151	0,067
303,676	18,889	-0,124	-0,068
304,691	800,000	-0,081	-0,179
305,706	51,092	-0,045	-0,029
306,720	470,154	-0,086	-0,134
307,735	574,038	-0,128	-0,215
308,749	-63,869	-0,229	0,064
309,764	251,845	-0,088	-0,103
310,779	-0,831	-0,065	-0,031
311,793	210,276	-0,164	-0,177
312,808	800,000	-0,029	-0,083
313,822	285,053	-0,169	-0,210
314,837	109,214	-0,158	-0,130
315,852	95,173	-0,118	0,092
316,866	134,885	0,027	-0,024
317,881	131,824	-0,151	-0,134
318,895	-165,948	-0,090	-0,003
319,910	26,099	-0,096	-0,055
320,925	312,287	-0,135	-0,174
321,939	245,188	-0,143	-0,166
322,954	-165,327	-0,051	-0,002
323,968	-27,547	-0,147	-0,058
324,983	51,221	-0,082	-0,053
325,997	50,914	-0,203	-0,132
327,012	-200,000	-0,066	-0,213
328,027	167,666	-0,096	-0,094
329,041	-100,315	-0,256	-0,043
330,056	7,738	-0,081	-0,042
331,070	800,000	-0,040	-0,101
332,085	-34,784	-0,221	-0,083
333,100	-1,777	-0,174	-0,084
334,114	458,602	-0,055	-0,085
335,129	-88,569	-0,186	-0,038
336,143	511,175	-0,133	-0,213
337,158	98,785	-0,049	-0,039
338,173	-200,000	-0,027	-0,109
339,187	-143,204	-0,171	0,011
340,202	-106,129	-0,105	-0,016
341,216	-69,797	-0,198	-0,052
342,231	406,378	-0,182	-0,264
343,246	127,476	-0,158	-0,137
344,260	-78,978	-0,146	-0,034
345,275	-79,989	-0,149	0,034
346,289	-167,391	-0,173	0,005
347,304	13,749	-0,274	-0,146
348,319	424,237	-0,076	-0,113
349,333	421,472	-0,152	-0,225
350,348	800,000	-0,118	-0,266
351,362	800,000	-0,111	-0,289
352,377	-54,009	-0,163	0,051
353,392	-200,000	-0,011	-0,046
354,406	-192,349	-0,201	-0,001
355,421	207,202	1312,944	1404,846
356,435	159,383	1473,469	1405,359
