DTS Sentinel unit serial number:	SN410029Multiplexer serial number:	ORYXHardware model number:	OX2-SRSoftware version number:	ORYX F/W v4,00 Oryx Data Collector v3.7.2.0data status	okinstallation	B3 Nyhavnadifferential loss correction	single-endedforward channel	channel 1reverse channel	N/Adate	2023/11/29time	14:47:30forward acquisition time	300,00reverse acquisition time	0,00gamma	499,1914k internal	0,3211k external	0,3211temperature offset calibration	1,0000default loss term (dB/km)	0,3820temperature slope calibration	1,0000multiplexer offset coefficient	1,0000multiplexer slope coefficient	1,0000fibre end	0,00T internal ref (°C)	11,06T ext. ref 1 (°C)	-3,04T ext. ref 2 (°C)	-3,18length (m)	temperature (°C)	Stokes	anti-Stokes-744,400	259,237	-0,210	-0,263
-743,385	-200,000	-0,022	0,300
-742,371	-17,525	-0,285	-0,129
-741,356	-200,000	-0,047	0,371
-740,342	106,838	-0,138	-0,118
-739,327	-200,000	0,049	0,250
-738,312	442,080	-0,218	-0,348
-737,298	-200,000	-0,017	0,273
-736,283	-57,785	-0,115	0,036
-735,269	-200,000	0,016	0,347
-734,254	108,335	-0,223	-0,193
-733,239	71,621	-0,190	0,143
-732,225	757,206	-0,118	-0,233
-731,210	-200,000	-0,047	0,246
-730,196	20,685	0,041	-0,024
-729,181	800,000	0,018	0,043
-728,167	-200,000	0,002	-0,047
-727,152	800,000	0,015	-0,049
-726,137	20,114	-0,078	-0,046
-725,123	-169,862	-0,076	0,002
-724,108	189,930	0,061	-0,066
-723,094	212,288	0,085	-0,098
-722,079	-60,196	-0,131	0,040
-721,064	668,146	0,034	0,063
-720,050	58,057	-0,015	0,010
-719,035	-53,685	-0,065	0,021
-718,021	800,000	-0,033	-0,070
-717,006	37,228	-0,116	-0,074
-715,991	65,277	-0,132	0,096
-714,977	394,336	-0,047	0,071
-713,962	166,989	-0,034	0,035
-712,948	632,200	0,041	0,075
-711,933	694,299	0,064	0,123
-710,918	-0,026	-0,123	0,063
-709,904	-200,000	0,025	-0,109
-708,889	-200,000	0,015	0,087
-707,875	-200,000	-0,011	-0,072
-706,860	407,884	0,050	-0,076
-705,845	-38,719	0,070	0,027
-704,831	-200,000	0,005	-0,098
-703,816	305,047	0,029	0,039
-702,802	-42,067	-0,081	-0,030
-701,787	132,396	0,062	-0,058
-700,772	-64,725	-0,074	0,021
-699,758	-200,000	0,007	-0,067
-698,743	-87,814	-0,084	0,018
-697,729	-73,394	0,035	0,009
-696,714	25,101	0,080	-0,048
-695,699	-76,860	-0,145	-0,036
-694,685	-200,000	0,002	-0,067
-693,670	-133,667	-0,022	-0,002
-692,656	800,000	0,064	-0,131
-691,641	-200,000	0,006	0,032
-690,627	-89,230	0,082	0,017
-689,612	-140,435	-0,141	0,010
-688,597	78,246	-0,109	0,084
-687,583	-77,625	-0,009	-0,002
-686,568	146,182	-0,085	-0,082
-685,554	-138,833	0,131	-0,010
-684,539	17,635	0,047	-0,027
-683,524	58,373	-0,096	0,068
-682,510	523,719	-0,036	-0,061
-681,495	-96,154	0,142	-0,027
-680,481	-200,000	-0,012	-0,085
-679,466	64,974	-0,041	-0,030
-678,451	63,887	-0,024	-0,018
-677,437	182,811	-0,060	-0,065
-676,422	-200,000	0,001	0,004
-675,408	174,958	0,044	0,046
-674,393	-200,000	-0,010	-0,093
-673,378	216,946	0,106	-0,122
-672,364	-172,712	-0,161	-0,004
-671,349	544,600	0,074	-0,128
-670,335	-8,380	-0,059	0,028
-669,320	-200,000	-0,012	0,043
-668,305	800,000	0,034	0,090
-667,291	-69,358	-0,113	-0,031
-666,276	-200,000	0,008	0,044
-665,262	217,987	-0,045	-0,052
-664,247	22,026	-0,098	-0,057
-663,232	287,964	0,031	0,040
-662,218	722,749	-0,033	0,064
-661,203	453,717	-0,043	0,068
-660,189	-70,192	0,039	-0,011
-659,174	-66,814	-0,087	0,025
-658,159	-3,009	0,048	0,024
-657,145	-200,000	0,017	-0,083
-656,130	22,959	-0,081	-0,048
-655,116	-104,116	-0,104	0,017
-654,101	219,094	0,015	0,018
-653,086	-16,791	-0,068	-0,031
-652,072	-91,693	0,076	-0,016
-651,057	308,117	-0,116	-0,156
-650,043	-189,033	0,065	-0,001
-649,028	169,030	-0,128	-0,132
-648,014	-200,000	-0,022	0,088
-646,999	-200,000	-0,010	-0,048
-645,984	-200,000	0,021	-0,100
-644,970	273,703	0,028	-0,036
-643,955	-113,960	0,047	0,007
-642,941	727,778	-0,057	-0,110
-641,926	-200,000	0,016	-0,171
-640,911	-140,990	0,194	-0,014
-639,897	-200,000	-0,004	0,068
-638,882	-5,904	0,036	-0,018
-637,868	800,000	-0,033	-0,098
-636,853	-200,000	-0,007	-0,047
-635,838	-200,000	0,052	0,000
-634,824	800,000	0,008	-0,016
-633,809	-45,946	0,102	-0,036
-632,795	161,402	0,111	-0,112
-631,780	-3,960	0,030	0,015
-630,765	4,408	0,088	-0,046
-629,751	-200,000	0,003	-0,017
-628,736	-169,494	-0,038	-0,001
-627,722	-200,000	0,002	-0,045
-626,707	-49,592	0,128	0,044
-625,692	-200,000	-0,009	-0,163
-624,678	114,209	-0,049	0,043
-623,663	153,426	-0,043	-0,043
-622,649	101,598	-0,039	-0,033
-621,634	-23,492	0,063	-0,027
-620,619	460,672	-0,117	-0,189
-619,605	85,226	0,120	0,095
-618,590	-39,180	0,143	0,054
-617,576	800,000	-0,062	0,142
-616,561	-200,000	-0,032	0,129
-615,546	800,000	0,038	-0,107
-614,532	215,562	-0,066	-0,075
-613,517	349,356	-0,070	-0,100
-612,503	362,483	-0,024	-0,035
-611,488	-144,673	0,172	0,011
-610,474	312,194	-0,100	0,135
-609,459	60,298	-0,037	0,026
-608,444	27,916	-0,088	-0,053
-607,430	-200,000	0,026	-0,193
-606,415	-200,000	-0,004	-0,148
-605,401	80,654	0,048	0,037
-604,386	800,000	0,106	0,212
-603,371	256,342	-0,065	0,081
-602,357	346,974	0,062	-0,088
-601,342	352,523	-0,029	-0,042
-600,328	800,000	-0,039	-0,119
-599,313	316,876	0,107	-0,146
-598,298	460,739	-0,067	-0,108
-597,284	407,086	0,089	-0,136
-596,269	-200,000	-0,003	-0,115
-595,255	39,680	0,063	0,040
-594,240	800,000	-0,017	0,037
-593,225	25,809	-0,069	-0,041
-592,211	191,477	0,119	0,129
-591,196	800,000	-0,004	0,012
-590,182	-39,709	-0,029	0,011
-589,167	-39,501	0,137	0,051
-588,152	208,950	-0,019	-0,021
-587,138	57,161	-0,084	0,059
-586,123	55,892	-0,058	0,040
-585,109	800,000	-0,049	-0,112
-584,094	629,309	0,055	0,100
-583,079	800,000	-0,083	0,220
-582,065	-108,460	0,063	-0,010
-581,050	-200,000	-0,022	-0,115
-580,036	-200,000	0,020	-0,102
-579,021	-67,626	-0,039	-0,011
-578,006	400,430	-0,101	-0,154
-576,992	-200,000	0,016	-0,050
-575,977	-200,000	0,050	0,190
-574,963	329,074	0,059	0,082
-573,948	39,452	0,133	0,086
-572,934	-200,000	-0,017	-0,089
-571,919	-200,000	-0,013	-0,067
-570,904	176,913	-0,047	0,049
-569,890	353,606	0,034	-0,048
-568,875	-200,000	0,004	-0,040
-567,861	-200,000	-0,009	0,071
-566,846	-50,468	0,042	0,014
-565,831	430,994	-0,021	-0,032
-564,817	140,371	-0,097	-0,093
-563,802	87,199	-0,081	-0,064
-562,788	-200,000	0,001	-0,082
-561,773	-46,847	-0,005	-0,002
-560,758	-200,000	0,006	0,123
-559,744	119,591	0,041	0,037
-558,729	62,177	0,065	0,046
-557,715	-200,000	-0,017	-0,104
-556,700	-35,440	-0,179	-0,070
-555,685	111,397	0,048	0,042
-554,671	-200,000	-0,005	0,073
-553,656	-151,707	0,041	0,002
-552,642	-42,684	0,058	-0,021
-551,627	-56,407	-0,121	0,038
-550,612	-97,300	-0,106	0,020
-549,598	-194,589	-0,174	0,001
-548,583	170,592	0,040	0,041
-547,569	-200,000	0,029	0,194
-546,554	-200,000	0,011	0,148
-545,539	605,163	0,052	0,094
-544,525	47,403	-0,169	0,113
-543,510	-200,000	-0,001	0,098
-542,496	-14,468	-0,116	-0,053
-541,481	530,637	0,049	-0,084
-540,466	800,000	-0,040	0,086
-539,452	-14,461	0,046	0,021
-538,437	-200,000	0,009	0,125
-537,423	-200,000	0,008	0,075
-536,408	-200,000	-0,040	-0,182
-535,393	9,066	0,081	-0,044
-534,379	302,633	0,068	-0,091
-533,364	-41,664	-0,108	0,040
-532,350	-106,456	0,044	0,007
-531,335	800,000	0,052	0,161
-530,321	470,671	-0,048	0,078
-529,306	109,924	-0,086	-0,074
-528,291	-66,382	-0,039	-0,011
-527,277	800,000	-0,034	-0,075
-526,262	-157,265	-0,104	-0,004
-525,248	800,000	0,038	-0,086
-524,233	44,004	0,081	0,053
-523,218	-200,000	0,026	0,086
-522,204	457,017	-0,048	0,077
-521,189	-103,456	-0,081	-0,014
-520,175	489,148	-0,078	-0,128
-519,160	124,976	0,064	-0,058
-518,145	443,313	0,061	0,096
-517,131	-200,000	0,021	0,088
-516,116	-6,259	0,085	0,042
-515,102	-85,182	-0,103	0,023
-514,087	-200,000	-0,035	-0,134
-513,072	-200,000	0,016	-0,120
-512,058	800,000	-0,058	-0,149
-511,043	-48,997	-0,057	0,020
-510,029	32,244	-0,074	-0,045
-509,014	634,090	-0,045	0,083
-507,999	71,561	-0,032	-0,024
-506,985	-7,132	-0,119	-0,058
-505,970	-200,000	0,012	-0,169
-504,956	392,093	0,063	0,094
-503,941	217,937	-0,010	0,012
-502,926	-34,438	-0,039	0,015
-501,912	-20,293	0,126	0,055
-500,897	67,113	-0,069	0,050
-499,883	-2,603	0,022	0,011
-498,868	-200,000	-0,037	-0,141
-497,853	-200,000	0,026	-0,120
-496,839	82,989	0,072	0,057
-495,824	-85,914	0,052	-0,011
-494,810	-94,511	-0,107	-0,021
-493,795	216,464	0,045	0,051
-492,781	89,364	-0,120	0,096
-491,766	43,625	0,047	-0,031
-490,751	162,971	-0,063	-0,063
-489,737	800,000	0,028	0,061
-488,722	-145,456	0,092	0,006
-487,708	682,208	0,027	-0,052
-486,693	-67,352	0,099	0,028
-485,678	491,659	-0,075	-0,124
-484,664	-74,285	0,148	-0,038
-483,649	37,165	-0,026	0,017
-482,635	-200,000	-0,043	-0,175
-481,620	228,893	-0,029	-0,034
-480,605	800,000	-0,023	0,052
-479,591	-129,898	0,157	-0,015
-478,576	-175,969	-0,075	0,001
-477,562	2,515	-0,030	0,016
-476,547	-76,480	-0,049	-0,012
-475,532	800,000	-0,015	0,046
-474,518	-66,126	-0,030	-0,008
-473,503	800,000	-0,034	0,097
-472,489	-200,000	-0,012	0,050
-471,474	-200,000	0,011	0,140
-470,459	14,646	-0,110	0,061
-469,445	-200,000	-0,008	-0,150
-468,430	-39,806	0,064	-0,024
-467,416	-200,000	0,011	-0,060
-466,401	800,000	-0,011	0,025
-465,386	800,000	-0,038	0,113
-464,372	264,356	0,098	0,123
-463,357	-200,000	-0,023	-0,116
-462,343	-24,732	-0,153	-0,065
-461,328	-200,000	0,012	-0,052
-460,313	-113,619	0,052	-0,007
-459,299	800,000	0,077	0,176
-458,284	88,121	-0,125	-0,100
-457,270	658,295	0,029	-0,054
-456,255	-24,813	-0,165	0,070
-455,241	-166,594	-0,056	-0,002
-454,226	9,343	0,042	0,023
-453,211	-200,000	0,023	0,123
-452,197	1,482	0,046	-0,024
-451,182	800,000	0,052	-0,141
-450,168	-120,124	-0,090	-0,011
-449,153	17,703	-0,019	0,011
-448,138	-200,000	-0,029	-0,119
-447,124	-195,943	-0,085	0,000
-446,109	-75,135	0,096	0,024
-445,095	148,782	0,054	0,053
-444,080	-75,908	0,051	0,013
-443,065	30,960	-0,041	-0,025
-442,051	26,899	0,035	0,021
-441,036	-149,687	-0,171	-0,010
-440,022	165,864	-0,097	-0,099
-439,007	-200,000	-0,035	0,123
-437,992	-200,000	-0,027	-0,133
-436,978	-170,565	0,062	0,002
-435,963	-75,255	-0,027	0,007
-434,949	24,787	0,024	0,014
-433,934	50,022	0,039	-0,026
-432,919	-200,000	-0,006	-0,103
-431,905	-42,261	-0,166	-0,060
-430,890	-71,067	-0,037	0,010
-429,876	85,357	-0,055	0,044
-428,861	800,000	-0,040	0,127
-427,846	-200,000	0,011	0,163
-426,832	-200,000	0,005	0,097
-425,817	173,807	0,096	-0,099
-424,803	-200,000	-0,007	0,093
-423,788	-200,000	0,032	-0,142
-422,773	800,000	0,038	0,092
-421,759	-95,938	0,074	-0,014
-420,744	128,595	0,051	-0,046
-419,730	800,000	-0,077	0,162
-418,715	347,451	0,035	-0,050
-417,701	-20,705	0,037	0,016
-416,686	800,000	-0,024	-0,073
-415,671	40,790	0,059	-0,038
-414,657	452,376	0,036	0,057
-413,642	172,825	0,118	-0,122
-412,628	-12,960	-0,037	0,017
-411,613	-200,000	-0,012	-0,073
-410,598	215,165	-0,024	-0,027
-409,584	-200,000	-0,004	0,096
-408,569	-86,834	0,075	-0,016
-407,555	-200,000	-0,007	-0,137
-406,540	42,742	0,039	-0,025
-405,525	193,915	0,034	0,037
-404,511	33,578	-0,134	-0,083
-403,496	-54,279	0,098	0,032
-402,482	-200,000	-0,012	0,160
-401,467	-61,487	0,151	-0,045
-400,452	800,000	-0,037	0,084
-399,438	800,000	0,031	0,086
-398,423	-92,158	-0,067	-0,013
-397,409	265,164	-0,029	-0,036
-396,394	5,031	-0,050	0,026
-395,379	-23,826	-0,042	-0,018
-394,365	-54,459	-0,045	0,014
-393,350	-15,010	0,100	0,046
-392,336	723,025	0,047	0,090
-391,321	-200,000	-0,004	-0,030
-390,306	-200,000	0,013	0,044
-389,292	800,000	0,024	-0,054
-388,277	-116,155	0,116	-0,015
-387,263	-48,158	0,175	0,060
-386,248	-200,000	-0,032	0,109
-385,233	-16,680	-0,103	0,046
-384,219	-200,000	0,022	0,147
-383,204	-200,000	-0,001	-0,018
-382,190	-163,343	0,016	-0,001
-381,175	188,906	-0,024	0,026
-380,160	61,536	0,074	0,053
-379,146	246,013	0,037	-0,044
-378,131	744,741	0,030	-0,058
-377,117	800,000	-0,020	0,043
-376,102	306,394	0,038	0,051
-375,088	-200,000	-0,010	-0,069
-374,073	-157,870	0,169	0,007
-373,058	-200,000	0,020	-0,090
-372,044	-131,913	0,049	-0,005
-371,029	-44,021	-0,045	0,016
-370,015	785,616	0,038	0,074
-369,000	66,836	0,069	0,050
-367,985	136,438	0,092	0,086
-366,971	800,000	-0,023	-0,069
-365,956	16,666	0,114	-0,064
-364,942	-90,392	0,060	-0,012
-363,927	54,742	0,185	-0,127
-362,912	-100,257	0,165	-0,029
-361,898	-93,360	-0,095	-0,019
-360,883	139,554	-0,122	-0,115
-359,869	-24,411	-0,054	0,023
-358,854	12,833	0,038	-0,021
-357,839	177,395	0,077	0,080
-356,825	-68,348	0,064	-0,018
-355,810	-59,438	0,064	0,020
-354,796	248,642	0,050	-0,061
-353,781	-27,722	-0,124	-0,051
-352,766	-21,347	-0,082	0,036
-351,752	-41,607	0,079	0,029
-350,737	105,495	0,068	0,057
-349,723	78,089	0,048	0,036
-348,708	107,420	0,024	-0,021
-347,693	-200,000	-0,000	-0,021
-346,679	20,762	0,069	0,040
-345,664	-200,000	-0,009	-0,059
-344,650	-200,000	0,036	0,000
-343,635	-200,000	0,012	-0,053
-342,620	69,423	0,119	0,088
-341,606	-200,000	0,033	-0,147
-340,591	-87,072	-0,049	0,010
-339,577	-48,509	-0,100	-0,034
-338,562	120,045	0,018	0,016
-337,548	-24,814	0,086	0,036
-336,533	156,969	-0,024	0,024
-335,518	61,671	0,118	-0,083
-334,504	171,221	-0,173	0,177
-333,489	6,777	-0,056	-0,030
-332,475	-173,894	-0,121	-0,002
-331,460	296,564	-0,078	-0,102
-330,445	-65,517	0,107	0,031
-329,431	192,059	-0,030	0,032
-328,416	-200,000	0,022	0,073
-327,402	-88,432	-0,085	-0,018
-326,387	-200,000	0,005	0,098
-325,372	60,534	-0,034	-0,024
-324,358	-200,000	0,015	-0,053
-323,343	-200,000	0,035	-0,129
-322,329	800,000	-0,043	-0,103
-321,314	24,513	-0,134	0,079
-320,299	800,000	0,016	0,045
-319,285	-141,594	-0,015	-0,001
-318,270	184,013	-0,077	-0,081
-317,256	-200,000	-0,030	0,126
-316,241	-200,000	-0,026	-0,109
-315,226	-106,035	-0,053	0,008
-314,212	341,160	0,006	0,009
-313,197	-200,000	0,004	0,122
-312,183	-200,000	-0,032	-0,117
-311,168	-99,126	0,072	-0,013
-310,153	73,363	-0,029	-0,021
-309,139	-200,000	-0,022	-0,129
-308,124	800,000	-0,040	-0,126
-307,110	-97,601	-0,075	0,014
-306,095	-200,000	0,017	0,109
-305,080	682,984	-0,041	0,076
-304,066	-45,412	0,026	-0,009
-303,051	75,442	-0,063	-0,048
-302,037	-41,593	-0,038	0,014
-301,022	-120,649	0,114	0,014
-300,008	-200,000	-0,025	0,120
-298,993	174,409	-0,073	0,076
-297,978	182,936	0,036	-0,038
-296,964	-135,552	0,065	-0,005
-295,949	179,803	-0,087	0,091
-294,935	-33,459	-0,187	-0,073
-293,920	222,658	0,064	-0,074
-292,905	-193,115	0,054	-0,000
-291,891	704,145	0,050	-0,095
-290,876	-35,617	-0,090	-0,035
-289,862	-81,300	-0,139	0,032
-288,847	122,177	0,097	-0,086
-287,832	335,695	-0,041	0,056
-286,818	-200,000	0,049	0,163
-285,803	75,936	0,118	0,089
-284,789	-16,083	-0,039	-0,018
-283,774	-200,000	0,009	-0,117
-282,759	-200,000	-0,001	0,058
-281,745	-179,538	-0,107	-0,002
-280,730	501,862	0,056	-0,093
-279,716	800,000	-0,065	0,137
-278,701	-200,000	-0,029	0,193
-277,686	800,000	-0,072	0,164
-276,672	531,409	0,041	0,069
-275,657	800,000	0,019	0,060
-274,643	352,118	-0,073	-0,103
-273,628	42,949	0,115	-0,075
-272,613	383,217	0,053	0,078
-271,599	-111,497	0,117	0,017
-270,584	-116,508	-0,142	0,018
-269,570	800,000	0,035	0,075
-268,555	-159,803	0,107	0,004
-267,540	-73,956	0,077	-0,020
-266,526	-42,844	-0,139	-0,050
-265,511	399,646	-0,087	-0,130
-264,497	525,437	0,058	0,097
-263,482	-200,000	0,022	0,145
-262,467	-116,243	0,106	0,014
-261,453	800,000	-0,031	0,062
-260,438	-153,037	0,107	0,005
-259,424	800,000	-0,040	-0,083
-258,409	-200,000	-0,013	-0,066
-257,395	252,507	0,064	-0,078
-256,380	-133,890	0,157	-0,014
-255,365	-115,249	0,044	0,006
-254,351	800,000	0,026	-0,060
-253,336	-6,643	0,077	-0,037
-252,322	359,831	-0,041	-0,058
-251,307	-38,818	0,084	-0,031
-250,292	800,000	0,071	-0,152
-249,278	103,204	0,055	-0,045
-248,263	110,306	-0,021	-0,018
-247,249	800,000	-0,054	-0,143
-246,234	800,000	0,069	-0,174
-245,219	666,254	-0,093	-0,171
-244,205	-200,000	-0,029	0,121
-243,190	640,816	0,044	0,079
-242,176	-200,000	0,043	-0,190
-241,161	-47,296	0,119	-0,041
-240,146	-200,000	0,027	0,107
-239,132	-62,784	-0,212	-0,062
-238,117	20,088	-0,044	0,025
-237,103	-75,862	-0,054	0,013
-236,088	416,327	-0,016	-0,024
-235,073	-200,000	0,022	0,230
-234,059	296,907	0,072	0,094
-233,044	-146,851	-0,091	0,005
-232,030	-54,318	-0,100	-0,032
-231,015	-200,000	0,011	-0,060
-230,000	166,688	-0,157	-0,159
-228,986	296,016	-0,062	0,081
-227,971	523,581	0,032	0,053
-226,957	219,242	0,103	0,117
-225,942	384,173	0,024	0,035
-224,927	81,998	-0,046	-0,036
-223,913	124,852	0,111	0,100
-222,898	-11,880	-0,113	0,052
-221,884	-127,000	-0,075	0,008
-220,869	-200,000	-0,016	0,160
-219,855	53,343	-0,069	0,047
-218,840	276,894	0,075	-0,095
-217,825	800,000	-0,010	0,020
-216,811	-200,000	0,047	-0,154
-215,796	769,602	0,028	-0,054
-214,782	19,626	0,067	-0,038
-213,767	371,157	0,076	-0,110
-212,752	-88,650	0,198	0,041
-211,738	-15,788	0,057	0,025
-210,723	-187,398	0,140	-0,001
-209,709	-200,000	-0,025	-0,126
-208,694	-141,623	-0,196	-0,014
-207,679	-25,069	-0,103	-0,043
-206,665	-103,081	0,205	-0,034
-205,650	581,282	0,058	0,101
-204,636	-90,666	-0,181	-0,037
-203,621	593,566	-0,047	0,083
-202,606	364,995	-0,030	-0,043
-201,592	-20,617	-0,132	-0,057
-200,577	-150,865	-0,066	-0,003
-199,563	-200,000	-0,001	0,098
-198,548	800,000	0,026	0,075
-197,533	508,756	-0,023	0,038
-196,519	-74,586	0,038	-0,010
-195,504	-200,000	0,028	0,095
-194,490	-75,973	0,095	-0,024
-193,475	-200,000	0,014	-0,081
-192,460	-81,515	-0,079	0,018
-191,446	96,810	-0,061	0,050
-190,431	800,000	0,014	0,033
-189,417	-200,000	0,009	-0,058
-188,402	-22,117	-0,013	-0,006
-187,387	-100,732	-0,082	0,014
-186,373	-200,000	0,013	0,077
-185,358	190,348	-0,015	-0,016
-184,344	-200,000	-0,011	0,092
-183,329	-200,000	0,001	0,083
-182,315	-157,133	-0,097	0,004
-181,300	-130,119	-0,011	0,001
-180,285	-200,000	-0,011	0,042
-179,271	197,970	-0,098	-0,106
-178,256	-200,000	-0,032	0,144
-177,242	-200,000	-0,009	0,069
-176,227	761,073	0,119	0,230
-175,212	367,992	0,111	0,160
-174,198	-200,000	0,010	0,105
-173,183	-35,688	0,102	-0,039
-172,169	800,000	-0,024	-0,059
-171,154	-71,010	-0,074	-0,020
-170,139	330,935	0,078	0,106
-169,125	45,679	0,142	0,093
-168,110	800,000	-0,021	0,051
-167,096	56,349	0,106	-0,073
-166,081	23,814	-0,069	-0,040
-165,066	587,918	-0,019	-0,034
-164,052	-200,000	-0,021	0,068
-163,037	385,029	-0,071	0,104
-162,023	-143,247	-0,035	0,002
-161,008	-148,149	-0,069	0,004
-159,993	328,210	-0,081	0,110
-158,979	-135,882	-0,166	0,014
-157,964	644,354	0,058	-0,105
-156,950	590,511	-0,021	0,037
-155,935	136,652	0,016	-0,015
-154,920	101,669	-0,067	-0,055
-153,906	-200,000	-0,012	-0,041
-152,891	-200,000	-0,015	0,151
-151,877	-200,000	-0,013	0,048
-150,862	-200,000	0,011	0,061
-149,847	-102,758	-0,165	0,028
-148,833	159,501	0,010	-0,010
-147,818	114,786	0,052	-0,045
-146,804	772,186	-0,046	0,089
-145,789	800,000	-0,092	0,202
-144,775	-2,521	-0,023	-0,012
-143,760	800,000	0,042	-0,085
-142,745	800,000	0,035	-0,110
-141,731	21,965	-0,048	-0,028
-140,716	-96,967	0,196	-0,036
-139,702	-103,832	0,090	-0,015
-138,687	222,468	0,004	-0,004
-137,672	-77,000	0,081	-0,020
-136,658	-73,133	-0,140	0,036
-135,643	-104,349	-0,133	-0,022
-134,629	172,654	-0,136	-0,139
-133,614	-83,191	0,136	-0,031
-132,599	-200,000	-0,001	0,078
-131,585	64,217	0,148	-0,106
-130,570	-200,000	0,015	-0,073
-129,556	67,427	-0,095	0,069
-128,541	-88,270	-0,039	0,008
-127,526	78,622	0,047	-0,036
-126,512	-141,754	0,094	0,007
-125,497	55,755	0,136	0,093
-124,483	800,000	0,026	0,052
-123,468	380,875	0,053	0,077
-122,453	800,000	-0,015	-0,044
-121,439	-140,427	-0,171	-0,012
-120,424	800,000	0,009	0,024
-119,410	123,486	-0,025	0,022
-118,395	303,957	-0,024	0,031
-117,380	-55,589	0,071	0,022
-116,366	-58,958	0,164	0,050
-115,351	110,982	-0,043	-0,036
-114,337	34,308	-0,036	-0,022
-113,322	66,283	-0,021	0,015
-112,307	31,097	-0,034	0,021
-111,293	292,184	0,118	0,152
-110,278	207,787	0,078	0,086
-109,264	-63,527	-0,089	0,026
-108,249	-105,837	0,144	-0,023
-107,234	-46,327	-0,123	-0,043
-106,220	-152,671	-0,152	0,008
-105,205	131,170	0,131	0,119
-104,191	147,268	0,037	-0,035
-103,176	30,122	0,138	-0,083
-102,162	125,796	-0,124	-0,111
-101,147	-63,313	-0,056	0,016
-100,132	-52,360	-0,141	0,046
-99,118	-200,000	0,003	-0,114
-98,103	-200,000	0,016	-0,127
-97,089	-82,206	0,051	0,012
-96,074	-200,000	0,029	0,240
-95,059	-200,000	-0,033	0,155
-94,045	483,831	-0,069	0,111
-93,030	234,448	-0,118	-0,137
-92,016	-189,710	0,111	-0,001
-91,001	-85,064	-0,060	0,013
-89,986	-106,592	0,055	0,009
-88,972	800,000	0,022	-0,067
-87,957	87,751	-0,073	0,057
-86,943	29,800	0,075	0,045
-85,928	597,198	0,083	0,145
-84,913	800,000	0,053	-0,151
-83,899	247,540	0,092	-0,110
-82,884	-200,000	-0,034	0,138
-81,870	-200,000	0,033	0,132
-80,855	-200,000	-0,027	0,087
-79,840	800,000	-0,036	-0,071
-78,826	-200,000	0,011	-0,035
-77,811	800,000	0,012	0,034
-76,797	-35,494	0,110	-0,042
-75,782	-200,000	0,003	-0,027
-74,767	-200,000	0,019	0,076
-73,753	-200,000	-0,050	0,171
-72,738	-50,101	-0,053	0,018
-71,724	-64,668	-0,131	-0,037
-70,709	-200,000	-0,012	0,161
-69,694	-87,358	0,097	0,021
-68,680	206,585	0,049	-0,054
-67,665	59,592	-0,121	-0,084
-66,651	121,201	-0,111	-0,097
-65,636	-45,195	-0,069	0,024
-64,622	-38,501	0,079	-0,029
-63,607	-200,000	-0,019	-0,090
-62,592	-95,655	-0,086	0,016
-61,578	14,336	0,175	0,096
-60,563	-200,000	-0,005	0,126
-59,549	-200,000	-0,001	0,077
-58,534	-6,346	-1,764	-0,846
-57,519	550,591	-1,226	-2,084
-56,505	-200,000	-0,432	-4,410
-55,490	386,223	0,854	1,248
-54,476	800,000	5,073	11,517
-53,461	-200,000	20,681	327,274
-52,446	800,000	755,058	2316,029
-51,432	551,092	1660,151	2822,876
-50,417	73,627	1663,274	1228,406
-49,403	18,887	1536,415	866,335
-48,388	12,892	1459,278	793,848
-47,373	18,860	1449,682	817,231
-46,359	15,919	1438,949	797,165
-45,344	11,192	1435,016	772,456
-44,330	11,070	1432,895	770,705
-43,315	11,085	1431,077	769,765
-42,300	11,110	1429,519	769,014
-41,286	11,135	1428,110	768,345
-40,271	11,092	1426,872	767,447
-39,257	11,090	1425,569	766,706
-38,242	11,112	1424,427	766,163
-37,227	11,105	1423,371	765,535
-36,213	11,121	1422,115	764,905
-35,198	11,120	1421,181	764,364
-34,184	11,171	1420,241	764,071
-33,169	11,112	1418,707	762,936
-32,154	11,156	1417,740	762,592
-31,140	11,154	1416,495	761,885
-30,125	11,239	1415,209	761,564
-29,111	11,163	1414,360	760,719
-28,096	11,161	1413,015	759,956
-27,082	11,124	1411,955	759,179
-26,067	11,086	1410,903	758,408
-25,052	11,118	1409,788	757,929
-24,038	11,110	1408,795	757,326
-23,023	11,142	1407,672	756,842
-22,009	11,101	1406,812	756,157
-20,994	11,109	1405,791	755,615
-19,979	11,094	1404,884	755,028
-18,965	11,074	1403,874	754,365
-17,950	11,025	1403,146	753,714
-16,936	11,010	1402,402	753,215
-15,921	11,005	1401,330	752,586
-14,906	10,976	1400,402	751,925
-13,892	10,989	1399,382	751,405
-12,877	10,990	1398,645	750,982
-11,863	11,019	1397,786	750,626
-10,848	10,974	1396,830	749,877
-9,833	10,908	1396,018	749,106
-8,819	10,896	1395,152	748,557
-7,804	10,876	1394,099	747,867
-6,790	10,907	1393,187	747,492
-5,775	10,913	1392,162	746,940
-4,760	10,959	1391,007	746,500
-3,746	10,916	1390,200	745,843
-2,731	10,926	1389,378	745,415
-1,717	10,887	1388,732	744,859
-0,702	10,897	1386,935	743,915
0,313	14,867	1301,076	716,055
1,327	31,157	693,176	418,545
2,342	48,589	120,241	79,344
3,356	-0,032	16,490	8,255
4,371	3,768	3,551	1,822
5,386	5,004	0,802	0,415
6,400	-200,000	0,152	0,477
7,415	-121,337	-0,325	0,038
8,429	-67,671	-0,341	-0,093
9,444	41,242	-0,269	-0,171
10,459	248,698	-0,273	-0,326
11,473	60,341	-0,316	-0,220
12,488	131,316	-0,255	-0,231
13,502	-35,233	-0,321	-0,123
14,517	68,784	-0,289	-0,209
15,531	231,896	-0,235	-0,273
16,546	139,642	-0,173	-0,161
17,561	-85,012	-0,290	-0,064
18,575	-99,112	-0,224	0,040
19,590	469,605	-0,281	-0,446
20,604	-7,474	-0,141	-0,067
21,619	-15,420	-0,560	-0,251
22,634	282,677	-0,314	-0,398
23,648	95,630	-0,387	-0,311
24,663	97,055	-0,432	-0,348
25,677	48,837	-0,410	-0,270
26,692	-53,003	-0,437	-0,141
27,707	-38,410	-0,359	-0,133
28,721	90,589	-0,345	-0,271
29,736	11,457	-0,362	-0,194
30,750	25,829	-0,346	-0,202
31,765	78,815	-0,381	-0,286
32,780	11,361	-0,398	-0,214
33,794	49,510	-0,349	-0,231
34,809	-10,728	-0,402	-0,186
35,823	134,789	-0,354	-0,323
36,838	98,025	-0,393	-0,318
37,853	96,295	-0,344	-0,277
38,867	45,877	-0,350	-0,227
39,882	54,769	-0,318	-0,215
40,896	38,723	-0,401	-0,251
41,911	-51,410	-0,341	-0,111
42,926	66,082	-0,285	-0,203
43,940	115,688	-0,354	-0,304
44,955	-45,579	-0,421	-0,146
45,969	-3,252	-0,410	-0,200
46,984	84,899	-0,314	-0,241
47,999	19,199	-0,356	-0,200
49,013	-17,557	-0,285	-0,125
50,028	21,168	-0,399	-0,227
51,042	195,282	-0,336	-0,359
52,057	278,785	-0,253	-0,318
53,071	143,142	-0,306	-0,286
54,086	223,891	-0,255	-0,290
55,101	185,087	-0,286	-0,298
56,115	179,115	-0,344	-0,354
57,130	5,275	-0,327	-0,169
58,144	24,540	-0,282	-0,163
59,159	22,319	-0,454	-0,259
60,174	62,659	-0,338	-0,237
61,188	59,128	-0,231	-0,159
62,203	64,818	-0,268	-0,189
63,217	8,268	-0,389	-0,204
64,232	166,618	-0,253	-0,252
65,247	-33,420	-0,502	-0,194
66,261	-5,294	-0,416	-0,200
67,276	96,541	-0,294	-0,236
68,290	100,853	-0,316	-0,257
69,305	219,891	-0,239	-0,269
70,320	159,109	-0,269	-0,262
71,334	-98,257	-0,477	-0,085
72,349	183,786	-0,223	-0,231
73,363	262,548	-0,230	-0,280
74,378	120,515	-0,251	-0,219
75,393	142,151	-0,331	-0,308
76,407	16,485	-0,370	-0,204
77,422	2,465	-0,276	-0,140
78,436	-46,982	-0,307	-0,105
79,451	24,441	-0,227	-0,131
80,466	105,347	-0,311	-0,257
81,480	104,964	-0,384	-0,317
82,495	-12,702	-0,285	-0,130
83,509	-107,951	-0,226	-0,034
84,524	-187,021	-0,194	0,002
85,539	-95,737	-0,299	-0,055
86,553	71,456	-0,286	-0,208
87,568	-70,021	-0,405	-0,107
88,582	149,412	-0,211	-0,200
89,597	-13,383	-0,326	-0,147
90,611	44,722	-0,246	-0,158
91,626	224,423	-0,273	-0,309
92,641	-34,353	-0,260	-0,099
93,655	-14,449	-0,315	-0,141
94,670	233,644	-0,241	-0,278
95,684	165,201	-0,239	-0,236
96,699	622,822	-0,221	-0,390
97,714	39,030	-0,307	-0,191
98,728	-51,880	-0,258	-0,083
99,743	41,593	-0,228	-0,144
100,757	199,873	-0,196	-0,210
101,772	276,124	-0,176	-0,219
102,787	18,310	-0,238	-0,132
103,801	41,202	-0,439	-0,277
104,816	624,480	-0,159	-0,281
105,830	-49,356	-0,325	-0,108
106,845	-31,270	-0,263	-0,103
107,860	58,313	-0,234	-0,160
108,874	214,038	-0,230	-0,254
109,889	354,372	-0,139	-0,193
110,903	-24,274	-0,257	-0,106
111,918	-67,292	-0,242	-0,066
112,933	-79,027	-0,162	-0,038
113,947	82,088	-0,247	-0,187
114,962	-184,458	-0,313	-0,003
115,976	93,641	-0,158	-0,125
116,991	116,888	-0,320	-0,274
118,006	-28,099	-0,372	-0,149
119,020	28,278	-0,296	-0,174
120,035	152,293	-0,213	-0,203
121,049	60,234	-0,205	-0,141
122,064	632,839	-0,132	-0,235
123,079	192,179	-0,248	-0,261
124,093	-2,354	-0,368	-0,179
125,108	-69,287	-0,180	-0,048
126,122	52,409	-0,241	-0,160
127,137	501,739	-0,143	-0,231
128,151	-50,686	-0,291	-0,095
129,166	-111,408	-0,140	0,020
130,181	72,728	-0,175	-0,127
131,195	299,186	-0,155	-0,199
132,210	192,705	-0,285	-0,301
133,224	460,770	-0,175	-0,273
134,239	18,746	-0,221	-0,123
135,254	-200,000	0,013	-0,045
136,268	325,687	-0,129	-0,173
137,283	0,173	-0,244	-0,121
138,297	81,290	-0,225	-0,169
139,312	-104,226	-0,367	-0,059
140,327	48,125	-0,223	-0,145
141,341	-86,729	-0,260	-0,055
142,356	93,491	-0,297	-0,234
143,370	251,602	-0,179	-0,213
144,385	31,847	-0,259	-0,155
145,400	1,314	-0,330	-0,164
146,414	-77,877	-0,249	-0,060
147,429	-200,000	-0,114	-0,476
148,443	90,795	-0,253	-0,197
149,458	211,891	-0,162	-0,178
150,473	134,691	-0,139	-0,126
151,487	-190,787	-0,258	-0,002
152,502	200,265	-0,209	-0,224
153,516	6,349	-0,270	-0,139
154,531	800,000	-0,094	-0,196
155,546	12,640	-0,296	-0,158
156,560	419,413	-0,119	-0,178
157,575	309,087	-0,171	-0,223
158,589	-15,262	-0,151	0,067
159,604	-7,355	-0,323	-0,152
160,619	104,912	-0,262	-0,214
161,633	272,010	-0,158	-0,194
162,648	79,771	-0,197	-0,147
163,662	172,580	-0,227	-0,227
164,677	-139,078	-0,188	0,014
165,692	800,000	-0,116	-0,227
166,706	211,853	-0,197	-0,216
167,721	67,806	-0,187	-0,133
168,735	10,013	-0,320	-0,169
169,750	-55,054	-0,302	-0,094
170,764	318,704	-0,086	-0,113
171,779	-193,312	-0,258	-0,002
172,794	130,801	-0,177	-0,158
173,808	60,988	-0,295	-0,203
174,823	1,008	-0,354	-0,176
175,837	150,354	-0,176	-0,167
176,852	73,976	-0,166	-0,121
177,867	136,162	-0,180	-0,163
178,881	-143,444	-0,165	-0,011
179,896	-200,000	-0,053	-0,175
180,910	603,048	-0,163	-0,282
181,925	-75,177	-0,196	-0,048
182,940	800,000	-0,128	-0,250
183,954	180,489	-0,166	-0,170
184,969	221,658	-0,164	-0,183
185,983	108,274	-0,177	0,147
186,998	117,641	-0,274	-0,234
188,013	454,256	-0,138	-0,213
189,027	282,725	-0,181	-0,226
190,042	42,945	-0,338	-0,213
191,056	-118,497	-0,274	-0,033
192,071	49,288	-0,267	-0,174
193,086	549,214	-0,079	-0,132
194,100	-11,762	-0,208	-0,095
195,115	50,746	-0,215	-0,141
196,129	-52,347	-0,210	-0,067
197,144	97,104	-0,149	-0,119
198,159	99,943	-0,350	-0,281
199,173	4,076	-0,216	-0,109
200,188	-76,455	-0,196	-0,047
201,202	-115,502	-0,192	-0,025
202,217	129,846	-0,186	-0,165
203,232	800,000	-0,153	-0,336
204,246	800,000	-0,111	-0,271
205,261	462,339	-0,105	-0,163
206,275	335,515	-0,107	-0,144
207,290	800,000	-0,106	-0,252
208,304	338,921	-0,100	-0,136
209,319	-130,117	-0,191	-0,018
210,334	-104,035	-0,310	-0,050
211,348	-28,791	-0,352	-0,140
212,363	409,397	-0,179	-0,263
213,377	203,335	-0,192	-0,206
214,392	-132,073	-0,200	-0,018
215,407	-176,382	-0,110	0,002
216,421	22,061	-0,166	-0,093
217,436	107,605	-0,255	-0,210
218,450	379,746	-0,081	-0,115
219,465	-84,109	-0,296	-0,064
220,480	17,715	-0,189	-0,104
221,494	-0,869	-0,113	-0,055
222,509	-52,286	-0,275	-0,088
223,523	-135,064	-0,177	-0,015
224,538	-35,162	-0,213	-0,080
225,553	800,000	-0,105	-0,234
226,567	62,506	-0,192	-0,132
227,582	56,283	-0,245	-0,164
228,596	-165,406	-0,032	0,001
229,611	118,715	-0,177	-0,151
230,626	60,720	-0,253	-0,173
231,640	39,142	-0,113	-0,070
232,655	138,645	-0,301	-0,274
233,669	56,876	-0,267	-0,179
234,684	-30,742	-0,276	-0,108
235,699	212,163	-0,107	-0,116
236,713	-26,163	-0,153	-0,062
237,728	131,976	-0,220	-0,196
238,742	6,338	-0,259	-0,132
239,757	15,939	-0,242	-0,131
240,772	58,207	-0,320	-0,216
241,786	-120,473	-0,249	-0,029
242,801	71,793	-0,168	-0,121
243,815	800,000	-0,141	-0,329
244,830	51,850	-0,031	-0,020
245,844	-37,882	-0,185	-0,067
246,859	-68,477	-0,307	-0,082
247,874	45,028	-0,317	-0,201
248,888	53,539	-0,154	0,102
249,903	800,000	-0,084	-0,187
250,917	326,177	-0,092	-0,121
251,932	7,936	-0,278	-0,144
252,947	-13,626	-0,236	-0,105
253,961	762,617	-0,078	-0,147
254,976	106,471	-0,171	-0,140
255,990	146,232	-0,169	-0,156
257,005	130,020	-0,148	-0,131
258,020	90,376	-0,062	0,048
259,034	151,925	-0,141	-0,133
260,049	312,909	-0,117	-0,152
261,063	518,704	-0,128	-0,208
262,078	23,846	-0,192	-0,109
263,093	23,404	-0,211	-0,119
264,107	-41,355	-0,137	-0,048
265,122	536,799	-0,062	-0,103
266,136	297,548	-0,105	-0,133
267,151	-162,632	-0,204	0,007
268,166	63,729	-0,172	-0,119
269,180	561,569	-0,092	-0,154
270,195	77,008	-0,237	-0,173
271,209	-44,170	-0,153	-0,052
272,224	-15,167	-0,265	-0,116
273,239	187,825	-0,066	-0,068
274,253	44,606	-0,072	-0,045
275,268	-78,961	-0,116	-0,027
276,282	77,047	-0,244	-0,179
277,297	-145,064	-0,168	0,010
278,312	76,272	-0,185	-0,135
279,326	410,113	-0,193	-0,282
280,341	449,235	-0,042	0,064
281,355	330,790	-0,078	-0,104
282,370	47,583	-0,182	-0,117
283,384	-84,687	-0,117	-0,025
284,399	-200,000	0,011	-0,282
285,414	525,243	-0,065	-0,106
286,428	53,348	-0,235	-0,155
287,443	269,982	-0,054	-0,065
288,457	-127,268	-0,144	-0,014
289,472	120,862	-0,138	-0,118
290,487	144,910	-0,195	-0,180
291,501	-28,297	-0,162	-0,064
292,516	-200,000	-0,045	-0,138
293,530	-200,000	-0,055	-0,176
294,545	-200,000	0,036	-0,170
295,560	60,510	-0,213	-0,145
296,574	226,830	-0,147	-0,165
297,589	76,402	-0,147	-0,107
298,603	270,019	-0,151	-0,182
299,618	-22,212	-0,214	-0,089
300,633	16,525	-0,162	-0,088
301,647	-200,000	0,016	-0,068
302,662	-200,000	-0,007	-0,175
303,676	800,000	-0,079	-0,214
304,691	-22,119	-0,221	-0,092
305,706	-102,199	-0,294	-0,048
306,720	-200,000	-0,045	-0,138
307,735	-16,270	-0,168	-0,073
308,749	-75,652	-0,182	0,044
309,764	55,576	-0,122	-0,081
310,779	-30,407	-0,178	-0,069
311,793	7,263	-0,162	-0,083
312,808	273,809	-0,098	-0,120
313,822	45,652	-0,139	-0,088
314,837	800,000	-0,096	-0,220
315,852	107,836	-0,050	0,040
316,866	225,261	-0,124	-0,138
317,881	656,645	-0,075	-0,133
318,895	131,517	-0,140	0,123
319,910	272,707	-0,141	-0,171
320,925	-200,000	-0,050	-0,281
321,939	800,000	-0,081	-0,165
322,954	-16,978	-0,178	-0,077
323,968	-135,886	-0,078	0,006
324,983	-197,055	-0,174	0,001
325,997	112,558	-0,129	-0,107
327,012	35,326	-0,185	-0,111
328,027	33,746	-0,213	-0,126
329,041	162,178	-0,058	-0,056
330,056	163,987	-0,105	-0,102
331,070	800,000	-0,080	-0,169
332,085	-139,250	-0,128	-0,009
333,100	800,000	-0,084	-0,186
334,114	-54,759	-0,168	-0,052
335,129	739,436	-0,130	-0,241
336,143	260,077	-0,134	-0,159
337,158	-160,190	-0,166	0,006
338,173	402,123	-0,212	-0,306
339,187	-62,619	-0,124	0,035
340,202	-200,000	-0,049	-0,175
341,216	-200,000	0,002	-0,097
342,231	73,570	-0,150	-0,107
343,246	613,726	-0,061	-0,105
344,260	347,075	-0,044	0,059
345,275	62,248	-0,186	-0,127
346,289	-6,806	-0,161	-0,075
347,304	-200,000	-0,031	-0,202
348,319	103,050	-0,176	-0,141
349,333	307,194	-0,117	-0,149
350,348	-200,000	0,071	-0,223
351,362	46,790	-0,157	-0,100
352,377	-54,019	-0,144	-0,045
353,392	16,647	-0,094	-0,051
354,406	800,000	-0,056	-0,110
355,421	208,580	1307,999	1400,776
356,435	160,503	1467,887	1401,268
