DTS Sentinel unit serial number:	SN410029Multiplexer serial number:	ORYXHardware model number:	OX2-SRSoftware version number:	ORYX F/W v4,00 Oryx Data Collector v3.7.2.0data status	okinstallation	B3 Nyhavnadifferential loss correction	single-endedforward channel	channel 1reverse channel	N/Adate	2023/12/01time	10:22:30forward acquisition time	300,00reverse acquisition time	0,00gamma	499,1914k internal	0,3213k external	0,3213temperature offset calibration	1,0000default loss term (dB/km)	0,3820temperature slope calibration	1,0000multiplexer offset coefficient	1,0000multiplexer slope coefficient	1,0000fibre end	0,00T internal ref (°C)	8,05T ext. ref 1 (°C)	-6,27T ext. ref 2 (°C)	-6,39length (m)	temperature (°C)	Stokes	anti-Stokes-744,400	39,725	-0,253	-0,164
-743,385	-200,000	0,003	0,139
-742,371	214,535	-0,214	-0,246
-741,356	-200,000	0,034	0,371
-740,342	602,202	-0,123	-0,222
-739,327	-200,000	0,031	0,278
-738,312	189,618	-0,234	-0,254
-737,298	800,000	-0,080	0,235
-736,283	277,389	-0,127	-0,164
-735,269	-200,000	0,047	0,245
-734,254	252,072	-0,192	-0,237
-733,239	23,506	-0,207	0,123
-732,225	-200,000	-0,040	-0,196
-731,210	38,432	0,096	0,062
-730,196	-12,417	0,156	-0,074
-729,181	-200,000	0,013	-0,077
-728,167	-103,629	-0,075	0,013
-727,152	-46,621	0,076	-0,027
-726,137	800,000	-0,130	-0,320
-725,123	53,319	-0,028	-0,020
-724,108	800,000	-0,050	-0,137
-723,094	201,985	-0,018	0,020
-722,079	10,455	-0,060	-0,033
-721,064	800,000	-0,035	0,071
-720,050	-61,729	0,161	-0,048
-719,035	435,733	-0,079	0,125
-718,021	224,181	-0,053	-0,062
-717,006	-6,627	-0,150	0,074
-715,991	240,642	-0,091	-0,110
-714,977	-200,000	0,016	-0,070
-713,962	800,000	0,033	0,093
-712,948	-200,000	0,019	0,115
-711,933	-200,000	-0,012	-0,072
-710,918	-172,064	-0,129	0,003
-709,904	291,547	-0,027	-0,035
-708,889	251,199	-0,074	-0,092
-707,875	-76,935	-0,099	-0,025
-706,860	-127,719	0,134	-0,014
-705,845	407,500	-0,010	-0,015
-704,831	-10,962	0,121	0,058
-703,816	47,998	-0,073	-0,049
-702,802	183,814	-0,174	0,186
-701,787	687,085	-0,077	0,145
-700,772	800,000	0,005	-0,015
-699,758	214,350	0,049	0,056
-698,743	6,735	0,029	-0,016
-697,729	-135,618	0,072	-0,006
-696,714	-185,151	0,155	-0,002
-695,699	162,986	-0,056	-0,057
-694,685	-200,000	0,005	-0,019
-693,670	800,000	-0,013	-0,040
-692,656	-7,130	0,118	-0,058
-691,641	634,757	0,022	-0,040
-690,627	191,565	-0,034	-0,037
-689,612	-40,788	-0,027	-0,010
-688,597	-173,345	0,132	0,003
-687,583	84,795	-0,126	-0,100
-686,568	162,146	-0,081	-0,082
-685,554	15,012	-0,218	-0,123
-684,539	68,153	0,127	0,094
-683,524	214,297	0,040	-0,045
-682,510	120,556	0,053	-0,048
-681,495	-159,482	0,069	0,003
-680,481	161,243	-0,128	-0,129
-679,466	610,633	-0,099	-0,179
-678,451	16,171	0,013	-0,008
-677,437	-42,831	-0,070	-0,025
-676,422	-100,776	-0,117	0,021
-675,408	308,556	0,036	-0,049
-674,393	-200,000	0,020	0,069
-673,378	-46,955	-0,132	0,046
-672,364	-29,832	-0,065	-0,027
-671,349	457,121	-0,052	-0,085
-670,335	-72,010	0,075	0,020
-669,320	75,379	-0,071	0,054
-668,305	-82,268	-0,051	-0,012
-667,291	-200,000	0,005	0,021
-666,276	165,027	0,034	0,035
-665,262	217,253	-0,151	-0,174
-664,247	-200,000	0,005	-0,040
-663,232	-54,498	-0,081	-0,026
-662,218	-57,746	0,136	-0,043
-661,203	118,522	-0,023	0,021
-660,189	99,059	-0,029	0,024
-659,174	11,087	-0,039	0,022
-658,159	-126,823	-0,222	-0,023
-657,145	163,122	-0,074	-0,076
-656,130	-200,000	-0,008	0,083
-655,116	-127,086	0,031	-0,003
-654,101	-200,000	0,004	0,294
-653,086	-200,000	-0,001	-0,100
-652,072	-33,029	-0,071	0,028
-651,057	446,847	-0,153	-0,244
-650,043	295,350	-0,058	-0,077
-649,028	236,909	-0,057	-0,068
-648,014	553,686	0,007	-0,013
-646,999	-200,000	0,002	-0,059
-645,984	800,000	-0,032	-0,081
-644,970	169,397	-0,012	0,012
-643,955	-200,000	0,009	-0,098
-642,941	-100,078	-0,213	-0,038
-641,926	-133,061	-0,024	0,002
-640,911	-146,213	0,058	-0,004
-639,897	-200,000	-0,009	0,047
-638,882	63,642	-0,077	0,056
-637,868	-200,000	0,012	0,052
-636,853	119,400	-0,031	0,028
-635,838	800,000	-0,052	-0,118
-634,824	195,995	-0,034	-0,038
-633,809	25,159	0,141	-0,084
-632,795	-48,542	0,048	-0,017
-631,780	-200,000	-0,008	-0,029
-630,765	117,897	-0,115	-0,102
-629,751	-200,000	0,021	-0,108
-628,736	101,766	-0,157	-0,132
-627,722	-25,712	0,021	-0,009
-626,707	126,432	-0,113	-0,104
-625,692	-200,000	-0,007	0,065
-624,678	-35,310	-0,130	0,051
-623,663	-200,000	0,002	-0,060
-622,649	39,501	-0,123	-0,080
-621,634	190,178	-0,084	-0,091
-620,619	-18,073	-0,098	0,044
-619,605	-148,330	0,167	0,010
-618,590	284,561	-0,010	-0,013
-617,576	207,745	-0,046	-0,052
-616,561	-55,278	0,077	-0,025
-615,546	688,652	0,073	-0,139
-614,532	-111,603	-0,220	-0,032
-613,517	-179,143	0,046	-0,001
-612,503	-200,000	0,001	0,075
-611,488	-200,000	-0,000	0,032
-610,474	800,000	0,045	0,107
-609,459	-200,000	0,009	-0,046
-608,444	-150,054	-0,187	0,010
-607,430	296,969	-0,007	0,009
-606,415	155,837	-0,131	-0,130
-605,401	119,638	0,149	0,133
-604,386	-200,000	-0,004	0,040
-603,371	339,968	-0,060	-0,085
-602,357	800,000	-0,030	0,093
-601,342	284,998	0,096	-0,125
-600,328	437,815	-0,054	0,085
-599,313	-200,000	0,013	-0,043
-598,298	260,745	0,064	0,080
-597,284	240,489	0,006	0,007
-596,269	-94,623	0,096	0,019
-595,255	800,000	-0,025	0,070
-594,240	800,000	0,032	-0,072
-593,225	-200,000	0,016	0,163
-592,211	-200,000	-0,051	0,167
-591,196	-118,857	0,036	0,004
-590,182	-64,635	0,041	-0,012
-589,167	-200,000	-0,012	0,068
-588,152	29,571	-0,033	0,020
-587,138	800,000	-0,027	-0,062
-586,123	170,889	0,070	0,072
-585,109	-43,470	-0,106	-0,038
-584,094	800,000	-0,028	0,073
-583,079	370,058	0,033	-0,048
-582,065	763,628	-0,050	0,098
-581,050	213,112	0,129	0,147
-580,036	800,000	-0,004	-0,013
-579,021	136,841	-0,088	-0,083
-578,006	800,000	0,031	-0,083
-576,992	800,000	-0,034	-0,095
-575,977	-200,000	-0,016	0,094
-574,963	-200,000	0,012	0,120
-573,948	-200,000	-0,024	0,224
-572,934	-22,809	-0,139	0,060
-571,919	-19,761	-0,124	-0,055
-570,904	-110,806	0,147	-0,022
-569,890	-90,542	-0,067	-0,014
-568,875	216,776	0,050	-0,057
-567,861	75,996	0,101	0,077
-566,846	-200,000	0,038	0,128
-565,831	-105,482	-0,013	0,002
-564,817	-106,348	-0,100	-0,016
-563,802	192,255	-0,092	-0,100
-562,788	-63,723	0,049	-0,014
-561,773	800,000	0,031	0,083
-560,758	115,835	0,082	0,073
-559,744	-200,000	0,025	-0,122
-558,729	479,053	0,028	0,045
-557,715	-200,000	-0,002	0,108
-556,700	5,886	0,047	-0,025
-555,685	52,046	-0,024	-0,017
-554,671	-69,756	0,050	0,014
-553,656	-200,000	-0,016	-0,053
-552,642	-116,007	-0,089	-0,012
-551,627	-161,341	0,082	-0,003
-550,612	-165,822	-0,170	-0,005
-549,598	204,324	0,067	-0,074
-548,583	-12,732	-0,107	0,050
-547,569	206,486	-0,072	-0,081
-546,554	73,626	0,052	0,039
-545,539	-170,238	0,110	0,003
-544,525	-200,000	0,017	-0,099
-543,510	-3,749	-0,071	0,036
-542,496	-200,000	-0,010	-0,128
-541,481	-200,000	-0,010	-0,053
-540,466	746,254	0,015	-0,029
-539,452	-200,000	0,001	-0,060
-538,437	800,000	-0,055	0,157
-537,423	249,806	0,026	0,032
-536,408	-159,549	-0,105	0,004
-535,393	-95,111	-0,178	-0,034
-534,379	-200,000	0,004	0,078
-533,364	800,000	0,045	-0,117
-532,350	-200,000	0,014	-0,065
-531,335	117,553	0,041	-0,037
-530,321	96,225	-0,084	-0,069
-529,306	-154,394	-0,058	0,003
-528,291	53,447	-0,188	0,129
-527,277	-98,507	-0,165	-0,030
-526,262	-200,000	0,006	-0,044
-525,248	71,383	-0,112	0,083
-524,233	416,172	0,013	-0,021
-523,218	800,000	0,035	0,080
-522,204	-200,000	0,039	0,143
-521,189	-64,573	0,030	0,009
-520,175	83,611	-0,154	-0,120
-519,160	79,171	-0,122	0,094
-518,145	304,671	0,032	0,042
-517,131	528,773	0,021	0,035
-516,116	297,373	0,060	0,079
-515,102	-100,017	0,059	0,011
-514,087	3,589	-0,045	0,023
-513,072	-50,837	0,102	-0,034
-512,058	-18,145	-0,075	0,034
-511,043	55,630	-0,062	0,043
-510,029	52,142	0,115	0,079
-509,014	-200,000	0,033	-0,115
-507,999	32,774	-0,063	0,039
-506,985	800,000	-0,019	0,045
-505,970	510,137	-0,058	-0,097
-504,956	-130,361	0,039	0,004
-503,941	-200,000	-0,014	0,102
-502,926	285,546	0,042	-0,054
-501,912	800,000	-0,034	0,100
-500,897	167,354	0,028	0,029
-499,883	800,000	-0,032	0,066
-498,868	800,000	0,057	-0,149
-497,853	317,763	-0,054	-0,073
-496,839	-115,624	-0,053	0,007
-495,824	800,000	0,033	0,081
-494,810	-76,107	0,117	0,029
-493,795	75,200	0,031	-0,024
-492,781	800,000	-0,054	0,108
-491,766	-11,993	0,029	-0,014
-490,751	-200,000	0,006	-0,105
-489,737	-5,417	0,055	-0,027
-488,722	-68,353	0,064	-0,018
-487,708	440,583	-0,036	0,057
-486,693	-200,000	0,025	0,166
-485,678	13,429	-0,104	0,057
-484,664	-200,000	-0,021	-0,069
-483,649	800,000	0,033	-0,078
-482,635	-48,253	-0,050	-0,017
-481,620	568,604	0,046	0,080
-480,605	53,951	-0,138	0,095
-479,591	-136,462	0,073	-0,006
-478,576	-17,241	0,009	-0,004
-477,562	-76,850	0,071	-0,018
-476,547	366,160	-0,028	-0,040
-475,532	157,088	0,075	0,075
-474,518	-54,815	-0,012	0,004
-473,503	-200,000	0,005	-0,139
-472,489	-200,000	0,033	0,106
-471,474	-7,144	-0,066	-0,032
-470,459	-200,000	0,007	-0,065
-469,445	-10,108	0,034	-0,016
-468,430	-200,000	0,021	0,080
-467,416	-200,000	0,027	0,118
-466,401	132,519	0,091	-0,084
-465,386	-123,432	0,083	0,009
-464,372	474,033	0,031	-0,051
-463,357	-116,756	-0,187	-0,024
-462,343	-200,000	-0,014	-0,049
-461,328	-4,025	-0,031	0,015
-460,313	74,626	0,186	0,140
-459,299	800,000	0,012	0,030
-458,284	115,711	0,048	0,042
-457,270	5,284	0,012	0,006
-456,255	-60,083	0,055	-0,017
-455,241	800,000	0,047	-0,109
-454,226	-71,342	-0,071	0,019
-453,211	-200,000	0,048	0,174
-452,197	-95,601	-0,020	-0,004
-451,182	-80,325	0,047	-0,011
-450,168	-36,485	0,121	0,046
-449,153	375,006	-0,032	0,047
-448,138	-200,000	0,017	-0,154
-447,124	198,715	-0,123	-0,135
-446,109	181,699	-0,052	0,055
-445,095	-112,142	-0,036	-0,005
-444,080	-200,000	0,030	0,169
-443,065	327,164	-0,074	-0,102
-442,051	381,071	0,006	-0,009
-441,036	-200,000	-0,005	0,029
-440,022	800,000	0,034	-0,095
-439,007	-200,000	-0,012	-0,116
-437,992	-200,000	-0,006	-0,046
-436,978	205,388	-0,051	0,057
-435,963	-200,000	-0,036	-0,139
-434,949	-200,000	0,003	-0,091
-433,934	-56,876	-0,081	0,025
-432,919	-200,000	-0,004	0,024
-431,905	-80,906	0,074	0,017
-430,890	82,097	0,129	0,100
-429,876	-117,879	0,250	0,032
-428,861	-200,000	0,038	-0,130
-427,846	301,274	-0,042	0,056
-426,832	7,841	-0,118	-0,063
-425,817	47,814	0,053	-0,035
-424,803	-16,911	0,111	-0,050
-423,788	800,000	-0,026	0,074
-422,773	102,149	-0,043	0,036
-421,759	91,687	0,035	0,028
-420,744	-156,319	-0,031	-0,001
-419,730	169,312	-0,182	-0,187
-418,715	17,421	-0,078	0,044
-417,701	46,932	0,054	0,036
-416,686	80,357	0,101	-0,077
-415,671	428,871	0,033	0,052
-414,657	118,945	-0,087	0,077
-413,642	-67,492	-0,016	0,004
-412,628	800,000	0,029	0,082
-411,613	-200,000	-0,014	-0,112
-410,598	-67,222	-0,080	-0,022
-409,584	-200,000	0,007	-0,030
-408,569	-101,938	-0,071	-0,012
-407,555	212,272	0,102	0,115
-406,540	444,798	-0,024	-0,038
-405,525	800,000	0,050	-0,152
-404,511	205,700	-0,147	-0,164
-403,496	117,392	-0,055	0,048
-402,482	244,878	-0,037	0,045
-401,467	-84,180	0,110	0,025
-400,452	-147,718	0,171	0,010
-399,438	-116,880	-0,095	-0,012
-398,423	114,920	0,114	-0,099
-397,409	182,510	0,038	-0,040
-396,394	-200,000	0,001	-0,009
-395,379	162,513	-0,113	-0,114
-394,365	115,231	0,091	0,080
-393,350	800,000	0,013	-0,033
-392,336	350,420	0,016	-0,023
-391,321	-39,511	-0,079	0,030
-390,306	-200,000	0,013	-0,105
-389,292	166,803	0,062	0,063
-388,277	-200,000	0,012	-0,052
-387,263	800,000	0,039	0,104
-386,248	651,839	-0,004	0,008
-385,233	-145,671	0,161	-0,010
-384,219	356,918	-0,011	0,015
-383,204	-65,027	0,048	0,014
-382,190	-200,000	-0,034	-0,126
-381,175	17,816	0,054	0,030
-380,160	153,065	0,089	0,087
-379,146	-33,068	0,023	-0,009
-378,131	1,300	0,027	0,014
-377,117	-81,625	-0,112	0,026
-376,102	800,000	-0,022	-0,056
-375,088	800,000	-0,015	-0,030
-374,073	-93,008	-0,033	0,007
-373,058	-140,073	0,125	0,009
-372,044	799,901	0,025	-0,050
-371,029	-74,102	0,078	0,020
-370,015	-160,223	-0,085	-0,003
-369,000	106,802	-0,088	-0,075
-367,985	676,341	-0,078	-0,146
-366,971	-134,669	0,022	0,002
-365,956	26,952	0,109	-0,065
-364,942	255,992	-0,061	-0,074
-363,927	800,000	0,085	0,176
-362,912	52,778	0,061	0,042
-361,898	-200,000	0,008	-0,028
-360,883	-200,000	0,024	-0,077
-359,869	800,000	-0,046	0,106
-358,854	131,937	0,028	0,025
-357,839	-18,405	0,050	0,022
-356,825	-87,767	0,123	0,026
-355,810	301,201	-0,097	0,128
-354,796	-200,000	0,027	-0,109
-353,781	311,002	-0,065	-0,087
-352,766	-144,096	-0,060	0,004
-351,752	298,332	0,072	0,095
-350,737	14,133	0,066	-0,036
-349,723	-160,795	0,107	-0,004
-348,708	103,769	0,073	-0,061
-347,693	-121,424	-0,046	0,005
-346,679	297,118	0,065	-0,085
-345,664	-200,000	0,008	-0,027
-344,650	402,765	0,072	0,109
-343,635	-99,833	-0,104	-0,018
-342,620	-200,000	0,003	0,121
-341,606	-200,000	-0,016	0,089
-340,591	-7,513	-0,093	-0,045
-339,577	-200,000	0,030	-0,161
-338,562	-200,000	-0,006	-0,065
-337,548	-200,000	0,013	0,045
-336,533	-200,000	0,004	-0,137
-335,518	-147,884	0,096	0,006
-334,504	206,545	-0,039	0,043
-333,489	299,976	-0,090	-0,118
-332,475	49,691	-0,088	-0,059
-331,460	137,793	0,061	-0,057
-330,445	179,542	-0,086	-0,089
-329,431	163,215	-0,018	-0,018
-328,416	197,296	0,039	0,043
-327,402	175,087	0,129	-0,133
-326,387	-200,000	0,026	0,097
-325,372	-82,139	-0,152	-0,035
-324,358	-13,555	-0,046	0,021
-323,343	-66,986	0,053	0,015
-322,329	-200,000	0,001	-0,034
-321,314	118,297	-0,052	-0,046
-320,299	96,896	0,140	0,115
-319,285	18,038	0,094	0,053
-318,270	-200,000	-0,009	0,075
-317,256	11,404	-0,080	-0,044
-316,241	-0,716	0,094	-0,047
-315,226	-200,000	0,021	0,108
-314,212	-107,602	0,153	0,024
-313,197	-51,303	0,118	0,039
-312,183	59,111	0,133	0,093
-311,168	-116,644	0,060	0,008
-310,153	507,575	0,013	-0,021
-309,139	678,442	-0,023	-0,043
-308,124	-70,535	-0,106	0,028
-307,110	-200,000	0,002	0,108
-306,095	800,000	-0,042	0,127
-305,080	-149,720	0,084	-0,005
-304,066	359,575	-0,055	0,079
-303,051	-182,857	-0,089	0,001
-302,037	-200,000	0,017	0,090
-301,022	43,172	0,132	-0,086
-300,008	-73,815	-0,103	0,026
-298,993	-200,000	-0,014	0,083
-297,978	800,000	-0,032	0,075
-296,964	392,861	0,006	0,009
-295,949	404,045	-0,095	-0,143
-294,935	-64,046	-0,053	-0,015
-293,920	613,942	0,043	-0,077
-292,905	800,000	0,040	-0,088
-291,891	565,781	-0,043	0,074
-290,876	121,300	-0,085	0,075
-289,862	70,137	-0,074	0,054
-288,847	310,256	0,066	-0,088
-287,832	800,000	0,008	-0,022
-286,818	-200,000	0,014	0,094
-285,803	53,450	0,063	0,043
-284,789	-46,923	0,075	0,026
-283,774	-46,052	-0,066	0,023
-282,759	111,976	-0,132	0,114
-281,745	-200,000	0,001	0,038
-280,730	771,215	-0,029	-0,056
-279,716	-111,911	0,025	0,003
-278,701	800,000	-0,055	0,150
-277,686	-194,063	0,159	0,001
-276,672	325,509	-0,039	0,053
-275,657	247,108	-0,022	0,026
-274,643	-67,432	0,163	-0,045
-273,628	-106,735	-0,154	-0,024
-272,613	700,338	-0,020	0,038
-271,599	-200,000	0,009	0,042
-270,584	-200,000	0,028	0,133
-269,570	-200,000	0,014	0,066
-268,555	800,000	-0,047	0,092
-267,540	121,482	-0,132	-0,117
-266,526	462,306	-0,029	-0,046
-265,511	-200,000	0,010	-0,055
-264,497	800,000	-0,043	-0,104
-263,482	-108,188	-0,105	0,016
-262,467	382,829	0,022	-0,033
-261,453	-80,561	-0,100	0,023
-260,438	-66,566	0,070	-0,020
-259,424	-200,000	0,016	-0,064
-258,409	-200,000	0,012	-0,069
-257,395	-200,000	-0,005	-0,123
-256,380	301,886	0,066	0,087
-255,365	18,115	0,065	-0,037
-254,351	-166,732	-0,113	0,003
-253,336	326,074	-0,048	-0,065
-252,322	-176,559	-0,035	-0,001
-251,307	289,113	0,003	0,004
-250,292	588,425	0,054	0,094
-249,278	-15,474	0,110	-0,050
-248,263	-200,000	0,057	0,180
-247,249	-153,359	-0,044	-0,002
-246,234	-200,000	-0,026	-0,098
-245,219	-77,194	-0,065	-0,016
-244,205	210,937	-0,029	0,033
-243,190	800,000	-0,040	-0,099
-242,176	800,000	0,069	-0,138
-241,161	69,674	-0,048	0,035
-240,146	-200,000	0,002	0,092
-239,132	125,706	0,042	0,037
-238,117	-118,088	0,011	0,001
-237,103	6,852	-0,095	-0,050
-236,088	-170,503	0,135	0,003
-235,073	235,889	0,041	-0,049
-234,059	-18,812	0,162	0,071
-233,044	90,421	0,095	-0,075
-232,030	-110,670	-0,133	0,019
-231,015	-200,000	0,021	-0,078
-230,000	185,359	0,026	0,028
-228,986	-90,884	0,071	-0,014
-227,971	-165,104	0,139	-0,004
-226,957	-111,490	0,013	-0,002
-225,942	-42,412	0,058	-0,021
-224,927	165,050	0,111	-0,111
-223,913	800,000	0,035	-0,091
-222,898	99,892	0,095	0,078
-221,884	243,692	-0,061	-0,072
-220,869	175,846	0,099	-0,102
-219,855	121,173	-0,089	-0,078
-218,840	800,000	-0,071	0,181
-217,825	61,297	0,066	0,046
-216,811	-31,718	-0,168	-0,066
-215,796	-35,588	0,042	-0,016
-214,782	424,278	-0,012	0,018
-213,767	79,738	-0,061	0,047
-212,752	-200,000	-0,040	0,182
-211,738	114,083	0,039	0,034
-210,723	-200,000	0,002	-0,017
-209,709	-152,027	-0,004	-0,000
-208,694	49,513	-0,052	0,035
-207,679	-70,147	-0,075	-0,020
-206,665	7,533	-0,049	-0,026
-205,650	-200,000	0,009	0,049
-204,636	775,642	0,036	0,069
-203,621	53,433	-0,168	-0,114
-202,606	-102,461	0,041	0,007
-201,592	45,888	0,055	0,036
-200,577	-52,674	0,148	-0,048
-199,563	-137,870	0,147	0,011
-198,548	-200,000	-0,020	0,079
-197,533	-14,517	-0,128	0,058
-196,519	-18,439	0,024	0,011
-195,504	800,000	-0,038	0,105
-194,490	-31,313	0,026	0,010
-193,475	-114,698	-0,140	0,019
-192,460	45,726	0,086	-0,056
-191,446	31,303	0,115	0,070
-190,431	578,663	0,077	0,134
-189,417	-82,430	0,035	-0,008
-188,402	-200,000	-0,021	-0,138
-187,387	395,782	-0,063	-0,093
-186,373	-200,000	0,006	0,037
-185,358	-7,635	-0,091	-0,043
-184,344	-66,156	-0,043	0,012
-183,329	350,192	0,057	-0,081
-182,315	-136,868	0,101	0,008
-181,300	-118,848	0,020	0,002
-180,285	-158,999	0,064	0,003
-179,271	70,006	-0,032	-0,023
-178,256	233,751	0,051	-0,059
-177,242	40,882	0,073	0,047
-176,227	-192,687	0,092	0,001
-175,212	-200,000	-0,008	-0,052
-174,198	-102,427	-0,072	-0,012
-173,183	-49,039	-0,091	-0,031
-172,169	169,549	-0,072	-0,073
-171,154	0,832	0,108	0,055
-170,139	800,000	-0,012	0,033
-169,125	-200,000	-0,011	0,065
-168,110	128,563	0,106	0,096
-167,096	-200,000	0,019	0,087
-166,081	90,373	-0,050	-0,039
-165,066	27,746	0,034	-0,020
-164,052	-200,000	0,006	0,056
-163,037	-123,762	-0,182	0,020
-162,023	-200,000	-0,028	0,120
-161,008	-70,661	-0,154	0,041
-159,993	43,558	0,096	0,062
-158,979	-14,780	0,059	0,027
-157,964	69,351	0,168	-0,122
-156,950	334,334	0,038	-0,052
-155,935	-200,000	-0,009	-0,083
-154,920	-134,690	0,013	0,001
-153,906	-177,571	0,079	0,001
-152,891	-125,372	-0,064	-0,007
-151,877	106,243	-0,040	-0,034
-150,862	-132,283	-0,115	0,010
-149,847	-47,602	0,111	0,038
-148,833	-156,445	-0,115	0,005
-147,818	61,325	-0,062	-0,043
-146,804	-200,000	0,010	0,117
-145,789	800,000	0,033	0,085
-144,775	109,107	-0,049	0,041
-143,760	-200,000	-0,004	0,028
-142,745	211,103	-0,030	-0,033
-141,731	-200,000	0,007	-0,061
-140,716	104,225	0,150	0,125
-139,702	-200,000	0,022	0,173
-138,687	7,276	0,096	0,051
-137,672	800,000	-0,030	0,078
-136,658	-174,784	-0,145	0,003
-135,643	-150,187	0,155	0,008
-134,629	133,041	-0,070	-0,064
-133,614	-121,741	-0,036	-0,004
-132,599	-135,725	0,099	-0,008
-131,585	241,030	0,013	0,016
-130,570	-200,000	-0,005	0,131
-129,556	800,000	0,017	0,043
-128,541	527,620	0,077	-0,130
-127,526	-200,000	-0,001	-0,058
-126,512	-179,108	0,065	0,001
-125,497	-200,000	-0,011	0,085
-124,483	-49,857	0,033	-0,011
-123,468	800,000	-0,041	-0,093
-122,453	-81,745	0,044	0,010
-121,439	22,192	-0,128	0,074
-120,424	800,000	0,060	0,118
-119,410	-85,458	-0,078	-0,017
-118,395	-2,323	0,217	0,107
-117,380	175,983	0,037	0,038
-116,366	303,137	0,069	-0,091
-115,351	118,234	0,076	-0,066
-114,337	-104,552	-0,049	-0,008
-113,322	687,758	-0,031	-0,058
-112,307	653,692	-0,043	-0,079
-111,293	-200,000	-0,034	-0,110
-110,278	27,125	0,104	0,062
-109,264	43,950	-0,027	-0,017
-108,249	-200,000	-0,019	-0,155
-107,234	800,000	-0,053	-0,162
-106,220	-200,000	-0,011	0,069
-105,205	-200,000	0,059	0,197
-104,191	56,409	-0,020	-0,014
-103,176	243,786	0,056	-0,067
-102,162	408,866	-0,053	-0,079
-101,147	68,986	0,058	-0,042
-100,132	-56,101	-0,124	0,039
-99,118	-160,716	-0,119	0,004
-98,103	-129,473	0,056	-0,005
-97,089	284,214	0,090	-0,114
-96,074	-200,000	-0,017	0,100
-95,059	-200,000	0,022	-0,092
-94,045	6,296	-0,122	0,064
-93,030	-78,465	0,054	-0,013
-92,016	-74,877	-0,173	-0,044
-91,001	800,000	0,023	-0,062
-89,986	176,804	0,054	-0,055
-88,972	-10,033	0,052	-0,024
-87,957	-200,000	-0,026	0,150
-86,943	-200,000	0,100	0,000
-85,928	800,000	0,015	-0,047
-84,913	800,000	0,038	0,111
-83,899	-200,000	0,024	-0,096
-82,884	800,000	0,033	-0,074
-81,870	-200,000	-0,007	0,155
-80,855	-54,763	0,044	0,014
-79,840	-146,041	-0,107	-0,007
-78,826	-64,430	-0,073	-0,021
-77,811	383,186	-0,032	-0,046
-76,797	-33,643	0,027	0,010
-75,782	-200,000	-0,031	0,097
-74,767	-9,118	0,057	0,027
-73,753	-71,593	0,103	0,027
-72,738	-200,000	-0,018	0,073
-71,724	-200,000	-0,039	-0,132
-70,709	15,471	0,082	0,045
-69,694	800,000	0,007	0,015
-68,680	457,339	0,027	0,042
-67,665	569,715	0,054	-0,094
-66,651	800,000	-0,022	0,045
-65,636	-30,207	-0,178	-0,071
-64,622	-57,451	0,056	-0,017
-63,607	666,326	0,011	-0,021
-62,592	800,000	0,036	-0,090
-61,578	55,700	-0,105	-0,072
-60,563	-200,000	0,001	0,108
-59,549	53,473	-0,110	0,074
-58,534	67,217	-2,077	-1,492
-57,519	465,138	-1,095	-1,734
-56,505	-200,000	-0,500	-4,334
-55,490	800,000	0,873	1,852
-54,476	800,000	5,176	11,575
-53,461	-200,000	22,329	345,996
-52,446	800,000	757,183	2294,249
-51,432	534,517	1644,502	2759,927
-50,417	68,121	1643,316	1185,027
-49,403	15,723	1520,560	840,941
-48,388	9,906	1446,293	771,929
-47,373	19,280	1438,985	812,668
-46,359	13,369	1427,527	778,267
-45,344	8,217	1423,435	751,640
-44,330	8,144	1421,569	750,280
-43,315	8,117	1419,706	749,141
-42,300	8,145	1417,921	748,299
-41,286	8,213	1416,587	747,884
-40,271	8,133	1415,269	746,784
-39,257	8,115	1414,391	746,207
-38,242	8,152	1413,249	745,750
-37,227	8,167	1412,108	745,188
-36,213	8,125	1410,877	744,313
-35,198	8,158	1409,525	743,722
-34,184	8,199	1408,623	743,409
-33,169	8,111	1407,211	742,221
-32,154	8,142	1406,540	741,983
-31,140	8,113	1405,209	741,117
-30,125	8,141	1403,847	740,501
-29,111	8,104	1402,753	739,721
-28,096	8,106	1401,672	739,133
-27,082	8,075	1400,428	738,302
-26,067	8,061	1399,296	737,612
-25,052	8,062	1398,394	737,112
-24,038	8,085	1397,377	736,650
-23,023	8,036	1396,610	735,988
-22,009	8,048	1395,371	735,365
-20,994	8,049	1394,414	734,836
-19,979	8,039	1393,477	734,264
-18,965	8,033	1392,564	733,728
-17,950	8,028	1391,503	733,118
-16,936	8,024	1390,704	732,650
-15,921	7,991	1389,524	731,844
-14,906	7,993	1388,838	731,465
-13,892	8,026	1387,570	730,919
-12,877	7,960	1387,115	730,347
-11,863	8,002	1386,095	729,974
-10,848	8,004	1385,096	729,427
-9,833	7,967	1384,336	728,827
-8,819	7,917	1383,479	728,119
-7,804	7,898	1382,616	727,547
-6,790	7,875	1381,623	726,890
-5,775	7,920	1380,646	726,555
-4,760	7,907	1379,636	725,936
-3,746	7,953	1378,615	725,578
-2,731	7,903	1377,835	724,909
-1,717	7,888	1377,086	724,417
-0,702	7,908	1375,186	723,481
0,313	11,844	1285,919	694,366
1,327	27,618	677,802	401,177
2,342	42,688	116,652	74,728
3,356	-0,831	16,666	8,292
4,371	-0,358	3,963	1,978
5,386	26,972	1,386	0,817
6,400	800,000	0,274	0,680
7,415	-11,395	-0,172	-0,079
8,429	132,708	-0,250	-0,227
9,444	20,591	-0,304	-0,173
10,459	36,473	-0,345	-0,214
11,473	134,570	-0,174	-0,159
12,488	-64,660	-0,203	-0,058
13,502	118,891	-0,266	-0,232
14,517	276,187	-0,261	-0,327
15,531	137,799	-0,317	-0,293
16,546	-39,168	-0,377	-0,139
17,561	-27,469	-0,389	-0,158
18,575	-88,619	-0,225	-0,047
19,590	257,393	-0,111	-0,135
20,604	-46,140	-0,317	-0,109
21,619	-20,878	-0,322	-0,138
22,634	18,519	-0,492	-0,276
23,648	-5,557	-0,463	-0,223
24,663	63,262	-0,452	-0,319
25,677	149,662	-0,295	-0,281
26,692	-23,267	-0,293	-0,124
27,707	-6,476	-0,352	-0,168
28,721	244,559	-0,241	-0,285
29,736	109,733	-0,443	-0,373
30,750	85,250	-0,374	-0,288
31,765	166,031	-0,331	-0,330
32,780	4,632	-0,360	-0,185
33,794	-42,136	-0,453	-0,162
34,809	-38,067	-0,377	-0,140
35,823	147,967	-0,332	-0,315
36,838	39,727	-0,362	-0,228
37,853	37,972	-0,396	-0,247
38,867	58,249	-0,271	-0,187
39,882	156,496	-0,290	-0,282
40,896	17,395	-0,366	-0,204
41,911	252,842	-0,203	-0,243
42,926	129,450	-0,392	-0,352
43,940	117,461	-0,360	-0,311
44,955	91,362	-0,332	-0,262
45,969	154,503	-0,267	-0,258
46,984	153,668	-0,347	-0,334
47,999	-37,980	-0,225	-0,083
49,013	-43,446	-0,445	-0,157
50,028	33,312	-0,402	-0,244
51,042	74,178	-0,333	-0,245
52,057	7,574	-0,317	-0,166
53,071	426,122	-0,288	-0,437
54,086	182,649	-0,327	-0,339
55,101	-8,554	-0,193	-0,090
56,115	91,018	-0,320	-0,251
57,130	1,899	-0,352	-0,177
58,144	-2,968	-0,298	-0,146
59,159	-31,945	-0,344	-0,134
60,174	-57,131	-0,375	-0,115
61,188	209,066	-0,277	-0,304
62,203	79,382	-0,320	-0,241
63,217	300,080	-0,229	-0,297
64,232	-33,380	-0,310	-0,120
65,247	29,396	-0,333	-0,198
66,261	111,042	-0,325	-0,274
67,276	57,466	-0,370	-0,253
68,290	193,575	-0,369	-0,392
69,305	68,705	-0,416	-0,299
70,320	-7,600	-0,327	-0,154
71,334	19,543	-0,362	-0,203
72,349	139,292	-0,249	-0,230
73,363	117,177	-0,294	-0,253
74,378	119,033	-0,284	-0,246
75,393	192,052	-0,225	-0,238
76,407	-2,324	-0,343	-0,168
77,422	573,949	-0,151	-0,259
78,436	-16,572	-0,270	-0,119
79,451	-3,034	-0,254	-0,124
80,466	55,201	-0,342	-0,231
81,480	56,215	-0,310	-0,211
82,495	8,756	-0,197	-0,104
83,509	111,917	-0,289	-0,244
84,524	-90,409	-0,266	-0,054
85,539	50,156	-0,274	-0,181
86,553	21,477	-0,276	-0,157
87,568	222,873	-0,286	-0,322
88,582	123,299	-0,340	-0,298
89,597	14,243	-0,337	-0,183
90,611	-29,391	-0,250	-0,100
91,626	-64,839	-0,375	-0,105
92,641	-3,453	-0,208	-0,101
93,655	227,933	-0,200	-0,228
94,670	5,217	-0,219	-0,113
95,684	51,464	-0,306	-0,203
96,699	55,093	-0,375	-0,253
97,714	283,931	-0,173	-0,218
98,728	204,406	-0,152	-0,165
99,743	-1,563	-0,238	-0,117
100,757	138,422	-0,178	-0,163
101,772	40,038	-0,307	-0,192
102,787	-31,799	-0,351	-0,137
103,801	150,271	-0,221	-0,210
104,816	116,650	-0,299	-0,256
105,830	2,496	-0,264	-0,133
106,845	-99,241	-0,175	0,031
107,860	23,197	-0,286	-0,164
108,874	-34,492	-0,301	-0,115
109,889	-7,996	-0,327	-0,153
110,903	123,755	-0,144	-0,126
111,918	194,403	-0,191	-0,202
112,933	144,137	-0,199	-0,186
113,947	-39,855	-0,282	-0,102
114,962	-34,329	-0,156	-0,060
115,976	-20,351	-0,331	-0,141
116,991	288,447	-0,147	-0,186
118,006	68,553	-0,279	-0,199
119,020	-38,667	-0,344	-0,126
120,035	53,888	-0,236	-0,158
121,049	-33,409	-0,255	-0,098
122,064	-91,949	-0,244	-0,048
123,079	-200,000	-0,052	-0,216
124,093	193,163	-0,254	-0,268
125,108	75,230	-0,324	-0,238
126,122	423,658	-0,161	-0,243
127,137	273,556	-0,136	-0,168
128,151	-57,818	-0,198	-0,060
129,166	800,000	-0,064	-0,139
130,181	-127,083	-0,336	-0,034
131,195	-162,103	-0,248	-0,009
132,210	-45,458	-0,305	-0,105
133,224	6,447	-0,212	-0,109
134,239	-61,812	-0,278	-0,081
135,254	23,672	-0,136	-0,078
136,268	-53,816	-0,227	-0,072
137,283	5,693	-0,300	-0,154
138,297	199,228	-0,265	-0,283
139,312	800,000	-0,112	-0,230
140,327	-79,501	-0,246	-0,058
141,341	76,472	-0,135	-0,099
142,356	304,774	-0,160	-0,207
143,370	-21,341	-0,226	-0,096
144,385	800,000	-0,090	-0,241
145,400	69,745	-0,284	-0,203
146,414	653,533	-0,130	-0,234
147,429	320,366	-0,177	-0,235
148,443	15,752	-0,240	-0,131
149,458	203,724	-0,132	-0,142
150,473	-16,141	-0,261	-0,115
151,487	-131,852	-0,276	-0,025
152,502	-42,176	-0,279	-0,099
153,516	205,343	-0,220	-0,238
154,531	47,599	-0,379	-0,245
155,546	111,053	-0,238	-0,200
156,560	226,371	-0,190	-0,215
157,575	-88,882	-0,214	-0,044
158,589	637,574	-0,155	-0,276
159,604	-14,087	-0,217	-0,097
160,619	425,921	-0,163	-0,245
161,633	-29,600	-0,472	-0,187
162,648	8,735	-0,298	-0,155
163,662	-200,000	-0,021	-0,111
164,677	-19,538	-0,204	-0,087
165,692	-123,503	-0,237	-0,026
166,706	47,022	-0,240	-0,155
167,721	150,772	-0,218	-0,206
168,735	90,164	-0,264	-0,205
169,750	15,060	-0,229	-0,124
170,764	-93,808	-0,143	-0,027
171,779	174,969	-0,099	-0,100
172,794	306,283	-0,139	-0,180
173,808	-11,291	-0,260	-0,118
174,823	-12,630	-0,287	-0,129
175,837	-29,105	-0,247	-0,098
176,852	-10,209	-0,163	0,075
177,867	205,930	-0,197	-0,213
178,881	385,675	-0,086	-0,123
179,896	-56,856	-0,229	-0,070
180,910	-8,331	-0,283	-0,132
181,925	-178,806	-0,198	0,003
182,940	-184,191	-0,264	0,003
183,954	188,471	-0,230	-0,239
184,969	-24,611	-0,179	-0,074
185,983	63,773	-0,233	-0,162
186,998	252,274	-0,174	-0,206
188,013	-200,000	-0,083	-0,278
189,027	78,271	-0,161	-0,119
190,042	652,434	-0,188	-0,335
191,056	793,597	-0,135	-0,258
192,071	27,359	-0,202	-0,118
193,086	800,000	-0,066	-0,178
194,100	800,000	-0,076	-0,158
195,115	-100,417	-0,266	-0,045
196,129	11,940	-0,224	-0,119
197,144	13,475	-0,322	-0,173
198,159	97,486	-0,124	-0,099
199,173	-2,065	-0,196	-0,095
200,188	-85,800	-0,104	0,022
201,202	-30,410	-0,280	-0,109
202,217	-58,713	-0,262	-0,078
203,232	358,973	-0,231	-0,321
204,246	145,621	-0,257	-0,238
205,261	56,097	-0,205	-0,138
206,275	134,699	-0,173	-0,155
207,290	41,058	-0,161	-0,100
208,304	145,415	-0,173	-0,160
209,319	-79,967	-0,135	0,031
210,334	169,077	-0,197	-0,195
211,348	121,039	-0,254	-0,219
212,363	54,813	-0,270	-0,180
213,377	118,545	-0,259	-0,221
214,392	167,539	-0,118	-0,116
215,407	-113,402	-0,235	0,032
216,421	-41,825	-0,168	0,059
217,436	117,221	-0,322	-0,274
218,450	56,181	-0,390	-0,262
219,465	160,355	-0,202	-0,195
220,480	-200,000	-0,078	-0,260
221,494	439,426	-0,222	-0,337
222,509	-189,153	-0,266	-0,002
223,523	170,428	-0,167	-0,166
224,538	416,565	-0,086	-0,128
225,553	558,486	-0,134	-0,225
226,567	265,427	-0,141	-0,170
227,582	688,047	-0,107	-0,194
228,596	-0,090	-0,192	-0,094
229,611	-56,472	-0,210	-0,064
230,626	-149,750	-0,175	-0,009
231,640	-6,154	-0,189	-0,089
232,655	316,253	-0,121	-0,158
233,669	-51,019	-0,211	-0,068
234,684	-66,844	-0,224	-0,061
235,699	-113,124	-0,231	-0,031
236,713	-26,245	-0,162	0,065
237,728	-4,343	-0,226	-0,108
238,742	-38,040	-0,209	-0,076
239,757	39,966	-0,246	-0,152
240,772	800,000	-0,095	-0,203
241,786	800,000	-0,098	-0,219
242,801	121,630	-0,213	-0,183
243,815	69,389	-0,154	-0,109
244,830	-65,167	-0,147	-0,041
245,844	21,089	-0,093	0,052
246,859	-112,050	-0,262	-0,036
247,874	698,043	-0,108	-0,196
248,888	-49,728	-0,142	-0,046
249,903	601,160	-0,069	-0,118
250,917	14,828	-0,081	-0,044
251,932	-200,000	-0,015	-0,146
252,947	-200,000	-0,037	-0,208
253,961	-17,347	-0,247	-0,107
254,976	8,722	-0,236	-0,122
255,990	164,810	-0,170	-0,166
257,005	-49,941	-0,196	-0,064
258,020	800,000	-0,110	-0,228
259,034	-180,469	-0,072	0,001
260,049	55,455	-0,251	-0,167
261,063	191,938	-0,121	-0,126
262,078	-140,955	-0,111	0,008
263,093	135,836	-0,151	-0,136
264,107	239,021	-0,169	-0,193
265,122	-104,668	-0,066	-0,010
266,136	92,033	-0,111	-0,086
267,151	211,433	-0,094	-0,102
268,166	-49,874	-0,186	-0,060
269,180	141,013	-0,183	-0,167
270,195	800,000	-0,117	-0,241
271,209	150,929	-0,113	-0,106
272,224	352,293	-0,125	-0,170
273,239	152,774	-0,105	-0,098
274,253	-92,312	-0,091	-0,018
275,268	110,778	-0,100	0,083
276,282	63,215	-0,098	-0,067
277,297	205,905	-0,167	-0,179
278,312	96,999	-0,165	-0,130
279,326	71,599	-0,125	-0,089
280,341	9,923	-0,165	-0,086
281,355	108,779	-0,221	-0,182
282,370	486,655	-0,108	-0,170
283,384	800,000	-0,073	-0,175
284,399	62,019	-0,211	-0,144
285,414	-27,366	-0,219	-0,087
286,428	800,000	-0,113	-0,290
287,443	-200,000	-0,025	-0,119
288,457	118,956	-0,140	-0,119
289,472	518,522	-0,109	-0,176
290,487	242,612	-0,151	-0,173
291,501	189,383	-0,161	-0,166
292,516	87,985	-0,131	-0,100
293,530	95,710	-0,143	-0,112
294,545	-137,859	-0,234	0,018
295,560	234,662	-0,122	-0,139
296,574	217,382	-0,095	-0,104
297,589	-90,726	-0,174	-0,034
298,603	393,008	-0,149	-0,213
299,618	98,310	-0,131	-0,103
300,633	-200,000	-0,029	-0,137
301,647	7,225	-0,054	0,028
302,662	-38,066	-0,166	-0,060
303,676	493,298	-0,051	-0,080
304,691	800,000	-0,076	-0,149
305,706	-90,219	-0,192	-0,038
306,720	-7,410	-0,014	-0,006
307,735	-200,000	-0,013	-0,074
308,749	800,000	-0,094	-0,219
309,764	-48,138	-0,219	-0,072
310,779	-43,652	-0,150	0,052
311,793	800,000	-0,060	-0,154
312,808	-200,000	-0,075	-0,260
313,822	70,076	-0,148	-0,105
314,837	69,006	-0,112	-0,079
315,852	-183,487	-0,189	0,002
316,866	-200,000	-0,011	-0,102
317,881	-85,495	-0,154	-0,033
318,895	159,818	-0,163	-0,155
319,910	447,492	-0,080	-0,120
320,925	800,000	-0,080	-0,220
321,939	229,850	-0,192	-0,215
322,954	-110,534	-0,087	-0,012
323,968	135,261	-0,088	0,078
324,983	800,000	-0,064	-0,149
325,997	290,794	-0,111	0,138
327,012	-28,961	-0,172	-0,067
328,027	475,005	-0,132	-0,205
329,041	93,946	-0,186	-0,144
330,056	404,961	-0,034	0,049
331,070	-200,000	-0,012	-0,090
332,085	-160,491	-0,049	0,002
333,100	-69,317	-0,101	-0,026
334,114	-175,613	-0,094	-0,002
335,129	395,907	-0,178	-0,255
336,143	183,304	-0,059	-0,060
337,158	47,713	-0,134	-0,085
338,173	-89,687	-0,113	-0,022
339,187	28,790	-0,017	-0,010
340,202	409,754	-0,113	-0,165
341,216	-79,848	-0,032	-0,007
342,231	357,562	-0,141	-0,193
343,246	-200,000	-0,073	-0,264
344,260	-200,000	-0,055	-0,178
345,275	-63,428	-0,103	-0,029
346,289	144,144	-0,158	-0,144
347,304	234,716	-0,105	-0,119
348,319	-63,330	-0,155	-0,043
349,333	-76,506	-0,120	0,029
350,348	-165,702	-0,092	-0,003
351,362	-187,826	-0,117	0,001
352,377	505,702	-0,113	-0,179
353,392	143,464	-0,037	0,034
354,406	-26,266	-0,083	-0,033
355,421	208,489	1310,796	1402,583
356,435	160,428	1470,984	1403,031
