DTS Sentinel unit serial number:	SN410029Multiplexer serial number:	ORYXHardware model number:	OX2-SRSoftware version number:	ORYX F/W v4,00 Oryx Data Collector v3.7.2.0data status	okinstallation	B3 Nyhavnadifferential loss correction	single-endedforward channel	channel 1reverse channel	N/Adate	2023/11/29time	03:42:30forward acquisition time	300,00reverse acquisition time	0,00gamma	499,1914k internal	0,3211k external	0,3211temperature offset calibration	1,0000default loss term (dB/km)	0,3820temperature slope calibration	1,0000multiplexer offset coefficient	1,0000multiplexer slope coefficient	1,0000fibre end	0,00T internal ref (°C)	9,45T ext. ref 1 (°C)	-6,01T ext. ref 2 (°C)	-6,11length (m)	temperature (°C)	Stokes	anti-Stokes-744,400	800,000	-0,142	-0,387
-743,385	-200,000	-0,068	0,375
-742,371	800,000	-0,054	-0,111
-741,356	-200,000	0,026	0,362
-740,342	800,000	-0,079	-0,244
-739,327	-200,000	0,013	0,145
-738,312	588,959	-0,136	-0,243
-737,298	800,000	-0,049	0,144
-736,283	412,921	-0,185	-0,287
-735,269	-200,000	-0,015	0,315
-734,254	96,683	-0,239	-0,198
-733,239	60,401	-0,303	0,217
-732,225	-200,000	-0,019	-0,122
-731,210	-200,000	0,034	0,164
-730,196	-172,258	0,132	0,003
-729,181	581,556	-0,089	-0,159
-728,167	-200,000	-0,008	-0,115
-727,152	-123,940	-0,056	0,006
-726,137	-200,000	-0,010	-0,053
-725,123	-3,789	-0,135	-0,068
-724,108	800,000	0,013	-0,029
-723,094	800,000	-0,040	0,128
-722,079	-200,000	-0,026	-0,120
-721,064	-162,620	-0,137	-0,005
-720,050	112,698	-0,066	-0,058
-719,035	289,914	-0,070	0,092
-718,021	55,982	0,050	0,035
-717,006	-200,000	-0,037	-0,137
-715,991	-200,000	0,011	-0,081
-714,977	-96,010	-0,051	-0,010
-713,962	-200,000	0,002	0,019
-712,948	-200,000	0,004	-0,014
-711,933	79,425	0,074	0,058
-710,918	26,451	-0,042	-0,026
-709,904	-200,000	0,017	-0,078
-708,889	-60,661	0,072	-0,022
-707,875	-151,953	0,064	0,003
-706,860	12,892	0,073	-0,041
-705,845	-45,556	0,101	0,036
-704,831	273,099	0,069	0,089
-703,816	134,292	-0,043	0,040
-702,802	-137,820	0,078	-0,006
-701,787	-200,000	-0,016	-0,142
-700,772	-18,654	0,038	0,017
-699,758	-200,000	-0,033	-0,135
-698,743	800,000	-0,060	0,148
-697,729	800,000	-0,043	0,116
-696,714	143,428	0,043	0,041
-695,699	83,273	-0,009	0,007
-694,685	10,950	-0,033	-0,018
-693,670	-200,000	-0,019	0,106
-692,656	-200,000	0,014	0,073
-691,641	316,684	0,039	-0,054
-690,627	365,839	-0,027	0,040
-689,612	125,981	0,049	-0,045
-688,597	-12,819	-0,109	-0,051
-687,583	-200,000	0,014	-0,094
-686,568	-82,953	-0,127	0,029
-685,554	-187,943	-0,026	-0,000
-684,539	-39,162	0,096	-0,036
-683,524	93,127	0,034	0,028
-682,510	800,000	0,003	0,007
-681,495	193,460	-0,071	0,078
-680,481	-200,000	0,040	-0,143
-679,466	-43,017	-0,070	-0,026
-678,451	305,121	-0,091	0,122
-677,437	-103,683	0,115	0,019
-676,422	-200,000	-0,008	0,067
-675,408	25,924	-0,119	0,071
-674,393	232,367	0,104	-0,124
-673,378	800,000	-0,031	-0,083
-672,364	800,000	0,059	-0,170
-671,349	311,795	0,016	-0,021
-670,335	-200,000	-0,017	0,074
-669,320	211,329	-0,036	0,041
-668,305	-200,000	0,054	0,194
-667,291	-39,687	0,067	0,025
-666,276	370,250	0,023	-0,034
-665,262	74,054	-0,108	-0,082
-664,247	627,393	0,062	0,114
-663,232	43,272	-0,082	0,054
-662,218	-46,128	-0,115	-0,041
-661,203	473,002	0,040	-0,065
-660,189	178,408	0,092	0,097
-659,174	-59,076	-0,191	-0,059
-658,159	-45,020	-0,118	-0,042
-657,145	-200,000	-0,006	-0,087
-656,130	-171,027	0,110	-0,003
-655,116	800,000	-0,015	0,039
-654,101	800,000	0,027	0,084
-653,086	-200,000	0,005	0,084
-652,072	-200,000	0,008	-0,036
-651,057	-200,000	-0,001	-0,046
-650,043	-45,982	-0,199	0,071
-649,028	-38,947	-0,122	-0,046
-648,014	-200,000	-0,040	0,148
-646,999	-200,000	-0,027	0,092
-645,984	-200,000	-0,000	0,010
-644,970	-107,567	-0,159	0,025
-643,955	800,000	-0,034	0,083
-642,941	171,985	-0,027	0,028
-641,926	741,181	-0,065	-0,126
-640,911	-78,124	-0,096	-0,024
-639,897	58,983	0,051	-0,036
-638,882	242,546	0,075	0,091
-637,868	800,000	-0,020	0,051
-636,853	800,000	0,031	-0,063
-635,838	-85,061	-0,019	0,004
-634,824	-29,551	-0,127	0,052
-633,809	-159,423	-0,072	0,003
-632,795	-200,000	-0,016	0,070
-631,780	-1,767	0,069	0,035
-630,765	109,106	-0,133	-0,115
-629,751	-200,000	-0,002	-0,038
-628,736	800,000	0,023	-0,055
-627,722	446,116	-0,034	-0,054
-626,707	800,000	0,042	0,089
-625,692	378,940	0,045	0,067
-624,678	16,337	-0,153	0,087
-623,663	244,504	0,032	-0,039
-622,649	-45,535	-0,147	0,052
-621,634	531,065	0,058	-0,099
-620,619	423,402	0,015	-0,023
-619,605	-200,000	-0,028	0,118
-618,590	235,231	0,040	-0,047
-617,576	4,150	0,092	-0,048
-616,561	-11,607	-0,128	0,060
-615,546	-59,732	0,079	-0,024
-614,532	16,352	-0,060	-0,034
-613,517	18,218	-0,070	-0,040
-612,503	-200,000	-0,001	0,148
-611,488	-200,000	-0,012	-0,101
-610,474	-152,639	0,039	-0,002
-609,459	-200,000	-0,015	-0,107
-608,444	800,000	-0,032	0,089
-607,430	76,383	0,024	0,019
-606,415	-78,122	-0,030	-0,007
-605,401	136,681	0,051	0,048
-604,386	800,000	0,003	0,006
-603,371	15,980	0,164	0,093
-602,357	-109,519	-0,137	-0,021
-601,342	-30,987	0,016	-0,006
-600,328	-109,669	-0,137	-0,021
-599,313	-200,000	-0,012	0,051
-598,298	800,000	0,062	-0,149
-597,284	-200,000	0,001	0,019
-596,269	207,566	0,114	0,128
-595,255	291,453	0,048	-0,063
-594,240	-200,000	0,002	0,105
-593,225	171,007	-0,051	0,053
-592,211	-200,000	0,012	-0,139
-591,196	150,045	-0,074	0,072
-590,182	-200,000	-0,032	-0,150
-589,167	150,613	-0,020	0,020
-588,152	18,252	0,120	0,069
-587,138	118,417	-0,015	-0,013
-586,123	-33,951	0,092	0,036
-585,109	158,427	-0,033	0,033
-584,094	277,709	0,093	-0,120
-583,079	800,000	-0,017	-0,052
-582,065	-200,000	-0,000	0,097
-581,050	-87,304	0,143	0,031
-580,036	18,220	-0,063	-0,036
-579,021	568,646	-0,042	-0,074
-578,006	-200,000	0,050	-0,219
-576,992	-43,138	-0,038	0,014
-575,977	-22,137	0,097	-0,042
-574,963	187,330	-0,081	-0,088
-573,948	3,137	0,062	-0,032
-572,934	-5,295	0,061	0,030
-571,919	-200,000	0,016	-0,136
-570,904	800,000	0,034	-0,069
-569,890	-38,997	-0,060	-0,023
-568,875	99,937	-0,033	0,028
-567,861	-10,365	0,095	0,045
-566,846	-37,583	0,088	-0,034
-565,831	-200,000	-0,011	-0,053
-564,817	-6,529	-0,060	-0,030
-563,802	800,000	-0,018	-0,038
-562,788	-200,000	-0,020	-0,086
-561,773	325,272	0,058	0,079
-560,758	252,445	-0,075	0,092
-559,744	-200,000	-0,005	-0,068
-558,729	54,501	0,030	-0,021
-557,715	-13,593	-0,045	-0,021
-556,700	78,311	-0,117	-0,090
-555,685	572,872	0,052	-0,092
-554,671	-93,025	-0,106	0,021
-553,656	-49,236	0,106	0,036
-552,642	260,833	0,039	0,049
-551,627	-73,653	0,177	0,046
-550,612	800,000	0,022	-0,052
-549,598	-200,000	0,038	-0,152
-548,583	667,432	-0,086	-0,160
-547,569	-107,109	0,158	0,025
-546,554	800,000	0,031	0,082
-545,539	-30,105	0,006	0,002
-544,525	-127,484	-0,088	0,009
-543,510	48,118	0,069	-0,046
-542,496	99,919	0,073	-0,061
-541,481	-109,222	-0,120	0,018
-540,466	30,444	0,068	0,042
-539,452	-200,000	-0,007	0,179
-538,437	110,555	0,132	-0,114
-537,423	-200,000	0,009	0,069
-536,408	-200,000	-0,044	0,217
-535,393	-200,000	-0,003	0,162
-534,379	-182,120	0,094	-0,001
-533,364	-61,812	-0,125	0,037
-532,350	-200,000	0,004	-0,056
-531,335	-8,095	0,102	0,049
-530,321	-200,000	-0,001	0,098
-529,306	-200,000	0,004	0,037
-528,291	362,608	0,032	0,046
-527,277	602,373	-0,034	-0,061
-526,262	286,054	-0,092	-0,120
-525,248	23,029	0,050	-0,030
-524,233	800,000	-0,057	0,120
-523,218	-21,790	-0,082	0,036
-522,204	-110,752	-0,106	-0,015
-521,189	-200,000	0,011	-0,105
-520,175	25,869	-0,051	0,030
-519,160	132,030	0,059	0,054
-518,145	413,772	-0,094	0,145
-517,131	-31,892	-0,057	-0,023
-516,116	778,348	0,037	0,072
-515,102	81,792	-0,125	0,097
-514,087	243,894	0,073	-0,088
-513,072	152,190	-0,171	-0,168
-512,058	-28,271	0,102	0,042
-511,043	800,000	0,005	0,013
-510,029	6,026	0,115	-0,061
-509,014	800,000	0,044	-0,097
-507,999	-200,000	-0,021	0,083
-506,985	609,561	0,086	-0,154
-505,970	206,339	-0,054	-0,061
-504,956	36,804	-0,119	0,075
-503,941	-7,730	0,002	0,001
-502,926	229,019	0,037	0,044
-501,912	-49,702	-0,048	0,016
-500,897	497,457	-0,021	-0,035
-499,883	-2,052	0,040	-0,020
-498,868	-7,376	-0,139	0,068
-497,853	81,882	0,065	-0,051
-496,839	-95,834	0,032	0,006
-495,824	-29,506	-0,171	-0,070
-494,810	-200,000	0,072	-0,233
-493,795	-41,467	-0,047	0,017
-492,781	-200,000	-0,011	-0,149
-491,766	7,514	0,124	-0,066
-490,751	800,000	-0,040	-0,116
-489,737	170,798	-0,099	-0,101
-488,722	451,427	-0,026	0,041
-487,708	-50,133	-0,062	-0,021
-486,693	-50,197	0,102	-0,035
-485,678	-114,283	0,035	-0,005
-484,664	-13,602	-0,089	-0,041
-483,649	-148,523	-0,052	0,003
-482,635	800,000	-0,028	-0,079
-481,620	46,552	0,044	-0,029
-480,605	-5,369	0,083	0,041
-479,591	794,396	0,087	-0,173
-478,576	168,522	-0,068	0,070
-477,562	-200,000	0,021	-0,068
-476,547	800,000	0,028	-0,076
-475,532	179,886	-0,093	-0,097
-474,518	183,694	-0,081	0,086
-473,503	442,887	0,045	0,071
-472,489	151,202	0,043	0,042
-471,474	460,274	-0,072	-0,115
-470,459	-158,663	-0,059	-0,002
-469,445	127,978	-0,088	-0,080
-468,430	-45,117	-0,128	0,045
-467,416	-99,320	-0,071	0,013
-466,401	548,830	-0,035	-0,061
-465,386	233,986	0,054	0,064
-464,372	-66,457	-0,115	-0,033
-463,357	-140,546	-0,170	0,012
-462,343	331,681	-0,051	-0,070
-461,328	-50,521	0,119	0,040
-460,313	800,000	0,021	-0,063
-459,299	4,853	0,066	-0,034
-458,284	-28,705	0,076	-0,031
-457,270	800,000	0,047	-0,101
-456,255	219,920	0,017	-0,020
-455,241	103,201	-0,024	-0,020
-454,226	643,167	0,069	-0,127
-453,211	-33,574	0,062	-0,024
-452,197	277,067	0,106	-0,136
-451,182	-200,000	-0,006	0,067
-450,168	-30,592	-0,087	0,035
-449,153	-200,000	0,006	-0,081
-448,138	-13,667	0,032	-0,015
-447,124	-114,120	0,128	-0,018
-446,109	253,839	-0,134	0,164
-445,095	528,525	0,079	-0,133
-444,080	-46,567	0,096	0,034
-443,065	-200,000	-0,015	0,087
-442,051	157,067	0,023	-0,023
-441,036	98,883	0,042	-0,035
-440,022	-200,000	0,006	0,022
-439,007	48,606	0,084	-0,056
-437,992	141,475	-0,030	0,029
-436,978	467,833	-0,063	0,101
-435,963	-14,973	0,133	0,061
-434,949	204,495	0,020	0,022
-433,934	-31,526	0,083	0,033
-432,919	-200,000	-0,023	-0,075
-431,905	-105,151	-0,069	-0,011
-430,890	466,160	-0,048	0,078
-429,876	-54,313	-0,009	0,003
-428,861	-200,000	0,014	0,062
-427,846	800,000	-0,054	0,145
-426,832	199,335	-0,069	0,076
-425,817	147,440	-0,041	0,039
-424,803	-200,000	-0,027	-0,150
-423,788	-37,778	0,081	0,031
-422,773	-200,000	-0,009	0,105
-421,759	-200,000	-0,004	0,135
-420,744	-13,462	-0,045	-0,021
-419,730	800,000	0,022	0,048
-418,715	800,000	0,016	-0,034
-417,701	-91,018	0,125	0,026
-416,686	-91,722	0,031	-0,006
-415,671	800,000	0,019	0,060
-414,657	701,058	0,124	0,236
-413,642	162,952	-0,039	-0,040
-412,628	184,057	-0,045	-0,047
-411,613	-147,996	0,008	-0,000
-410,598	1,691	-0,100	0,051
-409,584	-6,102	0,122	0,059
-408,569	-200,000	0,020	0,095
-407,555	-200,000	0,008	0,032
-406,540	156,180	-0,051	0,050
-405,525	-200,000	-0,019	0,062
-404,511	-200,000	0,000	0,018
-403,496	-109,959	-0,109	-0,016
-402,482	800,000	-0,058	-0,121
-401,467	-200,000	0,008	0,044
-400,452	-70,797	-0,123	0,033
-399,438	560,346	0,041	0,071
-398,423	800,000	0,025	0,051
-397,409	166,656	-0,058	-0,059
-396,394	800,000	-0,043	-0,108
-395,379	1,094	-0,119	0,061
-394,365	301,653	0,067	0,088
-393,350	9,866	-0,018	-0,010
-392,336	636,655	0,037	0,067
-391,321	-115,743	0,060	0,008
-390,306	-200,000	0,000	-0,012
-389,292	-200,000	-0,035	-0,119
-388,277	-116,019	-0,093	-0,012
-387,263	800,000	0,079	0,165
-386,248	-54,340	0,041	-0,013
-385,233	-133,640	0,112	0,010
-384,219	183,681	0,066	0,070
-383,204	194,927	0,052	0,057
-382,190	106,229	0,066	-0,056
-381,175	-200,000	-0,008	0,154
-380,160	79,587	0,071	-0,054
-379,146	61,351	-0,025	-0,018
-378,131	320,588	0,057	0,078
-377,117	-200,000	0,011	-0,083
-376,102	-169,813	0,080	0,002
-375,088	800,000	-0,059	0,120
-374,073	-105,344	0,136	-0,022
-373,058	-200,000	0,006	0,045
-372,044	-104,503	-0,086	0,014
-371,029	28,503	-0,065	-0,039
-370,015	16,169	-0,033	-0,018
-369,000	39,274	-0,079	-0,051
-367,985	-76,447	0,020	0,005
-366,971	800,000	0,090	-0,192
-365,956	35,407	0,062	-0,039
-364,942	-200,000	0,026	0,000
-363,927	67,011	-0,021	0,015
-362,912	-200,000	-0,000	-0,121
-361,898	159,592	0,073	-0,073
-360,883	74,031	-0,101	-0,076
-359,869	6,902	-0,010	-0,005
-358,854	-151,766	0,046	0,002
-357,839	77,255	0,104	-0,079
-356,825	-178,854	0,080	0,001
-355,810	-200,000	-0,029	0,104
-354,796	800,000	0,045	0,094
-353,781	-135,144	0,159	0,013
-352,766	28,554	-0,140	-0,085
-351,752	-58,037	-0,154	-0,048
-350,737	554,525	-0,017	0,029
-349,723	309,558	0,107	-0,144
-348,708	86,658	-0,060	0,047
-347,693	35,933	0,091	-0,057
-346,679	800,000	-0,049	-0,116
-345,664	-200,000	0,008	0,105
-344,650	-200,000	-0,006	0,182
-343,635	800,000	0,025	0,050
-342,620	-10,731	-0,041	0,019
-341,606	-200,000	-0,014	0,046
-340,591	-33,227	-0,056	0,022
-339,577	800,000	-0,059	-0,143
-338,562	342,468	0,031	-0,044
-337,548	-200,000	0,006	-0,125
-336,533	530,920	0,100	0,170
-335,518	-200,000	0,016	0,140
-334,504	114,169	0,063	0,054
-333,489	69,718	-0,100	0,073
-332,475	800,000	-0,022	-0,067
-331,460	800,000	-0,016	-0,041
-330,445	-161,826	0,051	0,002
-329,431	800,000	0,048	0,131
-328,416	-123,575	0,134	0,015
-327,402	-200,000	-0,033	-0,129
-326,387	-200,000	0,057	0,209
-325,372	-200,000	-0,009	0,036
-324,358	465,619	-0,018	0,028
-323,343	-200,000	0,012	-0,063
-322,329	-200,000	0,010	0,084
-321,314	561,758	0,029	0,051
-320,299	-84,370	0,063	0,014
-319,285	-90,352	-0,043	0,009
-318,270	171,229	-0,026	0,027
-317,256	-1,462	0,055	0,028
-316,241	297,949	0,045	-0,059
-315,226	800,000	0,004	-0,011
-314,212	800,000	0,014	0,029
-313,197	800,000	-0,046	0,136
-312,183	-23,023	0,077	-0,033
-311,168	-82,575	-0,107	0,025
-310,153	-53,625	-0,020	-0,007
-309,139	-124,710	0,073	-0,008
-308,124	50,995	0,078	-0,053
-307,110	-96,531	0,063	0,012
-306,095	404,138	0,022	0,034
-305,080	-92,694	-0,090	0,018
-304,066	-122,272	-0,091	0,010
-303,051	-81,649	0,076	-0,018
-302,037	40,235	-0,133	-0,085
-301,022	69,891	0,090	-0,066
-300,008	-200,000	0,039	0,136
-298,993	223,560	0,155	0,179
-297,978	200,649	-0,033	0,036
-296,964	-200,000	-0,028	0,233
-295,949	-180,866	-0,147	-0,002
-294,935	-19,096	0,034	-0,015
-293,920	345,529	-0,028	0,040
-292,905	-200,000	0,015	0,090
-291,891	215,690	0,057	-0,065
-290,876	800,000	-0,015	0,042
-289,862	-200,000	0,013	-0,071
-288,847	132,845	0,032	0,030
-287,832	105,278	0,053	-0,044
-286,818	256,184	-0,107	-0,131
-285,803	82,079	0,074	-0,057
-284,789	435,747	0,097	0,151
-283,774	-200,000	-0,012	0,063
-282,759	-200,000	-0,012	0,050
-281,745	800,000	-0,027	-0,077
-280,730	52,605	-0,022	-0,015
-279,716	154,944	-0,084	-0,082
-278,701	-134,356	0,100	-0,009
-277,686	-200,000	0,045	0,144
-276,672	75,989	-0,042	-0,031
-275,657	-41,736	0,072	0,026
-274,643	60,109	-0,129	0,091
-273,628	-200,000	-0,026	0,140
-272,613	283,391	0,040	-0,051
-271,599	86,028	-0,062	0,049
-270,584	-31,429	0,038	0,015
-269,570	-9,981	-0,029	0,014
-268,555	77,493	-0,070	-0,053
-267,540	-200,000	0,012	-0,086
-266,526	216,563	0,064	-0,073
-265,511	178,184	0,101	-0,105
-264,497	78,434	0,108	-0,082
-263,482	-200,000	-0,003	0,095
-262,467	19,405	-0,093	0,053
-261,453	800,000	0,075	-0,188
-260,438	-90,090	0,063	0,013
-259,424	-200,000	-0,002	-0,122
-258,409	64,941	0,128	-0,092
-257,395	-200,000	0,003	0,020
-256,380	-26,604	0,111	0,046
-255,365	-69,544	0,121	0,033
-254,351	626,911	-0,051	0,091
-253,336	191,750	-0,150	0,161
-252,322	500,265	-0,132	0,218
-251,307	368,453	0,045	-0,064
-250,292	379,348	0,031	0,045
-249,278	800,000	0,046	0,106
-248,263	-39,076	0,027	-0,010
-247,249	150,773	0,093	0,090
-246,234	-35,082	0,070	-0,027
-245,219	-200,000	-0,007	-0,146
-244,205	120,989	-0,010	-0,009
-243,190	-166,947	0,192	0,005
-242,176	-30,321	-0,095	0,038
-241,161	-82,846	0,032	-0,007
-240,146	26,704	0,077	0,046
-239,132	131,200	-0,077	-0,070
-238,117	-117,047	0,024	0,003
-237,103	5,693	-0,062	0,033
-236,088	294,016	0,023	0,030
-235,073	190,308	0,050	-0,054
-234,059	-12,204	0,142	0,066
-233,044	411,684	-0,056	0,085
-232,030	-30,978	0,125	-0,050
-231,015	-48,734	-0,098	0,033
-230,000	-200,000	-0,014	-0,104
-228,986	800,000	-0,031	-0,091
-227,971	-145,448	-0,119	-0,007
-226,957	73,622	0,081	0,061
-225,942	-83,861	-0,091	-0,020
-224,927	313,766	0,071	-0,095
-223,913	-88,151	-0,079	-0,017
-222,898	800,000	0,047	0,122
-221,884	-113,788	-0,113	0,016
-220,869	-1,400	-0,102	-0,051
-219,855	61,162	0,094	-0,066
-218,840	800,000	0,042	0,097
-217,825	648,625	0,068	-0,125
-216,811	144,522	0,104	-0,099
-215,796	476,862	-0,057	-0,092
-214,782	344,702	-0,052	-0,072
-213,767	-200,000	0,004	-0,091
-212,752	338,155	0,067	0,093
-211,738	800,000	-0,032	-0,087
-210,723	-62,641	0,116	-0,034
-209,709	-45,371	-0,070	-0,024
-208,694	-200,000	-0,035	-0,157
-207,679	-63,745	0,045	-0,013
-206,665	130,457	0,023	0,021
-205,650	-13,632	0,082	0,037
-204,636	288,742	-0,015	0,020
-203,621	36,779	-0,080	-0,050
-202,606	-70,683	0,081	-0,022
-201,592	186,151	-0,136	-0,144
-200,577	-200,000	-0,001	-0,106
-199,563	-22,262	-0,107	0,046
-198,548	-24,091	0,150	0,063
-197,533	-200,000	0,013	0,135
-196,519	800,000	-0,056	0,124
-195,504	5,247	-0,195	0,101
-194,490	800,000	-0,061	-0,122
-193,475	-200,000	-0,010	-0,110
-192,460	614,120	-0,035	0,062
-191,446	-8,467	0,052	-0,025
-190,431	-200,000	-0,012	0,064
-189,417	280,408	0,054	-0,069
-188,402	107,887	-0,024	0,020
-187,387	8,870	-0,035	-0,019
-186,373	469,540	-0,047	0,075
-185,358	541,248	-0,021	-0,036
-184,344	65,696	0,113	0,081
-183,329	248,746	-0,091	0,110
-182,315	313,948	-0,055	-0,074
-181,300	-200,000	-0,002	-0,060
-180,285	379,330	-0,035	-0,051
-179,271	800,000	-0,072	-0,153
-178,256	171,143	0,067	-0,068
-177,242	478,840	0,112	0,181
-176,227	-56,492	-0,096	-0,030
-175,212	5,735	-0,035	0,018
-174,198	751,228	0,039	-0,075
-173,183	17,128	-0,103	-0,058
-172,169	277,311	-0,142	-0,180
-171,154	-200,000	0,002	0,046
-170,139	-200,000	-0,012	0,069
-169,125	208,544	0,042	-0,046
-168,110	800,000	-0,042	-0,087
-167,096	23,128	-0,138	0,080
-166,081	-165,974	-0,048	-0,001
-165,066	-193,451	-0,137	0,001
-164,052	-62,079	-0,131	0,038
-163,037	-200,000	-0,006	0,067
-162,023	169,372	0,056	0,057
-161,008	-200,000	0,013	0,072
-159,993	618,892	-0,026	0,046
-158,979	800,000	-0,085	0,188
-157,964	-200,000	0,003	-0,011
-156,950	-200,000	0,009	-0,040
-155,935	339,425	0,129	-0,179
-154,920	23,937	0,075	0,044
-153,906	-200,000	0,034	0,112
-152,891	-200,000	-0,023	-0,110
-151,877	534,790	-0,048	-0,082
-150,862	134,708	-0,081	0,074
-149,847	77,007	-0,075	0,056
-148,833	94,513	-0,077	0,062
-147,818	7,379	0,281	0,148
-146,804	-200,000	0,023	0,161
-145,789	-200,000	0,042	0,143
-144,775	-200,000	-0,032	0,156
-143,760	-6,862	0,132	-0,064
-142,745	-5,917	-0,030	-0,014
-141,731	-200,000	0,031	0,174
-140,716	534,525	0,058	0,098
-139,702	-49,339	-0,083	0,028
-138,687	-200,000	-0,025	0,085
-137,672	96,930	-0,073	0,060
-136,658	25,653	0,044	-0,026
-135,643	374,521	-0,078	0,113
-134,629	28,855	0,133	0,079
-133,614	49,926	0,114	0,076
-132,599	26,856	0,204	0,121
-131,585	-200,000	0,019	0,125
-130,570	-47,248	-0,097	-0,033
-129,556	-200,000	-0,005	-0,048
-128,541	-200,000	-0,008	-0,050
-127,526	-78,589	-0,047	-0,011
-126,512	-200,000	-0,023	0,140
-125,497	-41,340	0,074	0,027
-124,483	-200,000	-0,044	0,214
-123,468	736,173	0,074	0,140
-122,453	480,801	-0,054	0,087
-121,439	-200,000	-0,006	0,048
-120,424	800,000	-0,021	-0,047
-119,410	-125,531	0,029	0,003
-118,395	119,582	0,080	0,070
-117,380	200,200	-0,038	0,041
-116,366	150,141	-0,073	0,070
-115,351	19,718	-0,054	0,030
-114,337	800,000	0,039	-0,090
-113,322	-200,000	0,027	-0,085
-112,307	800,000	0,068	-0,172
-111,293	-200,000	-0,027	-0,090
-110,278	347,886	-0,138	0,193
-109,264	241,867	0,110	0,130
-108,249	-200,000	-0,012	0,165
-107,234	93,202	-0,112	-0,090
-106,220	-94,897	-0,053	-0,010
-105,205	-200,000	0,021	0,098
-104,191	-65,971	0,122	0,034
-103,176	21,836	0,056	0,032
-102,162	-119,769	0,142	0,017
-101,147	15,224	-0,068	0,038
-100,132	-200,000	-0,003	-0,034
-99,118	-200,000	0,008	0,037
-98,103	-200,000	-0,001	0,036
-97,089	800,000	0,008	-0,017
-96,074	-139,742	-0,107	-0,008
-95,059	800,000	0,054	0,122
-94,045	-82,427	0,093	0,021
-93,030	32,769	-0,081	-0,049
-92,016	61,304	-0,036	0,025
-91,001	-200,000	-0,007	0,073
-89,986	583,321	-0,035	0,061
-88,972	571,441	0,037	-0,064
-87,957	-133,877	-0,026	0,002
-86,943	-200,000	-0,021	0,069
-85,928	74,768	-0,046	0,034
-84,913	42,108	0,056	-0,036
-83,899	-200,000	0,001	-0,067
-82,884	200,065	0,098	0,107
-81,870	-133,131	-0,097	0,009
-80,855	317,960	0,008	-0,010
-79,840	-75,257	-0,035	-0,009
-78,826	567,714	0,024	0,041
-77,811	-200,000	-0,005	0,066
-76,797	-200,000	-0,006	-0,064
-75,782	12,345	-0,044	0,024
-74,767	-200,000	0,014	0,058
-73,753	-200,000	0,042	-0,155
-72,738	800,000	0,009	0,024
-71,724	-52,528	-0,094	-0,031
-70,709	206,729	0,015	0,016
-69,694	576,442	-0,050	0,087
-68,680	93,579	0,107	0,086
-67,665	175,177	0,021	-0,022
-66,651	-111,738	0,108	-0,015
-65,636	35,869	0,055	0,034
-64,622	-195,393	-0,102	0,001
-63,607	-200,000	-0,002	-0,069
-62,592	445,494	0,080	0,124
-61,578	288,139	0,079	0,101
-60,563	-200,000	-0,036	0,123
-59,549	-200,000	0,010	0,039
-58,534	45,207	-1,944	-1,263
-57,519	506,315	-1,187	-1,950
-56,505	-200,000	-0,379	-4,326
-55,490	672,037	0,928	1,705
-54,476	800,000	5,048	11,312
-53,461	-200,000	21,710	343,580
-52,446	800,000	762,810	2341,191
-51,432	546,476	1660,808	2814,667
-50,417	71,305	1656,780	1211,916
-49,403	17,244	1530,444	854,746
-48,388	11,223	1454,736	783,396
-47,373	19,342	1446,132	817,615
-46,359	14,776	1435,091	789,677
-45,344	9,546	1431,175	762,633
-44,330	9,510	1429,047	761,296
-43,315	9,485	1427,364	760,253
-42,300	9,515	1425,570	759,407
-41,286	9,521	1424,196	758,674
-40,271	9,454	1423,126	757,756
-39,257	9,476	1421,980	757,221
-38,242	9,515	1420,688	756,688
-37,227	9,550	1419,585	756,237
-36,213	9,509	1418,705	755,545
-35,198	9,563	1417,009	754,866
-34,184	9,560	1416,280	754,433
-33,169	9,496	1414,900	753,364
-32,154	9,520	1413,997	752,968
-31,140	9,548	1412,596	752,323
-30,125	9,545	1411,631	751,767
-29,111	9,547	1410,453	751,119
-28,096	9,494	1409,325	750,240
-27,082	9,487	1407,722	749,321
-26,067	9,404	1407,282	748,672
-25,052	9,522	1405,861	748,436
-24,038	9,512	1404,955	747,876
-23,023	9,515	1404,136	747,425
-22,009	9,491	1402,924	746,641
-20,994	9,501	1401,986	746,155
-19,979	9,463	1401,292	745,580
-18,965	9,451	1400,137	744,881
-17,950	9,442	1399,095	744,254
-16,936	9,427	1398,398	743,785
-15,921	9,368	1397,523	743,018
-14,906	9,439	1396,458	742,750
-13,892	9,398	1395,521	742,033
-12,877	9,415	1394,818	741,705
-11,863	9,374	1393,915	741,010
-10,848	9,405	1392,871	740,567
-9,833	9,338	1391,914	739,718
-8,819	9,283	1391,199	739,053
-7,804	9,277	1390,235	738,488
-6,790	9,283	1389,128	737,898
-5,775	9,313	1388,025	737,421
-4,760	9,259	1387,241	736,723
-3,746	9,328	1386,147	736,431
-2,731	9,343	1385,180	735,960
-1,717	9,285	1384,471	735,284
-0,702	9,252	1382,784	734,207
0,313	13,330	1295,075	706,228
1,327	29,409	686,254	410,499
2,342	45,892	118,447	77,149
3,356	2,379	16,392	8,339
4,371	8,493	3,681	1,948
5,386	6,568	1,191	0,622
6,400	-200,000	0,075	0,510
7,415	131,508	-0,196	-0,178
8,429	114,790	-0,315	-0,270
9,444	-3,343	-0,436	-0,213
10,459	168,975	-0,189	-0,190
11,473	427,526	-0,177	-0,270
12,488	45,337	-0,169	-0,110
13,502	69,033	-0,319	-0,230
14,517	-36,881	-0,347	-0,130
15,531	27,076	-0,274	-0,162
16,546	83,812	-0,348	-0,268
17,561	136,342	-0,338	-0,311
18,575	-48,548	-0,209	-0,070
19,590	-2,538	-0,251	-0,123
20,604	-126,051	-0,203	-0,021
21,619	-12,242	-0,404	-0,185
22,634	56,225	-0,337	-0,230
23,648	54,443	-0,388	-0,263
24,663	-32,929	-0,385	-0,150
25,677	57,564	-0,339	-0,233
26,692	115,476	-0,326	-0,280
27,707	74,791	-0,346	-0,256
28,721	90,805	-0,318	-0,251
29,736	123,769	-0,464	-0,410
30,750	387,728	-0,209	-0,306
31,765	81,665	-0,387	-0,294
32,780	76,528	-0,382	-0,284
33,794	71,483	-0,282	-0,206
34,809	497,852	-0,164	-0,267
35,823	-24,023	-0,350	-0,146
36,838	-68,176	-0,409	-0,111
37,853	141,336	-0,349	-0,325
38,867	-21,243	-0,429	-0,184
39,882	-10,653	-0,229	-0,106
40,896	87,161	-0,209	-0,163
41,911	-54,979	-0,346	-0,109
42,926	38,263	-0,316	-0,197
43,940	45,315	-0,287	-0,186
44,955	129,503	-0,434	-0,389
45,969	91,222	-0,365	-0,288
46,984	-85,038	-0,337	-0,074
47,999	31,968	-0,204	-0,123
49,013	74,040	-0,336	-0,248
50,028	83,649	-0,260	-0,199
51,042	171,907	-0,328	-0,331
52,057	-7,824	-0,392	-0,185
53,071	337,360	-0,178	-0,244
54,086	-1,284	-0,304	-0,150
55,101	42,293	-0,376	-0,240
56,115	104,353	-0,340	-0,281
57,130	76,599	-0,285	-0,212
58,144	-27,857	-0,507	-0,205
59,159	182,969	-0,335	-0,347
60,174	-66,332	-0,448	-0,124
61,188	-20,975	-0,404	-0,173
62,203	-84,008	-0,384	-0,085
63,217	23,458	-0,250	-0,144
64,232	5,268	-0,286	-0,147
65,247	67,018	-0,286	-0,204
66,261	85,817	-0,285	-0,220
67,276	153,481	-0,322	-0,309
68,290	313,191	-0,245	-0,324
69,305	158,703	-0,159	-0,155
70,320	51,523	-0,307	-0,204
71,334	70,526	-0,298	-0,216
72,349	279,384	-0,255	-0,320
73,363	63,746	-0,388	-0,273
74,378	77,664	-0,181	-0,135
75,393	-6,625	-0,331	-0,157
76,407	37,514	-0,286	-0,177
77,422	-90,369	-0,285	-0,057
78,436	-149,510	-0,266	-0,015
79,451	16,031	-0,352	-0,194
80,466	130,872	-0,297	-0,267
81,480	38,985	-0,358	-0,224
82,495	-19,176	-0,241	-0,104
83,509	112,876	-0,280	-0,238
84,524	23,915	-0,286	-0,165
85,539	77,769	-0,196	-0,146
86,553	-63,442	-0,231	-0,066
87,568	-49,082	-0,398	-0,133
88,582	-20,967	-0,363	-0,155
89,597	155,133	-0,178	-0,172
90,611	-19,625	-0,321	-0,138
91,626	-19,465	-0,242	-0,104
92,641	-77,975	-0,303	-0,073
93,655	193,056	-0,209	-0,221
94,670	-17,027	-0,355	-0,156
95,684	77,488	-0,295	-0,219
96,699	-148,450	-0,271	-0,015
97,714	8,670	-0,329	-0,173
98,728	116,976	-0,186	-0,160
99,743	-32,277	-0,161	-0,063
100,757	110,946	-0,240	-0,202
101,772	12,841	-0,207	-0,111
102,787	-101,282	-0,273	-0,046
103,801	-38,026	-0,197	-0,073
104,816	18,051	-0,304	-0,169
105,830	-63,811	-0,217	-0,062
106,845	-27,596	-0,295	-0,119
107,860	-51,150	-0,186	-0,061
108,874	-47,900	-0,329	-0,111
109,889	82,387	-0,323	-0,245
110,903	117,293	-0,271	-0,233
111,918	214,141	-0,173	-0,191
112,933	-72,934	-0,180	-0,046
113,947	-172,388	-0,100	-0,002
114,962	109,204	-0,190	-0,158
115,976	87,489	-0,255	-0,197
116,991	-108,953	-0,213	-0,031
118,006	196,242	-0,253	-0,270
119,020	208,629	-0,169	-0,185
120,035	-1,179	-0,217	-0,107
121,049	-38,205	-0,276	-0,102
122,064	66,871	-0,180	-0,128
123,079	37,382	-0,351	-0,217
124,093	46,581	-0,338	-0,219
125,108	548,187	-0,132	-0,222
126,122	719,446	-0,119	-0,222
127,137	-35,023	-0,321	-0,121
128,151	41,599	-0,193	-0,121
129,166	297,734	-0,110	-0,142
130,181	193,616	-0,286	-0,302
131,195	153,933	-0,316	-0,303
132,210	34,740	-0,395	-0,240
133,224	-25,483	-0,307	-0,126
134,239	103,402	-0,273	-0,223
135,254	352,964	-0,096	-0,133
136,268	155,252	-0,163	-0,156
137,283	169,786	-0,167	-0,167
138,297	67,162	-0,333	-0,237
139,312	-40,772	-0,191	-0,069
140,327	-31,289	-0,300	-0,117
141,341	-86,406	-0,258	-0,055
142,356	134,732	-0,144	0,131
143,370	-79,645	-0,292	-0,068
144,385	43,512	-0,324	-0,206
145,400	180,819	-0,207	-0,212
146,414	11,990	-0,312	-0,167
147,429	-10,397	-0,139	-0,064
148,443	158,782	-0,183	-0,177
149,458	225,248	-0,184	-0,208
150,473	-186,208	-0,287	-0,003
151,487	61,668	-0,201	-0,139
152,502	-31,427	-0,245	-0,095
153,516	71,193	-0,279	-0,201
154,531	62,983	-0,286	-0,199
155,546	85,166	-0,246	-0,188
156,560	59,957	-0,301	-0,207
157,575	-86,769	-0,087	-0,018
158,589	31,441	-0,223	-0,133
159,604	99,000	-0,224	-0,180
160,619	204,845	-0,224	-0,242
161,633	367,518	-0,161	-0,227
162,648	33,725	-0,116	-0,070
163,662	153,214	-0,189	-0,180
164,677	36,303	-0,298	-0,182
165,692	3,446	-0,239	-0,121
166,706	305,089	-0,199	-0,257
167,721	127,302	-0,252	-0,223
168,735	-61,914	-0,306	-0,088
169,750	-30,492	-0,318	-0,125
170,764	69,805	-0,178	-0,127
171,779	226,597	-0,209	-0,237
172,794	800,000	-0,114	-0,251
173,808	766,869	-0,108	-0,204
174,823	151,187	-0,275	-0,260
175,837	492,889	-0,100	-0,159
176,852	84,845	-0,283	-0,215
177,867	-53,941	-0,125	-0,039
178,881	305,038	-0,085	-0,110
179,896	35,076	-0,122	-0,074
180,910	-42,967	-0,201	-0,070
181,925	-15,638	-0,355	-0,156
182,940	-52,476	-0,232	-0,074
183,954	104,329	-0,203	-0,166
184,969	58,117	-0,184	-0,125
185,983	83,167	-0,184	-0,139
186,998	4,129	-0,258	-0,130
188,013	40,682	-0,327	-0,204
189,027	79,365	-0,138	-0,102
190,042	59,205	-0,198	-0,135
191,056	77,463	-0,278	-0,205
192,071	-200,000	-0,057	-0,205
193,086	228,956	-0,124	-0,140
194,100	23,002	-0,156	-0,088
195,115	-22,036	-0,173	-0,072
196,129	4,462	-0,236	-0,120
197,144	22,504	-0,145	-0,082
198,159	64,946	-0,198	-0,138
199,173	800,000	-0,069	-0,136
200,188	130,415	-0,259	-0,230
201,202	-40,990	-0,125	-0,045
202,217	-126,206	-0,352	0,036
203,232	-200,000	-0,054	-0,236
204,246	163,954	-0,159	-0,156
205,261	-44,659	-0,119	-0,041
206,275	31,181	-0,102	-0,061
207,290	800,000	-0,087	-0,197
208,304	-86,324	-0,297	-0,063
209,319	1,142	-0,227	-0,112
210,334	-200,000	-0,005	-0,048
211,348	-8,850	-0,238	-0,110
212,363	223,750	-0,192	-0,215
213,377	-56,765	-0,114	-0,035
214,392	275,872	-0,152	-0,188
215,407	-44,517	-0,217	-0,075
216,421	729,446	-0,064	-0,119
217,436	800,000	-0,061	-0,119
218,450	129,675	-0,165	-0,146
219,465	800,000	-0,119	-0,241
220,480	51,093	-0,288	-0,189
221,494	189,045	-0,094	-0,098
222,509	-167,622	-0,226	-0,006
223,523	53,254	-0,133	-0,088
224,538	119,141	-0,174	-0,149
225,553	-157,116	-0,202	-0,008
226,567	59,774	-0,255	-0,174
227,582	794,826	-0,130	-0,249
228,596	295,465	-0,209	-0,266
229,611	-200,000	-0,058	-0,249
230,626	-36,255	-0,154	0,057
231,640	-186,414	-0,170	-0,002
232,655	130,686	-0,294	-0,261
233,669	-11,598	-0,161	-0,073
234,684	92,307	-0,214	-0,167
235,699	386,921	-0,158	-0,227
236,713	41,496	-0,158	-0,099
237,728	800,000	-0,087	-0,176
238,742	-85,544	-0,196	-0,042
239,757	-95,297	-0,232	-0,043
240,772	-32,460	-0,202	-0,078
241,786	224,847	-0,197	-0,220
242,801	150,377	-0,087	0,081
243,815	79,782	-0,184	-0,137
244,830	44,592	-0,133	-0,084
245,844	-117,275	-0,142	0,018
246,859	26,270	-0,231	-0,133
247,874	800,000	-0,053	-0,115
248,888	193,902	-0,157	-0,164
249,903	287,335	-0,208	-0,260
250,917	-120,573	-0,133	0,015
251,932	703,562	-0,105	-0,191
252,947	-13,420	-0,188	-0,084
253,961	509,007	-0,108	-0,174
254,976	-136,102	-0,174	-0,014
255,990	536,594	-0,124	-0,204
257,005	-39,805	-0,197	-0,070
258,020	-200,000	-0,077	-0,254
259,034	637,925	-0,072	-0,127
260,049	32,699	-0,068	0,040
261,063	185,770	-0,169	-0,174
262,078	114,876	-0,065	-0,054
263,093	20,580	-0,201	-0,112
264,107	127,285	-0,227	-0,199
265,122	95,890	-0,107	-0,084
266,136	-48,882	-0,175	-0,057
267,151	205,806	-0,060	-0,064
268,166	-200,000	-0,043	-0,207
269,180	800,000	-0,091	-0,230
270,195	281,568	-0,143	-0,177
271,209	47,516	-0,191	-0,122
272,224	-40,163	-0,096	-0,034
273,239	33,495	-0,142	0,085
274,253	800,000	-0,125	-0,245
275,268	95,480	-0,140	-0,110
276,282	23,866	-0,240	-0,136
277,297	147,135	-0,137	-0,127
278,312	-28,443	-0,027	0,011
279,326	-75,034	-0,236	0,058
280,341	73,998	-0,133	-0,096
281,355	208,133	-0,059	-0,063
282,370	-170,935	-0,184	-0,004
283,384	-160,263	-0,241	-0,009
284,399	-70,361	-0,184	0,048
285,414	105,421	-0,168	-0,137
286,428	132,930	-0,111	-0,099
287,443	31,711	-0,097	-0,057
288,457	61,259	-0,095	-0,065
289,472	-161,925	-0,156	-0,005
290,487	650,826	-0,060	-0,106
291,501	314,402	-0,153	-0,198
292,516	-69,048	-0,328	-0,086
293,530	-10,837	-0,165	-0,075
294,545	35,103	-0,163	-0,098
295,560	113,064	-0,106	-0,088
296,574	86,841	-0,151	-0,115
297,589	30,461	-0,264	-0,155
298,603	18,392	-0,292	-0,160
299,618	-200,000	-0,004	-0,134
300,633	160,473	-0,089	0,085
301,647	-200,000	0,027	-0,124
302,662	-68,042	-0,072	-0,019
303,676	-11,869	-0,169	0,076
304,691	445,234	-0,066	-0,100
305,706	196,684	-0,144	-0,151
306,720	447,888	-0,093	-0,141
307,735	184,820	-0,114	-0,116
308,749	83,312	-0,088	-0,066
309,764	-187,613	-0,129	0,001
310,779	800,000	0,017	-0,039
311,793	-150,505	-0,141	-0,007
312,808	38,745	-0,150	-0,092
313,822	-114,295	-0,108	-0,014
314,837	-122,721	-0,172	-0,019
315,852	18,497	-0,109	-0,060
316,866	-200,000	0,010	-0,064
317,881	35,899	-0,185	-0,111
318,895	-39,080	-0,067	-0,024
319,910	-73,118	-0,252	-0,063
320,925	-200,000	-0,034	-0,109
321,939	95,212	-0,143	-0,112
322,954	46,807	-0,188	-0,120
323,968	-200,000	0,001	-0,089
324,983	130,129	-0,150	0,132
325,997	-39,472	-0,102	0,036
327,012	-106,421	-0,221	-0,034
328,027	800,000	-0,050	-0,111
329,041	90,239	-0,206	-0,158
330,056	72,744	0,020	0,014
331,070	403,158	-0,064	-0,093
332,085	-110,122	-0,116	0,016
333,100	-94,148	-0,141	-0,026
334,114	-27,632	-0,045	-0,018
335,129	800,000	-0,051	-0,109
336,143	-2,734	-0,198	-0,094
337,158	-101,224	-0,095	-0,016
338,173	-110,616	-0,050	-0,007
339,187	23,254	-0,155	0,087
340,202	116,509	-0,197	-0,165
341,216	39,556	-0,154	-0,094
342,231	133,095	-0,155	-0,137
343,246	800,000	-0,086	-0,188
344,260	15,050	-0,142	-0,076
345,275	6,277	0,008	0,004
346,289	244,801	-0,098	0,113
347,304	75,644	-0,081	-0,059
348,319	-93,063	-0,209	-0,039
349,333	18,744	-0,115	-0,063
350,348	160,608	-0,109	-0,104
351,362	59,555	-0,087	-0,059
352,377	168,325	-0,135	-0,131
353,392	-136,421	-0,120	-0,009
354,406	160,659	-0,147	-0,140
355,421	208,031	1307,383	1398,606
356,435	160,058	1467,183	1399,086
