DTS Sentinel unit serial number:	SN410029Multiplexer serial number:	ORYXHardware model number:	OX2-SRSoftware version number:	ORYX F/W v4,00 Oryx Data Collector v3.7.2.0data status	okinstallation	B3 Nyhavnadifferential loss correction	single-endedforward channel	channel 1reverse channel	N/Adate	2023/11/30time	12:12:30forward acquisition time	300,00reverse acquisition time	0,00gamma	499,1914k internal	0,3212k external	0,3212temperature offset calibration	1,0000default loss term (dB/km)	0,3820temperature slope calibration	1,0000multiplexer offset coefficient	1,0000multiplexer slope coefficient	1,0000fibre end	0,00T internal ref (°C)	9,53T ext. ref 1 (°C)	-4,87T ext. ref 2 (°C)	-4,94length (m)	temperature (°C)	Stokes	anti-Stokes-744,400	350,888	-0,172	-0,248
-743,385	-200,000	-0,066	0,234
-742,371	800,000	-0,113	-0,239
-741,356	-200,000	-0,027	0,353
-740,342	-106,900	-0,124	-0,020
-739,327	-200,000	0,036	0,243
-738,312	800,000	-0,156	-0,348
-737,298	-200,000	0,018	0,245
-736,283	226,744	-0,222	-0,261
-735,269	800,000	-0,087	0,278
-734,254	119,754	-0,277	-0,249
-733,239	-200,000	-0,011	0,068
-732,225	144,742	-0,198	-0,191
-731,210	120,958	0,121	0,109
-730,196	-117,887	-0,100	-0,013
-729,181	-200,000	-0,026	-0,159
-728,167	-200,000	0,025	-0,088
-727,152	137,457	-0,040	-0,038
-726,137	-9,520	-0,140	-0,067
-725,123	-200,000	0,001	0,004
-724,108	13,173	0,034	0,019
-723,094	341,217	-0,051	-0,073
-722,079	286,798	-0,123	-0,161
-721,064	8,800	-0,137	-0,075
-720,050	-167,254	-0,226	0,006
-719,035	13,150	-0,154	0,086
-718,021	5,305	-0,130	-0,069
-717,006	437,408	-0,018	-0,028
-715,991	-82,872	-0,152	-0,035
-714,977	58,700	0,176	-0,125
-713,962	-200,000	-0,006	0,157
-712,948	-76,518	-0,112	0,028
-711,933	328,088	0,066	0,093
-710,918	230,268	0,073	0,086
-709,904	53,938	-0,064	-0,044
-708,889	-21,077	-0,139	-0,061
-707,875	237,609	-0,080	-0,097
-706,860	233,298	0,104	-0,124
-705,845	-200,000	-0,009	0,216
-704,831	352,914	0,025	0,036
-703,816	-148,036	0,081	-0,005
-702,802	241,180	-0,098	0,118
-701,787	-168,038	-0,086	-0,002
-700,772	800,000	0,019	0,041
-699,758	-200,000	-0,015	0,064
-698,743	-37,016	0,204	0,079
-697,729	-56,151	-0,175	-0,056
-696,714	-120,054	-0,125	0,015
-695,699	-79,358	0,008	0,002
-694,685	450,558	-0,084	-0,134
-693,670	800,000	-0,067	0,144
-692,656	-105,783	-0,107	0,017
-691,641	394,527	0,092	0,139
-690,627	-152,329	0,034	-0,002
-689,612	-200,000	-0,007	0,089
-688,597	-169,977	0,089	-0,002
-687,583	-110,379	-0,080	-0,012
-686,568	44,105	0,018	0,012
-685,554	-108,114	-0,056	0,009
-684,539	-200,000	-0,003	0,099
-683,524	20,247	-0,051	0,030
-682,510	-200,000	-0,004	0,048
-681,495	-13,030	0,079	0,037
-680,481	311,161	-0,050	-0,067
-679,466	800,000	0,036	-0,103
-678,451	-24,458	-0,135	0,058
-677,437	-73,351	0,199	-0,052
-676,422	800,000	0,019	0,054
-675,408	386,649	-0,050	0,075
-674,393	439,198	-0,035	-0,055
-673,378	800,000	-0,024	-0,056
-672,364	-67,550	-0,081	-0,023
-671,349	-200,000	-0,034	-0,261
-670,335	-200,000	0,004	0,066
-669,320	88,876	-0,038	0,030
-668,305	-200,000	0,011	-0,056
-667,291	655,610	-0,022	-0,041
-666,276	476,649	-0,084	-0,138
-665,262	-200,000	-0,010	-0,078
-664,247	800,000	0,027	-0,066
-663,232	-101,656	0,172	0,030
-662,218	-200,000	-0,021	0,171
-661,203	708,667	-0,006	0,012
-660,189	-200,000	-0,004	-0,119
-659,174	800,000	-0,051	-0,162
-658,159	-200,000	-0,001	0,017
-657,145	145,680	-0,056	-0,054
-656,130	-87,514	-0,180	-0,039
-655,116	-48,402	0,030	-0,010
-654,101	-200,000	0,027	-0,160
-653,086	14,731	0,141	0,080
-652,072	-9,544	-0,076	-0,037
-651,057	785,459	-0,069	-0,138
-650,043	-93,420	0,070	0,014
-649,028	306,270	-0,050	-0,067
-648,014	365,984	-0,066	0,096
-646,999	-12,287	0,043	-0,020
-645,984	766,931	0,018	-0,036
-644,970	-114,232	0,077	0,011
-643,955	156,316	-0,083	-0,083
-642,941	80,930	-0,063	0,049
-641,926	114,354	-0,127	-0,112
-640,911	169,052	0,078	0,080
-639,897	-200,000	-0,000	0,067
-638,882	25,751	-0,129	-0,077
-637,868	52,948	0,111	-0,076
-636,853	36,146	-0,144	-0,091
-635,838	-200,000	-0,035	-0,180
-634,824	-200,000	-0,007	-0,110
-633,809	463,108	-0,032	0,052
-632,795	185,575	0,043	0,046
-631,780	-114,961	-0,102	0,014
-630,765	-143,575	0,042	-0,003
-629,751	-200,000	0,004	-0,088
-628,736	-79,537	-0,063	-0,015
-627,722	430,942	-0,018	-0,029
-626,707	-200,000	-0,016	0,053
-625,692	-200,000	0,004	0,140
-624,678	327,011	0,019	-0,026
-623,663	-200,000	-0,000	0,191
-622,649	200,538	-0,142	-0,157
-621,634	800,000	-0,016	-0,048
-620,619	-200,000	-0,002	0,033
-619,605	-26,690	-0,146	-0,061
-618,590	-200,000	0,007	0,167
-617,576	365,816	0,034	0,049
-616,561	-13,844	0,027	0,013
-615,546	54,998	-0,165	-0,115
-614,532	420,060	-0,062	-0,096
-613,517	85,473	0,133	-0,105
-612,503	800,000	-0,043	-0,096
-611,488	21,354	0,095	0,055
-610,474	-191,069	-0,046	-0,000
-609,459	47,327	-0,118	0,079
-608,444	295,851	0,008	0,011
-607,430	545,251	0,025	-0,043
-606,415	-200,000	-0,004	-0,021
-605,401	-0,955	-0,037	0,019
-604,386	800,000	0,073	0,160
-603,371	36,999	0,035	0,022
-602,357	800,000	0,039	-0,096
-601,342	164,186	-0,110	-0,112
-600,328	-75,842	-0,118	0,030
-599,313	-98,831	0,090	-0,016
-598,298	800,000	-0,021	-0,044
-597,284	324,405	0,070	0,097
-596,269	-65,532	-0,109	0,031
-595,255	60,986	0,085	0,061
-594,240	-72,385	0,073	-0,019
-593,225	800,000	-0,054	-0,125
-592,211	-200,000	-0,027	-0,209
-591,196	157,971	-0,056	-0,056
-590,182	60,713	0,014	-0,010
-589,167	725,377	0,039	0,075
-588,152	-200,000	0,027	0,136
-587,138	-99,887	0,097	-0,017
-586,123	219,248	-0,152	-0,175
-585,109	328,952	0,077	-0,107
-584,094	-200,000	-0,017	0,103
-583,079	686,012	0,023	0,043
-582,065	-80,404	-0,120	0,029
-581,050	244,826	-0,053	0,064
-580,036	800,000	-0,050	-0,133
-579,021	-114,879	0,014	0,002
-578,006	73,450	0,036	-0,027
-576,992	-104,840	0,090	0,015
-575,977	267,524	-0,055	0,069
-574,963	-200,000	0,001	-0,082
-573,948	273,779	-0,042	0,054
-572,934	-99,770	-0,085	0,015
-571,919	4,612	-0,059	0,031
-570,904	-94,546	0,051	0,010
-569,890	245,702	0,076	-0,093
-568,875	-200,000	0,013	0,135
-567,861	107,513	0,076	-0,065
-566,846	452,068	0,045	0,071
-565,831	-200,000	0,011	0,101
-564,817	86,510	0,091	0,072
-563,802	127,553	-0,096	-0,088
-562,788	795,866	-0,035	-0,070
-561,773	151,470	0,072	0,070
-560,758	92,595	0,107	0,087
-559,744	328,304	0,112	0,156
-558,729	-15,990	-0,066	-0,030
-557,715	449,410	-0,074	0,117
-556,700	255,891	-0,068	0,085
-555,685	445,608	-0,023	0,037
-554,671	-200,000	0,037	0,187
-553,656	-139,104	-0,046	0,004
-552,642	-89,605	0,078	0,016
-551,627	-120,365	0,234	0,028
-550,612	87,893	-0,038	-0,030
-549,598	-48,782	0,011	0,004
-548,583	-151,662	-0,091	-0,005
-547,569	800,000	-0,044	-0,115
-546,554	-200,000	0,007	0,188
-545,539	-151,207	0,118	-0,006
-544,525	-200,000	0,007	0,156
-543,510	-200,000	-0,009	-0,113
-542,496	-14,756	-0,083	-0,038
-541,481	-9,166	-0,131	0,063
-540,466	-104,386	-0,049	0,008
-539,452	800,000	0,102	-0,242
-538,437	-33,913	0,120	0,047
-537,423	279,308	0,088	0,114
-536,408	-35,360	-0,106	-0,041
-535,393	800,000	0,005	-0,014
-534,379	248,351	-0,036	-0,044
-533,364	256,112	-0,014	-0,017
-532,350	53,645	0,119	0,082
-531,335	349,787	-0,067	-0,096
-530,321	232,152	-0,120	-0,142
-529,306	-200,000	0,027	-0,221
-528,291	-200,000	-0,014	-0,048
-527,277	-109,963	0,025	0,004
-526,262	800,000	0,037	-0,083
-525,248	523,949	-0,058	-0,099
-524,233	43,625	0,150	0,098
-523,218	-65,017	0,048	0,014
-522,204	-162,966	0,123	0,004
-521,189	479,453	0,063	-0,102
-520,175	-39,704	-0,027	0,010
-519,160	-138,761	-0,080	0,006
-518,145	9,489	0,209	-0,113
-517,131	173,447	0,007	-0,007
-516,116	-41,131	-0,034	-0,013
-515,102	166,536	-0,089	-0,091
-514,087	520,096	-0,019	-0,032
-513,072	-101,650	0,096	-0,017
-512,058	-200,000	0,013	-0,090
-511,043	103,428	0,039	-0,033
-510,029	272,821	0,093	0,119
-509,014	-85,191	-0,099	-0,022
-507,999	115,338	0,162	0,143
-506,985	-49,950	-0,256	0,087
-505,970	-153,691	-0,022	0,001
-504,956	-154,154	0,079	0,004
-503,941	149,847	-0,030	-0,030
-502,926	260,549	0,060	0,074
-501,912	-53,614	-0,127	0,042
-500,897	-66,780	0,091	-0,026
-499,883	-200,000	-0,003	0,078
-498,868	201,945	0,071	0,079
-497,853	800,000	-0,040	-0,121
-496,839	800,000	0,014	-0,043
-495,824	84,417	0,181	0,142
-494,810	-200,000	0,004	0,111
-493,795	-200,000	-0,008	0,116
-492,781	-26,482	-0,216	-0,090
-491,766	42,844	0,049	-0,032
-490,751	179,611	0,052	0,055
-489,737	-131,333	0,053	-0,005
-488,722	132,548	-0,030	0,027
-487,708	192,648	0,073	0,079
-486,693	191,392	0,036	0,039
-485,678	69,617	0,049	0,036
-484,664	65,305	0,067	0,049
-483,649	-162,470	-0,155	0,005
-482,635	-153,080	-0,057	-0,003
-481,620	776,057	0,019	-0,037
-480,605	135,553	0,098	0,091
-479,591	169,387	-0,110	-0,113
-478,576	59,172	0,029	-0,020
-477,562	-200,000	0,005	0,022
-476,547	76,075	0,066	-0,050
-475,532	-28,089	-0,163	-0,067
-474,518	27,230	0,160	0,096
-473,503	-145,199	0,024	0,002
-472,489	-200,000	-0,001	0,028
-471,474	751,293	-0,046	-0,090
-470,459	-40,959	-0,085	0,031
-469,445	800,000	-0,037	-0,091
-468,430	800,000	0,051	-0,113
-467,416	800,000	-0,088	-0,186
-466,401	-0,291	0,088	0,044
-465,386	104,384	-0,051	-0,043
-464,372	-200,000	0,004	0,019
-463,357	-122,019	-0,064	-0,007
-462,343	-70,287	-0,047	-0,013
-461,328	-200,000	0,001	-0,074
-460,313	1,650	-0,040	-0,021
-459,299	-92,543	0,137	-0,027
-458,284	-200,000	-0,010	-0,116
-457,270	106,552	0,044	-0,038
-456,255	47,589	0,016	0,011
-455,241	-127,213	-0,101	0,010
-454,226	-191,655	-0,077	0,001
-453,211	354,931	0,026	0,037
-452,197	-73,830	0,047	0,012
-451,182	275,698	0,058	0,073
-450,168	111,539	-0,021	0,018
-449,153	-29,928	-0,148	-0,060
-448,138	-119,103	0,081	-0,010
-447,124	-200,000	-0,001	0,095
-446,109	165,490	0,049	0,050
-445,095	-200,000	0,001	-0,019
-444,080	800,000	0,008	0,018
-443,065	715,007	-0,048	-0,091
-442,051	78,178	0,083	0,063
-441,036	-38,099	-0,033	0,012
-440,022	561,187	-0,037	-0,064
-439,007	88,535	0,036	0,029
-437,992	-200,000	-0,003	-0,059
-436,978	93,304	-0,137	0,111
-435,963	-34,000	0,071	-0,028
-434,949	-143,784	0,063	-0,004
-433,934	800,000	-0,040	-0,100
-432,919	-110,562	-0,105	0,015
-431,905	-167,176	-0,060	0,002
-430,890	-200,000	-0,006	0,178
-429,876	345,575	0,075	0,106
-428,861	160,856	0,047	0,048
-427,846	-200,000	0,022	0,074
-426,832	155,324	0,051	0,050
-425,817	-177,999	-0,195	-0,003
-424,803	-200,000	-0,002	0,037
-423,788	91,976	0,027	0,022
-422,773	-82,035	0,119	0,028
-421,759	-200,000	-0,001	0,087
-420,744	-143,227	0,060	-0,004
-419,730	-31,828	0,027	0,011
-418,715	-81,443	-0,108	0,025
-417,701	134,491	-0,069	0,064
-416,686	-200,000	-0,005	0,066
-415,671	-161,392	0,146	-0,005
-414,657	511,162	0,052	0,088
-413,642	-52,890	-0,063	-0,021
-412,628	-200,000	0,005	0,102
-411,613	138,958	0,059	-0,056
-410,598	-78,249	-0,033	-0,008
-409,584	800,000	0,050	-0,103
-408,569	-21,941	-0,013	-0,006
-407,555	-136,336	0,101	0,008
-406,540	-200,000	-0,002	-0,019
-405,525	-0,379	-0,147	-0,074
-404,511	-35,910	0,051	0,020
-403,496	191,795	-0,017	0,019
-402,482	263,195	0,079	0,098
-401,467	-82,918	-0,072	-0,016
-400,452	-200,000	0,041	0,000
-399,438	-200,000	-0,002	-0,041
-398,423	-200,000	0,016	0,178
-397,409	107,182	-0,148	-0,126
-396,394	-200,000	0,005	-0,060
-395,379	261,221	0,127	-0,158
-394,365	800,000	0,014	0,033
-393,350	800,000	-0,080	0,162
-392,336	-35,468	-0,054	-0,021
-391,321	66,185	-0,056	0,041
-390,306	800,000	-0,024	-0,073
-389,292	205,775	-0,044	-0,049
-388,277	-200,000	-0,014	-0,066
-387,263	-200,000	-0,005	-0,058
-386,248	218,932	0,017	-0,019
-385,233	-39,667	0,035	0,013
-384,219	170,130	-0,032	0,032
-383,204	-200,000	-0,030	0,123
-382,190	225,931	-0,068	0,079
-381,175	-200,000	-0,006	-0,033
-380,160	-42,141	0,063	-0,023
-379,146	-4,870	0,081	0,040
-378,131	243,576	0,072	-0,087
-377,117	23,234	0,047	0,027
-376,102	-200,000	0,015	-0,072
-375,088	-83,179	0,053	0,012
-374,073	-89,760	-0,073	0,015
-373,058	766,497	0,050	0,098
-372,044	69,027	0,100	-0,073
-371,029	-6,558	-0,127	0,061
-370,015	800,000	0,033	-0,089
-369,000	800,000	0,016	0,043
-367,985	24,358	-0,263	0,155
-366,971	102,691	-0,083	-0,069
-365,956	-200,000	0,007	0,119
-364,942	-42,444	0,072	-0,026
-363,927	-165,234	0,157	-0,005
-362,912	211,093	0,065	-0,073
-361,898	331,238	-0,060	-0,082
-360,883	575,859	0,031	-0,055
-359,869	800,000	0,010	-0,028
-358,854	-127,978	-0,049	-0,005
-357,839	140,336	0,060	0,056
-356,825	-200,000	-0,015	0,076
-355,810	-200,000	0,019	0,079
-354,796	-200,000	-0,006	0,046
-353,781	-200,000	-0,006	0,032
-352,766	488,357	0,076	-0,125
-351,752	800,000	-0,038	0,117
-350,737	23,495	0,065	-0,038
-349,723	-39,024	0,162	0,060
-348,708	-87,581	0,077	-0,017
-347,693	22,004	-0,131	-0,076
-346,679	-200,000	-0,001	0,036
-345,664	800,000	-0,024	-0,050
-344,650	184,270	0,023	0,024
-343,635	285,157	-0,040	0,052
-342,620	-200,000	-0,011	-0,078
-341,606	-200,000	0,014	0,089
-340,591	800,000	0,020	0,040
-339,577	164,249	0,108	-0,109
-338,562	-74,811	0,121	0,031
-337,548	114,942	0,042	-0,037
-336,533	-200,000	0,017	0,080
-335,518	102,209	0,077	-0,064
-334,504	-200,000	-0,025	0,144
-333,489	-200,000	-0,006	-0,137
-332,475	-27,125	-0,089	-0,037
-331,460	-69,882	0,140	0,038
-330,445	3,603	-0,238	-0,123
-329,431	-136,479	0,106	0,009
-328,416	-200,000	0,007	0,109
-327,402	-123,330	0,058	-0,007
-326,387	161,716	0,067	-0,067
-325,372	480,433	-0,077	-0,124
-324,358	337,987	-0,076	-0,105
-323,343	-114,118	0,025	0,003
-322,329	-200,000	-0,011	-0,051
-321,314	150,068	0,096	0,093
-320,299	-200,000	0,012	0,102
-319,285	-16,223	-0,082	0,037
-318,270	-122,994	-0,077	0,009
-317,256	447,540	-0,039	0,062
-316,241	37,905	-0,113	-0,071
-315,226	800,000	-0,045	-0,090
-314,212	800,000	0,028	0,074
-313,197	-38,185	0,124	0,047
-312,183	-200,000	-0,010	-0,033
-311,168	-41,273	-0,076	-0,028
-310,153	487,962	0,014	0,022
-309,139	121,564	-0,129	0,114
-308,124	-200,000	-0,018	-0,090
-307,110	-170,523	0,084	-0,002
-306,095	-200,000	-0,010	0,039
-305,080	-88,121	-0,120	0,025
-304,066	-93,628	-0,129	0,025
-303,051	800,000	0,081	-0,175
-302,037	-44,983	-0,093	0,033
-301,022	-114,709	0,082	0,011
-300,008	468,596	0,042	0,067
-298,993	800,000	0,064	-0,140
-297,978	-21,792	0,057	0,025
-296,964	-200,000	0,075	-0,306
-295,949	-149,602	0,031	0,002
-294,935	122,199	-0,043	0,038
-293,920	185,044	-0,095	-0,100
-292,905	-50,454	-0,023	-0,008
-291,891	-200,000	0,009	0,048
-290,876	619,093	0,007	-0,013
-289,862	262,747	0,049	0,061
-288,847	31,231	0,100	-0,061
-287,832	152,987	-0,065	0,063
-286,818	5,450	-0,076	0,040
-285,803	-152,937	-0,081	-0,004
-284,789	35,768	0,173	0,108
-283,774	-200,000	0,026	0,141
-282,759	-200,000	-0,002	-0,043
-281,745	-189,420	0,028	-0,000
-280,730	-200,000	0,003	-0,108
-279,716	-200,000	-0,029	-0,183
-278,701	-7,669	-0,045	-0,022
-277,686	9,985	0,079	0,043
-276,672	140,158	0,071	-0,066
-275,657	330,410	0,066	-0,091
-274,643	110,345	0,074	-0,063
-273,628	-81,476	-0,148	0,034
-272,613	-150,804	-0,077	-0,004
-271,599	-200,000	-0,020	0,148
-270,584	-200,000	-0,007	0,089
-269,570	43,639	0,104	0,067
-268,555	-12,177	-0,169	0,078
-267,540	-168,055	-0,036	-0,001
-266,526	62,660	-0,062	-0,044
-265,511	709,993	0,070	-0,133
-264,497	-200,000	0,001	0,044
-263,482	252,218	-0,070	-0,085
-262,467	-69,413	0,059	0,016
-261,453	543,029	-0,067	0,113
-260,438	-200,000	-0,004	-0,042
-259,424	-131,987	0,225	0,021
-258,409	-14,219	-0,193	-0,088
-257,395	-106,263	0,109	-0,017
-256,380	-124,321	0,182	-0,020
-255,365	-200,000	-0,021	0,067
-254,351	450,071	0,075	0,118
-253,336	22,138	-0,164	0,095
-252,322	27,195	-0,040	-0,024
-251,307	-200,000	-0,002	-0,083
-250,292	-89,729	-0,098	-0,020
-249,278	800,000	-0,026	0,078
-248,263	-200,000	-0,003	0,010
-247,249	35,459	0,077	0,048
-246,234	18,897	-0,117	0,067
-245,219	-200,000	0,005	-0,104
-244,205	-200,000	0,021	-0,076
-243,190	-200,000	-0,034	0,117
-242,176	-200,000	-0,003	0,081
-241,161	290,779	0,036	0,046
-240,146	-116,801	-0,138	-0,018
-239,132	148,017	-0,061	-0,059
-238,117	56,565	0,080	0,055
-237,103	-200,000	0,018	0,061
-236,088	121,086	0,009	0,008
-235,073	-16,020	0,186	0,084
-234,059	151,600	0,020	-0,019
-233,044	-49,886	-0,134	0,045
-232,030	122,059	-0,042	-0,038
-231,015	86,013	0,079	-0,062
-230,000	110,456	-0,031	-0,027
-228,986	-200,000	0,012	-0,094
-227,971	-56,078	0,132	-0,042
-226,957	-200,000	0,007	-0,091
-225,942	-200,000	0,022	-0,150
-224,927	-200,000	0,000	-0,009
-223,913	-24,825	-0,106	-0,044
-222,898	800,000	0,033	-0,079
-221,884	-162,666	0,022	-0,001
-220,869	-129,071	0,144	0,014
-219,855	133,029	0,039	-0,036
-218,840	-106,613	-0,083	0,013
-217,825	800,000	-0,015	-0,039
-216,811	800,000	0,031	0,077
-215,796	-200,000	0,009	-0,141
-214,782	-200,000	-0,027	-0,192
-213,767	298,214	0,094	0,122
-212,752	800,000	0,009	0,020
-211,738	-124,174	-0,135	-0,015
-210,723	762,569	-0,048	-0,092
-209,709	-114,144	-0,080	0,011
-208,694	800,000	-0,016	-0,044
-207,679	125,072	-0,055	-0,049
-206,665	800,000	-0,011	-0,035
-205,650	440,925	-0,097	0,151
-204,636	98,325	-0,079	0,064
-203,621	-20,555	-0,026	0,011
-202,606	-102,548	-0,072	0,012
-201,592	134,375	-0,075	-0,069
-200,577	-111,760	0,044	-0,006
-199,563	549,023	0,040	0,068
-198,548	29,344	0,108	0,065
-197,533	-200,000	0,001	-0,080
-196,519	159,393	0,175	0,173
-195,504	800,000	-0,031	-0,071
-194,490	-8,091	-0,087	-0,041
-193,475	-200,000	0,026	-0,114
-192,460	3,352	-0,047	-0,024
-191,446	-200,000	-0,012	0,082
-190,431	-200,000	-0,010	0,037
-189,417	800,000	-0,055	0,119
-188,402	-200,000	-0,001	0,134
-187,387	800,000	0,046	0,093
-186,373	178,969	-0,047	0,049
-185,358	800,000	0,051	-0,137
-184,344	-92,411	0,227	-0,045
-183,329	303,489	-0,075	-0,098
-182,315	590,257	0,052	0,091
-181,300	181,355	0,020	-0,021
-180,285	51,719	-0,028	0,019
-179,271	-200,000	0,001	0,023
-178,256	800,000	0,024	-0,062
-177,242	-200,000	-0,011	-0,063
-176,227	506,371	-0,085	0,140
-175,212	110,856	-0,034	0,029
-174,198	-200,000	0,002	-0,088
-173,183	64,475	-0,015	0,011
-172,169	800,000	-0,060	0,158
-171,154	-200,000	0,033	-0,117
-170,139	800,000	0,040	0,102
-169,125	111,255	0,146	0,125
-168,110	111,334	0,060	-0,052
-167,096	800,000	-0,024	0,057
-166,081	552,020	0,065	-0,111
-165,066	-122,683	-0,118	0,013
-164,052	-200,000	-0,002	0,159
-163,037	-118,821	-0,050	0,006
-162,023	430,746	0,028	0,044
-161,008	800,000	-0,023	0,061
-159,993	800,000	-0,059	0,122
-158,979	-200,000	-0,004	0,042
-157,964	-200,000	0,020	-0,066
-156,950	-11,423	0,051	-0,024
-155,935	800,000	0,037	-0,079
-154,920	800,000	0,042	-0,111
-153,906	38,068	0,109	-0,068
-152,891	-200,000	-0,015	0,075
-151,877	-200,000	-0,025	-0,152
-150,862	-113,651	-0,090	-0,012
-149,847	222,116	-0,099	-0,113
-148,833	800,000	-0,031	0,083
-147,818	111,256	0,103	0,088
-146,804	168,912	0,003	0,003
-145,789	153,661	-0,041	-0,040
-144,775	508,812	-0,043	-0,070
-143,760	-200,000	-0,018	0,056
-142,745	89,644	-0,022	0,017
-141,731	266,142	-0,069	0,085
-140,716	-200,000	0,008	0,150
-139,702	-200,000	0,012	0,057
-138,687	-95,415	0,072	0,014
-137,672	-26,439	-0,141	-0,058
-136,658	138,876	-0,077	-0,071
-135,643	2,336	0,063	0,032
-134,629	404,612	-0,050	0,075
-133,614	800,000	-0,049	0,096
-132,599	-91,512	0,128	0,026
-131,585	168,813	0,015	-0,015
-130,570	167,306	-0,104	-0,104
-129,556	-95,370	-0,080	0,015
-128,541	19,416	-0,147	-0,083
-127,526	-200,000	-0,039	-0,128
-126,512	-37,509	0,153	0,057
-125,497	-200,000	-0,019	0,062
-124,483	-66,578	-0,038	0,010
-123,468	683,499	-0,090	0,166
-122,453	-45,153	0,162	-0,057
-121,439	800,000	0,019	-0,054
-120,424	-200,000	-0,053	-0,189
-119,410	465,963	-0,069	0,110
-118,395	800,000	0,043	0,133
-117,380	-96,877	-0,104	0,019
-116,366	14,303	-0,061	0,034
-115,351	-200,000	0,004	-0,048
-114,337	-200,000	0,043	-0,159
-113,322	401,124	-0,030	0,045
-112,307	230,873	-0,036	-0,042
-111,293	800,000	-0,022	0,061
-110,278	-130,661	0,044	-0,004
-109,264	800,000	0,023	-0,067
-108,249	-127,747	-0,130	0,013
-107,234	-122,809	-0,159	-0,018
-106,220	-200,000	-0,037	-0,150
-105,205	-200,000	0,013	-0,080
-104,191	-200,000	0,035	0,118
-103,176	52,599	-0,118	-0,080
-102,162	45,394	-0,110	0,072
-101,147	-200,000	-0,031	-0,105
-100,132	-200,000	-0,031	-0,120
-99,118	434,461	-0,044	-0,067
-98,103	-200,000	0,013	0,116
-97,089	-61,132	-0,057	0,017
-96,074	800,000	0,012	-0,028
-95,059	233,635	-0,065	0,076
-94,045	191,215	-0,051	-0,054
-93,030	-200,000	0,007	-0,082
-92,016	45,071	0,094	-0,061
-91,001	800,000	0,046	-0,127
-89,986	-200,000	0,018	-0,112
-88,972	-145,888	0,142	0,009
-87,957	-200,000	-0,003	-0,032
-86,943	-200,000	-0,015	-0,155
-85,928	61,852	-0,140	0,098
-84,913	-6,428	-0,036	0,017
-83,899	-91,519	0,101	0,020
-82,884	-200,000	-0,021	0,079
-81,870	131,158	0,075	-0,068
-80,855	800,000	-0,039	-0,103
-79,840	-200,000	0,005	-0,032
-78,826	-200,000	-0,021	-0,133
-77,811	-106,642	0,033	-0,005
-76,797	19,396	0,125	-0,071
-75,782	587,671	0,041	-0,072
-74,767	-200,000	0,044	0,151
-73,753	78,801	-0,051	-0,038
-72,738	-79,712	0,096	-0,023
-71,724	-29,759	-0,020	0,008
-70,709	-200,000	-0,003	0,012
-69,694	-200,000	-0,045	-0,271
-68,680	-200,000	0,010	-0,127
-67,665	-40,237	-0,064	-0,024
-66,651	151,234	0,021	-0,020
-65,636	-200,000	0,005	0,061
-64,622	485,561	-0,042	-0,067
-63,607	-23,954	-0,019	-0,008
-62,592	349,710	0,087	-0,121
-61,578	-76,605	-0,151	-0,037
-60,563	-200,000	0,006	-0,033
-59,549	-200,000	-0,013	0,052
-58,534	79,076	-1,964	-1,483
-57,519	533,888	-1,202	-2,017
-56,505	-200,000	-0,291	-4,408
-55,490	350,076	1,035	1,447
-54,476	800,000	5,187	11,219
-53,461	-200,000	21,703	344,389
-52,446	800,000	763,471	2347,168
-51,432	548,883	1663,215	2822,530
-50,417	71,775	1659,640	1215,871
-49,403	17,344	1532,779	856,180
-48,388	11,347	1456,760	784,740
-47,373	19,378	1448,205	818,598
-46,359	14,910	1437,282	791,168
-45,344	9,670	1433,249	763,993
-44,330	9,613	1431,428	762,719
-43,315	9,569	1429,495	761,450
-42,300	9,587	1427,676	760,538
-41,286	9,654	1426,426	760,159
-40,271	9,603	1425,092	759,176
-39,257	9,566	1424,201	758,494
-38,242	9,591	1423,133	758,017
-37,227	9,592	1422,041	757,409
-36,213	9,612	1420,604	756,706
-35,198	9,631	1419,377	756,112
-34,184	9,627	1418,527	755,609
-33,169	9,545	1417,239	754,509
-32,154	9,611	1416,322	754,302
-31,140	9,649	1414,804	753,641
-30,125	9,645	1413,825	753,071
-29,111	9,631	1412,481	752,259
-28,096	9,615	1411,137	751,437
-27,082	9,608	1410,040	750,792
-26,067	9,503	1409,336	749,894
-25,052	9,587	1407,990	749,544
-24,038	9,614	1407,103	749,167
-23,023	9,587	1405,989	748,419
-22,009	9,558	1405,219	747,843
-20,994	9,532	1404,142	747,120
-19,979	9,545	1403,453	746,783
-18,965	9,552	1402,431	746,243
-17,950	9,504	1401,483	745,483
-16,936	9,507	1400,674	745,039
-15,921	9,449	1399,539	744,137
-14,906	9,471	1398,765	743,798
-13,892	9,531	1397,556	743,402
-12,877	9,502	1396,919	742,900
-11,863	9,462	1396,003	742,196
-10,848	9,438	1394,977	741,511
-9,833	9,441	1394,183	741,073
-8,819	9,386	1393,362	740,352
-7,804	9,368	1392,582	739,826
-6,790	9,384	1391,357	739,222
-5,775	9,360	1390,398	738,569
-4,760	9,398	1389,327	738,147
-3,746	9,407	1388,472	737,704
-2,731	9,359	1387,549	736,966
-1,717	9,366	1386,837	736,587
-0,702	9,394	1385,060	735,747
0,313	13,418	1297,377	707,549
1,327	29,507	688,024	411,595
2,342	45,993	118,966	77,491
3,356	-0,629	16,619	8,283
4,371	1,835	3,727	1,888
5,386	2,125	1,030	0,523
6,400	800,000	0,219	0,662
7,415	416,067	-0,122	-0,183
8,429	116,349	-0,275	-0,238
9,444	339,079	-0,231	-0,318
10,459	47,725	-0,203	-0,134
11,473	-65,698	-0,332	-0,093
12,488	-5,823	-0,269	-0,129
13,502	18,219	-0,291	-0,163
14,517	212,013	-0,277	-0,308
15,531	246,635	-0,329	-0,391
16,546	-13,304	-0,330	-0,150
17,561	46,632	-0,415	-0,271
18,575	-28,787	-0,262	-0,106
19,590	240,827	-0,244	-0,287
20,604	135,891	-0,199	-0,182
21,619	97,506	-0,415	-0,336
22,634	19,025	-0,414	-0,233
23,648	181,710	-0,444	-0,461
24,663	122,749	-0,316	-0,278
25,677	44,067	-0,503	-0,324
26,692	120,072	-0,342	-0,298
27,707	149,026	-0,306	-0,291
28,721	69,941	-0,298	-0,216
29,736	175,645	-0,319	-0,326
30,750	105,211	-0,394	-0,327
31,765	86,298	-0,368	-0,285
32,780	62,313	-0,327	-0,230
33,794	37,811	-0,318	-0,198
34,809	59,514	-0,339	-0,235
35,823	23,424	-0,371	-0,214
36,838	-61,130	-0,322	-0,095
37,853	33,303	-0,447	-0,272
38,867	102,348	-0,447	-0,367
39,882	3,889	-0,413	-0,211
40,896	600,553	-0,201	-0,352
41,911	120,425	-0,251	-0,219
42,926	68,471	-0,332	-0,239
43,940	169,846	-0,353	-0,354
44,955	335,618	-0,232	-0,317
45,969	175,369	-0,339	-0,345
46,984	102,986	-0,333	-0,274
47,999	111,971	-0,255	-0,216
49,013	-57,233	-0,341	-0,105
50,028	-36,368	-0,377	-0,142
51,042	205,286	-0,258	-0,282
52,057	253,432	-0,177	-0,213
53,071	28,046	-0,374	-0,221
54,086	137,160	-0,357	-0,328
55,101	52,173	-0,285	-0,191
56,115	779,072	-0,199	-0,384
57,130	9,427	-0,428	-0,226
58,144	-7,824	-0,431	-0,203
59,159	72,581	-0,346	-0,253
60,174	25,779	-0,361	-0,211
61,188	17,718	-0,245	-0,136
62,203	71,970	-0,190	-0,139
63,217	13,272	-0,296	-0,160
64,232	121,940	-0,302	-0,264
65,247	157,505	-0,303	-0,295
66,261	80,682	-0,419	-0,316
67,276	125,656	-0,315	-0,279
68,290	170,293	-0,278	-0,279
69,305	197,486	-0,262	-0,281
70,320	92,964	-0,308	-0,244
71,334	9,538	-0,249	-0,132
72,349	-88,956	-0,349	-0,072
73,363	93,373	-0,212	-0,168
74,378	186,148	-0,273	-0,285
75,393	52,082	-0,393	-0,262
76,407	800,000	-0,118	-0,239
77,422	332,911	-0,213	-0,289
78,436	99,811	-0,276	-0,223
79,451	-30,147	-0,407	-0,161
80,466	36,017	-0,325	-0,200
81,480	65,459	-0,295	-0,209
82,495	8,407	-0,258	-0,136
83,509	140,893	-0,221	-0,205
84,524	370,950	-0,197	-0,280
85,539	254,550	-0,166	-0,199
86,553	-91,956	-0,316	-0,062
87,568	179,326	-0,266	-0,272
88,582	71,109	-0,317	-0,230
89,597	24,271	-0,324	-0,187
90,611	-152,787	-0,155	-0,008
91,626	-5,713	-0,239	-0,114
92,641	258,725	-0,201	-0,243
93,655	44,338	-0,340	-0,218
94,670	205,640	-0,217	-0,236
95,684	365,921	-0,172	-0,243
96,699	-30,691	-0,354	-0,140
97,714	-30,682	-0,279	-0,110
98,728	308,039	-0,128	-0,168
99,743	268,920	-0,282	-0,347
100,757	-63,266	-0,344	-0,098
101,772	212,666	-0,236	-0,261
102,787	134,904	-0,343	-0,311
103,801	28,730	-0,267	-0,158
104,816	89,572	-0,281	-0,219
105,830	268,743	-0,197	-0,242
106,845	291,884	-0,207	-0,263
107,860	-85,375	-0,241	-0,052
108,874	110,713	-0,255	-0,214
109,889	2,612	-0,357	-0,180
110,903	800,000	-0,174	-0,359
111,918	16,183	-0,261	-0,143
112,933	117,440	-0,243	-0,209
113,947	270,556	-0,106	-0,130
114,962	-38,101	-0,193	-0,071
115,976	280,097	-0,217	-0,272
116,991	66,618	-0,222	-0,158
118,006	492,422	-0,174	-0,280
119,020	259,698	-0,187	-0,225
120,035	-59,200	-0,346	-0,103
121,049	46,775	-0,203	-0,132
122,064	13,876	-0,293	-0,158
123,079	-56,216	-0,271	-0,084
124,093	146,606	-0,199	-0,187
125,108	323,091	-0,228	-0,304
126,122	209,997	-0,141	-0,154
127,137	144,146	-0,203	-0,189
128,151	246,440	-0,171	-0,202
129,166	800,000	-0,076	-0,148
130,181	143,494	-0,229	-0,213
131,195	794,107	-0,175	-0,338
132,210	-9,015	-0,267	-0,124
133,224	5,155	-0,261	-0,134
134,239	304,280	-0,161	-0,209
135,254	-62,789	-0,197	-0,056
136,268	503,201	-0,140	-0,226
137,283	-13,661	-0,169	-0,076
138,297	276,071	-0,178	-0,220
139,312	66,790	-0,370	-0,262
140,327	119,524	-0,301	-0,259
141,341	122,262	-0,199	-0,173
142,356	91,125	-0,319	-0,249
143,370	-40,354	-0,321	-0,116
144,385	11,860	-0,249	-0,133
145,400	96,467	-0,252	-0,201
146,414	430,161	-0,194	-0,293
147,429	147,932	-0,208	-0,196
148,443	342,068	-0,184	-0,251
149,458	165,199	-0,193	-0,190
150,473	740,902	-0,138	-0,260
151,487	-54,977	-0,215	-0,067
152,502	202,965	-0,140	-0,151
153,516	106,905	-0,256	-0,212
154,531	151,894	-0,265	-0,252
155,546	522,767	-0,133	-0,218
156,560	-70,705	-0,291	-0,076
157,575	33,220	-0,211	-0,127
158,589	25,494	-0,261	-0,151
159,604	109,392	-0,196	-0,163
160,619	51,290	-0,244	-0,161
161,633	15,249	-0,193	-0,105
162,648	92,574	-0,303	-0,238
163,662	-200,000	-0,053	-0,205
164,677	-5,200	-0,350	-0,167
165,692	-14,729	-0,173	-0,077
166,706	37,000	-0,153	-0,094
167,721	30,297	-0,250	-0,148
168,735	323,148	-0,224	-0,298
169,750	403,877	-0,130	-0,190
170,764	6,936	-0,165	-0,085
171,779	800,000	-0,097	-0,194
172,794	166,587	-0,246	-0,243
173,808	116,553	-0,270	-0,230
174,823	-147,189	-0,176	-0,010
175,837	245,547	-0,271	-0,318
176,852	-20,281	-0,213	-0,091
177,867	54,107	-0,209	-0,139
178,881	-78,548	-0,105	0,025
179,896	510,249	-0,140	-0,227
180,910	59,171	-0,243	-0,166
181,925	68,179	-0,283	-0,201
182,940	60,240	-0,336	-0,230
183,954	17,383	-0,283	-0,155
184,969	75,809	-0,236	-0,173
185,983	267,120	-0,142	-0,172
186,998	64,349	-0,134	-0,094
188,013	800,000	-0,112	-0,217
189,027	42,768	-0,299	-0,189
190,042	-81,232	-0,315	-0,071
191,056	800,000	-0,126	-0,368
192,071	-8,616	-0,199	-0,092
193,086	-101,193	-0,242	-0,041
194,100	-34,374	-0,170	-0,064
195,115	-50,407	-0,345	-0,112
196,129	-104,673	-0,268	-0,042
197,144	55,216	-0,265	-0,177
198,159	305,242	-0,137	-0,177
199,173	87,083	-0,274	-0,210
200,188	478,167	-0,157	-0,248
201,202	800,000	-0,107	-0,233
202,217	326,029	-0,138	-0,184
203,232	149,697	-0,266	-0,249
204,246	233,352	-0,194	-0,221
205,261	-115,576	-0,178	-0,023
206,275	32,733	-0,181	-0,108
207,290	16,894	-0,201	-0,110
208,304	-59,841	-0,158	-0,046
209,319	279,128	-0,122	-0,151
210,334	-200,000	-0,054	-0,180
211,348	130,241	-0,273	-0,242
212,363	800,000	-0,138	-0,341
213,377	163,298	-0,218	-0,213
214,392	214,691	-0,165	-0,181
215,407	208,533	-0,136	-0,147
216,421	168,597	-0,197	-0,194
217,436	30,759	-0,263	-0,155
218,450	133,137	-0,240	-0,215
219,465	280,703	-0,202	-0,251
220,480	-17,545	-0,183	-0,079
221,494	302,777	-0,134	-0,172
222,509	-72,122	-0,206	-0,053
223,523	-85,943	-0,231	-0,049
224,538	89,364	-0,221	-0,170
225,553	81,610	-0,304	-0,227
226,567	243,229	-0,159	-0,185
227,582	547,944	-0,132	-0,220
228,596	166,349	-0,164	-0,161
229,611	72,781	-0,107	-0,077
230,626	-97,297	-0,143	-0,025
231,640	439,238	-0,100	-0,151
232,655	165,413	-0,204	-0,200
233,669	-41,773	-0,258	-0,091
234,684	136,345	-0,109	-0,099
235,699	18,044	-0,180	-0,099
236,713	28,015	-0,176	-0,103
237,728	-50,998	-0,163	-0,052
238,742	75,505	-0,164	-0,119
239,757	-154,173	-0,158	-0,007
240,772	-80,945	-0,182	-0,041
241,786	126,095	-0,135	-0,118
242,801	396,204	-0,082	-0,119
243,815	119,362	-0,043	-0,037
244,830	-64,329	-0,135	-0,038
245,844	-77,293	-0,167	-0,040
246,859	85,272	-0,144	-0,109
247,874	257,917	-0,187	-0,223
248,888	267,891	-0,172	-0,208
249,903	273,952	-0,153	-0,187
250,917	33,861	-0,270	-0,162
251,932	634,598	-0,048	-0,084
252,947	154,999	-0,118	-0,112
253,961	77,944	-0,144	-0,106
254,976	9,474	-0,260	-0,136
255,990	31,885	-0,190	-0,113
257,005	250,753	-0,119	-0,139
258,020	-81,201	-0,027	0,006
259,034	282,834	-0,107	0,133
260,049	21,582	-0,188	0,105
261,063	315,948	-0,095	-0,124
262,078	145,891	-0,192	-0,177
263,093	88,631	-0,291	-0,223
264,107	269,714	-0,169	-0,204
265,122	76,482	-0,287	-0,209
266,136	102,043	-0,101	-0,081
267,151	724,920	-0,083	-0,154
268,166	470,553	-0,161	-0,250
269,180	-127,372	-0,310	-0,031
270,195	195,572	-0,201	-0,211
271,209	-200,000	-0,023	-0,130
272,224	800,000	-0,083	-0,200
273,239	-42,339	-0,194	0,068
274,253	439,236	-0,145	-0,219
275,268	-28,459	-0,137	-0,054
276,282	0,391	-0,145	0,071
277,297	198,911	-0,257	-0,271
278,312	7,428	-0,127	-0,065
279,326	55,622	-0,194	-0,129
280,341	69,357	-0,232	-0,164
281,355	142,366	-0,220	-0,201
282,370	269,438	-0,139	-0,168
283,384	800,000	-0,134	-0,258
284,399	421,792	-0,194	-0,288
285,414	257,756	-0,103	-0,122
286,428	544,820	-0,081	-0,133
287,443	175,878	-0,154	-0,154
288,457	108,910	-0,060	0,049
289,472	48,550	-0,106	0,068
290,487	24,013	-0,170	-0,096
291,501	283,792	-0,153	-0,190
292,516	183,281	-0,066	-0,067
293,530	253,716	-0,137	-0,161
294,545	-105,149	-0,170	-0,026
295,560	-57,009	-0,127	0,038
296,574	-49,575	-0,189	-0,061
297,589	83,625	-0,083	-0,062
298,603	331,624	-0,108	-0,143
299,618	-200,000	0,031	-0,243
300,633	-200,000	-0,034	-0,278
301,647	599,616	-0,061	-0,104
302,662	26,969	-0,076	-0,043
303,676	800,000	-0,044	-0,105
304,691	87,857	-0,101	0,077
305,706	127,920	-0,217	-0,189
306,720	338,001	-0,146	-0,196
307,735	-63,975	-0,179	0,050
308,749	65,829	-0,199	0,138
309,764	800,000	-0,039	0,093
310,779	-65,726	-0,191	-0,052
311,793	44,755	-0,235	-0,148
312,808	148,306	-0,218	-0,202
313,822	138,612	-0,207	-0,186
314,837	-41,544	-0,066	-0,023
315,852	-125,689	-0,212	-0,022
316,866	130,183	-0,125	-0,110
317,881	783,994	0,101	-0,192
318,895	470,120	-0,080	-0,123
319,910	186,736	-0,079	-0,081
320,925	800,000	-0,106	-0,249
321,939	-105,561	-0,117	0,018
322,954	8,147	-0,157	-0,081
323,968	-17,137	-0,099	-0,043
324,983	-9,100	-0,112	-0,051
325,997	224,912	-0,170	-0,189
327,012	163,681	-0,178	-0,171
328,027	119,778	-0,152	-0,129
329,041	321,554	-0,079	-0,103
330,056	200,402	-0,068	-0,072
331,070	133,937	-0,055	-0,049
332,085	-200,000	-0,029	-0,120
333,100	800,000	-0,074	-0,207
334,114	69,654	-0,058	-0,041
335,129	189,924	-0,170	-0,175
336,143	450,450	-0,094	-0,143
337,158	-120,737	-0,126	-0,014
338,173	-200,000	0,018	0,142
339,187	-118,254	-0,073	0,009
340,202	251,997	-0,058	-0,068
341,216	-33,440	-0,219	-0,082
342,231	79,244	-0,212	-0,155
343,246	5,884	-0,140	-0,071
344,260	-39,859	-0,110	0,039
345,275	-51,743	-0,150	-0,048
346,289	68,746	-0,111	-0,078
347,304	178,661	-0,127	-0,127
348,319	800,000	-0,082	-0,175
349,333	271,722	-0,232	-0,281
350,348	315,324	-0,078	-0,100
351,362	254,762	-0,153	-0,180
352,377	25,031	-0,100	-0,056
353,392	301,915	-0,090	-0,113
354,406	800,000	-0,045	-0,132
355,421	206,359	1312,053	1397,916
356,435	158,702	1472,407	1398,379
