DTS Sentinel unit serial number:	SN410029Multiplexer serial number:	ORYXHardware model number:	OX2-SRSoftware version number:	ORYX F/W v4,00 Oryx Data Collector v3.7.2.0data status	okinstallation	B3 Nyhavnadifferential loss correction	single-endedforward channel	channel 1reverse channel	N/Adate	2023/11/29time	23:07:30forward acquisition time	300,00reverse acquisition time	0,00gamma	499,1914k internal	0,3211k external	0,3211temperature offset calibration	1,0000default loss term (dB/km)	0,3820temperature slope calibration	1,0000multiplexer offset coefficient	1,0000multiplexer slope coefficient	1,0000fibre end	0,00T internal ref (°C)	10,87T ext. ref 1 (°C)	-3,95T ext. ref 2 (°C)	-4,04length (m)	temperature (°C)	Stokes	anti-Stokes-744,400	710,373	-0,200	-0,386
-743,385	764,984	0,053	0,106
-742,371	-200,000	-0,104	-0,383
-741,356	-200,000	-0,034	0,308
-740,342	46,323	-0,288	-0,194
-739,327	-200,000	0,068	0,281
-738,312	-200,000	-0,096	-0,379
-737,298	191,387	0,092	0,100
-736,283	-39,717	-0,264	-0,100
-735,269	395,396	0,195	0,295
-734,254	194,802	-0,252	-0,277
-733,239	-59,514	-0,254	0,079
-732,225	-200,000	-0,069	-0,272
-731,210	-53,358	0,137	0,045
-730,196	-200,000	-0,024	-0,124
-729,181	-124,538	0,045	0,005
-728,167	70,372	0,142	0,107
-727,152	800,000	-0,003	0,008
-726,137	140,877	0,031	-0,030
-725,123	79,630	0,045	0,035
-724,108	800,000	-0,024	-0,056
-723,094	800,000	-0,073	-0,199
-722,079	33,219	0,108	-0,068
-721,064	800,000	0,059	-0,149
-720,050	104,338	-0,042	0,036
-719,035	-148,322	0,100	0,006
-718,021	91,189	-0,149	-0,121
-717,006	-25,151	0,023	-0,010
-715,991	219,734	-0,042	-0,048
-714,977	4,308	-0,093	-0,049
-713,962	-39,716	-0,089	-0,033
-712,948	49,313	-0,017	0,012
-711,933	-200,000	-0,004	0,087
-710,918	-158,398	-0,107	-0,004
-709,904	800,000	0,010	-0,020
-708,889	324,027	-0,060	-0,084
-707,875	73,807	-0,060	-0,045
-706,860	-121,962	0,055	-0,006
-705,845	1,863	-0,037	0,019
-704,831	-200,000	0,006	0,067
-703,816	-200,000	-0,007	0,111
-702,802	-200,000	-0,024	-0,155
-701,787	351,163	-0,052	-0,074
-700,772	525,390	0,076	-0,129
-699,758	800,000	0,023	-0,052
-698,743	-200,000	0,014	-0,068
-697,729	-29,413	-0,132	0,055
-696,714	519,389	0,039	-0,066
-695,699	424,485	0,066	-0,103
-694,685	6,758	-0,117	-0,063
-693,670	-115,430	-0,119	-0,016
-692,656	-134,386	-0,046	-0,004
-691,641	-98,166	-0,108	0,020
-690,627	800,000	0,019	-0,039
-689,612	131,129	0,115	-0,107
-688,597	-200,000	-0,013	-0,169
-687,583	474,744	0,037	-0,060
-686,568	-200,000	0,004	-0,182
-685,554	177,066	-0,094	-0,099
-684,539	19,656	0,085	-0,049
-683,524	13,059	0,047	0,026
-682,510	68,564	0,078	-0,058
-681,495	-70,706	0,050	-0,014
-680,481	364,740	-0,028	-0,041
-679,466	607,181	-0,046	-0,084
-678,451	361,246	-0,015	0,021
-677,437	39,677	0,037	-0,024
-676,422	14,927	-0,049	0,028
-675,408	-46,680	-0,059	-0,021
-674,393	-162,556	0,102	-0,004
-673,378	-200,000	0,000	-0,214
-672,364	800,000	-0,032	-0,099
-671,349	-5,378	-0,134	-0,067
-670,335	2,354	-0,065	-0,034
-669,320	800,000	0,045	0,127
-668,305	132,772	-0,110	-0,103
-667,291	82,020	-0,147	0,115
-666,276	800,000	0,025	-0,075
-665,262	-170,240	-0,039	-0,001
-664,247	152,166	0,093	-0,091
-663,232	-200,000	0,007	0,072
-662,218	201,403	-0,101	-0,112
-661,203	309,625	0,037	0,050
-660,189	-200,000	-0,011	-0,128
-659,174	107,457	-0,092	0,079
-658,159	-108,121	-0,107	-0,017
-657,145	-97,929	-0,107	-0,020
-656,130	82,947	0,095	0,074
-655,116	563,267	-0,026	0,046
-654,101	-12,540	-0,075	0,035
-653,086	131,061	0,087	-0,081
-652,072	578,452	0,049	-0,087
-651,057	-115,306	0,054	0,007
-650,043	101,564	-0,064	0,054
-649,028	-96,096	0,141	-0,027
-648,014	11,597	-0,087	0,048
-646,999	571,771	-0,015	0,027
-645,984	308,650	0,068	0,092
-644,970	59,400	-0,032	0,023
-643,955	623,407	0,046	0,085
-642,941	-55,642	-0,122	-0,039
-641,926	-144,813	0,060	0,004
-640,911	-200,000	0,014	0,133
-639,897	-4,680	0,065	0,032
-638,882	-200,000	-0,001	0,042
-637,868	7,319	-0,108	0,058
-636,853	-22,162	-0,134	-0,058
-635,838	340,623	-0,117	-0,166
-634,824	128,158	0,095	-0,087
-633,809	22,382	-0,117	-0,069
-632,795	800,000	0,011	-0,026
-631,780	800,000	0,051	0,128
-630,765	-200,000	-0,015	0,076
-629,751	-11,580	0,075	0,036
-628,736	310,829	-0,027	-0,036
-627,722	-200,000	0,022	0,081
-626,707	800,000	-0,029	0,060
-625,692	-200,000	0,034	-0,121
-624,678	800,000	-0,028	0,063
-623,663	800,000	0,042	-0,104
-622,649	-70,091	-0,138	0,038
-621,634	251,473	-0,086	-0,106
-620,619	51,446	-0,152	-0,104
-619,605	-133,523	0,114	0,010
-618,590	-200,000	-0,001	0,133
-617,576	800,000	0,020	-0,060
-616,561	-151,648	-0,046	-0,002
-615,546	-62,199	-0,075	0,022
-614,532	-82,963	-0,081	-0,019
-613,517	657,856	-0,033	-0,062
-612,503	15,093	-0,080	0,045
-611,488	-140,348	0,066	0,005
-610,474	-200,000	0,003	0,053
-609,459	45,660	-0,026	-0,018
-608,444	612,128	0,066	0,119
-607,430	178,768	-0,059	-0,062
-606,415	800,000	0,016	-0,037
-605,401	337,021	-0,036	-0,051
-604,386	-0,232	0,063	-0,032
-603,371	-149,114	-0,106	-0,006
-602,357	800,000	-0,055	0,128
-601,342	693,434	-0,029	-0,055
-600,328	629,983	-0,017	-0,030
-599,313	116,715	-0,164	0,145
-598,298	-38,481	0,105	0,040
-597,284	-46,992	-0,080	0,028
-596,269	691,219	0,031	0,058
-595,255	800,000	0,017	0,052
-594,240	-200,000	-0,016	-0,070
-593,225	137,025	0,092	-0,087
-592,211	24,622	-0,052	-0,031
-591,196	-47,132	-0,075	-0,026
-590,182	-180,657	0,106	-0,002
-589,167	-200,000	0,028	0,150
-588,152	-200,000	0,001	0,156
-587,138	-36,160	0,047	-0,018
-586,123	-84,092	0,104	0,024
-585,109	384,692	-0,114	-0,171
-584,094	551,917	-0,043	-0,074
-583,079	-84,073	-0,085	0,019
-582,065	233,599	0,086	0,102
-581,050	-28,795	0,080	-0,033
-580,036	32,326	-0,075	-0,046
-579,021	-200,000	-0,002	0,027
-578,006	-102,948	-0,145	0,025
-576,992	-200,000	0,001	0,072
-575,977	-170,029	-0,095	-0,002
-574,963	-200,000	-0,006	-0,040
-573,948	-158,603	-0,095	0,004
-572,934	58,609	-0,036	-0,026
-571,919	-81,911	-0,017	0,004
-570,904	146,046	0,052	0,050
-569,890	800,000	-0,038	-0,086
-568,875	-49,590	0,095	0,033
-567,861	-42,585	0,013	-0,005
-566,846	800,000	0,008	0,019
-565,831	6,502	-0,137	0,073
-564,817	-126,347	-0,126	0,013
-563,802	-200,000	-0,006	-0,171
-562,788	-5,396	-0,141	-0,070
-561,773	-65,350	0,071	0,020
-560,758	202,464	-0,081	-0,091
-559,744	410,894	0,046	0,071
-558,729	-143,253	-0,030	-0,002
-557,715	601,930	0,060	0,107
-556,700	-200,000	-0,005	-0,044
-555,685	227,010	0,014	0,017
-554,671	-200,000	0,040	0,160
-553,656	-200,000	0,015	-0,053
-552,642	147,134	0,025	0,024
-551,627	779,832	-0,072	-0,142
-550,612	209,357	0,042	-0,048
-549,598	800,000	0,054	-0,168
-548,583	-200,000	0,019	-0,079
-547,569	-104,709	-0,174	0,029
-546,554	-39,621	0,042	-0,016
-545,539	249,044	0,118	0,145
-544,525	-84,040	0,078	0,018
-543,510	722,599	0,073	0,141
-542,496	-200,000	0,000	-0,099
-541,481	-40,752	-0,114	-0,042
-540,466	191,711	-0,046	-0,050
-539,452	800,000	0,039	0,088
-538,437	800,000	0,030	0,095
-537,423	99,746	0,081	0,068
-536,408	-132,614	-0,184	-0,017
-535,393	-200,000	0,040	-0,137
-534,379	95,036	0,023	0,019
-533,364	99,060	-0,019	0,016
-532,350	-200,000	0,000	-0,005
-531,335	0,396	0,157	0,080
-530,321	800,000	-0,034	0,081
-529,306	399,329	-0,079	-0,119
-528,291	-120,053	-0,057	-0,007
-527,277	531,488	-0,039	-0,067
-526,262	-75,035	-0,041	0,011
-525,248	-200,000	-0,043	0,207
-524,233	339,670	0,109	0,154
-523,218	16,970	0,045	0,026
-522,204	106,190	-0,036	-0,031
-521,189	22,043	0,131	-0,077
-520,175	800,000	-0,073	-0,196
-519,160	-200,000	-0,016	-0,064
-518,145	-36,030	-0,062	0,024
-517,131	59,369	0,046	0,032
-516,116	-200,000	-0,011	0,080
-515,102	-200,000	0,008	-0,048
-514,087	-110,446	0,073	0,011
-513,072	269,539	0,039	0,049
-512,058	298,661	-0,065	-0,086
-511,043	800,000	-0,032	0,093
-510,029	279,593	0,051	-0,065
-509,014	76,104	0,124	0,094
-507,999	377,025	0,053	0,077
-506,985	-82,569	-0,114	-0,026
-505,970	-200,000	0,006	0,037
-504,956	8,759	-0,148	-0,080
-503,941	484,180	0,046	0,076
-502,926	59,463	0,107	0,076
-501,912	-23,833	0,090	0,038
-500,897	82,422	-0,015	-0,011
-499,883	-101,642	-0,056	-0,010
-498,868	-200,000	0,017	-0,094
-497,853	800,000	-0,034	0,100
-496,839	156,799	-0,059	-0,058
-495,824	72,696	0,043	0,032
-494,810	-200,000	0,008	0,055
-493,795	236,992	0,062	-0,074
-492,781	115,806	-0,039	0,034
-491,766	-46,531	-0,027	-0,010
-490,751	401,388	0,059	0,089
-489,737	-8,433	0,020	0,010
-488,722	-34,612	-0,157	-0,061
-487,708	191,426	0,077	-0,083
-486,693	240,671	0,069	0,082
-485,678	90,971	0,033	-0,027
-484,664	800,000	0,045	0,100
-483,649	-76,136	-0,123	-0,031
-482,635	-200,000	0,032	-0,101
-481,620	7,206	0,038	0,020
-480,605	-44,132	-0,154	0,055
-479,591	800,000	0,034	-0,079
-478,576	-200,000	0,005	-0,019
-477,562	330,811	0,078	-0,108
-476,547	-162,662	-0,116	-0,004
-475,532	-200,000	-0,023	-0,130
-474,518	-80,846	-0,103	0,024
-473,503	94,711	0,115	0,094
-472,489	22,608	0,071	-0,042
-471,474	-200,000	0,034	-0,119
-470,459	556,218	0,028	-0,048
-469,445	87,590	-0,020	-0,016
-468,430	83,889	0,150	-0,118
-467,416	-200,000	0,002	-0,063
-466,401	-83,331	0,045	0,010
-465,386	50,796	-0,068	-0,046
-464,372	290,599	0,048	0,062
-463,357	331,501	0,060	-0,083
-462,343	4,252	0,070	0,037
-461,328	800,000	-0,035	-0,090
-460,313	22,205	0,048	-0,028
-459,299	116,933	0,040	-0,035
-458,284	-119,320	-0,071	0,009
-457,270	-152,699	-0,045	0,002
-456,255	358,066	-0,026	-0,037
-455,241	154,283	0,093	-0,091
-454,226	-200,000	0,011	-0,092
-453,211	800,000	-0,054	0,108
-452,197	506,976	0,046	0,077
-451,182	-23,711	0,079	0,034
-450,168	800,000	-0,014	-0,039
-449,153	-25,351	0,065	-0,027
-448,138	-200,000	0,009	-0,100
-447,124	-112,976	-0,032	-0,004
-446,109	-29,517	0,126	0,051
-445,095	800,000	0,028	-0,061
-444,080	448,531	0,076	0,121
-443,065	-38,037	-0,094	0,036
-442,051	65,701	-0,053	-0,038
-441,036	-121,619	-0,076	0,009
-440,022	7,995	0,164	-0,088
-439,007	630,403	0,066	0,120
-437,992	696,244	-0,042	0,080
-436,978	211,223	0,112	0,126
-435,963	83,996	0,022	0,017
-434,949	-147,419	0,034	-0,002
-433,934	-74,635	0,079	-0,020
-432,919	484,158	-0,065	0,106
-431,905	-200,000	-0,013	0,041
-430,890	800,000	-0,042	0,125
-429,876	123,599	-0,113	0,102
-428,861	517,655	0,035	-0,059
-427,846	-50,871	0,136	-0,045
-426,832	-34,634	0,081	-0,032
-425,817	-200,000	-0,000	-0,031
-424,803	-59,345	-0,084	0,026
-423,788	231,476	0,047	-0,056
-422,773	-33,355	-0,031	-0,012
-421,759	800,000	-0,029	-0,058
-420,744	21,532	-0,050	-0,029
-419,730	19,550	-0,067	0,039
-418,715	800,000	-0,026	-0,064
-417,701	212,635	-0,046	0,052
-416,686	486,486	-0,032	-0,053
-415,671	81,356	-0,175	0,135
-414,657	-200,000	0,044	0,208
-413,642	800,000	-0,067	0,145
-412,628	-181,885	-0,097	-0,001
-411,613	-200,000	-0,021	-0,165
-410,598	-60,402	-0,047	-0,014
-409,584	-2,672	-0,042	-0,021
-408,569	179,361	0,056	0,058
-407,555	-25,352	-0,114	0,048
-406,540	-4,878	0,127	0,062
-405,525	-137,194	0,109	-0,009
-404,511	-91,202	-0,071	-0,014
-403,496	-60,865	0,033	-0,010
-402,482	-92,352	0,063	0,013
-401,467	185,132	-0,036	-0,039
-400,452	-85,963	0,107	0,023
-399,438	-200,000	-0,013	0,132
-398,423	-200,000	-0,017	0,075
-397,409	800,000	-0,025	0,067
-396,394	-200,000	0,010	-0,046
-395,379	689,028	0,052	0,098
-394,365	75,988	0,063	0,048
-393,350	180,751	0,012	0,013
-392,336	155,343	0,045	-0,044
-391,321	-200,000	0,017	0,080
-390,306	242,013	0,101	0,121
-389,292	-145,849	-0,050	-0,003
-388,277	-113,360	0,095	0,013
-387,263	381,672	0,051	0,075
-386,248	-100,254	0,080	-0,014
-385,233	800,000	-0,028	0,074
-384,219	-18,990	0,067	0,030
-383,204	-106,592	-0,110	0,017
-382,190	-49,941	-0,040	0,014
-381,175	671,934	-0,089	0,165
-380,160	86,616	0,031	-0,024
-379,146	53,595	-0,035	0,024
-378,131	800,000	-0,032	0,064
-377,117	800,000	-0,056	-0,129
-376,102	-54,029	0,045	-0,014
-375,088	70,832	-0,105	-0,077
-374,073	339,159	-0,063	-0,088
-373,058	48,762	0,105	0,070
-372,044	179,496	0,107	-0,112
-371,029	-200,000	0,019	0,107
-370,015	373,323	0,074	0,108
-369,000	-30,467	0,079	-0,032
-367,985	700,281	-0,079	-0,149
-366,971	-136,346	0,058	-0,005
-365,956	800,000	0,039	0,088
-364,942	1,130	0,028	0,014
-363,927	236,920	0,044	0,052
-362,912	-99,466	0,141	-0,025
-361,898	-200,000	0,017	-0,069
-360,883	-200,000	-0,005	0,051
-359,869	-146,022	0,217	0,014
-358,854	256,289	-0,085	-0,105
-357,839	114,886	0,096	0,084
-356,825	113,740	0,021	0,019
-355,810	-200,000	-0,011	-0,054
-354,796	-200,000	-0,004	-0,163
-353,781	25,188	-0,117	0,069
-352,766	-200,000	-0,017	-0,070
-351,752	178,519	0,064	0,066
-350,737	15,360	0,077	0,043
-349,723	-200,000	0,019	0,092
-348,708	800,000	0,016	0,038
-347,693	-200,000	0,003	-0,044
-346,679	800,000	-0,063	0,126
-345,664	60,371	0,047	-0,033
-344,650	800,000	-0,028	0,071
-343,635	800,000	-0,036	0,079
-342,620	-200,000	0,032	0,112
-341,606	800,000	-0,071	0,173
-340,591	9,525	0,117	0,063
-339,577	-200,000	0,002	-0,008
-338,562	-105,113	0,051	0,008
-337,548	-129,474	-0,069	0,007
-336,533	13,329	-0,070	-0,039
-335,518	-156,312	0,113	-0,005
-334,504	26,805	0,061	0,036
-333,489	-200,000	-0,037	0,121
-332,475	40,305	-0,072	-0,046
-331,460	199,941	0,077	-0,084
-330,445	-111,333	0,067	0,010
-329,431	800,000	-0,018	0,040
-328,416	144,002	-0,043	0,041
-327,402	-200,000	0,008	0,148
-326,387	224,898	-0,054	0,062
-325,372	-104,768	-0,066	0,011
-324,358	800,000	-0,039	-0,083
-323,343	580,049	-0,032	0,057
-322,329	800,000	-0,014	0,038
-321,314	-104,560	0,068	0,011
-320,299	800,000	0,048	0,101
-319,285	-200,000	-0,026	-0,087
-318,270	-162,053	-0,095	0,003
-317,256	-200,000	0,091	-0,333
-316,241	15,250	-0,070	-0,039
-315,226	209,916	0,049	0,055
-314,212	-6,682	0,086	0,042
-313,197	789,108	0,057	0,113
-312,183	9,748	0,030	-0,016
-311,168	509,344	0,026	0,043
-310,153	-200,000	0,011	-0,143
-309,139	153,222	0,028	-0,027
-308,124	722,382	0,021	0,040
-307,110	67,301	-0,033	0,024
-306,095	-200,000	0,014	0,071
-305,080	2,165	-0,126	0,065
-304,066	-200,000	0,012	0,070
-303,051	-126,070	-0,028	-0,003
-302,037	800,000	-0,045	0,119
-301,022	800,000	-0,023	-0,071
-300,008	-200,000	0,003	-0,031
-298,993	74,207	-0,055	-0,041
-297,978	174,782	0,063	0,065
-296,964	-36,361	0,072	0,028
-295,949	-200,000	-0,021	-0,085
-294,935	236,217	-0,059	-0,069
-293,920	-94,446	0,045	-0,009
-292,905	87,950	-0,086	-0,068
-291,891	800,000	0,055	-0,140
-290,876	405,255	0,027	-0,040
-289,862	800,000	-0,033	-0,082
-288,847	-21,353	0,058	-0,025
-287,832	-200,000	0,063	-0,200
-286,818	360,114	-0,065	-0,093
-285,803	800,000	0,030	-0,065
-284,789	-200,000	0,016	-0,078
-283,774	-200,000	-0,010	0,080
-282,759	-200,000	0,003	-0,214
-281,745	-92,908	-0,093	-0,018
-280,730	147,388	-0,111	0,106
-279,716	636,577	0,050	-0,091
-278,701	127,378	-0,084	-0,076
-277,686	110,085	0,018	-0,015
-276,672	-107,670	0,069	0,011
-275,657	82,572	-0,055	-0,042
-274,643	172,095	-0,071	-0,073
-273,628	441,953	0,034	-0,053
-272,613	-39,497	-0,105	-0,039
-271,599	57,025	0,003	-0,002
-270,584	-128,386	0,071	0,007
-269,570	-200,000	0,015	0,092
-268,555	-200,000	-0,049	-0,179
-267,540	24,116	0,073	-0,043
-266,526	-200,000	-0,013	-0,069
-265,511	435,380	0,019	-0,030
-264,497	414,877	0,097	0,148
-263,482	448,400	-0,035	-0,055
-262,467	209,752	-0,026	-0,029
-261,453	-200,000	-0,015	-0,140
-260,438	-85,840	0,070	-0,015
-259,424	-200,000	-0,005	-0,096
-258,409	332,125	0,033	-0,046
-257,395	-15,916	0,165	0,074
-256,380	-200,000	0,017	0,097
-255,365	21,323	-0,072	-0,042
-254,351	127,784	-0,011	-0,010
-253,336	-122,779	-0,011	0,001
-252,322	137,431	-0,116	-0,108
-251,307	-68,349	-0,100	0,028
-250,292	456,140	0,080	0,126
-249,278	-200,000	0,013	0,202
-248,263	-16,494	-0,039	-0,018
-247,249	214,230	0,086	-0,097
-246,234	-124,705	-0,078	0,008
-245,219	87,604	0,020	-0,016
-244,205	-200,000	-0,052	0,182
-243,190	190,716	0,022	-0,023
-242,176	-58,837	0,031	0,010
-241,161	-83,893	0,080	-0,018
-240,146	-200,000	0,000	0,033
-239,132	72,338	-0,221	0,163
-238,117	31,443	0,070	0,043
-237,103	-200,000	-0,023	-0,075
-236,088	22,612	0,024	-0,014
-235,073	-134,374	0,188	-0,016
-234,059	-200,000	0,002	0,037
-233,044	800,000	0,037	0,087
-232,030	-200,000	0,011	0,052
-231,015	219,383	-0,088	-0,100
-230,000	-108,579	0,010	0,002
-228,986	-200,000	-0,012	-0,127
-227,971	800,000	-0,032	0,079
-226,957	-200,000	0,007	-0,039
-225,942	411,549	0,050	-0,076
-224,927	649,939	0,068	0,123
-223,913	-200,000	-0,031	-0,123
-222,898	800,000	0,032	-0,086
-221,884	-122,655	-0,143	-0,016
-220,869	169,858	0,039	-0,040
-219,855	-97,153	0,107	-0,020
-218,840	-155,713	-0,092	-0,004
-217,825	85,076	-0,023	-0,018
-216,811	-200,000	-0,014	-0,119
-215,796	593,616	-0,024	-0,042
-214,782	-165,880	-0,090	0,003
-213,767	-200,000	0,005	-0,032
-212,752	300,732	0,046	0,060
-211,738	177,698	-0,036	-0,037
-210,723	-132,638	0,083	-0,007
-209,709	-200,000	-0,012	0,056
-208,694	-200,000	-0,013	-0,205
-207,679	226,260	-0,103	0,119
-206,665	800,000	-0,039	-0,095
-205,650	800,000	-0,015	-0,030
-204,636	-60,718	0,080	-0,024
-203,621	-3,939	0,082	0,040
-202,606	800,000	-0,071	-0,146
-201,592	-200,000	-0,036	-0,123
-200,577	114,852	-0,157	-0,136
-199,563	-200,000	0,035	0,157
-198,548	467,696	-0,050	0,081
-197,533	-200,000	0,044	0,256
-196,519	-33,791	0,079	-0,031
-195,504	-200,000	-0,024	-0,108
-194,490	657,670	-0,049	-0,090
-193,475	-200,000	0,003	-0,148
-192,460	255,920	0,112	-0,137
-191,446	446,894	0,006	-0,009
-190,431	800,000	0,021	-0,046
-189,417	132,414	0,112	0,102
-188,402	800,000	0,026	0,059
-187,387	495,318	-0,130	-0,213
-186,373	194,494	0,052	-0,056
-185,358	7,327	-0,033	0,017
-184,344	216,887	0,085	0,096
-183,329	800,000	-0,077	0,168
-182,315	698,517	0,029	-0,055
-181,300	432,655	0,037	0,056
-180,285	408,160	-0,033	0,049
-179,271	-3,773	-0,112	-0,055
-178,256	48,901	0,052	-0,034
-177,242	241,078	0,082	0,097
-176,227	-109,922	-0,076	-0,011
-175,212	-200,000	-0,005	0,150
-174,198	-49,339	-0,105	-0,035
-173,183	33,341	-0,126	-0,078
-172,169	380,727	-0,031	-0,045
-171,154	800,000	0,006	-0,017
-170,139	-68,199	0,058	0,016
-169,125	-167,984	0,052	0,001
-168,110	-96,344	-0,067	-0,012
-167,096	-65,075	0,070	0,020
-166,081	-32,327	-0,113	0,044
-165,066	199,679	-0,062	-0,067
-164,052	-200,000	0,028	-0,153
-163,037	210,860	-0,053	-0,059
-162,023	-158,807	0,095	0,004
-161,008	32,380	0,051	-0,031
-159,993	-53,555	0,045	-0,014
-158,979	426,553	-0,077	-0,118
-157,964	800,000	0,020	-0,060
-156,950	205,292	-0,023	-0,026
-155,935	595,031	-0,059	0,105
-154,920	326,174	0,140	0,190
-153,906	-94,423	0,140	0,027
-152,891	-141,666	-0,069	0,005
-151,877	-99,281	0,127	-0,023
-150,862	66,492	-0,121	-0,087
-149,847	-53,854	-0,056	0,018
-148,833	232,330	-0,040	-0,047
-147,818	220,513	0,096	0,110
-146,804	-200,000	0,016	0,107
-145,789	546,384	-0,036	0,061
-144,775	-170,039	-0,062	0,002
-143,760	55,332	-0,070	0,048
-142,745	154,471	0,089	-0,087
-141,731	14,389	-0,109	0,060
-140,716	-200,000	0,011	0,291
-139,702	-130,573	0,057	-0,005
-138,687	115,786	0,057	-0,049
-137,672	-64,449	-0,245	0,070
-136,658	-200,000	0,026	-0,162
-135,643	-154,164	-0,036	0,002
-134,629	-200,000	-0,017	0,072
-133,614	237,054	0,053	-0,062
-132,599	53,662	0,087	0,059
-131,585	-39,093	-0,187	0,069
-130,570	289,533	-0,049	0,063
-129,556	-200,000	-0,043	-0,194
-128,541	35,370	-0,010	0,006
-127,526	-36,730	0,056	0,021
-126,512	353,272	-0,061	0,086
-125,497	-200,000	0,000	-0,054
-124,483	-200,000	0,010	0,112
-123,468	800,000	0,062	-0,125
-122,453	800,000	0,051	-0,122
-121,439	665,935	-0,035	-0,064
-120,424	-200,000	-0,025	-0,110
-119,410	190,985	-0,084	0,089
-118,395	-65,759	0,079	-0,022
-117,380	800,000	-0,009	-0,022
-116,366	-200,000	0,005	-0,028
-115,351	65,512	-0,116	-0,083
-114,337	800,000	-0,046	-0,112
-113,322	-200,000	-0,011	-0,094
-112,307	-82,739	0,136	0,031
-111,293	0,008	0,073	-0,037
-110,278	-200,000	0,005	-0,050
-109,264	-200,000	0,009	0,102
-108,249	-73,617	-0,155	-0,040
-107,234	-200,000	0,002	-0,056
-106,220	764,966	0,039	-0,076
-105,205	-200,000	0,012	-0,052
-104,191	30,805	0,050	0,030
-103,176	218,585	0,018	0,020
-102,162	248,116	0,052	-0,063
-101,147	-149,155	0,198	-0,011
-100,132	698,186	0,063	-0,118
-99,118	194,391	-0,070	-0,075
-98,103	33,583	-0,087	-0,053
-97,089	-77,447	0,207	0,050
-96,074	800,000	-0,050	-0,114
-95,059	155,801	-0,056	0,054
-94,045	-200,000	-0,003	0,044
-93,030	-13,127	-0,086	-0,040
-92,016	-12,651	-0,062	-0,029
-91,001	800,000	-0,015	-0,042
-89,986	-200,000	-0,041	0,151
-88,972	-15,582	0,005	0,002
-87,957	122,636	0,103	-0,091
-86,943	133,761	-0,032	-0,029
-85,928	800,000	-0,033	0,082
-84,913	800,000	-0,007	0,018
-83,899	360,562	-0,051	-0,073
-82,884	207,541	-0,062	0,069
-81,870	-89,932	0,100	0,021
-80,855	125,346	0,104	0,092
-79,840	-200,000	0,039	0,124
-78,826	-200,000	-0,003	0,050
-77,811	132,809	-0,032	-0,029
-76,797	607,953	-0,076	0,135
-75,782	-200,000	0,012	0,043
-74,767	-117,931	0,154	0,019
-73,753	141,443	0,086	0,080
-72,738	251,306	0,056	0,067
-71,724	194,106	-0,098	-0,105
-70,709	202,610	0,059	-0,064
-69,694	191,846	-0,122	0,130
-68,680	-97,223	0,141	-0,026
-67,665	-108,446	0,115	-0,017
-66,651	800,000	-0,032	-0,089
-65,636	28,396	0,090	-0,054
-64,622	-200,000	-0,041	-0,143
-63,607	-200,000	-0,003	-0,013
-62,592	-55,289	0,053	-0,017
-61,578	0,430	-0,099	-0,050
-60,563	34,356	0,124	-0,076
-59,549	274,268	0,019	0,024
-58,534	30,051	-1,931	-1,160
-57,519	359,788	-1,338	-1,895
-56,505	-200,000	-0,192	-4,226
-55,490	582,297	0,896	1,558
-54,476	800,000	5,056	11,147
-53,461	-200,000	20,931	328,781
-52,446	800,000	757,258	2322,113
-51,432	550,428	1662,512	2825,683
-50,417	73,521	1664,032	1228,497
-49,403	18,720	1537,172	865,964
-48,388	12,696	1460,332	793,522
-47,373	18,991	1450,947	818,622
-46,359	15,828	1440,495	797,635
-45,344	10,975	1436,019	772,005
-44,330	10,910	1434,289	770,737
-43,315	10,878	1432,549	769,620
-42,300	10,920	1430,675	768,783
-41,286	10,933	1429,271	768,058
-40,271	10,892	1427,774	767,027
-39,257	10,858	1426,812	766,322
-38,242	10,974	1425,601	766,189
-37,227	10,937	1424,620	765,454
-36,213	10,954	1423,475	764,893
-35,198	10,941	1422,203	764,116
-34,184	10,993	1421,310	763,852
-33,169	10,908	1419,993	762,711
-32,154	10,974	1418,928	762,420
-31,140	10,999	1417,804	761,905
-30,125	11,048	1416,666	761,495
-29,111	11,002	1415,557	760,651
-28,096	10,983	1414,301	759,854
-27,082	10,899	1413,198	758,841
-26,067	10,911	1412,061	758,253
-25,052	10,888	1411,104	757,602
-24,038	10,930	1409,955	757,154
-23,023	10,886	1409,201	756,509
-22,009	10,913	1408,077	756,002
-20,994	10,837	1407,126	755,111
-19,979	10,849	1406,353	754,719
-18,965	10,893	1405,261	754,311
-17,950	10,864	1404,243	753,598
-16,936	10,817	1403,841	753,133
-15,921	10,815	1402,276	752,255
-14,906	10,802	1401,661	751,834
-13,892	10,842	1400,599	751,421
-12,877	10,827	1399,732	750,856
-11,863	10,834	1398,901	750,414
-10,848	10,787	1397,993	749,677
-9,833	10,772	1397,081	749,091
-8,819	10,739	1396,394	748,539
-7,804	10,690	1395,543	747,826
-6,790	10,697	1394,281	747,153
-5,775	10,728	1393,377	746,782
-4,760	10,767	1392,212	746,306
-3,746	10,751	1391,423	745,781
-2,731	10,735	1390,598	745,236
-1,717	10,677	1390,013	744,625
-0,702	10,691	1388,028	743,596
0,313	14,824	1301,656	716,232
1,327	31,133	693,021	418,423
2,342	48,425	120,148	79,224
3,356	0,264	16,492	8,272
4,371	6,780	3,451	1,806
5,386	-68,402	0,908	0,247
6,400	800,000	0,198	0,520
7,415	-129,082	-0,195	-0,019
8,429	383,682	-0,192	-0,279
9,444	243,697	-0,210	-0,249
10,459	-29,577	-0,301	-0,121
11,473	-24,441	-0,354	-0,148
12,488	17,248	-0,200	-0,112
13,502	-116,619	-0,222	-0,028
14,517	-14,418	-0,231	-0,104
15,531	6,912	-0,453	-0,237
16,546	11,117	-0,421	-0,226
17,561	14,905	-0,351	-0,193
18,575	-9,224	-0,247	-0,116
19,590	208,493	-0,233	-0,257
20,604	18,002	-0,277	-0,155
21,619	21,232	-0,525	-0,300
22,634	-12,112	-0,537	-0,247
23,648	54,816	-0,512	-0,347
24,663	21,880	-0,417	-0,239
25,677	72,243	-0,462	-0,338
26,692	78,105	-0,331	-0,248
27,707	-46,376	-0,499	-0,172
28,721	51,423	-0,384	-0,256
29,736	223,322	-0,335	-0,381
30,750	-4,285	-0,429	-0,208
31,765	117,181	-0,276	-0,239
32,780	164,896	-0,440	-0,437
33,794	-10,660	-0,312	-0,145
34,809	22,802	-0,420	-0,241
35,823	67,871	-0,408	-0,293
36,838	314,045	-0,263	-0,349
37,853	113,396	-0,343	-0,293
38,867	800,000	-0,152	-0,342
39,882	60,150	-0,452	-0,314
40,896	296,240	-0,248	-0,320
41,911	161,480	-0,403	-0,396
42,926	195,389	-0,323	-0,345
43,940	-42,281	-0,359	-0,128
44,955	-65,172	-0,381	-0,107
45,969	43,638	-0,431	-0,276
46,984	58,775	-0,313	-0,216
47,999	-15,431	-0,259	-0,116
49,013	-42,460	-0,427	-0,152
50,028	-45,413	-0,408	-0,141
51,042	86,427	-0,333	-0,258
52,057	18,105	-0,379	-0,212
53,071	166,068	-0,259	-0,258
54,086	-27,028	-0,328	-0,134
55,101	37,873	-0,245	-0,152
56,115	88,033	-0,267	-0,208
57,130	45,784	-0,362	-0,234
58,144	83,860	-0,341	-0,261
59,159	473,683	-0,176	-0,280
60,174	-6,089	-0,404	-0,193
61,188	11,977	-0,415	-0,223
62,203	97,458	-0,228	-0,183
63,217	70,540	-0,223	-0,162
64,232	21,682	-0,390	-0,222
65,247	-59,748	-0,512	-0,153
66,261	171,153	-0,308	-0,311
67,276	-83,912	-0,419	-0,093
68,290	24,550	-0,424	-0,246
69,305	60,691	-0,281	-0,195
70,320	-52,500	-0,329	-0,106
71,334	265,295	-0,144	-0,177
72,349	-22,008	-0,331	-0,140
73,363	-12,697	-0,432	-0,197
74,378	163,517	-0,160	-0,158
75,393	132,081	-0,287	-0,259
76,407	49,944	-0,338	-0,223
77,422	-39,584	-0,358	-0,131
78,436	17,476	-0,294	-0,163
79,451	6,476	-0,245	-0,127
80,466	-4,319	-0,298	-0,144
81,480	-15,817	-0,350	-0,155
82,495	133,133	-0,354	-0,320
83,509	76,756	-0,326	-0,242
84,524	109,431	-0,231	-0,194
85,539	165,973	-0,226	-0,224
86,553	115,324	-0,236	-0,202
87,568	-12,358	-0,293	-0,134
88,582	26,447	-0,427	-0,249
89,597	98,011	-0,117	-0,094
90,611	67,329	-0,264	-0,188
91,626	77,514	-0,216	-0,161
92,641	222,486	-0,121	-0,136
93,655	141,919	-0,194	-0,180
94,670	6,066	-0,310	-0,160
95,684	32,865	-0,300	-0,181
96,699	158,264	-0,249	-0,242
97,714	181,643	-0,231	-0,238
98,728	129,011	-0,184	-0,164
99,743	62,948	-0,196	-0,137
100,757	-32,436	-0,232	-0,090
101,772	37,057	-0,308	-0,190
102,787	654,385	-0,095	-0,170
103,801	162,325	-0,248	-0,244
104,816	26,039	-0,410	-0,239
105,830	590,363	-0,051	-0,088
106,845	24,886	-0,196	-0,114
107,860	-38,826	-0,266	-0,098
108,874	258,711	-0,107	-0,129
109,889	94,329	-0,190	-0,151
110,903	-52,857	-0,423	-0,135
111,918	5,354	-0,221	-0,113
112,933	57,731	-0,186	-0,127
113,947	-157,218	-0,223	0,009
114,962	-167,398	-0,247	-0,007
115,976	-12,975	-0,354	-0,160
116,991	-5,542	-0,324	-0,155
118,006	273,611	-0,197	-0,244
119,020	33,104	-0,111	-0,067
120,035	-22,150	-0,253	-0,107
121,049	800,000	-0,146	-0,310
122,064	-148,456	-0,223	-0,013
123,079	-7,908	-0,305	-0,143
124,093	193,078	-0,257	-0,272
125,108	84,381	-0,293	-0,223
126,122	-33,119	-0,274	-0,106
127,137	119,334	-0,151	-0,130
128,151	135,893	-0,284	-0,258
129,166	0,906	-0,278	-0,138
130,181	-14,090	-0,314	-0,141
131,195	117,892	-0,280	-0,241
132,210	630,769	-0,148	-0,262
133,224	25,864	-0,318	-0,184
134,239	227,302	-0,122	-0,139
135,254	-84,557	-0,363	-0,079
136,268	7,343	-0,298	-0,155
137,283	-33,087	-0,316	-0,122
138,297	109,767	-0,298	-0,249
139,312	182,767	-0,194	-0,200
140,327	20,918	-0,162	-0,091
141,341	-36,494	-0,247	-0,092
142,356	140,676	-0,205	-0,189
143,370	260,843	-0,180	-0,218
144,385	139,410	-0,279	-0,256
145,400	140,024	-0,274	-0,252
146,414	-16,225	-0,320	-0,141
147,429	143,770	-0,231	-0,214
148,443	-133,067	-0,377	-0,033
149,458	425,054	-0,141	-0,211
150,473	67,019	-0,257	-0,182
151,487	293,338	-0,144	-0,183
152,502	79,289	-0,328	-0,245
153,516	330,603	-0,249	-0,335
154,531	-35,116	-0,290	-0,109
155,546	187,993	-0,216	-0,225
156,560	-112,690	-0,255	-0,035
157,575	110,347	-0,180	-0,150
158,589	-82,677	-0,227	-0,051
159,604	48,479	-0,226	-0,147
160,619	246,606	-0,156	-0,183
161,633	-16,738	-0,328	-0,144
162,648	415,454	-0,177	-0,263
163,662	-27,326	-0,181	-0,073
164,677	469,368	-0,089	-0,139
165,692	-5,407	-0,284	-0,135
166,706	-47,465	-0,195	-0,065
167,721	469,801	-0,176	-0,276
168,735	49,159	-0,246	-0,161
169,750	-71,682	-0,349	-0,090
170,764	-70,431	-0,248	-0,065
171,779	-48,748	-0,223	-0,074
172,794	66,141	-0,205	-0,145
173,808	307,021	-0,123	-0,160
174,823	144,024	-0,214	-0,198
175,837	83,195	-0,277	-0,209
176,852	269,182	-0,183	-0,224
177,867	192,473	-0,299	-0,314
178,881	226,185	-0,107	-0,121
179,896	-101,870	-0,140	-0,023
180,910	-12,878	-0,252	-0,114
181,925	225,949	-0,249	-0,281
182,940	19,161	-0,221	-0,123
183,954	46,368	-0,143	-0,092
184,969	-23,776	-0,209	-0,086
185,983	446,215	-0,204	-0,312
186,998	71,603	-0,128	-0,092
188,013	331,085	-0,100	-0,135
189,027	196,125	-0,138	-0,146
190,042	338,087	-0,211	-0,286
191,056	477,164	-0,137	-0,215
192,071	-34,227	-0,175	-0,066
193,086	71,639	-0,167	-0,120
194,100	149,296	-0,047	-0,044
195,115	-140,477	-0,173	0,012
196,129	163,761	-0,162	-0,159
197,144	396,578	-0,197	-0,286
198,159	37,272	-0,390	-0,239
199,173	371,115	-0,115	-0,162
200,188	59,839	-0,202	-0,138
201,202	421,150	-0,096	-0,144
202,217	228,062	-0,167	-0,189
203,232	421,566	-0,126	-0,188
204,246	187,157	-0,123	-0,127
205,261	86,912	-0,193	-0,147
206,275	12,932	-0,280	-0,149
207,290	-116,067	-0,192	-0,024
208,304	-11,096	-0,173	-0,079
209,319	-11,860	-0,135	-0,061
210,334	205,580	-0,172	-0,185
211,348	324,949	-0,108	-0,143
212,363	199,426	-0,135	-0,143
213,377	-41,078	-0,076	-0,027
214,392	170,603	-0,119	-0,118
215,407	-200,000	0,031	-0,137
216,421	-49,930	-0,247	-0,081
217,436	750,499	-0,118	-0,222
218,450	-42,059	-0,236	-0,083
219,465	-86,627	-0,248	-0,052
220,480	280,154	-0,157	-0,194
221,494	-38,520	-0,189	-0,069
222,509	55,360	-0,142	-0,095
223,523	-54,266	-0,279	0,087
224,538	-33,281	-0,217	-0,083
225,553	38,136	-0,315	-0,193
226,567	632,158	-0,101	-0,177
227,582	8,087	-0,215	-0,111
228,596	189,290	-0,169	-0,175
229,611	-89,219	-0,142	-0,029
230,626	-123,429	-0,144	-0,016
231,640	6,038	-0,279	-0,142
232,655	99,379	-0,151	-0,121
233,669	23,029	-0,343	-0,194
234,684	605,076	-0,088	-0,152
235,699	-29,792	-0,110	-0,043
236,713	-96,006	-0,170	-0,031
237,728	-140,057	-0,118	-0,008
238,742	94,317	-0,196	-0,154
239,757	410,603	-0,198	-0,291
240,772	158,217	-0,233	-0,223
241,786	-32,337	-0,238	-0,091
242,801	-116,307	-0,188	-0,024
243,815	451,075	-0,112	-0,171
244,830	-200,000	-0,065	-0,250
245,844	32,649	-0,215	-0,128
246,859	179,177	-0,257	-0,259
247,874	64,446	-0,265	-0,184
248,888	-79,464	-0,182	-0,042
249,903	35,765	-0,193	-0,117
250,917	140,000	-0,172	-0,156
251,932	3,277	-0,046	-0,023
252,947	181,390	-0,101	-0,103
253,961	-74,115	-0,297	-0,074
254,976	-157,246	-0,176	-0,007
255,990	278,980	-0,194	-0,239
257,005	-104,389	-0,199	-0,032
258,020	67,490	-0,046	0,032
259,034	-50,568	-0,192	-0,062
260,049	195,730	-0,174	-0,183
261,063	114,329	-0,245	-0,205
262,078	209,552	-0,205	-0,222
263,093	225,332	-0,097	-0,108
264,107	-33,906	-0,251	-0,095
265,122	171,985	-0,066	-0,065
266,136	800,000	-0,056	-0,142
267,151	441,602	-0,185	-0,280
268,166	52,895	-0,153	-0,101
269,180	131,705	-0,208	-0,185
270,195	31,841	-0,296	-0,175
271,209	9,760	-0,126	-0,066
272,224	119,450	-0,104	-0,089
273,239	-74,015	-0,232	0,058
274,253	86,556	-0,097	-0,074
275,268	-58,955	-0,136	-0,040
276,282	240,363	-0,181	-0,209
277,297	190,759	-0,170	-0,176
278,312	-62,654	-0,241	-0,068
279,326	113,144	-0,157	-0,131
280,341	60,225	-0,148	-0,100
281,355	153,874	-0,121	-0,114
282,370	46,579	-0,158	-0,101
283,384	359,526	-0,117	-0,162
284,399	800,000	-0,076	-0,169
285,414	800,000	-0,044	-0,089
286,428	-31,677	-0,248	-0,095
287,443	-200,000	-0,047	-0,199
288,457	-38,240	-0,161	-0,058
289,472	125,204	-0,095	-0,082
290,487	51,126	-0,267	-0,174
291,501	180,521	-0,194	-0,196
292,516	-66,393	-0,248	-0,067
293,530	108,920	-0,194	-0,159
294,545	-200,000	-0,011	-0,053
295,560	50,131	-0,128	-0,083
296,574	800,000	-0,030	-0,084
297,589	2,612	-0,235	-0,117
298,603	56,270	-0,176	-0,117
299,618	208,034	-0,071	-0,077
300,633	470,304	-0,154	-0,238
301,647	41,975	-0,208	-0,129
302,662	-106,351	-0,168	-0,025
303,676	-150,583	-0,094	-0,005
304,691	-45,744	-0,216	-0,073
305,706	-134,094	-0,182	0,015
306,720	-105,028	-0,277	-0,043
307,735	26,301	-0,112	-0,064
308,749	800,000	-0,053	-0,103
309,764	-99,741	-0,188	-0,032
310,779	-28,882	-0,170	-0,067
311,793	9,242	-0,151	0,078
312,808	272,070	-0,100	-0,122
313,822	112,683	-0,127	-0,105
314,837	129,571	-0,210	-0,184
315,852	-55,965	-0,185	-0,056
316,866	498,983	-0,033	-0,052
317,881	-25,956	-0,154	0,062
318,895	-56,319	-0,081	-0,025
319,910	-12,029	-0,217	-0,097
320,925	438,122	-0,054	-0,081
321,939	162,717	-0,146	-0,141
322,954	614,689	-0,050	0,087
323,968	293,259	-0,086	-0,107
324,983	-46,691	-0,127	0,042
325,997	-15,336	-0,078	0,034
327,012	-18,994	-0,250	-0,106
328,027	213,385	-0,154	-0,167
329,041	-32,317	-0,154	-0,059
330,056	-96,253	-0,134	-0,024
331,070	110,948	-0,202	-0,166
332,085	-0,134	-0,136	-0,066
333,100	244,741	-0,094	-0,109
334,114	-13,982	-0,194	-0,086
335,129	97,401	-0,161	-0,127
336,143	402,607	-0,185	-0,267
337,158	253,890	-0,219	-0,257
338,173	73,292	-0,120	-0,086
339,187	362,251	-0,107	-0,147
340,202	800,000	-0,060	-0,123
341,216	325,940	-0,101	-0,132
342,231	13,522	-0,207	-0,110
343,246	-21,533	-0,163	-0,068
344,260	291,510	-0,081	-0,102
345,275	9,764	-0,109	-0,056
346,289	-200,000	0,012	-0,063
347,304	27,357	-0,041	-0,023
348,319	333,515	-0,151	-0,201
349,333	-113,083	-0,186	-0,025
350,348	-151,978	-0,116	-0,006
351,362	241,074	-0,167	-0,191
352,377	53,672	-0,134	-0,088
353,392	-100,573	-0,209	-0,035
354,406	-47,635	-0,161	-0,053
355,421	207,048	1310,191	1398,576
356,435	159,257	1470,346	1399,055
