DTS Sentinel unit serial number:	SN410029Multiplexer serial number:	ORYXHardware model number:	OX2-SRSoftware version number:	ORYX F/W v4,00 Oryx Data Collector v3.7.2.0data status	okinstallation	B3 Nyhavnadifferential loss correction	single-endedforward channel	channel 1reverse channel	N/Adate	2023/11/29time	08:52:30forward acquisition time	300,00reverse acquisition time	0,00gamma	499,1914k internal	0,3212k external	0,3212temperature offset calibration	1,0000default loss term (dB/km)	0,3820temperature slope calibration	1,0000multiplexer offset coefficient	1,0000multiplexer slope coefficient	1,0000fibre end	0,00T internal ref (°C)	8,95T ext. ref 1 (°C)	-5,81T ext. ref 2 (°C)	-5,93length (m)	temperature (°C)	Stokes	anti-Stokes-744,400	47,242	-0,163	-0,110
-743,385	600,414	-0,147	0,266
-742,371	385,385	-0,112	-0,169
-741,356	800,000	0,183	0,444
-740,342	476,436	-0,135	-0,222
-739,327	800,000	-0,096	0,263
-738,312	227,751	-0,259	-0,306
-737,298	247,845	-0,190	0,233
-736,283	188,543	-0,218	-0,237
-735,269	-200,000	-0,036	0,229
-734,254	662,313	-0,120	-0,226
-733,239	100,230	-0,094	-0,079
-732,225	800,000	-0,066	-0,191
-731,210	800,000	0,117	0,247
-730,196	-10,561	-0,075	-0,036
-729,181	800,000	-0,017	-0,036
-728,167	4,794	-0,106	-0,056
-727,152	85,161	0,026	0,020
-726,137	4,739	0,095	-0,050
-725,123	-10,451	-0,048	0,023
-724,108	-200,000	0,025	-0,107
-723,094	-81,276	-0,034	-0,008
-722,079	198,343	-0,063	-0,070
-721,064	-35,822	0,129	0,050
-720,050	-200,000	0,009	-0,204
-719,035	367,625	-0,088	0,129
-718,021	-8,924	-0,080	-0,039
-717,006	-114,932	0,077	0,010
-715,991	52,324	-0,068	-0,047
-714,977	-200,000	0,036	0,151
-713,962	800,000	-0,035	0,093
-712,948	190,430	0,022	-0,024
-711,933	128,758	-0,019	-0,018
-710,918	-200,000	-0,013	-0,061
-709,904	-200,000	-0,005	-0,026
-708,889	-200,000	0,012	-0,144
-707,875	-77,914	-0,163	-0,040
-706,860	150,364	0,014	0,014
-705,845	-51,542	-0,056	0,019
-704,831	134,895	-0,084	0,079
-703,816	-200,000	0,024	-0,083
-702,802	316,208	-0,086	0,118
-701,787	-69,570	-0,156	0,043
-700,772	-60,884	-0,117	-0,035
-699,758	800,000	0,075	-0,156
-698,743	-106,468	-0,025	0,004
-697,729	800,000	0,058	0,131
-696,714	39,853	-0,092	0,059
-695,699	-1,095	0,090	0,046
-694,685	800,000	-0,015	-0,032
-693,670	-105,063	0,132	-0,022
-692,656	254,446	-0,149	0,185
-691,641	346,241	0,061	0,087
-690,627	171,239	0,072	0,075
-689,612	800,000	-0,091	0,191
-688,597	-200,000	-0,026	-0,123
-687,583	-4,894	-0,108	0,054
-686,568	95,183	-0,060	-0,049
-685,554	-200,000	-0,014	-0,069
-684,539	-200,000	-0,004	0,110
-683,524	602,990	-0,077	0,138
-682,510	60,339	0,111	0,079
-681,495	800,000	-0,081	0,222
-680,481	800,000	-0,042	0,128
-679,466	375,801	-0,080	-0,119
-678,451	270,202	-0,020	0,026
-677,437	-200,000	-0,011	-0,118
-676,422	800,000	0,034	0,100
-675,408	532,715	-0,114	-0,195
-674,393	-93,505	0,125	0,025
-673,378	204,088	-0,081	-0,091
-672,364	389,076	0,103	-0,155
-671,349	-200,000	0,024	0,150
-670,335	30,153	0,043	0,027
-669,320	-7,232	0,057	0,028
-668,305	122,820	-0,135	0,122
-667,291	166,989	-0,043	0,044
-666,276	131,193	0,076	0,070
-665,262	800,000	0,026	-0,059
-664,247	78,457	-0,053	-0,041
-663,232	40,034	-0,098	-0,063
-662,218	-140,481	0,047	-0,003
-661,203	365,655	0,055	-0,080
-660,189	-200,000	-0,013	-0,073
-659,174	-150,098	-0,117	0,006
-658,159	-33,839	-0,206	-0,082
-657,145	47,400	0,043	0,029
-656,130	508,410	-0,021	0,036
-655,116	259,122	-0,028	-0,035
-654,101	-200,000	0,003	0,056
-653,086	-62,665	-0,068	0,020
-652,072	-200,000	0,003	-0,013
-651,057	122,167	-0,146	-0,132
-650,043	-200,000	0,018	-0,119
-649,028	-200,000	0,047	-0,170
-648,014	49,897	0,033	0,023
-646,999	-200,000	0,001	0,071
-645,984	800,000	0,052	0,164
-644,970	257,554	-0,042	-0,053
-643,955	-70,265	-0,193	-0,053
-642,941	-152,701	-0,006	0,000
-641,926	92,368	0,026	-0,021
-640,911	-10,468	0,061	-0,029
-639,897	-200,000	-0,018	0,064
-638,882	262,169	-0,088	0,110
-637,868	-17,554	0,129	-0,058
-636,853	-126,345	-0,117	0,012
-635,838	-71,338	-0,130	-0,035
-634,824	800,000	0,023	-0,048
-633,809	579,239	0,036	-0,063
-632,795	-44,887	-0,114	0,041
-631,780	800,000	-0,013	0,027
-630,765	-200,000	-0,016	0,194
-629,751	420,701	0,084	-0,130
-628,736	12,879	-0,127	-0,071
-627,722	-183,645	0,190	-0,002
-626,707	-173,813	0,043	-0,001
-625,692	155,488	-0,059	0,059
-624,678	118,799	0,137	0,122
-623,663	800,000	0,031	0,097
-622,649	800,000	-0,019	0,048
-621,634	-187,410	-0,140	-0,001
-620,619	-200,000	0,042	-0,189
-619,605	80,722	0,066	0,051
-618,590	181,610	0,067	0,071
-617,576	-60,515	-0,089	0,027
-616,561	-200,000	-0,029	-0,124
-615,546	-108,776	-0,126	0,019
-614,532	436,765	-0,018	-0,028
-613,517	183,265	-0,098	-0,104
-612,503	-191,074	-0,041	0,000
-611,488	43,915	-0,077	-0,051
-610,474	-200,000	0,014	0,153
-609,459	800,000	0,052	0,165
-608,444	-162,977	0,042	-0,001
-607,430	-16,656	-0,039	-0,018
-606,415	69,483	-0,049	-0,036
-605,401	-35,130	-0,075	-0,030
-604,386	75,597	-0,123	0,093
-603,371	-41,302	-0,048	-0,018
-602,357	229,065	-0,040	-0,047
-601,342	-13,394	-0,111	-0,052
-600,328	312,383	-0,149	-0,202
-599,313	-200,000	0,000	-0,041
-598,298	94,921	-0,117	-0,096
-597,284	800,000	-0,042	0,116
-596,269	-180,181	0,115	0,002
-595,255	-200,000	-0,029	0,092
-594,240	-14,851	-0,056	0,026
-593,225	60,983	-0,097	-0,070
-592,211	118,533	-0,010	-0,009
-591,196	287,105	-0,037	0,048
-590,182	-137,159	-0,107	-0,009
-589,167	-200,000	-0,012	0,136
-588,152	-200,000	0,009	0,081
-587,138	-67,599	-0,052	0,014
-586,123	-200,000	-0,003	-0,082
-585,109	564,862	0,044	-0,076
-584,094	21,552	0,028	-0,017
-583,079	7,201	-0,082	0,044
-582,065	-153,644	0,077	0,004
-581,050	-85,589	-0,007	0,001
-580,036	-163,465	-0,076	0,003
-579,021	800,000	-0,029	-0,062
-578,006	-93,614	-0,259	-0,051
-576,992	800,000	-0,033	-0,074
-575,977	-88,266	0,050	-0,011
-574,963	215,123	0,044	0,051
-573,948	800,000	-0,029	0,086
-572,934	-110,082	-0,027	0,004
-571,919	800,000	-0,061	-0,138
-570,904	-200,000	-0,000	-0,125
-569,890	-200,000	-0,001	-0,046
-568,875	-200,000	0,036	-0,183
-567,861	62,827	-0,087	0,062
-566,846	135,765	0,090	0,085
-565,831	-200,000	-0,021	-0,185
-564,817	-23,513	0,061	-0,026
-563,802	-114,238	-0,048	0,007
-562,788	-149,788	-0,105	-0,006
-561,773	346,648	0,087	0,124
-560,758	800,000	0,048	0,101
-559,744	118,760	-0,071	0,063
-558,729	-200,000	0,018	-0,091
-557,715	770,082	-0,021	-0,041
-556,700	136,228	-0,137	-0,128
-555,685	-54,023	-0,104	-0,034
-554,671	144,899	0,048	-0,046
-553,656	-6,976	0,064	0,031
-552,642	800,000	-0,027	0,073
-551,627	-200,000	0,012	-0,070
-550,612	-200,000	0,026	-0,093
-549,598	63,231	-0,146	-0,105
-548,583	-16,404	0,048	-0,022
-547,569	188,318	0,059	0,063
-546,554	432,545	-0,106	0,166
-545,539	368,727	0,056	0,081
-544,525	197,932	-0,087	0,095
-543,510	-200,000	0,010	-0,059
-542,496	36,485	-0,031	0,020
-541,481	-5,350	-0,060	-0,030
-540,466	-50,306	0,121	-0,041
-539,452	-132,485	0,029	0,003
-538,437	94,334	0,094	0,076
-537,423	-86,073	-0,075	0,017
-536,408	800,000	0,032	-0,064
-535,393	280,542	-0,075	0,097
-534,379	800,000	0,020	0,050
-533,364	-33,209	0,050	-0,020
-532,350	-184,465	-0,144	-0,002
-531,335	-91,472	0,043	0,009
-530,321	-167,344	0,026	0,001
-529,306	-71,938	0,054	-0,014
-528,291	166,071	-0,016	0,016
-527,277	154,169	-0,137	-0,135
-526,262	-200,000	0,032	0,138
-525,248	34,007	0,073	0,046
-524,233	73,555	0,083	-0,063
-523,218	237,480	0,010	-0,012
-522,204	-200,000	0,004	-0,070
-521,189	516,020	-0,062	-0,104
-520,175	800,000	-0,065	-0,161
-519,160	83,766	0,138	0,108
-518,145	-3,583	-0,038	0,019
-517,131	355,226	-0,035	-0,050
-516,116	241,548	0,074	0,089
-515,102	-200,000	0,012	0,054
-514,087	74,559	0,085	-0,064
-513,072	36,983	-0,124	-0,078
-512,058	-200,000	-0,009	0,125
-511,043	43,053	0,086	-0,056
-510,029	800,000	0,078	0,164
-509,014	-200,000	-0,013	-0,062
-507,999	366,923	0,066	0,096
-506,985	-138,287	-0,156	0,012
-505,970	-76,906	-0,098	-0,024
-504,956	281,500	-0,040	-0,052
-503,941	53,587	-0,127	0,087
-502,926	800,000	0,050	0,107
-501,912	-200,000	-0,005	0,076
-500,897	63,812	0,055	-0,039
-499,883	-118,442	0,113	-0,014
-498,868	800,000	-0,023	0,058
-497,853	309,030	-0,017	0,022
-496,839	-200,000	-0,004	0,073
-495,824	-68,274	0,084	0,023
-494,810	800,000	-0,028	0,059
-493,795	-200,000	0,012	0,081
-492,781	79,915	-0,091	0,070
-491,766	1,602	-0,037	-0,019
-490,751	-66,840	0,113	-0,032
-489,737	-80,144	0,083	-0,020
-488,722	800,000	-0,053	0,167
-487,708	-200,000	0,048	0,152
-486,693	-200,000	-0,050	0,160
-485,678	-82,584	-0,057	0,013
-484,664	156,193	-0,038	0,038
-483,649	-200,000	-0,006	-0,074
-482,635	800,000	-0,057	0,120
-481,620	126,934	-0,039	-0,036
-480,605	538,066	0,089	0,152
-479,591	-143,354	0,131	-0,009
-478,576	-49,621	-0,047	0,016
-477,562	-77,816	-0,059	0,015
-476,547	-72,762	-0,030	0,008
-475,532	12,394	0,040	0,022
-474,518	-168,882	-0,032	0,001
-473,503	800,000	0,044	0,096
-472,489	140,087	0,067	0,063
-471,474	-159,491	-0,125	-0,005
-470,459	-200,000	-0,015	0,061
-469,445	-200,000	0,004	0,077
-468,430	52,063	0,091	0,062
-467,416	2,039	0,096	-0,049
-466,401	165,592	0,050	0,051
-465,386	503,566	0,043	-0,071
-464,372	-200,000	0,005	0,038
-463,357	-200,000	0,004	-0,031
-462,343	800,000	0,037	-0,102
-461,328	-182,342	-0,068	-0,001
-460,313	-163,833	0,032	0,001
-459,299	243,292	-0,037	0,045
-458,284	800,000	0,056	0,166
-457,270	254,245	0,051	0,062
-456,255	800,000	0,045	-0,106
-455,241	226,929	-0,074	-0,086
-454,226	223,898	0,106	-0,123
-453,211	71,340	0,103	-0,077
-452,197	-200,000	0,020	0,106
-451,182	800,000	0,025	-0,071
-450,168	-56,711	0,173	-0,054
-449,153	-90,747	-0,030	0,006
-448,138	161,856	-0,107	-0,108
-447,124	-200,000	-0,025	-0,105
-446,109	800,000	0,034	0,075
-445,095	335,593	0,081	-0,113
-444,080	34,176	0,066	-0,041
-443,065	800,000	-0,029	0,062
-442,051	-140,391	0,115	-0,008
-441,036	37,012	0,086	-0,054
-440,022	-200,000	-0,036	0,114
-439,007	-39,988	0,057	0,021
-437,992	-153,178	-0,038	-0,002
-436,978	-30,105	0,059	0,024
-435,963	800,000	-0,038	0,082
-434,949	-200,000	-0,031	-0,131
-433,934	533,399	-0,042	-0,072
-432,919	-36,776	-0,042	-0,016
-431,905	86,628	0,098	0,077
-430,890	169,005	-0,067	0,068
-429,876	-200,000	0,044	0,210
-428,861	-70,908	0,108	0,029
-427,846	376,929	0,059	-0,086
-426,832	356,424	0,023	-0,033
-425,817	-59,490	0,083	0,025
-424,803	-200,000	-0,003	-0,097
-423,788	-27,011	-0,040	-0,016
-422,773	-92,915	0,215	-0,043
-421,759	-200,000	0,019	0,091
-420,744	495,072	0,053	-0,087
-419,730	800,000	0,052	-0,156
-418,715	127,742	-0,053	0,048
-417,701	-15,182	0,114	0,052
-416,686	-200,000	-0,005	0,039
-415,671	-81,778	0,125	0,029
-414,657	10,290	-0,123	0,067
-413,642	-200,000	0,017	-0,063
-412,628	-200,000	0,005	-0,079
-411,613	-132,391	0,063	-0,006
-410,598	289,494	-0,056	0,073
-409,584	-62,847	0,004	0,001
-408,569	261,390	0,010	-0,012
-407,555	-200,000	-0,004	0,027
-406,540	-73,321	-0,022	0,006
-405,525	501,454	0,069	-0,114
-404,511	-200,000	0,021	0,119
-403,496	-100,677	-0,137	-0,024
-402,482	139,299	0,086	-0,081
-401,467	222,546	0,079	-0,091
-400,452	-151,522	-0,101	0,005
-399,438	5,764	0,126	0,066
-398,423	32,479	0,186	-0,115
-397,409	264,732	-0,007	-0,009
-396,394	-200,000	0,010	-0,097
-395,379	432,451	0,005	0,007
-394,365	800,000	0,082	0,203
-393,350	-200,000	-0,017	0,113
-392,336	-200,000	0,001	0,038
-391,321	102,787	0,098	0,082
-390,306	48,149	0,117	-0,078
-389,292	-4,864	-0,106	-0,052
-388,277	-4,421	0,112	-0,055
-387,263	-25,849	-0,077	0,032
-386,248	5,949	-0,009	-0,005
-385,233	-200,000	0,008	0,093
-384,219	116,179	-0,029	0,025
-383,204	-63,133	-0,094	0,027
-382,190	355,398	-0,041	-0,059
-381,175	-103,960	0,028	0,005
-380,160	-200,000	-0,010	0,044
-379,146	324,077	-0,034	0,047
-378,131	246,257	0,036	-0,044
-377,117	270,861	0,075	-0,095
-376,102	-41,753	-0,071	-0,026
-375,088	437,944	-0,026	-0,040
-374,073	800,000	-0,051	0,129
-373,058	-200,000	0,007	0,025
-372,044	334,933	0,091	0,127
-371,029	197,537	0,012	0,013
-370,015	4,171	-0,095	0,050
-369,000	-200,000	-0,009	-0,030
-367,985	61,326	0,077	-0,055
-366,971	143,016	-0,019	-0,018
-365,956	-46,516	0,105	0,037
-364,942	137,913	-0,111	-0,104
-363,927	-46,057	0,150	0,052
-362,912	47,896	-0,105	0,070
-361,898	-200,000	-0,004	0,045
-360,883	800,000	-0,038	-0,075
-359,869	-35,430	-0,145	0,056
-358,854	5,799	0,103	0,054
-357,839	-200,000	-0,021	0,073
-356,825	-76,769	0,043	0,011
-355,810	54,720	-0,079	0,055
-354,796	101,188	0,069	0,057
-353,781	-200,000	-0,012	-0,107
-352,766	609,879	-0,038	0,069
-351,752	178,961	0,055	0,057
-350,737	201,491	0,040	0,045
-349,723	89,484	0,145	-0,115
-348,708	135,336	-0,014	0,013
-347,693	537,435	-0,036	0,061
-346,679	-200,000	0,013	-0,138
-345,664	-37,689	-0,062	-0,024
-344,650	481,269	0,042	0,068
-343,635	-200,000	-0,032	0,107
-342,620	800,000	0,039	0,108
-341,606	-200,000	-0,000	-0,106
-340,591	-200,000	-0,013	0,064
-339,577	519,057	-0,047	0,079
-338,562	66,397	-0,044	-0,032
-337,548	11,578	0,035	-0,019
-336,533	-200,000	0,001	0,026
-335,518	-135,562	0,142	0,012
-334,504	364,315	0,049	0,071
-333,489	491,053	-0,063	-0,103
-332,475	-74,627	-0,146	-0,037
-331,460	-200,000	-0,008	-0,116
-330,445	285,604	0,039	-0,051
-329,431	351,520	-0,018	0,026
-328,416	800,000	0,053	0,146
-327,402	-200,000	-0,006	-0,049
-326,387	-200,000	-0,008	0,094
-325,372	800,000	0,038	-0,117
-324,358	-200,000	-0,004	-0,116
-323,343	-200,000	0,008	-0,044
-322,329	800,000	-0,077	-0,195
-321,314	-200,000	-0,001	0,006
-320,299	-38,721	-0,106	0,040
-319,285	-200,000	-0,020	0,082
-318,270	-200,000	-0,005	-0,100
-317,256	800,000	-0,051	-0,123
-316,241	4,394	-0,045	-0,023
-315,226	800,000	-0,007	0,020
-314,212	-200,000	0,008	0,109
-313,197	-22,521	0,048	-0,021
-312,183	34,624	0,103	-0,064
-311,168	-146,445	-0,159	-0,010
-310,153	404,284	0,080	-0,121
-309,139	-25,829	0,089	-0,037
-308,124	-65,684	-0,041	-0,012
-307,110	-200,000	0,008	0,060
-306,095	-152,378	0,010	0,001
-305,080	-200,000	-0,012	-0,057
-304,066	-137,737	-0,162	-0,013
-303,051	-200,000	0,027	0,099
-302,037	-200,000	-0,004	-0,016
-301,022	-200,000	0,001	-0,067
-300,008	-70,455	0,057	-0,015
-298,993	12,478	0,090	-0,049
-297,978	-174,180	0,068	0,001
-296,964	123,996	0,047	-0,042
-295,949	-200,000	0,010	-0,039
-294,935	34,706	0,063	0,039
-293,920	-4,683	-0,030	0,015
-292,905	-200,000	0,012	-0,108
-291,891	800,000	0,026	0,070
-290,876	597,243	0,064	0,114
-289,862	139,999	-0,078	-0,073
-288,847	153,394	0,078	-0,076
-287,832	-200,000	0,020	-0,212
-286,818	68,068	-0,141	-0,102
-285,803	-200,000	-0,004	-0,035
-284,789	-132,710	0,053	-0,005
-283,774	181,908	0,115	0,121
-282,759	6,877	0,042	-0,022
-281,745	-174,480	0,088	-0,002
-280,730	-74,125	-0,082	-0,021
-279,716	-44,523	-0,147	-0,052
-278,701	800,000	0,100	0,209
-277,686	52,269	0,026	-0,018
-276,672	-36,864	0,161	0,061
-275,657	-200,000	-0,000	-0,098
-274,643	-103,038	0,067	-0,011
-273,628	-200,000	-0,003	-0,126
-272,613	-19,448	0,094	-0,041
-271,599	-46,786	-0,059	0,020
-270,584	5,714	0,056	0,030
-269,570	170,586	-0,193	0,197
-268,555	-34,805	-0,103	-0,040
-267,540	800,000	-0,029	-0,086
-266,526	-5,486	-0,107	-0,052
-265,511	800,000	0,012	-0,025
-264,497	800,000	0,045	0,105
-263,482	37,292	-0,085	-0,053
-262,467	-200,000	-0,008	0,078
-261,453	97,405	0,098	0,080
-260,438	32,998	0,075	0,046
-259,424	-200,000	0,004	0,028
-258,409	-165,926	-0,216	0,006
-257,395	800,000	-0,010	-0,027
-256,380	-200,000	0,018	0,063
-255,365	-156,988	0,068	0,003
-254,351	578,449	0,016	0,028
-253,336	-105,868	-0,097	-0,015
-252,322	160,152	-0,092	-0,091
-251,307	-97,701	0,124	-0,023
-250,292	447,373	0,040	0,062
-249,278	-200,000	-0,009	-0,054
-248,263	-200,000	-0,002	0,021
-247,249	-36,174	-0,070	-0,027
-246,234	217,429	-0,087	-0,099
-245,219	-200,000	0,008	-0,124
-244,205	-200,000	-0,011	0,085
-243,190	-142,449	0,148	-0,010
-242,176	800,000	-0,061	0,148
-241,161	131,054	0,145	-0,133
-240,146	-200,000	0,022	-0,078
-239,132	59,378	-0,049	-0,034
-238,117	-34,494	-0,196	-0,076
-237,103	155,612	-0,067	-0,066
-236,088	-10,812	-0,134	0,063
-235,073	554,153	0,050	0,086
-234,059	-200,000	0,021	0,174
-233,044	-200,000	-0,027	0,142
-232,030	-124,864	-0,114	-0,012
-231,015	-9,867	-0,106	0,050
-230,000	201,452	0,115	0,126
-228,986	-200,000	-0,024	0,129
-227,971	800,000	-0,031	0,072
-226,957	-200,000	0,006	0,025
-225,942	82,191	-0,113	0,087
-224,927	62,743	0,120	0,085
-223,913	68,048	0,052	-0,038
-222,898	800,000	-0,016	-0,042
-221,884	534,411	0,006	-0,010
-220,869	139,584	0,048	-0,045
-219,855	208,286	-0,036	-0,040
-218,840	-44,680	0,069	0,024
-217,825	-200,000	0,003	0,027
-216,811	195,379	0,057	-0,062
-215,796	-200,000	0,002	-0,107
-214,782	-10,718	0,041	-0,019
-213,767	189,875	-0,047	0,050
-212,752	381,313	0,141	-0,206
-211,738	-200,000	-0,002	0,028
-210,723	800,000	0,012	-0,035
-209,709	791,911	0,061	-0,119
-208,694	23,661	-0,080	-0,047
-207,679	-155,688	0,073	-0,003
-206,665	-104,501	-0,066	0,011
-205,650	-162,745	0,013	-0,000
-204,636	-200,000	0,026	0,153
-203,621	-117,950	0,038	-0,005
-202,606	-121,727	-0,108	0,012
-201,592	135,528	-0,038	-0,035
-200,577	141,444	0,086	-0,080
-199,563	577,466	-0,042	-0,074
-198,548	-200,000	0,010	0,078
-197,533	92,068	0,058	-0,046
-196,519	800,000	-0,008	0,022
-195,504	203,680	-0,104	-0,115
-194,490	-200,000	0,005	-0,172
-193,475	-149,562	-0,077	-0,004
-192,460	111,716	0,037	-0,032
-191,446	91,986	0,035	0,028
-190,431	-108,311	0,081	-0,012
-189,417	79,645	0,080	-0,061
-188,402	481,463	-0,034	-0,055
-187,387	-200,000	0,049	-0,159
-186,373	-200,000	-0,025	-0,130
-185,358	32,038	-0,129	0,079
-184,344	-56,852	0,066	-0,021
-183,329	-200,000	0,023	0,087
-182,315	-200,000	-0,015	0,139
-181,300	150,345	0,083	0,080
-180,285	-131,547	-0,139	0,013
-179,271	53,729	0,068	-0,046
-178,256	-20,427	-0,010	-0,004
-177,242	-101,769	0,163	0,028
-176,227	724,694	-0,015	0,029
-175,212	-200,000	-0,024	0,136
-174,198	-41,636	0,086	0,031
-173,183	800,000	-0,033	-0,073
-172,169	-144,272	-0,032	-0,002
-171,154	551,444	-0,066	-0,113
-170,139	-28,735	0,087	0,035
-169,125	-130,595	-0,047	-0,004
-168,110	-200,000	0,134	-0,000
-167,096	57,745	0,053	0,036
-166,081	627,565	-0,061	-0,109
-165,066	164,267	-0,147	-0,147
-164,052	-200,000	0,001	0,061
-163,037	-118,274	0,006	-0,001
-162,023	587,754	0,054	0,095
-161,008	-200,000	-0,019	-0,070
-159,993	121,027	0,060	0,053
-158,979	800,000	-0,033	-0,089
-157,964	800,000	-0,069	-0,200
-156,950	9,181	-0,085	-0,046
-155,935	800,000	-0,074	0,159
-154,920	-135,917	-0,006	0,001
-153,906	-156,817	0,155	-0,007
-152,891	479,421	0,018	-0,029
-151,877	-200,000	0,000	-0,077
-150,862	-200,000	0,005	0,046
-149,847	145,963	0,081	0,077
-148,833	26,550	-0,012	-0,007
-147,818	800,000	0,044	0,094
-146,804	-115,114	0,036	-0,005
-145,789	574,840	0,043	-0,074
-144,775	-46,014	0,077	-0,027
-143,760	-200,000	-0,145	0,000
-142,745	13,987	-0,083	0,046
-141,731	223,603	0,063	0,073
-140,716	-200,000	-0,024	0,108
-139,702	-12,229	-0,058	0,027
-138,687	43,813	0,085	-0,055
-137,672	-200,000	-0,023	0,087
-136,658	-128,733	-0,163	-0,016
-135,643	93,378	0,070	-0,056
-134,629	430,064	-0,060	0,092
-133,614	174,787	0,063	0,065
-132,599	508,666	-0,029	-0,048
-131,585	138,405	0,079	0,074
-130,570	-200,000	-0,013	0,057
-129,556	-31,278	0,059	0,024
-128,541	-67,316	-0,133	0,037
-127,526	-8,217	0,105	-0,050
-126,512	-200,000	0,026	-0,081
-125,497	-61,554	0,041	0,012
-124,483	-200,000	0,000	0,071
-123,468	800,000	0,029	-0,084
-122,453	-200,000	0,008	-0,076
-121,439	123,874	-0,077	-0,069
-120,424	-200,000	-0,033	-0,134
-119,410	-200,000	-0,016	-0,119
-118,395	-114,172	0,057	0,008
-117,380	-120,945	-0,043	-0,005
-116,366	-200,000	-0,025	0,213
-115,351	165,120	-0,132	0,132
-114,337	109,200	-0,070	0,060
-113,322	-90,832	-0,206	-0,042
-112,307	-160,806	0,073	0,003
-111,293	98,927	-0,010	0,008
-110,278	2,604	0,072	-0,037
-109,264	-61,064	0,013	-0,004
-108,249	-99,973	-0,041	0,007
-107,234	-164,334	-0,150	-0,005
-106,220	-30,406	-0,064	0,026
-105,205	7,494	0,161	0,085
-104,191	459,754	-0,057	0,091
-103,176	64,520	0,079	0,056
-102,162	-200,000	-0,010	-0,130
-101,147	123,746	-0,032	0,028
-100,132	-143,039	0,041	0,003
-99,118	-26,887	-0,175	0,072
-98,103	-200,000	-0,016	-0,057
-97,089	-21,951	0,194	0,083
-96,074	800,000	-0,019	-0,053
-95,059	144,266	0,040	-0,037
-94,045	-200,000	0,025	0,101
-93,030	-200,000	-0,008	-0,139
-92,016	107,065	0,052	-0,044
-91,001	12,394	0,063	0,034
-89,986	-200,000	0,009	-0,037
-88,972	800,000	-0,062	0,122
-87,957	192,225	0,080	0,085
-86,943	84,951	0,014	0,011
-85,928	-200,000	-0,048	-0,150
-84,913	232,796	0,078	-0,091
-83,899	-30,802	-0,064	0,025
-82,884	-65,612	-0,066	-0,019
-81,870	800,000	0,055	0,111
-80,855	-1,788	0,160	0,079
-79,840	-106,845	-0,086	-0,013
-78,826	32,147	-0,113	-0,069
-77,811	800,000	-0,044	-0,097
-76,797	-26,272	-0,117	-0,048
-75,782	171,116	0,078	0,079
-74,767	-125,579	0,088	-0,009
-73,753	90,138	0,078	0,062
-72,738	800,000	0,016	-0,047
-71,724	21,330	-0,084	-0,048
-70,709	-200,000	0,020	-0,141
-69,694	321,019	-0,049	-0,066
-68,680	337,182	0,060	0,083
-67,665	11,876	-0,034	-0,018
-66,651	84,474	0,025	0,019
-65,636	60,570	0,122	0,085
-64,622	-200,000	0,022	-0,145
-63,607	708,335	-0,046	-0,086
-62,592	-130,221	-0,055	-0,005
-61,578	291,984	0,114	0,147
-60,563	76,176	0,104	0,077
-59,549	-200,000	-0,034	0,143
-58,534	48,471	-2,146	-1,416
-57,519	457,060	-1,179	-1,855
-56,505	-200,000	-0,375	-4,343
-55,490	800,000	0,798	1,603
-54,476	800,000	5,276	11,364
-53,461	-200,000	22,032	337,639
-52,446	800,000	759,082	2297,330
-51,432	533,607	1653,240	2773,656
-50,417	69,265	1651,295	1197,045
-49,403	16,572	1525,884	848,476
-48,388	10,771	1450,162	778,445
-47,373	18,993	1442,053	813,326
-46,359	14,159	1430,811	784,085
-45,344	9,075	1427,027	757,883
-44,330	9,016	1425,243	756,629
-43,315	9,021	1423,260	755,570
-42,300	9,002	1421,568	754,551
-41,286	9,074	1420,221	754,145
-40,271	9,060	1419,069	753,440
-39,257	9,029	1417,820	752,600
-38,242	9,029	1416,820	752,037
-37,227	9,074	1415,590	751,566
-36,213	9,044	1414,300	750,711
-35,198	9,028	1413,167	750,007
-34,184	9,085	1412,254	749,759
-33,169	9,009	1410,728	748,563
-32,154	9,003	1410,040	748,139
-31,140	9,019	1408,654	747,449
-30,125	9,013	1407,342	746,697
-29,111	9,049	1406,121	746,184
-28,096	9,012	1405,228	745,511
-27,082	8,989	1403,975	744,706
-26,067	8,976	1402,782	743,987
-25,052	9,004	1401,800	743,566
-24,038	9,017	1400,910	743,124
-23,023	8,981	1400,101	742,497
-22,009	8,970	1398,941	741,801
-20,994	8,945	1398,054	741,184
-19,979	8,969	1396,991	740,704
-18,965	8,948	1396,038	740,072
-17,950	8,975	1395,037	739,638
-16,936	8,913	1394,381	738,972
-15,921	8,864	1393,431	738,212
-14,906	8,903	1392,481	737,861
-13,892	8,937	1391,318	737,374
-12,877	8,914	1390,658	736,887
-11,863	8,889	1390,019	736,402
-10,848	8,869	1389,013	735,750
-9,833	8,808	1387,936	734,866
-8,819	8,803	1387,101	734,373
-7,804	8,779	1386,211	733,762
-6,790	8,812	1385,193	733,348
-5,775	8,772	1384,092	732,551
-4,760	8,825	1383,090	732,236
-3,746	8,844	1382,334	731,895
-2,731	8,823	1381,349	731,245
-1,717	8,837	1380,514	730,838
-0,702	8,837	1378,775	729,888
0,313	12,820	1290,294	701,157
1,327	28,746	682,467	406,597
2,342	44,800	117,539	76,118
3,356	-2,221	16,485	8,129
4,371	-1,206	3,722	1,848
5,386	33,470	1,070	0,654
6,400	800,000	0,215	0,593
7,415	89,184	-0,257	-0,201
8,429	154,247	-0,199	-0,193
9,444	25,325	-0,266	-0,156
10,459	-64,765	-0,333	-0,094
11,473	1,881	-0,200	-0,102
12,488	-97,285	-0,294	-0,053
13,502	-32,042	-0,274	-0,107
14,517	-22,817	-0,372	-0,157
15,531	117,924	-0,312	-0,271
16,546	54,793	-0,448	-0,304
17,561	647,966	-0,234	-0,423
18,575	95,959	-0,253	-0,203
19,590	-34,411	-0,235	-0,090
20,604	-70,731	-0,320	-0,084
21,619	136,849	-0,477	-0,439
22,634	190,177	-0,406	-0,430
23,648	72,906	-0,394	-0,289
24,663	72,148	-0,426	-0,312
25,677	16,343	-0,333	-0,184
26,692	-68,498	-0,489	-0,133
27,707	162,265	-0,258	-0,255
28,721	48,207	-0,253	-0,166
29,736	153,396	-0,332	-0,320
30,750	31,323	-0,411	-0,248
31,765	345,519	-0,259	-0,359
32,780	139,433	-0,393	-0,364
33,794	-5,984	-0,308	-0,148
34,809	-57,334	-0,434	-0,133
35,823	212,115	-0,282	-0,313
36,838	155,321	-0,397	-0,385
37,853	200,076	-0,337	-0,364
38,867	102,676	-0,303	-0,249
39,882	-72,643	-0,458	-0,118
40,896	228,514	-0,200	-0,229
41,911	-19,970	-0,302	-0,131
42,926	1,285	-0,332	-0,167
43,940	70,558	-0,374	-0,272
44,955	83,492	-0,432	-0,331
45,969	65,658	-0,340	-0,242
46,984	42,575	-0,292	-0,187
47,999	215,055	-0,304	-0,339
49,013	-131,043	-0,326	-0,030
50,028	-36,394	-0,232	-0,087
51,042	39,995	-0,302	-0,190
52,057	124,261	-0,255	-0,225
53,071	81,616	-0,438	-0,333
54,086	114,615	-0,290	-0,248
55,101	69,531	-0,244	-0,176
56,115	4,175	-0,320	-0,164
57,130	42,315	-0,318	-0,202
58,144	13,832	-0,313	-0,170
59,159	44,674	-0,383	-0,247
60,174	69,029	-0,550	-0,396
61,188	246,993	-0,251	-0,297
62,203	108,852	-0,274	-0,229
63,217	31,684	-0,303	-0,182
64,232	125,493	-0,219	-0,194
65,247	-43,722	-0,345	-0,121
66,261	24,732	-0,416	-0,241
67,276	18,360	-0,378	-0,211
68,290	342,209	-0,174	-0,239
69,305	6,659	-0,316	-0,164
70,320	-13,284	-0,284	-0,129
71,334	186,085	-0,231	-0,241
72,349	55,400	-0,316	-0,214
73,363	118,048	-0,266	-0,229
74,378	-15,909	-0,338	-0,150
75,393	58,941	-0,332	-0,228
76,407	78,297	-0,200	-0,149
77,422	182,537	-0,277	-0,287
78,436	43,967	-0,217	-0,139
79,451	5,631	-0,282	-0,145
80,466	-8,259	-0,292	-0,137
81,480	95,150	-0,303	-0,241
82,495	-62,692	-0,340	-0,098
83,509	-57,011	-0,298	-0,091
84,524	164,127	-0,251	-0,248
85,539	96,936	-0,251	-0,201
86,553	68,222	-0,254	-0,182
87,568	6,310	-0,296	-0,153
88,582	7,180	-0,343	-0,178
89,597	198,685	-0,257	-0,275
90,611	32,332	-0,194	-0,117
91,626	-33,030	-0,242	-0,093
92,641	19,866	-0,315	-0,177
93,655	-70,253	-0,283	-0,075
94,670	-2,050	-0,320	-0,157
95,684	23,841	-0,364	-0,209
96,699	15,969	-0,266	-0,146
97,714	29,062	-0,290	-0,171
98,728	31,921	-0,339	-0,203
99,743	11,412	-0,322	-0,172
100,757	199,433	-0,252	-0,271
101,772	185,529	-0,261	-0,271
102,787	-23,125	-0,334	-0,140
103,801	-72,850	-0,348	-0,089
104,816	-157,266	-0,297	-0,012
105,830	116,339	-0,219	-0,188
106,845	-54,938	-0,358	-0,112
107,860	88,878	-0,176	-0,137
108,874	-36,209	-0,236	-0,089
109,889	183,174	-0,302	-0,312
110,903	68,207	-0,321	-0,229
111,918	491,057	-0,153	-0,246
112,933	-28,689	-0,258	-0,103
113,947	198,112	-0,159	-0,170
114,962	800,000	-0,075	-0,178
115,976	39,291	-0,348	-0,217
116,991	145,567	-0,242	-0,226
118,006	234,593	-0,202	-0,233
119,020	608,023	-0,160	-0,279
120,035	39,562	-0,132	-0,082
121,049	-152,535	-0,173	0,009
122,064	188,895	-0,205	-0,215
123,079	12,969	-0,213	-0,115
124,093	86,225	-0,284	-0,218
125,108	-107,451	-0,283	-0,043
126,122	211,311	-0,193	-0,212
127,137	91,017	-0,190	-0,148
128,151	166,363	-0,230	-0,227
129,166	271,829	-0,183	-0,225
130,181	-24,632	-0,232	-0,096
131,195	51,939	-0,323	-0,214
132,210	-1,654	-0,321	-0,157
133,224	83,319	-0,214	-0,162
134,239	12,281	-0,240	-0,128
135,254	12,854	-0,244	-0,131
136,268	137,869	-0,146	-0,133
137,283	290,962	-0,175	-0,222
138,297	246,677	-0,164	-0,193
139,312	-40,778	-0,308	-0,111
140,327	107,707	-0,180	-0,149
141,341	103,123	-0,146	-0,119
142,356	46,112	-0,135	-0,087
143,370	141,010	-0,212	-0,195
144,385	258,299	-0,204	-0,245
145,400	68,773	-0,252	-0,180
146,414	706,668	-0,141	-0,261
147,429	59,850	-0,199	-0,136
148,443	47,601	-0,225	-0,146
149,458	-94,184	-0,279	-0,053
150,473	554,322	-0,116	-0,196
151,487	-53,183	-0,203	-0,065
152,502	164,432	-0,211	-0,207
153,516	-16,189	-0,315	-0,139
154,531	172,845	-0,287	-0,288
155,546	-93,604	-0,260	-0,049
156,560	190,792	-0,271	-0,284
157,575	93,306	-0,099	-0,078
158,589	61,150	-0,138	-0,095
159,604	62,518	-0,237	-0,164
160,619	228,545	-0,244	-0,277
161,633	-63,562	-0,398	-0,113
162,648	-19,513	-0,366	-0,157
163,662	127,375	-0,273	-0,241
164,677	-66,871	-0,185	-0,050
165,692	-68,053	-0,232	-0,063
166,706	389,551	-0,203	-0,293
167,721	-78,692	-0,274	-0,065
168,735	40,819	-0,298	-0,187
169,750	181,378	-0,184	-0,188
170,764	99,235	-0,151	-0,121
171,779	-55,534	-0,257	-0,080
172,794	-68,471	-0,142	0,038
173,808	-33,475	-0,294	-0,112
174,823	118,118	-0,195	-0,167
175,837	800,000	-0,099	-0,193
176,852	-4,573	-0,221	-0,106
177,867	316,920	-0,223	-0,293
178,881	93,034	-0,150	-0,117
179,896	-68,864	-0,203	-0,054
180,910	38,886	-0,184	-0,114
181,925	68,411	-0,248	-0,176
182,940	130,786	-0,286	-0,255
183,954	202,664	-0,141	-0,151
184,969	427,661	-0,145	-0,218
185,983	-32,556	-0,154	-0,059
186,998	126,425	-0,236	-0,207
188,013	-15,241	-0,276	-0,122
189,027	19,918	-0,198	-0,110
190,042	15,747	-0,365	-0,198
191,056	-142,102	-0,315	-0,021
192,071	-21,074	-0,246	-0,104
193,086	800,000	-0,068	-0,163
194,100	-125,199	-0,132	0,014
195,115	496,959	-0,116	-0,186
196,129	273,630	-0,224	-0,276
197,144	243,945	-0,256	-0,298
198,159	172,305	-0,207	-0,206
199,173	-7,257	-0,170	-0,080
200,188	-41,386	-0,257	-0,091
201,202	370,411	-0,128	-0,180
202,217	9,413	-0,193	-0,101
203,232	145,913	-0,266	-0,247
204,246	680,614	-0,116	-0,210
205,261	149,916	-0,311	-0,292
206,275	-200,000	-0,040	-0,135
207,290	330,789	-0,117	-0,156
208,304	-199,596	-0,056	0,000
209,319	800,000	-0,070	-0,193
210,334	-85,990	-0,238	-0,050
211,348	294,816	-0,173	-0,220
212,363	128,144	-0,264	-0,232
213,377	-49,028	-0,269	-0,088
214,392	57,840	-0,257	-0,173
215,407	58,780	-0,177	-0,120
216,421	-62,259	-0,246	-0,070
217,436	39,445	-0,208	-0,129
218,450	157,108	-0,260	-0,249
219,465	177,205	-0,364	-0,367
220,480	559,544	-0,134	-0,225
221,494	381,731	-0,108	-0,154
222,509	65,921	-0,162	-0,114
223,523	-86,049	-0,230	-0,049
224,538	191,018	-0,136	-0,142
225,553	32,117	-0,221	-0,131
226,567	800,000	-0,093	-0,231
227,582	336,454	-0,158	-0,213
228,596	-78,387	-0,193	0,045
229,611	-109,164	-0,172	-0,025
230,626	41,123	-0,239	-0,149
231,640	800,000	-0,107	-0,254
232,655	102,923	-0,130	-0,105
233,669	186,219	-0,192	-0,198
234,684	114,271	-0,172	-0,144
235,699	-62,858	-0,189	-0,054
236,713	139,807	-0,072	-0,066
237,728	-64,829	-0,208	-0,058
238,742	421,127	-0,103	-0,153
239,757	106,563	-0,322	-0,263
240,772	125,518	-0,177	-0,154
241,786	57,156	-0,190	-0,128
242,801	-111,611	-0,199	0,028
243,815	800,000	-0,063	-0,133
244,830	35,288	-0,071	-0,043
245,844	-8,368	-0,118	-0,054
246,859	305,384	-0,159	-0,205
247,874	103,269	-0,182	-0,147
248,888	424,343	-0,155	-0,231
249,903	527,173	-0,108	-0,177
250,917	-149,703	-0,191	-0,010
251,932	21,532	-0,095	-0,053
252,947	64,618	-0,174	-0,121
253,961	-0,484	-0,170	-0,083
254,976	-83,832	-0,213	0,047
255,990	800,000	-0,050	-0,116
257,005	-14,232	-0,067	-0,030
258,020	16,982	-0,163	-0,089
259,034	2,933	-0,190	-0,095
260,049	0,314	-0,193	-0,095
261,063	79,364	-0,248	-0,183
262,078	45,827	-0,232	-0,147
263,093	-86,643	-0,213	-0,045
264,107	77,028	-0,210	-0,153
265,122	725,785	-0,116	-0,215
266,136	-19,979	-0,153	-0,065
267,151	654,088	-0,088	-0,156
268,166	108,174	-0,167	-0,137
269,180	265,824	-0,116	-0,140
270,195	-4,565	-0,256	-0,121
271,209	-139,139	-0,364	-0,027
272,224	151,791	-0,191	-0,179
273,239	96,877	-0,194	-0,153
274,253	161,429	-0,140	-0,135
275,268	-0,781	-0,129	-0,063
276,282	800,000	-0,094	-0,247
277,297	437,261	-0,142	-0,214
278,312	-131,886	-0,185	-0,016
279,326	157,395	-0,110	-0,105
280,341	800,000	-0,007	0,014
281,355	-200,000	-0,063	-0,264
282,370	-200,000	-0,051	-0,269
283,384	81,120	-0,144	-0,107
284,399	276,727	-0,178	-0,218
285,414	89,715	-0,184	-0,141
286,428	181,375	-0,138	-0,139
287,443	800,000	-0,086	-0,175
288,457	46,389	-0,065	0,041
289,472	-89,800	-0,268	-0,053
290,487	800,000	-0,039	-0,097
291,501	0,084	-0,204	-0,099
292,516	46,348	-0,168	-0,107
293,530	58,765	-0,053	-0,036
294,545	-6,381	-0,125	-0,058
295,560	101,931	-0,184	-0,147
296,574	155,577	-0,176	-0,166
297,589	352,788	-0,068	-0,093
298,603	538,470	-0,108	-0,176
299,618	-106,699	-0,195	-0,030
300,633	-37,138	-0,169	-0,062
301,647	800,000	-0,046	-0,094
302,662	-4,930	-0,160	-0,075
303,676	-62,659	-0,181	-0,051
304,691	52,346	-0,143	-0,093
305,706	321,187	-0,141	-0,184
306,720	308,871	-0,201	-0,259
307,735	50,052	-0,129	-0,083
308,749	-27,801	-0,178	-0,071
309,764	-200,000	-0,022	0,099
310,779	-131,677	-0,162	-0,014
311,793	675,376	-0,183	-0,327
312,808	292,453	-0,115	-0,145
313,822	55,547	-0,116	0,077
314,837	393,305	-0,073	-0,104
315,852	402,263	-0,111	-0,161
316,866	-200,000	-0,038	-0,195
317,881	289,373	-0,103	-0,129
318,895	-29,729	-0,263	-0,102
319,910	157,650	-0,210	-0,199
320,925	251,980	-0,107	-0,126
321,939	280,501	-0,139	-0,171
322,954	20,192	-0,073	-0,040
323,968	-200,000	0,027	0,107
324,983	800,000	-0,035	-0,102
325,997	148,847	-0,102	-0,095
327,012	177,534	-0,108	-0,108
328,027	-187,791	-0,133	0,001
329,041	69,167	-0,100	-0,070
330,056	-200,000	-0,018	-0,109
331,070	-117,059	-0,152	0,019
332,085	456,273	-0,073	-0,112
333,100	367,516	-0,033	-0,045
334,114	219,619	-0,189	-0,208
335,129	56,328	-0,121	-0,080
336,143	519,470	-0,141	-0,228
337,158	-200,000	-0,030	-0,210
338,173	-109,312	-0,121	-0,017
339,187	163,825	-0,076	-0,073
340,202	77,097	-0,197	-0,143
341,216	-75,774	-0,169	-0,041
342,231	-52,717	-0,177	-0,055
343,246	-114,822	-0,204	-0,026
344,260	-64,347	-0,139	-0,038
345,275	-133,515	-0,224	-0,019
346,289	-5,774	-0,227	-0,106
347,304	41,630	-0,194	-0,120
348,319	358,534	-0,131	-0,179
349,333	79,624	-0,270	-0,198
350,348	-153,858	-0,171	0,008
351,362	-75,427	-0,151	-0,036
352,377	-14,624	-0,170	-0,074
353,392	-36,311	-0,161	-0,059
354,406	-200,000	0,014	-0,148
355,421	208,762	1305,358	1398,086
356,435	160,655	1464,887	1398,559
