DTS Sentinel unit serial number:	SN410029Multiplexer serial number:	ORYXHardware model number:	OX2-SRSoftware version number:	ORYX F/W v4,00 Oryx Data Collector v3.7.2.0data status	okinstallation	B3 Nyhavnadifferential loss correction	single-endedforward channel	channel 1reverse channel	N/Adate	2023/12/02time	00:52:30forward acquisition time	300,00reverse acquisition time	0,00gamma	499,1914k internal	0,3196k external	0,3196temperature offset calibration	1,0000default loss term (dB/km)	0,3820temperature slope calibration	1,0000multiplexer offset coefficient	1,0000multiplexer slope coefficient	1,0000fibre end	0,00T internal ref (°C)	16,32T ext. ref 1 (°C)	1,91T ext. ref 2 (°C)	1,90length (m)	temperature (°C)	Stokes	anti-Stokes-744,400	154,545	-0,258	-0,259
-743,385	617,383	0,149	0,273
-742,371	337,424	-0,159	-0,226
-741,356	-200,000	0,087	0,382
-740,342	-38,323	-0,338	-0,130
-739,327	-200,000	0,025	0,299
-738,312	-200,000	-0,045	-0,246
-737,298	-200,000	0,046	0,177
-736,283	-200,000	-0,005	-0,207
-735,269	800,000	0,103	0,330
-734,254	42,225	-0,232	-0,153
-733,239	800,000	-0,077	0,212
-732,225	320,574	-0,110	-0,152
-731,210	-122,653	0,133	0,015
-730,196	-4,018	-0,120	-0,061
-729,181	145,565	-0,088	0,086
-728,167	446,175	0,043	-0,069
-727,152	-200,000	-0,020	-0,116
-726,137	135,323	-0,082	-0,078
-725,123	172,781	-0,069	-0,072
-724,108	697,446	-0,094	-0,181
-723,094	-19,445	-0,114	-0,051
-722,079	-40,584	-0,264	-0,099
-721,064	174,629	0,049	0,052
-720,050	-143,827	0,187	0,013
-719,035	-63,965	0,018	-0,005
-718,021	221,692	-0,097	-0,114
-717,006	28,430	0,047	-0,029
-715,991	-51,976	-0,083	-0,028
-714,977	312,498	-0,033	-0,046
-713,962	-118,872	-0,118	-0,015
-712,948	-200,000	0,009	-0,035
-711,933	700,478	-0,030	0,059
-710,918	484,327	-0,047	0,078
-709,904	383,660	0,042	-0,062
-708,889	800,000	0,009	-0,022
-707,875	-9,655	-0,084	0,040
-706,860	-200,000	-0,009	-0,040
-705,845	239,895	-0,028	-0,034
-704,831	-200,000	-0,016	-0,079
-703,816	50,999	-0,082	-0,056
-702,802	-200,000	0,026	0,118
-701,787	120,447	-0,058	-0,053
-700,772	-54,893	-0,038	0,012
-699,758	-200,000	-0,008	-0,108
-698,743	800,000	-0,026	0,055
-697,729	453,508	0,108	0,174
-696,714	-124,774	-0,102	-0,011
-695,699	800,000	0,007	0,016
-694,685	58,653	-0,148	0,106
-693,670	141,164	0,051	-0,049
-692,656	646,950	-0,019	0,036
-691,641	-106,569	0,070	-0,011
-690,627	43,178	0,112	0,074
-689,612	-15,482	0,070	0,032
-688,597	575,466	0,054	0,097
-687,583	-200,000	-0,004	0,142
-686,568	360,739	0,100	-0,146
-685,554	-80,409	0,113	-0,027
-684,539	76,087	-0,061	-0,047
-683,524	-200,000	0,004	0,093
-682,510	-200,000	-0,040	0,135
-681,495	-22,289	-0,116	0,051
-680,481	465,578	-0,075	-0,122
-679,466	153,847	-0,039	-0,039
-678,451	19,570	-0,023	-0,013
-677,437	-200,000	0,005	-0,017
-676,422	46,494	-0,070	0,047
-675,408	31,037	-0,063	-0,039
-674,393	-79,231	0,122	-0,030
-673,378	-37,219	-0,253	0,098
-672,364	-200,000	-0,021	-0,128
-671,349	99,228	-0,071	-0,060
-670,335	-31,657	-0,082	-0,033
-669,320	1,381	0,103	0,054
-668,305	-200,000	-0,018	0,131
-667,291	-200,000	-0,025	0,217
-666,276	-71,289	-0,116	-0,031
-665,262	-48,029	-0,079	0,028
-664,247	30,248	-0,046	-0,029
-663,232	110,245	-0,050	0,044
-662,218	-200,000	0,003	-0,101
-661,203	259,479	-0,017	0,022
-660,189	67,363	0,013	0,009
-659,174	-8,521	-0,094	-0,046
-658,159	800,000	0,067	-0,136
-657,145	-13,443	-0,072	0,034
-656,130	-200,000	0,038	0,127
-655,116	-200,000	0,005	-0,150
-654,101	105,699	0,086	0,074
-653,086	13,865	0,075	-0,042
-652,072	800,000	-0,029	-0,064
-651,057	-200,000	-0,012	-0,053
-650,043	9,476	-0,043	-0,023
-649,028	57,282	-0,007	0,005
-648,014	-35,585	0,121	0,047
-646,999	-14,161	0,113	0,053
-645,984	-11,204	-0,125	0,059
-644,970	18,441	-0,100	-0,058
-643,955	800,000	0,087	-0,212
-642,941	-200,000	-0,007	-0,125
-641,926	125,525	0,096	-0,088
-640,911	575,404	-0,007	-0,013
-639,897	-173,341	0,038	-0,001
-638,882	35,234	-0,032	-0,020
-637,868	-118,539	0,023	0,003
-636,853	-16,931	-0,036	-0,017
-635,838	-200,000	0,006	-0,191
-634,824	-200,000	0,017	0,154
-633,809	-70,573	-0,033	0,009
-632,795	-200,000	-0,006	0,063
-631,780	-86,820	0,065	-0,014
-630,765	-93,224	-0,134	0,027
-629,751	148,487	-0,074	-0,073
-628,736	-90,666	-0,163	-0,034
-627,722	-200,000	-0,016	-0,142
-626,707	-200,000	0,002	0,047
-625,692	-13,661	-0,042	0,020
-624,678	-200,000	-0,018	0,088
-623,663	-200,000	0,021	0,128
-622,649	800,000	0,041	-0,083
-621,634	281,642	-0,074	-0,097
-620,619	-200,000	-0,014	-0,108
-619,605	-114,075	0,051	0,007
-618,590	-74,371	0,119	0,031
-617,576	65,152	-0,038	-0,028
-616,561	142,723	-0,111	0,107
-615,546	-7,058	-0,062	-0,030
-614,532	326,887	-0,041	0,057
-613,517	361,657	-0,071	0,103
-612,503	-160,146	-0,143	0,006
-611,488	29,428	0,029	0,018
-610,474	167,281	0,097	0,100
-609,459	-102,195	0,077	0,013
-608,444	77,896	-0,023	-0,018
-607,430	-200,000	-0,003	-0,017
-606,415	-200,000	0,000	-0,033
-605,401	-200,000	-0,009	0,117
-604,386	316,550	0,017	0,024
-603,371	-200,000	0,015	-0,065
-602,357	-67,917	0,080	0,023
-601,342	-61,904	-0,145	-0,044
-600,328	-107,098	-0,139	-0,022
-599,313	312,347	-0,029	-0,039
-598,298	-200,000	-0,002	0,048
-597,284	660,336	0,038	0,071
-596,269	-29,078	-0,023	-0,010
-595,255	508,513	0,015	0,025
-594,240	266,552	-0,012	0,015
-593,225	-200,000	-0,009	-0,041
-592,211	353,406	0,056	-0,080
-591,196	366,514	0,023	-0,033
-590,182	-200,000	-0,010	0,085
-589,167	-160,222	-0,108	0,004
-588,152	245,079	0,019	-0,023
-587,138	-12,661	0,051	-0,024
-586,123	182,308	-0,123	-0,131
-585,109	5,987	0,122	-0,065
-584,094	64,458	-0,082	-0,059
-583,079	-166,133	0,059	0,002
-582,065	90,907	0,040	0,032
-581,050	434,145	-0,050	0,078
-580,036	-200,000	-0,013	0,042
-579,021	800,000	0,052	-0,109
-578,006	-200,000	-0,013	-0,147
-576,992	-140,468	-0,033	0,002
-575,977	-200,000	0,020	0,071
-574,963	3,101	0,013	-0,007
-573,948	-200,000	0,005	-0,115
-572,934	284,271	-0,045	0,059
-571,919	-189,521	0,040	-0,000
-570,904	-200,000	-0,001	0,077
-569,890	-154,219	-0,076	0,004
-568,875	-200,000	0,009	-0,068
-567,861	-56,797	0,105	0,033
-566,846	-200,000	-0,001	0,072
-565,831	213,290	-0,051	0,058
-564,817	70,518	0,139	-0,104
-563,802	-87,122	-0,123	0,027
-562,788	29,754	-0,142	-0,087
-561,773	66,876	0,042	-0,031
-560,758	-200,000	-0,023	0,102
-559,744	131,124	0,048	0,045
-558,729	-200,000	0,067	0,000
-557,715	295,043	-0,072	-0,095
-556,700	-200,000	0,021	-0,106
-555,685	105,884	0,080	-0,068
-554,671	460,834	-0,054	-0,088
-553,656	-200,000	-0,041	-0,162
-552,642	468,846	-0,066	0,108
-551,627	-128,166	-0,118	0,012
-550,612	-58,576	-0,151	-0,047
-549,598	163,299	-0,112	-0,114
-548,583	465,777	-0,096	-0,156
-547,569	-64,493	0,077	0,022
-546,554	-200,000	-0,008	-0,058
-545,539	-200,000	0,016	0,090
-544,525	238,305	-0,073	0,087
-543,510	643,293	0,029	0,053
-542,496	-41,059	-0,118	-0,044
-541,481	-5,889	0,044	0,022
-540,466	-119,358	-0,055	0,007
-539,452	-200,000	-0,007	-0,095
-538,437	-134,652	0,166	0,014
-537,423	-200,000	-0,006	-0,195
-536,408	-51,696	0,061	0,020
-535,393	65,880	0,047	0,034
-534,379	-200,000	-0,004	0,079
-533,364	-58,533	-0,083	0,026
-532,350	489,991	0,066	0,109
-531,335	-141,661	-0,140	0,010
-530,321	-200,000	0,001	0,019
-529,306	-200,000	-0,013	-0,114
-528,291	130,683	0,052	-0,048
-527,277	-200,000	0,020	-0,186
-526,262	-200,000	0,001	-0,198
-525,248	219,999	0,046	0,053
-524,233	-200,000	-0,028	0,090
-523,218	39,706	0,082	0,053
-522,204	-200,000	0,002	0,069
-521,189	-52,013	-0,112	-0,037
-520,175	284,004	0,058	-0,075
-519,160	413,527	0,094	-0,145
-518,145	41,992	-0,074	0,048
-517,131	43,836	0,130	0,086
-516,116	-164,606	0,183	-0,006
-515,102	209,056	-0,064	-0,073
-514,087	757,677	-0,050	-0,099
-513,072	-145,202	-0,022	-0,001
-512,058	-200,000	0,019	0,093
-511,043	48,185	0,051	-0,034
-510,029	49,336	0,031	0,021
-509,014	-200,000	0,025	0,154
-507,999	-174,098	-0,060	-0,001
-506,985	-200,000	0,005	-0,034
-505,970	340,637	0,049	-0,069
-504,956	41,966	0,040	0,026
-503,941	112,083	-0,087	0,076
-502,926	-110,191	0,103	-0,015
-501,912	348,825	0,058	0,083
-500,897	-107,883	0,132	-0,021
-499,883	-140,039	-0,102	0,008
-498,868	-200,000	0,003	-0,047
-497,853	-80,847	0,061	0,014
-496,839	336,669	0,033	-0,047
-495,824	5,440	-0,019	-0,010
-494,810	11,562	0,089	-0,049
-493,795	800,000	-0,010	0,028
-492,781	-200,000	-0,004	0,017
-491,766	-40,445	-0,094	-0,035
-490,751	800,000	0,051	-0,117
-489,737	-115,481	0,028	-0,004
-488,722	249,933	0,054	0,066
-487,708	-12,434	-0,074	0,035
-486,693	45,402	-0,057	0,038
-485,678	-103,824	-0,110	0,018
-484,664	-146,873	-0,087	-0,005
-483,649	-136,361	-0,242	0,020
-482,635	800,000	0,042	0,128
-481,620	-180,623	0,056	-0,001
-480,605	800,000	-0,012	0,030
-479,591	313,119	0,053	0,071
-478,576	-6,652	-0,120	0,059
-477,562	236,904	-0,065	0,077
-476,547	-14,417	-0,043	-0,020
-475,532	132,902	-0,067	0,062
-474,518	203,015	-0,056	-0,062
-473,503	-200,000	0,002	0,051
-472,489	59,955	-0,085	0,060
-471,474	-200,000	-0,001	0,065
-470,459	-68,700	-0,165	-0,046
-469,445	-200,000	0,031	-0,111
-468,430	-200,000	0,007	-0,072
-467,416	-200,000	0,005	-0,016
-466,401	-138,087	0,133	0,010
-465,386	55,154	0,087	0,061
-464,372	800,000	0,025	0,055
-463,357	13,934	-0,010	0,006
-462,343	-35,640	-0,082	-0,032
-461,328	-82,181	-0,116	-0,027
-460,313	-94,618	0,104	0,020
-459,299	-200,000	0,036	0,133
-458,284	12,162	0,240	0,133
-457,270	60,399	0,163	0,116
-456,255	-200,000	0,013	-0,044
-455,241	200,637	-0,048	0,053
-454,226	-200,000	-0,043	-0,142
-453,211	770,790	0,061	0,121
-452,197	800,000	0,034	0,102
-451,182	800,000	0,019	0,041
-450,168	0,748	0,168	-0,086
-449,153	-200,000	-0,112	-0,000
-448,138	800,000	0,032	0,085
-447,124	113,640	-0,163	-0,142
-446,109	124,036	0,084	-0,076
-445,095	-154,917	-0,066	-0,003
-444,080	61,710	0,074	0,053
-443,065	-10,295	0,123	0,058
-442,051	-119,073	-0,082	-0,010
-441,036	800,000	0,026	-0,068
-440,022	800,000	-0,031	-0,099
-439,007	241,325	-0,094	-0,113
-437,992	218,129	-0,073	-0,084
-436,978	-200,000	0,004	0,029
-435,963	800,000	0,051	0,121
-434,949	311,850	0,100	0,136
-433,934	-93,689	-0,009	0,002
-432,919	52,038	-0,089	-0,061
-431,905	800,000	-0,023	-0,052
-430,890	-2,854	-0,040	0,020
-429,876	800,000	0,034	0,107
-428,861	-33,304	0,116	0,046
-427,846	20,930	-0,097	0,057
-426,832	-119,823	-0,140	0,017
-425,817	39,665	0,041	-0,026
-424,803	-38,199	0,117	-0,045
-423,788	-200,000	0,007	0,054
-422,773	70,926	-0,100	0,074
-421,759	-200,000	0,008	-0,026
-420,744	800,000	0,019	-0,060
-419,730	281,871	-0,004	0,006
-418,715	800,000	-0,036	-0,081
-417,701	800,000	-0,026	0,078
-416,686	-76,465	0,146	-0,037
-415,671	-200,000	-0,005	0,219
-414,657	-200,000	0,024	0,082
-413,642	175,638	0,050	0,052
-412,628	-200,000	-0,016	-0,129
-411,613	216,761	-0,052	0,060
-410,598	-84,913	-0,125	0,028
-409,584	248,937	-0,029	0,036
-408,569	74,683	-0,087	0,065
-407,555	701,703	-0,044	0,083
-406,540	-84,604	-0,237	0,053
-405,525	726,962	0,035	0,067
-404,511	-114,172	0,122	0,017
-403,496	-175,598	-0,057	0,001
-402,482	-148,093	0,043	-0,003
-401,467	-123,284	-0,093	0,011
-400,452	92,947	0,204	0,165
-399,438	-200,000	-0,012	0,078
-398,423	22,715	0,133	0,078
-397,409	202,792	-0,060	-0,066
-396,394	-200,000	-0,002	-0,017
-395,379	800,000	0,020	0,049
-394,365	138,318	0,054	0,051
-393,350	-200,000	0,006	0,149
-392,336	27,114	0,111	0,067
-391,321	-136,639	-0,062	-0,005
-390,306	-18,954	-0,034	-0,015
-389,292	217,428	0,010	0,012
-388,277	-114,946	0,126	-0,017
-387,263	800,000	0,037	-0,102
-386,248	390,505	0,061	-0,091
-385,233	-134,528	0,107	-0,009
-384,219	-104,514	0,076	-0,012
-383,204	-200,000	-0,024	-0,079
-382,190	274,914	0,029	0,037
-381,175	-200,000	-0,026	0,102
-380,160	609,938	0,031	-0,055
-379,146	136,961	-0,080	0,075
-378,131	-18,294	-0,095	-0,043
-377,117	169,205	0,122	-0,126
-376,102	138,958	0,053	-0,050
-375,088	-111,987	0,093	0,013
-374,073	41,530	-0,056	-0,036
-373,058	3,576	0,096	0,050
-372,044	229,230	0,054	0,063
-371,029	-155,236	0,082	0,004
-370,015	297,718	-0,058	-0,076
-369,000	494,490	-0,047	0,078
-367,985	273,245	-0,074	-0,094
-366,971	261,104	-0,060	-0,075
-365,956	363,603	0,046	-0,066
-364,942	-200,000	0,027	0,093
-363,927	21,463	0,191	0,111
-362,912	482,943	0,063	-0,103
-361,898	68,041	-0,025	-0,019
-360,883	800,000	0,010	-0,024
-359,869	22,929	-0,133	0,078
-358,854	108,471	0,065	-0,055
-357,839	-68,210	0,083	0,023
-356,825	157,026	-0,049	0,048
-355,810	-34,410	0,148	-0,058
-354,796	-200,000	-0,010	0,062
-353,781	209,916	0,102	-0,115
-352,766	-51,058	-0,074	0,025
-351,752	-200,000	0,013	0,067
-350,737	96,540	0,111	0,091
-349,723	-49,939	0,154	0,052
-348,708	-60,479	0,061	0,019
-347,693	800,000	-0,037	0,100
-346,679	184,120	-0,077	-0,082
-345,664	-146,537	-0,101	0,006
-344,650	-200,000	0,007	0,134
-343,635	-200,000	-0,006	-0,021
-342,620	754,882	-0,022	0,043
-341,606	117,218	0,067	0,059
-340,591	-200,000	-0,007	0,024
-339,577	191,506	0,019	0,021
-338,562	-200,000	0,000	-0,042
-337,548	159,283	0,076	-0,076
-336,533	189,849	0,063	0,068
-335,518	473,857	0,008	0,013
-334,504	-152,233	0,042	-0,002
-333,489	74,726	0,126	-0,095
-332,475	-51,200	-0,054	-0,018
-331,460	-97,184	-0,099	-0,018
-330,445	800,000	0,058	-0,130
-329,431	-27,672	0,182	0,076
-328,416	170,250	0,106	0,109
-327,402	-79,545	-0,069	0,017
-326,387	139,203	0,094	-0,089
-325,372	64,080	-0,047	0,034
-324,358	-21,295	-0,045	-0,020
-323,343	-200,000	0,022	-0,076
-322,329	-200,000	0,014	-0,073
-321,314	65,881	-0,040	-0,029
-320,299	11,808	-0,075	0,041
-319,285	659,161	-0,069	0,128
-318,270	388,357	0,062	0,092
-317,256	-200,000	0,009	0,104
-316,241	131,140	-0,117	-0,107
-315,226	160,916	0,045	-0,045
-314,212	-16,889	0,192	0,087
-313,197	37,949	-0,111	-0,071
-312,183	-131,258	0,131	-0,012
-311,168	88,371	-0,043	0,034
-310,153	-38,032	-0,137	-0,052
-309,139	-16,910	0,116	0,052
-308,124	-200,000	-0,004	0,060
-307,110	800,000	-0,013	-0,041
-306,095	8,562	0,192	-0,103
-305,080	127,040	0,038	-0,035
-304,066	-200,000	-0,002	-0,052
-303,051	17,025	-0,146	-0,083
-302,037	-29,347	0,039	0,016
-301,022	-200,000	-0,008	0,119
-300,008	-159,794	0,081	-0,003
-298,993	291,074	-0,077	0,101
-297,978	123,425	-0,089	-0,080
-296,964	409,524	0,074	-0,113
-295,949	-21,200	-0,169	-0,074
-294,935	-111,009	0,052	0,008
-293,920	182,292	0,027	-0,029
-292,905	-48,945	-0,072	-0,025
-291,891	203,806	0,108	-0,119
-290,876	9,042	-0,062	-0,034
-289,862	181,803	-0,043	-0,045
-288,847	271,872	-0,053	0,067
-287,832	800,000	0,028	-0,059
-286,818	-200,000	-0,012	-0,048
-285,803	-34,759	0,093	-0,036
-284,789	-200,000	-0,020	-0,074
-283,774	-200,000	0,029	0,178
-282,759	-200,000	0,021	-0,101
-281,745	-76,246	-0,054	0,013
-280,730	-200,000	-0,016	0,054
-279,716	-33,271	0,047	0,019
-278,701	11,539	0,092	0,050
-277,686	251,415	-0,078	0,095
-276,672	80,237	-0,038	0,029
-275,657	-200,000	-0,042	0,144
-274,643	16,055	-0,110	0,062
-273,628	800,000	-0,020	-0,051
-272,613	-73,025	0,041	-0,011
-271,599	800,000	0,001	-0,002
-270,584	-9,558	0,059	0,028
-269,570	800,000	0,011	-0,029
-268,555	188,547	-0,026	0,028
-267,540	578,997	-0,056	-0,099
-266,526	800,000	-0,091	-0,187
-265,511	357,442	0,054	-0,077
-264,497	-16,295	-0,190	0,086
-263,482	-27,959	0,123	0,051
-262,467	301,851	0,051	0,068
-261,453	800,000	-0,031	0,064
-260,438	800,000	0,056	-0,149
-259,424	401,637	-0,046	0,069
-258,409	146,536	-0,029	-0,028
-257,395	-142,194	0,085	-0,006
-256,380	239,158	-0,039	-0,047
-255,365	485,807	0,084	0,138
-254,351	373,165	0,053	0,077
-253,336	-200,000	0,001	-0,052
-252,322	-200,000	0,052	-0,220
-251,307	599,734	-0,067	-0,119
-250,292	68,314	0,064	0,047
-249,278	-123,721	0,058	0,006
-248,263	800,000	0,056	0,148
-247,249	672,816	-0,050	0,093
-246,234	-116,660	-0,094	-0,012
-245,219	-0,407	-0,044	-0,022
-244,205	-200,000	-0,139	0,000
-243,190	-34,272	0,045	-0,018
-242,176	-70,572	0,108	-0,029
-241,161	79,790	0,120	-0,092
-240,146	-51,289	0,091	0,030
-239,132	314,327	-0,077	-0,104
-238,117	-17,177	-0,058	-0,026
-237,103	85,560	-0,098	0,077
-236,088	-58,527	0,134	-0,041
-235,073	464,701	0,041	0,066
-234,059	192,769	0,047	0,050
-233,044	-123,824	0,062	-0,007
-232,030	-200,000	0,011	-0,062
-231,015	350,049	-0,032	-0,046
-230,000	494,654	-0,012	-0,020
-228,986	-21,387	-0,035	-0,015
-227,971	-200,000	0,014	-0,076
-226,957	4,540	-0,104	0,054
-225,942	-200,000	-0,052	0,175
-224,927	-104,989	-0,005	0,001
-223,913	-200,000	-0,007	-0,064
-222,898	800,000	0,031	-0,097
-221,884	-200,000	-0,017	0,091
-220,869	-42,468	-0,188	-0,068
-219,855	-40,060	-0,032	0,012
-218,840	291,274	0,039	0,051
-217,825	-52,043	0,071	-0,023
-216,811	-200,000	-0,023	-0,074
-215,796	191,642	0,111	-0,120
-214,782	21,172	0,005	-0,003
-213,767	-155,692	-0,088	-0,004
-212,752	454,690	-0,028	0,044
-211,738	-200,000	-0,031	-0,120
-210,723	548,778	-0,020	-0,035
-209,709	529,893	-0,018	0,031
-208,694	-200,000	-0,019	-0,133
-207,679	-46,753	-0,065	-0,023
-206,665	-200,000	0,046	-0,156
-205,650	203,974	0,068	-0,075
-204,636	800,000	0,029	-0,061
-203,621	121,450	-0,064	-0,057
-202,606	-200,000	0,000	-0,063
-201,592	25,056	-0,058	-0,034
-200,577	604,342	-0,094	0,168
-199,563	95,272	0,123	0,100
-198,548	-68,406	0,152	0,042
-197,533	-200,000	-0,003	0,024
-196,519	216,559	0,071	0,080
-195,504	-200,000	0,023	0,210
-194,490	-193,262	-0,159	0,001
-193,475	800,000	-0,044	0,096
-192,460	-104,963	-0,126	-0,020
-191,446	22,045	0,058	0,034
-190,431	-200,000	0,007	0,235
-189,417	187,540	-0,065	-0,070
-188,402	189,933	-0,109	-0,117
-187,387	800,000	-0,077	-0,195
-186,373	252,663	0,037	-0,045
-185,358	254,405	0,069	-0,084
-184,344	-2,533	-0,089	-0,044
-183,329	-11,256	0,161	0,075
-182,315	11,929	0,064	0,035
-181,300	97,619	-0,049	0,040
-180,285	-7,577	0,155	-0,075
-179,271	-200,000	-0,014	-0,088
-178,256	4,879	-0,062	-0,033
-177,242	-75,548	-0,102	0,026
-176,227	800,000	0,034	0,094
-175,212	-200,000	0,041	0,136
-174,198	-200,000	0,023	0,086
-173,183	-192,234	0,139	-0,001
-172,169	161,785	-0,072	-0,072
-171,154	3,609	-0,069	0,036
-170,139	-200,000	0,028	-0,177
-169,125	-91,422	-0,044	0,009
-168,110	-200,000	-0,002	0,124
-167,096	336,991	-0,090	-0,124
-166,081	6,085	-0,055	0,029
-165,066	-200,000	-0,044	0,191
-164,052	192,177	0,050	0,054
-163,037	29,828	-0,021	0,013
-162,023	800,000	0,028	0,085
-161,008	124,161	-0,050	-0,045
-159,993	40,466	-0,037	-0,024
-158,979	-200,000	0,015	-0,105
-157,964	-54,163	-0,115	-0,037
-156,950	800,000	-0,030	0,069
-155,935	-200,000	-0,004	-0,106
-154,920	-87,855	0,129	-0,027
-153,906	-200,000	-0,035	0,196
-152,891	239,141	-0,022	0,026
-151,877	4,862	0,020	-0,011
-150,862	-200,000	0,028	0,000
-149,847	-135,827	0,148	0,012
-148,833	392,723	-0,030	-0,044
-147,818	45,568	-0,064	0,042
-146,804	193,065	0,091	0,098
-145,789	66,214	0,034	-0,024
-144,775	273,027	-0,045	-0,057
-143,760	-110,087	-0,100	0,015
-142,745	-200,000	0,027	0,120
-141,731	-39,504	0,055	0,020
-140,716	111,126	-0,024	-0,020
-139,702	800,000	0,021	0,050
-138,687	800,000	0,063	0,139
-137,672	729,082	-0,044	0,085
-136,658	76,141	0,051	0,038
-135,643	-41,463	-0,097	-0,035
-134,629	-200,000	0,004	0,145
-133,614	800,000	0,009	-0,028
-132,599	512,327	0,043	0,071
-131,585	-22,662	-0,055	0,024
-130,570	-103,760	-0,081	-0,013
-129,556	113,730	-0,080	0,070
-128,541	588,269	-0,055	-0,096
-127,526	372,942	0,045	0,065
-126,512	-135,080	0,151	0,013
-125,497	350,163	0,062	0,088
-124,483	12,351	-0,091	-0,050
-123,468	800,000	0,036	-0,111
-122,453	-200,000	-0,044	-0,161
-121,439	365,415	-0,065	0,094
-120,424	-200,000	0,052	-0,176
-119,410	24,248	-0,077	-0,045
-118,395	800,000	0,017	-0,052
-117,380	800,000	-0,032	-0,085
-116,366	-84,552	0,042	0,009
-115,351	205,565	-0,071	-0,079
-114,337	-73,694	-0,094	0,024
-113,322	-33,499	0,070	-0,027
-112,307	800,000	0,046	0,093
-111,293	-16,476	0,119	0,053
-110,278	-145,428	0,114	0,007
-109,264	280,104	-0,043	-0,054
-108,249	55,616	-0,054	-0,037
-107,234	800,000	0,059	-0,135
-106,220	-27,977	0,165	-0,067
-105,205	604,781	-0,030	0,053
-104,191	21,718	-0,041	0,023
-103,176	16,953	-0,070	0,039
-102,162	-54,348	-0,110	-0,035
-101,147	800,000	-0,032	0,067
-100,132	800,000	-0,061	0,146
-99,118	-200,000	0,023	-0,170
-98,103	-87,936	0,054	0,011
-97,089	-200,000	-0,013	-0,044
-96,074	658,831	0,076	-0,140
-95,059	130,734	-0,117	0,107
-94,045	-74,567	-0,090	-0,023
-93,030	-200,000	-0,026	0,000
-92,016	-33,361	-0,225	-0,088
-91,001	-200,000	0,002	-0,126
-89,986	68,300	0,076	0,055
-88,972	211,188	0,078	0,087
-87,957	-34,848	0,109	-0,042
-86,943	9,037	-0,053	-0,028
-85,928	800,000	0,038	0,109
-84,913	362,937	-0,036	0,052
-83,899	271,348	0,081	-0,102
-82,884	-200,000	-0,008	-0,083
-81,870	-200,000	0,015	0,118
-80,855	8,397	-0,055	-0,029
-79,840	800,000	0,040	0,113
-78,826	-200,000	-0,016	-0,133
-77,811	57,984	-0,090	-0,062
-76,797	-91,637	0,100	-0,020
-75,782	61,772	0,025	0,018
-74,767	1,952	0,192	0,098
-73,753	331,635	0,020	0,028
-72,738	800,000	0,020	0,061
-71,724	216,650	0,102	-0,115
-70,709	-125,172	-0,186	-0,020
-69,694	-200,000	-0,005	-0,051
-68,680	-96,519	0,045	0,008
-67,665	-200,000	-0,005	-0,083
-66,651	390,168	-0,055	0,082
-65,636	-43,039	0,070	-0,025
-64,622	-75,758	-0,013	-0,003
-63,607	-59,180	-0,075	-0,023
-62,592	-13,949	-0,062	-0,028
-61,578	-200,000	-0,000	0,061
-60,563	-7,109	-0,032	-0,015
-59,549	-200,000	0,006	0,061
-58,534	-82,005	-1,357	-0,312
-57,519	379,986	-1,559	-2,274
-56,505	-200,000	-0,439	-4,348
-55,490	133,386	0,846	0,776
-54,476	800,000	4,824	11,186
-53,461	-200,000	17,575	273,549
-52,446	800,000	717,720	2194,749
-51,432	554,027	1631,815	2793,840
-50,417	81,183	1656,525	1267,537
-49,403	24,159	1530,806	893,950
-48,388	18,156	1453,947	820,158
-47,373	18,424	1443,310	815,410
-46,359	18,082	1434,143	808,570
-45,344	16,453	1429,592	798,241
-44,330	16,391	1427,736	796,879
-43,315	16,401	1426,022	795,937
-42,300	16,399	1424,281	794,922
-41,286	16,469	1423,141	794,586
-40,271	16,442	1421,928	793,751
-39,257	16,394	1420,582	792,741
-38,242	16,428	1419,523	792,280
-37,227	16,448	1417,900	791,436
-36,213	16,416	1416,826	790,653
-35,198	16,445	1415,566	790,055
-34,184	16,479	1414,537	789,610
-33,169	16,376	1413,453	788,491
-32,154	16,391	1412,676	788,097
-31,140	16,447	1410,901	787,338
-30,125	16,429	1409,993	786,713
-29,111	16,439	1408,879	786,109
-28,096	16,447	1407,538	785,365
-27,082	16,351	1406,676	784,407
-26,067	16,343	1405,453	783,654
-25,052	16,336	1404,513	783,068
-24,038	16,350	1403,432	782,501
-23,023	16,360	1402,298	781,884
-22,009	16,286	1401,291	780,945
-20,994	16,253	1400,666	780,412
-19,979	16,271	1399,740	779,947
-18,965	16,266	1398,596	779,258
-17,950	16,251	1397,740	778,678
-16,936	16,323	1396,748	778,430
-15,921	16,254	1395,374	777,313
-14,906	16,265	1394,506	776,849
-13,892	16,276	1393,487	776,305
-12,877	16,284	1392,749	775,896
-11,863	16,246	1391,805	775,167
-10,848	16,228	1390,938	774,571
-9,833	16,266	1389,983	774,185
-8,819	16,271	1388,764	773,498
-7,804	16,166	1388,128	772,625
-6,790	16,136	1387,003	771,831
-5,775	16,163	1386,050	771,395
-4,760	16,118	1385,229	770,701
-3,746	16,080	1384,630	770,163
-2,731	16,125	1383,623	769,778
-1,717	16,095	1382,691	769,090
-0,702	16,169	1380,586	768,228
0,313	20,004	1302,478	742,433
1,327	36,518	708,073	441,940
2,342	56,331	125,832	86,524
3,356	2,801	16,609	8,512
4,371	11,080	3,043	1,644
5,386	65,817	0,462	0,332
6,400	-200,000	-0,006	0,256
7,415	-23,431	-0,313	-0,133
8,429	-5,434	-0,291	-0,141
9,444	18,551	-0,328	-0,185
10,459	136,987	-0,241	-0,223
11,473	84,513	-0,314	-0,243
12,488	35,717	-0,239	-0,149
13,502	91,579	-0,305	-0,242
14,517	1,479	-0,367	-0,186
15,531	-15,195	-0,228	-0,103
16,546	169,136	-0,300	-0,303
17,561	373,806	-0,250	-0,362
18,575	-40,479	-0,261	-0,096
19,590	-43,638	-0,287	-0,102
20,604	-132,794	-0,305	0,027
21,619	67,296	-0,405	-0,292
22,634	239,846	-0,386	-0,455
23,648	186,495	-0,416	-0,438
24,663	165,948	-0,366	-0,366
25,677	88,477	-0,310	-0,243
26,692	169,214	-0,344	-0,347
27,707	103,156	-0,308	-0,255
28,721	23,389	-0,579	-0,336
29,736	-20,334	-0,411	-0,178
30,750	180,812	-0,297	-0,309
31,765	70,341	-0,519	-0,379
32,780	58,640	-0,433	-0,300
33,794	340,100	-0,237	-0,328
34,809	24,009	-0,450	-0,262
35,823	-48,077	-0,295	-0,100
36,838	69,743	-0,357	-0,260
37,853	44,023	-0,378	-0,245
38,867	69,376	-0,344	-0,250
39,882	-31,621	-0,332	-0,131
40,896	6,479	-0,326	-0,171
41,911	86,855	-0,388	-0,302
42,926	29,620	-0,420	-0,252
43,940	67,786	-0,271	-0,195
44,955	105,266	-0,286	-0,239
45,969	130,545	-0,343	-0,310
46,984	119,040	-0,389	-0,340
47,999	-17,355	-0,302	-0,134
49,013	135,550	-0,305	-0,280
50,028	24,460	-0,423	-0,246
51,042	100,780	-0,302	-0,247
52,057	12,806	-0,337	-0,183
53,071	800,000	-0,125	-0,305
54,086	154,320	-0,212	-0,205
55,101	-133,479	-0,373	-0,033
56,115	65,681	-0,305	-0,218
57,130	3,281	-0,392	-0,201
58,144	-57,314	-0,431	-0,133
59,159	82,771	-0,357	-0,273
60,174	2,760	-0,424	-0,216
61,188	80,634	-0,283	-0,215
62,203	478,942	-0,216	-0,347
63,217	-19,312	-0,401	-0,175
64,232	28,566	-0,355	-0,211
65,247	35,725	-0,353	-0,218
66,261	53,971	-0,336	-0,228
67,276	62,015	-0,349	-0,245
68,290	26,614	-0,377	-0,222
69,305	143,378	-0,284	-0,266
70,320	108,066	-0,288	-0,241
71,334	53,183	-0,406	-0,274
72,349	321,060	-0,175	-0,234
73,363	88,685	-0,348	-0,273
74,378	153,380	-0,289	-0,279
75,393	111,041	-0,374	-0,317
76,407	90,434	-0,222	-0,175
77,422	-61,432	-0,354	-0,104
78,436	117,645	-0,296	-0,256
79,451	69,666	-0,291	-0,211
80,466	-92,137	-0,326	-0,064
81,480	59,900	-0,342	-0,238
82,495	-95,371	-0,394	-0,074
83,509	-143,211	-0,219	0,015
84,524	301,930	-0,114	-0,149
85,539	145,743	-0,297	-0,280
86,553	58,978	-0,207	-0,143
87,568	5,661	-0,280	-0,145
88,582	31,898	-0,379	-0,229
89,597	-23,716	-0,368	-0,154
90,611	-49,256	-0,278	-0,093
91,626	-22,292	-0,234	-0,099
92,641	-2,335	-0,260	-0,128
93,655	-3,407	-0,280	-0,137
94,670	-67,936	-0,370	-0,101
95,684	-52,891	-0,484	-0,156
96,699	161,005	-0,312	-0,307
97,714	41,853	-0,279	-0,177
98,728	39,904	-0,297	-0,187
99,743	302,794	-0,142	-0,185
100,757	125,479	-0,286	-0,253
101,772	277,952	-0,204	-0,256
102,787	302,815	-0,237	-0,308
103,801	60,163	-0,349	-0,242
104,816	123,941	-0,296	-0,261
105,830	58,766	-0,211	-0,145
106,845	24,613	-0,207	-0,120
107,860	33,025	-0,266	-0,161
108,874	143,676	-0,205	-0,192
109,889	237,071	-0,271	-0,316
110,903	442,921	-0,166	-0,256
111,918	-35,455	-0,385	-0,146
112,933	7,275	-0,236	-0,123
113,947	-12,773	-0,203	-0,093
114,962	47,526	-0,330	-0,215
115,976	-35,276	-0,335	-0,127
116,991	168,921	-0,244	-0,245
118,006	-21,342	-0,325	-0,139
119,020	8,839	-0,285	-0,150
120,035	149,520	-0,189	-0,180
121,049	134,264	-0,159	-0,145
122,064	20,414	-0,236	-0,133
123,079	100,402	-0,148	-0,120
124,093	-80,518	-0,246	-0,057
125,108	10,573	-0,227	-0,121
126,122	51,216	-0,234	-0,155
127,137	-106,555	-0,211	-0,033
128,151	42,267	-0,214	-0,136
129,166	-79,984	-0,293	-0,068
130,181	73,519	-0,137	-0,101
131,195	258,620	-0,196	-0,237
132,210	-43,187	-0,332	-0,117
133,224	135,833	-0,209	-0,191
134,239	117,002	-0,119	-0,103
135,254	-82,674	-0,156	-0,035
136,268	-103,793	-0,165	-0,027
137,283	147,287	-0,181	-0,170
138,297	231,896	-0,263	-0,302
139,312	71,402	-0,214	-0,155
140,327	608,475	-0,162	-0,285
141,341	98,160	-0,365	-0,294
142,356	85,382	-0,219	-0,168
143,370	-90,081	-0,112	-0,023
144,385	53,065	-0,303	-0,203
145,400	32,453	-0,257	-0,155
146,414	-15,689	-0,275	-0,122
147,429	140,215	-0,300	-0,277
148,443	800,000	-0,092	-0,216
149,458	464,372	-0,127	-0,199
150,473	6,461	-0,035	-0,018
151,487	-62,038	-0,205	-0,060
152,502	16,024	-0,423	-0,232
153,516	128,446	-0,302	-0,269
154,531	427,582	-0,210	-0,317
155,546	380,984	-0,123	-0,177
156,560	-39,147	-0,236	-0,086
157,575	31,992	-0,237	-0,142
158,589	17,908	-0,172	-0,095
159,604	-16,193	-0,175	-0,077
160,619	272,543	-0,170	-0,210
161,633	177,367	-0,216	-0,220
162,648	446,525	-0,118	-0,181
163,662	-65,878	-0,321	-0,089
164,677	28,304	-0,196	-0,115
165,692	-200,000	-0,011	-0,037
166,706	119,600	-0,188	-0,162
167,721	-71,801	-0,275	-0,071
168,735	-3,262	-0,358	-0,174
169,750	149,175	-0,202	-0,191
170,764	115,124	-0,228	-0,194
171,779	-21,594	-0,235	-0,100
172,794	23,921	-0,277	-0,159
173,808	122,467	-0,184	-0,160
174,823	318,263	-0,160	-0,211
175,837	-68,165	-0,304	-0,082
176,852	88,575	-0,216	-0,168
177,867	77,798	-0,235	-0,175
178,881	268,450	-0,232	-0,284
179,896	202,368	-0,242	-0,261
180,910	75,063	-0,176	-0,129
181,925	198,945	-0,308	-0,329
182,940	135,500	-0,280	-0,255
183,954	-96,370	-0,264	-0,048
184,969	88,074	-0,203	-0,157
185,983	256,415	-0,174	-0,209
186,998	158,744	-0,161	-0,156
188,013	800,000	-0,044	-0,088
189,027	-8,024	-0,287	-0,135
190,042	44,003	-0,318	-0,203
191,056	251,709	-0,168	-0,200
192,071	9,556	-0,170	-0,090
193,086	-130,237	-0,271	-0,025
194,100	61,353	-0,134	-0,093
195,115	22,874	-0,250	-0,142
196,129	44,487	-0,227	-0,145
197,144	248,598	-0,108	-0,128
198,159	-157,766	-0,219	-0,009
199,173	56,631	-0,230	-0,155
200,188	63,822	-0,238	-0,166
201,202	128,496	-0,111	-0,098
202,217	104,062	-0,190	-0,155
203,232	6,813	-0,191	-0,099
204,246	89,999	-0,210	-0,163
205,261	592,739	-0,129	-0,222
206,275	216,248	-0,163	-0,181
207,290	249,309	-0,097	-0,114
208,304	520,995	-0,091	-0,149
209,319	-37,024	-0,162	-0,060
210,334	82,779	-0,166	-0,125
211,348	342,641	-0,219	-0,299
212,363	136,476	-0,139	-0,126
213,377	43,218	-0,166	-0,105
214,392	289,290	-0,097	-0,122
215,407	49,429	-0,083	-0,054
216,421	-186,018	-0,146	0,001
217,436	-104,467	-0,130	0,021
218,450	230,870	-0,188	-0,214
219,465	-82,859	-0,231	-0,051
220,480	426,047	0,022	-0,034
221,494	39,816	-0,153	-0,095
222,509	-27,245	-0,126	-0,051
223,523	128,185	-0,122	-0,108
224,538	386,665	-0,160	-0,230
225,553	-50,385	-0,181	-0,059
226,567	134,336	-0,151	-0,136
227,582	77,424	-0,182	-0,134
228,596	473,294	-0,135	-0,212
229,611	17,039	-0,067	-0,037
230,626	-24,779	-0,209	-0,086
231,640	18,120	-0,123	-0,068
232,655	200,161	-0,224	-0,239
233,669	-30,236	-0,329	-0,129
234,684	4,761	-0,182	-0,093
235,699	-89,895	-0,309	-0,062
236,713	-165,995	-0,188	0,005
237,728	104,951	-0,093	-0,076
238,742	-146,794	-0,217	-0,013
239,757	109,216	-0,284	-0,236
240,772	298,269	-0,136	-0,174
241,786	48,772	-0,344	-0,223
242,801	509,446	-0,156	-0,253
243,815	800,000	-0,074	-0,167
244,830	84,186	-0,187	-0,142
245,844	550,643	-0,056	-0,094
246,859	-8,323	-0,218	-0,101
247,874	800,000	-0,083	-0,206
248,888	394,189	-0,164	-0,237
249,903	593,241	-0,135	-0,233
250,917	-94,926	-0,141	0,026
251,932	221,767	-0,133	-0,149
252,947	177,890	-0,114	-0,116
253,961	-117,365	-0,275	-0,034
254,976	64,857	-0,164	-0,115
255,990	62,159	-0,197	-0,136
257,005	-150,822	-0,183	-0,009
258,020	69,199	-0,239	-0,170
259,034	230,146	-0,162	-0,184
260,049	157,385	-0,174	-0,167
261,063	-29,596	-0,180	-0,071
262,078	236,403	-0,206	-0,236
263,093	-17,411	-0,158	-0,069
264,107	243,603	-0,195	-0,227
265,122	-99,205	-0,230	-0,040
266,136	-82,197	-0,119	-0,027
267,151	-28,008	-0,324	-0,129
268,166	324,145	-0,122	-0,162
269,180	255,684	-0,242	-0,287
270,195	-200,000	-0,022	-0,294
271,209	338,391	-0,134	-0,181
272,224	-101,502	-0,126	-0,021
273,239	46,251	-0,141	-0,090
274,253	131,655	-0,132	-0,117
275,268	5,325	-0,098	-0,050
276,282	425,317	-0,122	-0,182
277,297	208,746	-0,169	-0,183
278,312	310,026	-0,199	-0,258
279,326	-200,000	-0,033	-0,210
280,341	-200,000	-0,053	-0,284
281,355	-86,403	-0,104	-0,022
282,370	1,428	-0,129	0,064
283,384	72,013	-0,127	-0,092
284,399	43,846	-0,153	-0,097
285,414	-6,377	-0,113	-0,053
286,428	22,558	-0,197	-0,111
287,443	333,605	-0,115	-0,154
288,457	800,000	-0,045	-0,100
289,472	478,303	-0,076	-0,119
290,487	720,143	-0,126	-0,232
291,501	243,320	-0,168	-0,195
292,516	-200,000	-0,022	0,098
293,530	137,057	-0,139	0,125
294,545	-87,237	-0,075	0,016
295,560	203,273	-0,137	-0,147
296,574	59,670	-0,121	0,082
297,589	21,504	-0,156	-0,087
298,603	275,884	-0,170	-0,208
299,618	185,925	-0,158	-0,162
300,633	-16,639	-0,294	-0,128
301,647	800,000	-0,105	-0,220
302,662	-200,000	-0,088	-0,301
303,676	800,000	-0,071	-0,191
304,691	-113,770	-0,128	-0,017
305,706	315,459	-0,171	-0,224
306,720	172,394	-0,119	-0,118
307,735	33,347	-0,115	-0,069
308,749	-200,000	-0,019	-0,075
309,764	730,694	-0,100	-0,186
310,779	-78,731	-0,206	-0,048
311,793	69,514	-0,076	-0,054
312,808	-8,119	-0,250	-0,116
313,822	139,010	-0,179	-0,162
314,837	2,263	-0,133	-0,066
315,852	137,668	-0,144	-0,130
316,866	-200,000	-0,014	-0,070
317,881	-200,000	0,020	-0,104
318,895	-14,379	-0,178	-0,079
319,910	40,143	-0,205	-0,127
320,925	43,122	-0,160	-0,100
321,939	-22,600	-0,129	-0,053
322,954	-145,021	-0,133	-0,008
323,968	-200,000	-0,039	-0,156
324,983	-200,000	-0,046	-0,239
325,997	100,604	-0,102	0,081
327,012	-34,058	-0,218	-0,082
328,027	431,522	-0,145	-0,217
329,041	327,206	-0,183	-0,242
330,056	146,749	-0,131	-0,121
331,070	287,216	-0,068	-0,084
332,085	23,562	-0,131	-0,074
333,100	-110,503	-0,151	0,021
334,114	633,910	-0,128	-0,225
335,129	207,227	-0,201	-0,216
336,143	4,413	-0,103	-0,052
337,158	110,016	-0,152	-0,126
338,173	800,000	0,019	-0,038
339,187	-149,421	-0,107	-0,006
340,202	-141,201	-0,196	0,014
341,216	-72,506	-0,212	0,054
342,231	162,587	-0,078	-0,075
343,246	355,861	-0,148	-0,203
344,260	43,983	-0,125	-0,078
345,275	-200,000	0,003	-0,065
346,289	-200,000	-0,009	-0,079
347,304	181,559	-0,118	-0,119
348,319	195,364	-0,081	-0,084
349,333	-200,000	-0,050	-0,154
350,348	385,889	-0,087	-0,124
351,362	-47,543	-0,153	-0,051
352,377	511,021	-0,063	-0,100
353,392	110,628	-0,154	-0,127
354,406	42,980	-0,141	0,088
355,421	209,693	1312,140	1415,244
356,435	161,396	1472,604	1415,778
