DTS Sentinel unit serial number:	SN410029Multiplexer serial number:	ORYXHardware model number:	OX2-SRSoftware version number:	ORYX F/W v4,00 Oryx Data Collector v3.7.2.0data status	okinstallation	B3 Nyhavnadifferential loss correction	single-endedforward channel	channel 1reverse channel	N/Adate	2023/12/04time	19:57:30forward acquisition time	300,00reverse acquisition time	0,00gamma	499,1914k internal	0,3200k external	0,3200temperature offset calibration	1,0000default loss term (dB/km)	0,3820temperature slope calibration	1,0000multiplexer offset coefficient	1,0000multiplexer slope coefficient	1,0000fibre end	0,00T internal ref (°C)	14,51T ext. ref 1 (°C)	-0,66T ext. ref 2 (°C)	-0,68length (m)	temperature (°C)	Stokes	anti-Stokes-744,400	605,184	-0,178	-0,323
-743,385	800,000	0,081	0,216
-742,371	174,680	-0,189	-0,199
-741,356	-200,000	0,088	0,443
-740,342	-100,083	-0,239	-0,043
-739,327	-200,000	-0,009	0,318
-738,312	133,898	-0,243	-0,229
-737,298	-200,000	-0,035	0,265
-736,283	531,476	-0,179	-0,308
-735,269	-200,000	-0,046	0,311
-734,254	-200,000	-0,049	-0,239
-733,239	-3,282	-0,184	0,093
-732,225	-200,000	-0,027	-0,117
-731,210	264,546	0,031	0,039
-730,196	800,000	-0,047	0,115
-729,181	252,814	-0,079	-0,098
-728,167	68,685	-0,107	0,080
-727,152	-87,751	-0,089	-0,019
-726,137	-10,252	-0,080	-0,039
-725,123	164,721	-0,157	-0,161
-724,108	-200,000	0,030	-0,113
-723,094	30,224	-0,065	-0,040
-722,079	343,822	-0,079	0,113
-721,064	27,375	-0,093	-0,057
-720,050	-200,000	-0,017	-0,118
-719,035	800,000	-0,044	0,106
-718,021	-182,304	-0,192	-0,003
-717,006	279,973	0,045	-0,059
-715,991	-200,000	-0,050	-0,166
-714,977	800,000	-0,065	-0,164
-713,962	13,805	0,129	0,073
-712,948	526,431	-0,045	0,077
-711,933	565,362	-0,050	-0,089
-710,918	269,322	0,068	-0,087
-709,904	800,000	0,048	-0,131
-708,889	800,000	-0,034	-0,087
-707,875	-200,000	0,017	-0,083
-706,860	-17,453	-0,054	0,025
-705,845	150,281	-0,082	0,081
-704,831	457,072	0,016	-0,025
-703,816	119,381	0,070	0,063
-702,802	376,219	0,063	-0,093
-701,787	-28,060	-0,093	-0,039
-700,772	243,309	-0,016	-0,020
-699,758	800,000	0,040	-0,086
-698,743	47,303	-0,095	0,064
-697,729	-142,747	0,182	0,013
-696,714	787,743	-0,057	0,114
-695,699	56,044	-0,009	-0,006
-694,685	-164,527	-0,067	0,002
-693,670	80,723	0,043	-0,033
-692,656	-200,000	0,035	0,116
-691,641	48,801	0,053	-0,036
-690,627	-159,917	0,035	-0,001
-689,612	-200,000	0,001	-0,055
-688,597	800,000	0,062	0,138
-687,583	98,522	-0,079	-0,066
-686,568	329,663	-0,089	-0,125
-685,554	-200,000	0,016	0,060
-684,539	16,873	0,112	0,064
-683,524	-76,849	-0,021	0,005
-682,510	-38,383	-0,076	-0,029
-681,495	800,000	-0,023	0,059
-680,481	-200,000	-0,001	0,112
-679,466	-14,915	-0,139	-0,065
-678,451	65,617	-0,086	-0,063
-677,437	-200,000	-0,009	0,053
-676,422	265,380	-0,042	0,054
-675,408	-200,000	0,023	-0,095
-674,393	800,000	0,044	0,095
-673,378	800,000	-0,029	0,081
-672,364	-17,890	-0,142	0,064
-671,349	-200,000	-0,014	0,063
-670,335	-200,000	0,008	0,062
-669,320	-23,766	0,055	0,024
-668,305	33,956	-0,025	-0,016
-667,291	-101,940	0,117	-0,020
-666,276	-72,967	-0,057	-0,015
-665,262	150,491	-0,031	0,030
-664,247	-114,267	-0,060	-0,008
-663,232	-1,171	-0,056	-0,029
-662,218	-92,924	-0,081	0,016
-661,203	800,000	0,046	0,125
-660,189	137,714	0,034	-0,032
-659,174	800,000	-0,062	-0,149
-658,159	625,788	0,090	-0,165
-657,145	-200,000	0,025	0,130
-656,130	581,171	0,049	-0,087
-655,116	32,362	-0,072	-0,045
-654,101	-170,694	-0,133	0,003
-653,086	-118,443	0,102	-0,013
-652,072	-21,786	-0,107	0,047
-651,057	800,000	0,027	0,074
-650,043	-43,467	0,078	0,028
-649,028	-200,000	-0,019	0,132
-648,014	800,000	-0,004	0,011
-646,999	-200,000	-0,022	0,103
-645,984	-200,000	0,056	0,196
-644,970	-200,000	-0,005	0,026
-643,955	-63,259	0,012	-0,004
-642,941	111,646	-0,065	0,056
-641,926	426,261	0,030	-0,047
-640,911	-200,000	0,026	0,166
-639,897	-39,469	-0,117	0,044
-638,882	122,997	0,052	-0,047
-637,868	321,364	0,046	0,064
-636,853	96,849	-0,053	0,044
-635,838	177,427	-0,011	-0,011
-634,824	179,435	0,074	-0,078
-633,809	-74,576	-0,048	-0,013
-632,795	800,000	-0,025	0,062
-631,780	24,012	0,122	-0,073
-630,765	481,906	-0,024	0,040
-629,751	800,000	-0,048	-0,130
-628,736	-200,000	-0,022	-0,134
-627,722	800,000	-0,042	-0,126
-626,707	137,579	-0,084	0,080
-625,692	-119,821	0,071	-0,009
-624,678	722,013	-0,030	0,058
-623,663	174,650	-0,006	0,007
-622,649	-200,000	-0,000	-0,061
-621,634	518,928	-0,066	-0,112
-620,619	-136,419	-0,060	-0,005
-619,605	16,968	-0,088	-0,050
-618,590	40,882	0,045	-0,030
-617,576	710,056	0,057	0,109
-616,561	34,800	-0,148	-0,093
-615,546	601,570	-0,052	-0,094
-614,532	-107,292	-0,075	-0,012
-613,517	98,374	-0,095	0,079
-612,503	800,000	-0,016	0,042
-611,488	-81,591	-0,134	0,032
-610,474	-189,666	0,100	-0,001
-609,459	800,000	-0,011	0,025
-608,444	534,844	-0,093	0,160
-607,430	44,587	-0,016	-0,011
-606,415	-14,992	0,013	-0,006
-605,401	-200,000	-0,004	-0,049
-604,386	-118,658	-0,066	-0,008
-603,371	-200,000	-0,015	0,087
-602,357	88,391	0,108	0,087
-601,342	800,000	-0,035	0,097
-600,328	39,742	-0,168	0,109
-599,313	-141,573	-0,119	0,009
-598,298	84,162	0,051	0,040
-597,284	-200,000	-0,016	0,085
-596,269	96,373	0,089	0,074
-595,255	800,000	0,035	0,076
-594,240	86,453	-0,013	0,010
-593,225	-84,248	-0,165	-0,038
-592,211	-128,717	-0,086	-0,009
-591,196	-80,922	0,132	-0,032
-590,182	800,000	0,022	-0,065
-589,167	-109,873	-0,078	-0,012
-588,152	-200,000	0,003	-0,169
-587,138	513,490	0,080	-0,135
-586,123	-200,000	0,022	-0,204
-585,109	-7,441	-0,062	0,030
-584,094	376,148	-0,096	-0,142
-583,079	800,000	0,085	-0,178
-582,065	-122,707	-0,003	0,000
-581,050	15,977	-0,054	-0,030
-580,036	-200,000	0,009	-0,061
-579,021	-200,000	-0,008	-0,068
-578,006	247,602	-0,041	-0,051
-576,992	-9,275	0,015	0,007
-575,977	-19,961	0,027	-0,012
-574,963	-136,240	0,093	-0,008
-573,948	74,614	-0,103	0,078
-572,934	265,062	-0,055	-0,069
-571,919	-200,000	-0,001	0,063
-570,904	157,251	0,051	-0,051
-569,890	492,373	-0,030	-0,050
-568,875	-26,133	-0,073	-0,031
-567,861	9,907	0,040	0,022
-566,846	-132,410	0,082	-0,008
-565,831	-200,000	-0,008	-0,077
-564,817	381,384	0,032	-0,048
-563,802	-200,000	-0,002	0,083
-562,788	-93,260	-0,176	-0,035
-561,773	277,351	0,042	-0,054
-560,758	-200,000	-0,011	0,070
-559,744	-1,919	0,110	0,056
-558,729	-11,468	-0,141	-0,067
-557,715	-99,535	-0,126	0,023
-556,700	-200,000	0,005	-0,039
-555,685	-200,000	-0,030	-0,133
-554,671	-62,626	-0,140	-0,042
-553,656	470,965	-0,076	0,125
-552,642	203,398	0,019	-0,022
-551,627	-200,000	0,017	-0,063
-550,612	107,098	-0,043	-0,037
-549,598	-200,000	-0,008	-0,186
-548,583	-200,000	-0,027	-0,114
-547,569	-200,000	-0,009	0,055
-546,554	251,381	0,147	0,181
-545,539	11,122	0,052	-0,029
-544,525	800,000	0,054	0,111
-543,510	192,732	-0,065	-0,071
-542,496	-200,000	-0,047	0,156
-541,481	283,336	0,088	-0,115
-540,466	800,000	-0,061	-0,146
-539,452	-200,000	-0,003	-0,015
-538,437	328,945	0,065	0,090
-537,423	69,178	-0,071	0,052
-536,408	-155,278	0,032	-0,001
-535,393	-134,355	-0,074	0,006
-534,379	99,141	0,067	-0,056
-533,364	-200,000	0,005	-0,198
-532,350	165,950	0,022	0,023
-531,335	89,655	0,121	0,097
-530,321	7,691	0,179	0,096
-529,306	-116,435	-0,183	0,024
-528,291	-200,000	0,024	-0,127
-527,277	-71,383	-0,137	-0,037
-526,262	73,788	-0,011	-0,009
-525,248	118,955	0,041	-0,036
-524,233	-200,000	0,003	0,037
-523,218	-48,132	-0,184	0,064
-522,204	-71,646	0,097	-0,026
-521,189	215,889	-0,127	-0,145
-520,175	800,000	-0,032	-0,068
-519,160	36,158	0,162	-0,103
-518,145	-52,084	0,089	0,030
-517,131	-200,000	0,004	-0,072
-516,116	-67,177	0,128	0,036
-515,102	383,973	0,036	-0,054
-514,087	640,312	-0,063	0,116
-513,072	-74,975	0,084	0,021
-512,058	-89,329	-0,091	-0,019
-511,043	34,154	0,075	-0,047
-510,029	-3,452	-0,108	0,054
-509,014	-200,000	0,012	0,089
-507,999	-200,000	-0,010	0,097
-506,985	621,377	0,042	0,076
-505,970	-200,000	-0,006	-0,078
-504,956	-110,302	-0,109	0,016
-503,941	-52,741	0,115	-0,038
-502,926	647,178	0,039	-0,072
-501,912	800,000	-0,015	-0,047
-500,897	365,377	-0,110	0,160
-499,883	-28,044	-0,114	-0,047
-498,868	408,364	-0,013	-0,020
-497,853	351,268	0,105	0,150
-496,839	13,929	0,116	-0,065
-495,824	-200,000	-0,008	0,069
-494,810	2,292	-0,034	-0,018
-493,795	800,000	0,039	0,114
-492,781	-200,000	0,012	0,130
-491,766	-69,133	-0,112	0,031
-490,751	330,012	-0,090	-0,126
-489,737	-85,334	-0,116	0,026
-488,722	-21,132	0,060	0,026
-487,708	800,000	0,044	0,125
-486,693	-110,402	-0,103	-0,015
-485,678	21,519	0,188	0,110
-484,664	-200,000	-0,014	-0,049
-483,649	423,528	0,028	-0,044
-482,635	-200,000	0,001	0,012
-481,620	30,829	-0,087	-0,054
-480,605	-200,000	0,024	-0,096
-479,591	68,398	0,091	0,067
-478,576	-65,415	-0,170	-0,049
-477,562	-200,000	-0,001	-0,007
-476,547	-86,129	-0,033	-0,007
-475,532	-200,000	0,018	-0,058
-474,518	246,439	-0,061	-0,074
-473,503	-200,000	-0,036	0,120
-472,489	800,000	-0,024	0,053
-471,474	595,775	-0,079	0,141
-470,459	-164,302	0,065	0,002
-469,445	800,000	-0,022	-0,054
-468,430	60,272	0,074	-0,053
-467,416	-47,306	0,173	-0,060
-466,401	-200,000	0,005	0,030
-465,386	-200,000	0,119	0,000
-464,372	-59,616	0,108	0,033
-463,357	-200,000	-0,030	-0,111
-462,343	336,254	-0,039	-0,054
-461,328	-145,442	-0,032	-0,002
-460,313	233,566	-0,042	0,050
-459,299	-45,097	0,166	-0,059
-458,284	-50,220	-0,062	-0,021
-457,270	-200,000	-0,005	-0,040
-456,255	-192,554	-0,124	-0,001
-455,241	12,098	0,088	-0,049
-454,226	598,720	-0,022	-0,039
-453,211	6,672	0,083	0,045
-452,197	-200,000	0,019	0,085
-451,182	-200,000	-0,002	0,041
-450,168	-200,000	-0,006	-0,065
-449,153	-91,361	-0,152	-0,031
-448,138	800,000	-0,028	-0,068
-447,124	800,000	0,013	-0,036
-446,109	-200,000	0,001	-0,258
-445,095	-120,592	0,156	-0,019
-444,080	-200,000	-0,003	0,087
-443,065	800,000	0,047	0,101
-442,051	-200,000	0,016	0,076
-441,036	-82,776	-0,086	0,020
-440,022	-200,000	-0,047	-0,151
-439,007	-165,929	0,089	-0,003
-437,992	31,895	-0,043	-0,026
-436,978	-31,310	-0,108	0,043
-435,963	800,000	0,038	-0,095
-434,949	182,749	0,070	-0,075
-433,934	-100,787	-0,154	0,027
-432,919	-200,000	-0,000	0,043
-431,905	800,000	-0,024	0,054
-430,890	64,921	0,076	-0,055
-429,876	-108,854	0,086	-0,013
-428,861	-50,468	-0,114	0,038
-427,846	-200,000	-0,030	0,095
-426,832	-200,000	-0,004	-0,114
-425,817	33,887	-0,112	0,070
-424,803	-49,909	-0,020	0,007
-423,788	-200,000	0,073	0,000
-422,773	196,037	0,042	-0,046
-421,759	-80,009	0,061	0,015
-420,744	180,752	-0,055	-0,058
-419,730	122,666	-0,072	-0,064
-418,715	7,519	0,036	0,019
-417,701	-39,769	-0,085	-0,032
-416,686	-152,910	-0,114	-0,006
-415,671	800,000	0,065	0,138
-414,657	50,919	0,124	0,084
-413,642	-200,000	-0,004	0,050
-412,628	-63,354	-0,139	0,041
-411,613	69,723	-0,092	-0,068
-410,598	195,415	-0,065	-0,071
-409,584	-200,000	-0,030	-0,206
-408,569	-107,839	-0,046	-0,007
-407,555	354,871	-0,050	0,071
-406,540	-200,000	0,011	0,065
-405,525	-200,000	0,003	-0,106
-404,511	-200,000	-0,005	-0,040
-403,496	-94,802	-0,102	-0,020
-402,482	-200,000	-0,023	-0,097
-401,467	-21,465	0,169	0,074
-400,452	-200,000	0,009	0,068
-399,438	695,222	0,028	0,054
-398,423	377,479	0,037	0,054
-397,409	-200,000	0,019	-0,125
-396,394	-121,086	-0,133	0,016
-395,379	275,138	0,019	-0,024
-394,365	800,000	0,044	0,116
-393,350	82,606	0,107	0,083
-392,336	-200,000	-0,055	-0,205
-391,321	-30,624	0,008	-0,003
-390,306	-108,846	-0,067	0,010
-389,292	-118,756	0,150	0,019
-388,277	-116,702	-0,122	0,016
-387,263	-57,539	-0,107	0,033
-386,248	800,000	0,048	0,099
-385,233	143,910	-0,106	0,101
-384,219	-133,859	-0,035	0,003
-383,204	-10,388	-0,024	0,011
-382,190	800,000	0,055	-0,142
-381,175	46,828	-0,085	-0,056
-380,160	291,444	0,023	0,030
-379,146	111,789	-0,114	0,099
-378,131	-35,082	0,075	-0,029
-377,117	327,847	-0,087	0,120
-376,102	-63,910	0,042	-0,012
-375,088	288,158	0,092	-0,119
-374,073	25,572	-0,078	-0,047
-373,058	-142,408	0,089	0,006
-372,044	-96,608	0,122	0,023
-371,029	-200,000	-0,002	0,108
-370,015	800,000	0,015	0,035
-369,000	719,000	-0,040	0,076
-367,985	-191,663	0,065	0,000
-366,971	-200,000	-0,054	0,173
-365,956	111,828	-0,034	0,029
-364,942	-200,000	0,022	-0,090
-363,927	800,000	-0,062	0,135
-362,912	800,000	0,060	0,158
-361,898	800,000	0,035	-0,081
-360,883	245,240	-0,130	-0,157
-359,869	800,000	-0,026	-0,060
-358,854	-200,000	0,031	-0,111
-357,839	-117,986	0,059	0,007
-356,825	-117,661	0,110	-0,014
-355,810	-183,963	0,063	-0,001
-354,796	655,746	0,020	-0,037
-353,781	-135,414	0,135	0,011
-352,766	-66,577	0,067	0,019
-351,752	800,000	0,055	-0,117
-350,737	-136,650	0,116	-0,009
-349,723	346,383	0,078	-0,111
-348,708	181,497	-0,051	-0,054
-347,693	-107,536	0,097	-0,015
-346,679	-146,464	-0,148	-0,009
-345,664	-200,000	0,002	-0,032
-344,650	41,135	0,053	-0,034
-343,635	800,000	-0,068	-0,163
-342,620	-30,327	0,062	-0,025
-341,606	207,323	-0,042	-0,047
-340,591	5,220	0,125	-0,066
-339,577	278,090	-0,101	-0,129
-338,562	61,788	0,065	-0,046
-337,548	193,755	-0,083	-0,090
-336,533	-191,598	0,055	0,000
-335,518	-25,681	-0,059	0,025
-334,504	-200,000	0,007	0,060
-333,489	100,876	-0,130	0,108
-332,475	148,185	0,100	0,096
-331,460	514,950	-0,075	-0,125
-330,445	-50,112	0,067	-0,023
-329,431	-99,933	0,104	0,018
-328,416	-83,722	0,159	0,036
-327,402	191,890	-0,036	0,039
-326,387	800,000	0,025	0,068
-325,372	-68,240	-0,091	0,025
-324,358	-200,000	-0,030	-0,107
-323,343	-38,963	-0,056	-0,021
-322,329	800,000	0,033	0,078
-321,314	87,670	0,103	0,082
-320,299	192,697	0,107	0,116
-319,285	-1,759	-0,053	0,027
-318,270	-63,614	0,107	-0,031
-317,256	-19,090	0,060	-0,027
-316,241	-3,213	-0,086	-0,043
-315,226	-56,918	0,011	0,004
-314,212	800,000	0,047	0,138
-313,197	138,572	0,049	0,046
-312,183	-200,000	0,004	-0,115
-311,168	140,520	-0,094	0,089
-310,153	-92,612	0,070	0,014
-309,139	800,000	-0,012	0,035
-308,124	-120,939	0,125	-0,015
-307,110	685,882	0,025	0,046
-306,095	-200,000	-0,025	-0,081
-305,080	377,164	-0,024	-0,035
-304,066	-200,000	-0,007	0,174
-303,051	22,000	-0,025	0,015
-302,037	645,544	0,023	0,043
-301,022	800,000	0,042	-0,084
-300,008	188,330	0,068	0,073
-298,993	-200,000	0,040	0,156
-297,978	-52,813	-0,050	0,016
-296,964	441,037	0,043	-0,067
-295,949	800,000	-0,041	0,095
-294,935	-82,579	-0,133	0,030
-293,920	0,371	0,089	-0,046
-292,905	800,000	0,014	0,027
-291,891	498,796	0,006	0,009
-290,876	-107,866	0,092	-0,014
-289,862	162,887	0,052	-0,052
-288,847	125,660	-0,119	0,107
-287,832	-57,609	-0,017	-0,005
-286,818	-200,000	-0,023	-0,074
-285,803	71,744	0,057	0,043
-284,789	-200,000	-0,028	0,108
-283,774	-23,068	-0,077	-0,033
-282,759	-132,357	0,113	0,010
-281,745	-97,199	-0,018	0,003
-280,730	800,000	0,022	-0,050
-279,716	-105,146	0,075	0,012
-278,701	216,050	-0,066	0,075
-277,686	118,580	0,048	0,043
-276,672	-81,727	0,106	0,025
-275,657	287,478	0,070	0,091
-274,643	-84,137	-0,120	0,027
-273,628	-103,196	0,136	0,023
-272,613	575,408	0,027	0,048
-271,599	127,072	-0,032	0,029
-270,584	-2,354	-0,116	0,058
-269,570	-200,000	0,055	0,191
-268,555	-75,882	0,080	0,020
-267,540	-20,931	-0,032	0,014
-266,526	169,576	-0,085	-0,087
-265,511	86,314	0,025	0,019
-264,497	235,346	-0,019	-0,023
-263,482	-74,059	0,069	-0,018
-262,467	800,000	0,023	0,066
-261,453	166,793	-0,055	0,056
-260,438	643,918	0,009	0,016
-259,424	-49,564	-0,106	-0,036
-258,409	-21,680	0,068	0,029
-257,395	-12,107	-0,094	-0,044
-256,380	-116,676	0,131	0,017
-255,365	-200,000	0,016	0,099
-254,351	-157,763	0,128	0,005
-253,336	88,657	-0,044	-0,035
-252,322	34,888	-0,130	-0,081
-251,307	451,638	0,096	-0,152
-250,292	-25,943	-0,115	-0,048
-249,278	187,779	0,080	0,085
-248,263	160,293	0,065	0,065
-247,249	-200,000	0,030	0,113
-246,234	472,272	-0,040	0,064
-245,219	-200,000	-0,003	-0,018
-244,205	800,000	0,035	0,091
-243,190	762,321	0,063	-0,123
-242,176	121,672	0,132	0,117
-241,161	-200,000	0,080	-0,000
-240,146	-92,025	0,038	0,008
-239,132	23,438	0,025	0,015
-238,117	323,768	-0,070	-0,096
-237,103	-200,000	0,017	-0,075
-236,088	170,345	-0,099	0,101
-235,073	130,021	-0,066	-0,060
-234,059	434,476	0,045	0,071
-233,044	-200,000	0,034	0,121
-232,030	14,664	0,087	-0,048
-231,015	548,043	0,063	-0,108
-230,000	-63,059	-0,098	-0,029
-228,986	-200,000	-0,008	-0,117
-227,971	77,617	0,023	-0,018
-226,957	225,283	0,064	0,074
-225,942	-82,099	0,079	0,018
-224,927	800,000	0,007	-0,018
-223,913	150,840	0,142	-0,138
-222,898	91,670	0,045	0,036
-221,884	-67,379	0,084	0,023
-220,869	-200,000	0,025	0,103
-219,855	-200,000	-0,036	-0,114
-218,840	-136,999	0,084	0,007
-217,825	-27,341	0,083	-0,034
-216,811	-200,000	-0,016	-0,049
-215,796	171,941	0,065	-0,067
-214,782	-95,568	-0,111	-0,021
-213,767	-157,021	-0,053	0,002
-212,752	143,127	-0,023	-0,022
-211,738	295,183	0,012	0,016
-210,723	-132,621	-0,100	-0,009
-209,709	98,253	-0,049	0,041
-208,694	800,000	-0,023	-0,069
-207,679	-39,123	-0,089	-0,033
-206,665	-21,182	0,125	-0,054
-205,650	271,988	0,069	0,086
-204,636	-200,000	0,019	0,105
-203,621	-110,273	-0,109	-0,016
-202,606	334,424	0,082	-0,114
-201,592	-200,000	0,008	-0,133
-200,577	102,419	-0,074	0,062
-199,563	11,237	-0,031	0,017
-198,548	278,014	0,073	-0,093
-197,533	800,000	-0,020	-0,053
-196,519	-184,667	0,169	-0,002
-195,504	42,355	-0,139	0,090
-194,490	141,850	-0,122	0,115
-193,475	329,893	-0,025	-0,034
-192,460	-76,756	0,113	-0,028
-191,446	112,493	0,115	0,099
-190,431	800,000	-0,021	0,058
-189,417	336,457	0,066	0,091
-188,402	105,502	-0,063	0,053
-187,387	-29,041	0,106	-0,043
-186,373	-96,065	-0,302	-0,057
-185,358	-145,816	-0,063	0,004
-184,344	-38,175	0,115	-0,043
-183,329	120,507	-0,051	0,045
-182,315	334,776	0,043	0,059
-181,300	-173,373	-0,117	-0,002
-180,285	331,212	-0,092	0,127
-179,271	30,246	-0,087	-0,053
-178,256	800,000	-0,054	0,117
-177,242	41,122	0,063	0,041
-176,227	-164,415	0,100	-0,003
-175,212	4,534	0,152	0,079
-174,198	124,075	-0,020	0,018
-173,183	404,871	0,108	-0,162
-172,169	-200,000	0,004	-0,137
-171,154	-200,000	-0,033	-0,104
-170,139	42,530	-0,019	0,012
-169,125	-200,000	0,004	0,072
-168,110	-200,000	-0,012	0,079
-167,096	-48,179	0,119	-0,041
-166,081	-200,000	-0,028	-0,140
-165,066	-35,243	-0,036	0,014
-164,052	245,090	-0,077	-0,092
-163,037	174,933	0,029	-0,030
-162,023	-29,411	0,108	0,044
-161,008	-200,000	0,010	0,037
-159,993	-72,660	-0,030	0,008
-158,979	-200,000	-0,016	-0,091
-157,964	18,944	-0,105	0,059
-156,950	51,559	-0,097	0,065
-155,935	-62,739	0,126	0,037
-154,920	6,643	-0,107	0,057
-153,906	214,034	0,077	0,087
-152,891	-43,568	0,018	-0,006
-151,877	-49,662	-0,147	0,050
-150,862	-200,000	-0,004	-0,122
-149,847	800,000	0,040	0,105
-148,833	174,330	-0,013	-0,014
-147,818	-200,000	0,006	0,029
-146,804	-21,199	0,044	-0,019
-145,789	-200,000	-0,035	0,179
-144,775	-69,770	0,037	0,010
-143,760	256,913	-0,057	-0,070
-142,745	46,806	-0,044	-0,029
-141,731	764,286	-0,042	0,082
-140,716	-200,000	-0,004	-0,105
-139,702	-200,000	-0,019	0,079
-138,687	236,712	-0,088	-0,104
-137,672	-117,758	-0,042	-0,005
-136,658	-67,627	0,129	-0,036
-135,643	-121,636	-0,149	-0,017
-134,629	157,983	0,080	-0,079
-133,614	-200,000	0,008	-0,081
-132,599	65,161	0,144	-0,103
-131,585	364,771	0,101	0,144
-130,570	-132,578	0,018	0,002
-129,556	-111,134	-0,120	-0,017
-128,541	800,000	0,018	-0,040
-127,526	800,000	0,018	-0,038
-126,512	-104,958	0,091	-0,015
-125,497	800,000	0,039	-0,116
-124,483	98,225	-0,075	-0,061
-123,468	37,644	0,076	-0,048
-122,453	-200,000	-0,007	-0,096
-121,439	-200,000	-0,013	-0,115
-120,424	800,000	-0,055	0,118
-119,410	114,844	0,080	0,069
-118,395	85,337	0,155	0,121
-117,380	399,622	-0,028	0,041
-116,366	82,510	-0,085	-0,065
-115,351	-96,319	0,058	-0,011
-114,337	800,000	-0,032	-0,081
-113,322	162,928	0,083	-0,083
-112,307	-200,000	-0,003	-0,109
-111,293	-131,730	-0,056	0,005
-110,278	-163,130	-0,096	-0,003
-109,264	-145,105	0,195	0,012
-108,249	-99,026	0,077	-0,014
-107,234	646,328	-0,022	-0,039
-106,220	293,807	-0,041	-0,053
-105,205	12,320	0,065	-0,036
-104,191	87,304	0,025	-0,020
-103,176	14,193	0,116	0,064
-102,162	78,259	-0,133	-0,101
-101,147	800,000	-0,029	-0,080
-100,132	-121,859	-0,097	0,011
-99,118	800,000	-0,023	-0,052
-98,103	-200,000	0,005	-0,032
-97,089	800,000	0,034	-0,090
-96,074	800,000	-0,010	0,022
-95,059	800,000	-0,035	0,097
-94,045	25,863	0,026	0,015
-93,030	118,334	-0,146	0,128
-92,016	-200,000	0,017	-0,105
-91,001	-200,000	-0,014	-0,048
-89,986	205,995	-0,022	-0,024
-88,972	394,521	0,055	0,082
-87,957	-91,353	0,072	0,014
-86,943	-114,726	-0,124	0,017
-85,928	800,000	0,076	-0,165
-84,913	800,000	0,023	-0,062
-83,899	800,000	-0,016	-0,048
-82,884	43,102	0,081	-0,053
-81,870	217,878	-0,062	-0,071
-80,855	-39,777	-0,068	-0,025
-79,840	-52,429	-0,078	0,026
-78,826	-113,770	0,086	-0,012
-77,811	800,000	-0,035	-0,081
-76,797	-200,000	0,005	0,069
-75,782	-200,000	0,004	0,081
-74,767	-56,072	-0,107	0,034
-73,753	-200,000	-0,028	0,102
-72,738	-200,000	-0,013	0,104
-71,724	-200,000	-0,154	-0,000
-70,709	800,000	0,029	-0,075
-69,694	800,000	0,047	-0,144
-68,680	-200,000	0,012	-0,051
-67,665	-155,210	0,154	-0,007
-66,651	-129,788	0,141	0,014
-65,636	-200,000	-0,005	-0,024
-64,622	14,243	-0,070	0,038
-63,607	-169,056	-0,049	-0,001
-62,592	-48,965	0,035	-0,012
-61,578	-200,000	-0,015	-0,172
-60,563	-28,922	0,116	0,047
-59,549	118,393	-0,087	0,076
-58,534	-75,866	-1,741	-0,434
-57,519	551,293	-1,307	-2,231
-56,505	-200,000	-0,580	-4,535
-55,490	93,385	1,062	0,850
-54,476	800,000	4,872	11,498
-53,461	-200,000	18,453	297,315
-52,446	800,000	731,403	2258,772
-51,432	559,124	1648,116	2828,325
-50,417	78,879	1668,329	1263,121
-49,403	22,424	1541,491	890,141
-48,388	16,373	1464,346	816,237
-47,373	17,788	1454,358	817,462
-46,359	17,042	1444,837	808,506
-45,344	14,637	1440,141	794,343
-44,330	14,583	1438,037	792,893
-43,315	14,613	1436,568	792,195
-42,300	14,624	1434,700	791,185
-41,286	14,601	1433,588	790,430
-40,271	14,621	1432,286	789,777
-39,257	14,600	1431,095	788,988
-38,242	14,614	1429,763	788,291
-37,227	14,614	1428,579	787,606
-36,213	14,593	1427,428	786,843
-35,198	14,647	1425,995	786,273
-34,184	14,618	1425,389	785,775
-33,169	14,572	1423,961	784,738
-32,154	14,643	1422,755	784,376
-31,140	14,620	1421,490	783,539
-30,125	14,619	1420,445	782,929
-29,111	14,637	1419,108	782,244
-28,096	14,601	1418,090	781,484
-27,082	14,576	1417,108	780,792
-26,067	14,547	1416,193	780,121
-25,052	14,494	1415,152	779,267
-24,038	14,503	1413,960	778,621
-23,023	14,511	1413,059	778,132
-22,009	14,490	1412,147	777,503
-20,994	14,504	1411,082	776,952
-19,979	14,505	1410,371	776,531
-18,965	14,490	1409,232	775,806
-17,950	14,482	1408,221	775,179
-16,936	14,444	1407,331	774,479
-15,921	14,441	1406,111	773,767
-14,906	14,434	1405,522	773,377
-13,892	14,430	1404,509	772,772
-12,877	14,462	1403,477	772,322
-11,863	14,466	1402,545	771,795
-10,848	14,435	1401,701	771,159
-9,833	14,406	1400,790	770,492
-8,819	14,321	1400,167	769,721
-7,804	14,334	1399,083	769,156
-6,790	14,346	1397,949	768,558
-5,775	14,363	1396,839	767,998
-4,760	14,344	1395,968	767,396
-3,746	14,347	1395,332	767,031
-2,731	14,314	1394,433	766,356
-1,717	14,315	1393,381	765,751
-0,702	14,323	1391,667	764,816
0,313	18,115	1310,100	737,563
1,327	34,449	706,088	435,351
2,342	52,841	124,148	83,877
3,356	3,043	16,566	8,491
4,371	5,196	3,194	1,660
5,386	87,803	0,407	0,319
6,400	-200,000	0,041	0,232
7,415	-14,294	-0,238	-0,108
8,429	0,794	-0,325	-0,164
9,444	122,996	-0,285	-0,252
10,459	-20,218	-0,271	-0,118
11,473	56,890	-0,219	-0,150
12,488	145,837	-0,202	-0,192
13,502	144,026	-0,292	-0,276
14,517	89,995	-0,437	-0,345
15,531	168,312	-0,403	-0,406
16,546	454,520	-0,207	-0,325
17,561	423,726	-0,226	-0,345
18,575	50,248	-0,258	-0,172
19,590	67,534	-0,276	-0,199
20,604	314,027	-0,171	-0,228
21,619	84,170	-0,419	-0,323
22,634	213,226	-0,465	-0,519
23,648	-34,808	-0,578	-0,222
24,663	210,309	-0,382	-0,424
25,677	252,265	-0,312	-0,376
26,692	18,113	-0,380	-0,214
27,707	-103,035	-0,485	-0,080
28,721	7,298	-0,316	-0,166
29,736	91,724	-0,358	-0,284
30,750	105,284	-0,420	-0,350
31,765	247,119	-0,365	-0,435
32,780	114,919	-0,365	-0,315
33,794	162,037	-0,292	-0,289
34,809	81,896	-0,396	-0,302
35,823	59,742	-0,388	-0,270
36,838	385,724	-0,274	-0,400
37,853	140,864	-0,330	-0,308
38,867	36,974	-0,325	-0,202
39,882	135,014	-0,342	-0,314
40,896	177,353	-0,243	-0,250
41,911	131,435	-0,392	-0,355
42,926	273,376	-0,339	-0,423
43,940	71,602	-0,305	-0,223
44,955	73,923	-0,345	-0,255
45,969	107,711	-0,295	-0,248
46,984	77,108	-0,302	-0,226
47,999	0,684	-0,320	-0,161
49,013	-51,124	-0,412	-0,135
50,028	53,382	-0,252	-0,170
51,042	177,357	-0,289	-0,297
52,057	190,502	-0,344	-0,364
53,071	38,016	-0,326	-0,204
54,086	75,499	-0,286	-0,213
55,101	103,579	-0,260	-0,215
56,115	-43,749	-0,354	-0,125
57,130	8,656	-0,370	-0,196
58,144	15,340	-0,450	-0,248
59,159	-2,253	-0,456	-0,225
60,174	-7,474	-0,428	-0,203
61,188	11,695	-0,351	-0,189
62,203	92,064	-0,392	-0,310
63,217	-107,839	-0,373	-0,057
64,232	4,152	-0,329	-0,169
65,247	-31,475	-0,412	-0,162
66,261	58,562	-0,362	-0,250
67,276	140,719	-0,287	-0,267
68,290	338,981	-0,229	-0,315
69,305	-7,155	-0,389	-0,185
70,320	2,780	-0,304	-0,155
71,334	-42,792	-0,385	-0,137
72,349	12,851	-0,301	-0,163
73,363	19,743	-0,406	-0,229
74,378	800,000	-0,113	-0,264
75,393	-93,676	-0,294	-0,057
76,407	116,901	-0,263	-0,227
77,422	-27,591	-0,271	-0,110
78,436	76,364	-0,222	-0,165
79,451	225,657	-0,296	-0,337
80,466	100,807	-0,292	-0,238
81,480	77,137	-0,248	-0,185
82,495	-16,950	-0,352	-0,155
83,509	-94,175	-0,411	-0,078
84,524	154,677	-0,183	-0,177
85,539	156,234	-0,185	-0,179
86,553	166,811	-0,289	-0,288
87,568	108,083	-0,297	-0,249
88,582	-19,835	-0,321	-0,139
89,597	233,004	-0,204	-0,236
90,611	-24,577	-0,246	-0,102
91,626	-41,277	-0,102	-0,037
92,641	-1,052	-0,374	-0,185
93,655	-64,884	-0,297	-0,084
94,670	38,615	-0,339	-0,212
95,684	221,082	-0,215	-0,242
96,699	322,340	-0,268	-0,359
97,714	101,880	-0,172	-0,141
98,728	156,439	-0,236	-0,228
99,743	-4,574	-0,347	-0,168
100,757	225,900	-0,310	-0,353
101,772	275,684	-0,280	-0,349
102,787	78,547	-0,171	-0,128
103,801	23,075	-0,314	-0,180
104,816	189,265	-0,220	-0,231
105,830	41,876	-0,267	-0,169
106,845	-107,005	-0,292	-0,045
107,860	-43,810	-0,271	-0,095
108,874	36,449	-0,194	-0,120
109,889	191,961	-0,259	-0,274
110,903	279,292	-0,187	-0,234
111,918	224,703	-0,281	-0,320
112,933	26,315	-0,321	-0,187
113,947	5,760	-0,175	-0,090
114,962	52,274	-0,238	-0,159
115,976	9,962	-0,188	-0,100
116,991	372,653	-0,121	-0,173
118,006	232,185	-0,283	-0,326
119,020	98,005	-0,317	-0,255
120,035	165,745	-0,189	-0,187
121,049	-145,647	-0,272	0,017
122,064	-39,365	-0,197	-0,072
123,079	6,256	-0,303	-0,157
124,093	284,926	-0,187	-0,236
125,108	127,401	-0,266	-0,236
126,122	-17,765	-0,308	-0,135
127,137	544,982	-0,127	-0,212
128,151	71,109	-0,268	-0,194
129,166	224,940	-0,177	-0,201
130,181	271,254	-0,176	-0,217
131,195	127,412	-0,310	-0,275
132,210	36,421	-0,245	-0,151
133,224	129,145	-0,170	-0,152
134,239	19,406	-0,293	-0,164
135,254	67,671	-0,238	-0,170
136,268	26,242	-0,227	-0,133
137,283	502,576	-0,198	-0,322
138,297	111,009	-0,245	-0,206
139,312	49,775	-0,310	-0,204
140,327	-32,791	-0,221	-0,085
141,341	139,217	-0,182	-0,167
142,356	23,263	-0,250	-0,143
143,370	143,584	-0,162	-0,150
144,385	-41,138	-0,299	-0,107
145,400	120,149	-0,254	-0,220
146,414	4,051	-0,368	-0,187
147,429	25,841	-0,329	-0,191
148,443	73,370	-0,239	-0,175
149,458	-30,815	-0,315	-0,124
150,473	-44,715	-0,252	-0,087
151,487	160,152	-0,196	-0,191
152,502	-15,321	-0,278	-0,124
153,516	502,031	-0,219	-0,355
154,531	-93,773	-0,216	-0,041
155,546	-47,998	-0,221	-0,074
156,560	-153,027	-0,238	-0,011
157,575	139,081	-0,170	-0,156
158,589	237,742	-0,239	-0,277
159,604	34,311	-0,168	-0,102
160,619	800,000	-0,166	-0,443
161,633	46,053	-0,309	-0,199
162,648	109,465	-0,255	-0,213
163,662	91,132	-0,154	-0,121
164,677	-78,337	-0,199	-0,047
165,692	2,064	-0,250	-0,125
166,706	33,515	-0,237	-0,143
167,721	0,842	-0,300	-0,150
168,735	175,790	-0,196	-0,199
169,750	-41,894	-0,347	-0,124
170,764	800,000	-0,110	-0,286
171,779	178,060	-0,138	-0,141
172,794	88,660	-0,231	-0,179
173,808	715,785	-0,148	-0,275
174,823	112,323	-0,255	-0,215
175,837	30,937	-0,269	-0,160
176,852	55,602	-0,206	-0,139
177,867	106,629	-0,228	-0,188
178,881	187,684	-0,207	-0,215
179,896	-62,265	-0,138	-0,040
180,910	177,164	-0,087	-0,088
181,925	458,020	-0,082	-0,127
182,940	32,111	-0,291	-0,174
183,954	157,628	-0,195	-0,188
184,969	171,164	-0,177	-0,177
185,983	74,049	-0,115	-0,084
186,998	-77,897	-0,195	-0,046
188,013	-200,000	-0,047	-0,237
189,027	141,374	-0,245	-0,226
190,042	210,832	-0,248	-0,271
191,056	43,247	-0,254	-0,161
192,071	52,238	-0,277	-0,183
193,086	74,159	-0,184	-0,134
194,100	-77,881	-0,231	-0,055
195,115	-60,174	-0,172	-0,051
196,129	327,391	-0,223	-0,298
197,144	231,770	-0,126	-0,143
198,159	225,688	-0,177	-0,200
199,173	143,261	-0,172	-0,160
200,188	13,325	-0,167	-0,090
201,202	112,764	-0,135	-0,114
202,217	161,243	-0,200	-0,195
203,232	-143,551	-0,271	-0,018
204,246	132,308	-0,287	-0,257
205,261	112,908	-0,242	-0,204
206,275	97,787	-0,298	-0,238
207,290	-74,046	-0,219	-0,055
208,304	-200,000	-0,008	-0,091
209,319	319,017	-0,172	-0,227
210,334	4,690	-0,197	-0,100
211,348	-13,422	-0,237	-0,106
212,363	644,049	-0,183	-0,326
213,377	-57,794	-0,212	-0,064
214,392	92,040	-0,168	-0,131
215,407	92,700	-0,111	-0,087
216,421	9,786	-0,229	-0,121
217,436	800,000	-0,096	-0,193
218,450	-29,043	-0,084	0,033
219,465	-44,705	-0,047	-0,016
220,480	-99,882	-0,183	-0,031
221,494	20,052	-0,258	-0,144
222,509	-25,240	-0,203	-0,083
223,523	800,000	-0,040	-0,107
224,538	70,931	-0,183	-0,131
225,553	186,237	-0,144	-0,149
226,567	188,861	-0,177	-0,184
227,582	-1,237	-0,227	-0,111
228,596	458,465	-0,112	-0,173
229,611	-87,630	-0,142	-0,029
230,626	19,502	-0,203	-0,113
231,640	-86,372	-0,326	-0,069
232,655	568,454	-0,150	-0,254
233,669	-43,294	-0,234	-0,081
234,684	-9,737	-0,199	-0,092
235,699	473,078	-0,098	-0,154
236,713	71,609	-0,200	-0,144
237,728	-104,025	-0,187	-0,030
238,742	52,478	-0,291	-0,192
239,757	225,170	-0,165	-0,185
240,772	55,654	-0,211	-0,142
241,786	154,698	-0,234	-0,223
242,801	-200,000	-0,083	-0,332
243,815	50,724	-0,129	-0,084
244,830	-75,895	-0,176	-0,043
245,844	606,948	-0,042	-0,073
246,859	-66,437	-0,286	-0,078
247,874	105,955	-0,166	-0,136
248,888	25,110	-0,266	-0,153
249,903	-80,238	-0,132	-0,030
250,917	187,429	-0,174	-0,180
251,932	-8,064	-0,170	-0,079
252,947	-72,385	-0,151	0,038
253,961	59,911	-0,257	-0,175
254,976	800,000	-0,097	-0,256
255,990	205,648	-0,190	-0,205
257,005	28,558	-0,153	-0,090
258,020	800,000	-0,093	-0,245
259,034	21,473	-0,132	-0,074
260,049	26,086	-0,223	-0,128
261,063	316,810	-0,160	-0,209
262,078	94,997	-0,145	-0,114
263,093	212,528	-0,143	-0,156
264,107	98,235	-0,139	-0,110
265,122	-93,707	-0,242	-0,046
266,136	238,128	-0,115	-0,133
267,151	-29,441	-0,194	-0,076
268,166	7,266	-0,145	-0,075
269,180	-200,000	-0,015	-0,241
270,195	518,902	-0,179	-0,291
271,209	118,605	-0,268	-0,229
272,224	-20,655	-0,194	-0,082
273,239	-22,346	-0,178	-0,074
274,253	253,666	-0,250	-0,296
275,268	177,204	-0,278	-0,280
276,282	321,447	-0,192	-0,252
277,297	730,843	-0,119	-0,220
278,312	-42,360	-0,121	-0,042
279,326	-168,750	-0,164	-0,004
280,341	-95,339	-0,215	-0,040
281,355	361,097	-0,134	-0,186
282,370	137,615	-0,205	-0,185
283,384	800,000	-0,123	-0,250
284,399	800,000	-0,125	-0,283
285,414	558,204	-0,088	-0,147
286,428	-156,768	-0,162	0,007
287,443	73,813	-0,086	-0,063
288,457	52,570	-0,128	-0,084
289,472	-200,000	-0,038	-0,131
290,487	-13,529	-0,252	-0,112
291,501	-96,065	-0,268	-0,049
292,516	6,985	-0,209	-0,107
293,530	587,134	-0,076	-0,130
294,545	20,372	-0,137	-0,076
295,560	108,923	-0,155	-0,128
296,574	10,847	-0,167	-0,087
297,589	97,553	-0,178	-0,141
298,603	-185,747	-0,199	0,002
299,618	105,924	-0,094	-0,077
300,633	800,000	-0,041	-0,121
301,647	-29,445	-0,172	-0,067
302,662	-83,821	-0,224	-0,049
303,676	-92,258	-0,221	-0,043
304,691	-197,875	-0,149	0,001
305,706	63,239	-0,201	-0,139
306,720	-81,658	-0,185	-0,042
307,735	139,679	-0,229	-0,207
308,749	-135,215	-0,144	-0,012
309,764	-107,972	-0,134	-0,020
310,779	-200,000	-0,038	-0,188
311,793	55,920	-0,283	-0,189
312,808	345,242	-0,193	-0,261
313,822	323,599	-0,070	-0,092
314,837	-200,000	-0,051	-0,205
315,852	55,691	-0,074	-0,049
316,866	-102,852	-0,079	0,013
317,881	-168,227	-0,157	-0,004
318,895	76,480	-0,199	-0,145
319,910	-85,783	-0,158	-0,033
320,925	18,165	-0,208	-0,114
321,939	124,350	-0,178	-0,154
322,954	-85,711	-0,169	0,036
323,968	504,748	-0,075	-0,120
324,983	130,806	-0,165	-0,146
325,997	-20,153	-0,260	-0,110
327,012	-22,710	-0,194	-0,080
328,027	195,517	-0,122	-0,128
329,041	-167,994	-0,158	0,004
330,056	-200,000	0,009	-0,059
331,070	-200,000	-0,008	-0,051
332,085	75,519	-0,116	-0,084
333,100	23,011	-0,260	-0,146
334,114	215,391	-0,113	-0,123
335,129	224,674	-0,094	-0,104
336,143	-200,000	0,003	-0,050
337,158	-200,000	0,013	-0,131
338,173	-39,584	-0,136	0,049
339,187	-23,206	-0,091	0,038
340,202	132,594	-0,182	-0,161
341,216	-74,548	-0,199	-0,049
342,231	259,904	-0,083	-0,099
343,246	11,631	-0,065	-0,034
344,260	-200,000	-0,009	-0,037
345,275	-200,000	-0,047	-0,218
346,289	70,276	-0,092	-0,065
347,304	-103,145	-0,193	-0,031
348,319	414,045	-0,141	-0,207
349,333	138,037	-0,155	-0,140
350,348	-200,000	-0,023	-0,271
351,362	-200,000	-0,048	-0,163
352,377	800,000	-0,095	-0,191
353,392	800,000	-0,067	-0,146
354,406	404,284	-0,148	-0,214
355,421	208,412	1316,868	1414,507
356,435	160,358	1477,862	1414,992
