DTS Sentinel unit serial number:	SN410029Multiplexer serial number:	ORYXHardware model number:	OX2-SRSoftware version number:	ORYX F/W v4,00 Oryx Data Collector v3.7.2.0data status	okinstallation	B3 Nyhavnadifferential loss correction	single-endedforward channel	channel 1reverse channel	N/Adate	2023/11/30time	23:47:30forward acquisition time	300,00reverse acquisition time	0,00gamma	499,1914k internal	0,3211k external	0,3211temperature offset calibration	1,0000default loss term (dB/km)	0,3820temperature slope calibration	1,0000multiplexer offset coefficient	1,0000multiplexer slope coefficient	1,0000fibre end	0,00T internal ref (°C)	9,47T ext. ref 1 (°C)	-5,55T ext. ref 2 (°C)	-5,70length (m)	temperature (°C)	Stokes	anti-Stokes-744,400	208,829	-0,249	-0,283
-743,385	-200,000	0,011	0,396
-742,371	-200,000	-0,015	-0,136
-741,356	-200,000	0,012	0,315
-740,342	111,166	-0,182	-0,159
-739,327	563,076	-0,096	0,169
-738,312	340,748	-0,145	-0,205
-737,298	800,000	-0,058	0,123
-736,283	211,365	-0,248	-0,283
-735,269	-200,000	-0,034	0,283
-734,254	800,000	-0,113	-0,229
-733,239	62,915	-0,164	0,119
-732,225	655,295	0,094	-0,175
-731,210	-12,805	0,020	0,010
-730,196	-99,908	-0,064	-0,012
-729,181	-200,000	0,003	0,076
-728,167	276,550	-0,098	-0,126
-727,152	-50,145	-0,073	0,025
-726,137	83,131	-0,042	-0,033
-725,123	-200,000	-0,005	-0,124
-724,108	-121,849	-0,091	-0,011
-723,094	-200,000	-0,004	-0,045
-722,079	57,852	-0,086	-0,061
-721,064	-75,925	-0,110	0,028
-720,050	740,390	-0,016	-0,032
-719,035	-78,028	-0,057	-0,014
-718,021	-130,284	-0,088	-0,009
-717,006	106,492	0,066	-0,056
-715,991	-69,218	-0,130	0,036
-714,977	800,000	-0,051	-0,124
-713,962	-200,000	0,017	-0,097
-712,948	-175,733	-0,026	0,000
-711,933	96,472	0,022	0,018
-710,918	209,525	-0,047	-0,054
-709,904	32,420	-0,070	-0,044
-708,889	518,367	-0,117	-0,199
-707,875	-177,239	0,216	0,004
-706,860	334,125	-0,027	0,038
-705,845	-34,425	0,060	-0,024
-704,831	-200,000	-0,025	0,110
-703,816	-200,000	0,003	0,093
-702,802	197,336	0,068	-0,076
-701,787	800,000	0,020	0,056
-700,772	-73,078	-0,067	-0,018
-699,758	-47,721	0,113	0,039
-698,743	132,009	-0,074	-0,069
-697,729	-64,077	0,080	0,024
-696,714	417,718	-0,020	0,031
-695,699	800,000	-0,049	-0,127
-694,685	-79,454	-0,026	-0,006
-693,670	-108,806	-0,167	-0,026
-692,656	-200,000	0,010	0,080
-691,641	-65,585	-0,230	0,066
-690,627	81,555	0,054	-0,042
-689,612	258,772	0,043	0,054
-688,597	800,000	0,011	-0,025
-687,583	-200,000	0,002	0,129
-686,568	74,427	-0,041	0,031
-685,554	-102,748	-0,094	0,016
-684,539	47,029	0,050	0,034
-683,524	15,557	0,108	0,061
-682,510	800,000	0,031	0,087
-681,495	-200,000	-0,012	0,115
-680,481	-200,000	0,005	-0,072
-679,466	-73,221	-0,112	-0,029
-678,451	-109,679	0,075	-0,011
-677,437	-200,000	0,016	0,071
-676,422	49,443	0,073	-0,049
-675,408	247,284	0,074	-0,090
-674,393	-200,000	-0,022	0,095
-673,378	147,953	-0,075	0,073
-672,364	800,000	-0,045	-0,142
-671,349	-200,000	-0,027	-0,110
-670,335	258,454	0,037	-0,046
-669,320	800,000	0,025	0,071
-668,305	800,000	0,031	-0,097
-667,291	106,630	-0,094	-0,081
-666,276	-137,437	0,113	-0,009
-665,262	-200,000	0,013	-0,079
-664,247	800,000	-0,015	-0,042
-663,232	190,234	0,010	-0,010
-662,218	-4,399	0,033	0,016
-661,203	706,763	-0,020	0,039
-660,189	-200,000	0,030	0,163
-659,174	399,708	-0,046	0,070
-658,159	154,410	0,026	0,025
-657,145	-19,463	-0,066	-0,029
-656,130	565,912	0,020	0,036
-655,116	51,190	0,027	-0,018
-654,101	800,000	-0,040	0,084
-653,086	267,686	-0,014	-0,018
-652,072	-200,000	0,023	0,108
-651,057	-200,000	0,034	-0,198
-650,043	87,740	0,069	0,055
-649,028	270,511	-0,049	-0,062
-648,014	-70,204	-0,148	0,040
-646,999	408,411	0,074	0,114
-645,984	-200,000	-0,009	0,089
-644,970	56,968	-0,109	0,076
-643,955	-130,814	-0,097	-0,009
-642,941	-200,000	-0,003	0,016
-641,926	44,507	-0,027	-0,018
-640,911	309,101	0,096	-0,129
-639,897	-46,054	-0,061	0,022
-638,882	-135,879	-0,036	0,003
-637,868	-72,817	0,173	-0,046
-636,853	-200,000	0,004	-0,032
-635,838	332,763	0,050	0,071
-634,824	800,000	0,025	0,057
-633,809	800,000	-0,004	-0,010
-632,795	254,367	0,009	-0,011
-631,780	-75,636	0,033	-0,008
-630,765	195,663	0,069	0,076
-629,751	-58,066	0,032	-0,010
-628,736	170,276	-0,138	0,142
-627,722	-200,000	0,012	-0,090
-626,707	-200,000	0,000	-0,006
-625,692	-47,398	0,062	-0,022
-624,678	-200,000	0,011	0,039
-623,663	-200,000	-0,012	-0,040
-622,649	-15,317	-0,022	-0,010
-621,634	-8,798	-0,087	-0,042
-620,619	2,398	-0,050	-0,026
-619,605	-200,000	0,000	-0,053
-618,590	-65,421	0,196	0,056
-617,576	-10,023	-0,089	0,043
-616,561	291,630	-0,111	-0,147
-615,546	-36,228	-0,154	-0,060
-614,532	-173,342	-0,061	0,001
-613,517	-200,000	0,005	-0,087
-612,503	23,967	-0,078	-0,046
-611,488	-56,647	0,027	-0,009
-610,474	-15,768	-0,059	-0,027
-609,459	-8,884	0,068	0,033
-608,444	-200,000	-0,006	-0,094
-607,430	-161,775	0,109	-0,004
-606,415	-200,000	-0,021	-0,067
-605,401	116,140	-0,067	0,059
-604,386	800,000	-0,040	0,097
-603,371	665,841	0,043	0,080
-602,357	-200,000	-0,018	-0,102
-601,342	-155,929	-0,111	-0,005
-600,328	-61,654	-0,045	-0,014
-599,313	152,184	-0,099	-0,098
-598,298	-200,000	-0,015	0,053
-597,284	-83,892	-0,106	-0,024
-596,269	386,144	0,032	0,047
-595,255	800,000	0,029	0,066
-594,240	-200,000	-0,023	-0,108
-593,225	-200,000	0,001	-0,044
-592,211	143,592	-0,062	0,060
-591,196	35,914	-0,012	-0,008
-590,182	-54,417	-0,068	-0,022
-589,167	37,679	0,074	0,047
-588,152	800,000	-0,028	0,082
-587,138	-144,659	-0,083	-0,005
-586,123	275,882	0,060	0,077
-585,109	-200,000	0,004	-0,060
-584,094	116,001	0,008	-0,007
-583,079	113,981	0,064	-0,056
-582,065	430,278	0,040	-0,062
-581,050	-200,000	-0,017	0,181
-580,036	-200,000	0,002	-0,023
-579,021	169,523	-0,024	0,025
-578,006	800,000	0,036	-0,086
-576,992	101,916	-0,067	0,056
-575,977	57,583	0,085	0,060
-574,963	-100,031	0,082	0,015
-573,948	61,474	0,135	-0,097
-572,934	-19,409	0,043	0,019
-571,919	45,278	0,060	0,040
-570,904	52,044	-0,076	-0,052
-569,890	-200,000	0,029	-0,218
-568,875	-89,777	0,108	-0,023
-567,861	800,000	-0,019	0,051
-566,846	-200,000	0,005	0,032
-565,831	-67,953	-0,044	0,012
-564,817	145,256	0,150	-0,145
-563,802	-78,170	-0,122	-0,030
-562,788	-200,000	-0,005	-0,070
-561,773	-95,215	-0,143	0,027
-560,758	-200,000	0,032	0,152
-559,744	-200,000	-0,003	-0,152
-558,729	250,943	0,053	-0,065
-557,715	800,000	0,018	0,041
-556,700	213,019	-0,067	-0,076
-555,685	800,000	0,036	-0,096
-554,671	800,000	0,052	-0,123
-553,656	800,000	0,076	0,186
-552,642	-200,000	-0,013	0,141
-551,627	-65,044	0,093	0,027
-550,612	7,373	-0,078	0,042
-549,598	277,392	0,049	-0,063
-548,583	680,428	-0,047	-0,088
-547,569	-27,493	0,073	0,030
-546,554	141,385	-0,040	-0,038
-545,539	-200,000	0,015	0,073
-544,525	800,000	0,012	0,026
-543,510	223,452	-0,077	-0,090
-542,496	-98,119	0,086	-0,016
-541,481	22,855	-0,103	-0,060
-540,466	-200,000	-0,026	-0,105
-539,452	800,000	-0,073	0,160
-538,437	800,000	0,057	0,122
-537,423	6,911	0,055	-0,029
-536,408	135,071	-0,080	-0,075
-535,393	800,000	-0,062	-0,171
-534,379	-78,545	-0,070	-0,017
-533,364	629,110	0,045	-0,082
-532,350	243,423	-0,061	-0,074
-531,335	705,888	0,067	0,129
-530,321	-84,353	0,121	-0,027
-529,306	-10,803	-0,048	0,023
-528,291	26,054	0,122	0,073
-527,277	8,794	0,132	-0,071
-526,262	-3,030	-0,075	-0,038
-525,248	143,287	0,084	0,080
-524,233	-9,728	0,038	0,018
-523,218	-200,000	-0,000	0,166
-522,204	94,505	0,029	-0,024
-521,189	800,000	-0,067	-0,158
-520,175	-113,869	0,076	-0,011
-519,160	-152,028	-0,061	-0,003
-518,145	-200,000	0,006	-0,072
-517,131	27,499	0,105	0,063
-516,116	-60,587	0,128	0,039
-515,102	-200,000	-0,008	-0,035
-514,087	-200,000	0,027	0,147
-513,072	-118,932	0,043	-0,005
-512,058	-45,737	-0,110	0,039
-511,043	800,000	-0,033	-0,103
-510,029	241,467	-0,019	0,022
-509,014	-61,288	0,087	-0,026
-507,999	-38,627	0,155	-0,058
-506,985	288,392	-0,011	0,014
-505,970	-200,000	-0,105	0,000
-504,956	107,337	-0,093	0,080
-503,941	-124,689	0,113	0,012
-502,926	-200,000	-0,015	-0,164
-501,912	-200,000	0,019	0,101
-500,897	-200,000	-0,010	0,057
-499,883	207,602	0,087	0,098
-498,868	134,956	-0,050	-0,047
-497,853	-53,617	-0,047	0,015
-496,839	8,183	0,049	0,026
-495,824	473,455	-0,005	-0,008
-494,810	-102,136	0,099	0,017
-493,795	-200,000	0,001	0,062
-492,781	46,769	-0,067	0,044
-491,766	68,696	-0,074	-0,055
-490,751	46,418	0,148	0,099
-489,737	-102,634	-0,149	-0,025
-488,722	-62,051	0,039	-0,012
-487,708	-200,000	-0,035	0,116
-486,693	-14,994	-0,106	0,049
-485,678	126,634	-0,086	-0,078
-484,664	-62,873	0,049	0,014
-483,649	128,375	-0,059	-0,054
-482,635	-37,829	0,093	0,035
-481,620	-77,118	0,086	-0,021
-480,605	24,499	-0,106	0,063
-479,591	-20,478	-0,055	0,024
-478,576	533,339	-0,076	0,129
-477,562	-200,000	-0,008	0,065
-476,547	-200,000	-0,017	-0,076
-475,532	-16,875	0,149	-0,067
-474,518	-126,202	0,118	0,013
-473,503	-133,903	0,072	-0,006
-472,489	-200,000	-0,019	0,126
-471,474	-77,305	-0,153	0,038
-470,459	57,544	0,137	-0,096
-469,445	-200,000	0,029	0,104
-468,430	30,415	-0,063	0,039
-467,416	-65,562	-0,044	-0,012
-466,401	342,833	0,059	0,083
-465,386	191,019	-0,028	0,030
-464,372	114,217	-0,126	0,110
-463,357	-135,242	-0,046	-0,004
-462,343	568,195	0,023	-0,040
-461,328	800,000	-0,063	-0,178
-460,313	706,327	0,017	-0,032
-459,299	-147,214	0,024	0,001
-458,284	-48,833	-0,156	0,053
-457,270	-99,593	-0,101	-0,018
-456,255	50,412	-0,131	0,088
-455,241	-172,852	-0,146	-0,003
-454,226	800,000	-0,038	-0,118
-453,211	-135,893	0,106	0,009
-452,197	800,000	0,028	-0,082
-451,182	138,092	-0,056	0,053
-450,168	-200,000	0,006	0,151
-449,153	374,334	0,056	0,083
-448,138	-112,972	-0,222	-0,031
-447,124	-200,000	-0,098	-0,000
-446,109	-8,899	0,089	-0,043
-445,095	373,056	-0,047	-0,068
-444,080	-200,000	0,011	0,043
-443,065	187,617	-0,106	0,114
-442,051	220,283	0,051	-0,058
-441,036	155,245	0,063	-0,062
-440,022	-3,173	-0,029	-0,015
-439,007	-200,000	0,008	-0,108
-437,992	-28,396	0,048	0,020
-436,978	-39,312	-0,108	0,040
-435,963	-29,189	0,220	0,090
-434,949	-200,000	-0,013	0,165
-433,934	800,000	0,010	0,022
-432,919	295,579	-0,050	-0,066
-431,905	-200,000	0,028	-0,104
-430,890	96,427	0,015	0,013
-429,876	133,033	0,123	0,114
-428,861	729,022	0,043	0,082
-427,846	-45,818	0,149	-0,052
-426,832	131,780	0,030	-0,028
-425,817	52,337	-0,055	0,037
-424,803	-200,000	0,023	-0,097
-423,788	-18,505	0,089	0,039
-422,773	-91,027	-0,069	-0,014
-421,759	800,000	0,026	-0,058
-420,744	472,654	-0,052	-0,084
-419,730	800,000	0,046	-0,121
-418,715	-130,677	-0,113	0,011
-417,701	-200,000	0,034	-0,169
-416,686	57,142	0,033	-0,023
-415,671	-200,000	0,049	0,194
-414,657	406,874	0,059	0,089
-413,642	3,278	-0,021	0,011
-412,628	338,857	-0,042	-0,059
-411,613	-46,906	0,094	0,033
-410,598	166,530	-0,020	0,020
-409,584	-98,602	-0,063	0,011
-408,569	262,776	0,117	0,146
-407,555	-200,000	0,037	0,214
-406,540	69,344	0,110	0,081
-405,525	338,651	-0,120	-0,168
-404,511	397,436	0,087	-0,131
-403,496	-200,000	0,004	-0,027
-402,482	5,248	0,104	0,055
-401,467	-93,122	0,031	-0,006
-400,452	800,000	-0,058	0,122
-399,438	-200,000	-0,007	-0,160
-398,423	478,903	0,060	0,098
-397,409	-191,325	0,017	0,000
-396,394	800,000	-0,027	0,055
-395,379	-200,000	-0,002	-0,066
-394,365	800,000	0,022	0,055
-393,350	269,257	-0,047	0,060
-392,336	256,245	0,010	-0,012
-391,321	800,000	-0,048	0,118
-390,306	151,019	0,072	-0,070
-389,292	-134,035	-0,133	-0,012
-388,277	-62,384	-0,073	-0,022
-387,263	800,000	-0,022	-0,065
-386,248	-200,000	0,019	-0,061
-385,233	655,010	0,081	-0,150
-384,219	322,817	0,009	-0,013
-383,204	-89,763	0,081	-0,017
-382,190	-200,000	0,001	0,026
-381,175	584,420	0,047	-0,082
-380,160	639,978	0,014	-0,026
-379,146	-200,000	-0,012	-0,114
-378,131	-101,051	-0,059	0,010
-377,117	800,000	0,012	-0,034
-376,102	-30,165	-0,139	-0,056
-375,088	-200,000	-0,021	-0,096
-374,073	92,126	0,030	-0,024
-373,058	-3,651	0,064	0,032
-372,044	93,720	0,109	0,088
-371,029	800,000	0,077	0,165
-370,015	-200,000	-0,001	0,058
-369,000	-72,057	-0,140	-0,037
-367,985	800,000	-0,020	-0,052
-366,971	-200,000	0,028	0,110
-365,956	-55,209	0,028	-0,009
-364,942	1,882	0,125	-0,064
-363,927	-106,945	-0,120	-0,019
-362,912	-200,000	0,002	0,023
-361,898	-200,000	0,001	0,005
-360,883	125,148	-0,112	0,101
-359,869	800,000	-0,048	-0,102
-358,854	-62,434	0,029	0,009
-357,839	257,399	0,061	-0,075
-356,825	-2,209	-0,016	-0,008
-355,810	569,275	0,073	0,127
-354,796	-11,264	0,021	-0,010
-353,781	103,726	-0,096	0,081
-352,766	368,239	-0,064	0,093
-351,752	28,424	-0,057	-0,034
-350,737	57,091	0,236	0,164
-349,723	419,954	0,116	0,178
-348,708	-200,000	0,013	0,165
-347,693	181,350	0,064	0,067
-346,679	-200,000	-0,028	-0,094
-345,664	-68,434	0,033	0,009
-344,650	-161,115	0,097	-0,004
-343,635	401,270	-0,044	0,066
-342,620	-23,253	0,069	0,030
-341,606	-29,673	0,045	-0,018
-340,591	1,404	-0,065	-0,033
-339,577	800,000	0,028	0,066
-338,562	258,885	0,040	-0,050
-337,548	800,000	0,003	-0,007
-336,533	570,483	-0,024	-0,041
-335,518	-27,529	-0,071	0,029
-334,504	26,942	0,087	-0,052
-333,489	-146,469	-0,049	0,003
-332,475	350,647	-0,026	-0,037
-331,460	627,445	-0,041	-0,074
-330,445	-166,878	-0,033	-0,001
-329,431	95,351	0,145	-0,118
-328,416	-200,000	-0,004	-0,076
-327,402	-200,000	-0,016	0,064
-326,387	-145,269	-0,119	0,008
-325,372	-135,238	-0,049	0,004
-324,358	-200,000	-0,023	0,088
-323,343	55,024	-0,066	-0,045
-322,329	-73,528	-0,083	-0,021
-321,314	-200,000	-0,003	-0,010
-320,299	-16,683	0,082	-0,037
-319,285	-200,000	-0,001	0,127
-318,270	-200,000	-0,005	-0,052
-317,256	-200,000	-0,001	-0,052
-316,241	-96,929	-0,011	-0,002
-315,226	258,948	0,121	0,149
-314,212	421,573	-0,040	0,061
-313,197	-200,000	-0,016	0,118
-312,183	-200,000	-0,024	-0,115
-311,168	21,458	0,109	-0,063
-310,153	333,226	0,078	0,107
-309,139	-122,281	-0,086	-0,010
-308,124	310,388	-0,046	0,062
-307,110	46,273	0,090	0,059
-306,095	6,608	-0,010	0,005
-305,080	-73,690	-0,136	0,035
-304,066	-154,792	0,014	0,001
-303,051	33,263	-0,108	-0,066
-302,037	79,242	-0,082	-0,062
-301,022	-27,146	0,066	-0,027
-300,008	800,000	0,072	-0,157
-298,993	138,293	0,096	-0,090
-297,978	114,248	0,059	0,052
-296,964	56,303	-0,124	-0,085
-295,949	-200,000	-0,011	0,074
-294,935	800,000	0,019	0,050
-293,920	-200,000	0,017	0,149
-292,905	-200,000	-0,021	0,081
-291,891	-73,158	0,048	0,012
-290,876	178,896	-0,012	-0,012
-289,862	332,525	-0,062	0,086
-288,847	258,813	0,031	0,038
-287,832	-200,000	-0,009	-0,061
-286,818	27,195	-0,036	0,022
-285,803	9,274	-0,063	0,034
-284,789	610,951	0,044	0,078
-283,774	-200,000	0,063	0,203
-282,759	800,000	-0,052	-0,137
-281,745	256,614	0,035	-0,043
-280,730	-170,762	-0,056	0,001
-279,716	95,152	0,109	-0,088
-278,701	77,029	0,095	-0,072
-277,686	-200,000	-0,012	0,080
-276,672	186,825	0,055	0,058
-275,657	-200,000	-0,022	0,129
-274,643	-106,486	-0,140	0,022
-273,628	-200,000	0,028	-0,148
-272,613	733,163	0,059	-0,113
-271,599	-200,000	0,002	-0,193
-270,584	18,675	0,087	-0,049
-269,570	800,000	-0,041	0,091
-268,555	-62,189	0,093	0,027
-267,540	42,423	0,047	0,030
-266,526	-200,000	0,015	-0,097
-265,511	-42,611	0,015	-0,005
-264,497	68,163	-0,140	0,102
-263,482	336,614	0,121	0,168
-262,467	-86,012	-0,037	0,008
-261,453	-25,549	-0,090	-0,038
-260,438	-200,000	0,011	-0,057
-259,424	-200,000	-0,021	-0,093
-258,409	449,635	0,022	-0,034
-257,395	178,696	-0,075	0,078
-256,380	376,213	-0,072	0,104
-255,365	800,000	-0,060	0,123
-254,351	800,000	-0,015	0,043
-253,336	16,707	-0,074	-0,042
-252,322	800,000	0,020	-0,048
-251,307	12,517	-0,062	-0,034
-250,292	-200,000	0,008	-0,068
-249,278	-200,000	0,015	-0,093
-248,263	58,029	-0,101	0,070
-247,249	183,532	0,037	-0,038
-246,234	-77,540	-0,086	-0,021
-245,219	-70,164	0,083	0,022
-244,205	51,669	-0,060	0,040
-243,190	-153,279	-0,064	-0,003
-242,176	-200,000	-0,011	0,119
-241,161	-200,000	0,015	0,135
-240,146	-200,000	0,018	-0,062
-239,132	291,271	0,014	-0,019
-238,117	70,181	-0,165	-0,121
-237,103	-14,522	-0,136	-0,062
-236,088	-120,862	0,162	0,019
-235,073	-200,000	0,001	0,083
-234,059	-32,082	-0,080	0,031
-233,044	-200,000	0,009	0,055
-232,030	448,966	-0,058	-0,090
-231,015	800,000	-0,010	-0,023
-230,000	800,000	-0,059	-0,124
-228,986	190,145	-0,093	-0,100
-227,971	800,000	0,067	-0,139
-226,957	-200,000	-0,013	0,132
-225,942	673,620	-0,025	0,047
-224,927	187,163	-0,118	0,125
-223,913	-200,000	-0,036	-0,147
-222,898	-35,734	-0,050	-0,019
-221,884	557,327	0,014	0,024
-220,869	254,509	-0,045	0,055
-219,855	800,000	-0,056	0,149
-218,840	-111,077	0,129	0,019
-217,825	-170,951	-0,016	-0,000
-216,811	-84,132	-0,160	-0,036
-215,796	674,250	-0,033	0,062
-214,782	800,000	-0,030	-0,067
-213,767	-124,370	0,147	0,016
-212,752	800,000	0,043	0,092
-211,738	352,953	0,072	-0,102
-210,723	27,992	-0,035	0,021
-209,709	800,000	0,023	0,052
-208,694	-200,000	0,025	-0,101
-207,679	-200,000	-0,005	-0,078
-206,665	-200,000	-0,018	-0,092
-205,650	199,434	0,048	-0,053
-204,636	708,660	-0,033	-0,062
-203,621	800,000	0,018	-0,043
-202,606	150,536	-0,132	-0,128
-201,592	-111,584	0,160	-0,023
-200,577	-200,000	0,017	-0,117
-199,563	746,173	-0,012	0,023
-198,548	344,830	0,034	0,048
-197,533	100,175	0,049	-0,041
-196,519	-200,000	0,010	0,087
-195,504	800,000	0,013	0,031
-194,490	800,000	-0,011	-0,031
-193,475	665,294	0,041	-0,076
-192,460	-35,725	0,075	0,029
-191,446	83,059	0,165	0,127
-190,431	-200,000	-0,001	0,056
-189,417	92,163	0,130	-0,104
-188,402	-52,320	-0,056	-0,018
-187,387	115,391	0,078	-0,067
-186,373	-200,000	-0,036	-0,136
-185,358	99,366	-0,076	-0,063
-184,344	-200,000	-0,016	0,110
-183,329	49,075	0,056	-0,038
-182,315	71,515	0,015	0,011
-181,300	-53,334	0,139	-0,045
-180,285	552,628	-0,038	-0,066
-179,271	-62,927	-0,091	-0,027
-178,256	-200,000	-0,014	-0,092
-177,242	-200,000	0,018	0,059
-176,227	17,435	0,069	-0,039
-175,212	-153,805	0,218	-0,010
-174,198	-200,000	-0,012	-0,070
-173,183	-200,000	0,025	-0,123
-172,169	-200,000	-0,020	-0,178
-171,154	61,345	0,021	0,015
-170,139	65,064	0,079	0,056
-169,125	119,815	0,095	-0,084
-168,110	-9,930	-0,059	-0,028
-167,096	-75,021	0,013	0,003
-166,081	800,000	0,011	0,032
-165,066	440,365	-0,125	0,194
-164,052	-143,170	-0,026	0,002
-163,037	-27,415	-0,106	0,043
-162,023	36,944	-0,014	0,009
-161,008	-128,336	-0,039	0,004
-159,993	-108,768	0,034	-0,005
-158,979	-62,711	-0,078	0,023
-157,964	-67,558	0,061	-0,017
-156,950	132,618	0,085	0,078
-155,935	225,104	-0,075	-0,087
-154,920	92,119	0,016	-0,013
-153,906	-200,000	0,026	0,132
-152,891	-142,425	-0,051	0,004
-151,877	-20,615	0,024	0,010
-150,862	-200,000	0,012	0,081
-149,847	-200,000	0,010	-0,128
-148,833	455,503	-0,036	-0,056
-147,818	-200,000	-0,006	0,122
-146,804	164,371	0,112	0,112
-145,789	342,386	0,025	-0,035
-144,775	-40,924	-0,171	0,062
-143,760	800,000	-0,021	0,060
-142,745	260,904	-0,018	0,022
-141,731	-200,000	0,003	-0,039
-140,716	753,067	-0,024	-0,046
-139,702	-200,000	-0,012	0,138
-138,687	650,212	0,061	0,112
-137,672	800,000	0,010	-0,021
-136,658	140,016	-0,051	-0,048
-135,643	-11,581	0,124	-0,057
-134,629	800,000	0,045	-0,112
-133,614	-200,000	-0,020	0,086
-132,599	261,708	0,070	0,086
-131,585	800,000	-0,007	0,014
-130,570	-200,000	0,028	0,101
-129,556	800,000	-0,053	-0,128
-128,541	231,110	-0,046	-0,053
-127,526	3,655	0,077	0,040
-126,512	-200,000	0,004	-0,068
-125,497	-200,000	0,009	0,042
-124,483	152,728	0,033	0,031
-123,468	21,171	0,089	-0,051
-122,453	101,796	-0,067	-0,055
-121,439	-46,727	0,078	-0,027
-120,424	115,624	-0,074	-0,064
-119,410	-31,913	-0,091	0,036
-118,395	-36,514	-0,106	0,040
-117,380	-200,000	-0,014	-0,062
-116,366	-25,644	-0,048	0,020
-115,351	800,000	0,067	-0,164
-114,337	-21,034	-0,129	0,055
-113,322	-113,304	0,165	-0,023
-112,307	-200,000	0,006	-0,064
-111,293	800,000	-0,033	-0,069
-110,278	-200,000	-0,033	-0,111
-109,264	165,806	0,119	-0,119
-108,249	-50,691	-0,072	-0,024
-107,234	-200,000	-0,021	-0,103
-106,220	28,889	-0,033	-0,020
-105,205	-20,508	0,084	0,036
-104,191	-97,429	0,074	0,013
-103,176	-49,691	-0,084	0,028
-102,162	-138,147	-0,135	0,010
-101,147	-68,128	-0,122	-0,033
-100,132	-61,347	-0,062	0,018
-99,118	-86,239	-0,056	-0,012
-98,103	800,000	0,052	0,153
-97,089	-146,196	0,042	-0,003
-96,074	329,752	0,063	-0,086
-95,059	406,264	0,095	0,142
-94,045	22,074	-0,020	-0,012
-93,030	20,774	0,077	0,044
-92,016	407,668	0,053	-0,080
-91,001	-82,208	0,025	0,006
-89,986	89,157	0,020	0,016
-88,972	4,034	-0,021	-0,011
-87,957	-8,677	-0,153	0,072
-86,943	-82,736	0,099	-0,022
-85,928	-31,856	-0,135	-0,053
-84,913	46,138	-0,079	-0,052
-83,899	-200,000	0,017	0,054
-82,884	47,735	0,095	-0,062
-81,870	-200,000	-0,001	0,100
-80,855	142,261	-0,014	-0,013
-79,840	567,637	0,017	-0,029
-78,826	546,242	-0,065	-0,110
-77,811	545,929	-0,013	-0,022
-76,797	-200,000	-0,009	-0,126
-75,782	800,000	0,039	-0,108
-74,767	-200,000	0,043	0,162
-73,753	-200,000	0,003	0,080
-72,738	-154,908	-0,087	-0,004
-71,724	800,000	-0,044	0,091
-70,709	-47,036	-0,063	-0,022
-69,694	-29,431	-0,048	-0,019
-68,680	28,654	0,024	-0,015
-67,665	-200,000	-0,016	-0,088
-66,651	-2,043	0,024	-0,012
-65,636	372,509	-0,045	-0,065
-64,622	-200,000	0,016	-0,133
-63,607	107,723	-0,069	-0,058
-62,592	-36,361	0,039	-0,015
-61,578	800,000	-0,017	0,050
-60,563	605,464	0,043	0,076
-59,549	-200,000	-0,022	0,157
-58,534	42,941	-2,096	-1,346
-57,519	521,786	-1,206	-2,006
-56,505	-200,000	-0,441	-4,658
-55,490	337,539	0,930	1,280
-54,476	800,000	5,506	11,982
-53,461	-200,000	21,721	343,206
-52,446	800,000	763,068	2331,651
-51,432	542,473	1661,813	2807,822
-50,417	70,979	1658,296	1211,298
-49,403	17,221	1532,059	855,490
-48,388	11,328	1456,192	784,647
-47,373	19,268	1447,825	818,178
-46,359	14,746	1436,823	790,448
-45,344	9,636	1432,448	763,700
-44,330	9,555	1430,679	762,341
-43,315	9,478	1429,233	761,174
-42,300	9,534	1427,311	760,385
-41,286	9,555	1425,916	759,715
-40,271	9,522	1424,793	758,928
-39,257	9,528	1423,619	758,301
-38,242	9,560	1422,419	757,783
-37,227	9,577	1421,385	757,281
-36,213	9,560	1419,928	756,394
-35,198	9,572	1418,858	755,851
-34,184	9,580	1418,006	755,405
-33,169	9,506	1416,600	754,281
-32,154	9,544	1415,645	753,917
-31,140	9,570	1414,325	753,312
-30,125	9,575	1413,247	752,728
-29,111	9,552	1411,969	751,911
-28,096	9,558	1410,762	751,265
-27,082	9,467	1409,585	750,183
-26,067	9,492	1408,673	749,785
-25,052	9,523	1407,597	749,327
-24,038	9,522	1406,574	748,746
-23,023	9,510	1405,678	748,184
-22,009	9,504	1404,580	747,542
-20,994	9,516	1403,543	747,019
-19,979	9,518	1402,674	746,533
-18,965	9,508	1401,758	745,969
-17,950	9,505	1400,820	745,426
-16,936	9,483	1399,967	744,840
-15,921	9,370	1399,092	743,823
-14,906	9,418	1397,994	743,430
-13,892	9,482	1396,853	743,092
-12,877	9,447	1396,323	742,618
-11,863	9,442	1395,540	742,148
-10,848	9,379	1394,743	741,402
-9,833	9,346	1393,701	740,668
-8,819	9,292	1392,936	739,983
-7,804	9,288	1391,926	739,398
-6,790	9,309	1390,779	738,857
-5,775	9,290	1389,755	738,193
-4,760	9,362	1388,752	737,963
-3,746	9,344	1387,983	737,442
-2,731	9,303	1387,216	736,818
-1,717	9,323	1386,267	736,377
-0,702	9,356	1384,471	735,546
0,313	13,447	1296,330	707,378
1,327	29,593	686,669	411,138
2,342	46,246	118,616	77,389
3,356	3,240	16,495	8,438
4,371	7,226	3,640	1,910
5,386	-11,158	1,132	0,524
6,400	800,000	0,292	0,651
7,415	2,015	-0,311	-0,158
8,429	29,236	-0,383	-0,229
9,444	286,354	-0,205	-0,262
10,459	7,553	-0,253	-0,133
11,473	-61,511	-0,368	-0,108
12,488	-9,512	-0,185	-0,087
13,502	-66,984	-0,447	-0,124
14,517	-112,008	-0,381	-0,053
15,531	67,727	-0,249	-0,179
16,546	7,819	-0,343	-0,181
17,561	140,782	-0,317	-0,295
18,575	13,123	-0,203	-0,111
19,590	135,886	-0,227	-0,209
20,604	10,604	-0,411	-0,220
21,619	191,673	-0,410	-0,436
22,634	195,647	-0,308	-0,330
23,648	51,069	-0,500	-0,333
24,663	59,801	-0,494	-0,343
25,677	180,657	-0,333	-0,345
26,692	121,812	-0,284	-0,249
27,707	254,335	-0,339	-0,409
28,721	218,356	-0,314	-0,353
29,736	7,802	-0,513	-0,270
30,750	79,663	-0,313	-0,236
31,765	19,976	-0,325	-0,184
32,780	-12,445	-0,404	-0,185
33,794	-80,366	-0,288	-0,067
34,809	43,886	-0,456	-0,293
35,823	179,876	-0,277	-0,286
36,838	31,758	-0,451	-0,272
37,853	162,699	-0,324	-0,320
38,867	87,922	-0,482	-0,375
39,882	67,796	-0,379	-0,272
40,896	129,587	-0,249	-0,224
41,911	57,980	-0,286	-0,197
42,926	145,209	-0,296	-0,278
43,940	57,225	-0,333	-0,228
44,955	-63,501	-0,379	-0,109
45,969	126,040	-0,298	-0,264
46,984	39,390	-0,314	-0,197
47,999	800,000	-0,154	-0,337
49,013	142,795	-0,292	-0,272
50,028	11,211	-0,268	-0,143
51,042	-27,445	-0,308	-0,125
52,057	102,835	-0,274	-0,225
53,071	209,422	-0,237	-0,261
54,086	54,089	-0,396	-0,267
55,101	84,076	-0,285	-0,219
56,115	75,569	-0,339	-0,251
57,130	24,274	-0,301	-0,174
58,144	137,304	-0,326	-0,300
59,159	23,277	-0,169	-0,097
60,174	103,775	-0,382	-0,315
61,188	61,593	-0,345	-0,241
62,203	62,770	-0,232	-0,163
63,217	40,637	-0,355	-0,224
64,232	96,982	-0,339	-0,272
65,247	286,980	-0,243	-0,309
66,261	53,591	-0,420	-0,282
67,276	22,279	-0,336	-0,192
68,290	78,842	-0,273	-0,205
69,305	58,127	-0,340	-0,233
70,320	186,070	-0,133	-0,139
71,334	47,397	-0,240	-0,157
72,349	132,980	-0,315	-0,285
73,363	-27,202	-0,340	-0,138
74,378	-1,718	-0,512	-0,252
75,393	255,611	-0,154	-0,185
76,407	182,189	-0,202	-0,208
77,422	0,182	-0,312	-0,155
78,436	-101,811	-0,338	-0,057
79,451	-2,420	-0,277	-0,136
80,466	8,828	-0,280	-0,147
81,480	72,776	-0,276	-0,202
82,495	163,732	-0,321	-0,317
83,509	38,529	-0,280	-0,175
84,524	-90,917	-0,274	-0,055
85,539	92,350	-0,280	-0,221
86,553	165,959	-0,379	-0,376
87,568	-47,465	-0,379	-0,128
88,582	86,681	-0,301	-0,232
89,597	22,914	-0,314	-0,179
90,611	34,813	-0,290	-0,177
91,626	35,604	-0,295	-0,181
92,641	211,449	-0,163	-0,180
93,655	174,059	-0,267	-0,270
94,670	-11,256	-0,297	-0,137
95,684	127,362	-0,197	-0,175
96,699	-31,754	-0,301	-0,118
97,714	157,626	-0,234	-0,227
98,728	7,559	-0,226	-0,118
99,743	-139,125	-0,193	0,014
100,757	-99,355	-0,258	-0,045
101,772	-39,559	-0,379	-0,138
102,787	296,608	-0,170	-0,219
103,801	10,480	-0,288	-0,153
104,816	402,584	-0,203	-0,300
105,830	25,734	-0,450	-0,261
106,845	192,866	-0,188	-0,199
107,860	800,000	-0,125	-0,243
108,874	200,089	-0,208	-0,224
109,889	415,223	-0,175	-0,262
110,903	22,510	-0,299	-0,171
111,918	136,668	-0,264	-0,241
112,933	-148,974	-0,358	-0,020
113,947	76,596	-0,213	-0,158
114,962	56,351	-0,273	-0,185
115,976	-50,306	-0,324	-0,106
116,991	-7,933	-0,341	-0,160
118,006	158,607	-0,215	-0,209
119,020	149,935	-0,205	-0,194
120,035	800,000	-0,112	-0,324
121,049	-85,865	-0,236	-0,051
122,064	-80,974	-0,287	-0,066
123,079	79,338	-0,259	-0,193
124,093	16,155	-0,255	-0,140
125,108	261,295	-0,268	-0,325
126,122	279,206	-0,130	-0,163
127,137	95,933	-0,190	-0,151
128,151	159,004	-0,184	-0,179
129,166	-73,507	-0,208	-0,053
130,181	526,873	-0,102	-0,168
131,195	-7,900	-0,445	-0,209
132,210	152,586	-0,238	-0,226
133,224	116,100	-0,306	-0,261
134,239	19,364	-0,405	-0,226
135,254	-14,372	-0,168	-0,075
136,268	-0,436	-0,238	-0,117
137,283	-44,061	-0,282	-0,098
138,297	106,442	-0,155	-0,128
139,312	16,388	-0,329	-0,181
140,327	209,342	-0,204	-0,223
141,341	-21,861	-0,324	-0,137
142,356	133,702	-0,202	-0,182
143,370	162,784	-0,204	-0,200
144,385	147,440	-0,179	-0,168
145,400	66,889	-0,294	-0,208
146,414	640,397	-0,169	-0,302
147,429	115,336	-0,275	-0,234
148,443	-11,447	-0,297	-0,136
149,458	62,025	-0,282	-0,195
150,473	42,593	-0,268	-0,169
151,487	123,015	-0,178	-0,155
152,502	87,385	-0,248	-0,191
153,516	-11,269	-0,260	-0,119
154,531	-50,664	-0,300	-0,098
155,546	81,853	-0,334	-0,251
156,560	326,658	-0,155	-0,207
157,575	-51,106	-0,281	-0,091
158,589	-115,036	-0,149	-0,020
159,604	62,089	-0,247	-0,171
160,619	431,663	-0,187	-0,283
161,633	0,159	-0,228	-0,112
162,648	-42,293	-0,197	-0,070
163,662	-3,856	-0,191	-0,092
164,677	180,713	-0,053	-0,054
165,692	-18,196	-0,404	-0,175
166,706	6,856	-0,284	-0,147
167,721	100,038	-0,302	-0,243
168,735	-43,587	-0,286	-0,100
169,750	201,278	-0,170	-0,183
170,764	93,568	-0,187	-0,147
171,779	159,748	-0,239	-0,232
172,794	55,106	-0,335	-0,224
173,808	-71,012	-0,306	-0,079
174,823	175,571	-0,191	-0,192
175,837	280,022	-0,168	-0,209
176,852	-38,479	-0,236	-0,086
177,867	-200,000	-0,057	-0,178
178,881	187,100	-0,248	-0,257
179,896	-90,075	-0,180	-0,036
180,910	106,272	-0,127	-0,105
181,925	165,437	-0,182	-0,179
182,940	-4,254	-0,223	-0,107
183,954	-200,000	-0,119	-0,367
184,969	151,242	-0,170	-0,161
185,983	-73,005	-0,285	-0,072
186,998	134,086	-0,239	-0,215
188,013	-110,559	-0,125	-0,018
189,027	119,729	-0,175	-0,150
190,042	64,013	-0,285	-0,199
191,056	42,571	-0,284	-0,179
192,071	800,000	-0,172	-0,346
193,086	24,539	-0,313	-0,179
194,100	43,452	-0,233	-0,148
195,115	97,771	-0,198	-0,158
196,129	60,645	-0,234	-0,160
197,144	48,675	-0,259	-0,168
198,159	-139,967	-0,186	-0,013
199,173	45,713	-0,216	-0,138
200,188	-78,659	-0,188	-0,044
201,202	14,529	-0,273	-0,147
202,217	82,802	-0,247	-0,186
203,232	172,114	-0,217	-0,216
204,246	351,885	-0,153	-0,211
205,261	-200,000	0,025	-0,121
206,275	87,322	-0,158	-0,121
207,290	-1,644	-0,186	-0,090
208,304	-92,430	-0,241	-0,047
209,319	12,396	-0,152	-0,081
210,334	272,602	-0,182	-0,223
211,348	-12,758	-0,209	-0,094
212,363	157,631	-0,174	-0,167
213,377	240,073	-0,146	-0,169
214,392	347,266	-0,188	-0,258
215,407	526,004	-0,119	-0,195
216,421	158,226	-0,169	-0,162
217,436	0,658	-0,162	-0,080
218,450	212,920	-0,252	-0,276
219,465	306,607	-0,150	-0,194
220,480	5,800	-0,214	-0,109
221,494	-200,000	-0,055	-0,260
222,509	214,438	-0,197	-0,216
223,523	-36,472	-0,103	-0,038
224,538	600,207	-0,066	-0,114
225,553	421,810	-0,102	-0,151
226,567	258,576	-0,173	-0,206
227,582	18,997	-0,210	-0,116
228,596	-68,742	-0,189	-0,050
229,611	-90,210	-0,172	-0,034
230,626	-136,116	-0,034	-0,003
231,640	-150,985	-0,186	0,010
232,655	57,388	-0,238	-0,160
233,669	58,309	-0,196	-0,133
234,684	-107,530	-0,055	-0,008
235,699	211,475	-0,193	-0,210
236,713	-104,897	-0,042	0,007
237,728	548,719	0,067	-0,112
238,742	-40,390	-0,192	-0,069
239,757	14,106	-0,180	-0,097
240,772	-162,773	-0,259	-0,009
241,786	-171,789	-0,233	-0,005
242,801	-48,064	-0,123	-0,041
243,815	265,394	-0,107	-0,129
244,830	-97,369	-0,065	-0,012
245,844	262,943	-0,170	-0,204
246,859	800,000	-0,095	-0,193
247,874	-159,064	-0,163	-0,006
248,888	267,397	-0,202	-0,244
249,903	-21,053	-0,203	-0,085
250,917	-146,258	-0,178	-0,011
251,932	-142,399	-0,187	0,013
252,947	217,730	-0,132	-0,146
253,961	-2,809	-0,265	-0,128
254,976	1,899	-0,229	-0,114
255,990	25,407	-0,294	-0,168
257,005	800,000	-0,043	-0,105
258,020	45,930	-0,144	-0,092
259,034	800,000	-0,039	-0,108
260,049	800,000	-0,045	-0,132
261,063	12,861	-0,190	-0,101
262,078	156,386	-0,159	-0,151
263,093	-200,000	-0,021	-0,269
264,107	113,517	-0,151	-0,127
265,122	-39,101	-0,171	-0,062
266,136	68,081	-0,166	-0,117
267,151	-2,610	-0,183	-0,088
268,166	800,000	-0,072	-0,199
269,180	143,789	-0,214	-0,197
270,195	65,607	-0,113	-0,078
271,209	800,000	-0,075	-0,161
272,224	-59,233	-0,166	-0,049
273,239	200,270	-0,154	-0,164
274,253	-21,848	-0,172	-0,072
275,268	729,453	-0,106	-0,195
276,282	111,476	-0,224	-0,186
277,297	-61,810	0,025	0,007
278,312	127,194	-0,149	-0,130
279,326	800,000	-0,061	-0,154
280,341	-200,000	-0,053	-0,179
281,355	131,454	-0,105	-0,093
282,370	195,730	-0,077	-0,080
283,384	-13,739	-0,191	-0,085
284,399	143,750	-0,207	-0,190
285,414	198,165	-0,116	-0,123
286,428	-23,455	-0,145	-0,060
287,443	-114,229	-0,137	-0,018
288,457	-200,000	-0,027	-0,164
289,472	218,217	-0,117	-0,128
290,487	-179,662	-0,110	-0,002
291,501	-55,890	-0,230	-0,070
292,516	-80,736	-0,132	-0,030
293,530	561,801	-0,049	-0,081
294,545	31,024	-0,162	-0,095
295,560	25,284	-0,102	-0,058
296,574	433,199	-0,153	-0,229
297,589	279,803	-0,158	-0,195
298,603	285,414	-0,145	-0,180
299,618	101,152	-0,263	-0,210
300,633	41,946	-0,033	0,020
301,647	-46,675	-0,118	-0,039
302,662	137,237	-0,145	-0,131
303,676	-177,266	-0,120	-0,002
304,691	162,871	-0,115	-0,111
305,706	73,077	-0,295	-0,212
306,720	-200,000	-0,028	-0,213
307,735	-85,228	-0,203	-0,043
308,749	-200,000	-0,049	-0,179
309,764	-36,710	-0,103	-0,038
310,779	87,510	-0,157	-0,119
311,793	-164,133	-0,168	-0,005
312,808	180,995	-0,115	-0,116
313,822	104,943	-0,223	-0,180
314,837	125,483	-0,177	-0,153
315,852	-200,000	-0,027	-0,082
316,866	800,000	-0,016	-0,041
317,881	481,656	-0,119	-0,186
318,895	247,931	-0,182	-0,211
319,910	78,498	-0,202	-0,148
320,925	51,886	-0,161	-0,105
321,939	192,923	-0,213	-0,221
322,954	422,482	-0,151	-0,223
323,968	90,030	-0,099	-0,076
324,983	267,275	-0,107	-0,129
325,997	88,393	-0,159	-0,121
327,012	395,779	-0,130	-0,187
328,027	-151,985	-0,162	0,008
329,041	-200,000	-0,021	-0,085
330,056	64,439	-0,127	-0,088
331,070	-32,719	-0,142	-0,054
332,085	89,094	-0,138	-0,105
333,100	11,631	-0,173	-0,091
334,114	-49,086	-0,129	-0,042
335,129	146,463	-0,243	-0,224
336,143	-57,974	-0,248	-0,074
337,158	130,063	-0,108	-0,094
338,173	-38,491	-0,108	0,039
339,187	-29,171	-0,092	-0,036
340,202	29,734	-0,107	-0,062
341,216	109,511	-0,175	-0,144
342,231	-100,911	-0,052	-0,009
343,246	419,443	-0,114	-0,168
344,260	67,062	-0,183	-0,127
345,275	46,596	-0,113	-0,072
346,289	72,292	-0,092	-0,065
347,304	204,323	-0,152	-0,161
348,319	202,975	-0,161	-0,170
349,333	85,658	-0,118	-0,088
350,348	336,036	-0,097	-0,129
351,362	582,773	-0,097	-0,164
352,377	-68,529	-0,117	0,031
353,392	-1,580	-0,196	0,094
354,406	-108,667	-0,139	-0,020
355,421	207,367	1311,369	1400,788
356,435	159,520	1471,634	1401,249
