DTS Sentinel unit serial number:	SN410029Multiplexer serial number:	ORYXHardware model number:	OX2-SRSoftware version number:	ORYX F/W v4,00 Oryx Data Collector v3.7.2.0data status	okinstallation	B3 Nyhavnadifferential loss correction	single-endedforward channel	channel 1reverse channel	N/Adate	2023/12/03time	15:22:30forward acquisition time	300,00reverse acquisition time	0,00gamma	499,1914k internal	0,3196k external	0,3196temperature offset calibration	1,0000default loss term (dB/km)	0,3820temperature slope calibration	1,0000multiplexer offset coefficient	1,0000multiplexer slope coefficient	1,0000fibre end	0,00T internal ref (°C)	15,81T ext. ref 1 (°C)	0,49T ext. ref 2 (°C)	0,49length (m)	temperature (°C)	Stokes	anti-Stokes-744,400	50,766	-0,379	-0,261
-743,385	581,509	0,123	0,220
-742,371	-48,586	-0,228	-0,079
-741,356	-200,000	-0,039	0,314
-740,342	194,367	-0,163	-0,180
-739,327	-200,000	-0,008	0,310
-738,312	59,777	-0,287	-0,206
-737,298	670,148	0,165	0,313
-736,283	104,673	-0,269	-0,231
-735,269	-200,000	-0,077	0,353
-734,254	-72,465	-0,110	-0,029
-733,239	369,059	-0,178	0,264
-732,225	800,000	-0,070	-0,177
-731,210	-47,158	0,091	0,032
-730,196	510,773	-0,050	-0,085
-729,181	-45,736	-0,078	-0,028
-728,167	237,676	-0,081	-0,098
-727,152	91,088	-0,066	0,054
-726,137	61,449	-0,088	0,063
-725,123	250,491	-0,045	-0,056
-724,108	-90,517	-0,026	0,005
-723,094	421,893	-0,049	-0,077
-722,079	-111,763	0,038	0,006
-721,064	137,366	-0,049	0,047
-720,050	-200,000	0,007	0,031
-719,035	182,453	-0,071	0,076
-718,021	-110,978	0,051	-0,007
-717,006	-97,175	-0,040	0,007
-715,991	-200,000	0,059	0,000
-714,977	-121,203	-0,065	-0,008
-713,962	-113,565	-0,038	-0,005
-712,948	776,520	-0,034	-0,068
-711,933	-200,000	-0,001	0,020
-710,918	776,779	0,033	-0,065
-709,904	37,749	0,066	0,042
-708,889	709,170	0,017	0,034
-707,875	81,240	0,017	0,013
-706,860	800,000	0,016	0,040
-705,845	-200,000	-0,006	0,104
-704,831	800,000	0,030	0,079
-703,816	-200,000	-0,014	-0,109
-702,802	220,940	-0,058	-0,068
-701,787	19,378	-0,098	0,057
-700,772	179,797	-0,079	0,084
-699,758	-175,476	-0,074	-0,001
-698,743	-80,909	0,044	-0,011
-697,729	800,000	-0,037	-0,103
-696,714	41,773	-0,021	-0,014
-695,699	-11,810	0,093	0,044
-694,685	-200,000	-0,013	0,063
-693,670	-92,358	0,045	-0,009
-692,656	100,639	0,043	-0,037
-691,641	677,810	-0,014	0,027
-690,627	-151,654	0,055	-0,003
-689,612	81,162	-0,140	-0,110
-688,597	-59,449	-0,062	0,019
-687,583	-200,000	-0,015	-0,051
-686,568	232,289	-0,083	-0,099
-685,554	321,265	0,042	-0,059
-684,539	-200,000	-0,008	-0,055
-683,524	-200,000	0,024	-0,083
-682,510	51,454	-0,039	-0,027
-681,495	-200,000	-0,014	0,074
-680,481	-200,000	-0,005	-0,104
-679,466	-145,051	-0,048	-0,003
-678,451	-21,979	-0,100	0,044
-677,437	800,000	0,006	-0,013
-676,422	-200,000	-0,032	-0,109
-675,408	-67,583	0,075	0,021
-674,393	-200,000	-0,018	0,103
-673,378	64,719	-0,144	-0,105
-672,364	289,064	-0,070	-0,092
-671,349	800,000	-0,036	-0,078
-670,335	-136,537	0,090	0,007
-669,320	130,973	0,045	0,042
-668,305	800,000	-0,028	0,074
-667,291	-0,353	-0,028	-0,014
-666,276	800,000	0,032	0,085
-665,262	800,000	-0,015	0,034
-664,247	276,888	-0,113	-0,146
-663,232	-49,828	0,031	0,011
-662,218	-93,635	-0,058	0,012
-661,203	-17,033	-0,034	-0,016
-660,189	-200,000	-0,006	0,070
-659,174	-200,000	-0,013	0,048
-658,159	-158,970	0,029	0,001
-657,145	800,000	0,040	-0,116
-656,130	-145,304	-0,045	0,003
-655,116	800,000	0,013	-0,039
-654,101	652,723	0,046	-0,086
-653,086	165,743	0,005	-0,005
-652,072	129,588	-0,070	-0,065
-651,057	228,966	-0,089	-0,106
-650,043	800,000	-0,046	-0,141
-649,028	-200,000	0,008	0,114
-648,014	-200,000	0,017	0,057
-646,999	-200,000	0,018	-0,133
-645,984	-200,000	-0,024	-0,266
-644,970	48,028	-0,094	0,064
-643,955	70,762	0,101	-0,076
-642,941	-134,145	-0,061	-0,005
-641,926	99,247	-0,117	-0,098
-640,911	-147,185	0,093	-0,006
-639,897	800,000	-0,038	0,101
-638,882	122,191	-0,056	-0,051
-637,868	268,246	-0,070	0,089
-636,853	-200,000	0,010	-0,041
-635,838	-39,601	-0,061	0,023
-634,824	-95,165	0,133	-0,026
-633,809	800,000	0,028	-0,078
-632,795	-200,000	-0,004	0,020
-631,780	-200,000	-0,007	-0,039
-630,765	-182,585	-0,052	-0,001
-629,751	-200,000	0,038	-0,158
-628,736	73,075	-0,075	-0,057
-627,722	-200,000	0,018	-0,077
-626,707	-39,618	0,082	-0,031
-625,692	-52,382	0,043	-0,014
-624,678	13,778	0,037	-0,021
-623,663	193,583	-0,022	-0,025
-622,649	127,917	-0,004	0,004
-621,634	302,296	-0,068	-0,091
-620,619	800,000	-0,032	-0,080
-619,605	-54,289	0,061	-0,020
-618,590	-200,000	-0,001	-0,021
-617,576	800,000	-0,055	0,120
-616,561	251,845	0,019	-0,023
-615,546	31,599	-0,078	0,049
-614,532	-200,000	0,024	-0,167
-613,517	-200,000	0,017	-0,089
-612,503	567,611	-0,038	-0,068
-611,488	-51,454	0,060	0,020
-610,474	-103,664	0,176	0,030
-609,459	376,374	0,057	0,085
-608,444	-15,226	0,038	0,017
-607,430	-29,759	-0,162	0,067
-606,415	-200,000	-0,002	0,043
-605,401	355,927	0,011	0,015
-604,386	-200,000	-0,023	-0,098
-603,371	85,911	-0,012	0,010
-602,357	164,661	-0,073	-0,074
-601,342	-200,000	-0,031	-0,152
-600,328	-113,661	-0,108	-0,015
-599,313	800,000	0,033	-0,091
-598,298	-156,344	-0,116	0,005
-597,284	-145,780	-0,027	-0,002
-596,269	269,263	0,090	0,114
-595,255	128,265	0,026	-0,024
-594,240	-116,328	0,105	-0,014
-593,225	-180,017	-0,100	-0,002
-592,211	800,000	-0,030	-0,072
-591,196	800,000	-0,014	-0,028
-590,182	0,816	-0,107	-0,055
-589,167	800,000	0,043	-0,111
-588,152	-83,075	0,310	-0,072
-587,138	-173,908	-0,160	0,003
-586,123	172,921	0,067	-0,070
-585,109	-200,000	-0,002	0,035
-584,094	-200,000	-0,014	-0,094
-583,079	-200,000	-0,023	0,109
-582,065	-200,000	0,019	0,076
-581,050	-159,800	0,086	-0,003
-580,036	334,554	-0,079	0,111
-579,021	129,988	-0,029	-0,027
-578,006	524,364	-0,029	0,049
-576,992	109,725	0,123	0,107
-575,977	-28,149	-0,048	-0,020
-574,963	-200,000	0,000	0,059
-573,948	-200,000	0,014	-0,050
-572,934	-78,181	-0,064	0,016
-571,919	-200,000	-0,008	-0,128
-570,904	345,216	-0,019	-0,027
-569,890	-127,154	-0,122	0,013
-568,875	-200,000	0,005	0,028
-567,861	104,657	0,047	0,040
-566,846	-171,401	-0,050	0,001
-565,831	800,000	-0,018	0,058
-564,817	800,000	0,017	0,039
-563,802	-72,611	-0,130	-0,034
-562,788	299,038	0,077	-0,102
-561,773	544,954	0,052	-0,091
-560,758	452,219	0,047	-0,075
-559,744	-10,232	0,108	0,052
-558,729	-200,000	0,050	0,190
-557,715	-50,137	-0,123	0,042
-556,700	506,556	0,056	-0,094
-555,685	25,527	-0,037	-0,022
-554,671	-25,865	0,033	-0,014
-553,656	-200,000	0,003	0,051
-552,642	182,791	-0,026	-0,028
-551,627	216,541	0,059	-0,068
-550,612	-5,920	-0,127	-0,063
-549,598	-77,868	-0,151	-0,037
-548,583	-200,000	0,023	0,125
-547,569	-200,000	0,000	0,059
-546,554	-200,000	-0,006	-0,104
-545,539	-48,847	0,086	0,030
-544,525	-200,000	-0,003	-0,116
-543,510	16,642	0,142	-0,081
-542,496	-200,000	-0,030	-0,110
-541,481	1,274	0,057	0,029
-540,466	-79,404	0,034	0,008
-539,452	115,460	-0,039	0,034
-538,437	79,932	0,136	0,105
-537,423	-200,000	0,016	0,058
-536,408	44,213	-0,103	0,068
-535,393	-67,771	0,141	0,039
-534,379	-20,908	-0,052	-0,023
-533,364	24,901	-0,063	0,038
-532,350	8,359	0,107	0,058
-531,335	463,635	-0,054	0,088
-530,321	800,000	0,073	-0,154
-529,306	800,000	0,055	-0,124
-528,291	347,211	-0,066	-0,094
-527,277	47,118	-0,064	-0,043
-526,262	-30,120	-0,076	0,031
-525,248	395,662	0,015	-0,023
-524,233	-59,505	0,022	0,007
-523,218	800,000	-0,037	-0,113
-522,204	-200,000	0,032	0,130
-521,189	-29,918	0,116	-0,048
-520,175	306,960	-0,052	-0,070
-519,160	188,831	-0,083	-0,090
-518,145	-105,829	0,070	-0,011
-517,131	800,000	-0,047	0,095
-516,116	-116,842	0,097	-0,013
-515,102	66,337	-0,071	0,052
-514,087	800,000	-0,050	-0,116
-513,072	800,000	-0,048	-0,108
-512,058	-199,205	-0,028	-0,000
-511,043	40,061	0,111	-0,072
-510,029	28,666	-0,046	0,028
-509,014	-49,048	-0,087	-0,030
-507,999	-20,980	0,081	0,036
-506,985	203,478	0,126	-0,141
-505,970	706,917	0,063	-0,121
-504,956	-200,000	0,017	-0,073
-503,941	-116,909	0,060	0,008
-502,926	33,011	0,056	-0,035
-501,912	-107,789	0,061	0,010
-500,897	-200,000	-0,002	-0,069
-499,883	-23,607	-0,062	0,027
-498,868	17,824	-0,080	-0,046
-497,853	457,191	0,042	-0,068
-496,839	49,564	-0,102	-0,069
-495,824	16,026	0,086	0,049
-494,810	-200,000	0,030	0,140
-493,795	142,826	0,075	0,072
-492,781	-200,000	-0,021	0,096
-491,766	10,924	0,083	0,045
-490,751	102,774	0,041	-0,034
-489,737	-97,423	0,094	0,017
-488,722	645,334	0,070	-0,130
-487,708	-138,343	0,022	-0,002
-486,693	165,831	-0,070	0,072
-485,678	-171,081	-0,099	0,002
-484,664	87,912	-0,032	-0,026
-483,649	339,106	-0,077	-0,108
-482,635	309,711	0,067	-0,090
-481,620	-185,664	-0,112	0,001
-480,605	10,379	0,153	-0,084
-479,591	800,000	-0,025	0,076
-478,576	-134,520	0,038	-0,003
-477,562	141,461	-0,037	-0,036
-476,547	-200,000	-0,023	-0,080
-475,532	578,180	-0,060	-0,107
-474,518	238,362	0,052	0,063
-473,503	2,478	0,127	0,066
-472,489	-200,000	0,006	0,099
-471,474	-200,000	-0,020	0,114
-470,459	-149,908	0,069	-0,004
-469,445	-116,962	0,059	0,008
-468,430	-167,286	-0,058	-0,002
-467,416	7,693	0,042	-0,023
-466,401	434,858	-0,025	0,040
-465,386	5,527	0,095	-0,050
-464,372	-200,000	0,000	-0,088
-463,357	24,819	0,068	-0,040
-462,343	462,986	-0,019	-0,030
-461,328	800,000	0,013	-0,037
-460,313	48,501	0,008	-0,006
-459,299	581,279	-0,019	0,034
-458,284	167,457	-0,048	0,049
-457,270	122,641	-0,049	0,044
-456,255	160,490	-0,098	-0,099
-455,241	800,000	-0,037	0,080
-454,226	-200,000	-0,020	-0,139
-453,211	25,100	-0,092	0,055
-452,197	-200,000	-0,018	0,068
-451,182	-200,000	0,017	0,083
-450,168	800,000	-0,017	-0,038
-449,153	46,405	-0,085	0,056
-448,138	-24,869	-0,039	-0,017
-447,124	800,000	-0,025	-0,058
-446,109	-36,963	0,052	0,020
-445,095	-46,122	0,075	-0,027
-444,080	800,000	-0,040	0,104
-443,065	-81,072	0,123	0,029
-442,051	-64,469	-0,055	0,016
-441,036	64,854	-0,016	-0,012
-440,022	22,334	0,061	0,036
-439,007	-200,000	-0,017	-0,085
-437,992	-115,548	0,075	0,010
-436,978	800,000	0,013	-0,031
-435,963	-200,000	0,015	-0,062
-434,949	800,000	0,030	0,083
-433,934	-82,730	-0,077	0,018
-432,919	98,991	-0,075	0,062
-431,905	32,296	0,090	0,056
-430,890	800,000	-0,064	-0,129
-429,876	-200,000	0,021	0,081
-428,861	9,593	-0,066	0,036
-427,846	178,931	0,051	-0,054
-426,832	-200,000	-0,002	-0,032
-425,817	546,516	-0,079	0,137
-424,803	263,121	0,033	0,042
-423,788	245,515	0,102	0,124
-422,773	94,342	-0,073	0,060
-421,759	319,719	-0,103	0,141
-420,744	138,097	0,045	-0,042
-419,730	-200,000	0,002	0,089
-418,715	-200,000	-0,003	-0,038
-417,701	508,472	0,048	-0,081
-416,686	-25,807	0,101	0,043
-415,671	-54,908	-0,100	-0,032
-414,657	218,619	0,079	0,090
-413,642	-200,000	-0,022	0,073
-412,628	-18,813	0,053	-0,023
-411,613	88,876	-0,055	0,044
-410,598	89,277	0,107	-0,086
-409,584	51,752	-0,060	0,041
-408,569	235,781	-0,110	0,131
-407,555	365,358	0,012	0,018
-406,540	356,222	-0,057	-0,082
-405,525	-92,686	-0,074	0,015
-404,511	-200,000	-0,003	-0,026
-403,496	81,952	-0,117	-0,091
-402,482	468,686	0,048	-0,078
-401,467	683,046	-0,049	-0,093
-400,452	-200,000	0,013	0,078
-399,438	51,058	-0,097	0,066
-398,423	800,000	-0,010	0,020
-397,409	-200,000	-0,003	-0,059
-396,394	-200,000	0,036	-0,183
-395,379	6,049	0,102	-0,054
-394,365	-37,199	0,046	-0,017
-393,350	-200,000	0,015	-0,080
-392,336	-200,000	-0,005	0,057
-391,321	18,045	-0,061	0,035
-390,306	-200,000	0,020	-0,168
-389,292	592,563	-0,027	0,049
-388,277	270,119	-0,132	0,167
-387,263	-25,351	-0,071	-0,030
-386,248	183,588	-0,091	-0,097
-385,233	-200,000	0,045	0,194
-384,219	-89,292	0,062	0,013
-383,204	134,694	-0,144	0,135
-382,190	-131,866	-0,047	-0,004
-381,175	-200,000	0,013	-0,099
-380,160	161,779	0,094	-0,095
-379,146	615,823	0,019	0,034
-378,131	-109,806	-0,072	0,011
-377,117	800,000	-0,011	-0,028
-376,102	-57,387	-0,088	0,028
-375,088	-200,000	-0,045	-0,251
-374,073	-200,000	0,029	-0,120
-373,058	800,000	-0,027	-0,079
-372,044	211,371	-0,030	-0,034
-371,029	54,841	-0,096	0,066
-370,015	118,410	0,185	0,164
-369,000	515,634	-0,050	-0,084
-367,985	478,519	0,041	-0,067
-366,971	-2,346	-0,084	-0,042
-365,956	-19,219	0,086	0,038
-364,942	-200,000	0,005	0,035
-363,927	-174,645	0,043	-0,001
-362,912	-108,843	-0,088	0,013
-361,898	-40,956	-0,023	-0,008
-360,883	800,000	-0,033	-0,093
-359,869	-200,000	0,018	0,080
-358,854	-134,510	-0,130	-0,011
-357,839	-6,142	0,110	0,054
-356,825	800,000	-0,004	0,010
-355,810	57,647	-0,015	0,010
-354,796	-200,000	-0,032	0,113
-353,781	-46,016	-0,116	-0,041
-352,766	-171,347	0,015	-0,000
-351,752	-35,137	0,059	-0,023
-350,737	306,355	0,047	-0,062
-349,723	-27,577	-0,021	0,009
-348,708	-145,273	-0,094	0,006
-347,693	114,701	-0,027	0,024
-346,679	-200,000	-0,017	0,098
-345,664	-79,046	0,098	0,024
-344,650	4,594	-0,064	-0,034
-343,635	124,713	0,090	-0,081
-342,620	-200,000	-0,018	0,141
-341,606	38,776	-0,082	-0,052
-340,591	160,374	0,077	0,077
-339,577	143,176	-0,068	0,064
-338,562	-29,269	-0,107	0,044
-337,548	-200,000	-0,002	-0,110
-336,533	34,328	-0,050	-0,031
-335,518	92,118	-0,058	0,047
-334,504	25,669	0,091	-0,054
-333,489	246,084	-0,078	-0,094
-332,475	33,714	-0,013	-0,008
-331,460	-91,977	-0,063	0,013
-330,445	191,154	-0,052	-0,056
-329,431	800,000	0,083	0,170
-328,416	-154,473	-0,045	0,002
-327,402	527,176	-0,028	0,047
-326,387	-89,061	0,174	-0,037
-325,372	182,409	0,052	0,055
-324,358	3,581	-0,074	0,038
-323,343	800,000	0,063	0,164
-322,329	-9,653	0,099	-0,047
-321,314	-197,033	0,023	-0,000
-320,299	46,200	-0,114	0,075
-319,285	136,715	0,080	-0,075
-318,270	-106,671	-0,113	0,018
-317,256	8,592	-0,191	-0,102
-316,241	-200,000	0,012	-0,151
-315,226	91,166	-0,084	-0,068
-314,212	275,559	0,129	0,164
-313,197	-200,000	0,000	0,156
-312,183	20,735	-0,127	0,073
-311,168	800,000	-0,037	-0,077
-310,153	360,264	-0,058	0,083
-309,139	-200,000	-0,008	-0,063
-308,124	143,207	-0,068	0,064
-307,110	105,847	0,058	-0,049
-306,095	-104,194	0,126	0,021
-305,080	800,000	0,050	0,107
-304,066	46,115	-0,112	0,074
-303,051	-200,000	-0,016	0,065
-302,037	-200,000	0,005	-0,112
-301,022	725,906	0,030	0,058
-300,008	-200,000	-0,060	0,196
-298,993	800,000	-0,031	0,080
-297,978	800,000	-0,062	0,125
-296,964	-200,000	0,013	0,054
-295,949	-103,703	0,047	0,008
-294,935	132,823	-0,061	-0,056
-293,920	192,394	-0,022	-0,023
-292,905	98,145	-0,112	0,092
-291,891	-87,212	0,088	0,019
-290,876	-25,123	-0,157	0,066
-289,862	6,058	0,071	-0,037
-288,847	299,150	-0,138	-0,182
-287,832	-122,070	0,127	-0,015
-286,818	54,974	-0,074	-0,051
-285,803	151,079	0,039	0,038
-284,789	449,089	-0,073	0,116
-283,774	800,000	-0,022	0,062
-282,759	136,078	0,087	0,082
-281,745	95,813	-0,041	0,033
-280,730	-200,000	0,019	-0,098
-279,716	-92,542	0,093	-0,019
-278,701	-48,680	0,162	0,055
-277,686	15,912	-0,095	0,053
-276,672	-200,000	0,009	0,057
-275,657	-77,585	0,127	0,031
-274,643	-138,321	0,079	-0,006
-273,628	-200,000	-0,005	-0,038
-272,613	193,465	-0,012	-0,013
-271,599	-2,243	0,204	0,102
-270,584	800,000	0,011	-0,028
-269,570	-186,734	0,113	-0,001
-268,555	-111,463	0,057	-0,008
-267,540	-200,000	0,024	-0,170
-266,526	-8,467	-0,016	0,008
-265,511	103,793	0,152	-0,128
-264,497	36,417	-0,081	-0,051
-263,482	800,000	0,018	0,040
-262,467	406,390	0,036	-0,055
-261,453	-5,497	-0,104	0,051
-260,438	-200,000	-0,003	-0,118
-259,424	42,927	-0,029	-0,019
-258,409	-112,779	-0,157	0,022
-257,395	-200,000	-0,011	0,062
-256,380	-145,645	0,098	-0,006
-255,365	118,812	0,074	-0,065
-254,351	240,693	0,054	-0,064
-253,336	-200,000	0,016	0,070
-252,322	6,452	0,060	0,032
-251,307	499,108	-0,034	-0,056
-250,292	-144,477	-0,015	0,001
-249,278	-200,000	0,015	0,048
-248,263	-28,823	0,077	-0,032
-247,249	9,512	0,106	0,057
-246,234	162,129	-0,081	-0,081
-245,219	-105,695	0,067	0,011
-244,205	-78,062	-0,135	0,033
-243,190	-95,738	0,056	-0,011
-242,176	392,002	-0,047	0,070
-241,161	64,201	0,122	0,088
-240,146	276,258	-0,094	0,119
-239,132	45,234	-0,131	0,086
-238,117	-71,274	0,069	0,018
-237,103	-35,697	-0,098	-0,038
-236,088	-117,951	0,107	-0,013
-235,073	-200,000	-0,003	0,125
-234,059	-200,000	-0,000	0,054
-233,044	704,318	0,052	0,099
-232,030	-200,000	-0,014	-0,064
-231,015	517,455	-0,033	-0,055
-230,000	-78,102	-0,107	0,026
-228,986	-11,932	-0,046	0,021
-227,971	37,302	0,033	-0,021
-226,957	44,054	0,102	0,067
-225,942	-94,629	-0,126	0,024
-224,927	270,018	-0,076	0,095
-223,913	-116,724	-0,068	-0,009
-222,898	800,000	0,026	-0,058
-221,884	800,000	-0,030	-0,090
-220,869	189,685	0,082	-0,087
-219,855	122,066	0,080	0,071
-218,840	149,975	-0,066	0,064
-217,825	73,306	0,082	-0,061
-216,811	38,621	-0,099	-0,063
-215,796	800,000	0,021	-0,045
-214,782	1,933	0,108	-0,056
-213,767	3,601	-0,111	0,057
-212,752	1,711	0,072	0,037
-211,738	-129,646	0,123	0,012
-210,723	-142,989	0,128	0,009
-209,709	800,000	0,033	0,084
-208,694	96,821	0,011	0,009
-207,679	587,282	0,057	-0,100
-206,665	49,488	-0,067	-0,045
-205,650	-200,000	0,014	0,135
-204,636	-200,000	-0,010	0,070
-203,621	-200,000	0,009	0,102
-202,606	-43,651	0,102	0,037
-201,592	-46,712	-0,220	-0,076
-200,577	3,058	-0,034	-0,018
-199,563	-128,709	0,053	0,005
-198,548	213,840	0,061	0,068
-197,533	706,207	-0,019	0,036
-196,519	-200,000	-0,022	0,108
-195,504	-112,205	-0,082	-0,012
-194,490	114,258	0,102	-0,088
-193,475	-8,321	-0,031	0,015
-192,460	-200,000	-0,006	-0,035
-191,446	800,000	0,038	0,113
-190,431	1,200	0,098	0,050
-189,417	-62,070	0,068	0,020
-188,402	-200,000	-0,011	-0,124
-187,387	-200,000	0,003	0,047
-186,373	-200,000	0,018	-0,105
-185,358	800,000	0,068	0,187
-184,344	-19,528	0,125	0,055
-183,329	727,977	-0,051	0,098
-182,315	7,235	0,047	0,025
-181,300	-200,000	0,014	-0,047
-180,285	-200,000	-0,028	-0,158
-179,271	-101,024	0,110	-0,019
-178,256	542,983	-0,027	-0,046
-177,242	-200,000	-0,017	0,113
-176,227	-146,054	0,061	-0,004
-175,212	322,066	0,012	0,017
-174,198	-200,000	0,017	0,056
-173,183	182,715	-0,061	0,064
-172,169	30,058	-0,060	-0,037
-171,154	-200,000	-0,013	-0,218
-170,139	-86,026	0,085	-0,019
-169,125	800,000	0,052	0,152
-168,110	-79,309	0,100	0,024
-167,096	-72,261	0,035	0,009
-166,081	-127,819	0,004	0,000
-165,066	-154,063	-0,070	-0,003
-164,052	-83,154	-0,034	-0,008
-163,037	1,624	0,159	0,081
-162,023	800,000	0,030	0,061
-161,008	-62,526	-0,104	0,031
-159,993	393,934	-0,053	0,079
-158,979	-170,240	-0,123	-0,003
-157,964	-200,000	0,034	0,120
-156,950	-200,000	0,004	-0,113
-155,935	-30,841	-0,169	-0,068
-154,920	74,193	0,047	-0,035
-153,906	407,343	-0,086	0,130
-152,891	-129,144	0,146	0,014
-151,877	122,145	-0,113	0,100
-150,862	-200,000	0,005	0,132
-149,847	-94,252	-0,111	0,021
-148,833	668,665	-0,052	0,096
-147,818	-41,278	0,097	0,035
-146,804	6,781	0,114	0,060
-145,789	-24,858	-0,079	-0,033
-144,775	294,886	-0,096	-0,125
-143,760	800,000	0,063	-0,131
-142,745	-200,000	0,028	0,142
-141,731	-159,643	0,167	0,006
-140,716	-119,846	0,057	-0,007
-139,702	-200,000	-0,003	-0,031
-138,687	312,613	0,070	0,094
-137,672	-61,262	0,105	0,031
-136,658	753,545	-0,071	0,137
-135,643	-130,321	0,071	-0,007
-134,629	108,955	0,145	-0,123
-133,614	-88,834	0,018	0,004
-132,599	800,000	0,034	0,101
-131,585	-200,000	-0,033	0,109
-130,570	-69,015	0,060	0,016
-129,556	-200,000	0,021	-0,275
-128,541	-200,000	-0,019	0,103
-127,526	94,661	0,036	0,029
-126,512	-175,253	0,057	0,001
-125,497	-71,503	0,046	-0,012
-124,483	-200,000	-0,007	-0,064
-123,468	637,671	-0,045	-0,082
-122,453	-184,377	-0,219	0,002
-121,439	-98,977	-0,052	0,009
-120,424	-82,318	-0,038	-0,009
-119,410	428,462	0,075	-0,115
-118,395	800,000	-0,031	0,093
-117,380	15,225	-0,068	-0,038
-116,366	-200,000	-0,013	0,109
-115,351	43,610	0,136	0,089
-114,337	-13,340	-0,097	-0,044
-113,322	-200,000	-0,001	0,134
-112,307	-200,000	-0,033	-0,105
-111,293	203,682	-0,039	0,043
-110,278	35,439	-0,028	0,017
-109,264	800,000	-0,013	0,039
-108,249	800,000	-0,003	-0,007
-107,234	320,135	0,054	-0,073
-106,220	800,000	0,029	0,061
-105,205	-200,000	0,012	-0,131
-104,191	188,636	-0,055	0,058
-103,176	-200,000	-0,008	0,045
-102,162	-75,970	-0,031	-0,008
-101,147	22,702	-0,085	-0,049
-100,132	-189,202	-0,171	-0,001
-99,118	57,981	0,018	-0,012
-98,103	9,465	-0,140	-0,075
-97,089	29,977	0,155	-0,094
-96,074	-124,304	-0,074	0,008
-95,059	289,214	0,021	0,027
-94,045	635,799	0,043	0,077
-93,030	-200,000	-0,026	-0,101
-92,016	-34,673	-0,082	-0,032
-91,001	790,839	-0,017	0,033
-89,986	162,984	-0,083	0,083
-88,972	364,822	-0,034	0,048
-87,957	95,412	0,090	-0,073
-86,943	-1,290	-0,094	-0,047
-85,928	-2,816	-0,124	0,061
-84,913	-54,630	0,094	0,030
-83,899	30,902	-0,049	0,030
-82,884	268,173	0,017	0,021
-81,870	-45,210	0,152	0,053
-80,855	196,648	0,152	-0,165
-79,840	-94,376	-0,083	-0,016
-78,826	-111,816	-0,076	-0,011
-77,811	800,000	-0,032	-0,097
-76,797	-99,040	-0,104	0,019
-75,782	-146,466	0,055	-0,003
-74,767	234,975	0,112	-0,132
-73,753	-151,818	0,032	-0,002
-72,738	-200,000	0,042	-0,213
-71,724	-200,000	-0,008	-0,056
-70,709	147,394	0,071	-0,067
-69,694	800,000	0,032	-0,071
-68,680	38,999	0,042	-0,027
-67,665	800,000	-0,013	0,040
-66,651	-163,667	0,156	-0,005
-65,636	800,000	0,064	0,162
-64,622	3,181	0,069	-0,036
-63,607	116,121	-0,038	-0,033
-62,592	-200,000	-0,011	-0,147
-61,578	-200,000	0,010	-0,098
-60,563	-45,562	0,061	0,021
-59,549	-118,927	-0,032	-0,004
-58,534	-73,387	-1,405	-0,361
-57,519	422,990	-1,481	-2,264
-56,505	-200,000	-0,604	-4,448
-55,490	177,192	1,095	1,132
-54,476	800,000	4,542	10,828
-53,461	-200,000	17,797	284,659
-52,446	800,000	721,886	2233,755
-51,432	563,261	1637,142	2821,505
-50,417	81,013	1660,378	1269,536
-49,403	23,667	1534,363	893,476
-48,388	17,652	1457,807	819,843
-47,373	18,184	1447,406	816,518
-46,359	17,781	1437,911	809,202
-45,344	15,956	1433,304	797,887
-44,330	15,883	1431,284	796,384
-43,315	15,886	1429,455	795,350
-42,300	15,841	1428,156	794,385
-41,286	15,884	1426,937	793,880
-40,271	15,867	1425,457	792,941
-39,257	15,909	1424,295	792,463
-38,242	15,913	1422,832	791,638
-37,227	15,943	1421,680	791,107
-36,213	15,912	1420,566	790,310
-35,198	15,902	1419,327	789,541
-34,184	15,939	1418,277	789,099
-33,169	15,886	1417,071	788,148
-32,154	15,918	1415,910	787,622
-31,140	15,934	1414,524	786,895
-30,125	15,931	1413,575	786,321
-29,111	15,919	1412,268	785,505
-28,096	15,869	1411,230	784,662
-27,082	15,826	1410,150	783,831
-26,067	15,823	1409,068	783,182
-25,052	15,853	1407,989	782,694
-24,038	15,825	1407,204	782,096
-23,023	15,798	1406,094	781,322
-22,009	15,805	1405,019	780,724
-20,994	15,784	1404,000	780,031
-19,979	15,822	1403,328	779,805
-18,965	15,720	1402,354	778,757
-17,950	15,721	1401,253	778,116
-16,936	15,767	1400,224	777,730
-15,921	15,768	1398,929	776,986
-14,906	15,790	1397,890	776,480
-13,892	15,751	1397,136	775,847
-12,877	15,757	1396,164	775,304
-11,863	15,706	1395,421	774,624
-10,848	15,744	1394,560	774,294
-9,833	15,723	1393,558	773,610
-8,819	15,696	1392,452	772,840
-7,804	15,625	1391,705	772,063
-6,790	15,682	1390,428	771,591
-5,775	15,586	1389,727	770,728
-4,760	15,624	1388,723	770,316
-3,746	15,610	1388,028	769,832
-2,731	15,635	1387,206	769,465
-1,717	15,601	1386,264	768,755
-0,702	15,622	1384,378	767,775
0,313	19,343	1304,715	740,800
1,327	35,579	706,941	439,045
2,342	54,377	125,296	85,375
3,356	3,107	16,631	8,539
4,371	16,570	3,082	1,721
5,386	-2,815	0,491	0,242
6,400	687,116	0,043	0,079
7,415	10,697	-0,203	-0,109
8,429	105,428	-0,262	-0,219
9,444	162,237	-0,250	-0,249
10,459	31,633	-0,197	-0,120
11,473	-34,662	-0,338	-0,130
12,488	779,357	-0,188	-0,365
13,502	-89,434	-0,373	-0,077
14,517	-48,206	-0,427	-0,145
15,531	38,595	-0,255	-0,161
16,546	128,637	-0,300	-0,271
17,561	63,064	-0,333	-0,235
18,575	356,742	-0,151	-0,213
19,590	60,042	-0,180	-0,126
20,604	5,675	-0,272	-0,142
21,619	105,666	-0,414	-0,346
22,634	45,027	-0,592	-0,385
23,648	172,629	-0,357	-0,363
24,663	201,413	-0,365	-0,398
25,677	-1,592	-0,455	-0,226
26,692	192,742	-0,277	-0,296
27,707	-24,615	-0,379	-0,159
28,721	86,554	-0,379	-0,295
29,736	61,803	-0,376	-0,264
30,750	-39,362	-0,466	-0,172
31,765	83,879	-0,339	-0,262
32,780	64,682	-0,397	-0,283
33,794	-82,547	-0,446	-0,101
34,809	101,155	-0,292	-0,240
35,823	33,797	-0,418	-0,257
36,838	165,440	-0,417	-0,416
37,853	99,582	-0,303	-0,247
38,867	115,441	-0,345	-0,298
39,882	171,605	-0,309	-0,313
40,896	113,070	-0,283	-0,242
41,911	-28,211	-0,494	-0,201
42,926	174,342	-0,250	-0,256
43,940	57,874	-0,368	-0,254
44,955	46,782	-0,378	-0,248
45,969	376,506	-0,282	-0,407
46,984	35,605	-0,395	-0,244
47,999	105,206	-0,377	-0,314
49,013	-192,077	-0,315	-0,002
50,028	75,877	-0,319	-0,238
51,042	75,842	-0,378	-0,282
52,057	81,192	-0,320	-0,244
53,071	24,694	-0,395	-0,230
54,086	116,541	-0,388	-0,335
55,101	629,586	-0,077	-0,138
56,115	61,993	-0,477	-0,335
57,130	27,653	-0,401	-0,237
58,144	-11,240	-0,413	-0,191
59,159	211,302	-0,338	-0,375
60,174	28,275	-0,265	-0,158
61,188	-31,933	-0,429	-0,168
62,203	80,490	-0,250	-0,190
63,217	800,000	-0,120	-0,270
64,232	-142,466	-0,244	-0,017
65,247	192,864	-0,268	-0,286
66,261	36,876	-0,377	-0,234
67,276	119,526	-0,395	-0,345
68,290	46,083	-0,377	-0,246
69,305	800,000	-0,205	-0,477
70,320	167,996	-0,182	-0,182
71,334	-82,910	-0,359	-0,081
72,349	3,952	-0,309	-0,158
73,363	153,546	-0,295	-0,284
74,378	101,146	-0,342	-0,280
75,393	-4,787	-0,383	-0,185
76,407	112,447	-0,279	-0,238
77,422	163,081	-0,169	-0,167
78,436	-43,827	-0,376	-0,132
79,451	26,950	-0,364	-0,214
80,466	-160,231	-0,246	-0,009
81,480	72,900	-0,284	-0,208
82,495	219,374	-0,270	-0,304
83,509	18,116	-0,388	-0,217
84,524	211,295	-0,236	-0,262
85,539	-1,587	-0,263	-0,130
86,553	161,005	-0,239	-0,235
87,568	-40,343	-0,350	-0,127
88,582	84,978	-0,266	-0,205
89,597	-74,052	-0,400	-0,101
90,611	13,402	-0,207	-0,113
91,626	-83,886	-0,434	-0,096
92,641	83,259	-0,240	-0,183
93,655	22,578	-0,382	-0,219
94,670	121,033	-0,354	-0,310
95,684	160,850	-0,259	-0,254
96,699	-99,346	-0,300	-0,053
97,714	116,834	-0,287	-0,248
98,728	-100,206	-0,299	0,052
99,743	173,872	-0,264	-0,268
100,757	-0,653	-0,389	-0,193
101,772	-28,855	-0,418	-0,168
102,787	546,965	-0,130	-0,219
103,801	417,535	-0,174	-0,262
104,816	-57,077	-0,206	-0,063
105,830	45,872	-0,269	-0,174
106,845	175,098	-0,244	-0,248
107,860	-45,685	-0,289	-0,100
108,874	-95,349	-0,319	-0,060
109,889	23,509	-0,300	-0,173
110,903	70,669	-0,182	-0,132
111,918	-20,362	-0,287	-0,124
112,933	68,448	-0,242	-0,174
113,947	-19,948	-0,301	-0,130
114,962	-38,963	-0,273	-0,100
115,976	346,168	-0,130	-0,180
116,991	67,401	-0,183	-0,131
118,006	77,373	-0,274	-0,204
119,020	42,093	-0,224	-0,143
120,035	253,243	-0,234	-0,280
121,049	113,261	-0,208	-0,177
122,064	88,292	-0,132	-0,103
123,079	-168,320	-0,208	0,006
124,093	-1,603	-0,176	-0,087
125,108	-121,323	-0,223	0,026
126,122	-77,425	-0,354	-0,086
127,137	75,319	-0,252	-0,186
128,151	-64,812	-0,163	-0,046
129,166	75,652	-0,269	-0,199
130,181	39,065	-0,256	-0,160
131,195	-16,058	-0,281	-0,124
132,210	25,589	-0,282	-0,164
133,224	-18,920	-0,244	-0,106
134,239	49,222	-0,186	-0,122
135,254	168,858	-0,134	-0,134
136,268	32,504	-0,180	-0,108
137,283	-103,324	-0,252	-0,041
138,297	59,878	-0,209	-0,144
139,312	263,709	-0,185	-0,225
140,327	112,726	-0,212	-0,180
141,341	15,035	-0,143	-0,078
142,356	10,777	-0,205	-0,109
143,370	275,865	-0,162	-0,201
144,385	1,031	-0,388	-0,194
145,400	227,987	-0,190	-0,217
146,414	53,436	-0,227	-0,152
147,429	200,444	-0,261	-0,281
148,443	66,969	-0,261	-0,186
149,458	407,767	-0,126	-0,187
150,473	230,333	-0,194	-0,222
151,487	-10,570	-0,288	-0,133
152,502	-2,286	-0,235	-0,115
153,516	466,244	-0,163	-0,256
154,531	70,430	-0,198	-0,143
155,546	89,626	-0,292	-0,228
156,560	57,758	-0,287	-0,196
157,575	38,286	-0,254	-0,158
158,589	264,461	-0,125	-0,153
159,604	215,229	-0,166	-0,184
160,619	489,349	-0,137	-0,219
161,633	196,014	-0,218	-0,232
162,648	192,684	-0,247	-0,261
163,662	-80,957	-0,181	-0,042
164,677	289,890	-0,146	-0,185
165,692	66,933	-0,207	-0,147
166,706	135,240	-0,212	-0,193
167,721	5,725	-0,205	-0,105
168,735	229,001	-0,207	-0,236
169,750	-42,211	-0,159	-0,057
170,764	144,672	-0,176	-0,165
171,779	-24,500	-0,311	-0,129
172,794	633,072	-0,133	-0,237
173,808	84,188	-0,216	-0,165
174,823	391,006	-0,233	-0,339
175,837	124,381	-0,210	-0,184
176,852	145,910	-0,203	-0,190
177,867	23,692	-0,207	-0,118
178,881	78,559	-0,214	-0,159
179,896	561,453	-0,143	-0,243
180,910	128,111	-0,203	-0,180
181,925	278,369	-0,181	-0,226
182,940	192,839	-0,161	-0,170
183,954	800,000	-0,110	-0,267
184,969	-14,036	-0,290	-0,130
185,983	797,721	-0,116	-0,224
186,998	800,000	-0,138	-0,317
188,013	24,347	-0,259	-0,149
189,027	5,570	-0,248	-0,127
190,042	708,188	-0,166	-0,307
191,056	46,814	-0,348	-0,225
192,071	-58,732	-0,274	-0,082
193,086	-34,948	-0,196	-0,074
194,100	-200,000	-0,001	-0,248
195,115	-86,624	-0,300	0,063
196,129	34,571	-0,271	-0,164
197,144	-200,000	-0,067	-0,226
198,159	37,960	-0,334	-0,206
199,173	105,890	-0,184	-0,151
200,188	-108,128	-0,087	0,013
201,202	33,621	-0,043	-0,026
202,217	16,855	-0,253	-0,139
203,232	-59,598	-0,242	-0,072
204,246	59,374	-0,239	-0,164
205,261	666,702	-0,156	-0,281
206,275	34,919	-0,272	-0,165
207,290	238,497	-0,170	-0,196
208,304	6,708	-0,224	-0,116
209,319	165,082	-0,169	-0,167
210,334	-0,603	-0,262	-0,129
211,348	143,248	-0,111	-0,103
212,363	39,130	-0,192	-0,119
213,377	138,084	-0,221	-0,202
214,392	-23,025	-0,158	-0,066
215,407	10,026	-0,210	-0,111
216,421	82,515	-0,212	-0,160
217,436	136,061	-0,131	-0,119
218,450	538,589	-0,103	-0,171
219,465	370,018	-0,232	-0,328
220,480	192,108	-0,167	-0,175
221,494	54,650	-0,147	-0,099
222,509	-200,000	0,008	-0,189
223,523	800,000	-0,059	-0,169
224,538	-24,173	-0,274	-0,113
225,553	94,534	-0,209	-0,165
226,567	469,487	-0,073	-0,115
227,582	204,066	-0,195	-0,210
228,596	-180,469	-0,054	0,001
229,611	224,290	-0,091	-0,102
230,626	-127,001	-0,173	0,017
231,640	258,343	-0,226	-0,270
232,655	-58,876	-0,190	-0,057
233,669	8,731	-0,223	-0,116
234,684	-49,076	-0,247	-0,082
235,699	52,248	-0,157	-0,103
236,713	382,938	-0,135	-0,193
237,728	171,122	-0,144	-0,143
238,742	-76,440	-0,196	-0,047
239,757	309,103	-0,139	-0,181
240,772	800,000	-0,109	-0,279
241,786	-37,793	-0,246	-0,091
242,801	34,151	-0,233	-0,141
243,815	-0,498	-0,124	-0,061
244,830	130,188	-0,126	-0,112
245,844	98,304	-0,136	-0,109
246,859	55,749	-0,244	-0,164
247,874	-5,037	-0,195	-0,093
248,888	-7,052	-0,143	-0,067
249,903	800,000	-0,042	-0,081
250,917	-60,830	-0,155	-0,045
251,932	153,540	-0,116	-0,110
252,947	-94,691	-0,092	-0,017
253,961	139,611	-0,168	-0,153
254,976	115,485	-0,150	-0,127
255,990	94,302	-0,216	-0,170
257,005	42,197	-0,222	-0,140
258,020	136,179	-0,234	-0,211
259,034	-162,698	-0,175	-0,006
260,049	-23,816	-0,283	-0,117
261,063	521,529	-0,116	-0,189
262,078	408,400	-0,081	-0,120
263,093	40,133	-0,157	-0,098
264,107	77,372	-0,247	-0,182
265,122	800,000	-0,077	-0,172
266,136	-200,000	-0,026	-0,093
267,151	-69,858	-0,144	-0,038
268,166	364,469	-0,091	-0,127
269,180	259,809	-0,229	-0,275
270,195	249,946	-0,133	-0,156
271,209	61,212	-0,201	-0,138
272,224	-200,000	0,000	-0,177
273,239	-23,426	-0,167	-0,069
274,253	27,783	-0,211	0,122
275,268	-94,158	-0,170	0,032
276,282	8,022	-0,190	-0,098
277,297	97,760	-0,243	-0,193
278,312	158,487	-0,188	-0,180
279,326	290,594	-0,120	-0,151
280,341	800,000	-0,107	-0,213
281,355	122,322	-0,054	-0,046
282,370	97,096	-0,146	-0,115
283,384	-56,681	-0,224	-0,068
284,399	74,822	-0,145	-0,105
285,414	64,479	-0,114	-0,079
286,428	-58,134	-0,194	-0,058
287,443	-9,234	-0,066	-0,030
288,457	-137,325	-0,139	0,011
289,472	196,944	-0,164	-0,173
290,487	-71,495	-0,141	-0,036
291,501	-91,618	-0,220	-0,043
292,516	800,000	-0,114	-0,277
293,530	-3,989	-0,119	-0,057
294,545	-200,000	0,007	-0,030
295,560	48,505	-0,155	-0,100
296,574	129,702	-0,205	-0,181
297,589	34,504	-0,134	-0,081
298,603	774,544	-0,095	-0,180
299,618	121,346	-0,145	-0,125
300,633	-104,198	-0,210	0,033
301,647	436,503	-0,145	-0,219
302,662	-145,326	-0,090	-0,006
303,676	-82,479	-0,204	-0,045
304,691	238,437	-0,158	-0,181
305,706	369,480	-0,064	-0,090
306,720	65,557	-0,156	-0,109
307,735	-9,095	-0,111	-0,051
308,749	348,851	-0,078	-0,107
309,764	-122,331	-0,265	-0,029
310,779	288,080	-0,088	-0,111
311,793	54,793	-0,117	-0,078
312,808	90,582	-0,209	-0,161
313,822	146,885	-0,242	-0,224
314,837	-200,000	0,025	-0,331
315,852	118,295	-0,197	-0,168
316,866	800,000	-0,083	-0,159
317,881	-134,047	-0,045	0,004
318,895	79,642	-0,151	-0,111
319,910	227,518	-0,174	-0,195
320,925	77,673	-0,165	-0,121
321,939	-7,703	-0,186	-0,086
322,954	-200,000	-0,013	-0,103
323,968	152,268	-0,080	-0,075
324,983	12,616	-0,121	-0,064
325,997	-54,012	-0,172	-0,054
327,012	24,612	-0,159	-0,091
328,027	211,229	-0,104	-0,112
329,041	566,362	-0,148	-0,248
330,056	800,000	-0,065	-0,163
331,070	-200,000	-0,018	-0,147
332,085	12,470	-0,141	-0,074
333,100	286,120	-0,088	-0,109
334,114	268,339	-0,131	-0,158
335,129	27,723	-0,242	-0,140
336,143	-200,000	-0,015	-0,123
337,158	27,413	-0,174	-0,100
338,173	171,400	-0,172	-0,170
339,187	800,000	-0,040	-0,086
340,202	-30,454	-0,188	-0,073
341,216	-8,564	-0,245	-0,113
342,231	53,847	-0,096	-0,063
343,246	-200,000	-0,034	-0,126
344,260	411,588	-0,048	-0,071
345,275	252,461	0,051	-0,060
346,289	170,046	-0,071	-0,070
347,304	-200,000	0,012	-0,114
348,319	-30,805	-0,088	0,034
349,333	225,227	-0,117	-0,130
350,348	26,202	-0,207	-0,118
351,362	45,834	-0,239	-0,152
352,377	-74,014	-0,075	0,018
353,392	194,675	-0,096	-0,100
354,406	130,060	-0,094	0,083
355,421	208,049	1315,480	1413,748
356,435	160,071	1476,316	1414,273
