DTS Sentinel unit serial number:	SN410029Multiplexer serial number:	ORYXHardware model number:	OX2-SRSoftware version number:	ORYX F/W v4,00 Oryx Data Collector v3.7.2.0data status	okinstallation	B3 Nyhavnadifferential loss correction	single-endedforward channel	channel 1reverse channel	N/Adate	2023/12/05time	01:37:30forward acquisition time	300,00reverse acquisition time	0,00gamma	499,1914k internal	0,3200k external	0,3200temperature offset calibration	1,0000default loss term (dB/km)	0,3820temperature slope calibration	1,0000multiplexer offset coefficient	1,0000multiplexer slope coefficient	1,0000fibre end	0,00T internal ref (°C)	13,81T ext. ref 1 (°C)	-0,93T ext. ref 2 (°C)	-0,98length (m)	temperature (°C)	Stokes	anti-Stokes-744,400	482,438	-0,078	-0,129
-743,385	-200,000	-0,042	0,388
-742,371	197,013	-0,126	-0,140
-741,356	-200,000	0,089	0,412
-740,342	47,399	-0,209	-0,141
-739,327	-200,000	0,021	0,197
-738,312	374,066	-0,171	-0,254
-737,298	-200,000	0,004	0,142
-736,283	581,723	-0,150	-0,268
-735,269	-200,000	-0,059	0,272
-734,254	-26,087	-0,270	-0,115
-733,239	36,286	-0,205	0,131
-732,225	-200,000	-0,001	-0,142
-731,210	408,508	0,042	0,065
-730,196	-200,000	-0,016	0,068
-729,181	800,000	-0,066	-0,152
-728,167	-29,894	-0,100	0,041
-727,152	346,662	0,026	0,037
-726,137	431,581	-0,045	-0,071
-725,123	-166,143	-0,125	-0,004
-724,108	-60,303	-0,141	-0,043
-723,094	800,000	0,076	-0,187
-722,079	-37,339	-0,095	0,037
-721,064	-116,003	-0,073	-0,010
-720,050	66,826	-0,035	0,026
-719,035	395,514	0,043	-0,066
-718,021	-150,631	-0,046	0,002
-717,006	-44,803	-0,175	-0,063
-715,991	800,000	-0,047	-0,144
-714,977	-16,656	-0,195	-0,089
-713,962	225,510	0,036	0,043
-712,948	228,174	-0,006	-0,007
-711,933	-49,012	0,061	-0,021
-710,918	21,448	-0,023	-0,013
-709,904	-200,000	-0,004	-0,083
-708,889	292,020	0,073	-0,096
-707,875	123,129	0,042	-0,039
-706,860	-200,000	-0,008	0,112
-705,845	-200,000	0,002	-0,034
-704,831	-158,445	0,073	0,003
-703,816	-147,164	-0,062	0,004
-702,802	-200,000	0,026	-0,108
-701,787	43,814	-0,026	-0,017
-700,772	-106,163	0,013	0,002
-699,758	1,224	-0,002	-0,001
-698,743	-200,000	-0,012	-0,135
-697,729	199,924	-0,062	0,069
-696,714	563,554	0,027	0,048
-695,699	118,446	-0,032	-0,029
-694,685	-65,442	-0,027	0,008
-693,670	123,598	0,077	-0,070
-692,656	185,224	0,064	-0,069
-691,641	-200,000	0,017	0,057
-690,627	-200,000	-0,035	0,171
-689,612	-110,269	-0,074	-0,011
-688,597	-200,000	0,006	0,065
-687,583	40,754	-0,028	0,018
-686,568	22,377	-0,082	-0,049
-685,554	-26,734	-0,175	-0,074
-684,539	800,000	-0,068	-0,181
-683,524	-104,923	-0,187	0,031
-682,510	383,117	-0,022	-0,033
-681,495	286,407	-0,103	0,135
-680,481	499,038	-0,035	-0,059
-679,466	-200,000	-0,009	0,060
-678,451	-26,023	-0,041	0,017
-677,437	800,000	-0,016	0,052
-676,422	71,628	-0,030	0,023
-675,408	-86,746	0,041	-0,009
-674,393	-200,000	0,015	-0,057
-673,378	-71,471	-0,110	-0,030
-672,364	-34,457	-0,084	0,033
-671,349	-24,803	-0,190	-0,081
-670,335	-135,515	-0,042	-0,004
-669,320	-100,114	-0,064	-0,011
-668,305	18,688	0,039	-0,023
-667,291	50,967	0,035	0,024
-666,276	-87,604	0,137	-0,030
-665,262	-9,187	-0,138	-0,067
-664,247	-200,000	0,003	-0,164
-663,232	38,892	-0,162	0,105
-662,218	83,537	0,079	0,063
-661,203	190,152	0,047	0,051
-660,189	-200,000	0,002	-0,043
-659,174	-120,733	-0,160	-0,019
-658,159	-194,626	-0,137	0,001
-657,145	38,562	-0,046	-0,029
-656,130	-200,000	0,025	-0,141
-655,116	800,000	0,006	-0,018
-654,101	-62,335	0,106	-0,032
-653,086	25,505	0,094	-0,056
-652,072	-200,000	0,001	0,115
-651,057	536,216	-0,029	-0,050
-650,043	-200,000	0,034	-0,128
-649,028	800,000	0,012	-0,034
-648,014	63,760	-0,037	0,027
-646,999	181,707	0,086	0,092
-645,984	800,000	-0,053	0,141
-644,970	46,437	0,092	0,062
-643,955	-200,000	0,013	-0,050
-642,941	800,000	-0,014	0,033
-641,926	344,680	-0,084	0,119
-640,911	-12,776	0,093	-0,044
-639,897	370,562	-0,093	0,138
-638,882	718,221	-0,042	-0,081
-637,868	-56,797	0,114	-0,036
-636,853	-200,000	0,039	-0,170
-635,838	75,454	-0,056	-0,043
-634,824	39,618	0,107	-0,069
-633,809	86,374	0,118	0,094
-632,795	-200,000	0,043	0,151
-631,780	249,415	0,091	0,112
-630,765	-31,776	-0,095	-0,038
-629,751	-200,000	0,037	-0,122
-628,736	-150,719	-0,074	0,004
-627,722	800,000	-0,035	-0,080
-626,707	-200,000	0,000	0,112
-625,692	-124,467	0,012	0,001
-624,678	128,532	0,024	-0,022
-623,663	141,484	0,061	0,059
-622,649	305,540	-0,132	0,178
-621,634	-68,202	-0,112	0,031
-620,619	800,000	0,018	-0,042
-619,605	-145,136	-0,110	0,007
-618,590	57,525	0,100	-0,071
-617,576	-200,000	0,013	0,055
-616,561	205,684	-0,079	-0,089
-615,546	-48,842	-0,087	0,030
-614,532	-102,551	-0,069	0,012
-613,517	-200,000	-0,000	-0,071
-612,503	514,650	-0,075	0,127
-611,488	-79,992	0,079	0,019
-610,474	-200,000	-0,009	0,051
-609,459	800,000	0,057	0,120
-608,444	-200,000	0,007	-0,070
-607,430	-85,084	-0,125	-0,028
-606,415	800,000	0,054	-0,112
-605,401	-200,000	0,061	0,000
-604,386	-200,000	-0,023	-0,083
-603,371	-156,232	0,012	0,001
-602,357	800,000	0,040	0,112
-601,342	68,582	0,039	0,029
-600,328	-90,348	0,182	0,038
-599,313	170,746	-0,016	0,016
-598,298	-200,000	-0,002	-0,028
-597,284	-200,000	0,000	-0,121
-596,269	523,648	-0,086	0,147
-595,255	112,839	-0,085	0,075
-594,240	394,747	0,118	0,179
-593,225	-74,446	-0,161	-0,042
-592,211	-200,000	-0,011	0,036
-591,196	4,295	-0,058	0,031
-590,182	800,000	-0,027	-0,056
-589,167	11,398	-0,052	-0,029
-588,152	526,704	0,069	0,118
-587,138	9,541	-0,143	0,078
-586,123	96,224	0,006	-0,005
-585,109	-200,000	-0,036	-0,153
-584,094	-200,000	-0,017	-0,139
-583,079	-200,000	0,044	-0,183
-582,065	174,190	0,025	-0,027
-581,050	381,609	0,055	-0,082
-580,036	193,254	-0,131	-0,143
-579,021	5,974	-0,045	-0,024
-578,006	-200,000	0,005	-0,056
-576,992	-200,000	-0,003	0,042
-575,977	-96,823	0,141	-0,027
-574,963	139,861	-0,040	0,038
-573,948	214,754	0,042	-0,048
-572,934	141,412	-0,079	0,076
-571,919	-3,004	-0,098	-0,049
-570,904	-20,667	-0,124	0,055
-569,890	243,019	0,010	0,012
-568,875	520,142	-0,035	-0,060
-567,861	6,392	0,162	-0,087
-566,846	-200,000	0,003	0,095
-565,831	94,615	-0,030	-0,025
-564,817	212,681	0,039	-0,044
-563,802	1,542	-0,084	0,044
-562,788	-200,000	-0,006	-0,124
-561,773	-200,000	-0,012	-0,072
-560,758	10,491	0,107	-0,059
-559,744	250,789	0,105	0,129
-558,729	199,797	-0,136	0,151
-557,715	400,237	-0,038	0,058
-556,700	367,389	0,063	0,093
-555,685	412,160	0,068	0,104
-554,671	-200,000	0,003	-0,036
-553,656	329,204	0,079	0,109
-552,642	390,105	0,058	0,087
-551,627	-200,000	0,001	-0,073
-550,612	39,625	0,104	0,068
-549,598	-51,134	-0,009	-0,003
-548,583	-200,000	0,001	0,016
-547,569	-87,792	-0,203	-0,044
-546,554	353,523	0,045	0,065
-545,539	249,849	-0,091	0,112
-544,525	45,993	0,071	0,047
-543,510	216,826	0,064	0,073
-542,496	102,748	-0,059	-0,050
-541,481	-40,700	-0,072	-0,027
-540,466	344,446	0,041	-0,059
-539,452	197,939	0,061	-0,067
-538,437	-200,000	0,025	0,095
-537,423	800,000	0,018	0,048
-536,408	233,880	-0,031	-0,037
-535,393	311,487	-0,072	-0,098
-534,379	85,946	0,065	0,052
-533,364	141,253	-0,047	0,045
-532,350	-10,258	0,039	-0,018
-531,335	-200,000	0,005	0,048
-530,321	-200,000	0,018	0,088
-529,306	-169,056	0,049	-0,001
-528,291	13,202	-0,076	-0,042
-527,277	-200,000	0,009	-0,120
-526,262	800,000	0,005	0,014
-525,248	-200,000	-0,015	0,098
-524,233	-200,000	-0,015	0,089
-523,218	110,615	-0,048	-0,042
-522,204	16,603	0,075	0,043
-521,189	26,001	-0,114	-0,068
-520,175	-200,000	-0,006	0,045
-519,160	-148,854	-0,092	-0,005
-518,145	-78,990	0,037	0,009
-517,131	-73,140	0,253	0,066
-516,116	667,382	-0,101	0,189
-515,102	-200,000	0,006	0,112
-514,087	-56,912	-0,089	-0,028
-513,072	176,621	-0,020	0,021
-512,058	13,182	0,036	-0,020
-511,043	-22,918	0,041	-0,018
-510,029	-200,000	0,011	-0,039
-509,014	-10,176	0,049	0,023
-507,999	-15,000	-0,091	-0,042
-506,985	468,907	-0,001	0,001
-505,970	-200,000	0,007	-0,076
-504,956	-37,230	0,047	-0,018
-503,941	-68,071	0,005	-0,001
-502,926	-174,073	0,236	0,005
-501,912	208,799	-0,087	0,098
-500,897	262,588	0,069	0,087
-499,883	800,000	-0,015	0,045
-498,868	-54,835	0,045	-0,014
-497,853	-23,953	-0,045	-0,019
-496,839	502,387	0,023	-0,039
-495,824	203,358	-0,037	0,041
-494,810	-140,541	0,007	-0,001
-493,795	-200,000	0,035	-0,175
-492,781	-200,000	-0,031	-0,174
-491,766	459,031	0,014	0,022
-490,751	21,460	0,045	-0,026
-489,737	368,296	-0,050	0,073
-488,722	409,312	-0,070	-0,107
-487,708	773,029	0,019	0,037
-486,693	232,789	0,059	-0,070
-485,678	-45,478	0,080	0,028
-484,664	-200,000	-0,014	-0,157
-483,649	-200,000	-0,046	-0,210
-482,635	35,544	-0,112	0,071
-481,620	77,720	0,048	0,037
-480,605	240,884	0,074	0,089
-479,591	42,867	0,085	0,056
-478,576	337,673	-0,093	0,131
-477,562	-63,076	-0,113	-0,033
-476,547	-37,134	-0,052	0,020
-475,532	-200,000	-0,001	0,092
-474,518	637,415	-0,032	0,059
-473,503	-200,000	0,004	0,083
-472,489	91,822	0,004	-0,003
-471,474	-102,607	0,143	0,024
-470,459	83,812	-0,101	0,079
-469,445	698,861	0,030	0,058
-468,430	-200,000	-0,091	-0,000
-467,416	800,000	-0,071	-0,142
-466,401	-9,387	-0,063	0,030
-465,386	295,980	0,085	-0,112
-464,372	-200,000	-0,030	0,171
-463,357	694,094	-0,037	0,069
-462,343	744,862	0,018	0,035
-461,328	-200,000	0,017	0,081
-460,313	800,000	0,036	-0,074
-459,299	13,812	0,119	0,067
-458,284	179,160	0,091	0,096
-457,270	417,513	0,025	0,038
-456,255	800,000	0,058	-0,156
-455,241	580,677	0,036	-0,063
-454,226	449,130	-0,066	-0,105
-453,211	-57,222	0,115	-0,036
-452,197	498,147	-0,072	-0,119
-451,182	263,973	0,041	0,051
-450,168	-51,516	0,097	-0,032
-449,153	-164,225	-0,073	-0,002
-448,138	-200,000	0,037	0,119
-447,124	-94,331	-0,160	0,031
-446,109	3,212	0,071	0,037
-445,095	242,295	0,027	-0,032
-444,080	108,887	-0,033	0,028
-443,065	328,356	-0,030	-0,041
-442,051	62,760	0,125	-0,090
-441,036	-15,501	-0,065	-0,030
-440,022	259,872	-0,081	-0,101
-439,007	501,829	0,016	-0,027
-437,992	800,000	0,015	-0,041
-436,978	-200,000	-0,005	0,136
-435,963	-200,000	0,001	-0,035
-434,949	800,000	-0,012	-0,034
-433,934	75,965	-0,088	-0,067
-432,919	-145,135	-0,140	0,009
-431,905	-200,000	0,009	-0,082
-430,890	-30,791	0,067	-0,027
-429,876	-124,232	0,080	-0,009
-428,861	97,260	-0,056	0,046
-427,846	-151,224	-0,088	-0,005
-426,832	-32,073	-0,055	0,022
-425,817	-68,081	0,122	-0,034
-424,803	286,914	-0,074	-0,096
-423,788	-133,209	0,050	0,004
-422,773	-200,000	0,013	-0,045
-421,759	585,652	-0,013	-0,024
-420,744	-200,000	0,005	0,049
-419,730	-200,000	-0,005	0,091
-418,715	119,886	-0,017	-0,016
-417,701	71,881	-0,072	-0,054
-416,686	-39,848	0,057	-0,021
-415,671	116,227	-0,042	0,037
-414,657	13,637	0,111	0,062
-413,642	-57,057	-0,165	0,052
-412,628	23,093	-0,047	-0,028
-411,613	800,000	-0,069	-0,200
-410,598	800,000	-0,049	-0,146
-409,584	238,692	0,053	0,063
-408,569	-135,155	0,100	-0,009
-407,555	-200,000	-0,033	0,109
-406,540	49,068	-0,144	-0,097
-405,525	-200,000	-0,006	0,033
-404,511	-165,841	0,072	0,002
-403,496	-200,000	-0,008	0,029
-402,482	800,000	-0,035	-0,088
-401,467	200,895	-0,073	0,081
-400,452	18,991	0,188	0,108
-399,438	-200,000	-0,002	0,105
-398,423	-200,000	0,014	-0,139
-397,409	-33,650	-0,075	-0,030
-396,394	589,576	-0,060	0,107
-395,379	-38,165	-0,201	0,076
-394,365	-119,705	0,137	0,017
-393,350	-15,956	-0,109	-0,050
-392,336	-52,032	0,047	-0,016
-391,321	142,598	0,135	-0,129
-390,306	496,134	-0,053	-0,087
-389,292	800,000	-0,040	-0,081
-388,277	40,584	-0,120	-0,077
-387,263	-82,126	0,030	-0,007
-386,248	-200,000	-0,004	0,071
-385,233	-48,984	0,033	-0,011
-384,219	-40,092	0,159	-0,059
-383,204	800,000	-0,026	-0,076
-382,190	98,648	-0,085	0,070
-381,175	-200,000	0,010	-0,064
-380,160	-162,155	0,122	-0,004
-379,146	107,417	0,069	0,059
-378,131	-106,762	0,107	-0,017
-377,117	383,521	-0,083	0,124
-376,102	800,000	-0,046	0,134
-375,088	-53,877	0,076	0,025
-374,073	800,000	0,056	0,139
-373,058	800,000	0,014	-0,042
-372,044	-200,000	-0,000	0,079
-371,029	-35,935	0,093	-0,036
-370,015	800,000	0,066	0,155
-369,000	197,865	-0,014	0,015
-367,985	-200,000	-0,000	-0,040
-366,971	358,672	-0,066	-0,095
-365,956	-151,879	0,190	-0,010
-364,942	43,915	0,105	-0,069
-363,927	-200,000	-0,007	0,064
-362,912	-200,000	-0,004	0,071
-361,898	88,507	-0,082	-0,065
-360,883	43,191	-0,101	0,066
-359,869	-31,296	-0,177	-0,071
-358,854	-200,000	0,006	-0,042
-357,839	800,000	0,015	0,033
-356,825	-187,349	0,082	0,001
-355,810	-200,000	-0,019	0,118
-354,796	281,964	0,032	-0,041
-353,781	-200,000	-0,003	-0,050
-352,766	141,879	-0,038	0,036
-351,752	800,000	0,028	0,073
-350,737	0,263	-0,073	-0,037
-349,723	-15,238	-0,131	0,060
-348,708	-51,378	0,091	0,030
-347,693	800,000	-0,033	-0,090
-346,679	324,298	0,050	0,069
-345,664	38,968	-0,055	-0,035
-344,650	800,000	-0,026	0,078
-343,635	-88,506	0,015	-0,003
-342,620	-200,000	0,024	0,172
-341,606	-109,503	-0,043	0,006
-340,591	228,171	0,009	0,010
-339,577	252,322	0,037	-0,045
-338,562	329,288	-0,029	-0,040
-337,548	597,328	0,046	-0,083
-336,533	100,182	-0,039	-0,032
-335,518	216,244	0,018	0,020
-334,504	14,235	-0,065	0,036
-333,489	800,000	0,040	-0,096
-332,475	34,606	-0,105	0,066
-331,460	-19,179	0,061	0,027
-330,445	-200,000	0,025	-0,132
-329,431	-200,000	0,018	-0,071
-328,416	26,720	-0,090	-0,054
-327,402	-164,960	-0,069	0,002
-326,387	450,627	-0,028	0,045
-325,372	780,372	-0,047	0,092
-324,358	240,114	0,074	0,088
-323,343	-128,261	-0,066	-0,007
-322,329	-200,000	-0,024	0,170
-321,314	-160,197	0,065	0,002
-320,299	60,900	-0,064	0,045
-319,285	-127,086	0,111	-0,012
-318,270	-17,128	0,087	0,039
-317,256	317,465	-0,090	-0,123
-316,241	-200,000	0,012	-0,048
-315,226	-34,394	0,038	-0,015
-314,212	177,263	0,030	-0,031
-313,197	601,342	0,028	0,050
-312,183	-143,011	0,008	0,001
-311,168	-96,164	-0,044	0,008
-310,153	-172,110	0,096	0,002
-309,139	-153,187	-0,086	0,004
-308,124	62,937	0,143	-0,102
-307,110	-36,777	0,209	-0,080
-306,095	76,278	-0,098	0,074
-305,080	35,592	-0,048	-0,030
-304,066	-29,944	-0,036	0,014
-303,051	139,500	0,030	0,028
-302,037	338,611	-0,093	-0,130
-301,022	-31,007	0,139	-0,056
-300,008	800,000	-0,022	0,051
-298,993	489,018	0,032	-0,052
-297,978	-85,533	-0,044	-0,010
-296,964	-200,000	0,033	-0,138
-295,949	177,628	0,052	-0,055
-294,935	-75,195	-0,040	-0,010
-293,920	-121,741	0,123	-0,014
-292,905	-200,000	-0,007	-0,078
-291,891	-163,258	0,049	0,002
-290,876	-79,767	0,164	0,039
-289,862	-200,000	0,014	-0,130
-288,847	335,619	-0,089	-0,124
-287,832	-98,547	-0,086	0,016
-286,818	-200,000	0,003	-0,019
-285,803	-90,693	0,173	-0,035
-284,789	80,005	0,042	0,032
-283,774	-189,451	0,108	0,001
-282,759	-93,840	0,030	0,006
-281,745	159,952	-0,133	0,133
-280,730	-27,645	-0,071	-0,029
-279,716	243,200	-0,075	-0,090
-278,701	-65,333	-0,059	-0,017
-277,686	-200,000	0,005	0,041
-276,672	18,440	-0,036	0,021
-275,657	-200,000	0,010	-0,093
-274,643	800,000	-0,060	-0,148
-273,628	118,810	-0,042	-0,037
-272,613	79,842	0,103	-0,079
-271,599	-1,151	0,079	-0,040
-270,584	800,000	0,038	0,113
-269,570	-146,133	-0,175	0,011
-268,555	-63,673	0,071	-0,021
-267,540	383,748	0,048	-0,071
-266,526	-200,000	-0,017	-0,054
-265,511	800,000	0,018	-0,056
-264,497	555,515	0,022	0,037
-263,482	28,144	0,052	-0,031
-262,467	143,749	0,097	-0,093
-261,453	-200,000	0,003	0,049
-260,438	740,419	0,023	-0,044
-259,424	-46,418	-0,056	-0,020
-258,409	-200,000	0,029	-0,156
-257,395	244,010	0,055	0,066
-256,380	332,841	-0,073	-0,101
-255,365	-200,000	0,052	0,201
-254,351	-200,000	-0,013	0,047
-253,336	800,000	0,053	0,166
-252,322	-42,384	0,083	-0,030
-251,307	800,000	0,056	-0,114
-250,292	-200,000	-0,009	-0,087
-249,278	800,000	0,007	-0,019
-248,263	-200,000	0,023	0,074
-247,249	63,192	0,045	-0,032
-246,234	501,506	0,028	-0,046
-245,219	-200,000	-0,041	-0,225
-244,205	-138,306	0,110	0,009
-243,190	86,773	-0,040	-0,031
-242,176	-200,000	-0,039	-0,154
-241,161	-200,000	-0,001	0,030
-240,146	4,254	-0,056	0,029
-239,132	45,038	-0,111	0,073
-238,117	-153,458	-0,096	0,005
-237,103	800,000	0,030	-0,083
-236,088	29,191	-0,063	-0,038
-235,073	-133,484	-0,090	-0,008
-234,059	-200,000	0,024	0,088
-233,044	-179,399	-0,092	0,001
-232,030	800,000	-0,021	0,064
-231,015	800,000	0,073	-0,202
-230,000	800,000	-0,043	-0,088
-228,986	19,038	0,081	-0,046
-227,971	85,809	0,080	0,063
-226,957	341,071	0,004	-0,006
-225,942	800,000	0,028	-0,069
-224,927	-144,020	-0,026	-0,002
-223,913	517,085	0,043	-0,072
-222,898	-8,698	0,030	0,014
-221,884	429,105	0,085	0,131
-220,869	-200,000	-0,011	-0,059
-219,855	-102,558	0,118	0,020
-218,840	-116,930	-0,078	-0,010
-217,825	210,621	-0,061	-0,068
-216,811	-200,000	0,017	-0,126
-215,796	-125,014	-0,191	0,021
-214,782	-200,000	-0,032	0,114
-213,767	-200,000	-0,009	0,029
-212,752	-200,000	0,000	-0,033
-211,738	-123,415	0,140	0,016
-210,723	-136,393	-0,075	0,006
-209,709	136,612	0,019	0,018
-208,694	8,121	-0,101	0,054
-207,679	90,796	-0,085	0,068
-206,665	189,221	0,043	0,045
-205,650	622,321	-0,014	0,026
-204,636	-200,000	0,022	0,187
-203,621	648,597	0,047	0,087
-202,606	-125,581	-0,063	0,007
-201,592	-45,319	-0,112	0,039
-200,577	-107,847	-0,203	-0,031
-199,563	800,000	0,007	0,022
-198,548	-200,000	0,014	0,090
-197,533	100,927	0,023	-0,019
-196,519	-200,000	0,021	0,215
-195,504	719,549	-0,031	0,059
-194,490	19,378	-0,094	-0,054
-193,475	38,134	0,090	0,057
-192,460	276,550	-0,052	-0,067
-191,446	100,519	0,102	0,084
-190,431	106,088	0,063	0,053
-189,417	161,171	-0,092	0,091
-188,402	-34,371	0,043	0,017
-187,387	371,200	-0,045	-0,065
-186,373	-200,000	0,006	-0,028
-185,358	27,046	-0,098	-0,059
-184,344	800,000	0,034	0,097
-183,329	435,133	0,075	0,116
-182,315	-60,159	0,058	-0,018
-181,300	-143,065	-0,246	-0,017
-180,285	-190,252	-0,055	-0,000
-179,271	568,800	-0,077	-0,134
-178,256	375,229	-0,047	0,068
-177,242	478,975	-0,003	-0,005
-176,227	-41,411	0,064	-0,023
-175,212	773,849	0,084	-0,163
-174,198	314,742	0,044	0,060
-173,183	-47,187	0,089	-0,031
-172,169	-104,320	-0,032	0,005
-171,154	-200,000	-0,008	0,103
-170,139	-200,000	-0,031	0,136
-169,125	372,437	0,036	0,052
-168,110	105,794	0,065	0,054
-167,096	75,585	-0,094	0,071
-166,081	122,405	-0,097	-0,086
-165,066	-73,190	-0,094	-0,024
-164,052	127,858	0,070	-0,063
-163,037	-48,296	-0,062	-0,021
-162,023	-137,402	0,095	0,008
-161,008	-49,718	0,163	0,055
-159,993	-47,327	0,147	-0,051
-158,979	-200,000	0,012	-0,145
-157,964	39,025	-0,104	-0,066
-156,950	631,582	0,034	-0,062
-155,935	-18,731	-0,049	0,022
-154,920	254,089	0,057	0,070
-153,906	88,925	0,111	-0,088
-152,891	49,014	-0,080	-0,053
-151,877	-200,000	0,046	-0,199
-150,862	188,588	-0,084	-0,090
-149,847	101,141	0,085	-0,070
-148,833	-200,000	-0,000	-0,071
-147,818	-84,867	-0,067	0,015
-146,804	-44,994	0,032	-0,011
-145,789	-200,000	0,021	0,169
-144,775	-42,128	-0,053	-0,019
-143,760	642,410	-0,031	-0,056
-142,745	210,412	-0,054	-0,060
-141,731	-200,000	-0,003	0,116
-140,716	-87,293	-0,065	0,014
-139,702	30,440	0,085	0,052
-138,687	-200,000	-0,003	-0,045
-137,672	286,981	-0,070	-0,090
-136,658	288,041	0,087	-0,112
-135,643	800,000	0,054	-0,147
-134,629	-200,000	0,010	0,033
-133,614	-200,000	0,007	-0,041
-132,599	-18,776	0,177	0,078
-131,585	800,000	-0,048	0,140
-130,570	-91,764	-0,024	-0,005
-129,556	-11,660	-0,117	-0,054
-128,541	-200,000	-0,032	-0,117
-127,526	528,530	0,071	0,120
-126,512	-200,000	0,010	0,055
-125,497	-120,647	-0,168	0,020
-124,483	102,975	0,119	0,099
-123,468	-200,000	0,009	0,097
-122,453	-126,848	0,042	-0,004
-121,439	212,449	-0,086	-0,097
-120,424	188,217	-0,032	-0,034
-119,410	593,480	0,019	0,034
-118,395	-170,314	-0,067	0,002
-117,380	659,593	-0,033	0,061
-116,366	116,620	-0,028	0,024
-115,351	-51,902	-0,131	0,043
-114,337	-200,000	-0,010	-0,033
-113,322	35,915	0,056	0,035
-112,307	507,710	0,040	0,066
-111,293	-200,000	0,005	0,073
-110,278	651,062	0,020	-0,036
-109,264	-115,101	0,016	0,002
-108,249	209,438	0,073	0,081
-107,234	-143,772	-0,189	-0,013
-106,220	-200,000	0,019	0,121
-105,205	-200,000	-0,004	-0,033
-104,191	-106,833	-0,007	0,001
-103,176	362,580	-0,053	0,076
-102,162	365,376	0,033	-0,047
-101,147	7,497	-0,090	-0,047
-100,132	581,212	-0,060	-0,104
-99,118	800,000	-0,077	-0,164
-98,103	15,679	0,162	0,090
-97,089	87,330	-0,040	0,032
-96,074	-200,000	0,013	0,049
-95,059	800,000	-0,015	0,037
-94,045	93,837	0,049	0,039
-93,030	800,000	-0,044	-0,089
-92,016	104,073	-0,096	-0,080
-91,001	-200,000	0,014	0,105
-89,986	-110,770	0,084	0,012
-88,972	-200,000	-0,024	-0,086
-87,957	129,372	0,081	-0,073
-86,943	664,144	-0,048	-0,089
-85,928	371,438	-0,045	-0,066
-84,913	366,335	0,075	0,108
-83,899	503,410	0,055	-0,091
-82,884	223,836	-0,121	0,139
-81,870	-29,581	0,122	0,049
-80,855	-200,000	-0,006	-0,030
-79,840	-154,625	-0,021	-0,001
-78,826	-63,531	-0,108	-0,031
-77,811	-200,000	0,014	0,073
-76,797	32,051	0,114	-0,070
-75,782	797,273	-0,044	-0,087
-74,767	33,108	0,103	-0,063
-73,753	61,252	-0,076	0,053
-72,738	-133,036	-0,133	0,012
-71,724	63,966	-0,090	0,064
-70,709	-200,000	0,000	-0,007
-69,694	-163,864	-0,087	0,003
-68,680	-200,000	0,026	0,096
-67,665	581,608	0,078	0,135
-66,651	216,280	0,062	0,070
-65,636	136,726	0,157	0,145
-64,622	-200,000	-0,007	0,109
-63,607	92,636	0,043	0,034
-62,592	-200,000	0,001	0,026
-61,578	303,360	0,096	0,126
-60,563	484,555	0,043	0,070
-59,549	800,000	-0,054	0,111
-58,534	-26,395	-1,649	-0,682
-57,519	374,143	-1,449	-2,096
-56,505	-200,000	-0,493	-4,670
-55,490	153,833	1,067	1,036
-54,476	800,000	4,958	11,484
-53,461	-200,000	18,978	313,223
-52,446	-200,000	738,933	2323,807
-51,432	575,007	1655,173	2872,240
-50,417	79,101	1671,658	1266,651
-49,403	21,815	1544,415	888,641
-48,388	15,687	1466,905	814,242
-47,373	17,834	1457,048	819,117
-46,359	16,820	1447,061	808,605
-45,344	13,921	1442,343	792,046
-44,330	13,861	1440,425	790,672
-43,315	13,832	1438,823	789,624
-42,300	13,871	1437,093	788,829
-41,286	13,895	1435,855	788,234
-40,271	13,889	1434,554	787,459
-39,257	13,863	1433,376	786,657
-38,242	13,935	1431,972	786,197
-37,227	13,912	1430,779	785,403
-36,213	13,881	1429,550	784,550
-35,198	13,916	1428,360	784,032
-34,184	13,921	1427,410	783,501
-33,169	13,928	1425,917	782,687
-32,154	13,944	1425,139	782,302
-31,140	13,963	1423,612	781,522
-30,125	13,954	1422,487	780,833
-29,111	13,951	1421,337	780,155
-28,096	13,948	1420,251	779,516
-27,082	13,853	1419,361	778,546
-26,067	13,869	1418,116	777,910
-25,052	13,878	1416,938	777,277
-24,038	13,806	1416,274	776,540
-23,023	13,838	1414,958	775,937
-22,009	13,810	1414,195	775,360
-20,994	13,770	1413,330	774,666
-19,979	13,797	1412,301	774,196
-18,965	13,770	1411,491	773,594
-17,950	13,754	1410,571	772,988
-16,936	13,785	1409,750	772,651
-15,921	13,760	1408,398	771,762
-14,906	13,699	1407,640	771,030
-13,892	13,716	1406,719	770,575
-12,877	13,768	1405,604	770,177
-11,863	13,718	1404,915	769,535
-10,848	13,734	1403,864	769,003
-9,833	13,702	1403,065	768,385
-8,819	13,675	1402,176	767,744
-7,804	13,662	1401,398	767,227
-6,790	13,641	1400,300	766,499
-5,775	13,638	1399,194	765,849
-4,760	13,655	1398,186	765,341
-3,746	13,669	1397,386	764,940
-2,731	13,633	1396,709	764,374
-1,717	13,639	1395,712	763,825
-0,702	13,611	1393,908	762,678
0,313	17,393	1311,490	735,139
1,327	33,376	705,679	432,594
2,342	51,230	123,864	83,044
3,356	0,958	16,717	8,451
4,371	-4,599	3,201	1,558
5,386	10,043	0,590	0,316
6,400	-200,000	0,016	0,288
7,415	135,384	-0,190	-0,175
8,429	-32,403	-0,254	-0,100
9,444	-3,945	-0,417	-0,204
10,459	31,580	-0,315	-0,191
11,473	113,754	-0,374	-0,321
12,488	793,265	-0,091	-0,178
13,502	-19,302	-0,298	-0,130
14,517	-29,790	-0,389	-0,156
15,531	18,250	-0,355	-0,200
16,546	94,487	-0,302	-0,242
17,561	48,818	-0,261	-0,172
18,575	112,823	-0,235	-0,201
19,590	470,082	-0,184	-0,293
20,604	134,964	-0,275	-0,252
21,619	77,853	-0,269	-0,203
22,634	-3,405	-0,532	-0,261
23,648	122,480	-0,318	-0,281
24,663	256,847	-0,299	-0,363
25,677	-6,942	-0,393	-0,188
26,692	114,052	-0,306	-0,263
27,707	-111,618	-0,318	-0,045
28,721	183,804	-0,404	-0,422
29,736	13,808	-0,454	-0,249
30,750	90,673	-0,466	-0,368
31,765	232,852	-0,240	-0,279
32,780	159,969	-0,315	-0,310
33,794	38,876	-0,283	-0,178
34,809	33,341	-0,410	-0,251
35,823	71,507	-0,342	-0,250
36,838	64,921	-0,384	-0,273
37,853	0,233	-0,440	-0,221
38,867	127,952	-0,400	-0,359
39,882	64,235	-0,442	-0,313
40,896	175,728	-0,312	-0,320
41,911	80,284	-0,268	-0,203
42,926	159,324	-0,279	-0,274
43,940	93,151	-0,366	-0,292
44,955	192,831	-0,356	-0,379
45,969	258,887	-0,299	-0,364
46,984	50,119	-0,354	-0,235
47,999	-88,281	-0,215	-0,045
49,013	8,731	-0,339	-0,179
50,028	134,169	-0,231	-0,211
51,042	250,683	-0,280	-0,336
52,057	118,994	-0,347	-0,302
53,071	186,820	-0,351	-0,369
54,086	81,286	-0,351	-0,267
55,101	182,980	-0,286	-0,298
56,115	3,216	-0,353	-0,180
57,130	112,174	-0,401	-0,341
58,144	126,134	-0,281	-0,250
59,159	41,405	-0,275	-0,175
60,174	559,964	-0,213	-0,364
61,188	0,524	-0,418	-0,210
62,203	116,524	-0,327	-0,282
63,217	101,937	-0,294	-0,242
64,232	66,230	-0,379	-0,270
65,247	-87,511	-0,357	-0,075
66,261	84,625	-0,452	-0,348
67,276	-47,016	-0,450	-0,154
68,290	19,749	-0,328	-0,185
69,305	46,752	-0,332	-0,216
70,320	-94,118	-0,296	-0,056
71,334	16,819	-0,329	-0,182
72,349	-62,855	-0,332	-0,096
73,363	-39,743	-0,377	-0,138
74,378	103,227	-0,296	-0,244
75,393	104,885	-0,263	-0,218
76,407	-7,157	-0,275	-0,131
77,422	-79,443	-0,308	-0,073
78,436	-20,618	-0,369	-0,158
79,451	12,371	-0,410	-0,221
80,466	18,883	-0,446	-0,251
81,480	45,563	-0,277	-0,179
82,495	-9,108	-0,452	-0,212
83,509	-11,938	-0,374	-0,171
84,524	5,582	-0,424	-0,219
85,539	-98,685	-0,306	-0,054
86,553	108,441	-0,277	-0,232
87,568	59,389	-0,375	-0,259
88,582	6,652	-0,246	-0,128
89,597	229,609	-0,320	-0,367
90,611	507,603	-0,107	-0,175
91,626	-62,064	-0,360	-0,105
92,641	-5,105	-0,222	-0,107
93,655	-168,746	-0,265	-0,007
94,670	0,872	-0,289	-0,145
95,684	37,327	-0,208	-0,129
96,699	368,489	-0,171	-0,243
97,714	369,927	-0,229	-0,326
98,728	88,128	-0,248	-0,193
99,743	135,633	-0,230	-0,210
100,757	47,539	-0,310	-0,202
101,772	50,984	-0,378	-0,251
102,787	800,000	-0,154	-0,347
103,801	0,699	-0,292	-0,146
104,816	206,258	-0,234	-0,256
105,830	4,634	-0,266	-0,137
106,845	-161,124	-0,313	0,011
107,860	66,292	-0,243	-0,173
108,874	-69,137	-0,277	-0,074
109,889	27,129	-0,207	-0,121
110,903	114,029	-0,295	-0,251
111,918	56,560	-0,301	-0,205
112,933	72,230	-0,234	-0,171
113,947	-6,470	-0,264	-0,126
114,962	800,000	-0,104	-0,202
115,976	138,769	-0,259	-0,239
116,991	200,041	-0,202	-0,217
118,006	204,272	-0,207	-0,225
119,020	6,630	-0,398	-0,207
120,035	187,634	-0,106	-0,111
121,049	-19,588	-0,303	-0,131
122,064	-90,546	-0,301	-0,060
123,079	170,777	-0,254	-0,256
124,093	179,996	-0,249	-0,256
125,108	55,823	-0,251	-0,170
126,122	109,926	-0,292	-0,245
127,137	-80,936	-0,261	-0,060
128,151	292,828	-0,120	-0,153
129,166	165,213	-0,308	-0,305
130,181	-79,802	-0,263	-0,061
131,195	54,880	-0,224	-0,151
132,210	-41,993	-0,367	-0,131
133,224	-44,772	-0,380	-0,132
134,239	88,798	-0,354	-0,275
135,254	10,293	-0,307	-0,163
136,268	-39,746	-0,336	-0,122
137,283	44,895	-0,230	-0,148
138,297	22,011	-0,351	-0,200
139,312	205,219	-0,233	-0,254
140,327	311,766	-0,198	-0,260
141,341	800,000	-0,144	-0,329
142,356	80,493	-0,286	-0,215
143,370	64,559	-0,211	-0,148
144,385	87,837	-0,150	-0,116
145,400	-3,680	-0,361	-0,175
146,414	298,537	-0,199	-0,257
147,429	150,318	-0,207	-0,196
148,443	-70,894	-0,319	-0,083
149,458	40,886	-0,203	-0,127
150,473	113,964	-0,237	-0,201
151,487	199,124	-0,232	-0,248
152,502	-53,415	-0,351	-0,112
153,516	28,908	-0,327	-0,193
154,531	321,597	-0,233	-0,311
155,546	129,816	-0,182	-0,163
156,560	-81,812	-0,267	-0,061
157,575	73,857	-0,183	-0,134
158,589	235,200	-0,210	-0,242
159,604	81,334	-0,303	-0,229
160,619	413,013	-0,193	-0,287
161,633	218,667	-0,267	-0,298
162,648	-16,212	-0,335	-0,148
163,662	78,202	-0,168	-0,125
164,677	-63,606	-0,222	0,063
165,692	31,168	-0,314	-0,187
166,706	-143,945	-0,277	-0,018
167,721	173,016	-0,220	-0,221
168,735	174,607	-0,215	-0,217
169,750	98,973	-0,235	-0,189
170,764	178,288	-0,221	-0,226
171,779	-74,112	-0,174	-0,044
172,794	174,049	-0,151	-0,152
173,808	-171,699	-0,235	-0,005
174,823	-92,961	-0,323	-0,062
175,837	80,723	-0,389	-0,292
176,852	25,729	-0,300	-0,174
177,867	120,384	-0,223	-0,193
178,881	291,698	-0,190	-0,242
179,896	132,128	-0,152	-0,137
180,910	-12,425	-0,219	-0,099
181,925	6,899	-0,275	-0,142
182,940	-34,803	-0,353	-0,134
183,954	-71,358	-0,161	0,042
184,969	800,000	-0,120	-0,320
185,983	328,582	-0,165	-0,222
186,998	-106,964	-0,114	-0,017
188,013	-27,140	-0,234	-0,094
189,027	-42,423	-0,293	-0,103
190,042	91,586	-0,265	-0,207
191,056	-200,000	-0,092	-0,307
192,071	286,075	-0,165	-0,207
193,086	336,340	-0,091	-0,123
194,100	-19,308	-0,174	-0,075
195,115	92,924	-0,245	-0,193
196,129	-69,887	-0,316	-0,083
197,144	33,587	-0,296	-0,178
198,159	215,576	-0,208	-0,230
199,173	-86,568	-0,234	-0,050
200,188	142,522	-0,216	-0,200
201,202	19,234	-0,115	-0,064
202,217	-109,106	-0,287	-0,042
203,232	73,563	-0,286	-0,208
204,246	25,296	-0,132	-0,076
205,261	285,930	-0,191	-0,240
206,275	146,928	-0,212	-0,198
207,290	515,766	-0,170	-0,277
208,304	-10,340	-0,212	-0,097
209,319	31,185	-0,160	-0,095
210,334	130,230	-0,226	-0,201
211,348	56,134	-0,257	-0,173
212,363	144,845	-0,212	-0,197
213,377	372,050	-0,108	-0,153
214,392	-37,292	-0,202	-0,075
215,407	-111,684	-0,164	-0,023
216,421	250,458	-0,126	-0,149
217,436	-97,576	-0,173	-0,031
218,450	-59,884	-0,227	-0,067
219,465	37,237	-0,194	-0,119
220,480	98,908	-0,270	-0,217
221,494	86,612	-0,264	-0,202
222,509	67,459	-0,117	-0,083
223,523	-35,626	-0,159	-0,059
224,538	-4,458	-0,169	-0,081
225,553	176,391	-0,248	-0,250
226,567	310,650	-0,234	-0,304
227,582	800,000	-0,110	-0,261
228,596	6,153	-0,186	-0,095
229,611	751,606	-0,117	-0,221
230,626	-32,347	-0,262	-0,101
231,640	-52,151	-0,238	-0,076
232,655	210,102	-0,228	-0,248
233,669	414,551	-0,122	-0,180
234,684	571,502	-0,184	-0,312
235,699	246,701	-0,096	-0,113
236,713	-200,000	-0,078	-0,240
237,728	184,253	-0,134	-0,137
238,742	800,000	-0,113	-0,264
239,757	410,275	-0,171	-0,252
240,772	775,865	-0,131	-0,248
241,786	800,000	-0,124	-0,273
242,801	32,191	-0,224	-0,134
243,815	-97,158	-0,168	-0,030
244,830	126,813	-0,245	-0,215
245,844	-200,000	-0,014	-0,185
246,859	422,999	-0,115	-0,172
247,874	43,591	-0,262	-0,165
248,888	67,251	-0,185	-0,131
249,903	-34,216	-0,117	-0,044
250,917	80,538	-0,186	-0,138
251,932	800,000	0,008	-0,017
252,947	800,000	-0,045	-0,118
253,961	125,404	-0,156	-0,136
254,976	-200,000	-0,055	-0,203
255,990	-44,779	-0,212	-0,073
257,005	755,120	-0,147	-0,275
258,020	-71,595	-0,125	0,032
259,034	-20,401	-0,179	-0,076
260,049	-51,033	-0,253	-0,082
261,063	-41,646	-0,141	-0,050
262,078	37,033	-0,248	-0,151
263,093	107,219	-0,161	-0,133
264,107	118,229	-0,151	-0,129
265,122	473,703	-0,100	-0,157
266,136	-70,186	-0,175	-0,046
267,151	290,885	-0,123	-0,155
268,166	36,585	-0,258	-0,157
269,180	-90,699	-0,279	-0,055
270,195	410,543	-0,216	-0,317
271,209	240,715	-0,102	-0,117
272,224	48,891	-0,168	-0,109
273,239	127,145	-0,068	-0,060
274,253	-129,103	-0,247	0,024
275,268	243,588	-0,137	-0,159
276,282	-81,773	-0,241	-0,054
277,297	247,748	-0,158	-0,185
278,312	117,642	-0,246	-0,209
279,326	214,859	-0,133	-0,145
280,341	89,400	-0,144	-0,111
281,355	144,721	-0,167	-0,154
282,370	12,773	-0,197	-0,105
283,384	-63,569	-0,173	-0,049
284,399	109,012	-0,218	-0,180
285,414	280,077	-0,188	-0,232
286,428	137,391	-0,131	-0,119
287,443	100,965	-0,204	-0,164
288,457	-147,056	-0,132	-0,008
289,472	190,450	-0,063	-0,066
290,487	-130,713	-0,178	-0,016
291,501	325,239	-0,083	-0,110
292,516	-29,420	-0,201	-0,079
293,530	112,007	-0,158	-0,132
294,545	-151,070	-0,171	-0,009
295,560	-86,350	-0,151	-0,032
296,574	268,759	-0,080	-0,097
297,589	382,056	-0,182	-0,259
298,603	177,953	-0,163	-0,164
299,618	297,431	-0,114	-0,144
300,633	366,782	-0,146	-0,204
301,647	174,213	-0,091	-0,091
302,662	-87,784	-0,116	-0,024
303,676	13,650	-0,263	-0,140
304,691	137,341	-0,141	-0,128
305,706	800,000	-0,075	-0,205
306,720	800,000	-0,088	-0,178
307,735	-200,000	0,001	-0,103
308,749	800,000	-0,076	-0,172
309,764	26,296	-0,163	-0,093
310,779	-200,000	0,009	-0,048
311,793	800,000	-0,113	-0,246
312,808	327,749	-0,184	-0,243
313,822	137,778	-0,171	-0,154
314,837	224,450	-0,107	-0,120
315,852	273,196	-0,074	-0,090
316,866	-200,000	0,024	-0,088
317,881	-137,461	-0,107	0,008
318,895	800,000	-0,094	-0,189
319,910	372,227	-0,185	-0,259
320,925	74,417	-0,224	-0,162
321,939	29,083	-0,063	-0,037
322,954	573,663	-0,060	-0,101
323,968	49,325	-0,172	-0,111
324,983	95,274	-0,108	-0,085
325,997	26,513	-0,141	-0,081
327,012	45,545	-0,137	-0,087
328,027	157,440	-0,143	-0,136
329,041	-144,496	-0,176	-0,011
330,056	88,273	-0,141	-0,108
331,070	322,475	-0,032	0,043
332,085	-3,903	-0,109	-0,052
333,100	-124,072	-0,223	0,024
334,114	-38,038	-0,191	-0,069
335,129	39,307	-0,163	-0,100
336,143	108,464	-0,268	-0,219
337,158	-137,836	-0,222	-0,017
338,173	-200,000	-0,050	-0,165
339,187	417,352	-0,061	-0,089
340,202	-112,058	-0,116	-0,016
341,216	365,639	-0,124	-0,172
342,231	800,000	-0,061	-0,133
343,246	209,046	-0,185	-0,199
344,260	-2,587	-0,173	-0,083
345,275	800,000	-0,070	-0,195
346,289	-172,795	-0,201	-0,004
347,304	-65,082	-0,230	-0,063
348,319	-9,853	-0,042	0,019
349,333	65,080	-0,080	-0,055
350,348	-30,144	-0,113	-0,044
351,362	-46,277	-0,159	-0,053
352,377	18,431	-0,108	-0,059
353,392	800,000	-0,085	-0,173
354,406	143,001	-0,153	-0,140
355,421	206,920	1316,974	1409,934
356,435	159,145	1477,983	1410,408
