DTS Sentinel unit serial number:	SN410029Multiplexer serial number:	ORYXHardware model number:	OX2-SRSoftware version number:	ORYX F/W v4,00 Oryx Data Collector v3.7.2.0data status	okinstallation	B3 Nyhavnadifferential loss correction	single-endedforward channel	channel 1reverse channel	N/Adate	2023/12/03time	07:57:30forward acquisition time	300,00reverse acquisition time	0,00gamma	499,1914k internal	0,3201k external	0,3201temperature offset calibration	1,0000default loss term (dB/km)	0,3820temperature slope calibration	1,0000multiplexer offset coefficient	1,0000multiplexer slope coefficient	1,0000fibre end	0,00T internal ref (°C)	13,31T ext. ref 1 (°C)	-1,65T ext. ref 2 (°C)	-1,66length (m)	temperature (°C)	Stokes	anti-Stokes-744,400	-37,365	-0,288	-0,111
-743,385	800,000	-0,144	0,302
-742,371	800,000	-0,086	-0,252
-741,356	-200,000	0,034	0,296
-740,342	97,214	-0,232	-0,193
-739,327	800,000	0,080	0,220
-738,312	74,802	-0,272	-0,208
-737,298	365,329	-0,128	0,188
-736,283	800,000	-0,129	-0,367
-735,269	800,000	0,082	0,221
-734,254	-19,599	-0,241	-0,108
-733,239	51,744	-0,181	0,125
-732,225	800,000	-0,129	-0,281
-731,210	-95,805	0,123	0,024
-730,196	563,707	0,025	0,045
-729,181	-119,328	0,035	-0,004
-728,167	34,925	-0,158	0,100
-727,152	-127,393	-0,053	0,006
-726,137	285,594	-0,108	-0,142
-725,123	224,836	-0,030	-0,036
-724,108	800,000	-0,027	-0,071
-723,094	633,576	0,006	0,012
-722,079	244,344	0,009	-0,011
-721,064	71,036	0,059	0,044
-720,050	-200,000	-0,012	0,050
-719,035	-115,280	0,060	-0,008
-718,021	800,000	-0,026	0,063
-717,006	-118,048	-0,067	-0,009
-715,991	-200,000	0,010	-0,158
-714,977	-19,121	-0,179	-0,081
-713,962	9,136	-0,063	-0,034
-712,948	13,344	0,042	-0,024
-711,933	392,582	0,032	0,049
-710,918	-200,000	0,014	-0,116
-709,904	-97,178	-0,088	-0,017
-708,889	197,483	-0,045	-0,050
-707,875	-22,496	0,052	0,023
-706,860	182,783	-0,051	-0,054
-705,845	800,000	0,030	-0,067
-704,831	71,116	-0,087	0,065
-703,816	-200,000	-0,012	-0,120
-702,802	-58,201	-0,065	-0,020
-701,787	113,884	-0,111	-0,098
-700,772	800,000	0,060	-0,133
-699,758	37,633	0,078	-0,050
-698,743	32,336	0,096	-0,060
-697,729	-200,000	0,009	-0,079
-696,714	257,774	-0,064	0,080
-695,699	85,664	-0,030	-0,024
-694,685	528,515	0,098	-0,168
-693,670	-24,812	0,013	0,006
-692,656	243,319	0,006	-0,007
-691,641	800,000	-0,054	0,163
-690,627	21,317	0,060	-0,035
-689,612	-95,810	0,025	-0,005
-688,597	0,719	-0,162	-0,084
-687,583	800,000	-0,058	-0,134
-686,568	783,684	-0,057	-0,114
-685,554	55,085	-0,072	-0,050
-684,539	-200,000	-0,013	-0,139
-683,524	-185,754	-0,088	-0,001
-682,510	-111,643	-0,051	-0,007
-681,495	18,270	-0,044	-0,025
-680,481	-200,000	-0,010	-0,137
-679,466	800,000	-0,038	-0,087
-678,451	-63,008	-0,128	-0,038
-677,437	317,897	-0,054	-0,075
-676,422	800,000	-0,015	0,030
-675,408	255,874	0,066	0,083
-674,393	-138,360	0,086	0,007
-673,378	-200,000	-0,014	-0,086
-672,364	-57,912	-0,126	-0,040
-671,349	-41,656	-0,053	0,019
-670,335	36,443	0,047	0,030
-669,320	-83,397	-0,037	-0,009
-668,305	208,675	-0,010	-0,011
-667,291	-81,110	-0,078	-0,019
-666,276	-200,000	0,027	0,151
-665,262	72,089	-0,072	0,054
-664,247	-200,000	0,009	-0,051
-663,232	-200,000	0,000	-0,054
-662,218	-168,844	0,164	0,004
-661,203	160,108	-0,131	0,133
-660,189	800,000	-0,033	0,086
-659,174	41,353	-0,107	0,070
-658,159	800,000	-0,046	-0,139
-657,145	44,170	-0,138	0,091
-656,130	800,000	0,022	0,045
-655,116	-200,000	0,003	0,045
-654,101	-200,000	-0,011	0,059
-653,086	-200,000	0,030	0,110
-652,072	-200,000	0,044	-0,183
-651,057	217,559	-0,073	0,085
-650,043	-74,374	0,085	-0,022
-649,028	-200,000	0,019	0,096
-648,014	-49,524	0,055	-0,019
-646,999	314,436	-0,056	0,077
-645,984	284,908	-0,037	0,048
-644,970	-32,466	0,057	-0,023
-643,955	-200,000	0,000	-0,013
-642,941	-200,000	-0,129	-0,000
-641,926	-200,000	-0,004	-0,067
-640,911	464,327	-0,005	0,008
-639,897	800,000	0,028	-0,080
-638,882	171,955	-0,075	-0,078
-637,868	521,733	0,029	0,049
-636,853	-200,000	-0,013	-0,073
-635,838	-54,152	-0,036	-0,012
-634,824	-20,925	-0,099	0,044
-633,809	77,347	-0,023	0,018
-632,795	35,825	0,087	-0,055
-631,780	-131,344	0,035	0,003
-630,765	-45,745	-0,080	0,029
-629,751	-22,452	0,026	-0,011
-628,736	-21,128	-0,042	-0,019
-627,722	313,489	-0,084	-0,115
-626,707	113,596	-0,044	0,039
-625,692	-154,438	0,040	0,002
-624,678	-76,945	0,032	-0,008
-623,663	800,000	-0,044	0,128
-622,649	-82,824	-0,128	0,030
-621,634	108,268	-0,128	-0,111
-620,619	39,960	-0,154	-0,100
-619,605	800,000	0,030	0,089
-618,590	-200,000	-0,026	0,135
-617,576	383,684	0,060	0,090
-616,561	-200,000	-0,023	-0,105
-615,546	-200,000	0,015	-0,090
-614,532	-200,000	0,047	-0,211
-613,517	-96,697	-0,077	-0,015
-612,503	-112,966	-0,033	-0,005
-611,488	-38,024	0,049	0,019
-610,474	-123,493	0,075	0,009
-609,459	539,773	0,013	-0,022
-608,444	-24,620	-0,174	0,075
-607,430	-116,374	-0,131	0,017
-606,415	322,978	-0,103	-0,143
-605,401	287,422	-0,019	0,025
-604,386	493,868	-0,029	0,048
-603,371	194,797	0,013	-0,014
-602,357	49,569	0,078	-0,053
-601,342	508,009	-0,080	0,134
-600,328	800,000	0,041	-0,083
-599,313	-90,641	-0,138	0,029
-598,298	-145,421	-0,086	0,006
-597,284	800,000	0,043	0,101
-596,269	-43,920	0,103	-0,037
-595,255	-200,000	0,002	-0,014
-594,240	800,000	-0,010	0,021
-593,225	-200,000	-0,012	0,091
-592,211	-11,756	-0,143	0,068
-591,196	-200,000	0,001	0,054
-590,182	-200,000	0,011	0,121
-589,167	-200,000	0,014	0,095
-588,152	45,881	-0,076	0,051
-587,138	198,744	-0,051	0,057
-586,123	348,471	0,009	-0,012
-585,109	-80,467	-0,037	0,009
-584,094	-200,000	0,003	0,039
-583,079	-200,000	-0,019	-0,122
-582,065	148,410	-0,130	0,127
-581,050	-85,908	0,064	0,014
-580,036	-146,492	-0,073	-0,005
-579,021	-131,418	-0,087	-0,008
-578,006	167,131	-0,081	-0,084
-576,992	-56,691	0,102	0,033
-575,977	800,000	0,010	0,029
-574,963	60,785	0,081	0,058
-573,948	-101,632	-0,007	-0,001
-572,934	259,364	0,021	-0,026
-571,919	800,000	0,027	-0,071
-570,904	-200,000	-0,007	-0,058
-569,890	-200,000	-0,002	0,027
-568,875	-81,517	0,038	0,009
-567,861	11,043	0,118	-0,065
-566,846	-200,000	-0,000	-0,011
-565,831	321,914	-0,017	0,023
-564,817	800,000	0,028	-0,070
-563,802	26,540	-0,029	-0,018
-562,788	-137,209	-0,014	0,001
-561,773	-84,854	0,080	0,018
-560,758	115,489	0,077	0,068
-559,744	-60,973	0,122	0,037
-558,729	18,567	-0,050	-0,029
-557,715	76,359	-0,012	-0,009
-556,700	47,951	-0,107	0,072
-555,685	-74,288	0,065	0,017
-554,671	192,082	-0,087	0,095
-553,656	-144,157	0,224	-0,015
-552,642	-102,683	-0,038	-0,006
-551,627	224,888	0,008	0,009
-550,612	-37,869	0,091	-0,035
-549,598	-86,220	-0,210	0,046
-548,583	800,000	-0,074	-0,172
-547,569	130,975	0,148	-0,138
-546,554	126,008	-0,064	0,058
-545,539	-200,000	-0,015	0,051
-544,525	-42,350	0,059	-0,022
-543,510	-200,000	-0,028	-0,127
-542,496	-200,000	0,003	-0,107
-541,481	213,806	0,058	-0,067
-540,466	-200,000	0,007	-0,062
-539,452	43,077	0,121	-0,079
-538,437	630,537	0,006	0,012
-537,423	295,944	-0,101	0,133
-536,408	-122,086	-0,071	0,008
-535,393	119,948	-0,021	0,019
-534,379	-200,000	0,003	-0,026
-533,364	800,000	0,051	0,128
-532,350	-28,095	0,085	0,035
-531,335	800,000	-0,047	0,120
-530,321	-200,000	0,003	-0,015
-529,306	-200,000	-0,016	-0,077
-528,291	-200,000	0,008	-0,037
-527,277	785,949	0,064	-0,127
-526,262	-74,718	0,065	-0,017
-525,248	-163,877	-0,110	-0,004
-524,233	800,000	-0,027	0,059
-523,218	70,552	0,032	-0,024
-522,204	13,270	0,074	-0,042
-521,189	800,000	-0,020	0,052
-520,175	-200,000	-0,038	-0,123
-519,160	-4,064	-0,050	0,025
-518,145	-29,101	0,107	0,044
-517,131	-119,282	-0,109	-0,014
-516,116	-200,000	-0,013	-0,100
-515,102	-97,474	0,090	0,017
-514,087	575,004	-0,095	0,168
-513,072	-37,669	0,071	-0,027
-512,058	50,238	-0,051	-0,035
-511,043	-76,549	0,072	-0,018
-510,029	-123,595	0,031	0,004
-509,014	-123,182	-0,133	-0,015
-507,999	46,153	0,066	-0,044
-506,985	-151,986	0,111	0,006
-505,970	-75,083	-0,056	-0,014
-504,956	595,595	-0,016	0,029
-503,941	-125,754	0,050	-0,005
-502,926	-200,000	0,009	0,086
-501,912	-44,334	-0,102	0,037
-500,897	315,650	0,040	0,055
-499,883	-163,019	-0,049	0,002
-498,868	-133,116	-0,067	-0,006
-497,853	146,098	-0,078	-0,075
-496,839	800,000	-0,040	0,080
-495,824	-41,923	0,022	-0,008
-494,810	-200,000	0,016	-0,080
-493,795	618,032	0,072	-0,132
-492,781	-101,521	0,126	-0,022
-491,766	-200,000	0,001	-0,119
-490,751	800,000	0,054	-0,139
-489,737	3,146	-0,071	0,037
-488,722	-7,693	0,090	-0,044
-487,708	-200,000	-0,004	0,016
-486,693	109,451	0,042	0,036
-485,678	167,657	-0,093	-0,096
-484,664	-200,000	-0,024	-0,126
-483,649	77,743	-0,074	-0,057
-482,635	-175,152	0,131	-0,003
-481,620	184,584	-0,075	-0,080
-480,605	-91,204	0,135	0,028
-479,591	-2,430	0,153	-0,077
-478,576	-200,000	0,016	-0,103
-477,562	483,086	-0,015	-0,024
-476,547	-117,526	-0,103	0,013
-475,532	800,000	0,016	0,038
-474,518	800,000	-0,061	0,126
-473,503	169,221	-0,105	0,108
-472,489	345,566	0,059	0,083
-471,474	-103,618	0,078	-0,013
-470,459	-200,000	-0,023	-0,105
-469,445	80,613	-0,033	-0,026
-468,430	800,000	0,036	0,081
-467,416	269,434	0,087	-0,110
-466,401	48,325	-0,076	-0,051
-465,386	123,048	0,108	0,098
-464,372	-66,629	-0,071	-0,020
-463,357	155,793	-0,025	-0,025
-462,343	-138,790	-0,189	-0,015
-461,328	-51,831	0,061	-0,020
-460,313	140,351	-0,037	0,035
-459,299	27,274	-0,054	-0,032
-458,284	800,000	0,029	0,085
-457,270	-11,935	-0,061	0,028
-456,255	280,322	-0,058	0,075
-455,241	-200,000	0,013	0,144
-454,226	-200,000	0,001	0,112
-453,211	-148,322	-0,073	-0,004
-452,197	-200,000	-0,015	0,114
-451,182	-5,924	0,136	0,067
-450,168	800,000	0,013	0,033
-449,153	-168,734	-0,072	0,002
-448,138	2,441	-0,127	0,066
-447,124	-105,574	0,064	-0,010
-446,109	-200,000	0,001	0,029
-445,095	800,000	0,092	0,277
-444,080	509,376	-0,016	-0,027
-443,065	-200,000	-0,045	0,159
-442,051	-200,000	-0,012	0,083
-441,036	436,444	-0,047	0,074
-440,022	-200,000	-0,004	0,023
-439,007	-200,000	-0,027	0,092
-437,992	16,338	0,055	-0,031
-436,978	3,998	0,050	-0,026
-435,963	-16,253	0,096	0,044
-434,949	18,667	0,106	0,061
-433,934	44,315	-0,105	-0,069
-432,919	-86,912	0,136	-0,030
-431,905	92,047	0,073	-0,059
-430,890	-108,932	0,136	-0,021
-429,876	77,795	0,108	0,083
-428,861	800,000	0,023	0,051
-427,846	-200,000	-0,004	-0,111
-426,832	-200,000	-0,017	-0,096
-425,817	-53,164	-0,131	0,043
-424,803	346,186	0,076	0,108
-423,788	-200,000	-0,003	0,073
-422,773	-44,291	0,058	0,021
-421,759	793,396	-0,048	-0,096
-420,744	-47,569	0,078	-0,027
-419,730	388,926	-0,026	0,038
-418,715	35,356	0,051	-0,032
-417,701	-117,487	-0,052	0,007
-416,686	-100,471	0,127	-0,022
-415,671	2,014	0,042	-0,021
-414,657	800,000	0,050	0,108
-413,642	305,834	0,027	0,036
-412,628	123,779	-0,094	-0,085
-411,613	-200,000	-0,011	0,119
-410,598	103,889	-0,093	-0,078
-409,584	-200,000	-0,008	-0,152
-408,569	15,313	0,116	0,065
-407,555	-200,000	-0,010	0,038
-406,540	116,119	-0,061	0,054
-405,525	800,000	0,033	-0,073
-404,511	226,196	-0,106	0,123
-403,496	-200,000	0,026	0,134
-402,482	800,000	0,052	0,104
-401,467	215,648	0,040	-0,046
-400,452	800,000	0,055	0,123
-399,438	-78,797	-0,107	0,026
-398,423	137,980	-0,137	-0,129
-397,409	800,000	-0,066	-0,154
-396,394	-41,912	-0,014	-0,005
-395,379	-21,465	0,104	0,045
-394,365	121,366	0,020	0,018
-393,350	601,681	0,083	-0,149
-392,336	125,879	0,031	0,028
-391,321	-90,975	-0,062	-0,013
-390,306	520,890	-0,072	0,121
-389,292	-98,218	0,277	-0,051
-388,277	764,318	0,092	-0,180
-387,263	283,142	-0,093	0,120
-386,248	74,231	-0,031	0,023
-385,233	219,350	0,111	0,128
-384,219	800,000	-0,015	0,042
-383,204	-200,000	0,043	-0,139
-382,190	-77,342	-0,080	-0,020
-381,175	-113,900	-0,116	0,016
-380,160	-34,394	-0,097	0,038
-379,146	315,528	0,102	0,138
-378,131	-108,141	0,099	-0,015
-377,117	-200,000	-0,008	-0,030
-376,102	800,000	0,014	-0,043
-375,088	800,000	-0,029	-0,081
-374,073	-200,000	0,017	0,065
-373,058	800,000	0,042	0,087
-372,044	59,126	-0,042	0,030
-371,029	55,650	-0,129	0,089
-370,015	8,533	-0,116	-0,062
-369,000	35,008	-0,080	-0,050
-367,985	-200,000	-0,014	0,066
-366,971	-169,457	-0,007	-0,000
-365,956	701,354	0,046	-0,087
-364,942	169,956	0,030	-0,031
-363,927	72,034	0,136	0,101
-362,912	800,000	-0,029	0,074
-361,898	-200,000	-0,014	-0,075
-360,883	-123,042	-0,080	-0,009
-359,869	212,946	0,031	0,035
-358,854	-110,732	0,161	-0,024
-357,839	534,083	-0,034	-0,059
-356,825	-144,382	-0,081	0,005
-355,810	-200,000	-0,019	-0,064
-354,796	-25,157	0,120	-0,051
-353,781	120,539	-0,049	-0,044
-352,766	800,000	-0,029	-0,086
-351,752	27,047	-0,044	-0,026
-350,737	-200,000	0,035	0,126
-349,723	539,172	-0,037	0,063
-348,708	800,000	-0,015	-0,044
-347,693	173,317	-0,074	-0,077
-346,679	-200,000	-0,016	-0,103
-345,664	-200,000	-0,052	-0,230
-344,650	-200,000	0,015	0,061
-343,635	247,364	0,094	-0,114
-342,620	537,446	0,063	-0,107
-341,606	-84,747	0,100	0,022
-340,591	207,592	-0,055	0,062
-339,577	-94,083	-0,048	0,009
-338,562	-200,000	0,007	-0,049
-337,548	-39,400	0,141	0,053
-336,533	-200,000	-0,013	0,050
-335,518	131,480	-0,046	-0,042
-334,504	-93,757	0,005	-0,001
-333,489	-84,194	-0,064	0,014
-332,475	-8,160	0,044	-0,021
-331,460	12,001	-0,032	-0,017
-330,445	-107,640	0,027	0,004
-329,431	-12,403	-0,119	-0,056
-328,416	-49,165	0,065	0,022
-327,402	-200,000	-0,001	-0,018
-326,387	12,214	0,118	-0,065
-325,372	-158,735	-0,133	0,005
-324,358	-200,000	0,008	-0,035
-323,343	-200,000	0,013	0,057
-322,329	-154,885	-0,087	0,004
-321,314	-200,000	-0,024	-0,106
-320,299	-145,997	-0,150	0,009
-319,285	800,000	-0,022	0,067
-318,270	800,000	0,031	-0,074
-317,256	-200,000	-0,008	0,104
-316,241	-139,288	-0,051	-0,004
-315,226	-36,203	0,128	0,049
-314,212	142,251	0,081	-0,077
-313,197	540,640	-0,028	-0,048
-312,183	289,384	0,019	-0,025
-311,168	208,656	0,069	-0,077
-310,153	789,197	-0,034	-0,067
-309,139	48,202	-0,020	-0,014
-308,124	-84,214	0,013	0,003
-307,110	12,143	0,188	-0,103
-306,095	-153,783	0,087	-0,004
-305,080	-200,000	-0,013	0,082
-304,066	127,521	-0,066	-0,060
-303,051	165,359	0,015	-0,015
-302,037	266,770	0,027	-0,034
-301,022	62,586	0,121	0,087
-300,008	217,697	-0,031	0,036
-298,993	800,000	0,068	0,191
-297,978	-200,000	-0,015	0,056
-296,964	415,326	-0,025	-0,038
-295,949	-116,946	0,091	0,012
-294,935	-200,000	-0,013	0,044
-293,920	-200,000	0,012	-0,066
-292,905	800,000	-0,044	0,089
-291,891	247,869	0,032	-0,039
-290,876	-41,556	0,208	0,076
-289,862	-119,693	0,067	-0,008
-288,847	29,306	0,042	0,025
-287,832	-200,000	0,024	0,093
-286,818	186,157	-0,042	-0,045
-285,803	800,000	0,065	-0,160
-284,789	26,478	0,113	0,067
-283,774	800,000	-0,014	0,034
-282,759	-188,065	-0,056	0,001
-281,745	159,739	-0,076	0,076
-280,730	-92,208	0,082	0,016
-279,716	-147,784	0,138	0,008
-278,701	37,978	-0,049	0,031
-277,686	-200,000	-0,022	0,100
-276,672	-200,000	0,006	0,081
-275,657	-51,245	0,104	-0,035
-274,643	728,486	0,020	0,039
-273,628	-200,000	0,023	-0,091
-272,613	-200,000	0,031	-0,193
-271,599	-147,988	-0,014	-0,001
-270,584	315,828	0,082	0,111
-269,570	199,318	0,044	0,048
-268,555	334,249	-0,104	-0,145
-267,540	-200,000	0,022	-0,072
-266,526	717,796	0,015	0,028
-265,511	-90,790	-0,037	-0,008
-264,497	262,440	0,083	-0,103
-263,482	-150,996	-0,066	0,003
-262,467	-87,737	0,121	-0,026
-261,453	9,665	-0,089	-0,048
-260,438	-80,857	-0,079	-0,019
-259,424	-200,000	0,025	-0,087
-258,409	44,440	-0,086	-0,056
-257,395	800,000	-0,027	0,055
-256,380	144,466	-0,046	-0,044
-255,365	-29,103	0,109	0,044
-254,351	-86,734	0,069	0,015
-253,336	234,417	0,136	0,160
-252,322	-120,990	-0,030	-0,003
-251,307	-104,365	-0,192	-0,031
-250,292	-145,754	0,094	0,006
-249,278	-200,000	0,004	-0,017
-248,263	565,705	-0,040	0,069
-247,249	800,000	0,036	0,077
-246,234	-200,000	0,018	-0,092
-245,219	-176,273	-0,126	0,002
-244,205	800,000	-0,041	-0,082
-243,190	96,411	0,086	0,070
-242,176	-200,000	0,037	0,127
-241,161	79,653	0,037	0,029
-240,146	39,454	0,134	0,085
-239,132	800,000	-0,025	0,066
-238,117	-16,111	-0,097	-0,044
-237,103	-200,000	0,008	-0,155
-236,088	-200,000	0,009	0,037
-235,073	-106,946	0,102	-0,016
-234,059	255,865	0,047	0,058
-233,044	166,849	0,025	0,025
-232,030	-22,226	-0,031	-0,013
-231,015	-200,000	0,010	0,080
-230,000	-72,870	-0,082	0,021
-228,986	-128,103	-0,090	-0,009
-227,971	-136,488	0,136	-0,011
-226,957	208,357	0,048	0,054
-225,942	37,163	-0,055	0,035
-224,927	20,367	0,072	0,041
-223,913	-154,808	-0,116	0,005
-222,898	-200,000	0,007	-0,139
-221,884	-38,574	-0,145	-0,054
-220,869	120,602	0,090	-0,080
-219,855	13,365	-0,044	-0,024
-218,840	289,802	0,071	-0,092
-217,825	396,785	0,033	0,050
-216,811	68,978	-0,053	-0,039
-215,796	-200,000	-0,005	0,141
-214,782	212,380	-0,015	0,017
-213,767	-28,899	-0,149	-0,061
-212,752	169,603	-0,080	0,082
-211,738	-14,110	-0,044	-0,020
-210,723	23,780	0,015	-0,009
-209,709	6,736	0,117	-0,062
-208,694	-165,243	-0,020	-0,001
-207,679	-29,320	-0,067	-0,027
-206,665	-20,684	0,176	0,077
-205,650	44,058	-0,095	-0,062
-204,636	800,000	0,055	0,122
-203,621	501,455	0,067	0,111
-202,606	123,676	0,019	0,017
-201,592	-200,000	0,007	-0,186
-200,577	800,000	-0,096	-0,225
-199,563	-103,861	0,109	-0,018
-198,548	119,120	0,036	-0,032
-197,533	215,957	-0,031	-0,035
-196,519	340,041	-0,067	0,094
-195,504	-51,618	-0,104	-0,034
-194,490	144,668	0,029	-0,027
-193,475	-57,209	-0,130	-0,041
-192,460	173,124	0,019	0,020
-191,446	-200,000	0,047	-0,244
-190,431	800,000	-0,006	0,013
-189,417	93,481	-0,111	0,090
-188,402	-200,000	0,024	0,116
-187,387	-200,000	-0,001	0,017
-186,373	-200,000	0,006	-0,034
-185,358	63,539	0,024	-0,017
-184,344	154,140	0,089	0,087
-183,329	222,156	0,036	0,041
-182,315	800,000	-0,024	0,059
-181,300	188,947	0,016	-0,017
-180,285	-200,000	-0,052	-0,172
-179,271	800,000	0,031	-0,081
-178,256	-200,000	-0,011	-0,064
-177,242	-119,227	0,089	0,011
-176,227	212,359	0,058	0,066
-175,212	219,550	0,115	0,131
-174,198	800,000	-0,054	-0,123
-173,183	-200,000	0,043	-0,183
-172,169	-200,000	0,031	-0,194
-171,154	203,630	-0,060	-0,067
-170,139	-96,898	-0,053	0,010
-169,125	-200,000	0,004	0,030
-168,110	214,471	-0,081	0,091
-167,096	800,000	-0,046	0,127
-166,081	-200,000	0,012	0,052
-165,066	-94,129	0,038	-0,007
-164,052	-150,306	-0,204	-0,011
-163,037	40,204	0,092	-0,059
-162,023	-200,000	0,042	0,156
-161,008	-200,000	-0,024	-0,078
-159,993	356,025	-0,083	0,118
-158,979	-27,807	-0,069	0,028
-157,964	800,000	-0,034	-0,095
-156,950	-200,000	-0,009	-0,046
-155,935	-84,875	0,073	-0,016
-154,920	-65,172	-0,100	0,028
-153,906	-200,000	0,013	0,124
-152,891	102,057	-0,135	0,112
-151,877	-14,778	0,026	0,012
-150,862	24,306	-0,160	-0,094
-149,847	-78,235	-0,062	-0,015
-148,833	-77,609	-0,235	0,057
-147,818	800,000	0,042	0,095
-146,804	-160,271	0,053	0,002
-145,789	244,045	-0,079	0,095
-144,775	152,359	-0,073	-0,071
-143,760	-200,000	-0,000	-0,034
-142,745	-55,807	-0,063	0,020
-141,731	-88,365	-0,167	-0,035
-140,716	-136,854	0,081	-0,007
-139,702	800,000	0,034	0,104
-138,687	148,507	-0,045	0,043
-137,672	-50,007	-0,011	0,004
-136,658	86,870	0,071	-0,056
-135,643	35,411	-0,093	-0,058
-134,629	429,771	-0,050	0,078
-133,614	-9,470	0,076	0,036
-132,599	-89,301	-0,025	-0,005
-131,585	106,343	0,103	0,087
-130,570	468,380	-0,054	-0,086
-129,556	160,943	-0,072	-0,071
-128,541	769,614	-0,073	-0,142
-127,526	-200,000	0,013	-0,086
-126,512	199,718	-0,042	0,046
-125,497	-200,000	0,029	0,126
-124,483	242,458	0,092	0,109
-123,468	800,000	-0,004	0,012
-122,453	603,317	-0,015	0,027
-121,439	323,169	-0,126	0,172
-120,424	-200,000	0,016	0,061
-119,410	-200,000	0,025	0,099
-118,395	574,636	0,035	-0,061
-117,380	141,559	-0,104	0,097
-116,366	175,961	-0,039	-0,040
-115,351	541,076	-0,038	-0,065
-114,337	-94,413	-0,108	-0,021
-113,322	259,178	-0,018	-0,022
-112,307	-200,000	-0,009	-0,185
-111,293	-200,000	0,048	0,000
-110,278	-75,223	-0,059	0,015
-109,264	800,000	0,038	0,105
-108,249	525,431	-0,021	0,036
-107,234	12,906	-0,060	0,033
-106,220	-200,000	0,009	0,084
-105,205	544,128	-0,058	0,099
-104,191	-40,059	0,029	-0,011
-103,176	-151,521	0,105	0,005
-102,162	1,592	-0,054	0,028
-101,147	-200,000	-0,005	0,043
-100,132	316,968	-0,054	0,073
-99,118	-200,000	0,003	-0,127
-98,103	-200,000	-0,011	-0,038
-97,089	-200,000	-0,023	0,105
-96,074	796,953	0,048	0,093
-95,059	-200,000	0,016	0,058
-94,045	-200,000	0,004	0,040
-93,030	-124,942	-0,009	-0,001
-92,016	-200,000	-0,008	0,046
-91,001	-64,889	0,050	0,014
-89,986	325,067	0,122	0,166
-88,972	-83,123	-0,079	0,018
-87,957	792,211	-0,045	-0,088
-86,943	98,484	-0,085	0,069
-85,928	9,583	-0,084	0,045
-84,913	51,296	-0,049	-0,033
-83,899	47,771	-0,044	-0,029
-82,884	800,000	0,056	0,110
-81,870	-200,000	0,017	0,056
-80,855	458,927	0,050	-0,079
-79,840	163,741	-0,049	-0,049
-78,826	-117,850	-0,113	0,014
-77,811	557,333	-0,062	-0,107
-76,797	-92,658	0,076	0,015
-75,782	-85,688	-0,113	0,025
-74,767	-200,000	-0,049	-0,173
-73,753	44,463	0,114	0,074
-72,738	142,040	-0,106	-0,100
-71,724	43,436	0,008	0,005
-70,709	-35,794	-0,095	-0,036
-69,694	48,906	-0,045	0,030
-68,680	-67,066	-0,025	-0,007
-67,665	425,944	0,094	0,144
-66,651	-0,168	0,071	0,036
-65,636	-86,297	-0,124	0,027
-64,622	-200,000	0,024	0,088
-63,607	-77,157	-0,078	-0,019
-62,592	-200,000	0,005	-0,140
-61,578	-200,000	0,022	0,116
-60,563	565,137	-0,036	-0,062
-59,549	353,041	0,030	-0,042
-58,534	-19,265	-1,609	-0,704
-57,519	491,133	-1,293	-2,104
-56,505	-200,000	-0,532	-4,570
-55,490	155,191	1,000	0,975
-54,476	800,000	4,866	11,389
-53,461	-200,000	19,094	319,766
-52,446	-200,000	740,381	2334,141
-51,432	573,515	1655,558	2869,606
-50,417	78,339	1671,058	1262,169
-49,403	21,330	1543,903	885,775
-48,388	15,187	1466,441	811,457
-47,373	17,946	1456,435	819,219
-46,359	16,684	1446,561	807,581
-45,344	13,432	1441,753	789,287
-44,330	13,323	1440,085	787,819
-43,315	13,354	1438,174	786,895
-42,300	13,362	1436,570	786,023
-41,286	13,366	1435,348	785,343
-40,271	13,350	1433,972	784,481
-39,257	13,311	1432,712	783,577
-38,242	13,391	1431,482	783,251
-37,227	13,423	1430,174	782,656
-36,213	13,424	1428,962	781,967
-35,198	13,427	1427,581	781,196
-34,184	13,441	1426,862	780,835
-33,169	13,357	1425,418	779,620
-32,154	13,418	1424,403	779,319
-31,140	13,462	1422,896	778,672
-30,125	13,455	1422,037	778,139
-29,111	13,447	1420,771	777,380
-28,096	13,413	1419,747	776,624
-27,082	13,363	1418,671	775,772
-26,067	13,371	1417,400	775,081
-25,052	13,354	1416,469	774,461
-24,038	13,291	1415,591	773,654
-23,023	13,319	1414,523	773,175
-22,009	13,327	1413,366	772,549
-20,994	13,299	1412,675	772,007
-19,979	13,308	1411,741	771,508
-18,965	13,277	1410,832	770,835
-17,950	13,271	1409,757	770,188
-16,936	13,277	1408,985	769,766
-15,921	13,266	1407,652	768,957
-14,906	13,237	1406,903	768,381
-13,892	13,235	1405,979	767,837
-12,877	13,240	1405,060	767,329
-11,863	13,260	1404,165	766,903
-10,848	13,247	1403,411	766,399
-9,833	13,218	1402,614	765,798
-8,819	13,123	1401,686	764,818
-7,804	13,157	1400,710	764,412
-6,790	13,159	1399,486	763,725
-5,775	13,190	1398,367	763,227
-4,760	13,154	1397,679	762,652
-3,746	13,170	1396,662	762,142
-2,731	13,134	1395,978	761,571
-1,717	13,090	1395,133	760,879
-0,702	13,109	1393,174	759,866
0,313	16,931	1310,231	732,344
1,327	33,312	703,796	431,244
2,342	51,379	123,352	82,750
3,356	1,756	16,671	8,471
4,371	-11,149	3,277	1,523
5,386	25,606	0,468	0,275
6,400	368,190	0,133	0,190
7,415	24,318	-0,195	-0,113
8,429	61,013	-0,287	-0,201
9,444	103,977	-0,304	-0,252
10,459	-7,292	-0,352	-0,168
11,473	22,615	-0,293	-0,169
12,488	5,804	-0,325	-0,170
13,502	185,303	-0,250	-0,263
14,517	341,999	-0,192	-0,266
15,531	201,752	-0,333	-0,364
16,546	108,017	-0,292	-0,246
17,561	99,801	-0,373	-0,305
18,575	-160,109	-0,353	0,013
19,590	239,952	-0,187	-0,221
20,604	-14,639	-0,223	-0,101
21,619	72,396	-0,362	-0,266
22,634	43,048	-0,460	-0,296
23,648	43,232	-0,318	-0,204
24,663	136,799	-0,348	-0,321
25,677	5,388	-0,379	-0,197
26,692	197,988	-0,208	-0,225
27,707	131,992	-0,217	-0,198
28,721	46,310	-0,483	-0,315
29,736	53,505	-0,504	-0,341
30,750	-7,132	-0,292	-0,139
31,765	31,045	-0,412	-0,249
32,780	26,574	-0,411	-0,242
33,794	12,391	-0,251	-0,136
34,809	28,734	-0,387	-0,230
35,823	171,941	-0,294	-0,298
36,838	85,872	-0,421	-0,327
37,853	121,344	-0,320	-0,281
38,867	110,267	-0,400	-0,339
39,882	7,788	-0,391	-0,206
40,896	454,728	-0,231	-0,362
41,911	32,760	-0,368	-0,224
42,926	310,160	-0,280	-0,371
43,940	76,052	-0,284	-0,212
44,955	-67,391	-0,495	-0,136
45,969	48,526	-0,401	-0,265
46,984	398,548	-0,238	-0,352
47,999	456,750	-0,167	-0,262
49,013	12,321	-0,452	-0,245
50,028	222,919	-0,204	-0,233
51,042	-44,226	-0,313	-0,110
52,057	155,506	-0,314	-0,304
53,071	51,627	-0,455	-0,304
54,086	94,940	-0,330	-0,264
55,101	84,600	-0,235	-0,181
56,115	207,600	-0,283	-0,312
57,130	27,192	-0,257	-0,151
58,144	8,425	-0,477	-0,252
59,159	49,884	-0,424	-0,281
60,174	108,001	-0,303	-0,254
61,188	141,566	-0,294	-0,274
62,203	67,049	-0,266	-0,190
63,217	119,585	-0,272	-0,237
64,232	16,544	-0,385	-0,214
65,247	149,780	-0,309	-0,295
66,261	132,611	-0,357	-0,324
67,276	6,194	-0,364	-0,189
68,290	209,527	-0,308	-0,340
69,305	15,428	-0,344	-0,190
70,320	177,097	-0,142	-0,146
71,334	-42,616	-0,258	-0,092
72,349	-18,237	-0,363	-0,159
73,363	-7,987	-0,294	-0,139
74,378	-2,209	-0,375	-0,185
75,393	37,411	-0,371	-0,231
76,407	75,115	-0,253	-0,187
77,422	176,473	-0,219	-0,224
78,436	22,200	-0,246	-0,141
79,451	-25,652	-0,468	-0,193
80,466	169,231	-0,252	-0,253
81,480	104,491	-0,276	-0,228
82,495	106,231	-0,337	-0,280
83,509	120,627	-0,269	-0,235
84,524	-37,099	-0,290	-0,109
85,539	175,949	-0,240	-0,245
86,553	53,024	-0,227	-0,153
87,568	98,487	-0,352	-0,285
88,582	47,750	-0,298	-0,195
89,597	-10,864	-0,358	-0,166
90,611	38,768	-0,273	-0,171
91,626	-44,792	-0,220	-0,077
92,641	-116,038	-0,325	-0,042
93,655	41,010	-0,272	-0,172
94,670	-9,513	-0,249	-0,116
95,684	-23,718	-0,406	-0,170
96,699	184,177	-0,219	-0,228
97,714	128,378	-0,297	-0,265
98,728	68,315	-0,214	-0,153
99,743	-82,669	-0,193	-0,043
100,757	-90,245	-0,227	-0,046
101,772	27,404	-0,233	-0,137
102,787	-12,417	-0,335	-0,153
103,801	547,049	-0,176	-0,297
104,816	-2,915	-0,157	-0,076
105,830	-23,860	-0,357	-0,149
106,845	693,242	-0,118	-0,218
107,860	-28,602	-0,426	-0,171
108,874	41,519	-0,299	-0,190
109,889	92,244	-0,268	-0,212
110,903	12,061	-0,242	-0,130
111,918	575,160	-0,150	-0,258
112,933	800,000	-0,102	-0,270
113,947	225,065	-0,141	-0,160
114,962	130,057	-0,269	-0,241
115,976	65,737	-0,264	-0,187
116,991	-21,492	-0,376	-0,160
118,006	-57,761	-0,306	-0,093
119,020	149,912	-0,204	-0,194
120,035	79,336	-0,256	-0,192
121,049	157,179	-0,226	-0,219
122,064	-59,515	-0,099	-0,030
123,079	-134,249	-0,289	-0,025
124,093	63,848	-0,155	-0,109
125,108	23,557	-0,141	-0,081
126,122	154,481	-0,152	-0,146
127,137	-118,801	-0,261	-0,032
128,151	-78,848	-0,187	-0,044
129,166	2,261	-0,228	-0,115
130,181	133,581	-0,301	-0,272
131,195	-18,157	-0,310	-0,135
132,210	-9,941	-0,382	-0,177
133,224	70,443	-0,191	-0,138
134,239	9,195	-0,280	-0,147
135,254	-75,751	-0,273	-0,067
136,268	63,403	-0,179	-0,125
137,283	-24,374	-0,339	-0,141
138,297	236,825	-0,191	-0,222
139,312	294,445	-0,288	-0,369
140,327	-25,026	-0,252	-0,104
141,341	52,854	-0,295	-0,197
142,356	-19,732	-0,244	-0,105
143,370	-163,980	-0,199	0,006
144,385	297,855	-0,121	-0,156
145,400	1,404	-0,163	-0,082
146,414	187,903	-0,270	-0,282
147,429	-25,069	-0,359	-0,148
148,443	-35,469	-0,232	-0,087
149,458	-58,282	-0,201	0,061
150,473	29,107	-0,112	-0,066
151,487	-7,734	-0,346	-0,163
152,502	508,778	-0,113	-0,184
153,516	365,425	-0,229	-0,323
154,531	-13,376	-0,272	-0,123
155,546	278,079	-0,162	-0,201
156,560	181,299	-0,121	-0,124
157,575	-15,502	-0,228	-0,101
158,589	619,436	-0,179	-0,314
159,604	266,877	-0,164	-0,201
160,619	48,104	-0,285	-0,185
161,633	184,758	-0,234	-0,243
162,648	-3,217	-0,260	-0,126
163,662	-37,006	-0,235	0,087
164,677	39,618	-0,232	-0,145
165,692	145,935	-0,231	-0,216
166,706	154,691	-0,173	-0,166
167,721	93,966	-0,168	-0,133
168,735	275,975	-0,168	-0,208
169,750	170,430	-0,141	-0,141
170,764	-131,404	-0,267	-0,024
171,779	34,859	-0,172	-0,105
172,794	-8,608	-0,272	-0,127
173,808	316,093	-0,134	-0,177
174,823	92,788	-0,250	-0,197
175,837	210,460	-0,244	-0,268
176,852	338,800	-0,155	-0,211
177,867	-34,232	-0,138	-0,052
178,881	-36,679	-0,220	-0,082
179,896	-103,492	-0,247	-0,040
180,910	150,842	-0,219	-0,208
181,925	57,282	-0,355	-0,241
182,940	185,772	-0,264	-0,274
183,954	129,507	-0,164	-0,146
184,969	164,398	-0,171	-0,168
185,983	-28,824	-0,180	-0,072
186,998	-138,204	-0,170	-0,013
188,013	-138,885	-0,297	-0,022
189,027	-8,726	-0,154	-0,072
190,042	-41,369	-0,223	-0,080
191,056	279,220	-0,193	-0,240
192,071	-41,017	-0,234	-0,084
193,086	-22,225	-0,168	-0,070
194,100	-200,000	0,033	-0,107
195,115	127,789	-0,246	-0,217
196,129	191,427	-0,221	-0,232
197,144	657,497	-0,095	-0,171
198,159	-24,833	-0,310	-0,128
199,173	800,000	-0,048	-0,136
200,188	47,204	-0,268	-0,173
201,202	-112,931	-0,200	-0,027
202,217	9,154	-0,199	-0,104
203,232	310,822	-0,187	-0,245
204,246	134,102	-0,156	-0,140
205,261	-140,636	-0,222	-0,016
206,275	347,848	-0,167	-0,229
207,290	800,000	-0,039	-0,116
208,304	310,903	-0,191	-0,249
209,319	219,001	-0,166	-0,184
210,334	48,380	-0,245	-0,159
211,348	256,319	-0,120	-0,144
212,363	75,473	-0,173	-0,126
213,377	30,871	-0,142	-0,084
214,392	65,798	-0,215	-0,151
215,407	54,791	-0,157	-0,105
216,421	138,946	-0,191	-0,175
217,436	23,986	-0,215	-0,123
218,450	83,168	-0,286	-0,216
219,465	93,379	-0,314	-0,246
220,480	80,131	-0,244	-0,182
221,494	-46,338	-0,173	-0,059
222,509	-8,980	-0,181	-0,084
223,523	33,112	-0,149	-0,089
224,538	-0,489	-0,367	-0,180
225,553	5,586	-0,182	-0,093
226,567	91,362	-0,235	-0,183
227,582	400,296	-0,146	-0,213
228,596	234,291	-0,132	-0,152
229,611	611,300	-0,077	-0,135
230,626	-72,621	-0,172	-0,044
231,640	732,542	-0,047	-0,087
232,655	-24,639	-0,136	-0,056
233,669	-200,000	-0,073	-0,245
234,684	367,605	-0,169	-0,238
235,699	414,951	-0,171	-0,254
236,713	800,000	-0,090	-0,208
237,728	396,182	-0,112	-0,162
238,742	23,150	-0,208	-0,118
239,757	0,293	-0,287	-0,141
240,772	85,519	-0,288	-0,219
241,786	78,444	-0,222	-0,164
242,801	94,186	-0,138	-0,108
243,815	86,959	-0,191	-0,146
244,830	207,330	-0,177	-0,192
245,844	301,614	-0,154	-0,197
246,859	231,312	-0,155	-0,176
247,874	118,249	-0,099	-0,085
248,888	244,919	-0,207	-0,241
249,903	-41,858	-0,069	-0,024
250,917	-122,564	-0,187	-0,021
251,932	62,986	-0,182	-0,126
252,947	-93,679	-0,146	0,028
253,961	3,086	-0,178	-0,089
254,976	370,959	-0,119	-0,167
255,990	71,718	-0,310	-0,223
257,005	91,700	-0,236	-0,184
258,020	50,380	-0,167	-0,109
259,034	-71,992	-0,172	-0,044
260,049	-182,634	-0,214	0,003
261,063	102,741	-0,278	-0,225
262,078	479,595	-0,135	-0,212
263,093	-15,225	-0,154	-0,068
264,107	161,440	-0,168	-0,163
265,122	-200,000	-0,002	-0,114
266,136	135,007	-0,164	-0,147
267,151	-13,218	-0,190	-0,085
268,166	134,421	-0,121	-0,108
269,180	347,762	-0,134	-0,182
270,195	634,559	-0,156	-0,275
271,209	282,091	-0,152	-0,189
272,224	143,478	-0,202	-0,186
273,239	99,660	-0,174	-0,139
274,253	13,630	-0,295	-0,158
275,268	66,158	-0,261	-0,183
276,282	490,544	-0,134	-0,213
277,297	76,901	-0,242	-0,177
278,312	-16,744	-0,119	-0,052
279,326	92,632	-0,214	-0,167
280,341	-26,562	-0,125	-0,050
281,355	201,767	-0,121	-0,129
282,370	103,907	-0,327	-0,265
283,384	-29,867	-0,196	-0,077
284,399	148,446	-0,180	-0,168
285,414	57,563	-0,227	-0,153
286,428	-200,000	0,009	-0,119
287,443	-104,134	-0,104	0,017
288,457	368,497	-0,022	0,030
289,472	314,192	-0,093	-0,121
290,487	331,641	-0,154	-0,206
291,501	800,000	-0,096	-0,195
292,516	147,732	-0,146	-0,136
293,530	195,609	-0,149	-0,157
294,545	-97,975	-0,132	-0,023
295,560	-119,450	-0,119	-0,014
296,574	8,074	-0,043	-0,022
297,589	200,704	-0,066	-0,070
298,603	-68,319	-0,178	-0,047
299,618	50,875	-0,190	-0,124
300,633	776,790	-0,044	-0,082
301,647	-200,000	-0,013	-0,040
302,662	458,278	-0,157	0,241
303,676	99,339	-0,147	-0,117
304,691	102,722	-0,230	-0,185
305,706	-200,000	-0,004	-0,119
306,720	-3,910	-0,232	-0,111
307,735	1,626	-0,224	-0,111
308,749	-170,113	-0,159	0,004
309,764	-79,445	-0,179	-0,041
310,779	234,069	-0,087	-0,099
311,793	-200,000	-0,018	-0,133
312,808	396,043	-0,072	-0,104
313,822	-101,841	-0,201	-0,033
314,837	-109,120	-0,092	-0,013
315,852	800,000	-0,069	-0,191
316,866	-59,590	-0,065	0,019
317,881	8,121	-0,058	0,030
318,895	-104,713	-0,117	0,018
319,910	29,134	-0,236	0,137
320,925	45,140	-0,206	-0,130
321,939	188,693	-0,173	-0,178
322,954	800,000	-0,092	-0,240
323,968	612,143	-0,107	-0,185
324,983	-111,108	-0,179	-0,025
325,997	-134,984	-0,086	-0,007
327,012	-1,431	-0,205	-0,099
328,027	107,246	-0,156	-0,127
329,041	-93,148	-0,158	0,030
330,056	-51,640	0,019	-0,006
331,070	63,897	-0,073	-0,050
332,085	-112,116	-0,176	-0,024
333,100	-126,282	-0,159	-0,016
334,114	-58,567	-0,138	-0,041
335,129	-56,717	-0,198	-0,060
336,143	-101,459	-0,158	-0,026
337,158	29,819	-0,115	-0,067
338,173	186,038	-0,031	-0,032
339,187	-21,705	-0,125	-0,052
340,202	424,031	-0,129	-0,191
341,216	-85,714	-0,125	0,026
342,231	369,008	-0,106	-0,148
343,246	-200,000	-0,056	-0,194
344,260	-61,910	-0,250	-0,071
345,275	304,404	-0,161	-0,206
346,289	-200,000	0,025	-0,130
347,304	-126,882	-0,066	-0,007
348,319	5,182	-0,193	-0,097
349,333	2,329	-0,176	-0,087
350,348	281,295	-0,139	-0,172
351,362	309,768	-0,058	-0,075
352,377	90,917	-0,112	-0,086
353,392	-200,000	-0,016	0,052
354,406	-111,967	-0,146	-0,020
355,421	209,058	1313,882	1412,963
356,435	160,881	1474,510	1413,447
