DTS Sentinel unit serial number:	SN410029Multiplexer serial number:	ORYXHardware model number:	OX2-SRSoftware version number:	ORYX F/W v4,00 Oryx Data Collector v3.7.2.0data status	okinstallation	B3 Nyhavnadifferential loss correction	single-endedforward channel	channel 1reverse channel	N/Adate	2023/11/29time	08:37:30forward acquisition time	300,00reverse acquisition time	0,00gamma	499,1914k internal	0,3212k external	0,3212temperature offset calibration	1,0000default loss term (dB/km)	0,3820temperature slope calibration	1,0000multiplexer offset coefficient	1,0000multiplexer slope coefficient	1,0000fibre end	0,00T internal ref (°C)	8,92T ext. ref 1 (°C)	-5,80T ext. ref 2 (°C)	-5,91length (m)	temperature (°C)	Stokes	anti-Stokes-744,400	-200,000	-0,089	-0,349
-743,385	800,000	-0,079	0,241
-742,371	800,000	-0,073	-0,204
-741,356	-200,000	-0,060	0,275
-740,342	448,427	-0,190	-0,305
-739,327	800,000	-0,115	0,343
-738,312	106,522	-0,277	-0,238
-737,298	800,000	-0,065	0,175
-736,283	127,513	-0,236	-0,217
-735,269	530,624	0,143	0,245
-734,254	800,000	-0,070	-0,186
-733,239	47,917	-0,276	0,186
-732,225	-200,000	-0,013	-0,162
-731,210	-40,789	0,135	0,050
-730,196	-50,128	0,128	-0,044
-729,181	75,036	-0,049	0,038
-728,167	45,048	-0,108	0,072
-727,152	-200,000	-0,001	-0,007
-726,137	-200,000	0,005	-0,018
-725,123	-44,627	-0,035	0,013
-724,108	-92,339	-0,213	-0,043
-723,094	186,945	-0,115	-0,125
-722,079	-200,000	-0,001	-0,112
-721,064	-200,000	-0,001	-0,018
-720,050	232,260	-0,104	0,124
-719,035	147,453	-0,035	-0,034
-718,021	-200,000	-0,039	-0,152
-717,006	179,214	0,017	-0,018
-715,991	35,367	-0,183	-0,116
-714,977	-200,000	0,005	-0,043
-713,962	800,000	-0,024	0,048
-712,948	-78,499	0,087	0,021
-711,933	-200,000	-0,000	0,077
-710,918	259,798	-0,030	-0,038
-709,904	-200,000	-0,024	-0,086
-708,889	228,751	0,013	-0,016
-707,875	685,340	0,043	-0,082
-706,860	800,000	0,011	0,034
-705,845	-11,699	-0,067	-0,032
-704,831	19,110	0,093	-0,054
-703,816	254,833	-0,056	-0,070
-702,802	-69,190	0,054	0,015
-701,787	361,551	-0,114	-0,165
-700,772	131,075	-0,056	-0,052
-699,758	-200,000	0,032	-0,126
-698,743	336,977	0,072	-0,102
-697,729	257,263	0,108	0,134
-696,714	-200,000	0,005	0,016
-695,699	120,702	-0,022	-0,020
-694,685	754,040	0,028	-0,056
-693,670	122,959	-0,027	-0,025
-692,656	97,198	-0,067	-0,056
-691,641	-109,057	0,042	-0,006
-690,627	115,991	0,126	0,112
-689,612	-74,468	-0,129	0,033
-688,597	173,226	-0,045	-0,047
-687,583	97,746	-0,052	-0,044
-686,568	-118,294	-0,167	0,021
-685,554	27,303	0,028	-0,017
-684,539	-200,000	0,009	-0,033
-683,524	-4,865	-0,027	0,014
-682,510	800,000	0,070	0,165
-681,495	-21,964	-0,081	-0,036
-680,481	800,000	0,020	-0,050
-679,466	800,000	-0,035	-0,084
-678,451	-39,695	-0,054	0,020
-677,437	-200,000	0,006	0,126
-676,422	800,000	-0,041	-0,098
-675,408	-200,000	0,020	0,105
-674,393	-121,071	-0,026	-0,003
-673,378	366,208	-0,066	-0,096
-672,364	-74,909	0,161	-0,042
-671,349	61,803	-0,137	-0,099
-670,335	-70,471	-0,055	0,015
-669,320	149,899	0,018	-0,018
-668,305	800,000	0,062	-0,125
-667,291	109,576	-0,014	-0,012
-666,276	154,955	-0,055	-0,054
-665,262	342,431	-0,089	-0,126
-664,247	27,476	-0,068	0,041
-663,232	282,611	-0,097	-0,126
-662,218	-183,122	0,063	-0,001
-661,203	800,000	0,028	0,059
-660,189	158,188	-0,083	-0,083
-659,174	-64,740	-0,094	0,027
-658,159	-184,534	-0,111	0,001
-657,145	104,016	0,045	-0,038
-656,130	-200,000	-0,006	-0,066
-655,116	800,000	-0,070	-0,182
-654,101	800,000	0,042	-0,094
-653,086	-200,000	-0,013	-0,086
-652,072	95,277	0,166	-0,137
-651,057	-7,893	-0,116	-0,056
-650,043	-27,406	-0,100	0,042
-649,028	-200,000	-0,014	0,091
-648,014	-64,870	0,040	-0,012
-646,999	-53,442	-0,067	0,022
-645,984	50,901	0,114	-0,078
-644,970	-82,310	0,074	-0,017
-643,955	600,849	0,047	0,084
-642,941	-18,712	-0,254	-0,114
-641,926	-200,000	-0,012	0,096
-640,911	800,000	0,020	0,048
-639,897	800,000	-0,061	0,148
-638,882	-15,238	-0,051	0,023
-637,868	800,000	0,024	-0,058
-636,853	-200,000	-0,020	-0,190
-635,838	800,000	-0,025	-0,059
-634,824	-174,403	0,069	0,001
-633,809	-200,000	-0,075	0,284
-632,795	206,223	0,047	0,052
-631,780	-73,556	0,108	0,028
-630,765	-9,471	-0,158	-0,076
-629,751	-200,000	0,016	-0,091
-628,736	324,542	-0,056	-0,077
-627,722	-200,000	0,018	0,114
-626,707	-146,439	0,104	-0,006
-625,692	-118,939	0,086	0,011
-624,678	-50,284	-0,019	-0,006
-623,663	-200,000	-0,048	-0,198
-622,649	-13,071	-0,029	0,014
-621,634	706,152	-0,074	-0,141
-620,619	-184,287	-0,103	0,001
-619,605	210,500	0,032	-0,036
-618,590	-56,492	0,163	-0,052
-617,576	-200,000	0,027	0,131
-616,561	800,000	0,051	-0,105
-615,546	703,505	-0,038	0,073
-614,532	193,866	-0,064	-0,070
-613,517	800,000	0,005	-0,012
-612,503	-153,773	0,131	-0,006
-611,488	-73,370	0,118	0,031
-610,474	129,819	0,124	-0,115
-609,459	325,258	0,077	0,107
-608,444	36,531	-0,106	0,068
-607,430	-200,000	0,007	0,067
-606,415	-66,477	-0,090	-0,026
-605,401	-200,000	-0,007	0,082
-604,386	-39,023	-0,074	-0,028
-603,371	67,455	-0,021	-0,015
-602,357	394,194	-0,015	0,023
-601,342	800,000	-0,023	-0,053
-600,328	144,580	-0,097	-0,093
-599,313	155,270	-0,056	-0,056
-598,298	153,207	0,125	-0,124
-597,284	-200,000	0,006	-0,118
-596,269	-116,544	0,169	-0,022
-595,255	67,306	0,066	-0,048
-594,240	-200,000	-0,029	0,146
-593,225	138,796	-0,017	0,016
-592,211	-113,062	0,106	-0,015
-591,196	-94,065	0,117	0,023
-590,182	-96,531	-0,107	0,020
-589,167	-107,334	-0,155	-0,024
-588,152	48,419	0,143	-0,096
-587,138	-200,000	0,025	-0,101
-586,123	800,000	0,038	0,101
-585,109	-110,603	-0,019	0,003
-584,094	-118,004	-0,145	0,018
-583,079	-159,203	0,069	-0,003
-582,065	-118,546	-0,109	0,014
-581,050	-200,000	0,008	-0,040
-580,036	-35,633	-0,096	0,037
-579,021	5,193	-0,038	-0,020
-578,006	-32,481	-0,013	0,005
-576,992	-200,000	-0,002	0,017
-575,977	232,043	0,116	0,138
-574,963	-174,819	0,053	0,001
-573,948	24,584	-0,032	0,019
-572,934	3,826	-0,160	0,084
-571,919	-45,236	0,094	-0,034
-570,904	34,873	-0,089	0,056
-569,890	800,000	-0,071	-0,222
-568,875	800,000	0,032	0,069
-567,861	-102,144	-0,103	-0,018
-566,846	413,548	-0,027	-0,041
-565,831	3,191	-0,094	-0,049
-564,817	14,256	-0,123	0,069
-563,802	-200,000	-0,060	-0,218
-562,788	69,122	-0,094	0,070
-561,773	-90,037	0,110	0,023
-560,758	231,997	0,067	0,079
-559,744	-10,234	-0,042	-0,020
-558,729	-38,573	0,091	0,034
-557,715	800,000	0,051	0,104
-556,700	-121,733	0,095	-0,011
-555,685	42,529	-0,102	0,067
-554,671	-101,739	0,072	-0,012
-553,656	-87,630	0,089	-0,019
-552,642	800,000	0,038	0,081
-551,627	-156,520	0,083	-0,004
-550,612	800,000	-0,050	-0,152
-549,598	-200,000	0,007	0,074
-548,583	520,533	0,053	0,090
-547,569	800,000	0,023	0,060
-546,554	227,986	-0,019	0,022
-545,539	182,975	-0,045	-0,048
-544,525	2,340	-0,050	0,026
-543,510	190,572	-0,070	0,076
-542,496	465,894	-0,072	0,117
-541,481	-200,000	0,002	0,060
-540,466	-51,143	0,047	0,016
-539,452	-183,388	0,115	0,001
-538,437	-200,000	0,013	0,050
-537,423	268,234	0,025	-0,032
-536,408	109,507	-0,043	0,037
-535,393	-200,000	-0,015	-0,093
-534,379	304,700	-0,099	-0,133
-533,364	-55,080	0,044	0,014
-532,350	435,251	0,074	0,116
-531,335	-200,000	0,018	-0,076
-530,321	29,159	0,033	0,020
-529,306	-200,000	-0,012	-0,071
-528,291	505,764	0,083	-0,139
-527,277	-9,491	-0,024	0,011
-526,262	-200,000	-0,045	-0,180
-525,248	-200,000	-0,017	-0,080
-524,233	55,801	0,099	0,069
-523,218	7,324	-0,146	-0,078
-522,204	-99,168	0,078	-0,014
-521,189	611,586	0,052	0,094
-520,175	58,215	-0,096	-0,067
-519,160	-139,986	0,052	-0,004
-518,145	255,764	-0,039	0,048
-517,131	654,101	0,085	0,158
-516,116	156,850	0,100	0,100
-515,102	652,267	0,039	-0,072
-514,087	-134,613	-0,102	-0,009
-513,072	499,660	0,029	-0,048
-512,058	283,474	-0,034	-0,043
-511,043	189,240	0,067	-0,072
-510,029	583,663	-0,032	-0,056
-509,014	735,219	-0,057	0,110
-507,999	1,384	0,058	0,030
-506,985	622,632	-0,057	-0,104
-505,970	-52,320	-0,100	-0,033
-504,956	723,506	0,027	0,051
-503,941	800,000	-0,044	-0,116
-502,926	93,991	-0,043	-0,035
-501,912	66,489	0,085	0,062
-500,897	-200,000	-0,005	0,131
-499,883	7,666	-0,059	-0,032
-498,868	498,717	-0,044	-0,074
-497,853	-119,192	-0,136	0,017
-496,839	-60,279	0,065	-0,020
-495,824	19,851	-0,091	0,052
-494,810	91,916	0,023	-0,018
-493,795	41,450	-0,017	-0,011
-492,781	323,525	-0,024	0,033
-491,766	-200,000	0,011	-0,045
-490,751	197,310	0,027	0,029
-489,737	361,513	-0,069	0,099
-488,722	66,447	0,065	0,047
-487,708	-98,106	0,114	0,021
-486,693	-200,000	-0,017	0,065
-485,678	230,091	0,034	-0,040
-484,664	-35,231	-0,141	-0,055
-483,649	800,000	-0,022	-0,056
-482,635	-0,942	-0,073	0,037
-481,620	357,940	0,150	-0,216
-480,605	-200,000	0,011	-0,056
-479,591	453,530	0,069	0,110
-478,576	89,613	-0,154	-0,123
-477,562	240,646	-0,016	0,019
-476,547	7,188	-0,095	-0,051
-475,532	3,189	-0,113	0,059
-474,518	-200,000	0,017	-0,087
-473,503	71,666	-0,108	0,080
-472,489	34,300	0,083	0,052
-471,474	-200,000	0,009	0,055
-470,459	-21,831	-0,130	-0,056
-469,445	800,000	0,033	0,070
-468,430	56,565	0,064	0,045
-467,416	-35,183	-0,060	-0,023
-466,401	800,000	-0,032	0,086
-465,386	137,538	-0,042	-0,040
-464,372	104,195	0,143	-0,121
-463,357	-125,076	0,023	0,002
-462,343	-200,000	0,001	-0,058
-461,328	-200,000	-0,011	-0,078
-460,313	134,538	0,014	-0,013
-459,299	-8,993	0,177	0,085
-458,284	-29,101	-0,139	0,057
-457,270	36,593	0,086	-0,054
-456,255	-200,000	0,001	-0,157
-455,241	-200,000	0,028	-0,121
-454,226	65,384	-0,164	0,118
-453,211	-200,000	0,045	0,146
-452,197	-56,564	0,096	0,030
-451,182	110,877	0,058	-0,050
-450,168	708,045	-0,049	0,093
-449,153	20,558	-0,068	0,040
-448,138	800,000	-0,058	0,133
-447,124	653,010	0,025	-0,045
-446,109	381,345	-0,053	0,078
-445,095	-33,914	-0,014	0,006
-444,080	-38,626	0,025	0,009
-443,065	-4,474	0,042	-0,021
-442,051	-47,451	0,127	0,044
-441,036	8,915	-0,096	-0,052
-440,022	278,963	0,037	-0,047
-439,007	-200,000	0,006	0,071
-437,992	-200,000	0,010	0,067
-436,978	720,297	0,045	0,085
-435,963	773,988	-0,048	0,094
-434,949	800,000	0,047	0,120
-433,934	13,536	-0,078	0,043
-432,919	153,565	-0,046	-0,045
-431,905	-200,000	0,015	0,091
-430,890	-51,900	0,060	0,020
-429,876	622,415	0,077	0,139
-428,861	-140,896	0,134	-0,010
-427,846	-81,266	0,052	0,012
-426,832	800,000	0,067	-0,135
-425,817	567,674	0,080	-0,140
-424,803	47,237	0,101	0,067
-423,788	-34,463	-0,164	0,064
-422,773	-110,170	0,104	0,015
-421,759	320,969	-0,027	-0,036
-420,744	-200,000	-0,025	0,106
-419,730	37,862	0,032	0,020
-418,715	-65,812	-0,045	0,013
-417,701	-96,049	-0,139	0,026
-416,686	214,811	0,087	0,099
-415,671	800,000	0,034	0,071
-414,657	-129,553	0,027	-0,003
-413,642	7,630	0,048	0,025
-412,628	466,027	-0,115	-0,186
-411,613	800,000	-0,031	-0,078
-410,598	297,757	0,043	0,057
-409,584	-200,000	0,008	-0,037
-408,569	99,401	-0,087	0,072
-407,555	280,844	0,041	0,053
-406,540	480,228	-0,040	0,066
-405,525	-46,381	-0,087	-0,030
-404,511	11,887	-0,168	-0,092
-403,496	270,421	-0,003	-0,003
-402,482	709,605	-0,028	-0,054
-401,467	94,681	0,014	0,011
-400,452	-49,810	0,019	0,006
-399,438	-78,262	-0,060	-0,015
-398,423	-200,000	-0,024	-0,084
-397,409	287,315	-0,038	-0,050
-396,394	-12,727	-0,050	0,023
-395,379	-82,484	0,134	0,031
-394,365	-13,242	-0,021	-0,010
-393,350	800,000	0,061	0,134
-392,336	270,594	-0,041	-0,052
-391,321	-200,000	0,005	0,041
-390,306	-200,000	0,054	-0,185
-389,292	-135,462	0,100	-0,008
-388,277	68,092	0,102	0,075
-387,263	-1,912	-0,071	0,035
-386,248	-57,562	0,054	0,017
-385,233	-200,000	-0,005	-0,048
-384,219	666,850	0,010	0,018
-383,204	29,265	-0,056	-0,034
-382,190	-200,000	-0,007	-0,055
-381,175	259,981	-0,068	0,084
-380,160	687,589	-0,025	-0,046
-379,146	-42,154	0,026	0,010
-378,131	-34,257	-0,056	0,022
-377,117	-148,140	0,141	0,008
-376,102	142,653	0,067	-0,064
-375,088	61,805	-0,067	0,047
-374,073	78,284	0,057	0,043
-373,058	23,961	-0,039	0,023
-372,044	-155,066	-0,099	-0,005
-371,029	234,829	0,175	0,206
-370,015	-200,000	0,002	0,083
-369,000	-79,150	-0,117	0,028
-367,985	-200,000	-0,003	-0,113
-366,971	277,161	0,126	-0,160
-365,956	-200,000	0,053	-0,168
-364,942	544,698	-0,027	0,046
-363,927	800,000	0,033	-0,065
-362,912	334,273	0,048	-0,067
-361,898	333,257	0,037	-0,051
-360,883	-104,009	0,121	-0,020
-359,869	-200,000	-0,001	-0,115
-358,854	466,206	0,066	-0,106
-357,839	139,660	0,045	-0,042
-356,825	-200,000	0,038	0,151
-355,810	-200,000	-0,003	-0,063
-354,796	-145,460	-0,138	-0,009
-353,781	-112,866	-0,039	0,005
-352,766	78,784	0,019	-0,014
-351,752	105,929	-0,008	0,007
-350,737	800,000	0,044	-0,125
-349,723	4,989	0,036	-0,019
-348,708	244,864	0,067	0,081
-347,693	378,477	0,058	0,085
-346,679	-200,000	0,022	-0,166
-345,664	0,900	0,049	-0,025
-344,650	-160,564	-0,107	0,004
-343,635	-77,150	0,016	0,004
-342,620	-200,000	0,003	0,093
-341,606	-200,000	0,018	0,122
-340,591	3,204	0,071	0,037
-339,577	-104,986	-0,050	-0,008
-338,562	-101,093	-0,064	-0,011
-337,548	-91,605	-0,049	-0,010
-336,533	-157,621	-0,026	-0,001
-335,518	575,729	0,062	0,108
-334,504	-85,342	0,098	0,022
-333,489	485,001	-0,055	0,089
-332,475	-200,000	0,012	-0,074
-331,460	800,000	0,031	-0,068
-330,445	-36,351	0,082	-0,032
-329,431	112,302	0,107	-0,092
-328,416	-200,000	0,002	-0,045
-327,402	324,059	0,040	0,055
-326,387	6,207	0,033	-0,017
-325,372	179,484	-0,068	0,071
-324,358	800,000	0,040	0,100
-323,343	-200,000	0,028	-0,147
-322,329	126,832	0,094	0,085
-321,314	53,250	0,104	0,071
-320,299	-200,000	0,009	0,056
-319,285	3,308	-0,053	0,028
-318,270	-152,255	-0,164	0,008
-317,256	731,542	-0,090	-0,173
-316,241	7,157	0,065	-0,035
-315,226	143,806	0,066	0,062
-314,212	800,000	-0,029	0,062
-313,197	-150,494	0,150	0,008
-312,183	-82,635	0,055	-0,013
-311,168	800,000	-0,094	-0,246
-310,153	-200,000	0,000	0,151
-309,139	85,548	-0,085	0,067
-308,124	34,440	0,029	0,018
-307,110	-146,408	0,190	0,012
-306,095	-62,263	0,043	0,013
-305,080	-5,867	-0,026	0,013
-304,066	-155,871	0,126	-0,006
-303,051	524,331	-0,062	-0,105
-302,037	342,609	-0,014	0,019
-301,022	46,456	-0,095	0,063
-300,008	-2,264	-0,077	0,038
-298,993	785,095	0,015	-0,029
-297,978	92,004	-0,010	-0,008
-296,964	-200,000	0,013	-0,069
-295,949	-9,955	-0,084	0,040
-294,935	234,254	-0,082	-0,096
-293,920	375,012	0,014	0,021
-292,905	800,000	-0,015	0,043
-291,891	698,856	-0,041	-0,076
-290,876	-200,000	-0,037	0,155
-289,862	-2,607	-0,044	0,022
-288,847	800,000	0,044	-0,106
-287,832	417,679	-0,108	-0,165
-286,818	269,652	-0,114	0,142
-285,803	800,000	0,031	0,072
-284,789	-175,553	0,033	0,001
-283,774	800,000	-0,068	0,174
-282,759	-200,000	0,009	0,051
-281,745	-200,000	0,013	0,050
-280,730	-200,000	0,015	0,124
-279,716	-200,000	0,013	0,093
-278,701	410,703	0,026	0,040
-277,686	-200,000	0,007	0,070
-276,672	-42,147	-0,039	0,014
-275,657	-168,812	0,066	-0,002
-274,643	-54,092	-0,082	-0,026
-273,628	-200,000	0,003	0,016
-272,613	-200,000	-0,013	-0,065
-271,599	181,806	-0,058	-0,061
-270,584	497,878	-0,002	0,003
-269,570	-200,000	-0,030	0,174
-268,555	800,000	-0,014	-0,028
-267,540	13,133	0,061	0,034
-266,526	73,085	0,093	0,069
-265,511	417,087	0,036	-0,056
-264,497	-200,000	0,005	-0,175
-263,482	-200,000	-0,011	-0,116
-262,467	5,383	0,150	0,079
-261,453	-17,349	-0,123	-0,055
-260,438	-89,956	0,069	0,014
-259,424	-200,000	-0,014	0,149
-258,409	-52,736	-0,037	-0,012
-257,395	-200,000	0,002	0,098
-256,380	336,607	0,083	0,115
-255,365	-200,000	-0,021	0,084
-254,351	-30,531	0,167	0,067
-253,336	-10,682	-0,037	0,018
-252,322	-200,000	-0,033	-0,127
-251,307	-120,252	0,116	-0,014
-250,292	133,430	-0,095	0,087
-249,278	27,508	-0,016	-0,010
-248,263	-87,114	-0,073	0,016
-247,249	-120,256	-0,146	-0,017
-246,234	-200,000	-0,006	-0,064
-245,219	405,795	-0,125	-0,189
-244,205	-14,096	-0,162	-0,074
-243,190	41,084	-0,109	0,070
-242,176	247,947	0,075	0,090
-241,161	521,990	0,007	-0,012
-240,146	132,504	-0,124	0,113
-239,132	49,845	-0,083	-0,055
-238,117	6,669	-0,123	-0,065
-237,103	-200,000	0,011	-0,117
-236,088	-200,000	-0,003	-0,030
-235,073	223,866	0,051	-0,059
-234,059	-91,708	-0,020	-0,004
-233,044	84,153	0,031	-0,024
-232,030	735,669	-0,038	-0,074
-231,015	-131,768	-0,122	-0,011
-230,000	84,169	-0,026	0,020
-228,986	-200,000	-0,007	-0,143
-227,971	-200,000	0,008	0,121
-226,957	-42,882	0,077	-0,028
-225,942	800,000	0,019	-0,055
-224,927	-104,401	0,102	0,017
-223,913	37,455	-0,016	0,010
-222,898	-45,045	0,138	-0,048
-221,884	-60,991	-0,034	0,010
-220,869	-200,000	0,005	-0,043
-219,855	-37,349	0,099	-0,037
-218,840	-200,000	0,019	0,170
-217,825	19,102	-0,172	-0,098
-216,811	-200,000	-0,017	-0,130
-215,796	-6,733	-0,008	0,004
-214,782	-25,457	0,050	-0,021
-213,767	364,496	-0,053	0,075
-212,752	-52,520	0,073	-0,024
-211,738	800,000	0,019	-0,058
-210,723	-200,000	-0,006	-0,050
-209,709	800,000	0,051	-0,136
-208,694	-200,000	-0,000	-0,129
-207,679	-17,458	-0,130	0,058
-206,665	71,161	-0,118	-0,087
-205,650	182,515	0,056	0,059
-204,636	-52,523	-0,155	-0,050
-203,621	-65,125	0,073	-0,021
-202,606	371,264	0,046	-0,067
-201,592	130,486	-0,017	-0,015
-200,577	-61,849	0,104	-0,031
-199,563	-88,442	-0,068	-0,014
-198,548	-200,000	0,002	0,059
-197,533	221,618	0,046	-0,053
-196,519	800,000	-0,018	-0,040
-195,504	-200,000	-0,029	0,095
-194,490	800,000	-0,013	-0,032
-193,475	105,125	-0,069	0,057
-192,460	-20,874	-0,147	0,064
-191,446	-55,837	0,148	-0,047
-190,431	49,726	0,036	0,024
-189,417	99,478	0,048	-0,040
-188,402	-200,000	-0,021	-0,130
-187,387	-7,324	-0,109	-0,052
-186,373	-200,000	0,015	-0,061
-185,358	-200,000	-0,015	-0,134
-184,344	-18,187	-0,036	-0,016
-183,329	2,636	0,042	0,022
-182,315	76,124	0,075	0,056
-181,300	-111,306	-0,034	-0,005
-180,285	-95,664	0,124	0,023
-179,271	800,000	-0,028	-0,067
-178,256	552,362	0,128	0,219
-177,242	-53,661	0,066	-0,021
-176,227	-200,000	0,011	0,083
-175,212	509,067	-0,038	0,063
-174,198	-92,639	0,174	0,034
-173,183	800,000	-0,032	-0,096
-172,169	-200,000	0,007	-0,064
-171,154	-200,000	-0,000	0,113
-170,139	-44,342	0,076	0,027
-169,125	-39,286	0,080	0,030
-168,110	-200,000	0,010	0,098
-167,096	-153,120	-0,118	-0,006
-166,081	203,897	-0,108	-0,119
-165,066	87,275	-0,129	-0,101
-164,052	-75,260	0,139	-0,035
-163,037	70,302	0,082	0,060
-162,023	325,724	-0,063	0,085
-161,008	-7,653	0,134	0,064
-159,993	17,338	0,054	-0,030
-158,979	-200,000	-0,014	0,114
-157,964	-58,714	-0,153	0,047
-156,950	800,000	-0,036	-0,099
-155,935	-65,099	0,016	-0,004
-154,920	-80,760	-0,155	0,036
-153,906	-159,733	0,138	0,005
-152,891	800,000	-0,043	0,084
-151,877	113,797	-0,065	-0,056
-150,862	800,000	0,025	-0,054
-149,847	698,190	-0,040	-0,074
-148,833	-47,501	0,013	0,005
-147,818	-16,745	0,057	0,026
-146,804	800,000	0,028	0,066
-145,789	82,504	0,014	0,011
-144,775	-200,000	0,007	-0,043
-143,760	-136,387	0,089	0,007
-142,745	-200,000	-0,012	0,054
-141,731	-152,431	-0,104	-0,005
-140,716	800,000	0,037	-0,093
-139,702	382,188	-0,060	0,087
-138,687	-151,952	0,054	-0,003
-137,672	65,978	-0,051	0,037
-136,658	524,867	0,035	-0,058
-135,643	44,260	0,048	0,031
-134,629	77,238	0,058	-0,044
-133,614	-33,695	0,087	0,034
-132,599	800,000	-0,023	0,050
-131,585	17,997	0,071	0,040
-130,570	-200,000	-0,010	0,045
-129,556	-100,415	-0,107	0,019
-128,541	23,747	-0,060	0,035
-127,526	84,160	-0,119	-0,092
-126,512	800,000	0,046	-0,108
-125,497	52,481	0,124	0,084
-124,483	369,504	-0,090	0,129
-123,468	-116,527	-0,078	-0,010
-122,453	-89,967	-0,180	-0,037
-121,439	-178,858	0,055	0,001
-120,424	-30,936	-0,056	-0,022
-119,410	-200,000	-0,001	-0,019
-118,395	-200,000	-0,035	-0,159
-117,380	-200,000	0,012	0,074
-116,366	-200,000	-0,010	-0,094
-115,351	800,000	-0,082	-0,198
-114,337	111,063	-0,104	-0,089
-113,322	800,000	-0,020	0,051
-112,307	-200,000	0,014	0,099
-111,293	-29,636	0,059	-0,024
-110,278	-55,781	0,080	-0,025
-109,264	111,298	0,102	0,087
-108,249	-200,000	-0,008	-0,076
-107,234	90,853	-0,083	-0,066
-106,220	142,161	-0,059	-0,056
-105,205	-2,726	0,061	0,030
-104,191	134,219	0,063	0,058
-103,176	-77,827	-0,100	0,024
-102,162	-102,217	-0,086	-0,014
-101,147	125,278	-0,137	-0,122
-100,132	667,837	-0,042	-0,078
-99,118	306,432	0,047	0,062
-98,103	-200,000	0,050	-0,165
-97,089	-200,000	0,006	-0,045
-96,074	-40,715	0,024	0,009
-95,059	-200,000	0,012	-0,086
-94,045	-32,596	-0,088	-0,034
-93,030	-200,000	-0,023	-0,212
-92,016	800,000	-0,053	-0,108
-91,001	-200,000	-0,006	-0,056
-89,986	124,503	0,020	0,018
-88,972	-115,892	0,033	-0,004
-87,957	67,968	-0,036	-0,026
-86,943	-200,000	0,033	-0,110
-85,928	-19,180	0,036	0,016
-84,913	96,681	-0,032	-0,025
-83,899	-128,925	0,050	0,005
-82,884	-200,000	0,056	-0,176
-81,870	-46,818	0,046	-0,016
-80,855	744,822	-0,042	0,081
-79,840	-200,000	-0,025	-0,110
-78,826	240,532	-0,095	0,112
-77,811	-200,000	-0,008	-0,065
-76,797	245,406	0,027	-0,032
-75,782	83,805	-0,198	-0,152
-74,767	-45,279	0,220	0,077
-73,753	800,000	-0,037	-0,103
-72,738	101,731	-0,078	-0,064
-71,724	308,967	-0,053	-0,070
-70,709	604,853	-0,134	-0,237
-69,694	800,000	-0,049	-0,109
-68,680	310,779	0,094	0,124
-67,665	800,000	-0,096	0,226
-66,651	-25,626	-0,165	-0,069
-65,636	153,588	0,017	0,016
-64,622	-95,117	0,075	0,014
-63,607	-104,779	-0,211	0,034
-62,592	233,839	-0,069	-0,080
-61,578	-200,000	0,036	-0,144
-60,563	-200,000	-0,029	-0,111
-59,549	800,000	-0,027	0,074
-58,534	33,620	-2,139	-1,309
-57,519	511,318	-1,106	-1,824
-56,505	-200,000	-0,371	-4,411
-55,490	800,000	0,821	1,701
-54,476	800,000	5,181	11,456
-53,461	-200,000	21,846	337,759
-52,446	800,000	759,140	2295,200
-51,432	532,467	1652,602	2770,092
-50,417	69,086	1650,310	1195,391
-49,403	16,564	1525,138	847,999
-48,388	10,738	1449,615	777,972
-47,373	18,982	1441,913	813,175
-46,359	14,086	1430,676	783,645
-45,344	9,030	1426,646	757,451
-44,330	8,982	1424,569	756,091
-43,315	8,944	1422,916	755,001
-42,300	8,952	1421,176	754,087
-41,286	9,052	1419,855	753,831
-40,271	8,984	1418,891	752,966
-39,257	8,926	1417,433	751,890
-38,242	9,009	1416,398	751,699
-37,227	8,971	1415,353	750,939
-36,213	8,989	1414,059	750,305
-35,198	9,005	1412,743	749,655
-34,184	9,043	1411,842	749,325
-33,169	8,922	1410,418	747,972
-32,154	8,949	1409,655	747,662
-31,140	9,013	1408,098	747,108
-30,125	9,010	1406,946	746,452
-29,111	9,021	1405,813	745,872
-28,096	9,024	1404,864	745,354
-27,082	8,970	1403,481	744,339
-26,067	8,904	1402,508	743,486
-25,052	8,968	1401,405	743,170
-24,038	8,958	1400,458	742,590
-23,023	8,967	1399,711	742,209
-22,009	8,921	1398,412	741,278
-20,994	8,921	1397,616	740,822
-19,979	8,920	1396,576	740,237
-18,965	8,932	1395,569	739,734
-17,950	8,923	1394,621	739,158
-16,936	8,876	1393,855	738,506
-15,921	8,871	1392,760	737,874
-14,906	8,888	1391,791	737,406
-13,892	8,899	1390,717	736,861
-12,877	8,900	1390,032	736,475
-11,863	8,850	1389,436	735,897
-10,848	8,848	1388,458	735,343
-9,833	8,835	1387,383	734,683
-8,819	8,764	1386,897	734,068
-7,804	8,740	1385,721	733,308
-6,790	8,788	1384,515	732,860
-5,775	8,742	1383,671	732,174
-4,760	8,754	1382,857	731,767
-3,746	8,824	1381,669	731,431
-2,731	8,834	1380,848	731,016
-1,717	8,769	1379,809	730,138
-0,702	8,750	1378,332	729,239
0,313	12,815	1289,820	700,866
1,327	28,769	681,720	406,193
2,342	44,694	117,494	76,047
3,356	0,492	16,477	8,274
4,371	-8,779	3,657	1,722
5,386	-6,456	1,218	0,583
6,400	800,000	0,284	0,567
7,415	-63,494	-0,215	-0,062
8,429	232,645	-0,190	-0,221
9,444	134,734	-0,219	-0,200
10,459	11,930	-0,375	-0,203
11,473	77,059	-0,268	-0,201
12,488	31,248	-0,241	-0,145
13,502	-45,844	-0,315	-0,109
14,517	-1,223	-0,415	-0,206
15,531	86,838	-0,336	-0,261
16,546	30,043	-0,324	-0,194
17,561	140,231	-0,316	-0,294
18,575	150,436	-0,230	-0,220
19,590	-38,928	-0,449	-0,166
20,604	-5,966	-0,237	-0,114
21,619	-33,024	-0,576	-0,224
22,634	158,398	-0,341	-0,333
23,648	58,900	-0,492	-0,340
24,663	102,828	-0,398	-0,327
25,677	6,598	-0,294	-0,153
26,692	39,857	-0,274	-0,173
27,707	23,911	-0,388	-0,224
28,721	52,201	-0,436	-0,292
29,736	132,164	-0,347	-0,315
30,750	65,988	-0,331	-0,236
31,765	44,268	-0,356	-0,230
32,780	-23,155	-0,472	-0,199
33,794	107,380	-0,294	-0,246
34,809	83,957	-0,269	-0,207
35,823	100,392	-0,316	-0,258
36,838	39,276	-0,371	-0,233
37,853	52,769	-0,415	-0,278
38,867	354,530	-0,291	-0,408
39,882	-34,340	-0,321	-0,123
40,896	65,106	-0,239	-0,169
41,911	178,365	-0,271	-0,279
42,926	139,531	-0,272	-0,251
43,940	134,040	-0,432	-0,393
44,955	71,545	-0,430	-0,313
45,969	263,674	-0,256	-0,313
46,984	54,514	-0,339	-0,229
47,999	-14,630	-0,364	-0,164
49,013	111,402	-0,282	-0,239
50,028	-98,506	-0,359	-0,064
51,042	210,539	-0,285	-0,315
52,057	37,530	-0,284	-0,176
53,071	170,436	-0,288	-0,289
54,086	159,017	-0,354	-0,345
55,101	230,461	-0,358	-0,412
56,115	259,420	-0,085	-0,104
57,130	38,934	-0,307	-0,192
58,144	163,816	-0,352	-0,348
59,159	99,194	-0,375	-0,304
60,174	8,631	-0,378	-0,199
61,188	82,071	-0,236	-0,179
62,203	7,363	-0,282	-0,147
63,217	380,661	-0,159	-0,229
64,232	70,205	-0,225	-0,162
65,247	146,290	-0,302	-0,284
66,261	151,159	-0,272	-0,260
67,276	-44,644	-0,295	-0,103
68,290	172,577	-0,300	-0,303
69,305	30,002	-0,372	-0,222
70,320	6,923	-0,295	-0,154
71,334	156,058	-0,224	-0,217
72,349	30,368	-0,327	-0,196
73,363	189,900	-0,271	-0,285
74,378	60,854	-0,295	-0,205
75,393	193,106	-0,305	-0,323
76,407	321,469	-0,188	-0,252
77,422	103,694	-0,233	-0,192
78,436	404,448	-0,180	-0,266
79,451	-10,285	-0,467	-0,216
80,466	11,627	-0,378	-0,202
81,480	168,251	-0,228	-0,227
82,495	155,244	-0,319	-0,307
83,509	-38,545	-0,397	-0,146
84,524	102,290	-0,346	-0,283
85,539	97,808	-0,200	-0,161
86,553	22,421	-0,318	-0,181
87,568	51,837	-0,348	-0,231
88,582	22,532	-0,321	-0,183
89,597	102,958	-0,420	-0,344
90,611	26,859	-0,384	-0,225
91,626	191,894	-0,244	-0,257
92,641	43,826	-0,261	-0,167
93,655	5,395	-0,362	-0,186
94,670	78,670	-0,294	-0,220
95,684	69,308	-0,361	-0,259
96,699	-7,877	-0,435	-0,205
97,714	-21,475	-0,230	-0,098
98,728	29,316	-0,200	-0,119
99,743	-120,253	-0,170	0,020
100,757	81,777	-0,260	-0,196
101,772	102,773	-0,196	-0,160
102,787	-27,028	-0,340	-0,138
103,801	142,810	-0,267	-0,248
104,816	160,576	-0,212	-0,207
105,830	117,280	-0,327	-0,281
106,845	50,822	-0,204	-0,135
107,860	26,944	-0,304	-0,178
108,874	104,575	-0,239	-0,197
109,889	171,346	-0,255	-0,256
110,903	61,279	-0,262	-0,181
111,918	237,046	-0,131	-0,152
112,933	98,982	-0,153	-0,123
113,947	-71,947	-0,362	-0,093
114,962	136,511	-0,201	-0,183
115,976	84,133	-0,261	-0,199
116,991	-28,394	-0,414	-0,166
118,006	133,366	-0,257	-0,232
119,020	-66,479	-0,298	-0,082
120,035	800,000	-0,057	-0,151
121,049	193,666	-0,192	-0,203
122,064	36,074	-0,190	-0,116
123,079	326,477	-0,222	-0,297
124,093	-60,133	-0,255	-0,075
125,108	140,382	-0,249	-0,229
126,122	-2,544	-0,245	-0,119
127,137	37,740	-0,378	-0,234
128,151	516,424	-0,070	-0,115
129,166	-65,879	-0,284	-0,079
130,181	101,100	-0,192	-0,156
131,195	157,903	-0,253	-0,245
132,210	48,897	-0,296	-0,193
133,224	136,026	-0,276	-0,251
134,239	701,294	-0,128	-0,236
135,254	535,625	-0,134	-0,222
136,268	80,135	-0,247	-0,185
137,283	100,675	-0,289	-0,234
138,297	-61,723	-0,369	-0,107
139,312	222,516	-0,177	-0,199
140,327	46,222	-0,299	-0,193
141,341	-46,152	-0,213	-0,073
142,356	-62,782	-0,425	-0,122
143,370	48,080	-0,147	-0,096
144,385	270,689	-0,103	-0,126
145,400	119,465	-0,236	-0,203
146,414	106,525	-0,269	-0,222
147,429	238,726	-0,216	-0,250
148,443	237,255	-0,159	-0,184
149,458	182,877	-0,140	-0,144
150,473	10,129	-0,255	-0,135
151,487	35,008	-0,293	-0,178
152,502	345,349	-0,117	-0,160
153,516	40,365	-0,259	-0,162
154,531	62,976	-0,181	-0,126
155,546	119,414	-0,198	-0,171
156,560	523,161	-0,184	-0,302
157,575	227,174	-0,210	-0,237
158,589	38,494	-0,423	-0,262
159,604	414,992	-0,140	-0,208
160,619	181,761	-0,281	-0,288
161,633	336,166	-0,200	-0,270
162,648	310,909	-0,183	-0,240
163,662	22,480	-0,199	-0,113
164,677	-6,210	-0,177	-0,083
165,692	-114,498	-0,262	-0,035
166,706	-87,095	-0,343	-0,072
167,721	42,996	-0,272	-0,172
168,735	127,390	-0,219	-0,194
169,750	86,903	-0,327	-0,251
170,764	181,476	-0,214	-0,218
171,779	-53,841	-0,306	-0,096
172,794	160,569	-0,241	-0,234
173,808	26,150	-0,203	-0,118
174,823	800,000	-0,086	-0,212
175,837	217,072	-0,140	-0,155
176,852	77,958	-0,190	-0,140
177,867	91,160	-0,164	-0,127
178,881	168,308	-0,214	-0,211
179,896	-7,482	-0,252	-0,118
180,910	-108,545	-0,226	-0,033
181,925	-76,149	-0,343	-0,083
182,940	94,631	-0,203	-0,160
183,954	290,791	-0,257	-0,325
184,969	138,914	-0,195	-0,178
185,983	365,844	-0,093	-0,130
186,998	104,905	-0,143	-0,117
188,013	12,293	-0,244	-0,130
189,027	-19,129	-0,238	-0,102
190,042	56,444	-0,310	-0,209
191,056	115,048	-0,229	-0,193
192,071	153,116	-0,181	-0,172
193,086	-14,506	-0,185	-0,082
194,100	126,544	-0,077	-0,068
195,115	225,492	-0,170	-0,191
196,129	120,741	-0,203	-0,175
197,144	141,790	-0,158	-0,145
198,159	541,534	-0,076	-0,126
199,173	99,562	-0,176	-0,141
200,188	-123,489	-0,245	-0,027
201,202	-99,328	-0,172	-0,030
202,217	75,985	-0,147	-0,107
203,232	236,135	-0,184	-0,211
204,246	226,219	-0,093	-0,105
205,261	168,901	-0,287	-0,284
206,275	154,274	-0,192	-0,183
207,290	-48,408	-0,165	-0,055
208,304	-67,801	-0,219	-0,059
209,319	-96,664	-0,194	-0,035
210,334	251,021	-0,161	-0,189
211,348	60,651	-0,297	-0,204
212,363	118,117	-0,173	-0,148
213,377	50,793	-0,270	-0,177
214,392	-6,814	-0,326	-0,153
215,407	372,888	-0,127	-0,179
216,421	258,793	-0,097	-0,116
217,436	800,000	-0,080	-0,185
218,450	-35,272	-0,219	-0,082
219,465	97,521	-0,166	-0,132
220,480	-77,014	-0,232	-0,056
221,494	352,836	-0,147	-0,203
222,509	-59,557	-0,184	0,054
223,523	303,659	-0,245	-0,315
224,538	397,423	-0,166	-0,241
225,553	800,000	-0,110	-0,227
226,567	59,842	-0,159	-0,108
227,582	103,772	-0,141	-0,114
228,596	334,292	-0,095	-0,128
229,611	61,244	-0,103	-0,071
230,626	83,069	-0,119	-0,090
231,640	-77,307	-0,312	-0,074
232,655	81,225	-0,195	-0,145
233,669	133,649	-0,189	-0,169
234,684	139,500	-0,148	-0,134
235,699	-17,789	-0,259	-0,112
236,713	-200,000	-0,023	-0,157
237,728	218,270	-0,129	-0,142
238,742	175,593	-0,212	-0,212
239,757	369,966	-0,192	-0,269
240,772	-89,804	-0,329	-0,066
241,786	199,813	-0,194	-0,205
242,801	-200,000	-0,034	-0,135
243,815	251,314	-0,036	-0,042
244,830	114,274	-0,124	-0,104
245,844	380,742	-0,113	-0,161
246,859	407,062	-0,127	-0,186
247,874	105,678	-0,139	-0,114
248,888	800,000	-0,069	-0,148
249,903	-200,000	0,011	-0,179
250,917	89,777	-0,161	-0,124
251,932	98,013	-0,163	-0,130
252,947	-74,553	-0,193	-0,048
253,961	168,765	-0,186	-0,183
254,976	-116,183	-0,173	-0,022
255,990	-21,011	-0,288	-0,121
257,005	-122,378	-0,099	-0,011
258,020	209,638	-0,069	-0,074
259,034	76,990	-0,093	-0,068
260,049	-113,377	-0,142	-0,019
261,063	36,675	-0,211	-0,128
262,078	19,267	-0,206	-0,113
263,093	-15,191	-0,305	-0,134
264,107	-200,000	-0,047	-0,278
265,122	266,267	-0,180	-0,218
266,136	53,857	-0,263	-0,174
267,151	17,368	-0,181	-0,099
268,166	107,955	-0,210	-0,173
269,180	109,762	-0,150	-0,124
270,195	271,157	-0,199	-0,241
271,209	800,000	-0,092	-0,222
272,224	-115,370	-0,245	0,031
273,239	155,366	-0,135	-0,128
274,253	54,721	-0,076	-0,051
275,268	502,386	-0,054	-0,086
276,282	16,532	-0,193	-0,105
277,297	428,085	-0,105	-0,156
278,312	800,000	-0,048	-0,139
279,326	565,172	-0,093	-0,155
280,341	-200,000	-0,058	-0,230
281,355	-31,373	-0,091	-0,035
282,370	-24,399	-0,286	-0,117
283,384	21,007	-0,127	-0,071
284,399	475,151	-0,073	-0,114
285,414	208,414	-0,134	-0,144
286,428	-76,361	-0,207	-0,050
287,443	-155,347	-0,250	0,011
288,457	-173,183	-0,105	-0,002
289,472	113,078	-0,217	-0,181
290,487	248,521	-0,118	-0,138
291,501	60,976	-0,151	-0,103
292,516	0,473	-0,223	-0,109
293,530	342,791	-0,126	-0,170
294,545	171,539	-0,122	-0,121
295,560	245,521	-0,175	-0,203
296,574	64,546	-0,183	-0,127
297,589	80,604	-0,116	-0,086
298,603	139,861	-0,163	-0,148
299,618	-160,107	-0,080	-0,003
300,633	161,760	-0,133	-0,128
301,647	800,000	-0,042	-0,099
302,662	-85,830	-0,145	-0,031
303,676	-60,653	-0,216	-0,062
304,691	-46,725	-0,134	-0,045
305,706	150,521	-0,124	0,116
306,720	-152,273	-0,297	-0,014
307,735	141,278	-0,133	-0,121
308,749	-105,423	-0,110	-0,017
309,764	314,384	-0,130	-0,168
310,779	137,013	-0,128	-0,115
311,793	-40,533	-0,083	0,029
312,808	64,145	-0,120	-0,083
313,822	29,183	-0,194	-0,113
314,837	34,602	-0,201	-0,120
315,852	797,227	-0,051	-0,097
316,866	-152,815	-0,149	-0,007
317,881	135,087	-0,072	-0,064
318,895	48,710	-0,111	-0,071
319,910	149,880	-0,103	-0,096
320,925	800,000	-0,049	-0,140
321,939	-92,551	-0,246	-0,047
322,954	22,917	0,054	-0,030
323,968	139,831	-0,151	-0,137
324,983	53,008	-0,164	-0,107
325,997	-13,863	-0,152	-0,067
327,012	72,849	-0,138	-0,098
328,027	80,373	-0,266	-0,196
329,041	800,000	-0,058	-0,135
330,056	-98,538	-0,186	0,032
331,070	78,643	-0,063	-0,046
332,085	-124,199	-0,103	0,011
333,100	205,096	-0,154	-0,164
334,114	-105,550	-0,163	-0,025
335,129	216,586	-0,156	-0,170
336,143	-97,232	-0,262	-0,046
337,158	560,697	-0,075	-0,125
338,173	800,000	-0,066	-0,152
339,187	286,450	-0,045	0,055
340,202	-2,731	-0,218	-0,104
341,216	8,911	-0,212	-0,109
342,231	352,101	-0,058	0,079
343,246	56,734	-0,123	-0,082
344,260	-140,439	-0,116	-0,008
345,275	800,000	-0,032	-0,065
346,289	-200,000	-0,019	-0,133
347,304	-135,866	-0,081	0,006
348,319	-149,438	-0,054	0,003
349,333	284,581	-0,175	-0,216
350,348	800,000	-0,123	-0,268
351,362	800,000	0,037	-0,072
352,377	-17,984	-0,147	-0,063
353,392	722,020	-0,136	-0,249
354,406	110,270	-0,096	-0,079
355,421	208,726	1303,769	1396,243
356,435	160,624	1463,108	1396,714
