DTS Sentinel unit serial number:	SN410029Multiplexer serial number:	ORYXHardware model number:	OX2-SRSoftware version number:	ORYX F/W v4,00 Oryx Data Collector v3.7.2.0data status	okinstallation	B3 Nyhavnadifferential loss correction	single-endedforward channel	channel 1reverse channel	N/Adate	2023/12/03time	06:37:30forward acquisition time	300,00reverse acquisition time	0,00gamma	499,1914k internal	0,3202k external	0,3202temperature offset calibration	1,0000default loss term (dB/km)	0,3820temperature slope calibration	1,0000multiplexer offset coefficient	1,0000multiplexer slope coefficient	1,0000fibre end	0,00T internal ref (°C)	13,31T ext. ref 1 (°C)	-1,76T ext. ref 2 (°C)	-1,78length (m)	temperature (°C)	Stokes	anti-Stokes-744,400	794,039	-0,222	-0,447
-743,385	-200,000	0,015	0,285
-742,371	370,403	-0,223	-0,330
-741,356	-200,000	0,022	0,304
-740,342	75,058	-0,151	-0,115
-739,327	-200,000	0,002	0,318
-738,312	21,990	-0,251	-0,149
-737,298	100,521	-0,249	0,210
-736,283	120,983	-0,178	-0,161
-735,269	800,000	0,098	0,288
-734,254	198,824	-0,139	-0,155
-733,239	114,244	-0,181	0,160
-732,225	-200,000	-0,028	-0,107
-731,210	800,000	-0,082	0,209
-730,196	-200,000	-0,017	-0,067
-729,181	123,556	-0,082	-0,074
-728,167	34,104	-0,110	-0,069
-727,152	-149,483	0,126	-0,007
-726,137	-105,627	-0,149	0,024
-725,123	800,000	-0,034	-0,103
-724,108	-3,673	-0,115	-0,058
-723,094	105,320	-0,077	-0,066
-722,079	-200,000	0,003	-0,156
-721,064	418,062	0,056	-0,088
-720,050	547,611	-0,084	-0,146
-719,035	-76,128	-0,282	-0,072
-718,021	800,000	-0,031	-0,088
-717,006	-50,407	-0,041	0,014
-715,991	155,330	-0,098	-0,098
-714,977	580,108	-0,069	-0,123
-713,962	11,295	0,095	-0,053
-712,948	427,678	-0,028	-0,044
-711,933	411,325	0,094	-0,145
-710,918	-200,000	0,002	-0,069
-709,904	800,000	-0,054	-0,112
-708,889	727,225	0,043	-0,083
-707,875	535,312	-0,074	-0,128
-706,860	55,217	-0,038	-0,027
-705,845	-200,000	0,014	0,050
-704,831	53,064	-0,053	0,037
-703,816	-200,000	-0,005	0,060
-702,802	-192,039	-0,097	0,001
-701,787	-110,940	-0,057	0,008
-700,772	-200,000	-0,004	-0,147
-699,758	135,813	-0,043	0,041
-698,743	-137,769	0,078	0,006
-697,729	800,000	0,007	-0,018
-696,714	-200,000	0,021	0,217
-695,699	-121,282	-0,104	0,012
-694,685	544,849	-0,048	-0,084
-693,670	441,907	-0,117	-0,186
-692,656	-200,000	-0,024	-0,273
-691,641	430,406	0,096	-0,152
-690,627	800,000	0,029	-0,084
-689,612	107,521	-0,059	-0,051
-688,597	-200,000	-0,026	-0,228
-687,583	19,480	-0,113	-0,066
-686,568	-200,000	0,007	0,067
-685,554	29,983	-0,048	-0,030
-684,539	63,385	0,079	0,057
-683,524	29,011	-0,053	-0,033
-682,510	-156,692	0,117	-0,005
-681,495	246,403	-0,076	0,093
-680,481	-200,000	-0,044	-0,165
-679,466	68,147	-0,051	-0,038
-678,451	-200,000	-0,017	-0,078
-677,437	313,714	0,075	-0,103
-676,422	781,630	0,016	0,032
-675,408	144,095	-0,100	-0,097
-674,393	157,594	0,075	-0,076
-673,378	359,032	-0,025	-0,036
-672,364	800,000	-0,050	-0,103
-671,349	793,757	-0,022	0,044
-670,335	252,183	0,033	-0,041
-669,320	800,000	0,030	-0,077
-668,305	-200,000	-0,022	-0,085
-667,291	800,000	0,034	0,080
-666,276	-153,319	-0,079	0,004
-665,262	331,226	-0,036	-0,051
-664,247	-200,000	-0,002	-0,022
-663,232	81,204	0,066	0,052
-662,218	-200,000	0,011	0,046
-661,203	9,752	-0,066	0,036
-660,189	-78,074	0,057	-0,014
-659,174	147,001	-0,095	-0,093
-658,159	34,151	-0,154	0,097
-657,145	105,836	-0,134	-0,115
-656,130	-68,824	-0,139	0,039
-655,116	162,834	-0,067	0,068
-654,101	781,017	-0,014	0,028
-653,086	-200,000	0,005	0,061
-652,072	-47,369	0,119	0,042
-651,057	203,815	0,079	-0,088
-650,043	-125,112	-0,116	-0,013
-649,028	-108,632	0,075	-0,012
-648,014	-200,000	0,008	0,198
-646,999	-29,901	0,060	-0,025
-645,984	515,776	-0,046	0,077
-644,970	619,539	0,024	-0,044
-643,955	-136,128	-0,102	0,009
-642,941	154,056	0,096	-0,095
-641,926	332,344	-0,042	-0,060
-640,911	157,298	0,068	-0,068
-639,897	44,126	-0,065	-0,043
-638,882	109,083	-0,091	-0,079
-637,868	-200,000	-0,011	-0,079
-636,853	48,115	-0,109	-0,073
-635,838	-200,000	-0,029	-0,105
-634,824	-125,411	-0,102	0,011
-633,809	-200,000	0,029	-0,223
-632,795	-200,000	-0,013	0,156
-631,780	177,596	0,120	-0,127
-630,765	627,100	-0,038	0,070
-629,751	539,735	-0,040	-0,070
-628,736	-3,368	0,051	-0,026
-627,722	237,441	0,079	-0,095
-626,707	-135,592	0,040	0,003
-625,692	-124,367	0,036	-0,004
-624,678	-200,000	0,005	-0,101
-623,663	-200,000	0,015	0,104
-622,649	-9,808	-0,160	-0,077
-621,634	-200,000	0,002	0,072
-620,619	-68,850	0,087	-0,024
-619,605	-200,000	-0,016	-0,095
-618,590	314,896	0,003	-0,004
-617,576	47,649	0,023	-0,016
-616,561	800,000	0,019	0,058
-615,546	576,892	0,050	-0,088
-614,532	800,000	-0,026	0,055
-613,517	117,584	-0,120	-0,107
-612,503	800,000	0,010	0,031
-611,488	-138,732	0,066	-0,005
-610,474	-200,000	0,034	-0,135
-609,459	-200,000	-0,029	0,119
-608,444	-200,000	-0,004	-0,024
-607,430	225,440	-0,054	-0,063
-606,415	-64,761	-0,065	-0,019
-605,401	1,059	-0,015	0,008
-604,386	-99,657	0,069	0,012
-603,371	229,613	0,053	-0,062
-602,357	-200,000	-0,003	0,030
-601,342	-200,000	0,021	-0,154
-600,328	154,951	-0,035	-0,034
-599,313	167,042	0,082	0,084
-598,298	-200,000	-0,007	-0,023
-597,284	-200,000	-0,097	0,000
-596,269	-56,515	-0,046	0,015
-595,255	-200,000	0,021	0,112
-594,240	-200,000	-0,023	0,117
-593,225	-57,055	-0,100	-0,032
-592,211	800,000	0,021	-0,049
-591,196	-22,968	0,065	0,028
-590,182	95,258	0,141	0,116
-589,167	149,480	0,065	0,064
-588,152	-90,658	-0,037	0,008
-587,138	295,728	0,040	-0,054
-586,123	-145,489	-0,067	0,004
-585,109	-200,000	0,016	-0,061
-584,094	-200,000	0,009	-0,247
-583,079	-200,000	0,004	0,098
-582,065	-93,449	0,059	0,012
-581,050	-200,000	0,034	0,124
-580,036	800,000	-0,051	-0,103
-579,021	106,719	0,075	-0,064
-578,006	-34,608	0,018	0,007
-576,992	132,342	-0,113	-0,105
-575,977	-200,000	-0,012	-0,064
-574,963	334,004	-0,085	0,119
-573,948	118,302	-0,026	0,023
-572,934	-200,000	-0,014	0,100
-571,919	-54,302	0,012	0,004
-570,904	800,000	-0,021	-0,060
-569,890	-200,000	-0,021	-0,073
-568,875	-200,000	0,025	0,126
-567,861	516,313	-0,072	-0,123
-566,846	-27,926	-0,039	0,016
-565,831	365,245	-0,023	-0,033
-564,817	-200,000	0,017	0,124
-563,802	66,724	-0,077	0,057
-562,788	-200,000	0,032	0,116
-561,773	-200,000	0,028	-0,102
-560,758	800,000	0,035	-0,101
-559,744	800,000	0,038	-0,076
-558,729	56,608	0,054	-0,038
-557,715	-59,879	-0,115	0,035
-556,700	-200,000	0,023	-0,100
-555,685	800,000	0,061	0,159
-554,671	603,719	-0,046	0,082
-553,656	-58,811	-0,081	-0,025
-552,642	-200,000	0,018	0,066
-551,627	-190,231	0,062	0,000
-550,612	800,000	-0,058	0,136
-549,598	-200,000	0,017	-0,074
-548,583	22,447	0,032	-0,019
-547,569	-84,597	-0,092	-0,021
-546,554	-200,000	-0,014	0,102
-545,539	-200,000	0,070	-0,231
-544,525	800,000	0,024	0,049
-543,510	800,000	-0,013	0,034
-542,496	-107,809	0,081	0,013
-541,481	-200,000	-0,035	0,126
-540,466	96,046	-0,008	0,006
-539,452	-200,000	0,002	0,074
-538,437	-173,814	0,170	-0,004
-537,423	636,613	0,020	-0,037
-536,408	208,015	-0,061	-0,069
-535,393	113,595	0,069	0,061
-534,379	10,371	-0,058	-0,032
-533,364	136,477	-0,018	0,017
-532,350	-87,742	0,244	-0,053
-531,335	800,000	-0,060	0,126
-530,321	-68,509	-0,021	0,006
-529,306	-53,263	0,114	-0,038
-528,291	-33,565	-0,134	-0,053
-527,277	393,688	0,032	0,048
-526,262	-94,858	0,080	0,016
-525,248	-200,000	-0,016	0,077
-524,233	800,000	0,026	-0,061
-523,218	800,000	-0,019	-0,052
-522,204	-200,000	-0,018	0,061
-521,189	12,131	-0,096	0,053
-520,175	88,802	-0,086	0,069
-519,160	-132,581	-0,119	0,011
-518,145	800,000	0,019	-0,058
-517,131	-44,110	0,045	0,016
-516,116	800,000	-0,053	0,126
-515,102	309,992	0,041	0,055
-514,087	-200,000	-0,010	-0,099
-513,072	136,539	0,066	-0,062
-512,058	208,469	-0,079	-0,089
-511,043	140,245	-0,097	0,092
-510,029	158,069	0,119	0,119
-509,014	465,075	-0,026	0,042
-507,999	23,728	0,049	-0,029
-506,985	800,000	0,013	-0,035
-505,970	32,982	-0,062	-0,039
-504,956	-200,000	0,003	0,036
-503,941	-153,968	0,085	0,004
-502,926	-200,000	0,029	0,250
-501,912	800,000	-0,049	0,114
-500,897	800,000	-0,031	0,076
-499,883	-200,000	-0,007	-0,104
-498,868	76,192	-0,049	-0,038
-497,853	-200,000	-0,006	-0,034
-496,839	-113,762	0,055	0,008
-495,824	-42,035	-0,061	0,022
-494,810	-200,000	-0,007	0,046
-493,795	-200,000	0,003	0,097
-492,781	9,473	-0,167	-0,091
-491,766	-47,059	-0,123	-0,043
-490,751	35,730	-0,040	-0,025
-489,737	-163,518	-0,039	0,001
-488,722	-79,237	0,136	0,033
-487,708	800,000	-0,064	-0,143
-486,693	-200,000	-0,004	0,040
-485,678	94,465	0,091	0,075
-484,664	-188,063	-0,053	0,000
-483,649	-200,000	-0,013	-0,071
-482,635	-200,000	-0,004	-0,089
-481,620	175,965	0,013	0,014
-480,605	-146,324	-0,133	0,008
-479,591	-49,677	0,056	0,019
-478,576	-200,000	0,003	0,113
-477,562	-84,444	-0,223	-0,050
-476,547	-200,000	0,006	-0,056
-475,532	123,208	0,104	-0,094
-474,518	-125,056	0,103	0,011
-473,503	210,491	0,134	0,152
-472,489	800,000	0,038	0,092
-471,474	800,000	-0,034	-0,068
-470,459	-200,000	-0,012	-0,137
-469,445	-81,371	-0,059	-0,014
-468,430	800,000	0,036	0,073
-467,416	375,000	0,075	0,110
-466,401	-166,057	0,092	0,003
-465,386	800,000	-0,032	-0,089
-464,372	37,892	-0,097	0,062
-463,357	-114,738	-0,019	-0,003
-462,343	113,952	0,036	-0,032
-461,328	-200,000	-0,000	-0,113
-460,313	146,601	-0,080	0,078
-459,299	301,924	0,088	-0,118
-458,284	-163,724	0,102	0,003
-457,270	7,199	0,047	-0,025
-456,255	610,489	-0,019	-0,034
-455,241	800,000	-0,031	0,064
-454,226	-15,054	-0,057	-0,026
-453,211	307,903	-0,039	0,053
-452,197	95,776	0,066	-0,054
-451,182	79,086	0,071	0,055
-450,168	-200,000	0,008	-0,041
-449,153	105,847	-0,098	0,083
-448,138	165,414	-0,086	-0,087
-447,124	379,139	-0,050	-0,074
-446,109	61,029	0,086	0,061
-445,095	-200,000	-0,013	0,045
-444,080	667,838	-0,045	0,085
-443,065	-200,000	0,010	0,037
-442,051	4,812	-0,129	0,068
-441,036	-200,000	-0,016	0,075
-440,022	-200,000	-0,017	-0,081
-439,007	148,445	0,076	-0,074
-437,992	800,000	0,090	-0,197
-436,978	-85,584	-0,045	-0,010
-435,963	102,460	0,060	0,051
-434,949	500,653	0,066	-0,109
-433,934	-200,000	0,005	-0,055
-432,919	-57,050	-0,065	0,020
-431,905	-98,809	0,008	-0,001
-430,890	-200,000	-0,019	-0,125
-429,876	-200,000	0,010	0,087
-428,861	637,135	0,085	0,156
-427,846	54,925	0,030	0,021
-426,832	31,201	-0,108	0,066
-425,817	160,260	-0,016	-0,016
-424,803	800,000	-0,017	-0,044
-423,788	800,000	0,078	-0,165
-422,773	327,106	-0,033	0,046
-421,759	61,722	-0,118	0,085
-420,744	-92,717	-0,125	0,025
-419,730	-3,328	0,060	-0,030
-418,715	690,161	0,020	0,038
-417,701	639,329	0,035	0,065
-416,686	236,168	0,162	-0,193
-415,671	-14,769	-0,042	-0,019
-414,657	-162,899	0,086	0,003
-413,642	-200,000	-0,031	0,127
-412,628	-23,184	-0,136	-0,059
-411,613	-200,000	0,012	-0,112
-410,598	94,962	-0,040	0,032
-409,584	-48,317	-0,102	-0,035
-408,569	-200,000	-0,007	0,089
-407,555	-200,000	0,007	-0,122
-406,540	-200,000	0,007	0,115
-405,525	-16,754	0,099	0,045
-404,511	339,104	-0,096	0,135
-403,496	-200,000	-0,021	-0,114
-402,482	-200,000	-0,016	-0,133
-401,467	695,332	0,047	0,089
-400,452	118,153	-0,032	-0,029
-399,438	569,687	0,089	-0,156
-398,423	-146,346	0,119	0,007
-397,409	-200,000	-0,005	0,087
-396,394	-177,858	-0,063	-0,001
-395,379	-59,980	-0,113	-0,035
-394,365	-200,000	-0,005	0,137
-393,350	800,000	0,041	0,083
-392,336	-200,000	-0,001	0,033
-391,321	-5,341	0,112	-0,055
-390,306	665,102	-0,035	0,066
-389,292	768,279	-0,038	-0,075
-388,277	222,525	-0,047	0,054
-387,263	-200,000	0,025	-0,119
-386,248	13,055	-0,022	-0,012
-385,233	-46,054	0,162	0,057
-384,219	109,598	0,010	-0,009
-383,204	545,926	0,004	0,006
-382,190	800,000	-0,021	-0,057
-381,175	-200,000	0,005	-0,142
-380,160	800,000	-0,065	-0,153
-379,146	3,926	0,198	0,104
-378,131	-107,714	-0,042	-0,006
-377,117	-40,970	-0,092	-0,034
-376,102	-46,793	-0,037	0,013
-375,088	-79,724	-0,121	0,029
-374,073	-200,000	0,119	0,000
-373,058	185,898	-0,057	-0,061
-372,044	-200,000	0,013	0,043
-371,029	-32,232	0,041	-0,016
-370,015	288,017	0,061	0,079
-369,000	-170,734	-0,105	0,003
-367,985	236,349	0,045	-0,053
-366,971	-200,000	-0,028	-0,093
-365,956	-31,357	0,059	0,024
-364,942	18,101	-0,107	0,061
-363,927	-146,956	0,103	-0,006
-362,912	459,831	0,021	0,034
-361,898	380,216	0,080	-0,118
-360,883	-200,000	0,031	-0,123
-359,869	140,299	-0,021	0,020
-358,854	-67,523	-0,132	-0,037
-357,839	111,293	0,123	0,106
-356,825	34,945	-0,066	-0,041
-355,810	800,000	0,076	0,184
-354,796	-3,942	0,087	0,043
-353,781	318,009	0,054	-0,074
-352,766	800,000	-0,034	-0,098
-351,752	264,586	-0,015	0,019
-350,737	800,000	-0,032	0,071
-349,723	-170,996	0,090	-0,002
-348,708	-200,000	0,008	-0,052
-347,693	-4,576	-0,163	-0,081
-346,679	109,725	-0,069	0,059
-345,664	-200,000	0,000	0,098
-344,650	26,568	-0,065	-0,039
-343,635	-200,000	0,030	-0,107
-342,620	347,757	0,078	0,110
-341,606	-200,000	0,009	-0,033
-340,591	-200,000	-0,011	0,061
-339,577	-200,000	-0,004	0,023
-338,562	232,518	0,024	-0,028
-337,548	-37,623	-0,144	-0,055
-336,533	-200,000	0,013	-0,101
-335,518	-200,000	-0,022	0,142
-334,504	800,000	-0,013	-0,030
-333,489	134,892	-0,070	-0,065
-332,475	62,250	0,135	-0,096
-331,460	800,000	-0,037	-0,100
-330,445	-200,000	0,018	-0,084
-329,431	-120,952	0,085	0,010
-328,416	800,000	0,037	0,081
-327,402	-200,000	-0,001	0,047
-326,387	-49,035	0,114	-0,039
-325,372	800,000	-0,028	0,087
-324,358	-34,557	0,024	0,009
-323,343	-43,861	-0,087	-0,031
-322,329	315,925	0,081	0,110
-321,314	800,000	-0,061	-0,122
-320,299	96,248	-0,089	0,073
-319,285	126,386	0,038	-0,035
-318,270	-200,000	0,019	0,122
-317,256	36,206	-0,084	-0,053
-316,241	320,844	0,083	-0,113
-315,226	-97,061	0,130	0,024
-314,212	-102,276	0,213	0,036
-313,197	112,663	-0,082	0,071
-312,183	800,000	-0,039	0,082
-311,168	-200,000	0,001	-0,060
-310,153	-89,870	-0,090	0,019
-309,139	800,000	0,009	0,023
-308,124	141,547	0,121	0,115
-307,110	-161,883	0,171	0,006
-306,095	800,000	0,027	0,081
-305,080	-200,000	0,038	0,222
-304,066	-5,809	-0,098	0,048
-303,051	-200,000	0,014	-0,125
-302,037	34,418	0,072	-0,045
-301,022	-200,000	-0,011	0,058
-300,008	800,000	-0,083	-0,197
-298,993	89,720	-0,062	-0,050
-297,978	17,504	0,020	-0,011
-296,964	68,492	-0,134	-0,098
-295,949	-200,000	0,009	-0,070
-294,935	148,271	-0,048	-0,047
-293,920	-200,000	-0,031	-0,160
-292,905	-200,000	-0,009	0,058
-291,891	238,484	-0,065	0,077
-290,876	-200,000	-0,001	0,085
-289,862	28,679	-0,068	0,041
-288,847	579,095	-0,039	-0,069
-287,832	-84,317	-0,085	-0,019
-286,818	800,000	-0,011	0,032
-285,803	-200,000	-0,010	0,118
-284,789	-200,000	0,038	0,000
-283,774	800,000	-0,018	0,040
-282,759	800,000	0,040	-0,089
-281,745	800,000	-0,099	-0,210
-280,730	290,397	-0,016	-0,021
-279,716	800,000	0,051	0,110
-278,701	117,395	0,110	0,097
-277,686	-200,000	-0,014	-0,090
-276,672	93,341	-0,054	0,043
-275,657	26,828	0,097	-0,058
-274,643	-14,756	-0,159	-0,073
-273,628	458,337	-0,077	-0,123
-272,613	800,000	0,056	-0,147
-271,599	800,000	-0,025	0,058
-270,584	800,000	0,037	0,101
-269,570	-71,176	0,102	-0,027
-268,555	800,000	-0,028	0,077
-267,540	800,000	-0,045	-0,100
-266,526	-46,441	-0,026	0,009
-265,511	-67,796	-0,027	0,008
-264,497	-200,000	0,011	-0,059
-263,482	-200,000	0,031	0,110
-262,467	530,778	0,039	0,067
-261,453	-0,055	-0,057	-0,029
-260,438	-161,116	-0,188	-0,007
-259,424	-200,000	0,021	-0,111
-258,409	98,201	0,139	0,114
-257,395	441,489	0,097	-0,152
-256,380	-32,532	0,076	0,030
-255,365	412,163	0,131	0,199
-254,351	715,297	0,061	0,115
-253,336	569,572	-0,055	0,095
-252,322	-200,000	0,021	-0,120
-251,307	81,922	-0,079	-0,061
-250,292	313,382	0,053	0,071
-249,278	490,603	0,076	0,125
-248,263	800,000	-0,037	-0,076
-247,249	447,376	0,088	0,139
-246,234	800,000	0,026	-0,067
-245,219	182,899	0,046	-0,048
-244,205	-200,000	-0,033	-0,128
-243,190	579,086	0,025	-0,044
-242,176	184,716	0,018	0,019
-241,161	362,137	0,082	0,117
-240,146	744,885	-0,024	0,046
-239,132	30,828	-0,029	0,018
-238,117	-200,000	0,030	0,210
-237,103	-200,000	0,013	-0,137
-236,088	800,000	-0,007	0,015
-235,073	-200,000	0,006	0,107
-234,059	-200,000	0,033	0,110
-233,044	237,580	-0,059	0,070
-232,030	-186,431	0,053	-0,001
-231,015	-200,000	-0,008	0,067
-230,000	-200,000	-0,009	-0,133
-228,986	-42,794	-0,071	0,026
-227,971	-10,272	0,105	0,049
-226,957	-200,000	0,001	-0,077
-225,942	501,444	-0,008	0,013
-224,927	-51,506	0,108	0,036
-223,913	28,675	-0,106	0,064
-222,898	165,871	0,008	0,008
-221,884	800,000	-0,042	-0,102
-220,869	439,306	-0,036	0,056
-219,855	209,647	-0,036	-0,040
-218,840	12,946	0,109	0,060
-217,825	-86,610	0,016	0,003
-216,811	468,613	-0,019	-0,031
-215,796	-103,248	-0,079	-0,013
-214,782	-200,000	-0,020	-0,067
-213,767	109,174	-0,017	-0,014
-212,752	69,952	-0,021	-0,015
-211,738	751,167	-0,020	0,040
-210,723	57,432	-0,066	-0,046
-209,709	-114,938	-0,122	0,016
-208,694	84,983	-0,179	0,139
-207,679	-200,000	0,019	-0,202
-206,665	-6,221	0,062	0,030
-205,650	-200,000	0,002	0,085
-204,636	335,682	0,050	0,069
-203,621	-123,549	0,062	-0,007
-202,606	-200,000	-0,016	0,117
-201,592	163,485	0,130	-0,130
-200,577	92,061	0,125	0,100
-199,563	785,826	0,053	0,104
-198,548	257,280	-0,055	0,067
-197,533	-123,786	0,149	-0,017
-196,519	238,737	0,066	0,079
-195,504	-200,000	0,006	0,084
-194,490	-200,000	-0,021	-0,067
-193,475	68,754	0,064	0,046
-192,460	630,425	0,023	0,042
-191,446	-200,000	0,011	-0,063
-190,431	-64,467	-0,076	0,022
-189,417	316,672	-0,098	0,132
-188,402	-136,736	-0,054	-0,004
-187,387	-200,000	-0,005	-0,147
-186,373	186,992	-0,107	-0,114
-185,358	-23,904	0,137	-0,058
-184,344	-74,873	0,073	0,019
-183,329	31,012	-0,075	-0,045
-182,315	-60,736	0,045	-0,013
-181,300	-200,000	0,003	-0,106
-180,285	6,333	0,102	0,054
-179,271	-19,128	-0,144	0,063
-178,256	243,966	-0,049	0,058
-177,242	800,000	0,038	0,115
-176,227	-71,237	0,079	0,021
-175,212	-43,078	0,077	-0,028
-174,198	-113,812	0,035	0,005
-173,183	254,911	-0,088	-0,107
-172,169	800,000	0,021	-0,051
-171,154	76,902	0,089	-0,067
-170,139	-76,410	-0,078	-0,019
-169,125	-30,743	-0,142	0,057
-168,110	-95,042	0,030	0,006
-167,096	556,333	0,068	0,117
-166,081	-114,663	-0,094	-0,013
-165,066	-19,313	-0,132	-0,058
-164,052	-40,005	-0,126	-0,046
-163,037	333,538	0,068	0,093
-162,023	-5,219	0,108	0,053
-161,008	-150,948	0,100	-0,005
-159,993	-174,310	-0,035	0,001
-158,979	-59,844	-0,127	-0,038
-157,964	-200,000	-0,002	0,051
-156,950	-10,390	-0,037	-0,017
-155,935	-200,000	-0,013	0,158
-154,920	99,193	0,012	0,010
-153,906	-162,990	-0,021	0,001
-152,891	223,801	0,037	-0,042
-151,877	-165,337	-0,030	-0,001
-150,862	800,000	-0,044	0,134
-149,847	-138,007	0,113	0,009
-148,833	-93,827	-0,036	-0,007
-147,818	614,698	-0,076	0,136
-146,804	771,851	-0,047	0,092
-145,789	52,072	-0,127	-0,086
-144,775	-36,540	-0,094	-0,036
-143,760	91,152	-0,132	-0,105
-142,745	164,962	-0,040	-0,040
-141,731	242,991	-0,145	-0,172
-140,716	-200,000	0,006	0,039
-139,702	26,073	0,122	0,072
-138,687	-200,000	-0,036	0,117
-137,672	-200,000	0,002	0,124
-136,658	-200,000	-0,014	-0,092
-135,643	800,000	-0,026	-0,079
-134,629	-200,000	0,009	-0,228
-133,614	-104,516	-0,146	0,024
-132,599	202,472	0,045	0,049
-131,585	37,906	0,013	0,008
-130,570	-111,581	-0,132	-0,019
-129,556	-56,000	0,074	0,023
-128,541	70,326	-0,179	-0,131
-127,526	229,876	0,059	0,069
-126,512	25,871	-0,161	0,095
-125,497	800,000	-0,051	0,129
-124,483	-90,776	0,157	0,032
-123,468	584,953	-0,062	0,108
-122,453	27,949	-0,128	-0,076
-121,439	-200,000	0,016	0,058
-120,424	-200,000	-0,019	0,071
-119,410	78,630	-0,175	0,133
-118,395	-200,000	0,023	0,074
-117,380	-145,218	0,093	-0,006
-116,366	285,202	0,014	-0,018
-115,351	-200,000	-0,016	0,088
-114,337	318,299	-0,022	0,029
-113,322	800,000	0,016	-0,039
-112,307	-25,789	0,102	-0,043
-111,293	-200,000	0,017	0,101
-110,278	-45,578	-0,153	0,053
-109,264	800,000	0,020	0,051
-108,249	-66,673	-0,082	0,023
-107,234	-200,000	0,002	0,084
-106,220	213,188	-0,041	-0,046
-105,205	800,000	-0,014	0,040
-104,191	-105,604	-0,144	-0,023
-103,176	234,254	0,103	0,120
-102,162	-200,000	-0,013	0,132
-101,147	83,051	-0,085	0,066
-100,132	69,634	-0,117	-0,085
-99,118	163,614	0,082	-0,082
-98,103	-178,166	-0,032	-0,001
-97,089	236,886	0,100	0,118
-96,074	-200,000	-0,008	-0,033
-95,059	-160,733	-0,198	-0,007
-94,045	-200,000	-0,007	0,024
-93,030	800,000	0,045	-0,100
-92,016	432,605	-0,050	0,077
-91,001	-200,000	0,002	0,109
-89,986	800,000	-0,029	0,060
-88,972	-200,000	-0,010	0,069
-87,957	309,840	-0,050	0,067
-86,943	800,000	0,080	-0,167
-85,928	185,155	-0,079	0,083
-84,913	-200,000	0,001	0,024
-83,899	114,281	-0,070	-0,060
-82,884	149,522	0,088	0,085
-81,870	-70,308	-0,054	-0,014
-80,855	800,000	-0,035	-0,091
-79,840	-90,335	-0,081	-0,017
-78,826	132,210	0,062	-0,057
-77,811	39,997	0,033	0,021
-76,797	135,426	-0,109	-0,100
-75,782	611,216	0,021	-0,037
-74,767	800,000	0,007	-0,014
-73,753	800,000	-0,055	0,164
-72,738	-200,000	-0,006	-0,106
-71,724	232,603	-0,027	-0,031
-70,709	-200,000	0,020	-0,171
-69,694	-37,898	-0,136	-0,051
-68,680	82,999	0,093	0,072
-67,665	-200,000	0,007	-0,063
-66,651	-200,000	-0,017	-0,094
-65,636	-200,000	-0,002	-0,107
-64,622	800,000	0,018	-0,042
-63,607	-200,000	-0,033	-0,142
-62,592	231,897	-0,052	-0,060
-61,578	800,000	-0,029	0,061
-60,563	295,589	-0,051	0,066
-59,549	-200,000	-0,021	0,066
-58,534	-27,894	-1,624	-0,663
-57,519	425,558	-1,341	-2,051
-56,505	-200,000	-0,571	-4,557
-55,490	203,412	1,061	1,163
-54,476	800,000	5,100	11,599
-53,461	-200,000	19,236	320,419
-52,446	-200,000	741,205	2334,480
-51,432	572,929	1655,898	2868,347
-50,417	78,171	1671,083	1261,035
-49,403	21,319	1543,921	885,521
-48,388	15,198	1466,408	811,298
-47,373	17,926	1456,787	819,131
-46,359	16,668	1446,309	807,176
-45,344	13,460	1441,745	789,234
-44,330	13,347	1440,133	787,776
-43,315	13,363	1438,398	786,871
-42,300	13,391	1436,426	785,898
-41,286	13,401	1435,260	785,276
-40,271	13,380	1433,943	784,422
-39,257	13,324	1432,543	783,359
-38,242	13,410	1431,532	783,187
-37,227	13,396	1430,411	782,475
-36,213	13,413	1428,993	781,750
-35,198	13,401	1427,735	780,971
-34,184	13,414	1426,822	780,501
-33,169	13,410	1425,334	779,638
-32,154	13,393	1424,368	778,998
-31,140	13,420	1423,202	778,458
-30,125	13,457	1422,082	777,988
-29,111	13,424	1421,032	777,231
-28,096	13,422	1419,718	776,469
-27,082	13,326	1418,780	775,475
-26,067	13,338	1417,646	774,877
-25,052	13,344	1416,445	774,218
-24,038	13,305	1415,545	773,516
-23,023	13,305	1414,484	772,903
-22,009	13,312	1413,467	772,350
-20,994	13,277	1412,758	771,770
-19,979	13,306	1411,612	771,245
-18,965	13,314	1410,754	770,784
-17,950	13,268	1409,883	770,062
-16,936	13,259	1408,979	769,498
-15,921	13,244	1407,672	768,681
-14,906	13,237	1407,070	768,290
-13,892	13,276	1405,875	767,788
-12,877	13,268	1404,880	767,176
-11,863	13,221	1404,271	766,596
-10,848	13,278	1403,201	766,246
-9,833	13,225	1402,699	765,697
-8,819	13,210	1401,577	764,984
-7,804	13,170	1400,776	764,327
-6,790	13,129	1399,750	763,546
-5,775	13,161	1398,467	762,965
-4,760	13,172	1397,591	762,511
-3,746	13,166	1396,555	761,884
-2,731	13,155	1395,885	761,439
-1,717	13,114	1395,067	760,771
-0,702	13,151	1393,106	759,844
0,313	17,022	1309,829	732,340
1,327	33,312	703,326	430,853
2,342	51,328	123,066	82,519
3,356	2,256	16,546	8,434
4,371	-10,447	3,342	1,560
5,386	66,466	0,528	0,379
6,400	800,000	0,150	0,363
7,415	144,158	-0,201	-0,190
8,429	66,836	-0,245	-0,176
9,444	156,044	-0,260	-0,254
10,459	46,780	-0,294	-0,193
11,473	-12,361	-0,297	-0,137
12,488	-76,024	-0,283	-0,070
13,502	37,383	-0,318	-0,199
14,517	19,527	-0,238	-0,135
15,531	42,073	-0,401	-0,257
16,546	20,936	-0,426	-0,243
17,561	99,978	-0,356	-0,291
18,575	-31,470	-0,172	0,068
19,590	41,085	-0,316	-0,201
20,604	11,594	-0,283	-0,153
21,619	111,762	-0,394	-0,336
22,634	152,790	-0,468	-0,452
23,648	26,157	-0,496	-0,291
24,663	177,690	-0,455	-0,469
25,677	95,081	-0,362	-0,291
26,692	165,352	-0,442	-0,441
27,707	328,193	-0,244	-0,331
28,721	64,647	-0,440	-0,313
29,736	6,000	-0,466	-0,243
30,750	102,046	-0,385	-0,317
31,765	46,483	-0,488	-0,319
32,780	146,423	-0,342	-0,324
33,794	285,596	-0,321	-0,409
34,809	-2,934	-0,411	-0,202
35,823	231,777	-0,326	-0,378
36,838	109,334	-0,420	-0,354
37,853	158,763	-0,356	-0,349
38,867	131,209	-0,444	-0,402
39,882	112,858	-0,317	-0,270
40,896	167,387	-0,272	-0,273
41,911	467,955	-0,220	-0,349
42,926	8,062	-0,360	-0,190
43,940	124,109	-0,298	-0,264
44,955	214,573	-0,320	-0,357
45,969	166,611	-0,233	-0,233
46,984	-5,277	-0,301	-0,145
47,999	52,626	-0,289	-0,194
49,013	-69,138	-0,429	-0,115
50,028	100,876	-0,362	-0,296
51,042	-33,284	-0,344	-0,133
52,057	55,986	-0,337	-0,230
53,071	98,078	-0,400	-0,324
54,086	111,183	-0,341	-0,289
55,101	-63,101	-0,296	-0,085
56,115	-147,607	-0,429	-0,025
57,130	178,090	-0,290	-0,298
58,144	-4,347	-0,347	-0,169
59,159	31,391	-0,451	-0,272
60,174	184,033	-0,323	-0,337
61,188	-22,663	-0,482	-0,204
62,203	13,278	-0,313	-0,170
63,217	47,034	-0,259	-0,169
64,232	93,849	-0,332	-0,265
65,247	29,160	-0,464	-0,276
66,261	74,132	-0,334	-0,246
67,276	144,434	-0,325	-0,305
68,290	95,300	-0,337	-0,270
69,305	-97,596	-0,456	-0,082
70,320	109,298	-0,194	-0,163
71,334	-23,819	-0,350	-0,147
72,349	62,184	-0,232	-0,162
73,363	25,432	-0,396	-0,231
74,378	-41,384	-0,422	-0,152
75,393	196,952	-0,316	-0,339
76,407	378,598	-0,161	-0,233
77,422	228,596	-0,198	-0,227
78,436	76,326	-0,343	-0,255
79,451	173,566	-0,288	-0,292
80,466	-10,626	-0,210	-0,097
81,480	196,036	-0,294	-0,314
82,495	40,759	-0,469	-0,297
83,509	-59,782	-0,376	-0,112
84,524	113,491	-0,292	-0,249
85,539	140,350	-0,256	-0,237
86,553	81,891	-0,252	-0,192
87,568	434,423	-0,161	-0,247
88,582	146,242	-0,285	-0,269
89,597	15,735	-0,258	-0,142
90,611	-134,525	-0,347	-0,029
91,626	262,812	-0,195	-0,238
92,641	10,018	-0,327	-0,174
93,655	-22,009	-0,345	-0,147
94,670	124,159	-0,176	-0,155
95,684	-28,609	-0,324	-0,130
96,699	157,286	-0,214	-0,208
97,714	-8,299	-0,258	-0,121
98,728	260,960	-0,192	-0,233
99,743	-52,295	-0,298	-0,096
100,757	-103,656	-0,281	-0,046
101,772	49,856	-0,288	-0,190
102,787	111,783	-0,258	-0,218
103,801	-29,613	-0,298	-0,119
104,816	145,077	-0,282	-0,265
105,830	212,206	-0,148	-0,164
106,845	368,390	-0,083	-0,118
107,860	220,995	-0,227	-0,255
108,874	32,029	-0,259	-0,156
109,889	-77,779	-0,286	-0,069
110,903	10,625	-0,368	-0,196
111,918	-162,106	-0,264	0,009
112,933	218,341	-0,223	-0,250
113,947	227,211	-0,137	-0,156
114,962	22,841	-0,173	-0,099
115,976	631,267	-0,107	-0,191
116,991	258,843	-0,205	-0,248
118,006	24,189	-0,305	-0,176
119,020	50,054	-0,199	-0,131
120,035	166,995	-0,243	-0,241
121,049	91,583	-0,289	-0,227
122,064	116,040	-0,199	-0,170
123,079	80,010	-0,323	-0,243
124,093	25,116	-0,365	-0,211
125,108	325,390	-0,268	-0,359
126,122	45,167	-0,204	-0,131
127,137	-58,131	-0,166	-0,050
128,151	-182,025	-0,230	0,003
129,166	559,854	-0,184	-0,311
130,181	-106,827	-0,178	-0,027
131,195	18,037	-0,256	-0,142
132,210	71,247	-0,286	-0,207
133,224	133,912	-0,112	-0,101
134,239	86,314	-0,160	-0,123
135,254	-47,988	-0,298	-0,100
136,268	-21,695	-0,364	-0,154
137,283	-8,266	-0,281	-0,131
138,297	160,405	-0,230	-0,224
139,312	-17,986	-0,424	-0,185
140,327	151,275	-0,303	-0,289
141,341	180,367	-0,275	-0,282
142,356	94,074	-0,295	-0,234
143,370	41,515	-0,246	-0,155
144,385	275,242	-0,238	-0,295
145,400	35,351	-0,323	-0,198
146,414	32,912	-0,331	-0,200
147,429	75,925	-0,325	-0,240
148,443	800,000	-0,099	-0,196
149,458	27,671	-0,187	-0,109
150,473	101,658	-0,207	-0,169
151,487	-186,546	-0,289	-0,003
152,502	88,248	-0,222	-0,172
153,516	-23,647	-0,264	-0,110
154,531	24,515	-0,321	-0,185
155,546	-69,974	-0,191	-0,050
156,560	14,485	-0,300	-0,163
157,575	-3,902	-0,219	-0,105
158,589	-39,874	-0,201	-0,073
159,604	61,073	-0,332	-0,230
160,619	81,912	-0,261	-0,197
161,633	-122,199	-0,255	-0,029
162,648	127,695	-0,187	-0,166
163,662	658,876	-0,142	-0,256
164,677	-47,563	-0,150	-0,050
165,692	-36,839	-0,227	-0,085
166,706	1,342	-0,349	-0,174
167,721	0,682	-0,274	-0,136
168,735	104,847	-0,236	-0,194
169,750	-45,938	-0,305	-0,104
170,764	138,253	-0,210	-0,192
171,779	208,497	-0,181	-0,198
172,794	-16,728	-0,251	-0,110
173,808	746,485	-0,082	-0,154
174,823	-76,225	-0,308	-0,075
175,837	192,236	-0,197	-0,208
176,852	121,280	-0,231	-0,201
177,867	165,878	-0,176	-0,173
178,881	165,935	-0,103	-0,101
179,896	565,199	-0,130	-0,221
180,910	25,486	-0,234	-0,135
181,925	37,527	-0,304	-0,187
182,940	-92,939	-0,304	-0,058
183,954	-5,035	-0,279	-0,133
184,969	-131,637	-0,217	0,020
185,983	353,317	-0,125	-0,173
186,998	800,000	-0,103	-0,206
188,013	73,136	-0,181	-0,132
189,027	21,210	-0,226	-0,127
190,042	81,240	-0,181	-0,136
191,056	-67,347	-0,197	-0,054
192,071	-0,879	-0,266	-0,131
193,086	-13,667	-0,274	-0,123
194,100	-58,560	-0,161	-0,048
195,115	31,335	-0,271	-0,161
196,129	23,614	-0,306	-0,174
197,144	-18,171	-0,317	-0,138
198,159	135,790	-0,244	-0,221
199,173	55,562	-0,163	-0,110
200,188	-116,280	-0,279	-0,036
201,202	163,024	-0,173	-0,169
202,217	-119,450	-0,294	0,035
203,232	48,141	-0,239	-0,155
204,246	800,000	-0,192	-0,392
205,261	204,471	-0,220	-0,238
206,275	-40,682	-0,222	-0,080
207,290	251,832	-0,248	-0,294
208,304	800,000	-0,050	0,113
209,319	-69,767	-0,224	-0,059
210,334	49,908	-0,210	-0,137
211,348	-74,209	-0,060	-0,015
212,363	277,064	-0,160	-0,198
213,377	24,773	-0,147	-0,084
214,392	279,587	-0,125	-0,155
215,407	800,000	-0,120	-0,280
216,421	391,216	-0,141	-0,203
217,436	111,664	-0,142	-0,119
218,450	-2,393	-0,285	-0,138
219,465	16,765	-0,233	-0,128
220,480	-33,542	-0,181	-0,069
221,494	800,000	-0,149	-0,306
222,509	-200,000	-0,053	-0,281
223,523	-20,219	-0,341	-0,145
224,538	-6,824	-0,326	-0,153
225,553	388,570	-0,138	-0,199
226,567	38,267	-0,183	-0,112
227,582	559,861	-0,126	-0,211
228,596	-55,840	-0,259	-0,080
229,611	800,000	-0,073	-0,213
230,626	-95,567	-0,158	0,029
231,640	239,580	-0,213	-0,246
232,655	291,305	-0,149	-0,188
233,669	164,713	-0,130	-0,127
234,684	63,989	-0,162	-0,113
235,699	217,945	-0,142	-0,157
236,713	28,210	-0,155	-0,090
237,728	-81,740	-0,091	-0,021
238,742	-36,731	-0,163	-0,060
239,757	324,854	-0,192	-0,254
240,772	56,873	-0,343	-0,231
241,786	-112,860	-0,255	-0,035
242,801	228,943	-0,088	-0,099
243,815	75,455	-0,081	-0,059
244,830	481,262	-0,067	-0,106
245,844	490,736	-0,105	-0,166
246,859	471,667	-0,134	-0,210
247,874	-30,891	-0,202	-0,079
248,888	-17,706	-0,200	-0,087
249,903	121,503	-0,106	-0,092
250,917	55,889	-0,214	-0,143
251,932	-200,000	0,026	-0,206
252,947	-200,000	-0,099	-0,336
253,961	-0,374	-0,131	-0,064
254,976	-106,260	-0,163	-0,025
255,990	154,352	-0,124	-0,118
257,005	83,144	-0,136	-0,103
258,020	-9,987	-0,178	-0,082
259,034	155,213	-0,130	-0,124
260,049	744,288	-0,130	-0,244
261,063	282,376	-0,159	-0,198
262,078	74,752	-0,202	-0,147
263,093	-41,227	-0,285	-0,101
264,107	-200,000	0,024	-0,140
265,122	800,000	-0,096	-0,209
266,136	253,957	-0,119	-0,141
267,151	-23,959	-0,121	-0,050
268,166	322,533	-0,221	-0,291
269,180	65,973	-0,230	-0,161
270,195	-14,746	-0,131	-0,058
271,209	-103,325	-0,248	-0,040
272,224	107,412	-0,183	-0,150
273,239	128,706	-0,200	-0,177
274,253	68,123	-0,178	-0,126
275,268	-57,298	-0,196	-0,059
276,282	71,352	-0,222	-0,159
277,297	800,000	-0,111	-0,220
278,312	104,693	-0,191	-0,155
279,326	18,413	-0,155	-0,085
280,341	187,267	-0,048	-0,049
281,355	800,000	-0,084	-0,193
282,370	-89,867	-0,213	0,043
283,384	-124,234	-0,117	0,012
284,399	800,000	-0,058	-0,114
285,414	264,969	-0,187	-0,226
286,428	223,689	-0,101	-0,112
287,443	447,305	-0,142	-0,217
288,457	121,119	-0,184	-0,158
289,472	-13,443	-0,094	0,042
290,487	-150,162	-0,186	0,010
291,501	150,611	-0,098	-0,092
292,516	-72,256	-0,087	0,022
293,530	8,534	-0,115	-0,059
294,545	19,552	-0,074	-0,041
295,560	154,683	-0,114	-0,108
296,574	70,590	-0,185	-0,132
297,589	241,888	-0,095	-0,110
298,603	10,309	-0,249	-0,130
299,618	117,267	-0,158	-0,134
300,633	127,547	-0,209	-0,183
301,647	119,671	-0,096	-0,082
302,662	271,870	-0,091	-0,111
303,676	800,000	-0,054	-0,120
304,691	363,172	-0,124	-0,171
305,706	35,714	-0,202	-0,122
306,720	38,167	-0,149	-0,091
307,735	424,074	-0,056	-0,083
308,749	96,513	-0,157	-0,123
309,764	105,534	-0,080	-0,065
310,779	-53,121	-0,132	-0,041
311,793	18,383	-0,146	-0,080
312,808	-35,178	-0,238	-0,089
313,822	89,358	-0,083	-0,063
314,837	160,661	-0,091	-0,088
315,852	75,964	-0,155	-0,113
316,866	-102,771	-0,125	-0,020
317,881	-151,275	-0,190	-0,010
318,895	800,000	-0,101	-0,232
319,910	31,507	-0,120	-0,071
320,925	172,638	-0,162	-0,160
321,939	275,787	-0,147	-0,180
322,954	-124,987	-0,157	-0,016
323,968	409,094	-0,079	-0,115
324,983	-14,126	-0,118	-0,052
325,997	-36,252	-0,101	-0,037
327,012	332,067	-0,112	-0,149
328,027	-45,406	-0,167	-0,057
329,041	237,247	-0,071	-0,081
330,056	187,616	-0,193	-0,198
331,070	-89,591	-0,198	-0,040
332,085	-87,064	-0,082	-0,017
333,100	15,574	-0,144	-0,078
334,114	501,950	-0,075	-0,119
335,129	-113,082	-0,221	-0,030
336,143	294,163	-0,149	-0,187
337,158	163,197	-0,178	-0,172
338,173	234,901	-0,119	-0,135
339,187	-67,240	-0,116	-0,031
340,202	-59,967	-0,220	0,064
341,216	-200,000	-0,051	-0,184
342,231	445,807	-0,060	-0,090
343,246	-15,248	-0,105	-0,046
344,260	-27,505	-0,115	0,046
345,275	103,388	-0,263	-0,212
346,289	-2,585	-0,115	0,055
347,304	-161,026	-0,118	0,004
348,319	133,970	-0,129	-0,115
349,333	-129,444	-0,136	-0,013
350,348	-20,406	-0,133	-0,056
351,362	392,875	-0,096	-0,137
352,377	456,881	-0,074	-0,113
353,392	-125,742	-0,141	0,014
354,406	147,668	-0,254	-0,235
355,421	210,442	1310,801	1413,499
356,435	161,999	1471,063	1413,986
