DTS Sentinel unit serial number:	SN410029Multiplexer serial number:	ORYXHardware model number:	OX2-SRSoftware version number:	ORYX F/W v4,00 Oryx Data Collector v3.7.2.0data status	okinstallation	B3 Nyhavnadifferential loss correction	single-endedforward channel	channel 1reverse channel	N/Adate	2023/12/04time	16:12:30forward acquisition time	300,00reverse acquisition time	0,00gamma	499,1914k internal	0,3200k external	0,3200temperature offset calibration	1,0000default loss term (dB/km)	0,3820temperature slope calibration	1,0000multiplexer offset coefficient	1,0000multiplexer slope coefficient	1,0000fibre end	0,00T internal ref (°C)	15,19T ext. ref 1 (°C)	0,34T ext. ref 2 (°C)	0,34length (m)	temperature (°C)	Stokes	anti-Stokes-744,400	171,914	-0,241	-0,252
-743,385	-200,000	0,024	0,209
-742,371	331,796	-0,191	-0,269
-741,356	800,000	0,127	0,272
-740,342	96,667	-0,189	-0,157
-739,327	-200,000	-0,006	0,430
-738,312	202,811	-0,220	-0,247
-737,298	-200,000	0,012	0,190
-736,283	115,376	-0,307	-0,273
-735,269	-200,000	-0,010	0,190
-734,254	131,491	-0,172	-0,161
-733,239	637,334	-0,144	0,267
-732,225	484,099	-0,134	-0,222
-731,210	-22,116	0,054	-0,024
-730,196	-128,097	-0,091	0,009
-729,181	-200,000	0,007	-0,080
-728,167	11,600	-0,208	-0,116
-727,152	-114,338	-0,099	-0,014
-726,137	189,425	-0,110	-0,120
-725,123	266,929	0,108	-0,138
-724,108	47,466	-0,131	-0,089
-723,094	253,959	0,145	-0,181
-722,079	2,220	-0,202	-0,106
-721,064	-84,379	0,105	0,024
-720,050	-71,288	-0,119	0,032
-719,035	-58,113	0,089	-0,028
-718,021	-200,000	-0,016	-0,063
-717,006	731,133	0,048	-0,094
-715,991	147,260	-0,082	-0,080
-714,977	-24,338	0,073	0,032
-713,962	-200,000	-0,031	-0,142
-712,948	434,770	0,021	0,033
-711,933	222,970	0,062	0,073
-710,918	-200,000	0,005	0,028
-709,904	-5,369	-0,128	0,064
-708,889	-7,487	0,047	0,023
-707,875	-71,446	-0,165	-0,044
-706,860	584,468	0,043	-0,078
-705,845	223,395	0,045	0,053
-704,831	-45,498	0,083	0,030
-703,816	289,925	0,082	0,108
-702,802	-200,000	-0,014	-0,062
-701,787	439,762	-0,034	-0,053
-700,772	536,164	-0,082	-0,142
-699,758	-200,000	0,026	-0,123
-698,743	-200,000	0,017	0,057
-697,729	-200,000	0,016	0,088
-696,714	800,000	-0,040	0,090
-695,699	-200,000	0,006	-0,085
-694,685	601,959	-0,060	-0,109
-693,670	800,000	-0,058	-0,164
-692,656	-200,000	-0,014	-0,050
-691,641	10,878	-0,059	0,033
-690,627	-47,525	0,057	0,020
-689,612	-76,766	0,058	-0,015
-688,597	293,710	-0,088	0,117
-687,583	-200,000	-0,016	-0,156
-686,568	-200,000	0,001	-0,067
-685,554	-200,000	-0,003	-0,092
-684,539	274,096	0,087	0,113
-683,524	41,622	0,084	0,055
-682,510	-200,000	0,002	0,045
-681,495	-200,000	-0,002	0,147
-680,481	-123,758	0,155	-0,018
-679,466	-200,000	-0,035	-0,237
-678,451	-64,500	0,058	0,017
-677,437	642,190	-0,009	0,017
-676,422	-147,898	0,072	0,004
-675,408	358,422	-0,057	0,083
-674,393	399,057	0,038	-0,058
-673,378	212,165	-0,098	-0,112
-672,364	800,000	0,037	-0,089
-671,349	-116,869	0,106	-0,014
-670,335	-200,000	-0,015	-0,183
-669,320	410,113	-0,054	-0,083
-668,305	800,000	0,048	0,098
-667,291	-200,000	0,016	-0,077
-666,276	22,396	-0,089	0,053
-665,262	-28,188	0,036	0,015
-664,247	345,791	-0,088	0,126
-663,232	83,303	0,114	0,090
-662,218	13,668	0,100	-0,056
-661,203	215,017	-0,043	-0,050
-660,189	-200,000	0,012	-0,059
-659,174	347,420	-0,072	-0,104
-658,159	117,107	-0,080	-0,071
-657,145	800,000	-0,051	-0,115
-656,130	4,448	-0,066	0,035
-655,116	45,720	0,088	0,059
-654,101	-200,000	0,003	0,161
-653,086	-6,850	0,166	0,082
-652,072	76,599	-0,028	0,021
-651,057	380,012	-0,076	0,113
-650,043	703,920	-0,059	-0,114
-649,028	680,447	-0,061	-0,116
-648,014	43,889	0,029	0,019
-646,999	-122,953	-0,112	0,013
-645,984	-200,000	0,011	0,100
-644,970	641,556	0,045	0,083
-643,955	800,000	0,019	-0,040
-642,941	-67,428	-0,108	-0,031
-641,926	-200,000	-0,042	-0,155
-640,911	0,550	-0,098	0,050
-639,897	800,000	0,058	0,184
-638,882	716,505	0,064	0,124
-637,868	-39,646	-0,126	0,047
-636,853	127,214	-0,091	-0,084
-635,838	-140,646	0,014	0,001
-634,824	64,233	0,090	-0,066
-633,809	247,713	-0,073	-0,090
-632,795	-200,000	-0,006	0,040
-631,780	800,000	-0,052	0,161
-630,765	445,082	0,035	0,055
-629,751	-200,000	-0,013	-0,110
-628,736	-62,914	-0,103	-0,031
-627,722	-200,000	-0,001	0,130
-626,707	65,002	-0,061	-0,045
-625,692	-200,000	0,008	0,052
-624,678	-200,000	-0,001	0,010
-623,663	42,383	-0,087	-0,057
-622,649	7,908	-0,096	-0,052
-621,634	-200,000	-0,006	-0,084
-620,619	481,851	-0,045	-0,074
-619,605	-113,081	-0,119	0,017
-618,590	293,290	-0,116	0,154
-617,576	179,128	0,086	0,091
-616,561	18,586	-0,210	-0,121
-615,546	46,776	-0,143	-0,096
-614,532	-7,022	-0,136	-0,067
-613,517	82,855	-0,081	0,064
-612,503	53,087	0,067	0,046
-611,488	3,847	0,058	0,031
-610,474	-200,000	0,006	0,151
-609,459	42,476	-0,064	-0,042
-608,444	308,087	-0,099	-0,134
-607,430	-200,000	0,031	-0,149
-606,415	754,133	-0,055	-0,108
-605,401	-99,885	0,029	0,005
-604,386	-80,865	0,117	0,028
-603,371	-57,333	-0,060	0,019
-602,357	158,407	0,019	-0,019
-601,342	800,000	0,052	-0,136
-600,328	153,096	-0,135	-0,134
-599,313	-48,522	-0,068	-0,024
-598,298	532,386	-0,030	-0,052
-597,284	-28,545	0,122	-0,051
-596,269	-200,000	-0,010	0,065
-595,255	800,000	-0,023	0,053
-594,240	305,113	-0,076	0,102
-593,225	-200,000	-0,035	-0,117
-592,211	40,229	-0,126	-0,082
-591,196	-61,956	-0,084	-0,025
-590,182	36,825	-0,108	0,069
-589,167	-200,000	0,008	0,046
-588,152	464,028	-0,080	0,130
-587,138	189,130	0,106	0,115
-586,123	57,761	-0,065	-0,046
-585,109	389,758	-0,023	-0,034
-584,094	-124,025	-0,183	0,021
-583,079	-50,213	0,035	-0,012
-582,065	-111,725	-0,077	-0,011
-581,050	-200,000	-0,023	0,158
-580,036	800,000	0,094	-0,200
-579,021	60,792	-0,028	0,020
-578,006	-200,000	-0,016	-0,070
-576,992	510,296	0,021	0,036
-575,977	-78,344	-0,090	0,022
-574,963	-21,742	0,165	-0,072
-573,948	-200,000	-0,052	0,000
-572,934	101,086	-0,055	0,046
-571,919	46,716	-0,103	0,069
-570,904	-200,000	-0,038	-0,207
-569,890	200,764	-0,060	-0,067
-568,875	378,991	0,019	-0,028
-567,861	-104,932	0,176	-0,029
-566,846	-67,954	0,055	0,015
-565,831	-89,737	0,138	0,029
-564,817	-30,507	0,120	-0,049
-563,802	-115,927	-0,058	-0,008
-562,788	-11,379	-0,033	0,016
-561,773	-87,296	0,094	-0,020
-560,758	267,042	-0,068	0,087
-559,744	-21,788	-0,022	-0,010
-558,729	11,206	-0,063	0,035
-557,715	64,604	0,055	-0,040
-556,700	775,986	-0,034	-0,068
-555,685	143,028	0,056	-0,054
-554,671	-0,249	0,046	-0,023
-553,656	-10,992	-0,095	0,045
-552,642	800,000	0,006	-0,012
-551,627	-157,979	-0,094	-0,004
-550,612	-118,186	0,075	0,010
-549,598	-124,107	-0,015	0,002
-548,583	-12,517	-0,059	-0,028
-547,569	81,393	0,096	0,075
-546,554	597,642	0,092	0,165
-545,539	768,631	0,044	0,086
-544,525	156,084	-0,047	0,047
-543,510	64,447	-0,112	0,081
-542,496	-102,527	-0,114	0,019
-541,481	-107,767	0,030	0,005
-540,466	-50,334	0,090	-0,031
-539,452	254,673	-0,073	0,090
-538,437	326,727	0,012	-0,017
-537,423	-83,742	-0,133	-0,030
-536,408	260,074	-0,039	0,049
-535,393	-189,299	-0,125	0,001
-534,379	-200,000	0,012	0,059
-533,364	-0,100	0,064	-0,033
-532,350	-123,266	0,140	-0,016
-531,335	49,541	-0,041	-0,028
-530,321	271,697	-0,121	-0,154
-529,306	503,215	-0,006	0,011
-528,291	315,298	-0,021	0,029
-527,277	-8,452	-0,054	-0,026
-526,262	-124,934	0,059	-0,006
-525,248	111,460	0,055	0,048
-524,233	59,558	-0,077	-0,055
-523,218	45,920	0,018	0,012
-522,204	51,552	0,116	-0,080
-521,189	800,000	0,064	-0,165
-520,175	196,808	-0,031	0,035
-519,160	-198,675	-0,045	0,000
-518,145	306,763	0,036	0,049
-517,131	-111,107	0,149	0,022
-516,116	29,099	0,100	-0,061
-515,102	187,893	-0,130	0,140
-514,087	-111,759	-0,045	0,006
-513,072	800,000	-0,058	-0,179
-512,058	26,701	-0,079	-0,048
-511,043	-200,000	-0,016	-0,058
-510,029	692,173	-0,030	0,058
-509,014	20,169	0,023	0,013
-507,999	307,326	-0,094	-0,127
-506,985	-61,302	0,022	-0,007
-505,970	23,536	-0,086	-0,051
-504,956	555,891	0,016	0,028
-503,941	800,000	-0,058	0,144
-502,926	98,483	0,066	0,054
-501,912	-89,846	-0,160	-0,033
-500,897	-151,799	0,111	0,006
-499,883	-48,858	-0,126	-0,043
-498,868	349,185	-0,074	-0,106
-497,853	-70,576	0,268	0,073
-496,839	-105,418	-0,143	-0,023
-495,824	-200,000	-0,000	0,016
-494,810	800,000	-0,010	-0,028
-493,795	46,189	0,132	0,088
-492,781	-57,416	-0,029	-0,009
-491,766	752,623	-0,024	-0,046
-490,751	29,008	-0,134	-0,081
-489,737	800,000	-0,023	-0,061
-488,722	-147,445	0,167	0,010
-487,708	297,324	0,081	-0,107
-486,693	554,055	-0,035	0,062
-485,678	98,465	-0,030	0,025
-484,664	-49,282	-0,143	0,049
-483,649	-200,000	-0,066	-0,233
-482,635	-32,231	-0,146	-0,058
-481,620	80,456	0,022	0,017
-480,605	-200,000	0,015	0,056
-479,591	-200,000	-0,026	0,088
-478,576	-200,000	-0,004	0,020
-477,562	61,465	-0,127	-0,091
-476,547	800,000	0,052	-0,107
-475,532	800,000	-0,032	-0,087
-474,518	23,943	0,111	0,066
-473,503	800,000	0,040	0,091
-472,489	-200,000	-0,011	-0,064
-471,474	-200,000	0,013	-0,075
-470,459	417,032	-0,064	0,099
-469,445	-62,895	-0,103	-0,031
-468,430	-4,283	-0,199	0,099
-467,416	133,962	0,082	0,077
-466,401	-44,000	0,111	0,040
-465,386	12,012	0,046	-0,025
-464,372	230,975	0,081	0,095
-463,357	-200,000	0,003	-0,014
-462,343	85,753	-0,039	0,031
-461,328	800,000	-0,022	0,045
-460,313	151,963	0,096	-0,094
-459,299	-150,777	0,158	-0,008
-458,284	-45,672	0,046	-0,016
-457,270	-82,232	-0,104	-0,024
-456,255	13,768	0,045	-0,025
-455,241	800,000	0,057	-0,120
-454,226	-98,736	-0,089	-0,016
-453,211	-200,000	-0,019	0,143
-452,197	-4,043	0,128	0,063
-451,182	-79,867	0,064	0,015
-450,168	-200,000	-0,018	0,108
-449,153	0,022	-0,095	0,048
-448,138	-19,399	-0,111	0,049
-447,124	232,934	0,016	0,019
-446,109	-166,567	0,102	0,003
-445,095	-200,000	0,027	-0,122
-444,080	-110,875	0,076	0,011
-443,065	-180,409	-0,019	0,000
-442,051	336,450	-0,062	-0,087
-441,036	-34,454	0,207	-0,081
-440,022	-55,366	-0,076	-0,024
-439,007	-106,546	-0,104	-0,016
-437,992	515,551	0,035	0,058
-436,978	19,713	0,149	0,086
-435,963	-16,578	0,104	-0,047
-434,949	49,236	-0,032	-0,021
-433,934	-95,434	-0,046	-0,009
-432,919	262,737	0,062	-0,078
-431,905	800,000	-0,027	-0,061
-430,890	-200,000	-0,008	0,111
-429,876	-136,175	0,096	0,008
-428,861	-88,182	0,151	0,032
-427,846	-64,319	0,117	0,034
-426,832	536,880	-0,008	-0,014
-425,817	-200,000	-0,003	0,057
-424,803	241,516	0,012	0,015
-423,788	123,354	-0,076	0,069
-422,773	-200,000	0,016	-0,062
-421,759	-200,000	-0,018	0,071
-420,744	726,642	0,035	0,067
-419,730	-116,628	-0,099	-0,013
-418,715	800,000	0,013	0,033
-417,701	-200,000	-0,052	-0,320
-416,686	-69,349	-0,098	0,027
-415,671	800,000	0,029	0,083
-414,657	34,359	-0,037	0,023
-413,642	-11,884	0,146	0,069
-412,628	-200,000	-0,007	-0,041
-411,613	-200,000	-0,031	-0,185
-410,598	800,000	-0,046	-0,093
-409,584	482,729	-0,009	-0,015
-408,569	219,669	-0,067	0,077
-407,555	800,000	0,023	-0,046
-406,540	-200,000	0,028	0,128
-405,525	-34,553	0,077	0,030
-404,511	800,000	0,044	-0,092
-403,496	-200,000	-0,019	-0,065
-402,482	152,809	0,050	0,049
-401,467	-114,149	0,055	-0,007
-400,452	662,336	-0,074	0,138
-399,438	-141,380	0,102	0,007
-398,423	70,812	-0,080	0,060
-397,409	145,376	-0,014	0,013
-396,394	-200,000	0,015	0,053
-395,379	-48,233	-0,174	0,060
-394,365	800,000	0,058	0,118
-393,350	162,609	0,057	0,057
-392,336	65,095	-0,070	-0,051
-391,321	800,000	-0,043	0,124
-390,306	-200,000	0,022	-0,094
-389,292	800,000	-0,011	0,032
-388,277	-61,985	0,073	-0,022
-387,263	189,268	0,168	0,181
-386,248	-200,000	0,015	0,207
-385,233	95,853	0,135	0,110
-384,219	-200,000	0,010	0,062
-383,204	-173,298	0,064	0,001
-382,190	-200,000	0,011	-0,115
-381,175	800,000	0,038	0,091
-380,160	262,276	0,050	0,063
-379,146	-200,000	0,011	0,242
-378,131	800,000	0,075	0,202
-377,117	-200,000	0,011	-0,063
-376,102	800,000	0,040	-0,124
-375,088	800,000	-0,015	0,034
-374,073	-24,390	0,052	0,022
-373,058	52,560	0,063	-0,043
-372,044	-200,000	0,005	0,055
-371,029	800,000	0,034	-0,069
-370,015	-200,000	-0,001	-0,033
-369,000	-55,564	0,116	-0,037
-367,985	-200,000	-0,015	-0,050
-366,971	-200,000	-0,007	-0,052
-365,956	294,823	0,098	0,129
-364,942	800,000	0,013	-0,029
-363,927	268,466	0,051	-0,065
-362,912	-200,000	0,035	-0,119
-361,898	-200,000	0,004	-0,080
-360,883	800,000	-0,021	-0,060
-359,869	683,751	-0,026	-0,050
-358,854	654,379	-0,029	-0,054
-357,839	557,461	-0,081	0,140
-356,825	387,218	-0,100	0,149
-355,810	800,000	0,047	0,105
-354,796	-82,507	0,066	-0,015
-353,781	-34,893	0,051	0,020
-352,766	48,041	0,073	-0,049
-351,752	460,699	-0,031	0,050
-350,737	800,000	0,081	0,205
-349,723	352,718	-0,013	-0,019
-348,708	530,231	0,049	-0,083
-347,693	224,366	-0,088	0,102
-346,679	-95,675	-0,061	-0,012
-345,664	-200,000	0,018	-0,117
-344,650	-114,382	0,012	0,002
-343,635	117,151	0,151	0,133
-342,620	-5,134	0,020	0,010
-341,606	-33,803	0,058	-0,023
-340,591	-44,556	0,038	0,014
-339,577	0,898	-0,036	-0,019
-338,562	800,000	0,021	0,054
-337,548	-11,869	0,023	-0,011
-336,533	-128,353	0,150	0,015
-335,518	-200,000	0,008	0,114
-334,504	-200,000	0,004	-0,115
-333,489	797,569	-0,018	0,036
-332,475	165,162	-0,090	0,091
-331,460	712,486	-0,045	-0,086
-330,445	-35,999	-0,083	0,032
-329,431	-200,000	0,005	0,097
-328,416	5,459	0,117	-0,062
-327,402	-0,580	-0,024	-0,012
-326,387	-83,470	-0,080	-0,018
-325,372	800,000	-0,024	0,062
-324,358	-200,000	0,034	-0,150
-323,343	16,156	-0,171	0,096
-322,329	145,434	-0,073	0,070
-321,314	52,355	0,130	-0,089
-320,299	-200,000	-0,013	-0,136
-319,285	-200,000	-0,014	-0,106
-318,270	570,070	-0,010	-0,018
-317,256	-38,128	-0,042	-0,016
-316,241	141,917	-0,031	0,030
-315,226	-98,445	-0,012	0,002
-314,212	-198,395	0,011	0,000
-313,197	-200,000	0,008	0,089
-312,183	125,117	0,036	0,033
-311,168	378,373	-0,040	-0,058
-310,153	-200,000	0,009	0,035
-309,139	318,386	0,048	-0,065
-308,124	800,000	-0,003	-0,006
-307,110	-42,840	0,125	-0,045
-306,095	-94,654	0,037	0,007
-305,080	-200,000	-0,016	-0,097
-304,066	-54,621	-0,013	-0,004
-303,051	-44,025	-0,111	-0,040
-302,037	-9,832	-0,119	-0,056
-301,022	-54,767	-0,028	0,009
-300,008	116,050	0,180	0,158
-298,993	-46,182	-0,079	0,027
-297,978	-112,935	0,123	-0,017
-296,964	110,993	-0,061	-0,053
-295,949	24,216	-0,050	-0,030
-294,935	511,402	-0,087	-0,145
-293,920	-108,887	-0,037	0,006
-292,905	194,927	0,070	0,076
-291,891	465,307	0,043	0,070
-290,876	-200,000	-0,020	0,095
-289,862	-200,000	0,004	0,023
-288,847	-117,496	-0,102	-0,013
-287,832	143,923	0,100	-0,095
-286,818	-140,117	0,094	-0,007
-285,803	137,082	0,077	0,072
-284,789	-98,125	0,066	0,012
-283,774	154,982	0,102	0,101
-282,759	-17,031	-0,022	0,010
-281,745	56,949	-0,085	0,059
-280,730	-200,000	0,009	-0,082
-279,716	-32,050	-0,060	0,024
-278,701	-200,000	0,015	0,149
-277,686	-156,068	-0,060	0,003
-276,672	43,829	0,152	-0,099
-275,657	-120,883	0,105	0,012
-274,643	543,875	0,013	-0,022
-273,628	800,000	-0,088	-0,178
-272,613	-174,839	0,157	0,003
-271,599	-22,338	0,104	-0,045
-270,584	-115,603	0,113	-0,015
-269,570	-200,000	0,020	-0,099
-268,555	41,714	-0,047	0,030
-267,540	61,136	0,029	0,021
-266,526	771,536	-0,019	0,037
-265,511	-51,398	0,035	-0,012
-264,497	90,863	0,073	0,058
-263,482	-110,817	0,130	-0,019
-262,467	-200,000	0,008	-0,047
-261,453	582,990	-0,009	0,015
-260,438	77,838	-0,133	-0,101
-259,424	26,095	0,049	0,029
-258,409	81,974	0,061	-0,047
-257,395	-89,843	-0,110	0,023
-256,380	-47,948	0,208	-0,071
-255,365	-200,000	0,017	0,087
-254,351	409,905	0,014	0,021
-253,336	2,596	-0,036	-0,018
-252,322	-200,000	-0,003	-0,087
-251,307	-200,000	-0,063	-0,252
-250,292	-200,000	-0,031	-0,146
-249,278	-200,000	0,004	0,079
-248,263	-4,769	0,090	0,044
-247,249	-200,000	0,033	0,135
-246,234	558,291	0,010	-0,017
-245,219	187,004	0,113	-0,121
-244,205	30,749	-0,034	0,021
-243,190	-200,000	-0,005	-0,069
-242,176	-200,000	0,010	0,053
-241,161	193,307	0,066	0,071
-240,146	-90,863	-0,061	0,012
-239,132	158,827	0,015	-0,015
-238,117	253,743	-0,137	-0,167
-237,103	97,701	0,076	-0,062
-236,088	-200,000	-0,012	-0,086
-235,073	-35,729	0,069	0,027
-234,059	188,122	-0,084	-0,090
-233,044	659,236	-0,055	0,102
-232,030	778,667	-0,021	-0,040
-231,015	14,184	-0,059	0,032
-230,000	-200,000	0,025	-0,117
-228,986	-33,708	-0,182	-0,071
-227,971	-120,419	0,148	0,018
-226,957	65,583	-0,116	0,084
-225,942	-34,030	0,045	0,017
-224,927	25,492	0,074	0,044
-223,913	800,000	-0,022	-0,048
-222,898	-200,000	-0,062	-0,252
-221,884	495,301	-0,024	-0,040
-220,869	-86,620	0,168	0,036
-219,855	800,000	-0,033	0,078
-218,840	317,105	0,062	-0,083
-217,825	-14,581	0,045	-0,020
-216,811	507,335	0,053	0,088
-215,796	-92,882	-0,127	0,025
-214,782	800,000	0,031	0,065
-213,767	159,908	0,039	0,039
-212,752	96,847	0,067	-0,055
-211,738	36,235	-0,113	0,071
-210,723	-200,000	0,002	0,018
-209,709	-110,740	-0,090	0,013
-208,694	-200,000	0,022	0,071
-207,679	-200,000	-0,073	0,000
-206,665	-200,000	-0,033	0,117
-205,650	800,000	0,077	0,158
-204,636	-200,000	0,021	0,179
-203,621	-28,389	0,049	0,020
-202,606	327,077	0,023	0,031
-201,592	-27,792	-0,089	-0,037
-200,577	-9,390	0,083	0,039
-199,563	-200,000	0,027	0,108
-198,548	800,000	-0,013	-0,027
-197,533	-64,582	-0,111	0,032
-196,519	-200,000	0,012	-0,112
-195,504	-42,853	-0,160	-0,058
-194,490	800,000	0,016	0,047
-193,475	-28,301	0,021	0,008
-192,460	14,709	0,076	0,042
-191,446	596,858	-0,047	0,083
-190,431	-164,236	-0,177	0,006
-189,417	144,699	-0,022	0,021
-188,402	-4,632	0,068	-0,033
-187,387	-14,137	0,080	-0,037
-186,373	-165,760	0,044	-0,001
-185,358	404,817	-0,048	0,072
-184,344	124,797	0,070	0,063
-183,329	-200,000	0,032	0,129
-182,315	-75,398	0,062	-0,015
-181,300	-200,000	-0,015	-0,078
-180,285	261,937	0,083	-0,102
-179,271	24,377	-0,061	-0,036
-178,256	89,375	0,116	0,092
-177,242	204,864	0,064	-0,071
-176,227	-200,000	-0,010	0,088
-175,212	274,502	0,103	0,131
-174,198	-77,495	0,022	0,005
-173,183	-200,000	0,002	0,185
-172,169	-2,245	-0,172	-0,086
-171,154	-52,545	0,075	-0,024
-170,139	-56,927	0,127	-0,040
-169,125	32,523	0,040	0,025
-168,110	-200,000	0,007	-0,027
-167,096	450,595	-0,028	0,044
-166,081	-200,000	-0,068	-0,220
-165,066	-200,000	0,020	-0,116
-164,052	-200,000	0,004	-0,034
-163,037	-51,988	-0,105	-0,035
-162,023	27,238	0,052	-0,031
-161,008	261,458	-0,034	0,042
-159,993	12,798	0,075	-0,041
-158,979	800,000	0,041	-0,089
-157,964	6,186	-0,102	0,054
-156,950	409,067	0,085	-0,129
-155,935	-4,846	0,102	-0,050
-154,920	-200,000	0,005	-0,045
-153,906	18,224	-0,064	0,036
-152,891	-44,728	-0,098	0,035
-151,877	-200,000	-0,008	0,061
-150,862	302,777	-0,026	-0,034
-149,847	-10,253	-0,102	-0,048
-148,833	-179,110	-0,066	0,001
-147,818	28,101	0,038	-0,023
-146,804	-200,000	-0,026	-0,118
-145,789	51,602	-0,076	0,051
-144,775	123,242	0,036	-0,032
-143,760	-200,000	-0,001	0,037
-142,745	330,296	-0,045	-0,062
-141,731	-17,030	0,087	-0,039
-140,716	514,482	0,068	0,114
-139,702	-49,127	0,174	0,059
-138,687	-26,130	0,042	0,018
-137,672	735,108	0,049	-0,093
-136,658	-75,357	-0,092	0,023
-135,643	800,000	0,029	-0,076
-134,629	-106,375	-0,195	-0,031
-133,614	300,105	0,037	-0,049
-132,599	800,000	0,072	0,193
-131,585	25,586	-0,086	0,051
-130,570	-200,000	0,029	0,108
-129,556	76,311	-0,034	-0,026
-128,541	42,729	-0,043	0,027
-127,526	-49,936	-0,091	0,030
-126,512	20,572	0,108	-0,062
-125,497	119,667	0,089	-0,078
-124,483	98,663	0,008	-0,007
-123,468	509,276	0,052	-0,086
-122,453	-82,706	-0,025	-0,006
-121,439	-22,537	0,074	-0,032
-120,424	-128,017	0,149	-0,015
-119,410	-110,275	0,085	0,012
-118,395	24,710	0,105	-0,062
-117,380	513,845	0,048	0,081
-116,366	-72,591	0,163	0,042
-115,351	-134,165	-0,086	0,007
-114,337	-200,000	0,024	-0,220
-113,322	190,744	-0,058	-0,062
-112,307	-200,000	0,006	0,055
-111,293	-32,396	0,048	0,019
-110,278	-67,793	0,121	0,033
-109,264	342,381	0,028	0,039
-108,249	-59,911	-0,096	0,029
-107,234	-200,000	-0,031	-0,149
-106,220	463,471	-0,024	-0,038
-105,205	-200,000	-0,004	0,047
-104,191	-200,000	0,017	0,092
-103,176	-2,641	-0,050	-0,025
-102,162	-87,907	-0,037	-0,008
-101,147	87,112	-0,019	-0,015
-100,132	-101,807	-0,090	0,015
-99,118	-73,914	0,052	-0,013
-98,103	-103,987	0,144	-0,024
-97,089	-4,623	0,060	0,029
-96,074	-200,000	0,016	0,156
-95,059	-200,000	0,010	0,154
-94,045	-200,000	-0,014	0,096
-93,030	-49,134	-0,067	0,023
-92,016	800,000	0,065	-0,186
-91,001	721,094	0,032	0,062
-89,986	234,351	0,072	0,084
-88,972	-135,131	-0,070	-0,006
-87,957	-77,220	0,054	-0,013
-86,943	619,001	-0,027	-0,048
-85,928	-200,000	0,001	-0,132
-84,913	-37,480	0,078	-0,029
-83,899	30,580	-0,081	0,049
-82,884	-200,000	-0,008	-0,037
-81,870	-200,000	-0,006	0,086
-80,855	150,996	-0,067	0,065
-79,840	-200,000	-0,025	0,120
-78,826	-200,000	-0,019	-0,094
-77,811	-200,000	-0,010	-0,115
-76,797	800,000	-0,023	-0,066
-75,782	-200,000	0,012	0,055
-74,767	111,893	0,124	0,106
-73,753	800,000	-0,028	0,056
-72,738	-200,000	-0,005	0,044
-71,724	-47,579	-0,021	-0,007
-70,709	-150,322	0,051	0,003
-69,694	77,300	-0,152	0,114
-68,680	800,000	0,005	0,012
-67,665	-130,211	0,115	-0,011
-66,651	-132,860	-0,056	-0,005
-65,636	-96,473	0,096	-0,018
-64,622	1,362	-0,143	-0,073
-63,607	84,859	-0,047	-0,036
-62,592	800,000	0,005	-0,013
-61,578	-200,000	-0,018	0,109
-60,563	408,467	0,067	0,101
-59,549	514,635	-0,028	-0,046
-58,534	-45,441	-1,576	-0,551
-57,519	418,812	-1,507	-2,290
-56,505	-200,000	-0,518	-4,624
-55,490	122,109	0,948	0,838
-54,476	800,000	4,761	11,385
-53,461	-200,000	18,138	285,797
-52,446	800,000	726,393	2222,177
-51,432	553,483	1641,980	2806,628
-50,417	79,484	1664,218	1263,234
-49,403	23,061	1538,209	891,587
-48,388	17,020	1461,570	817,927
-47,373	17,903	1451,336	816,417
-46,359	17,355	1441,817	808,410
-45,344	15,333	1437,226	796,157
-44,330	15,240	1435,247	794,583
-43,315	15,218	1433,675	793,581
-42,300	15,220	1432,044	792,654
-41,286	15,297	1430,874	792,340
-40,271	15,265	1429,652	791,481
-39,257	15,272	1428,188	790,672
-38,242	15,307	1426,843	790,063
-37,227	15,281	1425,884	789,374
-36,213	15,308	1424,553	788,735
-35,198	15,278	1423,381	787,915
-34,184	15,342	1422,309	787,590
-33,169	15,226	1421,265	786,437
-32,154	15,314	1420,136	786,196
-31,140	15,324	1418,786	785,464
-30,125	15,303	1417,783	784,776
-29,111	15,323	1416,635	784,207
-28,096	15,297	1415,369	783,353
-27,082	15,254	1414,371	782,565
-26,067	15,183	1413,591	781,767
-25,052	15,235	1412,083	781,146
-24,038	15,227	1411,157	780,566
-23,023	15,175	1410,298	779,817
-22,009	15,201	1409,229	779,317
-20,994	15,155	1408,292	778,554
-19,979	15,168	1407,377	778,079
-18,965	15,154	1406,287	777,380
-17,950	15,135	1405,523	776,836
-16,936	15,198	1404,513	776,540
-15,921	15,112	1403,228	775,399
-14,906	15,104	1402,397	774,871
-13,892	15,084	1401,655	774,338
-12,877	15,072	1400,693	773,723
-11,863	15,124	1399,584	773,320
-10,848	15,105	1398,877	772,810
-9,833	15,083	1397,945	772,162
-8,819	15,062	1396,944	771,482
-7,804	15,013	1396,146	770,781
-6,790	15,054	1394,851	770,226
-5,775	15,036	1393,964	769,622
-4,760	14,989	1393,304	769,009
-3,746	15,023	1392,353	768,610
-2,731	15,034	1391,567	768,198
-1,717	15,013	1390,632	767,553
-0,702	15,016	1388,718	766,482
0,313	18,850	1308,338	739,845
1,327	35,253	707,457	438,098
2,342	53,992	124,986	84,911
3,356	2,755	16,678	8,534
4,371	4,523	3,133	1,621
5,386	-38,805	0,586	0,218
6,400	277,050	0,066	-0,083
7,415	260,058	-0,221	-0,271
8,429	108,814	-0,270	-0,228
9,444	-4,522	-0,345	-0,168
10,459	-27,669	-0,303	-0,124
11,473	-88,363	-0,349	-0,073
12,488	590,830	-0,170	-0,298
13,502	115,132	-0,236	-0,204
14,517	53,024	-0,398	-0,269
15,531	74,414	-0,364	-0,270
16,546	60,000	-0,408	-0,285
17,561	26,258	-0,352	-0,207
18,575	-102,834	-0,223	0,037
19,590	199,600	-0,285	-0,309
20,604	-116,407	-0,224	-0,029
21,619	-44,305	-0,470	-0,165
22,634	101,717	-0,373	-0,307
23,648	271,561	-0,344	-0,429
24,663	106,160	-0,381	-0,319
25,677	41,745	-0,396	-0,253
26,692	77,320	-0,317	-0,238
27,707	-54,280	-0,382	-0,122
28,721	90,449	-0,335	-0,264
29,736	-53,781	-0,235	-0,075
30,750	139,263	-0,383	-0,356
31,765	113,406	-0,384	-0,329
32,780	57,370	-0,255	-0,175
33,794	55,972	-0,324	-0,221
34,809	46,117	-0,297	-0,193
35,823	-30,247	-0,325	-0,130
36,838	109,578	-0,323	-0,273
37,853	60,357	-0,533	-0,372
38,867	59,533	-0,354	-0,246
39,882	98,621	-0,366	-0,298
40,896	0,704	-0,450	-0,226
41,911	25,658	-0,303	-0,177
42,926	35,519	-0,332	-0,205
43,940	-59,446	-0,411	-0,124
44,955	26,168	-0,504	-0,296
45,969	186,771	-0,407	-0,428
46,984	119,863	-0,185	-0,161
47,999	1,220	-0,396	-0,200
49,013	103,490	-0,296	-0,245
50,028	165,427	-0,363	-0,362
51,042	133,838	-0,292	-0,266
52,057	182,502	-0,248	-0,258
53,071	87,292	-0,277	-0,215
54,086	72,838	-0,337	-0,248
55,101	125,679	-0,238	-0,211
56,115	75,976	-0,341	-0,254
57,130	77,426	-0,315	-0,236
58,144	145,371	-0,349	-0,329
59,159	120,997	-0,334	-0,292
60,174	314,778	-0,309	-0,411
61,188	12,110	-0,385	-0,208
62,203	186,027	-0,277	-0,290
63,217	51,646	-0,392	-0,262
64,232	29,602	-0,339	-0,203
65,247	-101,211	-0,332	-0,057
66,261	152,249	-0,271	-0,261
67,276	14,155	-0,408	-0,223
68,290	146,569	-0,266	-0,252
69,305	50,923	-0,381	-0,253
70,320	-93,566	-0,483	-0,093
71,334	64,520	-0,279	-0,197
72,349	154,580	-0,319	-0,308
73,363	191,791	-0,297	-0,315
74,378	90,020	-0,308	-0,242
75,393	92,448	-0,308	-0,244
76,407	-72,805	-0,331	-0,085
77,422	-78,202	-0,296	-0,071
78,436	65,975	-0,145	-0,104
79,451	-54,257	-0,405	-0,129
80,466	-10,908	-0,306	-0,141
81,480	247,675	-0,296	-0,353
82,495	-20,272	-0,253	-0,109
83,509	8,624	-0,269	-0,142
84,524	261,885	-0,176	-0,215
85,539	19,024	-0,328	-0,184
86,553	48,986	-0,432	-0,285
87,568	-12,716	-0,305	-0,139
88,582	-61,530	-0,226	-0,066
89,597	92,256	-0,238	-0,189
90,611	142,545	-0,263	-0,245
91,626	-184,713	-0,250	-0,003
92,641	102,776	-0,200	-0,164
93,655	106,550	-0,161	-0,134
94,670	191,979	-0,269	-0,286
95,684	213,858	-0,237	-0,264
96,699	75,300	-0,319	-0,236
97,714	66,280	-0,340	-0,242
98,728	-83,673	-0,259	-0,058
99,743	-24,647	-0,298	-0,124
100,757	-8,157	-0,270	-0,127
101,772	201,508	-0,317	-0,343
102,787	55,264	-0,400	-0,271
103,801	93,494	-0,200	-0,158
104,816	299,724	-0,277	-0,358
105,830	238,725	-0,201	-0,235
106,845	-37,741	-0,255	-0,095
107,860	-3,507	-0,410	-0,199
108,874	-2,657	-0,281	-0,138
109,889	49,074	-0,315	-0,207
110,903	111,282	-0,303	-0,256
111,918	-6,589	-0,248	-0,118
112,933	42,240	-0,284	-0,181
113,947	23,111	-0,325	-0,186
114,962	108,109	-0,175	-0,146
115,976	345,150	-0,184	-0,253
116,991	164,701	-0,311	-0,308
118,006	304,264	-0,172	-0,224
119,020	92,183	-0,326	-0,257
120,035	202,264	-0,241	-0,261
121,049	146,721	-0,123	-0,116
122,064	153,220	-0,176	-0,168
123,079	81,741	-0,289	-0,219
124,093	88,441	-0,330	-0,257
125,108	196,242	-0,293	-0,312
126,122	800,000	-0,154	-0,316
127,137	55,939	-0,266	-0,181
128,151	-72,644	-0,334	-0,086
129,166	-86,551	-0,115	-0,024
130,181	6,225	-0,318	-0,165
131,195	-59,776	-0,356	-0,106
132,210	3,216	-0,246	-0,125
133,224	129,059	-0,247	-0,221
134,239	155,300	-0,151	-0,145
135,254	-96,518	-0,210	-0,038
136,268	-189,659	-0,282	-0,002
137,283	216,652	-0,233	-0,259
138,297	-0,554	-0,283	-0,140
139,312	382,493	-0,223	-0,322
140,327	69,510	-0,267	-0,192
141,341	53,986	-0,162	-0,109
142,356	181,677	-0,236	-0,243
143,370	-64,228	-0,223	-0,063
144,385	12,192	-0,236	-0,126
145,400	-178,779	-0,378	0,006
146,414	549,967	-0,204	-0,344
147,429	571,603	-0,197	-0,337
148,443	-200,000	-0,062	-0,226
149,458	-124,611	-0,119	-0,013
150,473	21,820	-0,291	-0,165
151,487	-37,566	-0,234	-0,087
152,502	800,000	-0,131	-0,256
153,516	-78,215	-0,285	-0,068
154,531	39,395	-0,309	-0,193
155,546	-199,923	-0,273	0,001
156,560	82,558	-0,268	-0,203
157,575	47,667	-0,242	-0,158
158,589	185,676	-0,213	-0,221
159,604	0,535	-0,276	-0,137
160,619	-39,807	-0,218	-0,079
161,633	259,537	-0,227	-0,274
162,648	19,832	-0,341	-0,191
163,662	87,306	-0,127	-0,098
164,677	163,852	-0,211	-0,208
165,692	214,754	-0,164	-0,182
166,706	470,399	-0,103	-0,163
167,721	274,125	-0,250	-0,310
168,735	32,327	-0,363	-0,218
169,750	78,423	-0,273	-0,203
170,764	230,151	-0,200	-0,228
171,779	63,273	-0,246	-0,172
172,794	74,752	-0,184	-0,135
173,808	-20,046	-0,285	-0,122
174,823	-40,887	-0,223	-0,080
175,837	-30,978	-0,231	-0,090
176,852	349,150	-0,214	-0,296
177,867	-200,000	-0,048	-0,228
178,881	484,949	-0,157	-0,251
179,896	79,165	-0,123	-0,092
180,910	38,996	-0,202	-0,126
181,925	254,376	-0,237	-0,283
182,940	800,000	-0,118	-0,323
183,954	266,182	-0,187	-0,228
184,969	-126,417	-0,233	-0,024
185,983	317,959	-0,133	-0,176
186,998	246,556	-0,151	-0,177
188,013	84,867	-0,296	-0,226
189,027	80,554	-0,337	-0,252
190,042	358,646	-0,149	-0,208
191,056	62,877	-0,280	-0,195
192,071	168,845	-0,146	-0,145
193,086	131,893	-0,265	-0,237
194,100	100,632	-0,269	-0,217
195,115	133,214	-0,190	-0,171
196,129	34,291	-0,226	-0,137
197,144	306,091	-0,169	-0,219
198,159	81,321	-0,318	-0,239
199,173	46,760	-0,276	-0,178
200,188	57,565	-0,209	-0,142
201,202	88,912	-0,180	-0,139
202,217	547,712	-0,095	-0,159
203,232	59,114	-0,263	-0,180
204,246	-2,121	-0,386	-0,188
205,261	242,103	-0,220	-0,256
206,275	6,515	-0,160	-0,083
207,290	209,565	-0,168	-0,183
208,304	-22,026	-0,229	-0,096
209,319	-31,707	-0,265	-0,103
210,334	-22,243	-0,251	-0,105
211,348	156,062	-0,312	-0,299
212,363	178,483	-0,183	-0,186
213,377	243,654	-0,199	-0,232
214,392	113,094	-0,236	-0,199
215,407	424,935	-0,130	-0,196
216,421	240,859	-0,215	-0,250
217,436	245,863	-0,209	-0,244
218,450	304,902	-0,210	-0,272
219,465	-200,000	-0,030	-0,278
220,480	102,733	-0,180	-0,146
221,494	193,162	-0,160	-0,168
222,509	-34,699	-0,065	-0,025
223,523	168,675	-0,190	-0,188
224,538	-66,681	-0,236	-0,064
225,553	427,186	-0,131	-0,197
226,567	608,682	-0,060	-0,104
227,582	98,809	-0,186	-0,149
228,596	-8,242	-0,205	-0,095
229,611	268,267	-0,177	-0,216
230,626	159,352	-0,223	-0,215
231,640	800,000	-0,104	-0,219
232,655	66,904	-0,194	-0,137
233,669	83,884	-0,175	-0,132
234,684	-68,661	-0,269	-0,072
235,699	-29,282	-0,096	-0,038
236,713	105,891	-0,128	-0,105
237,728	-30,912	-0,206	-0,080
238,742	-119,569	-0,218	-0,026
239,757	126,576	-0,203	-0,178
240,772	68,629	-0,263	-0,187
241,786	17,301	-0,134	-0,073
242,801	291,069	-0,129	-0,163
243,815	22,174	-0,205	-0,116
244,830	800,000	-0,060	-0,134
245,844	800,000	-0,095	-0,257
246,859	62,080	-0,174	-0,120
247,874	512,778	-0,136	-0,221
248,888	147,543	-0,212	-0,198
249,903	-200,000	-0,095	-0,329
250,917	-200,000	-0,052	-0,201
251,932	-51,622	-0,071	-0,023
252,947	40,311	-0,117	-0,073
253,961	326,417	-0,138	-0,183
254,976	-26,797	-0,132	-0,053
255,990	176,073	-0,195	-0,196
257,005	196,577	-0,210	-0,222
258,020	310,070	-0,118	-0,153
259,034	452,338	-0,045	-0,069
260,049	17,205	-0,216	-0,118
261,063	121,341	-0,195	-0,168
262,078	-16,376	-0,305	-0,134
263,093	395,064	-0,110	-0,159
264,107	220,697	-0,183	-0,203
265,122	-69,648	-0,101	-0,027
266,136	15,515	-0,086	-0,047
267,151	11,300	-0,144	-0,076
268,166	-82,282	-0,168	-0,037
269,180	67,118	-0,244	-0,172
270,195	96,683	-0,115	-0,091
271,209	800,000	-0,031	-0,075
272,224	800,000	-0,066	-0,130
273,239	84,876	-0,057	-0,043
274,253	257,670	-0,156	-0,186
275,268	-39,370	-0,236	-0,085
276,282	-43,189	-0,175	-0,061
277,297	168,355	-0,200	-0,197
278,312	82,397	-0,097	-0,073
279,326	-147,404	-0,128	-0,007
280,341	-183,556	-0,236	-0,003
281,355	92,221	-0,246	-0,191
282,370	149,759	-0,211	-0,198
283,384	91,741	-0,153	-0,119
284,399	-18,082	-0,220	-0,095
285,414	461,817	-0,144	-0,222
286,428	-200,000	-0,076	-0,302
287,443	491,520	0,025	0,040
288,457	51,844	-0,225	-0,148
289,472	177,750	-0,101	-0,102
290,487	222,965	-0,089	-0,100
291,501	215,818	-0,140	-0,154
292,516	800,000	-0,046	-0,118
293,530	258,860	-0,153	-0,182
294,545	800,000	-0,067	-0,156
295,560	-16,542	-0,110	0,048
296,574	13,237	-0,174	-0,093
297,589	-200,000	-0,053	-0,165
298,603	-1,472	-0,148	-0,072
299,618	125,001	-0,151	-0,131
300,633	39,238	-0,197	-0,121
301,647	-200,000	0,014	-0,067
302,662	198,702	-0,078	-0,082
303,676	113,544	-0,164	-0,137
304,691	50,568	-0,221	-0,144
305,706	216,613	-0,144	-0,158
306,720	-18,374	-0,161	-0,069
307,735	37,332	-0,078	-0,047
308,749	667,206	-0,035	-0,062
309,764	-121,132	-0,118	0,013
310,779	112,312	-0,167	-0,139
311,793	358,537	-0,131	-0,181
312,808	-167,721	-0,236	-0,006
313,822	549,683	-0,132	-0,218
314,837	800,000	-0,097	-0,221
315,852	-150,171	-0,223	-0,012
316,866	146,262	-0,134	-0,124
317,881	-68,515	-0,143	-0,038
318,895	473,302	-0,119	-0,186
319,910	279,433	-0,194	-0,239
320,925	440,214	-0,133	-0,200
321,939	217,610	-0,139	-0,152
322,954	-200,000	-0,085	-0,294
323,968	-193,858	-0,028	-0,000
324,983	186,997	-0,188	-0,193
325,997	-119,070	-0,178	0,021
327,012	114,972	-0,079	-0,067
328,027	-29,121	-0,118	-0,046
329,041	163,784	-0,128	-0,124
330,056	-200,000	-0,003	-0,052
331,070	-200,000	-0,038	-0,193
332,085	-71,216	-0,100	-0,026
333,100	-200,000	-0,028	-0,169
334,114	477,842	-0,153	-0,238
335,129	800,000	-0,081	-0,156
336,143	800,000	-0,051	-0,123
337,158	144,445	-0,177	-0,163
338,173	92,172	-0,155	-0,120
339,187	262,314	-0,142	-0,170
340,202	164,857	-0,082	-0,080
341,216	125,514	-0,133	-0,115
342,231	-47,569	-0,175	-0,058
343,246	169,478	-0,100	-0,098
344,260	800,000	-0,118	-0,275
345,275	263,196	-0,114	-0,137
346,289	600,511	-0,085	-0,145
347,304	199,916	-0,123	-0,130
348,319	-76,855	-0,178	-0,042
349,333	163,263	-0,145	-0,140
350,348	-143,226	-0,233	-0,015
351,362	121,347	-0,146	-0,125
352,377	-51,937	-0,130	-0,041
353,392	52,926	-0,124	-0,081
354,406	517,634	-0,097	-0,157
355,421	206,725	1320,272	1413,177
356,435	158,993	1481,696	1413,685
