DTS Sentinel unit serial number:	SN410029Multiplexer serial number:	ORYXHardware model number:	OX2-SRSoftware version number:	ORYX F/W v4,00 Oryx Data Collector v3.7.2.0data status	okinstallation	B3 Nyhavnadifferential loss correction	single-endedforward channel	channel 1reverse channel	N/Adate	2023/12/01time	15:37:30forward acquisition time	300,00reverse acquisition time	0,00gamma	499,1914k internal	0,3208k external	0,3208temperature offset calibration	1,0000default loss term (dB/km)	0,3820temperature slope calibration	1,0000multiplexer offset coefficient	1,0000multiplexer slope coefficient	1,0000fibre end	0,00T internal ref (°C)	12,22T ext. ref 1 (°C)	-1,20T ext. ref 2 (°C)	-1,23length (m)	temperature (°C)	Stokes	anti-Stokes-744,400	-53,615	-0,271	-0,089
-743,385	-200,000	0,015	0,369
-742,371	345,591	-0,138	-0,198
-741,356	-200,000	0,004	0,238
-740,342	8,331	-0,276	-0,150
-739,327	800,000	0,128	0,329
-738,312	132,131	-0,215	-0,201
-737,298	-200,000	-0,079	0,415
-736,283	512,172	-0,123	-0,208
-735,269	-200,000	0,101	0,380
-734,254	7,545	-0,361	-0,195
-733,239	38,976	-0,224	0,145
-732,225	-127,887	-0,095	0,010
-731,210	54,024	0,234	0,163
-730,196	-72,811	0,091	0,024
-729,181	-200,000	-0,003	0,060
-728,167	-200,000	-0,003	-0,064
-727,152	116,488	-0,104	0,093
-726,137	-200,000	-0,022	-0,112
-725,123	3,829	-0,060	-0,032
-724,108	-9,294	-0,120	0,058
-723,094	88,741	-0,147	-0,118
-722,079	199,739	-0,028	-0,032
-721,064	-51,517	-0,092	-0,031
-720,050	-200,000	-0,018	-0,113
-719,035	-143,405	-0,179	-0,012
-718,021	-19,956	-0,088	-0,039
-717,006	-200,000	-0,021	-0,092
-715,991	-8,633	-0,229	-0,111
-714,977	-200,000	0,020	-0,112
-713,962	800,000	0,048	0,110
-712,948	170,404	0,064	0,066
-711,933	167,374	-0,046	-0,047
-710,918	-200,000	0,025	0,086
-709,904	800,000	-0,032	-0,065
-708,889	-91,780	-0,125	-0,025
-707,875	83,791	-0,102	0,080
-706,860	-39,052	0,131	0,050
-705,845	-187,504	0,035	-0,000
-704,831	-81,320	-0,089	-0,021
-703,816	-200,000	-0,008	-0,050
-702,802	430,027	-0,061	-0,095
-701,787	4,270	-0,061	0,032
-700,772	-200,000	0,001	-0,048
-699,758	273,238	-0,033	-0,043
-698,743	-200,000	-0,001	-0,041
-697,729	800,000	-0,059	0,135
-696,714	-200,000	0,017	0,105
-695,699	800,000	-0,034	-0,078
-694,685	-4,930	-0,092	-0,046
-693,670	-200,000	0,013	-0,141
-692,656	63,146	0,067	0,049
-691,641	361,314	0,024	0,035
-690,627	168,137	0,129	0,133
-689,612	-140,017	0,072	-0,005
-688,597	-47,334	-0,136	0,048
-687,583	138,589	-0,122	-0,116
-686,568	-13,325	-0,037	0,017
-685,554	-98,855	-0,087	-0,016
-684,539	235,518	0,044	-0,053
-683,524	-200,000	0,033	-0,190
-682,510	-200,000	0,022	-0,097
-681,495	-61,096	-0,058	-0,018
-680,481	800,000	-0,032	-0,071
-679,466	160,369	-0,090	0,091
-678,451	-200,000	-0,025	0,180
-677,437	323,610	0,023	-0,031
-676,422	800,000	0,031	0,079
-675,408	-49,468	-0,104	-0,036
-674,393	-104,899	-0,155	0,025
-673,378	90,004	-0,081	-0,065
-672,364	85,791	-0,104	-0,083
-671,349	-55,028	-0,038	-0,012
-670,335	523,301	0,092	-0,157
-669,320	-37,602	0,097	0,037
-668,305	48,370	0,078	-0,053
-667,291	-200,000	0,006	-0,125
-666,276	-180,737	0,052	0,001
-665,262	-25,028	-0,045	-0,019
-664,247	-200,000	-0,008	0,052
-663,232	66,333	-0,061	-0,045
-662,218	169,298	-0,058	0,060
-661,203	-49,496	-0,035	-0,012
-660,189	-52,760	0,123	-0,041
-659,174	-30,041	0,151	-0,062
-658,159	443,860	-0,087	-0,138
-657,145	-145,915	-0,109	0,007
-656,130	470,133	-0,066	0,108
-655,116	88,752	0,116	0,093
-654,101	93,387	0,077	-0,063
-653,086	800,000	-0,046	-0,102
-652,072	-200,000	0,007	-0,054
-651,057	292,972	0,025	-0,033
-650,043	474,192	-0,035	0,058
-649,028	-60,809	-0,061	0,019
-648,014	125,356	0,127	0,116
-646,999	119,825	0,004	-0,003
-645,984	800,000	-0,033	-0,097
-644,970	-154,476	-0,032	-0,002
-643,955	350,472	0,017	-0,025
-642,941	575,067	0,072	-0,127
-641,926	-106,449	-0,116	-0,018
-640,911	-42,944	-0,070	-0,025
-639,897	-12,753	0,134	0,063
-638,882	-200,000	-0,010	0,039
-637,868	-200,000	0,006	-0,050
-636,853	226,758	-0,086	-0,101
-635,838	-13,651	-0,065	0,030
-634,824	676,074	0,044	-0,083
-633,809	511,450	0,079	-0,134
-632,795	33,274	0,093	0,058
-631,780	-163,281	-0,133	0,005
-630,765	31,207	-0,112	-0,069
-629,751	800,000	0,037	-0,105
-628,736	34,993	-0,194	-0,123
-627,722	-46,181	0,064	-0,023
-626,707	-180,966	0,060	0,001
-625,692	-88,659	-0,100	0,021
-624,678	13,098	0,034	-0,019
-623,663	-50,437	0,089	-0,030
-622,649	-13,004	-0,065	0,030
-621,634	-15,081	-0,092	0,043
-620,619	-47,871	-0,156	0,054
-619,605	-84,156	0,079	-0,018
-618,590	-200,000	0,007	-0,087
-617,576	-106,979	0,089	0,014
-616,561	-155,478	-0,129	0,006
-615,546	800,000	0,044	0,102
-614,532	448,585	-0,036	-0,058
-613,517	800,000	-0,044	-0,102
-612,503	-110,819	0,144	0,021
-611,488	-118,288	0,136	-0,017
-610,474	800,000	0,032	-0,074
-609,459	-44,928	0,043	-0,015
-608,444	800,000	-0,015	-0,030
-607,430	-200,000	-0,012	-0,100
-606,415	160,226	-0,041	0,041
-605,401	46,633	0,069	0,046
-604,386	65,831	-0,150	0,110
-603,371	800,000	0,042	-0,109
-602,357	384,847	0,057	-0,085
-601,342	78,422	-0,129	-0,099
-600,328	282,474	-0,091	-0,118
-599,313	67,052	-0,082	-0,060
-598,298	-59,136	0,154	-0,048
-597,284	66,281	-0,139	0,102
-596,269	296,005	0,086	0,114
-595,255	-200,000	0,010	0,035
-594,240	304,324	-0,025	0,033
-593,225	-54,173	-0,029	0,009
-592,211	721,393	0,028	-0,054
-591,196	-173,490	0,142	0,003
-590,182	13,388	-0,049	0,027
-589,167	202,067	-0,015	-0,017
-588,152	25,555	-0,036	0,021
-587,138	800,000	-0,017	0,036
-586,123	-44,598	-0,034	0,012
-585,109	148,139	-0,106	0,103
-584,094	-200,000	0,000	-0,010
-583,079	66,764	0,007	-0,005
-582,065	-149,143	0,110	-0,006
-581,050	-139,541	-0,090	-0,007
-580,036	-22,597	-0,113	-0,049
-579,021	-200,000	-0,001	-0,016
-578,006	212,211	-0,086	-0,098
-576,992	12,390	-0,113	-0,063
-575,977	-68,454	-0,113	0,031
-574,963	-17,445	0,130	0,059
-573,948	-200,000	0,023	0,102
-572,934	-53,625	0,074	-0,024
-571,919	800,000	-0,017	-0,038
-570,904	189,677	-0,057	-0,061
-569,890	-53,207	-0,093	0,031
-568,875	-65,238	0,052	-0,015
-567,861	791,327	0,054	-0,107
-566,846	-200,000	0,003	0,061
-565,831	800,000	-0,040	-0,086
-564,817	265,512	-0,056	0,071
-563,802	18,046	-0,058	-0,033
-562,788	106,495	-0,155	-0,133
-561,773	-17,590	0,103	-0,047
-560,758	-114,571	0,180	-0,025
-559,744	-200,000	-0,042	0,135
-558,729	675,750	0,033	0,062
-557,715	800,000	0,049	0,110
-556,700	-200,000	-0,004	-0,051
-555,685	-135,165	-0,061	0,005
-554,671	-200,000	-0,030	0,098
-553,656	-124,361	0,075	0,008
-552,642	315,370	0,080	0,109
-551,627	-84,351	-0,102	-0,023
-550,612	-200,000	0,002	-0,016
-549,598	78,544	-0,045	-0,035
-548,583	129,517	-0,077	-0,071
-547,569	45,583	-0,091	0,060
-546,554	-166,830	0,205	-0,006
-545,539	257,038	0,042	-0,053
-544,525	633,723	0,090	0,166
-543,510	532,410	0,040	0,068
-542,496	411,621	-0,072	-0,111
-541,481	-48,625	0,018	-0,006
-540,466	283,500	-0,018	-0,023
-539,452	623,711	0,016	0,029
-538,437	429,147	-0,056	0,087
-537,423	-54,787	0,053	0,017
-536,408	180,794	-0,086	0,090
-535,393	309,843	-0,068	-0,092
-534,379	-81,172	-0,028	-0,007
-533,364	-47,617	0,088	-0,031
-532,350	623,707	0,043	-0,079
-531,335	128,243	-0,097	0,089
-530,321	800,000	0,051	0,124
-529,306	-29,918	0,112	0,046
-528,291	-200,000	-0,001	-0,088
-527,277	-200,000	0,000	-0,107
-526,262	53,457	0,052	0,036
-525,248	800,000	0,012	-0,023
-524,233	140,975	0,032	-0,030
-523,218	800,000	0,029	0,086
-522,204	800,000	-0,024	0,067
-521,189	184,121	-0,019	0,020
-520,175	-120,716	-0,106	-0,013
-519,160	49,277	0,124	-0,083
-518,145	-200,000	0,047	0,204
-517,131	-178,562	0,039	0,001
-516,116	-138,636	0,077	-0,006
-515,102	-81,449	-0,121	0,028
-514,087	-127,203	-0,025	-0,003
-513,072	-200,000	0,001	0,033
-512,058	-23,224	-0,069	0,030
-511,043	-20,930	-0,071	-0,031
-510,029	-20,503	-0,094	-0,042
-509,014	-200,000	0,007	0,127
-507,999	54,361	-0,021	-0,015
-506,985	-1,336	0,049	-0,025
-505,970	592,407	-0,042	-0,075
-504,956	-72,909	-0,085	-0,022
-503,941	-54,682	0,067	-0,021
-502,926	-53,061	-0,086	0,028
-501,912	-3,135	0,057	0,029
-500,897	800,000	0,029	0,078
-499,883	-80,700	0,075	0,018
-498,868	-95,606	-0,046	0,009
-497,853	-22,192	0,027	0,012
-496,839	462,709	0,046	-0,075
-495,824	-9,239	0,112	0,054
-494,810	285,812	0,070	0,091
-493,795	230,943	-0,036	-0,042
-492,781	623,247	-0,043	-0,078
-491,766	-193,516	-0,071	0,000
-490,751	123,421	-0,047	0,043
-489,737	-84,924	-0,056	0,013
-488,722	-64,091	0,123	0,036
-487,708	-132,497	0,069	0,006
-486,693	155,839	-0,071	-0,071
-485,678	-200,000	0,009	0,078
-484,664	-87,068	-0,085	-0,018
-483,649	-167,937	0,075	-0,002
-482,635	711,985	-0,084	0,161
-481,620	-200,000	-0,008	0,039
-480,605	-42,763	0,112	-0,041
-479,591	-200,000	-0,006	-0,122
-478,576	325,032	-0,041	-0,057
-477,562	242,969	-0,052	0,062
-476,547	5,582	-0,149	0,079
-475,532	-200,000	-0,017	-0,085
-474,518	1,356	0,042	-0,022
-473,503	-200,000	0,012	-0,055
-472,489	29,441	-0,093	0,057
-471,474	-43,761	-0,030	0,011
-470,459	694,592	-0,030	0,056
-469,445	800,000	0,011	0,028
-468,430	140,209	0,014	-0,013
-467,416	-148,079	-0,024	0,001
-466,401	-200,000	0,030	-0,162
-465,386	-35,908	0,080	0,031
-464,372	79,185	-0,043	-0,033
-463,357	267,555	0,022	-0,028
-462,343	-200,000	0,013	-0,114
-461,328	169,009	-0,084	-0,086
-460,313	218,698	0,066	0,076
-459,299	99,046	0,095	-0,079
-458,284	-124,203	-0,046	-0,005
-457,270	-168,005	0,087	-0,002
-456,255	168,510	0,053	-0,054
-455,241	-191,005	0,075	-0,001
-454,226	800,000	-0,021	0,046
-453,211	-43,188	0,056	0,020
-452,197	257,171	-0,031	0,038
-451,182	-78,835	0,085	-0,021
-450,168	-16,275	-0,090	-0,041
-449,153	97,979	0,017	-0,014
-448,138	-200,000	0,028	-0,122
-447,124	-19,929	-0,038	0,017
-446,109	800,000	0,032	-0,089
-445,095	-200,000	-0,005	0,022
-444,080	-200,000	0,004	0,102
-443,065	11,025	0,025	0,014
-442,051	308,149	0,024	0,032
-441,036	-161,674	-0,018	-0,001
-440,022	64,268	0,039	0,028
-439,007	-66,819	0,061	-0,017
-437,992	241,312	0,039	-0,047
-436,978	98,371	0,043	-0,035
-435,963	11,583	-0,107	-0,059
-434,949	140,641	0,003	0,002
-433,934	-200,000	0,008	0,070
-432,919	800,000	0,017	-0,040
-431,905	800,000	-0,041	-0,086
-430,890	-33,904	0,054	0,021
-429,876	-81,428	-0,129	0,030
-428,861	800,000	0,022	-0,055
-427,846	800,000	-0,019	-0,050
-426,832	374,334	-0,105	-0,153
-425,817	800,000	0,057	-0,132
-424,803	640,730	-0,076	-0,140
-423,788	394,470	0,063	-0,094
-422,773	477,261	-0,074	0,121
-421,759	386,833	-0,057	0,085
-420,744	16,347	0,099	-0,056
-419,730	800,000	-0,019	0,040
-418,715	-136,178	-0,110	-0,009
-417,701	578,884	-0,045	-0,079
-416,686	169,777	-0,049	-0,050
-415,671	800,000	0,067	0,133
-414,657	513,875	0,049	0,083
-413,642	78,945	-0,100	0,077
-412,628	-61,185	-0,089	0,027
-411,613	248,091	0,051	-0,062
-410,598	-200,000	-0,028	-0,090
-409,584	-200,000	0,000	0,142
-408,569	800,000	0,058	0,134
-407,555	-200,000	0,007	-0,096
-406,540	800,000	-0,066	0,137
-405,525	274,813	-0,062	-0,079
-404,511	688,693	0,040	-0,074
-403,496	-200,000	0,015	0,080
-402,482	800,000	0,015	-0,040
-401,467	800,000	0,023	0,063
-400,452	800,000	0,026	-0,064
-399,438	-200,000	0,005	0,024
-398,423	800,000	-0,020	-0,061
-397,409	142,860	-0,113	-0,108
-396,394	800,000	-0,006	-0,018
-395,379	-66,729	0,122	0,034
-394,365	76,865	-0,095	0,072
-393,350	363,083	0,132	-0,190
-392,336	-65,463	-0,029	0,008
-391,321	800,000	-0,039	-0,085
-390,306	360,780	-0,058	-0,083
-389,292	270,199	-0,060	-0,076
-388,277	164,270	-0,036	0,037
-387,263	-128,530	0,110	0,011
-386,248	-200,000	-0,000	0,072
-385,233	796,746	0,051	0,100
-384,219	-172,431	-0,049	-0,001
-383,204	192,746	0,017	0,019
-382,190	212,354	-0,104	-0,118
-381,175	-119,024	0,159	0,020
-380,160	72,527	0,040	0,030
-379,146	-200,000	-0,030	0,144
-378,131	-106,827	-0,105	0,017
-377,117	662,203	-0,028	-0,052
-376,102	169,439	-0,050	-0,051
-375,088	-73,360	-0,149	-0,039
-374,073	-93,515	0,061	-0,012
-373,058	-200,000	-0,016	-0,066
-372,044	-23,411	0,088	0,038
-371,029	-200,000	-0,022	0,068
-370,015	-200,000	0,035	0,133
-369,000	139,416	-0,087	-0,082
-367,985	32,972	-0,118	-0,073
-366,971	339,525	-0,037	0,052
-365,956	423,989	0,021	-0,032
-364,942	-134,293	0,081	0,007
-363,927	-101,043	0,130	-0,023
-362,912	92,329	-0,086	-0,069
-361,898	-200,000	-0,019	-0,087
-360,883	-200,000	0,018	-0,098
-359,869	-174,291	0,021	0,000
-358,854	-200,000	0,019	0,109
-357,839	800,000	0,079	0,175
-356,825	-111,755	-0,020	-0,003
-355,810	-79,072	0,119	0,029
-354,796	75,791	-0,075	0,056
-353,781	60,306	0,075	-0,053
-352,766	682,939	0,038	-0,070
-351,752	800,000	0,024	0,062
-350,737	354,648	-0,045	0,064
-349,723	298,533	0,045	-0,059
-348,708	-200,000	-0,007	0,092
-347,693	-12,776	0,109	0,051
-346,679	396,665	-0,086	-0,129
-345,664	-76,946	-0,191	0,047
-344,650	402,028	-0,074	0,112
-343,635	800,000	0,025	0,061
-342,620	-23,616	0,032	0,014
-341,606	14,262	-0,034	0,019
-340,591	-84,608	0,087	-0,019
-339,577	450,132	0,067	-0,106
-338,562	196,696	-0,083	0,090
-337,548	412,310	-0,064	0,097
-336,533	-200,000	0,020	0,174
-335,518	-200,000	0,014	0,101
-334,504	-138,988	-0,219	-0,017
-333,489	0,695	0,061	0,031
-332,475	800,000	-0,022	-0,049
-331,460	800,000	-0,026	-0,073
-330,445	-148,550	-0,087	-0,005
-329,431	220,016	0,131	0,150
-328,416	85,346	0,040	-0,031
-327,402	-61,478	0,077	0,023
-326,387	-200,000	0,014	-0,135
-325,372	-18,887	-0,074	0,033
-324,358	-26,542	0,116	0,048
-323,343	93,074	0,045	-0,037
-322,329	-167,488	0,020	-0,001
-321,314	206,431	0,160	0,179
-320,299	146,643	0,101	0,097
-319,285	354,626	-0,041	-0,059
-318,270	800,000	0,026	-0,072
-317,256	-200,000	-0,030	-0,165
-316,241	583,267	0,027	0,047
-315,226	-30,873	0,111	0,044
-314,212	-200,000	-0,022	0,072
-313,197	2,850	-0,047	0,024
-312,183	-1,293	0,049	0,025
-311,168	61,401	-0,054	0,039
-310,153	800,000	0,022	-0,046
-309,139	204,303	-0,045	-0,049
-308,124	-40,243	0,148	-0,055
-307,110	120,622	-0,010	0,009
-306,095	216,546	0,063	0,071
-305,080	-200,000	-0,036	0,121
-304,066	-200,000	0,003	-0,034
-303,051	352,327	-0,085	-0,120
-302,037	319,835	0,036	0,048
-301,022	53,092	0,103	0,070
-300,008	-200,000	0,017	0,116
-298,993	105,763	0,044	0,037
-297,978	-200,000	-0,016	0,120
-296,964	310,935	-0,012	-0,016
-295,949	176,685	-0,025	0,026
-294,935	165,493	-0,124	0,125
-293,920	183,363	0,099	0,104
-292,905	737,946	0,050	0,096
-291,891	-200,000	0,013	0,067
-290,876	800,000	0,046	0,098
-289,862	-200,000	-0,001	-0,060
-288,847	-76,039	-0,139	-0,035
-287,832	444,918	0,057	0,090
-286,818	14,760	-0,108	0,060
-285,803	250,683	0,129	-0,156
-284,789	-111,015	-0,045	0,007
-283,774	255,740	0,095	0,116
-282,759	66,338	0,082	-0,059
-281,745	-78,726	-0,176	-0,042
-280,730	299,549	0,024	-0,032
-279,716	-200,000	-0,009	-0,091
-278,701	38,169	0,115	0,073
-277,686	-200,000	0,027	0,120
-276,672	293,049	-0,048	-0,063
-275,657	-200,000	-0,008	0,051
-274,643	-200,000	-0,019	0,102
-273,628	-185,932	-0,020	0,000
-272,613	391,679	0,044	-0,065
-271,599	116,840	0,124	0,108
-270,584	-94,471	0,160	-0,031
-269,570	-200,000	-0,023	-0,112
-268,555	95,158	-0,115	-0,093
-267,540	265,144	-0,080	0,099
-266,526	-44,805	-0,208	-0,073
-265,511	-145,257	-0,058	-0,004
-264,497	363,812	0,038	-0,054
-263,482	-116,893	0,156	0,020
-262,467	236,460	-0,094	-0,111
-261,453	-126,506	0,114	0,012
-260,438	-200,000	-0,008	0,029
-259,424	-200,000	-0,012	-0,185
-258,409	272,306	0,046	-0,058
-257,395	800,000	-0,011	0,030
-256,380	70,944	0,117	0,086
-255,365	-200,000	0,022	0,082
-254,351	225,303	0,051	-0,059
-253,336	-200,000	0,002	0,094
-252,322	38,825	-0,031	-0,019
-251,307	-122,572	-0,106	0,012
-250,292	286,453	-0,036	-0,047
-249,278	-200,000	-0,013	-0,074
-248,263	-200,000	0,019	0,106
-247,249	800,000	0,004	0,013
-246,234	800,000	0,015	-0,041
-245,219	-109,054	0,120	0,018
-244,205	-60,806	-0,126	0,038
-243,190	-200,000	-0,023	-0,104
-242,176	67,329	0,176	-0,128
-241,161	188,523	0,061	-0,065
-240,146	-45,136	-0,049	-0,017
-239,132	296,457	0,047	0,062
-238,117	-200,000	-0,006	0,050
-237,103	378,112	-0,043	-0,063
-236,088	-149,688	0,149	0,008
-235,073	140,479	-0,042	0,039
-234,059	249,372	0,112	0,135
-233,044	-19,925	0,018	-0,008
-232,030	-56,655	0,084	0,026
-231,015	-200,000	-0,003	-0,129
-230,000	-53,475	-0,095	-0,031
-228,986	-200,000	-0,016	-0,119
-227,971	79,707	-0,068	-0,052
-226,957	-200,000	-0,030	0,099
-225,942	800,000	-0,035	-0,081
-224,927	109,881	-0,078	-0,066
-223,913	-25,252	-0,093	0,039
-222,898	86,781	0,052	0,041
-221,884	110,078	-0,074	-0,063
-220,869	-69,028	0,316	0,086
-219,855	34,221	-0,112	0,070
-218,840	-37,706	0,127	0,048
-217,825	800,000	0,023	-0,061
-216,811	-14,803	0,162	0,073
-215,796	720,727	0,019	-0,035
-214,782	-169,432	-0,029	0,001
-213,767	217,737	-0,038	-0,043
-212,752	-157,558	-0,026	0,001
-211,738	397,857	0,061	0,090
-210,723	-64,141	-0,135	0,039
-209,709	-200,000	0,007	-0,077
-208,694	46,025	-0,038	0,025
-207,679	800,000	0,041	0,086
-206,665	-152,095	0,253	0,013
-205,650	-166,557	0,037	0,001
-204,636	-90,421	-0,098	-0,020
-203,621	759,989	-0,112	0,218
-202,606	800,000	0,057	-0,125
-201,592	800,000	-0,056	-0,152
-200,577	-23,597	0,026	0,011
-199,563	-40,684	-0,081	0,030
-198,548	-200,000	-0,019	0,097
-197,533	800,000	-0,029	-0,084
-196,519	-23,746	0,094	0,040
-195,504	-200,000	-0,026	-0,142
-194,490	800,000	-0,033	-0,067
-193,475	7,196	-0,137	-0,072
-192,460	2,762	-0,099	-0,051
-191,446	800,000	-0,053	-0,153
-190,431	800,000	0,022	0,062
-189,417	349,894	0,056	0,078
-188,402	-200,000	0,012	0,120
-187,387	-200,000	-0,004	0,034
-186,373	800,000	0,039	-0,103
-185,358	-126,853	0,063	-0,006
-184,344	-200,000	0,021	-0,148
-183,329	800,000	0,055	0,126
-182,315	149,171	-0,051	0,049
-181,300	-95,444	-0,066	0,013
-180,285	-77,555	-0,086	0,021
-179,271	-200,000	0,017	-0,076
-178,256	37,123	-0,065	0,041
-177,242	772,972	-0,031	0,059
-176,227	-200,000	0,017	0,055
-175,212	-148,387	-0,113	-0,006
-174,198	18,617	-0,031	0,017
-173,183	442,862	0,016	0,025
-172,169	108,135	0,056	-0,047
-171,154	39,958	-0,089	-0,057
-170,139	-200,000	0,029	0,119
-169,125	-200,000	-0,043	0,186
-168,110	12,173	0,138	0,075
-167,096	30,360	0,030	-0,018
-166,081	800,000	0,048	-0,119
-165,066	-15,489	-0,126	0,057
-164,052	489,537	-0,020	-0,033
-163,037	-200,000	0,005	0,015
-162,023	678,570	0,040	0,073
-161,008	-5,686	0,091	0,044
-159,993	737,189	0,054	-0,103
-158,979	-125,984	-0,074	0,008
-157,964	800,000	0,027	-0,065
-156,950	-200,000	0,010	-0,079
-155,935	800,000	0,042	0,089
-154,920	-176,007	0,064	0,001
-153,906	2,896	0,022	-0,011
-152,891	800,000	0,017	-0,042
-151,877	142,567	0,035	0,033
-150,862	581,784	-0,049	-0,086
-149,847	-106,653	-0,126	-0,020
-148,833	-200,000	0,004	-0,033
-147,818	58,183	0,134	0,093
-146,804	226,150	0,158	0,182
-145,789	-129,672	-0,140	-0,014
-144,775	-153,254	-0,062	0,003
-143,760	-11,764	0,125	-0,058
-142,745	228,762	-0,038	-0,044
-141,731	347,726	0,074	-0,104
-140,716	129,451	0,044	-0,040
-139,702	-95,440	0,050	-0,009
-138,687	-166,716	0,097	0,003
-137,672	-3,669	-0,082	-0,040
-136,658	61,973	-0,050	-0,035
-135,643	315,320	-0,098	0,132
-134,629	1,044	0,030	0,015
-133,614	68,751	0,045	-0,033
-132,599	800,000	-0,010	0,025
-131,585	44,255	-0,091	0,059
-130,570	208,462	0,050	0,056
-129,556	125,059	-0,054	-0,048
-128,541	-200,000	-0,005	0,038
-127,526	-159,959	0,088	-0,003
-126,512	800,000	-0,060	-0,132
-125,497	81,970	0,125	-0,096
-124,483	-130,052	-0,069	0,007
-123,468	80,377	-0,097	-0,074
-122,453	-200,000	-0,018	0,062
-121,439	-200,000	-0,021	-0,105
-120,424	75,207	-0,096	-0,072
-119,410	82,336	0,039	-0,030
-118,395	33,036	-0,059	-0,036
-117,380	-200,000	0,018	-0,083
-116,366	106,325	-0,047	0,039
-115,351	-14,165	-0,108	-0,049
-114,337	-200,000	-0,016	-0,082
-113,322	800,000	0,056	-0,135
-112,307	-200,000	0,014	0,058
-111,293	-129,065	0,083	-0,008
-110,278	-200,000	-0,002	-0,109
-109,264	-200,000	-0,020	-0,068
-108,249	26,245	-0,117	0,069
-107,234	482,106	-0,045	-0,073
-106,220	265,020	-0,048	-0,059
-105,205	800,000	0,030	0,086
-104,191	37,432	-0,118	-0,074
-103,176	-67,880	0,067	-0,018
-102,162	-15,528	-0,133	0,060
-101,147	-134,581	-0,093	-0,008
-100,132	-21,961	-0,086	0,037
-99,118	800,000	-0,049	0,138
-98,103	800,000	0,015	-0,040
-97,089	-200,000	-0,007	0,050
-96,074	544,673	0,056	0,095
-95,059	252,031	-0,097	0,117
-94,045	-28,780	-0,106	-0,043
-93,030	-200,000	-0,006	-0,107
-92,016	10,683	-0,052	-0,028
-91,001	64,233	-0,094	-0,067
-89,986	800,000	-0,045	0,115
-88,972	-36,552	0,172	0,065
-87,957	800,000	-0,017	-0,034
-86,943	210,938	-0,026	0,029
-85,928	800,000	-0,009	-0,025
-84,913	-2,189	-0,103	-0,051
-83,899	4,229	-0,051	-0,026
-82,884	-110,849	0,106	0,015
-81,870	382,601	-0,054	0,078
-80,855	8,563	0,113	0,060
-79,840	-28,692	-0,123	0,050
-78,826	173,171	-0,057	0,059
-77,811	-80,120	-0,135	-0,032
-76,797	633,805	-0,063	-0,113
-75,782	800,000	-0,041	-0,083
-74,767	438,043	0,103	0,159
-73,753	232,643	0,075	-0,087
-72,738	50,616	-0,101	0,067
-71,724	371,638	-0,050	-0,072
-70,709	800,000	0,020	0,054
-69,694	-200,000	-0,007	-0,026
-68,680	-186,339	0,097	0,001
-67,665	-180,401	0,150	0,002
-66,651	-110,971	0,122	0,018
-65,636	79,390	-0,020	0,015
-64,622	-200,000	0,012	0,123
-63,607	1,570	-0,065	-0,033
-62,592	-200,000	0,024	-0,124
-61,578	-138,141	0,056	-0,004
-60,563	491,641	-0,029	-0,046
-59,549	46,161	-0,183	0,119
-58,534	-4,549	-1,793	-0,872
-57,519	485,529	-1,375	-2,221
-56,505	-200,000	-0,483	-4,346
-55,490	466,119	0,858	1,362
-54,476	800,000	4,917	11,205
-53,461	-200,000	19,709	330,419
-52,446	-200,000	745,581	2330,446
-51,432	564,058	1653,964	2841,246
-50,417	76,169	1665,104	1243,751
-49,403	20,140	1538,687	874,709
-48,388	14,070	1461,325	801,346
-47,373	18,624	1451,291	817,697
-46,359	16,624	1440,810	802,229
-45,344	12,300	1436,562	779,233
-44,330	12,230	1434,622	777,814
-43,315	12,261	1432,860	776,974
-42,300	12,258	1431,358	776,117
-41,286	12,313	1430,042	775,630
-40,271	12,262	1428,577	774,566
-39,257	12,276	1427,236	773,874
-38,242	12,257	1426,269	773,229
-37,227	12,276	1424,857	772,525
-36,213	12,263	1423,546	771,720
-35,198	12,285	1422,516	771,236
-34,184	12,362	1421,570	771,054
-33,169	12,291	1420,087	769,887
-32,154	12,335	1419,072	769,511
-31,140	12,306	1417,895	768,705
-30,125	12,354	1416,687	768,246
-29,111	12,354	1415,418	767,530
-28,096	12,312	1414,608	766,861
-27,082	12,294	1413,195	765,982
-26,067	12,255	1412,393	765,332
-25,052	12,278	1411,052	764,681
-24,038	12,237	1410,237	764,020
-23,023	12,245	1409,118	763,420
-22,009	12,231	1408,269	762,864
-20,994	12,226	1407,331	762,303
-19,979	12,224	1406,402	761,758
-18,965	12,231	1405,545	761,299
-17,950	12,181	1404,558	760,501
-16,936	12,222	1403,779	760,237
-15,921	12,204	1402,563	759,464
-14,906	12,192	1401,740	758,935
-13,892	12,151	1400,957	758,291
-12,877	12,157	1399,967	757,753
-11,863	12,165	1399,033	757,254
-10,848	12,131	1398,338	756,688
-9,833	12,088	1397,429	755,970
-8,819	12,059	1396,811	755,468
-7,804	12,051	1395,504	754,693
-6,790	12,041	1394,724	754,197
-5,775	12,044	1393,493	753,515
-4,760	12,055	1392,653	753,081
-3,746	12,037	1391,549	752,372
-2,731	12,033	1390,832	751,937
-1,717	12,020	1390,182	751,495
-0,702	12,046	1388,219	750,523
0,313	16,071	1303,984	723,457
1,327	32,311	697,784	424,302
2,342	49,950	121,815	80,977
3,356	-0,127	16,533	8,278
4,371	8,947	3,156	1,676
5,386	-42,597	0,712	0,254
6,400	-200,000	-0,010	0,380
7,415	21,966	-0,248	-0,142
8,429	-2,001	-0,312	-0,154
9,444	-50,213	-0,311	-0,103
10,459	13,879	-0,450	-0,246
11,473	33,428	-0,262	-0,160
12,488	-16,077	-0,334	-0,149
13,502	41,188	-0,306	-0,194
14,517	-142,189	-0,309	-0,021
15,531	-24,003	-0,419	-0,176
16,546	-18,434	-0,492	-0,216
17,561	243,183	-0,245	-0,290
18,575	-46,689	-0,274	-0,094
19,590	68,716	-0,236	-0,171
20,604	122,036	-0,197	-0,173
21,619	84,296	-0,401	-0,309
22,634	90,195	-0,449	-0,354
23,648	11,643	-0,433	-0,234
24,663	280,493	-0,285	-0,360
25,677	47,656	-0,363	-0,238
26,692	106,124	-0,235	-0,196
27,707	194,595	-0,322	-0,345
28,721	-23,052	-0,419	-0,177
29,736	-87,504	-0,501	-0,106
30,750	38,390	-0,451	-0,283
31,765	22,615	-0,394	-0,226
32,780	38,469	-0,365	-0,228
33,794	91,147	-0,331	-0,262
34,809	83,720	-0,371	-0,285
35,823	104,379	-0,318	-0,263
36,838	124,545	-0,397	-0,352
37,853	114,676	-0,468	-0,401
38,867	63,764	-0,333	-0,235
39,882	179,357	-0,282	-0,291
40,896	274,050	-0,210	-0,261
41,911	177,445	-0,281	-0,289
42,926	1,385	-0,336	-0,170
43,940	-38,181	-0,345	-0,128
44,955	93,282	-0,426	-0,339
45,969	-16,156	-0,472	-0,210
46,984	94,469	-0,278	-0,222
47,999	59,893	-0,391	-0,271
49,013	228,422	-0,295	-0,339
50,028	136,356	-0,306	-0,281
51,042	21,608	-0,249	-0,142
52,057	222,937	-0,255	-0,290
53,071	84,934	-0,358	-0,275
54,086	-1,471	-0,330	-0,163
55,101	56,620	-0,383	-0,261
56,115	-89,504	-0,450	-0,092
57,130	15,768	-0,365	-0,201
58,144	-65,483	-0,381	-0,107
59,159	50,117	-0,299	-0,198
60,174	257,110	-0,289	-0,349
61,188	24,933	-0,388	-0,226
62,203	-24,679	-0,316	-0,132
63,217	-42,890	-0,415	-0,147
64,232	99,463	-0,316	-0,256
65,247	76,805	-0,408	-0,304
66,261	63,832	-0,395	-0,278
67,276	181,983	-0,271	-0,280
68,290	43,184	-0,247	-0,158
69,305	117,378	-0,171	-0,147
70,320	72,964	-0,234	-0,172
71,334	-6,007	-0,220	-0,105
72,349	34,261	-0,302	-0,184
73,363	19,330	-0,377	-0,212
74,378	34,344	-0,332	-0,203
75,393	-16,321	-0,382	-0,169
76,407	-8,241	-0,254	-0,120
77,422	14,734	-0,213	-0,116
78,436	26,480	-0,260	-0,152
79,451	176,368	-0,170	-0,173
80,466	362,673	-0,316	-0,446
81,480	120,209	-0,253	-0,220
82,495	117,294	-0,268	-0,231
83,509	12,818	-0,398	-0,215
84,524	-48,336	-0,314	-0,105
85,539	-10,985	-0,224	-0,103
86,553	9,735	-0,385	-0,204
87,568	48,336	-0,264	-0,173
88,582	-32,651	-0,337	-0,131
89,597	5,388	-0,350	-0,180
90,611	-37,229	-0,348	-0,130
91,626	93,460	-0,151	-0,120
92,641	-35,540	-0,287	-0,108
93,655	121,591	-0,193	-0,168
94,670	-72,243	-0,346	-0,089
95,684	180,093	-0,327	-0,336
96,699	77,829	-0,283	-0,211
97,714	29,315	-0,274	-0,163
98,728	249,467	-0,200	-0,238
99,743	-20,738	-0,257	-0,110
100,757	-24,438	-0,309	-0,128
101,772	-14,270	-0,345	-0,155
102,787	30,213	-0,335	-0,200
103,801	68,634	-0,255	-0,183
104,816	16,290	-0,351	-0,193
105,830	4,685	-0,218	-0,112
106,845	22,672	-0,226	-0,129
107,860	-8,136	-0,327	-0,154
108,874	60,127	-0,251	-0,173
109,889	146,852	-0,235	-0,221
110,903	205,944	-0,228	-0,248
111,918	-48,198	-0,353	-0,118
112,933	-41,173	-0,218	-0,078
113,947	-108,065	-0,193	-0,029
114,962	-181,362	-0,210	-0,003
115,976	37,312	-0,361	-0,223
116,991	27,446	-0,263	-0,154
118,006	28,399	-0,323	-0,190
119,020	252,787	-0,225	-0,269
120,035	236,159	-0,160	-0,185
121,049	-57,867	-0,192	-0,058
122,064	-93,473	-0,362	-0,069
123,079	-197,357	-0,230	-0,001
124,093	592,146	-0,132	-0,229
125,108	-39,328	-0,333	-0,121
126,122	-115,658	-0,215	-0,028
127,137	118,370	-0,131	-0,113
128,151	19,984	-0,222	-0,125
129,166	-1,970	-0,185	-0,090
130,181	-123,315	-0,402	-0,044
131,195	-54,708	-0,437	-0,137
132,210	121,803	-0,262	-0,228
133,224	222,538	-0,220	-0,248
134,239	3,505	-0,113	-0,057
135,254	-16,134	-0,265	-0,117
136,268	237,139	-0,193	-0,224
137,283	36,916	-0,273	-0,168
138,297	144,692	-0,242	-0,226
139,312	32,554	-0,286	-0,172
140,327	93,473	-0,272	-0,215
141,341	107,821	-0,180	-0,149
142,356	233,045	-0,158	-0,182
143,370	-196,552	-0,263	-0,001
144,385	684,349	-0,127	-0,232
145,400	-42,265	-0,220	-0,078
146,414	117,305	-0,256	-0,219
147,429	48,463	-0,305	-0,199
148,443	224,068	-0,199	-0,225
149,458	-54,215	-0,392	-0,123
150,473	-9,916	-0,242	-0,112
151,487	98,009	-0,209	-0,167
152,502	59,939	-0,329	-0,226
153,516	-40,278	-0,234	-0,084
154,531	-32,926	-0,346	-0,133
155,546	100,316	-0,285	-0,230
156,560	-87,366	-0,414	-0,087
157,575	-74,299	-0,310	-0,077
158,589	70,812	-0,282	-0,203
159,604	109,301	-0,172	-0,143
160,619	159,231	-0,288	-0,279
161,633	129,136	-0,189	-0,168
162,648	134,522	-0,210	-0,190
163,662	-43,539	-0,245	-0,085
164,677	203,654	-0,195	-0,211
165,692	-68,320	-0,144	-0,039
166,706	-37,248	-0,183	-0,068
167,721	61,331	-0,291	-0,201
168,735	55,667	-0,323	-0,217
169,750	96,887	-0,191	-0,152
170,764	211,849	-0,170	-0,186
171,779	-50,170	-0,197	-0,064
172,794	108,721	-0,224	-0,186
173,808	-119,649	-0,381	-0,045
174,823	133,157	-0,185	-0,166
175,837	800,000	-0,093	-0,222
176,852	305,363	-0,191	-0,247
177,867	88,461	-0,152	-0,117
178,881	173,804	-0,198	-0,199
179,896	147,605	-0,132	-0,124
180,910	98,631	-0,202	-0,162
181,925	50,614	-0,283	-0,186
182,940	153,924	-0,217	-0,207
183,954	-62,629	-0,197	-0,056
184,969	76,687	-0,250	-0,184
185,983	117,160	-0,160	-0,136
186,998	-101,460	-0,190	-0,032
188,013	-68,912	-0,171	-0,046
189,027	-82,573	-0,310	-0,069
190,042	86,072	-0,277	-0,212
191,056	90,558	-0,273	-0,212
192,071	-5,660	-0,150	0,071
193,086	65,920	-0,143	-0,101
194,100	44,053	-0,202	-0,128
195,115	402,832	-0,147	-0,215
196,129	194,185	-0,182	-0,191
197,144	191,737	-0,233	-0,244
198,159	419,603	-0,134	-0,200
199,173	60,299	-0,240	-0,165
200,188	194,831	-0,095	-0,100
201,202	-38,434	-0,231	-0,084
202,217	3,510	-0,221	-0,111
203,232	14,456	-0,179	-0,097
204,246	34,206	-0,275	-0,166
205,261	52,328	-0,305	-0,201
206,275	-71,748	-0,114	-0,029
207,290	-35,639	-0,253	-0,095
208,304	-78,905	-0,096	-0,023
209,319	13,522	-0,250	-0,134
210,334	-200,000	-0,064	-0,244
211,348	598,700	-0,155	-0,267
212,363	493,133	-0,130	-0,207
213,377	89,386	-0,220	-0,170
214,392	-129,204	-0,177	-0,017
215,407	-120,774	-0,111	0,013
216,421	-44,378	-0,211	-0,073
217,436	32,223	-0,235	-0,140
218,450	523,758	-0,169	-0,276
219,465	-85,805	-0,152	-0,032
220,480	44,016	-0,258	-0,163
221,494	235,562	-0,206	-0,236
222,509	-38,691	-0,302	-0,110
223,523	-162,016	-0,132	0,005
224,538	617,041	-0,107	-0,186
225,553	89,837	-0,307	-0,237
226,567	-88,474	-0,249	-0,051
227,582	5,863	-0,107	-0,055
228,596	-125,590	-0,220	-0,023
229,611	-38,102	-0,283	-0,103
230,626	115,980	-0,224	-0,190
231,640	122,445	-0,219	-0,190
232,655	312,276	-0,191	-0,249
233,669	391,555	-0,142	-0,204
234,684	184,482	-0,176	-0,181
235,699	363,471	-0,101	-0,141
236,713	-200,000	-0,260	-0,001
237,728	-155,984	-0,166	-0,007
238,742	544,833	-0,093	-0,154
239,757	-29,590	-0,254	-0,100
240,772	164,373	-0,230	-0,224
241,786	155,549	-0,206	-0,196
242,801	125,761	-0,172	-0,150
243,815	-77,218	-0,211	-0,050
244,830	26,498	-0,190	-0,110
245,844	-129,773	-0,286	-0,027
246,859	95,621	-0,162	-0,128
247,874	211,067	-0,206	-0,224
248,888	-120,056	-0,201	0,024
249,903	84,208	-0,235	-0,178
250,917	49,833	-0,248	-0,161
251,932	-21,306	-0,167	-0,070
252,947	198,509	-0,140	-0,148
253,961	722,941	-0,114	-0,211
254,976	68,139	-0,154	-0,109
255,990	278,575	-0,199	-0,246
257,005	-81,988	-0,162	-0,036
258,020	-117,925	-0,285	-0,035
259,034	-32,874	-0,192	-0,073
260,049	126,048	-0,259	-0,226
261,063	-19,704	-0,149	-0,063
262,078	-47,660	-0,137	-0,046
263,093	215,182	-0,236	-0,259
264,107	-200,000	-0,051	-0,358
265,122	-64,519	-0,123	-0,034
266,136	-56,532	-0,132	-0,040
267,151	399,043	0,026	-0,038
268,166	87,102	-0,163	-0,124
269,180	29,632	-0,294	-0,172
270,195	256,003	-0,156	-0,185
271,209	-19,713	-0,134	-0,057
272,224	-200,000	-0,004	-0,081
273,239	368,129	-0,150	-0,210
274,253	800,000	-0,049	-0,139
275,268	-68,290	-0,132	-0,035
276,282	-118,822	-0,280	-0,034
277,297	627,487	-0,086	-0,151
278,312	-158,856	-0,188	-0,007
279,326	94,927	-0,156	-0,123
280,341	459,790	-0,028	-0,044
281,355	-166,345	-0,076	0,002
282,370	-200,000	-0,029	-0,100
283,384	-1,273	-0,157	-0,076
284,399	25,914	-0,236	-0,135
285,414	-16,623	-0,221	-0,096
286,428	131,587	-0,148	-0,131
287,443	107,400	-0,129	-0,106
288,457	180,277	-0,054	0,055
289,472	-29,547	-0,131	-0,051
290,487	-4,659	-0,168	-0,080
291,501	201,557	-0,087	-0,092
292,516	-149,117	-0,161	0,009
293,530	17,944	-0,084	0,046
294,545	-0,173	-0,136	0,067
295,560	31,644	-0,212	-0,125
296,574	-57,445	-0,261	-0,078
297,589	-200,000	0,024	-0,142
298,603	800,000	-0,088	-0,192
299,618	-29,256	-0,207	-0,081
300,633	654,948	-0,054	-0,096
301,647	-88,263	-0,209	0,043
302,662	800,000	-0,065	-0,165
303,676	-200,000	0,013	0,047
304,691	59,746	-0,127	-0,086
305,706	-66,098	-0,174	0,047
306,720	611,929	-0,099	-0,171
307,735	114,017	-0,064	-0,053
308,749	-70,950	-0,145	0,037
309,764	-184,095	-0,028	0,000
310,779	-103,259	-0,289	0,046
311,793	654,021	-0,080	-0,141
312,808	88,849	-0,236	-0,180
313,822	551,922	-0,129	-0,214
314,837	800,000	-0,066	-0,138
315,852	800,000	-0,102	-0,200
316,866	-31,884	-0,022	0,008
317,881	193,595	-0,085	-0,088
318,895	144,664	-0,238	-0,219
319,910	369,583	-0,149	-0,207
320,925	-27,260	-0,102	-0,041
321,939	-82,448	-0,061	0,013
322,954	85,678	-0,128	-0,096
323,968	99,123	-0,074	-0,059
324,983	58,538	-0,124	-0,083
325,997	800,000	-0,090	-0,206
327,012	800,000	-0,092	-0,207
328,027	800,000	-0,090	-0,234
329,041	800,000	-0,114	-0,253
330,056	800,000	-0,025	-0,056
331,070	42,982	-0,077	-0,048
332,085	24,743	-0,011	0,006
333,100	-28,953	-0,303	-0,119
334,114	84,412	-0,154	-0,116
335,129	-146,280	-0,195	-0,012
336,143	403,376	-0,119	-0,172
337,158	259,516	-0,062	-0,073
338,173	-19,495	-0,214	-0,090
339,187	-94,859	-0,104	0,019
340,202	-41,665	-0,023	-0,008
341,216	285,307	-0,048	-0,060
342,231	-87,687	-0,206	-0,042
343,246	675,341	-0,078	-0,139
344,260	-200,000	0,015	-0,047
345,275	761,751	-0,077	-0,143
346,289	664,683	-0,100	-0,178
347,304	-200,000	-0,050	-0,243
348,319	-21,835	-0,189	-0,078
349,333	800,000	-0,081	-0,187
350,348	236,784	-0,107	-0,122
351,362	-85,020	-0,303	-0,064
352,377	190,132	-0,101	-0,104
353,392	727,258	0,040	-0,073
354,406	517,104	-0,049	-0,079
355,421	209,198	1311,906	1408,009
356,435	161,005	1472,267	1408,505
