DTS Sentinel unit serial number:	SN410029Multiplexer serial number:	ORYXHardware model number:	OX2-SRSoftware version number:	ORYX F/W v4,00 Oryx Data Collector v3.7.2.0data status	okinstallation	B3 Nyhavnadifferential loss correction	single-endedforward channel	channel 1reverse channel	N/Adate	2023/12/04time	13:47:30forward acquisition time	300,00reverse acquisition time	0,00gamma	499,1914k internal	0,3201k external	0,3201temperature offset calibration	1,0000default loss term (dB/km)	0,3820temperature slope calibration	1,0000multiplexer offset coefficient	1,0000multiplexer slope coefficient	1,0000fibre end	0,00T internal ref (°C)	14,93T ext. ref 1 (°C)	0,27T ext. ref 2 (°C)	0,26length (m)	temperature (°C)	Stokes	anti-Stokes-744,400	34,718	-0,196	-0,125
-743,385	-200,000	0,071	0,366
-742,371	126,876	-0,168	-0,155
-741,356	-200,000	0,080	0,522
-740,342	133,181	-0,182	-0,171
-739,327	-200,000	0,031	0,326
-738,312	680,848	-0,154	-0,293
-737,298	800,000	-0,095	0,210
-736,283	-12,693	-0,204	-0,096
-735,269	432,342	0,138	0,218
-734,254	124,516	-0,231	-0,211
-733,239	72,025	-0,076	0,057
-732,225	316,002	-0,124	-0,170
-731,210	-200,000	0,023	-0,164
-730,196	96,850	-0,107	-0,089
-729,181	800,000	0,008	-0,022
-728,167	606,127	0,038	0,068
-727,152	-55,450	-0,045	0,015
-726,137	35,496	-0,074	-0,047
-725,123	90,644	-0,052	-0,042
-724,108	-200,000	-0,034	-0,241
-723,094	-200,000	-0,040	-0,157
-722,079	596,298	-0,027	-0,049
-721,064	-88,977	0,071	0,015
-720,050	12,363	-0,015	0,008
-719,035	-57,557	0,185	-0,059
-718,021	633,025	-0,044	-0,081
-717,006	38,188	-0,172	-0,111
-715,991	-94,212	-0,065	-0,013
-714,977	-200,000	-0,001	-0,147
-713,962	-200,000	0,002	-0,070
-712,948	472,878	0,068	-0,112
-711,933	800,000	-0,108	-0,243
-710,918	-39,846	-0,130	-0,049
-709,904	22,123	-0,137	-0,081
-708,889	26,234	0,051	-0,031
-707,875	-200,000	0,025	-0,127
-706,860	-52,958	-0,071	-0,024
-705,845	-136,594	-0,130	-0,011
-704,831	-200,000	-0,002	0,107
-703,816	108,692	-0,115	0,100
-702,802	432,347	0,048	-0,075
-701,787	178,337	-0,067	-0,071
-700,772	-200,000	-0,004	0,015
-699,758	-127,373	-0,054	-0,006
-698,743	-42,538	-0,087	-0,032
-697,729	-142,036	0,087	-0,006
-696,714	89,097	0,028	-0,023
-695,699	111,346	-0,083	-0,073
-694,685	2,651	-0,121	-0,063
-693,670	46,997	-0,109	-0,073
-692,656	339,729	-0,023	0,033
-691,641	229,238	0,063	0,074
-690,627	60,642	0,024	-0,017
-689,612	-43,376	0,049	0,018
-688,597	-92,060	-0,066	-0,013
-687,583	27,050	-0,085	-0,052
-686,568	-200,000	-0,003	-0,228
-685,554	-127,696	-0,161	0,017
-684,539	-200,000	0,002	-0,019
-683,524	101,708	-0,154	0,130
-682,510	-200,000	0,006	0,095
-681,495	-200,000	0,003	-0,110
-680,481	-200,000	0,028	-0,159
-679,466	-150,444	-0,175	-0,010
-678,451	-200,000	0,018	-0,067
-677,437	-56,248	0,048	0,015
-676,422	-139,860	0,103	0,008
-675,408	27,314	-0,084	-0,051
-674,393	169,787	-0,055	0,057
-673,378	255,428	-0,068	0,085
-672,364	-84,949	-0,085	0,019
-671,349	81,037	0,078	-0,061
-670,335	-101,493	-0,179	0,031
-669,320	-53,764	0,100	0,033
-668,305	-89,388	-0,153	0,032
-667,291	16,389	0,122	-0,070
-666,276	-200,000	-0,035	-0,114
-665,262	328,111	-0,028	-0,039
-664,247	90,286	0,010	0,008
-663,232	-8,052	-0,069	-0,034
-662,218	42,361	0,133	-0,087
-661,203	-73,071	0,047	0,012
-660,189	-76,615	-0,158	0,040
-659,174	-62,791	-0,142	-0,042
-658,159	78,252	-0,084	-0,065
-657,145	-39,472	-0,090	0,034
-656,130	800,000	0,014	0,039
-655,116	-12,199	-0,192	0,091
-654,101	93,547	0,037	-0,030
-653,086	800,000	0,041	0,100
-652,072	-200,000	0,016	0,063
-651,057	-200,000	0,015	-0,084
-650,043	97,533	-0,065	-0,054
-649,028	-23,768	-0,091	-0,039
-648,014	404,547	0,007	0,010
-646,999	-171,552	0,039	0,001
-645,984	-200,000	-0,021	0,107
-644,970	800,000	-0,032	0,066
-643,955	-77,001	0,083	0,021
-642,941	800,000	-0,027	-0,065
-641,926	115,441	-0,075	-0,067
-640,911	-31,185	0,093	0,038
-639,897	-22,428	0,157	0,069
-638,882	800,000	0,035	0,081
-637,868	-62,296	-0,045	0,013
-636,853	-184,992	-0,120	0,001
-635,838	389,047	-0,115	-0,173
-634,824	116,636	-0,082	0,073
-633,809	-200,000	-0,033	-0,000
-632,795	147,889	-0,062	-0,061
-631,780	-8,878	0,105	0,051
-630,765	-46,832	-0,109	0,038
-629,751	-86,830	-0,035	0,008
-628,736	70,583	-0,030	-0,023
-627,722	-200,000	0,034	0,115
-626,707	-125,871	-0,096	0,010
-625,692	164,520	0,055	0,056
-624,678	3,966	0,141	-0,074
-623,663	-200,000	0,011	0,080
-622,649	31,778	0,037	0,023
-621,634	-95,337	-0,080	-0,015
-620,619	800,000	0,070	0,164
-619,605	-32,739	0,176	-0,070
-618,590	36,831	-0,023	-0,015
-617,576	456,492	0,097	0,157
-616,561	-200,000	0,016	0,055
-615,546	-41,030	0,084	-0,031
-614,532	-81,868	-0,161	-0,038
-613,517	333,432	0,037	-0,053
-612,503	-42,586	-0,081	0,030
-611,488	-200,000	-0,021	0,142
-610,474	-175,063	0,124	-0,002
-609,459	520,660	0,056	-0,096
-608,444	-200,000	-0,028	-0,133
-607,430	35,312	-0,127	0,080
-606,415	53,248	0,062	-0,043
-605,401	-143,821	-0,023	0,002
-604,386	-200,000	0,037	-0,163
-603,371	-200,000	0,004	0,117
-602,357	-121,282	-0,067	-0,008
-601,342	-200,000	-0,006	-0,079
-600,328	-200,000	-0,025	-0,108
-599,313	103,919	0,114	0,097
-598,298	-130,304	-0,006	-0,001
-597,284	229,742	0,052	0,061
-596,269	-200,000	-0,023	0,098
-595,255	233,087	-0,039	0,047
-594,240	-130,158	-0,138	0,013
-593,225	-200,000	0,007	-0,048
-592,211	44,544	0,134	-0,089
-591,196	-200,000	0,009	-0,064
-590,182	-141,200	0,157	-0,011
-589,167	-105,027	-0,062	0,010
-588,152	202,512	-0,060	-0,068
-587,138	800,000	-0,045	-0,139
-586,123	-200,000	0,020	-0,120
-585,109	68,842	-0,098	-0,072
-584,094	-200,000	0,034	-0,132
-583,079	-45,696	0,084	-0,030
-582,065	-17,044	0,082	-0,037
-581,050	239,609	-0,008	-0,010
-580,036	-80,337	-0,123	0,029
-579,021	167,367	-0,063	-0,065
-578,006	94,970	0,047	-0,039
-576,992	800,000	0,055	-0,149
-575,977	800,000	0,013	0,036
-574,963	-4,600	-0,112	0,056
-573,948	-200,000	0,000	0,243
-572,934	800,000	-0,019	0,054
-571,919	121,839	-0,101	0,091
-570,904	138,994	-0,080	-0,076
-569,890	-200,000	0,013	-0,065
-568,875	800,000	-0,037	0,116
-567,861	-77,280	0,034	-0,008
-566,846	-200,000	-0,028	0,110
-565,831	-63,961	0,048	0,014
-564,817	206,600	-0,001	-0,001
-563,802	115,755	0,020	-0,018
-562,788	96,004	0,098	-0,081
-561,773	566,609	-0,045	0,078
-560,758	343,836	0,052	0,075
-559,744	-200,000	-0,044	0,170
-558,729	800,000	0,033	-0,072
-557,715	15,735	-0,027	-0,015
-556,700	-200,000	0,020	-0,101
-555,685	800,000	-0,016	-0,044
-554,671	34,298	0,154	0,097
-553,656	175,443	-0,006	-0,007
-552,642	-200,000	-0,008	-0,041
-551,627	89,792	0,067	0,054
-550,612	438,205	-0,048	0,075
-549,598	-42,669	-0,019	-0,007
-548,583	-143,096	0,077	0,005
-547,569	64,697	-0,099	-0,072
-546,554	800,000	-0,080	-0,227
-545,539	-200,000	0,001	0,010
-544,525	-200,000	-0,039	0,137
-543,510	-200,000	-0,018	-0,076
-542,496	82,348	-0,117	0,092
-541,481	-134,302	-0,178	0,016
-540,466	-200,000	0,053	0,196
-539,452	305,816	0,067	-0,091
-538,437	56,576	-0,023	0,016
-537,423	234,801	0,140	0,167
-536,408	165,442	-0,058	0,060
-535,393	-200,000	0,002	0,007
-534,379	-8,979	-0,075	0,036
-533,364	48,080	-0,055	-0,037
-532,350	-200,000	-0,006	-0,071
-531,335	304,677	-0,047	0,064
-530,321	-162,759	-0,116	0,004
-529,306	4,936	0,029	0,015
-528,291	-127,769	-0,054	0,006
-527,277	800,000	0,080	-0,182
-526,262	800,000	0,032	-0,092
-525,248	800,000	-0,033	0,094
-524,233	-200,000	-0,003	-0,143
-523,218	69,715	0,057	-0,043
-522,204	202,799	-0,077	0,086
-521,189	0,792	-0,057	-0,029
-520,175	-89,846	0,028	-0,006
-519,160	-131,842	0,039	-0,004
-518,145	321,700	0,085	-0,116
-517,131	-14,172	-0,048	0,022
-516,116	800,000	0,008	0,019
-515,102	-12,095	0,120	-0,056
-514,087	-200,000	0,002	-0,063
-513,072	214,317	-0,061	0,070
-512,058	123,024	-0,098	-0,088
-511,043	190,612	-0,024	0,026
-510,029	323,316	0,081	0,111
-509,014	-200,000	0,018	0,063
-507,999	367,237	-0,066	0,096
-506,985	-200,000	-0,012	-0,062
-505,970	-200,000	-0,016	0,137
-504,956	92,305	-0,153	-0,124
-503,941	-200,000	-0,026	-0,086
-502,926	620,128	0,005	0,009
-501,912	70,812	0,101	0,075
-500,897	235,632	0,061	0,072
-499,883	-11,052	0,116	0,055
-498,868	-78,654	-0,095	0,023
-497,853	-56,383	-0,085	-0,027
-496,839	-200,000	0,002	0,048
-495,824	-55,737	-0,112	-0,036
-494,810	800,000	0,036	0,103
-493,795	-200,000	-0,025	0,128
-492,781	-125,483	0,081	0,009
-491,766	662,038	0,047	-0,088
-490,751	381,214	0,071	0,106
-489,737	-26,265	0,022	0,009
-488,722	800,000	0,025	0,067
-487,708	-200,000	0,031	-0,152
-486,693	287,086	0,079	0,102
-485,678	216,158	0,042	0,048
-484,664	-68,972	0,056	-0,015
-483,649	-92,767	-0,047	0,009
-482,635	19,162	0,039	0,022
-481,620	201,178	-0,078	0,087
-480,605	252,880	-0,116	-0,142
-479,591	-37,544	-0,052	-0,020
-478,576	-61,426	0,092	-0,028
-477,562	-57,342	-0,059	-0,019
-476,547	475,526	0,016	0,026
-475,532	-64,787	-0,112	0,033
-474,518	800,000	-0,019	0,043
-473,503	-153,086	0,089	0,004
-472,489	-129,327	-0,033	-0,003
-471,474	-67,039	-0,063	-0,018
-470,459	-76,911	0,043	0,011
-469,445	-33,700	-0,075	-0,029
-468,430	552,382	0,011	-0,019
-467,416	64,359	0,045	0,033
-466,401	8,965	-0,016	0,008
-465,386	800,000	-0,032	0,077
-464,372	417,000	-0,064	-0,099
-463,357	-32,480	0,070	0,028
-462,343	-200,000	-0,007	-0,095
-461,328	764,681	0,056	-0,111
-460,313	-200,000	0,007	0,081
-459,299	186,697	0,021	0,022
-458,284	84,480	-0,078	0,061
-457,270	800,000	0,031	0,098
-456,255	279,879	-0,061	0,079
-455,241	577,960	0,093	-0,165
-454,226	62,955	0,042	0,030
-453,211	214,163	0,052	0,060
-452,197	-103,680	0,033	-0,005
-451,182	224,911	-0,028	0,033
-450,168	-47,005	-0,037	0,013
-449,153	272,522	-0,078	0,099
-448,138	-38,974	-0,156	-0,059
-447,124	-27,341	-0,032	-0,013
-446,109	800,000	0,067	0,170
-445,095	-73,902	0,070	-0,018
-444,080	181,231	0,049	0,052
-443,065	-25,152	-0,089	0,038
-442,051	-200,000	0,003	0,120
-441,036	-36,244	-0,104	-0,040
-440,022	-5,370	-0,071	-0,035
-439,007	9,146	0,060	0,033
-437,992	357,168	-0,037	0,053
-436,978	9,417	0,098	0,053
-435,963	110,791	0,070	0,061
-434,949	-56,584	-0,173	0,055
-433,934	-20,656	0,163	-0,072
-432,919	-200,000	-0,001	-0,075
-431,905	63,853	-0,107	-0,077
-430,890	-74,321	-0,061	0,016
-429,876	800,000	-0,003	-0,006
-428,861	-170,337	0,148	-0,004
-427,846	-200,000	-0,019	-0,091
-426,832	-15,923	0,125	-0,057
-425,817	800,000	-0,031	-0,084
-424,803	62,955	-0,134	-0,096
-423,788	-186,495	-0,115	-0,001
-422,773	-15,974	-0,037	-0,017
-421,759	150,568	0,140	0,137
-420,744	-23,758	-0,165	0,071
-419,730	-156,094	0,033	-0,001
-418,715	164,207	0,025	-0,025
-417,701	24,459	0,053	0,032
-416,686	-200,000	0,004	0,029
-415,671	3,905	0,063	-0,033
-414,657	800,000	-0,016	0,048
-413,642	-200,000	-0,012	0,142
-412,628	-200,000	0,000	-0,022
-411,613	-84,650	-0,101	0,023
-410,598	800,000	-0,016	0,033
-409,584	772,186	0,016	0,031
-408,569	93,620	0,064	-0,052
-407,555	37,903	0,140	0,089
-406,540	-98,203	0,047	-0,009
-405,525	670,074	-0,035	-0,065
-404,511	528,982	0,047	-0,080
-403,496	-200,000	-0,010	0,037
-402,482	86,912	-0,039	0,031
-401,467	6,629	-0,043	-0,023
-400,452	271,204	-0,090	0,114
-399,438	475,646	0,067	-0,109
-398,423	180,379	-0,114	-0,120
-397,409	-75,618	-0,051	0,013
-396,394	37,986	-0,089	-0,057
-395,379	82,563	0,034	0,027
-394,365	34,829	0,012	-0,007
-393,350	90,080	0,078	0,063
-392,336	800,000	-0,030	0,074
-391,321	-62,707	0,030	-0,009
-390,306	-200,000	0,006	0,077
-389,292	800,000	0,016	-0,033
-388,277	800,000	-0,049	0,129
-387,263	384,223	-0,038	0,056
-386,248	218,804	0,166	0,191
-385,233	103,142	0,053	-0,045
-384,219	548,927	-0,022	-0,037
-383,204	-93,033	-0,135	-0,027
-382,190	-78,024	0,097	-0,024
-381,175	137,987	-0,087	-0,082
-380,160	-200,000	0,011	-0,090
-379,146	68,899	0,015	0,011
-378,131	385,190	-0,013	-0,019
-377,117	-200,000	0,001	0,133
-376,102	21,824	-0,161	0,094
-375,088	246,436	-0,020	-0,024
-374,073	211,060	0,013	0,015
-373,058	74,208	0,050	-0,038
-372,044	-28,914	0,109	0,045
-371,029	175,000	-0,008	-0,008
-370,015	-100,466	-0,050	0,009
-369,000	-125,431	-0,089	-0,010
-367,985	-200,000	-0,025	-0,129
-366,971	-200,000	-0,009	-0,102
-365,956	800,000	0,011	0,033
-364,942	800,000	0,055	0,112
-363,927	-63,968	0,069	-0,020
-362,912	800,000	-0,009	-0,021
-361,898	800,000	0,032	0,077
-360,883	-24,064	-0,108	-0,046
-359,869	400,486	-0,077	-0,116
-358,854	458,842	-0,019	0,030
-357,839	572,377	0,052	-0,091
-356,825	174,044	0,073	-0,076
-355,810	368,388	-0,055	-0,079
-354,796	-200,000	0,005	-0,026
-353,781	-124,689	-0,027	0,003
-352,766	-72,993	0,092	-0,024
-351,752	800,000	0,038	0,116
-350,737	10,606	-0,143	-0,078
-349,723	338,816	-0,103	0,144
-348,708	-200,000	0,001	-0,026
-347,693	-140,817	-0,156	-0,011
-346,679	-200,000	-0,010	-0,118
-345,664	114,514	0,116	0,101
-344,650	40,447	0,133	0,085
-343,635	-47,908	-0,044	-0,015
-342,620	-73,134	0,139	0,036
-341,606	1,982	0,050	0,026
-340,591	800,000	0,012	-0,030
-339,577	-200,000	0,016	-0,072
-338,562	215,039	-0,039	-0,045
-337,548	800,000	-0,044	-0,110
-336,533	-118,724	0,107	-0,013
-335,518	-110,177	0,096	-0,014
-334,504	479,823	0,063	0,103
-333,489	215,422	-0,041	0,047
-332,475	-94,503	-0,099	-0,019
-331,460	331,571	-0,140	-0,193
-330,445	-200,000	0,014	0,102
-329,431	-200,000	0,011	0,091
-328,416	-57,692	0,095	0,030
-327,402	215,205	-0,036	0,041
-326,387	-69,054	-0,057	0,015
-325,372	800,000	0,018	0,047
-324,358	29,431	0,077	-0,047
-323,343	-200,000	-0,013	-0,062
-322,329	299,657	0,051	-0,068
-321,314	-175,402	0,017	0,000
-320,299	-81,603	0,178	-0,041
-319,285	800,000	0,019	0,039
-318,270	-200,000	0,004	-0,154
-317,256	-97,128	0,052	-0,010
-316,241	69,617	-0,073	0,054
-315,226	-25,444	0,052	0,022
-314,212	-60,046	0,033	-0,010
-313,197	-200,000	-0,031	0,113
-312,183	-200,000	0,004	0,080
-311,168	515,153	0,078	-0,130
-310,153	122,114	-0,154	-0,137
-309,139	337,893	0,032	-0,045
-308,124	350,558	-0,036	-0,052
-307,110	-34,189	-0,063	0,025
-306,095	-200,000	-0,030	0,149
-305,080	84,213	0,032	0,025
-304,066	-200,000	-0,024	0,079
-303,051	800,000	0,060	-0,138
-302,037	800,000	0,057	-0,164
-301,022	800,000	0,038	0,102
-300,008	-118,995	-0,007	0,001
-298,993	2,444	0,133	-0,068
-297,978	800,000	0,026	0,077
-296,964	800,000	-0,024	0,054
-295,949	-76,417	0,144	0,036
-294,935	800,000	-0,061	-0,143
-293,920	800,000	-0,030	-0,078
-292,905	456,731	-0,027	-0,043
-291,891	92,420	-0,109	-0,088
-290,876	-127,424	0,055	-0,006
-289,862	-50,833	0,051	0,017
-288,847	191,710	-0,026	-0,028
-287,832	549,615	0,049	-0,084
-286,818	-200,000	0,039	-0,179
-285,803	-200,000	0,033	0,141
-284,789	-91,168	-0,081	0,016
-283,774	-69,568	0,090	0,025
-282,759	-149,915	-0,036	0,002
-281,745	-88,328	-0,112	0,024
-280,730	-200,000	0,005	-0,055
-279,716	-200,000	0,007	0,022
-278,701	-200,000	0,006	0,071
-277,686	-200,000	-0,030	-0,120
-276,672	-75,163	0,018	0,004
-275,657	-200,000	0,013	0,114
-274,643	-200,000	0,001	-0,156
-273,628	-200,000	-0,000	-0,048
-272,613	378,228	0,112	-0,164
-271,599	-34,639	0,080	-0,031
-270,584	301,782	-0,048	-0,064
-269,570	-200,000	-0,008	-0,109
-268,555	-99,878	0,058	-0,010
-267,540	101,784	-0,050	-0,041
-266,526	146,315	-0,105	0,100
-265,511	799,196	0,066	0,130
-264,497	94,266	0,051	-0,041
-263,482	148,378	-0,061	-0,059
-262,467	5,604	0,044	0,023
-261,453	-122,937	-0,047	-0,005
-260,438	270,549	-0,025	0,032
-259,424	-173,103	0,057	0,001
-258,409	36,007	-0,085	-0,053
-257,395	-200,000	-0,032	0,123
-256,380	-108,779	0,144	0,022
-255,365	-32,522	0,017	0,007
-254,351	79,909	0,067	0,051
-253,336	281,132	-0,054	-0,070
-252,322	78,671	-0,045	0,034
-251,307	-200,000	0,006	-0,041
-250,292	800,000	-0,011	-0,027
-249,278	105,122	0,036	-0,030
-248,263	298,410	0,023	-0,030
-247,249	616,004	-0,069	0,124
-246,234	800,000	-0,031	-0,068
-245,219	-78,296	-0,117	-0,028
-244,205	-200,000	-0,037	-0,140
-243,190	-200,000	-0,006	0,109
-242,176	800,000	-0,038	0,117
-241,161	-34,990	0,170	0,066
-240,146	70,497	-0,108	0,080
-239,132	209,379	0,047	-0,052
-238,117	-119,379	-0,041	0,005
-237,103	-200,000	-0,030	-0,232
-236,088	102,352	0,056	-0,047
-235,073	-112,737	-0,034	0,005
-234,059	404,699	-0,053	-0,079
-233,044	-57,709	-0,148	-0,046
-232,030	415,576	0,006	0,010
-231,015	-36,336	-0,109	-0,042
-230,000	-83,262	0,030	0,007
-228,986	-200,000	0,032	-0,124
-227,971	68,414	0,117	0,086
-226,957	-24,380	0,123	0,052
-225,942	-147,169	0,181	0,011
-224,927	-200,000	-0,012	-0,168
-223,913	800,000	0,076	-0,181
-222,898	203,960	-0,036	-0,039
-221,884	188,618	-0,050	0,053
-220,869	551,479	-0,034	0,059
-219,855	-200,000	0,017	0,170
-218,840	-200,000	-0,012	0,072
-217,825	75,254	-0,145	-0,109
-216,811	397,170	-0,032	0,048
-215,796	557,190	0,043	-0,074
-214,782	800,000	-0,028	-0,085
-213,767	800,000	0,023	-0,059
-212,752	649,961	0,056	0,102
-211,738	-200,000	-0,026	0,103
-210,723	60,912	0,050	-0,035
-209,709	-200,000	0,000	-0,055
-208,694	800,000	0,007	-0,014
-207,679	800,000	0,026	0,058
-206,665	800,000	-0,032	-0,080
-205,650	311,797	0,045	-0,060
-204,636	-134,614	0,051	-0,004
-203,621	800,000	-0,019	-0,042
-202,606	800,000	0,025	0,056
-201,592	-200,000	-0,015	-0,152
-200,577	175,877	0,058	-0,060
-199,563	267,581	0,048	0,060
-198,548	558,397	-0,074	-0,127
-197,533	129,531	0,042	-0,038
-196,519	13,928	-0,028	-0,016
-195,504	-19,592	0,013	-0,006
-194,490	11,243	-0,069	-0,038
-193,475	-126,853	-0,097	-0,010
-192,460	-200,000	0,000	0,024
-191,446	-200,000	-0,032	0,168
-190,431	440,825	0,094	0,146
-189,417	136,426	0,094	-0,088
-188,402	241,278	-0,044	0,052
-187,387	-53,266	-0,109	0,036
-186,373	800,000	0,016	0,033
-185,358	-200,000	0,006	-0,102
-184,344	-200,000	-0,036	-0,116
-183,329	-200,000	0,006	0,018
-182,315	731,172	0,036	0,070
-181,300	-35,535	0,037	-0,014
-180,285	-138,549	-0,041	0,003
-179,271	181,105	0,081	0,085
-178,256	409,110	0,066	-0,100
-177,242	513,104	0,027	-0,045
-176,227	-200,000	0,005	-0,122
-175,212	273,788	-0,034	0,043
-174,198	-30,941	0,069	0,028
-173,183	311,431	-0,060	-0,080
-172,169	214,094	0,015	0,016
-171,154	-200,000	-0,026	0,104
-170,139	-200,000	0,035	0,147
-169,125	205,862	0,053	-0,059
-168,110	-200,000	-0,030	0,000
-167,096	32,167	0,124	-0,076
-166,081	800,000	0,031	0,080
-165,066	-200,000	-0,005	-0,201
-164,052	800,000	0,021	-0,057
-163,037	102,841	-0,016	-0,013
-162,023	-40,195	-0,041	0,015
-161,008	165,692	0,152	0,153
-159,993	-8,735	-0,054	0,026
-158,979	-200,000	0,006	0,083
-157,964	365,755	-0,091	0,131
-156,950	800,000	-0,040	0,117
-155,935	-78,416	-0,037	0,009
-154,920	-200,000	-0,003	0,032
-153,906	-50,429	0,123	0,041
-152,891	-200,000	0,004	0,123
-151,877	257,057	-0,063	-0,077
-150,862	800,000	0,079	-0,164
-149,847	243,151	-0,075	-0,089
-148,833	461,273	-0,112	0,178
-147,818	34,850	0,088	-0,055
-146,804	306,087	-0,042	0,056
-145,789	120,951	-0,102	-0,090
-144,775	-86,118	-0,071	-0,016
-143,760	4,390	-0,069	-0,036
-142,745	105,714	-0,065	-0,055
-141,731	296,737	0,037	-0,049
-140,716	333,792	0,067	-0,093
-139,702	800,000	0,005	-0,010
-138,687	-109,803	0,108	-0,016
-137,672	421,197	0,054	0,083
-136,658	-200,000	-0,001	-0,102
-135,643	-174,345	-0,057	-0,001
-134,629	-200,000	-0,022	0,081
-133,614	432,815	0,035	0,055
-132,599	-67,465	0,068	0,019
-131,585	16,147	-0,088	-0,049
-130,570	800,000	-0,014	-0,029
-129,556	154,580	0,089	0,086
-128,541	460,652	-0,082	-0,131
-127,526	-200,000	-0,035	-0,131
-126,512	126,808	-0,042	0,038
-125,497	-109,521	-0,073	0,011
-124,483	-200,000	-0,006	0,064
-123,468	412,637	0,064	0,097
-122,453	800,000	-0,052	-0,112
-121,439	-123,708	0,083	0,009
-120,424	-200,000	-0,035	0,124
-119,410	-20,456	-0,139	-0,061
-118,395	-94,590	0,062	0,012
-117,380	-88,610	0,070	0,015
-116,366	-43,512	-0,082	0,029
-115,351	800,000	0,031	-0,075
-114,337	-91,809	-0,020	-0,004
-113,322	-113,845	0,111	-0,015
-112,307	-200,000	-0,034	-0,156
-111,293	-12,099	-0,102	0,047
-110,278	-200,000	0,010	-0,048
-109,264	293,984	0,063	-0,082
-108,249	-33,783	-0,165	0,064
-107,234	-12,248	0,063	-0,029
-106,220	7,464	0,045	0,024
-105,205	-52,842	-0,114	0,037
-104,191	-53,471	-0,040	0,013
-103,176	-5,958	0,103	0,050
-102,162	-96,308	-0,103	-0,019
-101,147	133,313	-0,058	-0,053
-100,132	-47,308	-0,137	0,047
-99,118	-200,000	0,034	-0,165
-98,103	-96,787	0,113	-0,021
-97,089	-200,000	0,031	-0,106
-96,074	-200,000	0,010	0,136
-95,059	800,000	-0,012	-0,028
-94,045	800,000	-0,030	-0,088
-93,030	-200,000	0,007	0,053
-92,016	800,000	-0,035	0,108
-91,001	345,307	0,021	-0,029
-89,986	-18,349	-0,058	0,025
-88,972	235,682	0,105	0,124
-87,957	93,328	0,054	0,043
-86,943	227,214	-0,126	-0,145
-85,928	-200,000	0,005	-0,143
-84,913	-65,225	-0,056	-0,016
-83,899	-154,281	0,064	-0,003
-82,884	10,365	-0,067	-0,036
-81,870	800,000	-0,033	0,069
-80,855	-11,562	0,041	-0,019
-79,840	-200,000	0,008	0,026
-78,826	800,000	0,030	-0,082
-77,811	115,065	-0,159	-0,137
-76,797	174,847	-0,047	0,048
-75,782	594,831	0,086	-0,151
-74,767	78,558	0,093	-0,070
-73,753	372,950	-0,031	0,045
-72,738	800,000	0,047	0,144
-71,724	-200,000	-0,017	0,057
-70,709	800,000	-0,061	-0,162
-69,694	-200,000	-0,191	0,000
-68,680	800,000	0,034	-0,084
-67,665	100,536	-0,120	0,098
-66,651	37,439	-0,089	0,056
-65,636	-24,287	-0,101	-0,042
-64,622	383,624	-0,103	0,150
-63,607	800,000	0,021	0,055
-62,592	800,000	-0,041	-0,081
-61,578	800,000	-0,018	-0,050
-60,563	100,429	-0,004	-0,003
-59,549	48,657	-0,117	0,078
-58,534	-40,944	-1,546	-0,563
-57,519	323,117	-1,546	-2,092
-56,505	-200,000	-0,582	-4,589
-55,490	191,498	0,927	0,989
-54,476	800,000	4,731	11,060
-53,461	-200,000	18,227	288,617
-52,446	800,000	727,343	2231,144
-51,432	555,351	1643,557	2812,069
-50,417	79,257	1665,732	1262,742
-49,403	22,840	1539,165	890,675
-48,388	16,783	1462,628	817,051
-47,373	17,802	1452,500	816,269
-46,359	17,223	1442,768	808,002
-45,344	15,079	1438,183	795,166
-44,330	14,992	1436,320	793,689
-43,315	14,947	1434,900	792,660
-42,300	14,951	1432,973	791,585
-41,286	15,035	1431,768	791,283
-40,271	15,001	1430,435	790,353
-39,257	15,011	1429,417	789,810
-38,242	15,041	1428,131	789,208
-37,227	15,077	1426,692	788,552
-36,213	15,091	1425,437	787,894
-35,198	15,005	1424,462	786,918
-34,184	15,067	1423,487	786,643
-33,169	14,977	1422,257	785,504
-32,154	15,021	1421,126	785,060
-31,140	15,016	1419,876	784,314
-30,125	15,097	1418,655	783,986
-29,111	15,079	1417,502	783,233
-28,096	15,037	1416,312	782,349
-27,082	14,980	1415,373	781,529
-26,067	14,933	1414,313	780,695
-25,052	14,967	1413,112	780,158
-24,038	14,951	1412,272	779,588
-23,023	14,956	1411,020	778,889
-22,009	14,925	1410,297	778,315
-20,994	14,852	1409,402	777,448
-19,979	14,922	1408,474	777,234
-18,965	14,885	1407,479	776,482
-17,950	14,868	1406,296	775,719
-16,936	14,923	1405,460	775,484
-15,921	14,872	1404,467	774,668
-14,906	14,869	1403,627	774,160
-13,892	14,899	1402,476	773,632
-12,877	14,881	1401,639	773,059
-11,863	14,858	1400,673	772,385
-10,848	14,839	1400,026	771,911
-9,833	14,788	1399,046	771,104
-8,819	14,787	1398,122	770,559
-7,804	14,773	1397,378	770,052
-6,790	14,769	1396,064	769,279
-5,775	14,785	1395,145	768,815
-4,760	14,792	1394,178	768,284
-3,746	14,746	1393,493	767,666
-2,731	14,737	1392,847	767,237
-1,717	14,742	1391,746	766,624
-0,702	14,757	1389,831	765,608
0,313	18,480	1308,923	738,290
1,327	34,675	706,808	436,200
2,342	52,881	124,848	84,345
3,356	5,485	16,602	8,644
4,371	1,538	3,129	1,588
5,386	-15,584	0,624	0,281
6,400	-200,000	0,041	0,305
7,415	50,156	-0,220	-0,146
8,429	25,742	-0,366	-0,215
9,444	6,177	-0,419	-0,219
10,459	48,225	-0,327	-0,216
11,473	150,389	-0,218	-0,210
12,488	82,916	-0,241	-0,185
13,502	34,949	-0,221	-0,136
14,517	50,009	-0,314	-0,209
15,531	-74,762	-0,439	-0,111
16,546	119,426	-0,309	-0,271
17,561	31,223	-0,444	-0,269
18,575	85,448	-0,196	-0,152
19,590	236,107	-0,254	-0,297
20,604	-45,793	-0,276	0,096
21,619	36,285	-0,506	-0,314
22,634	-18,826	-0,629	-0,276
23,648	283,842	-0,359	-0,457
24,663	215,847	-0,352	-0,396
25,677	234,561	-0,299	-0,348
26,692	181,291	-0,292	-0,304
27,707	158,859	-0,310	-0,304
28,721	-23,707	-0,451	-0,190
29,736	50,275	-0,266	-0,177
30,750	26,099	-0,501	-0,294
31,765	47,689	-0,348	-0,229
32,780	24,508	-0,411	-0,239
33,794	1,295	-0,411	-0,208
34,809	490,948	-0,232	-0,376
35,823	87,479	-0,381	-0,297
36,838	213,859	-0,335	-0,374
37,853	108,869	-0,486	-0,410
38,867	119,889	-0,351	-0,307
39,882	85,510	-0,317	-0,246
40,896	62,848	-0,358	-0,252
41,911	42,753	-0,425	-0,272
42,926	20,437	-0,525	-0,299
43,940	-56,808	-0,440	-0,136
44,955	123,379	-0,363	-0,321
45,969	55,004	-0,331	-0,225
46,984	131,272	-0,327	-0,296
47,999	95,946	-0,291	-0,234
49,013	111,301	-0,409	-0,347
50,028	122,196	-0,241	-0,212
51,042	157,225	-0,381	-0,372
52,057	48,234	-0,400	-0,263
53,071	123,824	-0,380	-0,336
54,086	116,870	-0,294	-0,254
55,101	261,467	-0,279	-0,341
56,115	87,867	-0,372	-0,290
57,130	-92,691	-0,385	-0,075
58,144	77,623	-0,472	-0,354
59,159	84,225	-0,417	-0,320
60,174	81,038	-0,242	-0,183
61,188	-6,020	-0,266	-0,128
62,203	-14,318	-0,308	-0,139
63,217	-45,632	-0,475	-0,165
64,232	94,048	-0,343	-0,273
65,247	103,446	-0,333	-0,275
66,261	99,199	-0,278	-0,226
67,276	-88,482	-0,399	-0,083
68,290	63,011	-0,340	-0,239
69,305	-8,273	-0,316	-0,149
70,320	29,318	-0,319	-0,190
71,334	141,259	-0,290	-0,270
72,349	90,530	-0,358	-0,282
73,363	180,673	-0,299	-0,309
74,378	123,050	-0,278	-0,244
75,393	97,981	-0,330	-0,267
76,407	225,237	-0,301	-0,344
77,422	-30,377	-0,312	-0,124
78,436	-72,618	-0,377	-0,097
79,451	8,406	-0,321	-0,169
80,466	75,590	-0,378	-0,280
81,480	-19,757	-0,333	-0,144
82,495	78,990	-0,295	-0,222
83,509	54,028	-0,335	-0,226
84,524	21,914	-0,197	-0,113
85,539	16,271	-0,233	-0,129
86,553	-4,117	-0,439	-0,213
87,568	146,089	-0,350	-0,330
88,582	-58,289	-0,233	-0,071
89,597	478,544	-0,201	-0,321
90,611	91,886	-0,155	-0,123
91,626	47,967	-0,276	-0,181
92,641	-25,661	-0,291	-0,120
93,655	225,286	-0,236	-0,269
94,670	114,718	-0,309	-0,265
95,684	20,931	-0,345	-0,196
96,699	94,631	-0,276	-0,220
97,714	141,438	-0,244	-0,227
98,728	108,193	-0,232	-0,194
99,743	1,143	-0,241	-0,121
100,757	41,571	-0,214	-0,136
101,772	-21,052	-0,335	-0,143
102,787	12,649	-0,349	-0,188
103,801	-49,471	-0,294	-0,098
104,816	318,088	-0,219	-0,292
105,830	252,781	-0,208	-0,249
106,845	-55,466	-0,280	-0,087
107,860	-2,211	-0,275	-0,135
108,874	-18,078	-0,232	-0,101
109,889	58,628	-0,368	-0,253
110,903	27,085	-0,246	-0,144
111,918	-94,490	-0,274	-0,052
112,933	106,057	-0,256	-0,212
113,947	21,707	-0,180	-0,103
114,962	86,132	-0,278	-0,215
115,976	-2,118	-0,323	-0,158
116,991	252,538	-0,144	-0,172
118,006	159,095	-0,257	-0,251
119,020	79,429	-0,222	-0,167
120,035	38,844	-0,346	-0,216
121,049	-14,655	-0,330	-0,148
122,064	65,501	-0,248	-0,176
123,079	553,618	-0,135	-0,229
124,093	336,751	-0,192	-0,261
125,108	-67,427	-0,493	-0,134
126,122	-10,833	-0,227	-0,105
127,137	118,170	-0,184	-0,159
128,151	60,363	-0,292	-0,202
129,166	580,893	-0,117	-0,202
130,181	76,726	-0,238	-0,176
131,195	111,121	-0,265	-0,223
132,210	-12,287	-0,333	-0,152
133,224	-6,461	-0,276	-0,131
134,239	9,021	-0,277	-0,146
135,254	-120,088	-0,317	-0,037
136,268	-47,991	-0,228	-0,077
137,283	6,068	-0,181	-0,094
138,297	159,340	-0,241	-0,235
139,312	59,994	-0,277	-0,191
140,327	94,254	-0,248	-0,197
141,341	110,451	-0,233	-0,196
142,356	78,871	-0,144	-0,108
143,370	27,105	-0,218	-0,127
144,385	-71,942	-0,272	-0,070
145,400	79,360	-0,288	-0,216
146,414	104,949	-0,206	-0,170
147,429	135,001	-0,189	-0,172
148,443	315,662	-0,219	-0,289
149,458	238,857	-0,180	-0,209
150,473	144,989	-0,203	-0,190
151,487	149,530	-0,197	-0,186
152,502	168,587	-0,282	-0,281
153,516	464,403	-0,215	-0,338
154,531	149,168	-0,235	-0,222
155,546	300,013	-0,222	-0,287
156,560	800,000	-0,144	-0,306
157,575	-27,507	-0,071	-0,029
158,589	-58,914	-0,246	-0,074
159,604	79,239	-0,255	-0,190
160,619	213,068	-0,170	-0,188
161,633	117,518	-0,278	-0,238
162,648	335,175	-0,160	-0,217
163,662	178,488	-0,173	-0,176
164,677	-131,235	-0,204	0,019
165,692	65,554	-0,302	-0,213
166,706	216,811	-0,187	-0,208
167,721	204,899	-0,258	-0,279
168,735	800,000	-0,110	-0,286
169,750	84,818	-0,340	-0,259
170,764	392,687	-0,144	-0,209
171,779	40,644	-0,153	-0,096
172,794	-59,690	-0,271	-0,080
173,808	49,337	-0,239	-0,156
174,823	170,015	-0,189	-0,188
175,837	-18,205	-0,137	-0,059
176,852	-147,302	-0,229	-0,013
177,867	-69,254	-0,208	-0,055
178,881	-189,353	-0,263	0,002
179,896	186,322	-0,198	-0,206
180,910	-108,065	-0,305	-0,046
181,925	208,493	-0,239	-0,261
182,940	384,338	-0,264	-0,380
183,954	44,281	-0,229	-0,146
184,969	72,056	-0,171	-0,124
185,983	37,694	-0,219	-0,135
186,998	86,359	-0,181	-0,139
188,013	-14,175	-0,241	-0,108
189,027	-13,295	-0,258	-0,116
190,042	67,692	-0,327	-0,232
191,056	255,994	-0,163	-0,195
192,071	672,170	-0,132	-0,239
193,086	420,245	-0,208	-0,312
194,100	160,835	-0,197	-0,192
195,115	-106,994	-0,210	-0,032
196,129	10,531	-0,223	-0,118
197,144	18,268	-0,219	-0,121
198,159	39,946	-0,230	-0,144
199,173	-141,508	-0,276	-0,019
200,188	51,959	-0,186	-0,123
201,202	-80,978	-0,061	0,014
202,217	-90,263	-0,187	0,037
203,232	275,005	-0,193	-0,238
204,246	246,064	-0,234	-0,274
205,261	-40,877	-0,263	-0,094
206,275	18,437	-0,292	-0,162
207,290	416,888	-0,129	-0,192
208,304	91,865	-0,255	-0,199
209,319	-28,932	-0,265	-0,105
210,334	78,262	-0,260	-0,193
211,348	239,448	-0,217	-0,251
212,363	171,432	-0,154	-0,153
213,377	-106,161	-0,242	-0,037
214,392	46,568	-0,101	-0,065
215,407	224,334	-0,117	-0,132
216,421	-76,805	-0,180	-0,043
217,436	800,000	-0,133	-0,314
218,450	800,000	-0,102	-0,263
219,465	74,898	-0,284	-0,207
220,480	24,405	-0,145	-0,083
221,494	-21,645	-0,265	-0,112
222,509	65,986	-0,225	-0,158
223,523	185,811	-0,235	-0,243
224,538	247,684	-0,146	-0,172
225,553	202,683	-0,166	-0,179
226,567	228,358	-0,196	-0,222
227,582	-39,748	-0,274	-0,099
228,596	622,844	-0,089	-0,157
229,611	80,563	-0,145	-0,108
230,626	34,242	-0,261	-0,158
231,640	-79,724	-0,181	0,042
232,655	-40,415	-0,245	-0,088
233,669	85,966	-0,210	-0,160
234,684	318,255	-0,183	-0,241
235,699	134,220	-0,176	-0,158
236,713	149,315	-0,139	-0,131
237,728	-200,000	-0,046	-0,221
238,742	-46,171	-0,174	-0,059
239,757	82,094	-0,251	-0,188
240,772	29,128	-0,242	-0,142
241,786	421,653	-0,169	-0,252
242,801	800,000	-0,079	-0,233
243,815	800,000	-0,075	-0,166
244,830	283,135	-0,200	-0,250
245,844	800,000	-0,168	-0,327
246,859	6,071	-0,223	-0,114
247,874	59,320	-0,272	-0,185
248,888	-8,696	-0,152	-0,070
249,903	-20,953	-0,198	-0,083
250,917	-32,286	-0,155	-0,060
251,932	-81,992	-0,208	-0,047
252,947	113,080	-0,094	-0,079
253,961	287,290	-0,191	-0,239
254,976	-76,255	-0,302	-0,073
255,990	40,723	-0,135	-0,084
257,005	99,199	-0,241	-0,193
258,020	-59,743	-0,243	-0,072
259,034	118,453	-0,166	-0,141
260,049	149,931	-0,160	-0,151
261,063	195,142	-0,105	-0,111
262,078	-41,384	-0,206	-0,073
263,093	51,040	-0,210	-0,137
264,107	-59,722	-0,279	-0,082
265,122	644,683	-0,135	-0,239
266,136	-39,534	-0,123	-0,044
267,151	-70,225	-0,165	-0,043
268,166	-27,239	-0,197	-0,079
269,180	3,452	-0,149	-0,075
270,195	148,879	-0,233	-0,218
271,209	312,198	-0,122	-0,158
272,224	800,000	-0,072	-0,153
273,239	-69,965	-0,113	0,030
274,253	-152,616	-0,226	-0,011
275,268	800,000	-0,078	-0,149
276,282	607,485	-0,128	-0,221
277,297	-85,181	-0,169	-0,036
278,312	48,816	-0,171	-0,110
279,326	-200,000	0,027	-0,117
280,341	800,000	-0,108	-0,250
281,355	-4,149	-0,116	-0,055
282,370	137,862	-0,155	-0,140
283,384	130,852	-0,119	-0,105
284,399	-70,937	-0,218	-0,056
285,414	117,857	-0,181	-0,153
286,428	-126,848	-0,275	-0,028
287,443	-55,919	-0,168	-0,051
288,457	665,936	-0,069	-0,124
289,472	-34,358	-0,213	-0,080
290,487	81,056	-0,190	-0,141
291,501	38,032	-0,229	-0,140
292,516	-21,327	-0,234	-0,098
293,530	245,703	-0,072	-0,084
294,545	249,204	-0,131	-0,154
295,560	-27,491	-0,215	-0,086
296,574	229,065	-0,096	-0,108
297,589	575,840	-0,189	-0,319
298,603	41,794	-0,244	-0,152
299,618	-200,000	-0,002	-0,337
300,633	800,000	-0,016	-0,037
301,647	40,035	-0,121	-0,075
302,662	-200,000	-0,028	-0,182
303,676	100,554	-0,193	-0,155
304,691	189,373	-0,105	-0,108
305,706	-23,077	-0,212	-0,087
306,720	618,520	-0,194	-0,338
307,735	20,212	-0,182	-0,101
308,749	-200,000	0,023	-0,096
309,764	91,779	-0,123	-0,095
310,779	-167,700	-0,140	-0,004
311,793	194,596	-0,131	-0,137
312,808	-200,000	-0,079	-0,276
313,822	504,113	-0,061	-0,097
314,837	-56,117	-0,080	-0,024
315,852	800,000	-0,019	-0,048
316,866	-200,000	-0,014	-0,139
317,881	-44,408	-0,144	-0,049
318,895	-67,348	-0,197	-0,053
319,910	36,439	-0,224	-0,135
320,925	222,298	-0,109	-0,120
321,939	81,072	-0,173	-0,128
322,954	218,184	-0,167	-0,183
323,968	176,304	-0,111	-0,111
324,983	-136,264	-0,228	0,018
325,997	54,130	-0,152	-0,101
327,012	-54,765	-0,067	-0,021
328,027	800,000	-0,097	-0,214
329,041	22,079	-0,126	-0,070
330,056	87,736	-0,209	-0,159
331,070	18,410	-0,147	-0,080
332,085	-147,268	-0,186	-0,011
333,100	48,779	-0,160	-0,103
334,114	324,486	-0,175	-0,230
335,129	369,203	-0,141	-0,196
336,143	800,000	-0,061	-0,130
337,158	-68,513	-0,199	-0,053
338,173	31,529	-0,110	-0,065
339,187	-115,563	-0,085	-0,011
340,202	27,559	-0,148	-0,085
341,216	493,631	-0,147	-0,232
342,231	62,267	-0,110	-0,075
343,246	88,619	-0,190	-0,145
344,260	153,459	-0,160	-0,150
345,275	8,475	-0,070	-0,036
346,289	-179,117	-0,172	-0,003
347,304	-37,071	-0,152	-0,056
348,319	-40,380	-0,093	0,033
349,333	-128,727	-0,145	-0,014
350,348	17,688	-0,218	-0,119
351,362	800,000	-0,059	-0,153
352,377	12,569	-0,233	-0,123
353,392	-3,820	-0,226	-0,107
354,406	33,587	-0,009	0,005
355,421	209,330	1316,513	1416,548
356,435	161,107	1477,463	1417,052
