DTS Sentinel unit serial number:	SN410029Multiplexer serial number:	ORYXHardware model number:	OX2-SRSoftware version number:	ORYX F/W v4,00 Oryx Data Collector v3.7.2.0data status	okinstallation	B3 Nyhavnadifferential loss correction	single-endedforward channel	channel 1reverse channel	N/Adate	2023/12/02time	15:17:30forward acquisition time	300,00reverse acquisition time	0,00gamma	499,1914k internal	0,3197k external	0,3197temperature offset calibration	1,0000default loss term (dB/km)	0,3820temperature slope calibration	1,0000multiplexer offset coefficient	1,0000multiplexer slope coefficient	1,0000fibre end	0,00T internal ref (°C)	14,75T ext. ref 1 (°C)	-0,71T ext. ref 2 (°C)	-0,72length (m)	temperature (°C)	Stokes	anti-Stokes-744,400	301,831	-0,165	-0,223
-743,385	-200,000	-0,014	0,244
-742,371	-200,000	0,013	-0,182
-741,356	-200,000	0,008	0,396
-740,342	-200,000	0,025	-0,143
-739,327	-200,000	-0,033	0,299
-738,312	271,608	-0,190	-0,244
-737,298	-200,000	-0,022	0,234
-736,283	-88,991	-0,303	-0,065
-735,269	-200,000	0,081	0,387
-734,254	40,012	-0,326	-0,213
-733,239	38,540	-0,148	0,096
-732,225	273,668	-0,240	-0,309
-731,210	-2,331	0,091	0,046
-730,196	425,115	0,025	-0,040
-729,181	-104,657	-0,053	0,009
-728,167	7,091	0,052	-0,028
-727,152	139,316	-0,077	-0,074
-726,137	74,962	-0,059	-0,045
-725,123	-200,000	0,002	-0,044
-724,108	-13,805	-0,077	0,036
-723,094	73,481	-0,087	-0,066
-722,079	181,798	-0,034	-0,036
-721,064	-32,424	-0,150	-0,060
-720,050	81,947	0,026	0,021
-719,035	800,000	-0,024	-0,077
-718,021	315,324	-0,128	-0,176
-717,006	-200,000	-0,000	-0,042
-715,991	-200,000	0,012	-0,051
-714,977	12,278	-0,108	-0,060
-713,962	800,000	-0,020	0,041
-712,948	48,237	0,125	-0,085
-711,933	-60,752	0,072	-0,022
-710,918	800,000	0,064	0,141
-709,904	707,880	0,048	-0,093
-708,889	8,073	0,076	-0,041
-707,875	-200,000	0,000	-0,104
-706,860	-126,343	0,210	0,023
-705,845	800,000	0,026	-0,079
-704,831	30,375	0,118	-0,073
-703,816	-29,377	-0,106	-0,044
-702,802	-200,000	-0,021	-0,144
-701,787	-92,207	-0,123	-0,025
-700,772	-200,000	-0,023	-0,136
-699,758	41,458	-0,106	0,069
-698,743	-63,326	0,038	0,011
-697,729	800,000	-0,071	0,158
-696,714	-78,810	0,077	0,019
-695,699	-151,943	-0,105	0,005
-694,685	512,930	-0,033	-0,056
-693,670	264,840	-0,044	-0,055
-692,656	286,510	0,122	-0,160
-691,641	-200,000	0,015	0,124
-690,627	-190,273	-0,020	0,000
-689,612	-200,000	0,032	0,118
-688,597	310,075	-0,016	0,021
-687,583	209,612	-0,039	-0,044
-686,568	-43,594	0,016	0,006
-685,554	-200,000	0,029	-0,097
-684,539	-200,000	-0,002	-0,032
-683,524	-174,113	-0,127	-0,003
-682,510	15,095	-0,072	0,041
-681,495	109,822	0,018	0,016
-680,481	-200,000	-0,032	-0,111
-679,466	800,000	0,058	-0,120
-678,451	59,562	-0,052	0,037
-677,437	-85,053	0,114	-0,026
-676,422	800,000	0,057	0,168
-675,408	734,224	-0,102	-0,199
-674,393	38,360	-0,092	-0,059
-673,378	135,629	-0,127	-0,120
-672,364	23,928	0,068	-0,041
-671,349	-200,000	0,032	-0,145
-670,335	-200,000	0,045	-0,156
-669,320	184,654	0,088	-0,095
-668,305	-106,323	-0,026	-0,004
-667,291	-136,886	-0,152	-0,012
-666,276	-17,287	0,048	-0,022
-665,262	-165,605	-0,076	0,002
-664,247	29,046	-0,063	-0,039
-663,232	-200,000	0,017	-0,084
-662,218	-153,498	0,062	-0,003
-661,203	800,000	0,034	0,095
-660,189	-44,100	0,097	-0,035
-659,174	-194,082	-0,100	-0,001
-658,159	70,894	0,051	0,038
-657,145	800,000	-0,038	-0,107
-656,130	800,000	-0,014	0,036
-655,116	-200,000	0,000	0,050
-654,101	267,519	0,069	0,088
-653,086	-21,796	-0,048	0,021
-652,072	204,735	0,070	-0,079
-651,057	800,000	-0,047	-0,134
-650,043	-28,312	-0,041	-0,017
-649,028	-119,036	-0,082	-0,010
-648,014	296,450	-0,025	0,033
-646,999	299,794	-0,060	0,080
-645,984	800,000	-0,054	-0,110
-644,970	800,000	0,030	-0,078
-643,955	122,959	-0,106	-0,096
-642,941	-200,000	0,014	-0,061
-641,926	-6,726	-0,049	-0,024
-640,911	65,199	0,091	0,066
-639,897	-200,000	-0,036	-0,123
-638,882	-73,907	0,088	-0,023
-637,868	-32,655	0,024	-0,010
-636,853	-101,817	-0,141	-0,024
-635,838	795,789	-0,035	0,071
-634,824	-54,105	-0,070	0,023
-633,809	800,000	0,021	0,050
-632,795	588,357	-0,012	0,022
-631,780	109,394	0,109	0,094
-630,765	-130,698	-0,034	-0,003
-629,751	5,686	-0,042	-0,022
-628,736	-81,857	-0,078	0,018
-627,722	-200,000	0,012	0,107
-626,707	800,000	-0,047	0,098
-625,692	154,461	0,073	-0,073
-624,678	467,738	-0,072	0,117
-623,663	-200,000	0,005	-0,028
-622,649	715,386	0,026	-0,049
-621,634	-32,560	-0,054	-0,022
-620,619	-200,000	0,004	-0,022
-619,605	-19,266	0,122	0,054
-618,590	-151,586	0,101	-0,005
-617,576	800,000	-0,036	0,086
-616,561	-56,061	0,033	0,011
-615,546	107,936	-0,183	0,158
-614,532	66,186	-0,099	-0,073
-613,517	754,446	0,018	0,035
-612,503	-200,000	0,010	-0,135
-611,488	319,792	0,017	-0,023
-610,474	170,094	0,044	-0,045
-609,459	800,000	-0,039	-0,081
-608,444	1,123	-0,085	0,044
-607,430	-200,000	-0,009	-0,132
-606,415	452,676	-0,040	0,064
-605,401	-200,000	-0,007	-0,093
-604,386	-200,000	0,003	-0,079
-603,371	-6,648	0,065	0,032
-602,357	37,472	-0,086	0,055
-601,342	85,581	-0,062	0,049
-600,328	59,729	-0,037	-0,027
-599,313	72,132	-0,029	-0,022
-598,298	725,697	-0,087	-0,169
-597,284	779,213	0,032	-0,065
-596,269	19,087	0,078	0,045
-595,255	514,575	0,039	-0,066
-594,240	800,000	-0,026	0,067
-593,225	-92,744	0,023	0,005
-592,211	112,153	-0,052	-0,045
-591,196	-52,344	-0,068	0,023
-590,182	-95,689	0,159	0,031
-589,167	-106,289	-0,070	-0,011
-588,152	-200,000	0,011	0,046
-587,138	-6,091	0,055	-0,027
-586,123	-200,000	-0,000	-0,067
-585,109	-200,000	-0,001	-0,030
-584,094	-7,763	-0,120	-0,059
-583,079	6,987	-0,058	-0,031
-582,065	-46,638	-0,049	0,017
-581,050	-47,911	0,046	-0,016
-580,036	-147,919	-0,175	-0,010
-579,021	341,700	-0,056	-0,079
-578,006	-200,000	-0,046	-0,174
-576,992	800,000	-0,077	-0,162
-575,977	402,064	0,030	-0,045
-574,963	800,000	0,076	0,199
-573,948	800,000	0,039	0,119
-572,934	-200,000	0,019	0,121
-571,919	-200,000	-0,009	0,059
-570,904	395,274	-0,079	-0,119
-569,890	-200,000	-0,039	-0,134
-568,875	-200,000	-0,033	-0,109
-567,861	800,000	-0,044	0,100
-566,846	28,402	-0,135	0,082
-565,831	-49,367	0,072	0,025
-564,817	-200,000	-0,011	-0,062
-563,802	-200,000	-0,012	0,060
-562,788	468,146	0,030	0,049
-561,773	-39,213	-0,071	-0,027
-560,758	-200,000	-0,010	0,043
-559,744	800,000	-0,035	0,111
-558,729	58,214	0,046	-0,033
-557,715	-200,000	0,023	0,123
-556,700	-19,715	-0,076	0,034
-555,685	-29,200	-0,062	0,026
-554,671	152,348	0,050	0,050
-553,656	22,815	-0,040	0,023
-552,642	800,000	-0,023	-0,050
-551,627	174,290	0,076	-0,079
-550,612	593,858	0,043	-0,077
-549,598	-113,544	-0,088	0,012
-548,583	-59,128	-0,049	-0,015
-547,569	26,608	-0,071	0,043
-546,554	11,682	0,040	0,022
-545,539	-200,000	-0,004	-0,063
-544,525	-129,976	-0,101	-0,010
-543,510	163,701	0,118	-0,120
-542,496	800,000	0,070	-0,164
-541,481	-53,111	-0,059	-0,019
-540,466	800,000	0,024	-0,067
-539,452	-200,000	0,006	0,095
-538,437	167,603	-0,027	-0,028
-537,423	82,716	0,065	-0,051
-536,408	800,000	-0,023	-0,053
-535,393	-200,000	0,024	-0,170
-534,379	-146,799	-0,188	-0,012
-533,364	280,255	0,015	-0,019
-532,350	-192,125	0,040	0,000
-531,335	702,757	0,024	-0,045
-530,321	-68,691	0,157	-0,044
-529,306	37,456	-0,051	0,033
-528,291	800,000	0,011	-0,031
-527,277	421,719	-0,025	-0,038
-526,262	800,000	-0,073	-0,178
-525,248	63,167	0,054	-0,039
-524,233	-10,602	0,121	0,057
-523,218	-17,329	0,174	0,079
-522,204	177,035	-0,096	0,101
-521,189	92,776	0,074	0,060
-520,175	5,797	-0,091	-0,048
-519,160	-57,800	0,070	-0,022
-518,145	-29,855	0,148	-0,060
-517,131	237,829	0,061	-0,073
-516,116	-200,000	-0,011	0,043
-515,102	301,397	0,029	0,039
-514,087	-147,268	0,119	0,007
-513,072	-200,000	0,010	-0,038
-512,058	188,689	-0,009	-0,010
-511,043	29,803	-0,054	0,033
-510,029	800,000	0,104	0,212
-509,014	-200,000	0,000	0,078
-507,999	-35,686	-0,043	-0,017
-506,985	396,175	-0,041	0,062
-505,970	200,842	-0,069	-0,077
-504,956	800,000	-0,060	-0,162
-503,941	132,617	0,045	0,042
-502,926	-200,000	-0,016	0,203
-501,912	800,000	0,034	0,076
-500,897	800,000	0,019	-0,054
-499,883	-200,000	-0,012	0,101
-498,868	800,000	0,052	-0,107
-497,853	87,087	-0,013	0,010
-496,839	792,158	-0,056	0,111
-495,824	-200,000	-0,010	0,052
-494,810	187,893	0,067	0,072
-493,795	295,898	-0,024	0,031
-492,781	-200,000	-0,023	-0,076
-491,766	-200,000	-0,003	-0,125
-490,751	-200,000	-0,012	-0,085
-489,737	12,164	-0,050	-0,028
-488,722	-200,000	0,012	0,086
-487,708	433,067	0,056	0,088
-486,693	-200,000	-0,004	-0,097
-485,678	6,892	-0,062	-0,033
-484,664	800,000	0,014	0,040
-483,649	-109,915	-0,065	-0,010
-482,635	-19,809	0,095	0,042
-481,620	800,000	0,046	0,133
-480,605	-200,000	0,000	0,046
-479,591	800,000	0,032	-0,092
-478,576	-15,640	0,098	-0,045
-477,562	-46,318	-0,045	0,016
-476,547	-7,977	-0,130	-0,063
-475,532	730,811	0,020	-0,039
-474,518	800,000	-0,018	0,057
-473,503	800,000	-0,025	0,060
-472,489	-18,808	0,075	-0,033
-471,474	165,068	-0,041	-0,042
-470,459	445,602	0,039	0,062
-469,445	-200,000	-0,006	-0,057
-468,430	800,000	-0,013	0,028
-467,416	226,317	0,068	0,080
-466,401	-200,000	0,019	0,089
-465,386	173,353	-0,079	0,082
-464,372	-135,720	0,151	-0,013
-463,357	-106,377	-0,085	-0,014
-462,343	250,750	0,054	0,066
-461,328	170,182	0,108	-0,111
-460,313	70,442	-0,053	-0,040
-459,299	123,126	0,051	-0,046
-458,284	-200,000	-0,056	0,192
-457,270	-200,000	0,013	-0,049
-456,255	-200,000	0,007	0,057
-455,241	199,480	0,043	-0,048
-454,226	-111,343	0,014	-0,002
-453,211	181,509	-0,174	-0,184
-452,197	10,296	0,050	0,027
-451,182	173,230	-0,011	0,011
-450,168	59,781	0,152	0,108
-449,153	16,991	0,043	0,024
-448,138	-172,650	0,109	-0,002
-447,124	181,837	0,057	0,060
-446,109	-200,000	-0,019	0,064
-445,095	29,376	0,018	-0,011
-444,080	50,213	-0,050	0,034
-443,065	800,000	-0,080	-0,161
-442,051	-156,800	-0,108	-0,005
-441,036	-200,000	-0,006	-0,037
-440,022	-115,111	-0,057	0,008
-439,007	403,290	-0,061	0,092
-437,992	-78,626	0,113	-0,027
-436,978	-17,728	-0,019	0,009
-435,963	-112,763	0,131	0,019
-434,949	134,737	0,049	0,046
-433,934	255,437	-0,093	-0,115
-432,919	800,000	0,021	0,048
-431,905	58,605	0,096	-0,068
-430,890	800,000	0,031	-0,083
-429,876	457,189	0,016	0,026
-428,861	135,326	-0,089	0,083
-427,846	231,562	0,103	0,122
-426,832	-200,000	0,012	-0,120
-425,817	123,717	-0,049	-0,044
-424,803	800,000	0,029	-0,061
-423,788	800,000	0,012	0,032
-422,773	800,000	-0,043	0,104
-421,759	312,556	0,021	-0,028
-420,744	270,827	-0,070	0,089
-419,730	-47,445	-0,092	-0,032
-418,715	301,886	-0,107	-0,142
-417,701	73,141	-0,229	-0,172
-416,686	281,822	0,033	0,043
-415,671	-110,771	-0,039	0,006
-414,657	105,003	0,164	0,139
-413,642	-200,000	0,015	0,219
-412,628	-73,020	0,078	0,020
-411,613	-200,000	-0,004	-0,055
-410,598	150,550	0,097	-0,095
-409,584	67,773	-0,154	0,113
-408,569	74,591	0,119	0,090
-407,555	-200,000	-0,008	0,203
-406,540	800,000	0,056	0,124
-405,525	61,265	0,038	-0,027
-404,511	523,413	-0,075	-0,127
-403,496	800,000	0,022	0,049
-402,482	29,774	0,106	-0,065
-401,467	-200,000	-0,007	-0,024
-400,452	-200,000	-0,010	0,148
-399,438	-200,000	0,018	0,183
-398,423	-26,505	-0,102	0,043
-397,409	800,000	0,048	-0,144
-396,394	-50,869	-0,214	-0,072
-395,379	-46,809	-0,124	-0,043
-394,365	121,959	0,149	0,134
-393,350	-200,000	0,030	0,207
-392,336	-200,000	-0,033	-0,118
-391,321	-70,267	-0,031	0,008
-390,306	-94,092	0,106	-0,021
-389,292	323,123	-0,065	-0,089
-388,277	800,000	-0,004	0,013
-387,263	3,975	0,112	-0,059
-386,248	800,000	0,060	0,175
-385,233	-200,000	0,002	0,062
-384,219	-200,000	-0,013	0,041
-383,204	484,825	-0,021	-0,034
-382,190	87,823	-0,027	0,021
-381,175	800,000	-0,015	0,040
-380,160	32,042	0,141	-0,087
-379,146	120,242	0,062	0,055
-378,131	1,789	0,132	0,068
-377,117	-200,000	-0,008	0,045
-376,102	-200,000	-0,002	-0,186
-375,088	800,000	0,030	0,076
-374,073	800,000	-0,034	0,069
-373,058	-89,051	-0,120	-0,025
-372,044	-27,564	0,255	0,106
-371,029	-200,000	0,030	0,200
-370,015	-200,000	-0,012	0,084
-369,000	800,000	0,048	-0,098
-367,985	800,000	0,063	-0,167
-366,971	42,809	0,034	-0,022
-365,956	-21,012	-0,176	-0,077
-364,942	471,555	-0,037	0,060
-363,927	-131,417	-0,031	-0,003
-362,912	177,269	-0,102	0,106
-361,898	800,000	0,064	-0,136
-360,883	-67,886	-0,058	0,016
-359,869	-59,408	0,104	-0,032
-358,854	-122,497	0,024	0,003
-357,839	-200,000	0,019	-0,066
-356,825	800,000	-0,041	0,086
-355,810	-28,344	-0,017	-0,007
-354,796	56,247	-0,092	-0,064
-353,781	70,897	-0,147	-0,109
-352,766	-200,000	-0,002	0,014
-351,752	-91,085	0,060	-0,012
-350,737	800,000	-0,048	-0,096
-349,723	569,449	0,053	0,093
-348,708	317,520	0,056	-0,076
-347,693	800,000	0,069	-0,148
-346,679	-200,000	-0,011	-0,087
-345,664	166,759	-0,073	-0,074
-344,650	749,256	0,034	0,066
-343,635	-142,314	-0,149	0,010
-342,620	271,403	0,061	-0,077
-341,606	800,000	0,037	-0,074
-340,591	98,404	-0,143	0,118
-339,577	-125,616	-0,094	0,010
-338,562	-43,160	0,153	-0,055
-337,548	11,468	0,095	0,052
-336,533	-200,000	-0,006	0,058
-335,518	-200,000	0,033	0,112
-334,504	777,463	0,036	0,072
-333,489	-165,536	0,104	-0,003
-332,475	80,749	-0,074	-0,057
-331,460	52,114	0,016	-0,011
-330,445	783,824	-0,004	-0,007
-329,431	32,112	0,059	0,036
-328,416	-200,000	-0,014	0,055
-327,402	109,273	0,051	0,043
-326,387	549,077	0,026	-0,045
-325,372	41,037	0,068	0,044
-324,358	158,374	0,139	-0,138
-323,343	-200,000	-0,012	-0,081
-322,329	800,000	-0,021	0,046
-321,314	554,576	0,012	-0,020
-320,299	800,000	0,039	0,093
-319,285	322,507	-0,036	-0,049
-318,270	-200,000	0,040	-0,126
-317,256	-200,000	0,026	-0,105
-316,241	-200,000	0,001	0,024
-315,226	264,598	0,146	-0,182
-314,212	67,024	-0,040	-0,029
-313,197	-200,000	0,007	0,185
-312,183	-66,430	0,104	0,029
-311,168	800,000	-0,027	-0,066
-310,153	-200,000	0,007	0,108
-309,139	-96,526	0,062	-0,012
-308,124	37,962	0,044	-0,028
-307,110	-140,691	-0,045	0,003
-306,095	-200,000	0,010	0,104
-305,080	-75,630	0,039	0,010
-304,066	800,000	-0,030	-0,073
-303,051	-200,000	-0,028	-0,139
-302,037	473,913	0,066	-0,106
-301,022	-200,000	-0,028	0,130
-300,008	-200,000	0,019	-0,077
-298,993	-50,835	0,091	0,030
-297,978	-23,954	-0,106	-0,045
-296,964	75,381	-0,032	0,024
-295,949	800,000	-0,023	-0,067
-294,935	-200,000	0,012	0,054
-293,920	151,336	-0,064	0,062
-292,905	-200,000	-0,037	-0,200
-291,891	-91,053	0,080	-0,016
-290,876	800,000	0,033	0,082
-289,862	800,000	0,056	0,140
-288,847	-39,612	-0,227	0,084
-287,832	358,048	-0,094	-0,134
-286,818	-24,929	-0,079	-0,033
-285,803	130,022	0,094	0,086
-284,789	300,588	0,062	0,082
-283,774	46,112	-0,114	0,075
-282,759	-200,000	-0,040	0,156
-281,745	88,362	-0,040	-0,032
-280,730	-121,876	0,014	-0,002
-279,716	-200,000	-0,004	-0,019
-278,701	-139,610	0,025	-0,002
-277,686	-98,545	0,087	-0,016
-276,672	325,721	0,069	0,095
-275,657	-118,046	-0,117	-0,015
-274,643	692,540	-0,092	0,172
-273,628	-86,681	-0,134	0,029
-272,613	149,311	-0,024	-0,023
-271,599	-47,448	-0,053	0,018
-270,584	-100,596	0,160	-0,028
-269,570	24,249	0,010	0,006
-268,555	77,127	-0,035	-0,026
-267,540	676,703	0,022	0,041
-266,526	511,310	-0,026	0,044
-265,511	-76,481	0,032	0,008
-264,497	372,229	0,045	0,066
-263,482	-102,234	0,103	0,018
-262,467	-62,514	-0,093	-0,027
-261,453	-17,773	0,138	0,062
-260,438	-165,791	-0,073	-0,002
-259,424	-93,763	-0,084	-0,016
-258,409	-163,272	-0,085	-0,003
-257,395	143,572	0,088	-0,084
-256,380	208,297	0,030	0,034
-255,365	575,918	-0,011	0,020
-254,351	-96,794	0,080	0,015
-253,336	618,460	-0,127	-0,229
-252,322	162,925	0,032	-0,032
-251,307	82,228	-0,065	-0,050
-250,292	-132,414	0,087	-0,008
-249,278	467,951	0,003	-0,005
-248,263	50,805	-0,080	0,054
-247,249	800,000	0,046	-0,141
-246,234	475,706	-0,061	-0,098
-245,219	46,162	-0,120	-0,079
-244,205	800,000	0,030	-0,081
-243,190	55,424	-0,115	0,079
-242,176	43,982	-0,050	0,033
-241,161	76,118	-0,068	0,052
-240,146	31,030	0,163	0,099
-239,132	-200,000	0,022	-0,069
-238,117	800,000	-0,034	-0,075
-237,103	626,689	-0,053	-0,095
-236,088	-80,853	0,140	0,033
-235,073	31,418	0,125	-0,076
-234,059	800,000	0,014	0,028
-233,044	132,149	0,061	0,056
-232,030	485,804	-0,073	0,119
-231,015	-63,376	-0,092	0,027
-230,000	800,000	-0,015	0,039
-228,986	-11,578	-0,035	-0,016
-227,971	153,616	-0,055	0,054
-226,957	-200,000	0,018	0,178
-225,942	-60,771	0,051	0,015
-224,927	227,806	-0,039	0,045
-223,913	-62,678	-0,076	-0,022
-222,898	-32,467	-0,059	0,023
-221,884	381,196	0,080	-0,117
-220,869	-200,000	0,051	-0,185
-219,855	-59,541	-0,117	0,036
-218,840	-200,000	0,038	-0,166
-217,825	325,108	0,017	0,023
-216,811	-200,000	-0,013	0,121
-215,796	33,991	-0,148	-0,092
-214,782	218,847	0,051	-0,058
-213,767	218,728	-0,036	0,041
-212,752	131,052	0,101	-0,093
-211,738	-200,000	0,033	0,109
-210,723	-200,000	-0,002	-0,106
-209,709	-200,000	0,020	-0,111
-208,694	800,000	-0,023	-0,056
-207,679	-5,166	0,054	-0,027
-206,665	-85,404	0,021	0,005
-205,650	631,605	0,104	0,189
-204,636	-200,000	0,050	0,177
-203,621	800,000	0,026	0,058
-202,606	104,969	-0,130	-0,110
-201,592	-200,000	-0,008	0,085
-200,577	150,569	-0,032	-0,031
-199,563	-200,000	-0,012	-0,065
-198,548	-22,954	0,116	0,050
-197,533	186,906	-0,063	0,067
-196,519	64,637	-0,017	0,012
-195,504	-20,882	0,083	-0,036
-194,490	-162,312	-0,048	-0,002
-193,475	90,226	-0,081	0,065
-192,460	-200,000	-0,021	-0,112
-191,446	-70,846	-0,105	0,028
-190,431	800,000	0,051	0,151
-189,417	187,275	-0,056	0,059
-188,402	-200,000	-0,010	0,045
-187,387	-182,728	0,107	-0,001
-186,373	800,000	-0,055	-0,141
-185,358	-200,000	0,003	0,015
-184,344	51,398	0,138	0,093
-183,329	150,930	0,077	-0,074
-182,315	147,414	0,094	-0,090
-181,300	654,982	0,054	-0,099
-180,285	-5,108	-0,067	0,033
-179,271	24,510	0,058	-0,034
-178,256	-200,000	0,006	-0,189
-177,242	-200,000	0,040	0,141
-176,227	-200,000	0,000	0,057
-175,212	93,417	-0,130	-0,105
-174,198	-85,735	0,164	-0,036
-173,183	434,781	0,034	-0,053
-172,169	-200,000	0,021	0,074
-171,154	-12,865	-0,087	0,040
-170,139	800,000	-0,019	-0,045
-169,125	800,000	0,015	0,041
-168,110	-153,679	0,147	-0,007
-167,096	-200,000	-0,021	0,089
-166,081	-91,334	-0,122	-0,025
-165,066	-60,273	-0,135	-0,041
-164,052	321,076	-0,005	-0,007
-163,037	800,000	0,015	0,048
-162,023	-160,162	0,032	-0,001
-161,008	380,548	-0,081	0,119
-159,993	-200,000	-0,009	-0,037
-158,979	287,487	-0,033	0,043
-157,964	-134,857	0,129	-0,011
-156,950	-200,000	0,018	0,103
-155,935	-200,000	0,087	0,000
-154,920	-65,320	0,037	-0,011
-153,906	243,454	0,042	-0,050
-152,891	519,353	-0,025	-0,042
-151,877	145,438	0,052	0,050
-150,862	-200,000	-0,012	-0,042
-149,847	94,604	0,028	-0,022
-148,833	-200,000	0,025	0,087
-147,818	383,633	0,083	0,121
-146,804	-16,062	0,046	0,021
-145,789	70,331	0,016	-0,012
-144,775	-11,711	0,079	0,037
-143,760	-14,016	-0,079	0,036
-142,745	660,220	-0,105	-0,194
-141,731	-58,810	0,033	-0,010
-140,716	-36,805	-0,100	0,038
-139,702	-200,000	-0,021	0,075
-138,687	288,295	0,046	-0,060
-137,672	757,097	-0,018	-0,035
-136,658	-84,001	0,150	-0,034
-135,643	628,005	-0,058	-0,104
-134,629	-200,000	0,003	0,118
-133,614	-119,472	0,111	0,014
-132,599	10,981	0,113	0,061
-131,585	427,660	0,032	0,049
-130,570	-162,142	-0,097	-0,003
-129,556	-200,000	0,024	-0,163
-128,541	800,000	-0,027	-0,069
-127,526	-200,000	0,005	0,117
-126,512	74,561	0,136	0,102
-125,497	148,713	-0,022	0,021
-124,483	-200,000	0,031	-0,206
-123,468	302,666	-0,048	0,064
-122,453	326,228	-0,104	-0,141
-121,439	-200,000	0,021	-0,115
-120,424	800,000	-0,009	0,024
-119,410	770,590	-0,025	0,048
-118,395	-200,000	0,009	0,084
-117,380	259,829	-0,082	-0,100
-116,366	-15,202	-0,060	0,027
-115,351	18,744	0,106	-0,060
-114,337	-18,079	0,089	-0,039
-113,322	-49,505	-0,039	-0,013
-112,307	-33,262	0,079	-0,031
-111,293	-58,597	0,067	0,020
-110,278	583,759	-0,085	0,150
-109,264	-37,873	0,121	0,045
-108,249	274,535	-0,064	0,081
-107,234	-200,000	0,008	-0,125
-106,220	800,000	0,018	-0,046
-105,205	-116,261	0,046	0,006
-104,191	-66,013	0,085	0,024
-103,176	-200,000	-0,030	-0,099
-102,162	-200,000	-0,054	0,176
-101,147	-4,199	-0,072	0,035
-100,132	517,704	0,016	0,026
-99,118	190,002	-0,053	0,057
-98,103	-200,000	0,012	-0,037
-97,089	109,153	0,045	0,038
-96,074	-86,471	0,095	0,020
-95,059	131,148	-0,066	-0,061
-94,045	99,118	-0,050	0,041
-93,030	68,529	-0,031	0,023
-92,016	-111,336	-0,105	-0,015
-91,001	800,000	0,075	0,151
-89,986	-60,587	-0,007	-0,002
-88,972	44,562	0,062	0,040
-87,957	800,000	-0,011	0,024
-86,943	35,596	-0,143	0,089
-85,928	800,000	-0,065	0,171
-84,913	-200,000	0,005	0,027
-83,899	-200,000	-0,014	-0,081
-82,884	0,955	-0,078	-0,039
-81,870	-200,000	0,008	-0,070
-80,855	-21,571	0,071	-0,030
-79,840	-33,872	-0,184	-0,072
-78,826	196,249	-0,139	-0,150
-77,811	-200,000	-0,014	-0,053
-76,797	-138,253	0,101	0,008
-75,782	309,663	0,053	-0,070
-74,767	-116,488	0,140	0,018
-73,753	-58,577	0,116	-0,035
-72,738	-52,456	0,123	0,040
-71,724	800,000	-0,030	-0,080
-70,709	291,796	0,034	-0,044
-69,694	192,361	0,058	-0,062
-68,680	800,000	0,034	0,099
-67,665	125,352	-0,082	0,073
-66,651	-12,981	0,077	-0,035
-65,636	31,510	0,049	-0,030
-64,622	286,108	0,140	-0,179
-63,607	-200,000	-0,026	0,111
-62,592	39,754	-0,165	0,105
-61,578	-25,833	0,051	0,021
-60,563	19,502	0,030	-0,017
-59,549	-200,000	-0,021	0,066
-58,534	-67,942	-1,526	-0,419
-57,519	452,621	-1,419	-2,232
-56,505	-200,000	-0,481	-4,403
-55,490	92,662	1,116	0,893
-54,476	800,000	4,813	11,175
-53,461	-200,000	18,273	292,267
-52,446	800,000	729,477	2244,314
-51,432	558,313	1645,348	2824,331
-50,417	79,032	1665,753	1263,024
-49,403	22,617	1539,562	890,768
-48,388	16,589	1462,555	816,981
-47,373	17,875	1452,424	817,492
-46,359	17,184	1442,843	808,758
-45,344	14,863	1438,249	795,057
-44,330	14,866	1436,089	793,846
-43,315	14,847	1434,489	792,840
-42,300	14,829	1432,791	791,784
-41,286	14,826	1431,884	791,237
-40,271	14,822	1430,431	790,383
-39,257	14,793	1429,334	789,611
-38,242	14,871	1428,005	789,213
-37,227	14,887	1426,452	788,401
-36,213	14,857	1425,364	787,625
-35,198	14,855	1424,210	786,948
-34,184	14,845	1423,553	786,507
-33,169	14,819	1421,969	785,475
-32,154	14,877	1420,849	785,102
-31,140	14,836	1419,881	784,340
-30,125	14,865	1418,533	783,701
-29,111	14,888	1417,453	783,181
-28,096	14,837	1416,326	782,287
-27,082	14,807	1415,361	781,582
-26,067	14,809	1414,070	780,848
-25,052	14,782	1413,127	780,169
-24,038	14,718	1412,215	779,336
-23,023	14,784	1411,065	778,980
-22,009	14,785	1410,016	778,376
-20,994	14,709	1409,309	777,595
-19,979	14,721	1408,239	777,033
-18,965	14,742	1407,161	776,505
-17,950	14,702	1406,469	775,906
-16,936	14,743	1405,351	775,450
-15,921	14,704	1404,213	774,607
-14,906	14,643	1403,526	773,914
-13,892	14,731	1402,398	773,672
-12,877	14,705	1401,700	773,132
-11,863	14,709	1400,578	772,501
-10,848	14,685	1399,684	771,868
-9,833	14,674	1398,947	771,381
-8,819	14,612	1397,962	770,516
-7,804	14,618	1397,002	769,986
-6,790	14,572	1396,311	769,360
-5,775	14,572	1395,146	768,687
-4,760	14,564	1394,192	768,098
-3,746	14,563	1393,413	767,633
-2,731	14,575	1392,563	767,189
-1,717	14,573	1391,662	766,654
-0,702	14,572	1389,764	765,570
0,313	18,255	1308,610	737,961
1,327	34,463	705,978	435,689
2,342	52,952	124,274	84,078
3,356	6,605	16,516	8,670
4,371	-6,131	3,237	1,561
5,386	-36,346	0,658	0,250
6,400	408,513	0,054	0,081
7,415	66,592	-0,200	-0,144
8,429	137,693	-0,321	-0,298
9,444	326,055	-0,268	-0,364
10,459	118,867	-0,252	-0,220
11,473	5,703	-0,310	-0,162
12,488	18,779	-0,199	-0,112
13,502	42,895	-0,366	-0,235
14,517	50,265	-0,380	-0,253
15,531	69,803	-0,309	-0,225
16,546	-9,120	-0,254	-0,120
17,561	172,078	-0,367	-0,373
18,575	69,023	-0,278	-0,202
19,590	270,307	-0,196	-0,245
20,604	164,365	-0,227	-0,227
21,619	104,700	-0,461	-0,384
22,634	213,298	-0,431	-0,482
23,648	191,160	-0,322	-0,343
24,663	54,791	-0,404	-0,275
25,677	1,099	-0,331	-0,167
26,692	279,302	-0,256	-0,324
27,707	117,077	-0,329	-0,286
28,721	126,161	-0,418	-0,373
29,736	416,468	-0,223	-0,337
30,750	121,275	-0,300	-0,264
31,765	188,416	-0,374	-0,395
32,780	48,668	-0,339	-0,224
33,794	88,544	-0,349	-0,274
34,809	237,702	-0,279	-0,327
35,823	52,095	-0,441	-0,296
36,838	-7,389	-0,545	-0,259
37,853	46,167	-0,424	-0,277
38,867	179,490	-0,341	-0,352
39,882	119,846	-0,273	-0,239
40,896	153,309	-0,263	-0,254
41,911	-6,206	-0,329	-0,158
42,926	146,588	-0,319	-0,303
43,940	91,294	-0,387	-0,306
44,955	280,275	-0,185	-0,234
45,969	6,792	-0,360	-0,188
46,984	332,335	-0,230	-0,314
47,999	54,047	-0,337	-0,228
49,013	193,715	-0,192	-0,205
50,028	267,797	-0,242	-0,299
51,042	20,328	-0,355	-0,202
52,057	-5,850	-0,378	-0,182
53,071	75,345	-0,464	-0,344
54,086	555,616	-0,177	-0,302
55,101	-30,710	-0,369	-0,146
56,115	40,302	-0,314	-0,199
57,130	54,669	-0,344	-0,233
58,144	-46,579	-0,374	-0,128
59,159	182,603	-0,255	-0,265
60,174	188,424	-0,284	-0,299
61,188	-3,008	-0,461	-0,226
62,203	149,298	-0,324	-0,309
63,217	-48,991	-0,237	-0,079
64,232	15,476	-0,288	-0,159
65,247	-3,230	-0,252	-0,123
66,261	-7,870	-0,304	-0,144
67,276	179,384	-0,315	-0,325
68,290	380,096	-0,264	-0,382
69,305	-41,186	-0,280	-0,101
70,320	-34,954	-0,343	-0,131
71,334	-70,065	-0,243	-0,065
72,349	78,092	-0,351	-0,264
73,363	-11,340	-0,400	-0,185
74,378	108,688	-0,399	-0,335
75,393	-5,487	-0,466	-0,224
76,407	43,458	-0,404	-0,260
77,422	212,181	-0,234	-0,260
78,436	133,015	-0,345	-0,314
79,451	92,041	-0,392	-0,310
80,466	87,456	-0,329	-0,256
81,480	82,734	-0,261	-0,199
82,495	15,781	-0,299	-0,165
83,509	-99,184	-0,214	-0,038
84,524	-40,864	-0,292	-0,106
85,539	111,168	-0,190	-0,161
86,553	-43,131	-0,507	-0,180
87,568	-30,063	-0,396	-0,157
88,582	266,009	-0,262	-0,322
89,597	64,753	-0,364	-0,258
90,611	51,140	-0,351	-0,234
91,626	108,534	-0,163	-0,137
92,641	183,627	-0,073	-0,076
93,655	58,004	-0,251	-0,173
94,670	158,995	-0,228	-0,223
95,684	117,548	-0,321	-0,277
96,699	227,466	-0,198	-0,227
97,714	800,000	-0,121	-0,257
98,728	-77,551	-0,216	-0,052
99,743	320,064	-0,201	-0,269
100,757	-55,766	-0,298	-0,093
101,772	191,801	-0,279	-0,296
102,787	-17,703	-0,365	-0,160
103,801	-5,906	-0,375	-0,179
104,816	2,841	-0,290	-0,147
105,830	-49,940	-0,204	-0,068
106,845	75,841	-0,198	-0,147
107,860	395,347	-0,186	-0,273
108,874	114,902	-0,282	-0,241
109,889	243,287	-0,247	-0,291
110,903	25,482	-0,375	-0,218
111,918	-84,937	-0,138	-0,030
112,933	-22,186	-0,186	-0,079
113,947	20,004	-0,258	-0,145
114,962	-21,418	-0,367	-0,157
115,976	-50,691	-0,369	-0,121
116,991	-35,540	-0,263	-0,099
118,006	341,901	-0,184	-0,253
119,020	27,328	-0,282	-0,166
120,035	-24,515	-0,164	-0,068
121,049	25,424	-0,213	-0,124
122,064	21,091	-0,298	-0,169
123,079	273,323	-0,249	-0,309
124,093	-8,959	-0,234	-0,109
125,108	124,714	-0,230	-0,203
126,122	316,749	-0,210	-0,278
127,137	23,433	-0,289	-0,166
128,151	-71,171	-0,308	-0,080
129,166	-5,711	-0,157	-0,075
130,181	187,452	-0,227	-0,238
131,195	23,393	-0,270	-0,155
132,210	66,247	-0,333	-0,237
133,224	-47,851	-0,224	-0,076
134,239	-8,371	-0,254	-0,119
135,254	-36,473	-0,201	-0,076
136,268	30,829	-0,193	-0,116
137,283	-72,446	-0,268	-0,069
138,297	20,612	-0,241	-0,136
139,312	-59,358	-0,235	-0,070
140,327	172,475	-0,277	-0,279
141,341	125,772	-0,233	-0,206
142,356	-59,842	-0,153	-0,046
143,370	182,686	-0,109	-0,112
144,385	41,526	-0,191	-0,121
145,400	103,436	-0,361	-0,296
146,414	98,162	-0,221	-0,178
147,429	273,238	-0,215	-0,266
148,443	126,473	-0,215	-0,191
149,458	-150,049	-0,358	-0,019
150,473	313,841	-0,213	-0,281
151,487	76,058	-0,289	-0,213
152,502	-16,786	-0,345	-0,152
153,516	78,246	-0,287	-0,214
154,531	155,957	-0,219	-0,212
155,546	80,531	-0,255	-0,192
156,560	61,407	-0,186	-0,129
157,575	-137,410	-0,345	-0,027
158,589	-29,120	-0,269	-0,107
159,604	228,301	-0,222	-0,253
160,619	190,744	-0,212	-0,223
161,633	208,849	-0,280	-0,306
162,648	148,228	-0,212	-0,200
163,662	147,960	-0,208	-0,196
164,677	70,495	-0,155	-0,112
165,692	8,785	-0,250	-0,131
166,706	163,647	-0,170	-0,167
167,721	341,608	-0,181	-0,248
168,735	-52,975	-0,293	-0,094
169,750	569,198	-0,196	-0,334
170,764	800,000	-0,132	-0,262
171,779	141,666	-0,175	-0,162
172,794	178,116	-0,153	-0,156
173,808	-77,527	-0,190	-0,046
174,823	92,590	-0,240	-0,188
175,837	800,000	-0,133	-0,269
176,852	-42,715	-0,295	-0,104
177,867	-90,633	-0,128	0,026
178,881	-35,517	-0,149	-0,056
179,896	-200,000	-0,063	-0,234
180,910	223,033	-0,228	-0,256
181,925	-18,412	-0,219	-0,095
182,940	370,132	-0,137	-0,195
183,954	328,734	-0,144	-0,193
184,969	-51,453	-0,230	-0,074
185,983	102,197	-0,213	-0,174
186,998	211,660	-0,141	-0,155
188,013	-13,271	-0,205	-0,092
189,027	595,159	-0,120	-0,208
190,042	64,924	-0,316	-0,222
191,056	96,681	-0,301	-0,240
192,071	-36,842	-0,194	-0,072
193,086	-30,412	-0,215	-0,084
194,100	361,815	-0,137	-0,191
195,115	800,000	-0,098	-0,198
196,129	-68,194	-0,186	-0,050
197,144	89,367	-0,237	-0,184
198,159	71,686	-0,256	-0,185
199,173	800,000	-0,111	-0,339
200,188	409,228	-0,099	-0,146
201,202	-30,637	-0,265	-0,104
202,217	-200,000	-0,055	-0,207
203,232	274,674	-0,152	-0,188
204,246	-200,000	-0,105	-0,345
205,261	313,799	-0,137	-0,180
206,275	45,181	-0,265	-0,169
207,290	-132,497	-0,159	-0,014
208,304	-39,486	-0,285	-0,103
209,319	30,318	-0,212	-0,126
210,334	336,776	-0,170	-0,230
211,348	142,706	-0,168	-0,156
212,363	98,473	-0,234	-0,187
213,377	225,585	-0,139	-0,157
214,392	-14,821	-0,037	0,016
215,407	293,201	-0,148	-0,188
216,421	187,065	-0,133	-0,138
217,436	117,330	-0,129	-0,110
218,450	-200,000	-0,075	-0,247
219,465	173,729	-0,161	-0,161
220,480	269,173	-0,108	-0,131
221,494	684,670	-0,075	-0,136
222,509	55,713	-0,197	-0,132
223,523	149,265	-0,118	-0,111
224,538	323,271	-0,170	-0,225
225,553	155,502	-0,379	-0,363
226,567	165,455	-0,197	-0,193
227,582	506,585	-0,080	-0,129
228,596	-46,594	-0,089	-0,030
229,611	-112,747	-0,221	-0,030
230,626	644,668	-0,090	-0,160
231,640	-200,000	-0,055	-0,220
232,655	800,000	-0,042	-0,099
233,669	147,772	-0,170	-0,160
234,684	345,191	-0,183	-0,250
235,699	33,439	-0,164	-0,098
236,713	-30,788	-0,250	-0,098
237,728	-45,990	-0,161	-0,055
238,742	94,990	-0,153	-0,121
239,757	800,000	-0,134	-0,276
240,772	148,867	-0,190	-0,179
241,786	800,000	-0,114	-0,230
242,801	-96,371	-0,084	0,015
243,815	53,168	-0,213	-0,141
244,830	29,744	-0,267	-0,157
245,844	179,886	-0,152	-0,155
246,859	62,476	-0,226	-0,157
247,874	230,059	-0,181	-0,206
248,888	87,237	-0,270	-0,207
249,903	-15,422	-0,228	-0,101
250,917	262,491	-0,105	-0,126
251,932	452,120	-0,146	-0,224
252,947	-96,434	-0,191	-0,035
253,961	40,748	-0,191	-0,119
254,976	-138,713	-0,248	-0,019
255,990	149,125	-0,253	-0,237
257,005	-26,155	-0,261	-0,106
258,020	15,491	-0,226	-0,123
259,034	13,779	-0,229	-0,123
260,049	95,106	-0,169	-0,133
261,063	44,864	-0,188	-0,119
262,078	54,711	-0,272	-0,181
263,093	121,046	-0,204	-0,175
264,107	152,454	-0,190	-0,180
265,122	177,540	-0,163	-0,165
266,136	106,734	-0,100	-0,082
267,151	192,668	-0,045	-0,047
268,166	56,122	-0,255	-0,171
269,180	-116,948	-0,185	0,023
270,195	601,116	-0,078	-0,135
271,209	800,000	-0,049	-0,100
272,224	2,985	-0,120	-0,060
273,239	-200,000	-0,006	-0,128
274,253	85,207	-0,116	-0,088
275,268	-108,886	-0,096	-0,014
276,282	-39,350	-0,118	-0,043
277,297	50,960	-0,221	-0,145
278,312	-200,000	-0,049	-0,219
279,326	-113,400	-0,143	-0,019
280,341	315,451	-0,097	-0,127
281,355	-200,000	0,032	-0,103
282,370	-124,697	-0,160	0,017
283,384	-13,170	-0,144	-0,065
284,399	-18,131	-0,212	-0,091
285,414	-96,645	-0,190	-0,034
286,428	-75,701	-0,176	-0,043
287,443	330,113	-0,129	-0,172
288,457	-120,779	-0,105	0,012
289,472	-128,029	-0,149	-0,015
290,487	11,666	-0,294	-0,155
291,501	-55,698	-0,257	-0,079
292,516	30,191	-0,215	-0,126
293,530	-200,000	-0,051	-0,173
294,545	-144,090	-0,196	-0,012
295,560	-200,000	-0,045	-0,150
296,574	42,151	-0,150	-0,094
297,589	31,205	-0,131	-0,077
298,603	-35,117	-0,166	-0,062
299,618	668,945	-0,107	-0,192
300,633	218,169	-0,192	-0,212
301,647	800,000	-0,077	-0,191
302,662	630,430	-0,094	-0,165
303,676	-95,493	-0,251	-0,046
304,691	6,724	-0,088	-0,045
305,706	74,263	-0,182	-0,131
306,720	-200,000	-0,047	-0,350
307,735	-200,000	-0,034	-0,152
308,749	34,725	-0,140	-0,084
309,764	150,421	-0,024	-0,023
310,779	95,036	-0,082	0,064
311,793	55,413	-0,174	-0,116
312,808	55,028	-0,289	-0,192
313,822	-33,621	-0,163	-0,062
314,837	-181,301	-0,150	-0,002
315,852	31,633	-0,040	-0,024
316,866	174,141	-0,046	-0,045
317,881	773,315	-0,055	-0,103
318,895	-40,965	-0,030	-0,011
319,910	203,863	-0,094	-0,100
320,925	-1,612	-0,182	-0,088
321,939	123,612	-0,250	-0,216
322,954	-48,248	-0,239	-0,079
323,968	-26,231	-0,126	-0,051
324,983	262,871	-0,096	-0,115
325,997	572,734	-0,078	-0,132
327,012	505,373	-0,091	-0,145
328,027	-56,067	-0,187	-0,057
329,041	33,067	-0,110	-0,066
330,056	800,000	-0,022	-0,050
331,070	-7,785	-0,151	0,070
332,085	53,271	-0,145	-0,096
333,100	74,344	-0,203	-0,147
334,114	32,428	-0,122	-0,072
335,129	563,678	-0,049	-0,081
336,143	312,111	-0,177	-0,228
337,158	-200,000	-0,020	-0,103
338,173	800,000	-0,098	-0,211
339,187	-35,265	-0,092	-0,034
340,202	175,114	-0,179	-0,178
341,216	138,461	-0,127	-0,115
342,231	152,537	-0,218	-0,205
343,246	211,837	-0,155	-0,168
344,260	800,000	-0,050	-0,122
345,275	20,451	-0,165	-0,091
346,289	-84,383	-0,190	-0,041
347,304	103,598	-0,168	-0,135
348,319	2,314	-0,170	-0,084
349,333	84,122	-0,204	-0,153
350,348	453,125	-0,161	-0,246
351,362	189,800	-0,222	-0,229
352,377	179,208	-0,130	-0,131
353,392	-66,251	-0,144	-0,039
354,406	-113,662	-0,244	-0,032
355,421	207,105	1313,885	1408,528
356,435	159,296	1474,542	1409,031
