DTS Sentinel unit serial number:	SN410029Multiplexer serial number:	ORYXHardware model number:	OX2-SRSoftware version number:	ORYX F/W v4,00 Oryx Data Collector v3.7.2.0data status	okinstallation	B3 Nyhavnadifferential loss correction	single-endedforward channel	channel 1reverse channel	N/Adate	2023/12/01time	11:17:30forward acquisition time	300,00reverse acquisition time	0,00gamma	499,1914k internal	0,3213k external	0,3213temperature offset calibration	1,0000default loss term (dB/km)	0,3820temperature slope calibration	1,0000multiplexer offset coefficient	1,0000multiplexer slope coefficient	1,0000fibre end	0,00T internal ref (°C)	8,35T ext. ref 1 (°C)	-5,74T ext. ref 2 (°C)	-5,84length (m)	temperature (°C)	Stokes	anti-Stokes-744,400	150,952	-0,101	-0,099
-743,385	-200,000	0,009	0,292
-742,371	-43,028	-0,201	-0,073
-741,356	800,000	0,088	0,200
-740,342	14,350	-0,218	-0,123
-739,327	508,773	-0,086	0,145
-738,312	800,000	-0,188	-0,402
-737,298	240,053	-0,229	0,276
-736,283	800,000	-0,083	-0,194
-735,269	-200,000	-0,020	0,210
-734,254	800,000	-0,095	-0,279
-733,239	34,667	-0,307	0,194
-732,225	474,269	0,061	-0,100
-731,210	-61,876	0,103	0,031
-730,196	800,000	0,051	-0,160
-729,181	-137,884	-0,084	-0,007
-728,167	-200,000	-0,028	0,187
-727,152	800,000	-0,094	-0,204
-726,137	249,470	0,076	0,094
-725,123	251,260	-0,064	0,079
-724,108	-200,000	-0,023	0,083
-723,094	-33,963	-0,153	0,061
-722,079	19,481	-0,079	-0,046
-721,064	278,334	-0,039	0,050
-720,050	-200,000	0,007	0,070
-719,035	503,009	0,003	-0,006
-718,021	-200,000	-0,011	0,090
-717,006	-200,000	-0,007	-0,098
-715,991	115,468	-0,226	-0,200
-714,977	-200,000	-0,028	-0,154
-713,962	800,000	0,012	-0,025
-712,948	-51,383	-0,082	0,028
-711,933	-181,386	-0,120	-0,002
-710,918	8,117	0,152	-0,082
-709,904	-200,000	-0,013	-0,051
-708,889	-11,711	-0,022	-0,010
-707,875	-84,264	-0,121	-0,028
-706,860	-200,000	-0,025	0,138
-705,845	133,169	-0,030	-0,028
-704,831	63,713	-0,041	-0,030
-703,816	398,235	-0,047	-0,071
-702,802	-89,682	0,054	-0,011
-701,787	204,079	-0,053	0,060
-700,772	347,150	0,035	0,050
-699,758	-3,554	0,100	-0,050
-698,743	-35,985	0,041	-0,016
-697,729	172,129	0,077	0,081
-696,714	-108,620	-0,134	-0,021
-695,699	-200,000	0,007	-0,043
-694,685	-104,477	-0,082	-0,014
-693,670	0,357	-0,061	0,031
-692,656	-81,633	0,068	0,016
-691,641	-96,312	-0,056	0,011
-690,627	-23,522	0,045	-0,019
-689,612	800,000	-0,013	0,036
-688,597	145,943	-0,045	0,044
-687,583	264,655	0,073	0,092
-686,568	-133,497	0,092	-0,008
-685,554	43,596	0,095	-0,063
-684,539	264,037	0,024	0,030
-683,524	800,000	0,032	0,082
-682,510	3,437	0,025	-0,013
-681,495	-200,000	-0,004	-0,040
-680,481	800,000	0,010	0,023
-679,466	800,000	0,045	-0,098
-678,451	20,406	-0,082	0,048
-677,437	-200,000	-0,011	-0,046
-676,422	-125,279	-0,095	0,010
-675,408	509,425	0,054	0,091
-674,393	-42,722	-0,114	0,042
-673,378	-35,285	-0,111	-0,043
-672,364	-72,196	-0,060	0,016
-671,349	-4,235	-0,060	-0,030
-670,335	-33,401	0,030	0,012
-669,320	-200,000	0,003	0,059
-668,305	-200,000	-0,001	-0,107
-667,291	-200,000	-0,019	0,065
-666,276	310,641	-0,033	0,045
-665,262	-27,486	-0,054	-0,023
-664,247	165,596	-0,090	0,092
-663,232	26,028	0,162	0,097
-662,218	47,279	0,098	0,066
-661,203	-42,731	-0,155	-0,057
-660,189	62,263	-0,030	-0,021
-659,174	64,561	0,108	-0,079
-658,159	-20,372	-0,150	-0,066
-657,145	-77,050	-0,050	-0,012
-656,130	65,187	-0,046	0,034
-655,116	-200,000	0,006	0,023
-654,101	95,179	-0,071	0,059
-653,086	-58,001	-0,034	0,011
-652,072	3,734	-0,200	-0,105
-651,057	698,382	0,036	-0,069
-650,043	575,453	0,044	-0,077
-649,028	-148,384	-0,170	0,010
-648,014	800,000	-0,032	-0,074
-646,999	37,760	-0,021	0,013
-645,984	133,855	0,077	0,072
-644,970	-200,000	0,002	-0,144
-643,955	188,360	0,045	0,048
-642,941	-41,549	-0,046	0,017
-641,926	154,868	0,007	-0,007
-640,911	-200,000	-0,022	0,107
-639,897	800,000	0,097	0,211
-638,882	18,103	0,088	-0,050
-637,868	105,582	-0,047	-0,040
-636,853	270,120	0,045	-0,057
-635,838	-155,256	0,168	0,008
-634,824	800,000	-0,034	-0,069
-633,809	-42,535	-0,135	0,049
-632,795	348,943	-0,064	0,091
-631,780	119,446	0,054	0,049
-630,765	465,696	0,065	0,105
-629,751	-1,594	0,097	0,049
-628,736	130,508	-0,055	-0,051
-627,722	357,768	-0,057	-0,082
-626,707	42,065	0,030	0,020
-625,692	-15,693	-0,152	-0,070
-624,678	107,139	0,075	-0,065
-623,663	221,605	-0,016	-0,019
-622,649	-200,000	0,003	-0,058
-621,634	-32,381	-0,124	-0,050
-620,619	-200,000	0,008	-0,032
-619,605	-200,000	-0,028	0,102
-618,590	800,000	0,045	0,104
-617,576	57,833	-0,045	0,032
-616,561	659,972	-0,061	-0,114
-615,546	504,764	0,054	-0,091
-614,532	426,690	-0,083	-0,130
-613,517	421,752	0,045	-0,070
-612,503	-121,259	0,025	-0,003
-611,488	-44,658	0,071	-0,026
-610,474	-200,000	-0,008	-0,059
-609,459	377,469	-0,065	0,097
-608,444	-200,000	-0,012	-0,108
-607,430	-15,236	-0,032	-0,015
-606,415	-200,000	0,013	-0,046
-605,401	-156,637	0,035	-0,002
-604,386	89,522	0,088	0,071
-603,371	800,000	0,030	0,081
-602,357	-200,000	0,029	0,154
-601,342	-12,808	-0,086	0,040
-600,328	210,644	-0,033	-0,037
-599,313	-200,000	-0,005	0,032
-598,298	-12,045	0,088	-0,041
-597,284	17,555	0,111	0,064
-596,269	-200,000	-0,009	-0,100
-595,255	-37,476	-0,035	0,013
-594,240	261,011	-0,010	-0,012
-593,225	32,256	0,048	-0,030
-592,211	-79,389	-0,166	0,040
-591,196	800,000	-0,049	-0,111
-590,182	-200,000	-0,012	0,080
-589,167	621,031	0,007	-0,012
-588,152	800,000	-0,070	-0,153
-587,138	-121,865	-0,063	-0,007
-586,123	800,000	0,041	-0,092
-585,109	519,162	0,041	-0,070
-584,094	-200,000	0,002	-0,081
-583,079	414,643	0,081	0,125
-582,065	800,000	0,053	0,108
-581,050	-200,000	-0,005	0,032
-580,036	103,656	-0,116	0,098
-579,021	800,000	-0,036	0,103
-578,006	-200,000	0,004	0,108
-576,992	100,039	-0,100	-0,084
-575,977	-200,000	0,003	0,012
-574,963	800,000	0,036	0,106
-573,948	188,769	-0,040	-0,043
-572,934	-150,978	0,015	-0,001
-571,919	-134,238	-0,126	0,011
-570,904	-134,609	-0,057	0,005
-569,890	-200,000	0,008	0,094
-568,875	-200,000	0,003	0,053
-567,861	39,965	-0,063	-0,041
-566,846	-200,000	-0,006	0,167
-565,831	-200,000	-0,023	0,111
-564,817	21,505	0,064	-0,037
-563,802	453,110	0,070	-0,111
-562,788	65,689	0,066	0,048
-561,773	260,211	-0,091	-0,114
-560,758	631,947	-0,067	0,123
-559,744	-200,000	0,002	0,116
-558,729	-31,702	-0,042	0,017
-557,715	-200,000	0,002	0,026
-556,700	800,000	-0,082	-0,234
-555,685	347,188	-0,044	-0,062
-554,671	-167,538	0,116	-0,003
-553,656	147,567	0,099	-0,095
-552,642	-29,262	-0,119	-0,049
-551,627	-93,210	-0,088	0,017
-550,612	777,030	-0,047	-0,093
-549,598	-200,000	0,007	-0,023
-548,583	-200,000	-0,025	0,152
-547,569	-120,731	-0,071	-0,009
-546,554	201,237	-0,021	0,024
-545,539	-36,199	-0,036	-0,014
-544,525	9,735	0,083	0,045
-543,510	-31,650	-0,061	0,024
-542,496	-2,234	-0,006	0,003
-541,481	721,053	-0,020	0,038
-540,466	270,210	0,017	-0,022
-539,452	259,314	0,043	0,054
-538,437	-65,180	0,052	-0,015
-537,423	800,000	-0,047	0,116
-536,408	124,398	-0,046	-0,042
-535,393	47,227	0,108	0,072
-534,379	800,000	-0,032	0,087
-533,364	-2,632	-0,145	-0,073
-532,350	31,526	0,043	-0,027
-531,335	-91,683	0,193	0,039
-530,321	800,000	-0,016	0,043
-529,306	-200,000	-0,018	0,137
-528,291	-200,000	-0,011	0,036
-527,277	-150,809	0,043	-0,002
-526,262	-84,814	-0,179	-0,040
-525,248	-105,612	0,108	0,017
-524,233	365,653	-0,026	0,038
-523,218	97,150	-0,110	0,090
-522,204	-200,000	-0,007	-0,130
-521,189	461,315	-0,022	-0,036
-520,175	-200,000	-0,014	0,071
-519,160	800,000	-0,062	0,157
-518,145	-83,383	-0,019	-0,004
-517,131	-200,000	0,019	0,140
-516,116	5,677	0,196	0,104
-515,102	-141,516	-0,104	0,007
-514,087	-61,935	-0,121	0,036
-513,072	9,926	-0,153	-0,083
-512,058	-200,000	-0,020	-0,140
-511,043	-200,000	-0,013	0,127
-510,029	-53,760	0,086	-0,028
-509,014	-31,211	0,066	0,027
-507,999	-200,000	-0,044	0,160
-506,985	-200,000	0,008	-0,038
-505,970	-200,000	-0,014	0,051
-504,956	-8,464	-0,013	-0,006
-503,941	98,666	0,086	-0,071
-502,926	103,733	0,055	0,046
-501,912	130,953	0,096	0,088
-500,897	126,163	-0,004	0,003
-499,883	-21,512	-0,126	-0,055
-498,868	338,664	0,116	-0,163
-497,853	-144,758	-0,128	-0,008
-496,839	-200,000	0,042	-0,190
-495,824	34,486	0,056	0,035
-494,810	10,450	0,070	-0,038
-493,795	800,000	-0,027	0,064
-492,781	-200,000	-0,032	0,129
-491,766	756,981	-0,025	-0,049
-490,751	736,788	0,035	0,068
-489,737	-144,875	-0,134	-0,009
-488,722	-200,000	0,016	0,163
-487,708	-200,000	-0,013	0,239
-486,693	-49,543	-0,069	0,023
-485,678	-200,000	0,022	-0,097
-484,664	-200,000	-0,034	-0,145
-483,649	800,000	-0,019	-0,041
-482,635	-98,748	0,101	-0,018
-481,620	-14,320	0,034	0,016
-480,605	169,983	-0,044	-0,046
-479,591	-200,000	0,012	0,112
-478,576	-200,000	-0,007	-0,049
-477,562	-193,942	-0,059	-0,000
-476,547	85,414	-0,035	0,027
-475,532	800,000	0,042	-0,087
-474,518	716,474	0,038	-0,073
-473,503	299,238	0,105	0,138
-472,489	-174,781	0,122	-0,002
-471,474	-39,015	-0,057	0,022
-470,459	-200,000	-0,027	0,119
-469,445	800,000	0,031	0,082
-468,430	800,000	-0,067	-0,154
-467,416	249,303	0,063	-0,077
-466,401	-200,000	0,011	0,172
-465,386	800,000	0,014	-0,031
-464,372	-200,000	-0,021	-0,074
-463,357	-200,000	-0,036	-0,149
-462,343	185,850	0,137	-0,146
-461,328	800,000	-0,039	-0,097
-460,313	-128,084	-0,108	0,011
-459,299	-119,792	-0,036	-0,004
-458,284	-79,693	-0,076	0,018
-457,270	220,899	0,092	0,106
-456,255	710,426	-0,018	-0,034
-455,241	-200,000	0,004	-0,051
-454,226	101,814	-0,074	-0,061
-453,211	19,368	0,076	-0,043
-452,197	-200,000	0,011	-0,077
-451,182	180,911	0,041	0,043
-450,168	-200,000	0,017	0,062
-449,153	112,476	-0,100	-0,087
-448,138	800,000	-0,030	-0,073
-447,124	800,000	-0,030	-0,067
-446,109	380,877	0,044	-0,065
-445,095	93,555	0,143	0,116
-444,080	101,927	0,056	0,047
-443,065	51,423	0,133	0,090
-442,051	-64,740	0,141	0,041
-441,036	-2,887	-0,218	-0,109
-440,022	-200,000	0,000	0,047
-439,007	132,727	0,085	-0,078
-437,992	-123,718	0,048	-0,005
-436,978	-200,000	0,018	0,066
-435,963	694,550	-0,023	0,042
-434,949	-27,903	0,037	0,015
-433,934	-41,290	-0,067	-0,025
-432,919	107,180	-0,111	-0,095
-431,905	-200,000	0,008	0,044
-430,890	45,166	-0,063	0,042
-429,876	314,465	0,071	0,096
-428,861	-200,000	0,010	0,089
-427,846	560,727	-0,035	-0,060
-426,832	42,220	0,091	0,059
-425,817	39,350	-0,073	-0,047
-424,803	463,418	0,003	-0,005
-423,788	273,617	0,072	-0,091
-422,773	32,576	0,202	0,125
-421,759	-200,000	-0,006	0,157
-420,744	527,390	0,106	-0,180
-419,730	-200,000	-0,017	-0,088
-418,715	800,000	-0,039	-0,111
-417,701	800,000	-0,021	-0,065
-416,686	-200,000	0,001	-0,010
-415,671	-28,976	0,049	-0,020
-414,657	-27,693	-0,068	0,028
-413,642	800,000	-0,024	0,056
-412,628	83,118	-0,116	0,090
-411,613	800,000	-0,022	-0,044
-410,598	394,155	0,071	0,105
-409,584	-163,776	-0,107	0,004
-408,569	-68,250	0,130	-0,036
-407,555	-200,000	-0,005	0,175
-406,540	-200,000	0,007	0,026
-405,525	-14,830	0,098	0,045
-404,511	800,000	-0,008	0,023
-403,496	-200,000	-0,013	-0,079
-402,482	252,838	0,056	-0,069
-401,467	291,097	0,049	-0,064
-400,452	115,497	0,092	-0,080
-399,438	7,163	-0,098	0,052
-398,423	94,659	0,078	-0,063
-397,409	-4,343	-0,087	-0,043
-396,394	-130,021	-0,197	-0,019
-395,379	-200,000	-0,000	-0,040
-394,365	-110,807	0,027	0,004
-393,350	-200,000	-0,031	0,173
-392,336	-81,965	0,070	0,016
-391,321	-200,000	-0,005	0,016
-390,306	-200,000	-0,035	0,137
-389,292	90,602	-0,033	-0,026
-388,277	287,842	-0,092	-0,119
-387,263	800,000	0,041	0,126
-386,248	-200,000	-0,027	0,197
-385,233	-200,000	0,025	0,078
-384,219	-51,326	-0,098	-0,033
-383,204	-82,613	0,058	-0,013
-382,190	-200,000	0,013	-0,152
-381,175	168,782	-0,079	0,080
-380,160	-200,000	0,013	-0,074
-379,146	84,952	-0,040	0,031
-378,131	-32,489	0,088	-0,035
-377,117	800,000	0,032	-0,087
-376,102	-161,894	-0,185	0,007
-375,088	129,924	-0,040	-0,037
-374,073	262,223	0,014	-0,017
-373,058	316,884	0,060	-0,081
-372,044	245,975	0,042	0,050
-371,029	-200,000	-0,001	0,100
-370,015	545,418	0,046	0,078
-369,000	-200,000	0,024	0,149
-367,985	-80,492	0,144	0,034
-366,971	-100,009	0,015	-0,003
-365,956	-200,000	0,027	0,123
-364,942	-200,000	-0,001	0,102
-363,927	-0,690	0,024	0,012
-362,912	-29,844	0,053	-0,021
-361,898	401,878	-0,092	-0,138
-360,883	-22,408	0,056	-0,024
-359,869	40,208	0,076	0,049
-358,854	446,060	0,074	0,117
-357,839	-200,000	-0,026	0,091
-356,825	-200,000	0,021	0,071
-355,810	81,453	0,086	-0,066
-354,796	-200,000	-0,009	-0,043
-353,781	800,000	-0,034	0,106
-352,766	-1,156	-0,085	-0,043
-351,752	60,645	0,026	0,018
-350,737	686,428	-0,017	0,031
-349,723	205,435	-0,027	-0,030
-348,708	196,691	0,065	0,071
-347,693	-145,999	-0,061	0,004
-346,679	317,723	0,023	-0,031
-345,664	-131,057	-0,092	-0,009
-344,650	-132,911	0,195	0,017
-343,635	-46,102	-0,123	0,043
-342,620	123,433	-0,047	0,042
-341,606	800,000	-0,039	0,081
-340,591	131,191	0,063	-0,058
-339,577	-200,000	-0,023	-0,127
-338,562	800,000	0,023	-0,073
-337,548	-7,160	-0,030	-0,014
-336,533	115,414	0,069	0,060
-335,518	288,174	-0,088	0,114
-334,504	-113,264	0,069	-0,010
-333,489	336,687	0,001	0,002
-332,475	-121,346	-0,139	0,016
-331,460	-200,000	0,003	-0,065
-330,445	-132,830	0,124	-0,011
-329,431	161,110	0,032	0,032
-328,416	138,975	0,069	0,064
-327,402	-200,000	0,001	0,014
-326,387	716,925	0,033	-0,063
-325,372	-200,000	-0,011	0,055
-324,358	-200,000	-0,053	-0,183
-323,343	52,281	-0,041	0,028
-322,329	-200,000	0,022	0,075
-321,314	-200,000	-0,048	0,178
-320,299	-7,619	-0,046	-0,022
-319,285	-200,000	-0,005	-0,118
-318,270	111,769	0,081	-0,070
-317,256	182,692	0,032	-0,034
-316,241	-200,000	-0,025	-0,185
-315,226	502,052	-0,040	0,067
-314,212	-26,737	0,138	0,057
-313,197	-21,438	-0,077	0,033
-312,183	-89,807	-0,080	-0,016
-311,168	-200,000	-0,017	0,068
-310,153	-7,292	-0,085	-0,041
-309,139	-176,490	0,193	-0,003
-308,124	800,000	-0,041	0,094
-307,110	-200,000	0,012	-0,049
-306,095	59,867	0,065	0,045
-305,080	800,000	0,080	-0,168
-304,066	-17,508	0,146	0,065
-303,051	-110,035	-0,110	0,016
-302,037	85,272	-0,129	0,100
-301,022	159,789	0,050	-0,049
-300,008	800,000	-0,011	-0,033
-298,993	233,572	-0,030	-0,035
-297,978	135,302	0,099	0,092
-296,964	554,089	0,030	0,052
-295,949	-8,058	-0,048	0,023
-294,935	-200,000	0,002	-0,089
-293,920	551,744	0,061	-0,104
-292,905	-33,483	-0,175	-0,069
-291,891	-82,772	-0,080	-0,018
-290,876	539,816	-0,067	0,115
-289,862	-9,300	0,021	0,010
-288,847	291,982	0,131	-0,170
-287,832	748,582	-0,024	-0,046
-286,818	128,907	-0,121	-0,110
-285,803	4,390	-0,045	0,023
-284,789	-180,954	0,063	-0,001
-283,774	155,038	-0,058	-0,057
-282,759	207,260	-0,119	-0,132
-281,745	-200,000	-0,011	-0,088
-280,730	-108,269	-0,015	0,002
-279,716	800,000	-0,044	-0,122
-278,701	88,904	0,041	-0,033
-277,686	191,155	0,062	-0,066
-276,672	-38,096	0,100	-0,038
-275,657	271,342	0,060	-0,075
-274,643	63,886	-0,035	-0,025
-273,628	-86,434	0,095	0,021
-272,613	130,584	0,068	-0,062
-271,599	295,781	0,007	-0,009
-270,584	-200,000	-0,002	-0,064
-269,570	693,881	0,042	0,079
-268,555	-200,000	-0,017	-0,097
-267,540	-70,299	0,062	-0,017
-266,526	-200,000	0,016	-0,118
-265,511	-135,974	0,080	-0,007
-264,497	-200,000	-0,002	0,007
-263,482	59,231	0,025	0,018
-262,467	603,834	0,081	0,145
-261,453	344,143	0,060	-0,084
-260,438	-200,000	-0,003	0,011
-259,424	49,123	-0,090	0,060
-258,409	-200,000	-0,006	0,042
-257,395	755,730	0,005	0,010
-256,380	-104,183	0,032	-0,005
-255,365	205,160	0,066	-0,073
-254,351	166,051	0,048	0,048
-253,336	151,974	-0,093	0,090
-252,322	188,754	-0,090	-0,095
-251,307	800,000	-0,046	-0,093
-250,292	-200,000	0,027	-0,222
-249,278	-200,000	0,000	0,011
-248,263	244,935	0,044	0,053
-247,249	-149,010	-0,058	-0,003
-246,234	800,000	-0,012	-0,036
-245,219	107,880	0,079	-0,067
-244,205	800,000	-0,058	-0,158
-243,190	800,000	-0,016	0,037
-242,176	-122,049	0,069	-0,008
-241,161	12,391	0,019	-0,011
-240,146	-114,131	0,115	-0,016
-239,132	-29,989	-0,015	0,006
-238,117	27,252	-0,046	-0,027
-237,103	-30,276	-0,107	0,043
-236,088	257,632	-0,066	-0,081
-235,073	-200,000	-0,009	0,043
-234,059	-200,000	-0,013	0,049
-233,044	800,000	0,037	-0,102
-232,030	66,704	0,079	0,057
-231,015	-200,000	-0,035	0,117
-230,000	-151,787	-0,108	-0,006
-228,986	211,029	-0,049	-0,055
-227,971	110,434	0,053	-0,045
-226,957	23,469	0,020	0,012
-225,942	-65,616	-0,092	0,026
-224,927	70,764	-0,039	-0,029
-223,913	800,000	0,100	-0,197
-222,898	3,734	-0,082	-0,042
-221,884	-39,449	-0,069	0,026
-220,869	-183,286	0,059	0,001
-219,855	-18,506	-0,014	-0,006
-218,840	800,000	-0,029	0,071
-217,825	-154,896	0,037	0,002
-216,811	-200,000	0,005	0,041
-215,796	154,057	-0,046	-0,045
-214,782	167,328	-0,071	-0,072
-213,767	-200,000	-0,010	-0,087
-212,752	122,418	0,066	-0,058
-211,738	-26,088	-0,092	0,038
-210,723	-70,773	0,044	0,012
-209,709	11,260	-0,129	-0,070
-208,694	25,138	0,095	-0,056
-207,679	-3,917	0,057	0,028
-206,665	167,526	-0,084	0,084
-205,650	800,000	0,036	0,101
-204,636	-128,158	0,055	-0,006
-203,621	-200,000	0,011	-0,162
-202,606	656,436	0,026	-0,047
-201,592	-200,000	-0,031	-0,172
-200,577	745,807	0,043	-0,083
-199,563	-56,521	0,044	0,014
-198,548	-102,501	-0,012	-0,002
-197,533	90,999	0,042	-0,033
-196,519	-2,670	0,081	0,040
-195,504	397,099	-0,023	-0,034
-194,490	-200,000	-0,008	-0,130
-193,475	120,625	-0,044	-0,039
-192,460	-93,827	0,160	-0,031
-191,446	301,112	-0,024	0,032
-190,431	-200,000	0,028	0,137
-189,417	-41,493	-0,143	0,052
-188,402	28,604	-0,118	0,070
-187,387	122,795	-0,041	-0,037
-186,373	-200,000	-0,004	-0,184
-185,358	71,302	-0,102	0,075
-184,344	94,874	0,188	0,151
-183,329	257,580	0,079	0,097
-182,315	-12,145	0,077	0,036
-181,300	179,828	0,047	0,049
-180,285	-123,060	-0,131	0,015
-179,271	-147,936	-0,043	-0,003
-178,256	22,570	-0,032	-0,018
-177,242	-51,600	-0,100	-0,033
-176,227	199,493	0,085	-0,092
-175,212	69,762	0,147	0,107
-174,198	-49,214	-0,223	-0,075
-173,183	-72,112	0,168	0,044
-172,169	11,402	-0,117	-0,063
-171,154	-12,550	0,243	-0,112
-170,139	-148,061	-0,010	-0,001
-169,125	800,000	0,035	0,085
-168,110	145,672	-0,062	0,059
-167,096	78,622	0,076	-0,058
-166,081	87,449	0,032	-0,025
-165,066	-70,853	-0,053	0,014
-164,052	-12,517	-0,044	0,020
-163,037	240,881	0,041	0,048
-162,023	62,403	0,095	0,067
-161,008	67,637	-0,044	0,032
-159,993	-200,000	-0,006	-0,027
-158,979	98,892	0,042	0,034
-157,964	-147,979	-0,128	0,007
-156,950	52,652	0,148	0,100
-155,935	-200,000	0,001	0,050
-154,920	230,415	-0,085	0,099
-153,906	-200,000	0,026	0,099
-152,891	-164,850	0,042	-0,001
-151,877	-54,927	0,055	0,018
-150,862	-128,575	-0,043	0,004
-149,847	367,713	0,074	0,106
-148,833	-200,000	0,009	-0,076
-147,818	-200,000	0,020	0,145
-146,804	-87,978	-0,154	0,032
-145,789	756,548	0,086	0,165
-144,775	562,612	0,048	-0,082
-143,760	222,917	-0,023	-0,027
-142,745	-200,000	-0,004	-0,210
-141,731	11,164	-0,075	-0,040
-140,716	-82,798	0,145	-0,033
-139,702	-200,000	-0,002	0,073
-138,687	230,411	-0,045	0,052
-137,672	114,375	0,048	-0,041
-136,658	-200,000	-0,020	-0,127
-135,643	162,670	-0,054	-0,053
-134,629	240,360	0,102	-0,121
-133,614	-200,000	0,003	0,027
-132,599	800,000	0,033	0,097
-131,585	13,795	-0,098	0,054
-130,570	129,285	-0,038	-0,034
-129,556	35,111	-0,027	0,017
-128,541	-200,000	-0,002	0,068
-127,526	172,311	0,066	0,067
-126,512	486,606	0,022	-0,035
-125,497	23,348	-0,062	0,036
-124,483	-111,623	-0,194	0,028
-123,468	-200,000	0,024	0,122
-122,453	266,921	0,067	-0,083
-121,439	800,000	-0,038	0,103
-120,424	800,000	-0,031	-0,095
-119,410	-200,000	0,009	-0,067
-118,395	133,584	0,038	0,035
-117,380	-9,541	0,160	-0,075
-116,366	-200,000	-0,035	0,132
-115,351	-200,000	0,057	-0,213
-114,337	47,133	-0,099	-0,065
-113,322	-200,000	-0,003	-0,114
-112,307	-200,000	-0,055	0,180
-111,293	800,000	0,011	0,021
-110,278	-118,220	0,052	0,006
-109,264	-67,283	-0,097	-0,027
-108,249	2,698	-0,036	0,019
-107,234	474,069	0,022	0,035
-106,220	-77,866	0,082	-0,020
-105,205	800,000	-0,072	0,173
-104,191	135,714	-0,051	0,047
-103,176	-200,000	0,018	0,183
-102,162	106,748	-0,113	-0,095
-101,147	800,000	0,012	-0,032
-100,132	-52,548	-0,164	0,053
-99,118	800,000	-0,054	0,123
-98,103	-200,000	0,014	0,065
-97,089	292,248	-0,050	0,065
-96,074	34,084	-0,045	0,028
-95,059	-200,000	0,010	0,084
-94,045	-200,000	-0,004	0,180
-93,030	463,759	-0,096	-0,153
-92,016	-64,968	-0,099	-0,028
-91,001	-50,292	0,137	-0,045
-89,986	55,463	0,088	0,060
-88,972	247,281	-0,103	0,123
-87,957	674,799	-0,050	-0,092
-86,943	26,795	-0,097	-0,057
-85,928	172,449	-0,069	-0,070
-84,913	454,822	0,022	-0,034
-83,899	-200,000	-0,021	0,123
-82,884	11,568	-0,117	0,063
-81,870	-194,068	0,042	-0,000
-80,855	-68,422	0,144	-0,039
-79,840	-200,000	0,005	0,081
-78,826	800,000	-0,028	-0,072
-77,811	800,000	-0,029	-0,079
-76,797	61,666	0,102	0,071
-75,782	800,000	-0,030	0,069
-74,767	-200,000	-0,002	0,040
-73,753	-62,080	-0,097	0,028
-72,738	-200,000	-0,027	-0,091
-71,724	-77,040	-0,051	-0,012
-70,709	-200,000	-0,004	-0,017
-69,694	800,000	-0,034	0,090
-68,680	117,973	0,121	0,106
-67,665	366,815	-0,021	0,029
-66,651	800,000	-0,031	-0,071
-65,636	58,580	-0,066	-0,046
-64,622	800,000	-0,066	-0,177
-63,607	-7,926	-0,073	-0,035
-62,592	-68,513	-0,048	0,013
-61,578	53,005	0,039	0,027
-60,563	-200,000	0,009	0,109
-59,549	800,000	0,022	0,062
-58,534	53,784	-2,160	-1,461
-57,519	657,421	-0,976	-1,777
-56,505	-200,000	-0,415	-4,593
-55,490	514,047	0,980	1,618
-54,476	800,000	5,140	11,289
-53,461	-200,000	22,385	345,183
-52,446	800,000	759,091	2300,974
-51,432	534,330	1649,546	2767,647
-50,417	68,580	1648,306	1190,817
-49,403	16,013	1524,353	844,393
-48,388	10,188	1449,703	775,014
-47,373	19,281	1442,007	814,275
-46,359	13,641	1430,645	781,156
-45,344	8,503	1426,630	754,590
-44,330	8,509	1424,450	753,436
-43,315	8,440	1422,838	752,229
-42,300	8,435	1420,979	751,190
-41,286	8,505	1419,594	750,759
-40,271	8,413	1418,590	749,762
-39,257	8,453	1417,232	749,205
-38,242	8,423	1416,359	748,572
-37,227	8,441	1415,142	747,987
-36,213	8,432	1414,046	747,331
-35,198	8,457	1412,654	746,683
-34,184	8,527	1411,429	746,338
-33,169	8,372	1410,390	745,032
-32,154	8,448	1409,370	744,818
-31,140	8,424	1408,073	743,992
-30,125	8,445	1406,773	743,372
-29,111	8,455	1405,528	742,730
-28,096	8,445	1404,533	742,130
-27,082	8,345	1403,589	741,136
-26,067	8,350	1402,519	740,567
-25,052	8,364	1401,321	739,967
-24,038	8,392	1400,316	739,539
-23,023	8,376	1399,469	738,986
-22,009	8,316	1398,449	738,137
-20,994	8,342	1397,129	737,534
-19,979	8,342	1396,136	736,982
-18,965	8,313	1395,435	736,447
-17,950	8,311	1394,460	735,893
-16,936	8,292	1393,807	735,432
-15,921	8,268	1392,631	734,670
-14,906	8,290	1391,543	734,171
-13,892	8,337	1390,784	733,959
-12,877	8,330	1390,039	733,503
-11,863	8,299	1389,315	732,950
-10,848	8,290	1388,524	732,459
-9,833	8,279	1387,399	731,786
-8,819	8,195	1386,547	730,924
-7,804	8,193	1385,596	730,382
-6,790	8,209	1384,466	729,832
-5,775	8,177	1383,633	729,218
-4,760	8,269	1382,495	729,009
-3,746	8,261	1381,644	728,498
-2,731	8,277	1380,676	728,032
-1,717	8,233	1379,785	727,329
-0,702	8,173	1378,110	726,144
0,313	12,270	1289,044	697,789
1,327	28,225	680,423	404,025
2,342	43,654	117,355	75,531
3,356	-0,978	16,635	8,268
4,371	7,303	3,845	2,017
5,386	44,522	1,226	0,792
6,400	800,000	0,299	0,667
7,415	-194,040	-0,302	0,002
8,429	114,422	-0,287	-0,246
9,444	72,938	-0,270	-0,199
10,459	24,030	-0,266	-0,154
11,473	34,223	-0,259	-0,159
12,488	139,265	-0,206	-0,191
13,502	302,220	-0,234	-0,305
14,517	140,415	-0,269	-0,250
15,531	-2,842	-0,364	-0,178
16,546	25,653	-0,280	-0,164
17,561	56,023	-0,399	-0,272
18,575	18,451	-0,215	-0,121
19,590	392,945	-0,166	-0,244
20,604	-20,735	-0,322	-0,138
21,619	-8,373	-0,441	-0,208
22,634	181,107	-0,379	-0,392
23,648	30,119	-0,505	-0,303
24,663	116,992	-0,381	-0,329
25,677	118,342	-0,333	-0,289
26,692	14,602	-0,346	-0,189
27,707	102,405	-0,269	-0,221
28,721	95,936	-0,379	-0,304
29,736	188,004	-0,189	-0,198
30,750	-17,145	-0,492	-0,217
31,765	38,104	-0,436	-0,272
32,780	18,826	-0,372	-0,209
33,794	81,059	-0,223	-0,169
34,809	189,076	-0,259	-0,273
35,823	214,956	-0,398	-0,443
36,838	-45,188	-0,263	-0,091
37,853	173,884	-0,365	-0,370
38,867	53,716	-0,364	-0,245
39,882	72,372	-0,460	-0,336
40,896	-50,499	-0,347	-0,114
41,911	4,955	-0,365	-0,188
42,926	91,971	-0,335	-0,265
43,940	55,798	-0,459	-0,312
44,955	-33,781	-0,399	-0,154
45,969	-97,026	-0,341	-0,062
46,984	111,716	-0,274	-0,232
47,999	0,590	-0,358	-0,179
49,013	-48,405	-0,319	-0,107
50,028	147,633	-0,340	-0,322
51,042	47,995	-0,277	-0,182
52,057	51,398	-0,401	-0,267
53,071	577,293	-0,178	-0,306
54,086	28,454	-0,376	-0,222
55,101	-12,034	-0,325	-0,149
56,115	-44,037	-0,255	-0,089
57,130	-33,772	-0,394	-0,152
58,144	53,479	-0,251	-0,169
59,159	35,626	-0,373	-0,229
60,174	-46,016	-0,372	-0,128
61,188	84,881	-0,280	-0,215
62,203	23,323	-0,340	-0,196
63,217	452,227	-0,208	-0,324
64,232	62,498	-0,331	-0,232
65,247	-32,366	-0,295	-0,115
66,261	78,768	-0,360	-0,270
67,276	62,699	-0,375	-0,263
68,290	148,544	-0,224	-0,212
69,305	169,221	-0,280	-0,280
70,320	173,472	-0,210	-0,212
71,334	61,452	-0,347	-0,241
72,349	3,267	-0,327	-0,166
73,363	161,624	-0,299	-0,293
74,378	-70,762	-0,308	-0,081
75,393	16,719	-0,259	-0,143
76,407	-59,065	-0,306	-0,092
77,422	199,208	-0,294	-0,316
78,436	-31,454	-0,387	-0,152
79,451	35,849	-0,315	-0,193
80,466	637,170	-0,167	-0,299
81,480	183,028	-0,273	-0,283
82,495	36,979	-0,318	-0,196
83,509	69,259	-0,284	-0,204
84,524	41,170	-0,361	-0,228
85,539	31,365	-0,285	-0,171
86,553	1,728	-0,238	-0,120
87,568	69,558	-0,346	-0,249
88,582	130,979	-0,266	-0,239
89,597	386,442	-0,219	-0,317
90,611	-36,135	-0,374	-0,141
91,626	-78,887	-0,249	-0,059
92,641	48,941	-0,300	-0,196
93,655	350,090	-0,188	-0,260
94,670	60,145	-0,278	-0,192
95,684	100,923	-0,216	-0,175
96,699	245,644	-0,247	-0,291
97,714	216,513	-0,263	-0,293
98,728	-7,631	-0,292	-0,138
99,743	164,813	-0,224	-0,221
100,757	82,245	-0,260	-0,197
101,772	10,280	-0,262	-0,139
102,787	91,147	-0,305	-0,239
103,801	-32,269	-0,238	-0,092
104,816	-98,903	-0,412	-0,072
105,830	-49,933	-0,381	-0,126
106,845	335,003	-0,118	-0,160
107,860	30,988	-0,271	-0,162
108,874	299,921	-0,197	-0,254
109,889	22,635	-0,300	-0,171
110,903	142,131	-0,310	-0,287
111,918	125,797	-0,233	-0,205
112,933	146,777	-0,272	-0,255
113,947	800,000	-0,166	-0,347
114,962	140,739	-0,273	-0,252
115,976	-96,337	-0,312	-0,057
116,991	-32,561	-0,283	-0,110
118,006	236,288	-0,194	-0,224
119,020	370,072	-0,171	-0,242
120,035	206,495	-0,107	-0,116
121,049	68,830	-0,225	-0,161
122,064	-64,899	-0,042	-0,012
123,079	120,743	-0,152	-0,131
124,093	-59,269	-0,297	-0,089
125,108	698,604	-0,120	-0,220
126,122	44,546	-0,237	-0,152
127,137	407,215	-0,173	-0,256
128,151	165,159	-0,273	-0,269
129,166	-26,869	-0,149	-0,060
130,181	54,686	-0,254	-0,171
131,195	115,346	-0,193	-0,165
132,210	285,840	-0,213	-0,268
133,224	117,893	-0,267	-0,229
134,239	92,663	-0,254	-0,200
135,254	257,356	-0,135	-0,162
136,268	-95,164	-0,171	-0,032
137,283	-1,368	-0,247	-0,121
138,297	75,450	-0,173	-0,127
139,312	64,003	-0,288	-0,202
140,327	215,162	-0,169	-0,187
141,341	170,195	-0,200	-0,200
142,356	-200,000	-0,043	-0,249
143,370	461,698	-0,120	-0,186
144,385	90,666	-0,282	-0,220
145,400	226,532	-0,215	-0,243
146,414	-119,790	-0,311	-0,037
147,429	170,736	-0,150	-0,149
148,443	427,972	-0,201	-0,303
149,458	233,596	-0,164	-0,189
150,473	157,412	-0,191	-0,184
151,487	53,986	-0,233	-0,156
152,502	-75,866	-0,368	-0,090
153,516	115,420	-0,258	-0,219
154,531	5,113	-0,319	-0,163
155,546	6,885	-0,273	-0,141
156,560	29,380	-0,311	-0,183
157,575	66,341	-0,136	-0,096
158,589	-29,418	-0,278	-0,110
159,604	123,937	-0,272	-0,237
160,619	54,817	-0,205	-0,137
161,633	-50,096	-0,367	-0,120
162,648	313,768	-0,175	-0,230
163,662	-55,914	-0,115	0,035
164,677	-90,004	-0,128	-0,026
165,692	37,580	-0,155	-0,095
166,706	267,261	-0,169	-0,205
167,721	-126,939	-0,332	-0,033
168,735	479,334	-0,199	-0,314
169,750	328,026	-0,152	-0,203
170,764	199,460	-0,194	-0,207
171,779	12,603	-0,282	-0,151
172,794	283,253	-0,193	-0,241
173,808	-78,684	-0,286	-0,067
174,823	33,735	-0,204	-0,123
175,837	-33,727	-0,120	-0,046
176,852	-85,447	-0,391	-0,084
177,867	55,458	-0,183	-0,123
178,881	73,854	-0,216	-0,157
179,896	-52,230	-0,157	-0,050
180,910	-8,589	-0,194	-0,090
181,925	48,037	-0,229	-0,148
182,940	341,004	-0,197	-0,267
183,954	-76,314	-0,229	-0,056
184,969	126,882	-0,239	-0,210
185,983	100,847	-0,121	-0,098
186,998	13,297	-0,119	-0,064
188,013	81,334	-0,200	-0,150
189,027	-82,707	-0,208	-0,046
190,042	15,410	-0,322	-0,175
191,056	6,289	-0,357	-0,183
192,071	-35,289	-0,272	-0,102
193,086	-43,268	-0,242	-0,084
194,100	-59,282	-0,223	-0,066
195,115	647,017	-0,152	-0,270
196,129	194,385	-0,288	-0,302
197,144	26,175	-0,324	-0,187
198,159	142,360	-0,234	-0,215
199,173	79,433	-0,188	-0,140
200,188	46,290	-0,170	-0,109
201,202	28,421	-0,100	-0,059
202,217	-11,248	-0,305	-0,139
203,232	272,265	-0,178	-0,218
204,246	800,000	-0,118	-0,279
205,261	800,000	-0,071	-0,150
206,275	208,000	-0,152	-0,164
207,290	-120,829	-0,134	-0,015
208,304	-63,401	-0,160	-0,045
209,319	411,538	-0,152	-0,224
210,334	84,400	-0,207	-0,156
211,348	-67,863	-0,164	-0,044
212,363	102,732	-0,173	-0,140
213,377	93,383	-0,257	-0,201
214,392	63,715	-0,265	-0,184
215,407	477,755	-0,079	-0,124
216,421	800,000	-0,096	-0,236
217,436	126,897	-0,220	-0,193
218,450	18,954	-0,237	-0,131
219,465	69,703	-0,172	-0,123
220,480	-159,320	-0,190	0,007
221,494	-153,604	-0,280	-0,013
222,509	22,048	-0,259	-0,146
223,523	50,808	-0,133	-0,087
224,538	50,816	-0,176	-0,115
225,553	36,408	-0,202	-0,123
226,567	-99,617	-0,288	-0,049
227,582	123,803	-0,221	-0,192
228,596	100,266	-0,094	-0,075
229,611	-175,845	-0,104	-0,002
230,626	-44,725	-0,203	-0,070
231,640	-101,637	-0,388	-0,064
232,655	472,926	-0,137	-0,214
233,669	238,335	-0,199	-0,228
234,684	731,674	-0,150	-0,279
235,699	35,184	-0,128	-0,077
236,713	-71,207	-0,321	-0,083
237,728	191,111	-0,170	-0,177
238,742	173,753	-0,232	-0,231
239,757	78,172	-0,187	-0,138
240,772	55,003	-0,197	-0,131
241,786	44,972	-0,174	-0,110
242,801	-12,551	-0,281	-0,126
243,815	-12,079	-0,158	-0,071
244,830	50,843	-0,215	-0,140
245,844	613,511	-0,119	-0,206
246,859	77,199	-0,178	-0,130
247,874	320,723	-0,145	-0,190
248,888	101,233	-0,176	-0,141
249,903	-74,907	-0,264	-0,065
250,917	-200,000	-0,026	-0,087
251,932	-34,381	-0,102	0,039
252,947	-7,900	-0,225	-0,104
253,961	406,572	-0,174	-0,254
254,976	368,457	-0,084	-0,118
255,990	-20,644	-0,262	-0,110
257,005	16,950	-0,208	-0,113
258,020	-103,732	-0,175	-0,028
259,034	-200,000	-0,032	-0,113
260,049	-109,207	-0,258	-0,037
261,063	28,707	-0,183	-0,106
262,078	-94,482	-0,145	-0,027
263,093	-136,618	-0,245	-0,019
264,107	681,485	-0,063	-0,114
265,122	-64,067	-0,227	-0,063
266,136	-89,425	-0,071	0,014
267,151	12,348	-0,142	-0,075
268,166	32,640	-0,168	-0,100
269,180	313,964	-0,141	-0,183
270,195	4,532	-0,268	-0,135
271,209	-58,245	-0,165	0,049
272,224	527,814	-0,065	-0,106
273,239	351,475	-0,167	-0,228
274,253	-4,620	-0,022	-0,011
275,268	-83,930	-0,204	-0,044
276,282	83,024	-0,153	-0,114
277,297	57,902	-0,303	-0,204
278,312	6,026	-0,248	-0,126
279,326	-200,000	-0,044	-0,165
280,341	407,078	-0,176	-0,256
281,355	-64,718	-0,092	-0,025
282,370	324,177	-0,097	-0,128
283,384	219,182	-0,153	-0,169
284,399	123,891	-0,150	-0,130
285,414	288,008	-0,135	-0,169
286,428	-59,728	-0,330	-0,096
287,443	163,143	-0,028	0,027
288,457	102,607	-0,125	-0,100
289,472	95,772	-0,185	-0,145
290,487	-70,281	-0,201	-0,052
291,501	325,583	-0,102	-0,135
292,516	-21,217	-0,258	-0,108
293,530	-64,270	-0,076	-0,021
294,545	800,000	-0,032	0,062
295,560	-162,024	-0,088	0,003
296,574	145,027	-0,122	-0,112
297,589	242,787	-0,091	-0,105
298,603	66,903	-0,125	-0,087
299,618	96,230	-0,215	-0,169
300,633	172,331	-0,104	-0,103
301,647	-174,419	-0,094	0,002
302,662	-114,877	-0,172	-0,022
303,676	427,852	-0,049	0,073
304,691	-4,229	-0,130	-0,062
305,706	-70,302	-0,122	-0,032
306,720	124,872	-0,165	-0,142
307,735	-129,456	-0,189	-0,018
308,749	-20,575	-0,076	0,032
309,764	-200,000	-0,046	-0,153
310,779	-96,134	-0,206	0,037
311,793	165,207	-0,138	-0,134
312,808	-34,037	-0,143	-0,054
313,822	-28,587	-0,319	-0,125
314,837	212,757	-0,141	-0,153
315,852	2,336	0,021	0,010
316,866	-77,520	-0,125	-0,030
317,881	-100,776	-0,167	-0,028
318,895	-119,939	-0,143	-0,017
319,910	-17,706	-0,231	-0,099
320,925	-32,924	-0,210	-0,080
321,939	346,118	-0,083	-0,112
322,954	138,737	-0,146	-0,131
323,968	120,897	-0,094	0,080
324,983	-200,000	-0,019	-0,116
325,997	158,497	-0,090	-0,086
327,012	219,838	-0,111	-0,121
328,027	-156,143	-0,157	0,007
329,041	279,149	-0,175	-0,215
330,056	181,815	-0,103	-0,104
331,070	272,983	-0,101	-0,122
332,085	693,046	-0,055	-0,100
333,100	-75,689	-0,079	-0,019
334,114	674,991	-0,100	-0,179
335,129	800,000	-0,063	-0,127
336,143	-200,000	0,009	0,036
337,158	-200,000	0,018	-0,073
338,173	-97,305	-0,131	-0,023
339,187	-38,418	-0,130	-0,047
340,202	-200,000	-0,013	-0,142
341,216	95,036	-0,126	-0,098
342,231	-200,000	-0,037	-0,146
343,246	303,965	-0,100	-0,127
344,260	141,932	-0,172	-0,156
345,275	800,000	-0,115	-0,255
346,289	451,147	-0,034	-0,051
347,304	-125,052	-0,108	-0,011
348,319	-63,071	-0,124	-0,035
349,333	-200,000	-0,096	-0,418
350,348	49,580	-0,148	-0,095
351,362	66,581	-0,096	-0,067
352,377	-200,000	-0,015	0,080
353,392	49,201	-0,066	-0,042
354,406	-200,000	-0,031	-0,095
355,421	206,966	1312,343	1399,451
356,435	159,195	1472,700	1399,887
