DTS Sentinel unit serial number:	SN410029Multiplexer serial number:	ORYXHardware model number:	OX2-SRSoftware version number:	ORYX F/W v4,00 Oryx Data Collector v3.7.2.0data status	okinstallation	B3 Nyhavnadifferential loss correction	single-endedforward channel	channel 1reverse channel	N/Adate	2023/11/29time	02:22:30forward acquisition time	300,00reverse acquisition time	0,00gamma	499,1914k internal	0,3211k external	0,3211temperature offset calibration	1,0000default loss term (dB/km)	0,3820temperature slope calibration	1,0000multiplexer offset coefficient	1,0000multiplexer slope coefficient	1,0000fibre end	0,00T internal ref (°C)	9,61T ext. ref 1 (°C)	-5,57T ext. ref 2 (°C)	-5,70length (m)	temperature (°C)	Stokes	anti-Stokes-744,400	158,212	-0,248	-0,250
-743,385	-200,000	0,044	0,311
-742,371	-200,000	0,009	-0,247
-741,356	800,000	-0,115	0,283
-740,342	236,174	-0,140	-0,168
-739,327	800,000	-0,047	0,146
-738,312	322,381	-0,274	-0,380
-737,298	-200,000	-0,006	0,094
-736,283	800,000	-0,056	-0,147
-735,269	-200,000	0,036	0,286
-734,254	-134,187	-0,191	-0,017
-733,239	-128,083	-0,173	-0,018
-732,225	800,000	-0,137	-0,280
-731,210	-34,183	0,167	0,066
-730,196	186,429	-0,030	-0,033
-729,181	544,304	-0,097	-0,168
-728,167	-76,161	0,059	-0,015
-727,152	-150,564	-0,092	-0,005
-726,137	528,719	0,047	-0,081
-725,123	63,876	-0,056	-0,041
-724,108	800,000	-0,053	-0,115
-723,094	-200,000	-0,006	-0,065
-722,079	-12,025	0,068	0,032
-721,064	-200,000	0,000	-0,061
-720,050	-17,286	0,084	0,038
-719,035	630,195	-0,066	0,122
-718,021	99,330	-0,049	0,041
-717,006	-117,543	-0,181	0,023
-715,991	52,669	-0,027	0,019
-714,977	-9,401	0,037	-0,018
-713,962	800,000	-0,030	-0,091
-712,948	-53,907	-0,087	-0,028
-711,933	-200,000	-0,011	-0,166
-710,918	-198,172	-0,013	0,000
-709,904	-200,000	-0,018	-0,071
-708,889	191,090	-0,066	0,072
-707,875	800,000	-0,043	0,093
-706,860	-200,000	0,015	0,064
-705,845	421,673	0,042	-0,066
-704,831	-200,000	-0,003	0,067
-703,816	-59,676	0,165	0,051
-702,802	339,161	0,027	0,038
-701,787	5,473	-0,237	-0,126
-700,772	95,159	-0,107	0,088
-699,758	-52,328	-0,044	0,015
-698,743	-61,800	0,018	0,005
-697,729	299,529	-0,041	0,055
-696,714	800,000	0,071	0,162
-695,699	343,099	-0,056	0,079
-694,685	-200,000	-0,020	-0,064
-693,670	-200,000	0,030	0,192
-692,656	344,528	0,089	0,127
-691,641	-13,888	-0,097	-0,045
-690,627	-112,790	-0,014	-0,002
-689,612	-200,000	-0,013	0,099
-688,597	-8,978	-0,092	0,044
-687,583	204,362	-0,057	-0,064
-686,568	266,360	0,040	0,050
-685,554	208,696	-0,004	-0,005
-684,539	-77,156	0,071	0,018
-683,524	-156,933	-0,147	-0,006
-682,510	-136,293	0,033	-0,003
-681,495	-188,117	-0,229	-0,002
-680,481	-149,572	-0,099	-0,006
-679,466	-46,477	0,099	-0,035
-678,451	-54,666	-0,146	-0,047
-677,437	-200,000	-0,011	-0,123
-676,422	-200,000	-0,000	-0,042
-675,408	12,103	0,103	0,057
-674,393	508,949	-0,037	0,062
-673,378	800,000	-0,048	-0,098
-672,364	-60,312	-0,021	-0,006
-671,349	-14,713	-0,046	-0,021
-670,335	-43,289	-0,141	-0,051
-669,320	265,509	0,059	-0,075
-668,305	277,044	-0,067	0,086
-667,291	-180,219	0,234	-0,003
-666,276	264,587	-0,068	-0,086
-665,262	183,628	-0,109	-0,116
-664,247	64,958	-0,098	-0,071
-663,232	-200,000	-0,001	-0,074
-662,218	-200,000	-0,007	-0,078
-661,203	244,461	0,125	-0,152
-660,189	-82,626	-0,043	-0,010
-659,174	-50,105	-0,030	0,010
-658,159	800,000	0,015	-0,037
-657,145	-200,000	0,035	-0,189
-656,130	-200,000	0,010	-0,036
-655,116	295,046	0,075	-0,100
-654,101	-40,886	0,080	-0,030
-653,086	-154,596	-0,173	0,008
-652,072	183,289	0,057	0,060
-651,057	15,187	-0,106	-0,060
-650,043	-200,000	-0,029	-0,119
-649,028	-26,050	-0,020	0,008
-648,014	154,305	0,069	-0,068
-646,999	236,898	0,035	0,042
-645,984	197,453	0,057	0,063
-644,970	-135,784	-0,118	-0,010
-643,955	800,000	-0,037	0,098
-642,941	-80,552	-0,087	0,021
-641,926	394,073	-0,056	-0,084
-640,911	-14,628	0,026	0,012
-639,897	386,327	0,012	0,018
-638,882	375,222	0,085	0,126
-637,868	-5,018	0,101	-0,050
-636,853	180,519	-0,132	-0,140
-635,838	181,901	-0,052	0,056
-634,824	79,991	-0,003	-0,002
-633,809	713,138	0,015	0,029
-632,795	-141,189	0,156	-0,011
-631,780	-97,341	-0,129	-0,024
-630,765	7,535	0,107	-0,058
-629,751	-200,000	0,026	-0,121
-628,736	-200,000	0,013	-0,092
-627,722	-191,598	-0,023	0,000
-626,707	572,822	-0,065	0,116
-625,692	-39,256	0,033	0,012
-624,678	800,000	0,051	0,116
-623,663	-200,000	0,017	-0,153
-622,649	-98,769	-0,108	-0,020
-621,634	-122,922	-0,194	-0,022
-620,619	342,521	-0,054	-0,077
-619,605	390,711	0,033	-0,049
-618,590	-120,735	-0,170	0,021
-617,576	644,819	0,042	-0,078
-616,561	46,860	0,053	-0,035
-615,546	416,748	0,047	-0,073
-614,532	-174,298	-0,143	-0,003
-613,517	184,804	0,058	-0,062
-612,503	100,246	-0,066	0,055
-611,488	-200,000	0,012	0,125
-610,474	-40,406	0,078	0,029
-609,459	-72,228	0,118	-0,031
-608,444	-138,935	-0,110	0,009
-607,430	184,317	0,011	0,011
-606,415	-200,000	0,034	-0,125
-605,401	-200,000	0,017	-0,096
-604,386	-200,000	-0,028	0,121
-603,371	-200,000	0,009	0,066
-602,357	-77,126	-0,017	-0,004
-601,342	-200,000	0,017	0,085
-600,328	573,215	0,031	0,055
-599,313	-134,624	0,049	0,004
-598,298	-75,620	-0,100	0,025
-597,284	800,000	0,038	-0,117
-596,269	-200,000	0,008	0,047
-595,255	-24,412	0,119	0,051
-594,240	800,000	-0,033	-0,106
-593,225	-200,000	-0,010	-0,126
-592,211	-200,000	0,013	0,094
-591,196	666,929	0,050	0,094
-590,182	788,265	0,040	0,080
-589,167	751,582	0,109	0,214
-588,152	-17,591	0,124	0,056
-587,138	64,761	-0,088	-0,064
-586,123	-200,000	-0,004	0,084
-585,109	-36,924	0,029	-0,011
-584,094	74,386	-0,035	0,026
-583,079	800,000	0,011	-0,024
-582,065	-23,448	0,124	-0,053
-581,050	297,477	-0,094	0,125
-580,036	248,509	-0,048	-0,059
-579,021	-200,000	0,022	-0,082
-578,006	-91,051	-0,079	0,016
-576,992	-22,012	-0,159	0,069
-575,977	230,612	0,033	-0,039
-574,963	-24,014	0,119	0,051
-573,948	-44,552	-0,052	0,019
-572,934	461,061	0,040	-0,064
-571,919	66,190	0,021	0,015
-570,904	-17,573	-0,105	-0,047
-569,890	28,725	-0,104	-0,063
-568,875	-200,000	0,112	0,000
-567,861	89,188	0,077	0,062
-566,846	516,050	-0,042	0,071
-565,831	166,017	-0,056	-0,057
-564,817	159,048	-0,090	-0,090
-563,802	323,159	-0,025	-0,035
-562,788	767,705	0,016	0,032
-561,773	157,654	-0,040	0,040
-560,758	-149,440	0,034	-0,002
-559,744	46,396	0,009	-0,006
-558,729	465,085	-0,044	-0,071
-557,715	82,835	-0,093	0,073
-556,700	-133,636	0,047	0,004
-555,685	-52,996	-0,132	-0,043
-554,671	158,609	0,102	-0,102
-553,656	129,479	0,064	0,058
-552,642	-200,000	-0,007	0,035
-551,627	-1,665	0,104	-0,053
-550,612	-157,588	-0,068	-0,003
-549,598	-146,015	0,028	-0,002
-548,583	800,000	0,027	0,074
-547,569	47,819	-0,055	0,037
-546,554	139,739	-0,085	-0,080
-545,539	-157,727	0,029	-0,001
-544,525	-200,000	0,005	-0,018
-543,510	32,257	-0,049	-0,030
-542,496	1,207	-0,105	-0,054
-541,481	346,993	0,068	-0,096
-540,466	-73,291	0,075	0,020
-539,452	-200,000	-0,017	-0,080
-538,437	141,895	0,169	0,161
-537,423	224,821	0,059	-0,068
-536,408	117,095	-0,031	-0,028
-535,393	639,704	-0,119	-0,219
-534,379	-20,907	0,008	-0,004
-533,364	53,194	-0,062	0,043
-532,350	719,960	-0,025	0,047
-531,335	-200,000	-0,014	0,197
-530,321	307,660	0,095	-0,127
-529,306	148,664	-0,050	0,048
-528,291	800,000	-0,026	0,054
-527,277	-133,327	-0,029	-0,003
-526,262	-73,598	-0,036	0,009
-525,248	668,780	0,067	-0,124
-524,233	203,627	0,118	-0,132
-523,218	-48,698	-0,043	0,015
-522,204	-77,877	0,033	-0,008
-521,189	678,984	-0,027	-0,051
-520,175	91,095	-0,078	-0,063
-519,160	-96,838	-0,082	0,015
-518,145	-200,000	-0,030	0,222
-517,131	-200,000	-0,007	-0,110
-516,116	-200,000	-0,016	0,094
-515,102	79,862	-0,050	0,038
-514,087	-120,804	-0,147	-0,018
-513,072	250,495	-0,073	-0,089
-512,058	-128,821	0,032	-0,003
-511,043	-84,013	-0,040	0,009
-510,029	-200,000	0,016	0,082
-509,014	122,094	-0,029	0,026
-507,999	-102,315	-0,164	-0,028
-506,985	-26,349	0,146	-0,061
-505,970	-200,000	0,015	-0,094
-504,956	-80,162	-0,053	-0,013
-503,941	800,000	-0,020	-0,055
-502,926	204,222	-0,018	-0,020
-501,912	16,067	-0,058	-0,033
-500,897	-64,063	0,129	-0,038
-499,883	-33,213	-0,137	-0,054
-498,868	47,968	-0,065	-0,043
-497,853	211,120	0,032	0,036
-496,839	10,725	0,085	0,046
-495,824	800,000	0,019	-0,043
-494,810	-200,000	-0,007	0,026
-493,795	33,575	0,080	-0,050
-492,781	-97,220	-0,052	0,010
-491,766	-200,000	0,050	0,000
-490,751	297,813	-0,059	0,078
-489,737	-200,000	-0,002	-0,027
-488,722	-105,015	0,119	0,019
-487,708	336,468	0,034	0,047
-486,693	-21,084	-0,100	0,044
-485,678	413,848	-0,107	-0,165
-484,664	56,332	-0,126	0,088
-483,649	27,459	-0,087	0,052
-482,635	12,050	-0,137	0,075
-481,620	-200,000	-0,001	0,125
-480,605	522,405	0,053	0,090
-479,591	92,207	-0,052	0,042
-478,576	-200,000	-0,019	-0,076
-477,562	186,440	0,014	0,015
-476,547	-51,144	0,040	-0,013
-475,532	-140,415	0,046	-0,003
-474,518	152,111	-0,061	-0,060
-473,503	111,471	0,040	0,035
-472,489	-85,359	-0,022	0,005
-471,474	800,000	0,033	-0,076
-470,459	-200,000	0,025	-0,233
-469,445	55,581	-0,132	-0,092
-468,430	800,000	-0,026	-0,080
-467,416	-200,000	-0,026	0,147
-466,401	-15,753	0,081	-0,037
-465,386	-53,088	0,121	0,040
-464,372	-94,473	-0,139	0,027
-463,357	-200,000	0,006	-0,075
-462,343	800,000	-0,065	-0,154
-461,328	-11,677	0,052	-0,024
-460,313	145,460	0,061	-0,058
-459,299	-112,292	0,044	-0,006
-458,284	-57,981	0,032	0,010
-457,270	28,061	0,078	-0,047
-456,255	220,593	-0,053	0,061
-455,241	149,057	0,059	0,057
-454,226	-117,145	0,047	0,006
-453,211	-200,000	-0,033	0,104
-452,197	21,905	0,030	0,018
-451,182	172,106	0,031	-0,031
-450,168	-200,000	-0,010	0,034
-449,153	800,000	-0,028	0,079
-448,138	106,000	-0,008	0,007
-447,124	-200,000	0,014	-0,079
-446,109	195,218	-0,093	0,101
-445,095	291,658	0,053	0,069
-444,080	-68,479	-0,037	0,010
-443,065	-19,993	0,240	0,106
-442,051	-80,729	-0,048	-0,011
-441,036	-200,000	0,000	-0,005
-440,022	-200,000	-0,025	0,102
-439,007	254,323	-0,039	-0,048
-437,992	138,742	0,079	-0,075
-436,978	-152,355	0,103	0,005
-435,963	800,000	-0,012	-0,030
-434,949	-79,547	-0,093	0,022
-433,934	-200,000	0,001	-0,054
-432,919	174,742	-0,058	-0,060
-431,905	22,198	-0,054	0,032
-430,890	65,893	-0,025	-0,018
-429,876	14,500	0,049	0,028
-428,861	118,165	-0,027	0,023
-427,846	379,971	0,055	-0,081
-426,832	800,000	0,006	0,014
-425,817	114,071	-0,108	0,094
-424,803	128,351	-0,081	0,073
-423,788	-146,622	0,103	-0,006
-422,773	107,990	-0,090	0,077
-421,759	-144,771	0,222	0,014
-420,744	452,179	-0,082	-0,130
-419,730	55,932	0,082	-0,057
-418,715	94,111	-0,096	-0,078
-417,701	4,691	-0,016	0,008
-416,686	42,705	-0,077	-0,050
-415,671	800,000	0,086	0,187
-414,657	-200,000	0,004	0,127
-413,642	482,251	0,049	0,080
-412,628	-86,891	0,064	-0,014
-411,613	-200,000	0,006	-0,049
-410,598	800,000	-0,074	-0,178
-409,584	-147,669	-0,020	-0,001
-408,569	22,926	0,133	0,078
-407,555	-42,439	-0,123	0,044
-406,540	240,352	-0,036	-0,043
-405,525	54,026	-0,124	-0,085
-404,511	-200,000	-0,013	-0,110
-403,496	520,290	0,014	0,024
-402,482	-19,051	0,076	-0,034
-401,467	729,107	0,045	0,086
-400,452	745,540	-0,047	-0,090
-399,438	-200,000	0,029	0,159
-398,423	369,042	-0,034	-0,050
-397,409	-145,568	-0,142	-0,009
-396,394	-200,000	-0,024	0,139
-395,379	245,075	0,052	0,063
-394,365	169,826	-0,048	-0,049
-393,350	68,769	-0,037	0,027
-392,336	-92,367	-0,088	-0,018
-391,321	29,441	0,020	-0,012
-390,306	-200,000	0,006	-0,060
-389,292	-72,602	0,118	-0,031
-388,277	-174,336	-0,126	-0,003
-387,263	800,000	-0,009	-0,027
-386,248	101,406	-0,035	-0,029
-385,233	800,000	-0,047	0,134
-384,219	800,000	-0,053	0,117
-383,204	4,433	-0,092	-0,048
-382,190	107,377	-0,059	-0,050
-381,175	800,000	-0,052	-0,120
-380,160	83,831	0,151	-0,118
-379,146	-66,716	-0,043	-0,012
-378,131	-9,930	0,057	0,027
-377,117	-200,000	0,000	0,026
-376,102	65,701	0,115	-0,084
-375,088	800,000	-0,016	-0,044
-374,073	-16,719	0,089	0,040
-373,058	-47,306	-0,076	-0,026
-372,044	466,287	0,037	-0,059
-371,029	122,690	0,089	0,079
-370,015	-200,000	-0,009	0,114
-369,000	-119,896	-0,117	-0,014
-367,985	800,000	-0,020	0,040
-366,971	-21,079	-0,083	-0,036
-365,956	193,056	0,088	0,095
-364,942	800,000	0,075	0,157
-363,927	-104,173	0,053	0,009
-362,912	800,000	0,015	-0,040
-361,898	-200,000	0,012	-0,096
-360,883	667,689	0,055	-0,103
-359,869	-42,393	0,060	0,022
-358,854	-200,000	-0,011	0,072
-357,839	151,072	0,035	0,034
-356,825	-182,782	-0,198	-0,002
-355,810	-150,421	0,165	-0,009
-354,796	672,092	-0,030	0,057
-353,781	140,657	-0,078	-0,074
-352,766	-71,550	0,071	0,019
-351,752	-51,667	0,138	-0,046
-350,737	196,334	-0,011	0,012
-349,723	-200,000	0,002	0,035
-348,708	800,000	0,013	0,027
-347,693	800,000	-0,056	0,149
-346,679	223,807	-0,035	-0,040
-345,664	604,318	-0,061	-0,108
-344,650	-200,000	0,020	-0,154
-343,635	54,296	-0,055	-0,038
-342,620	-50,472	-0,059	-0,020
-341,606	-200,000	-0,004	0,141
-340,591	-200,000	-0,002	-0,063
-339,577	46,619	-0,049	0,032
-338,562	-121,949	-0,174	0,020
-337,548	-200,000	-0,007	0,125
-336,533	39,036	0,049	0,031
-335,518	-130,572	0,012	-0,001
-334,504	-143,791	0,086	0,006
-333,489	-129,472	0,129	0,013
-332,475	-200,000	-0,025	-0,182
-331,460	-22,818	0,108	0,046
-330,445	800,000	0,029	0,075
-329,431	399,809	-0,038	0,058
-328,416	-72,416	0,121	0,032
-327,402	102,434	-0,077	0,064
-326,387	-5,247	-0,066	0,032
-325,372	-200,000	-0,003	0,100
-324,358	-200,000	-0,002	-0,100
-323,343	-46,845	-0,099	0,034
-322,329	-200,000	0,018	0,113
-321,314	-200,000	-0,023	0,126
-320,299	800,000	-0,038	0,099
-319,285	27,034	-0,091	-0,054
-318,270	111,226	0,037	-0,032
-317,256	-142,514	-0,112	-0,008
-316,241	-200,000	-0,002	-0,076
-315,226	-7,790	-0,158	0,076
-314,212	-71,467	0,113	-0,030
-313,197	112,314	-0,036	0,031
-312,183	-200,000	0,022	0,172
-311,168	44,050	-0,065	-0,043
-310,153	185,891	-0,073	-0,078
-309,139	-93,212	-0,182	-0,036
-308,124	158,249	0,132	-0,131
-307,110	-18,378	0,065	-0,029
-306,095	-200,000	-0,067	0,216
-305,080	108,352	0,068	-0,058
-304,066	252,469	0,092	-0,113
-303,051	711,786	0,044	-0,084
-302,037	-200,000	0,020	-0,093
-301,022	182,380	0,119	0,125
-300,008	131,480	0,124	-0,113
-298,993	713,588	-0,061	0,115
-297,978	-200,000	-0,015	0,118
-296,964	94,039	-0,071	-0,057
-295,949	-153,517	0,103	-0,005
-294,935	-6,333	-0,170	-0,082
-293,920	-53,035	0,060	-0,020
-292,905	800,000	0,015	-0,036
-291,891	29,543	0,087	0,052
-290,876	-200,000	-0,006	-0,105
-289,862	58,817	0,048	-0,033
-288,847	-89,743	-0,086	0,018
-287,832	-79,486	-0,119	0,028
-286,818	735,485	-0,051	-0,097
-285,803	658,462	0,020	0,037
-284,789	-200,000	-0,010	0,161
-283,774	638,202	0,027	-0,050
-282,759	-200,000	0,027	0,092
-281,745	217,306	0,081	-0,092
-280,730	-200,000	0,014	-0,107
-279,716	-141,634	-0,079	0,006
-278,701	-11,257	-0,035	0,016
-277,686	523,885	0,063	0,106
-276,672	31,191	-0,060	0,037
-275,657	227,626	-0,045	0,053
-274,643	-119,281	-0,045	-0,006
-273,628	351,268	0,049	-0,069
-272,613	-3,347	0,069	0,034
-271,599	-108,033	0,090	0,014
-270,584	-88,620	0,130	0,027
-269,570	800,000	-0,036	-0,096
-268,555	-200,000	-0,020	-0,088
-267,540	26,811	0,047	-0,028
-266,526	800,000	0,041	-0,119
-265,511	62,577	0,103	-0,073
-264,497	800,000	-0,059	0,161
-263,482	-56,075	0,048	0,015
-262,467	390,830	0,063	0,093
-261,453	37,334	-0,184	-0,116
-260,438	-200,000	0,021	0,076
-259,424	-31,697	-0,042	0,017
-258,409	-200,000	-0,001	-0,137
-257,395	-89,344	-0,102	0,021
-256,380	103,841	0,116	0,097
-255,365	521,904	0,060	0,101
-254,351	197,691	-0,111	-0,121
-253,336	292,039	-0,027	0,035
-252,322	-114,076	0,016	-0,002
-251,307	-24,288	0,047	-0,020
-250,292	82,966	-0,034	0,026
-249,278	21,496	0,140	0,081
-248,263	448,354	0,019	-0,030
-247,249	-200,000	0,011	-0,057
-246,234	105,224	-0,087	0,073
-245,219	-27,739	0,051	-0,021
-244,205	429,612	0,081	-0,125
-243,190	-109,545	-0,082	-0,012
-242,176	113,898	0,111	-0,096
-241,161	189,164	0,068	-0,073
-240,146	-31,545	0,149	0,059
-239,132	-200,000	0,006	0,027
-238,117	-72,430	-0,056	0,015
-237,103	374,724	-0,066	-0,095
-236,088	618,992	0,017	-0,031
-235,073	205,098	-0,054	-0,060
-234,059	101,339	0,095	0,078
-233,044	-140,314	-0,020	0,002
-232,030	303,465	-0,086	0,114
-231,015	-200,000	0,007	-0,101
-230,000	-116,100	-0,025	0,003
-228,986	-26,862	0,010	-0,004
-227,971	800,000	0,010	0,026
-226,957	800,000	-0,027	0,069
-225,942	-102,852	-0,076	0,013
-224,927	-95,801	0,087	0,016
-223,913	-200,000	-0,010	0,033
-222,898	165,455	0,125	0,126
-221,884	-200,000	-0,001	-0,010
-220,869	-66,508	0,077	0,021
-219,855	-24,122	0,074	-0,031
-218,840	800,000	-0,025	0,061
-217,825	-92,748	-0,086	-0,017
-216,811	800,000	-0,032	-0,096
-215,796	145,627	0,108	-0,103
-214,782	-200,000	-0,001	-0,042
-213,767	83,483	-0,021	-0,016
-212,752	-200,000	0,008	0,043
-211,738	630,468	-0,018	-0,032
-210,723	-200,000	0,004	0,063
-209,709	-200,000	-0,034	-0,144
-208,694	301,825	-0,028	-0,037
-207,679	-63,654	0,126	0,036
-206,665	-80,595	0,151	0,036
-205,650	0,899	-0,135	0,069
-204,636	800,000	0,010	0,021
-203,621	800,000	0,027	0,060
-202,606	-200,000	0,017	-0,064
-201,592	-137,938	-0,066	-0,005
-200,577	-185,215	-0,140	0,002
-199,563	-58,947	-0,142	-0,043
-198,548	457,851	0,103	0,163
-197,533	-200,000	-0,007	-0,060
-196,519	249,563	-0,056	0,068
-195,504	191,701	0,086	-0,092
-194,490	-71,779	-0,074	-0,019
-193,475	800,000	-0,038	-0,093
-192,460	-184,177	0,114	-0,001
-191,446	-92,313	0,085	0,017
-190,431	206,199	0,067	0,074
-189,417	31,886	0,092	0,056
-188,402	-105,723	-0,058	-0,009
-187,387	95,490	0,088	-0,071
-186,373	52,951	-0,045	-0,031
-185,358	-113,360	0,139	0,019
-184,344	10,275	0,065	-0,035
-183,329	112,350	0,036	0,031
-182,315	-200,000	0,011	0,038
-181,300	352,424	-0,051	0,072
-180,285	130,105	0,122	-0,111
-179,271	-200,000	0,034	0,115
-178,256	231,801	0,053	0,062
-177,242	-3,391	0,059	0,029
-176,227	112,085	0,038	0,032
-175,212	800,000	-0,018	0,049
-174,198	149,738	0,040	0,039
-173,183	-200,000	-0,019	-0,129
-172,169	-200,000	-0,030	-0,106
-171,154	800,000	-0,071	0,195
-170,139	-68,733	0,090	-0,025
-169,125	800,000	0,060	0,123
-168,110	145,031	0,089	0,084
-167,096	52,349	-0,033	0,022
-166,081	-106,217	-0,110	-0,017
-165,066	800,000	-0,077	-0,166
-164,052	256,866	0,090	-0,109
-163,037	800,000	0,019	-0,055
-162,023	-200,000	-0,006	0,053
-161,008	-200,000	-0,014	0,140
-159,993	-200,000	-0,010	0,039
-158,979	46,834	-0,086	-0,056
-157,964	2,067	0,154	0,079
-156,950	177,761	-0,064	-0,066
-155,935	800,000	0,033	-0,104
-154,920	-59,909	0,084	0,025
-153,906	800,000	0,021	0,042
-152,891	800,000	0,018	0,052
-151,877	-6,721	-0,062	-0,030
-150,862	86,448	0,051	-0,040
-149,847	202,599	-0,082	-0,090
-148,833	53,778	0,086	0,059
-147,818	800,000	-0,021	0,061
-146,804	-49,461	0,151	-0,051
-145,789	472,347	0,095	0,152
-144,775	236,791	0,028	-0,033
-143,760	-200,000	0,003	-0,166
-142,745	-39,512	-0,167	0,062
-141,731	-200,000	-0,002	-0,008
-140,716	428,933	0,024	0,037
-139,702	-200,000	0,005	0,093
-138,687	-68,917	0,088	0,024
-137,672	-176,950	-0,081	-0,001
-136,658	-200,000	-0,014	0,072
-135,643	-98,932	-0,110	-0,020
-134,629	800,000	0,035	0,078
-133,614	800,000	0,053	0,156
-132,599	360,136	0,070	0,100
-131,585	305,671	-0,192	0,254
-130,570	19,154	-0,037	0,021
-129,556	-182,336	-0,077	-0,001
-128,541	-70,906	0,030	-0,008
-127,526	58,411	0,030	-0,021
-126,512	258,917	0,054	0,066
-125,497	-121,644	0,109	0,013
-124,483	110,479	-0,134	0,114
-123,468	-167,987	0,024	-0,001
-122,453	13,717	-0,090	-0,050
-121,439	16,476	-0,092	-0,051
-120,424	52,273	0,057	-0,039
-119,410	-61,913	0,112	-0,033
-118,395	9,065	0,080	-0,043
-117,380	-53,916	0,236	0,076
-116,366	-200,000	0,005	0,020
-115,351	133,118	-0,051	0,047
-114,337	-200,000	-0,011	-0,041
-113,322	357,201	-0,068	0,096
-112,307	5,291	-0,107	0,056
-111,293	-28,074	0,119	-0,048
-110,278	-134,827	-0,094	-0,008
-109,264	-200,000	-0,036	-0,113
-108,249	52,801	-0,050	0,034
-107,234	-41,070	-0,044	0,016
-106,220	-200,000	-0,025	-0,095
-105,205	143,967	0,088	0,083
-104,191	-27,030	-0,016	-0,007
-103,176	224,066	0,082	-0,094
-102,162	-200,000	-0,005	-0,019
-101,147	-200,000	-0,030	-0,102
-100,132	170,200	-0,115	-0,117
-99,118	-127,184	-0,026	0,003
-98,103	720,957	0,059	0,112
-97,089	91,016	0,046	-0,037
-96,074	-200,000	-0,011	-0,066
-95,059	225,334	0,130	0,149
-94,045	52,379	-0,085	0,057
-93,030	800,000	0,054	-0,124
-92,016	139,567	0,078	-0,073
-91,001	-200,000	-0,031	-0,111
-89,986	800,000	0,041	0,094
-88,972	572,839	0,019	0,033
-87,957	204,064	0,026	0,028
-86,943	638,723	-0,059	0,106
-85,928	-200,000	-0,014	-0,163
-84,913	800,000	0,020	-0,046
-83,899	-43,447	-0,108	0,038
-82,884	800,000	-0,069	-0,158
-81,870	314,219	0,067	-0,089
-80,855	277,251	-0,043	0,054
-79,840	47,839	0,039	0,026
-78,826	-200,000	0,012	-0,133
-77,811	-52,748	0,035	-0,011
-76,797	-43,096	-0,062	-0,022
-75,782	-200,000	0,006	0,146
-74,767	800,000	0,045	0,120
-73,753	800,000	-0,129	0,274
-72,738	-33,979	0,107	-0,041
-71,724	-200,000	0,022	-0,092
-70,709	63,390	0,110	-0,078
-69,694	127,876	0,019	-0,017
-68,680	-200,000	0,004	0,046
-67,665	1,286	-0,074	0,037
-66,651	-139,301	-0,072	0,005
-65,636	-99,856	-0,142	0,025
-64,622	206,010	0,077	-0,084
-63,607	-46,655	0,064	0,022
-62,592	76,237	-0,032	0,024
-61,578	-200,000	0,052	0,177
-60,563	-150,786	-0,082	0,004
-59,549	243,843	-0,115	0,137
-58,534	47,830	-1,966	-1,293
-57,519	535,156	-1,188	-1,996
-56,505	-200,000	-0,341	-4,329
-55,490	654,548	0,853	1,551
-54,476	800,000	5,150	11,267
-53,461	-200,000	21,520	342,925
-52,446	800,000	762,808	2352,931
-51,432	551,464	1662,510	2827,211
-50,417	72,077	1658,438	1216,749
-49,403	17,458	1531,913	856,428
-48,388	11,473	1455,614	784,872
-47,373	19,333	1447,303	818,020
-46,359	14,973	1436,323	791,088
-45,344	9,712	1432,186	763,762
-44,330	9,652	1430,345	762,466
-43,315	9,638	1428,533	761,404
-42,300	9,705	1426,632	760,676
-41,286	9,709	1425,400	760,009
-40,271	9,626	1424,496	759,104
-39,257	9,682	1423,167	758,633
-38,242	9,706	1422,061	758,124
-37,227	9,652	1420,940	757,241
-36,213	9,691	1419,618	756,688
-35,198	9,701	1418,378	756,047
-34,184	9,729	1417,631	755,752
-33,169	9,655	1416,054	754,531
-32,154	9,709	1414,926	754,155
-31,140	9,677	1413,933	753,444
-30,125	9,721	1412,728	752,979
-29,111	9,739	1411,469	752,365
-28,096	9,694	1410,481	751,594
-27,082	9,585	1409,276	750,412
-26,067	9,622	1408,244	750,008
-25,052	9,644	1407,033	749,436
-24,038	9,658	1406,175	749,012
-23,023	9,654	1405,268	748,483
-22,009	9,680	1404,288	748,051
-20,994	9,657	1403,131	747,301
-19,979	9,659	1402,288	746,832
-18,965	9,559	1401,612	745,976
-17,950	9,633	1400,387	745,635
-16,936	9,575	1399,585	744,909
-15,921	9,527	1398,681	744,176
-14,906	9,564	1397,777	743,840
-13,892	9,593	1396,728	743,386
-12,877	9,559	1395,954	742,783
-11,863	9,584	1395,147	742,442
-10,848	9,532	1394,031	741,579
-9,833	9,455	1393,420	740,868
-8,819	9,456	1392,423	740,313
-7,804	9,444	1391,504	739,738
-6,790	9,464	1390,420	739,227
-5,775	9,511	1389,205	738,769
-4,760	9,480	1388,428	738,180
-3,746	9,482	1387,372	737,600
-2,731	9,482	1386,546	737,132
-1,717	9,455	1385,655	736,506
-0,702	9,443	1384,103	735,597
0,313	13,417	1296,620	707,260
1,327	29,377	687,490	411,060
2,342	45,815	118,710	77,271
3,356	-3,247	16,443	8,052
4,371	-2,172	3,636	1,793
5,386	-22,343	1,039	0,442
6,400	554,402	0,291	0,496
7,415	-28,346	-0,185	-0,075
8,429	-140,903	-0,258	0,018
9,444	-101,858	-0,378	-0,064
10,459	-66,884	-0,235	-0,065
11,473	92,660	-0,242	-0,192
12,488	43,307	-0,270	-0,174
13,502	30,429	-0,256	-0,154
14,517	5,577	-0,371	-0,193
15,531	336,941	-0,271	-0,371
16,546	219,448	-0,318	-0,359
17,561	-10,501	-0,361	-0,168
18,575	30,606	-0,164	-0,098
19,590	84,701	-0,246	-0,189
20,604	-26,616	-0,243	-0,100
21,619	12,216	-0,514	-0,278
22,634	144,367	-0,379	-0,357
23,648	-9,126	-0,543	-0,255
24,663	-44,931	-0,446	-0,155
25,677	27,598	-0,375	-0,222
26,692	73,378	-0,279	-0,205
27,707	11,946	-0,359	-0,194
28,721	187,470	-0,317	-0,333
29,736	18,567	-0,327	-0,184
30,750	16,348	-0,354	-0,196
31,765	60,770	-0,420	-0,292
32,780	106,404	-0,366	-0,305
33,794	231,098	-0,307	-0,354
34,809	15,161	-0,386	-0,212
35,823	113,824	-0,282	-0,241
36,838	346,903	-0,241	-0,334
37,853	58,518	-0,456	-0,314
38,867	177,297	-0,347	-0,356
39,882	93,479	-0,331	-0,263
40,896	130,201	-0,239	-0,215
41,911	-54,374	-0,357	-0,113
42,926	193,841	-0,258	-0,275
43,940	-5,535	-0,379	-0,182
44,955	56,937	-0,382	-0,261
45,969	85,875	-0,329	-0,254
46,984	39,634	-0,436	-0,274
47,999	342,804	-0,207	-0,286
49,013	12,600	-0,233	-0,126
50,028	61,091	-0,351	-0,244
51,042	-25,443	-0,409	-0,169
52,057	27,722	-0,310	-0,183
53,071	22,833	-0,458	-0,263
54,086	-26,161	-0,410	-0,168
55,101	327,385	-0,151	-0,204
56,115	-3,911	-0,331	-0,161
57,130	2,881	-0,310	-0,157
58,144	144,670	-0,253	-0,238
59,159	288,697	-0,263	-0,335
60,174	54,531	-0,532	-0,359
61,188	21,250	-0,346	-0,197
62,203	10,053	-0,347	-0,184
63,217	-47,952	-0,292	-0,098
64,232	-131,770	-0,307	-0,028
65,247	39,325	-0,407	-0,255
66,261	33,462	-0,270	-0,164
67,276	12,982	-0,256	-0,139
68,290	17,885	-0,256	-0,142
69,305	79,517	-0,182	-0,137
70,320	13,503	-0,272	-0,148
71,334	154,803	-0,139	-0,134
72,349	-81,258	-0,309	-0,071
73,363	164,337	-0,343	-0,339
74,378	158,896	-0,244	-0,238
75,393	36,487	-0,271	-0,167
76,407	-14,412	-0,186	-0,084
77,422	56,749	-0,234	-0,159
78,436	-21,345	-0,258	-0,110
79,451	84,695	-0,274	-0,210
80,466	87,664	-0,407	-0,316
81,480	-103,162	-0,306	-0,050
82,495	-34,890	-0,228	-0,087
83,509	189,663	-0,268	-0,282
84,524	35,064	-0,248	-0,152
85,539	-8,949	-0,345	-0,161
86,553	32,155	-0,233	-0,140
87,568	59,872	-0,309	-0,213
88,582	143,887	-0,275	-0,256
89,597	41,272	-0,365	-0,230
90,611	186,914	-0,177	-0,185
91,626	272,693	-0,175	-0,217
92,641	40,546	-0,300	-0,189
93,655	-66,673	-0,221	-0,061
94,670	-52,048	-0,293	-0,095
95,684	800,000	-0,097	-0,269
96,699	5,721	-0,167	-0,086
97,714	89,222	-0,228	-0,177
98,728	194,628	-0,210	-0,223
99,743	126,406	-0,207	-0,183
100,757	149,932	-0,225	-0,214
101,772	165,436	-0,253	-0,250
102,787	104,796	-0,319	-0,263
103,801	370,998	-0,183	-0,260
104,816	-6,962	-0,287	-0,136
105,830	22,377	-0,223	-0,127
106,845	-144,003	-0,286	-0,019
107,860	143,236	-0,190	-0,177
108,874	216,724	-0,125	-0,139
109,889	26,951	-0,248	-0,145
110,903	-45,595	-0,358	-0,123
111,918	85,053	-0,277	-0,212
112,933	99,037	-0,160	-0,129
113,947	38,021	-0,228	-0,141
114,962	-52,511	-0,238	-0,077
115,976	65,526	-0,277	-0,196
116,991	-71,297	-0,176	-0,046
118,006	52,685	-0,346	-0,230
119,020	87,026	-0,224	-0,172
120,035	800,000	-0,140	-0,422
121,049	-15,824	-0,268	-0,119
122,064	84,051	-0,321	-0,245
123,079	229,017	-0,244	-0,278
124,093	267,478	-0,247	-0,302
125,108	89,111	-0,182	-0,141
126,122	89,954	-0,262	-0,204
127,137	272,169	-0,128	-0,157
128,151	-30,480	-0,246	-0,097
129,166	16,000	-0,261	-0,143
130,181	-18,484	-0,254	-0,110
131,195	189,065	-0,279	-0,292
132,210	-41,927	-0,364	-0,129
133,224	208,401	-0,182	-0,199
134,239	-141,023	-0,315	-0,022
135,254	-31,320	-0,191	-0,074
136,268	201,894	-0,190	-0,205
137,283	-5,894	-0,233	-0,111
138,297	13,764	-0,308	-0,167
139,312	157,951	-0,282	-0,272
140,327	164,695	-0,172	-0,169
141,341	666,599	-0,191	-0,345
142,356	65,018	-0,265	-0,186
143,370	645,316	-0,097	-0,173
144,385	202,499	-0,186	-0,201
145,400	119,207	-0,169	-0,146
146,414	228,424	-0,179	-0,203
147,429	179,495	-0,319	-0,326
148,443	60,161	-0,159	-0,109
149,458	100,547	-0,297	-0,240
150,473	23,645	-0,175	-0,100
151,487	-123,488	-0,231	-0,025
152,502	11,256	-0,293	-0,155
153,516	21,444	-0,311	-0,176
154,531	245,949	-0,198	-0,232
155,546	67,251	-0,259	-0,183
156,560	800,000	-0,102	-0,228
157,575	463,131	-0,220	-0,343
158,589	288,328	-0,274	-0,346
159,604	49,374	-0,260	-0,170
160,619	227,369	-0,270	-0,306
161,633	800,000	-0,076	-0,188
162,648	-59,534	-0,131	-0,039
163,662	88,889	-0,224	-0,173
164,677	-90,775	-0,191	0,038
165,692	30,003	-0,232	-0,137
166,706	101,056	-0,208	-0,168
167,721	-46,621	-0,277	-0,094
168,735	109,023	-0,253	-0,211
169,750	163,430	-0,166	-0,162
170,764	39,202	-0,210	-0,130
171,779	48,146	-0,177	-0,115
172,794	-200,000	-0,193	0,000
173,808	-22,641	-0,375	-0,157
174,823	25,750	-0,316	-0,183
175,837	722,837	-0,154	-0,286
176,852	139,068	-0,248	-0,226
177,867	168,607	-0,161	-0,159
178,881	132,869	-0,119	-0,107
179,896	-189,582	-0,256	-0,002
180,910	-12,637	-0,292	-0,132
181,925	800,000	-0,047	-0,138
182,940	27,698	-0,268	-0,156
183,954	92,930	-0,326	-0,255
184,969	199,548	-0,236	-0,252
185,983	47,761	-0,250	-0,162
186,998	189,762	-0,163	-0,170
188,013	-36,619	-0,134	-0,050
189,027	18,952	-0,248	-0,138
190,042	233,009	-0,164	-0,188
191,056	300,278	-0,163	-0,209
192,071	68,702	-0,135	-0,096
193,086	17,399	-0,214	-0,118
194,100	128,571	-0,158	-0,139
195,115	-120,014	-0,211	-0,025
196,129	92,822	-0,249	-0,195
197,144	-28,985	-0,241	-0,096
198,159	51,050	-0,227	-0,149
199,173	-39,133	-0,320	-0,116
200,188	800,000	-0,102	-0,283
201,202	176,754	-0,161	-0,162
202,217	88,595	-0,224	-0,173
203,232	404,322	-0,135	-0,198
204,246	3,029	-0,248	-0,125
205,261	80,158	-0,215	-0,160
206,275	301,784	-0,091	-0,116
207,290	76,990	-0,196	-0,144
208,304	81,012	-0,130	-0,097
209,319	330,364	-0,188	-0,252
210,334	123,074	-0,174	-0,151
211,348	267,168	-0,232	-0,281
212,363	4,300	-0,169	-0,085
213,377	4,764	-0,261	-0,132
214,392	-4,382	-0,254	-0,121
215,407	-59,467	-0,198	-0,058
216,421	171,790	-0,145	-0,144
217,436	800,000	-0,061	-0,133
218,450	280,511	-0,235	-0,291
219,465	-31,287	-0,201	-0,078
220,480	62,106	-0,136	-0,094
221,494	333,278	-0,198	-0,265
222,509	15,307	-0,248	-0,134
223,523	111,962	-0,168	-0,140
224,538	431,153	-0,115	-0,173
225,553	31,020	-0,221	-0,131
226,567	397,246	-0,091	-0,132
227,582	-5,532	-0,180	-0,085
228,596	-152,329	-0,162	0,008
229,611	800,000	-0,065	-0,150
230,626	-200,000	-0,036	-0,145
231,640	6,149	-0,155	-0,079
232,655	800,000	-0,121	-0,315
233,669	-99,360	-0,277	-0,048
234,684	-63,422	-0,143	0,040
235,699	217,060	-0,091	-0,100
236,713	112,387	-0,199	-0,166
237,728	800,000	-0,033	-0,079
238,742	223,230	-0,067	-0,074
239,757	63,120	-0,183	-0,126
240,772	17,471	-0,303	-0,166
241,786	46,342	-0,231	-0,147
242,801	34,463	-0,172	-0,104
243,815	800,000	-0,089	-0,173
244,830	37,541	-0,223	-0,137
245,844	-133,097	-0,290	-0,025
246,859	-58,681	-0,135	-0,040
247,874	53,230	-0,158	-0,104
248,888	110,978	-0,222	-0,184
249,903	416,294	-0,090	-0,133
250,917	171,991	-0,153	-0,152
251,932	536,227	-0,120	-0,198
252,947	-130,432	-0,215	0,020
253,961	9,449	-0,200	-0,104
254,976	153,273	-0,208	-0,196
255,990	259,040	-0,240	-0,286
257,005	512,017	-0,096	-0,155
258,020	-48,147	-0,027	0,009
259,034	657,510	-0,106	-0,189
260,049	234,242	-0,123	-0,140
261,063	-200,000	-0,039	-0,135
262,078	348,198	-0,150	-0,205
263,093	788,264	-0,085	-0,162
264,107	-47,155	-0,222	-0,074
265,122	274,201	-0,141	-0,172
266,136	25,234	-0,181	-0,103
267,151	-200,000	-0,048	-0,287
268,166	131,604	-0,230	-0,204
269,180	148,076	-0,196	-0,182
270,195	-52,946	-0,218	-0,069
271,209	50,015	-0,146	-0,095
272,224	412,645	-0,059	-0,087
273,239	84,002	-0,129	-0,097
274,253	416,175	-0,101	-0,149
275,268	-31,784	-0,178	-0,068
276,282	507,997	-0,088	-0,141
277,297	328,664	-0,154	-0,205
278,312	357,282	-0,116	-0,159
279,326	-200,000	-0,047	-0,163
280,341	739,716	-0,080	-0,149
281,355	-125,767	-0,199	-0,020
282,370	-51,581	-0,145	0,046
283,384	125,412	-0,125	-0,109
284,399	-125,696	-0,259	-0,027
285,414	13,977	-0,074	-0,040
286,428	800,000	-0,079	-0,183
287,443	-82,476	-0,133	-0,030
288,457	-67,448	-0,148	-0,040
289,472	-104,315	-0,087	-0,014
290,487	226,711	-0,116	-0,130
291,501	157,807	-0,174	-0,166
292,516	-3,022	-0,290	-0,139
293,530	406,306	-0,101	-0,146
294,545	56,030	-0,071	0,047
295,560	362,991	-0,068	-0,094
296,574	-33,052	-0,196	-0,074
297,589	-126,904	-0,191	0,019
298,603	461,781	-0,093	-0,144
299,618	64,818	-0,065	-0,045
300,633	782,193	-0,131	-0,248
301,647	-56,415	-0,086	-0,026
302,662	-87,618	-0,093	0,019
303,676	-72,799	-0,170	-0,043
304,691	-86,594	-0,065	-0,014
305,706	94,284	-0,306	-0,239
306,720	-127,542	-0,185	-0,018
307,735	459,369	-0,079	-0,122
308,749	160,377	-0,155	-0,149
309,764	59,919	-0,229	-0,155
310,779	132,302	-0,140	-0,124
311,793	-200,000	-0,181	0,001
312,808	800,000	-0,080	-0,155
313,822	15,195	-0,287	-0,154
314,837	-200,000	0,004	-0,095
315,852	800,000	0,053	-0,158
316,866	587,690	-0,115	-0,195
317,881	-3,177	-0,183	-0,087
318,895	468,162	-0,120	-0,185
319,910	86,385	-0,125	-0,095
320,925	-200,000	0,007	-0,204
321,939	109,224	-0,191	-0,157
322,954	-200,000	0,010	-0,038
323,968	223,696	-0,145	-0,161
324,983	-93,882	-0,112	-0,021
325,997	-156,751	-0,121	0,005
327,012	100,552	-0,210	-0,167
328,027	59,902	-0,189	-0,128
329,041	-129,525	-0,058	-0,005
330,056	-200,000	-0,047	-0,182
331,070	58,149	-0,092	-0,062
332,085	129,585	-0,100	-0,087
333,100	-78,479	-0,210	-0,049
334,114	383,525	-0,114	-0,161
335,129	-100,323	-0,110	-0,018
336,143	-145,814	-0,163	-0,010
337,158	578,470	-0,080	-0,135
338,173	120,208	-0,097	-0,083
339,187	192,244	-0,170	-0,176
340,202	157,807	-0,126	-0,119
341,216	50,172	-0,237	-0,153
342,231	106,851	-0,123	-0,100
343,246	90,669	-0,113	-0,087
344,260	16,762	-0,056	-0,030
345,275	-39,034	-0,177	0,063
346,289	141,154	-0,089	-0,081
347,304	-11,404	-0,154	-0,069
348,319	-15,890	-0,183	-0,080
349,333	-100,449	-0,178	-0,030
350,348	-200,000	-0,017	-0,142
351,362	-200,000	0,029	-0,158
352,377	800,000	-0,035	-0,070
353,392	374,350	-0,146	-0,204
354,406	-200,000	-0,024	-0,126
355,421	207,126	1306,856	1394,946
356,435	159,331	1466,567	1395,429
