DTS Sentinel unit serial number:	SN410029Multiplexer serial number:	ORYXHardware model number:	OX2-SRSoftware version number:	ORYX F/W v4,00 Oryx Data Collector v3.7.2.0data status	okinstallation	B3 Nyhavnadifferential loss correction	single-endedforward channel	channel 1reverse channel	N/Adate	2023/12/05time	04:27:30forward acquisition time	300,00reverse acquisition time	0,00gamma	499,1914k internal	0,3201k external	0,3201temperature offset calibration	1,0000default loss term (dB/km)	0,3820temperature slope calibration	1,0000multiplexer offset coefficient	1,0000multiplexer slope coefficient	1,0000fibre end	0,00T internal ref (°C)	14,15T ext. ref 1 (°C)	-0,81T ext. ref 2 (°C)	-0,83length (m)	temperature (°C)	Stokes	anti-Stokes-744,400	236,495	-0,219	-0,264
-743,385	-200,000	-0,076	0,257
-742,371	-200,000	-0,052	-0,257
-741,356	800,000	0,168	0,428
-740,342	62,881	-0,324	-0,236
-739,327	-200,000	0,041	0,411
-738,312	510,573	-0,113	-0,191
-737,298	672,718	-0,094	0,178
-736,283	104,405	-0,245	-0,210
-735,269	800,000	0,164	0,407
-734,254	75,632	-0,185	-0,142
-733,239	245,976	-0,156	0,191
-732,225	224,611	-0,193	-0,227
-731,210	-92,308	-0,106	-0,022
-730,196	502,754	-0,087	0,147
-729,181	-200,000	0,005	0,079
-728,167	800,000	0,031	-0,085
-727,152	51,698	-0,015	-0,010
-726,137	71,426	0,025	-0,019
-725,123	800,000	-0,044	0,096
-724,108	-200,000	0,006	-0,129
-723,094	-200,000	-0,030	-0,097
-722,079	-200,000	0,028	-0,125
-721,064	24,891	-0,062	0,037
-720,050	199,839	-0,052	-0,058
-719,035	565,929	0,049	-0,086
-718,021	-200,000	-0,000	0,050
-717,006	285,876	-0,144	-0,189
-715,991	269,296	-0,033	0,043
-714,977	-134,892	-0,097	-0,008
-713,962	435,975	-0,058	-0,092
-712,948	-21,328	-0,049	0,021
-711,933	800,000	-0,037	0,092
-710,918	-79,912	-0,154	0,037
-709,904	-45,761	-0,023	-0,008
-708,889	-151,108	-0,089	-0,005
-707,875	-200,000	-0,004	-0,079
-706,860	-200,000	0,015	-0,094
-705,845	-37,389	-0,066	-0,026
-704,831	-200,000	0,005	-0,069
-703,816	-200,000	0,020	0,077
-702,802	64,079	-0,083	-0,060
-701,787	704,550	-0,013	0,026
-700,772	-117,364	0,008	-0,001
-699,758	800,000	-0,004	0,012
-698,743	-131,792	-0,154	-0,014
-697,729	202,976	0,038	0,043
-696,714	80,426	0,068	-0,053
-695,699	-70,487	0,041	-0,011
-694,685	-200,000	0,010	-0,144
-693,670	-153,686	-0,087	-0,004
-692,656	800,000	0,014	-0,030
-691,641	176,495	0,062	-0,065
-690,627	-200,000	-0,008	0,079
-689,612	-200,000	0,052	0,000
-688,597	583,242	-0,010	0,017
-687,583	800,000	-0,044	-0,127
-686,568	-128,092	-0,139	-0,014
-685,554	800,000	-0,045	0,135
-684,539	319,745	0,050	-0,069
-683,524	-200,000	-0,064	0,225
-682,510	-200,000	0,011	0,122
-681,495	292,650	0,077	-0,102
-680,481	800,000	-0,016	-0,044
-679,466	-82,159	-0,064	0,015
-678,451	-72,477	-0,197	-0,052
-677,437	800,000	0,039	-0,083
-676,422	-200,000	0,034	-0,153
-675,408	-200,000	0,008	0,080
-674,393	-59,727	0,054	-0,017
-673,378	340,413	-0,075	0,106
-672,364	-174,004	-0,042	-0,001
-671,349	-200,000	0,033	-0,123
-670,335	-200,000	-0,003	0,048
-669,320	376,488	0,034	-0,050
-668,305	-78,453	0,023	0,006
-667,291	6,009	-0,116	0,062
-666,276	-200,000	0,010	-0,084
-665,262	800,000	0,037	-0,098
-664,247	-153,290	-0,052	0,003
-663,232	205,031	0,031	0,034
-662,218	-113,016	0,084	0,012
-661,203	-200,000	-0,020	-0,110
-660,189	-200,000	0,012	-0,136
-659,174	800,000	0,023	0,058
-658,159	94,341	0,038	-0,031
-657,145	-200,000	0,010	-0,033
-656,130	80,409	-0,195	-0,152
-655,116	800,000	-0,051	0,112
-654,101	-111,780	-0,050	0,007
-653,086	-200,000	0,024	-0,105
-652,072	22,907	0,085	-0,050
-651,057	-70,601	0,079	0,021
-650,043	800,000	0,039	-0,121
-649,028	228,238	0,071	-0,083
-648,014	-183,278	0,026	0,000
-646,999	-45,527	0,088	-0,032
-645,984	171,465	0,038	-0,040
-644,970	800,000	-0,039	-0,105
-643,955	-200,000	0,034	-0,131
-642,941	-200,000	-0,021	-0,094
-641,926	17,210	-0,119	-0,068
-640,911	800,000	0,024	0,049
-639,897	443,898	0,037	0,059
-638,882	277,463	-0,061	0,078
-637,868	-16,034	0,097	-0,044
-636,853	330,358	-0,062	-0,087
-635,838	800,000	0,012	-0,037
-634,824	-200,000	0,024	-0,106
-633,809	424,456	0,055	-0,086
-632,795	-107,758	0,025	-0,004
-631,780	-200,000	0,015	-0,076
-630,765	-8,494	-0,091	-0,044
-629,751	-159,083	-0,091	0,004
-628,736	60,242	-0,087	-0,062
-627,722	-40,470	-0,121	0,045
-626,707	-103,946	0,107	0,018
-625,692	-100,737	-0,095	-0,017
-624,678	-200,000	-0,046	0,196
-623,663	-120,118	-0,131	-0,016
-622,649	156,487	0,044	-0,044
-621,634	81,782	0,022	-0,017
-620,619	-200,000	-0,001	-0,237
-619,605	272,345	0,069	-0,088
-618,590	800,000	0,045	0,094
-617,576	-5,293	0,142	-0,070
-616,561	-200,000	0,016	-0,059
-615,546	800,000	-0,058	-0,180
-614,532	-128,214	-0,057	0,006
-613,517	800,000	-0,023	-0,063
-612,503	-120,979	0,143	0,017
-611,488	-165,566	0,084	0,003
-610,474	-63,816	-0,050	0,015
-609,459	800,000	0,031	0,085
-608,444	800,000	0,029	-0,072
-607,430	800,000	-0,037	-0,090
-606,415	-150,466	-0,041	0,002
-605,401	800,000	-0,031	-0,063
-604,386	161,368	0,078	0,079
-603,371	132,818	-0,017	-0,016
-602,357	800,000	0,022	0,051
-601,342	210,726	-0,009	0,010
-600,328	44,459	-0,066	0,044
-599,313	503,938	0,048	0,081
-598,298	-200,000	-0,003	-0,013
-597,284	-79,376	0,119	-0,029
-596,269	449,215	-0,078	0,125
-595,255	124,782	0,137	-0,125
-594,240	800,000	-0,022	-0,065
-593,225	-173,527	0,055	0,001
-592,211	-200,000	0,019	-0,148
-591,196	-23,297	-0,106	-0,046
-590,182	-0,217	0,157	-0,081
-589,167	-132,299	0,131	0,012
-588,152	258,212	0,047	-0,059
-587,138	-15,815	-0,096	-0,044
-586,123	230,188	0,030	-0,035
-585,109	284,486	0,019	-0,025
-584,094	421,381	-0,042	0,065
-583,079	134,726	-0,111	-0,104
-582,065	-133,328	0,045	0,004
-581,050	-98,585	-0,097	0,018
-580,036	-25,733	0,122	0,052
-579,021	56,142	-0,172	-0,121
-578,006	92,226	-0,037	0,030
-576,992	-13,150	-0,158	0,074
-575,977	-200,000	0,016	-0,086
-574,963	398,499	-0,048	0,072
-573,948	26,770	-0,034	-0,021
-572,934	525,216	-0,019	-0,032
-571,919	446,506	-0,055	-0,088
-570,904	571,031	-0,015	0,027
-569,890	-200,000	-0,012	-0,082
-568,875	800,000	-0,082	0,167
-567,861	226,343	-0,069	0,081
-566,846	800,000	0,031	-0,098
-565,831	-200,000	-0,003	-0,093
-564,817	-131,077	0,060	-0,006
-563,802	-60,551	-0,142	-0,043
-562,788	247,519	0,176	0,216
-561,773	-53,470	-0,167	0,055
-560,758	-200,000	-0,002	-0,026
-559,744	-200,000	0,018	0,128
-558,729	-31,086	0,068	-0,027
-557,715	469,961	0,034	0,055
-556,700	-166,811	-0,111	-0,003
-555,685	308,664	-0,035	-0,047
-554,671	-2,850	0,047	-0,024
-553,656	-200,000	-0,008	0,032
-552,642	-128,320	-0,144	0,015
-551,627	34,029	-0,046	0,029
-550,612	800,000	0,019	0,056
-549,598	57,999	-0,074	0,052
-548,583	220,847	-0,077	-0,090
-547,569	173,195	0,055	-0,057
-546,554	800,000	0,033	-0,067
-545,539	225,077	-0,009	-0,010
-544,525	-200,000	0,005	0,067
-543,510	189,256	0,056	-0,061
-542,496	2,462	0,052	0,027
-541,481	800,000	0,053	-0,120
-540,466	108,749	0,102	0,088
-539,452	-200,000	0,012	0,088
-538,437	204,357	0,034	0,038
-537,423	-154,290	0,132	-0,006
-536,408	-56,499	-0,134	-0,043
-535,393	-133,779	0,004	0,000
-534,379	-35,526	0,020	0,008
-533,364	-200,000	0,012	-0,101
-532,350	800,000	0,075	-0,188
-531,335	-56,643	0,120	0,038
-530,321	-153,658	-0,115	-0,006
-529,306	139,156	-0,070	0,066
-528,291	-166,293	0,022	-0,001
-527,277	291,521	0,077	-0,101
-526,262	-200,000	0,022	-0,071
-525,248	-80,317	-0,098	-0,023
-524,233	632,820	-0,050	0,092
-523,218	800,000	0,058	-0,122
-522,204	-46,793	-0,105	-0,037
-521,189	-200,000	-0,009	0,114
-520,175	74,056	-0,087	0,066
-519,160	71,637	0,070	-0,052
-518,145	423,336	-0,055	0,085
-517,131	372,355	0,106	-0,156
-516,116	-5,132	0,101	0,050
-515,102	372,678	-0,092	0,135
-514,087	451,491	0,077	-0,123
-513,072	800,000	0,065	-0,201
-512,058	4,993	-0,067	0,035
-511,043	-200,000	-0,027	0,111
-510,029	-200,000	-0,003	-0,077
-509,014	-200,000	-0,013	-0,081
-507,999	-14,747	0,075	-0,035
-506,985	368,419	0,030	-0,044
-505,970	184,174	-0,058	0,062
-504,956	67,921	-0,050	0,036
-503,941	22,763	0,095	0,056
-502,926	-197,616	0,088	0,000
-501,912	-200,000	0,026	0,124
-500,897	-177,409	-0,134	-0,002
-499,883	181,261	-0,107	-0,114
-498,868	-84,485	-0,111	-0,025
-497,853	134,363	-0,086	-0,080
-496,839	-49,408	-0,087	0,030
-495,824	370,548	-0,035	0,051
-494,810	-200,000	-0,043	0,190
-493,795	254,251	-0,077	0,095
-492,781	106,784	0,119	-0,102
-491,766	800,000	-0,021	0,045
-490,751	778,462	0,090	-0,178
-489,737	-200,000	-0,003	-0,095
-488,722	-200,000	-0,019	0,126
-487,708	36,159	0,086	0,055
-486,693	-96,735	0,060	-0,011
-485,678	-68,001	0,129	-0,036
-484,664	-200,000	-0,011	-0,084
-483,649	74,247	-0,077	-0,058
-482,635	302,406	-0,031	-0,041
-481,620	76,540	0,075	0,057
-480,605	59,382	-0,038	-0,027
-479,591	-74,113	-0,066	0,017
-478,576	800,000	-0,023	0,058
-477,562	202,271	-0,023	-0,025
-476,547	-200,000	0,038	-0,127
-475,532	265,985	-0,044	0,055
-474,518	-179,153	0,086	-0,001
-473,503	-200,000	0,006	0,034
-472,489	800,000	0,026	0,066
-471,474	98,676	0,177	-0,147
-470,459	504,655	0,079	-0,131
-469,445	56,831	-0,102	0,072
-468,430	-103,834	-0,073	0,012
-467,416	-200,000	-0,002	0,098
-466,401	226,303	0,076	-0,089
-465,386	-121,597	-0,073	-0,009
-464,372	-200,000	-0,031	-0,146
-463,357	-200,000	-0,001	-0,088
-462,343	46,077	0,031	-0,020
-461,328	27,046	-0,108	-0,065
-460,313	-200,000	-0,053	0,180
-459,299	2,371	0,075	0,039
-458,284	288,997	0,135	0,177
-457,270	-44,656	-0,039	-0,014
-456,255	-200,000	0,008	0,038
-455,241	800,000	0,023	0,047
-454,226	525,283	0,062	0,106
-453,211	800,000	-0,035	0,093
-452,197	-200,000	-0,005	-0,024
-451,182	-200,000	0,012	-0,086
-450,168	-29,628	0,145	-0,059
-449,153	73,731	-0,043	-0,033
-448,138	-129,669	-0,124	-0,012
-447,124	-200,000	-0,002	-0,096
-446,109	342,750	-0,079	-0,112
-445,095	378,686	0,067	0,099
-444,080	82,166	0,061	0,047
-443,065	-103,295	0,026	0,004
-442,051	73,816	0,033	-0,025
-441,036	800,000	0,032	0,065
-440,022	357,119	0,056	0,081
-439,007	-200,000	-0,037	-0,159
-437,992	-152,477	0,137	-0,007
-436,978	-141,150	0,120	-0,009
-435,963	-146,315	0,069	0,004
-434,949	-200,000	0,002	-0,075
-433,934	-66,917	0,129	0,036
-432,919	-130,149	-0,036	0,003
-431,905	-200,000	0,002	-0,038
-430,890	-59,956	0,034	0,010
-429,876	800,000	0,029	0,078
-428,861	390,860	0,048	-0,072
-427,846	-200,000	0,023	0,101
-426,832	572,173	-0,060	0,105
-425,817	508,055	0,050	-0,083
-424,803	800,000	-0,035	0,075
-423,788	800,000	0,013	-0,036
-422,773	-200,000	0,018	-0,113
-421,759	-38,977	-0,053	0,020
-420,744	-137,168	0,126	-0,010
-419,730	-124,936	-0,122	0,013
-418,715	607,976	-0,025	0,045
-417,701	-145,994	-0,098	0,006
-416,686	-200,000	0,220	0,000
-415,671	-200,000	0,012	0,108
-414,657	-200,000	-0,020	0,073
-413,642	-200,000	0,028	0,191
-412,628	-102,363	0,085	0,014
-411,613	97,208	-0,088	-0,073
-410,598	-46,029	0,038	-0,013
-409,584	-200,000	0,005	0,084
-408,569	-200,000	0,022	0,142
-407,555	-69,433	-0,094	-0,026
-406,540	797,707	-0,033	0,066
-405,525	-200,000	0,030	0,148
-404,511	-200,000	0,027	0,097
-403,496	547,643	-0,085	0,146
-402,482	800,000	-0,010	0,028
-401,467	-74,974	0,086	-0,022
-400,452	-200,000	0,008	0,048
-399,438	800,000	-0,022	0,063
-398,423	514,051	-0,010	-0,017
-397,409	25,030	0,145	-0,086
-396,394	-200,000	0,032	-0,118
-395,379	800,000	-0,022	0,057
-394,365	-200,000	0,010	0,043
-393,350	-13,785	-0,111	0,051
-392,336	114,296	0,056	-0,049
-391,321	14,958	-0,065	-0,037
-390,306	-200,000	-0,020	0,076
-389,292	-19,104	-0,091	0,040
-388,277	-23,897	-0,018	-0,008
-387,263	717,019	0,038	-0,072
-386,248	800,000	-0,033	0,077
-385,233	-57,408	-0,018	-0,006
-384,219	-51,774	-0,071	0,024
-383,204	800,000	-0,024	-0,056
-382,190	-125,194	0,118	-0,013
-381,175	41,878	-0,107	0,070
-380,160	-56,353	0,178	0,056
-379,146	-58,956	0,096	0,030
-378,131	800,000	0,016	-0,048
-377,117	800,000	-0,010	-0,020
-376,102	151,343	-0,002	0,002
-375,088	-200,000	0,003	0,025
-374,073	316,901	-0,059	0,080
-373,058	746,991	-0,039	0,075
-372,044	66,212	0,070	0,051
-371,029	-200,000	0,024	0,119
-370,015	800,000	0,024	-0,063
-369,000	-79,013	-0,204	-0,049
-367,985	-62,732	-0,084	-0,025
-366,971	23,604	-0,058	-0,034
-365,956	-200,000	0,017	0,064
-364,942	151,036	0,118	0,115
-363,927	-159,375	0,116	-0,005
-362,912	-200,000	-0,015	-0,124
-361,898	49,347	-0,126	-0,085
-360,883	-115,456	0,087	0,012
-359,869	371,214	-0,098	0,143
-358,854	380,826	0,018	-0,027
-357,839	106,739	-0,050	0,042
-356,825	-200,000	-0,005	-0,047
-355,810	520,113	-0,039	0,065
-354,796	800,000	-0,068	0,155
-353,781	800,000	-0,030	-0,072
-352,766	-200,000	0,003	0,090
-351,752	-200,000	-0,005	0,046
-350,737	12,598	0,063	-0,035
-349,723	-148,816	0,034	-0,002
-348,708	-200,000	0,010	0,069
-347,693	-200,000	0,031	-0,131
-346,679	-26,392	-0,077	-0,032
-345,664	-200,000	0,007	-0,055
-344,650	0,155	0,106	-0,054
-343,635	-1,796	0,035	-0,017
-342,620	800,000	0,038	-0,112
-341,606	6,158	-0,013	-0,007
-340,591	73,021	-0,208	-0,156
-339,577	634,489	0,076	-0,139
-338,562	162,684	0,140	-0,141
-337,548	800,000	-0,044	-0,119
-336,533	65,052	-0,091	-0,066
-335,518	-19,190	0,155	0,069
-334,504	-74,581	-0,100	0,026
-333,489	298,083	-0,086	-0,113
-332,475	-200,000	-0,015	-0,073
-331,460	470,954	0,057	0,093
-330,445	-55,196	-0,171	0,055
-329,431	800,000	0,026	0,076
-328,416	226,535	-0,040	0,047
-327,402	-111,006	-0,056	0,008
-326,387	-16,769	0,031	0,014
-325,372	688,005	0,041	-0,078
-324,358	-200,000	-0,004	-0,064
-323,343	115,909	0,067	-0,059
-322,329	110,796	0,046	-0,039
-321,314	-200,000	0,011	-0,057
-320,299	800,000	-0,031	-0,066
-319,285	800,000	0,046	0,103
-318,270	-123,021	-0,131	0,015
-317,256	184,259	0,086	0,092
-316,241	10,631	-0,078	0,043
-315,226	800,000	0,053	-0,110
-314,212	-200,000	-0,029	0,136
-313,197	-72,662	0,102	-0,027
-312,183	800,000	0,015	0,034
-311,168	6,560	-0,081	-0,043
-310,153	-200,000	-0,045	-0,152
-309,139	-27,917	-0,021	0,009
-308,124	317,558	0,029	0,040
-307,110	582,963	0,039	-0,069
-306,095	-200,000	-0,002	0,039
-305,080	-73,844	-0,029	0,007
-304,066	85,030	-0,035	0,028
-303,051	241,277	-0,120	-0,144
-302,037	-127,640	-0,163	-0,017
-301,022	75,714	0,128	0,097
-300,008	6,578	0,108	-0,057
-298,993	-200,000	-0,016	0,055
-297,978	-200,000	0,002	-0,016
-296,964	-200,000	-0,010	-0,051
-295,949	464,494	-0,033	-0,052
-294,935	-55,233	-0,151	-0,048
-293,920	-8,967	0,099	0,047
-292,905	296,857	-0,016	0,021
-291,891	103,490	0,042	-0,035
-290,876	547,618	-0,016	-0,028
-289,862	522,291	-0,089	0,149
-288,847	48,953	-0,087	0,058
-287,832	-200,000	0,004	-0,071
-286,818	-130,478	0,047	-0,004
-285,803	800,000	0,044	0,104
-284,789	-93,410	-0,219	0,043
-283,774	-200,000	-0,007	-0,047
-282,759	-6,150	0,082	0,040
-281,745	244,694	-0,111	0,133
-280,730	-200,000	0,007	0,134
-279,716	191,673	-0,035	0,038
-278,701	21,014	-0,052	-0,030
-277,686	131,002	0,066	0,061
-276,672	-169,450	0,190	0,005
-275,657	800,000	0,004	0,009
-274,643	-43,641	-0,135	-0,048
-273,628	166,410	-0,120	-0,122
-272,613	-0,721	0,089	-0,045
-271,599	800,000	0,037	-0,087
-270,584	-6,954	0,112	0,054
-269,570	-13,849	-0,089	0,041
-268,555	-148,191	0,095	0,005
-267,540	-200,000	-0,005	-0,037
-266,526	-200,000	-0,016	-0,097
-265,511	424,064	-0,048	0,074
-264,497	-38,297	0,063	-0,024
-263,482	-200,000	0,008	0,100
-262,467	-200,000	0,008	0,179
-261,453	-6,341	-0,027	-0,013
-260,438	-91,497	0,150	-0,030
-259,424	-200,000	-0,005	-0,083
-258,409	800,000	-0,066	0,144
-257,395	800,000	0,026	0,070
-256,380	-128,607	0,075	0,007
-255,365	67,661	-0,073	-0,054
-254,351	113,555	0,052	-0,045
-253,336	142,971	0,053	-0,050
-252,322	-142,531	-0,131	0,009
-251,307	-123,078	-0,047	0,005
-250,292	800,000	0,024	0,058
-249,278	-200,000	-0,041	0,000
-248,263	481,684	0,028	0,045
-247,249	-200,000	0,007	-0,040
-246,234	459,731	0,047	0,075
-245,219	-28,420	-0,049	-0,020
-244,205	-200,000	-0,003	-0,015
-243,190	-48,141	-0,118	-0,040
-242,176	222,342	0,047	0,054
-241,161	216,188	0,085	0,097
-240,146	800,000	-0,015	0,038
-239,132	-73,307	0,134	0,035
-238,117	78,553	-0,121	-0,092
-237,103	458,908	0,023	0,036
-236,088	133,642	-0,104	0,096
-235,073	800,000	0,038	0,109
-234,059	800,000	0,034	0,077
-233,044	230,988	0,098	0,115
-232,030	-147,170	-0,092	-0,006
-231,015	-83,975	0,070	0,016
-230,000	353,462	0,053	-0,075
-228,986	-200,000	0,018	-0,087
-227,971	-200,000	-0,007	-0,060
-226,957	590,558	-0,052	0,091
-225,942	800,000	-0,044	-0,091
-224,927	-8,387	0,032	0,015
-223,913	-200,000	-0,009	0,081
-222,898	800,000	-0,023	-0,050
-221,884	217,698	-0,040	0,045
-220,869	800,000	-0,060	0,142
-219,855	359,502	0,042	0,060
-218,840	-139,795	0,095	0,007
-217,825	46,344	-0,053	0,035
-216,811	-148,661	-0,079	-0,004
-215,796	-126,310	-0,067	0,007
-214,782	-200,000	-0,033	-0,103
-213,767	254,972	0,093	0,114
-212,752	-119,013	0,077	-0,010
-211,738	166,853	-0,044	0,045
-210,723	150,009	0,061	0,059
-209,709	800,000	-0,058	-0,157
-208,694	232,862	-0,048	-0,057
-207,679	-200,000	-0,016	-0,088
-206,665	-55,680	0,073	0,023
-205,650	-8,746	0,158	-0,075
-204,636	-200,000	-0,000	0,042
-203,621	-36,807	-0,065	0,025
-202,606	-53,750	-0,130	0,042
-201,592	138,989	-0,046	0,043
-200,577	-86,265	-0,089	0,019
-199,563	181,455	0,119	-0,125
-198,548	101,042	0,286	-0,237
-197,533	183,849	0,066	0,070
-196,519	48,565	0,080	0,054
-195,504	13,083	-0,074	-0,041
-194,490	800,000	0,024	-0,062
-193,475	-31,580	-0,130	-0,052
-192,460	792,464	0,005	-0,010
-191,446	-15,741	0,049	0,022
-190,431	-200,000	-0,014	-0,100
-189,417	-79,047	-0,042	0,010
-188,402	284,064	0,016	0,021
-187,387	-174,851	-0,121	0,002
-186,373	22,649	-0,098	0,057
-185,358	800,000	0,027	-0,085
-184,344	92,391	0,066	0,053
-183,329	-200,000	0,014	-0,059
-182,315	240,867	0,079	0,094
-181,300	-200,000	-0,014	0,102
-180,285	-200,000	-0,020	-0,072
-179,271	129,386	-0,023	0,021
-178,256	-13,915	0,065	-0,030
-177,242	-200,000	-0,003	0,195
-176,227	165,477	-0,034	-0,035
-175,212	-200,000	0,009	0,106
-174,198	272,960	0,050	0,063
-173,183	-83,697	-0,091	0,021
-172,169	30,017	0,063	0,038
-171,154	-20,327	0,076	-0,033
-170,139	388,864	0,053	-0,079
-169,125	-200,000	0,012	0,075
-168,110	-200,000	0,028	0,135
-167,096	464,720	0,102	0,163
-166,081	21,417	-0,038	-0,022
-165,066	-58,719	-0,052	-0,016
-164,052	800,000	-0,027	0,061
-163,037	800,000	-0,070	0,150
-162,023	-82,603	-0,086	0,020
-161,008	-29,820	-0,049	-0,020
-159,993	800,000	-0,017	0,035
-158,979	-37,164	-0,119	0,045
-157,964	563,057	0,068	0,117
-156,950	150,529	0,129	-0,125
-155,935	-200,000	0,000	-0,001
-154,920	147,267	-0,016	0,015
-153,906	-146,858	-0,022	0,001
-152,891	157,542	-0,064	-0,063
-151,877	19,743	-0,071	-0,041
-150,862	8,366	0,062	-0,033
-149,847	-200,000	0,031	-0,124
-148,833	-56,785	-0,138	0,043
-147,818	62,311	0,065	0,046
-146,804	665,580	-0,049	0,090
-145,789	-95,287	0,076	-0,014
-144,775	156,518	-0,060	0,059
-143,760	20,340	-0,111	-0,063
-142,745	-63,167	-0,124	0,036
-141,731	39,615	-0,042	0,027
-140,716	-111,601	-0,074	0,011
-139,702	-200,000	-0,013	-0,042
-138,687	-200,000	-0,010	0,045
-137,672	800,000	0,067	0,181
-136,658	204,383	-0,011	-0,013
-135,643	100,289	-0,141	-0,116
-134,629	-112,977	-0,089	0,012
-133,614	-200,000	0,018	0,089
-132,599	90,430	-0,011	-0,008
-131,585	-153,704	0,123	0,006
-130,570	800,000	0,058	-0,127
-129,556	-74,009	-0,167	0,043
-128,541	-128,473	-0,033	-0,003
-127,526	266,761	0,039	-0,049
-126,512	197,452	0,044	-0,047
-125,497	648,847	0,011	0,020
-124,483	-157,655	-0,119	0,005
-123,468	178,226	0,058	0,060
-122,453	342,167	0,043	0,060
-121,439	420,336	-0,144	-0,220
-120,424	-60,541	-0,093	0,028
-119,410	-36,762	-0,091	0,034
-118,395	107,190	0,079	0,067
-117,380	426,785	-0,080	0,123
-116,366	399,175	0,032	0,048
-115,351	213,901	-0,040	-0,045
-114,337	-58,554	0,154	0,047
-113,322	-69,954	0,021	0,006
-112,307	115,483	-0,121	0,105
-111,293	53,083	-0,033	-0,022
-110,278	97,314	0,075	0,061
-109,264	348,563	-0,092	0,130
-108,249	-59,207	0,136	0,041
-107,234	703,243	-0,047	-0,088
-106,220	-55,335	-0,112	-0,035
-105,205	360,905	0,057	0,082
-104,191	-200,000	0,010	-0,081
-103,176	-200,000	-0,013	0,063
-102,162	268,838	0,071	0,088
-101,147	800,000	-0,041	-0,098
-100,132	82,377	-0,060	0,046
-99,118	202,682	0,057	0,062
-98,103	-200,000	-0,007	-0,061
-97,089	0,621	0,102	-0,052
-96,074	18,782	-0,068	-0,038
-95,059	-200,000	0,022	-0,128
-94,045	-200,000	-0,011	0,095
-93,030	407,158	-0,068	-0,102
-92,016	23,563	-0,085	0,050
-91,001	-200,000	-0,003	-0,130
-89,986	-200,000	0,005	-0,042
-88,972	-3,106	0,215	0,106
-87,957	-124,874	-0,114	-0,012
-86,943	-200,000	0,007	-0,049
-85,928	307,218	0,027	0,036
-84,913	-107,640	0,040	-0,006
-83,899	-68,197	-0,097	-0,027
-82,884	-200,000	0,018	0,151
-81,870	77,808	0,127	-0,095
-80,855	-164,517	-0,149	-0,005
-79,840	34,440	0,039	-0,024
-78,826	-149,608	-0,129	-0,007
-77,811	199,437	0,035	-0,038
-76,797	-84,276	-0,122	0,027
-75,782	145,204	0,012	-0,011
-74,767	-131,509	0,092	-0,008
-73,753	774,841	-0,016	-0,031
-72,738	-200,000	0,014	-0,138
-71,724	-200,000	0,003	0,010
-70,709	121,451	0,017	0,015
-69,694	83,691	-0,118	-0,091
-68,680	-49,654	-0,124	-0,042
-67,665	-200,000	-0,005	-0,041
-66,651	315,328	0,055	0,074
-65,636	-200,000	-0,016	0,121
-64,622	-144,469	0,014	-0,001
-63,607	800,000	0,065	-0,187
-62,592	-48,442	0,082	0,028
-61,578	-98,422	0,062	0,011
-60,563	-73,758	0,050	0,013
-59,549	-78,629	0,067	-0,016
-58,534	-8,102	-1,534	-0,729
-57,519	531,982	-1,221	-2,052
-56,505	-200,000	-0,612	-4,695
-55,490	141,226	0,970	0,909
-54,476	800,000	4,937	11,452
-53,461	-200,000	18,848	304,552
-52,446	800,000	735,972	2289,752
-51,432	566,959	1652,333	2850,461
-50,417	79,019	1670,020	1264,669
-49,403	22,123	1542,954	889,142
-48,388	16,037	1465,980	815,223
-47,373	17,750	1455,765	817,781
-46,359	16,902	1446,025	808,214
-45,344	14,300	1441,395	793,142
-44,330	14,190	1439,621	791,607
-43,315	14,230	1437,974	790,858
-42,300	14,255	1436,210	789,979
-41,286	14,311	1434,929	789,509
-40,271	14,296	1433,555	788,651
-39,257	14,242	1432,222	787,626
-38,242	14,262	1431,056	787,051
-37,227	14,251	1429,864	786,311
-36,213	14,287	1428,521	785,713
-35,198	14,272	1427,449	785,022
-34,184	14,302	1426,458	784,588
-33,169	14,253	1424,954	783,498
-32,154	14,272	1424,130	783,104
-31,140	14,250	1422,759	782,214
-30,125	14,307	1421,789	781,917
-29,111	14,269	1420,721	781,121
-28,096	14,236	1419,614	780,327
-27,082	14,214	1418,261	779,449
-26,067	14,164	1417,338	778,671
-25,052	14,162	1416,476	778,159
-24,038	14,143	1415,434	777,468
-23,023	14,199	1414,328	777,092
-22,009	14,217	1413,176	776,511
-20,994	14,122	1412,442	775,632
-19,979	14,139	1411,699	775,275
-18,965	14,097	1410,655	774,474
-17,950	14,102	1409,725	773,957
-16,936	14,097	1408,723	773,349
-15,921	14,064	1407,677	772,593
-14,906	14,042	1406,860	772,008
-13,892	14,045	1406,035	771,539
-12,877	14,118	1404,798	771,172
-11,863	14,075	1403,947	770,472
-10,848	14,071	1403,230	770,029
-9,833	14,091	1402,139	769,494
-8,819	14,031	1401,228	768,686
-7,804	13,977	1400,532	768,021
-6,790	14,003	1399,601	767,601
-5,775	13,972	1398,454	766,795
-4,760	13,960	1397,672	766,283
-3,746	14,029	1396,487	765,921
-2,731	13,975	1396,074	765,416
-1,717	13,990	1394,799	764,756
-0,702	13,968	1393,124	763,703
0,313	17,773	1311,124	736,394
1,327	33,883	706,223	433,983
2,342	52,110	124,136	83,552
3,356	2,952	16,623	8,513
4,371	3,941	3,169	1,633
5,386	-17,914	0,479	0,212
6,400	577,980	0,144	0,249
7,415	7,122	-0,270	-0,142
8,429	122,196	-0,258	-0,228
9,444	97,817	-0,290	-0,236
10,459	20,344	-0,261	-0,149
11,473	139,631	-0,213	-0,198
12,488	13,410	-0,294	-0,161
13,502	156,603	-0,233	-0,228
14,517	118,780	-0,335	-0,293
15,531	99,169	-0,369	-0,301
16,546	39,069	-0,309	-0,195
17,561	85,019	-0,283	-0,219
18,575	-61,513	-0,185	0,055
19,590	800,000	-0,140	-0,303
20,604	-67,333	-0,275	-0,076
21,619	32,020	-0,392	-0,238
22,634	36,040	-0,488	-0,303
23,648	27,564	-0,505	-0,300
24,663	82,910	-0,383	-0,294
25,677	-15,652	-0,437	-0,196
26,692	800,000	-0,087	-0,268
27,707	31,813	-0,341	-0,207
28,721	151,110	-0,283	-0,272
29,736	245,687	-0,268	-0,319
30,750	-8,331	-0,372	-0,176
31,765	68,480	-0,382	-0,276
32,780	6,591	-0,364	-0,190
33,794	-104,320	-0,392	-0,063
34,809	21,906	-0,340	-0,195
35,823	106,356	-0,399	-0,333
36,838	16,147	-0,337	-0,187
37,853	19,597	-0,374	-0,211
38,867	184,315	-0,345	-0,361
39,882	-15,129	-0,261	-0,118
40,896	138,889	-0,274	-0,254
41,911	155,467	-0,268	-0,260
42,926	186,728	-0,296	-0,311
43,940	216,208	-0,286	-0,321
44,955	-30,378	-0,317	-0,126
45,969	22,859	-0,318	-0,183
46,984	-28,856	-0,398	-0,161
47,999	-23,523	-0,338	-0,142
49,013	-21,170	-0,241	-0,103
50,028	-65,637	-0,268	-0,075
51,042	104,793	-0,281	-0,233
52,057	-20,676	-0,456	-0,196
53,071	-6,020	-0,405	-0,194
54,086	89,198	-0,160	-0,125
55,101	127,480	-0,265	-0,237
56,115	-10,487	-0,339	-0,157
57,130	-88,317	-0,255	-0,053
58,144	-52,257	-0,452	-0,147
59,159	114,470	-0,348	-0,298
60,174	124,508	-0,247	-0,219
61,188	-30,767	-0,324	-0,128
62,203	21,382	-0,350	-0,200
63,217	52,180	-0,281	-0,188
64,232	83,940	-0,242	-0,186
65,247	-21,043	-0,451	-0,194
66,261	0,958	-0,326	-0,164
67,276	-29,084	-0,267	-0,107
68,290	69,469	-0,339	-0,245
69,305	67,575	-0,203	-0,145
70,320	80,059	-0,282	-0,213
71,334	155,411	-0,250	-0,242
72,349	-60,185	-0,323	-0,096
73,363	469,741	-0,229	-0,362
74,378	38,130	-0,386	-0,241
75,393	45,462	-0,327	-0,211
76,407	142,041	-0,242	-0,225
77,422	139,466	-0,320	-0,296
78,436	24,740	-0,360	-0,209
79,451	-6,871	-0,330	-0,157
80,466	138,829	-0,300	-0,277
81,480	147,091	-0,311	-0,294
82,495	3,120	-0,349	-0,178
83,509	-69,006	-0,250	-0,067
84,524	22,415	-0,252	-0,144
85,539	-72,409	-0,107	-0,028
86,553	-15,929	-0,322	-0,143
87,568	48,905	-0,470	-0,309
88,582	-9,690	-0,426	-0,198
89,597	-19,377	-0,255	-0,111
90,611	144,908	-0,223	-0,210
91,626	-55,545	-0,308	-0,096
92,641	-55,561	-0,318	-0,099
93,655	11,257	-0,236	-0,126
94,670	162,259	-0,188	-0,185
95,684	-8,128	-0,254	-0,120
96,699	115,091	-0,330	-0,282
97,714	-43,462	-0,315	-0,111
98,728	126,116	-0,197	-0,175
99,743	-25,334	-0,297	-0,123
100,757	111,862	-0,248	-0,210
101,772	-23,324	-0,308	-0,129
102,787	99,927	-0,276	-0,224
103,801	-67,350	-0,353	-0,097
104,816	-24,505	-0,349	-0,145
105,830	127,400	-0,246	-0,219
106,845	103,527	-0,258	-0,212
107,860	223,688	-0,244	-0,276
108,874	261,598	-0,211	-0,256
109,889	155,938	-0,293	-0,283
110,903	244,973	-0,243	-0,287
111,918	196,925	-0,195	-0,209
112,933	-143,947	-0,245	-0,016
113,947	-22,299	-0,233	-0,099
114,962	-27,301	-0,299	-0,121
115,976	203,258	-0,236	-0,256
116,991	216,614	-0,224	-0,250
118,006	-35,059	-0,468	-0,178
119,020	31,625	-0,337	-0,203
120,035	34,858	-0,152	-0,093
121,049	-59,265	-0,214	-0,064
122,064	-67,275	-0,275	-0,075
123,079	-80,160	-0,264	-0,061
124,093	89,937	-0,313	-0,245
125,108	100,653	-0,236	-0,192
126,122	66,590	-0,278	-0,198
127,137	-11,917	-0,223	-0,102
128,151	67,395	-0,222	-0,159
129,166	106,170	-0,123	-0,102
130,181	-77,044	-0,234	-0,057
131,195	151,596	-0,180	-0,172
132,210	45,696	-0,218	-0,141
133,224	49,908	-0,201	-0,132
134,239	-49,207	-0,169	-0,056
135,254	63,006	-0,227	-0,159
136,268	-29,552	-0,235	-0,094
137,283	162,718	-0,240	-0,235
138,297	90,929	-0,296	-0,232
139,312	115,806	-0,285	-0,243
140,327	525,825	-0,130	-0,215
141,341	160,733	-0,205	-0,201
142,356	-70,797	-0,207	-0,054
143,370	252,350	-0,202	-0,241
144,385	191,079	-0,199	-0,209
145,400	378,467	-0,171	-0,245
146,414	-32,097	-0,386	-0,150
147,429	32,734	-0,277	-0,167
148,443	95,067	-0,221	-0,176
149,458	8,776	-0,194	-0,102
150,473	-98,870	-0,150	-0,026
151,487	-35,457	-0,228	-0,086
152,502	125,582	-0,262	-0,231
153,516	61,306	-0,241	-0,167
154,531	88,567	-0,345	-0,267
155,546	41,639	-0,259	-0,164
156,560	190,145	-0,201	-0,211
157,575	-68,254	-0,161	-0,044
158,589	53,301	-0,308	-0,206
159,604	22,695	-0,254	-0,145
160,619	-21,497	-0,313	-0,133
161,633	96,547	-0,229	-0,183
162,648	2,040	-0,285	-0,143
163,662	-156,134	-0,138	-0,006
164,677	-80,888	-0,217	-0,050
165,692	111,878	-0,284	-0,239
166,706	-26,488	-0,224	-0,091
167,721	404,936	-0,206	-0,304
168,735	65,289	-0,271	-0,191
169,750	57,165	-0,253	-0,172
170,764	94,345	-0,222	-0,176
171,779	-130,077	-0,279	-0,026
172,794	-77,710	-0,293	-0,070
173,808	10,911	-0,288	-0,153
174,823	61,704	-0,295	-0,204
175,837	-4,260	-0,345	-0,166
176,852	195,305	-0,268	-0,284
177,867	517,754	-0,120	-0,196
178,881	71,839	-0,158	-0,114
179,896	138,918	-0,147	-0,134
180,910	376,421	-0,085	-0,121
181,925	-27,928	-0,450	-0,181
182,940	800,000	-0,081	-0,200
183,954	59,697	-0,364	-0,250
184,969	-69,530	-0,238	-0,063
185,983	138,628	-0,166	-0,152
186,998	139,539	-0,163	-0,150
188,013	128,315	-0,287	-0,254
189,027	271,369	-0,171	-0,210
190,042	433,956	-0,135	-0,205
191,056	-56,037	-0,180	-0,055
192,071	-63,225	-0,228	-0,065
193,086	-27,517	-0,124	-0,050
194,100	50,772	-0,192	-0,126
195,115	-38,365	-0,267	-0,098
196,129	165,267	-0,286	-0,281
197,144	23,753	-0,296	-0,169
198,159	-138,017	-0,245	-0,019
199,173	-200,000	-0,055	-0,273
200,188	348,922	-0,069	-0,095
201,202	-85,640	-0,195	0,042
202,217	-13,987	-0,253	-0,113
203,232	-41,271	-0,302	-0,108
204,246	-5,846	-0,363	-0,172
205,261	266,859	-0,307	-0,374
206,275	-49,827	-0,178	-0,058
207,290	175,806	-0,163	-0,165
208,304	-60,951	-0,220	-0,064
209,319	-108,515	-0,137	0,020
210,334	103,147	-0,258	-0,210
211,348	454,188	-0,160	-0,247
212,363	156,843	-0,199	-0,191
213,377	800,000	-0,112	-0,330
214,392	86,468	-0,188	-0,144
215,407	-81,272	-0,093	-0,021
216,421	-41,564	-0,225	-0,080
217,436	800,000	-0,078	-0,152
218,450	253,889	-0,211	-0,251
219,465	12,730	-0,313	-0,167
220,480	59,263	-0,184	-0,126
221,494	-36,523	-0,094	-0,035
222,509	-31,236	-0,188	-0,073
223,523	-51,448	-0,100	-0,032
224,538	401,158	-0,142	-0,207
225,553	66,273	-0,244	-0,172
226,567	405,312	-0,164	-0,241
227,582	132,658	-0,180	-0,161
228,596	76,521	-0,139	-0,102
229,611	99,082	-0,221	-0,177
230,626	528,038	-0,110	-0,181
231,640	8,693	-0,104	-0,054
232,655	172,431	-0,190	-0,189
233,669	221,469	-0,203	-0,226
234,684	-7,219	-0,157	-0,074
235,699	-1,335	-0,080	-0,039
236,713	356,139	-0,093	-0,129
237,728	-85,079	-0,241	0,052
238,742	45,894	-0,218	-0,139
239,757	581,257	-0,112	-0,191
240,772	211,891	-0,188	-0,205
241,786	-101,182	-0,128	0,022
242,801	-4,471	-0,047	0,023
243,815	-110,205	-0,226	-0,032
244,830	-19,337	-0,162	-0,069
245,844	114,057	-0,136	-0,115
246,859	-49,334	-0,210	-0,069
247,874	-70,912	-0,166	-0,043
248,888	800,000	-0,081	-0,189
249,903	100,017	-0,190	-0,152
250,917	134,860	-0,202	-0,181
251,932	-46,092	-0,259	-0,088
252,947	52,758	-0,149	-0,098
253,961	392,032	-0,150	-0,216
254,976	476,203	-0,122	-0,191
255,990	-106,290	-0,256	-0,039
257,005	-45,096	-0,249	-0,085
258,020	194,314	-0,218	-0,229
259,034	-200,000	0,003	-0,134
260,049	12,092	-0,165	-0,087
261,063	185,683	-0,163	-0,168
262,078	58,839	-0,099	-0,067
263,093	-110,471	-0,192	-0,027
264,107	800,000	-0,102	-0,208
265,122	251,450	-0,104	-0,122
266,136	800,000	-0,072	-0,180
267,151	-147,361	-0,253	0,015
268,166	-119,357	-0,127	-0,015
269,180	-1,436	-0,158	-0,077
270,195	145,822	-0,186	-0,172
271,209	-30,596	-0,210	-0,082
272,224	126,345	-0,195	-0,170
273,239	800,000	-0,072	-0,175
274,253	-26,869	-0,164	-0,066
275,268	31,542	-0,150	-0,089
276,282	678,581	-0,110	-0,198
277,297	-2,487	-0,170	-0,082
278,312	-76,191	-0,181	0,044
279,326	260,816	-0,113	-0,136
280,341	216,052	0,019	-0,021
281,355	-200,000	-0,052	-0,212
282,370	46,923	-0,272	-0,174
283,384	54,642	-0,224	-0,149
284,399	109,237	-0,182	-0,151
285,414	800,000	-0,078	-0,226
286,428	-54,757	-0,184	-0,057
287,443	-84,111	-0,051	0,011
288,457	48,272	-0,242	-0,156
289,472	-43,465	-0,107	-0,037
290,487	71,520	-0,140	-0,100
291,501	-36,512	-0,209	-0,077
292,516	77,694	-0,147	-0,108
293,530	100,601	-0,132	-0,106
294,545	-44,068	-0,048	-0,017
295,560	364,787	-0,111	-0,155
296,574	-138,013	-0,225	-0,017
297,589	-7,732	-0,190	-0,088
298,603	-65,896	-0,209	-0,057
299,618	-18,566	-0,093	-0,040
300,633	207,596	-0,070	-0,076
301,647	800,000	0,023	-0,059
302,662	-78,778	-0,115	-0,027
303,676	414,073	-0,099	-0,146
304,691	-41,116	-0,133	-0,047
305,706	219,584	-0,173	-0,190
306,720	515,720	-0,047	0,076
307,735	34,510	-0,091	-0,054
308,749	272,197	-0,129	-0,157
309,764	-84,297	-0,090	-0,019
310,779	251,838	-0,134	0,157
311,793	355,991	-0,129	-0,178
312,808	-4,933	-0,176	-0,083
313,822	143,878	-0,157	-0,144
314,837	201,775	-0,075	-0,080
315,852	-200,000	-0,022	-0,153
316,866	-200,000	-0,030	-0,113
317,881	-200,000	-0,094	-0,348
318,895	10,764	-0,138	-0,072
319,910	242,534	-0,177	-0,204
320,925	115,122	-0,193	-0,162
321,939	-0,466	-0,287	-0,140
322,954	26,543	-0,201	-0,115
323,968	234,166	-0,097	0,110
324,983	-63,778	-0,051	0,014
325,997	-146,039	-0,134	-0,008
327,012	-30,542	-0,169	-0,065
328,027	107,263	-0,158	-0,129
329,041	20,203	-0,136	-0,075
330,056	283,146	-0,158	-0,195
331,070	-200,000	-0,022	-0,080
332,085	22,582	-0,130	-0,073
333,100	-200,000	0,002	-0,090
334,114	800,000	-0,084	-0,205
335,129	-57,652	-0,267	-0,080
336,143	210,754	-0,218	-0,235
337,158	-14,483	-0,120	-0,053
338,173	-109,260	-0,073	0,010
339,187	472,912	-0,067	-0,103
340,202	337,810	-0,096	-0,129
341,216	18,878	-0,106	-0,058
342,231	-200,000	-0,017	-0,143
343,246	-4,782	-0,093	-0,044
344,260	-26,596	-0,095	-0,038
345,275	179,577	-0,155	-0,156
346,289	-24,980	-0,176	0,071
347,304	-125,019	-0,060	-0,006
348,319	129,329	-0,148	-0,130
349,333	197,353	-0,189	-0,198
350,348	-80,467	-0,220	-0,050
351,362	373,693	-0,089	-0,124
352,377	-58,146	-0,040	-0,012
353,392	4,882	-0,253	0,127
354,406	649,020	-0,025	-0,044
355,421	210,186	1315,562	1417,990
356,435	161,795	1476,384	1418,465
