DTS Sentinel unit serial number:	SN410029Multiplexer serial number:	ORYXHardware model number:	OX2-SRSoftware version number:	ORYX F/W v4,00 Oryx Data Collector v3.7.2.0data status	okinstallation	B3 Nyhavnadifferential loss correction	single-endedforward channel	channel 1reverse channel	N/Adate	2023/12/04time	18:42:30forward acquisition time	300,00reverse acquisition time	0,00gamma	499,1914k internal	0,3200k external	0,3200temperature offset calibration	1,0000default loss term (dB/km)	0,3820temperature slope calibration	1,0000multiplexer offset coefficient	1,0000multiplexer slope coefficient	1,0000fibre end	0,00T internal ref (°C)	14,89T ext. ref 1 (°C)	-0,38T ext. ref 2 (°C)	-0,39length (m)	temperature (°C)	Stokes	anti-Stokes-744,400	211,427	-0,153	-0,175
-743,385	-200,000	0,038	0,266
-742,371	83,488	-0,135	-0,107
-741,356	800,000	0,138	0,374
-740,342	15,200	-0,273	-0,155
-739,327	-200,000	-0,016	0,262
-738,312	245,536	-0,156	-0,191
-737,298	-200,000	-0,024	0,265
-736,283	-76,728	-0,280	-0,071
-735,269	328,544	0,135	0,189
-734,254	150,426	-0,252	-0,249
-733,239	-200,000	-0,059	0,194
-732,225	800,000	-0,076	-0,240
-731,210	-7,887	0,137	0,067
-730,196	-9,215	-0,186	-0,090
-729,181	-49,975	0,107	0,037
-728,167	-17,918	-0,041	-0,019
-727,152	-200,000	-0,016	-0,071
-726,137	-65,420	-0,176	-0,051
-725,123	92,156	0,041	-0,034
-724,108	285,488	-0,044	0,058
-723,094	-97,860	-0,076	-0,014
-722,079	-200,000	0,047	-0,167
-721,064	-79,535	-0,112	-0,027
-720,050	-200,000	0,004	-0,031
-719,035	132,693	-0,066	0,062
-718,021	-147,735	-0,173	-0,010
-717,006	236,125	-0,048	0,058
-715,991	-10,898	-0,133	0,064
-714,977	800,000	-0,052	-0,121
-713,962	800,000	-0,032	-0,076
-712,948	351,874	-0,033	0,048
-711,933	800,000	0,042	0,122
-710,918	-59,968	-0,073	0,023
-709,904	-120,793	-0,151	-0,018
-708,889	127,608	-0,061	-0,057
-707,875	125,214	-0,091	-0,083
-706,860	9,590	-0,082	0,045
-705,845	551,601	0,039	-0,069
-704,831	-200,000	-0,006	0,064
-703,816	23,035	0,076	-0,045
-702,802	-200,000	0,015	0,121
-701,787	465,515	0,011	-0,018
-700,772	168,694	-0,045	0,046
-699,758	567,002	0,044	-0,077
-698,743	-118,601	0,146	-0,019
-697,729	225,963	-0,106	0,125
-696,714	1,225	0,049	0,026
-695,699	-200,000	-0,009	0,061
-694,685	193,762	-0,059	0,065
-693,670	710,321	-0,058	-0,111
-692,656	-200,000	-0,040	-0,130
-691,641	10,916	0,132	0,073
-690,627	-200,000	0,020	0,103
-689,612	800,000	-0,017	0,040
-688,597	437,041	-0,038	0,060
-687,583	496,978	0,050	-0,083
-686,568	-200,000	-0,032	0,123
-685,554	800,000	-0,027	0,084
-684,539	243,051	0,025	0,030
-683,524	139,929	0,051	0,049
-682,510	-92,282	0,023	0,005
-681,495	34,777	-0,068	-0,043
-680,481	-96,237	-0,153	0,029
-679,466	-173,259	-0,104	-0,002
-678,451	58,458	-0,033	0,024
-677,437	-151,302	0,006	-0,000
-676,422	800,000	0,017	0,047
-675,408	122,529	0,068	0,062
-674,393	535,134	0,027	-0,046
-673,378	-40,864	-0,148	-0,055
-672,364	-200,000	-0,005	-0,088
-671,349	671,902	0,075	-0,142
-670,335	-136,437	0,057	-0,005
-669,320	196,059	0,107	0,119
-668,305	-125,050	-0,060	-0,007
-667,291	330,333	-0,079	0,111
-666,276	489,183	-0,025	-0,041
-665,262	342,585	-0,059	-0,084
-664,247	800,000	-0,023	-0,049
-663,232	344,030	-0,028	0,040
-662,218	170,992	-0,067	-0,070
-661,203	244,687	-0,062	0,075
-660,189	60,076	0,009	-0,007
-659,174	-113,883	-0,137	-0,019
-658,159	800,000	0,041	-0,111
-657,145	603,506	-0,022	-0,040
-656,130	422,490	-0,064	0,100
-655,116	-69,619	-0,040	-0,011
-654,101	-56,008	-0,031	-0,010
-653,086	800,000	0,011	0,033
-652,072	445,792	-0,038	0,061
-651,057	-75,899	-0,176	-0,045
-650,043	220,179	0,039	-0,045
-649,028	682,738	-0,043	-0,082
-648,014	-200,000	0,003	-0,118
-646,999	-145,016	-0,048	0,003
-645,984	196,138	-0,094	-0,104
-644,970	182,791	-0,088	0,094
-643,955	-24,020	-0,128	-0,055
-642,941	82,100	-0,117	-0,092
-641,926	483,938	-0,091	0,150
-640,911	800,000	-0,016	0,034
-639,897	-200,000	0,001	-0,045
-638,882	443,615	-0,055	-0,088
-637,868	107,247	0,055	-0,047
-636,853	-145,222	-0,084	0,005
-635,838	195,032	-0,070	-0,077
-634,824	285,376	-0,031	0,041
-633,809	151,490	0,044	0,044
-632,795	3,092	0,080	0,042
-631,780	452,618	0,025	0,040
-630,765	-200,000	-0,017	-0,057
-629,751	-57,544	-0,183	-0,058
-628,736	-200,000	-0,022	-0,092
-627,722	239,655	-0,043	-0,052
-626,707	-134,708	0,123	0,011
-625,692	63,435	-0,139	0,101
-624,678	553,586	-0,013	-0,022
-623,663	800,000	0,026	-0,071
-622,649	-200,000	-0,020	-0,070
-621,634	7,318	-0,206	0,111
-620,619	130,257	-0,069	0,064
-619,605	101,927	0,047	0,040
-618,590	609,751	-0,041	-0,075
-617,576	-200,000	-0,008	0,027
-616,561	800,000	-0,060	0,162
-615,546	65,543	-0,159	0,117
-614,532	800,000	-0,037	-0,104
-613,517	800,000	0,019	0,049
-612,503	643,293	0,054	-0,101
-611,488	471,538	0,046	-0,075
-610,474	-74,976	-0,121	-0,031
-609,459	-125,312	0,045	-0,005
-608,444	99,530	-0,083	-0,069
-607,430	-39,980	0,085	0,032
-606,415	-60,025	-0,094	0,029
-605,401	-200,000	-0,000	0,041
-604,386	-200,000	0,009	-0,060
-603,371	-80,875	0,035	0,008
-602,357	60,817	-0,091	-0,065
-601,342	-200,000	-0,023	-0,086
-600,328	-71,705	-0,147	-0,039
-599,313	800,000	-0,030	0,069
-598,298	119,166	0,146	0,131
-597,284	800,000	0,027	0,054
-596,269	37,655	-0,065	-0,042
-595,255	800,000	0,012	-0,030
-594,240	91,862	-0,030	0,024
-593,225	76,320	-0,026	0,020
-592,211	-200,000	-0,022	-0,089
-591,196	142,934	0,086	0,083
-590,182	467,120	0,039	0,064
-589,167	-200,000	-0,023	0,105
-588,152	-70,364	-0,105	0,029
-587,138	14,750	0,061	0,034
-586,123	-200,000	0,008	0,062
-585,109	-200,000	0,010	-0,051
-584,094	-144,891	-0,070	0,005
-583,079	-73,209	-0,111	0,029
-582,065	-200,000	0,008	0,028
-581,050	-40,708	0,084	0,031
-580,036	800,000	-0,074	-0,187
-579,021	-20,837	0,077	-0,034
-578,006	48,058	0,046	-0,031
-576,992	-200,000	-0,024	0,264
-575,977	-200,000	-0,015	0,136
-574,963	70,196	0,138	0,103
-573,948	304,098	0,050	-0,067
-572,934	800,000	-0,030	-0,082
-571,919	-200,000	-0,026	0,100
-570,904	-62,395	-0,099	0,030
-569,890	-132,304	-0,131	0,012
-568,875	492,409	0,031	0,052
-567,861	482,604	0,082	0,135
-566,846	-48,034	-0,204	0,071
-565,831	800,000	-0,013	0,033
-564,817	46,465	0,089	-0,060
-563,802	800,000	-0,025	-0,053
-562,788	398,765	0,018	-0,027
-561,773	64,170	0,043	0,031
-560,758	-119,770	0,234	-0,029
-559,744	-200,000	0,011	-0,103
-558,729	-200,000	-0,003	0,060
-557,715	800,000	-0,054	-0,137
-556,700	800,000	0,019	0,058
-555,685	267,601	-0,041	-0,052
-554,671	237,404	-0,070	-0,084
-553,656	-5,668	0,114	0,056
-552,642	-12,440	0,104	0,049
-551,627	-10,717	0,056	0,027
-550,612	172,009	0,016	0,017
-549,598	-183,860	-0,046	0,001
-548,583	-83,396	-0,030	-0,007
-547,569	-200,000	0,006	-0,040
-546,554	-200,000	0,048	-0,181
-545,539	-200,000	0,014	-0,175
-544,525	116,365	-0,089	0,079
-543,510	800,000	0,086	-0,193
-542,496	800,000	-0,064	-0,203
-541,481	800,000	-0,055	0,116
-540,466	367,864	0,037	-0,054
-539,452	-200,000	-0,013	-0,108
-538,437	9,846	-0,166	-0,091
-537,423	351,023	-0,075	-0,107
-536,408	18,254	-0,057	0,033
-535,393	33,114	-0,053	-0,033
-534,379	384,959	-0,095	-0,143
-533,364	800,000	-0,021	-0,051
-532,350	25,612	-0,019	0,011
-531,335	409,109	0,105	0,160
-530,321	94,970	0,056	0,046
-529,306	141,691	-0,085	0,082
-528,291	-93,024	-0,126	-0,025
-527,277	-200,000	0,014	-0,071
-526,262	-200,000	0,011	-0,048
-525,248	-200,000	0,006	-0,029
-524,233	351,211	-0,070	0,100
-523,218	-200,000	0,014	-0,114
-522,204	215,662	-0,044	-0,051
-521,189	-34,012	-0,135	0,053
-520,175	-21,653	-0,091	0,040
-519,160	7,341	-0,062	0,033
-518,145	419,256	-0,015	0,023
-517,131	800,000	0,074	0,190
-516,116	373,020	0,040	0,059
-515,102	-18,618	0,084	-0,038
-514,087	-200,000	0,010	-0,092
-513,072	226,902	-0,157	-0,184
-512,058	-7,368	0,106	-0,051
-511,043	42,897	0,067	-0,044
-510,029	43,384	0,040	0,027
-509,014	-72,408	0,062	0,016
-507,999	28,671	0,058	-0,035
-506,985	456,653	-0,036	0,058
-505,970	163,855	-0,086	-0,087
-504,956	-200,000	-0,016	0,052
-503,941	-14,542	0,060	-0,028
-502,926	-96,380	0,047	0,009
-501,912	800,000	-0,008	0,025
-500,897	-10,050	-0,033	-0,016
-499,883	-200,000	-0,024	0,122
-498,868	-123,779	0,104	-0,012
-497,853	-200,000	0,023	-0,108
-496,839	72,073	-0,098	0,074
-495,824	-200,000	0,012	0,073
-494,810	301,653	0,022	0,029
-493,795	-200,000	0,016	-0,059
-492,781	716,373	-0,028	0,053
-491,766	-159,214	-0,102	-0,004
-490,751	598,021	-0,012	0,022
-489,737	-71,804	-0,120	-0,032
-488,722	422,248	0,080	-0,124
-487,708	-145,611	0,066	-0,004
-486,693	-185,917	-0,135	0,001
-485,678	67,475	0,026	-0,019
-484,664	-200,000	-0,013	-0,088
-483,649	10,197	-0,124	0,068
-482,635	70,644	0,077	-0,057
-481,620	796,296	0,025	-0,049
-480,605	800,000	0,032	-0,082
-479,591	-140,072	-0,042	0,003
-478,576	-200,000	-0,011	0,107
-477,562	-40,643	-0,010	-0,004
-476,547	467,917	-0,064	-0,104
-475,532	65,164	0,023	-0,017
-474,518	43,057	0,051	-0,034
-473,503	417,185	0,064	0,098
-472,489	-20,445	0,113	-0,050
-471,474	800,000	-0,041	-0,096
-470,459	48,294	-0,109	0,074
-469,445	-200,000	0,028	-0,105
-468,430	116,812	-0,099	-0,087
-467,416	-10,192	0,120	-0,057
-466,401	-126,136	0,151	0,016
-465,386	382,418	0,020	0,030
-464,372	-73,988	0,115	0,030
-463,357	135,371	0,044	-0,041
-462,343	-30,740	-0,031	-0,012
-461,328	800,000	-0,041	-0,094
-460,313	-8,372	0,101	-0,049
-459,299	-54,188	0,050	0,016
-458,284	-20,179	0,167	0,074
-457,270	601,625	-0,032	-0,058
-456,255	-200,000	-0,001	0,023
-455,241	-35,621	0,058	0,023
-454,226	-200,000	0,001	0,095
-453,211	-200,000	-0,003	-0,096
-452,197	800,000	0,052	0,108
-451,182	53,586	0,187	0,129
-450,168	92,570	-0,044	0,036
-449,153	-200,000	-0,051	-0,202
-448,138	433,055	-0,028	-0,043
-447,124	-78,614	-0,099	0,024
-446,109	-10,856	0,072	-0,034
-445,095	65,046	0,043	0,031
-444,080	125,292	-0,038	0,034
-443,065	-85,527	0,176	0,039
-442,051	800,000	0,056	0,162
-441,036	800,000	0,049	-0,098
-440,022	-81,859	-0,137	-0,032
-439,007	122,576	0,060	-0,054
-437,992	-200,000	0,011	-0,096
-436,978	800,000	-0,026	0,062
-435,963	-116,447	-0,088	0,012
-434,949	-200,000	0,009	0,073
-433,934	-110,012	0,049	0,007
-432,919	173,767	-0,095	0,099
-431,905	800,000	0,044	0,100
-430,890	325,004	0,012	-0,017
-429,876	269,942	-0,064	0,081
-428,861	661,154	0,016	0,030
-427,846	800,000	-0,028	-0,082
-426,832	-30,670	-0,144	-0,058
-425,817	86,418	0,028	0,022
-424,803	139,828	0,116	-0,110
-423,788	-200,000	0,005	-0,033
-422,773	537,491	0,042	0,072
-421,759	-200,000	0,039	0,158
-420,744	55,777	-0,104	0,072
-419,730	-120,595	-0,103	-0,012
-418,715	423,234	0,091	-0,140
-417,701	360,102	-0,042	-0,060
-416,686	167,639	0,038	0,039
-415,671	-200,000	0,012	0,045
-414,657	800,000	0,044	-0,108
-413,642	800,000	0,010	-0,030
-412,628	2,473	0,052	-0,027
-411,613	-200,000	-0,011	-0,049
-410,598	-200,000	-0,017	-0,077
-409,584	-200,000	-0,016	-0,148
-408,569	-200,000	-0,018	0,140
-407,555	-37,220	0,149	0,057
-406,540	-200,000	-0,019	-0,117
-405,525	90,636	0,055	-0,044
-404,511	-200,000	-0,008	-0,052
-403,496	-200,000	-0,005	-0,104
-402,482	203,697	0,070	0,078
-401,467	120,996	0,028	-0,025
-400,452	-200,000	0,004	0,104
-399,438	138,488	0,085	0,080
-398,423	-86,050	0,043	0,010
-397,409	-109,560	-0,189	-0,028
-396,394	287,340	0,100	-0,130
-395,379	-125,285	-0,087	0,009
-394,365	-90,212	0,106	0,022
-393,350	703,664	0,039	0,074
-392,336	800,000	-0,052	0,161
-391,321	553,259	0,038	0,067
-390,306	800,000	-0,017	0,035
-389,292	25,243	-0,039	0,023
-388,277	800,000	0,009	-0,018
-387,263	43,541	-0,127	-0,083
-386,248	-16,161	0,177	0,081
-385,233	800,000	0,008	-0,024
-384,219	223,581	0,026	0,030
-383,204	251,312	0,053	0,064
-382,190	-200,000	-0,011	0,115
-381,175	-38,821	0,016	0,006
-380,160	-200,000	-0,020	-0,088
-379,146	800,000	0,077	0,158
-378,131	233,419	0,055	-0,065
-377,117	752,535	0,041	0,081
-376,102	-126,120	-0,099	0,011
-375,088	800,000	-0,045	-0,101
-374,073	-42,088	-0,049	0,018
-373,058	291,099	0,059	0,077
-372,044	-200,000	0,041	-0,155
-371,029	-107,711	-0,008	-0,001
-370,015	316,546	0,116	-0,158
-369,000	431,914	-0,098	-0,153
-367,985	3,291	-0,156	0,081
-366,971	-200,000	-0,023	0,104
-365,956	-150,750	0,074	-0,004
-364,942	169,037	0,100	0,102
-363,927	800,000	0,060	-0,133
-362,912	235,765	-0,016	0,019
-361,898	344,275	0,038	-0,054
-360,883	800,000	0,031	0,065
-359,869	-200,000	0,000	0,081
-358,854	-20,582	0,087	-0,038
-357,839	4,128	0,089	-0,047
-356,825	424,089	-0,012	-0,018
-355,810	-115,528	-0,065	-0,009
-354,796	-200,000	0,035	-0,120
-353,781	241,239	-0,050	-0,059
-352,766	-100,758	-0,096	0,017
-351,752	327,531	-0,023	0,031
-350,737	61,101	0,077	0,055
-349,723	-113,184	0,065	-0,009
-348,708	35,487	0,083	0,052
-347,693	249,886	0,078	0,095
-346,679	602,517	-0,059	0,106
-345,664	-56,736	-0,148	-0,047
-344,650	-200,000	-0,027	0,106
-343,635	-165,669	-0,081	-0,002
-342,620	-9,375	0,044	0,021
-341,606	635,625	-0,061	-0,112
-340,591	137,017	0,063	-0,059
-339,577	109,178	0,032	-0,027
-338,562	199,655	0,021	0,023
-337,548	307,186	-0,019	0,026
-336,533	126,142	0,150	0,136
-335,518	-200,000	0,003	0,015
-334,504	-200,000	0,005	0,126
-333,489	685,126	0,035	0,066
-332,475	491,119	0,072	0,118
-331,460	800,000	0,035	-0,101
-330,445	-5,674	0,064	0,032
-329,431	207,448	0,063	0,070
-328,416	-128,273	0,059	0,006
-327,402	800,000	-0,018	-0,037
-326,387	407,007	-0,035	0,054
-325,372	-127,892	-0,120	-0,012
-324,358	-170,008	-0,143	0,004
-323,343	800,000	0,014	-0,040
-322,329	160,338	0,037	-0,037
-321,314	-200,000	-0,010	0,105
-320,299	-200,000	-0,006	0,045
-319,285	92,600	0,134	0,108
-318,270	68,475	-0,091	-0,067
-317,256	-7,926	-0,042	0,020
-316,241	48,931	0,076	-0,051
-315,226	73,229	0,137	0,102
-314,212	-200,000	-0,008	0,079
-313,197	42,096	0,116	0,075
-312,183	-200,000	-0,016	0,149
-311,168	47,274	-0,083	-0,055
-310,153	-5,429	0,119	-0,058
-309,139	-8,237	-0,131	-0,063
-308,124	-68,944	0,098	0,027
-307,110	-17,428	0,034	-0,015
-306,095	104,574	-0,089	0,075
-305,080	-105,699	0,065	-0,010
-304,066	22,446	-0,046	0,027
-303,051	800,000	-0,021	-0,052
-302,037	150,379	0,051	-0,049
-301,022	109,436	0,012	-0,010
-300,008	402,948	0,069	0,104
-298,993	-200,000	0,003	0,090
-297,978	209,062	-0,078	0,087
-296,964	354,954	-0,038	0,055
-295,949	167,710	-0,040	0,041
-294,935	379,381	0,027	-0,039
-293,920	41,049	0,161	-0,104
-292,905	690,519	-0,030	0,057
-291,891	-33,789	0,061	0,024
-290,876	2,553	0,066	-0,034
-289,862	-200,000	0,016	-0,074
-288,847	-200,000	0,014	-0,085
-287,832	-200,000	0,030	-0,146
-286,818	230,029	-0,043	0,050
-285,803	32,685	0,086	-0,053
-284,789	300,215	0,074	0,098
-283,774	364,220	-0,009	-0,013
-282,759	-108,222	-0,106	-0,016
-281,745	800,000	0,054	-0,155
-280,730	433,198	-0,042	-0,065
-279,716	239,627	0,054	-0,065
-278,701	25,041	-0,042	-0,025
-277,686	160,762	0,079	0,079
-276,672	34,678	0,098	0,061
-275,657	523,797	0,027	-0,045
-274,643	-200,000	-0,019	0,150
-273,628	800,000	-0,035	-0,076
-272,613	251,363	0,030	0,036
-271,599	-96,892	0,030	0,006
-270,584	800,000	0,031	-0,085
-269,570	-13,563	0,096	-0,044
-268,555	278,809	-0,052	-0,066
-267,540	-200,000	0,016	-0,090
-266,526	800,000	0,021	0,050
-265,511	-200,000	-0,028	0,151
-264,497	-200,000	0,000	0,027
-263,482	-200,000	-0,014	0,143
-262,467	-73,656	-0,115	0,030
-261,453	-200,000	0,008	-0,149
-260,438	-42,460	-0,070	-0,025
-259,424	-3,049	-0,040	0,020
-258,409	-200,000	0,012	-0,086
-257,395	-111,487	0,073	0,010
-256,380	348,415	-0,088	0,125
-255,365	24,797	0,145	-0,086
-254,351	-200,000	0,004	0,043
-253,336	-200,000	0,041	0,172
-252,322	-82,450	0,067	-0,015
-251,307	40,021	-0,111	0,071
-250,292	800,000	-0,020	0,060
-249,278	487,258	0,033	-0,054
-248,263	75,115	0,039	-0,029
-247,249	-131,432	0,043	0,004
-246,234	636,544	0,054	-0,098
-245,219	794,731	-0,047	-0,093
-244,205	628,431	0,045	-0,081
-243,190	-102,567	-0,132	0,022
-242,176	57,032	-0,031	-0,022
-241,161	-4,385	0,104	0,051
-240,146	56,911	0,069	0,048
-239,132	470,779	0,028	0,044
-238,117	-200,000	0,001	-0,128
-237,103	-136,804	-0,080	-0,006
-236,088	601,908	-0,084	-0,150
-235,073	-61,957	0,059	-0,017
-234,059	-61,214	0,120	0,036
-233,044	-116,940	0,073	0,009
-232,030	-120,218	-0,107	-0,013
-231,015	127,403	-0,025	-0,022
-230,000	3,929	-0,127	-0,066
-228,986	37,401	-0,058	-0,036
-227,971	-200,000	0,005	-0,040
-226,957	800,000	0,053	0,131
-225,942	-200,000	0,031	0,138
-224,927	22,826	-0,038	-0,022
-223,913	-93,849	0,121	0,024
-222,898	-35,999	-0,106	-0,040
-221,884	40,062	0,089	0,057
-220,869	-145,271	-0,126	0,008
-219,855	136,084	0,075	0,070
-218,840	800,000	0,042	0,123
-217,825	-200,000	-0,010	0,113
-216,811	693,438	0,071	0,133
-215,796	-42,581	-0,106	-0,038
-214,782	229,100	0,048	-0,055
-213,767	-200,000	-0,005	-0,050
-212,752	153,942	-0,017	0,017
-211,738	-200,000	0,018	0,089
-210,723	800,000	-0,032	0,090
-209,709	238,627	0,029	0,035
-208,694	122,763	-0,097	-0,087
-207,679	-28,185	-0,028	-0,011
-206,665	-3,592	0,129	0,064
-205,650	197,480	0,022	-0,024
-204,636	800,000	0,035	0,083
-203,621	554,797	0,056	0,096
-202,606	215,993	-0,034	0,039
-201,592	-140,432	-0,158	0,012
-200,577	507,284	0,008	-0,013
-199,563	172,820	0,080	0,082
-198,548	-200,000	-0,008	-0,105
-197,533	-107,724	0,044	0,007
-196,519	-200,000	0,001	-0,081
-195,504	78,712	0,152	0,116
-194,490	-186,112	-0,063	-0,001
-193,475	-11,947	0,102	0,047
-192,460	-200,000	-0,009	-0,073
-191,446	-200,000	-0,001	0,022
-190,431	470,925	-0,036	0,058
-189,417	43,387	-0,078	-0,051
-188,402	381,390	0,038	0,056
-187,387	611,788	0,048	-0,086
-186,373	800,000	-0,086	-0,176
-185,358	800,000	0,040	-0,085
-184,344	-200,000	0,009	0,063
-183,329	663,032	-0,030	-0,056
-182,315	-141,134	-0,081	0,006
-181,300	-200,000	-0,020	0,069
-180,285	7,664	-0,004	-0,002
-179,271	-137,296	-0,104	-0,008
-178,256	-200,000	-0,038	-0,183
-177,242	-200,000	-0,002	0,032
-176,227	46,315	0,094	0,062
-175,212	800,000	0,034	0,095
-174,198	85,069	-0,132	-0,103
-173,183	-135,608	0,066	0,006
-172,169	-200,000	0,001	-0,050
-171,154	-81,475	-0,065	-0,015
-170,139	-200,000	-0,014	-0,071
-169,125	408,763	0,004	0,007
-168,110	88,055	0,083	0,065
-167,096	-115,915	-0,032	0,004
-166,081	-200,000	-0,025	-0,096
-165,066	-200,000	-0,029	-0,114
-164,052	-132,441	-0,044	-0,004
-163,037	334,753	-0,047	0,064
-162,023	-200,000	0,027	0,094
-161,008	-200,000	0,006	0,106
-159,993	-200,000	0,014	0,128
-158,979	240,678	-0,059	-0,070
-157,964	29,942	0,136	-0,082
-156,950	15,475	-0,143	0,080
-155,935	44,978	0,077	-0,050
-154,920	104,176	0,068	-0,057
-153,906	-78,430	-0,103	0,025
-152,891	59,727	-0,056	0,039
-151,877	337,480	-0,050	-0,070
-150,862	-62,436	-0,154	0,045
-149,847	101,116	0,018	0,015
-148,833	800,000	0,015	0,036
-147,818	800,000	0,044	0,126
-146,804	116,742	-0,035	-0,031
-145,789	530,865	0,019	-0,031
-144,775	-200,000	0,004	0,015
-143,760	-32,327	0,103	-0,041
-142,745	800,000	-0,007	-0,017
-141,731	47,219	-0,065	0,043
-140,716	22,990	0,170	0,099
-139,702	112,345	0,088	0,076
-138,687	-141,807	-0,004	-0,000
-137,672	-46,481	-0,082	0,028
-136,658	86,456	0,019	0,015
-135,643	800,000	0,046	-0,113
-134,629	485,861	-0,078	-0,127
-133,614	755,704	0,009	-0,017
-132,599	-93,584	0,092	0,018
-131,585	800,000	0,034	-0,073
-130,570	-162,787	-0,055	0,002
-129,556	-200,000	0,003	-0,032
-128,541	-200,000	-0,032	-0,149
-127,526	82,471	-0,055	-0,043
-126,512	-8,271	0,048	0,023
-125,497	90,708	0,081	0,064
-124,483	147,476	-0,025	0,024
-123,468	-44,304	-0,193	0,068
-122,453	66,643	-0,118	-0,085
-121,439	-200,000	-0,007	-0,045
-120,424	800,000	-0,052	-0,132
-119,410	-3,971	0,065	0,032
-118,395	50,768	0,163	0,110
-117,380	564,687	-0,044	-0,076
-116,366	-200,000	0,035	-0,254
-115,351	-180,832	-0,069	-0,001
-114,337	-200,000	-0,011	-0,091
-113,322	256,897	0,004	-0,005
-112,307	-200,000	-0,003	-0,112
-111,293	800,000	0,052	0,105
-110,278	467,803	-0,041	0,066
-109,264	-33,932	-0,055	-0,021
-108,249	-200,000	-0,024	-0,079
-107,234	-89,293	-0,061	-0,013
-106,220	-53,261	-0,112	-0,036
-105,205	606,811	0,075	-0,133
-104,191	198,964	-0,076	0,082
-103,176	73,187	0,067	0,050
-102,162	800,000	-0,063	0,155
-101,147	-59,955	0,038	-0,011
-100,132	106,238	-0,073	-0,061
-99,118	-200,000	0,000	-0,016
-98,103	-200,000	0,056	0,244
-97,089	143,478	-0,047	-0,044
-96,074	-125,132	0,102	-0,011
-95,059	-200,000	0,007	0,023
-94,045	121,433	-0,140	-0,124
-93,030	274,638	0,034	-0,043
-92,016	486,790	-0,033	-0,054
-91,001	-150,562	-0,128	0,007
-89,986	701,107	0,051	0,096
-88,972	584,503	0,095	0,166
-87,957	184,420	-0,086	0,090
-86,943	-21,020	-0,056	-0,024
-85,928	-164,162	-0,105	0,003
-84,913	60,534	-0,032	0,022
-83,899	-200,000	-0,014	-0,189
-82,884	-111,827	0,088	0,012
-81,870	73,026	0,121	0,090
-80,855	398,035	-0,114	0,170
-79,840	-64,515	0,099	0,028
-78,826	-187,364	-0,069	-0,001
-77,811	-200,000	0,040	-0,139
-76,797	19,883	0,076	-0,044
-75,782	41,055	0,028	0,018
-74,767	640,520	0,095	0,171
-73,753	-27,177	0,068	-0,028
-72,738	-122,251	-0,103	0,012
-71,724	224,390	-0,055	-0,063
-70,709	-125,753	-0,027	-0,003
-69,694	-138,501	0,092	-0,007
-68,680	163,142	-0,137	0,137
-67,665	-162,503	0,156	-0,005
-66,651	-18,129	-0,072	-0,032
-65,636	162,099	-0,045	-0,045
-64,622	-200,000	-0,021	0,146
-63,607	-200,000	0,006	-0,129
-62,592	-108,518	-0,068	-0,010
-61,578	-200,000	-0,005	-0,169
-60,563	-117,482	0,067	0,009
-59,549	432,211	0,104	0,160
-58,534	-44,911	-1,560	-0,548
-57,519	389,595	-1,479	-2,177
-56,505	-200,000	-0,559	-4,605
-55,490	139,729	0,934	0,872
-54,476	800,000	4,754	11,285
-53,461	-200,000	18,501	290,251
-52,446	800,000	728,499	2237,147
-51,432	556,177	1644,483	2816,103
-50,417	79,159	1666,416	1263,104
-49,403	22,730	1539,975	890,830
-48,388	16,731	1463,190	817,338
-47,373	17,836	1453,074	816,977
-46,359	17,188	1443,433	808,426
-45,344	15,021	1439,061	795,590
-44,330	14,966	1436,897	794,099
-43,315	14,975	1435,051	793,091
-42,300	14,967	1433,512	792,172
-41,286	15,014	1432,473	791,789
-40,271	14,996	1431,174	790,955
-39,257	14,962	1429,873	790,044
-38,242	14,997	1428,647	789,498
-37,227	14,992	1427,431	788,770
-36,213	14,990	1426,005	787,946
-35,198	15,000	1424,961	787,384
-34,184	15,022	1423,979	786,915
-33,169	14,959	1422,815	785,943
-32,154	14,993	1421,750	785,484
-31,140	14,969	1420,630	784,718
-30,125	15,056	1419,171	784,293
-29,111	15,018	1418,097	783,490
-28,096	15,005	1417,002	782,792
-27,082	14,947	1415,929	781,896
-26,067	14,930	1414,921	781,227
-25,052	14,946	1413,827	780,669
-24,038	14,851	1412,957	779,709
-23,023	14,863	1411,855	779,128
-22,009	14,897	1410,757	778,651
-20,994	14,821	1410,079	777,888
-19,979	14,881	1409,011	777,550
-18,965	14,839	1408,077	776,806
-17,950	14,833	1407,063	776,187
-16,936	14,873	1406,199	775,866
-15,921	14,836	1405,038	775,025
-14,906	14,853	1403,977	774,488
-13,892	14,847	1402,983	773,879
-12,877	14,833	1402,418	773,472
-11,863	14,834	1401,341	772,851
-10,848	14,826	1400,638	772,398
-9,833	14,804	1399,609	771,695
-8,819	14,749	1398,828	770,979
-7,804	14,735	1397,731	770,281
-6,790	14,717	1396,794	769,648
-5,775	14,749	1395,646	769,134
-4,760	14,733	1394,776	768,550
-3,746	14,703	1394,245	768,088
-2,731	14,755	1393,336	767,796
-1,717	14,744	1392,202	767,089
-0,702	14,712	1390,197	765,807
0,313	18,482	1309,268	738,696
1,327	34,719	706,418	436,179
2,342	53,524	124,467	84,363
3,356	5,464	16,521	8,602
4,371	12,799	3,029	1,651
5,386	-53,340	0,521	0,168
6,400	800,000	0,052	0,151
7,415	81,612	-0,154	-0,118
8,429	170,265	-0,299	-0,303
9,444	137,292	-0,317	-0,293
10,459	76,635	-0,287	-0,215
11,473	16,140	-0,265	-0,147
12,488	49,355	-0,303	-0,201
13,502	21,452	-0,330	-0,189
14,517	-32,068	-0,424	-0,167
15,531	-17,336	-0,431	-0,191
16,546	41,562	-0,344	-0,220
17,561	72,559	-0,399	-0,294
18,575	185,369	-0,236	-0,248
19,590	239,840	-0,334	-0,394
20,604	32,637	-0,273	-0,167
21,619	227,681	-0,275	-0,316
22,634	-39,398	-0,554	-0,204
23,648	133,221	-0,399	-0,364
24,663	15,515	-0,498	-0,275
25,677	16,042	-0,425	-0,236
26,692	197,317	-0,261	-0,281
27,707	42,012	-0,430	-0,275
28,721	154,192	-0,177	-0,171
29,736	33,223	-0,490	-0,300
30,750	62,961	-0,455	-0,321
31,765	99,791	-0,271	-0,222
32,780	-40,967	-0,436	-0,158
33,794	84,850	-0,337	-0,261
34,809	112,840	-0,377	-0,322
35,823	34,480	-0,309	-0,190
36,838	-30,761	-0,340	-0,135
37,853	-33,720	-0,460	-0,178
38,867	-28,507	-0,398	-0,161
39,882	281,037	-0,268	-0,339
40,896	54,904	-0,447	-0,304
41,911	800,000	-0,169	-0,408
42,926	69,464	-0,368	-0,267
43,940	91,741	-0,385	-0,305
44,955	29,944	-0,346	-0,207
45,969	269,214	-0,312	-0,387
46,984	-38,367	-0,368	-0,137
47,999	-0,972	-0,267	-0,133
49,013	93,618	-0,337	-0,269
50,028	-24,291	-0,431	-0,180
51,042	52,939	-0,355	-0,239
52,057	-12,027	-0,432	-0,199
53,071	37,856	-0,513	-0,320
54,086	-37,658	-0,367	-0,137
55,101	79,758	-0,269	-0,204
56,115	206,771	-0,275	-0,302
57,130	92,068	-0,320	-0,253
58,144	-28,403	-0,399	-0,161
59,159	218,017	-0,308	-0,347
60,174	72,584	-0,415	-0,305
61,188	33,420	-0,367	-0,224
62,203	28,260	-0,239	-0,142
63,217	-93,593	-0,316	-0,061
64,232	24,838	-0,304	-0,177
65,247	55,628	-0,284	-0,193
66,261	72,421	-0,312	-0,229
67,276	-20,862	-0,397	-0,170
68,290	184,115	-0,292	-0,304
69,305	53,644	-0,290	-0,196
70,320	-40,375	-0,269	-0,098
71,334	-27,849	-0,324	-0,132
72,349	139,039	-0,304	-0,281
73,363	60,377	-0,307	-0,214
74,378	135,602	-0,335	-0,307
75,393	173,337	-0,273	-0,277
76,407	15,333	-0,298	-0,164
77,422	-114,600	-0,297	-0,040
78,436	133,070	-0,247	-0,224
79,451	53,542	-0,228	-0,154
80,466	-7,762	-0,400	-0,189
81,480	-65,813	-0,325	-0,091
82,495	-3,674	-0,284	-0,138
83,509	52,912	-0,296	-0,198
84,524	35,478	-0,232	-0,143
85,539	4,654	-0,188	-0,097
86,553	326,863	-0,228	-0,308
87,568	4,127	-0,365	-0,187
88,582	49,671	-0,340	-0,225
89,597	260,426	-0,254	-0,309
90,611	-0,513	-0,326	-0,162
91,626	800,000	-0,172	-0,336
92,641	83,405	-0,281	-0,215
93,655	231,374	-0,226	-0,261
94,670	-49,502	-0,355	-0,118
95,684	18,422	-0,245	-0,137
96,699	-20,929	-0,351	-0,150
97,714	37,110	-0,365	-0,226
98,728	77,283	-0,197	-0,147
99,743	-24,418	-0,227	-0,094
100,757	95,751	-0,257	-0,205
101,772	346,471	-0,206	-0,285
102,787	503,612	-0,124	-0,202
103,801	-16,494	-0,298	-0,132
104,816	167,662	-0,201	-0,201
105,830	224,635	-0,168	-0,191
106,845	397,461	-0,171	-0,251
107,860	-53,655	-0,258	-0,082
108,874	29,312	-0,308	-0,183
109,889	-74,871	-0,251	-0,063
110,903	65,241	-0,276	-0,195
111,918	127,607	-0,266	-0,237
112,933	47,767	-0,299	-0,195
113,947	506,164	-0,207	-0,338
114,962	219,699	-0,154	-0,173
115,976	250,292	-0,257	-0,306
116,991	-5,104	-0,309	-0,148
118,006	399,832	-0,174	-0,257
119,020	14,903	-0,302	-0,165
120,035	214,680	-0,127	-0,142
121,049	65,687	-0,217	-0,154
122,064	54,838	-0,301	-0,203
123,079	369,114	-0,188	-0,267
124,093	16,290	-0,224	-0,124
125,108	-112,563	-0,282	-0,039
126,122	39,016	-0,290	-0,181
127,137	101,263	-0,142	-0,115
128,151	800,000	0,034	-0,077
129,166	-134,774	-0,300	-0,025
130,181	-135,805	-0,246	-0,020
131,195	11,066	-0,377	-0,201
132,210	-26,499	-0,399	-0,163
133,224	75,692	-0,175	-0,129
134,239	32,412	-0,225	-0,136
135,254	164,310	-0,116	-0,115
136,268	34,857	-0,304	-0,185
137,283	135,694	-0,138	-0,126
138,297	106,790	-0,279	-0,232
139,312	-77,109	-0,314	-0,076
140,327	335,766	-0,193	-0,263
141,341	52,792	-0,350	-0,233
142,356	-12,705	-0,277	-0,126
143,370	-24,611	-0,261	-0,108
144,385	293,014	-0,181	-0,231
145,400	245,030	-0,194	-0,228
146,414	23,726	-0,238	-0,137
147,429	145,451	-0,317	-0,297
148,443	-68,709	-0,237	0,064
149,458	590,614	-0,059	-0,102
150,473	235,247	-0,116	-0,134
151,487	-19,879	-0,197	-0,085
152,502	125,334	-0,227	-0,200
153,516	78,790	-0,203	-0,151
154,531	683,075	-0,158	-0,288
155,546	131,337	-0,177	-0,159
156,560	-63,276	-0,201	-0,057
157,575	123,891	-0,130	-0,114
158,589	304,593	-0,226	-0,294
159,604	-116,910	-0,215	0,027
160,619	41,650	-0,161	-0,102
161,633	49,358	-0,256	-0,168
162,648	30,748	-0,209	-0,124
163,662	141,908	-0,218	-0,202
164,677	206,033	-0,179	-0,194
165,692	356,990	-0,224	-0,313
166,706	-18,860	-0,205	-0,089
167,721	-200,000	-0,029	-0,188
168,735	209,612	-0,208	-0,228
169,750	80,925	-0,329	-0,247
170,764	7,770	-0,352	-0,183
171,779	152,367	-0,211	-0,201
172,794	93,847	-0,196	-0,154
173,808	179,920	-0,202	-0,206
174,823	-2,833	-0,277	-0,135
175,837	65,714	-0,223	-0,157
176,852	39,125	-0,319	-0,199
177,867	304,524	-0,149	-0,193
178,881	125,778	-0,191	-0,168
179,896	135,736	-0,061	-0,055
180,910	237,733	-0,165	-0,191
181,925	284,993	-0,115	-0,145
182,940	116,254	-0,238	-0,203
183,954	31,865	-0,254	-0,152
184,969	5,637	-0,094	-0,048
185,983	141,264	-0,214	-0,197
186,998	-119,424	-0,262	0,031
188,013	288,251	-0,179	-0,226
189,027	-18,876	-0,309	-0,133
190,042	-46,933	-0,149	-0,051
191,056	67,001	-0,308	-0,218
192,071	147,253	-0,176	-0,165
193,086	-42,055	-0,116	-0,041
194,100	-28,038	-0,121	-0,049
195,115	84,060	-0,187	-0,142
196,129	79,898	-0,186	-0,139
197,144	21,700	-0,316	-0,178
198,159	15,937	-0,305	-0,167
199,173	-13,454	-0,322	-0,144
200,188	-15,737	-0,218	-0,096
201,202	-55,459	-0,102	-0,032
202,217	54,193	-0,155	-0,103
203,232	82,375	-0,221	-0,167
204,246	103,474	-0,232	-0,189
205,261	-103,535	-0,196	-0,032
206,275	59,093	-0,169	-0,116
207,290	-127,235	-0,183	-0,018
208,304	-84,668	-0,227	-0,049
209,319	-71,960	-0,246	-0,063
210,334	-34,191	-0,127	-0,048
211,348	160,714	-0,170	-0,165
212,363	22,946	-0,197	-0,112
213,377	411,506	-0,147	-0,217
214,392	-187,650	-0,112	0,001
215,407	201,958	-0,212	-0,228
216,421	84,235	-0,172	-0,131
217,436	272,646	-0,181	-0,222
218,450	800,000	-0,065	-0,125
219,465	222,964	-0,217	-0,243
220,480	184,421	-0,135	-0,139
221,494	800,000	-0,060	-0,119
222,509	14,663	-0,203	-0,110
223,523	13,990	-0,224	-0,121
224,538	-111,186	-0,183	-0,026
225,553	-88,542	-0,270	-0,055
226,567	122,563	-0,246	-0,213
227,582	548,877	-0,105	-0,175
228,596	-106,795	-0,094	0,014
229,611	66,461	-0,103	-0,073
230,626	219,026	-0,170	-0,189
231,640	197,006	-0,189	-0,200
232,655	134,274	-0,256	-0,230
233,669	47,962	-0,323	-0,209
234,684	76,603	-0,289	-0,212
235,699	164,554	-0,155	-0,151
236,713	-28,831	-0,200	-0,079
237,728	98,323	-0,160	-0,128
238,742	108,004	-0,166	-0,137
239,757	-20,573	-0,236	-0,100
240,772	-181,385	-0,124	0,002
241,786	199,044	-0,155	-0,165
242,801	100,492	-0,143	-0,115
243,815	405,344	-0,087	-0,127
244,830	800,000	-0,057	-0,119
245,844	17,938	-0,249	-0,137
246,859	-35,759	-0,336	-0,126
247,874	265,537	-0,156	-0,189
248,888	25,369	-0,138	-0,079
249,903	-103,409	-0,156	-0,025
250,917	-2,958	-0,121	-0,058
251,932	0,422	-0,154	0,076
252,947	800,000	-0,089	-0,202
253,961	446,369	-0,211	-0,322
254,976	68,188	-0,215	-0,152
255,990	183,409	-0,172	-0,176
257,005	41,709	-0,152	-0,095
258,020	-112,019	-0,174	0,024
259,034	-36,876	-0,106	-0,039
260,049	59,048	-0,171	-0,116
261,063	96,660	-0,164	-0,130
262,078	116,927	-0,252	-0,214
263,093	388,510	-0,114	-0,163
264,107	214,586	-0,129	-0,141
265,122	710,027	-0,101	-0,185
266,136	78,035	-0,191	-0,141
267,151	-123,850	-0,153	-0,016
268,166	48,465	-0,115	-0,074
269,180	178,264	-0,155	-0,157
270,195	-129,982	-0,184	-0,017
271,209	-51,140	-0,281	-0,090
272,224	316,037	-0,218	-0,285
273,239	47,179	-0,109	-0,070
274,253	187,366	-0,107	-0,110
275,268	-106,530	-0,142	0,022
276,282	-57,278	-0,173	-0,052
277,297	362,684	-0,215	-0,299
278,312	16,434	-0,123	-0,067
279,326	207,710	-0,161	-0,173
280,341	250,593	-0,136	-0,160
281,355	288,096	-0,119	-0,149
282,370	78,549	-0,192	-0,142
283,384	-110,811	-0,169	-0,024
284,399	285,924	-0,171	-0,214
285,414	91,644	-0,228	-0,177
286,428	-67,359	-0,118	-0,032
287,443	-175,561	0,040	-0,001
288,457	-76,302	-0,186	-0,045
289,472	34,166	-0,183	-0,110
290,487	226,828	-0,216	-0,242
291,501	-14,544	-0,226	-0,100
292,516	331,036	-0,109	-0,145
293,530	800,000	-0,078	-0,196
294,545	420,936	-0,107	-0,159
295,560	39,863	-0,209	-0,129
296,574	-60,020	-0,166	-0,048
297,589	30,462	-0,083	-0,049
298,603	29,303	-0,148	-0,086
299,618	97,536	-0,195	-0,154
300,633	14,577	-0,173	-0,093
301,647	-56,271	-0,137	-0,042
302,662	-43,389	-0,084	-0,029
303,676	3,001	-0,182	-0,091
304,691	-129,488	-0,171	-0,016
305,706	-24,545	-0,166	0,068
306,720	-123,214	-0,291	-0,032
307,735	159,191	-0,131	-0,125
308,749	118,258	-0,095	0,081
309,764	-200,000	0,014	-0,155
310,779	-31,444	-0,104	0,040
311,793	124,903	-0,085	-0,073
312,808	800,000	-0,082	-0,225
313,822	64,270	-0,191	-0,133
314,837	43,683	-0,146	-0,092
315,852	-47,667	-0,073	-0,024
316,866	30,888	-0,207	-0,122
317,881	-54,458	-0,110	-0,034
318,895	3,824	-0,204	-0,102
319,910	800,000	-0,088	-0,194
320,925	-60,096	-0,176	-0,051
321,939	241,689	-0,141	-0,163
322,954	-200,000	-0,054	-0,182
323,968	673,116	-0,068	-0,121
324,983	196,711	-0,122	-0,128
325,997	54,571	-0,184	-0,122
327,012	448,891	-0,151	-0,230
328,027	242,515	-0,169	-0,195
329,041	88,666	-0,251	-0,192
330,056	-92,576	-0,074	0,014
331,070	800,000	-0,051	-0,112
332,085	-77,556	-0,084	-0,020
333,100	-148,394	-0,305	-0,017
334,114	-73,348	-0,276	-0,069
335,129	221,928	-0,140	-0,155
336,143	228,879	-0,126	-0,142
337,158	-95,540	-0,088	-0,016
338,173	-76,951	-0,139	0,033
339,187	800,000	-0,083	-0,217
340,202	-156,507	-0,133	-0,006
341,216	-134,458	-0,279	0,023
342,231	5,596	-0,176	-0,089
343,246	79,395	-0,235	-0,173
344,260	-113,312	-0,115	-0,015
345,275	-27,362	0,014	-0,006
346,289	739,950	-0,034	0,063
347,304	-51,056	-0,134	-0,043
348,319	512,939	-0,110	-0,176
349,333	67,293	-0,118	-0,083
350,348	800,000	-0,075	-0,184
351,362	164,016	-0,157	-0,151
352,377	-45,772	-0,114	-0,039
353,392	-132,419	-0,040	0,003
354,406	800,000	-0,069	-0,182
355,421	208,664	1316,841	1415,258
356,435	160,565	1477,832	1415,755
