DTS Sentinel unit serial number:	SN410029Multiplexer serial number:	ORYXHardware model number:	OX2-SRSoftware version number:	ORYX F/W v4,00 Oryx Data Collector v3.7.2.0data status	okinstallation	B3 Nyhavnadifferential loss correction	single-endedforward channel	channel 1reverse channel	N/Adate	2023/12/03time	06:27:30forward acquisition time	300,00reverse acquisition time	0,00gamma	499,1914k internal	0,3201k external	0,3201temperature offset calibration	1,0000default loss term (dB/km)	0,3820temperature slope calibration	1,0000multiplexer offset coefficient	1,0000multiplexer slope coefficient	1,0000fibre end	0,00T internal ref (°C)	13,31T ext. ref 1 (°C)	-1,72T ext. ref 2 (°C)	-1,72length (m)	temperature (°C)	Stokes	anti-Stokes-744,400	-12,483	-0,188	-0,089
-743,385	-200,000	0,005	0,326
-742,371	800,000	-0,126	-0,255
-741,356	-200,000	0,034	0,327
-740,342	328,135	-0,138	-0,193
-739,327	-200,000	-0,044	0,378
-738,312	140,332	-0,269	-0,258
-737,298	-200,000	-0,031	0,328
-736,283	194,305	-0,167	-0,185
-735,269	-200,000	-0,095	0,345
-734,254	259,290	-0,193	-0,242
-733,239	-88,182	-0,394	0,085
-732,225	446,030	-0,083	-0,132
-731,210	139,980	0,141	0,135
-730,196	139,445	-0,077	0,073
-729,181	-41,654	-0,150	0,056
-728,167	800,000	0,002	-0,005
-727,152	228,972	-0,068	-0,081
-726,137	80,122	-0,115	0,090
-725,123	-46,486	-0,188	-0,067
-724,108	3,340	-0,069	-0,036
-723,094	-121,699	-0,088	-0,010
-722,079	-200,000	0,003	-0,093
-721,064	-34,389	-0,040	-0,016
-720,050	18,863	0,045	0,026
-719,035	-200,000	-0,018	-0,105
-718,021	-76,755	-0,126	-0,032
-717,006	147,319	-0,051	-0,050
-715,991	-164,070	-0,111	-0,004
-714,977	800,000	-0,045	-0,125
-713,962	-63,887	-0,084	-0,025
-712,948	-200,000	0,003	0,073
-711,933	-145,134	0,165	0,011
-710,918	-114,711	-0,114	0,016
-709,904	59,697	0,023	0,016
-708,889	-200,000	0,003	0,015
-707,875	-200,000	-0,007	-0,038
-706,860	247,061	0,062	0,077
-705,845	-17,146	0,134	0,061
-704,831	523,090	0,064	0,109
-703,816	-26,540	0,101	0,043
-702,802	96,884	0,029	-0,024
-701,787	23,160	-0,069	0,041
-700,772	36,737	-0,045	0,029
-699,758	-129,561	0,046	-0,005
-698,743	302,829	0,053	0,071
-697,729	386,514	0,016	0,023
-696,714	-133,758	-0,139	0,012
-695,699	-41,342	-0,031	0,011
-694,685	2,359	-0,175	-0,092
-693,670	800,000	-0,039	-0,112
-692,656	800,000	-0,127	0,269
-691,641	4,321	0,016	0,008
-690,627	-36,528	0,048	-0,019
-689,612	46,843	-0,061	-0,041
-688,597	209,088	0,029	-0,033
-687,583	154,097	-0,047	-0,047
-686,568	800,000	0,005	0,012
-685,554	-200,000	0,004	0,091
-684,539	-72,453	0,067	0,018
-683,524	317,936	-0,048	-0,066
-682,510	270,205	0,045	-0,058
-681,495	-101,545	-0,072	0,013
-680,481	87,723	0,007	0,006
-679,466	263,738	-0,051	-0,064
-678,451	780,519	-0,063	-0,125
-677,437	-200,000	-0,000	0,040
-676,422	-160,454	-0,172	0,007
-675,408	-35,440	-0,054	0,021
-674,393	-95,084	0,007	0,001
-673,378	89,786	-0,121	0,098
-672,364	117,544	-0,031	0,027
-671,349	-31,562	-0,111	0,045
-670,335	126,795	0,067	0,061
-669,320	-77,086	0,056	-0,014
-668,305	107,114	0,029	-0,025
-667,291	-200,000	-0,016	0,059
-666,276	553,333	0,047	-0,083
-665,262	-200,000	-0,039	0,161
-664,247	-48,519	-0,006	-0,002
-663,232	-104,675	0,129	-0,021
-662,218	-94,637	0,073	-0,014
-661,203	-19,286	-0,113	-0,051
-660,189	-200,000	0,008	0,104
-659,174	197,655	-0,116	-0,128
-658,159	-16,603	-0,110	-0,050
-657,145	-200,000	0,028	-0,116
-656,130	11,846	0,088	0,049
-655,116	-200,000	-0,029	-0,189
-654,101	80,619	0,042	0,033
-653,086	115,329	0,077	0,068
-652,072	-116,564	-0,066	-0,009
-651,057	-200,000	0,014	-0,101
-650,043	69,517	-0,146	-0,109
-649,028	160,852	0,106	-0,107
-648,014	129,206	0,045	-0,042
-646,999	78,002	0,063	0,049
-645,984	-42,006	-0,133	-0,049
-644,970	77,520	-0,054	0,041
-643,955	12,782	-0,165	-0,092
-642,941	-200,000	-0,010	-0,083
-641,926	-39,911	-0,084	0,032
-640,911	-200,000	-0,003	0,048
-639,897	617,990	0,041	-0,074
-638,882	-200,000	-0,008	-0,099
-637,868	-11,781	0,017	-0,008
-636,853	472,084	-0,029	-0,048
-635,838	-53,329	-0,130	0,043
-634,824	237,599	-0,031	-0,038
-633,809	-200,000	-0,010	0,133
-632,795	-62,818	0,079	-0,024
-631,780	-18,746	0,023	0,010
-630,765	311,816	0,102	0,139
-629,751	-26,137	-0,045	-0,019
-628,736	-200,000	-0,004	-0,015
-627,722	800,000	0,084	-0,200
-626,707	800,000	0,018	0,043
-625,692	404,860	0,018	0,028
-624,678	216,941	-0,074	0,085
-623,663	332,560	0,035	0,049
-622,649	77,354	-0,086	-0,067
-621,634	115,505	-0,127	-0,113
-620,619	-73,167	0,049	-0,013
-619,605	-16,581	0,046	-0,021
-618,590	-54,403	0,085	0,028
-617,576	319,760	0,150	0,207
-616,561	800,000	-0,030	0,062
-615,546	-37,365	-0,075	0,029
-614,532	-83,183	-0,008	0,002
-613,517	48,194	0,103	0,070
-612,503	-200,000	-0,006	0,054
-611,488	-51,802	0,127	0,042
-610,474	252,251	0,058	-0,071
-609,459	9,683	-0,021	0,012
-608,444	-119,457	-0,086	-0,011
-607,430	-8,638	-0,143	-0,069
-606,415	-42,670	-0,097	0,036
-605,401	800,000	-0,061	-0,140
-604,386	191,747	-0,056	0,061
-603,371	800,000	0,057	0,131
-602,357	282,893	0,031	-0,041
-601,342	110,254	-0,065	-0,056
-600,328	52,970	-0,098	-0,068
-599,313	-167,611	-0,103	0,003
-598,298	392,753	0,096	-0,146
-597,284	28,100	0,032	-0,019
-596,269	-12,346	0,036	-0,017
-595,255	116,587	-0,037	0,033
-594,240	-200,000	-0,061	0,000
-593,225	-119,143	-0,090	0,011
-592,211	13,962	-0,072	-0,040
-591,196	75,869	-0,062	0,047
-590,182	17,138	0,071	0,040
-589,167	800,000	-0,056	0,134
-588,152	800,000	-0,048	0,114
-587,138	401,486	0,041	-0,062
-586,123	130,881	-0,116	-0,108
-585,109	-85,211	-0,067	-0,015
-584,094	-85,933	-0,026	0,006
-583,079	-141,638	0,100	-0,007
-582,065	-16,634	-0,035	-0,016
-581,050	800,000	0,028	0,088
-580,036	800,000	-0,044	-0,102
-579,021	-22,883	-0,156	-0,068
-578,006	-5,327	-0,101	-0,050
-576,992	745,012	-0,094	-0,184
-575,977	-92,515	0,126	-0,025
-574,963	10,006	0,115	0,063
-573,948	143,230	-0,062	-0,059
-572,934	-136,890	-0,075	0,006
-571,919	-200,000	0,000	-0,134
-570,904	-200,000	-0,014	-0,118
-569,890	410,545	0,055	-0,085
-568,875	-111,950	-0,087	0,013
-567,861	-77,423	0,048	-0,012
-566,846	-200,000	0,003	-0,046
-565,831	800,000	-0,046	-0,115
-564,817	-51,450	-0,166	0,056
-563,802	174,238	0,088	-0,092
-562,788	800,000	-0,043	-0,109
-561,773	429,214	-0,005	0,008
-560,758	-65,581	0,075	0,021
-559,744	267,505	0,041	0,052
-558,729	-136,211	-0,066	-0,006
-557,715	-200,000	-0,009	0,066
-556,700	-114,712	-0,070	-0,010
-555,685	322,462	-0,067	-0,092
-554,671	-200,000	0,016	-0,142
-553,656	13,001	0,060	-0,033
-552,642	-200,000	-0,015	0,148
-551,627	-49,617	0,149	-0,051
-550,612	-154,660	0,071	-0,003
-549,598	800,000	-0,022	-0,063
-548,583	-87,002	-0,154	-0,033
-547,569	800,000	0,030	-0,062
-546,554	730,925	-0,043	0,084
-545,539	-53,394	-0,071	0,023
-544,525	796,188	-0,016	-0,032
-543,510	-200,000	-0,015	-0,058
-542,496	-200,000	0,003	0,045
-541,481	66,945	-0,058	-0,043
-540,466	540,131	0,028	-0,047
-539,452	-86,154	-0,007	0,002
-538,437	-200,000	-0,011	0,084
-537,423	-160,191	-0,037	0,001
-536,408	-200,000	-0,006	0,112
-535,393	429,946	-0,005	-0,008
-534,379	-200,000	-0,002	-0,020
-533,364	-97,128	-0,100	-0,019
-532,350	118,101	-0,044	-0,039
-531,335	-123,982	0,028	-0,003
-530,321	800,000	0,032	0,098
-529,306	788,617	0,063	-0,125
-528,291	-4,438	0,157	-0,078
-527,277	800,000	-0,026	-0,052
-526,262	800,000	-0,046	-0,106
-525,248	527,890	-0,070	0,120
-524,233	800,000	0,011	-0,030
-523,218	766,180	0,041	0,080
-522,204	-200,000	-0,008	-0,081
-521,189	800,000	-0,021	0,056
-520,175	199,181	-0,046	0,051
-519,160	-147,618	-0,067	-0,004
-518,145	186,286	-0,086	-0,093
-517,131	216,956	-0,129	-0,148
-516,116	243,714	0,042	0,051
-515,102	-200,000	-0,001	-0,106
-514,087	-47,252	0,061	0,021
-513,072	-101,213	-0,160	-0,028
-512,058	111,449	0,084	-0,073
-511,043	-103,139	0,078	0,013
-510,029	324,573	0,040	-0,056
-509,014	41,609	-0,075	-0,049
-507,999	115,774	0,051	-0,045
-506,985	-200,000	-0,020	-0,070
-505,970	800,000	0,042	-0,119
-504,956	800,000	-0,027	-0,077
-503,941	594,301	0,009	0,016
-502,926	-200,000	0,040	0,143
-501,912	-51,151	0,025	0,008
-500,897	405,682	-0,077	-0,117
-499,883	-91,472	0,059	-0,012
-498,868	181,974	-0,053	-0,056
-497,853	44,230	0,058	0,038
-496,839	-109,019	-0,156	0,024
-495,824	274,591	0,019	0,024
-494,810	574,626	-0,006	0,011
-493,795	337,586	-0,046	0,065
-492,781	-170,739	-0,066	-0,002
-491,766	-82,460	0,183	-0,042
-490,751	800,000	-0,055	0,169
-489,737	125,603	0,063	0,057
-488,722	402,323	0,121	0,184
-487,708	-24,478	-0,024	-0,010
-486,693	-84,546	0,101	-0,023
-485,678	12,449	-0,122	0,068
-484,664	-131,398	-0,155	-0,015
-483,649	-17,628	-0,136	-0,061
-482,635	25,827	0,057	-0,034
-481,620	-8,755	-0,068	-0,033
-480,605	191,711	0,103	0,112
-479,591	-200,000	0,010	-0,057
-478,576	205,211	0,071	0,080
-477,562	111,563	-0,134	-0,117
-476,547	-112,934	-0,068	0,010
-475,532	297,678	-0,113	-0,150
-474,518	-149,128	-0,074	-0,004
-473,503	-115,083	0,093	0,013
-472,489	-200,000	-0,001	0,019
-471,474	-106,000	0,100	-0,016
-470,459	-51,369	-0,116	-0,039
-469,445	-149,752	-0,206	-0,011
-468,430	-153,742	-0,105	0,005
-467,416	-78,867	0,096	-0,023
-466,401	800,000	0,062	0,124
-465,386	-200,000	0,026	0,120
-464,372	-38,709	0,149	0,056
-463,357	10,524	-0,069	-0,037
-462,343	800,000	-0,069	-0,152
-461,328	590,241	0,042	-0,075
-460,313	102,132	-0,085	-0,071
-459,299	246,011	-0,022	0,027
-458,284	-200,000	0,003	0,065
-457,270	-200,000	-0,011	0,064
-456,255	-200,000	-0,013	-0,164
-455,241	41,583	-0,115	0,075
-454,226	-200,000	0,000	-0,107
-453,211	800,000	0,032	-0,072
-452,197	194,010	0,092	0,100
-451,182	-200,000	-0,013	0,118
-450,168	-200,000	0,015	-0,090
-449,153	31,817	0,055	-0,034
-448,138	6,313	-0,045	0,024
-447,124	-54,966	0,104	0,033
-446,109	161,398	-0,114	0,114
-445,095	-200,000	-0,001	0,128
-444,080	50,537	-0,154	0,105
-443,065	-68,387	-0,063	0,018
-442,051	146,515	0,021	-0,020
-441,036	-103,147	-0,180	-0,030
-440,022	-200,000	-0,020	-0,085
-439,007	-200,000	-0,008	0,104
-437,992	157,221	-0,030	0,030
-436,978	-200,000	0,011	0,080
-435,963	-200,000	0,025	0,111
-434,949	-64,232	0,096	0,028
-433,934	800,000	-0,032	-0,079
-432,919	686,770	0,040	0,076
-431,905	123,961	0,032	-0,028
-430,890	761,347	-0,039	-0,077
-429,876	120,604	-0,070	0,062
-428,861	582,315	0,017	0,030
-427,846	7,779	0,046	0,025
-426,832	-7,704	-0,062	0,030
-425,817	-200,000	-0,019	-0,115
-424,803	-200,000	-0,006	-0,107
-423,788	150,005	0,031	0,030
-422,773	81,384	-0,035	-0,027
-421,759	-200,000	-0,009	0,060
-420,744	553,722	0,068	0,117
-419,730	85,223	-0,098	-0,077
-418,715	-200,000	0,010	-0,119
-417,701	800,000	-0,018	-0,057
-416,686	407,977	0,079	-0,121
-415,671	27,963	0,091	-0,055
-414,657	-38,059	-0,029	-0,011
-413,642	187,540	-0,071	0,076
-412,628	-49,094	0,095	0,032
-411,613	-60,027	0,153	-0,047
-410,598	38,439	0,118	-0,075
-409,584	92,033	-0,037	0,030
-408,569	64,936	0,062	0,045
-407,555	11,985	0,087	-0,048
-406,540	-193,549	0,086	0,001
-405,525	800,000	0,051	-0,116
-404,511	-17,109	-0,143	-0,064
-403,496	-200,000	-0,039	-0,138
-402,482	-188,140	-0,015	-0,000
-401,467	95,254	0,114	0,093
-400,452	-3,381	0,161	0,080
-399,438	800,000	-0,043	0,114
-398,423	182,816	0,061	0,065
-397,409	160,442	0,109	0,109
-396,394	300,387	-0,104	-0,138
-395,379	-95,111	0,090	0,017
-394,365	-200,000	0,015	-0,131
-393,350	800,000	0,028	0,069
-392,336	-125,136	0,100	0,011
-391,321	800,000	0,049	-0,137
-390,306	153,463	-0,041	0,040
-389,292	110,750	-0,056	-0,048
-388,277	800,000	-0,036	-0,102
-387,263	-2,304	0,093	-0,047
-386,248	5,868	0,050	0,026
-385,233	140,468	0,105	-0,100
-384,219	58,472	-0,079	0,055
-383,204	558,824	-0,091	-0,158
-382,190	800,000	0,013	-0,025
-381,175	-200,000	-0,001	-0,089
-380,160	-32,245	0,098	-0,039
-379,146	-130,524	0,149	-0,014
-378,131	-128,080	-0,051	0,005
-377,117	-63,587	0,059	-0,017
-376,102	172,435	-0,040	-0,041
-375,088	-97,047	-0,166	-0,031
-374,073	-200,000	0,027	0,145
-373,058	472,785	-0,069	0,111
-372,044	-14,516	-0,066	-0,030
-371,029	-200,000	-0,022	0,095
-370,015	339,313	0,073	-0,102
-369,000	56,017	-0,072	-0,050
-367,985	591,941	-0,033	-0,059
-366,971	201,624	0,127	-0,141
-365,956	210,837	0,082	0,092
-364,942	152,155	0,175	0,171
-363,927	-200,000	-0,012	0,158
-362,912	-68,112	0,047	0,013
-361,898	-20,324	0,030	-0,013
-360,883	-200,000	0,010	-0,052
-359,869	122,227	-0,097	-0,087
-358,854	65,509	0,112	0,081
-357,839	780,247	-0,036	-0,071
-356,825	-119,293	0,076	-0,009
-355,810	788,004	-0,017	0,033
-354,796	121,737	0,088	-0,078
-353,781	620,218	-0,051	0,093
-352,766	175,540	-0,037	0,038
-351,752	-68,654	-0,045	0,012
-350,737	-111,145	0,140	0,020
-349,723	276,729	0,051	0,066
-348,708	-122,716	-0,110	-0,013
-347,693	225,213	-0,012	-0,014
-346,679	-200,000	0,024	-0,192
-345,664	-172,470	0,091	0,002
-344,650	306,323	0,059	-0,079
-343,635	-200,000	0,023	0,117
-342,620	85,690	0,135	0,106
-341,606	292,662	-0,039	-0,051
-340,591	-200,000	-0,024	-0,082
-339,577	-167,809	-0,059	-0,002
-338,562	-86,623	-0,089	0,019
-337,548	138,065	0,116	0,109
-336,533	-200,000	-0,028	0,224
-335,518	13,575	-0,069	0,038
-334,504	-200,000	-0,021	0,074
-333,489	-125,655	0,023	0,002
-332,475	86,968	-0,074	-0,058
-331,460	-83,720	-0,148	-0,033
-330,445	-198,037	0,030	0,000
-329,431	-200,000	-0,004	0,074
-328,416	-200,000	-0,031	0,108
-327,402	-52,465	-0,016	0,005
-326,387	250,330	-0,093	-0,113
-325,372	52,093	-0,064	-0,044
-324,358	-136,894	-0,128	-0,010
-323,343	800,000	0,022	-0,050
-322,329	-143,059	0,125	-0,009
-321,314	62,594	0,080	0,057
-320,299	800,000	0,030	0,076
-319,285	576,900	-0,045	0,080
-318,270	111,186	0,067	0,058
-317,256	201,168	-0,092	-0,101
-316,241	79,976	-0,025	0,019
-315,226	-177,231	-0,095	-0,002
-314,212	76,195	0,170	0,129
-313,197	-108,898	-0,060	0,009
-312,183	-143,901	0,054	0,004
-311,168	55,375	0,070	0,048
-310,153	-39,315	-0,022	0,008
-309,139	34,858	-0,070	-0,044
-308,124	-200,000	0,016	0,065
-307,110	226,304	0,009	0,010
-306,095	-156,312	0,132	-0,006
-305,080	-200,000	0,020	0,158
-304,066	91,560	-0,049	-0,039
-303,051	-28,856	-0,037	-0,015
-302,037	-200,000	-0,011	-0,127
-301,022	-200,000	0,014	-0,088
-300,008	800,000	0,028	0,067
-298,993	-181,363	0,112	-0,002
-297,978	11,580	0,044	-0,024
-296,964	800,000	-0,029	0,058
-295,949	29,329	0,027	-0,016
-294,935	-17,118	0,037	0,017
-293,920	-145,081	0,028	-0,002
-292,905	-39,456	0,105	-0,039
-291,891	-20,972	0,027	-0,012
-290,876	800,000	0,061	0,137
-289,862	115,428	0,017	0,015
-288,847	49,892	-0,018	-0,012
-287,832	-28,902	-0,082	0,033
-286,818	-103,504	0,074	-0,012
-285,803	800,000	0,068	0,148
-284,789	800,000	0,043	0,118
-283,774	-93,944	-0,113	-0,022
-282,759	800,000	-0,054	-0,160
-281,745	-107,673	-0,158	0,024
-280,730	-200,000	-0,005	0,067
-279,716	-200,000	0,017	-0,054
-278,701	-200,000	-0,006	-0,167
-277,686	269,243	-0,029	0,036
-276,672	800,000	-0,022	0,058
-275,657	-7,792	0,024	-0,012
-274,643	-98,611	-0,176	0,032
-273,628	-200,000	0,008	-0,217
-272,613	472,413	-0,064	-0,103
-271,599	800,000	0,010	-0,022
-270,584	800,000	-0,050	0,134
-269,570	-200,000	-0,016	0,102
-268,555	151,071	-0,036	0,035
-267,540	-95,084	-0,025	-0,005
-266,526	290,262	0,062	0,081
-265,511	262,264	-0,098	0,122
-264,497	-200,000	0,017	0,114
-263,482	337,361	-0,099	0,138
-262,467	67,016	0,106	0,077
-261,453	139,269	0,048	0,045
-260,438	-130,261	0,060	-0,006
-259,424	-13,200	-0,128	-0,059
-258,409	273,159	0,053	0,067
-257,395	92,204	-0,076	0,061
-256,380	-200,000	-0,012	0,056
-255,365	281,370	0,105	0,134
-254,351	369,967	0,068	0,099
-253,336	-39,490	-0,096	0,036
-252,322	685,117	-0,035	-0,065
-251,307	-114,982	0,082	0,011
-250,292	-118,096	0,171	0,022
-249,278	-200,000	0,039	-0,138
-248,263	-200,000	0,007	0,055
-247,249	800,000	0,052	-0,116
-246,234	-44,692	0,145	-0,051
-245,219	-200,000	-0,016	-0,181
-244,205	306,715	-0,080	-0,106
-243,190	-200,000	0,016	0,120
-242,176	729,386	-0,012	-0,022
-241,161	343,164	0,050	-0,070
-240,146	-84,704	-0,066	-0,015
-239,132	-200,000	0,001	-0,085
-238,117	120,677	0,109	-0,096
-237,103	29,138	-0,112	-0,068
-236,088	15,589	-0,067	0,038
-235,073	217,881	0,113	0,129
-234,059	97,402	0,090	0,073
-233,044	800,000	-0,048	0,143
-232,030	698,614	-0,063	0,118
-231,015	194,714	-0,108	0,117
-230,000	9,351	0,043	-0,023
-228,986	251,279	0,069	-0,083
-227,971	-200,000	0,002	-0,037
-226,957	-200,000	0,005	0,088
-225,942	-40,028	0,027	-0,010
-224,927	-97,521	0,122	0,022
-223,913	-200,000	-0,011	0,105
-222,898	-200,000	0,001	-0,089
-221,884	-200,000	0,002	-0,015
-220,869	800,000	-0,039	0,078
-219,855	800,000	0,043	0,126
-218,840	562,290	0,066	-0,114
-217,825	800,000	-0,043	-0,091
-216,811	-200,000	0,019	0,161
-215,796	684,232	-0,026	-0,048
-214,782	-174,819	-0,010	-0,000
-213,767	-134,978	0,070	0,006
-212,752	-74,740	0,101	0,026
-211,738	-200,000	-0,008	-0,071
-210,723	-200,000	0,008	-0,051
-209,709	336,798	-0,052	0,073
-208,694	-200,000	0,027	0,090
-207,679	-200,000	-0,017	0,069
-206,665	-60,766	0,071	0,021
-205,650	-200,000	-0,007	-0,086
-204,636	-20,796	0,102	0,044
-203,621	-200,000	-0,011	0,090
-202,606	-141,909	-0,066	-0,005
-201,592	116,413	-0,087	-0,076
-200,577	87,326	0,092	-0,072
-199,563	29,339	0,043	-0,026
-198,548	-59,485	0,056	0,017
-197,533	-30,881	0,087	-0,035
-196,519	103,151	0,022	0,018
-195,504	59,855	-0,122	0,086
-194,490	-129,273	0,099	0,010
-193,475	-21,236	0,108	-0,047
-192,460	-97,318	-0,052	0,010
-191,446	-91,732	0,206	-0,041
-190,431	72,641	0,153	0,114
-189,417	-154,294	0,053	-0,003
-188,402	16,118	-0,097	0,054
-187,387	800,000	0,071	-0,154
-186,373	-200,000	-0,007	-0,133
-185,358	93,824	-0,071	-0,057
-184,344	-78,695	0,027	-0,007
-183,329	7,429	0,130	-0,069
-182,315	558,157	-0,059	0,102
-181,300	800,000	-0,017	0,042
-180,285	800,000	-0,031	0,080
-179,271	-200,000	0,041	-0,177
-178,256	-111,568	-0,043	0,006
-177,242	121,464	-0,044	0,039
-176,227	-124,016	0,174	0,019
-175,212	-200,000	-0,012	0,050
-174,198	-200,000	0,026	0,170
-173,183	126,914	-0,035	0,031
-172,169	-144,150	-0,022	0,001
-171,154	121,480	0,062	-0,055
-170,139	231,041	-0,067	0,078
-169,125	569,776	-0,096	0,166
-168,110	271,732	0,034	0,043
-167,096	-200,000	0,020	-0,081
-166,081	-200,000	0,010	0,058
-165,066	800,000	-0,023	0,052
-164,052	-41,752	-0,135	0,049
-163,037	461,524	-0,054	0,086
-162,023	-83,876	-0,064	-0,014
-161,008	494,489	0,074	-0,121
-159,993	-200,000	0,021	-0,092
-158,979	-132,519	0,096	0,009
-157,964	73,676	-0,133	0,099
-156,950	83,643	0,041	0,032
-155,935	-200,000	0,015	0,123
-154,920	-59,813	0,107	0,032
-153,906	348,975	-0,068	0,095
-152,891	221,394	0,121	-0,138
-151,877	-128,578	-0,113	0,011
-150,862	8,182	-0,034	-0,018
-149,847	372,747	-0,054	-0,078
-148,833	-200,000	-0,026	-0,100
-147,818	114,416	0,026	-0,023
-146,804	800,000	0,037	0,074
-145,789	-200,000	0,013	0,053
-144,775	-83,398	-0,044	0,010
-143,760	135,349	-0,094	-0,086
-142,745	446,487	0,066	0,104
-141,731	-11,206	0,127	0,059
-140,716	698,088	0,081	0,151
-139,702	27,728	0,121	-0,072
-138,687	-118,440	-0,051	0,006
-137,672	-200,000	0,005	0,065
-136,658	59,964	-0,063	0,044
-135,643	800,000	0,026	0,071
-134,629	11,580	-0,181	-0,098
-133,614	-200,000	-0,002	-0,124
-132,599	172,761	-0,081	0,082
-131,585	-200,000	0,003	0,088
-130,570	685,273	0,056	-0,104
-129,556	-125,899	-0,044	-0,005
-128,541	666,570	-0,056	0,104
-127,526	170,510	0,091	0,093
-126,512	10,698	-0,144	0,078
-125,497	-58,361	0,130	0,040
-124,483	140,488	0,097	0,091
-123,468	99,687	0,003	0,003
-122,453	567,975	0,068	-0,117
-121,439	636,116	-0,066	-0,119
-120,424	368,730	-0,092	-0,132
-119,410	-91,616	0,207	0,041
-118,395	-33,388	-0,040	-0,016
-117,380	-200,000	-0,004	0,060
-116,366	59,400	-0,117	0,082
-115,351	-72,589	0,164	-0,043
-114,337	294,099	-0,144	-0,187
-113,322	-200,000	0,022	0,120
-112,307	361,970	-0,032	0,046
-111,293	178,509	0,039	-0,040
-110,278	800,000	0,037	-0,094
-109,264	-109,684	0,061	0,009
-108,249	-50,275	-0,073	-0,024
-107,234	546,486	-0,042	-0,071
-106,220	-9,761	-0,099	0,047
-105,205	417,584	-0,020	0,030
-104,191	-62,750	0,135	0,039
-103,176	800,000	0,067	0,136
-102,162	251,529	0,078	0,094
-101,147	158,518	0,067	0,066
-100,132	-200,000	-0,002	-0,050
-99,118	-94,221	-0,207	-0,040
-98,103	-200,000	0,019	0,104
-97,089	377,759	0,115	0,167
-96,074	13,888	0,061	0,034
-95,059	-200,000	0,009	-0,122
-94,045	-200,000	0,006	-0,116
-93,030	-200,000	0,002	-0,011
-92,016	-97,735	-0,056	0,010
-91,001	-61,483	0,042	-0,013
-89,986	3,521	-0,026	0,013
-88,972	-200,000	0,017	0,102
-87,957	-200,000	0,007	0,028
-86,943	-200,000	0,015	0,114
-85,928	56,268	0,095	-0,065
-84,913	-200,000	-0,005	-0,081
-83,899	800,000	0,014	-0,035
-82,884	435,912	0,027	-0,041
-81,870	94,701	-0,130	0,105
-80,855	1,975	-0,116	-0,059
-79,840	153,555	0,021	-0,020
-78,826	-200,000	0,021	-0,091
-77,811	1,403	0,020	0,010
-76,797	-185,097	-0,059	-0,001
-75,782	-200,000	-0,024	0,121
-74,767	-17,497	-0,058	-0,026
-73,753	-74,210	-0,085	0,022
-72,738	800,000	0,041	-0,081
-71,724	-200,000	-0,003	0,052
-70,709	-13,132	-0,081	0,037
-69,694	800,000	-0,093	-0,183
-68,680	458,978	-0,113	0,179
-67,665	-140,790	-0,079	0,006
-66,651	129,939	-0,027	0,025
-65,636	-200,000	0,002	0,008
-64,622	695,976	-0,025	0,048
-63,607	27,756	0,040	-0,024
-62,592	80,356	-0,048	0,036
-61,578	-11,720	0,019	0,009
-60,563	-90,829	-0,172	0,035
-59,549	310,666	-0,035	0,046
-58,534	-17,681	-1,472	-0,652
-57,519	425,073	-1,348	-2,062
-56,505	-200,000	-0,591	-4,434
-55,490	242,496	0,922	1,095
-54,476	800,000	4,921	11,433
-53,461	-200,000	19,165	319,412
-52,446	-200,000	740,309	2333,192
-51,432	573,490	1655,599	2869,213
-50,417	78,291	1671,151	1261,813
-49,403	21,279	1544,058	885,474
-48,388	15,189	1466,544	811,408
-47,373	17,913	1456,590	819,032
-46,359	16,658	1446,670	807,401
-45,344	13,447	1441,833	789,289
-44,330	13,347	1439,935	787,739
-43,315	13,371	1438,361	786,963
-42,300	13,414	1436,417	786,074
-41,286	13,420	1435,237	785,428
-40,271	13,303	1434,150	784,241
-39,257	13,271	1432,873	783,358
-38,242	13,381	1431,428	783,063
-37,227	13,415	1430,031	782,428
-36,213	13,399	1428,973	781,742
-35,198	13,375	1427,676	780,889
-34,184	13,400	1426,810	780,503
-33,169	13,387	1425,398	779,634
-32,154	13,447	1424,361	779,321
-31,140	13,471	1422,970	778,643
-30,125	13,474	1421,954	778,071
-29,111	13,441	1420,882	777,296
-28,096	13,405	1419,746	776,474
-27,082	13,341	1418,614	775,522
-26,067	13,399	1417,457	775,136
-25,052	13,345	1416,435	774,288
-24,038	13,319	1415,343	773,541
-23,023	13,286	1414,476	772,881
-22,009	13,295	1413,570	772,399
-20,994	13,304	1412,450	771,798
-19,979	13,298	1411,642	771,295
-18,965	13,322	1410,703	770,865
-17,950	13,304	1409,713	770,211
-16,936	13,268	1408,831	769,529
-15,921	13,227	1407,817	768,753
-14,906	13,263	1406,911	768,394
-13,892	13,293	1405,933	767,971
-12,877	13,294	1405,054	767,466
-11,863	13,278	1404,060	766,816
-10,848	13,239	1403,355	766,219
-9,833	13,214	1402,514	765,614
-8,819	13,141	1401,679	764,788
-7,804	13,145	1400,669	764,223
-6,790	13,169	1399,518	763,678
-5,775	13,151	1398,494	763,005
-4,760	13,120	1397,751	762,423
-3,746	13,120	1396,937	761,951
-2,731	13,146	1395,823	761,433
-1,717	13,108	1395,153	760,863
-0,702	13,118	1393,258	759,844
0,313	16,924	1310,166	732,171
1,327	33,233	703,891	431,058
2,342	51,097	123,382	82,647
3,356	2,460	16,646	8,497
4,371	4,084	3,306	1,705
5,386	12,692	0,544	0,296
6,400	-200,000	0,069	0,215
7,415	43,680	-0,157	-0,102
8,429	-15,791	-0,388	-0,174
9,444	47,795	-0,284	-0,187
10,459	155,385	-0,195	-0,190
11,473	-0,912	-0,364	-0,182
12,488	152,443	-0,278	-0,268
13,502	79,976	-0,293	-0,222
14,517	-25,602	-0,337	-0,140
15,531	73,798	-0,349	-0,258
16,546	19,302	-0,260	-0,147
17,561	150,649	-0,333	-0,320
18,575	-54,475	-0,265	-0,084
19,590	-52,628	-0,302	-0,098
20,604	-90,916	-0,261	-0,053
21,619	-4,323	-0,424	-0,206
22,634	76,391	-0,405	-0,303
23,648	59,384	-0,411	-0,286
24,663	68,519	-0,413	-0,299
25,677	-5,439	-0,472	-0,228
26,692	58,478	-0,318	-0,220
27,707	51,150	-0,462	-0,309
28,721	153,764	-0,350	-0,339
29,736	295,031	-0,350	-0,453
30,750	121,698	-0,412	-0,363
31,765	19,865	-0,408	-0,231
32,780	65,120	-0,350	-0,249
33,794	83,372	-0,336	-0,258
34,809	25,043	-0,350	-0,204
35,823	-11,494	-0,426	-0,197
36,838	72,051	-0,360	-0,264
37,853	28,513	-0,434	-0,258
38,867	76,665	-0,434	-0,324
39,882	71,834	-0,326	-0,239
40,896	242,461	-0,198	-0,234
41,911	119,421	-0,254	-0,222
42,926	82,319	-0,261	-0,199
43,940	31,249	-0,417	-0,252
44,955	40,874	-0,402	-0,255
45,969	76,030	-0,396	-0,295
46,984	-58,446	-0,252	-0,077
47,999	77,446	-0,273	-0,205
49,013	114,113	-0,300	-0,258
50,028	181,318	-0,191	-0,198
51,042	-4,946	-0,446	-0,215
52,057	32,993	-0,355	-0,216
53,071	175,023	-0,291	-0,297
54,086	25,825	-0,391	-0,229
55,101	-38,469	-0,198	-0,073
56,115	-64,411	-0,455	-0,129
57,130	84,456	-0,350	-0,269
58,144	6,087	-0,416	-0,217
59,159	235,724	-0,277	-0,323
60,174	-7,066	-0,401	-0,191
61,188	38,396	-0,340	-0,213
62,203	-35,122	-0,397	-0,152
63,217	44,923	-0,419	-0,271
64,232	14,775	-0,433	-0,238
65,247	40,788	-0,381	-0,241
66,261	11,909	-0,348	-0,188
67,276	23,483	-0,379	-0,219
68,290	-31,957	-0,444	-0,174
69,305	328,286	-0,150	-0,203
70,320	181,263	-0,213	-0,220
71,334	46,744	-0,301	-0,196
72,349	89,596	-0,316	-0,248
73,363	-0,806	-0,499	-0,248
74,378	40,203	-0,362	-0,229
75,393	-8,881	-0,315	-0,148
76,407	5,193	-0,355	-0,183
77,422	277,545	-0,182	-0,228
78,436	62,547	-0,226	-0,158
79,451	136,320	-0,268	-0,246
80,466	122,563	-0,375	-0,330
81,480	69,782	-0,270	-0,195
82,495	-50,804	-0,257	-0,084
83,509	-68,512	-0,373	-0,101
84,524	-52,369	-0,385	-0,124
85,539	-100,421	-0,213	-0,037
86,553	-34,348	-0,375	-0,144
87,568	0,032	-0,340	-0,169
88,582	-6,151	-0,291	-0,139
89,597	135,706	-0,279	-0,255
90,611	-45,651	-0,413	-0,143
91,626	168,299	-0,284	-0,284
92,641	103,544	-0,280	-0,231
93,655	83,581	-0,187	-0,143
94,670	98,228	-0,281	-0,227
95,684	47,471	-0,395	-0,258
96,699	-117,068	-0,353	-0,045
97,714	-19,601	-0,235	-0,101
98,728	-95,648	-0,328	-0,061
99,743	-5,300	-0,290	-0,139
100,757	-17,152	-0,381	-0,168
101,772	-89,611	-0,358	-0,073
102,787	102,330	-0,349	-0,286
103,801	-21,234	-0,328	-0,140
104,816	-33,826	-0,353	-0,136
105,830	-57,787	-0,207	-0,063
106,845	-152,085	-0,179	-0,009
107,860	198,262	-0,233	-0,250
108,874	-20,488	-0,295	-0,127
109,889	59,836	-0,371	-0,256
110,903	701,504	-0,141	-0,261
111,918	99,631	-0,241	-0,195
112,933	268,173	-0,212	-0,260
113,947	-200,000	0,018	-0,121
114,962	338,456	-0,268	-0,367
115,976	158,418	-0,140	-0,136
116,991	46,836	-0,344	-0,223
118,006	-24,520	-0,306	-0,127
119,020	277,330	-0,148	-0,185
120,035	295,365	-0,152	-0,196
121,049	260,637	-0,117	-0,142
122,064	-148,443	-0,322	0,018
123,079	-55,318	-0,309	-0,097
124,093	10,076	-0,341	-0,181
125,108	-41,497	-0,371	-0,133
126,122	358,989	-0,196	-0,275
127,137	257,461	-0,105	-0,127
128,151	48,416	-0,204	-0,133
129,166	-86,042	-0,262	-0,056
130,181	166,225	-0,281	-0,278
131,195	800,000	-0,139	-0,279
132,210	-102,942	-0,267	0,044
133,224	63,254	-0,263	-0,184
134,239	150,678	-0,211	-0,201
135,254	-42,486	-0,344	-0,122
136,268	18,523	-0,174	-0,097
137,283	-41,787	-0,273	-0,097
138,297	-16,554	-0,249	-0,110
139,312	105,331	-0,119	-0,098
140,327	454,343	-0,162	-0,251
141,341	271,415	-0,256	-0,316
142,356	96,117	-0,165	-0,132
143,370	39,170	-0,193	-0,120
144,385	207,960	-0,192	-0,210
145,400	411,306	-0,156	-0,233
146,414	183,844	-0,214	-0,222
147,429	53,818	-0,384	-0,257
148,443	171,708	-0,253	-0,254
149,458	268,252	-0,089	-0,109
150,473	16,163	-0,264	-0,145
151,487	214,018	-0,168	-0,186
152,502	173,593	-0,186	-0,187
153,516	-41,094	-0,243	-0,087
154,531	39,367	-0,402	-0,251
155,546	40,331	-0,294	-0,184
156,560	443,881	-0,090	-0,139
157,575	-32,635	-0,265	-0,102
158,589	87,879	-0,220	-0,170
159,604	8,160	-0,213	-0,111
160,619	94,928	-0,223	-0,177
161,633	47,740	-0,224	-0,145
162,648	125,002	-0,205	-0,180
163,662	-1,237	-0,215	-0,106
164,677	25,847	-0,272	-0,158
165,692	-0,760	-0,276	-0,136
166,706	71,144	-0,225	-0,163
167,721	201,819	-0,186	-0,200
168,735	168,021	-0,224	-0,223
169,750	-15,842	-0,261	-0,116
170,764	-11,117	-0,248	-0,113
171,779	-50,159	-0,210	-0,069
172,794	-47,495	-0,174	-0,059
173,808	159,667	-0,153	-0,148
174,823	78,042	-0,331	-0,246
175,837	94,136	-0,284	-0,225
176,852	-8,020	-0,177	-0,083
177,867	62,744	-0,136	-0,094
178,881	114,205	-0,175	-0,148
179,896	72,302	-0,292	-0,211
180,910	448,068	-0,199	-0,306
181,925	365,223	-0,163	-0,229
182,940	800,000	-0,129	-0,323
183,954	-86,309	-0,156	-0,033
184,969	-106,318	-0,312	-0,048
185,983	-121,754	-0,195	-0,022
186,998	-68,753	-0,179	-0,048
188,013	800,000	-0,109	-0,230
189,027	144,540	-0,332	-0,308
190,042	34,078	-0,280	-0,169
191,056	106,936	-0,190	-0,157
192,071	431,338	-0,156	-0,236
193,086	165,901	-0,222	-0,219
194,100	5,844	-0,286	-0,147
195,115	42,458	-0,232	-0,146
196,129	-81,767	-0,255	-0,058
197,144	64,580	-0,278	-0,195
198,159	154,419	-0,191	-0,183
199,173	14,743	-0,247	-0,134
200,188	-21,475	-0,267	-0,113
201,202	-2,582	-0,315	-0,153
202,217	-39,578	-0,274	-0,099
203,232	118,449	-0,115	-0,099
204,246	147,613	-0,214	-0,200
205,261	-89,279	-0,299	-0,061
206,275	67,292	-0,136	-0,096
207,290	210,967	-0,150	-0,164
208,304	139,944	-0,210	-0,192
209,319	-28,895	-0,256	-0,102
210,334	447,127	-0,149	-0,228
211,348	-21,143	-0,317	-0,134
212,363	184,609	-0,285	-0,294
213,377	-127,917	-0,159	-0,016
214,392	13,773	-0,248	-0,133
215,407	800,000	-0,047	-0,112
216,421	32,853	-0,139	-0,083
217,436	66,934	-0,200	-0,141
218,450	122,048	-0,225	-0,195
219,465	93,213	-0,220	-0,172
220,480	-62,533	-0,236	-0,068
221,494	800,000	-0,068	-0,154
222,509	181,839	-0,198	-0,203
223,523	210,178	-0,166	-0,181
224,538	-40,209	-0,244	-0,088
225,553	149,572	-0,179	-0,169
226,567	339,829	-0,261	-0,354
227,582	39,449	-0,280	-0,174
228,596	-14,449	-0,126	-0,056
229,611	507,389	-0,123	-0,199
230,626	50,053	-0,240	-0,157
231,640	-116,106	-0,157	-0,020
232,655	314,381	-0,206	-0,270
233,669	40,726	-0,264	-0,165
234,684	394,545	-0,113	-0,163
235,699	-200,000	-0,052	-0,171
236,713	-82,600	-0,239	-0,053
237,728	-78,301	-0,237	-0,056
238,742	-127,258	-0,259	-0,026
239,757	-21,406	-0,208	-0,088
240,772	-89,282	-0,206	-0,042
241,786	142,260	-0,209	-0,193
242,801	-4,903	-0,182	-0,087
243,815	-189,213	-0,120	-0,001
244,830	-200,000	-0,058	-0,291
245,844	121,115	-0,164	-0,141
246,859	232,641	-0,191	-0,217
247,874	346,475	-0,132	-0,181
248,888	205,201	-0,204	-0,220
249,903	129,157	-0,146	-0,129
250,917	-21,183	-0,213	-0,090
251,932	-179,749	-0,177	-0,003
252,947	-72,080	-0,185	-0,047
253,961	-44,220	-0,177	-0,061
254,976	-164,816	-0,130	0,004
255,990	33,693	-0,183	-0,110
257,005	84,257	-0,182	-0,137
258,020	-200,000	0,001	-0,025
259,034	-90,593	-0,228	-0,045
260,049	109,075	-0,130	-0,108
261,063	-104,513	-0,185	-0,029
262,078	87,599	-0,317	-0,243
263,093	800,000	-0,103	-0,292
264,107	235,778	-0,137	-0,156
265,122	-200,000	-0,001	-0,042
266,136	139,566	-0,095	-0,086
267,151	-78,354	-0,214	-0,050
268,166	155,869	-0,158	-0,151
269,180	-141,051	-0,300	0,021
270,195	102,590	-0,196	-0,159
271,209	-118,609	-0,130	-0,016
272,224	127,550	-0,088	-0,077
273,239	33,004	-0,158	-0,095
274,253	-71,943	-0,070	-0,018
275,268	-143,253	-0,214	-0,014
276,282	52,381	-0,100	-0,066
277,297	261,415	-0,132	-0,159
278,312	14,108	-0,206	-0,111
279,326	74,927	-0,231	-0,168
280,341	54,754	-0,082	-0,055
281,355	-74,346	-0,184	-0,046
282,370	38,545	-0,116	-0,071
283,384	201,718	-0,128	-0,137
284,399	62,149	-0,142	-0,098
285,414	-105,067	-0,313	-0,049
286,428	716,434	-0,092	-0,170
287,443	-53,688	-0,175	-0,055
288,457	274,107	-0,181	-0,221
289,472	130,865	-0,066	-0,058
290,487	-124,297	-0,177	-0,019
291,501	-171,397	-0,183	-0,004
292,516	364,831	-0,206	-0,287
293,530	-2,663	-0,213	-0,102
294,545	156,902	-0,157	-0,149
295,560	-110,687	-0,222	-0,031
296,574	214,566	-0,168	-0,183
297,589	663,570	-0,131	-0,234
298,603	352,033	-0,129	-0,176
299,618	256,823	-0,106	-0,126
300,633	133,678	-0,132	-0,118
301,647	573,832	-0,101	-0,170
302,662	271,195	-0,091	-0,111
303,676	25,821	-0,224	-0,128
304,691	-200,000	-0,061	-0,240
305,706	362,442	-0,090	-0,125
306,720	252,957	-0,164	-0,193
307,735	162,083	-0,118	-0,114
308,749	689,378	-0,149	-0,270
309,764	-6,418	-0,187	-0,088
310,779	197,535	-0,113	-0,119
311,793	463,340	-0,123	-0,190
312,808	334,140	-0,136	-0,181
313,822	24,088	-0,189	-0,107
314,837	800,000	-0,072	-0,173
315,852	210,310	-0,114	-0,124
316,866	703,921	-0,093	-0,170
317,881	372,965	-0,081	-0,114
318,895	286,493	-0,102	-0,127
319,910	-82,885	-0,148	-0,033
320,925	122,451	-0,148	-0,127
321,939	-23,017	-0,267	-0,110
322,954	534,264	-0,108	-0,176
323,968	-200,000	0,016	-0,067
324,983	-94,204	-0,131	-0,024
325,997	-47,053	-0,161	-0,054
327,012	22,086	-0,172	-0,096
328,027	32,646	-0,241	-0,143
329,041	15,377	-0,219	-0,118
330,056	-142,857	-0,181	-0,012
331,070	317,186	-0,135	-0,176
332,085	494,380	-0,091	0,145
333,100	115,095	-0,120	-0,101
334,114	300,832	-0,097	-0,124
335,129	-57,580	-0,287	-0,086
336,143	314,915	-0,097	-0,125
337,158	556,633	-0,095	-0,157
338,173	384,646	-0,076	-0,108
339,187	138,335	-0,186	-0,168
340,202	800,000	-0,118	-0,243
341,216	-46,076	-0,189	-0,063
342,231	442,220	-0,124	-0,187
343,246	-200,000	-0,074	-0,280
344,260	101,039	-0,073	-0,058
345,275	-114,567	-0,220	-0,029
346,289	-103,803	-0,224	-0,036
347,304	158,797	-0,024	-0,023
348,319	271,695	-0,113	-0,137
349,333	800,000	-0,085	-0,224
350,348	-61,209	-0,226	-0,065
351,362	23,032	-0,143	-0,080
352,377	800,000	-0,030	0,089
353,392	-51,258	-0,116	0,037
354,406	-38,418	-0,186	-0,067
355,421	208,852	1314,354	1412,643
356,435	160,715	1475,041	1413,132
