DTS Sentinel unit serial number:	SN410029Multiplexer serial number:	ORYXHardware model number:	OX2-SRSoftware version number:	ORYX F/W v4,00 Oryx Data Collector v3.7.2.0data status	okinstallation	B3 Nyhavnadifferential loss correction	single-endedforward channel	channel 1reverse channel	N/Adate	2023/12/02time	02:42:30forward acquisition time	300,00reverse acquisition time	0,00gamma	499,1914k internal	0,3194k external	0,3194temperature offset calibration	1,0000default loss term (dB/km)	0,3820temperature slope calibration	1,0000multiplexer offset coefficient	1,0000multiplexer slope coefficient	1,0000fibre end	0,00T internal ref (°C)	16,67T ext. ref 1 (°C)	1,82T ext. ref 2 (°C)	1,81length (m)	temperature (°C)	Stokes	anti-Stokes-744,400	725,377	-0,098	-0,191
-743,385	800,000	0,103	0,327
-742,371	800,000	-0,129	-0,364
-741,356	-200,000	0,115	0,529
-740,342	-39,045	-0,267	-0,102
-739,327	-200,000	-0,077	0,361
-738,312	121,130	-0,187	-0,169
-737,298	-200,000	0,011	0,276
-736,283	302,331	-0,175	-0,237
-735,269	-200,000	0,004	0,145
-734,254	149,796	-0,243	-0,240
-733,239	-7,011	-0,145	0,072
-732,225	-200,000	-0,036	-0,166
-731,210	32,109	0,092	-0,058
-730,196	151,655	-0,025	-0,025
-729,181	-200,000	0,000	-0,009
-728,167	315,986	0,052	0,071
-727,152	-4,441	0,029	-0,015
-726,137	-118,308	0,130	-0,017
-725,123	181,083	-0,083	-0,089
-724,108	54,261	-0,198	-0,138
-723,094	-151,997	-0,089	-0,005
-722,079	70,254	-0,067	-0,050
-721,064	92,753	0,019	0,016
-720,050	-200,000	-0,005	-0,032
-719,035	-200,000	0,013	0,084
-718,021	1,984	0,022	-0,011
-717,006	137,153	-0,065	-0,062
-715,991	-200,000	0,013	-0,074
-714,977	-200,000	-0,021	-0,149
-713,962	-10,156	-0,087	0,042
-712,948	-200,000	-0,017	-0,061
-711,933	519,954	0,081	-0,139
-710,918	-36,118	-0,075	-0,029
-709,904	-48,255	0,107	0,037
-708,889	-200,000	-0,019	-0,076
-707,875	800,000	-0,048	-0,103
-706,860	-20,565	-0,115	0,051
-705,845	-200,000	0,041	0,156
-704,831	800,000	-0,009	-0,022
-703,816	-102,482	0,034	0,006
-702,802	-200,000	0,050	-0,205
-701,787	800,000	0,046	-0,097
-700,772	165,377	-0,067	0,069
-699,758	540,274	-0,035	-0,061
-698,743	81,441	0,061	-0,048
-697,729	291,953	0,042	0,055
-696,714	-200,000	0,039	-0,206
-695,699	134,186	-0,067	-0,064
-694,685	29,479	-0,167	-0,103
-693,670	139,710	-0,084	0,081
-692,656	-123,899	-0,046	-0,005
-691,641	-41,596	0,123	-0,046
-690,627	-91,399	-0,054	0,011
-689,612	81,302	0,027	-0,021
-688,597	-200,000	-0,004	0,087
-687,583	-6,509	-0,041	0,020
-686,568	-200,000	-0,000	-0,066
-685,554	-200,000	0,010	-0,143
-684,539	121,633	-0,067	-0,061
-683,524	-32,503	0,033	0,013
-682,510	4,904	0,083	0,044
-681,495	29,378	-0,090	0,055
-680,481	-16,858	-0,064	-0,029
-679,466	167,060	0,077	-0,079
-678,451	-200,000	0,001	0,116
-677,437	359,515	-0,036	0,052
-676,422	-176,575	-0,077	-0,001
-675,408	-200,000	-0,000	0,010
-674,393	50,149	-0,122	0,084
-673,378	-187,239	0,173	-0,002
-672,364	-200,000	-0,005	-0,070
-671,349	800,000	0,015	-0,043
-670,335	245,457	-0,008	-0,010
-669,320	-200,000	-0,022	-0,125
-668,305	-41,866	0,023	0,009
-667,291	64,531	0,063	-0,046
-666,276	31,078	-0,061	-0,038
-665,262	275,350	-0,056	-0,073
-664,247	-200,000	-0,034	-0,140
-663,232	188,871	-0,045	-0,050
-662,218	24,189	0,181	0,108
-661,203	-172,425	0,088	-0,002
-660,189	130,367	0,055	0,051
-659,174	119,810	-0,047	0,042
-658,159	-20,787	-0,059	0,026
-657,145	41,742	0,080	0,052
-656,130	-168,630	0,072	0,002
-655,116	-41,023	-0,080	0,030
-654,101	-200,000	0,002	0,039
-653,086	-200,000	0,011	-0,046
-652,072	119,709	-0,032	0,029
-651,057	81,907	0,099	-0,078
-650,043	-73,296	-0,045	-0,012
-649,028	32,592	-0,057	-0,036
-648,014	378,629	0,013	-0,019
-646,999	-20,172	0,062	-0,028
-645,984	-54,727	0,056	0,018
-644,970	800,000	0,058	0,161
-643,955	0,342	-0,163	-0,084
-642,941	97,057	-0,145	-0,120
-641,926	-200,000	-0,030	-0,136
-640,911	27,818	-0,056	0,034
-639,897	-41,131	-0,017	0,006
-638,882	-33,950	0,021	-0,008
-637,868	223,715	-0,116	0,136
-636,853	79,896	0,043	0,033
-635,838	-91,997	-0,105	0,021
-634,824	800,000	0,045	-0,118
-633,809	66,406	-0,112	-0,083
-632,795	1,169	0,093	0,048
-631,780	-9,925	-0,093	-0,045
-630,765	156,198	-0,045	0,045
-629,751	-200,000	-0,024	-0,102
-628,736	143,930	-0,079	-0,077
-627,722	-181,491	-0,109	0,002
-626,707	59,022	0,038	0,027
-625,692	-200,000	0,003	0,066
-624,678	175,830	0,077	-0,081
-623,663	-200,000	0,004	-0,037
-622,649	-75,445	-0,128	-0,033
-621,634	-200,000	-0,042	-0,172
-620,619	13,863	-0,089	-0,050
-619,605	-124,835	-0,110	-0,012
-618,590	485,468	0,054	0,089
-617,576	800,000	0,059	0,185
-616,561	-0,335	-0,174	0,089
-615,546	9,495	-0,124	-0,068
-614,532	-77,719	-0,138	-0,034
-613,517	-200,000	-0,012	0,083
-612,503	800,000	0,036	0,112
-611,488	174,356	0,061	0,064
-610,474	35,247	0,115	0,073
-609,459	289,666	0,099	0,130
-608,444	-131,967	-0,050	-0,005
-607,430	-108,637	-0,090	-0,014
-606,415	196,053	-0,050	-0,055
-605,401	17,666	0,157	0,090
-604,386	59,152	0,202	0,144
-603,371	776,162	-0,027	0,054
-602,357	800,000	-0,080	0,212
-601,342	167,233	0,028	0,029
-600,328	422,718	-0,013	0,020
-599,313	-200,000	-0,021	-0,111
-598,298	-200,000	-0,019	0,086
-597,284	435,785	-0,070	-0,110
-596,269	800,000	0,042	0,098
-595,255	-24,468	0,023	-0,010
-594,240	96,245	0,007	-0,006
-593,225	-20,934	-0,122	-0,054
-592,211	215,856	-0,062	-0,071
-591,196	-5,055	0,055	-0,027
-590,182	362,894	0,067	0,098
-589,167	231,919	-0,037	0,045
-588,152	800,000	0,019	-0,057
-587,138	800,000	-0,051	-0,105
-586,123	460,833	-0,067	-0,108
-585,109	54,825	-0,061	-0,043
-584,094	574,281	-0,033	0,059
-583,079	238,213	0,038	0,046
-582,065	800,000	0,006	-0,016
-581,050	302,354	-0,049	-0,066
-580,036	42,280	0,152	0,100
-579,021	305,909	-0,029	-0,039
-578,006	160,067	0,068	-0,069
-576,992	3,837	-0,066	-0,035
-575,977	-94,197	0,123	-0,024
-574,963	377,972	0,085	0,126
-573,948	-126,249	0,049	0,005
-572,934	82,391	0,058	-0,046
-571,919	-109,207	0,009	0,001
-570,904	-200,000	-0,002	-0,068
-569,890	387,391	0,027	-0,041
-568,875	120,720	0,097	0,087
-567,861	-200,000	0,003	0,108
-566,846	-27,696	0,081	0,034
-565,831	461,701	0,081	0,132
-564,817	79,109	-0,044	0,034
-563,802	97,302	-0,146	-0,121
-562,788	418,118	0,105	-0,162
-561,773	800,000	-0,024	0,049
-560,758	800,000	0,057	0,131
-559,744	-105,015	0,096	-0,016
-558,729	716,406	-0,012	-0,023
-557,715	54,115	0,037	0,025
-556,700	113,203	0,027	0,024
-555,685	800,000	0,017	-0,036
-554,671	26,854	-0,062	0,037
-553,656	-110,632	0,180	0,027
-552,642	551,098	0,038	0,066
-551,627	487,153	0,015	-0,024
-550,612	263,970	-0,085	0,108
-549,598	-120,411	-0,115	-0,014
-548,583	114,118	-0,038	-0,033
-547,569	800,000	-0,056	-0,141
-546,554	118,488	-0,102	-0,091
-545,539	-197,915	-0,087	-0,000
-544,525	85,769	-0,047	0,038
-543,510	122,632	0,055	0,050
-542,496	350,469	0,008	0,012
-541,481	-28,655	-0,048	0,020
-540,466	588,174	0,115	-0,206
-539,452	138,776	-0,090	-0,086
-538,437	426,964	-0,020	-0,032
-537,423	-41,900	-0,036	-0,013
-536,408	716,881	0,032	0,061
-535,393	-200,000	-0,029	0,178
-534,379	-173,027	-0,223	-0,005
-533,364	-200,000	-0,005	-0,019
-532,350	729,410	0,047	0,091
-531,335	800,000	-0,026	0,074
-530,321	-200,000	-0,028	0,120
-529,306	-200,000	-0,038	0,146
-528,291	800,000	-0,051	-0,129
-527,277	469,472	-0,053	-0,087
-526,262	274,529	0,085	0,109
-525,248	-200,000	0,019	0,079
-524,233	-135,365	0,015	-0,001
-523,218	800,000	-0,049	-0,133
-522,204	-200,000	0,059	-0,223
-521,189	156,346	0,033	-0,033
-520,175	133,881	-0,069	0,064
-519,160	800,000	0,041	-0,114
-518,145	17,977	0,076	-0,044
-517,131	18,147	0,043	0,025
-516,116	-163,027	0,123	0,004
-515,102	563,313	0,059	-0,104
-514,087	113,453	-0,078	0,068
-513,072	134,598	0,065	-0,061
-512,058	42,989	0,059	-0,039
-511,043	-2,467	-0,092	0,046
-510,029	-89,489	0,080	0,017
-509,014	-200,000	-0,003	0,196
-507,999	-200,000	-0,002	0,069
-506,985	-17,585	-0,173	0,078
-505,970	318,124	0,030	-0,041
-504,956	-128,791	-0,153	-0,015
-503,941	-20,866	0,091	-0,040
-502,926	-72,552	0,181	0,048
-501,912	800,000	-0,043	0,110
-500,897	370,940	-0,010	-0,015
-499,883	800,000	0,053	-0,149
-498,868	-29,529	-0,099	-0,041
-497,853	501,214	0,056	-0,095
-496,839	-41,102	-0,141	-0,052
-495,824	-200,000	0,006	-0,114
-494,810	147,959	0,032	-0,031
-493,795	800,000	-0,053	-0,120
-492,781	165,730	-0,062	-0,063
-491,766	-200,000	-0,017	-0,142
-490,751	-85,796	0,049	0,011
-489,737	84,739	0,098	0,078
-488,722	43,849	0,094	0,062
-487,708	362,046	0,019	-0,028
-486,693	-200,000	0,011	-0,076
-485,678	-148,979	0,091	0,005
-484,664	800,000	-0,078	0,173
-483,649	678,526	-0,043	-0,081
-482,635	-93,551	0,106	-0,021
-481,620	-48,204	0,036	0,012
-480,605	776,659	0,031	-0,061
-479,591	-3,259	0,048	0,024
-478,576	2,704	-0,055	-0,029
-477,562	-195,092	0,082	-0,000
-476,547	-200,000	0,021	-0,144
-475,532	111,088	0,053	-0,046
-474,518	-68,177	-0,028	-0,008
-473,503	83,884	-0,053	-0,041
-472,489	-200,000	0,018	0,278
-471,474	-176,697	-0,084	-0,002
-470,459	0,433	0,025	0,013
-469,445	348,042	-0,048	-0,068
-468,430	582,583	-0,032	0,056
-467,416	149,790	-0,044	0,043
-466,401	165,708	0,080	-0,082
-465,386	-200,000	0,016	0,065
-464,372	-97,542	-0,102	0,019
-463,357	246,006	-0,073	-0,089
-462,343	201,926	-0,022	0,024
-461,328	-90,000	0,148	-0,031
-460,313	430,307	-0,062	-0,097
-459,299	121,984	0,035	0,031
-458,284	-72,676	0,075	0,020
-457,270	75,675	0,153	0,116
-456,255	-157,459	0,027	0,001
-455,241	683,879	-0,060	-0,113
-454,226	32,900	-0,076	-0,047
-453,211	505,870	0,039	0,066
-452,197	-79,722	0,052	-0,013
-451,182	476,957	-0,050	0,082
-450,168	-200,000	-0,020	0,089
-449,153	-125,497	0,037	-0,004
-448,138	-11,752	-0,156	-0,073
-447,124	-62,789	-0,111	-0,033
-446,109	800,000	-0,092	0,192
-445,095	-200,000	0,002	0,022
-444,080	-200,000	-0,002	0,040
-443,065	-200,000	0,010	0,133
-442,051	524,308	-0,010	-0,017
-441,036	-200,000	-0,014	-0,119
-440,022	491,771	0,050	-0,083
-439,007	238,441	-0,091	-0,109
-437,992	-38,264	0,092	0,035
-436,978	-200,000	-0,028	0,136
-435,963	-200,000	-0,028	0,111
-434,949	-23,460	0,118	0,051
-433,934	-96,796	-0,130	-0,024
-432,919	-55,224	0,009	-0,003
-431,905	125,041	-0,142	-0,129
-430,890	-200,000	-0,002	0,034
-429,876	-200,000	0,004	-0,041
-428,861	120,252	0,032	-0,028
-427,846	7,006	0,060	-0,032
-426,832	800,000	-0,012	0,036
-425,817	-200,000	0,010	-0,102
-424,803	247,024	-0,109	0,133
-423,788	118,833	-0,044	-0,040
-422,773	-200,000	-0,025	0,168
-421,759	800,000	0,065	0,141
-420,744	420,854	-0,063	-0,097
-419,730	-200,000	-0,006	-0,060
-418,715	274,886	0,025	-0,032
-417,701	-144,142	-0,068	0,004
-416,686	739,459	-0,065	0,126
-415,671	155,929	-0,091	0,091
-414,657	335,308	-0,128	0,179
-413,642	212,855	0,053	-0,060
-412,628	-200,000	0,017	0,078
-411,613	-200,000	-0,013	0,180
-410,598	236,150	-0,081	-0,097
-409,584	314,294	0,042	0,057
-408,569	-200,000	0,017	0,087
-407,555	188,518	0,092	0,099
-406,540	-80,844	0,159	0,038
-405,525	-32,047	-0,036	-0,015
-404,511	396,351	0,079	0,119
-403,496	-10,188	-0,068	0,032
-402,482	800,000	-0,022	0,049
-401,467	210,746	-0,057	-0,064
-400,452	387,577	-0,024	0,036
-399,438	800,000	-0,017	-0,047
-398,423	527,541	-0,054	-0,091
-397,409	106,506	0,058	-0,050
-396,394	-200,000	-0,033	-0,131
-395,379	247,151	0,092	-0,111
-394,365	-138,320	0,083	0,006
-393,350	800,000	-0,044	0,110
-392,336	-129,387	-0,163	0,016
-391,321	-185,321	0,104	-0,001
-390,306	-200,000	0,002	-0,086
-389,292	230,928	0,053	-0,062
-388,277	-200,000	-0,028	-0,101
-387,263	800,000	0,025	-0,053
-386,248	-200,000	-0,002	0,076
-385,233	-121,933	-0,128	0,015
-384,219	-200,000	0,000	-0,058
-383,204	-87,412	-0,092	-0,020
-382,190	-200,000	0,006	-0,072
-381,175	-200,000	0,014	0,066
-380,160	454,551	0,026	0,042
-379,146	114,471	0,129	-0,113
-378,131	800,000	0,122	-0,297
-377,117	-56,173	0,005	0,002
-376,102	800,000	-0,023	-0,062
-375,088	-138,737	-0,135	-0,010
-374,073	-94,069	-0,114	-0,022
-373,058	-200,000	-0,042	-0,159
-372,044	17,490	0,118	-0,067
-371,029	-125,611	0,033	-0,004
-370,015	800,000	-0,008	0,023
-369,000	-200,000	0,028	-0,178
-367,985	19,908	-0,110	0,064
-366,971	-108,567	-0,009	-0,001
-365,956	-200,000	-0,007	0,069
-364,942	-200,000	-0,045	0,143
-363,927	-82,549	0,030	-0,007
-362,912	800,000	-0,036	-0,095
-361,898	-65,870	-0,052	-0,015
-360,883	-149,093	-0,172	-0,010
-359,869	-2,486	-0,044	0,022
-358,854	-164,149	0,111	-0,004
-357,839	-72,147	0,026	0,007
-356,825	39,420	0,055	-0,035
-355,810	194,499	0,024	0,026
-354,796	-182,412	-0,156	0,002
-353,781	625,453	0,053	-0,096
-352,766	122,989	0,010	0,009
-351,752	-70,292	-0,116	0,031
-350,737	2,540	0,141	-0,073
-349,723	235,775	0,027	0,032
-348,708	-200,000	-0,016	-0,132
-347,693	111,983	0,061	0,053
-346,679	-200,000	0,005	-0,038
-345,664	-95,886	-0,058	0,011
-344,650	-95,319	-0,086	0,016
-343,635	11,002	0,063	-0,035
-342,620	233,202	0,133	0,158
-341,606	243,693	0,035	0,042
-340,591	-200,000	0,022	-0,088
-339,577	65,532	0,088	-0,064
-338,562	-200,000	-0,011	-0,119
-337,548	-155,502	0,062	0,003
-336,533	-200,000	-0,015	0,072
-335,518	348,189	0,061	0,086
-334,504	-125,685	-0,133	-0,014
-333,489	-36,221	-0,020	0,008
-332,475	347,234	-0,053	0,074
-331,460	190,257	-0,105	-0,113
-330,445	343,355	-0,016	0,022
-329,431	344,830	0,051	-0,072
-328,416	800,000	-0,031	-0,061
-327,402	-200,000	-0,002	0,094
-326,387	-200,000	-0,032	-0,103
-325,372	189,118	-0,043	0,046
-324,358	800,000	-0,015	0,042
-323,343	-0,485	0,080	-0,041
-322,329	231,667	0,065	0,077
-321,314	793,774	0,032	0,064
-320,299	104,660	-0,054	0,045
-319,285	166,586	0,050	-0,051
-318,270	170,775	-0,029	-0,029
-317,256	559,952	0,038	-0,066
-316,241	800,000	-0,037	0,089
-315,226	777,686	0,061	-0,120
-314,212	80,516	-0,049	0,038
-313,197	-200,000	0,014	0,183
-312,183	297,450	-0,086	0,114
-311,168	-200,000	-0,014	0,137
-310,153	-121,622	-0,079	-0,009
-309,139	16,266	0,025	0,014
-308,124	10,001	0,057	0,031
-307,110	-200,000	-0,015	0,112
-306,095	488,272	-0,044	0,072
-305,080	800,000	-0,042	-0,090
-304,066	251,907	0,119	-0,146
-303,051	472,873	-0,081	-0,132
-302,037	-200,000	0,034	-0,110
-301,022	96,469	0,038	0,031
-300,008	-108,512	0,164	0,025
-298,993	800,000	0,043	0,087
-297,978	800,000	0,022	0,046
-296,964	17,719	-0,084	-0,048
-295,949	419,719	-0,050	-0,078
-294,935	-200,000	-0,014	-0,070
-293,920	-28,253	0,090	0,037
-292,905	452,762	0,084	0,134
-291,891	79,895	0,046	0,036
-290,876	-65,824	-0,023	-0,006
-289,862	19,923	-0,047	0,027
-288,847	-200,000	0,003	-0,074
-287,832	-200,000	-0,020	-0,112
-286,818	-200,000	-0,022	0,111
-285,803	800,000	-0,036	0,072
-284,789	186,810	0,072	0,076
-283,774	641,603	0,048	-0,089
-282,759	142,699	0,109	-0,104
-281,745	-118,130	0,052	-0,007
-280,730	-200,000	0,022	-0,141
-279,716	-37,232	-0,046	-0,018
-278,701	-105,216	0,120	-0,019
-277,686	454,939	0,011	0,018
-276,672	127,973	0,077	-0,070
-275,657	-146,138	-0,107	-0,007
-274,643	23,175	-0,135	-0,079
-273,628	-39,520	-0,072	-0,027
-272,613	-159,825	0,045	-0,002
-271,599	800,000	0,023	-0,047
-270,584	-200,000	-0,008	-0,045
-269,570	-200,000	0,017	-0,105
-268,555	-200,000	0,004	-0,024
-267,540	-76,865	-0,104	-0,026
-266,526	-200,000	0,035	-0,268
-265,511	188,376	-0,091	-0,097
-264,497	-93,070	-0,162	-0,032
-263,482	-62,923	0,146	0,043
-262,467	88,881	-0,106	0,084
-261,453	-34,623	0,172	0,067
-260,438	0,779	-0,052	0,027
-259,424	390,686	-0,062	-0,092
-258,409	97,185	-0,068	-0,056
-257,395	4,791	0,065	-0,034
-256,380	-200,000	-0,003	0,063
-255,365	-114,171	0,066	0,009
-254,351	18,861	-0,047	-0,027
-253,336	-73,305	-0,040	-0,011
-252,322	544,355	0,086	-0,148
-251,307	-200,000	0,005	-0,039
-250,292	18,802	-0,164	0,094
-249,278	85,490	0,063	-0,049
-248,263	365,504	-0,038	0,054
-247,249	800,000	0,011	-0,023
-246,234	-9,292	0,056	-0,027
-245,219	-200,000	0,000	0,077
-244,205	113,001	-0,021	0,018
-243,190	10,506	0,196	-0,106
-242,176	-200,000	-0,005	0,031
-241,161	-133,051	0,155	0,014
-240,146	641,005	0,040	-0,073
-239,132	-131,140	-0,067	-0,006
-238,117	26,299	-0,043	-0,026
-237,103	-200,000	-0,023	-0,088
-236,088	185,443	0,094	0,099
-235,073	-149,844	0,160	-0,009
-234,059	590,000	0,089	0,158
-233,044	800,000	0,036	0,096
-232,030	27,488	0,097	0,058
-231,015	800,000	-0,032	-0,079
-230,000	-144,688	0,067	-0,004
-228,986	-36,456	0,190	0,073
-227,971	-65,838	-0,123	0,035
-226,957	117,113	0,039	-0,035
-225,942	560,354	-0,011	-0,019
-224,927	800,000	-0,009	-0,020
-223,913	698,139	0,032	0,061
-222,898	800,000	-0,034	-0,102
-221,884	584,514	0,026	0,046
-220,869	-99,506	0,151	-0,027
-219,855	36,587	0,106	0,067
-218,840	-200,000	-0,010	0,068
-217,825	24,190	-0,129	-0,076
-216,811	-97,549	0,116	0,021
-215,796	-9,957	0,028	0,013
-214,782	-139,748	-0,110	-0,008
-213,767	-200,000	0,012	0,106
-212,752	-151,625	0,135	0,007
-211,738	120,829	-0,061	-0,055
-210,723	800,000	0,045	0,114
-209,709	-21,707	-0,044	0,019
-208,694	-200,000	0,027	0,113
-207,679	-68,299	0,037	0,010
-206,665	-200,000	-0,002	0,014
-205,650	403,026	0,060	0,091
-204,636	553,807	0,079	0,135
-203,621	-200,000	-0,001	0,013
-202,606	-200,000	0,000	-0,100
-201,592	-133,600	-0,117	-0,010
-200,577	119,009	-0,080	-0,071
-199,563	205,134	0,028	0,031
-198,548	-54,943	-0,027	0,008
-197,533	800,000	0,038	0,087
-196,519	-200,000	-0,002	-0,154
-195,504	309,266	0,029	-0,039
-194,490	800,000	-0,072	-0,152
-193,475	-46,067	-0,122	0,043
-192,460	-158,233	-0,150	0,006
-191,446	-200,000	-0,008	0,062
-190,431	-46,700	0,054	-0,019
-189,417	-18,723	0,124	0,055
-188,402	257,714	0,039	0,048
-187,387	-61,025	0,109	-0,033
-186,373	-44,934	-0,114	-0,040
-185,358	-200,000	0,002	0,013
-184,344	-70,322	-0,125	0,034
-183,329	-200,000	-0,001	-0,021
-182,315	-200,000	-0,003	0,100
-181,300	105,571	0,110	0,093
-180,285	750,676	-0,060	0,116
-179,271	169,489	-0,029	0,029
-178,256	213,095	-0,073	0,083
-177,242	-200,000	-0,017	0,196
-176,227	52,972	0,080	0,054
-175,212	61,692	-0,087	0,062
-174,198	800,000	0,037	-0,085
-173,183	-200,000	0,047	-0,188
-172,169	318,893	-0,102	-0,138
-171,154	800,000	0,057	-0,137
-170,139	-66,715	0,159	0,045
-169,125	33,863	0,044	0,027
-168,110	773,892	0,059	0,115
-167,096	284,688	0,040	0,051
-166,081	-93,824	-0,148	-0,029
-165,066	-94,773	0,121	0,023
-164,052	-181,563	0,059	-0,001
-163,037	-200,000	-0,018	-0,083
-162,023	-83,060	0,182	0,041
-161,008	-45,723	-0,077	-0,027
-159,993	-200,000	-0,009	0,058
-158,979	-200,000	-0,043	0,202
-157,964	75,808	-0,128	-0,096
-156,950	32,691	-0,105	-0,065
-155,935	-45,627	0,044	0,015
-154,920	-75,146	0,235	0,059
-153,906	6,055	0,184	0,097
-152,891	-11,686	-0,097	-0,045
-151,877	-200,000	-0,037	0,144
-150,862	268,465	-0,099	0,124
-149,847	89,322	-0,102	-0,081
-148,833	-200,000	0,026	0,094
-147,818	-162,913	0,157	-0,005
-146,804	660,337	-0,046	0,084
-145,789	-33,520	0,111	0,044
-144,775	304,488	-0,126	-0,167
-143,760	-9,257	-0,119	-0,057
-142,745	131,461	0,142	-0,130
-141,731	423,190	-0,068	-0,105
-140,716	800,000	0,050	0,113
-139,702	0,807	0,011	-0,006
-138,687	-115,486	0,086	-0,011
-137,672	-43,643	-0,044	0,016
-136,658	-79,679	-0,020	-0,005
-135,643	99,331	-0,080	-0,066
-134,629	-50,938	0,149	-0,049
-133,614	21,916	0,096	-0,055
-132,599	-20,572	-0,028	0,012
-131,585	227,457	0,125	0,144
-130,570	-117,330	-0,017	-0,002
-129,556	-44,608	-0,151	0,053
-128,541	-130,487	-0,096	-0,009
-127,526	-200,000	0,014	-0,152
-126,512	-200,000	0,018	-0,095
-125,497	-147,006	-0,074	-0,004
-124,483	-108,573	0,056	0,009
-123,468	-25,051	-0,103	-0,043
-122,453	-138,986	0,027	-0,002
-121,439	-27,623	0,027	0,011
-120,424	-62,895	0,195	0,057
-119,410	-200,000	-0,002	-0,057
-118,395	-200,000	-0,009	0,127
-117,380	20,759	0,021	0,012
-116,366	-39,458	-0,019	0,007
-115,351	81,292	0,054	0,041
-114,337	-45,175	-0,080	-0,028
-113,322	745,955	0,113	-0,217
-112,307	-107,065	0,106	-0,016
-111,293	-26,055	-0,123	-0,051
-110,278	-39,219	-0,113	-0,042
-109,264	205,453	-0,088	-0,097
-108,249	36,899	0,052	0,033
-107,234	-60,161	0,108	0,032
-106,220	800,000	-0,015	-0,043
-105,205	-200,000	0,014	0,121
-104,191	-95,498	0,139	-0,026
-103,176	18,850	-0,166	0,094
-102,162	228,907	0,067	0,078
-101,147	800,000	-0,083	-0,190
-100,132	-200,000	-0,024	-0,175
-99,118	-58,231	-0,027	0,008
-98,103	-200,000	-0,024	-0,082
-97,089	51,579	0,120	-0,081
-96,074	64,254	0,080	0,057
-95,059	458,642	0,036	0,057
-94,045	-200,000	0,028	-0,176
-93,030	800,000	-0,042	-0,091
-92,016	800,000	0,078	-0,197
-91,001	800,000	-0,028	0,064
-89,986	106,705	0,102	-0,086
-88,972	-200,000	0,041	0,137
-87,957	498,635	-0,035	0,058
-86,943	-88,754	0,069	-0,015
-85,928	-12,770	-0,208	-0,096
-84,913	-119,644	-0,048	0,006
-83,899	715,808	0,039	0,073
-82,884	-200,000	0,004	0,025
-81,870	759,839	0,017	-0,032
-80,855	-200,000	0,042	0,156
-79,840	556,085	0,069	0,119
-78,826	800,000	0,019	0,050
-77,811	76,078	-0,126	-0,095
-76,797	135,669	-0,062	-0,058
-75,782	530,036	0,074	0,125
-74,767	-155,719	0,044	-0,002
-73,753	-200,000	0,019	0,112
-72,738	289,631	0,124	-0,160
-71,724	-50,917	-0,143	-0,047
-70,709	226,423	-0,049	-0,056
-69,694	-32,694	0,082	-0,032
-68,680	427,991	0,036	0,055
-67,665	186,262	0,103	0,109
-66,651	322,426	0,070	-0,095
-65,636	800,000	-0,026	-0,054
-64,622	79,357	-0,116	-0,088
-63,607	124,260	-0,067	-0,060
-62,592	-139,040	-0,133	0,010
-61,578	-113,552	0,028	0,004
-60,563	-48,949	0,183	-0,062
-59,549	676,152	-0,065	0,121
-58,534	-81,486	-1,279	-0,296
-57,519	334,191	-1,622	-2,234
-56,505	-200,000	-0,376	-4,393
-55,490	134,707	0,930	0,857
-54,476	800,000	4,710	11,216
-53,461	-200,000	17,260	267,463
-52,446	800,000	714,264	2177,367
-51,432	551,720	1628,841	2785,287
-50,417	81,391	1655,030	1268,005
-49,403	24,452	1529,280	894,935
-48,388	18,504	1452,699	821,497
-47,373	18,547	1442,252	815,765
-46,359	18,329	1432,922	809,420
-45,344	16,814	1428,325	799,601
-44,330	16,733	1426,489	798,156
-43,315	16,724	1424,644	797,051
-42,300	16,789	1422,958	796,386
-41,286	16,789	1422,128	795,890
-40,271	16,790	1420,640	795,028
-39,257	16,753	1419,413	794,137
-38,242	16,728	1418,294	793,358
-37,227	16,790	1416,879	792,830
-36,213	16,797	1415,683	792,160
-35,198	16,787	1414,308	791,315
-34,184	16,790	1413,338	790,756
-33,169	16,709	1412,262	789,740
-32,154	16,802	1411,342	789,631
-31,140	16,803	1409,705	788,686
-30,125	16,800	1408,842	788,161
-29,111	16,809	1407,757	787,565
-28,096	16,736	1406,540	786,512
-27,082	16,688	1405,571	785,716
-26,067	16,743	1404,197	785,170
-25,052	16,695	1403,353	784,446
-24,038	16,669	1402,205	783,652
-23,023	16,661	1401,172	783,003
-22,009	16,669	1400,313	782,531
-20,994	16,619	1399,574	781,855
-19,979	16,644	1398,546	781,363
-18,965	16,650	1397,428	780,735
-17,950	16,603	1396,392	779,910
-16,936	16,624	1395,534	779,495
-15,921	16,608	1394,237	778,668
-14,906	16,606	1393,476	778,201
-13,892	16,627	1392,661	777,813
-12,877	16,633	1391,643	777,240
-11,863	16,620	1390,831	776,699
-10,848	16,608	1389,852	776,064
-9,833	16,596	1388,893	775,444
-8,819	16,527	1387,820	774,496
-7,804	16,488	1387,154	773,913
-6,790	16,514	1386,194	773,465
-5,775	16,481	1385,130	772,690
-4,760	16,470	1384,336	772,165
-3,746	16,470	1383,595	771,719
-2,731	16,504	1382,455	771,211
-1,717	16,486	1381,288	770,445
-0,702	16,475	1379,778	769,522
0,313	20,213	1301,641	743,186
1,327	36,687	707,847	442,384
2,342	56,915	125,676	86,688
3,356	3,603	16,646	8,579
4,371	-7,707	3,150	1,503
5,386	27,288	0,469	0,279
6,400	-200,000	-0,026	0,143
7,415	141,731	-0,164	-0,154
8,429	38,997	-0,378	-0,239
9,444	362,831	-0,264	-0,376
10,459	37,066	-0,399	-0,250
11,473	143,235	-0,298	-0,281
12,488	333,307	-0,164	-0,225
13,502	169,652	-0,266	-0,270
14,517	42,101	-0,273	-0,175
15,531	163,832	-0,379	-0,378
16,546	217,851	-0,243	-0,275
17,561	387,037	-0,184	-0,271
18,575	-25,707	-0,288	-0,120
19,590	111,351	-0,262	-0,223
20,604	-46,738	-0,171	-0,059
21,619	-13,114	-0,386	-0,177
22,634	140,179	-0,440	-0,411
23,648	128,219	-0,459	-0,413
24,663	86,706	-0,458	-0,358
25,677	105,400	-0,350	-0,292
26,692	332,138	-0,306	-0,419
27,707	187,607	-0,288	-0,304
28,721	21,808	-0,513	-0,295
29,736	311,073	-0,258	-0,343
30,750	113,535	-0,372	-0,320
31,765	98,545	-0,327	-0,267
32,780	116,411	-0,329	-0,285
33,794	24,794	-0,313	-0,183
34,809	-50,984	-0,375	-0,124
35,823	51,443	-0,389	-0,261
36,838	379,332	-0,254	-0,368
37,853	-10,187	-0,503	-0,235
38,867	-28,308	-0,369	-0,150
39,882	7,081	-0,363	-0,191
40,896	-4,312	-0,424	-0,206
41,911	-2,192	-0,333	-0,165
42,926	-39,194	-0,476	-0,176
43,940	175,180	-0,304	-0,311
44,955	0,053	-0,424	-0,213
45,969	296,448	-0,210	-0,273
46,984	150,562	-0,420	-0,403
47,999	32,446	-0,146	-0,089
49,013	82,973	-0,358	-0,275
50,028	57,353	-0,199	-0,137
51,042	49,184	-0,412	-0,273
52,057	42,218	-0,338	-0,216
53,071	158,324	-0,285	-0,279
54,086	41,046	-0,416	-0,265
55,101	109,562	-0,302	-0,255
56,115	96,754	-0,341	-0,275
57,130	51,637	-0,451	-0,302
58,144	304,716	-0,209	-0,274
59,159	139,010	-0,399	-0,370
60,174	291,764	-0,260	-0,335
61,188	162,038	-0,330	-0,326
62,203	83,068	-0,365	-0,280
63,217	-135,177	-0,249	-0,021
64,232	-94,203	-0,246	-0,047
65,247	7,301	-0,414	-0,217
66,261	-6,620	-0,435	-0,208
67,276	114,047	-0,304	-0,261
68,290	14,910	-0,350	-0,193
69,305	241,724	-0,231	-0,273
70,320	348,993	-0,136	-0,190
71,334	63,775	-0,203	-0,143
72,349	86,790	-0,238	-0,185
73,363	191,918	-0,240	-0,256
74,378	-39,594	-0,280	-0,103
75,393	26,105	-0,362	-0,212
76,407	22,864	-0,367	-0,211
77,422	347,393	-0,233	-0,325
78,436	-96,820	-0,365	-0,067
79,451	39,717	-0,273	-0,172
80,466	-75,970	-0,297	-0,073
81,480	217,319	-0,265	-0,297
82,495	-16,221	-0,356	-0,159
83,509	-30,060	-0,188	-0,075
84,524	-102,688	-0,300	-0,050
85,539	27,008	-0,242	-0,142
86,553	91,672	-0,213	-0,169
87,568	135,011	-0,307	-0,281
88,582	213,543	-0,227	-0,252
89,597	-88,442	-0,234	-0,049
90,611	215,714	-0,197	-0,220
91,626	71,135	-0,295	-0,215
92,641	5,439	-0,274	-0,142
93,655	0,098	-0,237	-0,118
94,670	47,316	-0,351	-0,229
95,684	91,521	-0,309	-0,244
96,699	82,900	-0,198	-0,151
97,714	369,676	-0,226	-0,323
98,728	94,442	-0,310	-0,247
99,743	-33,186	-0,365	-0,142
100,757	106,914	-0,179	-0,150
101,772	564,648	-0,188	-0,322
102,787	-34,213	-0,336	-0,129
103,801	55,888	-0,263	-0,179
104,816	-24,971	-0,314	-0,130
105,830	-63,779	-0,126	-0,036
106,845	33,624	-0,178	-0,109
107,860	60,998	-0,201	-0,140
108,874	184,961	-0,207	-0,216
109,889	115,077	-0,353	-0,302
110,903	-42,106	-0,174	-0,062
111,918	27,153	-0,256	-0,151
112,933	91,472	-0,145	-0,115
113,947	116,917	-0,201	-0,173
114,962	800,000	-0,129	-0,327
115,976	167,831	-0,163	-0,162
116,991	-35,592	-0,308	-0,117
118,006	91,856	-0,322	-0,254
119,020	572,900	-0,180	-0,309
120,035	55,638	-0,237	-0,161
121,049	58,827	-0,156	-0,107
122,064	38,729	-0,212	-0,133
123,079	183,476	-0,238	-0,247
124,093	209,562	-0,237	-0,261
125,108	146,116	-0,278	-0,262
126,122	218,322	-0,256	-0,287
127,137	72,235	-0,154	-0,113
128,151	32,281	-0,225	-0,136
129,166	84,951	-0,240	-0,184
130,181	81,761	-0,211	-0,160
131,195	-33,196	-0,329	-0,127
132,210	39,225	-0,304	-0,190
133,224	-57,565	-0,255	-0,078
134,239	110,810	-0,283	-0,239
135,254	75,471	-0,148	-0,109
136,268	-30,273	-0,204	-0,081
137,283	10,334	-0,237	-0,126
138,297	-19,877	-0,277	-0,119
139,312	122,028	-0,281	-0,246
140,327	44,390	-0,255	-0,163
141,341	220,024	-0,171	-0,192
142,356	19,995	-0,153	-0,086
143,370	166,413	-0,046	-0,046
144,385	-30,206	-0,309	-0,122
145,400	90,291	-0,282	-0,221
146,414	119,489	-0,084	-0,073
147,429	198,866	-0,206	-0,221
148,443	232,531	-0,216	-0,249
149,458	128,612	-0,276	-0,246
150,473	-11,225	-0,257	-0,118
151,487	-26,234	-0,174	-0,071
152,502	-9,267	-0,460	-0,214
153,516	52,917	-0,159	-0,106
154,531	127,836	-0,241	-0,214
155,546	415,214	-0,225	-0,337
156,560	800,000	-0,179	-0,354
157,575	-12,706	-0,252	-0,114
158,589	76,797	-0,363	-0,269
159,604	-21,542	-0,203	-0,086
160,619	148,493	-0,172	-0,162
161,633	-7,945	-0,284	-0,133
162,648	-4,091	-0,226	-0,109
163,662	-106,986	-0,145	0,022
164,677	68,865	-0,261	-0,187
165,692	393,935	-0,195	-0,284
166,706	196,991	-0,138	-0,147
167,721	566,271	-0,122	-0,207
168,735	188,501	-0,245	-0,256
169,750	113,551	-0,195	-0,166
170,764	540,594	-0,118	-0,197
171,779	-29,091	-0,250	-0,100
172,794	-38,538	-0,149	-0,055
173,808	-14,282	-0,236	-0,106
174,823	92,953	-0,259	-0,204
175,837	270,203	-0,164	-0,202
176,852	800,000	-0,150	-0,367
177,867	147,296	-0,188	-0,177
178,881	468,743	-0,186	-0,292
179,896	156,985	-0,142	-0,137
180,910	444,385	-0,147	-0,225
181,925	691,022	-0,150	-0,275
182,940	301,473	-0,223	-0,288
183,954	-20,089	-0,307	-0,131
184,969	166,798	-0,229	-0,227
185,983	-200,000	-0,057	-0,208
186,998	237,777	-0,161	-0,187
188,013	560,010	-0,139	-0,236
189,027	800,000	-0,143	-0,302
190,042	511,527	-0,139	-0,227
191,056	174,084	-0,148	-0,149
192,071	572,295	-0,179	-0,305
193,086	401,167	-0,076	-0,112
194,100	219,552	-0,217	-0,242
195,115	90,460	-0,192	-0,149
196,129	54,497	-0,224	-0,150
197,144	72,048	-0,212	-0,154
198,159	76,477	-0,298	-0,220
199,173	248,349	-0,236	-0,279
200,188	-29,954	-0,108	-0,043
201,202	-33,205	-0,132	-0,051
202,217	-90,529	-0,183	-0,037
203,232	89,822	-0,283	-0,220
204,246	154,690	-0,193	-0,185
205,261	12,934	-0,229	-0,123
206,275	800,000	-0,034	-0,066
207,290	284,921	-0,170	-0,214
208,304	-161,918	-0,269	0,009
209,319	-19,833	-0,188	-0,081
210,334	-3,944	-0,246	-0,118
211,348	262,948	-0,152	-0,184
212,363	200,445	-0,245	-0,263
213,377	626,313	-0,142	-0,250
214,392	94,126	-0,127	-0,100
215,407	38,740	-0,111	-0,069
216,421	-112,644	-0,238	-0,033
217,436	428,902	-0,124	-0,187
218,450	140,628	-0,151	-0,139
219,465	220,593	-0,193	-0,216
220,480	336,396	-0,152	-0,206
221,494	689,540	-0,132	-0,241
222,509	313,723	-0,111	-0,145
223,523	67,220	-0,128	-0,091
224,538	40,199	-0,133	-0,083
225,553	-20,973	-0,190	-0,080
226,567	33,154	-0,197	-0,119
227,582	52,614	-0,146	-0,096
228,596	-74,594	-0,208	-0,052
229,611	234,609	-0,112	-0,128
230,626	-27,332	-0,218	-0,088
231,640	196,813	-0,168	-0,178
232,655	323,311	-0,156	-0,207
233,669	170,565	-0,189	-0,188
234,684	306,606	-0,113	-0,146
235,699	182,583	-0,199	-0,204
236,713	-72,290	-0,200	-0,051
237,728	800,000	-0,074	-0,161
238,742	255,817	-0,149	-0,178
239,757	139,816	-0,226	-0,207
240,772	7,011	-0,357	-0,184
241,786	36,445	-0,343	-0,209
242,801	491,116	-0,169	-0,270
243,815	-200,000	-0,012	-0,130
244,830	175,785	-0,111	-0,111
245,844	-53,392	-0,204	-0,065
246,859	350,951	-0,105	-0,145
247,874	440,112	-0,143	-0,218
248,888	-200,000	-0,007	-0,160
249,903	800,000	-0,097	-0,210
250,917	16,317	-0,132	-0,072
251,932	111,205	-0,113	-0,094
252,947	800,000	-0,030	-0,059
253,961	530,261	-0,101	-0,166
254,976	800,000	-0,096	-0,215
255,990	272,836	-0,257	-0,316
257,005	283,431	-0,144	-0,180
258,020	151,851	-0,180	-0,170
259,034	-113,533	-0,031	-0,004
260,049	-200,000	-0,083	-0,000
261,063	178,694	-0,134	-0,135
262,078	-44,724	-0,305	-0,105
263,093	-85,755	-0,220	-0,047
264,107	800,000	-0,060	-0,182
265,122	346,435	-0,079	-0,107
266,136	-200,000	-0,040	-0,157
267,151	800,000	-0,050	-0,104
268,166	-92,283	-0,160	-0,031
269,180	269,840	-0,129	-0,157
270,195	-68,203	-0,247	-0,066
271,209	72,043	-0,145	-0,104
272,224	179,683	-0,149	-0,152
273,239	121,806	-0,117	-0,101
274,253	-200,000	-0,058	-0,244
275,268	63,371	-0,180	-0,125
276,282	49,682	-0,245	-0,160
277,297	-163,642	-0,219	0,007
278,312	59,329	-0,116	-0,079
279,326	226,385	-0,103	-0,116
280,341	-109,554	-0,154	-0,022
281,355	673,026	-0,088	-0,158
282,370	128,926	-0,218	-0,193
283,384	404,912	-0,090	-0,132
284,399	118,733	-0,180	-0,154
285,414	158,892	-0,206	-0,198
286,428	-142,190	-0,177	-0,012
287,443	800,000	-0,061	-0,177
288,457	800,000	-0,037	-0,102
289,472	40,314	-0,234	-0,145
290,487	214,297	-0,115	-0,126
291,501	45,700	-0,166	-0,106
292,516	367,235	-0,229	-0,320
293,530	41,502	-0,147	-0,091
294,545	-92,390	-0,109	-0,021
295,560	-46,856	-0,179	-0,060
296,574	-52,614	-0,239	0,076
297,589	-47,637	-0,244	-0,081
298,603	257,795	-0,136	-0,162
299,618	-96,241	-0,186	-0,034
300,633	-91,085	-0,226	-0,044
301,647	10,285	-0,126	-0,066
302,662	-42,034	-0,144	-0,051
303,676	-44,690	-0,095	-0,033
304,691	137,169	-0,105	-0,095
305,706	81,503	-0,161	-0,120
306,720	576,178	-0,102	-0,172
307,735	75,399	-0,120	-0,087
308,749	52,452	-0,204	-0,134
309,764	146,509	-0,060	-0,056
310,779	143,855	-0,162	-0,149
311,793	410,107	-0,149	-0,218
312,808	136,809	-0,129	-0,116
313,822	306,115	-0,173	-0,223
314,837	350,494	-0,140	-0,192
315,852	256,369	-0,058	-0,069
316,866	-200,000	-0,043	-0,218
317,881	800,000	-0,091	-0,195
318,895	133,996	-0,059	-0,053
319,910	-137,570	-0,113	-0,009
320,925	316,050	-0,163	-0,213
321,939	-1,409	-0,224	-0,109
322,954	67,447	-0,155	-0,109
323,968	16,791	-0,164	-0,089
324,983	57,142	-0,163	-0,109
325,997	-158,163	-0,082	0,003
327,012	-2,237	-0,209	-0,101
328,027	27,437	-0,181	-0,105
329,041	437,178	-0,131	-0,197
330,056	585,306	-0,068	-0,116
331,070	-41,687	-0,161	-0,057
332,085	-200,000	-0,049	0,152
333,100	188,331	-0,130	-0,134
334,114	800,000	-0,075	-0,164
335,129	800,000	-0,073	-0,167
336,143	-41,352	-0,234	-0,083
337,158	-51,716	-0,082	0,026
338,173	-80,703	-0,158	-0,036
339,187	-59,847	-0,093	0,027
340,202	-102,711	-0,122	0,020
341,216	80,301	-0,185	-0,137
342,231	-200,000	-0,019	-0,177
343,246	183,110	-0,249	-0,254
344,260	259,490	-0,116	-0,138
345,275	95,480	-0,167	-0,131
346,289	109,156	-0,172	-0,141
347,304	-45,137	-0,205	-0,070
348,319	78,738	-0,072	-0,053
349,333	594,274	-0,112	-0,191
350,348	800,000	-0,077	-0,215
351,362	-200,000	-0,027	-0,130
352,377	559,006	-0,098	-0,164
353,392	-200,000	-0,029	-0,217
354,406	-39,031	-0,097	-0,035
355,421	212,022	1313,195	1424,064
356,435	163,282	1473,784	1424,599
