DTS Sentinel unit serial number:	SN410029Multiplexer serial number:	ORYXHardware model number:	OX2-SRSoftware version number:	ORYX F/W v4,00 Oryx Data Collector v3.7.2.0data status	okinstallation	B3 Nyhavnadifferential loss correction	single-endedforward channel	channel 1reverse channel	N/Adate	2023/11/30time	09:32:30forward acquisition time	300,00reverse acquisition time	0,00gamma	499,1914k internal	0,3211k external	0,3211temperature offset calibration	1,0000default loss term (dB/km)	0,3820temperature slope calibration	1,0000multiplexer offset coefficient	1,0000multiplexer slope coefficient	1,0000fibre end	0,00T internal ref (°C)	9,51T ext. ref 1 (°C)	-5,53T ext. ref 2 (°C)	-5,63length (m)	temperature (°C)	Stokes	anti-Stokes-744,400	561,854	-0,147	-0,259
-743,385	800,000	0,070	0,208
-742,371	236,862	-0,205	-0,246
-741,356	-200,000	0,044	0,219
-740,342	-200,000	0,068	-0,242
-739,327	800,000	0,098	0,242
-738,312	800,000	-0,085	-0,232
-737,298	667,062	-0,147	0,277
-736,283	133,292	-0,246	-0,231
-735,269	339,850	-0,167	0,236
-734,254	732,470	-0,160	-0,313
-733,239	204,744	-0,182	0,205
-732,225	-200,000	-0,013	-0,094
-731,210	305,609	0,122	0,165
-730,196	78,497	0,024	-0,018
-729,181	-200,000	-0,017	0,134
-728,167	108,758	0,049	0,042
-727,152	-144,556	-0,088	-0,006
-726,137	609,846	0,052	0,095
-725,123	163,345	-0,022	-0,023
-724,108	-73,399	-0,099	0,026
-723,094	-81,973	-0,109	0,026
-722,079	103,692	-0,046	0,039
-721,064	-200,000	-0,002	-0,016
-720,050	800,000	0,029	0,087
-719,035	-93,255	-0,124	-0,025
-718,021	800,000	-0,071	-0,166
-717,006	87,806	-0,088	-0,071
-715,991	-35,926	-0,267	-0,104
-714,977	-200,000	0,020	-0,111
-713,962	85,904	-0,075	-0,060
-712,948	-200,000	-0,009	-0,047
-711,933	800,000	-0,020	0,042
-710,918	13,323	0,088	-0,049
-709,904	-146,558	-0,098	0,006
-708,889	375,053	0,033	0,049
-707,875	165,372	0,064	0,065
-706,860	800,000	0,013	0,038
-705,845	800,000	-0,025	0,057
-704,831	-95,017	-0,066	0,013
-703,816	70,983	0,005	0,004
-702,802	800,000	0,019	-0,049
-701,787	237,257	-0,089	-0,107
-700,772	100,615	0,030	0,025
-699,758	-14,559	0,035	-0,016
-698,743	-78,371	-0,120	-0,029
-697,729	168,083	0,102	0,105
-696,714	443,500	-0,101	-0,161
-695,699	-60,465	-0,074	-0,023
-694,685	-30,331	-0,124	0,051
-693,670	-200,000	0,005	-0,115
-692,656	-200,000	-0,021	-0,103
-691,641	50,652	-0,071	0,049
-690,627	-21,199	-0,139	0,061
-689,612	172,462	0,097	-0,101
-688,597	-200,000	-0,004	-0,093
-687,583	-200,000	-0,018	0,118
-686,568	0,919	-0,035	-0,018
-685,554	348,180	-0,041	-0,059
-684,539	-5,069	0,141	0,070
-683,524	-35,963	0,105	0,041
-682,510	-66,931	0,069	-0,020
-681,495	187,151	0,037	-0,040
-680,481	399,557	-0,076	-0,116
-679,466	235,155	-0,034	0,041
-678,451	391,416	-0,083	0,126
-677,437	291,813	-0,071	0,094
-676,422	-16,845	0,168	-0,077
-675,408	-112,308	-0,065	0,009
-674,393	-200,000	0,026	0,127
-673,378	88,157	0,046	0,037
-672,364	390,905	-0,080	-0,120
-671,349	140,071	0,093	0,089
-670,335	-200,000	-0,001	-0,132
-669,320	800,000	0,046	-0,132
-668,305	362,405	0,021	0,030
-667,291	27,222	-0,062	0,038
-666,276	-200,000	0,026	-0,118
-665,262	-172,227	-0,127	-0,003
-664,247	10,991	-0,026	0,014
-663,232	-53,602	0,044	-0,014
-662,218	229,503	0,047	-0,055
-661,203	800,000	0,021	0,045
-660,189	-200,000	-0,034	0,231
-659,174	-42,758	-0,115	0,042
-658,159	81,121	0,055	-0,043
-657,145	800,000	0,023	0,047
-656,130	-23,576	-0,156	-0,067
-655,116	-200,000	-0,006	0,053
-654,101	800,000	-0,021	0,049
-653,086	-4,820	0,085	-0,042
-652,072	668,834	-0,046	0,086
-651,057	-61,748	-0,130	-0,039
-650,043	-200,000	-0,032	-0,102
-649,028	526,077	0,029	-0,049
-648,014	457,660	-0,097	0,156
-646,999	800,000	0,027	-0,078
-645,984	800,000	0,022	0,052
-644,970	4,274	0,026	0,014
-643,955	-95,735	-0,130	0,025
-642,941	24,001	-0,112	-0,066
-641,926	-38,914	0,151	-0,057
-640,911	800,000	-0,022	-0,046
-639,897	-169,467	0,183	-0,005
-638,882	-135,913	-0,182	-0,015
-637,868	-68,584	0,073	-0,020
-636,853	-89,385	-0,028	-0,006
-635,838	434,826	0,016	-0,026
-634,824	204,027	0,020	-0,023
-633,809	-22,780	0,104	0,045
-632,795	-149,348	-0,032	-0,002
-631,780	-55,963	-0,117	-0,037
-630,765	-8,088	-0,104	-0,051
-629,751	-11,733	0,086	-0,040
-628,736	-6,638	-0,149	-0,073
-627,722	-46,108	-0,024	0,008
-626,707	800,000	0,024	-0,074
-625,692	122,686	-0,037	-0,033
-624,678	-78,121	0,077	-0,019
-623,663	747,617	-0,072	0,141
-622,649	-200,000	-0,016	-0,057
-621,634	66,074	-0,108	-0,079
-620,619	427,310	0,057	-0,088
-619,605	-39,700	0,122	-0,046
-618,590	624,831	0,042	0,076
-617,576	130,725	0,087	-0,081
-616,561	-200,000	0,017	-0,131
-615,546	800,000	0,013	-0,036
-614,532	174,683	-0,069	-0,072
-613,517	139,285	0,069	-0,065
-612,503	-100,187	0,110	0,020
-611,488	276,368	-0,009	0,012
-610,474	-200,000	0,003	0,098
-609,459	800,000	0,042	0,101
-608,444	-3,217	-0,176	-0,088
-607,430	14,959	-0,163	0,092
-606,415	-200,000	-0,015	0,079
-605,401	-200,000	0,024	-0,087
-604,386	610,854	0,034	-0,061
-603,371	-153,517	-0,024	-0,001
-602,357	237,865	-0,119	0,143
-601,342	-21,651	-0,059	-0,026
-600,328	152,848	-0,096	-0,095
-599,313	2,989	-0,083	-0,043
-598,298	-200,000	0,005	0,047
-597,284	-23,087	0,113	0,049
-596,269	800,000	0,027	-0,083
-595,255	-152,169	0,092	-0,005
-594,240	-200,000	0,014	0,097
-593,225	-20,459	0,067	-0,029
-592,211	19,094	-0,109	0,063
-591,196	800,000	-0,028	-0,075
-590,182	1,199	0,042	-0,022
-589,167	11,675	-0,042	0,023
-588,152	379,822	-0,085	0,126
-587,138	336,397	-0,065	0,092
-586,123	120,358	0,058	0,052
-585,109	-200,000	0,011	0,062
-584,094	-40,612	0,154	-0,057
-583,079	-27,531	-0,031	-0,013
-582,065	338,921	0,099	0,140
-581,050	-200,000	0,001	-0,056
-580,036	-86,655	-0,082	-0,018
-579,021	61,178	-0,118	-0,085
-578,006	800,000	-0,032	-0,078
-576,992	564,725	-0,043	0,075
-575,977	564,155	0,055	-0,097
-574,963	-26,056	-0,028	0,012
-573,948	-1,108	-0,138	-0,070
-572,934	-128,085	-0,160	-0,016
-571,919	-200,000	0,030	0,121
-570,904	-200,000	0,001	-0,071
-569,890	-21,066	-0,094	0,041
-568,875	51,989	0,079	-0,054
-567,861	4,534	0,063	-0,033
-566,846	100,987	0,122	0,102
-565,831	-128,720	-0,100	0,010
-564,817	-62,361	-0,034	0,010
-563,802	-90,598	-0,028	0,006
-562,788	-200,000	0,003	0,081
-561,773	-200,000	-0,005	-0,032
-560,758	-193,253	-0,052	-0,000
-559,744	-38,706	0,125	0,047
-558,729	-56,812	-0,070	-0,022
-557,715	-200,000	0,003	-0,064
-556,700	276,123	0,079	0,101
-555,685	-200,000	-0,006	-0,055
-554,671	-200,000	0,006	0,035
-553,656	-114,535	0,073	-0,010
-552,642	52,468	-0,032	0,022
-551,627	-8,296	0,054	0,026
-550,612	-122,940	-0,090	-0,010
-549,598	264,367	-0,104	-0,131
-548,583	546,181	-0,030	0,053
-547,569	511,737	0,078	-0,130
-546,554	-0,174	0,011	0,006
-545,539	16,682	0,140	0,079
-544,525	-64,477	0,076	0,022
-543,510	226,947	-0,057	-0,067
-542,496	-40,453	0,074	-0,027
-541,481	-200,000	-0,013	-0,112
-540,466	140,843	0,047	-0,044
-539,452	-124,102	-0,078	-0,009
-538,437	-22,203	-0,072	0,031
-537,423	422,668	-0,093	-0,144
-536,408	800,000	-0,036	0,105
-535,393	-45,116	-0,110	-0,039
-534,379	-200,000	-0,015	-0,102
-533,364	-200,000	-0,081	0,000
-532,350	430,617	0,045	0,071
-531,335	-129,943	-0,115	0,011
-530,321	-65,158	0,076	0,022
-529,306	27,089	-0,083	-0,050
-528,291	800,000	-0,032	-0,069
-527,277	-200,000	0,005	-0,058
-526,262	-119,519	-0,062	0,008
-525,248	57,042	0,030	-0,021
-524,233	49,701	0,038	0,025
-523,218	-92,943	0,046	-0,009
-522,204	-30,062	0,095	-0,039
-521,189	26,830	0,032	-0,019
-520,175	16,153	-0,055	-0,031
-519,160	-95,295	0,115	-0,022
-518,145	576,166	0,045	0,080
-517,131	800,000	0,068	0,146
-516,116	428,753	-0,075	0,118
-515,102	-2,455	-0,132	-0,066
-514,087	-200,000	0,012	-0,162
-513,072	774,925	-0,037	-0,073
-512,058	24,103	-0,029	-0,017
-511,043	-177,184	0,070	0,001
-510,029	61,002	0,027	-0,020
-509,014	-24,130	0,091	0,039
-507,999	29,528	-0,050	0,031
-506,985	333,220	-0,032	0,045
-505,970	-200,000	-0,000	-0,054
-504,956	-7,421	-0,019	0,009
-503,941	539,576	0,086	-0,148
-502,926	468,235	0,008	0,014
-501,912	-200,000	-0,005	0,122
-500,897	800,000	0,018	-0,047
-499,883	-42,520	-0,088	0,032
-498,868	133,447	-0,022	-0,020
-497,853	-97,296	-0,125	0,023
-496,839	-140,977	-0,118	0,009
-495,824	-160,076	-0,054	0,002
-494,810	-15,784	0,037	-0,017
-493,795	800,000	0,063	0,148
-492,781	702,679	-0,014	0,026
-491,766	376,104	-0,025	-0,036
-490,751	225,264	0,086	-0,100
-489,737	800,000	-0,022	0,065
-488,722	90,125	-0,081	-0,065
-487,708	247,447	-0,079	0,096
-486,693	-200,000	0,034	-0,161
-485,678	-0,186	0,035	-0,018
-484,664	115,233	-0,057	-0,050
-483,649	-113,355	0,202	-0,028
-482,635	800,000	-0,017	0,035
-481,620	-200,000	-0,014	0,089
-480,605	800,000	-0,066	0,164
-479,591	-3,684	-0,068	0,034
-478,576	800,000	0,013	-0,031
-477,562	164,221	0,017	-0,017
-476,547	-29,752	-0,138	-0,056
-475,532	800,000	-0,044	-0,107
-474,518	800,000	0,063	0,133
-473,503	-200,000	-0,025	0,146
-472,489	-42,316	0,075	0,027
-471,474	12,330	-0,102	0,056
-470,459	-35,130	-0,077	-0,030
-469,445	-46,390	0,039	-0,014
-468,430	420,558	-0,046	-0,070
-467,416	65,609	0,017	0,012
-466,401	-82,848	0,122	0,028
-465,386	-200,000	-0,012	-0,077
-464,372	136,185	0,093	0,087
-463,357	110,639	0,042	-0,036
-462,343	-200,000	-0,037	-0,124
-461,328	228,891	-0,076	-0,089
-460,313	-200,000	0,014	-0,052
-459,299	-174,051	0,168	0,003
-458,284	-200,000	0,043	0,172
-457,270	-200,000	-0,035	0,222
-456,255	162,391	-0,058	0,058
-455,241	-126,661	0,053	0,006
-454,226	90,136	0,042	0,034
-453,211	-200,000	0,054	0,182
-452,197	-200,000	-0,004	0,013
-451,182	176,796	0,079	0,083
-450,168	160,503	0,022	0,022
-449,153	-11,101	0,112	0,053
-448,138	19,305	0,105	0,060
-447,124	84,533	-0,066	0,052
-446,109	-85,833	0,016	-0,003
-445,095	-57,435	-0,076	-0,024
-444,080	51,183	-0,073	0,050
-443,065	265,813	0,025	0,032
-442,051	800,000	0,041	-0,092
-441,036	7,948	-0,082	0,044
-440,022	136,053	-0,094	-0,088
-439,007	-200,000	-0,009	-0,055
-437,992	323,986	-0,055	-0,075
-436,978	-2,307	0,053	-0,026
-435,963	-51,437	-0,091	0,030
-434,949	139,095	0,075	-0,071
-433,934	-118,027	-0,082	-0,010
-432,919	187,019	-0,115	0,122
-431,905	-200,000	-0,018	-0,108
-430,890	-39,064	-0,035	-0,013
-429,876	-50,728	0,149	0,050
-428,861	533,825	0,075	0,128
-427,846	143,162	-0,050	0,048
-426,832	-73,289	-0,053	-0,014
-425,817	271,359	-0,111	-0,140
-424,803	800,000	-0,020	-0,048
-423,788	66,124	0,064	0,047
-422,773	-100,313	0,186	-0,033
-421,759	636,101	-0,016	0,029
-420,744	267,888	0,041	0,052
-419,730	56,538	0,053	-0,037
-418,715	-63,922	-0,038	-0,011
-417,701	8,549	0,028	-0,015
-416,686	613,807	-0,070	-0,127
-415,671	125,958	-0,035	-0,032
-414,657	458,038	0,047	-0,075
-413,642	23,987	0,008	0,004
-412,628	-81,256	-0,076	-0,018
-411,613	307,275	0,065	-0,086
-410,598	-200,000	-0,002	0,062
-409,584	-152,485	-0,028	0,001
-408,569	325,578	0,070	0,097
-407,555	-19,939	-0,054	-0,024
-406,540	800,000	-0,002	0,005
-405,525	108,184	-0,118	0,101
-404,511	-61,774	-0,229	-0,068
-403,496	353,294	0,036	0,051
-402,482	-69,339	-0,072	-0,020
-401,467	290,219	0,013	0,017
-400,452	800,000	0,037	0,085
-399,438	800,000	0,039	-0,090
-398,423	12,299	-0,012	0,007
-397,409	800,000	-0,055	-0,169
-396,394	-200,000	0,031	-0,134
-395,379	-72,414	0,053	-0,014
-394,365	-200,000	-0,045	0,175
-393,350	-70,336	0,051	-0,014
-392,336	766,537	-0,032	-0,063
-391,321	-200,000	0,032	0,134
-390,306	-47,320	0,052	-0,018
-389,292	-31,772	-0,190	-0,076
-388,277	-30,083	0,033	-0,013
-387,263	177,803	-0,058	0,060
-386,248	-153,081	0,079	0,004
-385,233	162,195	-0,066	-0,066
-384,219	800,000	0,031	-0,084
-383,204	9,115	0,026	-0,014
-382,190	500,015	-0,029	0,049
-381,175	-138,829	-0,076	0,006
-380,160	49,709	0,099	0,067
-379,146	154,531	0,078	0,077
-378,131	800,000	0,050	0,108
-377,117	-44,922	-0,026	0,009
-376,102	258,008	-0,083	0,102
-375,088	17,934	0,045	-0,025
-374,073	24,636	0,017	-0,010
-373,058	324,020	0,033	-0,046
-372,044	537,707	0,040	0,067
-371,029	-200,000	0,004	-0,071
-370,015	110,074	-0,061	0,053
-369,000	91,535	0,044	-0,036
-367,985	38,776	-0,136	-0,086
-366,971	-8,455	0,107	-0,051
-365,956	234,642	-0,070	-0,083
-364,942	800,000	0,093	0,228
-363,927	39,336	0,085	-0,054
-362,912	-89,990	0,018	-0,004
-361,898	121,253	-0,122	-0,109
-360,883	-126,244	-0,143	-0,015
-359,869	228,676	0,092	-0,107
-358,854	556,848	-0,042	0,072
-357,839	149,349	-0,069	0,067
-356,825	-200,000	0,052	0,235
-355,810	5,776	-0,033	0,017
-354,796	-96,086	0,099	-0,019
-353,781	-64,462	0,055	0,016
-352,766	288,375	0,033	0,043
-351,752	687,147	0,021	-0,039
-350,737	-42,789	0,050	0,018
-349,723	-3,812	0,144	0,071
-348,708	633,244	-0,073	0,133
-347,693	279,531	0,034	-0,043
-346,679	-200,000	0,005	-0,082
-345,664	-200,000	-0,002	-0,014
-344,650	-140,336	-0,083	-0,006
-343,635	-9,816	0,085	0,040
-342,620	-200,000	0,010	0,126
-341,606	-200,000	0,021	-0,156
-340,591	-112,653	-0,071	-0,010
-339,577	-4,176	0,074	-0,036
-338,562	-99,203	-0,081	-0,015
-337,548	-200,000	0,006	0,022
-336,533	-79,989	-0,046	-0,011
-335,518	23,282	0,118	0,069
-334,504	-176,337	0,153	-0,003
-333,489	-200,000	-0,004	-0,119
-332,475	-200,000	-0,023	-0,086
-331,460	-185,440	-0,031	0,000
-330,445	-200,000	0,018	-0,058
-329,431	701,295	-0,032	-0,061
-328,416	-200,000	0,032	0,111
-327,402	-15,133	0,130	0,059
-326,387	363,303	0,020	-0,028
-325,372	-127,600	-0,195	0,020
-324,358	-200,000	-0,001	-0,025
-323,343	800,000	0,017	0,042
-322,329	-54,495	0,174	-0,056
-321,314	78,371	0,156	0,119
-320,299	31,573	-0,072	-0,044
-319,285	265,833	-0,070	0,087
-318,270	-200,000	-0,005	0,116
-317,256	37,345	0,068	0,043
-316,241	18,341	0,019	-0,011
-315,226	152,503	0,046	0,045
-314,212	-200,000	-0,001	0,151
-313,197	501,754	0,007	-0,011
-312,183	800,000	-0,026	0,076
-311,168	787,199	-0,031	0,061
-310,153	346,964	0,078	-0,110
-309,139	-112,981	-0,097	-0,013
-308,124	247,619	0,095	0,114
-307,110	100,404	0,083	-0,069
-306,095	-200,000	-0,021	0,084
-305,080	-61,976	-0,076	0,022
-304,066	-20,384	-0,095	0,041
-303,051	131,442	-0,068	-0,063
-302,037	800,000	0,049	-0,115
-301,022	29,180	0,015	-0,009
-300,008	-54,852	0,105	-0,034
-298,993	-166,815	-0,060	-0,002
-297,978	800,000	0,015	0,029
-296,964	800,000	-0,034	-0,070
-295,949	800,000	0,010	-0,025
-294,935	60,499	-0,061	0,043
-293,920	92,027	-0,020	0,016
-292,905	267,176	0,053	-0,067
-291,891	-133,688	0,046	-0,004
-290,876	178,013	0,054	0,056
-289,862	800,000	-0,033	-0,065
-288,847	800,000	0,036	-0,087
-287,832	-39,940	-0,051	0,019
-286,818	-12,171	0,106	0,049
-285,803	800,000	0,053	0,119
-284,789	16,659	-0,053	0,030
-283,774	183,091	0,054	0,056
-282,759	423,830	0,080	-0,123
-281,745	108,189	0,016	-0,014
-280,730	-200,000	0,003	-0,110
-279,716	-200,000	0,009	0,140
-278,701	22,684	0,048	-0,028
-277,686	-52,684	0,098	0,032
-276,672	401,038	-0,059	-0,089
-275,657	-33,488	0,075	-0,030
-274,643	-46,269	-0,089	-0,031
-273,628	-200,000	-0,012	-0,104
-272,613	378,518	-0,061	-0,089
-271,599	-52,357	0,103	0,034
-270,584	-200,000	-0,017	-0,095
-269,570	-124,488	0,088	0,010
-268,555	-20,201	-0,117	-0,051
-267,540	343,106	-0,059	-0,083
-266,526	265,696	-0,075	-0,093
-265,511	-123,202	0,037	-0,004
-264,497	-200,000	-0,011	-0,077
-263,482	351,718	0,028	-0,039
-262,467	800,000	-0,025	-0,064
-261,453	-200,000	0,019	0,086
-260,438	-120,590	-0,098	-0,012
-259,424	238,898	0,101	0,120
-258,409	162,119	0,055	-0,054
-257,395	129,708	-0,052	-0,047
-256,380	-49,376	0,148	0,050
-255,365	-31,848	0,071	-0,028
-254,351	-103,700	-0,073	0,012
-253,336	800,000	-0,031	-0,066
-252,322	249,793	-0,089	-0,107
-251,307	-200,000	0,004	-0,076
-250,292	-48,881	-0,037	-0,013
-249,278	132,757	0,074	-0,068
-248,263	800,000	0,053	0,109
-247,249	800,000	0,062	0,126
-246,234	-200,000	0,006	-0,084
-245,219	19,239	0,041	0,023
-244,205	-200,000	-0,037	0,127
-243,190	650,217	-0,071	0,130
-242,176	223,642	0,122	-0,140
-241,161	90,422	-0,038	0,030
-240,146	69,123	-0,046	0,033
-239,132	-162,747	-0,064	0,002
-238,117	78,462	-0,044	0,033
-237,103	800,000	0,015	0,036
-236,088	-34,460	-0,086	-0,033
-235,073	800,000	0,074	0,221
-234,059	-55,793	0,096	-0,030
-233,044	-200,000	-0,008	-0,044
-232,030	24,135	-0,073	0,043
-231,015	-27,981	-0,121	-0,050
-230,000	800,000	0,012	0,028
-228,986	7,738	0,084	-0,044
-227,971	800,000	-0,033	0,096
-226,957	-95,407	0,069	0,013
-225,942	-200,000	0,009	-0,102
-224,927	800,000	-0,044	0,098
-223,913	-52,576	-0,148	0,048
-222,898	-200,000	-0,001	-0,127
-221,884	390,726	-0,037	0,055
-220,869	-200,000	0,009	0,055
-219,855	800,000	-0,006	0,015
-218,840	-200,000	0,012	0,158
-217,825	576,881	0,037	0,065
-216,811	-46,316	0,126	0,044
-215,796	800,000	-0,058	-0,156
-214,782	-200,000	-0,003	0,093
-213,767	-119,368	0,168	-0,021
-212,752	389,992	0,044	0,065
-211,738	-53,278	0,046	-0,015
-210,723	-200,000	-0,002	-0,056
-209,709	-31,268	-0,086	0,034
-208,694	-200,000	0,017	-0,132
-207,679	-1,813	-0,083	-0,042
-206,665	-35,384	-0,095	-0,037
-205,650	-200,000	-0,028	0,111
-204,636	-200,000	-0,023	0,095
-203,621	194,032	0,038	-0,041
-202,606	381,465	-0,072	0,105
-201,592	-43,536	-0,059	-0,021
-200,577	800,000	0,056	-0,114
-199,563	394,500	0,014	0,020
-198,548	-60,863	0,114	0,034
-197,533	106,597	-0,057	0,048
-196,519	379,123	0,083	0,120
-195,504	-200,000	0,030	0,218
-194,490	-56,413	-0,178	-0,056
-193,475	800,000	0,008	0,023
-192,460	150,513	-0,099	0,096
-191,446	-200,000	0,011	-0,095
-190,431	-79,368	0,130	-0,031
-189,417	-45,145	0,103	0,036
-188,402	510,980	0,084	0,139
-187,387	35,847	-0,089	-0,056
-186,373	-200,000	-0,027	-0,097
-185,358	255,765	0,070	0,085
-184,344	377,663	-0,018	0,026
-183,329	800,000	0,038	-0,098
-182,315	-200,000	0,014	0,046
-181,300	-24,736	0,193	-0,081
-180,285	106,383	0,088	-0,074
-179,271	800,000	0,028	-0,080
-178,256	21,355	0,056	0,032
-177,242	800,000	0,050	0,152
-176,227	302,791	0,047	0,062
-175,212	-1,619	-0,078	0,039
-174,198	98,293	-0,078	0,063
-173,183	-200,000	-0,008	-0,050
-172,169	15,390	-0,065	-0,036
-171,154	145,381	0,103	0,098
-170,139	289,325	-0,073	0,095
-169,125	-200,000	0,004	-0,134
-168,110	-181,736	0,209	-0,003
-167,096	-200,000	0,026	0,096
-166,081	-179,159	-0,187	-0,003
-165,066	-200,000	0,008	-0,137
-164,052	27,981	-0,045	0,027
-163,037	-50,451	-0,040	0,013
-162,023	159,393	-0,059	-0,058
-161,008	800,000	-0,024	-0,052
-159,993	79,615	0,138	-0,105
-158,979	-200,000	0,023	-0,211
-157,964	246,288	-0,129	-0,154
-156,950	345,681	0,048	-0,067
-155,935	91,016	0,038	0,030
-154,920	-54,588	-0,105	0,034
-153,906	-200,000	0,008	0,067
-152,891	-119,326	0,067	0,008
-151,877	-14,085	-0,058	-0,026
-150,862	-171,846	0,119	0,003
-149,847	-200,000	-0,009	0,098
-148,833	197,016	0,104	0,113
-147,818	-200,000	0,027	-0,107
-146,804	120,446	0,148	0,130
-145,789	-35,585	0,081	0,031
-144,775	139,328	-0,153	-0,143
-143,760	-80,339	-0,128	-0,030
-142,745	800,000	0,065	-0,137
-141,731	528,740	-0,059	-0,100
-140,716	800,000	-0,030	0,059
-139,702	-59,180	0,051	0,015
-138,687	111,163	-0,135	0,115
-137,672	-145,079	0,111	0,007
-136,658	190,500	0,096	-0,102
-135,643	-179,569	0,041	-0,001
-134,629	-85,051	0,063	-0,014
-133,614	-200,000	-0,020	0,067
-132,599	231,435	-0,025	0,029
-131,585	800,000	0,040	0,117
-130,570	395,418	-0,035	-0,051
-129,556	-116,784	-0,032	-0,004
-128,541	-200,000	-0,007	-0,023
-127,526	82,091	0,133	0,102
-126,512	49,812	0,215	0,143
-125,497	429,977	0,020	-0,030
-124,483	-200,000	0,003	-0,167
-123,468	800,000	0,039	-0,092
-122,453	-48,844	-0,094	-0,032
-121,439	164,893	-0,066	-0,066
-120,424	33,804	0,015	0,009
-119,410	47,339	-0,120	-0,079
-118,395	-122,910	0,121	0,014
-117,380	-16,383	-0,159	0,071
-116,366	-21,006	-0,108	-0,047
-115,351	137,269	0,054	-0,050
-114,337	-28,038	0,047	-0,019
-113,322	-20,032	-0,019	-0,008
-112,307	-200,000	-0,001	0,067
-111,293	800,000	-0,014	0,037
-110,278	318,196	0,071	-0,096
-109,264	-36,050	-0,016	0,006
-108,249	800,000	-0,055	-0,126
-107,234	-200,000	0,006	-0,080
-106,220	-0,402	0,055	-0,028
-105,205	800,000	0,029	0,077
-104,191	-200,000	-0,005	0,124
-103,176	-200,000	0,005	-0,022
-102,162	-200,000	-0,022	-0,142
-101,147	60,031	-0,125	-0,087
-100,132	202,513	-0,060	-0,066
-99,118	-19,521	-0,090	0,039
-98,103	-200,000	-0,042	-0,135
-97,089	562,845	0,033	0,057
-96,074	124,283	0,030	0,027
-95,059	137,600	-0,071	0,066
-94,045	44,912	-0,048	0,031
-93,030	390,780	0,028	0,041
-92,016	139,284	-0,107	-0,099
-91,001	-148,927	0,041	0,002
-89,986	-5,534	-0,042	-0,020
-88,972	13,797	0,055	0,030
-87,957	-200,000	-0,032	-0,117
-86,943	69,967	0,040	0,029
-85,928	800,000	0,046	-0,122
-84,913	221,219	-0,065	-0,074
-83,899	-61,788	0,126	0,037
-82,884	-26,788	-0,064	0,026
-81,870	25,377	-0,035	0,020
-80,855	12,613	0,061	-0,033
-79,840	-200,000	-0,013	0,124
-78,826	123,588	-0,052	-0,046
-77,811	217,959	-0,033	0,037
-76,797	800,000	0,010	0,019
-75,782	-200,000	0,012	-0,068
-74,767	-200,000	-0,011	-0,060
-73,753	46,219	0,055	-0,036
-72,738	58,159	0,110	-0,076
-71,724	-170,117	-0,101	0,002
-70,709	-25,469	-0,047	-0,020
-69,694	-121,650	-0,138	-0,016
-68,680	-156,022	0,121	0,005
-67,665	800,000	-0,023	-0,062
-66,651	602,123	0,031	0,055
-65,636	800,000	-0,050	-0,124
-64,622	477,323	-0,050	0,080
-63,607	-200,000	-0,015	0,068
-62,592	294,494	0,053	-0,068
-61,578	-200,000	-0,031	0,115
-60,563	-106,902	0,138	0,021
-59,549	51,404	-0,132	0,088
-58,534	60,096	-1,996	-1,391
-57,519	562,453	-1,157	-1,984
-56,505	-200,000	-0,346	-4,427
-55,490	619,225	0,880	1,567
-54,476	800,000	5,184	11,293
-53,461	-200,000	21,913	344,442
-52,446	800,000	763,115	2343,820
-51,432	547,001	1662,693	2818,773
-50,417	71,552	1659,131	1214,818
-49,403	17,291	1532,537	856,099
-48,388	11,328	1456,337	784,716
-47,373	19,394	1448,010	818,870
-46,359	14,869	1436,976	791,103
-45,344	9,640	1432,862	763,928
-44,330	9,577	1431,002	762,605
-43,315	9,564	1428,986	761,441
-42,300	9,549	1427,476	760,533
-41,286	9,598	1426,135	760,021
-40,271	9,551	1424,943	759,135
-39,257	9,550	1423,912	758,551
-38,242	9,614	1422,585	758,114
-37,227	9,586	1421,381	757,310
-36,213	9,571	1420,259	756,613
-35,198	9,586	1419,129	756,053
-34,184	9,595	1418,128	755,533
-33,169	9,559	1416,708	754,576
-32,154	9,562	1415,972	754,166
-31,140	9,610	1414,367	753,510
-30,125	9,616	1413,374	752,978
-29,111	9,639	1412,089	752,369
-28,096	9,579	1410,985	751,469
-27,082	9,546	1409,709	750,607
-26,067	9,501	1408,747	749,854
-25,052	9,543	1407,852	749,546
-24,038	9,601	1406,581	749,108
-23,023	9,519	1405,997	748,384
-22,009	9,560	1404,849	747,936
-20,994	9,542	1403,934	747,335
-19,979	9,506	1402,965	746,621
-18,965	9,501	1401,939	746,023
-17,950	9,514	1400,975	745,544
-16,936	9,472	1400,216	744,914
-15,921	9,418	1399,245	744,115
-14,906	9,412	1398,455	743,637
-13,892	9,536	1397,169	743,499
-12,877	9,454	1396,507	742,738
-11,863	9,495	1395,534	742,380
-10,848	9,411	1394,754	741,544
-9,833	9,354	1393,932	740,816
-8,819	9,396	1392,916	740,442
-7,804	9,330	1392,222	739,737
-6,790	9,347	1390,969	739,121
-5,775	9,335	1390,224	738,642
-4,760	9,372	1389,022	738,145
-3,746	9,374	1388,131	737,651
-2,731	9,335	1387,307	737,000
-1,717	9,366	1386,338	736,601
-0,702	9,344	1384,536	735,513
0,313	13,392	1296,712	707,340
1,327	29,517	687,673	411,564
2,342	46,103	118,864	77,496
3,356	0,458	16,596	8,335
4,371	-1,609	3,788	1,876
5,386	-0,761	1,283	0,639
6,400	437,519	0,338	0,521
7,415	163,460	-0,181	-0,180
8,429	668,546	-0,142	-0,260
9,444	272,097	-0,216	-0,269
10,459	-4,569	-0,216	-0,105
11,473	65,444	-0,285	-0,203
12,488	26,530	-0,261	-0,154
13,502	173,655	-0,233	-0,237
14,517	33,443	-0,344	-0,210
15,531	4,029	-0,440	-0,226
16,546	-34,091	-0,419	-0,162
17,561	800,000	-0,158	-0,337
18,575	-58,148	-0,208	-0,064
19,590	34,452	-0,227	-0,140
20,604	-39,177	-0,203	-0,075
21,619	97,618	-0,438	-0,355
22,634	113,607	-0,311	-0,266
23,648	78,069	-0,436	-0,327
24,663	-29,618	-0,495	-0,198
25,677	125,145	-0,371	-0,329
26,692	64,490	-0,362	-0,257
27,707	79,780	-0,381	-0,288
28,721	800,000	-0,190	-0,394
29,736	565,159	-0,228	-0,391
30,750	40,347	-0,372	-0,235
31,765	30,413	-0,424	-0,254
32,780	48,732	-0,419	-0,276
33,794	103,095	-0,396	-0,326
34,809	-16,066	-0,426	-0,190
35,823	46,774	-0,420	-0,274
36,838	4,808	-0,364	-0,188
37,853	73,170	-0,336	-0,246
38,867	0,671	-0,466	-0,234
39,882	124,667	-0,245	-0,217
40,896	62,666	-0,297	-0,209
41,911	146,155	-0,365	-0,345
42,926	12,054	-0,334	-0,180
43,940	165,426	-0,319	-0,317
44,955	40,163	-0,373	-0,235
45,969	136,095	-0,298	-0,273
46,984	111,356	-0,304	-0,258
47,999	419,451	-0,247	-0,372
49,013	46,349	-0,364	-0,236
50,028	-49,020	-0,382	-0,128
51,042	192,518	-0,249	-0,265
52,057	75,263	-0,322	-0,239
53,071	234,399	-0,295	-0,342
54,086	189,783	-0,255	-0,269
55,101	79,335	-0,297	-0,223
56,115	37,242	-0,379	-0,236
57,130	109,797	-0,310	-0,261
58,144	130,167	-0,266	-0,239
59,159	181,915	-0,333	-0,345
60,174	181,055	-0,328	-0,339
61,188	-76,024	-0,267	-0,066
62,203	31,792	-0,278	-0,168
63,217	0,489	-0,418	-0,209
64,232	-24,059	-0,214	-0,090
65,247	96,789	-0,270	-0,217
66,261	55,599	-0,349	-0,237
67,276	139,476	-0,328	-0,303
68,290	43,148	-0,388	-0,248
69,305	225,875	-0,179	-0,203
70,320	49,767	-0,322	-0,213
71,334	-174,420	-0,453	-0,009
72,349	-7,090	-0,354	-0,168
73,363	255,264	-0,280	-0,337
74,378	6,410	-0,278	-0,144
75,393	-56,223	-0,444	-0,137
76,407	-62,976	-0,413	-0,119
77,422	73,845	-0,276	-0,203
78,436	737,329	-0,160	-0,302
79,451	297,422	-0,244	-0,315
80,466	-9,632	-0,280	-0,130
81,480	52,779	-0,398	-0,266
82,495	123,655	-0,269	-0,237
83,509	111,838	-0,214	-0,181
84,524	-49,226	-0,317	-0,106
85,539	49,851	-0,352	-0,232
86,553	8,922	-0,228	-0,120
87,568	-31,628	-0,377	-0,148
88,582	102,057	-0,371	-0,303
89,597	124,830	-0,292	-0,258
90,611	55,676	-0,156	-0,106
91,626	40,921	-0,264	-0,166
92,641	128,725	-0,248	-0,221
93,655	32,255	-0,312	-0,188
94,670	118,095	-0,226	-0,195
95,684	-29,579	-0,359	-0,143
96,699	25,913	-0,357	-0,208
97,714	94,524	-0,226	-0,179
98,728	215,221	-0,228	-0,253
99,743	-73,499	-0,311	-0,079
100,757	-55,057	-0,229	-0,072
101,772	45,891	-0,230	-0,149
102,787	59,248	-0,335	-0,230
103,801	217,083	-0,256	-0,285
104,816	52,895	-0,286	-0,191
105,830	85,026	-0,308	-0,235
106,845	52,454	-0,304	-0,203
107,860	49,363	-0,274	-0,180
108,874	-11,354	-0,328	-0,151
109,889	12,328	-0,213	-0,114
110,903	116,174	-0,225	-0,193
111,918	211,625	-0,265	-0,292
112,933	55,565	-0,253	-0,171
113,947	-85,115	-0,340	-0,074
114,962	53,189	-0,213	-0,142
115,976	66,469	-0,277	-0,196
116,991	205,136	-0,255	-0,277
118,006	47,047	-0,328	-0,213
119,020	57,969	-0,260	-0,178
120,035	-27,485	-0,102	-0,041
121,049	-53,196	-0,159	-0,051
122,064	22,558	-0,232	-0,132
123,079	230,104	-0,204	-0,233
124,093	-19,490	-0,345	-0,148
125,108	193,937	-0,224	-0,237
126,122	-200,000	0,011	-0,108
127,137	55,158	-0,190	-0,128
128,151	-45,696	-0,312	-0,107
129,166	62,942	-0,207	-0,144
130,181	159,690	-0,172	-0,167
131,195	3,545	-0,335	-0,170
132,210	511,311	-0,130	-0,212
133,224	-73,947	-0,122	-0,031
134,239	51,285	-0,219	-0,145
135,254	800,000	-0,067	-0,155
136,268	77,011	-0,146	-0,108
137,283	-52,453	-0,219	-0,070
138,297	-12,176	-0,296	-0,134
139,312	250,356	-0,328	-0,389
140,327	100,311	-0,298	-0,240
141,341	194,937	-0,141	-0,149
142,356	37,571	-0,260	-0,160
143,370	32,014	-0,194	-0,117
144,385	181,971	-0,185	-0,190
145,400	32,558	-0,237	-0,143
146,414	-0,624	-0,237	-0,116
147,429	562,321	-0,203	-0,343
148,443	525,209	-0,152	-0,250
149,458	668,849	-0,132	-0,238
150,473	17,541	-0,284	-0,157
151,487	800,000	-0,095	-0,220
152,502	182,384	-0,172	-0,177
153,516	171,902	-0,169	-0,169
154,531	-114,579	-0,249	-0,033
155,546	-37,471	-0,366	-0,135
156,560	-130,739	-0,148	-0,014
157,575	-184,060	-0,200	-0,002
158,589	-40,069	-0,233	-0,084
159,604	378,578	-0,139	-0,198
160,619	201,282	-0,168	-0,180
161,633	204,773	-0,151	-0,163
162,648	94,753	-0,178	-0,141
163,662	0,809	-0,195	-0,097
164,677	408,822	-0,137	-0,202
165,692	115,382	-0,200	-0,170
166,706	37,977	-0,321	-0,198
167,721	6,453	-0,296	-0,152
168,735	-25,926	-0,302	-0,123
169,750	787,480	-0,094	-0,180
170,764	-83,544	-0,205	-0,045
171,779	305,982	-0,205	-0,266
172,794	11,606	-0,273	-0,145
173,808	26,915	-0,267	-0,155
174,823	6,042	-0,305	-0,157
175,837	-98,287	-0,242	0,043
176,852	-42,703	-0,234	-0,082
177,867	456,446	-0,072	-0,112
178,881	103,182	-0,164	-0,134
179,896	-35,583	-0,252	-0,095
180,910	-70,263	-0,310	-0,081
181,925	12,343	-0,198	-0,106
182,940	336,141	-0,232	-0,313
183,954	107,128	-0,193	-0,159
184,969	-25,923	-0,159	-0,065
185,983	-20,482	-0,192	-0,082
186,998	199,943	-0,258	-0,275
188,013	77,229	-0,299	-0,220
189,027	-34,310	-0,343	-0,130
190,042	136,325	-0,200	-0,181
191,056	30,670	-0,142	-0,084
192,071	285,402	-0,187	-0,234
193,086	515,440	-0,139	-0,226
194,100	137,505	-0,152	-0,138
195,115	181,388	-0,214	-0,219
196,129	239,689	-0,238	-0,275
197,144	78,033	-0,201	-0,149
198,159	253,613	-0,203	-0,241
199,173	112,936	-0,270	-0,227
200,188	213,461	-0,156	-0,171
201,202	-191,622	-0,198	0,001
202,217	-128,003	-0,166	0,016
203,232	42,397	-0,264	-0,166
204,246	392,250	-0,144	-0,209
205,261	213,544	-0,186	-0,204
206,275	134,692	-0,163	-0,146
207,290	-200,000	-0,049	-0,222
208,304	466,356	-0,115	-0,179
209,319	112,798	-0,127	-0,107
210,334	-70,867	-0,185	-0,048
211,348	37,340	-0,155	-0,095
212,363	-40,064	-0,210	-0,075
213,377	61,199	-0,322	-0,221
214,392	-9,540	-0,222	-0,102
215,407	102,205	-0,185	-0,150
216,421	-7,699	-0,122	-0,057
217,436	62,383	-0,204	-0,141
218,450	41,929	-0,222	-0,139
219,465	-16,275	-0,325	-0,142
220,480	134,512	-0,349	-0,313
221,494	264,913	-0,114	-0,137
222,509	357,646	-0,115	-0,159
223,523	-159,621	-0,107	0,004
224,538	241,300	-0,104	-0,120
225,553	300,774	-0,215	-0,275
226,567	-161,395	-0,141	-0,005
227,582	211,991	-0,210	-0,229
228,596	800,000	-0,102	-0,270
229,611	103,945	-0,193	-0,156
230,626	800,000	-0,097	-0,209
231,640	400,997	-0,132	-0,193
232,655	13,955	-0,141	-0,076
233,669	172,038	-0,249	-0,247
234,684	596,282	-0,168	-0,289
235,699	14,373	-0,111	-0,060
236,713	63,701	-0,027	0,019
237,728	186,042	-0,155	-0,160
238,742	76,524	-0,171	-0,125
239,757	35,481	-0,171	-0,104
240,772	349,764	-0,136	-0,185
241,786	105,757	-0,177	-0,145
242,801	800,000	-0,079	-0,202
243,815	1,276	-0,153	-0,076
244,830	-18,275	-0,104	-0,045
245,844	-111,788	-0,215	-0,030
246,859	28,843	-0,199	-0,116
247,874	39,938	-0,265	-0,164
248,888	49,094	-0,190	-0,123
249,903	1,588	-0,150	-0,074
250,917	-146,381	-0,133	-0,008
251,932	-158,220	-0,214	0,008
252,947	-200,000	-0,018	-0,163
253,961	-0,218	-0,246	-0,120
254,976	369,508	-0,147	-0,206
255,990	111,191	-0,173	-0,143
257,005	39,693	-0,097	-0,060
258,020	800,000	-0,054	-0,113
259,034	4,237	-0,156	-0,078
260,049	-26,777	-0,219	-0,088
261,063	-5,437	-0,234	-0,110
262,078	264,389	-0,240	-0,289
263,093	32,780	-0,168	-0,100
264,107	124,576	-0,186	-0,162
265,122	800,000	-0,066	-0,133
266,136	257,836	-0,146	-0,174
267,151	-200,000	0,015	-0,101
268,166	-7,910	-0,140	-0,065
269,180	-139,450	-0,190	0,014
270,195	59,575	-0,231	-0,156
271,209	166,649	-0,087	-0,085
272,224	-55,134	-0,117	-0,036
273,239	267,510	-0,069	-0,083
274,253	-200,000	0,030	-0,178
275,268	320,001	-0,111	-0,146
276,282	-73,452	-0,153	-0,038
277,297	77,804	-0,276	-0,202
278,312	8,365	-0,172	-0,089
279,326	306,298	-0,081	-0,104
280,341	232,405	-0,063	-0,071
281,355	41,883	-0,040	-0,025
282,370	185,283	-0,169	-0,173
283,384	800,000	-0,099	-0,206
284,399	265,672	-0,163	-0,196
285,414	800,000	-0,063	-0,131
286,428	78,614	-0,138	-0,101
287,443	-73,553	-0,095	-0,024
288,457	-46,789	-0,116	0,039
289,472	38,109	-0,223	-0,136
290,487	-2,798	-0,192	-0,092
291,501	248,677	-0,233	-0,272
292,516	746,468	-0,081	-0,150
293,530	214,140	-0,125	-0,136
294,545	275,575	-0,148	-0,181
295,560	41,326	-0,090	0,056
296,574	74,690	-0,134	-0,097
297,589	389,447	-0,146	-0,209
298,603	26,419	-0,296	-0,170
299,618	91,867	-0,137	-0,106
300,633	169,699	-0,143	-0,141
301,647	430,458	-0,097	-0,145
302,662	-132,184	-0,136	-0,012
303,676	800,000	-0,063	-0,158
304,691	-122,124	-0,157	-0,017
305,706	-200,000	-0,059	-0,188
306,720	-46,824	-0,255	-0,085
307,735	571,205	-0,126	-0,211
308,749	96,353	-0,183	-0,144
309,764	280,145	-0,110	-0,135
310,779	-69,176	-0,167	-0,044
311,793	26,569	-0,096	0,055
312,808	-20,142	-0,079	-0,033
313,822	800,000	-0,057	-0,154
314,837	57,610	-0,159	-0,107
315,852	800,000	0,073	-0,156
316,866	800,000	-0,060	-0,162
317,881	-145,638	-0,234	0,014
318,895	64,027	-0,205	-0,141
319,910	-71,026	-0,163	-0,042
320,925	93,414	-0,293	-0,227
321,939	-110,441	-0,097	-0,014
322,954	-200,000	-0,083	0,000
323,968	116,001	-0,070	-0,059
324,983	83,311	-0,074	-0,055
325,997	83,010	-0,206	-0,153
327,012	230,377	-0,040	-0,045
328,027	145,258	-0,148	-0,136
329,041	200,563	-0,197	-0,207
330,056	308,750	-0,038	0,049
331,070	-76,598	-0,201	-0,048
332,085	-95,855	-0,134	0,024
333,100	102,228	-0,116	-0,093
334,114	11,983	-0,123	-0,065
335,129	-33,119	-0,153	-0,058
336,143	-200,000	0,001	-0,235
337,158	559,423	-0,087	-0,144
338,173	800,000	-0,073	-0,180
339,187	266,045	-0,088	-0,105
340,202	-2,950	-0,102	0,048
341,216	-130,787	-0,129	-0,012
342,231	209,866	-0,151	-0,163
343,246	86,906	-0,177	-0,133
344,260	164,705	-0,098	-0,095
345,275	317,855	-0,040	-0,052
346,289	-87,617	-0,056	-0,011
347,304	290,741	-0,093	-0,116
348,319	59,117	-0,137	-0,092
349,333	152,254	-0,199	-0,186
350,348	800,000	-0,089	-0,236
351,362	116,484	-0,155	-0,130
352,377	113,510	-0,132	-0,110
353,392	-42,596	-0,117	-0,040
354,406	-61,639	-0,152	-0,043
355,421	206,073	1310,158	1395,554
356,435	158,466	1470,304	1396,024
