DTS Sentinel unit serial number:	SN410029Multiplexer serial number:	ORYXHardware model number:	OX2-SRSoftware version number:	ORYX F/W v4,00 Oryx Data Collector v3.7.2.0data status	okinstallation	B3 Nyhavnadifferential loss correction	single-endedforward channel	channel 1reverse channel	N/Adate	2023/12/02time	21:37:30forward acquisition time	300,00reverse acquisition time	0,00gamma	499,1914k internal	0,3201k external	0,3201temperature offset calibration	1,0000default loss term (dB/km)	0,3820temperature slope calibration	1,0000multiplexer offset coefficient	1,0000multiplexer slope coefficient	1,0000fibre end	0,00T internal ref (°C)	13,24T ext. ref 1 (°C)	-1,92T ext. ref 2 (°C)	-1,94length (m)	temperature (°C)	Stokes	anti-Stokes-744,400	74,622	-0,112	-0,085
-743,385	-200,000	0,018	0,390
-742,371	800,000	-0,047	-0,107
-741,356	800,000	0,098	0,279
-740,342	800,000	-0,119	-0,341
-739,327	800,000	-0,112	0,239
-738,312	419,217	-0,231	-0,360
-737,298	463,053	-0,176	0,287
-736,283	439,823	-0,171	-0,272
-735,269	800,000	-0,113	0,321
-734,254	301,487	-0,086	-0,116
-733,239	71,999	-0,211	0,160
-732,225	317,711	-0,221	-0,304
-731,210	-200,000	0,017	0,109
-730,196	-200,000	-0,008	0,072
-729,181	18,456	-0,105	-0,061
-728,167	-200,000	0,005	-0,099
-727,152	-59,235	-0,196	-0,061
-726,137	-200,000	-0,019	-0,102
-725,123	212,714	-0,081	-0,093
-724,108	73,730	-0,110	-0,084
-723,094	11,373	-0,098	-0,054
-722,079	254,463	0,013	-0,016
-721,064	800,000	0,036	-0,089
-720,050	760,224	-0,064	-0,126
-719,035	8,858	-0,033	0,018
-718,021	-95,461	-0,061	0,012
-717,006	-156,819	-0,256	-0,011
-715,991	-200,000	0,012	-0,200
-714,977	318,086	-0,034	0,047
-713,962	0,150	0,113	-0,058
-712,948	-200,000	-0,029	-0,148
-711,933	194,968	0,058	-0,064
-710,918	-120,761	0,051	-0,006
-709,904	-200,000	-0,002	-0,028
-708,889	-119,240	-0,106	0,013
-707,875	800,000	0,016	-0,042
-706,860	-200,000	-0,008	-0,147
-705,845	56,335	0,058	-0,041
-704,831	-200,000	-0,031	0,127
-703,816	-30,373	-0,137	0,056
-702,802	230,968	0,088	0,104
-701,787	-50,711	-0,135	0,046
-700,772	-200,000	0,026	-0,174
-699,758	-200,000	-0,001	-0,120
-698,743	-78,985	-0,018	-0,004
-697,729	-140,279	-0,031	-0,002
-696,714	-93,436	0,085	0,017
-695,699	-144,523	0,122	0,008
-694,685	16,770	0,084	-0,048
-693,670	-59,091	-0,173	0,054
-692,656	800,000	0,046	0,126
-691,641	-200,000	-0,003	0,084
-690,627	-43,710	0,041	-0,015
-689,612	-161,443	-0,181	0,007
-688,597	-200,000	0,009	0,048
-687,583	-200,000	-0,011	0,055
-686,568	174,872	-0,128	-0,134
-685,554	800,000	-0,035	-0,076
-684,539	-89,304	-0,103	-0,022
-683,524	293,998	-0,041	0,054
-682,510	800,000	0,055	0,169
-681,495	231,324	0,052	0,062
-680,481	-66,800	-0,184	-0,053
-679,466	-145,974	-0,190	-0,012
-678,451	297,790	0,105	-0,140
-677,437	683,734	-0,029	-0,054
-676,422	44,417	0,038	0,025
-675,408	83,952	-0,207	0,164
-674,393	800,000	-0,005	-0,012
-673,378	-96,998	-0,097	-0,018
-672,364	119,199	-0,075	-0,067
-671,349	56,912	-0,118	-0,084
-670,335	356,460	0,094	-0,137
-669,320	430,784	0,033	-0,053
-668,305	118,114	0,090	0,081
-667,291	67,679	0,133	-0,098
-666,276	-76,555	-0,107	-0,027
-665,262	-119,608	-0,163	0,020
-664,247	800,000	0,013	-0,036
-663,232	683,149	-0,022	-0,041
-662,218	-37,903	0,050	0,019
-661,203	167,422	-0,099	0,102
-660,189	288,281	0,029	0,039
-659,174	282,576	-0,062	0,081
-658,159	220,432	-0,111	-0,129
-657,145	10,770	-0,011	0,006
-656,130	35,721	-0,080	0,051
-655,116	-200,000	-0,019	0,084
-654,101	-70,299	-0,074	-0,020
-653,086	-200,000	-0,019	0,066
-652,072	780,971	-0,018	-0,036
-651,057	-155,183	-0,113	0,005
-650,043	-192,830	-0,119	0,001
-649,028	665,009	0,025	0,047
-648,014	-109,661	0,071	0,011
-646,999	-200,000	0,027	0,114
-645,984	800,000	0,013	0,032
-644,970	108,576	-0,108	-0,093
-643,955	135,807	-0,071	-0,067
-642,941	-20,203	-0,181	-0,080
-641,926	147,648	0,055	0,054
-640,911	800,000	-0,026	-0,076
-639,897	-200,000	-0,004	0,107
-638,882	-41,864	-0,071	-0,026
-637,868	800,000	-0,029	-0,090
-636,853	800,000	0,030	-0,064
-635,838	-200,000	0,011	-0,051
-634,824	-67,302	-0,083	0,024
-633,809	-158,978	-0,086	0,003
-632,795	230,950	-0,036	0,043
-631,780	-200,000	-0,015	0,077
-630,765	602,657	0,042	-0,075
-629,751	-32,556	0,160	-0,064
-628,736	-175,741	-0,121	-0,002
-627,722	107,821	0,082	-0,070
-626,707	-200,000	-0,018	0,202
-625,692	-200,000	-0,010	0,111
-624,678	325,658	0,022	0,031
-623,663	123,829	0,044	-0,040
-622,649	-90,137	-0,050	0,011
-621,634	800,000	-0,023	-0,059
-620,619	80,943	-0,046	-0,036
-619,605	-136,347	0,073	-0,006
-618,590	48,923	-0,069	-0,047
-617,576	-200,000	0,008	0,154
-616,561	-200,000	0,034	0,109
-615,546	-30,709	0,089	0,036
-614,532	-91,132	-0,226	-0,046
-613,517	800,000	-0,044	-0,131
-612,503	17,258	-0,101	-0,058
-611,488	274,339	0,037	0,048
-610,474	800,000	-0,055	0,143
-609,459	6,822	-0,096	0,052
-608,444	771,015	0,026	0,052
-607,430	96,248	-0,058	-0,048
-606,415	800,000	-0,055	-0,113
-605,401	667,455	-0,079	0,149
-604,386	-200,000	-0,036	-0,155
-603,371	-45,459	0,071	-0,025
-602,357	800,000	0,029	0,070
-601,342	-23,708	-0,037	-0,016
-600,328	104,856	0,046	-0,039
-599,313	-87,100	-0,075	0,016
-598,298	302,537	-0,112	0,150
-597,284	-198,651	-0,029	0,000
-596,269	800,000	-0,048	0,114
-595,255	149,235	0,036	-0,036
-594,240	477,240	-0,028	-0,046
-593,225	800,000	-0,061	-0,141
-592,211	-4,575	-0,172	-0,086
-591,196	-200,000	-0,038	-0,123
-590,182	481,082	0,004	-0,007
-589,167	800,000	-0,025	0,062
-588,152	800,000	0,034	0,080
-587,138	44,255	0,127	0,084
-586,123	116,469	0,072	0,064
-585,109	-200,000	-0,015	-0,186
-584,094	800,000	-0,016	0,042
-583,079	69,043	-0,052	-0,039
-582,065	-200,000	0,023	0,144
-581,050	27,408	0,058	0,035
-580,036	495,813	0,052	-0,087
-579,021	800,000	-0,025	-0,056
-578,006	189,546	-0,028	-0,030
-576,992	-200,000	0,002	-0,053
-575,977	109,536	-0,063	0,055
-574,963	-151,150	0,059	0,003
-573,948	-70,140	-0,111	0,030
-572,934	-200,000	0,011	0,210
-571,919	-40,733	0,005	0,002
-570,904	206,401	-0,092	-0,104
-569,890	199,281	-0,100	-0,111
-568,875	-165,862	0,014	-0,000
-567,861	-18,426	0,092	-0,041
-566,846	135,247	0,132	0,124
-565,831	384,361	-0,077	0,115
-564,817	-146,511	0,110	-0,007
-563,802	-143,508	-0,046	0,003
-562,788	-200,000	0,006	0,054
-561,773	-200,000	0,032	-0,118
-560,758	68,329	0,180	-0,133
-559,744	-200,000	-0,032	-0,107
-558,729	-134,111	0,028	-0,002
-557,715	-40,450	0,059	-0,022
-556,700	-200,000	0,030	-0,195
-555,685	-200,000	-0,003	-0,091
-554,671	8,639	-0,124	-0,067
-553,656	-200,000	0,018	-0,072
-552,642	498,097	0,127	0,211
-551,627	131,484	-0,021	0,019
-550,612	473,550	-0,053	-0,087
-549,598	-200,000	-0,009	-0,143
-548,583	-200,000	-0,006	0,107
-547,569	-71,409	-0,171	-0,046
-546,554	800,000	-0,043	0,133
-545,539	800,000	0,036	0,082
-544,525	294,561	-0,064	0,085
-543,510	-93,420	0,046	-0,009
-542,496	-104,332	0,071	-0,012
-541,481	-5,938	0,067	-0,033
-540,466	95,753	0,070	-0,057
-539,452	3,363	0,043	-0,023
-538,437	312,825	-0,014	0,019
-537,423	6,569	0,063	0,034
-536,408	-140,869	-0,041	-0,003
-535,393	-200,000	-0,023	0,121
-534,379	-6,395	-0,039	0,019
-533,364	-56,408	0,086	0,027
-532,350	-200,000	-0,009	-0,097
-531,335	-99,516	0,180	0,032
-530,321	-63,921	0,079	0,023
-529,306	22,926	-0,116	-0,068
-528,291	-20,267	-0,033	0,014
-527,277	800,000	0,029	-0,061
-526,262	251,616	0,013	-0,016
-525,248	552,531	0,039	0,068
-524,233	424,986	0,029	-0,046
-523,218	220,744	0,074	-0,086
-522,204	-28,128	-0,167	0,069
-521,189	285,877	-0,096	-0,126
-520,175	-200,000	0,032	-0,105
-519,160	205,810	-0,056	-0,062
-518,145	-200,000	0,026	0,143
-517,131	-21,607	0,030	-0,013
-516,116	314,361	0,012	-0,016
-515,102	-54,628	-0,068	0,022
-514,087	223,914	0,045	0,052
-513,072	473,151	-0,117	-0,191
-512,058	244,652	-0,082	-0,099
-511,043	-123,698	0,125	0,014
-510,029	-200,000	0,049	-0,190
-509,014	38,893	0,116	0,074
-507,999	-200,000	-0,024	0,166
-506,985	90,608	-0,008	-0,007
-505,970	-83,095	-0,112	-0,026
-504,956	-41,095	-0,122	0,045
-503,941	800,000	-0,077	-0,159
-502,926	298,132	0,101	0,134
-501,912	41,524	-0,150	0,098
-500,897	-51,580	0,086	0,029
-499,883	596,456	-0,075	0,135
-498,868	-71,794	-0,142	0,038
-497,853	-56,163	0,052	-0,017
-496,839	-200,000	-0,000	0,017
-495,824	800,000	-0,022	0,060
-494,810	-65,468	-0,079	0,023
-493,795	-200,000	-0,007	-0,050
-492,781	-19,796	0,016	-0,007
-491,766	170,848	-0,127	-0,131
-490,751	-78,298	-0,120	0,029
-489,737	-178,326	-0,065	-0,001
-488,722	-18,992	-0,050	0,022
-487,708	257,967	-0,089	0,110
-486,693	5,974	-0,110	-0,058
-485,678	86,419	-0,065	-0,051
-484,664	-12,288	-0,133	0,062
-483,649	-80,611	-0,125	-0,030
-482,635	-200,000	-0,035	0,000
-481,620	-37,921	0,151	0,057
-480,605	66,271	-0,070	-0,051
-479,591	-200,000	-0,008	0,173
-478,576	-23,748	-0,028	-0,012
-477,562	-200,000	-0,004	-0,020
-476,547	-200,000	0,026	-0,184
-475,532	-200,000	-0,015	0,000
-474,518	-54,699	0,140	0,045
-473,503	-51,671	0,124	-0,041
-472,489	-200,000	0,013	0,152
-471,474	686,849	-0,040	0,075
-470,459	382,988	-0,036	-0,053
-469,445	46,065	-0,045	0,030
-468,430	172,240	0,062	-0,065
-467,416	517,293	0,019	-0,033
-466,401	-79,902	0,089	-0,021
-465,386	-43,682	-0,093	0,034
-464,372	800,000	0,029	0,076
-463,357	703,936	0,006	-0,011
-462,343	-200,000	0,003	-0,058
-461,328	288,342	0,050	-0,066
-460,313	44,152	0,145	0,095
-459,299	107,652	-0,076	0,065
-458,284	-17,197	-0,138	-0,062
-457,270	323,476	0,076	-0,105
-456,255	-200,000	0,009	-0,106
-455,241	800,000	0,019	-0,044
-454,226	-200,000	0,005	0,063
-453,211	296,095	-0,091	-0,121
-452,197	-200,000	-0,011	0,098
-451,182	94,954	-0,059	0,048
-450,168	800,000	0,017	-0,043
-449,153	32,377	-0,089	0,055
-448,138	233,912	-0,086	0,102
-447,124	800,000	0,037	-0,094
-446,109	138,772	-0,084	-0,079
-445,095	-166,909	0,127	0,004
-444,080	63,058	0,133	-0,096
-443,065	-200,000	0,014	0,113
-442,051	-44,373	-0,030	-0,011
-441,036	557,600	-0,124	-0,216
-440,022	-104,229	-0,106	0,018
-439,007	506,936	-0,024	-0,040
-437,992	369,650	0,002	-0,003
-436,978	-200,000	0,005	0,114
-435,963	21,176	-0,067	0,039
-434,949	252,907	0,070	-0,085
-433,934	-200,000	0,023	0,074
-432,919	627,672	-0,075	-0,137
-431,905	-200,000	-0,013	0,129
-430,890	303,085	-0,052	0,069
-429,876	-12,820	-0,054	0,025
-428,861	77,463	0,095	0,072
-427,846	-88,242	-0,043	-0,009
-426,832	-200,000	0,016	-0,081
-425,817	586,585	-0,041	-0,072
-424,803	-200,000	0,005	-0,046
-423,788	47,432	-0,054	-0,036
-422,773	-67,158	0,063	-0,018
-421,759	-200,000	0,020	0,097
-420,744	-200,000	0,003	-0,046
-419,730	-91,146	0,063	-0,013
-418,715	415,284	0,081	-0,124
-417,701	-17,554	0,019	-0,009
-416,686	219,301	0,052	0,060
-415,671	-26,267	0,076	-0,032
-414,657	396,114	-0,028	0,042
-413,642	249,927	0,104	-0,127
-412,628	163,563	-0,140	-0,142
-411,613	21,224	0,085	0,050
-410,598	-196,922	-0,142	-0,001
-409,584	-54,178	0,134	0,044
-408,569	800,000	0,032	0,083
-407,555	255,209	0,065	0,080
-406,540	-56,060	-0,029	-0,009
-405,525	561,573	0,034	-0,060
-404,511	55,576	-0,046	-0,032
-403,496	-200,000	-0,010	-0,124
-402,482	211,024	0,043	-0,049
-401,467	218,017	0,063	0,073
-400,452	24,270	0,100	0,059
-399,438	3,114	0,046	-0,024
-398,423	17,102	-0,130	0,074
-397,409	-112,357	0,043	0,006
-396,394	-106,786	0,164	-0,026
-395,379	-200,000	0,000	-0,031
-394,365	800,000	-0,035	0,090
-393,350	10,517	0,055	0,030
-392,336	508,271	0,050	0,083
-391,321	-36,312	-0,037	-0,014
-390,306	800,000	-0,017	0,037
-389,292	-200,000	-0,005	-0,054
-388,277	-46,115	-0,070	0,025
-387,263	167,907	-0,092	-0,094
-386,248	69,526	0,123	0,091
-385,233	161,271	-0,041	0,041
-384,219	-200,000	-0,012	0,062
-383,204	252,426	0,017	-0,021
-382,190	-200,000	-0,019	-0,138
-381,175	800,000	0,002	-0,006
-380,160	-200,000	-0,012	-0,067
-379,146	800,000	-0,039	0,092
-378,131	-79,091	0,123	0,030
-377,117	77,230	0,080	-0,061
-376,102	-200,000	-0,000	-0,032
-375,088	800,000	0,005	-0,012
-374,073	-105,961	-0,028	0,005
-373,058	-200,000	0,014	-0,106
-372,044	233,988	0,141	0,167
-371,029	-200,000	-0,001	0,011
-370,015	-185,493	-0,071	-0,001
-369,000	-200,000	0,005	-0,096
-367,985	-200,000	0,004	0,039
-366,971	83,208	0,095	0,074
-365,956	-200,000	-0,023	-0,138
-364,942	800,000	-0,024	-0,050
-363,927	545,792	-0,044	-0,075
-362,912	-137,311	-0,091	0,007
-361,898	800,000	-0,041	-0,128
-360,883	-54,428	-0,094	0,030
-359,869	800,000	0,055	-0,134
-358,854	-40,574	-0,163	0,060
-357,839	800,000	0,060	0,123
-356,825	140,321	-0,029	0,028
-355,810	4,414	-0,022	-0,012
-354,796	-69,253	-0,045	0,012
-353,781	157,476	-0,085	-0,084
-352,766	800,000	0,038	-0,090
-351,752	-147,077	-0,120	-0,007
-350,737	800,000	0,031	0,078
-349,723	220,530	-0,063	0,073
-348,708	-200,000	0,019	-0,067
-347,693	-9,274	0,079	0,038
-346,679	-200,000	-0,001	-0,034
-345,664	134,487	-0,089	-0,082
-344,650	139,554	0,057	0,054
-343,635	800,000	0,087	0,177
-342,620	9,314	-0,082	-0,044
-341,606	-35,248	0,097	-0,038
-340,591	-200,000	-0,004	-0,039
-339,577	800,000	-0,053	-0,130
-338,562	-101,570	0,026	0,004
-337,548	-200,000	-0,002	0,080
-336,533	-162,073	0,133	-0,005
-335,518	83,198	-0,054	-0,042
-334,504	800,000	-0,012	0,033
-333,489	80,047	-0,039	-0,030
-332,475	470,617	-0,086	-0,139
-331,460	-54,434	0,093	-0,030
-330,445	84,397	-0,053	0,042
-329,431	-200,000	-0,004	-0,036
-328,416	292,635	-0,039	0,052
-327,402	-152,403	0,073	0,004
-326,387	-200,000	0,015	-0,175
-325,372	-106,941	-0,095	-0,015
-324,358	430,485	0,029	0,045
-323,343	-200,000	-0,017	-0,182
-322,329	237,947	0,067	0,080
-321,314	-64,048	-0,005	-0,002
-320,299	46,297	0,095	0,063
-319,285	359,865	-0,100	0,144
-318,270	18,777	-0,131	-0,075
-317,256	499,616	0,028	-0,046
-316,241	-200,000	0,001	-0,049
-315,226	28,172	0,040	0,024
-314,212	20,354	0,105	-0,060
-313,197	-49,094	0,125	-0,043
-312,183	-66,408	0,049	-0,014
-311,168	-200,000	-0,005	-0,115
-310,153	-39,251	-0,203	0,076
-309,139	108,024	-0,081	0,069
-308,124	-197,073	0,057	-0,000
-307,110	800,000	-0,084	0,221
-306,095	488,754	-0,081	-0,133
-305,080	0,288	0,127	0,064
-304,066	-151,308	0,018	0,001
-303,051	180,088	0,064	-0,067
-302,037	277,386	0,039	0,049
-301,022	152,584	0,047	-0,046
-300,008	-62,335	0,090	-0,027
-298,993	-108,391	0,059	-0,009
-297,978	-200,000	0,003	0,050
-296,964	42,737	-0,051	0,033
-295,949	61,286	-0,062	0,044
-294,935	800,000	-0,021	0,056
-293,920	432,310	0,049	-0,076
-292,905	-122,196	0,066	-0,008
-291,891	759,852	-0,007	-0,013
-290,876	168,092	0,147	0,149
-289,862	-59,232	-0,057	-0,017
-288,847	4,921	0,129	0,067
-287,832	424,593	0,045	-0,070
-286,818	177,685	-0,043	-0,045
-285,803	-200,000	-0,025	0,110
-284,789	661,082	0,051	0,095
-283,774	111,656	0,092	0,079
-282,759	-80,267	0,058	0,014
-281,745	384,246	-0,032	-0,047
-280,730	-200,000	-0,000	0,031
-279,716	-36,728	-0,094	0,036
-278,701	-111,768	0,134	0,019
-277,686	180,928	-0,103	-0,108
-276,672	175,972	0,121	-0,125
-275,657	30,631	-0,080	-0,049
-274,643	545,239	-0,076	0,130
-273,628	7,463	0,132	-0,070
-272,613	-200,000	0,007	0,033
-271,599	-36,051	0,039	0,015
-270,584	19,538	0,097	-0,055
-269,570	-105,691	0,071	-0,011
-268,555	229,144	-0,032	-0,037
-267,540	-200,000	0,039	-0,135
-266,526	-200,000	-0,021	-0,087
-265,511	322,902	-0,031	-0,043
-264,497	106,013	0,017	-0,015
-263,482	-116,765	-0,036	0,005
-262,467	659,475	-0,069	0,128
-261,453	-200,000	0,038	0,182
-260,438	-134,988	-0,084	-0,007
-259,424	94,567	-0,066	-0,053
-258,409	726,155	0,065	-0,124
-257,395	99,691	0,067	0,055
-256,380	27,765	-0,034	-0,020
-255,365	-200,000	-0,005	0,118
-254,351	501,508	-0,046	0,075
-253,336	-135,816	0,087	0,007
-252,322	568,628	-0,005	-0,009
-251,307	-0,284	-0,096	0,049
-250,292	-200,000	-0,025	-0,090
-249,278	800,000	-0,051	0,153
-248,263	53,085	-0,066	0,045
-247,249	-155,212	-0,053	0,002
-246,234	-200,000	-0,033	0,118
-245,219	786,274	-0,054	0,106
-244,205	71,652	0,071	0,053
-243,190	411,098	-0,076	-0,116
-242,176	454,696	0,075	-0,119
-241,161	255,291	0,030	0,037
-240,146	-200,000	0,048	0,179
-239,132	-75,101	-0,028	0,007
-238,117	116,528	0,051	0,045
-237,103	170,557	-0,080	0,082
-236,088	-178,405	0,107	0,002
-235,073	800,000	0,011	0,031
-234,059	197,878	0,070	-0,077
-233,044	-200,000	0,018	0,074
-232,030	542,217	0,057	0,097
-231,015	-56,480	-0,076	0,024
-230,000	235,628	-0,093	-0,110
-228,986	212,585	-0,062	0,070
-227,971	-200,000	0,025	0,117
-226,957	-53,785	0,135	0,044
-225,942	56,452	0,110	0,076
-224,927	-200,000	0,023	-0,170
-223,913	-112,138	-0,046	-0,006
-222,898	39,187	0,104	-0,066
-221,884	106,462	0,114	-0,096
-220,869	140,227	0,098	0,092
-219,855	-200,000	0,035	-0,119
-218,840	227,465	0,116	0,135
-217,825	-200,000	-0,002	0,042
-216,811	-77,528	-0,078	-0,019
-215,796	800,000	0,066	-0,168
-214,782	107,079	0,072	-0,061
-213,767	-200,000	0,007	-0,086
-212,752	-200,000	0,018	0,098
-211,738	199,399	0,042	-0,045
-210,723	61,314	0,089	-0,063
-209,709	-140,810	-0,081	0,006
-208,694	-163,961	0,074	-0,002
-207,679	313,439	-0,079	-0,106
-206,665	-60,335	0,231	-0,070
-205,650	-120,392	0,192	0,023
-204,636	115,175	0,033	0,029
-203,621	367,478	0,074	0,106
-202,606	404,133	0,032	-0,048
-201,592	-88,327	-0,178	0,037
-200,577	277,741	-0,066	-0,084
-199,563	-32,828	0,088	-0,035
-198,548	800,000	0,025	-0,064
-197,533	118,421	-0,038	0,034
-196,519	331,026	0,093	-0,128
-195,504	-200,000	0,008	-0,072
-194,490	800,000	0,080	0,169
-193,475	-10,252	-0,035	0,016
-192,460	-200,000	-0,000	0,108
-191,446	-84,989	0,118	0,026
-190,431	222,781	0,145	0,167
-189,417	158,712	-0,041	-0,040
-188,402	150,482	0,054	-0,052
-187,387	51,295	-0,072	-0,048
-186,373	-200,000	0,046	0,221
-185,358	-64,715	0,031	0,009
-184,344	-147,889	-0,093	-0,005
-183,329	603,659	-0,044	0,079
-182,315	-98,594	0,133	0,024
-181,300	-60,285	-0,146	0,044
-180,285	-61,989	0,053	-0,016
-179,271	421,919	0,022	-0,034
-178,256	0,948	-0,074	-0,038
-177,242	588,050	-0,058	0,102
-176,227	-200,000	0,005	-0,115
-175,212	-38,860	0,029	0,011
-174,198	-200,000	-0,015	0,164
-173,183	191,987	0,006	0,006
-172,169	301,136	-0,056	-0,074
-171,154	800,000	-0,067	-0,171
-170,139	461,300	0,080	0,127
-169,125	-200,000	-0,005	-0,049
-168,110	-134,548	0,072	-0,006
-167,096	33,885	-0,065	0,040
-166,081	-3,838	0,009	0,005
-165,066	247,040	-0,072	-0,087
-164,052	404,322	-0,017	-0,026
-163,037	-200,000	-0,007	0,112
-162,023	-1,223	0,169	-0,085
-161,008	800,000	-0,071	0,161
-159,993	-28,673	0,108	0,044
-158,979	-163,438	-0,098	-0,003
-157,964	800,000	-0,023	-0,045
-156,950	-87,322	-0,075	0,016
-155,935	-81,635	0,100	-0,023
-154,920	217,096	-0,105	0,119
-153,906	6,178	0,095	0,050
-152,891	-200,000	-0,013	0,121
-151,877	-95,787	0,124	0,023
-150,862	32,894	-0,090	-0,055
-149,847	-161,093	-0,137	-0,005
-148,833	-119,328	0,079	-0,010
-147,818	-133,368	-0,041	0,004
-146,804	-200,000	-0,014	0,094
-145,789	732,931	0,062	0,119
-144,775	218,095	-0,071	-0,080
-143,760	143,442	0,042	0,040
-142,745	-200,000	0,025	-0,081
-141,731	-200,000	0,029	0,111
-140,716	-102,265	0,085	-0,014
-139,702	314,890	0,026	-0,035
-138,687	-116,662	0,031	0,004
-137,672	-99,829	-0,097	0,017
-136,658	800,000	-0,036	-0,086
-135,643	591,377	-0,006	-0,011
-134,629	191,184	-0,086	-0,092
-133,614	-18,224	0,064	-0,028
-132,599	-101,528	0,084	0,014
-131,585	-110,301	-0,097	0,014
-130,570	800,000	0,010	0,023
-129,556	-35,390	0,073	-0,028
-128,541	-8,049	-0,131	-0,063
-127,526	531,040	0,025	-0,042
-126,512	30,765	-0,028	-0,017
-125,497	541,682	0,041	-0,070
-124,483	-200,000	0,011	0,077
-123,468	-200,000	-0,017	-0,057
-122,453	-145,025	0,081	-0,005
-121,439	207,406	-0,029	-0,032
-120,424	-200,000	-0,010	-0,161
-119,410	15,837	-0,063	-0,035
-118,395	800,000	0,003	-0,008
-117,380	-110,741	-0,135	0,020
-116,366	-38,234	-0,134	-0,050
-115,351	730,731	0,035	-0,068
-114,337	115,324	0,015	-0,013
-113,322	789,056	-0,037	-0,072
-112,307	-10,989	0,065	-0,030
-111,293	-200,000	-0,011	0,044
-110,278	218,724	-0,061	0,069
-109,264	-99,248	0,085	-0,015
-108,249	617,614	-0,068	0,122
-107,234	-97,631	-0,144	0,026
-106,220	-200,000	-0,003	-0,089
-105,205	-200,000	0,031	-0,201
-104,191	348,233	-0,036	-0,051
-103,176	707,069	0,090	0,170
-102,162	34,548	0,117	-0,072
-101,147	217,250	-0,068	-0,077
-100,132	520,132	0,051	-0,084
-99,118	52,778	-0,121	-0,082
-98,103	-200,000	-0,006	0,037
-97,089	-200,000	-0,029	0,101
-96,074	422,833	0,114	0,174
-95,059	-200,000	-0,012	0,159
-94,045	800,000	0,010	-0,031
-93,030	551,907	0,037	0,064
-92,016	-30,424	-0,102	-0,041
-91,001	-200,000	-0,005	0,068
-89,986	-34,145	-0,068	0,026
-88,972	-84,203	0,186	-0,041
-87,957	35,106	0,050	0,031
-86,943	-107,669	0,099	0,015
-85,928	-88,017	0,115	-0,024
-84,913	150,678	-0,065	-0,063
-83,899	800,000	0,026	-0,052
-82,884	-200,000	-0,027	0,192
-81,870	-200,000	-0,052	0,182
-80,855	-174,415	0,094	-0,002
-79,840	152,535	-0,024	0,023
-78,826	703,300	0,059	-0,110
-77,811	-37,890	-0,050	-0,019
-76,797	-200,000	0,031	0,102
-75,782	-200,000	0,004	-0,106
-74,767	321,673	0,032	0,043
-73,753	-15,800	0,097	-0,043
-72,738	-158,743	0,018	0,001
-71,724	-200,000	-0,020	0,098
-70,709	-200,000	0,006	-0,033
-69,694	250,979	-0,035	0,042
-68,680	-21,496	0,124	-0,053
-67,665	231,357	-0,119	0,138
-66,651	-200,000	0,011	0,088
-65,636	-98,018	0,014	-0,002
-64,622	-43,428	0,023	0,008
-63,607	-200,000	0,016	-0,142
-62,592	-81,562	0,073	-0,017
-61,578	-77,236	0,076	-0,019
-60,563	674,391	-0,081	0,149
-59,549	-200,000	0,001	0,033
-58,534	-8,629	-1,759	-0,833
-57,519	355,280	-1,439	-2,033
-56,505	-200,000	-0,370	-4,516
-55,490	258,719	0,913	1,117
-54,476	800,000	4,994	11,480
-53,461	-200,000	19,254	320,803
-52,446	-200,000	742,156	2334,499
-51,432	572,083	1656,241	2867,738
-50,417	78,006	1671,121	1260,435
-49,403	21,237	1543,914	885,247
-48,388	15,117	1466,311	810,991
-47,373	18,024	1456,747	819,719
-46,359	16,658	1446,526	807,384
-45,344	13,390	1441,808	789,067
-44,330	13,298	1439,833	787,510
-43,315	13,270	1438,165	786,433
-42,300	13,285	1436,566	785,600
-41,286	13,279	1435,375	784,888
-40,271	13,258	1434,116	784,069
-39,257	13,252	1432,583	783,173
-38,242	13,345	1431,211	782,831
-37,227	13,312	1430,324	782,160
-36,213	13,318	1428,758	781,299
-35,198	13,309	1427,835	780,723
-34,184	13,362	1426,730	780,340
-33,169	13,353	1425,410	779,546
-32,154	13,371	1424,209	778,942
-31,140	13,357	1423,277	778,333
-30,125	13,366	1421,916	777,603
-29,111	13,368	1420,663	776,895
-28,096	13,317	1419,772	776,138
-27,082	13,301	1418,667	775,428
-26,067	13,289	1417,670	774,794
-25,052	13,236	1416,543	773,896
-24,038	13,219	1415,575	773,256
-23,023	13,244	1414,434	772,720
-22,009	13,232	1413,505	772,127
-20,994	13,233	1412,586	771,601
-19,979	13,245	1411,604	771,089
-18,965	13,229	1410,859	770,575
-17,950	13,251	1409,532	769,924
-16,936	13,251	1408,677	769,424
-15,921	13,159	1407,738	768,451
-14,906	13,114	1407,098	767,860
-13,892	13,172	1405,909	767,452
-12,877	13,175	1405,184	767,042
-11,863	13,159	1404,207	766,401
-10,848	13,134	1403,362	765,794
-9,833	13,140	1402,411	765,275
-8,819	13,123	1401,514	764,675
-7,804	13,085	1400,564	763,949
-6,790	13,110	1399,605	763,509
-5,775	13,090	1398,475	762,771
-4,760	13,062	1397,787	762,236
-3,746	13,087	1396,714	761,735
-2,731	13,055	1395,980	761,159
-1,717	13,033	1394,983	760,482
-0,702	13,034	1393,263	759,521
0,313	17,062	1309,699	732,565
1,327	33,668	702,883	431,471
2,342	52,110	122,898	82,725
3,356	3,274	16,592	8,515
4,371	-1,655	3,235	1,606
5,386	18,630	0,589	0,333
6,400	-200,000	0,071	0,319
7,415	69,848	-0,233	-0,170
8,429	-161,564	-0,313	-0,011
9,444	43,586	-0,417	-0,269
10,459	9,001	-0,320	-0,170
11,473	295,601	-0,196	-0,254
12,488	74,944	-0,246	-0,183
13,502	147,298	-0,281	-0,268
14,517	132,749	-0,298	-0,271
15,531	15,948	-0,417	-0,231
16,546	170,609	-0,379	-0,384
17,561	331,102	-0,289	-0,395
18,575	-105,049	-0,095	-0,015
19,590	153,816	-0,178	-0,172
20,604	-100,756	-0,228	-0,039
21,619	122,494	-0,397	-0,351
22,634	100,983	-0,380	-0,312
23,648	65,984	-0,396	-0,283
24,663	152,020	-0,310	-0,299
25,677	27,095	-0,294	-0,174
26,692	-47,784	-0,419	-0,143
27,707	-62,748	-0,474	-0,138
28,721	85,654	-0,282	-0,218
29,736	213,842	-0,423	-0,473
30,750	178,031	-0,353	-0,364
31,765	352,999	-0,295	-0,414
32,780	24,313	-0,348	-0,202
33,794	-5,657	-0,380	-0,183
34,809	86,364	-0,352	-0,273
35,823	-13,690	-0,450	-0,205
36,838	138,322	-0,307	-0,284
37,853	238,107	-0,352	-0,413
38,867	-13,669	-0,503	-0,229
39,882	122,398	-0,294	-0,259
40,896	-61,967	-0,281	-0,082
41,911	171,568	-0,314	-0,318
42,926	40,858	-0,346	-0,220
43,940	38,062	-0,295	-0,185
44,955	60,773	-0,436	-0,304
45,969	213,070	-0,337	-0,375
46,984	-2,123	-0,341	-0,168
47,999	-16,719	-0,455	-0,202
49,013	265,463	-0,247	-0,305
50,028	64,145	-0,283	-0,200
51,042	-52,419	-0,255	-0,083
52,057	20,358	-0,371	-0,211
53,071	253,558	-0,207	-0,249
54,086	123,365	-0,285	-0,251
55,101	134,501	-0,207	-0,189
56,115	-8,036	-0,350	-0,165
57,130	208,228	-0,378	-0,416
58,144	79,802	-0,439	-0,332
59,159	116,699	-0,402	-0,347
60,174	29,503	-0,402	-0,240
61,188	6,199	-0,433	-0,225
62,203	-45,509	-0,327	-0,113
63,217	-55,661	-0,356	-0,111
64,232	119,750	-0,320	-0,279
65,247	53,487	-0,401	-0,270
66,261	93,973	-0,333	-0,266
67,276	65,128	-0,346	-0,246
68,290	91,654	-0,237	-0,187
69,305	-49,024	-0,402	-0,135
70,320	235,728	-0,214	-0,249
71,334	171,746	-0,225	-0,227
72,349	43,136	-0,207	-0,132
73,363	11,848	-0,408	-0,220
74,378	158,072	-0,200	-0,195
75,393	49,510	-0,244	-0,161
76,407	-14,918	-0,433	-0,195
77,422	-76,142	-0,269	-0,066
78,436	-142,045	-0,290	-0,020
79,451	34,564	-0,194	-0,119
80,466	235,883	-0,236	-0,275
81,480	-19,357	-0,393	-0,171
82,495	-45,815	-0,367	-0,127
83,509	-21,194	-0,313	-0,134
84,524	121,040	-0,238	-0,208
85,539	282,506	-0,176	-0,222
86,553	12,050	-0,402	-0,217
87,568	20,615	-0,390	-0,221
88,582	450,228	-0,118	-0,183
89,597	131,474	-0,166	-0,150
90,611	94,848	-0,269	-0,215
91,626	104,181	-0,292	-0,241
92,641	-86,619	-0,313	-0,067
93,655	28,898	-0,321	-0,190
94,670	-59,541	-0,320	-0,096
95,684	29,663	-0,283	-0,169
96,699	46,158	-0,350	-0,227
97,714	-42,137	-0,316	-0,113
98,728	-48,145	-0,132	-0,045
99,743	203,300	-0,203	-0,220
100,757	-95,851	-0,264	-0,049
101,772	53,817	-0,328	-0,220
102,787	40,864	-0,390	-0,246
103,801	20,263	-0,348	-0,197
104,816	43,801	-0,294	-0,188
105,830	24,997	-0,293	-0,170
106,845	208,395	-0,192	-0,210
107,860	-31,134	-0,146	-0,057
108,874	-129,614	-0,353	-0,034
109,889	100,880	-0,259	-0,211
110,903	81,731	-0,348	-0,264
111,918	207,411	-0,279	-0,306
112,933	242,969	-0,281	-0,331
113,947	86,497	-0,146	-0,113
114,962	105,707	-0,238	-0,197
115,976	734,123	-0,125	-0,236
116,991	41,294	-0,311	-0,197
118,006	69,443	-0,237	-0,171
119,020	-53,521	-0,373	-0,119
120,035	-58,319	-0,260	-0,079
121,049	413,163	-0,143	-0,213
122,064	105,305	-0,225	-0,186
123,079	-91,602	-0,325	-0,064
124,093	20,487	-0,318	-0,180
125,108	181,072	-0,163	-0,167
126,122	162,164	-0,274	-0,268
127,137	83,365	-0,165	-0,125
128,151	24,280	-0,224	-0,129
129,166	86,296	-0,275	-0,212
130,181	164,227	-0,123	-0,121
131,195	0,919	-0,283	-0,142
132,210	701,837	-0,146	-0,270
133,224	9,215	-0,396	-0,209
134,239	-12,956	-0,177	-0,080
135,254	556,521	-0,151	-0,255
136,268	146,209	-0,258	-0,242
137,283	-24,166	-0,227	-0,094
138,297	-9,084	-0,230	-0,107
139,312	80,030	-0,250	-0,188
140,327	-98,416	-0,315	0,056
141,341	71,884	-0,280	-0,203
142,356	26,332	-0,239	-0,139
143,370	159,616	-0,248	-0,242
144,385	-43,294	-0,162	-0,057
145,400	106,901	-0,242	-0,201
146,414	101,206	-0,322	-0,261
147,429	54,368	-0,185	-0,124
148,443	-186,023	-0,266	0,003
149,458	266,712	-0,160	-0,196
150,473	20,579	-0,388	-0,219
151,487	-48,068	-0,370	-0,124
152,502	-184,846	-0,336	0,004
153,516	124,156	-0,255	-0,224
154,531	214,555	-0,202	-0,224
155,546	800,000	-0,078	-0,232
156,560	-22,898	-0,216	-0,091
157,575	82,961	-0,166	-0,126
158,589	-25,103	-0,323	-0,133
159,604	-113,635	-0,246	-0,033
160,619	-39,205	-0,100	-0,037
161,633	223,687	-0,308	-0,347
162,648	90,302	-0,232	-0,181
163,662	45,159	-0,182	-0,117
164,677	-30,419	-0,176	-0,069
165,692	-1,691	-0,358	-0,175
166,706	-99,906	-0,250	-0,043
167,721	413,349	-0,168	-0,250
168,735	459,633	-0,181	-0,282
169,750	43,107	-0,252	-0,160
170,764	249,553	-0,255	-0,302
171,779	-146,135	-0,266	-0,016
172,794	71,291	-0,276	-0,199
173,808	-58,759	-0,227	-0,068
174,823	102,724	-0,196	-0,160
175,837	33,939	-0,269	-0,163
176,852	170,328	-0,144	-0,144
177,867	-37,681	-0,137	-0,051
178,881	-26,648	-0,267	-0,108
179,896	-139,441	-0,260	-0,019
180,910	556,459	-0,157	-0,265
181,925	745,147	-0,157	-0,295
182,940	189,976	-0,287	-0,301
183,954	92,008	-0,253	-0,198
184,969	106,341	-0,191	-0,158
185,983	-101,458	-0,190	-0,032
186,998	208,874	-0,174	-0,190
188,013	415,116	-0,147	-0,219
189,027	-28,822	-0,260	-0,103
190,042	56,317	-0,249	-0,168
191,056	-126,248	-0,238	-0,024
192,071	133,517	-0,243	-0,218
193,086	-102,805	-0,278	-0,046
194,100	-16,576	-0,227	-0,100
195,115	-147,776	-0,336	-0,019
196,129	220,385	-0,204	-0,228
197,144	-5,329	-0,173	-0,082
198,159	313,980	-0,288	-0,377
199,173	-200,000	-0,034	-0,141
200,188	-7,190	-0,174	-0,082
201,202	3,174	-0,171	-0,086
202,217	-2,739	-0,204	-0,099
203,232	-50,232	-0,177	-0,058
204,246	-30,253	-0,202	-0,079
205,261	-152,109	-0,182	0,009
206,275	255,502	-0,148	-0,176
207,290	6,793	-0,247	-0,128
208,304	-142,563	-0,245	-0,016
209,319	-148,077	-0,193	-0,011
210,334	800,000	-0,052	-0,119
211,348	50,400	-0,182	-0,119
212,363	-200,000	0,011	-0,171
213,377	-180,474	-0,266	0,004
214,392	85,890	-0,200	-0,152
215,407	130,876	-0,113	-0,101
216,421	-200,000	-0,036	-0,166
217,436	-26,856	-0,343	-0,139
218,450	800,000	-0,098	-0,189
219,465	161,663	-0,170	-0,165
220,480	-160,391	-0,091	-0,003
221,494	348,877	-0,152	-0,208
222,509	47,264	-0,201	-0,129
223,523	330,176	-0,122	-0,163
224,538	93,177	-0,179	-0,140
225,553	800,000	-0,064	-0,146
226,567	131,598	-0,134	-0,120
227,582	261,952	-0,153	-0,184
228,596	27,785	-0,207	-0,120
229,611	-37,963	-0,069	-0,025
230,626	-35,277	-0,167	-0,063
231,640	121,872	-0,124	-0,108
232,655	518,322	-0,138	-0,224
233,669	162,735	-0,263	-0,256
234,684	800,000	-0,123	-0,237
235,699	25,260	-0,317	-0,182
236,713	-16,677	-0,169	-0,074
237,728	361,625	-0,110	-0,153
238,742	170,799	-0,144	-0,143
239,757	68,571	-0,304	-0,216
240,772	468,126	-0,159	-0,247
241,786	165,574	-0,150	-0,147
242,801	182,646	-0,127	-0,130
243,815	-55,240	-0,264	-0,082
244,830	-53,889	-0,191	0,060
245,844	-10,852	-0,191	-0,087
246,859	266,800	-0,149	-0,180
247,874	-92,223	-0,238	-0,046
248,888	-51,294	-0,340	-0,109
249,903	46,676	-0,187	-0,120
250,917	54,075	-0,075	0,050
251,932	-111,773	-0,213	-0,030
252,947	226,889	-0,091	-0,102
253,961	-200,000	-0,055	-0,269
254,976	800,000	-0,089	-0,191
255,990	42,789	-0,161	-0,101
257,005	6,756	-0,152	-0,078
258,020	78,689	-0,148	-0,109
259,034	-127,674	-0,187	-0,018
260,049	9,194	-0,242	-0,126
261,063	179,225	-0,196	-0,198
262,078	7,299	-0,158	-0,081
263,093	21,115	-0,184	-0,103
264,107	-200,000	-0,019	-0,237
265,122	-132,751	-0,061	-0,005
266,136	-55,004	-0,220	-0,068
267,151	33,265	-0,225	-0,135
268,166	-38,128	-0,194	-0,071
269,180	-148,810	-0,080	-0,004
270,195	482,289	-0,091	-0,144
271,209	739,543	-0,111	-0,208
272,224	-191,147	-0,150	0,001
273,239	-144,817	-0,144	-0,009
274,253	403,938	-0,124	-0,181
275,268	127,569	-0,129	-0,113
276,282	85,412	-0,141	-0,107
277,297	110,261	-0,210	-0,174
278,312	-81,213	-0,282	-0,064
279,326	83,691	-0,177	-0,133
280,341	203,130	-0,032	-0,034
281,355	-50,613	-0,165	-0,053
282,370	607,928	-0,092	-0,158
283,384	170,657	-0,141	-0,139
284,399	-14,897	-0,191	-0,084
285,414	-77,573	-0,121	-0,029
286,428	187,792	-0,104	-0,107
287,443	-129,693	-0,146	-0,014
288,457	294,661	-0,135	-0,170
289,472	23,874	-0,184	-0,105
290,487	161,303	-0,149	-0,144
291,501	-200,000	-0,100	-0,309
292,516	261,003	-0,183	-0,219
293,530	1,433	-0,241	-0,119
294,545	98,691	-0,176	-0,140
295,560	93,887	-0,124	-0,097
296,574	-56,972	-0,228	-0,069
297,589	-19,297	-0,160	-0,068
298,603	800,000	-0,109	-0,267
299,618	60,915	-0,301	-0,206
300,633	778,928	-0,039	-0,074
301,647	-110,658	-0,108	0,015
302,662	254,729	-0,121	-0,143
303,676	15,544	-0,136	-0,074
304,691	391,710	-0,123	-0,176
305,706	-200,000	-0,039	-0,213
306,720	177,501	-0,216	-0,217
307,735	178,466	-0,157	-0,158
308,749	212,155	-0,185	-0,201
309,764	49,892	0,029	0,019
310,779	6,739	-0,111	-0,057
311,793	800,000	-0,089	-0,177
312,808	664,157	-0,092	-0,164
313,822	113,275	-0,081	-0,068
314,837	457,461	-0,074	-0,114
315,852	-174,017	-0,142	0,003
316,866	-20,713	-0,154	-0,065
317,881	252,067	-0,067	-0,079
318,895	169,741	-0,151	-0,149
319,910	54,453	-0,207	-0,137
320,925	89,690	-0,102	-0,078
321,939	800,000	-0,085	-0,226
322,954	677,008	-0,131	-0,236
323,968	-200,000	-0,016	-0,283
324,983	178,274	-0,108	-0,109
325,997	800,000	-0,061	-0,125
327,012	19,977	-0,209	-0,116
328,027	800,000	-0,055	-0,165
329,041	549,882	-0,088	-0,145
330,056	644,587	-0,034	-0,061
331,070	59,391	-0,135	-0,091
332,085	143,616	-0,057	-0,052
333,100	28,105	-0,049	-0,028
334,114	498,274	-0,104	-0,165
335,129	-127,534	-0,209	-0,021
336,143	-148,194	-0,220	-0,012
337,158	27,415	-0,154	-0,088
338,173	-76,507	-0,085	0,020
339,187	-48,933	-0,137	0,045
340,202	71,098	-0,113	-0,080
341,216	800,000	-0,078	-0,171
342,231	205,021	-0,113	-0,120
343,246	-9,483	-0,153	-0,070
344,260	-60,408	-0,183	-0,053
345,275	121,337	-0,115	0,099
346,289	-122,557	-0,148	-0,016
347,304	-200,000	-0,012	-0,059
348,319	196,581	-0,117	-0,123
349,333	-36,123	-0,187	-0,069
350,348	77,299	-0,112	-0,082
351,362	149,908	-0,127	-0,119
352,377	47,040	-0,180	-0,115
353,392	23,002	-0,176	-0,099
354,406	53,826	-0,106	0,070
355,421	210,624	1312,433	1416,052
356,435	162,152	1472,879	1416,543
