DTS Sentinel unit serial number:	SN410029Multiplexer serial number:	ORYXHardware model number:	OX2-SRSoftware version number:	ORYX F/W v4,00 Oryx Data Collector v3.7.2.0data status	okinstallation	B3 Nyhavnadifferential loss correction	single-endedforward channel	channel 1reverse channel	N/Adate	2023/12/04time	09:37:30forward acquisition time	300,00reverse acquisition time	0,00gamma	499,1914k internal	0,3203k external	0,3203temperature offset calibration	1,0000default loss term (dB/km)	0,3820temperature slope calibration	1,0000multiplexer offset coefficient	1,0000multiplexer slope coefficient	1,0000fibre end	0,00T internal ref (°C)	13,23T ext. ref 1 (°C)	-1,14T ext. ref 2 (°C)	-1,19length (m)	temperature (°C)	Stokes	anti-Stokes-744,400	119,455	-0,203	-0,183
-743,385	800,000	-0,048	0,145
-742,371	310,850	-0,247	-0,337
-741,356	43,914	0,291	0,193
-740,342	281,999	-0,219	-0,286
-739,327	-200,000	0,061	0,306
-738,312	150,534	-0,294	-0,291
-737,298	-200,000	-0,017	0,275
-736,283	-200,000	-0,027	-0,246
-735,269	-200,000	-0,047	0,277
-734,254	114,783	-0,237	-0,210
-733,239	23,987	-0,188	-0,112
-732,225	800,000	-0,090	-0,189
-731,210	475,734	0,063	0,105
-730,196	-166,008	-0,162	0,005
-729,181	39,783	-0,015	0,010
-728,167	43,028	0,046	-0,030
-727,152	-200,000	0,027	-0,126
-726,137	-37,980	-0,162	-0,062
-725,123	634,589	0,068	-0,125
-724,108	800,000	-0,057	-0,167
-723,094	230,955	-0,061	-0,072
-722,079	220,947	-0,023	0,026
-721,064	-46,540	-0,021	-0,007
-720,050	96,594	0,029	0,024
-719,035	0,463	0,100	-0,052
-718,021	-69,843	0,073	0,020
-717,006	800,000	-0,069	-0,194
-715,991	55,781	-0,153	-0,107
-714,977	-52,599	0,112	-0,037
-713,962	-143,949	0,089	0,006
-712,948	800,000	-0,063	0,130
-711,933	-150,999	-0,069	-0,004
-710,918	-200,000	-0,010	-0,061
-709,904	123,719	-0,146	-0,133
-708,889	148,213	0,048	0,047
-707,875	-39,071	-0,071	-0,027
-706,860	800,000	-0,046	-0,101
-705,845	-81,264	-0,018	-0,004
-704,831	176,516	0,004	0,005
-703,816	62,870	0,042	0,030
-702,802	63,742	0,123	0,090
-701,787	-200,000	-0,006	-0,097
-700,772	61,400	0,038	0,028
-699,758	-133,967	-0,069	0,006
-698,743	-8,465	-0,050	-0,024
-697,729	744,172	-0,014	-0,028
-696,714	-200,000	-0,003	0,075
-695,699	3,331	-0,199	-0,105
-694,685	-200,000	0,008	-0,063
-693,670	-106,429	-0,175	-0,028
-692,656	339,277	-0,075	-0,106
-691,641	-200,000	0,000	-0,037
-690,627	174,725	-0,073	0,077
-689,612	-200,000	-0,004	-0,059
-688,597	8,592	0,099	-0,054
-687,583	226,563	-0,073	-0,086
-686,568	-164,659	-0,088	-0,003
-685,554	7,138	0,117	-0,063
-684,539	-200,000	-0,012	-0,084
-683,524	387,086	-0,053	0,080
-682,510	800,000	-0,017	0,046
-681,495	-200,000	-0,003	-0,081
-680,481	79,024	-0,058	0,045
-679,466	-125,818	-0,055	0,006
-678,451	800,000	-0,036	-0,105
-677,437	-113,079	0,114	0,016
-676,422	35,617	-0,097	0,062
-675,408	-158,267	0,040	-0,002
-674,393	112,909	0,041	0,036
-673,378	-200,000	0,010	-0,063
-672,364	-32,362	-0,057	0,023
-671,349	407,138	0,055	0,085
-670,335	501,580	-0,079	-0,132
-669,320	23,251	-0,060	0,035
-668,305	254,039	0,071	-0,089
-667,291	-200,000	-0,004	-0,066
-666,276	-200,000	0,005	-0,165
-665,262	-200,000	0,002	-0,175
-664,247	800,000	-0,042	-0,086
-663,232	350,927	-0,052	0,074
-662,218	-108,529	0,233	-0,036
-661,203	-29,877	-0,047	0,019
-660,189	800,000	-0,014	-0,044
-659,174	-126,630	0,069	0,007
-658,159	434,642	0,053	-0,084
-657,145	-200,000	0,011	-0,087
-656,130	345,541	-0,024	-0,034
-655,116	98,791	0,042	0,035
-654,101	-52,128	-0,073	0,024
-653,086	-200,000	-0,023	-0,115
-652,072	-72,667	-0,086	-0,023
-651,057	800,000	-0,066	-0,162
-650,043	-81,278	-0,058	-0,014
-649,028	665,880	-0,030	-0,057
-648,014	186,333	-0,073	0,079
-646,999	800,000	0,044	0,135
-645,984	165,342	-0,037	0,038
-644,970	5,436	0,071	0,038
-643,955	800,000	0,014	-0,037
-642,941	71,902	-0,095	-0,071
-641,926	-200,000	0,017	-0,084
-640,911	569,605	-0,057	-0,100
-639,897	800,000	0,018	0,049
-638,882	120,032	-0,067	0,060
-637,868	-196,604	0,086	0,000
-636,853	-200,000	-0,002	0,078
-635,838	223,929	-0,116	-0,136
-634,824	-200,000	-0,033	0,146
-633,809	-200,000	0,001	0,027
-632,795	542,548	0,092	0,160
-631,780	-200,000	-0,007	0,041
-630,765	-15,199	-0,045	-0,021
-629,751	-107,146	-0,190	0,030
-628,736	800,000	0,012	-0,028
-627,722	-200,000	-0,020	-0,149
-626,707	363,411	0,040	0,058
-625,692	-118,092	-0,057	0,007
-624,678	-200,000	-0,034	0,167
-623,663	-26,000	0,035	-0,015
-622,649	120,711	0,109	-0,098
-621,634	-128,652	-0,093	-0,009
-620,619	-99,140	-0,035	-0,006
-619,605	413,358	-0,071	0,109
-618,590	-15,170	-0,193	0,089
-617,576	67,756	0,154	0,114
-616,561	800,000	-0,026	0,064
-615,546	-200,000	0,041	-0,144
-614,532	20,669	-0,146	-0,085
-613,517	-200,000	-0,032	-0,164
-612,503	-166,906	-0,028	0,001
-611,488	43,366	-0,036	-0,024
-610,474	-200,000	-0,038	-0,156
-609,459	800,000	-0,022	-0,068
-608,444	-200,000	0,003	-0,052
-607,430	-200,000	-0,031	0,130
-606,415	800,000	0,026	0,052
-605,401	42,129	-0,027	0,018
-604,386	64,383	-0,092	-0,067
-603,371	262,142	-0,056	0,070
-602,357	48,491	0,059	0,040
-601,342	145,338	-0,014	-0,014
-600,328	195,551	0,025	0,028
-599,313	800,000	-0,048	-0,106
-598,298	-200,000	0,003	-0,113
-597,284	-114,861	0,088	-0,012
-596,269	-19,779	-0,030	-0,014
-595,255	-200,000	0,026	0,166
-594,240	800,000	0,049	-0,124
-593,225	124,199	0,085	0,077
-592,211	-101,712	-0,080	-0,014
-591,196	-28,099	0,155	-0,064
-590,182	30,488	-0,084	-0,052
-589,167	558,392	0,030	-0,052
-588,152	-46,526	-0,096	0,034
-587,138	245,941	-0,080	0,098
-586,123	-200,000	-0,014	0,157
-585,109	-167,331	-0,158	0,005
-584,094	343,660	-0,063	-0,089
-583,079	-114,109	0,074	0,010
-582,065	-81,419	-0,086	-0,020
-581,050	-14,354	0,074	0,034
-580,036	137,021	-0,030	-0,028
-579,021	-200,000	-0,006	-0,094
-578,006	-151,759	0,140	0,007
-576,992	194,546	0,037	-0,040
-575,977	-200,000	0,017	-0,112
-574,963	-200,000	-0,004	0,096
-573,948	-102,025	0,092	0,016
-572,934	-53,662	-0,142	0,046
-571,919	14,589	-0,135	0,076
-570,904	123,911	-0,031	0,028
-569,890	-200,000	0,037	0,125
-568,875	369,279	-0,037	0,055
-567,861	120,475	-0,046	-0,042
-566,846	800,000	0,062	0,172
-565,831	-200,000	-0,014	0,131
-564,817	77,822	0,053	-0,041
-563,802	336,137	0,035	-0,049
-562,788	-13,719	-0,095	-0,044
-561,773	-200,000	0,006	-0,118
-560,758	58,062	0,034	0,024
-559,744	-97,216	0,093	-0,017
-558,729	800,000	-0,015	0,034
-557,715	-183,616	-0,042	0,001
-556,700	800,000	0,028	-0,086
-555,685	-200,000	0,046	0,167
-554,671	-134,760	-0,153	-0,013
-553,656	142,267	0,118	-0,113
-552,642	-89,972	-0,102	0,021
-551,627	-200,000	0,008	-0,076
-550,612	138,267	-0,163	0,155
-549,598	118,685	-0,143	-0,127
-548,583	-200,000	0,015	-0,262
-547,569	216,418	0,087	-0,100
-546,554	131,498	-0,061	-0,057
-545,539	-72,696	-0,077	-0,020
-544,525	-29,752	0,036	-0,015
-543,510	800,000	-0,071	-0,142
-542,496	-16,313	0,137	0,063
-541,481	389,866	0,049	-0,073
-540,466	-200,000	-0,020	0,116
-539,452	800,000	-0,025	-0,059
-538,437	414,462	-0,106	0,163
-537,423	-23,994	0,096	0,041
-536,408	288,430	0,078	-0,102
-535,393	54,984	-0,052	-0,036
-534,379	-117,811	0,128	-0,016
-533,364	5,458	-0,081	-0,043
-532,350	408,817	0,103	0,158
-531,335	-75,313	0,046	-0,012
-530,321	-61,303	0,087	0,026
-529,306	-200,000	0,000	0,159
-528,291	523,960	0,051	-0,087
-527,277	-104,321	-0,025	0,004
-526,262	158,450	0,078	-0,078
-525,248	624,498	-0,052	0,094
-524,233	-9,000	0,034	0,016
-523,218	-200,000	0,030	0,134
-522,204	-62,306	-0,081	0,024
-521,189	381,169	-0,074	-0,110
-520,175	-153,524	0,168	-0,008
-519,160	137,110	-0,013	0,012
-518,145	41,541	0,061	-0,040
-517,131	354,499	0,071	0,103
-516,116	-86,816	0,092	-0,020
-515,102	800,000	-0,022	0,046
-514,087	293,836	-0,088	0,116
-513,072	800,000	-0,032	-0,096
-512,058	210,962	0,084	-0,096
-511,043	-24,570	-0,041	0,017
-510,029	181,178	0,072	-0,076
-509,014	361,026	0,077	-0,112
-507,999	800,000	0,056	-0,152
-506,985	-70,476	-0,140	0,038
-505,970	522,444	-0,017	-0,028
-504,956	201,982	-0,129	0,144
-503,941	618,755	-0,030	-0,054
-502,926	-200,000	0,009	-0,074
-501,912	-200,000	-0,002	0,062
-500,897	-200,000	0,010	-0,040
-499,883	-200,000	0,027	0,119
-498,868	-107,258	-0,023	0,004
-497,853	498,438	-0,026	-0,043
-496,839	221,359	0,013	0,015
-495,824	-200,000	0,032	0,238
-494,810	-38,412	0,033	-0,012
-493,795	142,791	0,090	0,086
-492,781	-200,000	-0,064	0,249
-491,766	117,982	0,051	0,046
-490,751	104,397	-0,149	0,126
-489,737	-62,054	-0,061	0,018
-488,722	95,385	0,063	-0,052
-487,708	-74,711	-0,086	0,022
-486,693	16,002	0,105	0,059
-485,678	800,000	-0,032	-0,070
-484,664	286,057	0,093	-0,121
-483,649	-6,987	-0,091	0,044
-482,635	-30,119	-0,083	-0,034
-481,620	258,461	0,054	-0,067
-480,605	-200,000	0,011	-0,134
-479,591	-14,830	-0,119	0,055
-478,576	483,280	0,034	0,056
-477,562	190,499	-0,065	-0,071
-476,547	106,567	-0,119	-0,101
-475,532	-200,000	-0,005	0,140
-474,518	-43,347	0,035	-0,013
-473,503	235,144	0,031	0,037
-472,489	-86,181	0,092	0,020
-471,474	800,000	0,055	0,134
-470,459	-126,704	-0,045	0,005
-469,445	-200,000	-0,020	-0,192
-468,430	800,000	0,060	-0,173
-467,416	800,000	-0,025	-0,074
-466,401	800,000	0,028	-0,072
-465,386	186,247	0,063	-0,068
-464,372	-57,501	0,110	-0,034
-463,357	-71,962	-0,104	0,028
-462,343	-48,762	-0,129	-0,044
-461,328	800,000	-0,063	-0,172
-460,313	-200,000	-0,006	0,054
-459,299	680,236	0,081	0,151
-458,284	194,426	0,050	0,055
-457,270	-84,975	-0,060	0,013
-456,255	-200,000	-0,007	-0,097
-455,241	-187,897	-0,074	-0,001
-454,226	-200,000	0,000	-0,022
-453,211	-200,000	-0,027	0,091
-452,197	106,019	0,078	0,066
-451,182	-200,000	-0,030	-0,161
-450,168	-17,982	0,061	-0,027
-449,153	-29,721	-0,025	-0,010
-448,138	-200,000	0,013	0,185
-447,124	-90,812	-0,070	0,014
-446,109	161,205	-0,103	0,104
-445,095	48,327	0,039	0,026
-444,080	-200,000	0,002	-0,015
-443,065	133,878	-0,039	-0,036
-442,051	800,000	-0,056	0,151
-441,036	426,712	0,012	-0,018
-440,022	-200,000	-0,013	-0,240
-439,007	-41,247	0,065	0,024
-437,992	533,706	-0,014	0,024
-436,978	-200,000	-0,004	0,052
-435,963	80,270	-0,061	-0,047
-434,949	800,000	-0,024	0,050
-433,934	-200,000	-0,017	0,000
-432,919	250,257	0,045	0,055
-431,905	21,710	0,031	-0,018
-430,890	-200,000	0,003	0,118
-429,876	800,000	-0,016	0,041
-428,861	800,000	0,028	0,062
-427,846	-180,659	-0,110	0,002
-426,832	-200,000	0,001	-0,179
-425,817	-88,080	0,059	-0,013
-424,803	-143,495	0,048	-0,003
-423,788	332,996	0,035	-0,048
-422,773	539,599	0,034	-0,058
-421,759	29,724	-0,034	0,021
-420,744	-139,020	-0,007	-0,001
-419,730	412,149	0,102	-0,156
-418,715	563,062	-0,059	-0,103
-417,701	-200,000	-0,017	-0,162
-416,686	180,880	0,042	-0,045
-415,671	-200,000	0,006	0,057
-414,657	-90,913	-0,099	-0,020
-413,642	800,000	0,013	-0,030
-412,628	66,028	0,044	-0,032
-411,613	-200,000	0,011	-0,042
-410,598	-19,456	0,032	0,014
-409,584	-56,960	-0,156	-0,049
-408,569	-96,972	0,031	0,006
-407,555	-26,567	0,057	-0,024
-406,540	-30,798	0,047	-0,019
-405,525	-200,000	0,022	-0,072
-404,511	206,026	0,066	-0,074
-403,496	181,974	-0,021	0,022
-402,482	-130,051	-0,129	0,013
-401,467	-97,577	0,240	0,044
-400,452	-200,000	-0,010	0,173
-399,438	-140,997	-0,073	0,005
-398,423	-200,000	-0,005	-0,026
-397,409	800,000	-0,041	-0,095
-396,394	271,748	-0,103	-0,131
-395,379	-91,824	0,077	-0,015
-394,365	632,511	0,083	0,152
-393,350	-11,328	0,124	0,058
-392,336	800,000	0,041	0,105
-391,321	87,659	0,103	-0,081
-390,306	610,256	-0,038	-0,069
-389,292	-200,000	0,022	-0,145
-388,277	290,386	0,011	0,015
-387,263	-89,246	0,049	0,010
-386,248	130,939	-0,021	-0,019
-385,233	800,000	0,089	0,180
-384,219	693,734	-0,053	0,101
-383,204	-20,786	0,080	-0,035
-382,190	-79,380	-0,059	-0,014
-381,175	236,120	-0,056	0,066
-380,160	-106,108	0,109	-0,017
-379,146	108,191	-0,040	-0,034
-378,131	-75,265	0,052	0,013
-377,117	411,658	0,077	0,118
-376,102	-122,483	-0,105	0,012
-375,088	800,000	0,035	-0,087
-374,073	56,763	-0,060	0,042
-373,058	402,379	0,027	0,041
-372,044	-37,373	0,072	-0,027
-371,029	-86,089	0,132	-0,029
-370,015	-200,000	0,010	0,000
-369,000	-57,755	-0,110	-0,034
-367,985	-155,114	-0,065	0,003
-366,971	-200,000	0,044	-0,143
-365,956	638,998	0,049	0,090
-364,942	-67,284	0,142	0,040
-363,927	-117,253	-0,088	-0,011
-362,912	-118,983	-0,163	-0,020
-361,898	706,511	-0,051	0,096
-360,883	-200,000	-0,021	0,082
-359,869	308,679	-0,124	-0,166
-358,854	-93,537	0,062	-0,012
-357,839	146,827	-0,113	0,109
-356,825	188,809	0,125	0,134
-355,810	-196,939	-0,149	-0,001
-354,796	800,000	0,057	-0,123
-353,781	-156,284	-0,081	-0,004
-352,766	-200,000	0,035	-0,118
-351,752	163,619	-0,093	-0,094
-350,737	-27,016	0,162	-0,067
-349,723	-200,000	0,001	0,126
-348,708	674,117	0,059	0,109
-347,693	-200,000	0,002	0,087
-346,679	151,740	0,094	-0,092
-345,664	-200,000	-0,001	-0,067
-344,650	194,063	0,017	0,018
-343,635	207,382	0,074	-0,083
-342,620	-113,757	0,051	0,007
-341,606	-107,890	0,060	0,009
-340,591	95,739	-0,121	-0,099
-339,577	65,349	0,063	0,046
-338,562	183,562	-0,073	0,078
-337,548	219,775	0,081	0,093
-336,533	63,996	0,033	0,024
-335,518	-200,000	0,002	0,135
-334,504	10,958	0,076	0,041
-333,489	62,101	0,073	0,052
-332,475	-200,000	-0,020	-0,147
-331,460	-6,050	-0,055	0,027
-330,445	-124,365	0,032	-0,003
-329,431	-153,246	0,059	0,003
-328,416	800,000	0,025	0,067
-327,402	800,000	-0,066	-0,136
-326,387	458,994	-0,032	-0,051
-325,372	-105,693	-0,103	0,016
-324,358	-200,000	0,022	0,164
-323,343	-200,000	0,015	-0,052
-322,329	-200,000	0,000	0,041
-321,314	64,894	0,075	0,054
-320,299	-200,000	0,001	-0,090
-319,285	-200,000	-0,033	0,236
-318,270	49,594	-0,050	-0,034
-317,256	-67,087	-0,155	0,043
-316,241	738,437	0,026	-0,049
-315,226	61,553	0,088	-0,063
-314,212	252,143	0,026	-0,031
-313,197	28,964	-0,048	0,029
-312,183	-61,654	0,083	0,025
-311,168	402,979	-0,014	0,021
-310,153	-190,755	-0,107	-0,001
-309,139	-73,085	0,183	-0,048
-308,124	146,302	-0,047	-0,045
-307,110	168,746	0,023	0,024
-306,095	66,348	0,049	-0,036
-305,080	-68,895	-0,151	0,041
-304,066	-200,000	-0,052	-0,177
-303,051	-155,997	-0,052	-0,002
-302,037	-63,771	-0,067	-0,020
-301,022	45,407	-0,077	-0,051
-300,008	-200,000	0,021	0,085
-298,993	-145,170	-0,121	0,008
-297,978	-143,562	-0,032	0,002
-296,964	-129,806	-0,126	-0,012
-295,949	-200,000	0,001	-0,225
-294,935	-7,360	0,160	-0,077
-293,920	661,574	-0,040	0,075
-292,905	102,774	0,051	0,043
-291,891	-200,000	0,037	0,155
-290,876	-200,000	-0,021	-0,120
-289,862	-39,246	-0,150	0,056
-288,847	396,008	0,070	0,104
-287,832	-200,000	-0,011	0,122
-286,818	20,639	0,118	0,068
-285,803	-131,935	-0,055	0,005
-284,789	-111,909	0,131	0,019
-283,774	240,207	0,033	-0,040
-282,759	-200,000	-0,010	-0,034
-281,745	148,849	-0,064	-0,062
-280,730	93,935	0,160	-0,130
-279,716	-200,000	-0,026	-0,116
-278,701	800,000	0,017	-0,050
-277,686	-200,000	-0,033	0,139
-276,672	-83,996	0,095	0,021
-275,657	800,000	-0,038	0,099
-274,643	239,416	-0,061	-0,072
-273,628	-90,031	0,041	0,008
-272,613	-38,744	0,020	-0,008
-271,599	-200,000	-0,025	-0,161
-270,584	13,677	0,023	-0,013
-269,570	333,728	0,052	0,073
-268,555	800,000	-0,029	0,059
-267,540	800,000	0,016	-0,034
-266,526	-9,371	0,126	-0,060
-265,511	800,000	-0,028	-0,069
-264,497	800,000	-0,027	0,084
-263,482	-55,919	0,035	0,011
-262,467	800,000	-0,028	0,058
-261,453	800,000	0,068	0,167
-260,438	800,000	-0,059	-0,119
-259,424	800,000	-0,022	-0,047
-258,409	-200,000	-0,028	-0,142
-257,395	39,105	0,049	0,031
-256,380	-200,000	-0,040	0,135
-255,365	-200,000	-0,001	-0,107
-254,351	-126,172	-0,097	0,010
-253,336	158,289	0,071	0,070
-252,322	675,792	-0,027	-0,050
-251,307	649,020	-0,041	-0,076
-250,292	165,597	0,080	-0,081
-249,278	-200,000	-0,032	0,103
-248,263	136,141	0,053	0,050
-247,249	-200,000	0,019	0,071
-246,234	-200,000	0,020	-0,119
-245,219	172,123	-0,050	0,051
-244,205	38,336	-0,104	-0,066
-243,190	-26,365	0,123	-0,051
-242,176	-108,530	-0,159	0,024
-241,161	-200,000	-0,003	0,176
-240,146	-16,927	0,049	0,022
-239,132	-200,000	0,000	0,017
-238,117	320,745	-0,025	-0,034
-237,103	163,709	-0,059	0,060
-236,088	-200,000	-0,006	-0,023
-235,073	-200,000	0,007	0,172
-234,059	-95,988	-0,084	0,016
-233,044	-200,000	0,004	0,039
-232,030	-22,263	0,104	0,045
-231,015	-8,091	0,065	0,031
-230,000	-150,222	-0,116	-0,006
-228,986	-66,539	0,047	0,013
-227,971	-200,000	-0,004	-0,060
-226,957	-62,273	0,187	-0,055
-225,942	-93,391	-0,069	0,013
-224,927	-200,000	0,027	-0,154
-223,913	800,000	0,042	-0,086
-222,898	-200,000	-0,004	-0,022
-221,884	64,140	-0,055	-0,039
-220,869	359,934	-0,080	-0,115
-219,855	-12,003	-0,120	-0,056
-218,840	-200,000	-0,003	-0,085
-217,825	-200,000	0,035	0,111
-216,811	-116,768	0,079	-0,010
-215,796	-114,059	-0,048	0,007
-214,782	371,617	0,053	0,077
-213,767	800,000	-0,036	-0,084
-212,752	-106,749	0,203	0,032
-211,738	-200,000	0,020	0,104
-210,723	800,000	-0,032	0,087
-209,709	-200,000	-0,009	-0,050
-208,694	137,793	-0,112	0,105
-207,679	116,701	0,109	-0,095
-206,665	-118,123	0,097	0,012
-205,650	4,194	0,011	0,006
-204,636	195,463	-0,056	0,061
-203,621	256,993	0,069	0,085
-202,606	142,416	0,029	0,027
-201,592	257,151	0,093	-0,114
-200,577	32,451	-0,088	-0,054
-199,563	465,029	0,085	-0,135
-198,548	540,291	0,007	0,012
-197,533	506,748	-0,056	0,093
-196,519	-9,352	0,085	0,040
-195,504	-200,000	-0,018	-0,069
-194,490	547,853	-0,048	-0,083
-193,475	481,709	-0,048	-0,078
-192,460	-61,299	-0,110	-0,033
-191,446	454,968	0,073	-0,116
-190,431	-200,000	0,023	0,094
-189,417	-93,356	0,100	0,020
-188,402	-17,755	-0,201	0,089
-187,387	-200,000	0,009	-0,120
-186,373	-132,003	-0,072	0,007
-185,358	8,263	0,074	-0,039
-184,344	34,168	-0,060	-0,037
-183,329	-175,885	0,127	0,002
-182,315	-200,000	-0,002	0,102
-181,300	172,223	-0,047	0,048
-180,285	30,171	0,029	0,018
-179,271	800,000	0,019	0,042
-178,256	358,999	0,090	-0,128
-177,242	-24,997	0,073	-0,031
-176,227	159,361	-0,032	0,032
-175,212	61,481	0,100	0,070
-174,198	-163,333	-0,131	-0,004
-173,183	-64,596	0,076	0,022
-172,169	-200,000	-0,001	-0,015
-171,154	167,037	-0,020	-0,020
-170,139	635,195	-0,099	0,179
-169,125	-135,223	0,086	-0,007
-168,110	117,665	-0,016	-0,014
-167,096	-63,299	0,039	-0,011
-166,081	-50,110	0,100	0,034
-165,066	-179,490	0,034	0,001
-164,052	-200,000	0,017	-0,104
-163,037	-83,902	0,140	-0,031
-162,023	-200,000	0,020	0,127
-161,008	455,811	-0,059	0,093
-159,993	800,000	0,060	0,172
-158,979	-200,000	-0,005	-0,090
-157,964	338,131	-0,047	-0,065
-156,950	457,405	-0,024	0,038
-155,935	800,000	0,009	-0,020
-154,920	695,261	-0,027	0,051
-153,906	697,775	-0,053	0,099
-152,891	-74,367	0,121	-0,031
-151,877	-33,264	-0,017	-0,007
-150,862	-200,000	0,001	-0,102
-149,847	-63,591	0,068	0,020
-148,833	19,229	0,079	-0,045
-147,818	181,833	0,128	0,134
-146,804	638,493	-0,013	-0,024
-145,789	425,507	-0,032	0,049
-144,775	-200,000	-0,032	-0,188
-143,760	-4,893	-0,110	0,054
-142,745	27,329	-0,085	0,051
-141,731	-200,000	-0,024	0,101
-140,716	-200,000	-0,003	-0,116
-139,702	-83,588	0,100	0,022
-138,687	-200,000	-0,002	0,051
-137,672	-29,239	-0,117	-0,047
-136,658	525,387	0,054	-0,091
-135,643	-6,007	-0,076	-0,037
-134,629	-52,931	-0,083	-0,027
-133,614	-50,438	0,058	-0,019
-132,599	-123,371	0,069	0,008
-131,585	-115,106	0,165	-0,022
-130,570	800,000	0,008	-0,026
-129,556	52,211	0,062	-0,042
-128,541	-200,000	-0,005	-0,127
-127,526	-200,000	0,002	-0,184
-126,512	149,585	0,086	-0,082
-125,497	214,788	-0,061	-0,069
-124,483	800,000	-0,036	-0,110
-123,468	-200,000	0,007	-0,033
-122,453	-200,000	0,032	-0,129
-121,439	-11,200	-0,136	0,064
-120,424	-200,000	0,019	0,061
-119,410	92,244	0,031	-0,025
-118,395	800,000	0,066	0,185
-117,380	12,111	-0,087	0,048
-116,366	800,000	-0,035	0,069
-115,351	229,691	0,069	-0,080
-114,337	800,000	0,027	-0,074
-113,322	544,416	0,033	-0,055
-112,307	-200,000	0,007	-0,079
-111,293	587,144	-0,026	-0,045
-110,278	626,105	0,080	-0,143
-109,264	-162,292	0,099	0,003
-108,249	248,383	-0,026	-0,031
-107,234	800,000	0,080	-0,204
-106,220	-200,000	0,027	-0,097
-105,205	263,091	0,101	-0,125
-104,191	92,799	0,022	-0,017
-103,176	-9,584	-0,081	0,038
-102,162	-189,941	0,024	0,000
-101,147	-5,813	-0,031	0,015
-100,132	354,192	-0,028	-0,040
-99,118	-117,854	0,098	-0,012
-98,103	-200,000	-0,022	0,085
-97,089	154,231	0,076	-0,074
-96,074	385,969	-0,020	-0,029
-95,059	152,613	0,054	0,052
-94,045	147,445	-0,060	-0,058
-93,030	800,000	-0,018	-0,047
-92,016	-200,000	0,001	-0,042
-91,001	-55,413	-0,124	-0,039
-89,986	505,753	0,139	0,228
-88,972	164,662	0,142	0,142
-87,957	-64,938	0,054	-0,015
-86,943	-8,407	-0,077	-0,036
-85,928	-135,100	0,052	-0,004
-84,913	261,535	-0,032	0,039
-83,899	800,000	-0,023	-0,053
-82,884	-200,000	-0,006	-0,093
-81,870	-19,426	0,072	0,032
-80,855	180,023	-0,063	0,066
-79,840	-90,712	-0,027	0,005
-78,826	20,269	0,066	-0,038
-77,811	800,000	-0,050	-0,153
-76,797	-200,000	0,004	-0,015
-75,782	-60,514	0,040	0,012
-74,767	-200,000	-0,020	0,090
-73,753	141,543	0,043	0,041
-72,738	170,538	0,080	-0,081
-71,724	183,574	0,032	0,034
-70,709	-63,843	0,026	-0,008
-69,694	-135,909	0,082	-0,007
-68,680	159,947	0,042	-0,041
-67,665	-86,983	0,084	0,018
-66,651	800,000	-0,074	0,157
-65,636	-11,115	0,094	0,044
-64,622	67,874	-0,117	0,084
-63,607	-84,201	0,172	-0,038
-62,592	557,429	-0,073	0,125
-61,578	-200,000	-0,019	0,094
-60,563	571,502	0,074	0,128
-59,549	198,646	-0,041	0,045
-58,534	-8,954	-1,697	-0,801
-57,519	347,372	-1,334	-1,865
-56,505	-200,000	-0,566	-4,412
-55,490	292,467	0,961	1,242
-54,476	800,000	4,856	11,087
-53,461	-200,000	19,149	319,798
-52,446	-200,000	740,747	2333,853
-51,432	573,759	1655,286	2867,812
-50,417	78,209	1670,956	1260,635
-49,403	21,223	1543,880	884,655
-48,388	15,137	1466,419	810,690
-47,373	17,909	1456,567	818,600
-46,359	16,614	1446,542	806,726
-45,344	13,282	1442,244	788,339
-44,330	13,267	1439,959	786,989
-43,315	13,285	1438,377	786,178
-42,300	13,309	1436,547	785,261
-41,286	13,316	1435,290	784,577
-40,271	13,268	1433,811	783,507
-39,257	13,260	1432,607	782,782
-38,242	13,317	1431,412	782,368
-37,227	13,310	1430,348	781,721
-36,213	13,307	1428,869	780,868
-35,198	13,298	1427,813	780,218
-34,184	13,345	1426,747	779,829
-33,169	13,304	1425,377	778,852
-32,154	13,310	1424,413	778,325
-31,140	13,315	1423,022	777,556
-30,125	13,407	1421,896	777,345
-29,111	13,348	1420,947	776,518
-28,096	13,337	1419,766	775,787
-27,082	13,271	1418,769	774,901
-26,067	13,286	1417,721	774,370
-25,052	13,286	1416,480	773,663
-24,038	13,254	1415,572	772,984
-23,023	13,220	1414,485	772,199
-22,009	13,227	1413,634	771,738
-20,994	13,241	1412,486	771,143
-19,979	13,211	1411,847	770,625
-18,965	13,197	1410,843	769,980
-17,950	13,195	1409,731	769,335
-16,936	13,196	1409,020	768,921
-15,921	13,144	1407,990	768,087
-14,906	13,171	1407,098	767,694
-13,892	13,172	1406,026	767,084
-12,877	13,205	1405,070	766,683
-11,863	13,181	1404,237	766,090
-10,848	13,174	1403,467	765,607
-9,833	13,151	1402,444	764,909
-8,819	13,121	1401,786	764,379
-7,804	13,076	1400,765	763,585
-6,790	13,088	1399,715	763,039
-5,775	13,081	1398,626	762,382
-4,760	13,084	1397,474	761,734
-3,746	13,071	1396,703	761,227
-2,731	13,083	1395,936	760,831
-1,717	13,052	1394,986	760,143
-0,702	13,026	1393,335	759,090
0,313	17,132	1309,872	732,555
1,327	33,698	703,465	431,653
2,342	51,872	123,308	82,861
3,356	1,656	16,740	8,496
4,371	7,253	3,148	1,657
5,386	-18,651	0,587	0,258
6,400	422,553	0,136	0,206
7,415	81,995	-0,271	-0,207
8,429	-33,683	-0,277	-0,107
9,444	101,354	-0,293	-0,241
10,459	117,478	-0,309	-0,268
11,473	-77,298	-0,172	-0,042
12,488	7,493	-0,289	-0,152
13,502	-12,006	-0,304	-0,140
14,517	20,846	-0,285	-0,163
15,531	269,400	-0,240	-0,298
16,546	283,359	-0,241	-0,307
17,561	138,369	-0,327	-0,303
18,575	32,355	-0,303	-0,184
19,590	454,426	-0,158	-0,248
20,604	9,095	-0,288	-0,153
21,619	87,735	-0,299	-0,234
22,634	11,444	-0,517	-0,279
23,648	182,134	-0,251	-0,261
24,663	-3,755	-0,473	-0,231
25,677	96,647	-0,223	-0,180
26,692	-18,567	-0,315	-0,138
27,707	-45,453	-0,408	-0,142
28,721	197,997	-0,300	-0,324
29,736	222,386	-0,331	-0,377
30,750	171,801	-0,389	-0,394
31,765	-24,054	-0,353	-0,148
32,780	16,446	-0,309	-0,171
33,794	28,117	-0,474	-0,281
34,809	124,818	-0,270	-0,240
35,823	165,778	-0,247	-0,246
36,838	90,056	-0,318	-0,250
37,853	140,483	-0,285	-0,265
38,867	119,749	-0,395	-0,345
39,882	107,780	-0,386	-0,324
40,896	197,782	-0,162	-0,175
41,911	-32,703	-0,444	-0,173
42,926	92,954	-0,381	-0,303
43,940	313,902	-0,358	-0,475
44,955	93,389	-0,426	-0,339
45,969	93,069	-0,281	-0,223
46,984	8,699	-0,379	-0,201
47,999	14,520	-0,375	-0,206
49,013	175,462	-0,246	-0,252
50,028	13,456	-0,398	-0,217
51,042	83,865	-0,246	-0,189
52,057	158,579	-0,301	-0,294
53,071	46,732	-0,248	-0,162
54,086	35,057	-0,350	-0,215
55,101	-28,678	-0,363	-0,146
56,115	-71,094	-0,271	-0,071
57,130	82,302	-0,273	-0,208
58,144	109,756	-0,351	-0,296
59,159	61,517	-0,240	-0,168
60,174	89,594	-0,371	-0,291
61,188	18,633	-0,358	-0,201
62,203	91,918	-0,345	-0,273
63,217	16,016	-0,241	-0,133
64,232	-10,722	-0,349	-0,162
65,247	-41,849	-0,435	-0,156
66,261	-45,380	-0,441	-0,153
67,276	77,505	-0,317	-0,237
68,290	167,683	-0,282	-0,282
69,305	14,581	-0,193	-0,106
70,320	64,445	-0,295	-0,208
71,334	407,435	-0,231	-0,344
72,349	-20,706	-0,272	-0,117
73,363	183,848	-0,343	-0,356
74,378	-17,280	-0,524	-0,231
75,393	54,525	-0,362	-0,244
76,407	104,687	-0,297	-0,246
77,422	-76,094	-0,331	-0,082
78,436	380,600	-0,182	-0,263
79,451	-146,386	-0,310	-0,019
80,466	1,780	-0,257	-0,130
81,480	89,482	-0,375	-0,293
82,495	16,690	-0,307	-0,170
83,509	144,714	-0,215	-0,202
84,524	-81,840	-0,242	-0,055
85,539	-170,880	-0,222	-0,005
86,553	98,142	-0,165	-0,133
87,568	58,182	-0,332	-0,228
88,582	80,855	-0,261	-0,197
89,597	27,367	-0,276	-0,162
90,611	85,119	-0,178	-0,137
91,626	29,578	-0,295	-0,175
92,641	-29,174	-0,316	-0,126
93,655	-59,207	-0,278	-0,084
94,670	122,931	-0,259	-0,228
95,684	2,139	-0,345	-0,174
96,699	107,887	-0,314	-0,262
97,714	17,064	-0,328	-0,182
98,728	13,163	-0,175	-0,095
99,743	61,157	-0,313	-0,218
100,757	119,552	-0,268	-0,232
101,772	218,280	-0,212	-0,237
102,787	64,913	-0,263	-0,186
103,801	113,068	-0,293	-0,249
104,816	153,913	-0,286	-0,275
105,830	100,508	-0,198	-0,161
106,845	58,591	-0,246	-0,169
107,860	18,017	-0,298	-0,166
108,874	80,285	-0,194	-0,146
109,889	23,250	-0,276	-0,158
110,903	132,829	-0,269	-0,243
111,918	54,426	-0,276	-0,186
112,933	176,219	-0,203	-0,207
113,947	-121,950	-0,161	0,018
114,962	21,953	-0,366	-0,208
115,976	-4,851	-0,361	-0,174
116,991	626,394	-0,169	-0,301
118,006	140,200	-0,300	-0,277
119,020	-42,875	-0,229	-0,081
120,035	666,921	-0,080	-0,145
121,049	51,180	-0,268	-0,178
122,064	800,000	-0,055	-0,152
123,079	-38,449	-0,303	-0,111
124,093	49,733	-0,307	-0,202
125,108	16,486	-0,227	-0,125
126,122	-48,953	-0,213	-0,071
127,137	310,178	-0,176	-0,231
128,151	75,840	-0,293	-0,216
129,166	103,115	-0,108	-0,089
130,181	39,756	-0,240	-0,150
131,195	561,176	-0,132	-0,225
132,210	202,988	-0,246	-0,266
133,224	-90,356	-0,177	0,036
134,239	4,931	-0,295	-0,151
135,254	-135,671	-0,310	0,025
136,268	82,429	-0,175	-0,133
137,283	-22,329	-0,294	-0,124
138,297	235,546	-0,231	-0,267
139,312	323,800	-0,231	-0,309
140,327	2,774	-0,241	-0,122
141,341	-200,000	-0,057	-0,307
142,356	81,690	-0,116	-0,088
143,370	-4,274	-0,218	-0,105
144,385	-200,000	-0,148	-0,468
145,400	-15,045	-0,185	-0,083
146,414	104,655	-0,372	-0,306
147,429	82,346	-0,293	-0,222
148,443	-16,283	-0,208	-0,092
149,458	376,028	-0,160	-0,229
150,473	98,422	-0,241	-0,194
151,487	263,866	-0,281	-0,342
152,502	412,995	-0,142	-0,211
153,516	-5,748	-0,345	-0,165
154,531	28,552	-0,291	-0,171
155,546	24,998	-0,245	-0,142
156,560	373,616	-0,159	-0,227
157,575	215,477	-0,206	-0,228
158,589	-46,228	-0,243	-0,083
159,604	-58,625	-0,270	-0,081
160,619	66,883	-0,233	-0,165
161,633	112,317	-0,143	-0,120
162,648	79,413	-0,244	-0,182
163,662	8,097	-0,313	-0,163
164,677	-6,449	-0,204	-0,097
165,692	-21,278	-0,195	-0,083
166,706	-68,593	-0,362	-0,097
167,721	201,068	-0,262	-0,281
168,735	46,917	-0,246	-0,159
169,750	159,982	-0,268	-0,261
170,764	782,493	-0,080	-0,153
171,779	-110,561	-0,227	-0,032
172,794	48,494	-0,247	-0,161
173,808	-52,954	-0,115	-0,037
174,823	41,193	-0,283	-0,178
175,837	248,039	-0,128	-0,151
176,852	319,667	-0,181	-0,239
177,867	265,604	-0,189	-0,230
178,881	-150,083	-0,226	-0,012
179,896	171,821	-0,036	-0,036
180,910	70,569	-0,199	-0,143
181,925	-32,879	-0,201	-0,077
182,940	177,171	-0,244	-0,247
183,954	800,000	-0,129	-0,252
184,969	343,857	-0,178	-0,244
185,983	-200,000	-0,025	-0,203
186,998	5,855	-0,366	-0,188
188,013	43,867	-0,289	-0,184
189,027	256,345	-0,168	-0,201
190,042	214,105	-0,253	-0,279
191,056	282,127	-0,273	-0,342
192,071	65,874	-0,170	-0,120
193,086	-51,946	-0,209	-0,067
194,100	161,755	-0,132	-0,129
195,115	180,942	-0,228	-0,233
196,129	-111,253	-0,284	-0,040
197,144	77,945	-0,258	-0,191
198,159	63,487	-0,167	-0,116
199,173	242,803	-0,188	-0,220
200,188	-129,299	-0,215	0,020
201,202	50,376	-0,280	-0,184
202,217	-17,774	-0,221	-0,096
203,232	221,293	-0,181	-0,202
204,246	800,000	-0,102	-0,288
205,261	75,157	-0,317	-0,232
206,275	238,087	-0,131	-0,152
207,290	36,496	-0,240	-0,147
208,304	235,736	-0,097	-0,111
209,319	23,620	-0,245	-0,140
210,334	-47,044	-0,156	-0,053
211,348	-29,080	-0,311	-0,123
212,363	297,007	-0,152	-0,194
213,377	238,979	-0,222	-0,256
214,392	538,171	-0,098	-0,162
215,407	585,831	-0,064	-0,110
216,421	-140,313	-0,163	0,012
217,436	23,291	-0,122	-0,069
218,450	93,707	-0,310	-0,244
219,465	216,115	-0,213	-0,235
220,480	800,000	-0,096	-0,293
221,494	-200,000	-0,072	-0,240
222,509	251,094	-0,209	-0,246
223,523	-75,886	-0,229	-0,056
224,538	-17,086	-0,149	-0,065
225,553	192,101	-0,181	-0,190
226,567	8,074	-0,274	-0,142
227,582	131,905	-0,108	-0,097
228,596	108,634	-0,145	-0,120
229,611	-78,149	-0,236	-0,056
230,626	-86,065	-0,221	-0,047
231,640	502,132	-0,153	-0,246
232,655	800,000	-0,036	-0,082
233,669	244,747	-0,179	-0,209
234,684	323,489	-0,140	-0,185
235,699	88,760	-0,295	-0,227
236,713	266,264	-0,224	-0,271
237,728	800,000	-0,062	-0,133
238,742	-200,000	0,001	-0,120
239,757	5,835	-0,180	-0,092
240,772	608,159	-0,054	-0,094
241,786	20,178	-0,214	-0,119
242,801	322,203	-0,190	-0,251
243,815	337,677	-0,133	-0,180
244,830	28,543	-0,153	-0,089
245,844	586,170	-0,143	-0,245
246,859	372,384	-0,134	-0,189
247,874	378,647	-0,237	-0,336
248,888	-49,376	-0,179	-0,059
249,903	-84,453	-0,135	-0,029
250,917	20,049	-0,203	-0,113
251,932	-43,076	-0,083	0,029
252,947	130,711	-0,111	-0,098
253,961	-2,979	-0,233	0,112
254,976	26,411	-0,209	-0,121
255,990	-23,554	-0,258	-0,106
257,005	-24,362	-0,170	-0,070
258,020	-72,768	-0,108	-0,027
259,034	247,229	-0,135	-0,158
260,049	532,076	-0,118	-0,194
261,063	439,068	-0,136	-0,206
262,078	209,161	-0,154	-0,167
263,093	364,043	-0,142	-0,199
264,107	-200,000	-0,078	-0,275
265,122	-177,424	-0,168	0,003
266,136	-200,000	-0,043	-0,133
267,151	-36,037	-0,111	-0,041
268,166	238,722	-0,169	-0,195
269,180	80,517	-0,218	-0,162
270,195	165,585	-0,251	-0,245
271,209	27,753	-0,128	-0,074
272,224	782,066	-0,100	-0,189
273,239	271,894	-0,132	-0,161
274,253	-7,792	-0,283	-0,131
275,268	105,512	-0,127	-0,103
276,282	683,111	-0,084	-0,151
277,297	-200,000	-0,019	-0,195
278,312	157,990	-0,189	-0,181
279,326	-151,394	-0,180	-0,009
280,341	8,766	-0,062	0,032
281,355	146,785	-0,042	0,039
282,370	352,481	-0,168	-0,230
283,384	-200,000	-0,034	-0,261
284,399	-5,869	-0,164	-0,077
285,414	43,992	-0,178	-0,112
286,428	217,950	-0,091	-0,101
287,443	-192,604	-0,118	0,001
288,457	263,052	-0,168	-0,202
289,472	165,168	-0,175	-0,170
290,487	179,894	-0,154	-0,156
291,501	-57,548	-0,080	0,024
292,516	-9,950	-0,279	-0,127
293,530	-200,000	0,008	-0,118
294,545	275,461	-0,134	-0,165
295,560	-31,223	-0,095	-0,037
296,574	75,036	-0,187	-0,135
297,589	-51,281	-0,090	-0,029
298,603	132,773	-0,182	-0,162
299,618	227,121	-0,200	-0,225
300,633	32,447	-0,176	-0,105
301,647	-44,220	-0,092	-0,031
302,662	43,017	-0,161	-0,101
303,676	140,851	-0,115	-0,104
304,691	427,226	-0,093	-0,139
305,706	350,048	-0,116	-0,158
306,720	136,497	-0,207	-0,186
307,735	800,000	-0,099	-0,192
308,749	18,444	-0,099	-0,054
309,764	-81,684	-0,206	-0,046
310,779	105,275	-0,142	-0,116
311,793	101,000	-0,161	-0,129
312,808	97,736	-0,209	-0,165
313,822	-72,657	-0,248	-0,062
314,837	-31,467	-0,203	-0,078
315,852	86,671	-0,132	-0,100
316,866	236,169	-0,078	-0,089
317,881	-19,344	-0,084	0,036
318,895	225,698	-0,160	-0,179
319,910	30,804	-0,124	-0,073
320,925	434,509	-0,156	-0,234
321,939	184,674	-0,119	-0,122
322,954	398,478	-0,052	-0,075
323,968	-200,000	0,005	-0,203
324,983	-12,265	-0,208	-0,093
325,997	70,718	-0,213	-0,152
327,012	91,661	-0,154	-0,119
328,027	800,000	-0,090	-0,179
329,041	800,000	-0,046	-0,125
330,056	-101,198	-0,200	0,033
331,070	43,161	-0,177	-0,111
332,085	800,000	-0,049	-0,106
333,100	38,371	-0,220	-0,135
334,114	55,580	-0,246	-0,163
335,129	139,316	-0,174	-0,157
336,143	69,967	-0,128	-0,090
337,158	136,130	-0,155	-0,139
338,173	800,000	-0,036	-0,075
339,187	-84,103	-0,202	-0,044
340,202	-85,844	-0,236	0,050
341,216	126,030	-0,082	-0,071
342,231	-141,438	-0,231	-0,016
343,246	87,852	-0,114	-0,086
344,260	-140,342	-0,156	0,011
345,275	-51,934	-0,093	0,029
346,289	789,065	0,014	-0,027
347,304	43,209	-0,225	-0,140
348,319	-185,527	-0,178	0,002
349,333	-110,396	-0,160	-0,023
350,348	4,898	-0,193	-0,097
351,362	-130,735	-0,156	-0,014
352,377	-200,000	-0,018	-0,083
353,392	-200,000	-0,028	-0,160
354,406	98,364	-0,077	-0,061
355,421	209,291	1315,667	1414,700
356,435	161,072	1476,503	1415,184
