DTS Sentinel unit serial number:	SN410029Multiplexer serial number:	ORYXHardware model number:	OX2-SRSoftware version number:	ORYX F/W v4,00 Oryx Data Collector v3.7.2.0data status	okinstallation	B3 Nyhavnadifferential loss correction	single-endedforward channel	channel 1reverse channel	N/Adate	2023/12/03time	12:32:30forward acquisition time	300,00reverse acquisition time	0,00gamma	499,1914k internal	0,3201k external	0,3201temperature offset calibration	1,0000default loss term (dB/km)	0,3820temperature slope calibration	1,0000multiplexer offset coefficient	1,0000multiplexer slope coefficient	1,0000fibre end	0,00T internal ref (°C)	14,12T ext. ref 1 (°C)	0,25T ext. ref 2 (°C)	0,23length (m)	temperature (°C)	Stokes	anti-Stokes-744,400	614,901	-0,203	-0,372
-743,385	-200,000	0,019	0,235
-742,371	-16,597	-0,145	-0,066
-741,356	-200,000	0,072	0,456
-740,342	-200,000	-0,046	-0,229
-739,327	800,000	-0,136	0,336
-738,312	384,945	-0,186	-0,279
-737,298	-200,000	0,008	0,351
-736,283	350,092	-0,179	-0,258
-735,269	-200,000	-0,077	0,337
-734,254	-200,000	-0,020	-0,168
-733,239	148,414	-0,211	0,207
-732,225	800,000	0,091	-0,234
-731,210	330,808	0,066	0,092
-730,196	-200,000	-0,002	-0,078
-729,181	-124,188	-0,123	-0,014
-728,167	-53,727	-0,171	-0,056
-727,152	-80,540	0,094	0,023
-726,137	-200,000	-0,004	0,070
-725,123	-70,227	-0,026	-0,007
-724,108	388,958	-0,067	-0,101
-723,094	-51,049	-0,095	-0,032
-722,079	-151,991	-0,100	-0,005
-721,064	-200,000	0,002	-0,070
-720,050	133,248	0,033	-0,031
-719,035	-200,000	-0,030	0,139
-718,021	84,016	0,065	-0,051
-717,006	438,133	-0,058	-0,093
-715,991	-200,000	-0,017	-0,076
-714,977	-87,816	-0,063	0,014
-713,962	800,000	-0,048	0,121
-712,948	-200,000	-0,005	-0,178
-711,933	-128,037	-0,161	-0,017
-710,918	-119,623	-0,080	0,010
-709,904	60,164	0,024	0,017
-708,889	78,854	-0,102	0,079
-707,875	-122,768	-0,189	0,022
-706,860	604,009	-0,033	0,060
-705,845	293,027	-0,052	-0,069
-704,831	-113,853	-0,123	0,017
-703,816	800,000	-0,029	-0,090
-702,802	-79,645	0,060	0,015
-701,787	310,607	-0,053	-0,072
-700,772	243,440	-0,026	0,032
-699,758	800,000	-0,045	-0,109
-698,743	-200,000	0,006	0,091
-697,729	43,581	0,046	0,030
-696,714	-75,489	0,175	-0,045
-695,699	800,000	0,022	0,059
-694,685	-164,031	0,044	-0,001
-693,670	-12,600	-0,115	-0,054
-692,656	130,506	-0,067	0,063
-691,641	25,596	0,042	0,025
-690,627	675,502	0,034	0,064
-689,612	31,343	0,080	0,050
-688,597	-4,252	-0,025	0,012
-687,583	-200,000	-0,011	-0,059
-686,568	120,286	-0,028	-0,025
-685,554	-11,009	-0,128	-0,061
-684,539	-116,833	-0,150	-0,020
-683,524	-161,468	0,065	0,002
-682,510	800,000	0,004	0,012
-681,495	800,000	0,035	0,092
-680,481	-89,996	0,042	0,009
-679,466	-200,000	-0,017	-0,057
-678,451	800,000	-0,027	-0,056
-677,437	-200,000	0,033	0,115
-676,422	-200,000	-0,004	0,025
-675,408	-200,000	-0,002	0,022
-674,393	-72,837	0,080	0,021
-673,378	-2,736	-0,076	-0,038
-672,364	-200,000	0,002	-0,049
-671,349	-40,964	-0,072	0,027
-670,335	-200,000	0,012	-0,047
-669,320	49,916	0,096	-0,066
-668,305	800,000	-0,024	0,065
-667,291	-32,818	0,074	0,030
-666,276	-97,793	-0,103	0,019
-665,262	39,631	0,030	0,020
-664,247	318,680	-0,035	0,048
-663,232	-200,000	0,040	0,174
-662,218	175,426	0,097	0,102
-661,203	-42,097	0,051	0,019
-660,189	58,668	-0,041	0,029
-659,174	-200,000	0,029	-0,138
-658,159	800,000	0,027	0,056
-657,145	142,079	-0,165	-0,159
-656,130	-19,144	-0,134	-0,060
-655,116	195,572	0,045	0,050
-654,101	-96,688	0,057	0,011
-653,086	-200,000	0,021	-0,085
-652,072	-200,000	0,019	-0,148
-651,057	-60,734	-0,079	-0,024
-650,043	-200,000	0,023	0,075
-649,028	79,950	0,001	0,001
-648,014	101,060	0,109	0,092
-646,999	45,552	0,017	-0,011
-645,984	220,147	-0,049	-0,057
-644,970	258,233	-0,060	-0,075
-643,955	-148,444	0,047	0,003
-642,941	227,470	0,032	-0,038
-641,926	507,970	0,023	0,039
-640,911	735,979	0,008	-0,015
-639,897	389,734	0,019	0,029
-638,882	12,303	-0,077	0,043
-637,868	-200,000	0,001	-0,100
-636,853	800,000	-0,045	-0,094
-635,838	40,352	-0,095	0,062
-634,824	-54,783	-0,066	-0,021
-633,809	-31,461	0,033	0,013
-632,795	-200,000	-0,033	0,111
-631,780	113,028	0,112	0,098
-630,765	-99,901	0,036	0,006
-629,751	-44,405	0,071	0,026
-628,736	56,968	0,093	-0,066
-627,722	41,481	-0,060	-0,040
-626,707	-200,000	-0,012	-0,115
-625,692	-200,000	0,005	0,076
-624,678	233,202	0,066	0,078
-623,663	45,523	0,044	0,030
-622,649	-200,000	-0,020	-0,155
-621,634	344,414	0,057	-0,082
-620,619	543,761	-0,093	-0,162
-619,605	7,903	-0,170	0,092
-618,590	20,484	0,104	0,061
-617,576	312,936	0,051	0,070
-616,561	156,929	0,029	-0,029
-615,546	-171,462	-0,093	-0,002
-614,532	-200,000	-0,018	-0,115
-613,517	-157,729	0,083	-0,003
-612,503	-141,375	-0,058	0,004
-611,488	-26,281	0,051	0,022
-610,474	-110,124	0,129	-0,019
-609,459	-99,863	0,076	-0,014
-608,444	-67,319	-0,084	0,024
-607,430	20,489	0,070	-0,041
-606,415	-129,988	-0,160	-0,016
-605,401	-200,000	0,019	-0,103
-604,386	16,637	0,124	-0,071
-603,371	-86,586	-0,083	-0,018
-602,357	-76,761	-0,057	-0,014
-601,342	-25,014	-0,072	0,031
-600,328	23,783	-0,045	-0,027
-599,313	-200,000	-0,048	-0,167
-598,298	-200,000	-0,124	0,000
-597,284	-103,635	-0,122	-0,021
-596,269	-194,594	-0,138	-0,001
-595,255	190,398	-0,061	0,066
-594,240	249,867	-0,035	0,043
-593,225	-114,301	0,011	0,001
-592,211	-200,000	0,019	-0,066
-591,196	800,000	0,064	-0,144
-590,182	496,091	0,071	-0,118
-589,167	-200,000	-0,014	0,074
-588,152	210,312	0,103	0,117
-587,138	-164,155	-0,118	0,004
-586,123	217,933	-0,072	-0,083
-585,109	-200,000	-0,003	-0,123
-584,094	112,165	-0,055	-0,048
-583,079	-111,236	0,062	0,009
-582,065	304,711	-0,051	0,068
-581,050	-168,225	0,109	0,003
-580,036	-100,353	-0,130	0,023
-579,021	-122,788	0,084	0,010
-578,006	-15,057	0,047	-0,022
-576,992	98,999	-0,108	-0,090
-575,977	58,874	-0,076	0,054
-574,963	-200,000	0,002	0,058
-573,948	-60,730	0,042	-0,013
-572,934	-104,965	-0,095	0,016
-571,919	800,000	0,007	0,018
-570,904	-200,000	-0,024	-0,133
-569,890	191,469	0,063	0,069
-568,875	-151,036	0,160	-0,009
-567,861	-200,000	-0,026	0,105
-566,846	438,669	0,058	0,092
-565,831	800,000	-0,068	0,141
-564,817	1,228	-0,135	-0,070
-563,802	-6,482	-0,019	0,009
-562,788	-200,000	-0,002	-0,068
-561,773	-78,836	0,119	0,029
-560,758	-200,000	-0,010	0,073
-559,744	353,013	-0,004	-0,006
-558,729	-6,720	0,025	0,012
-557,715	261,391	-0,056	0,070
-556,700	-200,000	-0,015	-0,080
-555,685	-200,000	-0,003	-0,057
-554,671	-200,000	0,004	-0,071
-553,656	-22,264	-0,105	0,046
-552,642	216,924	0,100	0,115
-551,627	800,000	-0,038	0,090
-550,612	800,000	-0,018	0,043
-549,598	-101,246	-0,122	0,021
-548,583	-137,312	-0,031	-0,003
-547,569	95,553	-0,115	-0,095
-546,554	-200,000	0,001	-0,028
-545,539	164,270	0,062	-0,063
-544,525	-200,000	0,004	-0,109
-543,510	-193,998	-0,073	0,000
-542,496	-200,000	0,027	0,000
-541,481	-200,000	-0,001	0,060
-540,466	-34,137	0,072	0,028
-539,452	-200,000	-0,007	0,101
-538,437	-200,000	0,018	0,070
-537,423	-188,943	0,088	0,001
-536,408	286,907	-0,023	-0,030
-535,393	-200,000	-0,049	-0,235
-534,379	525,234	-0,034	-0,058
-533,364	-200,000	0,007	-0,062
-532,350	-200,000	-0,001	0,086
-531,335	-200,000	-0,006	0,163
-530,321	328,327	-0,025	0,034
-529,306	-100,810	0,025	0,004
-528,291	26,241	-0,113	-0,068
-527,277	216,178	-0,135	-0,155
-526,262	-59,569	0,143	-0,044
-525,248	-4,444	-0,109	0,054
-524,233	-99,136	-0,029	-0,005
-523,218	103,259	-0,037	0,031
-522,204	53,497	-0,093	-0,064
-521,189	770,977	0,023	-0,045
-520,175	299,760	0,089	0,119
-519,160	798,823	0,030	-0,061
-518,145	300,015	-0,080	-0,107
-517,131	800,000	0,028	0,067
-516,116	366,344	-0,050	0,073
-515,102	375,031	0,054	0,080
-514,087	-200,000	0,010	0,064
-513,072	-195,982	-0,198	-0,001
-512,058	739,168	0,065	-0,126
-511,043	32,763	0,028	0,018
-510,029	-134,362	-0,066	0,006
-509,014	200,704	-0,027	0,030
-507,999	-200,000	0,050	0,197
-506,985	-32,864	0,017	-0,007
-505,970	-200,000	-0,005	0,017
-504,956	35,863	-0,077	-0,049
-503,941	98,962	0,064	0,053
-502,926	-200,000	0,011	0,141
-501,912	800,000	0,067	0,175
-500,897	-200,000	0,002	-0,021
-499,883	-26,027	-0,039	0,016
-498,868	-200,000	0,003	-0,101
-497,853	800,000	-0,057	-0,150
-496,839	-126,074	-0,072	0,008
-495,824	45,404	0,061	0,041
-494,810	34,659	0,080	0,050
-493,795	199,828	-0,054	-0,060
-492,781	36,327	0,067	-0,043
-491,766	-0,856	0,074	-0,038
-490,751	-200,000	0,036	0,131
-489,737	329,406	-0,014	-0,019
-488,722	-68,853	0,109	-0,030
-487,708	229,076	-0,108	0,127
-486,693	202,069	0,077	0,086
-485,678	800,000	0,037	0,103
-484,664	2,039	0,107	0,055
-483,649	17,729	-0,140	-0,080
-482,635	276,390	0,028	-0,037
-481,620	-111,950	-0,142	0,020
-480,605	-200,000	0,030	0,126
-479,591	800,000	0,031	0,088
-478,576	-137,052	0,012	-0,001
-477,562	80,746	-0,017	0,013
-476,547	-200,000	-0,034	0,116
-475,532	515,231	0,071	0,120
-474,518	800,000	0,046	0,140
-473,503	247,520	0,081	0,099
-472,489	-200,000	0,013	-0,091
-471,474	-41,863	0,063	0,023
-470,459	767,950	-0,018	-0,035
-469,445	-58,207	-0,056	-0,017
-468,430	389,742	-0,038	-0,056
-467,416	800,000	0,080	0,165
-466,401	-45,426	-0,147	-0,052
-465,386	-78,913	-0,085	-0,021
-464,372	8,313	-0,118	0,064
-463,357	-200,000	-0,007	-0,077
-462,343	479,144	0,049	-0,080
-461,328	-144,174	-0,077	-0,005
-460,313	-38,739	-0,066	-0,025
-459,299	-10,779	0,138	0,065
-458,284	175,767	-0,094	-0,098
-457,270	261,625	0,054	0,067
-456,255	485,103	-0,087	0,143
-455,241	-165,059	-0,064	0,002
-454,226	-87,618	-0,076	0,016
-453,211	-21,753	-0,081	0,035
-452,197	-18,040	-0,016	-0,007
-451,182	-49,579	0,136	0,046
-450,168	-200,000	0,001	0,069
-449,153	800,000	-0,045	-0,116
-448,138	-200,000	0,080	-0,273
-447,124	-98,549	-0,129	0,024
-446,109	41,744	0,116	-0,075
-445,095	-200,000	0,004	-0,095
-444,080	119,391	-0,042	-0,038
-443,065	800,000	-0,055	-0,116
-442,051	-50,990	0,056	-0,019
-441,036	-200,000	0,012	0,085
-440,022	0,163	-0,059	-0,030
-439,007	18,359	0,072	0,041
-437,992	800,000	-0,005	-0,015
-436,978	-200,000	-0,017	0,101
-435,963	31,383	0,136	-0,084
-434,949	-200,000	0,022	-0,128
-433,934	402,264	-0,043	0,065
-432,919	-33,369	-0,108	0,043
-431,905	-47,432	-0,052	0,018
-430,890	59,256	0,127	0,090
-429,876	800,000	-0,042	-0,102
-428,861	104,593	0,075	0,064
-427,846	-87,547	0,066	0,014
-426,832	800,000	-0,026	0,059
-425,817	52,726	-0,056	0,038
-424,803	-57,193	0,135	0,042
-423,788	126,801	0,078	0,071
-422,773	202,430	0,076	0,084
-421,759	797,835	-0,038	0,076
-420,744	-14,858	-0,022	0,010
-419,730	9,341	0,151	0,082
-418,715	124,592	0,036	0,033
-417,701	60,055	0,021	0,015
-416,686	627,893	-0,043	-0,078
-415,671	65,359	0,077	0,056
-414,657	202,082	0,053	-0,059
-413,642	-7,847	0,047	0,023
-412,628	-69,748	-0,037	-0,010
-411,613	246,794	0,044	-0,053
-410,598	-106,241	-0,056	-0,009
-409,584	-180,176	-0,080	0,001
-408,569	188,974	-0,017	0,018
-407,555	-200,000	0,014	-0,093
-406,540	-200,000	0,017	0,054
-405,525	733,358	0,050	-0,097
-404,511	528,386	-0,043	-0,073
-403,496	800,000	-0,043	-0,119
-402,482	-12,981	0,041	0,019
-401,467	-200,000	-0,001	0,112
-400,452	345,836	0,030	0,042
-399,438	-131,996	0,069	0,006
-398,423	-155,977	-0,056	-0,003
-397,409	417,918	-0,045	-0,070
-396,394	80,851	0,080	-0,062
-395,379	18,712	0,105	-0,060
-394,365	-200,000	-0,016	-0,081
-393,350	-200,000	0,017	0,075
-392,336	58,349	-0,082	-0,058
-391,321	79,386	0,082	-0,063
-390,306	-200,000	0,021	-0,085
-389,292	800,000	0,027	-0,063
-388,277	-200,000	-0,044	-0,225
-387,263	72,700	0,064	-0,048
-386,248	-200,000	0,008	0,089
-385,233	800,000	-0,069	0,163
-384,219	135,935	-0,047	0,044
-383,204	-97,187	-0,066	-0,012
-382,190	-81,416	0,089	-0,021
-381,175	35,586	0,082	-0,051
-380,160	-33,904	0,069	-0,027
-379,146	-35,059	-0,045	0,017
-378,131	-200,000	0,018	-0,085
-377,117	-200,000	-0,001	0,113
-376,102	106,261	-0,165	-0,140
-375,088	-200,000	0,017	-0,063
-374,073	-32,845	-0,045	-0,018
-373,058	374,339	-0,081	0,119
-372,044	-113,087	0,077	0,011
-371,029	-28,007	0,043	-0,018
-370,015	-78,151	0,119	0,029
-369,000	-105,336	-0,064	-0,010
-367,985	118,793	-0,176	-0,156
-366,971	-200,000	0,014	-0,049
-365,956	-15,244	-0,057	-0,026
-364,942	477,268	-0,029	-0,047
-363,927	674,503	0,009	0,016
-362,912	-104,611	0,086	-0,014
-361,898	135,076	-0,098	0,092
-360,883	12,071	-0,057	0,031
-359,869	-200,000	0,011	0,044
-358,854	-200,000	0,011	0,059
-357,839	-200,000	0,006	0,136
-356,825	451,290	-0,052	-0,083
-355,810	282,973	-0,056	-0,072
-354,796	-146,598	0,047	0,003
-353,781	-200,000	-0,016	-0,088
-352,766	-175,481	-0,034	-0,001
-351,752	-12,272	-0,056	-0,026
-350,737	-61,010	0,095	0,029
-349,723	129,382	0,128	0,117
-348,708	110,126	-0,047	0,041
-347,693	-200,000	0,008	-0,054
-346,679	-200,000	0,002	0,035
-345,664	-200,000	-0,003	-0,057
-344,650	254,109	-0,120	-0,147
-343,635	-104,950	0,058	0,009
-342,620	-66,114	-0,089	0,025
-341,606	-200,000	0,024	-0,119
-340,591	-200,000	0,009	0,118
-339,577	-35,927	0,043	0,016
-338,562	-103,113	-0,142	-0,024
-337,548	1,440	0,095	0,049
-336,533	-9,548	-0,128	0,061
-335,518	131,215	0,149	0,137
-334,504	-173,904	-0,026	-0,001
-333,489	797,020	-0,077	-0,153
-332,475	-145,263	-0,095	0,006
-331,460	-200,000	0,002	-0,113
-330,445	-6,609	0,040	-0,019
-329,431	131,495	0,113	0,104
-328,416	531,793	0,045	0,076
-327,402	18,043	0,146	0,083
-326,387	-67,287	-0,048	0,013
-325,372	800,000	0,023	0,060
-324,358	-200,000	0,011	0,046
-323,343	-129,238	-0,183	-0,018
-322,329	-90,344	0,099	0,020
-321,314	-44,202	0,046	0,016
-320,299	-149,526	0,122	0,007
-319,285	92,196	-0,044	0,035
-318,270	330,207	-0,065	0,090
-317,256	718,649	-0,094	-0,179
-316,241	22,396	-0,068	-0,040
-315,226	45,661	-0,042	0,028
-314,212	347,415	0,112	0,158
-313,197	-157,221	0,026	-0,001
-312,183	-200,000	0,021	0,112
-311,168	-102,531	-0,244	-0,041
-310,153	319,657	0,085	0,115
-309,139	-200,000	0,016	0,098
-308,124	-200,000	-0,019	0,102
-307,110	58,886	0,111	0,078
-306,095	-200,000	-0,015	-0,114
-305,080	117,040	0,208	-0,183
-304,066	-200,000	0,005	-0,093
-303,051	-200,000	-0,007	-0,138
-302,037	800,000	0,036	-0,076
-301,022	36,024	-0,116	0,073
-300,008	-74,627	-0,020	-0,005
-298,993	800,000	-0,008	0,024
-297,978	37,480	-0,023	0,015
-296,964	800,000	-0,038	-0,081
-295,949	800,000	0,085	-0,169
-294,935	-200,000	0,013	-0,071
-293,920	636,300	-0,033	-0,059
-292,905	-61,201	0,129	-0,039
-291,891	-15,068	0,077	-0,035
-290,876	-200,000	-0,008	0,094
-289,862	800,000	-0,032	0,074
-288,847	-200,000	0,015	-0,113
-287,832	44,492	0,033	-0,021
-286,818	519,275	0,050	0,084
-285,803	800,000	0,028	-0,085
-284,789	568,107	0,077	-0,134
-283,774	86,241	0,036	-0,029
-282,759	-200,000	-0,017	-0,142
-281,745	259,086	-0,072	-0,089
-280,730	-153,241	-0,128	-0,006
-279,716	-165,472	0,187	0,006
-278,701	800,000	-0,017	0,050
-277,686	800,000	0,033	0,079
-276,672	96,839	0,067	0,055
-275,657	118,314	-0,054	-0,047
-274,643	548,642	-0,003	-0,005
-273,628	-200,000	-0,005	0,039
-272,613	-72,355	0,062	0,016
-271,599	-160,864	0,114	0,004
-270,584	-115,351	0,153	-0,020
-269,570	54,840	0,056	0,038
-268,555	-200,000	0,002	-0,067
-267,540	383,042	-0,064	-0,094
-266,526	-200,000	0,013	-0,121
-265,511	17,174	0,068	0,039
-264,497	-200,000	0,008	-0,187
-263,482	-112,888	0,106	-0,015
-262,467	-200,000	-0,002	0,085
-261,453	-200,000	-0,013	0,044
-260,438	-200,000	-0,008	0,028
-259,424	-141,129	-0,107	-0,008
-258,409	800,000	-0,025	-0,055
-257,395	632,917	0,051	-0,092
-256,380	-123,137	0,125	-0,014
-255,365	800,000	-0,020	0,057
-254,351	800,000	-0,056	0,141
-253,336	8,421	0,048	0,026
-252,322	425,063	0,039	-0,060
-251,307	-31,147	-0,108	0,043
-250,292	-68,724	0,052	0,014
-249,278	800,000	0,060	0,123
-248,263	-200,000	-0,016	0,183
-247,249	78,729	-0,066	-0,051
-246,234	-200,000	0,039	-0,123
-245,219	227,210	-0,042	-0,049
-244,205	318,744	0,031	0,042
-243,190	800,000	-0,036	0,078
-242,176	309,567	0,075	0,100
-241,161	-66,789	0,063	-0,018
-240,146	202,374	-0,008	0,009
-239,132	267,409	-0,073	0,091
-238,117	422,332	-0,093	0,143
-237,103	293,734	0,061	-0,080
-236,088	179,262	0,040	-0,041
-235,073	217,167	0,073	0,083
-234,059	214,320	0,124	0,140
-233,044	-200,000	0,012	0,069
-232,030	-200,000	0,001	0,120
-231,015	-135,492	0,062	-0,005
-230,000	-18,295	-0,126	0,056
-228,986	310,578	0,062	0,083
-227,971	156,325	-0,018	-0,018
-226,957	800,000	0,041	-0,099
-225,942	31,853	-0,144	-0,088
-224,927	58,841	0,104	0,073
-223,913	-122,407	-0,063	-0,007
-222,898	800,000	0,020	-0,057
-221,884	-132,962	0,019	0,002
-220,869	70,451	-0,078	-0,058
-219,855	-200,000	-0,000	-0,040
-218,840	-200,000	0,009	-0,090
-217,825	-200,000	0,018	-0,097
-216,811	187,501	-0,130	-0,139
-215,796	-169,960	-0,085	0,002
-214,782	102,412	0,035	0,029
-213,767	-200,000	0,002	0,113
-212,752	56,450	0,091	-0,063
-211,738	800,000	0,016	0,044
-210,723	800,000	0,056	0,116
-209,709	171,605	-0,102	-0,104
-208,694	56,970	0,044	0,030
-207,679	22,707	-0,124	-0,072
-206,665	-200,000	0,008	0,062
-205,650	-200,000	-0,007	0,063
-204,636	-5,061	-0,071	-0,035
-203,621	268,044	0,049	-0,061
-202,606	132,671	-0,039	-0,036
-201,592	-200,000	-0,009	-0,084
-200,577	-200,000	0,006	0,082
-199,563	-20,341	-0,015	-0,006
-198,548	379,095	0,024	0,035
-197,533	-44,131	-0,055	0,020
-196,519	406,525	0,043	0,065
-195,504	302,191	-0,095	-0,125
-194,490	645,583	0,066	-0,120
-193,475	800,000	0,036	0,101
-192,460	36,034	-0,073	-0,045
-191,446	-200,000	-0,004	0,109
-190,431	800,000	0,028	0,073
-189,417	88,812	-0,059	0,047
-188,402	10,139	0,060	0,033
-187,387	-200,000	-0,004	0,100
-186,373	-56,405	0,069	0,022
-185,358	-200,000	-0,007	-0,025
-184,344	65,952	-0,056	-0,041
-183,329	336,851	-0,052	0,073
-182,315	-200,000	-0,008	0,051
-181,300	-200,000	-0,005	0,060
-180,285	-200,000	0,020	-0,110
-179,271	-136,293	-0,132	-0,011
-178,256	-200,000	-0,013	-0,042
-177,242	-166,134	-0,086	0,003
-176,227	10,589	0,124	-0,067
-175,212	89,782	0,094	0,075
-174,198	-200,000	-0,008	0,060
-173,183	-48,298	-0,116	-0,040
-172,169	-200,000	0,050	-0,168
-171,154	-200,000	-0,004	-0,048
-170,139	4,414	0,117	0,061
-169,125	-200,000	-0,011	-0,080
-168,110	-3,180	-0,113	-0,056
-167,096	-95,985	0,102	-0,019
-166,081	-200,000	0,024	0,081
-165,066	-89,284	-0,053	0,011
-164,052	-200,000	0,016	-0,061
-163,037	178,201	0,065	-0,067
-162,023	800,000	-0,029	0,072
-161,008	-200,000	-0,002	0,079
-159,993	-100,903	0,129	0,022
-158,979	-200,000	0,016	-0,073
-157,964	-67,033	-0,100	0,028
-156,950	800,000	0,049	-0,133
-155,935	800,000	-0,034	0,072
-154,920	-200,000	0,039	0,141
-153,906	800,000	0,015	0,046
-152,891	-200,000	0,012	0,124
-151,877	-200,000	0,020	0,101
-150,862	87,435	0,019	-0,015
-149,847	-200,000	0,014	0,061
-148,833	35,492	-0,055	0,034
-147,818	800,000	0,057	0,152
-146,804	-200,000	0,001	0,248
-145,789	284,178	-0,109	-0,140
-144,775	367,434	-0,050	0,072
-143,760	55,022	-0,091	0,062
-142,745	186,916	-0,150	-0,159
-141,731	-200,000	0,019	-0,138
-140,716	121,229	-0,050	-0,044
-139,702	394,222	0,040	0,060
-138,687	386,428	0,031	-0,046
-137,672	429,467	-0,027	-0,041
-136,658	142,431	0,013	-0,012
-135,643	-17,027	0,068	0,030
-134,629	382,137	0,007	0,010
-133,614	-200,000	0,018	-0,113
-132,599	-62,278	0,074	0,022
-131,585	-154,555	-0,049	0,002
-130,570	-61,975	0,063	-0,019
-129,556	800,000	0,058	-0,121
-128,541	-200,000	-0,013	-0,130
-127,526	39,071	0,062	-0,039
-126,512	-200,000	0,028	0,167
-125,497	527,105	-0,012	0,021
-124,483	-200,000	-0,029	0,093
-123,468	94,795	0,115	-0,093
-122,453	-10,002	-0,146	-0,069
-121,439	-64,786	-0,096	0,027
-120,424	-200,000	-0,003	-0,021
-119,410	45,989	0,062	0,041
-118,395	-200,000	-0,001	0,043
-117,380	-200,000	0,013	0,254
-116,366	-76,412	-0,067	0,016
-115,351	-200,000	-0,017	0,068
-114,337	150,744	-0,103	0,100
-113,322	-103,746	0,094	0,016
-112,307	-124,009	-0,109	-0,012
-111,293	800,000	-0,008	0,017
-110,278	-200,000	-0,003	0,081
-109,264	-200,000	-0,057	0,215
-108,249	-200,000	0,031	-0,222
-107,234	43,927	0,047	-0,031
-106,220	-9,401	-0,042	0,020
-105,205	17,870	0,199	0,112
-104,191	637,316	-0,041	0,074
-103,176	162,005	0,057	0,056
-102,162	-200,000	-0,012	-0,077
-101,147	-88,737	-0,180	0,038
-100,132	228,572	-0,054	0,062
-99,118	-60,217	-0,047	0,014
-98,103	800,000	0,034	0,073
-97,089	-137,401	0,104	0,008
-96,074	63,794	0,045	0,032
-95,059	-200,000	0,004	0,060
-94,045	76,614	0,069	0,052
-93,030	47,689	-0,046	0,030
-92,016	0,516	-0,121	-0,061
-91,001	-66,946	-0,049	-0,014
-89,986	800,000	0,024	0,051
-88,972	5,610	-0,137	0,072
-87,957	243,459	0,087	0,103
-86,943	-200,000	-0,011	0,062
-85,928	-200,000	0,007	-0,040
-84,913	-200,000	0,005	-0,129
-83,899	800,000	0,069	-0,138
-82,884	-200,000	0,017	-0,056
-81,870	123,573	0,057	0,051
-80,855	-200,000	0,012	0,090
-79,840	-124,037	0,103	0,011
-78,826	-200,000	0,001	0,188
-77,811	-11,283	-0,048	-0,023
-76,797	800,000	0,035	0,074
-75,782	331,589	-0,050	0,069
-74,767	-126,163	-0,164	0,017
-73,753	-200,000	-0,027	0,084
-72,738	800,000	0,027	-0,062
-71,724	-200,000	-0,008	-0,044
-70,709	-200,000	0,015	-0,121
-69,694	189,386	-0,030	0,032
-68,680	800,000	-0,026	-0,074
-67,665	-172,350	0,148	-0,003
-66,651	226,397	0,060	0,069
-65,636	-57,244	0,037	0,011
-64,622	-200,000	-0,007	-0,105
-63,607	-122,934	-0,054	-0,006
-62,592	800,000	-0,012	-0,026
-61,578	-200,000	-0,012	-0,046
-60,563	-117,871	-0,096	0,012
-59,549	-82,781	0,102	0,023
-58,534	-35,911	-1,518	-0,579
-57,519	370,359	-1,429	-2,057
-56,505	-200,000	-0,454	-4,405
-55,490	313,415	0,911	1,216
-54,476	800,000	4,747	10,971
-53,461	-200,000	18,597	300,992
-52,446	800,000	734,307	2275,908
-51,432	563,894	1650,119	2841,096
-50,417	78,740	1667,983	1261,991
-49,403	22,110	1540,923	888,108
-48,388	16,006	1463,913	814,107
-47,373	17,718	1453,891	816,760
-46,359	16,882	1444,142	807,245
-45,344	14,249	1439,591	792,083
-44,330	14,212	1437,577	790,764
-43,315	14,193	1435,835	789,685
-42,300	14,181	1434,239	788,717
-41,286	14,225	1433,213	788,332
-40,271	14,201	1431,745	787,381
-39,257	14,171	1430,595	786,572
-38,242	14,251	1429,127	786,115
-37,227	14,240	1428,013	785,419
-36,213	14,255	1426,621	784,694
-35,198	14,230	1425,560	783,960
-34,184	14,269	1424,663	783,622
-33,169	14,181	1423,273	782,407
-32,154	14,226	1422,218	782,009
-31,140	14,250	1420,804	781,316
-30,125	14,299	1419,714	780,918
-29,111	14,262	1418,540	780,067
-28,096	14,219	1417,684	779,360
-27,082	14,140	1416,549	778,332
-26,067	14,149	1415,651	777,850
-25,052	14,140	1414,395	777,087
-24,038	14,118	1413,494	776,458
-23,023	14,139	1412,640	776,057
-22,009	14,144	1411,477	775,413
-20,994	14,121	1410,736	774,865
-19,979	14,089	1409,668	774,100
-18,965	14,059	1408,742	773,421
-17,950	14,062	1407,674	772,816
-16,936	14,072	1407,005	772,465
-15,921	14,042	1405,749	771,604
-14,906	14,049	1404,758	771,061
-13,892	14,061	1403,928	770,630
-12,877	14,059	1403,047	770,108
-11,863	14,088	1401,984	769,630
-10,848	14,059	1401,213	769,039
-9,833	14,044	1400,435	768,514
-8,819	14,008	1399,527	767,820
-7,804	13,987	1398,700	767,237
-6,790	13,958	1397,664	766,505
-5,775	13,959	1396,431	765,800
-4,760	13,971	1395,726	765,437
-3,746	13,954	1394,836	764,844
-2,731	13,952	1393,901	764,288
-1,717	13,907	1393,118	763,623
-0,702	13,936	1391,313	762,735
0,313	17,914	1309,717	736,384
1,327	34,456	705,747	435,102
2,342	53,177	124,164	84,010
3,356	5,620	16,640	8,672
4,371	-4,436	3,195	1,557
5,386	-20,404	0,482	0,209
6,400	-200,000	0,059	0,212
7,415	35,516	-0,259	-0,161
8,429	83,629	-0,262	-0,202
9,444	-4,354	-0,378	-0,184
10,459	75,199	-0,171	-0,128
11,473	-83,003	-0,253	-0,057
12,488	-36,584	-0,354	-0,134
13,502	-70,934	-0,365	-0,097
14,517	-100,888	-0,286	-0,049
15,531	1,013	-0,462	-0,234
16,546	79,381	-0,405	-0,307
17,561	141,738	-0,325	-0,304
18,575	19,928	-0,198	-0,113
19,590	488,521	-0,173	-0,280
20,604	175,512	-0,187	-0,192
21,619	-3,752	-0,457	-0,223
22,634	28,419	-0,427	-0,255
23,648	69,948	-0,420	-0,306
24,663	16,816	-0,370	-0,206
25,677	-21,540	-0,420	-0,180
26,692	-5,529	-0,350	-0,169
27,707	154,259	-0,313	-0,304
28,721	-69,701	-0,385	-0,103
29,736	14,112	-0,366	-0,200
30,750	9,868	-0,559	-0,299
31,765	137,156	-0,412	-0,380
32,780	57,843	-0,416	-0,287
33,794	191,602	-0,289	-0,307
34,809	129,333	-0,311	-0,280
35,823	108,553	-0,328	-0,276
36,838	23,598	-0,445	-0,258
37,853	14,682	-0,482	-0,265
38,867	-36,259	-0,439	-0,166
39,882	105,453	-0,311	-0,259
40,896	192,677	-0,325	-0,346
41,911	55,575	-0,323	-0,220
42,926	22,625	-0,375	-0,216
43,940	137,329	-0,335	-0,309
44,955	108,562	-0,320	-0,269
45,969	63,827	-0,379	-0,268
46,984	166,270	-0,346	-0,346
47,999	-44,739	-0,446	-0,156
49,013	81,443	-0,307	-0,233
50,028	-10,323	-0,340	-0,158
51,042	58,516	-0,318	-0,220
52,057	70,457	-0,409	-0,298
53,071	31,831	-0,329	-0,199
54,086	-51,287	-0,473	-0,155
55,101	-55,552	-0,293	-0,092
56,115	-1,838	-0,357	-0,177
57,130	114,801	-0,258	-0,221
58,144	-1,278	-0,284	-0,141
59,159	116,787	-0,408	-0,353
60,174	31,790	-0,479	-0,289
61,188	108,456	-0,306	-0,257
62,203	180,686	-0,204	-0,211
63,217	-63,507	-0,341	-0,098
64,232	33,793	-0,402	-0,245
65,247	98,054	-0,300	-0,243
66,261	2,752	-0,375	-0,191
67,276	67,235	-0,377	-0,270
68,290	167,191	-0,308	-0,308
69,305	171,386	-0,242	-0,244
70,320	89,329	-0,162	-0,127
71,334	2,980	-0,321	-0,163
72,349	-70,742	-0,452	-0,119
73,363	145,957	-0,463	-0,437
74,378	109,725	-0,383	-0,323
75,393	102,119	-0,255	-0,209
76,407	98,684	-0,332	-0,269
77,422	101,794	-0,274	-0,225
78,436	116,663	-0,156	-0,134
79,451	118,013	-0,235	-0,203
80,466	89,932	-0,326	-0,255
81,480	-6,672	-0,296	-0,141
82,495	88,658	-0,323	-0,252
83,509	169,081	-0,219	-0,220
84,524	553,975	-0,156	-0,265
85,539	116,758	-0,299	-0,258
86,553	45,336	-0,308	-0,199
87,568	151,987	-0,314	-0,300
88,582	329,807	-0,123	-0,167
89,597	-66,072	-0,277	-0,077
90,611	-9,947	-0,226	-0,105
91,626	5,916	-0,281	-0,146
92,641	-119,168	-0,299	-0,036
93,655	94,688	-0,269	-0,215
94,670	552,311	-0,168	-0,284
95,684	81,764	-0,247	-0,188
96,699	102,678	-0,307	-0,252
97,714	42,066	-0,345	-0,219
98,728	310,281	-0,158	-0,209
99,743	88,824	-0,270	-0,211
100,757	112,819	-0,307	-0,261
101,772	25,682	-0,265	-0,154
102,787	72,577	-0,320	-0,234
103,801	153,495	-0,263	-0,252
104,816	800,000	-0,121	-0,309
105,830	43,471	-0,276	-0,177
106,845	-40,369	-0,199	-0,072
107,860	138,649	-0,160	-0,147
108,874	51,279	-0,288	-0,191
109,889	86,393	-0,268	-0,207
110,903	641,424	-0,217	-0,389
111,918	628,534	-0,187	-0,333
112,933	599,708	-0,134	-0,235
113,947	27,135	-0,155	-0,091
114,962	99,991	-0,229	-0,186
115,976	8,830	-0,251	-0,132
116,991	-59,531	-0,258	-0,077
118,006	41,518	-0,276	-0,175
119,020	41,249	-0,216	-0,136
120,035	2,495	-0,224	-0,113
121,049	11,408	-0,264	-0,141
122,064	226,790	-0,280	-0,319
123,079	-57,803	-0,333	-0,101
124,093	238,213	-0,196	-0,228
125,108	11,145	-0,245	-0,131
126,122	187,775	-0,138	-0,144
127,137	126,153	-0,177	-0,157
128,151	325,367	-0,100	-0,134
129,166	-175,489	-0,309	-0,006
130,181	45,198	-0,338	-0,218
131,195	152,821	-0,266	-0,255
132,210	267,071	-0,132	-0,162
133,224	150,814	-0,188	-0,179
134,239	54,177	-0,268	-0,180
135,254	192,653	-0,160	-0,170
136,268	74,115	-0,110	-0,081
137,283	115,137	-0,286	-0,244
138,297	709,072	-0,203	-0,378
139,312	54,500	-0,355	-0,238
140,327	-96,410	-0,237	-0,043
141,341	283,868	-0,175	-0,220
142,356	-103,472	-0,237	-0,039
143,370	42,520	-0,315	-0,200
144,385	-46,418	-0,238	-0,081
145,400	30,717	-0,237	-0,142
146,414	128,830	-0,284	-0,253
147,429	108,216	-0,259	-0,216
148,443	-110,176	-0,214	-0,031
149,458	-133,093	-0,169	-0,015
150,473	51,839	-0,220	-0,146
151,487	49,259	-0,234	-0,154
152,502	89,722	-0,200	-0,156
153,516	176,236	-0,179	-0,181
154,531	57,528	-0,210	-0,143
155,546	214,734	-0,214	-0,237
156,560	28,010	-0,249	-0,146
157,575	-31,958	-0,230	-0,089
158,589	-192,895	-0,245	0,002
159,604	-19,418	-0,271	-0,117
160,619	97,742	-0,150	-0,120
161,633	-14,199	-0,344	-0,154
162,648	123,545	-0,245	-0,215
163,662	102,661	-0,144	-0,118
164,677	79,401	-0,173	-0,129
165,692	-15,488	-0,219	-0,097
166,706	53,511	-0,277	-0,185
167,721	111,357	-0,285	-0,240
168,735	225,654	-0,278	-0,314
169,750	800,000	-0,099	-0,216
170,764	116,271	-0,140	-0,120
171,779	23,971	-0,246	-0,141
172,794	4,566	-0,281	-0,144
173,808	42,523	-0,211	-0,134
174,823	95,917	-0,159	-0,127
175,837	-194,738	-0,211	-0,001
176,852	97,073	-0,262	-0,209
177,867	178,974	-0,222	-0,227
178,881	-130,377	-0,180	-0,017
179,896	-43,533	-0,258	-0,090
180,910	260,846	-0,212	-0,256
181,925	43,701	-0,250	-0,159
182,940	25,598	-0,187	-0,108
183,954	-112,385	-0,278	-0,038
184,969	62,244	-0,221	-0,153
185,983	-17,932	-0,154	-0,067
186,998	-110,901	-0,104	-0,015
188,013	-70,359	-0,289	-0,076
189,027	220,456	-0,211	-0,236
190,042	-55,589	-0,255	-0,079
191,056	165,524	-0,325	-0,320
192,071	42,224	-0,207	-0,131
193,086	42,185	-0,213	-0,134
194,100	0,997	-0,189	-0,094
195,115	41,298	-0,196	-0,123
196,129	58,194	-0,214	-0,146
197,144	291,124	-0,121	-0,154
198,159	169,281	-0,243	-0,241
199,173	162,988	-0,224	-0,219
200,188	22,588	-0,194	-0,110
201,202	-90,265	-0,203	-0,041
202,217	-150,706	-0,200	-0,010
203,232	106,879	-0,206	-0,170
204,246	246,960	-0,239	-0,281
205,261	-71,001	-0,337	-0,088
206,275	91,385	-0,199	-0,155
207,290	-21,800	-0,052	-0,022
208,304	77,832	-0,149	-0,111
209,319	99,947	-0,236	-0,190
210,334	152,374	-0,142	-0,135
211,348	15,977	-0,303	-0,165
212,363	212,614	-0,189	-0,207
213,377	107,973	-0,147	-0,122
214,392	65,993	-0,196	-0,138
215,407	-147,899	-0,156	-0,009
216,421	-26,627	-0,279	-0,113
217,436	182,986	-0,240	-0,247
218,450	134,227	-0,199	-0,179
219,465	122,933	-0,167	-0,145
220,480	74,876	-0,226	-0,165
221,494	126,883	-0,236	-0,208
222,509	522,318	-0,101	-0,165
223,523	370,135	-0,126	-0,177
224,538	133,351	-0,127	-0,114
225,553	49,272	-0,259	-0,169
226,567	74,096	-0,218	-0,158
227,582	800,000	-0,097	-0,219
228,596	800,000	0,051	-0,111
229,611	-43,643	-0,135	-0,047
230,626	-68,417	-0,243	-0,065
231,640	58,563	-0,241	-0,164
232,655	7,653	-0,228	-0,118
233,669	179,305	-0,147	-0,149
234,684	82,403	-0,214	-0,161
235,699	13,182	-0,129	-0,069
236,713	-139,378	-0,209	0,015
237,728	-133,949	-0,202	0,017
238,742	-52,853	-0,278	-0,088
239,757	114,784	-0,252	-0,213
240,772	-56,338	-0,169	-0,052
241,786	385,497	-0,099	-0,141
242,801	-56,396	-0,258	-0,079
243,815	288,153	-0,203	-0,255
244,830	24,844	-0,114	-0,065
245,844	231,851	-0,152	-0,173
246,859	82,096	-0,189	-0,141
247,874	116,358	-0,195	-0,165
248,888	-17,163	-0,092	-0,040
249,903	90,276	-0,116	-0,090
250,917	800,000	-0,033	-0,085
251,932	-81,837	-0,106	-0,024
252,947	-86,925	-0,188	-0,039
253,961	743,242	-0,121	-0,226
254,976	220,878	-0,145	-0,162
255,990	-41,357	-0,162	-0,057
257,005	25,953	-0,172	-0,099
258,020	3,683	-0,199	-0,100
259,034	-200,000	-0,103	-0,000
260,049	26,243	-0,196	-0,113
261,063	-74,124	-0,174	-0,043
262,078	54,403	-0,245	-0,163
263,093	-200,000	-0,021	-0,152
264,107	61,225	-0,132	-0,091
265,122	317,795	-0,122	-0,160
266,136	51,910	-0,200	-0,131
267,151	-94,968	-0,089	0,016
268,166	84,954	-0,211	-0,160
269,180	-101,918	-0,171	-0,028
270,195	56,521	-0,143	-0,096
271,209	204,320	-0,180	-0,193
272,224	94,695	-0,176	-0,138
273,239	-25,457	-0,096	-0,039
274,253	-200,000	0,004	-0,059
275,268	-31,816	-0,142	-0,055
276,282	91,000	-0,289	-0,223
277,297	133,204	-0,247	-0,220
278,312	-8,707	-0,159	-0,073
279,326	800,000	-0,034	0,089
280,341	-82,767	-0,184	-0,041
281,355	9,166	-0,193	-0,101
282,370	-200,000	-0,017	-0,227
283,384	150,057	-0,155	-0,145
284,399	-106,566	-0,189	-0,029
285,414	-101,128	-0,216	-0,036
286,428	-88,011	-0,131	-0,027
287,443	-200,000	0,008	-0,084
288,457	-83,482	-0,106	0,023
289,472	-8,976	-0,200	-0,092
290,487	45,055	-0,151	-0,096
291,501	115,557	-0,202	-0,170
292,516	3,125	-0,305	-0,153
293,530	-49,425	-0,176	-0,058
294,545	454,076	-0,161	-0,246
295,560	-200,000	-0,034	-0,262
296,574	-200,000	0,003	-0,109
297,589	-109,067	-0,193	-0,028
298,603	800,000	-0,043	-0,097
299,618	49,320	-0,172	-0,111
300,633	800,000	-0,109	-0,261
301,647	-79,018	-0,258	-0,060
302,662	-7,543	-0,134	-0,062
303,676	-200,000	-0,017	-0,148
304,691	-22,406	-0,177	-0,073
305,706	245,617	-0,158	-0,183
306,720	154,715	-0,209	-0,198
307,735	800,000	-0,082	-0,188
308,749	98,339	-0,070	0,056
309,764	101,200	-0,029	-0,023
310,779	84,945	-0,143	-0,108
311,793	119,266	-0,140	-0,119
312,808	339,971	-0,162	-0,219
313,822	54,812	-0,210	-0,139
314,837	800,000	-0,058	-0,145
315,852	-175,453	-0,074	0,001
316,866	174,151	-0,066	0,065
317,881	-90,691	-0,216	-0,043
318,895	-178,410	-0,145	0,002
319,910	358,601	-0,134	-0,185
320,925	110,125	-0,182	-0,150
321,939	165,465	-0,165	-0,160
322,954	101,377	-0,076	0,061
323,968	-72,109	-0,178	0,045
324,983	-179,834	-0,203	-0,003
325,997	74,892	-0,043	0,031
327,012	330,633	-0,099	-0,131
328,027	-200,000	-0,044	-0,196
329,041	51,158	-0,136	-0,088
330,056	800,000	-0,058	-0,124
331,070	480,817	-0,036	-0,056
332,085	-89,346	-0,169	0,034
333,100	-98,945	-0,092	0,016
334,114	510,915	-0,111	-0,179
335,129	387,884	-0,079	-0,113
336,143	-1,037	-0,104	-0,050
337,158	800,000	-0,116	-0,237
338,173	-200,000	-0,145	-0,000
339,187	-38,648	-0,181	-0,065
340,202	-150,848	-0,123	-0,006
341,216	45,187	-0,141	-0,089
342,231	95,263	-0,221	-0,173
343,246	-34,929	-0,150	-0,056
344,260	159,119	-0,225	-0,215
345,275	-12,831	-0,103	-0,046
346,289	25,733	-0,025	-0,014
347,304	319,301	-0,082	-0,108
348,319	-200,000	-0,005	-0,140
349,333	-148,143	-0,176	-0,010
350,348	132,848	-0,134	-0,118
351,362	59,559	-0,182	-0,123
352,377	-129,836	-0,114	-0,011
353,392	-42,414	-0,147	-0,051
354,406	66,620	-0,141	-0,098
355,421	209,539	1314,423	1415,121
356,435	161,272	1475,119	1415,614
