DTS Sentinel unit serial number:	SN410029Multiplexer serial number:	ORYXHardware model number:	OX2-SRSoftware version number:	ORYX F/W v4,00 Oryx Data Collector v3.7.2.0data status	okinstallation	B3 Nyhavnadifferential loss correction	single-endedforward channel	channel 1reverse channel	N/Adate	2023/12/04time	11:02:30forward acquisition time	300,00reverse acquisition time	0,00gamma	499,1914k internal	0,3203k external	0,3203temperature offset calibration	1,0000default loss term (dB/km)	0,3820temperature slope calibration	1,0000multiplexer offset coefficient	1,0000multiplexer slope coefficient	1,0000fibre end	0,00T internal ref (°C)	13,81T ext. ref 1 (°C)	-0,49T ext. ref 2 (°C)	-0,52length (m)	temperature (°C)	Stokes	anti-Stokes-744,400	64,009	-0,310	-0,226
-743,385	800,000	0,143	0,330
-742,371	39,256	-0,128	-0,083
-741,356	-200,000	0,010	0,180
-740,342	-49,159	-0,123	-0,043
-739,327	-200,000	-0,067	0,415
-738,312	244,069	-0,208	-0,255
-737,298	-200,000	0,015	0,286
-736,283	800,000	-0,142	-0,325
-735,269	-200,000	-0,001	0,303
-734,254	73,131	-0,158	-0,120
-733,239	-58,415	-0,239	0,075
-732,225	-200,000	0,019	-0,164
-731,210	-200,000	-0,004	0,243
-730,196	132,921	-0,072	-0,068
-729,181	-191,394	-0,133	0,001
-728,167	59,509	0,116	0,083
-727,152	4,638	-0,090	0,048
-726,137	-200,000	-0,014	-0,115
-725,123	320,089	-0,097	0,135
-724,108	-51,325	-0,117	-0,039
-723,094	423,953	-0,094	-0,148
-722,079	-200,000	-0,028	-0,101
-721,064	-200,000	-0,007	-0,062
-720,050	-78,835	-0,088	0,022
-719,035	-167,129	-0,083	-0,002
-718,021	-43,603	0,020	-0,007
-717,006	-200,000	-0,010	-0,070
-715,991	3,883	-0,078	-0,041
-714,977	190,724	-0,067	-0,073
-713,962	328,686	-0,087	-0,121
-712,948	-122,243	0,037	0,004
-711,933	-200,000	-0,013	0,071
-710,918	-200,000	0,023	-0,099
-709,904	-200,000	0,013	-0,054
-708,889	-200,000	-0,030	-0,176
-707,875	-189,097	-0,051	0,000
-706,860	104,929	-0,087	0,074
-705,845	-200,000	-0,018	0,068
-704,831	-200,000	-0,009	0,098
-703,816	-200,000	0,021	0,090
-702,802	-48,898	-0,031	-0,011
-701,787	3,007	-0,195	0,103
-700,772	-68,590	-0,171	0,048
-699,758	67,177	-0,162	0,120
-698,743	-200,000	-0,015	-0,143
-697,729	4,040	0,060	0,032
-696,714	96,881	-0,050	-0,042
-695,699	-200,000	0,002	0,059
-694,685	-131,311	-0,117	-0,011
-693,670	539,021	-0,034	0,059
-692,656	208,706	-0,065	0,074
-691,641	-150,328	0,020	0,001
-690,627	384,289	-0,037	0,055
-689,612	209,468	-0,026	-0,029
-688,597	-111,204	-0,054	0,008
-687,583	-200,000	0,004	0,053
-686,568	-200,000	0,003	0,071
-685,554	132,133	-0,038	-0,036
-684,539	-200,000	-0,011	0,080
-683,524	-200,000	0,005	-0,063
-682,510	-27,463	-0,103	-0,043
-681,495	-200,000	-0,027	-0,094
-680,481	800,000	-0,087	-0,176
-679,466	800,000	-0,002	-0,006
-678,451	800,000	0,011	-0,026
-677,437	-200,000	-0,002	0,017
-676,422	723,145	0,027	-0,053
-675,408	-106,443	-0,169	0,027
-674,393	-183,854	-0,092	-0,001
-673,378	-200,000	-0,025	-0,083
-672,364	800,000	-0,058	-0,126
-671,349	800,000	0,035	0,084
-670,335	384,449	0,095	-0,142
-669,320	60,518	-0,160	0,115
-668,305	-200,000	0,010	-0,055
-667,291	640,432	0,026	-0,049
-666,276	-70,590	-0,082	0,022
-665,262	21,987	-0,103	-0,061
-664,247	30,509	-0,079	0,049
-663,232	313,503	0,019	0,026
-662,218	474,221	-0,028	0,046
-661,203	626,135	0,078	0,143
-660,189	-91,580	-0,066	-0,014
-659,174	-137,132	0,102	0,008
-658,159	-200,000	0,007	0,032
-657,145	-101,771	-0,126	-0,022
-656,130	-200,000	0,012	-0,130
-655,116	-200,000	0,001	-0,012
-654,101	17,946	0,064	0,037
-653,086	-200,000	0,031	0,147
-652,072	-110,756	0,112	0,017
-651,057	-42,729	-0,134	-0,049
-650,043	800,000	-0,035	0,106
-649,028	-200,000	0,009	0,054
-648,014	86,267	0,041	-0,032
-646,999	52,344	-0,066	-0,046
-645,984	43,745	-0,081	0,054
-644,970	-80,036	-0,109	0,026
-643,955	-111,580	0,082	-0,012
-642,941	800,000	-0,061	0,123
-641,926	521,723	0,051	0,088
-640,911	556,912	-0,053	0,093
-639,897	128,210	-0,146	0,135
-638,882	-148,934	-0,047	0,003
-637,868	330,137	-0,043	0,061
-636,853	-200,000	0,023	0,097
-635,838	323,942	0,063	-0,087
-634,824	-87,074	0,064	-0,014
-633,809	800,000	-0,017	-0,039
-632,795	800,000	0,031	0,085
-631,780	800,000	0,041	-0,106
-630,765	800,000	0,030	0,062
-629,751	153,680	-0,133	-0,132
-628,736	302,736	-0,073	-0,098
-627,722	436,622	-0,094	-0,149
-626,707	0,137	0,080	-0,041
-625,692	-162,148	0,049	-0,002
-624,678	-125,919	0,065	-0,007
-623,663	100,305	-0,030	0,025
-622,649	800,000	0,004	-0,012
-621,634	52,450	0,092	-0,063
-620,619	285,459	-0,019	-0,024
-619,605	-23,623	0,079	-0,034
-618,590	138,337	0,023	-0,022
-617,576	-133,757	-0,072	-0,006
-616,561	151,316	-0,082	-0,081
-615,546	-154,340	-0,131	0,006
-614,532	-200,000	0,022	-0,135
-613,517	800,000	0,019	0,051
-612,503	-159,390	0,182	0,007
-611,488	260,121	-0,037	-0,046
-610,474	800,000	-0,025	-0,063
-609,459	-80,020	0,031	-0,007
-608,444	134,028	0,116	-0,109
-607,430	-200,000	-0,040	-0,137
-606,415	-12,220	-0,072	-0,034
-605,401	800,000	-0,021	-0,052
-604,386	-200,000	-0,001	0,090
-603,371	-200,000	-0,004	-0,066
-602,357	444,061	0,040	0,063
-601,342	284,372	0,008	0,010
-600,328	-200,000	0,013	-0,066
-599,313	-145,417	-0,066	-0,004
-598,298	-1,959	-0,040	-0,020
-597,284	-49,315	-0,187	0,064
-596,269	-7,592	0,054	-0,026
-595,255	-200,000	0,014	0,183
-594,240	800,000	-0,010	0,022
-593,225	47,741	-0,086	-0,058
-592,211	118,781	-0,027	0,024
-591,196	243,620	-0,026	0,032
-590,182	-85,481	-0,134	-0,030
-589,167	63,793	-0,045	-0,033
-588,152	529,505	-0,008	0,014
-587,138	84,895	0,039	-0,031
-586,123	-110,606	-0,134	-0,020
-585,109	250,674	-0,100	-0,123
-584,094	-200,000	-0,016	-0,101
-583,079	20,132	0,021	-0,012
-582,065	-71,640	0,146	-0,039
-581,050	-167,803	0,047	-0,001
-580,036	-22,855	-0,053	0,023
-579,021	271,707	-0,041	-0,052
-578,006	241,851	-0,025	-0,030
-576,992	800,000	-0,027	-0,083
-575,977	9,019	0,108	-0,059
-574,963	169,748	-0,070	-0,072
-573,948	635,024	-0,025	-0,045
-572,934	258,364	-0,091	-0,114
-571,919	191,191	-0,030	-0,033
-570,904	-200,000	-0,012	-0,057
-569,890	-87,022	-0,107	-0,023
-568,875	-56,603	-0,036	0,011
-567,861	-200,000	-0,014	0,052
-566,846	76,046	0,085	0,065
-565,831	-200,000	-0,017	-0,058
-564,817	-200,000	0,017	-0,171
-563,802	800,000	0,024	-0,077
-562,788	182,889	0,094	-0,100
-561,773	-200,000	0,007	0,057
-560,758	-182,299	0,106	0,001
-559,744	-111,583	-0,077	0,011
-558,729	-200,000	0,029	-0,115
-557,715	389,664	-0,066	-0,099
-556,700	8,445	-0,063	0,034
-555,685	800,000	-0,062	-0,144
-554,671	-200,000	0,023	-0,236
-553,656	54,495	0,121	0,084
-552,642	-49,153	0,045	0,015
-551,627	645,066	0,025	0,046
-550,612	168,249	-0,063	-0,065
-549,598	800,000	-0,096	-0,232
-548,583	-109,903	0,059	-0,009
-547,569	353,821	-0,043	-0,062
-546,554	-19,649	-0,019	0,008
-545,539	-200,000	0,007	0,047
-544,525	-200,000	0,001	0,134
-543,510	-200,000	-0,001	0,046
-542,496	592,349	-0,015	-0,027
-541,481	-200,000	-0,005	-0,043
-540,466	476,824	-0,050	0,081
-539,452	800,000	-0,021	0,059
-538,437	-200,000	-0,029	0,123
-537,423	800,000	-0,008	-0,021
-536,408	299,558	-0,079	0,105
-535,393	-200,000	-0,001	0,064
-534,379	-32,717	-0,099	0,039
-533,364	-51,694	0,095	-0,032
-532,350	-100,998	0,212	0,037
-531,335	-149,249	0,101	0,006
-530,321	800,000	0,020	0,063
-529,306	749,346	-0,045	0,087
-528,291	447,480	-0,038	-0,061
-527,277	-89,390	0,098	-0,021
-526,262	-200,000	0,029	-0,192
-525,248	345,499	0,048	-0,069
-524,233	-200,000	-0,023	-0,094
-523,218	168,583	0,094	0,096
-522,204	-124,862	-0,074	-0,008
-521,189	-200,000	0,011	-0,082
-520,175	113,517	0,028	-0,024
-519,160	-200,000	-0,005	-0,121
-518,145	158,816	-0,090	-0,091
-517,131	239,196	0,024	0,029
-516,116	-98,016	0,077	-0,014
-515,102	654,422	-0,037	0,068
-514,087	-87,243	0,044	0,010
-513,072	-103,475	-0,107	-0,018
-512,058	800,000	-0,046	-0,110
-511,043	350,188	0,014	-0,020
-510,029	178,670	-0,006	0,006
-509,014	-200,000	0,015	-0,096
-507,999	196,819	0,088	0,096
-506,985	-200,000	-0,021	0,069
-505,970	-115,153	0,107	-0,014
-504,956	222,798	0,068	0,079
-503,941	-200,000	-0,021	0,074
-502,926	-154,286	0,084	0,004
-501,912	-40,351	0,061	0,023
-500,897	800,000	0,023	-0,062
-499,883	-101,899	-0,076	0,013
-498,868	-200,000	0,030	-0,124
-497,853	-200,000	0,006	-0,104
-496,839	797,007	-0,075	-0,150
-495,824	80,181	0,141	-0,109
-494,810	336,696	-0,065	0,091
-493,795	-200,000	-0,015	0,207
-492,781	-200,000	-0,005	0,097
-491,766	97,574	-0,103	-0,085
-490,751	-200,000	-0,006	-0,124
-489,737	-200,000	-0,038	0,125
-488,722	800,000	0,029	0,065
-487,708	-136,017	0,149	-0,012
-486,693	-200,000	-0,007	-0,049
-485,678	-86,988	0,081	-0,018
-484,664	341,261	-0,141	-0,198
-483,649	-200,000	-0,011	-0,122
-482,635	-60,039	-0,127	0,039
-481,620	337,527	-0,036	0,050
-480,605	-200,000	0,021	0,073
-479,591	-36,724	-0,187	0,072
-478,576	-112,463	0,086	-0,012
-477,562	-200,000	0,014	-0,114
-476,547	-136,704	-0,135	0,011
-475,532	-200,000	0,004	-0,156
-474,518	580,763	0,068	0,121
-473,503	23,575	0,113	-0,067
-472,489	-200,000	-0,048	0,197
-471,474	-62,818	-0,071	-0,021
-470,459	383,748	0,020	0,030
-469,445	-23,545	-0,040	-0,017
-468,430	-36,367	0,110	-0,042
-467,416	232,521	0,026	0,031
-466,401	-9,458	-0,033	0,016
-465,386	-200,000	-0,010	0,128
-464,372	-200,000	0,027	0,161
-463,357	800,000	0,029	-0,071
-462,343	-200,000	-0,003	-0,226
-461,328	50,500	0,117	0,080
-460,313	800,000	0,035	0,092
-459,299	800,000	0,074	-0,183
-458,284	629,668	-0,060	0,109
-457,270	-158,024	-0,059	0,002
-456,255	565,777	-0,054	0,095
-455,241	9,810	0,130	0,071
-454,226	-100,290	-0,100	-0,018
-453,211	-113,534	-0,128	-0,018
-452,197	3,023	0,071	0,037
-451,182	800,000	0,053	0,165
-450,168	-200,000	-0,049	0,178
-449,153	71,103	0,065	-0,048
-448,138	229,609	0,014	-0,017
-447,124	-200,000	-0,002	-0,026
-446,109	-200,000	-0,005	-0,120
-445,095	800,000	-0,004	0,012
-444,080	-9,034	0,007	-0,004
-443,065	-116,446	-0,025	0,003
-442,051	212,013	0,052	-0,059
-441,036	-77,371	-0,019	0,005
-440,022	209,369	-0,041	-0,046
-439,007	49,246	0,057	-0,039
-437,992	-200,000	0,006	-0,138
-436,978	-8,785	0,158	0,076
-435,963	-62,868	0,155	0,046
-434,949	104,422	0,021	-0,018
-433,934	391,973	0,085	-0,128
-432,919	-200,000	-0,018	-0,141
-431,905	-99,021	0,247	-0,045
-430,890	-200,000	0,018	0,068
-429,876	-103,762	0,143	0,024
-428,861	800,000	-0,032	0,071
-427,846	-153,019	0,017	-0,001
-426,832	267,589	0,006	0,007
-425,817	-126,818	-0,089	-0,009
-424,803	-6,969	-0,074	-0,036
-423,788	127,655	0,091	0,083
-422,773	251,996	0,046	-0,056
-421,759	-200,000	0,027	-0,190
-420,744	-200,000	-0,019	-0,073
-419,730	391,806	-0,100	-0,150
-418,715	-75,155	-0,095	0,024
-417,701	-69,826	-0,079	0,022
-416,686	800,000	-0,049	0,110
-415,671	2,275	0,113	0,058
-414,657	-200,000	0,008	-0,063
-413,642	-200,000	0,001	-0,005
-412,628	-200,000	0,012	0,120
-411,613	-135,930	0,052	-0,004
-410,598	50,169	-0,062	0,042
-409,584	800,000	0,011	-0,024
-408,569	547,800	-0,105	0,182
-407,555	-79,971	0,069	0,016
-406,540	-200,000	0,001	-0,088
-405,525	-81,329	0,123	-0,029
-404,511	-200,000	0,011	-0,041
-403,496	-200,000	-0,017	-0,116
-402,482	-14,296	0,038	0,017
-401,467	-80,461	0,118	0,028
-400,452	7,913	0,023	0,012
-399,438	67,620	-0,071	0,052
-398,423	543,403	-0,044	-0,075
-397,409	-200,000	-0,017	-0,098
-396,394	341,197	-0,033	-0,047
-395,379	800,000	-0,007	0,017
-394,365	800,000	0,027	-0,067
-393,350	89,021	-0,066	-0,052
-392,336	-200,000	0,016	-0,135
-391,321	-16,248	0,193	0,087
-390,306	-97,969	-0,077	-0,014
-389,292	0,983	-0,069	0,035
-388,277	-53,776	0,106	0,034
-387,263	-200,000	0,003	-0,114
-386,248	24,801	-0,118	0,070
-385,233	-17,633	0,047	-0,021
-384,219	184,648	-0,136	0,144
-383,204	-200,000	0,010	-0,067
-382,190	800,000	0,015	0,037
-381,175	-143,446	0,125	0,008
-380,160	800,000	0,040	0,121
-379,146	800,000	-0,042	0,124
-378,131	-200,000	0,004	0,049
-377,117	800,000	-0,016	0,040
-376,102	-125,178	-0,071	-0,008
-375,088	22,225	-0,104	-0,061
-374,073	800,000	-0,038	0,101
-373,058	-34,333	0,097	0,038
-372,044	-200,000	-0,013	0,104
-371,029	-200,000	0,009	0,128
-370,015	615,234	-0,034	-0,061
-369,000	-200,000	-0,006	0,035
-367,985	-108,637	-0,162	0,025
-366,971	-43,623	-0,070	-0,025
-365,956	-200,000	-0,005	0,183
-364,942	-200,000	-0,026	0,180
-363,927	84,403	-0,014	0,011
-362,912	35,578	0,073	-0,046
-361,898	27,601	-0,076	-0,046
-360,883	394,628	-0,049	-0,073
-359,869	10,553	-0,106	-0,058
-358,854	-200,000	0,010	-0,054
-357,839	-200,000	0,032	0,156
-356,825	-34,099	-0,050	-0,020
-355,810	591,707	-0,073	0,130
-354,796	-145,556	0,031	0,002
-353,781	-200,000	0,000	0,013
-352,766	800,000	-0,028	0,069
-351,752	77,192	-0,038	-0,029
-350,737	28,003	-0,041	-0,024
-349,723	-4,911	-0,047	-0,023
-348,708	212,913	0,063	0,072
-347,693	117,605	-0,056	-0,049
-346,679	800,000	-0,041	-0,089
-345,664	800,000	0,035	0,106
-344,650	-200,000	-0,007	-0,078
-343,635	-200,000	-0,024	-0,107
-342,620	-163,687	0,137	-0,005
-341,606	-200,000	-0,013	0,120
-340,591	-12,814	-0,147	-0,068
-339,577	305,220	0,089	-0,118
-338,562	-200,000	-0,002	-0,104
-337,548	-51,127	0,030	0,010
-336,533	800,000	0,042	-0,098
-335,518	-200,000	-0,012	0,094
-334,504	134,312	-0,018	0,017
-333,489	-84,146	0,038	-0,009
-332,475	-36,180	-0,131	-0,050
-331,460	-200,000	-0,013	-0,054
-330,445	95,910	-0,046	-0,038
-329,431	-98,103	-0,050	-0,009
-328,416	612,326	0,035	-0,063
-327,402	-91,256	-0,067	-0,014
-326,387	-200,000	0,009	-0,066
-325,372	800,000	0,052	-0,123
-324,358	-200,000	0,001	0,068
-323,343	369,058	0,026	-0,037
-322,329	585,267	0,047	-0,083
-321,314	-170,479	0,103	-0,003
-320,299	800,000	0,064	0,148
-319,285	49,417	-0,078	0,053
-318,270	-200,000	0,006	-0,038
-317,256	-71,924	-0,112	0,029
-316,241	-55,965	0,083	0,026
-315,226	800,000	-0,024	0,061
-314,212	-40,779	-0,085	0,031
-313,197	-200,000	0,035	0,125
-312,183	-200,000	-0,002	-0,078
-311,168	173,250	0,051	-0,053
-310,153	-96,237	-0,083	-0,016
-309,139	-200,000	-0,004	-0,076
-308,124	-1,755	0,042	-0,021
-307,110	-70,326	0,192	0,052
-306,095	800,000	-0,044	0,104
-305,080	-200,000	0,019	0,147
-304,066	-200,000	0,008	0,137
-303,051	115,558	-0,061	0,053
-302,037	-47,882	0,125	-0,043
-301,022	-200,000	-0,006	-0,079
-300,008	-200,000	-0,014	0,058
-298,993	19,468	0,049	-0,028
-297,978	21,833	-0,017	-0,010
-296,964	-200,000	-0,000	0,074
-295,949	800,000	-0,019	-0,056
-294,935	-178,306	-0,091	0,001
-293,920	487,530	-0,029	-0,048
-292,905	5,470	0,116	-0,061
-291,891	194,275	-0,103	0,111
-290,876	-130,046	0,146	0,014
-289,862	-127,476	-0,043	-0,004
-288,847	98,378	0,114	0,093
-287,832	765,629	-0,039	0,077
-286,818	-200,000	-0,004	-0,016
-285,803	800,000	0,037	-0,115
-284,789	-200,000	0,006	0,097
-283,774	800,000	-0,030	0,084
-282,759	800,000	-0,026	0,056
-281,745	800,000	0,050	-0,109
-280,730	-200,000	0,007	-0,097
-279,716	800,000	0,067	0,202
-278,701	-122,621	0,109	-0,012
-277,686	-56,861	0,074	-0,023
-276,672	-200,000	0,001	-0,120
-275,657	4,311	-0,050	-0,026
-274,643	198,548	-0,079	-0,086
-273,628	-86,396	-0,060	0,013
-272,613	-76,698	-0,071	0,018
-271,599	266,385	0,042	-0,052
-270,584	-152,604	0,172	0,009
-269,570	35,536	-0,059	0,037
-268,555	377,680	0,068	-0,099
-267,540	193,853	0,077	-0,083
-266,526	800,000	-0,027	-0,059
-265,511	-81,396	-0,026	0,006
-264,497	-50,772	0,098	0,033
-263,482	-200,000	-0,026	-0,096
-262,467	48,471	-0,067	0,045
-261,453	306,472	-0,094	0,125
-260,438	137,863	-0,046	0,043
-259,424	-57,852	-0,020	0,006
-258,409	-200,000	-0,017	0,099
-257,395	-200,000	-0,010	-0,037
-256,380	-200,000	-0,004	0,046
-255,365	-147,985	0,148	-0,009
-254,351	800,000	-0,047	0,098
-253,336	-200,000	-0,019	0,083
-252,322	385,444	0,060	-0,089
-251,307	279,928	-0,063	-0,080
-250,292	724,530	-0,052	0,099
-249,278	-200,000	0,015	0,083
-248,263	-200,000	-0,028	0,104
-247,249	155,693	-0,007	-0,007
-246,234	-71,472	0,053	0,014
-245,219	-200,000	0,038	0,186
-244,205	-79,717	-0,160	-0,038
-243,190	252,640	0,026	0,032
-242,176	142,874	-0,098	0,093
-241,161	-113,079	0,092	-0,013
-240,146	249,774	0,042	-0,051
-239,132	-47,145	-0,166	0,057
-238,117	-200,000	0,024	0,090
-237,103	800,000	-0,031	-0,081
-236,088	-200,000	0,009	-0,040
-235,073	263,109	0,057	0,070
-234,059	246,678	0,072	0,087
-233,044	-24,635	-0,135	0,057
-232,030	158,627	0,077	-0,076
-231,015	-76,475	-0,153	0,038
-230,000	-119,026	-0,068	0,008
-228,986	-49,135	-0,157	0,053
-227,971	63,807	0,069	-0,050
-226,957	-12,717	0,037	0,017
-225,942	800,000	0,055	0,134
-224,927	14,573	-0,127	0,070
-223,913	-37,264	0,175	-0,066
-222,898	41,344	-0,095	0,061
-221,884	39,350	-0,139	-0,088
-220,869	-13,905	0,114	0,052
-219,855	800,000	0,061	0,125
-218,840	109,818	0,035	0,030
-217,825	296,387	0,054	0,070
-216,811	88,509	-0,060	0,047
-215,796	800,000	-0,047	0,095
-214,782	-200,000	-0,018	0,075
-213,767	185,638	0,087	0,092
-212,752	-200,000	0,021	0,077
-211,738	80,644	0,060	0,046
-210,723	800,000	-0,041	0,115
-209,709	178,330	0,082	0,085
-208,694	800,000	-0,033	0,070
-207,679	-61,654	-0,066	0,020
-206,665	-200,000	-0,000	-0,017
-205,650	-60,024	0,106	0,032
-204,636	-39,323	0,079	-0,029
-203,621	18,471	-0,124	-0,070
-202,606	-143,563	0,146	0,010
-201,592	-200,000	0,044	-0,154
-200,577	86,201	-0,056	0,044
-199,563	-77,657	-0,058	-0,014
-198,548	143,400	0,076	-0,072
-197,533	37,237	0,175	0,110
-196,519	-23,634	-0,010	0,004
-195,504	-118,947	-0,068	-0,008
-194,490	800,000	-0,018	-0,058
-193,475	-116,993	0,051	0,007
-192,460	279,389	-0,015	0,019
-191,446	-4,282	0,061	0,030
-190,431	-200,000	-0,009	0,098
-189,417	-40,501	0,109	-0,040
-188,402	67,244	-0,102	0,074
-187,387	136,430	-0,081	0,075
-186,373	-200,000	0,014	-0,082
-185,358	800,000	-0,013	0,034
-184,344	124,275	0,144	0,129
-183,329	53,131	0,051	0,035
-182,315	33,926	-0,062	0,038
-181,300	800,000	-0,023	-0,068
-180,285	-147,372	-0,113	0,007
-179,271	800,000	0,064	0,158
-178,256	-200,000	-0,004	0,048
-177,242	-200,000	0,002	0,081
-176,227	8,514	-0,042	0,022
-175,212	119,292	0,065	-0,057
-174,198	-60,242	0,138	-0,041
-173,183	-27,101	0,052	0,021
-172,169	-200,000	-0,008	-0,031
-171,154	349,549	-0,037	-0,053
-170,139	800,000	0,028	0,062
-169,125	-26,616	0,045	0,018
-168,110	-200,000	-0,001	0,050
-167,096	264,433	0,030	0,037
-166,081	800,000	0,009	0,027
-165,066	-59,403	-0,153	0,047
-164,052	60,590	-0,059	-0,041
-163,037	167,806	0,113	-0,114
-162,023	-200,000	0,008	0,026
-161,008	235,512	-0,026	0,031
-159,993	-94,591	0,043	-0,008
-158,979	317,154	0,053	-0,071
-157,964	78,913	-0,078	-0,060
-156,950	652,762	-0,067	-0,123
-155,935	-200,000	-0,000	-0,087
-154,920	-4,209	0,060	-0,029
-153,906	-89,571	0,099	-0,021
-152,891	-200,000	-0,030	-0,121
-151,877	-58,667	-0,050	-0,015
-150,862	174,159	0,055	-0,057
-149,847	128,901	-0,101	-0,092
-148,833	-144,869	0,091	0,006
-147,818	800,000	-0,093	0,207
-146,804	11,001	0,020	0,011
-145,789	-200,000	0,009	0,181
-144,775	628,015	-0,014	0,025
-143,760	338,590	-0,082	-0,114
-142,745	261,602	-0,125	0,155
-141,731	-167,095	0,057	0,002
-140,716	-80,587	0,118	-0,028
-139,702	-74,967	0,077	0,019
-138,687	-47,595	0,032	-0,011
-137,672	600,094	0,059	-0,104
-136,658	-200,000	-0,014	-0,062
-135,643	-200,000	-0,020	-0,116
-134,629	113,590	0,038	0,033
-133,614	800,000	0,012	-0,029
-132,599	-200,000	-0,002	0,016
-131,585	-20,060	-0,128	0,056
-130,570	800,000	-0,030	0,066
-129,556	-200,000	0,029	0,092
-128,541	800,000	-0,044	0,117
-127,526	247,990	0,086	0,103
-126,512	-200,000	-0,002	0,102
-125,497	287,411	-0,057	0,073
-124,483	150,808	-0,048	-0,046
-123,468	-39,601	-0,056	-0,021
-122,453	-13,144	0,067	0,031
-121,439	353,128	-0,080	-0,113
-120,424	346,810	-0,098	-0,138
-119,410	-66,872	-0,035	0,010
-118,395	800,000	0,031	0,084
-117,380	-200,000	0,024	0,185
-116,366	219,550	0,121	-0,138
-115,351	319,760	-0,026	0,035
-114,337	-200,000	0,024	-0,125
-113,322	38,405	-0,028	-0,018
-112,307	-200,000	-0,005	0,022
-111,293	485,987	-0,040	0,064
-110,278	800,000	0,027	-0,074
-109,264	-51,843	-0,057	-0,019
-108,249	522,763	0,029	-0,048
-107,234	800,000	-0,022	0,045
-106,220	424,822	-0,057	-0,088
-105,205	800,000	0,072	-0,149
-104,191	37,445	-0,027	-0,017
-103,176	-119,937	0,140	0,017
-102,162	188,260	-0,056	-0,059
-101,147	380,116	-0,070	-0,101
-100,132	453,195	-0,102	-0,161
-99,118	-200,000	0,002	-0,050
-98,103	90,492	0,081	-0,064
-97,089	-200,000	0,045	0,151
-96,074	420,248	0,006	-0,009
-95,059	-99,231	0,136	0,024
-94,045	-74,029	-0,061	0,016
-93,030	-200,000	0,026	-0,258
-92,016	79,267	0,061	-0,046
-91,001	78,558	-0,010	0,008
-89,986	34,041	-0,103	0,064
-88,972	136,920	-0,034	0,031
-87,957	262,125	0,041	-0,050
-86,943	-37,014	0,027	0,010
-85,928	-61,524	-0,051	-0,015
-84,913	-200,000	-0,016	-0,094
-83,899	-200,000	0,009	0,030
-82,884	-200,000	0,017	0,065
-81,870	409,864	0,152	-0,229
-80,855	-200,000	0,003	0,124
-79,840	354,626	0,065	0,092
-78,826	-40,715	-0,226	0,083
-77,811	486,242	-0,010	0,017
-76,797	-200,000	0,001	0,022
-75,782	800,000	-0,027	0,055
-74,767	-200,000	0,002	0,161
-73,753	800,000	-0,009	0,023
-72,738	13,766	-0,177	-0,097
-71,724	800,000	-0,036	-0,090
-70,709	-200,000	0,011	0,039
-69,694	684,335	0,038	-0,071
-68,680	-54,663	-0,007	0,002
-67,665	21,428	0,100	0,057
-66,651	586,322	-0,022	-0,038
-65,636	-200,000	0,001	0,113
-64,622	-87,365	-0,128	0,027
-63,607	189,457	-0,068	-0,073
-62,592	-200,000	-0,009	0,087
-61,578	-14,666	-0,043	-0,019
-60,563	356,224	-0,020	0,029
-59,549	633,499	0,067	0,121
-58,534	-2,419	-1,494	-0,738
-57,519	327,350	-1,480	-2,014
-56,505	-200,000	-0,560	-4,606
-55,490	325,419	0,891	1,209
-54,476	800,000	4,915	10,938
-53,461	-200,000	18,879	311,943
-52,446	-200,000	738,963	2316,191
-51,432	573,353	1654,615	2866,077
-50,417	78,957	1670,811	1264,439
-49,403	21,800	1543,560	887,484
-48,388	15,652	1466,185	813,132
-47,373	17,819	1456,202	818,030
-46,359	16,845	1446,212	807,714
-45,344	13,927	1441,860	791,287
-44,330	13,852	1439,712	789,719
-43,315	13,842	1438,033	788,716
-42,300	13,884	1436,209	787,884
-41,286	13,848	1435,389	787,234
-40,271	13,836	1433,910	786,333
-39,257	13,803	1432,786	785,529
-38,242	13,873	1431,297	785,014
-37,227	13,906	1430,144	784,509
-36,213	13,922	1429,054	783,953
-35,198	13,879	1427,703	782,979
-34,184	13,953	1426,789	782,798
-33,169	13,863	1425,422	781,588
-32,154	13,964	1424,343	781,446
-31,140	13,925	1423,046	780,519
-30,125	13,984	1421,708	780,032
-29,111	13,948	1420,750	779,305
-28,096	13,906	1419,884	778,600
-27,082	13,857	1418,674	777,676
-26,067	13,840	1417,452	776,895
-25,052	13,887	1416,389	776,504
-24,038	13,786	1415,466	775,491
-23,023	13,815	1414,526	775,080
-22,009	13,817	1413,537	774,517
-20,994	13,750	1412,857	773,801
-19,979	13,772	1411,820	773,307
-18,965	13,757	1411,010	772,759
-17,950	13,788	1409,740	772,180
-16,936	13,823	1408,905	771,854
-15,921	13,715	1407,897	770,766
-14,906	13,764	1406,883	770,411
-13,892	13,771	1405,936	769,894
-12,877	13,740	1405,208	769,321
-11,863	13,758	1404,258	768,852
-10,848	13,747	1403,424	768,315
-9,833	13,688	1402,502	767,506
-8,819	13,674	1401,575	766,902
-7,804	13,673	1400,701	766,387
-6,790	13,641	1399,495	765,550
-5,775	13,669	1398,442	765,072
-4,760	13,697	1397,490	764,652
-3,746	13,662	1396,793	764,078
-2,731	13,655	1396,119	763,646
-1,717	13,642	1395,076	762,986
-0,702	13,644	1393,127	761,900
0,313	17,409	1311,053	734,475
1,327	33,645	705,343	432,720
2,342	51,748	123,843	83,179
3,356	4,466	16,554	8,558
4,371	-0,689	3,153	1,575
5,386	-6,647	0,602	0,289
6,400	-200,000	-0,059	0,187
7,415	-18,897	-0,273	-0,119
8,429	97,890	-0,348	-0,283
9,444	62,796	-0,314	-0,222
10,459	-60,986	-0,395	-0,117
11,473	32,080	-0,297	-0,181
12,488	-63,570	-0,418	-0,120
13,502	-99,361	-0,271	-0,048
14,517	60,169	-0,218	-0,152
15,531	19,460	-0,375	-0,212
16,546	197,805	-0,294	-0,317
17,561	53,644	-0,496	-0,336
18,575	276,270	-0,132	-0,166
19,590	0,867	-0,183	-0,092
20,604	-175,869	-0,340	-0,006
21,619	531,438	-0,211	-0,354
22,634	153,022	-0,370	-0,357
23,648	-80,251	-0,378	-0,088
24,663	243,397	-0,322	-0,381
25,677	324,390	-0,246	-0,332
26,692	-13,634	-0,412	-0,187
27,707	-99,168	-0,448	-0,079
28,721	-38,010	-0,419	-0,156
29,736	-19,473	-0,346	-0,150
30,750	55,708	-0,320	-0,219
31,765	47,838	-0,409	-0,269
32,780	45,627	-0,387	-0,252
33,794	121,891	-0,271	-0,239
34,809	76,771	-0,320	-0,239
35,823	189,724	-0,368	-0,389
36,838	27,910	-0,442	-0,262
37,853	-34,778	-0,406	-0,155
38,867	1,913	-0,492	-0,249
39,882	95,948	-0,313	-0,252
40,896	78,322	-0,372	-0,280
41,911	-41,206	-0,335	-0,121
42,926	83,790	-0,367	-0,282
43,940	127,780	-0,416	-0,373
44,955	151,031	-0,252	-0,241
45,969	800,000	-0,201	-0,404
46,984	100,727	-0,372	-0,305
47,999	30,191	-0,283	-0,170
49,013	65,750	-0,341	-0,243
50,028	77,423	-0,325	-0,243
51,042	111,569	-0,393	-0,334
52,057	88,675	-0,353	-0,276
53,071	76,558	-0,381	-0,284
54,086	52,150	-0,236	-0,158
55,101	72,640	-0,348	-0,255
56,115	137,575	-0,295	-0,272
57,130	57,934	-0,323	-0,222
58,144	54,579	-0,330	-0,224
59,159	17,061	-0,317	-0,176
60,174	-13,537	-0,336	-0,153
61,188	57,668	-0,370	-0,254
62,203	35,510	-0,392	-0,242
63,217	-12,102	-0,313	-0,144
64,232	132,177	-0,293	-0,265
65,247	-36,204	-0,404	-0,153
66,261	24,861	-0,499	-0,290
67,276	98,389	-0,273	-0,221
68,290	-5,018	-0,388	-0,187
69,305	-50,538	-0,333	-0,110
70,320	-30,714	-0,340	-0,135
71,334	-3,736	-0,448	-0,218
72,349	24,667	-0,430	-0,250
73,363	68,493	-0,298	-0,214
74,378	83,687	-0,375	-0,287
75,393	101,174	-0,306	-0,250
76,407	-14,459	-0,317	-0,143
77,422	52,892	-0,283	-0,190
78,436	-9,204	-0,241	-0,113
79,451	-14,681	-0,396	-0,178
80,466	-13,229	-0,389	-0,177
81,480	41,093	-0,385	-0,244
82,495	103,489	-0,282	-0,232
83,509	145,827	-0,175	-0,165
84,524	673,330	-0,159	-0,291
85,539	2,802	-0,361	-0,183
86,553	-119,447	-0,247	-0,030
87,568	-43,376	-0,276	-0,098
88,582	143,883	-0,280	-0,262
89,597	274,841	-0,200	-0,249
90,611	22,927	-0,370	-0,212
91,626	800,000	-0,131	-0,279
92,641	-1,172	-0,254	-0,126
93,655	74,267	-0,271	-0,199
94,670	130,842	-0,281	-0,253
95,684	11,027	-0,216	-0,115
96,699	504,632	-0,178	-0,290
97,714	92,796	-0,292	-0,231
98,728	85,128	-0,282	-0,216
99,743	145,306	-0,192	-0,181
100,757	-34,657	-0,283	-0,108
101,772	-65,687	-0,381	-0,106
102,787	40,896	-0,243	-0,154
103,801	16,812	-0,275	-0,152
104,816	153,555	-0,208	-0,200
105,830	-16,436	-0,219	-0,097
106,845	395,359	-0,118	-0,173
107,860	-0,714	-0,257	-0,127
108,874	108,491	-0,238	-0,199
109,889	-63,725	-0,223	-0,064
110,903	27,244	-0,250	-0,147
111,918	14,103	-0,255	-0,139
112,933	241,742	-0,177	-0,208
113,947	47,701	-0,234	-0,153
114,962	-12,840	-0,334	-0,152
115,976	95,596	-0,160	-0,128
116,991	148,809	-0,241	-0,228
118,006	36,175	-0,355	-0,218
119,020	97,500	-0,295	-0,237
120,035	43,705	-0,227	-0,145
121,049	88,035	-0,244	-0,189
122,064	402,512	-0,154	-0,227
123,079	0,790	-0,234	-0,117
124,093	212,697	-0,283	-0,313
125,108	-133,487	-0,219	-0,019
126,122	-13,679	-0,199	-0,090
127,137	34,512	-0,109	-0,066
128,151	-11,940	-0,198	-0,090
129,166	-119,487	-0,219	-0,026
130,181	144,777	-0,229	-0,214
131,195	41,421	-0,365	-0,231
132,210	300,381	-0,166	-0,214
133,224	-8,820	-0,198	-0,093
134,239	294,977	-0,175	-0,224
135,254	479,658	-0,124	-0,198
136,268	-93,417	-0,222	-0,043
137,283	43,431	-0,298	-0,190
138,297	246,570	-0,283	-0,334
139,312	-74,813	-0,291	-0,072
140,327	12,129	-0,336	-0,180
141,341	154,096	-0,222	-0,212
142,356	36,050	-0,347	-0,213
143,370	222,783	-0,129	-0,146
144,385	-120,647	-0,227	-0,027
145,400	52,162	-0,361	-0,240
146,414	198,940	-0,241	-0,258
147,429	43,811	-0,267	-0,170
148,443	116,539	-0,145	-0,124
149,458	213,221	-0,143	-0,158
150,473	119,639	-0,129	-0,111
151,487	-21,563	-0,290	-0,123
152,502	150,366	-0,391	-0,370
153,516	80,751	-0,300	-0,226
154,531	-7,570	-0,303	-0,142
155,546	112,525	-0,186	-0,157
156,560	800,000	-0,095	-0,206
157,575	213,806	-0,226	-0,250
158,589	163,991	-0,253	-0,249
159,604	19,686	-0,225	-0,126
160,619	372,592	-0,170	-0,242
161,633	34,226	-0,220	-0,134
162,648	138,716	-0,151	-0,138
163,662	-120,073	-0,212	-0,025
164,677	25,611	-0,234	-0,136
165,692	-65,636	-0,230	-0,064
166,706	72,337	-0,190	-0,138
167,721	9,636	-0,325	-0,171
168,735	116,305	-0,253	-0,216
169,750	-80,573	-0,195	-0,045
170,764	-99,675	-0,125	-0,022
171,779	173,440	-0,106	-0,106
172,794	-42,437	-0,228	-0,081
173,808	584,860	-0,183	-0,314
174,823	65,623	-0,255	-0,180
175,837	27,083	-0,267	-0,156
176,852	699,938	-0,114	-0,210
177,867	9,912	-0,306	-0,161
178,881	261,310	-0,157	-0,189
179,896	121,397	-0,250	-0,217
180,910	271,184	-0,209	-0,256
181,925	8,112	-0,179	-0,093
182,940	34,920	-0,291	-0,177
183,954	-64,415	-0,311	-0,087
184,969	182,570	-0,188	-0,193
185,983	365,147	-0,109	-0,153
186,998	125,247	-0,154	-0,135
188,013	111,589	-0,111	-0,093
189,027	70,220	-0,358	-0,257
190,042	55,813	-0,217	-0,146
191,056	75,302	-0,194	-0,142
192,071	62,232	-0,277	-0,192
193,086	321,746	-0,102	-0,135
194,100	133,507	-0,112	-0,101
195,115	28,043	-0,301	-0,176
196,129	55,183	-0,279	-0,187
197,144	-114,593	-0,336	-0,044
198,159	-128,834	-0,282	-0,027
199,173	142,611	-0,235	-0,217
200,188	105,418	-0,197	-0,162
201,202	-140,835	-0,161	-0,011
202,217	-110,290	-0,170	-0,024
203,232	117,328	-0,239	-0,204
204,246	-130,611	-0,128	-0,012
205,261	43,813	-0,201	-0,128
206,275	27,898	-0,228	-0,133
207,290	-115,872	-0,200	-0,026
208,304	36,039	-0,118	-0,072
209,319	48,281	-0,302	-0,196
210,334	-48,140	-0,121	-0,040
211,348	12,004	-0,246	-0,131
212,363	-25,921	-0,228	-0,093
213,377	376,709	-0,305	-0,434
214,392	745,452	-0,053	-0,100
215,407	-107,538	-0,218	-0,033
216,421	326,244	-0,117	-0,156
217,436	-1,832	-0,202	-0,098
218,450	51,877	-0,238	-0,157
219,465	54,901	-0,354	-0,237
220,480	-102,783	-0,212	-0,035
221,494	2,232	-0,204	-0,102
222,509	85,210	-0,219	-0,167
223,523	-88,701	-0,223	-0,046
224,538	800,000	-0,068	-0,204
225,553	32,240	-0,274	-0,164
226,567	-0,169	-0,143	-0,070
227,582	34,133	-0,317	-0,191
228,596	345,048	-0,151	-0,206
229,611	131,671	-0,148	-0,132
230,626	41,303	-0,130	-0,081
231,640	386,345	-0,122	-0,175
232,655	800,000	-0,081	-0,196
233,669	-13,811	-0,184	-0,082
234,684	192,469	-0,127	-0,133
235,699	9,255	-0,172	-0,090
236,713	504,237	-0,122	-0,196
237,728	156,402	-0,232	-0,222
238,742	-119,237	-0,201	-0,024
239,757	308,210	-0,232	-0,301
240,772	267,951	-0,140	-0,170
241,786	-84,870	-0,209	-0,045
242,801	146,052	-0,114	-0,106
243,815	-200,000	-0,075	-0,231
244,830	-96,034	-0,135	-0,025
245,844	-135,266	-0,255	-0,021
246,859	143,218	-0,174	-0,160
247,874	156,767	-0,175	-0,167
248,888	-138,725	-0,144	-0,011
249,903	800,000	-0,150	-0,319
250,917	-39,671	-0,214	-0,077
251,932	497,523	-0,128	-0,205
252,947	181,278	-0,097	-0,099
253,961	393,080	-0,147	-0,212
254,976	297,723	-0,104	-0,133
255,990	209,690	-0,117	-0,127
257,005	358,357	-0,055	-0,077
258,020	-62,057	-0,141	0,040
259,034	359,009	-0,154	-0,213
260,049	-140,142	-0,110	0,008
261,063	7,346	-0,324	-0,167
262,078	136,359	-0,182	-0,164
263,093	107,083	-0,261	-0,215
264,107	622,791	-0,119	-0,208
265,122	71,710	-0,225	-0,162
266,136	-2,649	-0,284	-0,137
267,151	-200,000	-0,034	-0,132
268,166	-81,575	-0,222	-0,050
269,180	109,262	-0,176	-0,145
270,195	111,160	-0,191	-0,159
271,209	142,853	-0,164	-0,151
272,224	-114,032	-0,193	-0,025
273,239	19,786	-0,094	-0,052
274,253	119,606	-0,165	-0,141
275,268	273,671	-0,097	-0,119
276,282	122,619	-0,227	-0,196
277,297	-31,625	-0,213	-0,082
278,312	-143,789	-0,244	0,016
279,326	-200,000	-0,007	-0,141
280,341	-144,738	-0,123	-0,008
281,355	-124,710	-0,167	-0,018
282,370	142,459	-0,040	0,036
283,384	-92,296	-0,172	-0,033
284,399	1,311	-0,151	-0,075
285,414	228,687	-0,151	-0,170
286,428	122,512	-0,231	-0,199
287,443	-57,859	-0,234	-0,070
288,457	-200,000	-0,039	-0,159
289,472	36,996	-0,236	-0,144
290,487	396,076	-0,079	-0,114
291,501	99,618	-0,205	-0,164
292,516	132,173	-0,109	-0,097
293,530	-93,365	-0,257	0,049
294,545	-80,144	-0,181	-0,041
295,560	-140,957	-0,214	0,015
296,574	19,926	-0,162	-0,090
297,589	-48,144	-0,193	-0,064
298,603	50,393	-0,170	-0,111
299,618	744,628	-0,096	-0,178
300,633	-119,661	-0,268	-0,032
301,647	-153,365	-0,120	-0,006
302,662	2,810	-0,079	0,039
303,676	-200,000	-0,047	-0,171
304,691	49,229	-0,206	-0,133
305,706	-13,524	-0,169	-0,075
306,720	185,453	-0,168	-0,172
307,735	468,735	-0,165	-0,256
308,749	-16,596	-0,082	-0,036
309,764	-42,009	-0,101	-0,035
310,779	208,199	-0,179	-0,193
311,793	-37,911	-0,183	-0,067
312,808	93,232	-0,090	-0,070
313,822	-65,649	-0,071	-0,019
314,837	682,040	-0,111	-0,200
315,852	800,000	-0,051	-0,122
316,866	6,342	-0,209	-0,106
317,881	13,995	-0,094	-0,050
318,895	49,611	-0,158	-0,102
319,910	358,440	-0,123	-0,169
320,925	169,102	-0,208	-0,204
321,939	-21,213	-0,209	-0,088
322,954	-200,000	-0,032	-0,138
323,968	-36,597	-0,150	-0,055
324,983	-59,748	-0,097	-0,028
325,997	-105,355	-0,236	-0,037
327,012	418,457	-0,070	-0,102
328,027	397,978	-0,166	-0,240
329,041	728,475	-0,092	-0,169
330,056	507,057	-0,112	-0,179
331,070	399,760	-0,086	-0,124
332,085	80,336	-0,124	0,092
333,100	-11,740	-0,138	-0,062
334,114	145,138	-0,145	-0,133
335,129	626,160	-0,092	-0,160
336,143	800,000	-0,072	-0,205
337,158	125,047	-0,097	-0,084
338,173	193,169	-0,038	0,040
339,187	19,364	-0,056	0,031
340,202	137,297	-0,135	-0,121
341,216	269,823	-0,154	-0,186
342,231	213,579	-0,102	-0,111
343,246	800,000	-0,088	-0,172
344,260	31,292	-0,061	-0,036
345,275	800,000	-0,049	0,110
346,289	-200,000	0,008	-0,120
347,304	-131,157	-0,161	-0,014
348,319	-92,942	-0,165	0,031
349,333	200,849	-0,136	-0,144
350,348	-140,813	-0,188	-0,013
351,362	-76,839	-0,086	0,020
352,377	-188,371	-0,196	-0,002
353,392	632,087	-0,099	-0,173
354,406	-12,744	-0,109	-0,049
355,421	209,802	1316,962	1417,762
356,435	161,484	1477,972	1418,252
