DTS Sentinel unit serial number:	SN410029Multiplexer serial number:	ORYXHardware model number:	OX2-SRSoftware version number:	ORYX F/W v4,00 Oryx Data Collector v3.7.2.0data status	okinstallation	B3 Nyhavnadifferential loss correction	single-endedforward channel	channel 1reverse channel	N/Adate	2023/12/02time	20:32:30forward acquisition time	300,00reverse acquisition time	0,00gamma	499,1914k internal	0,3200k external	0,3200temperature offset calibration	1,0000default loss term (dB/km)	0,3820temperature slope calibration	1,0000multiplexer offset coefficient	1,0000multiplexer slope coefficient	1,0000fibre end	0,00T internal ref (°C)	13,27T ext. ref 1 (°C)	-1,78T ext. ref 2 (°C)	-1,78length (m)	temperature (°C)	Stokes	anti-Stokes-744,400	-200,000	-0,097	-0,330
-743,385	800,000	-0,107	0,218
-742,371	-200,000	-0,038	-0,184
-741,356	-200,000	-0,001	0,335
-740,342	289,333	-0,193	-0,255
-739,327	-200,000	0,059	0,301
-738,312	396,586	-0,224	-0,342
-737,298	-200,000	-0,078	0,311
-736,283	98,669	-0,174	-0,146
-735,269	-200,000	0,080	0,281
-734,254	182,833	-0,261	-0,280
-733,239	-108,485	-0,225	0,035
-732,225	286,470	-0,137	-0,180
-731,210	-200,000	0,029	0,130
-730,196	-89,780	-0,015	0,003
-729,181	180,002	-0,035	0,038
-728,167	-200,000	0,016	-0,109
-727,152	-200,000	-0,005	0,068
-726,137	91,679	-0,059	0,049
-725,123	55,161	-0,062	0,044
-724,108	800,000	-0,071	-0,162
-723,094	363,610	-0,055	-0,081
-722,079	85,453	-0,126	-0,101
-721,064	-128,990	-0,060	-0,006
-720,050	-83,757	0,137	0,032
-719,035	308,633	0,033	-0,044
-718,021	-77,698	-0,128	-0,032
-717,006	690,757	-0,063	-0,120
-715,991	-200,000	0,006	-0,048
-714,977	127,471	-0,087	-0,080
-713,962	-104,773	-0,102	-0,017
-712,948	-200,000	0,000	-0,020
-711,933	-200,000	0,011	-0,059
-710,918	217,764	-0,075	0,087
-709,904	-66,438	-0,021	0,006
-708,889	800,000	-0,064	-0,149
-707,875	-200,000	-0,003	-0,093
-706,860	1,897	0,022	-0,012
-705,845	-200,000	0,019	0,186
-704,831	74,655	0,055	0,042
-703,816	-200,000	-0,006	0,066
-702,802	800,000	0,010	0,030
-701,787	433,727	-0,067	-0,106
-700,772	-62,050	-0,128	-0,039
-699,758	-200,000	0,002	-0,113
-698,743	3,705	-0,139	-0,073
-697,729	-140,730	-0,011	0,001
-696,714	-200,000	0,001	0,082
-695,699	33,080	-0,065	-0,041
-694,685	-95,392	-0,130	-0,025
-693,670	56,199	-0,068	-0,048
-692,656	800,000	-0,039	-0,087
-691,641	-200,000	-0,001	0,015
-690,627	122,903	0,109	0,099
-689,612	343,259	-0,082	0,117
-688,597	62,101	0,038	0,027
-687,583	160,475	-0,019	0,019
-686,568	358,487	-0,057	-0,083
-685,554	800,000	0,073	-0,188
-684,539	624,256	-0,068	0,125
-683,524	800,000	-0,049	-0,100
-682,510	-200,000	0,025	0,170
-681,495	13,650	-0,089	-0,050
-680,481	800,000	-0,029	-0,076
-679,466	41,094	-0,046	0,030
-678,451	-30,947	0,070	-0,028
-677,437	447,131	-0,055	0,088
-676,422	134,305	0,084	0,079
-675,408	-48,020	-0,128	0,045
-674,393	800,000	-0,006	0,019
-673,378	19,589	-0,050	0,029
-672,364	716,609	0,022	-0,043
-671,349	78,184	-0,165	-0,128
-670,335	-200,000	-0,010	-0,040
-669,320	130,207	0,094	0,087
-668,305	-200,000	-0,017	-0,065
-667,291	-81,320	0,044	0,011
-666,276	-61,413	-0,049	-0,015
-665,262	-200,000	0,019	-0,108
-664,247	-80,870	0,031	0,007
-663,232	68,888	-0,137	0,102
-662,218	29,543	-0,108	-0,066
-661,203	-86,073	0,081	-0,018
-660,189	800,000	-0,049	0,106
-659,174	-53,960	-0,014	0,005
-658,159	-200,000	-0,027	-0,114
-657,145	-9,818	-0,069	-0,033
-656,130	714,229	0,028	-0,053
-655,116	469,725	0,033	0,054
-654,101	-41,463	-0,055	0,020
-653,086	237,673	0,100	0,121
-652,072	800,000	0,069	0,140
-651,057	398,698	-0,030	-0,046
-650,043	-200,000	0,005	-0,070
-649,028	168,758	-0,074	0,076
-648,014	-77,769	0,059	0,015
-646,999	-36,384	0,117	-0,045
-645,984	29,488	0,080	0,049
-644,970	527,341	-0,041	0,071
-643,955	-51,440	0,032	0,011
-642,941	800,000	-0,041	-0,091
-641,926	387,230	-0,015	-0,022
-640,911	-200,000	0,018	0,075
-639,897	-200,000	0,009	-0,120
-638,882	-200,000	-0,028	-0,123
-637,868	47,767	-0,037	-0,025
-636,853	320,110	0,031	-0,042
-635,838	-32,005	-0,169	-0,068
-634,824	242,720	-0,051	0,062
-633,809	-200,000	-0,010	0,108
-632,795	-200,000	0,010	0,038
-631,780	800,000	-0,024	0,048
-630,765	-67,524	-0,114	-0,032
-629,751	-200,000	-0,017	-0,094
-628,736	-88,868	-0,159	0,034
-627,722	323,216	0,083	-0,115
-626,707	672,278	0,045	-0,085
-625,692	-182,091	-0,056	0,001
-624,678	51,885	-0,032	-0,022
-623,663	179,172	0,027	-0,029
-622,649	-200,000	0,013	-0,096
-621,634	-119,442	-0,121	-0,015
-620,619	73,558	-0,079	-0,060
-619,605	229,062	0,046	0,055
-618,590	624,195	0,040	0,073
-617,576	-25,310	-0,093	0,040
-616,561	800,000	0,032	-0,067
-615,546	54,139	0,159	-0,110
-614,532	-200,000	-0,006	-0,169
-613,517	-119,578	0,099	-0,012
-612,503	663,600	0,074	-0,139
-611,488	267,854	0,044	-0,056
-610,474	800,000	-0,025	0,062
-609,459	-119,468	0,099	-0,012
-608,444	-200,000	0,014	-0,045
-607,430	597,113	-0,063	-0,114
-606,415	-109,511	-0,110	-0,017
-605,401	-200,000	-0,018	-0,087
-604,386	-143,044	0,044	0,003
-603,371	800,000	0,008	-0,017
-602,357	-82,588	-0,084	-0,020
-601,342	-134,724	-0,178	-0,015
-600,328	612,199	0,064	-0,117
-599,313	-200,000	-0,029	-0,140
-598,298	791,513	-0,013	-0,025
-597,284	-200,000	0,007	-0,142
-596,269	-200,000	-0,006	0,028
-595,255	79,676	-0,055	-0,043
-594,240	189,403	-0,047	-0,051
-593,225	82,659	-0,098	-0,077
-592,211	-200,000	-0,008	0,106
-591,196	-200,000	-0,009	0,125
-590,182	69,828	0,094	0,070
-589,167	800,000	-0,036	0,094
-588,152	-58,073	0,064	0,020
-587,138	-200,000	0,022	-0,135
-586,123	-10,756	0,051	0,024
-585,109	-200,000	-0,032	-0,130
-584,094	-200,000	0,037	-0,137
-583,079	726,416	-0,006	0,011
-582,065	-103,641	0,103	-0,017
-581,050	-97,060	0,183	-0,034
-580,036	97,663	-0,158	0,131
-579,021	96,673	0,020	0,017
-578,006	183,308	-0,142	-0,152
-576,992	437,129	-0,033	-0,052
-575,977	167,300	-0,009	0,010
-574,963	116,569	-0,070	0,062
-573,948	-200,000	0,010	-0,115
-572,934	-200,000	-0,017	0,084
-571,919	-20,195	-0,191	-0,085
-570,904	-200,000	0,021	-0,089
-569,890	214,783	-0,088	0,101
-568,875	800,000	0,050	0,123
-567,861	425,344	0,071	-0,111
-566,846	-105,851	-0,109	-0,018
-565,831	-200,000	0,007	0,068
-564,817	196,195	0,050	-0,056
-563,802	-200,000	0,000	0,006
-562,788	7,002	-0,095	-0,051
-561,773	200,996	0,045	-0,050
-560,758	-10,104	0,152	0,073
-559,744	-31,230	0,130	0,053
-558,729	19,451	0,059	0,034
-557,715	208,110	-0,060	-0,068
-556,700	-200,000	-0,013	0,089
-555,685	-200,000	0,008	-0,067
-554,671	-200,000	0,015	-0,051
-553,656	210,179	0,085	0,096
-552,642	286,379	-0,076	0,099
-551,627	173,936	0,039	-0,040
-550,612	-200,000	-0,002	-0,038
-549,598	634,816	-0,083	0,153
-548,583	-200,000	-0,042	0,135
-547,569	329,410	-0,027	0,038
-546,554	-200,000	-0,007	-0,057
-545,539	-200,000	0,012	0,102
-544,525	-200,000	-0,040	0,172
-543,510	523,568	0,040	-0,068
-542,496	243,839	-0,072	0,088
-541,481	800,000	-0,025	0,053
-540,466	-18,893	-0,033	0,015
-539,452	800,000	0,092	0,259
-538,437	-74,009	0,074	0,019
-537,423	215,792	-0,089	0,103
-536,408	-200,000	-0,008	0,046
-535,393	323,465	-0,044	-0,061
-534,379	800,000	0,027	-0,072
-533,364	26,081	-0,163	-0,098
-532,350	299,874	0,065	0,086
-531,335	-96,185	-0,068	0,013
-530,321	-200,000	0,001	0,032
-529,306	-200,000	-0,028	-0,146
-528,291	-136,969	-0,042	0,003
-527,277	272,779	0,063	0,081
-526,262	763,923	0,066	-0,131
-525,248	-127,271	-0,101	0,011
-524,233	800,000	0,031	0,063
-523,218	800,000	0,041	0,083
-522,204	-139,218	0,062	-0,005
-521,189	64,164	0,033	0,024
-520,175	115,012	-0,102	-0,090
-519,160	-200,000	0,024	0,103
-518,145	-101,434	0,096	0,017
-517,131	-120,722	-0,054	0,007
-516,116	-133,698	-0,131	0,012
-515,102	-140,383	0,027	0,002
-514,087	-200,000	-0,018	-0,091
-513,072	-3,704	-0,168	-0,084
-512,058	35,236	-0,145	-0,092
-511,043	78,735	-0,061	0,047
-510,029	-48,071	0,036	0,012
-509,014	800,000	-0,018	-0,047
-507,999	-200,000	0,004	-0,024
-506,985	-200,000	-0,016	-0,117
-505,970	800,000	-0,005	0,011
-504,956	20,440	-0,121	-0,070
-503,941	34,315	0,132	-0,083
-502,926	31,749	-0,076	-0,047
-501,912	50,579	-0,055	0,038
-500,897	-200,000	0,005	0,038
-499,883	800,000	0,039	-0,102
-498,868	-32,729	-0,148	-0,059
-497,853	229,896	-0,069	-0,081
-496,839	-200,000	0,001	-0,056
-495,824	800,000	0,019	0,056
-494,810	105,594	0,097	0,083
-493,795	161,879	0,035	0,035
-492,781	-120,370	-0,030	-0,004
-491,766	-200,000	-0,002	-0,161
-490,751	10,635	-0,008	-0,005
-489,737	211,713	-0,076	0,086
-488,722	238,370	0,066	0,079
-487,708	-200,000	-0,025	0,138
-486,693	-163,190	-0,061	0,002
-485,678	-125,130	0,060	0,007
-484,664	-198,193	-0,061	0,000
-483,649	-175,446	-0,175	-0,003
-482,635	-200,000	-0,026	-0,125
-481,620	-79,992	0,090	0,022
-480,605	800,000	0,060	-0,124
-479,591	742,726	0,017	-0,033
-478,576	27,298	-0,102	-0,062
-477,562	-114,696	0,109	0,015
-476,547	456,614	0,051	-0,081
-475,532	-88,075	-0,079	-0,017
-474,518	-200,000	-0,012	-0,112
-473,503	-200,000	-0,027	0,195
-472,489	-128,442	0,114	-0,012
-471,474	461,601	0,055	0,089
-470,459	470,078	-0,101	0,163
-469,445	-46,519	0,101	-0,036
-468,430	-49,854	0,094	0,032
-467,416	315,124	0,017	0,023
-466,401	-119,490	0,087	0,011
-465,386	-200,000	-0,005	-0,019
-464,372	47,741	0,082	0,055
-463,357	-109,413	-0,140	0,021
-462,343	51,486	0,067	0,046
-461,328	-126,105	0,170	-0,018
-460,313	459,366	0,081	-0,130
-459,299	25,560	0,090	-0,053
-458,284	-200,000	0,001	0,092
-457,270	94,310	-0,105	0,086
-456,255	800,000	-0,042	-0,104
-455,241	800,000	-0,050	-0,106
-454,226	-97,183	-0,058	0,011
-453,211	-63,436	-0,050	0,015
-452,197	-107,167	0,019	0,003
-451,182	-67,562	0,111	-0,031
-450,168	226,234	0,051	0,060
-449,153	-35,313	-0,077	-0,030
-448,138	-200,000	-0,027	0,089
-447,124	-200,000	0,025	-0,102
-446,109	-200,000	0,013	-0,109
-445,095	-1,407	0,124	0,063
-444,080	-117,328	0,145	-0,019
-443,065	16,492	0,106	-0,060
-442,051	196,505	-0,118	-0,130
-441,036	-200,000	0,006	0,041
-440,022	16,474	-0,057	-0,032
-439,007	-200,000	0,002	0,045
-437,992	-159,422	0,048	-0,002
-436,978	61,061	-0,010	0,007
-435,963	213,658	-0,032	-0,036
-434,949	-110,527	0,043	-0,006
-433,934	612,089	-0,062	-0,112
-432,919	151,716	-0,082	-0,080
-431,905	-200,000	0,028	0,107
-430,890	-74,920	0,169	0,043
-429,876	-200,000	-0,007	-0,022
-428,861	-200,000	-0,001	0,062
-427,846	-200,000	-0,058	0,204
-426,832	66,185	-0,075	0,055
-425,817	800,000	-0,009	-0,023
-424,803	225,588	0,064	-0,075
-423,788	-200,000	-0,016	0,065
-422,773	-112,577	-0,043	0,006
-421,759	-113,412	0,079	0,011
-420,744	441,377	-0,033	0,051
-419,730	-200,000	0,029	0,130
-418,715	-21,133	-0,071	0,031
-417,701	205,930	-0,073	-0,081
-416,686	800,000	0,022	-0,054
-415,671	499,678	0,058	-0,096
-414,657	339,311	-0,044	-0,062
-413,642	-200,000	-0,022	0,116
-412,628	-200,000	0,004	-0,075
-411,613	-96,039	-0,085	0,016
-410,598	54,055	-0,074	-0,051
-409,584	702,383	0,023	0,043
-408,569	-56,488	0,130	-0,041
-407,555	-200,000	-0,017	-0,088
-406,540	800,000	-0,008	0,023
-405,525	-141,619	-0,057	-0,004
-404,511	-29,175	-0,058	-0,024
-403,496	-81,335	-0,129	0,030
-402,482	-34,197	-0,020	-0,008
-401,467	-200,000	0,008	-0,133
-400,452	117,926	0,123	-0,109
-399,438	131,677	0,059	0,054
-398,423	706,255	-0,085	-0,162
-397,409	800,000	0,017	-0,049
-396,394	152,143	0,047	-0,046
-395,379	16,437	0,056	-0,031
-394,365	800,000	0,085	0,175
-393,350	-200,000	-0,009	0,065
-392,336	-98,407	0,081	-0,015
-391,321	-121,274	0,073	-0,009
-390,306	-150,658	-0,058	0,003
-389,292	436,904	-0,094	0,147
-388,277	800,000	-0,025	0,063
-387,263	800,000	0,073	0,187
-386,248	-166,709	0,208	0,006
-385,233	-200,000	-0,004	0,060
-384,219	-200,000	-0,002	0,078
-383,204	-53,859	0,123	0,040
-382,190	587,726	-0,054	-0,097
-381,175	87,549	0,150	-0,119
-380,160	727,604	-0,013	-0,025
-379,146	800,000	-0,021	0,065
-378,131	800,000	-0,042	0,091
-377,117	-140,948	-0,046	-0,003
-376,102	-76,306	-0,191	-0,048
-375,088	-90,170	-0,077	0,016
-374,073	800,000	-0,060	-0,154
-373,058	800,000	-0,050	0,110
-372,044	-152,890	0,039	-0,002
-371,029	24,618	-0,080	0,047
-370,015	658,238	-0,064	0,119
-369,000	-200,000	0,012	0,070
-367,985	-200,000	0,002	-0,073
-366,971	-88,005	0,177	0,038
-365,956	191,889	-0,063	-0,068
-364,942	-138,569	0,122	-0,009
-363,927	800,000	0,032	0,082
-362,912	-179,685	0,109	0,002
-361,898	-65,908	-0,048	0,014
-360,883	186,120	-0,080	-0,085
-359,869	69,114	0,143	-0,105
-358,854	800,000	-0,055	-0,147
-357,839	5,217	0,131	-0,069
-356,825	56,670	0,061	0,043
-355,810	-200,000	0,005	-0,019
-354,796	-200,000	-0,030	-0,158
-353,781	114,070	0,068	-0,059
-352,766	-39,406	0,086	-0,032
-351,752	300,172	-0,118	0,156
-350,737	125,049	0,075	-0,068
-349,723	788,269	0,031	0,060
-348,708	177,933	-0,076	0,080
-347,693	545,640	0,048	0,082
-346,679	-53,394	-0,182	0,059
-345,664	-200,000	0,006	0,023
-344,650	9,181	0,094	-0,051
-343,635	800,000	0,048	0,145
-342,620	251,619	0,025	0,030
-341,606	-46,166	0,061	-0,021
-340,591	-43,136	0,049	0,018
-339,577	357,641	-0,047	0,067
-338,562	176,436	-0,100	0,104
-337,548	120,009	0,032	0,028
-336,533	55,565	0,099	0,069
-335,518	2,004	0,026	-0,013
-334,504	-200,000	0,003	-0,126
-333,489	800,000	0,044	0,125
-332,475	-200,000	0,019	-0,206
-331,460	118,365	0,024	-0,021
-330,445	-200,000	0,004	0,047
-329,431	45,140	0,168	0,111
-328,416	-21,870	0,076	0,033
-327,402	358,234	0,085	-0,121
-326,387	10,500	-0,069	0,037
-325,372	60,951	0,102	0,072
-324,358	118,300	0,079	0,070
-323,343	17,442	-0,080	0,045
-322,329	373,652	0,052	0,076
-321,314	-69,234	0,134	0,037
-320,299	160,468	-0,074	0,074
-319,285	-200,000	-0,011	-0,116
-318,270	-200,000	0,006	-0,102
-317,256	401,731	0,017	0,025
-316,241	322,369	-0,022	-0,031
-315,226	14,270	0,066	0,037
-314,212	367,320	-0,039	-0,057
-313,197	-143,390	-0,080	0,005
-312,183	25,322	-0,085	0,050
-311,168	32,220	0,013	-0,008
-310,153	-130,279	-0,079	0,008
-309,139	-77,547	-0,139	0,034
-308,124	204,582	0,117	0,130
-307,110	-199,870	-0,095	-0,000
-306,095	231,655	0,098	-0,115
-305,080	116,735	-0,083	0,073
-304,066	-11,647	-0,065	0,030
-303,051	128,887	-0,036	-0,033
-302,037	-0,721	-0,028	0,014
-301,022	-72,698	-0,049	-0,013
-300,008	-89,830	0,069	0,014
-298,993	-66,581	0,068	0,019
-297,978	-102,906	-0,086	-0,014
-296,964	800,000	0,033	0,095
-295,949	-153,037	-0,032	-0,002
-294,935	-200,000	-0,026	0,113
-293,920	203,925	0,030	0,033
-292,905	-200,000	0,001	-0,036
-291,891	800,000	0,038	0,083
-290,876	-200,000	0,012	0,159
-289,862	-8,314	0,019	0,009
-288,847	-200,000	0,014	-0,110
-287,832	-99,498	-0,087	-0,016
-286,818	-7,436	0,041	-0,020
-285,803	-98,068	-0,057	-0,010
-284,789	-129,519	0,229	0,022
-283,774	-90,225	0,049	0,010
-282,759	324,163	-0,090	0,124
-281,745	-200,000	0,023	-0,177
-280,730	-134,645	-0,106	-0,009
-279,716	-21,456	-0,097	0,042
-278,701	800,000	0,054	0,135
-277,686	-128,933	-0,083	0,008
-276,672	20,048	-0,056	-0,032
-275,657	-200,000	0,009	-0,073
-274,643	23,059	-0,173	-0,101
-273,628	324,978	-0,028	-0,038
-272,613	70,881	-0,058	0,043
-271,599	-0,880	-0,098	-0,050
-270,584	154,210	0,082	0,081
-269,570	113,033	0,098	0,085
-268,555	270,594	0,073	-0,091
-267,540	19,326	-0,026	-0,015
-266,526	-167,919	-0,051	-0,001
-265,511	627,681	-0,056	0,101
-264,497	-86,860	0,104	0,022
-263,482	-200,000	0,009	-0,173
-262,467	-82,821	0,009	0,002
-261,453	-200,000	-0,019	0,108
-260,438	800,000	-0,048	0,129
-259,424	22,023	-0,047	0,027
-258,409	-52,671	-0,013	-0,004
-257,395	27,260	0,079	0,047
-256,380	190,267	0,114	0,122
-255,365	800,000	-0,035	-0,077
-254,351	11,334	0,032	0,018
-253,336	-35,849	0,020	-0,008
-252,322	26,086	-0,135	-0,080
-251,307	-200,000	0,016	-0,074
-250,292	409,410	0,048	-0,073
-249,278	-38,498	0,120	0,045
-248,263	-8,147	0,033	-0,016
-247,249	-200,000	0,050	0,161
-246,234	-180,262	-0,044	0,001
-245,219	800,000	-0,015	-0,031
-244,205	46,001	-0,255	-0,168
-243,190	800,000	0,023	-0,047
-242,176	514,019	-0,049	0,081
-241,161	-30,345	0,067	0,027
-240,146	-86,597	0,158	0,034
-239,132	800,000	0,032	-0,070
-238,117	-135,787	-0,188	-0,016
-237,103	161,923	-0,087	-0,087
-236,088	-200,000	0,017	0,100
-235,073	202,217	-0,068	0,075
-234,059	494,971	0,045	0,074
-233,044	-200,000	0,000	0,076
-232,030	308,639	-0,077	0,102
-231,015	800,000	0,042	0,103
-230,000	221,982	0,071	-0,081
-228,986	-152,119	0,099	-0,005
-227,971	67,881	0,055	-0,040
-226,957	-132,865	-0,067	0,006
-225,942	-67,852	-0,062	0,017
-224,927	-24,704	-0,102	-0,043
-223,913	-139,331	-0,073	-0,006
-222,898	43,462	0,060	0,039
-221,884	-200,000	-0,012	-0,052
-220,869	-77,282	0,112	-0,028
-219,855	-200,000	-0,025	0,156
-218,840	259,838	-0,058	0,071
-217,825	800,000	-0,034	0,081
-216,811	534,396	-0,042	0,072
-215,796	307,681	0,068	-0,091
-214,782	-151,929	-0,136	0,007
-213,767	-200,000	0,000	-0,135
-212,752	-200,000	0,000	0,041
-211,738	800,000	0,015	-0,045
-210,723	581,486	-0,051	0,090
-209,709	-200,000	0,005	0,131
-208,694	-42,064	0,018	0,007
-207,679	281,459	-0,108	-0,138
-206,665	272,060	0,071	-0,089
-205,650	-8,911	0,121	-0,057
-204,636	-77,153	0,087	0,021
-203,621	800,000	-0,010	0,021
-202,606	555,419	0,079	-0,135
-201,592	242,685	0,098	-0,117
-200,577	75,528	0,067	0,050
-199,563	711,785	0,051	0,096
-198,548	162,985	0,069	-0,070
-197,533	-93,723	0,089	0,017
-196,519	800,000	-0,008	-0,017
-195,504	270,688	0,118	-0,148
-194,490	800,000	-0,045	-0,121
-193,475	59,052	-0,134	-0,094
-192,460	-91,488	-0,023	-0,005
-191,446	762,376	0,012	-0,024
-190,431	-84,940	0,144	-0,032
-189,417	33,375	0,048	0,030
-188,402	800,000	-0,040	-0,083
-187,387	-200,000	0,032	-0,113
-186,373	800,000	0,031	0,093
-185,358	-58,497	-0,088	0,027
-184,344	-84,547	0,213	-0,047
-183,329	122,463	-0,050	0,045
-182,315	79,526	0,108	0,083
-181,300	-124,385	-0,077	0,008
-180,285	-52,723	0,145	0,047
-179,271	230,130	-0,098	-0,114
-178,256	-57,900	-0,172	0,053
-177,242	340,768	-0,023	0,032
-176,227	123,032	-0,051	0,046
-175,212	-51,721	0,056	-0,018
-174,198	132,169	0,123	0,113
-173,183	-60,873	-0,036	-0,011
-172,169	263,340	-0,011	0,013
-171,154	800,000	0,016	-0,043
-170,139	-200,000	0,004	0,065
-169,125	-200,000	0,016	0,086
-168,110	-20,264	0,123	0,054
-167,096	-200,000	-0,020	0,077
-166,081	-140,409	-0,069	-0,005
-165,066	-200,000	-0,013	-0,071
-164,052	-51,617	-0,030	-0,010
-163,037	-200,000	0,014	0,053
-162,023	185,289	0,045	-0,047
-161,008	-68,750	-0,032	-0,009
-159,993	-200,000	0,014	0,054
-158,979	-109,130	-0,172	0,026
-157,964	800,000	0,048	-0,113
-156,950	6,814	-0,035	0,018
-155,935	-4,141	-0,043	0,021
-154,920	-200,000	0,065	0,224
-153,906	-12,618	0,109	0,050
-152,891	151,783	-0,018	0,018
-151,877	259,722	-0,104	0,128
-150,862	530,910	-0,004	-0,007
-149,847	237,391	-0,040	-0,047
-148,833	242,061	-0,055	0,065
-147,818	136,169	0,094	0,087
-146,804	800,000	-0,024	0,055
-145,789	-200,000	-0,026	0,141
-144,775	293,273	0,098	-0,127
-143,760	-72,757	0,191	-0,050
-142,745	781,037	-0,036	-0,070
-141,731	190,785	-0,015	-0,016
-140,716	348,038	0,095	0,134
-139,702	793,167	-0,062	0,122
-138,687	-200,000	-0,000	0,033
-137,672	800,000	-0,019	-0,055
-136,658	-118,260	-0,174	0,022
-135,643	30,211	-0,140	-0,084
-134,629	-200,000	0,022	-0,090
-133,614	188,669	0,074	-0,078
-132,599	576,163	0,013	-0,023
-131,585	9,221	-0,114	0,061
-130,570	34,795	-0,110	-0,068
-129,556	110,210	-0,063	-0,053
-128,541	141,004	0,042	-0,040
-127,526	-3,138	-0,081	-0,040
-126,512	196,913	-0,029	0,032
-125,497	-200,000	0,013	0,050
-124,483	286,517	0,177	0,227
-123,468	-200,000	0,001	0,048
-122,453	-200,000	-0,026	0,190
-121,439	-130,834	-0,092	0,009
-120,424	671,420	0,030	0,056
-119,410	207,558	-0,002	-0,002
-118,395	-200,000	0,008	0,088
-117,380	-200,000	0,014	0,049
-116,366	800,000	-0,042	-0,105
-115,351	385,847	-0,090	0,132
-114,337	69,503	-0,060	-0,044
-113,322	-200,000	0,039	0,122
-112,307	411,998	0,050	0,076
-111,293	-200,000	0,036	0,125
-110,278	-200,000	-0,003	0,078
-109,264	-61,339	0,105	0,031
-108,249	-93,927	0,023	0,004
-107,234	-50,595	0,005	0,002
-106,220	368,293	-0,081	0,117
-105,205	-7,475	0,092	-0,044
-104,191	800,000	0,057	0,114
-103,176	295,430	-0,059	-0,077
-102,162	744,875	-0,028	0,054
-101,147	-32,691	0,099	-0,039
-100,132	4,210	-0,106	-0,055
-99,118	-200,000	0,003	0,099
-98,103	249,561	-0,025	0,030
-97,089	-200,000	-0,002	-0,043
-96,074	291,715	0,074	0,096
-95,059	800,000	-0,083	0,172
-94,045	-143,560	-0,159	0,011
-93,030	318,214	-0,088	-0,118
-92,016	-189,621	-0,232	-0,002
-91,001	800,000	-0,063	-0,155
-89,986	410,707	-0,052	0,078
-88,972	-95,291	0,041	-0,008
-87,957	194,743	-0,012	0,013
-86,943	126,438	-0,091	-0,082
-85,928	364,064	0,028	-0,040
-84,913	800,000	0,024	0,056
-83,899	133,320	-0,043	-0,039
-82,884	13,820	0,073	-0,040
-81,870	260,576	-0,045	0,055
-80,855	-200,000	0,020	0,063
-79,840	736,048	-0,065	0,125
-78,826	-200,000	0,001	0,058
-77,811	-101,910	-0,071	0,012
-76,797	-113,157	0,046	0,006
-75,782	-67,227	0,061	0,017
-74,767	38,075	-0,025	-0,016
-73,753	-111,882	0,112	0,016
-72,738	101,685	0,028	-0,023
-71,724	292,905	-0,067	0,087
-70,709	183,026	0,072	-0,076
-69,694	800,000	-0,001	-0,001
-68,680	80,205	0,093	0,071
-67,665	-170,395	0,085	-0,002
-66,651	14,724	-0,066	0,036
-65,636	-119,631	0,050	-0,006
-64,622	450,004	0,099	-0,155
-63,607	168,076	0,087	-0,088
-62,592	800,000	-0,027	0,074
-61,578	-29,620	0,069	-0,028
-60,563	211,057	0,052	-0,058
-59,549	392,690	0,026	0,038
-58,534	-24,236	-1,747	-0,735
-57,519	382,495	-1,374	-2,006
-56,505	-200,000	-0,477	-4,647
-55,490	187,142	0,993	1,049
-54,476	800,000	4,877	11,357
-53,461	-200,000	19,147	321,002
-52,446	-200,000	741,213	2334,984
-51,432	572,387	1656,004	2868,578
-50,417	78,200	1671,302	1261,843
-49,403	21,266	1544,113	885,706
-48,388	15,149	1466,460	811,412
-47,373	18,000	1456,737	819,783
-46,359	16,680	1446,799	807,823
-45,344	13,402	1442,048	789,429
-44,330	13,290	1440,185	787,840
-43,315	13,313	1438,450	786,975
-42,300	13,265	1436,902	785,862
-41,286	13,343	1435,265	785,313
-40,271	13,288	1433,990	784,321
-39,257	13,321	1432,926	783,862
-38,242	13,316	1431,460	783,008
-37,227	13,333	1430,218	782,376
-36,213	13,339	1429,115	781,773
-35,198	13,345	1427,913	781,113
-34,184	13,404	1426,843	780,774
-33,169	13,344	1425,629	779,796
-32,154	13,411	1424,294	779,354
-31,140	13,398	1423,225	778,674
-30,125	13,406	1421,911	777,960
-29,111	13,432	1421,046	777,583
-28,096	13,370	1419,854	776,603
-27,082	13,305	1418,795	775,686
-26,067	13,323	1417,698	775,142
-25,052	13,304	1416,618	774,434
-24,038	13,259	1415,751	773,713
-23,023	13,286	1414,385	773,063
-22,009	13,288	1413,300	772,449
-20,994	13,287	1412,588	772,026
-19,979	13,323	1411,731	771,698
-18,965	13,240	1410,709	770,717
-17,950	13,212	1409,956	770,146
-16,936	13,212	1409,071	769,628
-15,921	13,207	1407,773	768,869
-14,906	13,177	1407,064	768,310
-13,892	13,236	1405,782	767,855
-12,877	13,226	1405,051	767,380
-11,863	13,211	1404,276	766,853
-10,848	13,148	1403,402	766,050
-9,833	13,161	1402,469	765,574
-8,819	13,175	1401,684	765,180
-7,804	13,115	1400,811	764,393
-6,790	13,141	1399,802	763,932
-5,775	13,135	1398,581	763,210
-4,760	13,143	1397,751	762,763
-3,746	13,052	1396,935	761,865
-2,731	13,099	1396,009	761,547
-1,717	13,089	1395,145	760,999
-0,702	13,040	1393,417	759,798
0,313	16,935	1310,029	732,362
1,327	33,200	703,667	430,976
2,342	51,258	123,355	82,717
3,356	2,808	16,632	8,512
4,371	3,283	3,313	1,701
5,386	-46,942	0,499	0,172
6,400	-200,000	-0,022	0,266
7,415	115,979	-0,142	-0,123
8,429	249,216	-0,238	-0,285
9,444	143,141	-0,266	-0,250
10,459	-100,542	-0,312	-0,054
11,473	-114,869	-0,275	-0,037
12,488	-18,867	-0,184	-0,081
13,502	-23,696	-0,418	-0,176
14,517	137,473	-0,263	-0,244
15,531	169,560	-0,305	-0,308
16,546	98,726	-0,367	-0,299
17,561	116,929	-0,303	-0,263
18,575	605,271	-0,108	-0,191
19,590	247,243	-0,207	-0,248
20,604	72,051	-0,158	-0,116
21,619	-19,437	-0,459	-0,200
22,634	100,555	-0,461	-0,378
23,648	19,049	-0,451	-0,255
24,663	202,353	-0,264	-0,289
25,677	257,733	-0,302	-0,368
26,692	262,984	-0,266	-0,327
27,707	62,805	-0,368	-0,260
28,721	43,926	-0,352	-0,227
29,736	92,258	-0,376	-0,299
30,750	114,339	-0,394	-0,339
31,765	119,769	-0,400	-0,350
32,780	104,192	-0,360	-0,299
33,794	44,907	-0,364	-0,236
34,809	161,655	-0,230	-0,227
35,823	-11,385	-0,369	-0,171
36,838	222,547	-0,290	-0,330
37,853	72,428	-0,493	-0,362
38,867	28,707	-0,487	-0,290
39,882	47,948	-0,336	-0,221
40,896	115,647	-0,354	-0,305
41,911	116,408	-0,289	-0,250
42,926	66,856	-0,279	-0,200
43,940	33,242	-0,512	-0,313
44,955	61,086	-0,374	-0,262
45,969	23,033	-0,343	-0,198
46,984	504,459	-0,208	-0,341
47,999	800,000	-0,211	-0,420
49,013	142,804	-0,417	-0,391
50,028	164,801	-0,315	-0,313
51,042	108,099	-0,276	-0,231
52,057	97,035	-0,356	-0,287
53,071	-9,596	-0,367	-0,172
54,086	-87,190	-0,451	-0,096
55,101	69,892	-0,268	-0,195
56,115	5,802	-0,342	-0,178
57,130	-8,390	-0,392	-0,185
58,144	68,627	-0,373	-0,269
59,159	52,366	-0,446	-0,299
60,174	5,112	-0,471	-0,244
61,188	131,519	-0,273	-0,247
62,203	65,555	-0,183	-0,131
63,217	85,098	-0,275	-0,212
64,232	-40,234	-0,317	-0,116
65,247	-43,757	-0,366	-0,129
66,261	117,321	-0,289	-0,250
67,276	150,391	-0,315	-0,301
68,290	84,883	-0,299	-0,230
69,305	102,411	-0,329	-0,271
70,320	121,577	-0,253	-0,222
71,334	162,703	-0,342	-0,338
72,349	27,894	-0,383	-0,226
73,363	15,034	-0,290	-0,159
74,378	59,092	-0,380	-0,263
75,393	82,013	-0,301	-0,229
76,407	141,799	-0,185	-0,172
77,422	-12,213	-0,307	-0,141
78,436	460,186	-0,179	-0,282
79,451	146,902	-0,340	-0,321
80,466	33,606	-0,351	-0,214
81,480	141,750	-0,326	-0,304
82,495	88,013	-0,279	-0,217
83,509	-65,169	-0,389	-0,109
84,524	40,244	-0,211	-0,133
85,539	209,395	-0,261	-0,288
86,553	-1,555	-0,291	-0,144
87,568	94,243	-0,257	-0,205
88,582	28,825	-0,359	-0,213
89,597	37,211	-0,179	-0,111
90,611	168,352	-0,242	-0,242
91,626	-24,314	-0,330	-0,138
92,641	-53,447	-0,188	-0,060
93,655	69,016	-0,284	-0,204
94,670	86,736	-0,330	-0,255
95,684	719,648	-0,185	-0,348
96,699	276,435	-0,217	-0,271
97,714	66,353	-0,259	-0,185
98,728	204,192	-0,240	-0,261
99,743	4,111	-0,236	-0,121
100,757	-137,173	-0,281	-0,022
101,772	-19,967	-0,358	-0,154
102,787	294,642	-0,226	-0,291
103,801	309,084	-0,281	-0,370
104,816	0,488	-0,181	-0,091
105,830	135,373	-0,259	-0,236
106,845	241,432	-0,177	-0,208
107,860	100,912	-0,208	-0,170
108,874	90,577	-0,288	-0,226
109,889	305,004	-0,194	-0,254
110,903	254,554	-0,270	-0,324
111,918	167,619	-0,160	-0,159
112,933	-190,556	-0,148	-0,001
113,947	-21,465	-0,221	-0,094
114,962	125,281	-0,175	-0,155
115,976	238,978	-0,238	-0,278
116,991	136,583	-0,265	-0,242
118,006	343,178	-0,260	-0,358
119,020	-186,026	-0,140	-0,001
120,035	-50,106	-0,359	-0,119
121,049	146,123	-0,177	-0,166
122,064	117,725	-0,210	-0,181
123,079	-40,669	-0,287	-0,103
124,093	91,742	-0,286	-0,225
125,108	28,035	-0,346	-0,204
126,122	-77,571	-0,225	-0,054
127,137	-37,965	-0,180	-0,066
128,151	27,210	-0,284	-0,167
129,166	-8,434	-0,297	-0,139
130,181	119,995	-0,289	-0,251
131,195	46,077	-0,311	-0,201
132,210	71,158	-0,206	-0,149
133,224	125,206	-0,298	-0,263
134,239	-51,888	-0,277	-0,090
135,254	26,212	-0,253	-0,148
136,268	6,460	-0,260	-0,135
137,283	-71,167	-0,256	-0,067
138,297	103,308	-0,225	-0,185
139,312	-10,539	-0,257	-0,119
140,327	-26,680	-0,364	-0,148
141,341	191,493	-0,122	-0,129
142,356	-200,000	0,063	-0,394
143,370	36,455	-0,188	-0,115
144,385	109,867	-0,319	-0,268
145,400	47,038	-0,305	-0,198
146,414	74,554	-0,296	-0,217
147,429	249,290	-0,320	-0,380
148,443	259,020	-0,194	-0,235
149,458	-37,491	-0,269	-0,100
150,473	-57,059	-0,320	-0,098
151,487	32,801	-0,237	-0,143
152,502	58,882	-0,190	-0,130
153,516	134,812	-0,264	-0,239
154,531	21,899	-0,403	-0,229
155,546	106,749	-0,286	-0,237
156,560	-23,778	-0,273	-0,114
157,575	545,727	-0,173	-0,290
158,589	41,226	-0,185	-0,116
159,604	650,252	-0,145	-0,261
160,619	800,000	-0,182	-0,411
161,633	-46,290	-0,310	-0,106
162,648	-16,168	-0,267	-0,118
163,662	-26,123	-0,155	-0,063
164,677	-7,518	-0,161	-0,076
165,692	-81,036	-0,297	-0,068
166,706	-22,742	-0,300	-0,126
167,721	146,778	-0,190	-0,179
168,735	231,791	-0,181	-0,208
169,750	220,676	-0,247	-0,277
170,764	800,000	-0,091	-0,197
171,779	29,100	-0,189	-0,112
172,794	300,920	-0,101	-0,131
173,808	3,140	-0,277	-0,140
174,823	-200,000	-0,104	-0,345
175,837	184,029	-0,238	-0,246
176,852	14,807	-0,348	-0,189
177,867	31,234	-0,268	-0,160
178,881	-12,843	-0,226	-0,102
179,896	-25,619	-0,204	-0,084
180,910	100,724	-0,157	-0,127
181,925	261,878	-0,219	-0,265
182,940	19,521	-0,300	-0,167
183,954	298,586	-0,219	-0,281
184,969	162,438	-0,278	-0,272
185,983	64,770	-0,216	-0,152
186,998	198,440	-0,182	-0,194
188,013	-200,000	-0,019	-0,178
189,027	800,000	-0,117	-0,281
190,042	71,669	-0,158	-0,114
191,056	183,916	-0,104	-0,107
192,071	-80,185	-0,196	-0,045
193,086	107,749	-0,170	-0,141
194,100	158,831	-0,249	-0,241
195,115	111,374	-0,319	-0,268
196,129	-32,408	-0,281	-0,109
197,144	45,445	-0,229	-0,147
198,159	90,444	-0,244	-0,190
199,173	141,664	-0,220	-0,203
200,188	193,935	-0,153	-0,162
201,202	591,117	-0,099	-0,170
202,217	-162,612	-0,196	-0,007
203,232	69,707	-0,142	-0,102
204,246	152,956	-0,226	-0,215
205,261	-53,282	-0,309	-0,098
206,275	71,442	-0,195	-0,140
207,290	-162,899	-0,207	-0,007
208,304	136,776	-0,130	-0,118
209,319	-85,119	-0,233	-0,050
210,334	129,253	-0,251	-0,223
211,348	357,352	-0,177	-0,246
212,363	201,231	-0,203	-0,217
213,377	-77,867	-0,217	-0,052
214,392	34,993	-0,177	-0,108
215,407	800,000	-0,033	-0,092
216,421	75,398	-0,209	-0,153
217,436	800,000	-0,090	-0,263
218,450	28,733	-0,084	-0,049
219,465	169,965	-0,171	-0,170
220,480	771,479	-0,083	-0,158
221,494	201,987	-0,158	-0,169
222,509	-17,135	-0,125	-0,055
223,523	-41,255	-0,110	-0,039
224,538	-68,196	-0,225	-0,060
225,553	376,484	-0,134	-0,191
226,567	57,043	-0,121	-0,082
227,582	626,748	-0,124	-0,219
228,596	66,244	-0,177	-0,125
229,611	499,323	-0,115	-0,184
230,626	42,311	-0,168	-0,106
231,640	448,482	-0,115	-0,177
232,655	105,070	-0,214	-0,175
233,669	68,569	-0,286	-0,203
234,684	3,275	-0,145	-0,073
235,699	60,439	-0,185	-0,127
236,713	-122,019	-0,186	0,021
237,728	-20,729	-0,235	-0,099
238,742	-49,703	-0,197	-0,064
239,757	36,297	-0,215	-0,131
240,772	448,519	-0,170	-0,260
241,786	217,512	-0,181	-0,200
242,801	-144,619	-0,163	-0,010
243,815	-17,368	-0,205	-0,089
244,830	-38,826	-0,244	-0,089
245,844	38,469	-0,088	-0,054
246,859	-36,458	-0,253	-0,094
247,874	401,912	-0,163	-0,237
248,888	-71,301	-0,181	-0,047
249,903	147,817	-0,190	-0,178
250,917	8,153	-0,127	-0,066
251,932	-136,557	-0,245	0,019
252,947	33,110	-0,226	-0,135
253,961	800,000	-0,148	-0,340
254,976	2,418	-0,239	-0,119
255,990	57,813	-0,186	-0,126
257,005	339,730	-0,144	-0,195
258,020	90,088	-0,182	-0,140
259,034	68,718	-0,170	-0,120
260,049	-29,276	-0,149	-0,059
261,063	-155,184	-0,207	0,009
262,078	735,485	-0,040	-0,075
263,093	328,216	-0,100	-0,133
264,107	800,000	-0,109	-0,287
265,122	800,000	-0,090	-0,264
266,136	317,969	-0,136	-0,178
267,151	29,118	-0,296	-0,173
268,166	-162,349	-0,187	0,006
269,180	41,930	-0,194	-0,121
270,195	213,165	-0,230	-0,251
271,209	-50,437	-0,131	-0,042
272,224	290,358	-0,173	-0,218
273,239	214,636	-0,111	-0,122
274,253	70,089	-0,160	-0,114
275,268	-41,284	-0,191	-0,068
276,282	161,606	-0,197	-0,190
277,297	151,493	-0,172	-0,162
278,312	-113,042	-0,207	-0,028
279,326	-97,848	-0,078	-0,014
280,341	179,137	-0,159	-0,161
281,355	177,750	-0,090	0,091
282,370	-200,000	-0,029	-0,111
283,384	182,239	-0,063	-0,064
284,399	-94,973	-0,219	-0,040
285,414	354,422	-0,122	-0,168
286,428	800,000	-0,046	-0,112
287,443	-74,663	-0,205	-0,050
288,457	-48,426	-0,245	-0,081
289,472	-145,504	-0,154	-0,009
290,487	-42,581	-0,204	-0,071
291,501	53,009	-0,161	-0,106
292,516	170,282	-0,158	-0,156
293,530	-158,367	-0,066	0,003
294,545	-200,000	-0,002	-0,124
295,560	-200,000	0,013	-0,069
296,574	-200,000	0,007	-0,137
297,589	150,373	-0,151	-0,141
298,603	485,711	-0,144	-0,227
299,618	145,535	-0,175	-0,162
300,633	-170,988	-0,105	0,002
301,647	-23,874	-0,031	-0,013
302,662	294,353	0,040	0,051
303,676	87,262	-0,126	-0,096
304,691	19,865	-0,167	-0,093
305,706	800,000	-0,070	-0,172
306,720	33,523	-0,187	-0,112
307,735	346,970	-0,092	-0,125
308,749	-200,000	0,015	-0,102
309,764	-8,350	-0,091	0,042
310,779	57,301	-0,149	-0,100
311,793	-158,707	-0,178	0,007
312,808	355,517	-0,188	-0,258
313,822	-200,000	0,001	-0,098
314,837	228,611	-0,147	-0,166
315,852	10,873	-0,090	0,047
316,866	800,000	-0,133	-0,254
317,881	800,000	-0,040	-0,083
318,895	516,955	-0,085	-0,137
319,910	446,231	-0,071	-0,108
320,925	-196,115	-0,170	0,001
321,939	129,740	-0,157	-0,138
322,954	218,093	-0,070	-0,078
323,968	305,151	-0,073	-0,093
324,983	800,000	-0,090	-0,220
325,997	-109,766	-0,159	0,023
327,012	90,341	-0,166	-0,127
328,027	82,203	-0,169	-0,126
329,041	215,698	-0,183	-0,200
330,056	616,722	-0,051	-0,088
331,070	86,341	-0,091	-0,069
332,085	23,730	-0,158	-0,089
333,100	68,952	-0,252	-0,178
334,114	102,915	-0,165	-0,133
335,129	416,942	-0,161	-0,237
336,143	-64,535	-0,203	-0,056
337,158	-72,076	-0,143	-0,036
338,173	80,842	-0,189	-0,140
339,187	-200,000	-0,032	-0,140
340,202	-103,111	-0,127	-0,020
341,216	511,960	-0,092	-0,148
342,231	88,526	-0,161	-0,123
343,246	-12,752	-0,239	-0,106
344,260	-200,000	0,016	-0,095
345,275	216,205	-0,064	-0,070
346,289	800,000	-0,034	-0,082
347,304	-116,875	-0,142	0,018
348,319	-69,145	-0,126	-0,033
349,333	153,951	-0,161	-0,152
350,348	-93,290	-0,173	-0,033
351,362	800,000	-0,056	-0,161
352,377	-200,000	0,004	-0,040
353,392	-135,638	-0,139	-0,011
354,406	-200,000	-0,024	-0,192
355,421	208,913	1313,115	1411,923
356,435	160,775	1473,628	1412,430
