DTS Sentinel unit serial number:	SN410029Multiplexer serial number:	ORYXHardware model number:	OX2-SRSoftware version number:	ORYX F/W v4,00 Oryx Data Collector v3.7.2.0data status	okinstallation	B3 Nyhavnadifferential loss correction	single-endedforward channel	channel 1reverse channel	N/Adate	2023/11/30time	23:02:30forward acquisition time	300,00reverse acquisition time	0,00gamma	499,1914k internal	0,3210k external	0,3210temperature offset calibration	1,0000default loss term (dB/km)	0,3820temperature slope calibration	1,0000multiplexer offset coefficient	1,0000multiplexer slope coefficient	1,0000fibre end	0,00T internal ref (°C)	9,80T ext. ref 1 (°C)	-5,29T ext. ref 2 (°C)	-5,42length (m)	temperature (°C)	Stokes	anti-Stokes-744,400	800,000	-0,139	-0,306
-743,385	-200,000	-0,011	0,317
-742,371	-14,209	-0,270	-0,126
-741,356	-200,000	0,003	0,223
-740,342	151,148	-0,138	-0,137
-739,327	800,000	-0,113	0,233
-738,312	224,876	-0,149	-0,175
-737,298	-200,000	0,052	0,285
-736,283	3,945	-0,289	-0,153
-735,269	-200,000	0,034	0,188
-734,254	183,919	-0,229	-0,246
-733,239	-55,163	-0,260	-0,084
-732,225	-200,000	0,001	-0,231
-731,210	30,567	0,153	0,094
-730,196	-17,814	-0,038	-0,017
-729,181	-200,000	0,016	0,091
-728,167	298,634	-0,040	-0,054
-727,152	-86,183	-0,089	0,020
-726,137	329,569	0,047	0,065
-725,123	9,513	-0,139	-0,076
-724,108	-200,000	0,022	-0,094
-723,094	-18,051	-0,070	-0,032
-722,079	320,886	0,043	0,060
-721,064	-58,659	0,136	-0,042
-720,050	310,648	-0,074	0,101
-719,035	-138,460	-0,075	-0,006
-718,021	-76,330	-0,122	-0,031
-717,006	1,192	-0,101	0,053
-715,991	313,664	-0,026	0,036
-714,977	-200,000	0,013	-0,153
-713,962	30,720	-0,063	0,039
-712,948	383,359	-0,043	0,065
-711,933	800,000	-0,018	0,037
-710,918	294,088	0,043	0,057
-709,904	-131,571	-0,164	-0,015
-708,889	-200,000	-0,036	-0,131
-707,875	-200,000	0,007	-0,048
-706,860	552,808	-0,042	-0,073
-705,845	106,401	-0,077	0,066
-704,831	-48,773	0,051	0,018
-703,816	-200,000	-0,007	0,106
-702,802	-47,185	-0,101	-0,035
-701,787	-116,421	0,081	0,011
-700,772	24,947	-0,077	-0,046
-699,758	391,884	0,071	-0,107
-698,743	172,560	0,063	0,066
-697,729	29,548	0,067	-0,041
-696,714	-147,981	-0,033	0,002
-695,699	-200,000	0,005	-0,200
-694,685	242,153	-0,093	-0,113
-693,670	-200,000	0,016	-0,086
-692,656	-77,325	0,117	-0,029
-691,641	-166,198	0,104	-0,003
-690,627	-200,000	-0,000	0,099
-689,612	149,179	0,068	-0,067
-688,597	-45,416	0,115	0,041
-687,583	-53,448	-0,068	-0,022
-686,568	-47,525	-0,145	-0,051
-685,554	-200,000	0,022	-0,138
-684,539	800,000	-0,056	0,115
-683,524	-200,000	0,012	0,094
-682,510	-200,000	-0,001	0,118
-681,495	-70,427	-0,031	0,009
-680,481	705,270	-0,019	-0,037
-679,466	800,000	-0,036	0,080
-678,451	800,000	0,058	-0,147
-677,437	-142,231	-0,041	0,003
-676,422	170,952	0,131	0,136
-675,408	-200,000	-0,001	0,075
-674,393	-94,110	0,112	0,022
-673,378	800,000	-0,054	-0,136
-672,364	-200,000	-0,014	-0,103
-671,349	687,427	0,069	-0,131
-670,335	800,000	-0,035	0,071
-669,320	52,580	0,092	0,064
-668,305	158,312	0,071	-0,071
-667,291	-200,000	0,020	-0,076
-666,276	419,877	0,034	0,053
-665,262	-200,000	0,034	-0,204
-664,247	-200,000	0,002	-0,081
-663,232	-62,109	0,168	-0,050
-662,218	631,466	-0,066	0,121
-661,203	411,394	0,070	0,108
-660,189	-200,000	-0,023	0,100
-659,174	82,339	0,119	-0,093
-658,159	-200,000	-0,022	-0,153
-657,145	-200,000	-0,002	-0,020
-656,130	800,000	0,021	-0,057
-655,116	-200,000	-0,009	-0,060
-654,101	800,000	0,026	-0,064
-653,086	-200,000	0,007	-0,088
-652,072	-200,000	0,002	-0,092
-651,057	683,654	0,043	-0,082
-650,043	-180,142	0,129	-0,002
-649,028	-78,987	0,034	0,008
-648,014	-200,000	-0,009	0,098
-646,999	-97,570	0,010	-0,002
-645,984	800,000	-0,034	-0,097
-644,970	800,000	-0,012	-0,026
-643,955	76,896	-0,142	-0,109
-642,941	66,149	0,106	-0,078
-641,926	225,775	0,024	-0,028
-640,911	145,065	-0,021	-0,020
-639,897	-200,000	0,014	-0,046
-638,882	-200,000	-0,005	0,058
-637,868	-200,000	0,010	-0,048
-636,853	-11,681	-0,141	-0,066
-635,838	800,000	-0,040	-0,093
-634,824	19,313	0,030	-0,018
-633,809	9,842	-0,085	0,046
-632,795	466,086	0,072	-0,117
-631,780	135,850	0,097	0,091
-630,765	-124,651	-0,122	-0,013
-629,751	-200,000	-0,019	0,070
-628,736	-157,904	-0,183	-0,008
-627,722	-200,000	-0,001	-0,140
-626,707	33,385	0,065	-0,041
-625,692	-65,043	0,044	-0,013
-624,678	-34,277	0,051	-0,020
-623,663	510,033	-0,044	-0,074
-622,649	-200,000	0,018	-0,073
-621,634	-140,717	-0,055	-0,004
-620,619	255,556	-0,049	-0,060
-619,605	468,928	0,047	-0,076
-618,590	124,416	0,083	0,075
-617,576	-32,937	0,066	-0,026
-616,561	-136,863	0,133	0,011
-615,546	-200,000	-0,013	0,051
-614,532	800,000	-0,027	-0,066
-613,517	-161,118	0,131	-0,005
-612,503	45,622	0,044	-0,029
-611,488	-16,164	-0,129	-0,059
-610,474	52,275	-0,026	0,018
-609,459	55,253	0,014	0,009
-608,444	800,000	-0,011	0,027
-607,430	-27,196	-0,059	0,025
-606,415	514,047	-0,005	-0,009
-605,401	-200,000	-0,010	-0,034
-604,386	62,282	0,058	0,041
-603,371	-130,470	0,057	-0,005
-602,357	-200,000	-0,051	-0,180
-601,342	800,000	-0,030	0,072
-600,328	-54,037	-0,129	-0,042
-599,313	93,116	0,060	0,049
-598,298	-66,008	-0,119	-0,034
-597,284	-200,000	0,158	-0,000
-596,269	95,776	-0,040	0,033
-595,255	-118,495	0,199	-0,025
-594,240	-2,339	-0,093	0,047
-593,225	-75,525	-0,166	-0,042
-592,211	-14,013	-0,041	0,019
-591,196	800,000	0,038	-0,093
-590,182	-172,353	-0,163	-0,004
-589,167	128,061	0,014	-0,013
-588,152	-3,230	-0,047	-0,023
-587,138	123,900	-0,034	0,030
-586,123	122,851	0,066	-0,060
-585,109	125,009	-0,044	-0,040
-584,094	-6,204	0,050	-0,024
-583,079	800,000	-0,037	0,080
-582,065	-168,479	0,072	0,002
-581,050	4,482	0,029	-0,015
-580,036	289,776	0,103	0,135
-579,021	800,000	0,031	-0,081
-578,006	27,668	-0,181	-0,110
-576,992	239,565	-0,029	-0,035
-575,977	800,000	0,008	0,021
-574,963	41,070	-0,034	-0,022
-573,948	-84,851	-0,088	0,020
-572,934	6,598	-0,065	0,034
-571,919	-144,780	-0,055	0,004
-570,904	24,382	-0,096	0,057
-569,890	21,913	0,043	-0,025
-568,875	800,000	-0,044	0,105
-567,861	21,537	-0,050	0,029
-566,846	80,236	-0,029	0,023
-565,831	-200,000	0,013	0,124
-564,817	-122,862	-0,057	0,007
-563,802	32,619	-0,100	-0,062
-562,788	238,524	-0,088	-0,106
-561,773	183,327	0,141	-0,151
-560,758	289,205	0,074	-0,096
-559,744	-200,000	-0,029	0,135
-558,729	800,000	0,008	-0,016
-557,715	-14,194	-0,114	-0,053
-556,700	-200,000	0,029	-0,125
-555,685	800,000	-0,053	-0,158
-554,671	-200,000	0,000	-0,123
-553,656	60,332	0,060	0,043
-552,642	-133,150	0,006	0,001
-551,627	-200,000	0,000	-0,023
-550,612	-200,000	0,006	0,110
-549,598	78,226	-0,095	-0,073
-548,583	383,072	0,026	0,039
-547,569	-160,342	0,068	0,003
-546,554	-46,053	0,039	-0,014
-545,539	16,350	0,066	-0,037
-544,525	-79,227	0,063	0,015
-543,510	680,719	-0,028	0,053
-542,496	470,512	-0,023	0,037
-541,481	632,588	-0,067	-0,123
-540,466	44,180	-0,036	0,024
-539,452	70,012	0,078	0,058
-538,437	800,000	0,020	0,047
-537,423	772,636	-0,021	-0,041
-536,408	5,013	-0,050	0,026
-535,393	72,971	0,099	0,074
-534,379	-200,000	-0,007	0,063
-533,364	44,205	-0,039	0,025
-532,350	-129,164	0,166	-0,016
-531,335	464,811	0,061	-0,099
-530,321	-200,000	0,004	0,039
-529,306	44,245	-0,017	-0,011
-528,291	-122,644	-0,025	0,003
-527,277	-200,000	-0,035	-0,110
-526,262	-163,480	-0,051	-0,002
-525,248	800,000	-0,033	-0,085
-524,233	-200,000	0,004	0,041
-523,218	32,907	0,086	0,053
-522,204	72,014	-0,056	-0,042
-521,189	241,591	-0,132	-0,159
-520,175	-110,717	-0,067	-0,010
-519,160	-200,000	-0,031	0,107
-518,145	-200,000	0,008	-0,080
-517,131	288,233	-0,044	-0,057
-516,116	-149,273	0,045	-0,003
-515,102	31,661	0,040	-0,025
-514,087	-200,000	-0,033	0,107
-513,072	737,362	0,024	-0,047
-512,058	28,900	-0,049	0,030
-511,043	-200,000	0,028	0,094
-510,029	-36,803	-0,044	-0,017
-509,014	800,000	0,036	0,087
-507,999	-200,000	-0,023	-0,149
-506,985	800,000	-0,035	-0,093
-505,970	-200,000	0,029	-0,141
-504,956	-200,000	-0,026	-0,194
-503,941	-200,000	0,005	0,032
-502,926	-57,274	0,050	-0,016
-501,912	3,289	0,084	-0,044
-500,897	-200,000	0,011	0,053
-499,883	147,663	0,063	-0,061
-498,868	438,054	0,014	0,022
-497,853	9,013	-0,168	-0,091
-496,839	-200,000	-0,013	-0,056
-495,824	-200,000	-0,011	0,115
-494,810	-57,221	0,092	-0,029
-493,795	-97,525	-0,036	-0,007
-492,781	-63,134	-0,130	0,038
-491,766	-20,325	-0,114	-0,050
-490,751	-76,557	0,126	-0,032
-489,737	640,944	-0,030	-0,055
-488,722	122,890	0,006	-0,006
-487,708	-25,214	0,139	0,059
-486,693	800,000	0,048	0,123
-485,678	-26,970	0,077	-0,032
-484,664	-200,000	-0,007	-0,050
-483,649	40,775	-0,069	-0,045
-482,635	205,726	0,084	0,094
-481,620	38,653	-0,084	-0,054
-480,605	299,465	0,062	0,083
-479,591	90,848	-0,035	-0,028
-478,576	236,000	0,095	0,113
-477,562	-94,519	-0,075	0,014
-476,547	-72,676	-0,129	-0,034
-475,532	581,172	0,061	0,108
-474,518	169,731	0,050	0,052
-473,503	444,893	0,057	-0,090
-472,489	-91,438	-0,200	0,041
-471,474	555,218	0,066	-0,114
-470,459	-67,795	-0,074	-0,021
-469,445	399,947	0,065	-0,098
-468,430	-24,966	-0,089	-0,038
-467,416	125,510	0,061	0,055
-466,401	-200,000	-0,012	0,055
-465,386	-88,989	0,095	0,020
-464,372	458,970	-0,010	0,016
-463,357	-30,796	-0,065	-0,026
-462,343	-200,000	0,006	-0,101
-461,328	608,803	0,025	-0,045
-460,313	72,255	-0,073	0,054
-459,299	-25,681	-0,115	0,049
-458,284	-45,439	0,194	0,069
-457,270	1,367	0,048	0,025
-456,255	-20,996	0,047	-0,021
-455,241	800,000	0,023	0,061
-454,226	19,733	0,101	-0,058
-453,211	800,000	0,038	0,089
-452,197	230,081	-0,032	0,038
-451,182	428,927	-0,060	0,094
-450,168	227,385	-0,056	0,065
-449,153	800,000	0,023	-0,047
-448,138	-189,846	-0,095	-0,001
-447,124	800,000	-0,014	-0,028
-446,109	800,000	0,040	-0,113
-445,095	285,414	-0,048	0,062
-444,080	36,689	0,096	0,060
-443,065	292,058	-0,063	0,082
-442,051	-200,000	-0,013	-0,098
-441,036	139,138	-0,054	0,051
-440,022	-200,000	0,027	-0,124
-439,007	-200,000	-0,010	0,082
-437,992	-200,000	0,032	0,132
-436,978	-200,000	-0,002	-0,029
-435,963	340,547	0,027	0,037
-434,949	62,307	-0,094	-0,067
-433,934	146,113	0,090	-0,086
-432,919	-89,214	-0,057	0,012
-431,905	-112,475	-0,094	0,013
-430,890	91,564	0,105	0,084
-429,876	-32,381	0,160	0,064
-428,861	388,435	0,060	0,090
-427,846	-200,000	-0,011	-0,070
-426,832	-200,000	-0,008	0,063
-425,817	-200,000	0,007	-0,074
-424,803	-100,573	0,090	-0,016
-423,788	69,522	-0,049	0,036
-422,773	-91,450	-0,156	0,032
-421,759	176,766	0,008	-0,009
-420,744	110,501	-0,021	0,018
-419,730	10,302	-0,160	-0,087
-418,715	-28,531	0,017	0,007
-417,701	800,000	-0,042	0,104
-416,686	203,518	-0,066	0,073
-415,671	800,000	0,013	-0,038
-414,657	-109,573	0,180	-0,027
-413,642	279,977	0,071	0,091
-412,628	99,084	-0,127	-0,105
-411,613	-200,000	0,014	-0,071
-410,598	-10,651	0,096	-0,045
-409,584	-200,000	0,000	-0,020
-408,569	800,000	-0,092	0,198
-407,555	-58,079	0,084	-0,026
-406,540	321,566	0,067	-0,092
-405,525	382,510	-0,056	-0,082
-404,511	800,000	0,045	-0,107
-403,496	85,202	-0,092	-0,072
-402,482	-41,824	-0,088	0,032
-401,467	800,000	0,015	0,041
-400,452	-138,680	-0,078	-0,006
-399,438	-119,196	0,055	0,007
-398,423	-3,788	0,130	-0,064
-397,409	5,308	-0,080	0,042
-396,394	147,108	0,047	0,045
-395,379	647,264	-0,032	-0,059
-394,365	366,350	0,009	-0,013
-393,350	27,278	0,068	-0,041
-392,336	800,000	0,029	0,086
-391,321	24,888	-0,170	-0,101
-390,306	582,661	0,007	0,013
-389,292	-200,000	-0,024	-0,204
-388,277	0,515	0,041	-0,021
-387,263	-200,000	-0,010	0,031
-386,248	-200,000	0,042	0,293
-385,233	800,000	-0,055	0,148
-384,219	225,040	0,055	-0,064
-383,204	125,809	0,051	-0,046
-382,190	311,249	0,053	-0,072
-381,175	-200,000	0,017	0,076
-380,160	31,852	0,066	-0,041
-379,146	25,076	0,020	-0,012
-378,131	800,000	0,027	-0,061
-377,117	708,678	0,032	-0,061
-376,102	-200,000	0,032	-0,148
-375,088	-123,337	-0,084	-0,010
-374,073	-108,499	-0,074	0,011
-373,058	-17,115	0,025	-0,011
-372,044	-200,000	0,034	0,132
-371,029	-136,314	0,080	0,007
-370,015	279,415	-0,066	0,084
-369,000	-163,768	0,062	-0,002
-367,985	-100,412	-0,107	-0,019
-366,971	-200,000	-0,032	-0,156
-365,956	691,761	0,060	-0,114
-364,942	-200,000	-0,027	0,160
-363,927	-129,633	0,163	0,016
-362,912	-113,613	0,067	-0,009
-361,898	-200,000	0,000	-0,071
-360,883	18,738	-0,129	-0,073
-359,869	-200,000	0,001	-0,030
-358,854	207,898	0,023	0,026
-357,839	273,884	-0,008	0,011
-356,825	-61,592	0,075	-0,022
-355,810	-6,548	0,042	-0,020
-354,796	-132,115	-0,139	0,013
-353,781	-7,295	0,063	0,031
-352,766	-200,000	0,007	-0,029
-351,752	-45,560	0,043	-0,015
-350,737	-94,180	0,061	0,012
-349,723	-200,000	-0,009	0,101
-348,708	374,480	0,050	0,073
-347,693	-200,000	0,004	0,146
-346,679	188,671	-0,083	-0,089
-345,664	219,255	0,053	-0,061
-344,650	-95,639	0,109	0,021
-343,635	503,941	-0,052	0,087
-342,620	233,175	0,146	0,171
-341,606	194,789	0,040	0,043
-340,591	-200,000	0,012	0,169
-339,577	616,157	-0,031	0,055
-338,562	-60,306	0,085	-0,026
-337,548	-200,000	-0,009	0,065
-336,533	-121,027	0,084	-0,010
-335,518	63,076	0,027	0,019
-334,504	411,625	0,032	0,049
-333,489	50,637	-0,033	0,022
-332,475	29,002	-0,039	-0,023
-331,460	800,000	0,024	0,054
-330,445	-200,000	-0,018	-0,095
-329,431	800,000	0,013	0,028
-328,416	21,531	-0,035	0,020
-327,402	-76,418	0,125	-0,031
-326,387	-184,662	0,116	-0,001
-325,372	-152,574	-0,203	0,010
-324,358	-200,000	0,015	-0,075
-323,343	800,000	-0,030	-0,062
-322,329	113,913	-0,075	0,065
-321,314	800,000	-0,025	0,068
-320,299	43,340	0,094	0,061
-319,285	-148,157	-0,104	-0,006
-318,270	-200,000	-0,002	0,019
-317,256	522,316	-0,027	0,045
-316,241	141,024	-0,090	-0,085
-315,226	-140,831	0,072	0,005
-314,212	266,947	0,074	0,092
-313,197	41,469	0,091	0,059
-312,183	7,021	-0,050	0,026
-311,168	-165,663	-0,147	0,004
-310,153	200,747	-0,046	-0,050
-309,139	73,707	-0,049	0,037
-308,124	-200,000	0,006	-0,096
-307,110	-153,221	0,069	0,003
-306,095	246,471	0,136	0,164
-305,080	-119,356	0,085	0,010
-304,066	800,000	-0,020	0,047
-303,051	202,835	-0,124	0,137
-302,037	-33,152	-0,171	-0,067
-301,022	345,091	-0,044	-0,062
-300,008	29,152	-0,060	-0,036
-298,993	48,124	0,021	0,014
-297,978	-200,000	-0,007	0,034
-296,964	800,000	0,033	0,075
-295,949	800,000	-0,018	-0,050
-294,935	776,769	-0,030	0,059
-293,920	-200,000	0,016	0,065
-292,905	-47,530	-0,059	0,020
-291,891	-200,000	0,027	0,135
-290,876	800,000	-0,024	-0,067
-289,862	-200,000	-0,010	-0,066
-288,847	319,708	0,125	-0,170
-287,832	-200,000	0,003	0,046
-286,818	-139,271	0,081	-0,006
-285,803	800,000	-0,040	0,099
-284,789	-200,000	0,036	0,196
-283,774	-200,000	-0,010	0,118
-282,759	-80,232	0,143	0,034
-281,745	-34,338	0,067	-0,026
-280,730	-14,524	0,078	-0,035
-279,716	800,000	0,012	0,033
-278,701	-148,452	0,122	-0,007
-277,686	800,000	0,061	0,156
-276,672	-63,399	0,082	0,024
-275,657	297,797	-0,086	0,113
-274,643	-40,122	-0,053	-0,020
-273,628	800,000	-0,054	0,115
-272,613	-117,582	0,051	0,007
-271,599	302,130	0,034	0,045
-270,584	-200,000	-0,040	-0,212
-269,570	410,885	-0,051	0,077
-268,555	355,527	0,046	0,066
-267,540	1,835	-0,096	0,049
-266,526	-166,168	-0,023	0,001
-265,511	371,920	0,046	-0,067
-264,497	800,000	0,018	-0,037
-263,482	21,529	0,112	0,065
-262,467	139,091	0,067	-0,063
-261,453	-12,816	0,039	-0,018
-260,438	-59,649	-0,060	0,018
-259,424	563,280	0,039	-0,067
-258,409	162,940	0,011	0,011
-257,395	57,426	0,123	0,086
-256,380	377,017	-0,042	0,061
-255,365	-182,897	0,052	0,001
-254,351	-185,094	-0,182	0,002
-253,336	236,674	-0,045	0,053
-252,322	-200,000	-0,009	-0,209
-251,307	500,685	0,041	0,067
-250,292	624,466	-0,058	-0,104
-249,278	-83,246	0,044	-0,010
-248,263	800,000	-0,061	0,124
-247,249	46,453	0,123	0,081
-246,234	-139,218	-0,108	-0,008
-245,219	158,588	0,015	0,015
-244,205	-28,749	0,055	-0,022
-243,190	128,852	-0,051	0,047
-242,176	135,633	0,048	0,045
-241,161	94,096	0,078	0,063
-240,146	-200,000	0,000	0,024
-239,132	132,215	0,104	-0,095
-238,117	167,940	-0,052	-0,053
-237,103	528,880	-0,047	-0,079
-236,088	373,273	0,084	0,121
-235,073	-168,913	0,166	0,004
-234,059	-133,536	0,090	0,008
-233,044	-200,000	-0,006	-0,105
-232,030	800,000	0,095	-0,195
-231,015	-200,000	-0,038	-0,208
-230,000	42,233	-0,098	0,063
-228,986	88,433	0,096	0,076
-227,971	629,593	-0,026	0,046
-226,957	-200,000	-0,020	0,131
-225,942	375,634	-0,048	-0,069
-224,927	514,656	0,081	-0,134
-223,913	-78,071	-0,112	0,027
-222,898	277,187	-0,035	-0,044
-221,884	190,751	0,058	-0,062
-220,869	-134,343	-0,038	-0,003
-219,855	-28,084	-0,067	-0,027
-218,840	-200,000	-0,023	0,147
-217,825	800,000	0,039	0,101
-216,811	-200,000	0,018	0,083
-215,796	-75,530	-0,104	-0,026
-214,782	530,672	0,047	-0,078
-213,767	14,494	0,137	0,076
-212,752	-200,000	0,002	-0,077
-211,738	-200,000	0,015	0,061
-210,723	-103,188	-0,068	-0,011
-209,709	301,119	0,066	0,087
-208,694	800,000	0,036	-0,085
-207,679	-200,000	0,010	-0,171
-206,665	-11,561	-0,044	-0,020
-205,650	147,727	-0,132	-0,127
-204,636	800,000	-0,030	0,064
-203,621	-92,923	-0,072	0,014
-202,606	222,900	-0,072	0,083
-201,592	-24,848	-0,076	0,032
-200,577	-200,000	0,000	0,005
-199,563	-200,000	-0,004	0,014
-198,548	-30,415	0,163	0,065
-197,533	800,000	-0,010	0,024
-196,519	-200,000	-0,020	0,186
-195,504	527,231	-0,051	-0,085
-194,490	210,550	-0,026	-0,029
-193,475	-200,000	0,027	-0,180
-192,460	-96,502	0,058	0,011
-191,446	-200,000	0,049	0,168
-190,431	748,118	0,055	0,105
-189,417	642,685	0,020	0,036
-188,402	-1,658	-0,042	-0,021
-187,387	182,626	-0,033	0,034
-186,373	-72,120	-0,091	0,024
-185,358	800,000	0,028	-0,076
-184,344	381,623	0,033	-0,048
-183,329	-153,710	0,149	0,007
-182,315	442,254	0,029	0,046
-181,300	-127,935	-0,046	-0,005
-180,285	800,000	-0,017	-0,041
-179,271	-200,000	0,017	-0,054
-178,256	-200,000	-0,030	0,097
-177,242	800,000	0,032	0,094
-176,227	306,393	-0,023	-0,030
-175,212	176,244	-0,043	0,044
-174,198	307,696	0,004	-0,006
-173,183	-13,502	0,051	0,023
-172,169	-141,977	-0,034	0,002
-171,154	-69,968	-0,044	0,012
-170,139	53,121	0,075	0,051
-169,125	8,247	0,064	0,034
-168,110	262,715	0,023	0,029
-167,096	-200,000	-0,015	-0,087
-166,081	428,652	-0,028	0,043
-165,066	-200,000	0,008	-0,066
-164,052	658,093	-0,079	-0,144
-163,037	-200,000	-0,003	0,018
-162,023	-46,904	-0,050	0,017
-161,008	-200,000	0,000	-0,108
-159,993	-72,474	-0,114	0,030
-158,979	11,034	-0,034	0,019
-157,964	-200,000	-0,003	0,011
-156,950	-130,447	-0,117	0,011
-155,935	190,137	-0,084	-0,089
-154,920	765,554	-0,055	0,107
-153,906	176,120	-0,053	0,055
-152,891	238,745	0,066	0,078
-151,877	220,123	0,054	0,061
-150,862	800,000	0,048	-0,096
-149,847	140,998	-0,030	-0,028
-148,833	-136,294	0,148	-0,012
-147,818	800,000	0,041	0,096
-146,804	413,167	-0,071	0,107
-145,789	270,125	0,032	0,040
-144,775	92,395	-0,029	-0,024
-143,760	249,896	-0,015	-0,018
-142,745	-200,000	0,001	0,015
-141,731	800,000	0,007	0,020
-140,716	-152,338	-0,043	-0,002
-139,702	800,000	0,072	0,173
-138,687	229,841	0,084	0,098
-137,672	800,000	0,020	0,048
-136,658	649,167	-0,093	-0,169
-135,643	-200,000	-0,073	-0,000
-134,629	-30,879	0,055	0,022
-133,614	-168,737	0,078	0,002
-132,599	800,000	0,056	0,174
-131,585	3,265	-0,098	0,050
-130,570	-200,000	0,023	0,192
-129,556	54,420	-0,076	-0,052
-128,541	9,257	-0,062	-0,033
-127,526	-200,000	-0,005	-0,028
-126,512	-200,000	-0,024	-0,112
-125,497	80,941	0,073	-0,056
-124,483	299,249	0,022	0,029
-123,468	-64,868	-0,078	0,022
-122,453	800,000	0,046	-0,098
-121,439	-200,000	-0,019	-0,060
-120,424	-200,000	0,015	0,076
-119,410	621,510	0,065	-0,116
-118,395	24,547	0,111	-0,065
-117,380	533,808	-0,062	-0,104
-116,366	-200,000	0,016	0,098
-115,351	444,088	0,027	-0,042
-114,337	2,715	-0,004	-0,002
-113,322	-200,000	-0,013	-0,046
-112,307	800,000	-0,071	0,221
-111,293	550,595	0,054	-0,092
-110,278	800,000	0,071	0,180
-109,264	129,339	0,095	-0,086
-108,249	174,932	0,103	0,106
-107,234	-110,102	-0,069	0,010
-106,220	39,821	-0,085	0,054
-105,205	-200,000	0,001	-0,112
-104,191	-6,410	0,063	0,030
-103,176	97,947	-0,053	0,043
-102,162	-126,742	-0,059	0,006
-101,147	-200,000	0,031	0,153
-100,132	-200,000	0,004	0,046
-99,118	-23,350	-0,067	-0,028
-98,103	278,661	-0,108	-0,137
-97,089	-200,000	-0,031	0,108
-96,074	-16,777	0,110	0,049
-95,059	110,531	-0,022	0,019
-94,045	-194,648	0,085	0,000
-93,030	-48,256	-0,047	-0,016
-92,016	-54,388	-0,104	-0,033
-91,001	-200,000	0,013	0,174
-89,986	-200,000	0,004	0,188
-88,972	118,584	0,034	0,029
-87,957	335,142	-0,025	-0,035
-86,943	800,000	0,039	0,078
-85,928	-56,040	-0,081	-0,025
-84,913	-111,270	0,034	-0,005
-83,899	-28,771	-0,103	-0,042
-82,884	-93,362	0,088	0,017
-81,870	-200,000	-0,033	-0,129
-80,855	491,674	0,047	0,077
-79,840	134,416	-0,076	0,070
-78,826	-90,754	-0,071	0,014
-77,811	70,604	-0,175	0,128
-76,797	-85,163	-0,089	0,019
-75,782	44,525	-0,064	0,041
-74,767	0,285	0,068	-0,034
-73,753	339,467	-0,078	0,108
-72,738	211,129	0,157	0,174
-71,724	249,695	-0,090	-0,109
-70,709	100,338	0,054	0,044
-69,694	355,137	-0,004	0,006
-68,680	800,000	0,052	0,129
-67,665	-200,000	-0,003	-0,033
-66,651	110,806	0,071	0,060
-65,636	8,998	-0,027	-0,014
-64,622	256,209	0,060	-0,072
-63,607	-124,328	-0,137	-0,015
-62,592	-200,000	0,064	0,000
-61,578	76,496	-0,067	0,050
-60,563	-178,941	0,069	-0,001
-59,549	-200,000	0,004	0,148
-58,534	33,412	-2,033	-1,244
-57,519	459,305	-1,300	-2,049
-56,505	-200,000	-0,472	-4,591
-55,490	363,997	0,837	1,191
-54,476	800,000	5,252	11,860
-53,461	-200,000	21,605	345,378
-52,446	800,000	763,541	2360,710
-51,432	553,497	1665,596	2837,787
-50,417	72,621	1662,328	1222,860
-49,403	17,652	1535,784	859,915
-48,388	11,639	1459,695	788,185
-47,373	19,578	1451,003	821,605
-46,359	15,181	1440,305	794,581
-45,344	9,889	1436,171	767,032
-44,330	9,878	1434,131	765,859
-43,315	9,853	1432,157	764,657
-42,300	9,845	1430,395	763,645
-41,286	9,897	1429,155	763,204
-40,271	9,821	1428,208	762,304
-39,257	9,861	1426,872	761,752
-38,242	9,880	1425,688	761,180
-37,227	9,895	1424,618	760,650
-36,213	9,919	1423,167	759,956
-35,198	9,874	1422,193	759,194
-34,184	9,908	1421,373	758,887
-33,169	9,822	1419,799	757,611
-32,154	9,911	1418,712	757,420
-31,140	9,906	1417,515	756,730
-30,125	9,922	1416,312	756,134
-29,111	9,875	1415,470	755,431
-28,096	9,876	1414,274	754,765
-27,082	9,862	1412,864	753,920
-26,067	9,832	1411,906	753,236
-25,052	9,860	1410,883	752,790
-24,038	9,900	1409,717	752,327
-23,023	9,843	1408,980	751,639
-22,009	9,831	1408,021	751,038
-20,994	9,831	1406,965	750,446
-19,979	9,805	1405,984	749,774
-18,965	9,794	1405,055	749,195
-17,950	9,821	1404,113	748,789
-16,936	9,738	1403,441	748,014
-15,921	9,747	1402,425	747,485
-14,906	9,753	1401,383	746,929
-13,892	9,794	1400,257	746,487
-12,877	9,736	1399,582	745,830
-11,863	9,713	1398,897	745,328
-10,848	9,692	1398,003	744,724
-9,833	9,668	1396,889	743,989
-8,819	9,632	1396,283	743,473
-7,804	9,625	1395,248	742,860
-6,790	9,667	1394,171	742,450
-5,775	9,649	1393,063	741,746
-4,760	9,626	1392,480	741,302
-3,746	9,665	1391,229	740,788
-2,731	9,682	1390,332	740,356
-1,717	9,665	1389,680	739,901
-0,702	9,632	1387,657	738,645
0,313	13,659	1299,876	710,354
1,327	29,582	689,608	412,948
2,342	46,133	119,346	77,837
3,356	0,282	16,459	8,258
4,371	-4,490	3,750	1,822
5,386	35,306	1,037	0,640
6,400	800,000	0,265	0,553
7,415	174,051	-0,197	-0,201
8,429	-137,736	-0,278	0,022
9,444	27,008	-0,328	-0,193
10,459	-37,211	-0,227	-0,085
11,473	61,883	-0,232	-0,163
12,488	-47,717	-0,308	-0,105
13,502	61,148	-0,317	-0,222
14,517	295,266	-0,250	-0,323
15,531	128,511	-0,413	-0,371
16,546	91,074	-0,281	-0,222
17,561	64,457	-0,417	-0,296
18,575	176,711	-0,209	-0,214
19,590	456,980	-0,110	-0,172
20,604	-157,003	-0,299	0,013
21,619	4,688	-0,526	-0,271
22,634	203,634	-0,400	-0,437
23,648	80,695	-0,449	-0,340
24,663	141,074	-0,292	-0,272
25,677	93,503	-0,297	-0,236
26,692	64,182	-0,313	-0,221
27,707	177,837	-0,170	-0,175
28,721	-29,284	-0,417	-0,167
29,736	32,167	-0,398	-0,241
30,750	245,269	-0,300	-0,355
31,765	-15,602	-0,446	-0,199
32,780	-33,595	-0,317	-0,122
33,794	46,033	-0,327	-0,212
34,809	336,255	-0,262	-0,359
35,823	49,642	-0,354	-0,234
36,838	-98,596	-0,468	-0,083
37,853	128,915	-0,417	-0,374
38,867	-3,336	-0,333	-0,162
39,882	103,265	-0,298	-0,246
40,896	-1,753	-0,415	-0,205
41,911	83,496	-0,329	-0,252
42,926	-18,216	-0,381	-0,167
43,940	29,587	-0,476	-0,284
44,955	167,856	-0,277	-0,277
45,969	-13,400	-0,367	-0,167
46,984	100,560	-0,273	-0,223
47,999	-34,268	-0,335	-0,128
49,013	8,488	-0,329	-0,174
50,028	-37,576	-0,362	-0,135
51,042	158,772	-0,296	-0,289
52,057	247,211	-0,272	-0,323
53,071	49,266	-0,318	-0,210
54,086	-10,096	-0,393	-0,183
55,101	-14,026	-0,323	-0,146
56,115	-41,433	-0,365	-0,131
57,130	341,727	-0,179	-0,246
58,144	216,050	-0,319	-0,357
59,159	389,462	-0,224	-0,327
60,174	287,853	-0,275	-0,351
61,188	37,002	-0,449	-0,278
62,203	71,245	-0,278	-0,202
63,217	275,939	-0,134	-0,167
64,232	12,636	-0,323	-0,174
65,247	6,078	-0,467	-0,242
66,261	78,358	-0,294	-0,220
67,276	40,997	-0,300	-0,190
68,290	75,085	-0,302	-0,223
69,305	-10,072	-0,426	-0,198
70,320	-95,543	-0,361	-0,067
71,334	-75,450	-0,282	0,070
72,349	29,980	-0,356	-0,212
73,363	113,557	-0,381	-0,324
74,378	43,948	-0,347	-0,223
75,393	322,934	-0,190	-0,255
76,407	-54,105	-0,428	-0,136
77,422	43,141	-0,317	-0,202
78,436	-142,406	-0,260	-0,018
79,451	215,382	-0,193	-0,215
80,466	149,231	-0,332	-0,315
81,480	62,362	-0,325	-0,227
82,495	201,651	-0,263	-0,285
83,509	-26,697	-0,276	-0,113
84,524	61,410	-0,210	-0,146
85,539	-137,840	-0,270	-0,021
86,553	97,148	-0,310	-0,249
87,568	-15,302	-0,329	-0,147
88,582	83,827	-0,293	-0,224
89,597	39,390	-0,253	-0,158
90,611	215,664	-0,207	-0,230
91,626	-120,433	-0,259	0,030
92,641	-76,621	-0,190	-0,046
93,655	-1,074	-0,197	-0,097
94,670	171,136	-0,324	-0,326
95,684	83,348	-0,324	-0,247
96,699	261,590	-0,192	-0,233
97,714	246,641	-0,195	-0,231
98,728	196,151	-0,265	-0,283
99,743	-54,389	-0,239	-0,075
100,757	176,562	-0,244	-0,249
101,772	1,706	-0,267	-0,134
102,787	161,993	-0,275	-0,269
103,801	104,195	-0,284	-0,234
104,816	-15,152	-0,358	-0,160
105,830	110,279	-0,278	-0,233
106,845	296,096	-0,139	-0,178
107,860	-79,124	-0,249	0,059
108,874	16,164	-0,211	-0,116
109,889	118,936	-0,405	-0,350
110,903	141,822	-0,147	-0,136
111,918	86,498	-0,195	-0,150
112,933	13,435	-0,276	-0,149
113,947	-102,619	-0,224	-0,037
114,962	-34,664	-0,200	0,076
115,976	121,470	-0,194	-0,169
116,991	-56,533	-0,287	-0,088
118,006	-8,599	-0,282	-0,132
119,020	-43,271	-0,211	-0,074
120,035	142,520	-0,127	-0,118
121,049	139,209	-0,169	-0,155
122,064	48,438	-0,168	-0,110
123,079	19,070	-0,301	-0,168
124,093	-10,745	-0,280	-0,129
125,108	15,817	-0,272	-0,149
126,122	106,359	-0,219	-0,181
127,137	62,204	-0,179	-0,124
128,151	-60,997	-0,215	-0,063
129,166	-23,455	-0,425	-0,177
130,181	30,974	-0,253	-0,151
131,195	-148,106	-0,312	0,018
132,210	101,810	-0,233	-0,190
133,224	79,670	-0,259	-0,194
134,239	116,746	-0,237	-0,203
135,254	8,635	-0,198	-0,104
136,268	109,437	-0,246	-0,205
137,283	123,717	-0,163	-0,142
138,297	690,992	-0,221	-0,404
139,312	-12,757	-0,270	-0,122
140,327	800,000	-0,059	-0,165
141,341	115,115	-0,216	-0,183
142,356	749,705	-0,106	-0,200
143,370	-146,395	-0,281	-0,017
144,385	-151,240	-0,247	0,013
145,400	56,456	-0,257	-0,174
146,414	-7,458	-0,393	-0,184
147,429	800,000	-0,104	-0,227
148,443	255,408	-0,225	-0,269
149,458	-8,424	-0,354	-0,165
150,473	41,873	-0,204	-0,129
151,487	3,091	-0,275	-0,139
152,502	-21,604	-0,252	-0,106
153,516	17,764	-0,315	-0,174
154,531	131,469	-0,207	-0,185
155,546	5,239	-0,266	-0,136
156,560	-194,321	-0,159	0,001
157,575	54,466	-0,235	-0,157
158,589	-51,164	-0,342	-0,111
159,604	117,158	-0,174	-0,149
160,619	1,710	-0,137	-0,068
161,633	287,830	-0,209	-0,264
162,648	58,621	-0,272	-0,186
163,662	201,946	-0,153	-0,164
164,677	-94,349	-0,299	-0,056
165,692	-74,102	-0,238	-0,060
166,706	-96,935	-0,427	-0,077
167,721	71,335	-0,237	-0,171
168,735	28,340	-0,269	-0,158
169,750	157,931	-0,258	-0,249
170,764	412,811	-0,189	-0,280
171,779	181,226	-0,169	-0,173
172,794	-200,000	-0,061	-0,219
173,808	-31,241	-0,236	-0,092
174,823	49,767	-0,118	-0,077
175,837	198,032	-0,191	-0,203
176,852	-151,484	-0,175	-0,009
177,867	-184,885	-0,274	0,003
178,881	800,000	-0,070	-0,170
179,896	280,450	-0,169	-0,210
180,910	-51,432	-0,159	-0,051
181,925	147,845	-0,184	-0,172
182,940	167,734	-0,198	-0,195
183,954	590,257	-0,111	-0,191
184,969	135,254	-0,109	-0,098
185,983	261,732	-0,145	-0,175
186,998	2,382	-0,236	-0,118
188,013	-52,876	-0,055	0,018
189,027	13,355	-0,122	-0,066
190,042	158,781	-0,188	-0,181
191,056	361,970	-0,149	-0,208
192,071	73,610	-0,150	-0,109
193,086	225,599	-0,184	-0,208
194,100	-39,556	-0,217	-0,079
195,115	800,000	-0,104	-0,300
196,129	111,873	-0,239	-0,200
197,144	432,014	-0,113	-0,170
198,159	73,965	-0,268	-0,195
199,173	216,343	-0,172	-0,190
200,188	-156,899	-0,162	-0,007
201,202	183,329	-0,206	-0,211
202,217	201,837	-0,085	-0,091
203,232	-200,000	-0,081	-0,328
204,246	18,933	-0,275	-0,152
205,261	-58,132	-0,226	-0,068
206,275	-57,766	-0,126	-0,038
207,290	83,355	-0,229	-0,172
208,304	-200,000	-0,012	-0,109
209,319	-38,823	-0,303	-0,110
210,334	-76,679	-0,185	0,045
211,348	312,446	-0,164	-0,214
212,363	273,569	-0,161	-0,198
213,377	-99,376	-0,216	-0,037
214,392	562,638	-0,131	-0,220
215,407	-14,625	-0,224	-0,099
216,421	249,800	-0,096	-0,112
217,436	270,773	-0,166	-0,202
218,450	-36,995	-0,241	-0,089
219,465	244,859	-0,204	-0,238
220,480	-6,862	-0,236	-0,111
221,494	107,987	-0,074	-0,061
222,509	-134,230	-0,094	-0,008
223,523	24,286	-0,080	-0,045
224,538	155,049	-0,208	-0,198
225,553	85,450	-0,122	-0,092
226,567	22,449	-0,160	-0,090
227,582	-46,407	-0,187	-0,063
228,596	533,851	-0,125	-0,205
229,611	800,000	-0,083	-0,178
230,626	165,532	-0,113	-0,110
231,640	800,000	-0,088	-0,188
232,655	294,091	-0,198	-0,251
233,669	119,692	-0,162	-0,139
234,684	3,290	-0,244	-0,122
235,699	-162,294	-0,109	-0,004
236,713	37,177	-0,176	-0,108
237,728	444,048	-0,092	-0,140
238,742	8,399	-0,218	-0,113
239,757	37,406	-0,239	-0,146
240,772	183,299	-0,069	-0,070
241,786	-65,534	-0,102	-0,028
242,801	18,237	-0,286	-0,157
243,815	-200,000	-0,020	-0,107
244,830	-110,253	-0,120	-0,017
245,844	-86,829	-0,144	-0,030
246,859	4,259	-0,219	-0,111
247,874	-33,517	-0,177	-0,067
248,888	-79,192	-0,188	-0,044
249,903	800,000	-0,054	-0,104
250,917	800,000	-0,128	-0,259
251,932	50,606	-0,098	-0,064
252,947	169,829	-0,127	-0,126
253,961	68,690	-0,242	-0,171
254,976	53,974	-0,189	-0,125
255,990	69,420	-0,191	-0,135
257,005	800,000	-0,085	-0,167
258,020	-200,000	-0,010	-0,153
259,034	187,883	-0,217	-0,224
260,049	15,553	-0,235	-0,127
261,063	25,176	-0,133	-0,076
262,078	55,177	-0,150	-0,100
263,093	130,245	-0,139	-0,123
264,107	571,520	-0,079	-0,133
265,122	71,279	-0,149	-0,107
266,136	271,579	-0,112	-0,137
267,151	173,584	-0,151	-0,150
268,166	-42,915	-0,160	-0,056
269,180	-35,193	-0,195	-0,073
270,195	301,729	-0,141	-0,180
271,209	-54,435	-0,255	-0,079
272,224	8,978	-0,258	-0,134
273,239	115,435	-0,072	-0,061
274,253	135,748	-0,047	-0,042
275,268	-7,323	-0,177	-0,082
276,282	-31,499	-0,115	0,044
277,297	-200,000	-0,019	-0,091
278,312	-61,272	-0,246	-0,071
279,326	-88,036	-0,186	-0,038
280,341	-200,000	-0,016	0,093
281,355	85,319	-0,155	-0,117
282,370	-112,474	-0,219	-0,030
283,384	86,514	-0,177	-0,134
284,399	8,684	-0,132	-0,068
285,414	277,188	-0,151	-0,185
286,428	-0,792	-0,126	-0,061
287,443	-93,167	-0,191	-0,036
288,457	76,523	-0,160	-0,117
289,472	-200,000	-0,047	-0,180
290,487	566,275	-0,062	-0,103
291,501	-200,000	0,000	-0,218
292,516	12,073	-0,188	-0,099
293,530	97,248	-0,164	0,129
294,545	364,527	-0,028	-0,039
295,560	137,316	-0,110	-0,099
296,574	-200,000	-0,014	-0,134
297,589	-102,174	-0,151	-0,025
298,603	-200,000	-0,070	-0,217
299,618	800,000	-0,106	-0,212
300,633	-200,000	-0,020	-0,117
301,647	118,434	-0,102	-0,087
302,662	800,000	-0,032	-0,062
303,676	9,941	-0,171	-0,089
304,691	-39,610	-0,121	0,043
305,706	108,959	-0,088	-0,072
306,720	320,425	-0,068	-0,089
307,735	88,252	-0,131	-0,100
308,749	800,000	-0,033	0,073
309,764	54,831	-0,113	-0,074
310,779	-200,000	-0,042	-0,137
311,793	-4,772	-0,150	-0,071
312,808	484,547	-0,105	-0,165
313,822	800,000	-0,084	-0,198
314,837	313,463	-0,151	-0,195
315,852	-83,173	-0,071	-0,016
316,866	-200,000	-0,008	-0,053
317,881	-109,309	-0,127	-0,018
318,895	-62,126	-0,159	-0,045
319,910	-200,000	-0,027	-0,208
320,925	-46,465	-0,179	0,060
321,939	-91,690	-0,120	0,023
322,954	-134,807	-0,080	0,007
323,968	800,000	-0,076	-0,160
324,983	-95,886	-0,085	-0,015
325,997	-108,494	-0,222	-0,032
327,012	536,586	-0,157	-0,256
328,027	800,000	-0,075	-0,146
329,041	800,000	-0,068	-0,190
330,056	800,000	-0,111	-0,327
331,070	-62,758	-0,043	0,012
332,085	-78,957	-0,265	-0,061
333,100	-82,213	-0,189	-0,042
334,114	800,000	-0,053	-0,140
335,129	166,145	-0,127	-0,124
336,143	800,000	-0,075	-0,146
337,158	614,096	-0,070	-0,121
338,173	23,685	-0,119	-0,067
339,187	-2,202	-0,065	-0,031
340,202	21,061	-0,180	0,100
341,216	-200,000	-0,034	-0,144
342,231	800,000	-0,080	-0,188
343,246	-200,000	0,020	-0,221
344,260	-57,987	-0,162	-0,048
345,275	16,254	-0,252	-0,136
346,289	257,346	-0,127	-0,150
347,304	-200,000	-0,005	-0,144
348,319	121,148	-0,207	-0,176
349,333	30,993	-0,185	-0,109
350,348	100,782	-0,054	0,043
351,362	-200,000	-0,010	-0,093
352,377	110,343	-0,113	-0,093
353,392	-200,000	-0,013	-0,063
354,406	24,661	-0,166	-0,094
355,421	207,770	1311,727	1402,641
356,435	159,840	1472,049	1403,095
