DTS Sentinel unit serial number:	SN410029Multiplexer serial number:	ORYXHardware model number:	OX2-SRSoftware version number:	ORYX F/W v4,00 Oryx Data Collector v3.7.2.0data status	okinstallation	B3 Nyhavnadifferential loss correction	single-endedforward channel	channel 1reverse channel	N/Adate	2023/12/02time	05:37:30forward acquisition time	300,00reverse acquisition time	0,00gamma	499,1914k internal	0,3194k external	0,3194temperature offset calibration	1,0000default loss term (dB/km)	0,3820temperature slope calibration	1,0000multiplexer offset coefficient	1,0000multiplexer slope coefficient	1,0000fibre end	0,00T internal ref (°C)	16,19T ext. ref 1 (°C)	0,97T ext. ref 2 (°C)	0,96length (m)	temperature (°C)	Stokes	anti-Stokes-744,400	131,066	-0,243	-0,228
-743,385	-200,000	0,043	0,424
-742,371	-39,771	-0,150	-0,057
-741,356	-200,000	0,001	0,249
-740,342	-14,669	-0,304	-0,142
-739,327	-200,000	-0,011	0,335
-738,312	180,029	-0,174	-0,186
-737,298	-200,000	0,042	0,174
-736,283	620,532	-0,194	-0,357
-735,269	-200,000	0,090	0,354
-734,254	-200,000	-0,089	-0,326
-733,239	569,024	-0,095	0,169
-732,225	91,204	-0,111	-0,091
-731,210	11,767	0,103	-0,057
-730,196	142,861	-0,037	0,036
-729,181	-200,000	-0,012	-0,112
-728,167	47,264	-0,137	-0,093
-727,152	-200,000	0,001	0,044
-726,137	-67,508	-0,060	-0,017
-725,123	-62,334	-0,092	-0,028
-724,108	800,000	-0,129	-0,290
-723,094	-200,000	0,007	-0,109
-722,079	-141,322	-0,146	0,011
-721,064	65,853	0,101	0,074
-720,050	83,638	0,059	0,047
-719,035	748,241	-0,024	-0,048
-718,021	-200,000	0,004	-0,144
-717,006	-73,012	-0,085	0,023
-715,991	56,289	0,106	0,075
-714,977	800,000	0,048	-0,142
-713,962	-200,000	0,011	-0,105
-712,948	-32,106	-0,140	-0,057
-711,933	141,448	0,064	0,061
-710,918	800,000	-0,015	-0,040
-709,904	267,161	-0,051	-0,065
-708,889	35,910	-0,069	-0,044
-707,875	214,875	-0,076	-0,088
-706,860	121,337	0,060	-0,054
-705,845	800,000	-0,027	0,056
-704,831	800,000	0,027	0,058
-703,816	-173,677	0,100	0,002
-702,802	55,961	-0,097	-0,069
-701,787	800,000	-0,049	-0,114
-700,772	158,742	-0,112	-0,114
-699,758	-200,000	0,015	-0,095
-698,743	-200,000	0,024	0,140
-697,729	93,973	0,079	0,065
-696,714	454,005	0,037	0,059
-695,699	800,000	-0,025	0,053
-694,685	-200,000	-0,020	0,096
-693,670	176,032	-0,106	-0,112
-692,656	-200,000	0,001	-0,136
-691,641	800,000	-0,042	0,111
-690,627	800,000	0,038	0,088
-689,612	-34,484	-0,078	0,031
-688,597	403,686	-0,027	-0,041
-687,583	800,000	-0,032	-0,092
-686,568	800,000	-0,044	-0,105
-685,554	-112,681	0,045	-0,006
-684,539	649,663	-0,023	0,044
-683,524	-49,605	0,047	-0,016
-682,510	-200,000	0,028	0,097
-681,495	-200,000	-0,018	-0,061
-680,481	42,278	-0,117	-0,077
-679,466	145,925	-0,097	-0,094
-678,451	263,037	0,015	-0,019
-677,437	-23,178	0,082	-0,036
-676,422	179,741	-0,050	0,054
-675,408	42,637	0,056	-0,037
-674,393	-50,482	0,061	0,021
-673,378	-200,000	0,014	-0,058
-672,364	-34,240	-0,147	-0,058
-671,349	392,950	-0,022	-0,033
-670,335	746,538	-0,053	-0,104
-669,320	800,000	-0,016	0,033
-668,305	353,454	0,033	0,048
-667,291	415,730	-0,071	0,110
-666,276	-200,000	-0,014	0,096
-665,262	-58,647	-0,073	0,023
-664,247	-200,000	0,008	-0,048
-663,232	328,456	-0,026	0,036
-662,218	98,529	0,128	0,107
-661,203	19,974	0,056	0,033
-660,189	-7,185	0,089	-0,044
-659,174	-200,000	0,006	-0,095
-658,159	-150,710	0,127	-0,007
-657,145	-200,000	-0,028	-0,210
-656,130	-78,236	-0,070	-0,017
-655,116	-42,559	0,164	0,060
-654,101	450,632	0,016	0,026
-653,086	-200,000	0,004	-0,096
-652,072	-9,919	-0,148	-0,071
-651,057	182,626	-0,109	-0,117
-650,043	430,334	0,084	-0,133
-649,028	259,150	0,047	0,058
-648,014	240,666	0,069	-0,084
-646,999	-200,000	0,014	0,067
-645,984	-160,207	0,185	0,007
-644,970	-128,970	-0,208	0,021
-643,955	104,022	-0,039	-0,033
-642,941	-128,740	0,167	-0,017
-641,926	-80,193	-0,043	0,010
-640,911	83,635	-0,082	-0,065
-639,897	421,830	-0,020	0,032
-638,882	170,645	0,036	-0,038
-637,868	-56,214	-0,195	-0,063
-636,853	-12,763	-0,093	-0,044
-635,838	14,957	-0,102	0,058
-634,824	-7,461	0,145	-0,071
-633,809	-23,471	0,109	-0,048
-632,795	-111,218	0,088	0,013
-631,780	800,000	-0,028	-0,080
-630,765	-200,000	0,039	0,202
-629,751	245,601	-0,061	-0,074
-628,736	-163,035	-0,080	0,003
-627,722	800,000	0,058	-0,131
-626,707	-84,918	-0,103	-0,023
-625,692	800,000	-0,037	0,080
-624,678	62,052	0,080	-0,058
-623,663	100,641	-0,130	-0,109
-622,649	-200,000	-0,022	-0,187
-621,634	193,242	-0,124	0,136
-620,619	304,621	-0,036	-0,049
-619,605	54,714	-0,032	0,023
-618,590	206,050	-0,084	0,095
-617,576	422,339	0,032	0,050
-616,561	224,569	-0,018	-0,021
-615,546	572,499	-0,081	-0,143
-614,532	21,591	-0,079	-0,046
-613,517	800,000	0,004	-0,009
-612,503	-86,342	0,092	0,020
-611,488	269,744	0,051	0,065
-610,474	-85,321	0,147	0,033
-609,459	71,912	0,042	-0,031
-608,444	-200,000	0,007	-0,146
-607,430	583,558	-0,028	-0,049
-606,415	-113,113	0,048	-0,007
-605,401	290,579	0,099	-0,131
-604,386	157,034	-0,109	-0,109
-603,371	4,458	0,097	0,052
-602,357	800,000	-0,015	-0,047
-601,342	-200,000	0,035	-0,124
-600,328	-56,578	-0,078	0,025
-599,313	800,000	-0,047	-0,107
-598,298	-200,000	-0,001	-0,013
-597,284	94,843	0,075	-0,062
-596,269	-50,798	-0,011	0,004
-595,255	-200,000	-0,006	0,030
-594,240	-200,000	-0,020	-0,183
-593,225	-200,000	0,003	-0,101
-592,211	-200,000	-0,024	-0,172
-591,196	-200,000	-0,011	-0,102
-590,182	-34,057	0,029	-0,012
-589,167	132,360	-0,098	0,092
-588,152	-155,508	0,049	0,002
-587,138	63,732	-0,046	0,033
-586,123	-200,000	0,005	-0,134
-585,109	111,527	0,054	-0,047
-584,094	-53,828	-0,075	-0,025
-583,079	27,633	0,076	0,046
-582,065	-87,513	-0,065	0,014
-581,050	800,000	-0,047	0,096
-580,036	-58,564	0,064	-0,020
-579,021	230,995	0,085	-0,101
-578,006	472,383	0,012	0,019
-576,992	114,889	-0,085	-0,075
-575,977	-136,601	-0,117	-0,010
-574,963	800,000	-0,023	-0,053
-573,948	-124,473	0,239	0,027
-572,934	-200,000	0,008	-0,069
-571,919	800,000	0,051	-0,159
-570,904	-20,504	-0,111	0,049
-569,890	76,999	-0,112	0,086
-568,875	-115,141	0,136	0,018
-567,861	-200,000	-0,001	0,042
-566,846	-51,424	-0,092	0,031
-565,831	-109,277	0,056	0,008
-564,817	-200,000	0,006	-0,077
-563,802	-200,000	-0,002	-0,016
-562,788	-200,000	-0,014	0,050
-561,773	800,000	0,037	-0,084
-560,758	800,000	0,015	0,048
-559,744	800,000	0,055	0,112
-558,729	800,000	0,055	0,157
-557,715	653,612	0,066	-0,123
-556,700	48,251	-0,100	-0,068
-555,685	-123,652	-0,026	-0,003
-554,671	-95,071	-0,065	0,013
-553,656	407,368	0,070	0,108
-552,642	-200,000	-0,024	0,162
-551,627	-86,526	-0,043	-0,010
-550,612	-200,000	-0,010	0,094
-549,598	-200,000	-0,015	-0,201
-548,583	14,972	-0,136	0,077
-547,569	800,000	0,046	-0,122
-546,554	-88,468	0,118	-0,025
-545,539	-200,000	-0,025	-0,127
-544,525	-200,000	-0,006	-0,092
-543,510	-163,982	0,041	0,001
-542,496	725,143	-0,063	-0,123
-541,481	-97,113	-0,065	0,012
-540,466	124,563	0,108	0,098
-539,452	-40,800	-0,111	0,041
-538,437	498,148	-0,026	0,044
-537,423	6,565	0,066	0,035
-536,408	-200,000	0,011	-0,168
-535,393	373,750	-0,054	-0,079
-534,379	-29,916	-0,062	-0,026
-533,364	-200,000	-0,003	-0,018
-532,350	44,961	0,030	-0,020
-531,335	-120,080	0,206	-0,025
-530,321	-6,449	-0,031	0,015
-529,306	13,588	-0,145	-0,081
-528,291	2,552	-0,024	-0,013
-527,277	83,266	-0,133	-0,105
-526,262	385,457	-0,134	-0,200
-525,248	-200,000	-0,001	-0,024
-524,233	800,000	-0,022	-0,064
-523,218	9,702	0,152	0,083
-522,204	800,000	-0,066	0,139
-521,189	-200,000	-0,000	-0,032
-520,175	-154,986	-0,141	-0,007
-519,160	-101,929	-0,127	0,022
-518,145	-200,000	0,020	0,163
-517,131	-17,082	0,060	-0,027
-516,116	397,924	-0,056	0,085
-515,102	350,521	-0,150	0,214
-514,087	246,467	0,027	0,033
-513,072	800,000	-0,019	0,054
-512,058	175,803	-0,046	-0,048
-511,043	51,607	0,067	-0,046
-510,029	-102,075	0,114	0,020
-509,014	621,864	0,025	0,046
-507,999	800,000	0,054	0,130
-506,985	-200,000	-0,000	-0,060
-505,970	0,947	-0,087	0,045
-504,956	-200,000	-0,009	-0,129
-503,941	-200,000	-0,019	0,062
-502,926	-102,264	-0,031	-0,005
-501,912	800,000	0,047	0,113
-500,897	-61,056	0,086	-0,026
-499,883	-200,000	0,030	0,197
-498,868	-200,000	0,011	0,058
-497,853	-200,000	0,049	-0,184
-496,839	-87,001	0,093	0,020
-495,824	370,046	0,030	-0,044
-494,810	-69,985	-0,088	0,024
-493,795	-117,248	-0,095	0,012
-492,781	0,413	-0,012	0,006
-491,766	800,000	-0,048	-0,121
-490,751	694,380	-0,009	0,017
-489,737	800,000	-0,014	0,041
-488,722	-200,000	0,023	0,100
-487,708	217,356	0,121	0,140
-486,693	30,434	-0,219	0,135
-485,678	-97,813	0,105	-0,019
-484,664	-70,615	-0,136	-0,037
-483,649	-178,719	0,208	-0,003
-482,635	-200,000	0,009	-0,065
-481,620	-134,956	0,136	0,012
-480,605	359,889	0,090	0,130
-479,591	-200,000	-0,002	0,041
-478,576	-81,228	0,080	-0,019
-477,562	-200,000	-0,021	-0,069
-476,547	226,710	-0,049	0,057
-475,532	-61,317	-0,042	-0,013
-474,518	800,000	-0,031	0,077
-473,503	-48,056	0,084	-0,029
-472,489	152,393	-0,049	0,048
-471,474	-200,000	0,019	0,134
-470,459	-72,794	0,013	-0,003
-469,445	-200,000	-0,017	-0,161
-468,430	363,622	0,044	-0,064
-467,416	54,608	0,090	0,063
-466,401	-200,000	-0,032	0,115
-465,386	-168,458	0,104	-0,003
-464,372	800,000	0,011	0,024
-463,357	154,133	-0,074	-0,073
-462,343	101,306	-0,126	-0,106
-461,328	108,458	0,138	-0,119
-460,313	-200,000	-0,004	0,021
-459,299	218,284	0,017	0,020
-458,284	110,275	0,129	0,111
-457,270	294,379	-0,052	0,069
-456,255	47,761	-0,110	-0,074
-455,241	-200,000	0,022	-0,135
-454,226	-26,377	-0,120	-0,050
-453,211	198,431	-0,059	-0,065
-452,197	423,176	0,104	0,161
-451,182	-200,000	-0,013	0,098
-450,168	800,000	0,021	0,043
-449,153	-76,934	-0,041	0,010
-448,138	-42,489	-0,191	-0,070
-447,124	722,109	-0,084	-0,162
-446,109	12,361	-0,054	-0,030
-445,095	73,165	-0,018	-0,014
-444,080	294,831	0,023	0,030
-443,065	-96,917	0,084	-0,016
-442,051	188,002	-0,084	-0,090
-441,036	214,004	0,034	-0,039
-440,022	47,045	-0,068	0,046
-439,007	-200,000	-0,008	-0,054
-437,992	-59,079	0,057	0,018
-436,978	3,690	-0,106	0,055
-435,963	-200,000	-0,061	0,202
-434,949	-200,000	-0,027	-0,105
-433,934	-200,000	0,000	0,103
-432,919	295,905	0,065	0,086
-431,905	163,887	0,052	0,052
-430,890	29,640	0,099	0,060
-429,876	145,272	0,091	0,087
-428,861	152,431	0,059	0,058
-427,846	-34,885	0,053	-0,021
-426,832	51,465	-0,035	0,024
-425,817	-91,582	0,039	-0,008
-424,803	800,000	-0,036	-0,082
-423,788	-200,000	-0,012	-0,058
-422,773	57,639	0,089	0,063
-421,759	326,413	0,035	0,048
-420,744	-200,000	-0,021	0,126
-419,730	-16,308	-0,133	0,061
-418,715	-200,000	-0,031	-0,126
-417,701	205,556	0,077	-0,086
-416,686	51,633	0,070	0,048
-415,671	476,706	0,026	0,043
-414,657	-200,000	-0,002	0,030
-413,642	-65,808	0,047	-0,013
-412,628	35,192	0,137	0,086
-411,613	-51,761	-0,094	-0,031
-410,598	-200,000	-0,005	-0,105
-409,584	37,781	0,019	-0,012
-408,569	126,933	0,080	0,073
-407,555	126,606	0,100	0,091
-406,540	56,799	0,066	0,046
-405,525	251,371	-0,110	-0,135
-404,511	-200,000	0,024	0,098
-403,496	-42,881	0,022	0,008
-402,482	84,455	-0,021	0,017
-401,467	-169,445	0,131	-0,003
-400,452	-103,784	-0,110	0,018
-399,438	238,208	0,057	0,068
-398,423	-51,080	0,036	0,012
-397,409	-3,024	-0,086	-0,043
-396,394	-69,142	-0,145	-0,040
-395,379	129,915	-0,082	0,075
-394,365	-76,567	0,151	0,038
-393,350	287,036	-0,013	0,017
-392,336	800,000	-0,034	0,098
-391,321	-200,000	0,021	0,113
-390,306	-200,000	-0,009	0,042
-389,292	-156,891	-0,039	0,002
-388,277	687,578	-0,058	-0,109
-387,263	51,066	0,110	-0,075
-386,248	108,060	-0,060	-0,052
-385,233	172,814	0,084	0,087
-384,219	-128,417	-0,048	0,005
-383,204	245,204	0,078	0,095
-382,190	243,805	-0,014	-0,017
-381,175	721,243	-0,056	-0,108
-380,160	-124,302	0,045	-0,005
-379,146	-200,000	-0,007	-0,043
-378,131	-129,925	0,038	-0,004
-377,117	-99,383	0,061	0,011
-376,102	-56,657	0,057	0,018
-375,088	-90,812	-0,147	0,030
-374,073	-200,000	0,010	-0,099
-373,058	135,427	-0,121	-0,113
-372,044	-200,000	0,006	-0,031
-371,029	-134,472	-0,063	0,005
-370,015	-200,000	0,001	0,061
-369,000	-200,000	0,025	0,201
-367,985	800,000	-0,038	-0,077
-366,971	287,085	-0,053	0,068
-365,956	-200,000	0,021	-0,099
-364,942	313,937	0,065	-0,088
-363,927	-200,000	0,024	0,107
-362,912	130,082	0,043	0,039
-361,898	-200,000	-0,023	-0,110
-360,883	-200,000	-0,027	-0,101
-359,869	530,501	0,041	0,071
-358,854	-60,000	0,132	0,040
-357,839	-175,044	-0,133	-0,003
-356,825	-200,000	0,017	0,153
-355,810	-200,000	0,009	0,063
-354,796	800,000	0,042	-0,109
-353,781	-200,000	-0,018	-0,057
-352,766	800,000	0,025	-0,060
-351,752	-200,000	-0,018	0,118
-350,737	433,889	-0,022	-0,034
-349,723	-74,493	0,083	0,021
-348,708	174,073	0,030	-0,031
-347,693	368,539	-0,041	-0,059
-346,679	520,599	0,059	-0,100
-345,664	422,559	0,068	-0,105
-344,650	800,000	-0,036	-0,077
-343,635	512,100	0,063	0,105
-342,620	800,000	-0,074	0,189
-341,606	800,000	-0,011	-0,030
-340,591	24,426	0,071	0,042
-339,577	-200,000	0,010	-0,195
-338,562	77,849	-0,138	-0,105
-337,548	-36,755	0,134	0,051
-336,533	16,145	-0,064	0,036
-335,518	-200,000	0,024	0,082
-334,504	800,000	0,032	0,070
-333,489	40,540	0,050	0,032
-332,475	471,639	-0,076	-0,124
-331,460	40,032	-0,136	-0,087
-330,445	326,862	0,054	0,074
-329,431	12,455	0,101	-0,056
-328,416	-97,901	0,111	-0,020
-327,402	-49,464	-0,087	0,029
-326,387	-200,000	-0,021	0,079
-325,372	76,433	0,047	0,036
-324,358	-96,243	-0,074	-0,014
-323,343	-18,202	-0,069	-0,031
-322,329	261,594	-0,046	-0,058
-321,314	414,765	-0,016	0,025
-320,299	173,566	0,084	-0,087
-319,285	-151,491	-0,140	0,007
-318,270	119,360	0,035	0,031
-317,256	-155,577	-0,074	-0,003
-316,241	-174,257	0,014	0,000
-315,226	-75,916	0,058	0,015
-314,212	-200,000	0,020	0,118
-313,197	-123,528	0,152	-0,017
-312,183	-200,000	0,016	0,077
-311,168	-78,079	-0,116	0,029
-310,153	-88,116	-0,067	-0,014
-309,139	5,395	-0,050	-0,026
-308,124	768,852	0,034	0,067
-307,110	-137,242	0,126	-0,010
-306,095	43,242	0,083	0,054
-305,080	-159,056	-0,062	-0,002
-304,066	-52,960	0,179	-0,059
-303,051	49,493	-0,021	-0,014
-302,037	-200,000	0,027	-0,109
-301,022	70,147	-0,050	0,037
-300,008	66,554	0,061	-0,045
-298,993	-152,726	0,043	0,002
-297,978	-115,108	-0,129	-0,017
-296,964	781,363	0,014	0,027
-295,949	-92,613	0,076	-0,015
-294,935	399,647	-0,015	0,023
-293,920	-132,261	-0,088	0,008
-292,905	236,433	0,021	-0,025
-291,891	-200,000	0,027	0,100
-290,876	574,522	0,069	-0,120
-289,862	-12,726	0,133	-0,062
-288,847	490,202	-0,026	-0,043
-287,832	-114,007	0,045	0,006
-286,818	136,267	-0,062	-0,058
-285,803	800,000	-0,006	-0,019
-284,789	-200,000	0,019	-0,080
-283,774	-138,157	0,113	0,009
-282,759	-71,264	-0,096	-0,025
-281,745	-157,330	0,131	0,006
-280,730	-200,000	0,039	-0,195
-279,716	-79,829	0,169	0,040
-278,701	38,258	-0,130	0,083
-277,686	-200,000	-0,007	-0,088
-276,672	-200,000	-0,005	-0,023
-275,657	-158,191	-0,044	0,002
-274,643	-200,000	-0,008	-0,071
-273,628	691,611	-0,026	-0,049
-272,613	-200,000	0,001	-0,033
-271,599	-37,048	-0,078	-0,030
-270,584	240,508	0,050	0,059
-269,570	-200,000	0,022	-0,175
-268,555	-200,000	0,010	0,053
-267,540	86,428	-0,026	-0,021
-266,526	-65,263	-0,085	0,024
-265,511	-200,000	-0,012	-0,093
-264,497	-200,000	-0,001	-0,034
-263,482	116,455	0,180	0,158
-262,467	614,359	0,069	0,124
-261,453	800,000	0,031	0,078
-260,438	-40,599	-0,069	-0,026
-259,424	-0,456	-0,060	0,031
-258,409	751,073	0,066	0,128
-257,395	22,220	0,074	-0,043
-256,380	130,073	0,080	-0,074
-255,365	671,478	-0,050	0,093
-254,351	101,916	0,086	0,072
-253,336	-94,645	-0,016	-0,003
-252,322	56,561	-0,098	-0,068
-251,307	-141,162	0,149	-0,011
-250,292	-59,129	0,035	-0,011
-249,278	-87,075	0,134	0,029
-248,263	179,942	0,100	0,104
-247,249	201,491	0,101	0,111
-246,234	-200,000	-0,002	-0,079
-245,219	81,057	-0,029	-0,022
-244,205	-200,000	0,011	0,102
-243,190	-166,515	-0,012	-0,000
-242,176	199,082	0,016	0,017
-241,161	7,965	0,061	0,032
-240,146	800,000	-0,056	0,166
-239,132	-200,000	-0,054	-0,183
-238,117	-35,541	-0,019	0,007
-237,103	-200,000	-0,020	-0,072
-236,088	-200,000	-0,028	-0,117
-235,073	255,375	-0,097	0,119
-234,059	-23,621	0,097	-0,041
-233,044	-83,312	0,138	0,031
-232,030	20,923	0,052	0,030
-231,015	-200,000	-0,020	0,107
-230,000	-154,062	-0,111	0,005
-228,986	-200,000	0,008	0,069
-227,971	-200,000	-0,034	0,113
-226,957	-72,988	0,082	0,021
-225,942	800,000	-0,058	0,166
-224,927	334,749	0,057	0,080
-223,913	-200,000	-0,034	-0,192
-222,898	800,000	0,035	0,098
-221,884	83,668	0,037	-0,029
-220,869	-200,000	-0,019	-0,130
-219,855	135,332	0,061	0,056
-218,840	-67,266	-0,105	-0,029
-217,825	-43,396	0,076	0,027
-216,811	44,685	-0,079	-0,052
-215,796	186,300	-0,069	0,074
-214,782	-200,000	-0,033	-0,106
-213,767	32,293	0,088	0,054
-212,752	148,401	-0,045	0,043
-211,738	-77,505	0,108	0,026
-210,723	-200,000	-0,009	-0,067
-209,709	800,000	0,045	-0,142
-208,694	800,000	-0,054	-0,124
-207,679	-118,339	-0,182	0,023
-206,665	141,368	0,093	0,088
-205,650	171,288	-0,073	0,075
-204,636	-151,568	-0,087	0,004
-203,621	125,664	-0,076	0,068
-202,606	183,640	-0,094	-0,099
-201,592	800,000	-0,039	-0,082
-200,577	800,000	-0,028	0,066
-199,563	-165,508	-0,007	-0,000
-198,548	45,075	0,022	0,015
-197,533	-200,000	-0,040	0,163
-196,519	570,916	0,028	-0,049
-195,504	800,000	-0,015	-0,036
-194,490	231,817	0,010	-0,012
-193,475	-200,000	-0,037	-0,129
-192,460	-200,000	0,022	-0,114
-191,446	117,054	0,081	-0,071
-190,431	800,000	-0,004	0,014
-189,417	620,428	-0,066	-0,119
-188,402	-84,797	-0,134	0,030
-187,387	41,346	-0,117	-0,076
-186,373	-138,542	-0,068	0,005
-185,358	273,329	0,102	-0,129
-184,344	643,948	0,082	0,149
-183,329	-200,000	-0,029	0,109
-182,315	647,153	-0,056	0,102
-181,300	-67,000	-0,103	0,029
-180,285	-169,125	-0,093	-0,002
-179,271	-68,073	-0,075	-0,021
-178,256	-102,433	-0,035	-0,006
-177,242	11,054	0,153	0,083
-176,227	163,911	-0,080	0,080
-175,212	-102,976	0,048	-0,008
-174,198	800,000	0,022	-0,052
-173,183	36,370	-0,025	0,016
-172,169	-200,000	-0,074	0,000
-171,154	790,438	0,057	-0,112
-170,139	11,591	0,062	0,034
-169,125	800,000	0,070	0,158
-168,110	-43,231	-0,066	0,024
-167,096	-200,000	0,005	0,027
-166,081	-200,000	0,006	0,061
-165,066	375,200	0,027	0,040
-164,052	26,915	-0,047	0,028
-163,037	784,174	0,048	0,094
-162,023	155,735	0,061	0,060
-161,008	-200,000	-0,007	0,108
-159,993	-10,337	-0,026	0,012
-158,979	-200,000	-0,015	-0,052
-157,964	261,216	-0,107	0,132
-156,950	-200,000	0,005	0,019
-155,935	-200,000	-0,016	-0,078
-154,920	-200,000	-0,047	0,155
-153,906	142,199	-0,012	-0,011
-152,891	-200,000	0,006	0,163
-151,877	-109,373	0,065	-0,010
-150,862	-160,034	0,122	-0,005
-149,847	243,072	-0,012	0,015
-148,833	125,200	-0,070	-0,063
-147,818	181,656	-0,051	0,054
-146,804	123,960	-0,082	0,073
-145,789	41,493	-0,047	-0,030
-144,775	-30,200	-0,143	0,058
-143,760	7,164	0,054	-0,029
-142,745	83,116	0,074	0,057
-141,731	-54,384	-0,094	-0,030
-140,716	-113,069	-0,085	0,012
-139,702	147,747	-0,018	0,017
-138,687	-200,000	-0,004	0,150
-137,672	-200,000	0,009	0,050
-136,658	83,739	-0,186	-0,144
-135,643	598,734	0,043	-0,077
-134,629	-163,611	-0,095	-0,003
-133,614	101,412	0,158	0,131
-132,599	-200,000	0,004	0,052
-131,585	800,000	-0,046	0,119
-130,570	-29,657	0,021	-0,008
-129,556	425,224	-0,056	0,085
-128,541	96,468	0,104	-0,085
-127,526	211,606	0,090	0,101
-126,512	8,295	-0,083	0,044
-125,497	101,422	0,162	0,134
-124,483	-64,719	0,047	0,013
-123,468	-200,000	-0,021	0,068
-122,453	-51,479	-0,087	-0,029
-121,439	70,788	0,027	0,020
-120,424	-200,000	-0,012	-0,103
-119,410	-200,000	0,024	0,169
-118,395	268,778	0,077	0,097
-117,380	341,070	0,040	0,056
-116,366	-92,063	-0,038	-0,008
-115,351	-200,000	-0,019	-0,103
-114,337	515,249	-0,046	-0,077
-113,322	252,665	0,018	-0,022
-112,307	-36,821	-0,139	0,053
-111,293	289,103	-0,028	-0,036
-110,278	800,000	-0,011	0,022
-109,264	-1,577	0,115	-0,057
-108,249	800,000	-0,040	0,094
-107,234	-200,000	0,001	0,012
-106,220	-4,059	0,168	-0,083
-105,205	-132,902	-0,078	-0,007
-104,191	-200,000	-0,032	0,107
-103,176	-20,519	0,089	0,039
-102,162	504,911	0,044	0,073
-101,147	-200,000	0,013	0,085
-100,132	-163,557	-0,007	-0,000
-99,118	-44,239	0,101	-0,036
-98,103	-200,000	-0,006	0,022
-97,089	-155,316	0,070	-0,003
-96,074	95,375	-0,037	-0,030
-95,059	-1,814	0,035	-0,018
-94,045	102,175	-0,039	0,032
-93,030	-12,101	-0,081	0,038
-92,016	-10,188	0,056	-0,026
-91,001	-200,000	-0,009	-0,037
-89,986	-200,000	-0,007	-0,158
-88,972	29,809	-0,055	-0,033
-87,957	-152,231	-0,107	0,005
-86,943	322,833	-0,058	-0,079
-85,928	-27,882	-0,097	-0,040
-84,913	-200,000	-0,021	-0,103
-83,899	84,742	-0,090	-0,070
-82,884	-4,238	0,035	0,017
-81,870	-200,000	0,004	0,034
-80,855	-28,005	0,168	-0,069
-79,840	191,830	0,060	-0,065
-78,826	335,346	-0,113	-0,156
-77,811	-200,000	-0,022	-0,163
-76,797	-200,000	-0,009	-0,103
-75,782	-129,155	0,112	0,011
-74,767	800,000	-0,001	-0,004
-73,753	175,053	-0,073	0,075
-72,738	-200,000	-0,006	-0,019
-71,724	239,516	-0,022	-0,026
-70,709	188,999	-0,034	-0,036
-69,694	384,148	0,048	-0,071
-68,680	-200,000	-0,002	-0,047
-67,665	-139,866	0,086	-0,006
-66,651	753,644	-0,017	-0,032
-65,636	282,855	0,062	0,080
-64,622	97,162	0,106	-0,086
-63,607	168,887	0,092	-0,093
-62,592	-200,000	0,007	0,027
-61,578	-118,476	-0,018	-0,002
-60,563	19,914	0,054	0,031
-59,549	800,000	-0,012	-0,031
-58,534	-95,001	-1,378	-0,262
-57,519	435,777	-1,473	-2,282
-56,505	-200,000	-0,597	-4,503
-55,490	93,964	1,009	0,812
-54,476	800,000	4,860	11,265
-53,461	-200,000	17,575	279,183
-52,446	800,000	719,546	2216,307
-51,432	561,585	1633,828	2814,229
-50,417	81,285	1657,820	1269,768
-49,403	24,051	1532,208	894,736
-48,388	18,057	1455,312	820,922
-47,373	18,424	1444,748	816,693
-46,359	18,064	1435,598	809,771
-45,344	16,368	1430,763	798,950
-44,330	16,304	1428,866	797,553
-43,315	16,255	1427,163	796,338
-42,300	16,275	1425,430	795,435
-41,286	16,346	1424,443	795,190
-40,271	16,336	1423,058	794,337
-39,257	16,317	1421,757	793,487
-38,242	16,317	1420,565	792,790
-37,227	16,307	1419,385	792,056
-36,213	16,318	1417,986	791,296
-35,198	16,263	1417,029	790,472
-34,184	16,340	1415,864	790,151
-33,169	16,249	1414,675	789,028
-32,154	16,304	1413,681	788,703
-31,140	16,336	1412,135	787,959
-30,125	16,337	1411,189	787,403
-29,111	16,329	1410,017	786,683
-28,096	16,288	1408,978	785,879
-27,082	16,225	1408,009	785,013
-26,067	16,231	1406,656	784,253
-25,052	16,245	1405,648	783,726
-24,038	16,159	1404,704	782,769
-23,023	16,223	1403,565	782,402
-22,009	16,157	1402,789	781,630
-20,994	16,121	1401,955	780,967
-19,979	16,128	1400,939	780,399
-18,965	16,168	1399,887	779,968
-17,950	16,137	1398,870	779,227
-16,936	16,145	1397,946	778,721
-15,921	16,139	1396,667	777,950
-14,906	16,128	1395,660	777,308
-13,892	16,178	1394,742	776,997
-12,877	16,149	1393,814	776,314
-11,863	16,146	1392,914	775,769
-10,848	16,133	1392,059	775,201
-9,833	16,095	1391,164	774,494
-8,819	16,048	1390,358	773,798
-7,804	16,049	1389,340	773,206
-6,790	15,990	1388,353	772,355
-5,775	16,022	1387,049	771,747
-4,760	16,022	1386,563	771,445
-3,746	16,019	1385,724	770,932
-2,731	16,045	1384,723	770,463
-1,717	16,072	1383,566	769,916
-0,702	16,018	1381,865	768,688
0,313	19,741	1303,290	742,185
1,327	36,207	707,457	441,094
2,342	55,215	125,512	85,910
3,356	2,467	16,713	8,551
4,371	5,601	3,137	1,638
5,386	9,868	0,495	0,266
6,400	-200,000	0,005	0,058
7,415	-117,356	-0,211	-0,027
8,429	78,641	-0,269	-0,204
9,444	69,055	-0,139	-0,101
10,459	204,196	-0,238	-0,262
11,473	250,027	-0,232	-0,279
12,488	119,351	-0,220	-0,193
13,502	74,405	-0,267	-0,199
14,517	17,820	-0,449	-0,252
15,531	177,229	-0,361	-0,373
16,546	51,637	-0,294	-0,198
17,561	71,310	-0,402	-0,295
18,575	-156,088	-0,242	-0,011
19,590	101,150	-0,238	-0,196
20,604	-27,874	-0,256	-0,104
21,619	3,463	-0,504	-0,259
22,634	290,236	-0,352	-0,454
23,648	315,311	-0,392	-0,524
24,663	78,548	-0,522	-0,395
25,677	170,772	-0,238	-0,242
26,692	200,397	-0,261	-0,284
27,707	15,507	-0,377	-0,209
28,721	135,992	-0,365	-0,336
29,736	-41,608	-0,369	-0,133
30,750	329,269	-0,311	-0,424
31,765	123,372	-0,339	-0,300
32,780	-22,190	-0,468	-0,200
33,794	30,604	-0,365	-0,220
34,809	173,149	-0,279	-0,285
35,823	-23,483	-0,512	-0,216
36,838	81,674	-0,403	-0,308
37,853	172,862	-0,294	-0,300
38,867	132,876	-0,413	-0,377
39,882	-42,555	-0,389	-0,139
40,896	60,346	-0,421	-0,294
41,911	239,567	-0,241	-0,284
42,926	-21,258	-0,482	-0,207
43,940	127,676	-0,253	-0,227
44,955	123,711	-0,351	-0,311
45,969	77,647	-0,300	-0,225
46,984	-45,910	-0,243	-0,084
47,999	-14,849	-0,381	-0,172
49,013	29,624	-0,387	-0,232
50,028	148,556	-0,361	-0,345
51,042	140,425	-0,321	-0,299
52,057	-8,387	-0,430	-0,203
53,071	75,012	-0,291	-0,216
54,086	250,905	-0,185	-0,222
55,101	642,188	-0,203	-0,367
56,115	38,053	-0,254	-0,159
57,130	17,538	-0,356	-0,199
58,144	51,594	-0,472	-0,316
59,159	-43,726	-0,477	-0,169
60,174	-2,926	-0,448	-0,220
61,188	-23,809	-0,366	-0,154
62,203	110,410	-0,221	-0,187
63,217	22,515	-0,357	-0,205
64,232	125,874	-0,213	-0,190
65,247	86,784	-0,424	-0,330
66,261	84,500	-0,384	-0,296
67,276	36,524	-0,368	-0,228
68,290	138,621	-0,396	-0,366
69,305	505,750	-0,171	-0,280
70,320	-92,203	-0,341	-0,067
71,334	-4,319	-0,324	-0,157
72,349	243,076	-0,220	-0,261
73,363	72,982	-0,351	-0,258
74,378	123,965	-0,333	-0,294
75,393	107,923	-0,293	-0,246
76,407	46,978	-0,283	-0,185
77,422	169,586	-0,198	-0,199
78,436	-3,157	-0,327	-0,160
79,451	28,856	-0,438	-0,261
80,466	87,793	-0,390	-0,304
81,480	93,834	-0,232	-0,185
82,495	206,824	-0,243	-0,267
83,509	7,774	-0,340	-0,179
84,524	96,092	-0,153	-0,123
85,539	-88,416	-0,352	-0,073
86,553	128,144	-0,210	-0,188
87,568	204,347	-0,220	-0,240
88,582	69,806	-0,378	-0,274
89,597	367,623	-0,251	-0,358
90,611	32,337	-0,260	-0,158
91,626	-36,383	-0,401	-0,151
92,641	129,999	-0,264	-0,237
93,655	196,461	-0,246	-0,264
94,670	78,861	-0,285	-0,214
95,684	-30,511	-0,399	-0,158
96,699	-5,984	-0,390	-0,187
97,714	79,243	-0,173	-0,130
98,728	268,952	-0,146	-0,180
99,743	12,283	-0,332	-0,179
100,757	-48,306	-0,209	-0,071
101,772	153,830	-0,178	-0,171
102,787	62,365	-0,275	-0,192
103,801	-16,326	-0,354	-0,157
104,816	557,107	-0,211	-0,360
105,830	262,203	-0,167	-0,204
106,845	-59,750	-0,279	-0,083
107,860	21,674	-0,225	-0,129
108,874	132,930	-0,257	-0,234
109,889	116,422	-0,131	-0,113
110,903	110,492	-0,167	-0,141
111,918	20,949	-0,252	-0,143
112,933	41,981	-0,168	-0,107
113,947	15,160	-0,250	-0,137
114,962	80,902	-0,239	-0,181
115,976	3,890	-0,321	-0,164
116,991	-27,806	-0,200	-0,081
118,006	-43,027	-0,232	-0,082
119,020	32,178	-0,378	-0,228
120,035	16,158	-0,308	-0,170
121,049	202,021	-0,199	-0,216
122,064	156,635	-0,237	-0,229
123,079	223,000	-0,196	-0,222
124,093	503,429	-0,168	-0,273
125,108	259,412	-0,254	-0,308
126,122	162,651	-0,233	-0,229
127,137	-20,116	-0,196	-0,085
128,151	230,918	-0,226	-0,260
129,166	88,755	-0,131	-0,102
130,181	-32,762	-0,224	-0,087
131,195	230,357	-0,212	-0,244
132,210	-25,531	-0,339	-0,140
133,224	199,629	-0,239	-0,257
134,239	166,288	-0,219	-0,218
135,254	72,932	-0,234	-0,171
136,268	42,247	-0,273	-0,174
137,283	414,921	-0,174	-0,261
138,297	-16,254	-0,239	-0,106
139,312	-150,066	-0,312	-0,017
140,327	207,628	-0,271	-0,297
141,341	211,735	-0,223	-0,246
142,356	-23,185	-0,258	-0,108
143,370	-43,689	-0,268	-0,094
144,385	-144,963	-0,229	-0,014
145,400	-5,782	-0,340	-0,162
146,414	85,211	-0,257	-0,197
147,429	220,654	-0,183	-0,206
148,443	-10,999	-0,251	-0,116
149,458	-6,888	-0,175	-0,083
150,473	47,910	-0,222	-0,145
151,487	62,021	-0,280	-0,195
152,502	225,472	-0,266	-0,302
153,516	212,053	-0,243	-0,268
154,531	382,121	-0,236	-0,340
155,546	236,043	-0,213	-0,247
156,560	135,378	-0,216	-0,197
157,575	14,891	-0,245	-0,134
158,589	54,788	-0,156	-0,105
159,604	74,236	-0,216	-0,158
160,619	0,986	-0,252	-0,126
161,633	24,580	-0,232	-0,134
162,648	359,610	-0,246	-0,345
163,662	586,856	-0,165	-0,284
164,677	-17,075	-0,213	-0,094
165,692	108,645	-0,378	-0,316
166,706	-49,393	-0,158	-0,053
167,721	13,969	-0,296	-0,161
168,735	7,491	-0,259	-0,135
169,750	70,631	-0,278	-0,201
170,764	206,480	-0,220	-0,240
171,779	-36,722	-0,303	-0,113
172,794	19,101	-0,245	-0,137
173,808	142,966	-0,204	-0,189
174,823	73,130	-0,265	-0,193
175,837	376,297	-0,167	-0,239
176,852	800,000	-0,099	-0,209
177,867	800,000	-0,061	-0,158
178,881	31,185	-0,217	-0,130
179,896	79,746	-0,242	-0,181
180,910	16,326	-0,187	-0,103
181,925	114,590	-0,263	-0,224
182,940	434,106	-0,152	-0,232
183,954	58,568	-0,214	-0,146
184,969	132,701	-0,116	-0,105
185,983	-36,384	-0,264	-0,099
186,998	99,568	-0,217	-0,175
188,013	340,063	-0,086	-0,117
189,027	-18,115	-0,193	-0,084
190,042	157,007	-0,199	-0,192
191,056	69,311	-0,204	-0,146
192,071	40,353	-0,200	-0,125
193,086	246,456	-0,119	-0,140
194,100	-84,608	-0,084	-0,018
195,115	102,302	-0,225	-0,183
196,129	41,364	-0,214	-0,134
197,144	-7,183	-0,178	-0,084
198,159	47,192	-0,312	-0,202
199,173	-16,182	-0,261	-0,115
200,188	17,833	-0,229	-0,127
201,202	69,980	-0,195	-0,140
202,217	-26,354	-0,155	-0,063
203,232	217,229	-0,166	-0,185
204,246	800,000	-0,110	-0,223
205,261	49,945	-0,234	-0,153
206,275	-71,668	-0,230	-0,059
207,290	22,318	-0,196	-0,111
208,304	148,695	-0,281	-0,264
209,319	70,174	-0,056	-0,041
210,334	247,434	-0,208	-0,245
211,348	130,702	-0,198	-0,176
212,363	365,159	-0,153	-0,215
213,377	203,115	-0,142	-0,153
214,392	83,256	-0,209	-0,159
215,407	491,725	-0,102	-0,164
216,421	126,989	-0,158	-0,139
217,436	13,460	-0,152	-0,082
218,450	387,073	-0,162	-0,234
219,465	91,782	-0,269	-0,211
220,480	173,299	-0,175	-0,176
221,494	-23,335	-0,312	-0,130
222,509	124,848	-0,118	-0,104
223,523	88,659	-0,078	-0,061
224,538	214,997	-0,171	-0,189
225,553	-103,535	-0,214	-0,035
226,567	24,025	-0,311	-0,178
227,582	-0,370	-0,230	-0,113
228,596	-47,347	-0,257	-0,087
229,611	109,870	-0,158	-0,131
230,626	413,375	-0,122	-0,181
231,640	94,583	-0,125	-0,099
232,655	143,466	-0,135	-0,125
233,669	337,350	-0,142	-0,192
234,684	587,992	-0,121	-0,208
235,699	-21,195	-0,233	-0,099
236,713	-81,145	-0,240	-0,055
237,728	-22,479	-0,146	-0,061
238,742	-61,677	-0,207	0,060
239,757	-46,980	-0,201	-0,068
240,772	133,272	-0,156	-0,140
241,786	115,689	-0,190	-0,162
242,801	334,740	-0,102	-0,138
243,815	-59,848	-0,232	-0,068
244,830	-105,465	-0,125	-0,020
245,844	-163,155	-0,193	0,006
246,859	-99,569	-0,266	-0,046
247,874	-25,417	-0,334	-0,136
248,888	800,000	-0,093	-0,180
249,903	800,000	-0,112	-0,265
250,917	722,227	-0,058	-0,107
251,932	16,787	-0,123	-0,067
252,947	-78,287	-0,221	-0,052
253,961	235,056	-0,165	-0,189
254,976	487,343	-0,161	-0,255
255,990	335,060	-0,180	-0,242
257,005	454,781	-0,143	-0,221
258,020	-14,608	-0,169	-0,075
259,034	79,527	-0,105	-0,078
260,049	106,289	-0,124	-0,102
261,063	-200,000	-0,106	-0,347
262,078	-82,640	-0,124	-0,028
263,093	363,346	-0,174	-0,243
264,107	85,718	-0,121	-0,092
265,122	-200,000	-0,079	-0,242
266,136	384,046	-0,130	-0,186
267,151	-31,011	-0,176	-0,069
268,166	217,306	-0,148	-0,163
269,180	-66,321	-0,178	-0,049
270,195	90,064	-0,177	-0,137
271,209	800,000	-0,113	-0,233
272,224	24,499	-0,160	-0,091
273,239	484,774	-0,089	-0,141
274,253	8,861	-0,154	-0,080
275,268	61,264	-0,161	-0,111
276,282	-60,569	-0,176	-0,051
277,297	-42,921	-0,219	-0,077
278,312	-54,239	-0,225	-0,070
279,326	-161,099	-0,164	0,006
280,341	177,165	-0,095	0,096
281,355	-72,286	-0,138	-0,035
282,370	589,627	-0,156	-0,267
283,384	15,480	-0,203	-0,110
284,399	130,392	-0,202	-0,179
285,414	-60,115	-0,228	-0,067
286,428	324,507	-0,151	-0,200
287,443	-144,927	-0,177	0,011
288,457	261,617	-0,128	-0,154
289,472	294,196	-0,054	-0,069
290,487	-43,821	-0,152	-0,053
291,501	-46,318	-0,083	0,028
292,516	-200,000	-0,065	-0,253
293,530	-77,926	-0,151	-0,036
294,545	15,794	-0,172	-0,093
295,560	-200,000	-0,014	-0,069
296,574	800,000	-0,122	-0,248
297,589	391,407	-0,159	-0,228
298,603	233,831	-0,156	-0,177
299,618	230,763	-0,177	-0,200
300,633	-65,586	-0,163	-0,045
301,647	11,362	-0,201	0,106
302,662	-22,282	-0,272	-0,113
303,676	18,068	-0,150	-0,082
304,691	-8,952	-0,188	-0,087
305,706	-111,150	-0,129	-0,018
306,720	466,760	-0,148	-0,230
307,735	11,865	-0,141	-0,075
308,749	733,079	-0,111	-0,207
309,764	-148,230	0,058	0,003
310,779	54,994	-0,102	-0,068
311,793	46,840	-0,151	-0,097
312,808	371,438	-0,191	-0,268
313,822	87,837	-0,186	-0,142
314,837	100,714	-0,157	-0,126
315,852	42,827	-0,089	0,056
316,866	211,732	-0,112	-0,122
317,881	800,000	-0,052	-0,148
318,895	206,954	-0,149	-0,160
319,910	217,223	-0,136	-0,150
320,925	800,000	-0,113	-0,279
321,939	-23,526	-0,116	-0,048
322,954	301,904	-0,156	-0,200
323,968	-107,211	-0,188	-0,028
324,983	-130,179	-0,141	0,013
325,997	-124,751	-0,146	-0,015
327,012	-26,200	-0,239	-0,096
328,027	800,000	-0,075	-0,220
329,041	111,706	-0,138	-0,115
330,056	-200,000	-0,067	-0,237
331,070	-200,000	0,048	-0,164
332,085	-0,568	-0,171	-0,083
333,100	-100,030	-0,123	0,021
334,114	91,543	-0,159	-0,123
335,129	117,713	-0,176	-0,149
336,143	800,000	-0,072	-0,150
337,158	401,004	-0,083	-0,120
338,173	-106,781	-0,034	-0,005
339,187	-20,733	-0,227	-0,095
340,202	-23,223	-0,161	-0,066
341,216	430,829	-0,130	-0,195
342,231	86,515	-0,173	-0,131
343,246	520,781	-0,076	-0,123
344,260	557,525	-0,129	-0,216
345,275	62,057	-0,082	-0,056
346,289	53,267	-0,237	-0,156
347,304	63,384	-0,147	-0,101
348,319	800,000	-0,043	-0,125
349,333	634,095	-0,083	-0,145
350,348	800,000	-0,118	-0,229
351,362	-137,864	-0,238	-0,018
352,377	94,517	-0,090	-0,070
353,392	508,969	0,020	-0,032
354,406	185,581	-0,064	-0,065
355,421	209,454	1313,586	1416,892
356,435	161,207	1474,210	1417,427
