DTS Sentinel unit serial number:	SN410029Multiplexer serial number:	ORYXHardware model number:	OX2-SRSoftware version number:	ORYX F/W v4,00 Oryx Data Collector v3.7.2.0data status	okinstallation	B3 Nyhavnadifferential loss correction	single-endedforward channel	channel 1reverse channel	N/Adate	2023/12/02time	14:12:30forward acquisition time	300,00reverse acquisition time	0,00gamma	499,1914k internal	0,3198k external	0,3198temperature offset calibration	1,0000default loss term (dB/km)	0,3820temperature slope calibration	1,0000multiplexer offset coefficient	1,0000multiplexer slope coefficient	1,0000fibre end	0,00T internal ref (°C)	14,87T ext. ref 1 (°C)	0,26T ext. ref 2 (°C)	0,28length (m)	temperature (°C)	Stokes	anti-Stokes-744,400	800,000	-0,120	-0,267
-743,385	800,000	0,136	0,308
-742,371	347,632	-0,141	-0,203
-741,356	800,000	0,114	0,355
-740,342	238,605	-0,202	-0,245
-739,327	-200,000	0,033	0,375
-738,312	242,904	-0,198	-0,242
-737,298	800,000	-0,135	0,425
-736,283	574,495	-0,148	-0,263
-735,269	800,000	0,094	0,280
-734,254	-4,914	-0,264	-0,132
-733,239	-84,816	-0,161	0,036
-732,225	-20,727	-0,241	-0,107
-731,210	103,599	0,208	0,178
-730,196	-200,000	0,007	-0,061
-729,181	-200,000	0,002	-0,076
-728,167	104,337	0,023	0,019
-727,152	475,309	-0,070	-0,115
-726,137	-200,000	0,009	-0,112
-725,123	-67,235	-0,107	0,030
-724,108	179,081	-0,076	-0,081
-723,094	393,758	-0,078	-0,119
-722,079	261,038	-0,034	-0,043
-721,064	27,396	-0,081	-0,050
-720,050	-128,948	-0,053	0,005
-719,035	-200,000	-0,031	0,160
-718,021	-131,798	-0,052	0,005
-717,006	81,494	-0,091	-0,071
-715,991	-200,000	0,000	-0,088
-714,977	800,000	-0,018	-0,047
-713,962	326,326	0,036	-0,050
-712,948	800,000	-0,036	-0,104
-711,933	331,844	0,018	-0,026
-710,918	24,487	-0,051	0,030
-709,904	176,780	-0,091	-0,096
-708,889	-7,675	0,015	-0,007
-707,875	-200,000	0,012	-0,064
-706,860	298,543	-0,086	0,116
-705,845	-73,278	-0,045	0,012
-704,831	-5,937	0,086	0,043
-703,816	74,210	-0,079	0,060
-702,802	-106,329	0,075	-0,012
-701,787	-101,420	-0,171	0,030
-700,772	-200,000	0,023	-0,147
-699,758	19,206	-0,081	-0,047
-698,743	0,256	0,057	0,030
-697,729	800,000	-0,043	0,099
-696,714	-1,866	-0,136	0,069
-695,699	248,508	-0,076	0,094
-694,685	786,862	0,025	0,049
-693,670	-146,126	-0,145	-0,009
-692,656	229,778	0,092	-0,110
-691,641	-200,000	-0,010	-0,126
-690,627	474,867	0,099	0,162
-689,612	-200,000	0,006	0,124
-688,597	800,000	0,064	-0,202
-687,583	-78,811	-0,151	-0,037
-686,568	-154,993	-0,141	-0,007
-685,554	800,000	-0,014	-0,035
-684,539	14,841	0,093	0,053
-683,524	-26,666	0,254	0,107
-682,510	302,584	0,056	-0,076
-681,495	-72,547	0,034	-0,009
-680,481	-61,168	-0,094	-0,029
-679,466	166,272	0,033	0,034
-678,451	255,127	-0,024	-0,030
-677,437	668,542	0,032	0,060
-676,422	175,468	0,083	0,087
-675,408	-200,000	0,025	-0,104
-674,393	-0,696	-0,153	-0,078
-673,378	-105,365	-0,096	0,016
-672,364	800,000	0,009	-0,021
-671,349	155,431	-0,038	-0,038
-670,335	121,299	0,088	-0,080
-669,320	-200,000	0,055	0,197
-668,305	-14,713	0,012	0,006
-667,291	50,611	-0,054	0,037
-666,276	489,968	-0,040	-0,067
-665,262	-200,000	-0,016	-0,148
-664,247	-56,499	-0,181	0,058
-663,232	27,610	-0,057	-0,035
-662,218	8,426	0,037	-0,020
-661,203	-167,121	0,125	0,004
-660,189	800,000	-0,031	0,099
-659,174	-200,000	-0,004	-0,061
-658,159	800,000	0,058	-0,176
-657,145	109,050	0,053	0,046
-656,130	117,535	0,046	0,041
-655,116	-34,117	-0,072	-0,029
-654,101	800,000	0,062	-0,140
-653,086	301,770	-0,072	0,097
-652,072	-54,228	0,152	-0,050
-651,057	715,505	0,069	-0,133
-650,043	-30,998	0,042	0,017
-649,028	50,205	-0,005	0,004
-648,014	-24,279	0,057	0,025
-646,999	-26,071	-0,071	-0,030
-645,984	-200,000	0,004	0,021
-644,970	-69,261	-0,059	0,016
-643,955	800,000	0,011	0,034
-642,941	-191,882	-0,118	0,001
-641,926	322,081	-0,103	-0,142
-640,911	143,160	0,124	0,120
-639,897	-200,000	0,001	-0,081
-638,882	-200,000	-0,002	-0,023
-637,868	408,783	-0,052	-0,080
-636,853	-200,000	0,000	-0,070
-635,838	262,119	-0,051	0,065
-634,824	-69,968	0,063	0,017
-633,809	800,000	-0,022	0,047
-632,795	800,000	-0,024	0,055
-631,780	800,000	-0,021	-0,053
-630,765	-200,000	-0,002	-0,109
-629,751	409,253	-0,022	-0,034
-628,736	755,684	-0,059	-0,116
-627,722	702,300	-0,010	-0,020
-626,707	222,242	-0,121	-0,142
-625,692	-92,536	0,076	0,015
-624,678	-200,000	0,016	0,073
-623,663	58,598	-0,011	0,008
-622,649	163,472	0,142	-0,145
-621,634	449,325	-0,081	-0,129
-620,619	-200,000	-0,013	-0,066
-619,605	-200,000	0,006	-0,029
-618,590	109,500	0,035	-0,031
-617,576	-200,000	-0,007	-0,044
-616,561	-114,283	0,036	0,005
-615,546	188,434	-0,082	0,089
-614,532	-200,000	0,004	-0,033
-613,517	296,464	-0,035	0,046
-612,503	93,638	-0,019	0,016
-611,488	299,553	-0,018	0,024
-610,474	-103,943	-0,093	-0,015
-609,459	53,627	0,031	-0,022
-608,444	-85,732	0,105	0,023
-607,430	-157,686	-0,136	-0,006
-606,415	-116,246	0,053	0,007
-605,401	-200,000	0,012	0,134
-604,386	429,445	0,038	0,059
-603,371	-198,397	-0,019	0,000
-602,357	219,326	-0,050	-0,058
-601,342	-59,935	-0,044	0,013
-600,328	723,089	-0,047	0,090
-599,313	70,308	-0,137	-0,103
-598,298	-200,000	0,016	0,106
-597,284	-159,685	0,104	0,004
-596,269	123,799	0,121	0,110
-595,255	130,631	-0,063	0,058
-594,240	-171,675	-0,067	-0,002
-593,225	87,542	-0,073	-0,058
-592,211	-113,574	-0,043	-0,006
-591,196	800,000	0,031	0,081
-590,182	638,972	0,020	-0,038
-589,167	-114,156	-0,032	-0,004
-588,152	-59,473	0,065	0,020
-587,138	56,190	0,080	0,056
-586,123	-200,000	-0,000	-0,120
-585,109	-200,000	0,033	-0,109
-584,094	-4,889	-0,060	-0,030
-583,079	-200,000	0,011	-0,052
-582,065	118,407	0,045	-0,040
-581,050	375,280	0,070	0,103
-580,036	114,213	-0,065	-0,057
-579,021	-200,000	-0,004	-0,029
-578,006	666,409	-0,081	-0,153
-576,992	-200,000	-0,009	-0,094
-575,977	800,000	0,029	-0,080
-574,963	800,000	-0,028	0,062
-573,948	-50,807	0,030	0,010
-572,934	597,973	-0,099	0,177
-571,919	-200,000	-0,021	0,092
-570,904	-6,846	-0,085	-0,041
-569,890	-19,053	-0,095	-0,043
-568,875	-200,000	0,011	0,072
-567,861	-8,372	0,065	0,031
-566,846	-200,000	-0,017	0,118
-565,831	287,129	0,086	-0,112
-564,817	233,392	-0,057	-0,068
-563,802	-11,652	-0,065	0,031
-562,788	447,372	0,067	-0,107
-561,773	-200,000	0,000	-0,126
-560,758	34,394	-0,068	0,043
-559,744	79,693	-0,030	-0,023
-558,729	36,381	0,067	0,043
-557,715	266,965	0,067	0,085
-556,700	-73,875	-0,069	0,018
-555,685	28,506	-0,180	-0,110
-554,671	-59,744	0,104	-0,032
-553,656	-80,859	0,044	-0,010
-552,642	642,190	0,055	0,102
-551,627	136,162	-0,037	0,035
-550,612	26,547	0,055	0,033
-549,598	-200,000	-0,028	-0,145
-548,583	31,204	-0,094	0,058
-547,569	336,543	0,061	-0,086
-546,554	117,309	0,094	0,084
-545,539	218,824	-0,011	-0,013
-544,525	-99,864	0,033	-0,006
-543,510	380,120	-0,013	-0,019
-542,496	-97,813	0,104	0,019
-541,481	78,642	-0,081	0,062
-540,466	-11,468	0,044	-0,021
-539,452	145,358	-0,050	-0,048
-538,437	800,000	-0,056	0,124
-537,423	-180,416	-0,114	0,002
-536,408	-74,344	-0,048	-0,012
-535,393	474,772	-0,056	-0,091
-534,379	-200,000	0,000	-0,081
-533,364	-184,564	0,071	0,001
-532,350	381,142	0,071	-0,106
-531,335	24,964	0,041	0,025
-530,321	-130,045	-0,156	-0,015
-529,306	207,327	0,064	0,072
-528,291	98,576	0,072	-0,060
-527,277	345,084	-0,112	-0,159
-526,262	800,000	-0,028	0,087
-525,248	393,171	0,012	0,018
-524,233	377,396	0,029	-0,042
-523,218	-170,434	-0,011	-0,000
-522,204	-200,000	-0,007	-0,052
-521,189	-200,000	-0,019	-0,185
-520,175	-200,000	-0,011	-0,109
-519,160	335,065	0,047	0,065
-518,145	11,780	-0,085	0,047
-517,131	-200,000	0,004	-0,045
-516,116	449,319	0,062	0,099
-515,102	-91,952	-0,074	0,015
-514,087	1,270	0,088	-0,045
-513,072	143,402	-0,100	0,096
-512,058	156,630	0,080	-0,080
-511,043	235,924	-0,026	0,031
-510,029	-100,622	0,049	0,009
-509,014	-200,000	0,032	0,106
-507,999	800,000	-0,035	0,093
-506,985	-200,000	-0,002	0,102
-505,970	-122,474	-0,141	0,016
-504,956	-20,095	-0,122	-0,054
-503,941	12,123	0,107	0,059
-502,926	53,304	-0,006	0,004
-501,912	208,034	0,078	0,089
-500,897	800,000	0,058	-0,146
-499,883	741,542	0,034	-0,066
-498,868	-31,348	-0,073	-0,030
-497,853	636,871	0,043	-0,079
-496,839	54,599	-0,053	0,037
-495,824	326,919	0,055	0,076
-494,810	-200,000	0,001	0,025
-493,795	76,228	-0,045	0,035
-492,781	800,000	-0,029	-0,075
-491,766	-200,000	0,037	-0,134
-490,751	-74,696	0,057	-0,015
-489,737	-116,761	0,004	-0,001
-488,722	601,758	-0,047	-0,085
-487,708	526,374	-0,071	-0,121
-486,693	-35,093	-0,100	0,039
-485,678	-164,357	0,128	-0,004
-484,664	285,475	-0,055	0,072
-483,649	-64,526	0,089	0,026
-482,635	-200,000	0,023	-0,145
-481,620	800,000	-0,042	-0,107
-480,605	-90,860	-0,061	0,012
-479,591	-200,000	0,000	-0,117
-478,576	677,032	-0,057	-0,107
-477,562	-200,000	-0,022	0,092
-476,547	77,535	-0,064	-0,049
-475,532	507,788	-0,065	-0,109
-474,518	-28,372	-0,032	0,013
-473,503	-111,538	0,087	0,013
-472,489	82,581	0,091	-0,071
-471,474	-124,817	0,008	-0,001
-470,459	-82,401	-0,074	-0,017
-469,445	-200,000	0,014	-0,078
-468,430	-200,000	-0,020	-0,154
-467,416	-114,555	0,109	-0,015
-466,401	39,523	-0,009	-0,006
-465,386	-82,147	0,104	0,024
-464,372	503,713	0,039	0,065
-463,357	800,000	-0,058	-0,132
-462,343	718,269	0,013	0,025
-461,328	800,000	0,017	-0,036
-460,313	179,494	0,082	-0,087
-459,299	-200,000	0,004	-0,087
-458,284	800,000	0,035	-0,072
-457,270	-200,000	0,010	0,125
-456,255	-200,000	-0,032	-0,117
-455,241	22,854	-0,121	-0,071
-454,226	-100,257	0,106	-0,019
-453,211	-160,159	-0,026	-0,001
-452,197	-45,225	0,010	-0,003
-451,182	259,065	-0,030	0,037
-450,168	-23,667	0,040	-0,017
-449,153	476,749	-0,058	-0,095
-448,138	203,852	-0,066	-0,074
-447,124	105,096	-0,019	0,016
-446,109	615,592	-0,065	0,118
-445,095	-200,000	-0,016	0,070
-444,080	-148,879	-0,092	-0,005
-443,065	-200,000	-0,020	0,220
-442,051	-27,458	0,125	-0,052
-441,036	-151,588	0,050	-0,003
-440,022	244,691	-0,055	0,066
-439,007	-101,065	0,248	0,043
-437,992	-23,079	0,121	-0,052
-436,978	13,960	0,096	0,053
-435,963	-200,000	0,015	0,084
-434,949	-52,530	-0,107	0,035
-433,934	11,158	-0,069	-0,038
-432,919	170,673	-0,079	-0,081
-431,905	-200,000	-0,019	0,105
-430,890	-129,174	0,170	0,017
-429,876	-70,762	-0,034	-0,009
-428,861	286,422	0,038	0,049
-427,846	215,702	0,009	0,010
-426,832	-102,591	-0,224	-0,038
-425,817	-200,000	0,025	-0,108
-424,803	-200,000	0,016	-0,124
-423,788	403,443	0,040	-0,061
-422,773	392,173	0,044	-0,065
-421,759	-158,447	-0,081	0,003
-420,744	-138,087	-0,113	-0,009
-419,730	800,000	0,026	-0,066
-418,715	-200,000	-0,013	-0,052
-417,701	146,531	0,032	-0,031
-416,686	210,360	0,063	0,071
-415,671	394,459	-0,037	0,056
-414,657	-200,000	-0,001	-0,080
-413,642	-151,958	0,068	-0,004
-412,628	125,283	0,063	0,057
-411,613	-200,000	-0,003	0,014
-410,598	122,421	0,116	-0,104
-409,584	-27,770	0,079	-0,033
-408,569	-200,000	-0,028	0,147
-407,555	16,774	-0,093	-0,053
-406,540	-200,000	0,004	0,185
-405,525	9,330	-0,012	-0,007
-404,511	-64,383	0,144	0,042
-403,496	-163,120	0,040	-0,001
-402,482	482,394	-0,044	-0,072
-401,467	-200,000	0,000	0,028
-400,452	331,951	0,138	0,192
-399,438	800,000	0,078	0,163
-398,423	-50,252	-0,078	0,026
-397,409	80,747	-0,083	0,064
-396,394	76,256	0,071	-0,054
-395,379	-105,410	0,028	-0,004
-394,365	213,685	-0,038	-0,044
-393,350	-100,909	-0,023	-0,004
-392,336	89,863	0,037	0,030
-391,321	-200,000	-0,002	0,143
-390,306	-42,501	-0,017	0,006
-389,292	-157,909	-0,097	-0,004
-388,277	31,406	0,032	0,020
-387,263	31,216	0,058	-0,036
-386,248	-94,537	-0,066	0,013
-385,233	37,043	0,100	0,063
-384,219	-200,000	-0,031	0,139
-383,204	82,847	0,027	-0,021
-382,190	-200,000	0,026	-0,121
-381,175	-200,000	0,013	-0,047
-380,160	-200,000	0,005	-0,023
-379,146	93,180	0,150	0,122
-378,131	-163,507	-0,085	-0,003
-377,117	-98,245	-0,073	-0,013
-376,102	-80,156	0,030	0,007
-375,088	266,595	-0,123	-0,154
-374,073	-200,000	-0,021	-0,078
-373,058	-200,000	0,032	0,163
-372,044	149,573	-0,013	-0,012
-371,029	562,345	0,052	0,090
-370,015	-200,000	-0,022	-0,238
-369,000	-200,000	0,002	0,071
-367,985	-62,529	-0,191	0,056
-366,971	-19,434	0,156	0,069
-365,956	196,761	-0,022	0,024
-364,942	155,976	-0,103	0,102
-363,927	149,374	-0,121	0,118
-362,912	-107,189	-0,059	-0,009
-361,898	-1,022	-0,104	-0,053
-360,883	478,823	0,071	-0,115
-359,869	-87,418	0,045	-0,010
-358,854	-39,232	-0,069	0,026
-357,839	43,051	0,090	-0,059
-356,825	-200,000	-0,016	0,114
-355,810	128,907	0,118	-0,108
-354,796	219,125	0,045	-0,052
-353,781	800,000	-0,063	-0,127
-352,766	-55,763	-0,112	0,036
-351,752	800,000	0,005	-0,010
-350,737	-200,000	0,041	0,141
-349,723	366,739	0,059	0,086
-348,708	204,836	-0,029	-0,033
-347,693	411,143	0,100	-0,153
-346,679	629,233	-0,056	-0,102
-345,664	-5,159	0,174	0,086
-344,650	800,000	0,046	0,102
-343,635	-16,308	-0,108	0,049
-342,620	-94,132	-0,036	0,007
-341,606	-200,000	0,015	0,075
-340,591	408,483	-0,073	0,111
-339,577	188,336	-0,041	-0,044
-338,562	74,422	-0,063	0,048
-337,548	343,188	-0,026	0,036
-336,533	52,463	0,074	0,051
-335,518	-31,773	-0,165	0,066
-334,504	-102,359	0,206	0,035
-333,489	735,707	0,019	0,036
-332,475	730,961	-0,053	-0,102
-331,460	256,184	0,018	-0,022
-330,445	800,000	-0,027	0,078
-329,431	152,764	-0,043	-0,043
-328,416	-8,162	0,100	-0,048
-327,402	800,000	-0,066	-0,144
-326,387	-200,000	0,096	0,000
-325,372	-183,078	-0,111	0,001
-324,358	-73,277	0,104	-0,027
-323,343	-84,677	-0,076	0,017
-322,329	20,312	-0,024	0,014
-321,314	-200,000	0,010	0,054
-320,299	258,546	0,130	-0,161
-319,285	512,737	0,038	0,063
-318,270	-200,000	0,001	-0,059
-317,256	-200,000	-0,010	0,112
-316,241	638,736	-0,027	-0,049
-315,226	-200,000	0,035	0,125
-314,212	-152,144	0,090	0,005
-313,197	-200,000	-0,009	0,067
-312,183	-108,209	0,120	-0,018
-311,168	-168,064	-0,060	-0,002
-310,153	791,739	0,032	-0,063
-309,139	-200,000	-0,002	-0,010
-308,124	-200,000	-0,008	-0,040
-307,110	288,795	-0,041	-0,053
-306,095	-100,857	0,044	0,008
-305,080	800,000	0,032	0,089
-304,066	467,461	-0,050	0,081
-303,051	-200,000	-0,020	-0,158
-302,037	71,429	-0,154	-0,114
-301,022	-200,000	-0,005	-0,100
-300,008	796,421	0,099	0,196
-298,993	800,000	0,050	-0,133
-297,978	-200,000	-0,015	0,068
-296,964	-200,000	0,026	0,101
-295,949	-40,151	-0,077	-0,029
-294,935	507,418	-0,052	-0,087
-293,920	110,901	0,096	-0,082
-292,905	-161,943	-0,086	-0,003
-291,891	-75,789	0,100	-0,025
-290,876	-3,686	0,115	0,057
-289,862	-57,266	-0,073	-0,023
-288,847	765,646	-0,019	0,037
-287,832	95,063	0,046	0,037
-286,818	-200,000	-0,003	-0,126
-285,803	73,993	-0,019	0,015
-284,789	618,619	0,018	0,033
-283,774	-200,000	-0,003	0,192
-282,759	413,265	-0,040	0,061
-281,745	101,997	0,062	0,052
-280,730	-166,027	-0,084	-0,003
-279,716	-25,577	0,139	0,058
-278,701	316,596	0,109	0,148
-277,686	-200,000	-0,002	0,100
-276,672	291,290	0,041	-0,053
-275,657	700,267	0,048	0,090
-274,643	-37,097	-0,100	-0,038
-273,628	471,083	-0,012	-0,020
-272,613	19,074	0,100	0,057
-271,599	708,325	0,060	0,113
-270,584	14,281	0,173	-0,096
-269,570	-200,000	0,016	0,076
-268,555	149,205	0,049	0,048
-267,540	133,140	-0,138	-0,128
-266,526	-121,590	-0,070	0,008
-265,511	-200,000	0,009	-0,031
-264,497	-1,689	0,171	0,086
-263,482	-84,881	-0,104	0,023
-262,467	-200,000	-0,001	-0,050
-261,453	-110,820	0,066	0,010
-260,438	-2,924	-0,157	-0,078
-259,424	747,810	-0,048	0,093
-258,409	-200,000	-0,021	-0,081
-257,395	264,817	-0,046	0,057
-256,380	-146,496	0,109	0,007
-255,365	216,211	-0,072	0,082
-254,351	123,429	0,089	0,079
-253,336	-141,164	-0,157	0,011
-252,322	-200,000	0,012	0,042
-251,307	145,939	0,036	0,035
-250,292	-82,961	-0,066	0,015
-249,278	117,599	0,116	-0,102
-248,263	378,979	-0,016	0,024
-247,249	-200,000	-0,053	0,208
-246,234	501,147	0,115	0,191
-245,219	-200,000	-0,012	0,076
-244,205	800,000	0,019	-0,039
-243,190	-200,000	0,008	-0,085
-242,176	36,622	0,103	0,065
-241,161	85,159	0,077	-0,061
-240,146	151,576	-0,083	0,081
-239,132	115,236	-0,052	0,045
-238,117	-9,985	-0,059	-0,028
-237,103	610,024	-0,050	-0,090
-236,088	695,095	0,044	-0,084
-235,073	800,000	-0,026	0,059
-234,059	-6,019	0,079	0,038
-233,044	-25,399	0,122	0,051
-232,030	92,112	0,063	-0,051
-231,015	459,670	-0,027	-0,043
-230,000	-200,000	-0,004	-0,067
-228,986	800,000	-0,038	-0,079
-227,971	-200,000	0,003	-0,105
-226,957	800,000	-0,007	0,018
-225,942	219,305	0,115	-0,131
-224,927	-200,000	-0,021	-0,117
-223,913	-107,561	-0,204	-0,032
-222,898	433,875	0,033	0,051
-221,884	413,924	-0,082	0,125
-220,869	-200,000	-0,021	0,135
-219,855	-114,971	0,075	0,010
-218,840	74,515	-0,077	0,058
-217,825	174,583	0,090	0,093
-216,811	-200,000	-0,029	-0,097
-215,796	-84,453	-0,093	-0,021
-214,782	373,763	-0,021	-0,031
-213,767	-200,000	-0,036	-0,130
-212,752	-12,430	0,107	-0,050
-211,738	800,000	-0,051	0,130
-210,723	119,034	-0,157	0,138
-209,709	-200,000	-0,012	0,108
-208,694	-116,707	0,146	-0,019
-207,679	-200,000	-0,013	-0,131
-206,665	-45,587	-0,023	0,008
-205,650	800,000	-0,036	0,113
-204,636	83,072	-0,096	-0,075
-203,621	250,064	0,054	-0,066
-202,606	454,155	0,018	-0,028
-201,592	672,121	0,038	0,070
-200,577	-200,000	-0,027	0,126
-199,563	67,349	-0,015	0,011
-198,548	-154,291	0,125	-0,006
-197,533	-200,000	0,021	-0,100
-196,519	211,537	-0,059	-0,066
-195,504	-51,576	0,101	-0,033
-194,490	75,197	0,069	0,052
-193,475	-200,000	0,005	0,061
-192,460	152,890	0,068	-0,067
-191,446	-200,000	-0,011	0,065
-190,431	-200,000	0,022	0,086
-189,417	-124,508	0,108	0,012
-188,402	800,000	-0,019	0,048
-187,387	518,684	-0,031	0,051
-186,373	-136,595	0,138	0,011
-185,358	-12,438	-0,071	-0,033
-184,344	-126,025	0,090	0,010
-183,329	109,387	0,073	-0,063
-182,315	-200,000	-0,021	0,107
-181,300	-51,350	-0,074	0,025
-180,285	-182,346	-0,088	0,001
-179,271	-200,000	0,005	0,021
-178,256	-200,000	-0,010	-0,033
-177,242	117,638	0,110	0,096
-176,227	-116,580	0,022	0,003
-175,212	182,766	0,065	0,069
-174,198	800,000	-0,036	0,086
-173,183	-42,908	-0,075	-0,027
-172,169	295,760	0,031	0,040
-171,154	-128,640	-0,075	-0,007
-170,139	-191,103	0,037	-0,000
-169,125	800,000	-0,014	0,035
-168,110	-87,496	0,124	0,027
-167,096	527,050	-0,042	-0,071
-166,081	-166,970	-0,066	-0,002
-165,066	800,000	-0,010	0,028
-164,052	-200,000	0,027	-0,151
-163,037	-200,000	0,015	-0,072
-162,023	153,750	0,040	0,039
-161,008	59,889	-0,097	-0,068
-159,993	-93,348	0,198	-0,039
-158,979	99,165	-0,091	0,075
-157,964	-47,229	-0,098	0,034
-156,950	-200,000	0,030	-0,133
-155,935	-33,103	-0,118	0,046
-154,920	-200,000	0,001	-0,021
-153,906	-200,000	0,004	0,135
-152,891	100,396	-0,124	0,102
-151,877	12,133	0,049	-0,027
-150,862	107,659	0,091	-0,077
-149,847	503,875	-0,017	0,027
-148,833	126,068	0,071	0,063
-147,818	-200,000	-0,007	-0,045
-146,804	-142,925	0,202	-0,014
-145,789	-200,000	0,000	-0,045
-144,775	30,690	-0,068	-0,041
-143,760	366,202	-0,047	0,067
-142,745	212,817	-0,080	0,090
-141,731	-200,000	-0,024	0,123
-140,716	-61,332	0,080	0,024
-139,702	-200,000	0,012	0,073
-138,687	-181,079	0,146	0,002
-137,672	6,231	0,089	0,047
-136,658	47,758	-0,060	0,040
-135,643	133,062	-0,066	0,061
-134,629	-95,805	-0,155	0,029
-133,614	389,449	0,088	0,130
-132,599	483,637	0,103	0,166
-131,585	-200,000	-0,000	0,016
-130,570	-71,582	0,106	-0,028
-129,556	800,000	0,015	0,039
-128,541	-30,596	-0,076	0,031
-127,526	66,200	-0,144	-0,104
-126,512	-173,416	0,096	0,002
-125,497	237,123	0,055	-0,065
-124,483	-83,279	-0,043	-0,010
-123,468	-105,753	-0,083	0,013
-122,453	-120,267	-0,138	-0,017
-121,439	24,028	0,084	0,049
-120,424	-7,489	-0,067	-0,032
-119,410	141,435	-0,119	0,112
-118,395	224,411	0,047	0,054
-117,380	192,742	-0,052	0,056
-116,366	-61,228	-0,075	-0,022
-115,351	-131,747	-0,204	0,019
-114,337	-200,000	-0,003	-0,073
-113,322	-200,000	0,009	0,128
-112,307	800,000	-0,042	-0,094
-111,293	52,950	0,020	0,013
-110,278	-146,310	-0,069	-0,004
-109,264	6,615	-0,040	0,021
-108,249	-80,923	-0,083	-0,019
-107,234	128,137	-0,134	0,122
-106,220	492,066	-0,075	-0,123
-105,205	120,860	-0,053	-0,046
-104,191	370,792	-0,026	-0,038
-103,176	800,000	-0,051	0,135
-102,162	529,745	0,038	0,064
-101,147	618,903	0,020	-0,037
-100,132	323,942	-0,120	-0,163
-99,118	-200,000	-0,013	-0,040
-98,103	56,513	-0,046	-0,031
-97,089	-129,593	0,033	-0,003
-96,074	-76,305	0,092	-0,023
-95,059	348,871	0,022	-0,031
-94,045	800,000	0,041	-0,088
-93,030	92,507	0,075	-0,060
-92,016	225,563	-0,077	-0,089
-91,001	-200,000	0,020	0,111
-89,986	800,000	0,046	0,130
-88,972	800,000	0,085	0,173
-87,957	223,321	0,037	0,043
-86,943	-56,310	-0,182	0,057
-85,928	-120,554	0,066	0,008
-84,913	-200,000	-0,001	-0,052
-83,899	304,923	0,029	-0,038
-82,884	527,360	-0,015	0,026
-81,870	-7,606	0,044	-0,021
-80,855	-43,691	-0,034	-0,012
-79,840	399,899	-0,039	-0,058
-78,826	-100,924	-0,144	-0,025
-77,811	570,774	-0,065	-0,114
-76,797	158,409	0,008	-0,007
-75,782	110,258	-0,108	0,092
-74,767	800,000	-0,034	0,080
-73,753	528,081	0,041	-0,069
-72,738	621,071	-0,048	-0,087
-71,724	709,930	0,072	0,136
-70,709	14,262	-0,106	-0,058
-69,694	-200,000	0,031	-0,101
-68,680	255,683	-0,043	-0,052
-67,665	132,200	-0,036	0,033
-66,651	-200,000	0,026	0,126
-65,636	-108,880	0,032	-0,005
-64,622	800,000	-0,065	0,155
-63,607	-39,381	-0,066	0,025
-62,592	-183,464	-0,095	0,001
-61,578	9,473	0,185	-0,099
-60,563	159,131	-0,093	0,092
-59,549	156,607	0,073	0,071
-58,534	-45,848	-1,480	-0,515
-57,519	377,921	-1,522	-2,212
-56,505	-200,000	-0,612	-4,447
-55,490	114,575	0,943	0,814
-54,476	800,000	4,848	11,284
-53,461	-200,000	18,393	290,223
-52,446	800,000	728,012	2237,171
-51,432	558,190	1643,813	2820,952
-50,417	79,235	1665,178	1263,398
-49,403	22,738	1538,848	890,815
-48,388	16,759	1461,661	817,166
-47,373	17,890	1451,782	817,060
-46,359	17,252	1442,257	808,611
-45,344	15,035	1437,417	795,279
-44,330	14,952	1435,479	793,783
-43,315	14,952	1433,905	792,878
-42,300	14,942	1432,274	791,899
-41,286	15,000	1430,996	791,434
-40,271	14,936	1429,825	790,453
-39,257	14,917	1428,536	789,619
-38,242	14,981	1427,294	789,204
-37,227	14,980	1426,052	788,484
-36,213	14,960	1424,762	787,644
-35,198	14,923	1423,780	786,893
-34,184	14,998	1422,627	786,578
-33,169	14,958	1421,296	785,621
-32,154	15,005	1420,185	785,199
-31,140	15,003	1418,997	784,503
-30,125	15,018	1418,050	784,017
-29,111	14,992	1416,834	783,193
-28,096	14,970	1415,718	782,441
-27,082	14,887	1414,649	781,428
-26,067	14,940	1413,322	780,915
-25,052	14,929	1412,333	780,285
-24,038	14,882	1411,497	779,571
-23,023	14,901	1410,210	778,917
-22,009	14,822	1409,399	778,071
-20,994	14,822	1408,586	777,592
-19,979	14,860	1407,695	777,246
-18,965	14,807	1406,694	776,416
-17,950	14,847	1405,680	776,009
-16,936	14,871	1404,652	775,524
-15,921	14,767	1403,713	774,489
-14,906	14,790	1402,710	774,013
-13,892	14,827	1401,902	773,710
-12,877	14,783	1401,013	772,984
-11,863	14,831	1399,826	772,519
-10,848	14,818	1399,098	772,027
-9,833	14,776	1398,272	771,348
-8,819	14,749	1397,301	770,654
-7,804	14,755	1396,418	770,163
-6,790	14,739	1395,489	769,546
-5,775	14,688	1394,375	768,667
-4,760	14,686	1393,608	768,205
-3,746	14,713	1392,768	767,836
-2,731	14,698	1391,829	767,220
-1,717	14,727	1390,937	766,831
-0,702	14,713	1388,996	765,667
0,313	18,495	1308,133	738,605
1,327	34,806	706,326	436,616
2,342	53,237	124,696	84,461
3,356	0,404	16,732	8,434
4,371	13,221	3,092	1,691
5,386	36,955	0,482	0,301
6,400	188,026	0,021	0,022
7,415	120,893	-0,177	-0,156
8,429	9,265	-0,431	-0,230
9,444	-19,574	-0,339	-0,148
10,459	-19,568	-0,288	-0,126
11,473	186,968	-0,247	-0,261
12,488	-47,715	-0,271	-0,092
13,502	123,023	-0,256	-0,227
14,517	172,111	-0,336	-0,341
15,531	69,140	-0,389	-0,283
16,546	123,348	-0,287	-0,255
17,561	385,284	-0,259	-0,379
18,575	-23,751	-0,149	-0,063
19,590	485,063	-0,257	-0,415
20,604	153,890	-0,191	-0,185
21,619	93,904	-0,395	-0,316
22,634	158,585	-0,389	-0,382
23,648	154,013	-0,373	-0,362
24,663	3,893	-0,350	-0,180
25,677	16,374	-0,311	-0,173
26,692	120,370	-0,316	-0,277
27,707	-34,343	-0,345	-0,133
28,721	5,536	-0,510	-0,265
29,736	-58,886	-0,493	-0,149
30,750	19,655	-0,543	-0,308
31,765	121,820	-0,371	-0,327
32,780	107,244	-0,421	-0,353
33,794	128,019	-0,290	-0,260
34,809	70,871	-0,369	-0,269
35,823	-8,162	-0,452	-0,214
36,838	481,027	-0,215	-0,346
37,853	50,529	-0,506	-0,338
38,867	36,970	-0,349	-0,218
39,882	89,706	-0,295	-0,232
40,896	-15,560	-0,346	-0,155
41,911	144,505	-0,237	-0,224
42,926	21,286	-0,396	-0,226
43,940	-2,816	-0,421	-0,207
44,955	26,901	-0,483	-0,285
45,969	445,721	-0,226	-0,352
46,984	51,651	-0,335	-0,224
47,999	73,498	-0,293	-0,216
49,013	1,771	-0,382	-0,193
50,028	16,975	-0,370	-0,206
51,042	18,457	-0,272	-0,153
52,057	250,955	-0,257	-0,308
53,071	151,246	-0,346	-0,332
54,086	7,714	-0,422	-0,222
55,101	67,816	-0,339	-0,244
56,115	23,086	-0,295	-0,170
57,130	-78,151	-0,263	-0,063
58,144	8,670	-0,371	-0,196
59,159	-65,799	-0,358	-0,100
60,174	-14,048	-0,328	-0,149
61,188	5,118	-0,396	-0,205
62,203	186,261	-0,230	-0,241
63,217	-60,256	-0,472	-0,141
64,232	63,940	-0,326	-0,231
65,247	253,858	-0,269	-0,324
66,261	12,939	-0,320	-0,174
67,276	-28,073	-0,387	-0,157
68,290	165,369	-0,434	-0,432
69,305	-85,583	-0,415	-0,090
70,320	68,699	-0,310	-0,224
71,334	211,320	-0,279	-0,309
72,349	-31,547	-0,509	-0,200
73,363	186,506	-0,244	-0,256
74,378	229,613	-0,297	-0,341
75,393	-2,325	-0,319	-0,157
76,407	10,356	-0,226	-0,120
77,422	134,476	-0,216	-0,197
78,436	-3,066	-0,290	-0,142
79,451	-61,964	-0,306	-0,089
80,466	3,603	-0,331	-0,169
81,480	167,121	-0,273	-0,272
82,495	47,822	-0,418	-0,274
83,509	17,656	-0,262	-0,146
84,524	2,564	-0,325	-0,165
85,539	-33,634	-0,315	-0,122
86,553	-47,171	-0,338	-0,115
87,568	294,697	-0,143	-0,184
88,582	-23,835	-0,459	-0,192
89,597	63,159	-0,267	-0,188
90,611	5,609	-0,424	-0,220
91,626	435,309	-0,196	-0,301
92,641	4,384	-0,301	-0,155
93,655	69,899	-0,315	-0,228
94,670	-150,796	-0,316	-0,017
95,684	247,275	-0,175	-0,207
96,699	-62,263	-0,474	-0,138
97,714	-12,277	-0,251	-0,115
98,728	-72,889	-0,285	-0,073
99,743	656,874	-0,110	-0,199
100,757	15,315	-0,313	-0,172
101,772	111,370	-0,271	-0,229
102,787	50,064	-0,223	-0,148
103,801	153,643	-0,289	-0,278
104,816	-21,107	-0,316	-0,135
105,830	48,481	-0,268	-0,176
106,845	95,540	-0,249	-0,199
107,860	201,062	-0,217	-0,235
108,874	171,572	-0,322	-0,325
109,889	89,064	-0,236	-0,184
110,903	156,468	-0,352	-0,341
111,918	126,474	-0,210	-0,187
112,933	169,860	-0,114	-0,115
113,947	45,619	-0,182	-0,117
114,962	8,459	-0,259	-0,136
115,976	-54,940	-0,279	-0,088
116,991	-53,072	-0,355	-0,114
118,006	-29,635	-0,285	-0,114
119,020	6,817	-0,260	-0,135
120,035	47,324	-0,299	-0,195
121,049	650,053	-0,107	-0,193
122,064	-84,094	-0,249	-0,055
123,079	6,595	-0,307	-0,159
124,093	-75,769	-0,335	-0,083
125,108	-87,107	-0,382	-0,081
126,122	76,635	-0,228	-0,169
127,137	133,142	-0,237	-0,214
128,151	785,005	-0,158	-0,304
129,166	-162,636	-0,261	0,009
130,181	-1,168	-0,297	-0,146
131,195	618,066	-0,167	-0,296
132,210	154,148	-0,208	-0,200
133,224	54,102	-0,227	-0,153
134,239	322,550	-0,195	-0,261
135,254	11,825	-0,259	-0,139
136,268	-89,271	-0,263	-0,054
137,283	112,656	-0,230	-0,195
138,297	204,422	-0,171	-0,186
139,312	-13,876	-0,234	-0,105
140,327	-53,283	-0,391	-0,125
141,341	228,592	-0,258	-0,295
142,356	167,116	-0,142	-0,141
143,370	-171,191	-0,184	-0,004
144,385	50,825	-0,220	-0,146
145,400	6,451	-0,165	-0,086
146,414	115,279	-0,243	-0,207
147,429	800,000	-0,114	-0,274
148,443	-14,849	-0,287	-0,128
149,458	532,026	-0,132	-0,219
150,473	-16,606	-0,234	-0,103
151,487	110,446	-0,208	-0,175
152,502	158,844	-0,242	-0,235
153,516	11,986	-0,322	-0,173
154,531	375,052	-0,125	-0,179
155,546	83,411	-0,172	-0,131
156,560	-142,872	-0,177	0,012
157,575	-150,881	-0,329	-0,017
158,589	85,303	-0,216	-0,165
159,604	49,088	-0,224	-0,147
160,619	169,719	-0,245	-0,245
161,633	-106,380	-0,329	0,051
162,648	7,420	-0,396	-0,206
163,662	-26,305	-0,226	-0,092
164,677	221,404	-0,182	-0,205
165,692	-21,242	-0,265	-0,113
166,706	-135,358	-0,308	-0,025
167,721	36,575	-0,318	-0,195
168,735	-31,308	-0,418	-0,163
169,750	88,439	-0,354	-0,275
170,764	3,187	-0,167	-0,085
171,779	20,376	-0,178	-0,100
172,794	-39,979	-0,190	-0,069
173,808	444,153	-0,140	-0,214
174,823	-16,710	-0,220	-0,097
175,837	586,132	-0,227	-0,392
176,852	580,517	-0,152	-0,260
177,867	-192,336	-0,181	0,001
178,881	-36,482	-0,248	-0,093
179,896	255,022	-0,205	-0,246
180,910	340,211	-0,231	-0,315
181,925	90,489	-0,291	-0,227
182,940	215,244	-0,213	-0,236
183,954	179,237	-0,207	-0,211
184,969	498,836	-0,185	-0,298
185,983	-23,483	-0,148	-0,062
186,998	-0,216	-0,224	-0,110
188,013	60,647	-0,181	-0,125
189,027	36,057	-0,326	-0,200
190,042	-30,415	-0,293	-0,115
191,056	200,955	-0,228	-0,245
192,071	-64,815	-0,223	-0,062
193,086	60,762	-0,128	-0,088
194,100	-3,031	-0,212	-0,103
195,115	-5,548	-0,177	-0,084
196,129	-48,674	-0,307	-0,102
197,144	48,272	-0,280	-0,182
198,159	119,342	-0,138	-0,119
199,173	-138,132	-0,086	-0,007
200,188	-7,720	-0,240	-0,113
201,202	-28,136	-0,279	-0,112
202,217	-119,374	-0,107	-0,013
203,232	23,290	-0,199	-0,113
204,246	2,326	-0,275	-0,138
205,261	-79,548	-0,091	-0,021
206,275	187,678	-0,091	-0,094
207,290	128,386	-0,155	-0,137
208,304	209,578	-0,122	-0,134
209,319	536,262	-0,151	-0,251
210,334	117,664	-0,277	-0,237
211,348	24,388	-0,261	-0,150
212,363	22,106	-0,309	-0,175
213,377	187,309	-0,135	-0,140
214,392	-75,657	-0,137	-0,034
215,407	633,754	-0,057	-0,101
216,421	278,868	-0,173	-0,214
217,436	120,764	-0,103	-0,089
218,450	95,803	-0,125	-0,099
219,465	54,550	-0,205	-0,137
220,480	128,080	-0,183	-0,162
221,494	-55,760	-0,187	-0,058
222,509	241,887	-0,058	-0,068
223,523	93,584	-0,266	-0,209
224,538	363,040	-0,134	-0,187
225,553	223,075	-0,244	-0,274
226,567	468,347	-0,097	-0,151
227,582	-10,409	-0,238	-0,109
228,596	-34,949	-0,206	-0,078
229,611	70,855	-0,190	-0,137
230,626	263,348	-0,069	-0,084
231,640	-172,474	-0,253	0,005
232,655	-32,725	-0,283	-0,109
233,669	127,792	-0,159	-0,140
234,684	18,228	-0,205	-0,113
235,699	41,508	-0,221	-0,138
236,713	11,305	-0,096	0,051
237,728	120,092	-0,249	-0,215
238,742	-108,906	-0,265	-0,039
239,757	174,333	-0,144	-0,145
240,772	680,858	-0,133	-0,242
241,786	3,122	-0,308	-0,155
242,801	-60,202	-0,182	0,053
243,815	371,933	-0,140	-0,198
244,830	-98,117	-0,097	-0,017
245,844	-135,579	-0,143	-0,012
246,859	63,023	-0,193	-0,134
247,874	486,352	-0,167	-0,264
248,888	315,623	-0,163	-0,213
249,903	676,640	-0,122	-0,221
250,917	118,024	-0,110	-0,094
251,932	74,941	-0,146	-0,106
252,947	-92,281	-0,211	-0,041
253,961	-51,585	-0,211	-0,068
254,976	36,169	-0,221	-0,135
255,990	13,493	-0,316	-0,170
257,005	800,000	-0,045	-0,136
258,020	116,454	-0,034	0,029
259,034	-115,137	-0,165	0,021
260,049	7,438	-0,165	-0,085
261,063	152,488	-0,149	-0,141
262,078	94,138	-0,168	-0,132
263,093	-98,874	-0,244	-0,043
264,107	494,582	-0,135	-0,215
265,122	139,877	-0,166	-0,151
266,136	-84,175	-0,223	0,049
267,151	34,539	-0,241	-0,146
268,166	-91,793	-0,154	-0,030
269,180	88,403	-0,153	-0,118
270,195	192,664	-0,134	-0,140
271,209	-48,726	-0,350	-0,116
272,224	753,617	-0,075	-0,140
273,239	35,835	-0,221	-0,134
274,253	-54,980	-0,145	0,045
275,268	81,636	-0,093	-0,070
276,282	-174,675	-0,290	0,006
277,297	298,640	-0,096	-0,122
278,312	143,303	-0,200	-0,184
279,326	33,824	-0,224	-0,134
280,341	52,191	-0,020	-0,013
281,355	800,000	0,051	-0,133
282,370	-62,874	-0,135	0,038
283,384	-28,084	-0,255	-0,102
284,399	83,832	-0,227	-0,171
285,414	500,338	-0,103	-0,164
286,428	-136,346	-0,228	-0,018
287,443	-113,699	-0,162	-0,022
288,457	-15,220	-0,230	-0,101
289,472	164,352	-0,182	-0,177
290,487	89,898	-0,265	-0,204
291,501	-16,275	-0,280	-0,122
292,516	3,506	-0,349	-0,175
293,530	-27,861	-0,127	0,051
294,545	12,846	-0,097	0,051
295,560	-200,000	0,004	0,025
296,574	68,078	-0,123	-0,087
297,589	-79,336	-0,193	-0,045
298,603	800,000	-0,055	-0,117
299,618	800,000	-0,114	-0,282
300,633	432,567	-0,094	-0,141
301,647	81,525	0,040	-0,030
302,662	-46,483	-0,143	0,048
303,676	-71,527	-0,157	-0,040
304,691	-33,559	-0,090	-0,034
305,706	-91,749	-0,207	-0,040
306,720	30,667	-0,216	-0,127
307,735	800,000	-0,038	-0,099
308,749	7,097	-0,130	-0,067
309,764	-132,863	-0,069	-0,006
310,779	-200,000	-0,027	-0,118
311,793	766,797	-0,090	-0,170
312,808	-5,002	-0,182	-0,086
313,822	360,896	-0,073	-0,100
314,837	173,922	-0,075	-0,074
315,852	-42,488	-0,118	-0,041
316,866	800,000	-0,051	-0,099
317,881	800,000	-0,032	-0,093
318,895	-90,589	-0,081	0,016
319,910	-200,000	-0,053	-0,167
320,925	226,780	-0,138	-0,154
321,939	800,000	-0,076	-0,155
322,954	-129,607	-0,200	-0,019
323,968	-200,000	-0,018	-0,115
324,983	175,903	-0,132	-0,132
325,997	155,812	-0,065	-0,062
327,012	-49,528	-0,146	-0,048
328,027	36,811	-0,158	-0,096
329,041	-41,751	-0,228	-0,080
330,056	-95,690	-0,019	-0,003
331,070	-40,402	-0,111	0,039
332,085	-61,454	-0,124	-0,036
333,100	747,085	-0,077	-0,143
334,114	33,819	-0,212	-0,127
335,129	-2,309	-0,198	-0,095
336,143	96,942	-0,175	-0,138
337,158	-50,712	-0,035	0,011
338,173	295,989	-0,035	-0,045
339,187	284,269	-0,200	-0,247
340,202	800,000	-0,040	-0,077
341,216	477,757	-0,067	-0,105
342,231	-200,000	-0,031	-0,193
343,246	800,000	-0,080	-0,204
344,260	-200,000	-0,037	-0,118
345,275	114,354	-0,133	-0,111
346,289	105,955	-0,168	-0,137
347,304	-26,300	-0,133	-0,054
348,319	-72,066	-0,293	-0,074
349,333	405,945	-0,069	0,101
350,348	-200,000	-0,050	-0,162
351,362	39,262	-0,063	-0,039
352,377	-63,119	-0,213	-0,060
353,392	15,872	-0,161	-0,087
354,406	-93,810	-0,202	-0,038
355,421	207,150	1314,342	1408,909
356,435	159,332	1475,057	1409,411
