DTS Sentinel unit serial number:	SN410029Multiplexer serial number:	ORYXHardware model number:	OX2-SRSoftware version number:	ORYX F/W v4,00 Oryx Data Collector v3.7.2.0data status	okinstallation	B3 Nyhavnadifferential loss correction	single-endedforward channel	channel 1reverse channel	N/Adate	2023/11/29time	19:42:30forward acquisition time	300,00reverse acquisition time	0,00gamma	499,1914k internal	0,3210k external	0,3210temperature offset calibration	1,0000default loss term (dB/km)	0,3820temperature slope calibration	1,0000multiplexer offset coefficient	1,0000multiplexer slope coefficient	1,0000fibre end	0,00T internal ref (°C)	10,91T ext. ref 1 (°C)	-4,41T ext. ref 2 (°C)	-4,50length (m)	temperature (°C)	Stokes	anti-Stokes-744,400	158,447	-0,223	-0,225
-743,385	-200,000	-0,035	0,269
-742,371	800,000	-0,102	-0,280
-741,356	-200,000	-0,030	0,285
-740,342	93,322	-0,259	-0,213
-739,327	-200,000	0,018	0,268
-738,312	-29,308	-0,247	-0,102
-737,298	-200,000	0,003	0,206
-736,283	800,000	-0,126	-0,341
-735,269	-200,000	-0,052	0,374
-734,254	159,095	-0,164	-0,166
-733,239	-111,259	-0,167	0,025
-732,225	-200,000	-0,070	-0,308
-731,210	-200,000	0,020	0,141
-730,196	-200,000	0,022	-0,098
-729,181	-74,916	-0,076	-0,020
-728,167	800,000	0,008	-0,019
-727,152	-57,226	-0,134	-0,043
-726,137	88,196	0,039	-0,032
-725,123	191,204	-0,121	-0,132
-724,108	275,381	-0,008	-0,011
-723,094	-200,000	-0,032	-0,139
-722,079	-200,000	-0,024	-0,113
-721,064	-74,662	0,131	0,034
-720,050	786,086	0,028	0,055
-719,035	-200,000	-0,019	-0,082
-718,021	151,924	0,042	0,041
-717,006	444,317	-0,089	-0,141
-715,991	81,898	-0,015	0,012
-714,977	-56,241	-0,131	-0,042
-713,962	-32,213	-0,068	0,027
-712,948	226,587	0,097	-0,115
-711,933	-52,700	-0,106	0,035
-710,918	-142,653	-0,042	0,003
-709,904	-58,721	0,060	-0,019
-708,889	677,234	-0,015	0,028
-707,875	56,751	0,092	-0,065
-706,860	85,392	0,050	0,040
-705,845	112,715	-0,044	-0,039
-704,831	800,000	0,046	-0,094
-703,816	800,000	-0,108	0,217
-702,802	800,000	0,020	-0,044
-701,787	-76,534	-0,107	-0,027
-700,772	419,927	-0,032	-0,049
-699,758	-142,815	0,075	0,005
-698,743	454,945	-0,057	0,091
-697,729	800,000	0,054	0,149
-696,714	85,575	0,144	0,114
-695,699	-121,394	0,088	0,010
-694,685	-126,128	-0,061	0,007
-693,670	-200,000	-0,011	-0,056
-692,656	-119,244	0,072	0,009
-691,641	172,453	-0,089	0,093
-690,627	469,227	0,053	0,087
-689,612	-109,923	-0,132	-0,020
-688,597	81,589	-0,103	-0,081
-687,583	-200,000	0,003	-0,047
-686,568	414,532	-0,089	-0,138
-685,554	-200,000	0,015	0,123
-684,539	-200,000	0,007	-0,032
-683,524	-200,000	0,005	-0,030
-682,510	55,897	0,143	0,100
-681,495	800,000	-0,047	-0,146
-680,481	262,057	-0,018	-0,023
-679,466	315,287	-0,071	-0,097
-678,451	-99,193	0,118	-0,021
-677,437	-32,884	-0,062	-0,025
-676,422	-108,647	-0,008	-0,001
-675,408	196,786	0,015	0,017
-674,393	-200,000	0,009	0,091
-673,378	-78,318	-0,038	0,009
-672,364	100,728	-0,087	-0,073
-671,349	355,779	-0,071	-0,103
-670,335	-200,000	0,008	-0,117
-669,320	26,682	-0,038	-0,023
-668,305	280,240	-0,090	-0,117
-667,291	-95,966	-0,102	-0,019
-666,276	64,154	-0,146	-0,106
-665,262	800,000	-0,054	-0,168
-664,247	800,000	0,027	0,082
-663,232	-200,000	-0,022	-0,146
-662,218	703,986	-0,074	0,141
-661,203	-137,418	0,127	-0,010
-660,189	-200,000	-0,049	0,166
-659,174	800,000	0,029	-0,060
-658,159	-200,000	-0,035	0,140
-657,145	800,000	-0,035	-0,081
-656,130	-116,159	-0,043	0,006
-655,116	-107,338	0,215	-0,034
-654,101	-200,000	0,009	0,069
-653,086	800,000	-0,020	0,065
-652,072	124,422	-0,102	0,092
-651,057	453,630	0,069	-0,111
-650,043	-200,000	0,029	-0,148
-649,028	800,000	-0,005	-0,012
-648,014	-95,209	-0,029	0,006
-646,999	-200,000	0,006	-0,128
-645,984	800,000	0,049	0,102
-644,970	-4,991	-0,086	-0,042
-643,955	-200,000	0,006	-0,046
-642,941	-157,428	0,116	0,005
-641,926	-92,561	0,088	-0,018
-640,911	-137,714	-0,093	-0,007
-639,897	489,775	-0,046	0,076
-638,882	800,000	-0,042	-0,111
-637,868	-78,414	0,079	0,019
-636,853	398,139	-0,060	-0,091
-635,838	251,223	-0,124	-0,152
-634,824	411,443	0,068	-0,105
-633,809	-70,530	-0,168	0,046
-632,795	800,000	-0,018	-0,056
-631,780	-200,000	-0,017	0,073
-630,765	48,392	-0,074	0,050
-629,751	-200,000	-0,011	-0,162
-628,736	689,480	-0,046	-0,087
-627,722	-200,000	-0,017	-0,123
-626,707	171,527	-0,073	-0,076
-625,692	800,000	-0,030	0,089
-624,678	-200,000	0,028	0,118
-623,663	24,825	-0,108	-0,064
-622,649	-75,481	-0,148	0,038
-621,634	-200,000	-0,015	-0,055
-620,619	800,000	0,017	-0,043
-619,605	-79,601	0,063	0,015
-618,590	92,644	0,159	-0,129
-617,576	-200,000	0,041	0,137
-616,561	87,756	0,047	-0,038
-615,546	800,000	0,040	-0,107
-614,532	31,903	-0,101	-0,063
-613,517	800,000	0,045	0,110
-612,503	-53,750	-0,202	0,066
-611,488	105,057	-0,024	0,021
-610,474	800,000	0,047	-0,095
-609,459	800,000	-0,014	0,031
-608,444	96,927	0,041	-0,034
-607,430	-53,363	0,051	0,017
-606,415	800,000	-0,018	-0,048
-605,401	-200,000	-0,006	0,099
-604,386	-200,000	-0,011	0,109
-603,371	413,868	0,038	-0,058
-602,357	673,880	-0,046	0,087
-601,342	10,168	0,040	0,022
-600,328	263,275	-0,024	0,030
-599,313	200,205	-0,026	0,029
-598,298	-98,128	0,076	-0,014
-597,284	-200,000	-0,019	0,140
-596,269	-59,592	-0,028	-0,009
-595,255	238,705	-0,078	0,094
-594,240	22,752	-0,028	-0,016
-593,225	-74,628	-0,037	-0,010
-592,211	800,000	-0,042	-0,094
-591,196	132,770	0,081	-0,075
-590,182	604,508	-0,027	0,049
-589,167	-170,240	0,212	-0,005
-588,152	-96,478	-0,086	-0,016
-587,138	252,466	0,109	-0,134
-586,123	-75,941	-0,175	0,044
-585,109	-200,000	-0,004	-0,082
-584,094	-64,476	-0,134	0,039
-583,079	-126,163	0,193	0,021
-582,065	800,000	-0,046	-0,146
-581,050	-29,860	0,084	0,035
-580,036	-186,146	0,054	-0,001
-579,021	-200,000	-0,006	-0,145
-578,006	637,985	-0,131	-0,241
-576,992	3,796	-0,054	-0,028
-575,977	-50,262	-0,049	-0,017
-574,963	800,000	-0,041	0,095
-573,948	-49,352	0,065	0,022
-572,934	-152,803	0,039	-0,002
-571,919	-1,151	-0,039	-0,020
-570,904	-200,000	0,007	0,050
-569,890	-81,266	-0,017	0,004
-568,875	-117,041	0,063	-0,008
-567,861	800,000	0,062	0,126
-566,846	-200,000	0,000	0,098
-565,831	-200,000	-0,008	-0,058
-564,817	147,442	-0,086	0,083
-563,802	323,235	-0,063	0,087
-562,788	32,858	0,060	-0,037
-561,773	33,377	0,128	-0,080
-560,758	80,742	-0,039	-0,030
-559,744	-123,544	0,098	0,011
-558,729	147,562	-0,061	-0,059
-557,715	800,000	-0,042	-0,092
-556,700	800,000	-0,034	-0,101
-555,685	50,624	-0,065	-0,044
-554,671	-200,000	-0,032	0,117
-553,656	-67,827	0,093	0,026
-552,642	-130,573	0,003	0,000
-551,627	-128,262	0,006	0,001
-550,612	106,932	0,044	-0,037
-549,598	-200,000	-0,033	-0,120
-548,583	224,927	-0,042	-0,050
-547,569	246,590	-0,062	0,076
-546,554	800,000	0,022	-0,049
-545,539	130,547	0,026	0,024
-544,525	-98,086	0,082	-0,015
-543,510	491,419	-0,071	0,117
-542,496	-3,871	-0,107	-0,053
-541,481	230,435	-0,060	-0,071
-540,466	-200,000	0,002	-0,134
-539,452	-200,000	0,015	-0,117
-538,437	62,264	0,110	0,079
-537,423	-32,761	0,076	-0,030
-536,408	372,742	-0,067	0,098
-535,393	285,282	-0,078	0,101
-534,379	132,107	-0,061	-0,057
-533,364	123,031	-0,060	-0,054
-532,350	-48,960	0,136	-0,047
-531,335	255,858	0,071	-0,087
-530,321	-200,000	-0,011	0,056
-529,306	72,056	-0,071	0,053
-528,291	-200,000	-0,011	-0,035
-527,277	800,000	-0,024	-0,057
-526,262	66,393	-0,080	-0,059
-525,248	-56,515	0,059	0,019
-524,233	-109,942	0,078	0,012
-523,218	800,000	0,016	-0,049
-522,204	-170,115	0,117	-0,003
-521,189	55,195	-0,159	-0,111
-520,175	-200,000	0,014	-0,187
-519,160	25,908	0,174	0,104
-518,145	-77,080	-0,132	-0,033
-517,131	115,666	0,034	-0,030
-516,116	-110,769	0,049	-0,007
-515,102	-147,921	0,117	-0,007
-514,087	388,991	-0,036	-0,053
-513,072	192,131	-0,109	-0,118
-512,058	-200,000	-0,002	-0,093
-511,043	-132,695	0,106	0,010
-510,029	171,674	0,070	-0,072
-509,014	208,119	-0,035	-0,039
-507,999	-87,600	-0,157	-0,034
-506,985	-200,000	-0,013	-0,175
-505,970	-200,000	0,032	-0,155
-504,956	96,677	-0,058	0,047
-503,941	-64,579	0,038	0,011
-502,926	-200,000	-0,012	0,049
-501,912	10,710	-0,062	-0,034
-500,897	-200,000	-0,004	-0,081
-499,883	156,431	-0,063	0,062
-498,868	-189,196	0,066	-0,001
-497,853	-200,000	0,043	-0,176
-496,839	-129,051	0,166	0,017
-495,824	407,233	0,036	-0,055
-494,810	-152,155	0,108	-0,006
-493,795	800,000	-0,027	0,079
-492,781	-87,002	-0,036	-0,008
-491,766	-200,000	0,027	-0,134
-490,751	800,000	0,033	-0,076
-489,737	800,000	0,028	-0,062
-488,722	452,771	-0,082	0,130
-487,708	12,886	0,127	-0,070
-486,693	-200,000	-0,003	0,012
-485,678	-200,000	0,008	-0,064
-484,664	479,681	0,044	-0,071
-483,649	229,983	-0,074	-0,086
-482,635	-200,000	0,002	0,024
-481,620	-84,538	0,125	0,028
-480,605	-13,897	0,026	0,012
-479,591	43,923	-0,074	0,049
-478,576	435,955	-0,009	-0,014
-477,562	-200,000	0,006	0,110
-476,547	-58,029	0,034	0,010
-475,532	800,000	-0,027	0,067
-474,518	82,262	-0,018	0,014
-473,503	-33,868	-0,085	0,033
-472,489	-200,000	-0,021	0,118
-471,474	-200,000	0,000	-0,078
-470,459	-67,566	-0,153	-0,043
-469,445	800,000	-0,020	-0,041
-468,430	-9,024	-0,106	0,051
-467,416	-174,486	0,091	0,002
-466,401	406,475	-0,037	0,057
-465,386	28,695	0,012	0,007
-464,372	177,691	0,031	0,033
-463,357	67,177	-0,055	0,040
-462,343	64,687	0,080	-0,058
-461,328	64,406	-0,104	0,075
-460,313	-72,395	-0,051	-0,014
-459,299	-200,000	0,016	-0,079
-458,284	-125,335	0,122	0,013
-457,270	-65,677	0,040	-0,012
-456,255	3,271	-0,131	-0,068
-455,241	-200,000	0,012	0,121
-454,226	-200,000	-0,007	-0,081
-453,211	643,551	-0,007	-0,012
-452,197	-41,807	0,050	-0,018
-451,182	293,515	0,065	0,085
-450,168	128,958	-0,106	-0,097
-449,153	-147,332	0,112	-0,007
-448,138	-200,000	-0,001	0,029
-447,124	204,479	-0,055	-0,061
-446,109	-200,000	0,022	0,101
-445,095	-200,000	-0,007	0,037
-444,080	-200,000	0,053	0,179
-443,065	-200,000	-0,007	-0,038
-442,051	800,000	0,015	-0,035
-441,036	-200,000	0,000	-0,068
-440,022	-6,780	0,035	-0,017
-439,007	-200,000	0,000	0,080
-437,992	-59,100	0,082	0,025
-436,978	82,640	0,097	-0,075
-435,963	800,000	0,034	0,073
-434,949	444,380	0,060	0,094
-433,934	-10,095	-0,079	-0,037
-432,919	-200,000	0,013	0,080
-431,905	5,472	0,063	-0,033
-430,890	248,850	-0,071	-0,087
-429,876	374,289	0,152	0,222
-428,861	-127,270	-0,254	-0,026
-427,846	800,000	-0,060	-0,120
-426,832	59,687	0,130	-0,092
-425,817	57,251	0,053	0,037
-424,803	-200,000	0,011	-0,045
-423,788	-200,000	0,010	0,158
-422,773	-200,000	0,014	0,141
-421,759	97,794	0,118	-0,097
-420,744	-141,450	0,026	-0,002
-419,730	-110,127	0,083	-0,012
-418,715	7,352	-0,059	0,032
-417,701	-111,907	0,114	-0,016
-416,686	-109,548	0,053	-0,008
-415,671	-149,023	0,055	-0,003
-414,657	114,124	0,028	0,025
-413,642	7,004	-0,039	-0,021
-412,628	329,477	-0,057	0,079
-411,613	-48,878	-0,079	-0,027
-410,598	-200,000	0,008	0,112
-409,584	67,495	0,009	-0,006
-408,569	-28,244	0,090	0,037
-407,555	-7,815	0,060	0,029
-406,540	-5,550	0,034	-0,017
-405,525	33,661	-0,027	-0,017
-404,511	-200,000	0,009	0,115
-403,496	-97,821	-0,101	-0,019
-402,482	-33,502	-0,074	-0,029
-401,467	-8,899	0,172	0,082
-400,452	-200,000	-0,013	-0,043
-399,438	4,432	0,044	-0,023
-398,423	-200,000	0,004	-0,019
-397,409	51,017	0,027	0,018
-396,394	-22,498	-0,149	-0,064
-395,379	336,539	0,021	0,029
-394,365	115,965	0,097	0,085
-393,350	152,592	0,120	0,117
-392,336	-39,114	-0,038	0,014
-391,321	494,164	-0,035	0,057
-390,306	-0,503	0,004	0,002
-389,292	105,899	-0,134	0,113
-388,277	-200,000	-0,016	0,109
-387,263	-10,112	0,045	-0,021
-386,248	800,000	0,066	0,160
-385,233	-200,000	-0,006	-0,100
-384,219	-49,962	-0,060	0,020
-383,204	-200,000	-0,008	-0,050
-382,190	800,000	0,032	0,072
-381,175	-61,248	-0,113	-0,034
-380,160	-200,000	0,010	-0,088
-379,146	7,275	0,104	0,055
-378,131	800,000	0,034	0,069
-377,117	30,241	-0,088	-0,054
-376,102	800,000	-0,038	-0,078
-375,088	800,000	0,034	0,098
-374,073	60,820	0,024	0,017
-373,058	-200,000	0,027	0,092
-372,044	800,000	-0,016	0,044
-371,029	395,961	-0,073	0,110
-370,015	388,399	0,063	0,094
-369,000	-97,890	0,097	0,018
-367,985	-19,296	-0,030	-0,013
-366,971	800,000	0,022	-0,047
-365,956	800,000	-0,030	0,076
-364,942	-11,041	0,051	0,024
-363,927	-56,752	-0,065	-0,020
-362,912	-0,219	-0,125	-0,063
-361,898	-200,000	-0,010	-0,077
-360,883	-34,874	-0,164	-0,064
-359,869	73,309	0,057	0,043
-358,854	800,000	0,039	-0,083
-357,839	45,330	-0,041	0,027
-356,825	-139,506	-0,086	0,006
-355,810	800,000	0,027	0,064
-354,796	355,564	0,038	0,054
-353,781	800,000	0,038	-0,081
-352,766	-23,286	-0,068	-0,029
-351,752	63,004	-0,127	-0,091
-350,737	237,946	0,171	0,203
-349,723	-200,000	0,006	0,042
-348,708	-0,192	0,046	0,023
-347,693	-143,087	-0,059	-0,004
-346,679	122,789	-0,124	-0,110
-345,664	-200,000	-0,026	-0,145
-344,650	661,907	0,078	0,145
-343,635	-97,152	0,104	-0,019
-342,620	-19,491	0,078	0,034
-341,606	208,867	-0,124	-0,138
-340,591	-57,998	-0,089	0,027
-339,577	-109,005	-0,088	-0,013
-338,562	246,678	0,087	-0,105
-337,548	113,858	0,130	0,112
-336,533	211,706	-0,057	-0,064
-335,518	-82,531	-0,146	0,033
-334,504	-66,137	0,118	0,033
-333,489	-200,000	-0,000	-0,018
-332,475	-200,000	0,019	-0,092
-331,460	35,231	-0,119	0,074
-330,445	654,179	0,033	-0,060
-329,431	-47,877	-0,020	0,007
-328,416	126,915	0,023	-0,021
-327,402	-200,000	-0,010	0,103
-326,387	-1,801	0,083	-0,041
-325,372	-200,000	-0,049	0,184
-324,358	660,074	-0,007	-0,013
-323,343	722,506	-0,046	-0,087
-322,329	112,868	-0,047	0,040
-321,314	-143,088	0,104	0,007
-320,299	800,000	-0,017	0,050
-319,285	-200,000	-0,019	0,127
-318,270	188,451	-0,113	-0,121
-317,256	85,328	0,077	-0,060
-316,241	-129,977	0,078	0,008
-315,226	286,149	0,076	-0,098
-314,212	-200,000	0,016	0,104
-313,197	649,433	0,045	0,083
-312,183	-200,000	-0,001	0,052
-311,168	105,857	0,060	0,050
-310,153	-119,487	-0,066	0,008
-309,139	-200,000	-0,005	-0,055
-308,124	800,000	-0,036	0,108
-307,110	-41,856	0,035	-0,013
-306,095	-11,092	-0,118	0,055
-305,080	-23,500	0,044	0,019
-304,066	63,604	0,116	0,083
-303,051	327,426	-0,030	-0,041
-302,037	39,502	-0,053	0,034
-301,022	466,068	-0,064	-0,103
-300,008	342,327	0,045	-0,063
-298,993	-117,406	0,183	0,023
-297,978	800,000	-0,042	-0,089
-296,964	-80,284	-0,109	-0,026
-295,949	-200,000	-0,018	-0,059
-294,935	538,058	-0,039	-0,066
-293,920	-200,000	-0,004	-0,120
-292,905	-71,035	0,124	0,033
-291,891	800,000	-0,062	0,139
-290,876	164,953	0,069	-0,069
-289,862	-200,000	-0,012	-0,066
-288,847	684,274	-0,077	-0,143
-287,832	344,349	0,041	-0,057
-286,818	-200,000	0,031	-0,143
-285,803	160,921	0,093	0,093
-284,789	485,351	0,023	0,037
-283,774	-89,396	0,036	-0,007
-282,759	104,351	0,050	-0,042
-281,745	371,481	-0,082	-0,119
-280,730	9,540	-0,086	-0,046
-279,716	447,699	-0,065	-0,102
-278,701	-200,000	0,003	-0,030
-277,686	800,000	0,031	0,070
-276,672	-124,369	0,056	0,006
-275,657	429,186	0,050	-0,077
-274,643	-200,000	-0,003	0,050
-273,628	289,032	-0,027	0,034
-272,613	-200,000	-0,011	0,050
-271,599	-26,199	0,072	-0,030
-270,584	800,000	0,029	-0,060
-269,570	-120,731	-0,011	-0,001
-268,555	-134,504	0,135	0,012
-267,540	70,782	0,089	0,066
-266,526	-200,000	-0,007	-0,039
-265,511	675,193	-0,030	-0,056
-264,497	149,476	0,026	0,025
-263,482	486,254	-0,046	0,076
-262,467	74,863	-0,049	0,037
-261,453	800,000	0,042	-0,087
-260,438	-200,000	-0,021	-0,109
-259,424	590,556	0,038	-0,066
-258,409	800,000	0,024	0,051
-257,395	-200,000	0,003	0,032
-256,380	-98,987	0,077	-0,014
-255,365	-200,000	0,007	0,068
-254,351	-149,813	-0,151	-0,008
-253,336	-34,709	-0,037	-0,014
-252,322	-6,800	-0,056	-0,027
-251,307	-47,406	0,083	-0,029
-250,292	800,000	0,024	-0,051
-249,278	800,000	0,015	0,041
-248,263	-200,000	-0,020	-0,088
-247,249	432,788	-0,075	0,116
-246,234	-94,410	-0,227	0,044
-245,219	800,000	-0,028	-0,082
-244,205	-200,000	-0,010	-0,151
-243,190	22,378	0,040	-0,023
-242,176	-200,000	0,002	0,029
-241,161	324,966	0,108	0,148
-240,146	-200,000	-0,017	-0,113
-239,132	-200,000	0,005	-0,076
-238,117	58,152	-0,186	0,130
-237,103	-116,654	0,157	0,020
-236,088	800,000	0,034	0,098
-235,073	-98,398	0,102	0,018
-234,059	-74,664	0,107	-0,027
-233,044	-12,729	-0,086	0,040
-232,030	203,891	0,036	-0,040
-231,015	112,783	-0,074	0,064
-230,000	266,299	-0,033	0,040
-228,986	-200,000	0,000	0,028
-227,971	-96,798	0,108	0,020
-226,957	381,854	0,084	0,123
-225,942	336,889	0,014	-0,020
-224,927	-200,000	0,010	0,106
-223,913	51,617	-0,117	0,079
-222,898	-200,000	0,010	-0,053
-221,884	-200,000	0,025	-0,119
-220,869	29,486	0,122	-0,073
-219,855	-162,391	-0,097	0,003
-218,840	800,000	0,045	0,097
-217,825	389,789	0,060	0,088
-216,811	-145,174	0,092	-0,006
-215,796	-168,086	-0,060	0,002
-214,782	800,000	-0,025	0,063
-213,767	-20,812	-0,157	0,068
-212,752	-86,887	-0,056	0,012
-211,738	-60,412	0,053	-0,016
-210,723	-200,000	-0,012	0,184
-209,709	-200,000	-0,011	-0,050
-208,694	85,780	-0,078	0,061
-207,679	33,573	0,061	0,038
-206,665	800,000	-0,043	0,093
-205,650	-88,818	-0,166	0,035
-204,636	-200,000	0,014	0,074
-203,621	201,793	0,068	0,074
-202,606	-172,642	-0,093	0,002
-201,592	3,995	0,069	0,036
-200,577	38,006	-0,087	-0,055
-199,563	-78,331	0,120	0,029
-198,548	64,389	0,110	-0,079
-197,533	-200,000	0,018	0,058
-196,519	-200,000	0,009	0,047
-195,504	-200,000	0,008	0,059
-194,490	-25,313	0,095	-0,040
-193,475	586,024	-0,042	-0,074
-192,460	-69,265	0,140	0,038
-191,446	321,681	-0,047	0,064
-190,431	232,841	-0,033	0,039
-189,417	-96,619	0,089	0,017
-188,402	93,973	-0,079	0,064
-187,387	800,000	0,017	0,035
-186,373	28,781	0,051	-0,030
-185,358	-95,354	-0,056	0,011
-184,344	-200,000	-0,018	0,092
-183,329	-200,000	0,003	0,040
-182,315	-200,000	-0,020	-0,068
-181,300	-17,628	0,082	0,036
-180,285	-119,452	-0,095	-0,012
-179,271	-200,000	0,015	-0,051
-178,256	180,515	-0,103	-0,107
-177,242	-12,045	-0,007	-0,003
-176,227	-32,620	0,085	0,033
-175,212	-100,135	-0,109	0,019
-174,198	-200,000	0,003	0,086
-173,183	-178,762	-0,061	-0,001
-172,169	582,359	-0,068	-0,119
-171,154	495,554	0,049	0,080
-170,139	-200,000	0,008	-0,053
-169,125	124,258	-0,161	0,144
-168,110	-200,000	0,002	0,049
-167,096	-115,920	0,073	0,010
-166,081	251,621	-0,074	-0,089
-165,066	87,647	0,056	0,044
-164,052	321,911	-0,011	0,015
-163,037	380,906	-0,026	0,037
-162,023	121,912	0,104	0,092
-161,008	395,271	0,074	-0,110
-159,993	718,562	-0,033	0,062
-158,979	800,000	0,034	0,102
-157,964	-200,000	0,005	-0,022
-156,950	-53,562	-0,148	-0,048
-155,935	-31,828	-0,019	0,007
-154,920	281,965	-0,051	0,065
-153,906	800,000	-0,059	0,168
-152,891	258,514	0,098	0,120
-151,877	144,349	-0,097	0,092
-150,862	-200,000	0,020	-0,088
-149,847	69,296	-0,040	-0,029
-148,833	-193,001	0,105	0,001
-147,818	-90,197	0,036	0,007
-146,804	-50,998	-0,062	-0,021
-145,789	-124,015	-0,052	0,006
-144,775	-180,297	0,045	0,001
-143,760	-200,000	0,015	0,067
-142,745	7,277	-0,070	0,037
-141,731	662,311	-0,011	0,020
-140,716	8,845	0,082	0,044
-139,702	-200,000	0,012	-0,116
-138,687	-36,456	0,024	-0,009
-137,672	800,000	0,034	-0,074
-136,658	800,000	0,030	-0,076
-135,643	-135,897	-0,051	-0,004
-134,629	154,932	0,057	-0,056
-133,614	-52,881	0,181	0,059
-132,599	-25,460	0,053	0,022
-131,585	-130,064	0,051	0,005
-130,570	-200,000	-0,005	0,054
-129,556	98,479	-0,043	0,035
-128,541	-200,000	0,013	-0,121
-127,526	800,000	0,017	-0,047
-126,512	32,848	0,041	-0,025
-125,497	-200,000	0,034	0,181
-124,483	251,546	-0,046	-0,055
-123,468	-24,777	-0,010	-0,004
-122,453	800,000	0,027	-0,062
-121,439	91,294	0,018	-0,015
-120,424	594,658	-0,039	-0,068
-119,410	-45,461	0,116	0,041
-118,395	47,826	0,102	-0,067
-117,380	13,444	0,086	0,047
-116,366	259,632	0,053	0,064
-115,351	-74,012	-0,118	0,030
-114,337	800,000	-0,047	-0,140
-113,322	146,584	0,054	0,051
-112,307	-200,000	-0,012	0,053
-111,293	673,438	0,094	0,173
-110,278	-200,000	-0,006	0,067
-109,264	789,212	-0,049	0,096
-108,249	800,000	-0,034	0,097
-107,234	-200,000	-0,012	-0,151
-106,220	56,972	-0,079	0,055
-105,205	-134,286	0,075	0,006
-104,191	-149,384	0,111	-0,006
-103,176	714,896	0,089	0,167
-102,162	-5,296	-0,099	-0,048
-101,147	-200,000	-0,002	-0,034
-100,132	-200,000	-0,007	-0,078
-99,118	175,395	0,073	0,074
-98,103	421,260	0,035	0,054
-97,089	-200,000	0,019	0,105
-96,074	-200,000	-0,005	0,052
-95,059	33,730	-0,041	0,025
-94,045	61,239	-0,057	-0,040
-93,030	30,986	0,146	0,088
-92,016	64,635	-0,025	-0,017
-91,001	-200,000	0,002	0,009
-89,986	-200,000	0,033	0,110
-88,972	-200,000	-0,041	0,130
-87,957	800,000	0,046	-0,093
-86,943	203,949	-0,059	-0,064
-85,928	-52,212	0,115	-0,037
-84,913	-110,824	-0,181	-0,026
-83,899	-118,671	0,074	0,009
-82,884	120,908	0,124	0,109
-81,870	-151,555	0,115	-0,006
-80,855	-149,088	-0,039	0,002
-79,840	-99,824	0,118	0,021
-78,826	-168,296	0,060	0,002
-77,811	215,510	-0,042	-0,048
-76,797	-87,329	0,110	-0,023
-75,782	58,150	0,078	-0,054
-74,767	447,972	0,097	0,151
-73,753	-200,000	0,000	0,065
-72,738	723,133	-0,112	0,211
-71,724	-57,475	-0,041	0,013
-70,709	-29,896	-0,150	-0,060
-69,694	76,100	-0,039	-0,029
-68,680	546,806	0,021	-0,036
-67,665	-200,000	-0,003	0,149
-66,651	-119,950	0,061	0,007
-65,636	-71,394	-0,019	0,005
-64,622	-200,000	0,003	-0,035
-63,607	-200,000	0,006	-0,066
-62,592	-53,656	-0,085	-0,027
-61,578	34,948	0,110	-0,068
-60,563	-200,000	0,015	0,091
-59,549	23,527	-0,110	0,064
-58,534	20,997	-1,838	-1,050
-57,519	418,859	-1,381	-2,093
-56,505	-200,000	-0,301	-4,416
-55,490	443,215	0,970	1,506
-54,476	800,000	4,863	11,147
-53,461	-200,000	20,933	329,480
-52,446	800,000	757,500	2322,743
-51,432	549,979	1662,353	2825,495
-50,417	73,430	1664,353	1228,711
-49,403	18,732	1537,386	866,460
-48,388	12,757	1460,122	793,987
-47,373	19,033	1451,019	819,159
-46,359	15,923	1440,352	798,298
-45,344	11,048	1436,020	772,636
-44,330	11,007	1434,192	771,423
-43,315	10,926	1432,652	770,180
-42,300	10,907	1430,692	769,007
-41,286	10,976	1429,622	768,727
-40,271	10,921	1428,151	767,645
-39,257	10,933	1426,836	766,966
-38,242	10,956	1425,827	766,501
-37,227	10,937	1424,841	765,850
-36,213	11,003	1423,363	765,336
-35,198	10,968	1422,396	764,623
-34,184	11,055	1421,349	764,441
-33,169	10,951	1420,184	763,291
-32,154	11,007	1419,163	762,976
-31,140	10,992	1417,859	762,173
-30,125	11,059	1416,892	761,940
-29,111	11,006	1415,661	761,002
-28,096	11,036	1414,350	760,405
-27,082	10,957	1413,231	759,404
-26,067	10,964	1412,260	758,885
-25,052	10,994	1411,138	758,389
-24,038	10,975	1410,030	757,676
-23,023	10,966	1409,172	757,145
-22,009	10,914	1408,089	756,287
-20,994	10,927	1407,156	755,816
-19,979	10,963	1406,180	755,431
-18,965	10,937	1405,020	754,659
-17,950	10,912	1404,432	754,193
-16,936	10,857	1403,683	753,505
-15,921	10,806	1402,769	752,747
-14,906	10,813	1401,641	752,144
-13,892	10,882	1400,667	751,916
-12,877	10,844	1399,904	751,297
-11,863	10,801	1399,340	750,766
-10,848	10,850	1397,990	750,239
-9,833	10,787	1397,336	749,565
-8,819	10,766	1396,563	749,023
-7,804	10,779	1395,518	748,494
-6,790	10,781	1394,567	747,965
-5,775	10,789	1393,573	747,439
-4,760	10,780	1392,380	746,727
-3,746	10,772	1391,639	746,262
-2,731	10,788	1390,675	745,790
-1,717	10,760	1390,055	745,299
-0,702	10,732	1388,013	744,047
0,313	14,824	1301,756	716,544
1,327	31,138	692,901	418,513
2,342	48,584	120,186	79,338
3,356	0,784	16,535	8,326
4,371	5,567	3,407	1,770
5,386	-20,378	0,851	0,368
6,400	800,000	0,141	0,407
7,415	197,626	-0,146	-0,158
8,429	56,062	-0,373	-0,255
9,444	74,356	-0,272	-0,201
10,459	148,439	-0,208	-0,198
11,473	-20,226	-0,399	-0,172
12,488	33,359	-0,190	-0,116
13,502	131,355	-0,238	-0,215
14,517	83,934	-0,194	-0,149
15,531	78,034	-0,296	-0,223
16,546	63,461	-0,421	-0,297
17,561	-11,934	-0,511	-0,235
18,575	45,292	-0,164	-0,106
19,590	4,554	-0,260	-0,134
20,604	-43,427	-0,239	-0,084
21,619	137,125	-0,417	-0,384
22,634	185,193	-0,307	-0,321
23,648	196,965	-0,309	-0,333
24,663	327,998	-0,251	-0,340
25,677	42,153	-0,477	-0,304
26,692	88,334	-0,325	-0,254
27,707	188,452	-0,351	-0,370
28,721	164,893	-0,403	-0,401
29,736	112,030	-0,453	-0,385
30,750	39,653	-0,382	-0,241
31,765	-46,427	-0,438	-0,151
32,780	116,800	-0,274	-0,236
33,794	133,402	-0,304	-0,277
34,809	98,088	-0,322	-0,261
35,823	63,916	-0,307	-0,217
36,838	110,146	-0,282	-0,238
37,853	96,845	-0,316	-0,255
38,867	94,161	-0,378	-0,302
39,882	-29,644	-0,428	-0,171
40,896	800,000	-0,145	-0,292
41,911	10,694	-0,302	-0,162
42,926	286,991	-0,276	-0,351
43,940	64,776	-0,322	-0,228
44,955	97,141	-0,356	-0,287
45,969	190,666	-0,265	-0,280
46,984	28,753	-0,388	-0,230
47,999	-54,034	-0,450	-0,143
49,013	655,240	-0,205	-0,372
50,028	100,292	-0,229	-0,187
51,042	619,716	-0,228	-0,405
52,057	34,142	-0,382	-0,233
53,071	105,299	-0,357	-0,296
54,086	14,954	-0,398	-0,218
55,101	-24,168	-0,310	-0,130
56,115	146,891	-0,190	-0,179
57,130	42,462	-0,262	-0,167
58,144	29,163	-0,385	-0,229
59,159	2,399	-0,418	-0,212
60,174	542,141	-0,236	-0,397
61,188	10,819	-0,375	-0,201
62,203	56,437	-0,291	-0,198
63,217	50,092	-0,376	-0,249
64,232	420,165	-0,211	-0,319
65,247	184,530	-0,251	-0,261
66,261	-4,462	-0,350	-0,169
67,276	98,074	-0,300	-0,242
68,290	133,676	-0,298	-0,271
69,305	107,707	-0,334	-0,279
70,320	247,308	-0,304	-0,361
71,334	-40,735	-0,318	-0,115
72,349	-29,250	-0,322	-0,129
73,363	95,417	-0,334	-0,267
74,378	79,856	-0,406	-0,306
75,393	60,229	-0,237	-0,164
76,407	-9,268	-0,216	-0,101
77,422	40,367	-0,274	-0,173
78,436	118,855	-0,268	-0,232
79,451	-46,445	-0,270	-0,093
80,466	102,108	-0,343	-0,281
81,480	1,762	-0,356	-0,179
82,495	81,998	-0,316	-0,240
83,509	50,649	-0,258	-0,171
84,524	-34,536	-0,308	-0,117
85,539	26,784	-0,265	-0,155
86,553	-30,167	-0,229	-0,091
87,568	-26,190	-0,269	-0,110
88,582	86,791	-0,339	-0,262
89,597	88,105	-0,238	-0,185
90,611	188,930	-0,196	-0,205
91,626	21,092	-0,229	-0,130
92,641	17,348	-0,240	-0,133
93,655	-108,522	-0,119	0,018
94,670	2,014	-0,328	-0,165
95,684	97,448	-0,351	-0,282
96,699	6,451	-0,286	-0,148
97,714	2,080	-0,333	-0,168
98,728	-32,660	-0,296	-0,115
99,743	-172,074	-0,312	0,007
100,757	23,840	-0,287	-0,165
101,772	-24,790	-0,314	-0,130
102,787	-60,047	-0,278	-0,082
103,801	-97,067	-0,341	-0,062
104,816	-122,390	-0,227	-0,026
105,830	119,594	-0,196	-0,170
106,845	-54,596	-0,322	-0,101
107,860	61,691	-0,304	-0,211
108,874	43,256	-0,315	-0,201
109,889	101,762	-0,234	-0,191
110,903	21,003	-0,348	-0,197
111,918	52,719	-0,265	-0,177
112,933	-38,134	-0,274	-0,101
113,947	157,715	-0,134	-0,130
114,962	800,000	-0,137	-0,312
115,976	-26,618	-0,260	-0,106
116,991	-110,061	-0,294	-0,043
118,006	800,000	-0,096	-0,188
119,020	-51,017	-0,305	-0,099
120,035	-51,559	-0,182	-0,059
121,049	-8,532	-0,195	-0,091
122,064	-183,585	-0,231	-0,003
123,079	0,489	-0,201	-0,100
124,093	82,502	-0,103	-0,078
125,108	-82,252	-0,230	-0,052
126,122	-25,853	-0,237	-0,097
127,137	394,921	-0,132	-0,192
128,151	60,371	-0,237	-0,163
129,166	21,312	-0,197	-0,112
130,181	775,943	-0,116	-0,222
131,195	-0,823	-0,436	-0,215
132,210	84,242	-0,395	-0,301
133,224	2,940	-0,248	-0,125
134,239	71,031	-0,261	-0,188
135,254	-133,600	-0,237	-0,020
136,268	14,690	-0,193	-0,105
137,283	95,109	-0,273	-0,216
138,297	251,637	-0,203	-0,241
139,312	239,412	-0,248	-0,288
140,327	89,190	-0,264	-0,205
141,341	367,795	-0,152	-0,214
142,356	-10,220	-0,223	-0,103
143,370	103,850	-0,251	-0,205
144,385	241,456	-0,109	-0,127
145,400	39,734	-0,297	-0,185
146,414	-62,760	-0,333	-0,096
147,429	8,370	-0,281	-0,147
148,443	166,746	-0,199	-0,197
149,458	-22,582	-0,337	-0,141
150,473	46,360	-0,103	-0,067
151,487	170,915	-0,260	-0,260
152,502	747,668	-0,142	-0,268
153,516	-34,654	-0,250	-0,095
154,531	-24,782	-0,265	-0,109
155,546	86,165	-0,261	-0,200
156,560	-37,300	-0,136	-0,050
157,575	-91,648	-0,325	-0,064
158,589	207,123	-0,145	-0,158
159,604	90,200	-0,291	-0,227
160,619	61,535	-0,211	-0,146
161,633	-39,616	-0,240	-0,087
162,648	321,232	-0,188	-0,249
163,662	-56,739	-0,305	-0,093
164,677	-66,374	-0,226	-0,062
165,692	-17,142	-0,120	-0,052
166,706	-71,497	-0,145	-0,037
167,721	94,899	-0,317	-0,250
168,735	44,106	-0,216	-0,138
169,750	-3,202	-0,232	-0,112
170,764	800,000	-0,082	-0,181
171,779	-49,465	-0,212	-0,070
172,794	98,682	-0,153	-0,123
173,808	23,561	-0,172	-0,098
174,823	-90,609	-0,210	-0,042
175,837	181,867	-0,218	-0,224
176,852	75,746	-0,284	-0,208
177,867	33,057	-0,151	-0,091
178,881	442,988	-0,186	-0,284
179,896	405,074	-0,137	-0,202
180,910	22,430	-0,266	-0,151
181,925	103,679	-0,197	-0,161
182,940	314,829	-0,263	-0,344
183,954	97,435	-0,219	-0,174
184,969	-80,656	-0,238	-0,055
185,983	-127,289	-0,309	-0,031
186,998	48,850	-0,207	-0,135
188,013	9,981	-0,253	-0,133
189,027	800,000	-0,099	-0,213
190,042	83,963	-0,323	-0,244
191,056	34,942	-0,341	-0,207
192,071	800,000	-0,069	-0,206
193,086	-116,181	-0,173	0,022
194,100	148,570	-0,154	-0,144
195,115	561,561	-0,150	-0,253
196,129	87,594	-0,253	-0,194
197,144	161,865	-0,143	-0,139
198,159	83,476	-0,196	-0,148
199,173	715,386	-0,079	-0,146
200,188	110,180	-0,211	-0,175
201,202	-169,695	-0,286	-0,007
202,217	37,396	-0,202	-0,124
203,232	280,024	-0,186	-0,231
204,246	-200,000	-0,040	-0,211
205,261	53,039	-0,204	-0,135
206,275	90,471	-0,186	-0,144
207,290	43,030	-0,206	-0,130
208,304	58,395	-0,211	-0,143
209,319	50,674	-0,195	-0,128
210,334	523,426	-0,136	-0,223
211,348	353,488	-0,156	-0,216
212,363	104,726	-0,217	-0,177
213,377	371,566	-0,167	-0,236
214,392	-121,244	-0,145	0,017
215,407	313,466	-0,066	-0,086
216,421	-46,789	-0,278	-0,094
217,436	4,313	-0,228	-0,115
218,450	-30,913	-0,319	-0,124
219,465	-31,083	-0,166	-0,064
220,480	429,450	-0,095	-0,143
221,494	174,990	-0,119	-0,120
222,509	-63,213	-0,043	0,012
223,523	-106,195	-0,157	-0,024
224,538	-25,769	-0,292	-0,118
225,553	47,490	-0,181	-0,116
226,567	180,020	-0,190	-0,193
227,582	199,144	-0,215	-0,228
228,596	191,786	-0,191	-0,199
229,611	57,316	-0,186	-0,125
230,626	20,607	-0,128	-0,071
231,640	209,912	-0,103	-0,112
232,655	-129,809	-0,358	-0,034
233,669	-200,000	-0,004	-0,200
234,684	-20,082	-0,162	-0,069
235,699	800,000	-0,138	-0,282
236,713	64,078	-0,199	-0,138
237,728	-92,994	-0,289	-0,055
238,742	-22,291	-0,208	-0,087
239,757	-200,000	-0,014	-0,181
240,772	77,646	-0,218	-0,160
241,786	218,099	-0,217	-0,239
242,801	-112,455	-0,164	-0,022
243,815	155,160	-0,127	-0,121
244,830	250,621	-0,081	-0,095
245,844	315,761	-0,095	-0,124
246,859	-42,449	-0,231	-0,081
247,874	120,604	-0,287	-0,247
248,888	565,374	-0,109	-0,183
249,903	70,656	-0,190	-0,136
250,917	189,389	-0,106	-0,110
251,932	-73,633	-0,084	-0,021
252,947	-111,633	-0,248	-0,034
253,961	370,032	-0,118	-0,165
254,976	800,000	-0,131	-0,304
255,990	800,000	-0,119	-0,239
257,005	463,043	-0,087	-0,134
258,020	305,348	-0,045	0,058
259,034	-63,965	-0,097	-0,027
260,049	77,443	0,011	-0,008
261,063	212,910	-0,141	-0,154
262,078	800,000	-0,055	-0,123
263,093	-46,946	-0,293	-0,098
264,107	-40,270	-0,164	-0,059
265,122	-95,125	-0,211	-0,039
266,136	5,002	-0,170	-0,086
267,151	56,880	-0,132	-0,089
268,166	-67,830	-0,128	0,034
269,180	364,374	-0,151	-0,210
270,195	-4,733	-0,166	-0,079
271,209	-159,798	-0,183	-0,007
272,224	89,743	-0,179	-0,138
273,239	-8,343	-0,128	-0,059
274,253	-172,172	-0,214	0,005
275,268	4,214	-0,236	-0,118
276,282	-32,297	-0,311	-0,119
277,297	584,018	-0,134	-0,227
278,312	328,049	-0,161	-0,213
279,326	298,525	-0,183	-0,233
280,341	-26,330	-0,067	-0,027
281,355	-102,989	-0,066	0,011
282,370	-19,051	-0,107	-0,046
283,384	210,936	-0,168	-0,182
284,399	-200,000	-0,047	-0,196
285,414	92,327	-0,150	-0,117
286,428	168,045	-0,177	-0,173
287,443	416,031	-0,036	-0,052
288,457	40,330	-0,202	-0,125
289,472	18,552	-0,234	-0,128
290,487	800,000	-0,064	-0,166
291,501	-27,401	-0,119	-0,047
292,516	-64,307	-0,227	0,063
293,530	59,928	-0,184	-0,124
294,545	-28,399	-0,139	-0,055
295,560	-6,207	-0,109	-0,051
296,574	63,899	-0,173	-0,119
297,589	-65,088	-0,247	-0,068
298,603	-7,010	-0,217	-0,101
299,618	800,000	-0,092	-0,177
300,633	800,000	-0,072	-0,168
301,647	344,681	-0,029	-0,039
302,662	-127,060	-0,127	-0,013
303,676	-11,397	-0,064	-0,029
304,691	215,530	-0,133	-0,145
305,706	348,116	-0,137	-0,186
306,720	24,806	-0,226	-0,128
307,735	327,272	-0,075	-0,099
308,749	-107,458	-0,193	0,029
309,764	451,131	-0,066	-0,101
310,779	-200,000	-0,031	-0,117
311,793	191,364	-0,085	-0,088
312,808	244,150	-0,148	-0,171
313,822	-58,370	-0,260	-0,077
314,837	-28,198	-0,148	-0,058
315,852	510,940	0,060	-0,096
316,866	-4,560	-0,193	-0,091
317,881	64,426	-0,162	-0,112
318,895	56,559	-0,142	-0,094
319,910	58,175	-0,206	-0,139
320,925	70,283	-0,110	-0,078
321,939	-76,865	-0,250	-0,060
322,954	-25,684	-0,098	0,040
323,968	-200,000	-0,221	-0,000
324,983	98,478	-0,077	-0,060
325,997	-167,034	-0,106	0,003
327,012	-124,214	-0,176	-0,019
328,027	34,822	-0,177	-0,106
329,041	23,788	-0,205	-0,116
330,056	53,525	-0,121	-0,080
331,070	-200,000	0,006	-0,051
332,085	157,167	-0,112	0,106
333,100	-200,000	-0,019	-0,077
334,114	43,942	-0,167	-0,105
335,129	-109,781	-0,240	-0,034
336,143	152,100	-0,207	-0,193
337,158	3,854	-0,149	-0,074
338,173	-0,207	-0,128	-0,062
339,187	-76,487	-0,086	-0,021
340,202	49,653	-0,137	0,088
341,216	27,663	-0,252	-0,145
342,231	127,226	-0,145	-0,126
343,246	299,245	-0,133	-0,168
344,260	67,934	-0,069	-0,048
345,275	-60,977	-0,128	-0,037
346,289	11,018	-0,118	-0,062
347,304	162,655	-0,111	-0,106
348,319	25,246	-0,210	-0,119
349,333	-96,879	-0,137	-0,024
350,348	124,104	-0,105	-0,090
351,362	-200,000	-0,005	-0,044
352,377	123,913	-0,051	-0,044
353,392	-166,411	-0,065	0,002
354,406	191,014	-0,076	-0,078
355,421	207,906	1307,628	1398,937
356,435	159,960	1467,450	1399,421
