DTS Sentinel unit serial number:	SN410029Multiplexer serial number:	ORYXHardware model number:	OX2-SRSoftware version number:	ORYX F/W v4,00 Oryx Data Collector v3.7.2.0data status	okinstallation	B3 Nyhavnadifferential loss correction	single-endedforward channel	channel 1reverse channel	N/Adate	2023/12/03time	18:42:30forward acquisition time	300,00reverse acquisition time	0,00gamma	499,1914k internal	0,3198k external	0,3198temperature offset calibration	1,0000default loss term (dB/km)	0,3820temperature slope calibration	1,0000multiplexer offset coefficient	1,0000multiplexer slope coefficient	1,0000fibre end	0,00T internal ref (°C)	14,50T ext. ref 1 (°C)	-0,86T ext. ref 2 (°C)	-0,89length (m)	temperature (°C)	Stokes	anti-Stokes-744,400	429,904	-0,188	-0,296
-743,385	-200,000	-0,004	0,295
-742,371	-200,000	-0,043	-0,173
-741,356	-200,000	0,109	0,373
-740,342	420,348	-0,096	-0,151
-739,327	-200,000	-0,082	0,416
-738,312	407,069	-0,174	-0,269
-737,298	800,000	0,131	0,271
-736,283	592,694	-0,140	-0,252
-735,269	-200,000	0,076	0,332
-734,254	251,117	-0,254	-0,315
-733,239	-80,715	-0,231	0,055
-732,225	-200,000	-0,045	-0,308
-731,210	211,864	0,072	0,083
-730,196	385,754	-0,067	-0,100
-729,181	208,518	-0,089	0,101
-728,167	11,999	-0,151	-0,084
-727,152	51,214	0,106	-0,073
-726,137	-69,910	-0,132	-0,036
-725,123	-2,294	-0,138	0,070
-724,108	316,509	0,104	-0,144
-723,094	-27,369	-0,062	-0,026
-722,079	291,525	-0,094	0,125
-721,064	800,000	0,024	-0,055
-720,050	731,969	0,082	-0,160
-719,035	233,394	-0,066	-0,079
-718,021	-200,000	0,018	-0,086
-717,006	179,400	-0,093	-0,099
-715,991	204,450	-0,056	0,064
-714,977	-105,340	0,161	-0,026
-713,962	-200,000	0,021	0,071
-712,948	-80,657	-0,087	0,021
-711,933	-133,068	-0,154	-0,014
-710,918	-35,592	0,113	-0,044
-709,904	245,109	-0,118	-0,144
-708,889	-200,000	0,036	-0,187
-707,875	351,717	-0,093	-0,134
-706,860	-200,000	-0,029	-0,096
-705,845	15,840	0,113	-0,065
-704,831	800,000	0,031	-0,086
-703,816	-200,000	0,007	0,072
-702,802	5,307	-0,088	-0,047
-701,787	-200,000	0,009	-0,042
-700,772	285,909	-0,055	0,072
-699,758	-63,369	-0,116	-0,034
-698,743	-133,479	0,074	0,007
-697,729	355,605	0,020	0,029
-696,714	-200,000	0,002	-0,046
-695,699	-200,000	-0,024	-0,104
-694,685	102,513	-0,045	-0,038
-693,670	101,155	-0,151	-0,128
-692,656	-200,000	0,004	-0,076
-691,641	-200,000	0,014	0,064
-690,627	-200,000	-0,005	0,182
-689,612	-128,074	-0,125	-0,013
-688,597	-148,270	-0,223	0,013
-687,583	-200,000	-0,009	-0,101
-686,568	-200,000	0,008	-0,077
-685,554	163,059	-0,028	-0,028
-684,539	173,990	0,055	-0,058
-683,524	-200,000	0,023	0,092
-682,510	-32,288	0,054	-0,022
-681,495	-200,000	-0,011	0,059
-680,481	25,533	-0,273	-0,165
-679,466	180,899	-0,071	-0,076
-678,451	25,371	-0,127	-0,076
-677,437	216,834	0,057	-0,066
-676,422	128,820	0,113	-0,104
-675,408	-110,809	-0,017	-0,002
-674,393	212,123	0,114	0,130
-673,378	-84,723	-0,015	0,003
-672,364	-200,000	-0,001	-0,014
-671,349	331,952	0,031	-0,044
-670,335	-200,000	-0,019	-0,174
-669,320	-47,609	0,077	0,027
-668,305	-200,000	-0,001	0,004
-667,291	-115,213	0,039	0,005
-666,276	-200,000	0,036	-0,133
-665,262	194,841	-0,147	-0,162
-664,247	313,236	-0,039	-0,054
-663,232	23,972	-0,041	-0,025
-662,218	-200,000	-0,012	0,068
-661,203	-11,198	-0,033	-0,016
-660,189	-91,069	-0,032	-0,007
-659,174	800,000	-0,060	-0,155
-658,159	373,234	-0,048	-0,071
-657,145	-12,844	0,126	-0,059
-656,130	-162,492	-0,128	-0,004
-655,116	800,000	0,007	-0,014
-654,101	-100,693	-0,110	-0,019
-653,086	-40,349	-0,060	0,022
-652,072	358,521	-0,015	0,022
-651,057	800,000	-0,041	-0,108
-650,043	-85,172	0,118	-0,027
-649,028	5,967	0,036	-0,019
-648,014	-47,048	0,055	-0,019
-646,999	-155,526	0,085	-0,004
-645,984	278,492	-0,036	0,047
-644,970	-74,692	-0,097	-0,025
-643,955	-105,652	0,059	-0,010
-642,941	240,219	-0,083	0,101
-641,926	674,261	-0,037	0,070
-640,911	800,000	-0,018	-0,045
-639,897	630,105	-0,031	0,057
-638,882	384,071	0,024	-0,036
-637,868	-200,000	-0,035	0,114
-636,853	-200,000	-0,020	0,074
-635,838	-200,000	-0,019	0,121
-634,824	-162,261	-0,043	-0,002
-633,809	-200,000	0,007	-0,046
-632,795	800,000	0,052	0,146
-631,780	45,424	0,115	0,077
-630,765	-200,000	-0,019	-0,063
-629,751	800,000	-0,036	-0,077
-628,736	102,423	0,057	-0,049
-627,722	591,544	0,020	-0,035
-626,707	277,658	0,060	-0,078
-625,692	-93,666	-0,011	0,002
-624,678	-3,822	0,073	-0,036
-623,663	800,000	-0,000	0,001
-622,649	643,894	0,036	-0,066
-621,634	-200,000	-0,015	-0,085
-620,619	-200,000	-0,016	-0,140
-619,605	-200,000	-0,015	0,149
-618,590	800,000	0,055	0,140
-617,576	99,406	0,116	-0,097
-616,561	-200,000	-0,013	-0,095
-615,546	42,911	-0,154	-0,101
-614,532	2,750	-0,065	0,034
-613,517	-94,403	-0,072	0,014
-612,503	196,990	0,055	0,060
-611,488	5,821	0,179	0,095
-610,474	39,853	-0,085	-0,055
-609,459	-87,278	-0,136	-0,030
-608,444	358,195	-0,067	0,097
-607,430	-68,099	0,131	-0,037
-606,415	-200,000	-0,010	-0,092
-605,401	800,000	0,035	0,091
-604,386	210,050	0,044	-0,050
-603,371	619,675	-0,056	-0,102
-602,357	0,754	0,103	-0,053
-601,342	-200,000	0,001	0,061
-600,328	74,743	-0,169	-0,128
-599,313	-140,935	-0,085	0,006
-598,298	276,652	0,060	-0,078
-597,284	235,383	0,060	0,072
-596,269	-8,983	0,039	0,019
-595,255	800,000	-0,044	0,119
-594,240	-200,000	0,002	-0,035
-593,225	706,208	-0,025	-0,048
-592,211	-124,290	-0,055	-0,006
-591,196	800,000	-0,021	-0,047
-590,182	-122,875	-0,037	0,004
-589,167	-120,446	-0,072	-0,009
-588,152	274,940	-0,015	0,019
-587,138	-43,554	-0,053	0,019
-586,123	-200,000	0,009	0,058
-585,109	-120,350	-0,132	0,016
-584,094	-129,435	0,045	-0,004
-583,079	-200,000	0,021	-0,120
-582,065	82,366	0,053	-0,041
-581,050	241,817	0,055	-0,067
-580,036	-3,846	-0,054	0,027
-579,021	144,924	-0,072	0,070
-578,006	800,000	-0,053	-0,120
-576,992	448,091	-0,103	-0,164
-575,977	97,451	-0,046	-0,038
-574,963	-200,000	0,053	0,203
-573,948	204,660	0,030	-0,033
-572,934	800,000	0,031	0,068
-571,919	-153,643	-0,172	0,008
-570,904	800,000	-0,049	-0,099
-569,890	351,848	-0,079	-0,114
-568,875	130,235	0,033	0,030
-567,861	101,734	0,062	0,052
-566,846	573,815	-0,007	0,012
-565,831	83,671	0,052	-0,041
-564,817	-31,148	-0,125	-0,051
-563,802	-200,000	0,032	-0,126
-562,788	800,000	0,018	-0,049
-561,773	-200,000	0,030	0,106
-560,758	392,403	-0,027	0,041
-559,744	138,945	-0,129	0,123
-558,729	115,315	0,105	0,093
-557,715	-117,367	-0,098	-0,013
-556,700	800,000	-0,051	-0,105
-555,685	-128,768	-0,057	-0,006
-554,671	-174,130	-0,013	-0,000
-553,656	-57,565	0,026	0,008
-552,642	501,640	-0,048	0,080
-551,627	-200,000	-0,041	0,154
-550,612	178,943	0,052	-0,055
-549,598	-200,000	0,000	0,101
-548,583	-109,115	-0,047	-0,007
-547,569	-200,000	-0,001	-0,032
-546,554	-200,000	0,002	0,033
-545,539	18,342	0,036	0,021
-544,525	800,000	-0,027	-0,063
-543,510	-200,000	-0,001	0,009
-542,496	-70,476	-0,108	0,029
-541,481	800,000	-0,024	0,070
-540,466	-1,741	0,016	0,008
-539,452	61,743	0,039	0,028
-538,437	-200,000	0,030	-0,166
-537,423	436,185	-0,049	-0,077
-536,408	119,051	-0,032	0,028
-535,393	72,667	-0,105	-0,079
-534,379	221,845	-0,103	-0,120
-533,364	-57,846	0,041	0,013
-532,350	-47,740	0,168	-0,058
-531,335	11,151	-0,143	-0,079
-530,321	-59,266	0,095	-0,029
-529,306	618,921	-0,033	0,060
-528,291	-200,000	0,013	0,096
-527,277	-0,675	0,126	-0,064
-526,262	497,507	0,056	-0,093
-525,248	143,569	-0,044	-0,042
-524,233	63,769	0,049	0,036
-523,218	800,000	-0,039	0,124
-522,204	216,448	0,155	0,178
-521,189	73,038	-0,072	0,054
-520,175	513,826	0,024	-0,040
-519,160	21,490	-0,036	-0,021
-518,145	62,955	0,044	0,032
-517,131	800,000	0,009	0,022
-516,116	358,040	0,025	0,036
-515,102	-6,523	0,049	-0,024
-514,087	-200,000	0,003	-0,162
-513,072	-63,092	0,051	-0,015
-512,058	532,998	0,045	0,077
-511,043	239,192	0,088	0,106
-510,029	-184,215	-0,069	0,001
-509,014	800,000	-0,040	0,091
-507,999	800,000	-0,020	-0,064
-506,985	132,595	-0,051	0,047
-505,970	-77,595	-0,051	-0,013
-504,956	326,883	0,027	0,037
-503,941	-200,000	0,004	0,088
-502,926	230,060	-0,046	0,054
-501,912	-3,306	0,189	-0,095
-500,897	-13,240	-0,022	-0,010
-499,883	65,894	0,008	0,006
-498,868	-113,155	-0,150	-0,021
-497,853	-200,000	0,005	-0,077
-496,839	257,320	-0,066	0,082
-495,824	800,000	0,066	0,138
-494,810	147,414	0,054	-0,052
-493,795	-200,000	0,027	-0,095
-492,781	596,312	-0,042	0,075
-491,766	800,000	0,035	0,106
-490,751	-200,000	0,007	0,116
-489,737	-79,316	-0,057	0,014
-488,722	610,319	0,031	0,057
-487,708	-134,745	0,123	0,011
-486,693	-76,311	0,095	-0,024
-485,678	-200,000	-0,006	0,124
-484,664	168,049	0,019	-0,020
-483,649	-200,000	-0,032	-0,179
-482,635	-60,072	-0,047	-0,014
-481,620	450,542	0,014	-0,022
-480,605	93,945	0,097	0,079
-479,591	89,244	0,034	0,027
-478,576	-166,889	0,082	0,002
-477,562	800,000	-0,071	-0,181
-476,547	156,989	0,075	0,075
-475,532	-135,136	-0,097	-0,008
-474,518	687,213	-0,006	0,012
-473,503	51,299	0,129	0,088
-472,489	-200,000	-0,020	0,074
-471,474	800,000	0,006	0,012
-470,459	-200,000	0,003	0,032
-469,445	-200,000	-0,007	0,032
-468,430	190,930	-0,036	-0,039
-467,416	800,000	0,010	0,030
-466,401	155,826	0,053	0,052
-465,386	800,000	0,023	0,067
-464,372	203,368	0,070	-0,078
-463,357	292,885	-0,041	-0,054
-462,343	40,346	-0,020	-0,013
-461,328	800,000	-0,025	-0,067
-460,313	-119,408	0,056	0,007
-459,299	363,542	0,137	0,198
-458,284	-200,000	-0,059	0,000
-457,270	-41,843	0,061	0,022
-456,255	-99,263	-0,159	0,029
-455,241	126,258	-0,124	-0,113
-454,226	49,047	0,031	0,021
-453,211	661,389	-0,068	0,127
-452,197	-24,003	0,072	0,031
-451,182	-200,000	0,011	-0,038
-450,168	-200,000	0,015	0,176
-449,153	-58,714	-0,158	0,049
-448,138	-9,125	0,176	-0,084
-447,124	-200,000	-0,032	0,103
-446,109	-74,046	0,093	-0,024
-445,095	-200,000	-0,004	-0,102
-444,080	81,001	0,132	0,103
-443,065	-31,136	0,111	0,045
-442,051	-23,311	0,088	-0,038
-441,036	-59,730	-0,075	-0,023
-440,022	593,411	-0,046	-0,082
-439,007	482,528	0,056	-0,092
-437,992	-200,000	-0,004	-0,024
-436,978	-126,894	0,055	0,006
-435,963	130,358	0,061	-0,056
-434,949	165,323	-0,129	-0,132
-433,934	-200,000	0,044	-0,201
-432,919	33,344	0,065	0,040
-431,905	622,813	-0,058	0,105
-430,890	-50,696	-0,050	-0,017
-429,876	374,984	-0,041	0,060
-428,861	-200,000	-0,018	-0,063
-427,846	11,834	0,064	-0,035
-426,832	26,322	-0,148	0,088
-425,817	-200,000	-0,038	-0,142
-424,803	538,584	0,017	0,030
-423,788	415,273	0,019	0,029
-422,773	-92,840	0,123	0,025
-421,759	-200,000	-0,010	0,084
-420,744	71,139	-0,064	-0,047
-419,730	15,357	-0,141	-0,079
-418,715	800,000	-0,024	0,070
-417,701	-69,925	0,102	0,028
-416,686	-83,344	0,095	-0,022
-415,671	-200,000	-0,030	0,097
-414,657	70,015	0,066	-0,049
-413,642	800,000	-0,050	-0,113
-412,628	-101,495	-0,065	-0,011
-411,613	800,000	0,037	0,089
-410,598	800,000	0,009	-0,027
-409,584	800,000	-0,010	0,021
-408,569	-72,756	-0,091	0,024
-407,555	800,000	0,076	0,227
-406,540	-193,343	0,028	-0,000
-405,525	-135,254	-0,061	0,005
-404,511	59,116	0,027	0,019
-403,496	192,158	-0,016	0,017
-402,482	66,405	-0,063	-0,046
-401,467	-67,141	0,017	0,005
-400,452	496,768	-0,034	0,056
-399,438	-200,000	0,029	-0,109
-398,423	155,991	0,017	0,017
-397,409	-200,000	0,018	-0,129
-396,394	800,000	-0,045	-0,103
-395,379	-147,699	-0,146	0,009
-394,365	-200,000	0,006	0,140
-393,350	480,033	-0,072	0,117
-392,336	432,321	0,061	0,095
-391,321	800,000	-0,045	-0,129
-390,306	74,517	0,062	-0,046
-389,292	-200,000	-0,021	-0,090
-388,277	-200,000	0,024	0,097
-387,263	-200,000	0,014	0,231
-386,248	800,000	0,027	0,083
-385,233	201,508	0,058	0,064
-384,219	-200,000	-0,025	-0,204
-383,204	156,818	-0,079	-0,079
-382,190	800,000	0,031	-0,098
-381,175	800,000	0,038	0,082
-380,160	-24,261	-0,135	0,058
-379,146	351,312	0,031	0,044
-378,131	-31,580	-0,047	-0,019
-377,117	-37,255	0,033	0,013
-376,102	800,000	-0,041	-0,105
-375,088	107,707	-0,095	-0,081
-374,073	-55,473	0,091	-0,029
-373,058	-200,000	0,017	-0,057
-372,044	666,676	0,072	0,135
-371,029	-57,633	0,065	0,020
-370,015	-14,079	-0,050	-0,023
-369,000	800,000	0,007	0,016
-367,985	-200,000	-0,013	-0,062
-366,971	389,642	-0,073	0,109
-365,956	-109,026	-0,072	0,011
-364,942	491,559	-0,028	-0,046
-363,927	106,889	0,071	0,060
-362,912	211,237	0,073	-0,082
-361,898	113,976	-0,037	-0,032
-360,883	-57,464	0,030	-0,010
-359,869	-200,000	0,028	-0,120
-358,854	-200,000	-0,005	0,063
-357,839	-44,303	0,039	-0,014
-356,825	-187,737	-0,153	0,001
-355,810	800,000	-0,032	0,071
-354,796	800,000	-0,062	0,131
-353,781	-200,000	-0,003	-0,095
-352,766	-200,000	-0,004	-0,127
-351,752	-133,617	0,035	-0,003
-350,737	164,157	0,036	0,037
-349,723	-158,003	-0,095	0,004
-348,708	165,650	-0,077	0,078
-347,693	-140,667	0,061	0,004
-346,679	-66,130	-0,144	0,041
-345,664	114,365	0,050	0,044
-344,650	-67,291	0,151	0,042
-343,635	-200,000	-0,006	-0,026
-342,620	280,735	0,043	0,055
-341,606	3,565	0,098	0,051
-340,591	528,707	-0,057	-0,097
-339,577	260,064	0,041	-0,050
-338,562	9,719	0,088	-0,048
-337,548	-200,000	-0,008	-0,059
-336,533	-200,000	0,042	0,142
-335,518	-67,874	0,111	0,031
-334,504	25,297	0,054	0,032
-333,489	31,269	0,048	-0,029
-332,475	308,453	0,058	-0,077
-331,460	800,000	-0,058	-0,142
-330,445	86,710	0,034	0,027
-329,431	21,923	-0,103	-0,060
-328,416	-139,642	0,076	0,006
-327,402	-200,000	0,008	0,073
-326,387	-90,628	0,056	0,011
-325,372	-99,134	-0,082	0,015
-324,358	598,289	0,050	-0,088
-323,343	101,240	0,035	0,029
-322,329	-200,000	0,034	-0,187
-321,314	200,951	0,066	0,072
-320,299	11,670	0,200	-0,110
-319,285	9,734	-0,133	-0,072
-318,270	-62,621	-0,094	0,028
-317,256	800,000	-0,059	-0,130
-316,241	-7,602	0,087	0,042
-315,226	-29,013	-0,028	-0,011
-314,212	-119,354	0,137	0,017
-313,197	-200,000	0,006	0,029
-312,183	89,801	-0,054	-0,044
-311,168	-200,000	-0,024	-0,117
-310,153	-91,552	-0,118	0,024
-309,139	-24,644	0,068	0,029
-308,124	-103,419	0,131	0,022
-307,110	294,471	0,049	0,065
-306,095	800,000	0,026	0,063
-305,080	40,181	0,132	0,085
-304,066	441,318	-0,053	0,083
-303,051	26,622	-0,151	-0,090
-302,037	-126,244	-0,086	-0,009
-301,022	-83,373	0,059	-0,013
-300,008	78,016	-0,075	-0,057
-298,993	222,571	0,067	0,077
-297,978	242,129	0,026	0,031
-296,964	-200,000	0,017	0,089
-295,949	218,196	-0,010	-0,012
-294,935	-200,000	-0,018	-0,059
-293,920	-79,014	0,107	-0,026
-292,905	279,805	-0,084	0,108
-291,891	100,311	0,084	-0,070
-290,876	235,910	-0,094	0,111
-289,862	-165,067	-0,135	0,004
-288,847	-200,000	-0,006	-0,149
-287,832	-200,000	0,029	-0,177
-286,818	431,033	0,041	0,064
-285,803	59,138	0,131	-0,092
-284,789	-96,659	0,130	0,024
-283,774	-80,345	-0,111	-0,026
-282,759	-200,000	0,009	0,094
-281,745	-46,730	-0,089	-0,031
-280,730	726,364	0,018	-0,035
-279,716	-58,720	-0,091	0,028
-278,701	-200,000	-0,023	0,150
-277,686	315,929	0,071	0,096
-276,672	-22,378	0,038	0,017
-275,657	515,843	-0,087	0,145
-274,643	72,145	-0,140	0,104
-273,628	-59,807	0,074	0,023
-272,613	78,093	0,061	-0,046
-271,599	228,839	-0,033	-0,038
-270,584	538,140	0,066	0,113
-269,570	115,714	-0,045	0,039
-268,555	27,795	0,016	0,010
-267,540	-70,712	-0,068	0,018
-266,526	-140,403	-0,018	-0,001
-265,511	192,715	0,052	-0,056
-264,497	161,038	-0,058	-0,058
-263,482	0,898	0,103	0,052
-262,467	37,628	-0,045	-0,029
-261,453	-200,000	-0,020	0,082
-260,438	242,612	0,042	-0,050
-259,424	-200,000	-0,000	-0,112
-258,409	-15,029	-0,068	0,031
-257,395	591,213	0,044	0,077
-256,380	-200,000	0,030	0,107
-255,365	-28,155	0,061	0,025
-254,351	-200,000	0,002	-0,038
-253,336	800,000	-0,073	-0,180
-252,322	-200,000	0,019	0,088
-251,307	-24,434	-0,046	-0,019
-250,292	65,330	0,097	-0,070
-249,278	-160,963	0,120	-0,004
-248,263	101,918	-0,128	-0,107
-247,249	-115,878	-0,024	0,003
-246,234	71,695	-0,015	-0,011
-245,219	27,721	-0,067	-0,040
-244,205	119,365	0,079	-0,070
-243,190	800,000	-0,011	-0,031
-242,176	34,425	0,017	0,011
-241,161	109,445	0,046	-0,039
-240,146	0,809	-0,010	0,005
-239,132	-98,351	0,036	0,007
-238,117	191,535	-0,080	-0,086
-237,103	381,119	0,084	-0,124
-236,088	-200,000	0,026	0,133
-235,073	-200,000	-0,002	-0,033
-234,059	137,250	-0,053	-0,049
-233,044	-82,019	-0,063	0,015
-232,030	189,471	-0,042	-0,045
-231,015	-200,000	0,026	0,119
-230,000	166,008	-0,055	-0,056
-228,986	-101,082	0,033	-0,006
-227,971	-18,407	-0,167	0,074
-226,957	591,688	-0,045	-0,080
-225,942	-200,000	0,021	0,098
-224,927	-200,000	0,002	0,118
-223,913	169,955	0,055	0,056
-222,898	-55,813	-0,062	-0,020
-221,884	88,383	-0,004	-0,003
-220,869	-114,804	-0,132	0,018
-219,855	800,000	-0,022	-0,063
-218,840	-200,000	0,015	-0,099
-217,825	388,525	-0,101	0,150
-216,811	78,074	-0,090	-0,068
-215,796	-200,000	-0,011	-0,114
-214,782	102,124	-0,036	-0,030
-213,767	-135,974	-0,114	0,009
-212,752	-200,000	-0,026	0,135
-211,738	-163,874	0,184	-0,006
-210,723	800,000	-0,028	0,081
-209,709	-63,221	0,055	-0,016
-208,694	-200,000	-0,003	-0,067
-207,679	-52,598	-0,074	-0,024
-206,665	-106,590	-0,091	-0,014
-205,650	-164,192	-0,076	-0,002
-204,636	134,779	0,115	0,107
-203,621	-84,216	-0,045	-0,010
-202,606	-79,036	-0,053	0,013
-201,592	-200,000	-0,007	-0,130
-200,577	194,658	0,089	-0,096
-199,563	-84,616	0,068	-0,015
-198,548	-200,000	0,003	0,096
-197,533	243,287	0,107	-0,129
-196,519	83,030	0,027	-0,021
-195,504	26,033	-0,051	-0,030
-194,490	286,751	-0,061	-0,078
-193,475	-200,000	-0,011	0,069
-192,460	108,313	0,012	0,010
-191,446	237,631	0,103	0,122
-190,431	-79,925	0,066	0,016
-189,417	182,552	0,076	0,080
-188,402	-200,000	-0,030	0,110
-187,387	772,739	-0,008	0,016
-186,373	-60,578	-0,130	0,039
-185,358	-64,425	0,064	-0,018
-184,344	44,037	0,093	-0,060
-183,329	31,582	0,022	0,014
-182,315	173,124	0,050	-0,051
-181,300	800,000	0,016	0,036
-180,285	-112,521	-0,079	0,011
-179,271	642,791	-0,148	-0,271
-178,256	117,937	-0,124	-0,109
-177,242	-25,692	0,127	0,053
-176,227	-92,561	0,064	0,013
-175,212	-200,000	0,026	-0,083
-174,198	800,000	-0,038	-0,087
-173,183	302,118	-0,113	-0,149
-172,169	-123,569	0,148	-0,017
-171,154	111,670	0,085	0,073
-170,139	88,832	0,077	0,061
-169,125	465,262	0,120	0,192
-168,110	154,431	0,046	0,045
-167,096	-200,000	-0,018	-0,099
-166,081	-123,346	-0,022	0,002
-165,066	112,502	0,060	-0,052
-164,052	41,211	-0,009	-0,006
-163,037	-129,018	-0,099	0,010
-162,023	-89,975	0,031	0,006
-161,008	179,573	0,079	0,083
-159,993	277,664	0,058	0,073
-158,979	-200,000	-0,018	0,058
-157,964	665,313	-0,071	-0,132
-156,950	228,460	-0,075	-0,087
-155,935	-200,000	-0,029	-0,121
-154,920	138,979	-0,055	0,051
-153,906	-54,827	0,041	-0,013
-152,891	-22,729	0,076	0,033
-151,877	-200,000	-0,017	0,069
-150,862	800,000	0,042	-0,111
-149,847	-200,000	0,009	-0,148
-148,833	-137,147	-0,129	-0,010
-147,818	-200,000	-0,021	0,181
-146,804	-22,256	0,147	0,063
-145,789	-89,219	-0,084	0,017
-144,775	54,065	-0,027	0,019
-143,760	-200,000	0,020	0,110
-142,745	-183,607	-0,123	-0,001
-141,731	102,795	-0,073	0,061
-140,716	-36,913	0,132	0,050
-139,702	-95,619	0,037	0,007
-138,687	-180,278	-0,056	-0,001
-137,672	641,131	0,022	-0,041
-136,658	-4,895	-0,050	-0,024
-135,643	-106,559	-0,127	0,020
-134,629	-120,846	0,050	0,006
-133,614	379,097	0,055	-0,080
-132,599	521,448	-0,033	0,055
-131,585	75,102	-0,017	0,012
-130,570	652,287	-0,060	-0,110
-129,556	614,544	-0,044	-0,078
-128,541	-200,000	-0,011	-0,144
-127,526	-200,000	-0,007	-0,095
-126,512	-82,816	-0,032	0,007
-125,497	-89,076	0,139	-0,029
-124,483	-200,000	0,013	0,140
-123,468	759,937	0,054	0,105
-122,453	-84,654	-0,059	-0,013
-121,439	153,214	-0,185	0,180
-120,424	233,924	-0,034	-0,039
-119,410	217,794	-0,070	-0,080
-118,395	-200,000	0,002	0,080
-117,380	140,879	0,047	-0,044
-116,366	417,675	0,042	-0,063
-115,351	2,282	0,098	-0,050
-114,337	-106,564	-0,071	-0,011
-113,322	-134,199	-0,090	-0,008
-112,307	61,581	0,140	0,099
-111,293	136,311	-0,042	0,039
-110,278	-49,971	0,127	0,042
-109,264	-33,330	0,089	0,035
-108,249	427,006	0,034	-0,053
-107,234	-114,385	-0,085	0,012
-106,220	-109,123	0,019	0,003
-105,205	29,360	0,125	-0,075
-104,191	-200,000	0,050	0,181
-103,176	-200,000	-0,002	-0,062
-102,162	-200,000	-0,004	0,037
-101,147	-200,000	-0,013	-0,088
-100,132	502,645	-0,099	-0,163
-99,118	-200,000	-0,015	-0,079
-98,103	-24,243	-0,112	-0,047
-97,089	-68,424	0,142	0,039
-96,074	54,211	0,142	0,097
-95,059	-200,000	0,043	0,212
-94,045	-200,000	-0,002	0,098
-93,030	403,917	0,053	-0,080
-92,016	800,000	-0,039	-0,090
-91,001	-200,000	-0,033	-0,116
-89,986	-109,412	0,160	0,024
-88,972	209,354	-0,070	0,078
-87,957	491,667	-0,017	0,028
-86,943	800,000	-0,020	0,047
-85,928	-99,514	-0,108	-0,019
-84,913	54,009	-0,097	-0,066
-83,899	-24,477	0,090	0,038
-82,884	-25,986	0,113	-0,047
-81,870	17,166	0,168	0,094
-80,855	217,263	-0,063	0,072
-79,840	-53,539	0,127	-0,041
-78,826	-30,981	-0,052	0,021
-77,811	76,424	0,047	-0,036
-76,797	93,130	0,043	-0,035
-75,782	-200,000	-0,020	0,087
-74,767	-200,000	0,032	0,152
-73,753	486,685	-0,024	0,039
-72,738	210,541	0,067	0,075
-71,724	665,584	-0,052	-0,096
-70,709	800,000	-0,033	0,090
-69,694	-56,134	-0,148	-0,046
-68,680	340,610	-0,061	-0,084
-67,665	-200,000	-0,002	-0,066
-66,651	-21,548	0,128	-0,055
-65,636	120,816	-0,131	-0,115
-64,622	-200,000	-0,018	-0,059
-63,607	-57,373	0,029	-0,009
-62,592	44,086	0,043	-0,028
-61,578	-90,943	-0,109	-0,022
-60,563	-32,074	-0,034	0,013
-59,549	-200,000	-0,026	0,220
-58,534	-15,388	-1,528	-0,689
-57,519	344,974	-1,501	-2,095
-56,505	-200,000	-0,514	-4,479
-55,490	194,663	1,056	1,136
-54,476	800,000	4,730	10,943
-53,461	-200,000	18,337	297,045
-52,446	800,000	732,134	2259,090
-51,432	559,584	1648,318	2831,185
-50,417	78,841	1667,795	1263,227
-49,403	22,399	1540,871	890,155
-48,388	16,356	1464,020	816,424
-47,373	17,801	1453,876	817,708
-46,359	17,067	1444,278	808,760
-45,344	14,605	1439,810	794,449
-44,330	14,573	1437,652	793,074
-43,315	14,582	1435,692	792,003
-42,300	14,587	1434,131	791,136
-41,286	14,629	1433,049	790,707
-40,271	14,590	1431,863	789,836
-39,257	14,570	1430,554	788,989
-38,242	14,641	1429,145	788,518
-37,227	14,643	1428,025	787,877
-36,213	14,583	1426,837	786,905
-35,198	14,578	1425,644	786,192
-34,184	14,637	1424,641	785,888
-33,169	14,525	1423,466	784,677
-32,154	14,584	1422,166	784,210
-31,140	14,587	1420,940	783,515
-30,125	14,678	1419,811	783,295
-29,111	14,590	1418,873	782,330
-28,096	14,567	1417,812	781,605
-27,082	14,531	1416,816	780,853
-26,067	14,510	1415,527	780,014
-25,052	14,519	1414,554	779,489
-24,038	14,519	1413,435	778,841
-23,023	14,500	1412,488	778,202
-22,009	14,535	1411,586	777,838
-20,994	14,483	1410,700	777,072
-19,979	14,503	1409,638	776,552
-18,965	14,513	1408,397	775,885
-17,950	14,458	1407,569	775,142
-16,936	14,467	1406,840	774,748
-15,921	14,394	1405,778	773,794
-14,906	14,383	1404,985	773,274
-13,892	14,472	1403,823	773,020
-12,877	14,427	1403,181	772,427
-11,863	14,435	1402,048	771,810
-10,848	14,435	1401,229	771,325
-9,833	14,409	1400,333	770,684
-8,819	14,402	1399,385	770,099
-7,804	14,390	1398,406	769,470
-6,790	14,317	1397,605	768,662
-5,775	14,366	1396,402	768,198
-4,760	14,302	1395,612	767,433
-3,746	14,332	1394,767	767,081
-2,731	14,327	1394,075	766,644
-1,717	14,293	1393,021	765,878
-0,702	14,302	1391,380	764,986
0,313	18,121	1309,554	737,694
1,327	34,473	705,847	435,501
2,342	52,818	124,119	83,896
3,356	0,129	16,624	8,363
4,371	-6,271	3,294	1,586
5,386	26,621	0,401	0,237
6,400	-200,000	0,018	0,060
7,415	259,196	-0,212	-0,260
8,429	-45,693	-0,342	-0,119
9,444	-44,541	-0,362	-0,127
10,459	65,705	-0,322	-0,231
11,473	-74,536	-0,249	-0,063
12,488	-119,491	-0,233	-0,028
13,502	187,741	-0,241	-0,255
14,517	38,156	-0,331	-0,208
15,531	26,874	-0,285	-0,168
16,546	118,376	-0,403	-0,351
17,561	96,476	-0,367	-0,297
18,575	-150,861	-0,101	-0,005
19,590	182,864	-0,152	-0,159
20,604	172,516	-0,183	-0,186
21,619	91,655	-0,329	-0,261
22,634	40,561	-0,517	-0,328
23,648	-2,385	-0,331	-0,163
24,663	71,025	-0,360	-0,263
25,677	37,897	-0,340	-0,213
26,692	83,685	-0,407	-0,313
27,707	64,458	-0,281	-0,200
28,721	150,084	-0,429	-0,411
29,736	209,179	-0,312	-0,346
30,750	-31,623	-0,466	-0,184
31,765	200,306	-0,376	-0,408
32,780	50,396	-0,382	-0,255
33,794	243,271	-0,331	-0,392
34,809	105,890	-0,379	-0,316
35,823	22,465	-0,261	-0,150
36,838	52,973	-0,452	-0,305
37,853	71,095	-0,441	-0,322
38,867	51,455	-0,386	-0,259
39,882	160,360	-0,270	-0,266
40,896	31,402	-0,480	-0,290
41,911	-16,578	-0,332	-0,148
42,926	80,728	-0,410	-0,312
43,940	-27,331	-0,394	-0,161
44,955	59,518	-0,392	-0,272
45,969	189,033	-0,332	-0,351
46,984	69,290	-0,253	-0,184
47,999	78,863	-0,318	-0,240
49,013	-33,793	-0,314	-0,121
50,028	101,533	-0,377	-0,310
51,042	42,167	-0,290	-0,185
52,057	120,398	-0,294	-0,258
53,071	221,713	-0,340	-0,386
54,086	-82,326	-0,437	-0,099
55,101	125,410	-0,299	-0,266
56,115	-29,829	-0,426	-0,170
57,130	16,295	-0,421	-0,234
58,144	31,548	-0,317	-0,192
59,159	118,513	-0,404	-0,351
60,174	213,265	-0,341	-0,380
61,188	-25,583	-0,335	-0,139
62,203	128,439	-0,284	-0,255
63,217	-44,913	-0,274	-0,096
64,232	-31,929	-0,395	-0,155
65,247	8,599	-0,317	-0,168
66,261	-11,441	-0,371	-0,171
67,276	-85,751	-0,397	-0,086
68,290	19,987	-0,186	-0,105
69,305	173,129	-0,275	-0,279
70,320	143,460	-0,281	-0,264
71,334	65,329	-0,394	-0,280
72,349	64,192	-0,329	-0,233
73,363	122,563	-0,396	-0,349
74,378	28,179	-0,423	-0,251
75,393	22,473	-0,294	-0,169
76,407	425,784	-0,164	-0,249
77,422	123,812	-0,256	-0,226
78,436	-115,709	-0,386	-0,050
79,451	92,234	-0,257	-0,203
80,466	97,397	-0,277	-0,223
81,480	56,385	-0,382	-0,261
82,495	47,472	-0,241	-0,157
83,509	-4,734	-0,248	-0,120
84,524	-32,081	-0,250	-0,098
85,539	75,356	-0,224	-0,166
86,553	-59,155	-0,309	-0,093
87,568	-112,214	-0,426	-0,059
88,582	167,702	-0,298	-0,298
89,597	288,790	-0,308	-0,393
90,611	-13,704	-0,326	-0,148
91,626	-72,218	-0,279	-0,072
92,641	-200,000	-0,076	-0,436
93,655	70,101	-0,333	-0,242
94,670	41,637	-0,334	-0,212
95,684	45,606	-0,264	-0,171
96,699	495,163	-0,092	-0,150
97,714	11,636	-0,330	-0,177
98,728	127,270	-0,188	-0,168
99,743	-70,104	-0,301	-0,080
100,757	81,539	-0,324	-0,246
101,772	95,682	-0,285	-0,228
102,787	110,334	-0,154	-0,130
103,801	-0,224	-0,372	-0,185
104,816	88,886	-0,250	-0,195
105,830	169,078	-0,187	-0,187
106,845	-4,830	-0,329	-0,158
107,860	-46,358	-0,299	-0,102
108,874	52,509	-0,283	-0,189
109,889	82,744	-0,272	-0,207
110,903	163,077	-0,296	-0,291
111,918	-11,191	-0,314	-0,145
112,933	67,559	-0,229	-0,164
113,947	176,111	-0,221	-0,225
114,962	-167,956	-0,275	-0,007
115,976	73,259	-0,247	-0,181
116,991	240,998	-0,201	-0,236
118,006	-23,256	-0,425	-0,178
119,020	-94,742	-0,252	-0,047
120,035	91,222	-0,264	-0,207
121,049	8,817	-0,177	-0,093
122,064	38,581	-0,226	-0,141
123,079	420,039	-0,075	-0,113
124,093	-21,229	-0,208	-0,089
125,108	18,545	-0,399	-0,223
126,122	17,618	-0,449	-0,250
127,137	-0,329	-0,354	-0,175
128,151	272,374	-0,201	-0,249
129,166	-76,476	-0,052	0,013
130,181	-55,273	-0,191	-0,060
131,195	139,513	-0,223	-0,205
132,210	136,855	-0,263	-0,241
133,224	299,334	-0,132	-0,171
134,239	173,266	-0,235	-0,237
135,254	-13,127	-0,288	-0,130
136,268	76,317	-0,181	-0,134
137,283	-138,940	-0,197	-0,015
138,297	320,141	-0,200	-0,267
139,312	194,005	-0,330	-0,350
140,327	421,514	-0,194	-0,293
141,341	-0,045	-0,260	-0,129
142,356	-8,708	-0,267	-0,125
143,370	-200,000	-0,082	-0,292
144,385	-38,521	-0,293	-0,108
145,400	29,677	-0,317	-0,188
146,414	171,198	-0,236	-0,237
147,429	222,700	-0,087	-0,098
148,443	61,622	-0,214	-0,149
149,458	-77,859	-0,250	-0,060
150,473	0,672	-0,212	-0,106
151,487	14,014	-0,266	-0,144
152,502	62,777	-0,232	-0,162
153,516	-52,754	-0,262	-0,084
154,531	41,160	-0,239	-0,151
155,546	144,541	-0,215	-0,201
156,560	185,275	-0,188	-0,195
157,575	44,441	-0,125	-0,080
158,589	58,401	-0,242	-0,165
159,604	175,620	-0,230	-0,233
160,619	192,810	-0,214	-0,226
161,633	-40,413	-0,352	-0,127
162,648	204,963	-0,234	-0,254
163,662	120,019	-0,205	-0,177
164,677	0,448	-0,158	-0,078
165,692	124,695	-0,179	-0,157
166,706	-63,228	-0,263	-0,075
167,721	-4,831	-0,229	-0,110
168,735	800,000	-0,113	-0,303
169,750	152,151	-0,220	-0,210
170,764	24,578	-0,210	-0,121
171,779	85,270	-0,252	-0,193
172,794	-93,158	-0,343	-0,066
173,808	79,184	-0,260	-0,194
174,823	196,626	-0,114	-0,121
175,837	125,691	-0,288	-0,254
176,852	-200,000	-0,047	-0,226
177,867	86,171	-0,209	-0,160
178,881	194,877	-0,163	-0,173
179,896	0,679	-0,329	-0,164
180,910	106,655	-0,240	-0,198
181,925	113,854	-0,207	-0,175
182,940	10,552	-0,339	-0,179
183,954	53,290	-0,234	-0,156
184,969	-7,545	-0,297	-0,139
185,983	-159,754	-0,159	-0,006
186,998	237,893	-0,167	-0,193
188,013	-35,240	-0,205	-0,077
189,027	-71,344	-0,243	-0,063
190,042	245,251	-0,186	-0,218
191,056	0,849	-0,280	-0,139
192,071	4,712	-0,169	-0,086
193,086	-7,181	-0,193	-0,091
194,100	98,423	-0,143	-0,115
195,115	361,969	-0,168	-0,235
196,129	800,000	-0,131	-0,270
197,144	89,017	-0,279	-0,216
198,159	595,474	-0,180	-0,312
199,173	-16,204	-0,188	-0,083
200,188	-18,257	-0,164	-0,071
201,202	-168,487	-0,161	0,004
202,217	-148,227	-0,232	-0,013
203,232	498,085	-0,179	-0,289
204,246	322,456	-0,213	-0,283
205,261	147,993	-0,256	-0,240
206,275	-140,491	-0,189	-0,013
207,290	543,442	-0,045	-0,076
208,304	-72,635	-0,181	-0,046
209,319	-114,834	-0,251	-0,033
210,334	109,602	-0,237	-0,197
211,348	38,778	-0,142	-0,088
212,363	800,000	-0,125	-0,260
213,377	409,433	-0,189	-0,279
214,392	-36,426	-0,162	-0,060
215,407	115,206	-0,136	-0,116
216,421	-160,011	-0,097	0,004
217,436	102,808	-0,218	-0,178
218,450	27,279	-0,143	-0,083
219,465	163,738	-0,165	-0,162
220,480	46,769	-0,186	-0,120
221,494	199,096	-0,180	-0,192
222,509	2,210	-0,197	-0,099
223,523	-173,937	-0,173	-0,003
224,538	177,694	-0,152	-0,154
225,553	62,623	-0,204	-0,141
226,567	131,849	-0,253	-0,226
227,582	72,501	-0,272	-0,197
228,596	76,810	-0,180	-0,132
229,611	160,447	-0,147	-0,143
230,626	209,676	-0,078	-0,085
231,640	-145,151	-0,138	-0,009
232,655	11,587	-0,266	-0,141
233,669	572,202	-0,119	-0,202
234,684	188,422	-0,129	-0,134
235,699	-23,878	-0,185	-0,076
236,713	-200,000	-0,054	-0,176
237,728	403,636	-0,056	-0,082
238,742	210,133	-0,214	-0,233
239,757	41,457	-0,172	-0,108
240,772	269,118	-0,199	-0,243
241,786	169,748	-0,214	-0,212
242,801	98,072	-0,086	-0,069
243,815	328,400	-0,058	-0,078
244,830	17,089	-0,261	-0,143
245,844	-15,101	-0,182	-0,080
246,859	231,987	-0,195	-0,222
247,874	800,000	-0,121	-0,288
248,888	690,556	-0,135	-0,247
249,903	298,047	-0,112	-0,143
250,917	152,765	-0,158	-0,150
251,932	-38,795	-0,216	-0,078
252,947	-26,320	-0,187	-0,076
253,961	-43,743	-0,199	-0,069
254,976	42,895	-0,143	-0,090
255,990	-27,325	-0,191	-0,076
257,005	156,402	-0,189	-0,181
258,020	-63,160	-0,104	-0,030
259,034	-8,385	-0,020	0,009
260,049	30,641	-0,220	-0,130
261,063	-200,000	0,039	-0,154
262,078	250,482	-0,146	-0,171
263,093	800,000	-0,121	-0,272
264,107	169,873	-0,204	-0,202
265,122	-114,921	-0,166	0,022
266,136	-100,316	-0,200	-0,034
267,151	219,786	-0,105	-0,117
268,166	352,289	-0,147	-0,202
269,180	40,846	-0,272	-0,169
270,195	9,816	-0,208	-0,109
271,209	-36,638	-0,218	-0,081
272,224	399,354	-0,139	-0,202
273,239	-200,000	-0,036	-0,167
274,253	-155,547	-0,212	0,009
275,268	154,687	-0,245	-0,233
276,282	412,189	-0,160	-0,235
277,297	800,000	-0,133	-0,381
278,312	43,281	-0,206	-0,130
279,326	417,988	-0,104	-0,155
280,341	-65,966	-0,069	0,019
281,355	-113,227	-0,101	0,014
282,370	-186,981	-0,104	0,001
283,384	133,286	-0,118	-0,106
284,399	42,489	-0,186	-0,117
285,414	87,396	-0,211	-0,161
286,428	1,601	-0,197	-0,098
287,443	465,999	-0,122	-0,189
288,457	-200,000	-0,021	-0,235
289,472	469,083	-0,045	-0,071
290,487	-61,928	-0,195	-0,056
291,501	272,964	-0,160	-0,196
292,516	524,171	-0,129	-0,210
293,530	339,636	-0,098	-0,132
294,545	-55,688	-0,092	-0,028
295,560	-200,000	-0,022	-0,115
296,574	131,764	-0,238	-0,211
297,589	70,565	-0,122	-0,087
298,603	2,205	-0,133	-0,066
299,618	-102,246	-0,183	-0,030
300,633	800,000	-0,112	-0,216
301,647	249,893	-0,160	-0,188
302,662	-28,694	-0,179	0,071
303,676	800,000	-0,048	-0,119
304,691	-200,000	-0,061	-0,189
305,706	209,707	-0,159	-0,172
306,720	629,484	-0,091	-0,159
307,735	-200,000	-0,016	-0,145
308,749	82,871	-0,071	-0,053
309,764	1,222	-0,106	-0,052
310,779	108,510	-0,144	-0,118
311,793	364,976	-0,123	-0,171
312,808	800,000	-0,113	-0,228
313,822	170,959	-0,087	-0,086
314,837	118,204	-0,148	-0,125
315,852	178,179	-0,189	-0,190
316,866	127,327	-0,189	-0,165
317,881	-200,000	-0,012	-0,093
318,895	81,942	-0,070	-0,052
319,910	145,907	-0,232	-0,214
320,925	79,971	-0,211	-0,156
321,939	-52,101	-0,192	-0,061
322,954	-200,000	0,004	-0,041
323,968	584,973	-0,062	-0,106
324,983	19,617	-0,134	-0,074
325,997	-136,566	-0,205	-0,016
327,012	57,327	-0,146	-0,098
328,027	155,792	-0,103	-0,098
329,041	48,477	-0,148	-0,095
330,056	766,809	-0,090	-0,169
331,070	273,008	-0,123	-0,150
332,085	-200,000	0,002	0,032
333,100	-57,318	-0,149	-0,045
334,114	-15,455	-0,083	-0,036
335,129	-38,651	-0,099	-0,036
336,143	152,355	-0,138	-0,130
337,158	130,714	-0,091	-0,081
338,173	800,000	-0,080	-0,160
339,187	-85,633	-0,142	-0,030
340,202	800,000	-0,078	-0,168
341,216	106,488	-0,187	-0,152
342,231	208,835	-0,135	-0,145
343,246	-200,000	-0,005	-0,128
344,260	202,871	-0,121	-0,128
345,275	691,972	-0,082	-0,148
346,289	-52,038	-0,093	-0,029
347,304	-59,035	-0,142	-0,042
348,319	374,883	-0,100	-0,140
349,333	800,000	-0,109	-0,250
350,348	571,099	-0,122	-0,205
351,362	-200,000	-0,066	-0,208
352,377	800,000	-0,064	-0,125
353,392	-31,633	-0,158	0,061
354,406	-140,193	-0,089	-0,006
355,421	208,115	1316,049	1413,509
356,435	160,118	1476,951	1414,006
