DTS Sentinel unit serial number:	SN410029Multiplexer serial number:	ORYXHardware model number:	OX2-SRSoftware version number:	ORYX F/W v4,00 Oryx Data Collector v3.7.2.0data status	okinstallation	B3 Nyhavnadifferential loss correction	single-endedforward channel	channel 1reverse channel	N/Adate	2023/11/30time	08:12:30forward acquisition time	300,00reverse acquisition time	0,00gamma	499,1914k internal	0,3197k external	0,3197temperature offset calibration	1,0000default loss term (dB/km)	0,3820temperature slope calibration	1,0000multiplexer offset coefficient	1,0000multiplexer slope coefficient	1,0000fibre end	0,00T internal ref (°C)	9,65T ext. ref 1 (°C)	-5,28T ext. ref 2 (°C)	-5,37length (m)	temperature (°C)	Stokes	anti-Stokes-744,400	10,146	-0,190	-0,105
-743,385	-200,000	0,028	0,276
-742,371	649,234	-0,135	-0,253
-741,356	-200,000	-0,046	0,296
-740,342	-137,511	-0,201	-0,016
-739,327	800,000	0,072	0,185
-738,312	46,008	-0,225	-0,152
-737,298	-200,000	0,002	0,176
-736,283	143,499	-0,179	-0,174
-735,269	-200,000	0,020	0,170
-734,254	-120,604	-0,274	-0,033
-733,239	-179,260	-0,192	-0,003
-732,225	686,330	-0,089	-0,171
-731,210	578,857	0,158	0,283
-730,196	800,000	-0,015	0,039
-729,181	-200,000	-0,016	-0,176
-728,167	-39,274	0,069	-0,026
-727,152	76,222	0,102	-0,079
-726,137	11,935	0,020	0,011
-725,123	-65,364	-0,155	0,045
-724,108	-30,913	0,139	-0,057
-723,094	72,317	-0,149	-0,113
-722,079	-79,738	-0,151	-0,037
-721,064	53,907	0,109	0,076
-720,050	800,000	0,053	-0,157
-719,035	-200,000	-0,000	0,078
-718,021	-107,020	-0,091	0,014
-717,006	800,000	0,061	-0,134
-715,991	-88,923	-0,080	0,017
-714,977	-200,000	-0,020	-0,100
-713,962	-152,484	0,073	0,004
-712,948	-30,881	-0,073	0,030
-711,933	-115,522	0,109	0,015
-710,918	-60,904	-0,140	-0,043
-709,904	-38,020	0,164	-0,063
-708,889	309,510	-0,025	0,034
-707,875	-200,000	0,014	-0,047
-706,860	-200,000	-0,006	-0,099
-705,845	21,703	-0,088	0,052
-704,831	-200,000	-0,014	0,070
-703,816	-63,606	0,075	0,022
-702,802	-89,549	-0,051	-0,011
-701,787	-35,307	0,147	-0,058
-700,772	-79,477	-0,067	-0,016
-699,758	579,425	-0,061	0,109
-698,743	192,675	0,041	0,045
-697,729	800,000	0,010	-0,025
-696,714	-88,133	-0,071	0,015
-695,699	144,800	-0,027	-0,026
-694,685	24,413	0,080	-0,048
-693,670	-42,416	-0,138	-0,051
-692,656	-49,163	0,106	-0,037
-691,641	549,836	-0,038	0,066
-690,627	355,220	0,075	0,109
-689,612	377,552	0,033	-0,049
-688,597	-95,857	-0,164	-0,032
-687,583	-16,047	-0,051	-0,023
-686,568	-200,000	-0,019	-0,113
-685,554	115,555	0,024	-0,021
-684,539	-200,000	-0,009	-0,127
-683,524	-124,765	0,102	-0,011
-682,510	-190,301	0,112	-0,001
-681,495	800,000	0,028	0,059
-680,481	-57,212	0,068	0,022
-679,466	-125,478	-0,070	-0,008
-678,451	800,000	0,038	-0,105
-677,437	-162,580	-0,005	-0,000
-676,422	-200,000	0,004	0,112
-675,408	366,300	-0,065	0,096
-674,393	666,477	-0,026	-0,050
-673,378	74,618	-0,005	-0,004
-672,364	53,879	0,049	0,034
-671,349	182,957	-0,038	0,041
-670,335	-78,808	-0,055	0,013
-669,320	-133,215	0,102	-0,009
-668,305	-70,044	0,121	0,033
-667,291	800,000	-0,054	-0,119
-666,276	516,640	-0,024	-0,042
-665,262	-116,762	-0,091	-0,012
-664,247	-200,000	-0,018	-0,089
-663,232	11,778	-0,060	0,034
-662,218	8,926	0,072	0,039
-661,203	-5,959	0,099	0,049
-660,189	-22,076	0,034	0,015
-659,174	-169,494	-0,110	0,003
-658,159	19,427	0,137	-0,080
-657,145	-112,919	-0,118	-0,017
-656,130	159,478	-0,085	0,086
-655,116	126,607	-0,112	-0,103
-654,101	437,847	-0,045	-0,071
-653,086	-85,338	0,135	-0,030
-652,072	-200,000	0,022	-0,100
-651,057	38,885	-0,144	-0,093
-650,043	710,352	-0,036	-0,070
-649,028	-200,000	0,028	-0,136
-648,014	592,465	-0,066	-0,118
-646,999	440,447	-0,069	0,110
-645,984	-200,000	0,015	-0,073
-644,970	800,000	-0,059	-0,147
-643,955	63,670	-0,122	-0,089
-642,941	-200,000	0,001	-0,139
-641,926	-129,810	0,054	-0,005
-640,911	320,720	0,040	0,055
-639,897	463,417	-0,045	0,073
-638,882	-79,900	-0,084	-0,020
-637,868	7,905	0,025	0,014
-636,853	413,547	-0,047	-0,073
-635,838	-200,000	0,010	-0,057
-634,824	-0,747	-0,100	-0,051
-633,809	353,333	0,054	-0,078
-632,795	800,000	0,022	0,069
-631,780	514,885	0,002	-0,004
-630,765	101,185	-0,132	-0,111
-629,751	-86,937	0,055	-0,012
-628,736	-8,475	0,064	-0,031
-627,722	-102,961	-0,186	0,032
-626,707	1,637	-0,065	0,034
-625,692	-24,697	-0,069	-0,030
-624,678	-200,000	-0,003	0,074
-623,663	-50,441	0,046	-0,016
-622,649	109,919	-0,171	-0,149
-621,634	494,183	0,068	-0,113
-620,619	82,536	-0,071	-0,056
-619,605	-200,000	-0,018	-0,082
-618,590	800,000	0,033	-0,079
-617,576	-47,266	0,169	-0,059
-616,561	364,953	-0,116	-0,170
-615,546	-200,000	0,030	0,122
-614,532	73,037	-0,024	-0,018
-613,517	92,797	0,099	0,081
-612,503	68,246	0,037	-0,027
-611,488	-200,000	-0,011	0,123
-610,474	311,952	0,061	0,083
-609,459	-0,330	-0,112	0,058
-608,444	2,676	0,107	-0,056
-607,430	191,458	-0,080	-0,088
-606,415	-200,000	0,001	0,006
-605,401	751,254	0,023	-0,046
-604,386	800,000	-0,053	-0,157
-603,371	263,727	0,019	-0,024
-602,357	800,000	-0,021	0,050
-601,342	-55,603	-0,058	0,019
-600,328	72,202	-0,119	-0,090
-599,313	635,511	-0,071	-0,132
-598,298	-200,000	-0,014	-0,053
-597,284	207,581	0,065	0,074
-596,269	-200,000	0,019	0,082
-595,255	590,624	-0,083	0,149
-594,240	-200,000	0,020	0,084
-593,225	363,667	0,039	0,057
-592,211	-104,541	-0,122	0,020
-591,196	-191,378	-0,030	0,000
-590,182	48,782	-0,073	-0,049
-589,167	88,836	-0,068	-0,055
-588,152	-200,000	-0,017	-0,075
-587,138	-43,945	0,041	0,015
-586,123	117,892	-0,075	-0,066
-585,109	-200,000	-0,041	-0,135
-584,094	-200,000	0,013	-0,068
-583,079	191,258	-0,020	-0,021
-582,065	-25,814	0,093	0,039
-581,050	-101,625	0,115	-0,020
-580,036	103,387	-0,057	0,048
-579,021	-162,485	-0,055	0,002
-578,006	-55,906	-0,133	-0,043
-576,992	22,689	0,065	0,038
-575,977	-34,958	-0,055	-0,021
-574,963	-200,000	-0,018	0,088
-573,948	800,000	0,038	0,103
-572,934	-200,000	0,027	0,119
-571,919	-7,579	-0,175	0,085
-570,904	-22,864	0,038	0,016
-569,890	74,090	0,071	-0,054
-568,875	800,000	0,077	-0,170
-567,861	392,394	0,063	0,095
-566,846	800,000	0,082	0,219
-565,831	-25,877	-0,155	-0,066
-564,817	226,659	0,081	-0,095
-563,802	-160,522	-0,064	-0,002
-562,788	-133,575	0,133	0,012
-561,773	653,107	-0,046	-0,085
-560,758	190,741	-0,047	-0,051
-559,744	200,226	-0,024	0,027
-558,729	800,000	0,025	0,075
-557,715	800,000	0,061	-0,143
-556,700	256,222	0,068	-0,085
-555,685	425,876	-0,076	-0,119
-554,671	-28,729	0,062	0,026
-553,656	-134,445	-0,043	0,004
-552,642	158,824	0,059	0,059
-551,627	-80,155	0,133	-0,032
-550,612	-200,000	-0,021	-0,171
-549,598	-15,716	-0,183	-0,084
-548,583	-86,737	-0,131	-0,029
-547,569	165,988	0,220	-0,225
-546,554	-11,221	-0,140	-0,067
-545,539	800,000	0,033	-0,075
-544,525	-120,439	-0,098	-0,012
-543,510	-200,000	0,005	0,030
-542,496	-69,832	-0,240	-0,066
-541,481	-200,000	-0,006	0,035
-540,466	145,577	0,011	-0,011
-539,452	-134,734	0,100	-0,009
-538,437	800,000	-0,046	0,102
-537,423	-70,476	0,101	-0,027
-536,408	372,015	-0,031	0,046
-535,393	473,429	-0,044	0,073
-534,379	58,294	-0,089	0,063
-533,364	433,577	-0,017	0,027
-532,350	189,724	0,108	0,117
-531,335	800,000	-0,041	-0,085
-530,321	66,970	0,087	0,064
-529,306	126,663	-0,019	-0,017
-528,291	-200,000	0,006	-0,065
-527,277	800,000	0,066	-0,150
-526,262	582,280	-0,047	-0,084
-525,248	-200,000	0,011	0,094
-524,233	313,197	0,048	-0,066
-523,218	215,251	0,054	0,062
-522,204	-15,910	-0,121	0,055
-521,189	800,000	-0,037	0,076
-520,175	-168,494	0,072	0,002
-519,160	-200,000	0,035	-0,126
-518,145	800,000	0,068	0,142
-517,131	524,831	-0,042	0,072
-516,116	262,388	0,088	0,111
-515,102	800,000	-0,013	0,034
-514,087	433,016	-0,057	-0,090
-513,072	-200,000	0,010	-0,109
-512,058	-200,000	0,019	0,065
-511,043	240,154	-0,054	-0,065
-510,029	-200,000	-0,003	0,045
-509,014	-50,553	-0,089	-0,030
-507,999	-200,000	0,015	0,268
-506,985	118,058	-0,081	-0,072
-505,970	30,941	0,169	-0,104
-504,956	-114,702	-0,092	0,013
-503,941	62,396	0,164	0,118
-502,926	629,433	0,113	0,208
-501,912	800,000	0,070	0,203
-500,897	-141,619	-0,029	0,002
-499,883	-86,652	-0,124	0,027
-498,868	152,623	0,092	0,091
-497,853	-200,000	0,000	0,055
-496,839	-200,000	0,000	-0,036
-495,824	-200,000	-0,001	0,035
-494,810	248,390	0,072	0,088
-493,795	210,448	-0,095	-0,108
-492,781	157,916	0,058	0,058
-491,766	-97,269	-0,081	-0,015
-490,751	185,798	0,064	-0,069
-489,737	-105,979	-0,128	-0,021
-488,722	384,361	-0,035	0,053
-487,708	348,261	-0,056	0,079
-486,693	46,747	0,054	-0,036
-485,678	-136,244	-0,182	0,015
-484,664	67,574	-0,056	-0,041
-483,649	43,487	-0,123	0,081
-482,635	146,122	0,037	0,035
-481,620	800,000	0,029	-0,076
-480,605	239,106	0,053	-0,063
-479,591	221,927	-0,037	-0,043
-478,576	121,960	0,034	0,031
-477,562	-200,000	-0,014	-0,118
-476,547	-104,432	-0,148	-0,024
-475,532	-69,123	-0,053	0,015
-474,518	8,321	-0,044	0,024
-473,503	451,023	0,099	0,158
-472,489	114,865	0,063	0,056
-471,474	800,000	0,007	0,017
-470,459	-0,450	0,096	-0,049
-469,445	284,389	0,009	-0,012
-468,430	54,799	0,074	-0,052
-467,416	-200,000	-0,019	-0,084
-466,401	-109,823	0,212	0,032
-465,386	156,826	-0,071	0,070
-464,372	800,000	-0,021	0,062
-463,357	36,802	0,029	0,018
-462,343	114,030	0,049	0,043
-461,328	243,322	0,029	-0,035
-460,313	544,407	0,050	-0,085
-459,299	27,394	0,091	0,055
-458,284	60,492	0,087	-0,062
-457,270	-4,868	0,132	-0,065
-456,255	404,384	-0,031	-0,048
-455,241	-200,000	0,021	-0,068
-454,226	-170,056	-0,097	0,002
-453,211	64,738	-0,100	-0,072
-452,197	-200,000	-0,017	0,094
-451,182	45,897	0,075	0,050
-450,168	-64,927	0,055	-0,016
-449,153	45,751	-0,121	-0,081
-448,138	-200,000	0,002	0,030
-447,124	-59,084	0,083	-0,026
-446,109	800,000	-0,034	0,077
-445,095	48,488	-0,077	0,052
-444,080	800,000	0,072	0,181
-443,065	-200,000	0,015	0,128
-442,051	18,493	-0,033	-0,019
-441,036	-200,000	-0,013	0,051
-440,022	-39,421	-0,143	-0,054
-439,007	171,136	0,038	0,039
-437,992	800,000	0,065	0,138
-436,978	333,153	-0,040	0,056
-435,963	-200,000	0,027	-0,099
-434,949	-127,524	-0,010	0,001
-433,934	325,334	0,029	0,040
-432,919	-7,723	0,057	0,027
-431,905	343,006	0,034	-0,047
-430,890	88,652	-0,069	0,055
-429,876	267,817	-0,049	0,062
-428,861	800,000	0,006	-0,019
-427,846	-200,000	-0,003	-0,079
-426,832	-200,000	-0,008	0,070
-425,817	299,638	-0,098	0,130
-424,803	800,000	0,044	-0,136
-423,788	40,103	-0,025	0,016
-422,773	-67,744	0,043	-0,012
-421,759	-200,000	-0,015	0,093
-420,744	364,926	-0,030	-0,044
-419,730	-58,947	-0,058	-0,018
-418,715	211,606	-0,100	-0,113
-417,701	200,979	0,063	-0,070
-416,686	-9,192	0,163	0,078
-415,671	-200,000	0,009	0,072
-414,657	209,205	0,011	0,013
-413,642	-6,752	0,155	0,076
-412,628	8,938	-0,004	0,002
-411,613	-76,785	-0,131	-0,033
-410,598	-200,000	0,020	0,123
-409,584	240,821	-0,046	0,055
-408,569	-80,734	0,132	0,031
-407,555	512,521	0,081	0,137
-406,540	520,001	0,092	0,156
-405,525	800,000	-0,002	0,005
-404,511	-15,842	-0,128	-0,058
-403,496	103,675	-0,063	-0,054
-402,482	51,157	0,150	0,102
-401,467	800,000	-0,067	0,158
-400,452	800,000	-0,041	0,095
-399,438	800,000	0,030	-0,062
-398,423	67,737	-0,154	-0,113
-397,409	-200,000	-0,001	-0,172
-396,394	199,069	0,062	0,068
-395,379	-68,455	0,081	0,022
-394,365	800,000	0,030	0,069
-393,350	-32,173	-0,136	0,054
-392,336	-22,342	-0,032	0,014
-391,321	495,884	0,026	0,042
-390,306	800,000	-0,034	-0,079
-389,292	66,977	0,040	0,029
-388,277	-102,999	-0,187	-0,032
-387,263	10,670	0,078	0,042
-386,248	538,035	0,032	0,054
-385,233	32,373	0,090	0,056
-384,219	199,871	0,038	-0,042
-383,204	800,000	-0,051	-0,120
-382,190	190,574	-0,030	-0,033
-381,175	138,362	-0,075	-0,070
-380,160	-200,000	0,003	0,068
-379,146	-40,151	-0,081	0,030
-378,131	800,000	0,054	0,127
-377,117	-70,559	-0,102	0,027
-376,102	191,444	0,035	-0,038
-375,088	-62,650	-0,121	-0,036
-374,073	554,035	-0,053	0,092
-373,058	-9,693	0,097	-0,046
-372,044	223,957	0,067	0,078
-371,029	-200,000	-0,004	-0,064
-370,015	-200,000	-0,001	0,072
-369,000	800,000	0,042	0,084
-367,985	-103,464	-0,077	0,013
-366,971	-145,257	0,055	0,004
-365,956	237,113	0,060	-0,071
-364,942	-55,107	0,078	-0,025
-363,927	307,295	-0,039	-0,053
-362,912	166,448	-0,068	-0,069
-361,898	-200,000	-0,018	-0,096
-360,883	-200,000	0,015	0,082
-359,869	-105,829	0,034	-0,006
-358,854	-200,000	0,002	0,035
-357,839	-140,328	0,067	-0,005
-356,825	-5,395	0,031	-0,015
-355,810	-200,000	-0,020	-0,094
-354,796	10,170	0,065	-0,035
-353,781	800,000	0,043	0,094
-352,766	302,164	-0,108	-0,144
-351,752	599,847	-0,012	-0,022
-350,737	26,154	0,167	0,100
-349,723	183,790	0,099	-0,105
-348,708	-98,885	0,095	0,017
-347,693	286,719	0,083	-0,107
-346,679	-200,000	-0,023	-0,219
-345,664	593,680	-0,046	-0,081
-344,650	-105,898	0,060	-0,010
-343,635	224,705	0,059	0,069
-342,620	-91,053	0,044	-0,009
-341,606	800,000	-0,004	0,010
-340,591	-102,348	-0,031	0,005
-339,577	-200,000	-0,016	-0,182
-338,562	549,556	-0,012	-0,021
-337,548	-38,158	-0,045	-0,017
-336,533	800,000	0,062	0,157
-335,518	161,930	-0,059	-0,059
-334,504	-60,301	0,100	-0,030
-333,489	-200,000	0,007	-0,117
-332,475	-55,405	-0,146	-0,047
-331,460	692,067	0,014	-0,026
-330,445	-178,535	0,063	0,001
-329,431	800,000	0,019	0,045
-328,416	714,636	0,035	0,066
-327,402	-200,000	0,027	-0,094
-326,387	800,000	0,018	0,055
-325,372	-63,533	-0,100	0,029
-324,358	-48,588	-0,090	0,031
-323,343	-133,722	0,017	0,002
-322,329	-61,504	0,098	0,029
-321,314	800,000	-0,052	0,137
-320,299	-200,000	-0,008	0,113
-319,285	-200,000	-0,018	-0,098
-318,270	-72,048	0,024	-0,006
-317,256	800,000	-0,054	-0,128
-316,241	-200,000	0,042	0,138
-315,226	46,976	-0,115	-0,077
-314,212	254,394	0,069	0,085
-313,197	739,328	0,011	-0,020
-312,183	-200,000	0,006	0,093
-311,168	-117,656	-0,059	0,008
-310,153	358,898	-0,056	0,081
-309,139	158,669	-0,034	0,034
-308,124	-36,091	0,015	0,006
-307,110	474,450	0,029	-0,047
-306,095	-200,000	0,013	0,128
-305,080	-200,000	-0,019	0,075
-304,066	-159,527	-0,057	-0,002
-303,051	800,000	-0,086	-0,233
-302,037	219,480	-0,021	0,024
-301,022	-12,192	-0,033	-0,015
-300,008	280,229	0,155	0,199
-298,993	180,357	-0,124	-0,130
-297,978	144,704	0,085	-0,081
-296,964	-58,807	-0,079	-0,024
-295,949	-28,461	-0,026	0,011
-294,935	8,297	0,029	0,016
-293,920	-56,522	0,042	0,013
-292,905	20,317	0,062	0,036
-291,891	97,310	-0,029	0,024
-290,876	-200,000	0,005	0,167
-289,862	1,076	-0,030	0,015
-288,847	504,553	-0,041	0,069
-287,832	127,759	0,047	-0,043
-286,818	23,828	0,069	-0,040
-285,803	800,000	0,008	0,021
-284,789	-150,909	0,089	0,005
-283,774	800,000	0,037	0,101
-282,759	-18,101	-0,078	-0,035
-281,745	737,130	0,061	-0,117
-280,730	-200,000	-0,011	-0,204
-279,716	622,984	0,027	0,050
-278,701	-200,000	0,015	-0,068
-277,686	740,060	-0,017	-0,034
-276,672	-200,000	0,006	-0,026
-275,657	-200,000	-0,022	0,107
-274,643	-200,000	-0,015	0,083
-273,628	362,178	0,074	-0,107
-272,613	-200,000	-0,001	0,021
-271,599	1,514	0,182	-0,093
-270,584	651,643	0,062	0,115
-269,570	-30,959	-0,071	-0,028
-268,555	-200,000	0,019	-0,073
-267,540	-38,945	0,048	0,018
-266,526	752,150	-0,064	-0,125
-265,511	-152,052	-0,100	0,005
-264,497	-59,356	0,113	0,035
-263,482	56,905	0,094	0,065
-262,467	-136,359	-0,107	-0,009
-261,453	-153,626	-0,054	0,003
-260,438	-200,000	-0,012	0,047
-259,424	147,730	-0,062	0,060
-258,409	800,000	0,059	-0,133
-257,395	-3,619	0,057	-0,028
-256,380	118,199	-0,042	0,037
-255,365	800,000	0,054	0,134
-254,351	800,000	-0,031	-0,086
-253,336	-153,297	0,067	0,003
-252,322	800,000	0,041	0,100
-251,307	-158,704	0,031	-0,001
-250,292	-200,000	-0,024	0,089
-249,278	800,000	0,017	0,035
-248,263	293,394	0,021	0,027
-247,249	800,000	-0,012	0,034
-246,234	-200,000	-0,020	0,160
-245,219	365,918	-0,028	-0,041
-244,205	800,000	-0,056	0,168
-243,190	262,311	0,089	0,111
-242,176	168,708	-0,049	-0,050
-241,161	569,166	-0,019	0,033
-240,146	187,957	0,023	-0,025
-239,132	-49,640	-0,128	0,043
-238,117	249,001	0,021	0,026
-237,103	-200,000	-0,001	-0,081
-236,088	-112,195	0,059	-0,008
-235,073	800,000	-0,046	-0,097
-234,059	369,956	-0,027	0,039
-233,044	800,000	0,021	-0,059
-232,030	-42,674	0,141	0,051
-231,015	132,904	-0,080	-0,074
-230,000	-86,869	-0,076	-0,016
-228,986	-65,358	0,108	0,031
-227,971	-200,000	0,020	0,145
-226,957	95,796	-0,076	0,062
-225,942	-200,000	0,003	-0,048
-224,927	-149,086	0,018	0,001
-223,913	487,983	-0,073	-0,119
-222,898	-137,175	-0,138	-0,011
-221,884	800,000	0,037	0,086
-220,869	142,926	-0,133	0,127
-219,855	-153,550	0,187	-0,009
-218,840	110,073	-0,092	0,079
-217,825	-87,730	-0,050	-0,011
-216,811	-82,843	-0,022	0,005
-215,796	-200,000	-0,104	-0,000
-214,782	-200,000	-0,070	0,000
-213,767	275,880	0,086	0,109
-212,752	-28,151	-0,035	0,015
-211,738	133,938	0,056	-0,052
-210,723	-200,000	-0,006	-0,113
-209,709	-200,000	-0,006	-0,097
-208,694	800,000	0,052	-0,115
-207,679	41,326	-0,093	0,060
-206,665	159,382	0,043	-0,043
-205,650	-49,170	0,068	0,023
-204,636	408,514	-0,037	0,056
-203,621	-3,085	0,069	0,034
-202,606	800,000	0,038	-0,082
-201,592	75,532	-0,101	-0,076
-200,577	-27,347	0,151	-0,062
-199,563	5,483	0,091	-0,048
-198,548	800,000	0,060	0,128
-197,533	-49,028	0,063	0,021
-196,519	-24,235	-0,048	0,020
-195,504	-39,762	0,018	-0,007
-194,490	-200,000	0,004	0,053
-193,475	800,000	0,026	-0,077
-192,460	-200,000	0,039	0,172
-191,446	-177,277	0,019	-0,000
-190,431	800,000	-0,015	0,034
-189,417	52,000	0,083	-0,056
-188,402	-200,000	0,000	-0,090
-187,387	-200,000	0,035	-0,111
-186,373	-200,000	0,026	0,135
-185,358	147,115	-0,086	-0,082
-184,344	-16,238	0,105	-0,047
-183,329	400,416	0,064	0,096
-182,315	480,519	0,060	-0,097
-181,300	-200,000	-0,001	0,113
-180,285	-30,142	-0,049	0,020
-179,271	-200,000	0,001	-0,017
-178,256	284,556	-0,048	-0,061
-177,242	-200,000	0,037	-0,125
-176,227	-107,228	-0,028	0,004
-175,212	-89,245	0,096	-0,020
-174,198	-82,998	0,094	0,021
-173,183	-87,880	-0,151	0,032
-172,169	-146,104	-0,034	-0,002
-171,154	800,000	-0,047	0,117
-170,139	-200,000	-0,015	-0,216
-169,125	-12,703	0,178	-0,083
-168,110	-200,000	0,000	-0,017
-167,096	-60,852	-0,220	0,066
-166,081	334,899	-0,032	-0,044
-165,066	-200,000	0,030	-0,155
-164,052	-63,904	0,040	0,012
-163,037	12,518	0,087	0,048
-162,023	800,000	0,016	-0,045
-161,008	-200,000	-0,003	0,114
-159,993	-40,579	0,085	0,031
-158,979	-200,000	0,004	-0,052
-157,964	-57,698	-0,111	-0,034
-156,950	-13,525	-0,093	0,043
-155,935	-200,000	-0,007	0,127
-154,920	43,207	0,157	-0,102
-153,906	-200,000	0,022	0,097
-152,891	434,193	0,043	-0,067
-151,877	-200,000	-0,013	0,055
-150,862	-176,492	-0,042	0,001
-149,847	56,794	-0,098	-0,068
-148,833	-40,969	-0,119	-0,044
-147,818	800,000	0,030	0,094
-146,804	-200,000	0,007	-0,038
-145,789	139,494	-0,091	0,085
-144,775	195,015	-0,066	0,071
-143,760	41,362	-0,147	0,094
-142,745	-14,802	0,026	0,012
-141,731	-200,000	0,001	0,033
-140,716	-200,000	0,003	0,076
-139,702	-200,000	0,042	0,143
-138,687	-17,482	0,064	0,029
-137,672	-200,000	0,036	0,116
-136,658	552,599	-0,052	-0,089
-135,643	193,872	-0,029	-0,031
-134,629	800,000	-0,051	-0,147
-133,614	-7,402	0,025	-0,012
-132,599	235,419	-0,013	-0,015
-131,585	492,428	-0,007	0,012
-130,570	-150,051	-0,062	-0,003
-129,556	-149,836	-0,036	0,002
-128,541	800,000	-0,019	-0,049
-127,526	87,687	-0,070	0,055
-126,512	-29,420	0,086	0,035
-125,497	106,441	0,111	-0,093
-124,483	800,000	0,033	0,069
-123,468	91,010	0,037	0,030
-122,453	149,905	0,088	-0,085
-121,439	685,021	0,070	-0,130
-120,424	451,562	0,045	-0,071
-119,410	75,341	0,082	-0,061
-118,395	95,573	-0,086	0,069
-117,380	-200,000	0,000	0,039
-116,366	-200,000	-0,031	0,175
-115,351	41,105	0,078	-0,050
-114,337	-200,000	0,003	-0,146
-113,322	-77,693	-0,039	0,010
-112,307	127,714	-0,031	0,028
-111,293	117,344	-0,028	-0,025
-110,278	-45,150	0,047	0,017
-109,264	-200,000	0,013	-0,128
-108,249	97,717	-0,045	-0,037
-107,234	82,119	-0,024	0,018
-106,220	258,640	-0,047	-0,058
-105,205	43,394	0,082	-0,053
-104,191	124,196	0,040	0,035
-103,176	800,000	0,028	0,087
-102,162	145,974	-0,036	0,034
-101,147	173,795	0,058	0,059
-100,132	189,952	0,051	0,054
-99,118	-25,160	-0,140	-0,059
-98,103	-200,000	0,023	0,093
-97,089	-87,300	0,145	0,031
-96,074	-200,000	0,010	0,060
-95,059	312,728	-0,046	-0,061
-94,045	94,149	0,053	-0,043
-93,030	-90,254	-0,113	0,023
-92,016	451,596	-0,029	-0,046
-91,001	-200,000	-0,016	-0,087
-89,986	176,478	-0,011	-0,012
-88,972	144,511	0,115	0,109
-87,957	-200,000	0,007	0,044
-86,943	-156,082	0,099	-0,004
-85,928	-114,428	-0,050	0,007
-84,913	800,000	0,022	0,068
-83,899	-200,000	-0,004	0,062
-82,884	66,340	0,110	0,079
-81,870	123,172	-0,084	0,075
-80,855	421,225	0,046	-0,071
-79,840	222,768	-0,059	-0,068
-78,826	427,568	-0,025	-0,038
-77,811	394,473	0,048	-0,071
-76,797	-139,069	0,105	0,008
-75,782	-122,083	0,090	0,010
-74,767	117,598	0,096	0,084
-73,753	800,000	0,043	-0,089
-72,738	-10,051	-0,084	-0,040
-71,724	133,890	-0,069	0,063
-70,709	641,425	0,050	-0,090
-69,694	226,271	-0,069	0,079
-68,680	800,000	-0,017	-0,033
-67,665	557,674	-0,042	-0,072
-66,651	-25,340	0,136	0,057
-65,636	-82,750	-0,223	0,051
-64,622	98,319	-0,203	-0,165
-63,607	59,366	-0,108	0,075
-62,592	-200,000	-0,004	0,058
-61,578	197,366	0,029	0,032
-60,563	78,159	0,110	-0,083
-59,549	-0,146	-0,082	0,041
-58,534	89,800	-2,342	-1,852
-57,519	653,026	-0,881	-1,609
-56,505	-200,000	-0,355	-4,508
-55,490	585,840	0,955	1,671
-54,476	800,000	5,568	11,964
-53,461	-200,000	24,277	372,349
-52,446	800,000	783,569	2363,643
-51,432	522,177	1673,716	2795,749
-50,417	68,836	1658,692	1205,648
-49,403	17,192	1531,893	858,826
-48,388	11,377	1457,247	788,738
-47,373	21,320	1450,004	832,682
-46,359	14,809	1438,522	794,993
-45,344	9,745	1434,267	768,388
-44,330	9,710	1432,493	767,244
-43,315	9,659	1430,679	765,998
-42,300	9,663	1428,953	765,059
-41,286	9,770	1427,377	764,695
-40,271	9,674	1426,485	763,731
-39,257	9,710	1425,257	763,213
-38,242	9,685	1424,236	762,519
-37,227	9,703	1422,929	761,875
-36,213	9,712	1421,887	761,327
-35,198	9,729	1420,479	760,625
-34,184	9,773	1419,348	760,200
-33,169	9,672	1418,081	759,011
-32,154	9,750	1417,052	758,800
-31,140	9,704	1415,813	757,887
-30,125	9,731	1414,808	757,447
-29,111	9,737	1413,487	756,740
-28,096	9,709	1412,453	756,024
-27,082	9,675	1411,125	755,124
-26,067	9,636	1410,258	754,446
-25,052	9,719	1409,029	754,147
-24,038	9,698	1408,329	753,643
-23,023	9,698	1407,438	753,140
-22,009	9,701	1406,312	752,521
-20,994	9,669	1405,170	751,728
-19,979	9,686	1404,419	751,377
-18,965	9,637	1403,510	750,631
-17,950	9,609	1402,748	750,061
-16,936	9,598	1401,674	749,407
-15,921	9,564	1400,665	748,679
-14,906	9,638	1399,765	748,516
-13,892	9,691	1398,739	748,181
-12,877	9,649	1397,867	747,493
-11,863	9,590	1397,189	746,823
-10,848	9,576	1396,349	746,281
-9,833	9,531	1395,301	745,480
-8,819	9,478	1394,686	744,877
-7,804	9,484	1393,573	744,282
-6,790	9,495	1392,587	743,776
-5,775	9,496	1391,537	743,189
-4,760	9,511	1390,636	742,748
-3,746	9,521	1389,425	742,115
-2,731	9,490	1388,823	741,622
-1,717	9,506	1387,870	741,158
-0,702	9,466	1385,977	739,932
0,313	13,428	1293,588	708,751
1,327	29,078	677,952	406,473
2,342	43,694	115,990	75,042
3,356	1,508	16,465	8,362
4,371	-0,557	3,743	1,875
5,386	-0,156	1,359	0,682
6,400	800,000	0,287	0,764
7,415	85,100	-0,117	-0,091
8,429	147,203	-0,206	-0,196
9,444	178,293	-0,218	-0,226
10,459	88,429	-0,238	-0,187
11,473	-77,298	-0,304	-0,074
12,488	-23,823	-0,137	-0,058
13,502	49,831	-0,201	-0,134
14,517	152,620	-0,254	-0,245
15,531	200,137	-0,332	-0,361
16,546	172,312	-0,218	-0,222
17,561	88,050	-0,326	-0,255
18,575	-58,637	-0,262	-0,080
19,590	3,901	-0,303	-0,156
20,604	-26,436	-0,211	-0,087
21,619	22,326	-0,454	-0,262
22,634	93,621	-0,367	-0,294
23,648	800,000	-0,200	-0,477
24,663	162,038	-0,311	-0,308
25,677	182,565	-0,310	-0,323
26,692	68,376	-0,194	-0,141
27,707	98,868	-0,324	-0,264
28,721	55,706	-0,293	-0,201
29,736	190,170	-0,391	-0,416
30,750	21,415	-0,393	-0,225
31,765	265,633	-0,245	-0,303
32,780	101,471	-0,271	-0,223
33,794	172,629	-0,269	-0,274
34,809	218,306	-0,287	-0,324
35,823	294,976	-0,251	-0,326
36,838	88,701	-0,413	-0,324
37,853	365,621	-0,240	-0,342
38,867	155,332	-0,320	-0,311
39,882	-25,795	-0,516	-0,214
40,896	62,209	-0,398	-0,280
41,911	167,340	-0,206	-0,207
42,926	65,545	-0,312	-0,223
43,940	128,416	-0,469	-0,422
44,955	76,187	-0,434	-0,324
45,969	100,335	-0,243	-0,199
46,984	171,420	-0,272	-0,276
47,999	168,324	-0,278	-0,280
49,013	31,200	-0,288	-0,174
50,028	83,710	-0,418	-0,321
51,042	454,406	-0,230	-0,360
52,057	100,670	-0,301	-0,246
53,071	79,156	-0,344	-0,260
54,086	-200,000	-0,136	-0,452
55,101	50,802	-0,196	-0,130
56,115	56,070	-0,325	-0,222
57,130	104,830	-0,298	-0,247
58,144	83,235	-0,329	-0,252
59,159	45,284	-0,353	-0,229
60,174	104,763	-0,245	-0,203
61,188	174,477	-0,312	-0,318
62,203	800,000	-0,079	-0,239
63,217	13,463	-0,324	-0,177
64,232	-44,671	-0,432	-0,151
65,247	-0,900	-0,256	-0,127
66,261	115,374	-0,242	-0,208
67,276	40,101	-0,462	-0,292
68,290	13,410	-0,241	-0,131
69,305	100,706	-0,215	-0,176
70,320	-0,177	-0,372	-0,186
71,334	19,606	-0,291	-0,164
72,349	-61,695	-0,333	-0,098
73,363	105,184	-0,304	-0,253
74,378	58,404	-0,361	-0,249
75,393	-150,535	-0,215	-0,011
76,407	-2,279	-0,355	-0,174
77,422	-187,088	-0,373	0,004
78,436	-39,413	-0,305	-0,112
79,451	-1,823	-0,338	-0,167
80,466	37,783	-0,213	-0,133
81,480	21,884	-0,394	-0,225
82,495	-56,620	-0,282	-0,087
83,509	76,061	-0,238	-0,177
84,524	-181,843	-0,288	0,004
85,539	14,144	-0,233	-0,128
86,553	271,550	-0,166	-0,206
87,568	69,537	-0,272	-0,197
88,582	4,139	-0,222	-0,114
89,597	129,432	-0,294	-0,264
90,611	-40,766	-0,277	-0,100
91,626	210,687	-0,115	-0,127
92,641	-27,340	-0,350	-0,143
93,655	81,754	-0,250	-0,190
94,670	70,690	-0,318	-0,231
95,684	-36,135	-0,254	-0,096
96,699	800,000	-0,153	-0,354
97,714	331,952	-0,183	-0,249
98,728	-136,653	-0,232	-0,019
99,743	53,636	-0,161	-0,108
100,757	17,480	-0,319	-0,177
101,772	14,774	-0,275	-0,150
102,787	106,960	-0,298	-0,248
103,801	122,800	-0,236	-0,208
104,816	45,828	-0,299	-0,194
105,830	800,000	-0,118	-0,297
106,845	66,807	-0,313	-0,224
107,860	-170,291	-0,234	0,006
108,874	-88,180	-0,209	-0,044
109,889	-40,466	-0,425	-0,154
110,903	2,916	-0,165	-0,084
111,918	-59,673	-0,247	-0,074
112,933	171,820	-0,164	-0,165
113,947	392,313	-0,183	-0,267
114,962	113,660	-0,236	-0,201
115,976	89,696	-0,236	-0,185
116,991	247,993	-0,233	-0,277
118,006	75,937	-0,302	-0,224
119,020	218,542	-0,213	-0,239
120,035	6,813	-0,135	-0,070
121,049	-120,019	-0,213	0,025
122,064	65,928	-0,256	-0,182
123,079	-48,331	-0,388	-0,130
124,093	-41,031	-0,218	-0,079
125,108	9,696	-0,318	-0,168
126,122	177,341	-0,277	-0,283
127,137	800,000	-0,142	-0,276
128,151	72,950	-0,252	-0,184
129,166	29,904	-0,280	-0,167
130,181	25,858	-0,281	-0,164
131,195	123,891	-0,295	-0,260
132,210	29,250	-0,320	-0,190
133,224	189,690	-0,178	-0,187
134,239	193,887	-0,218	-0,231
135,254	172,286	-0,218	-0,220
136,268	-97,835	-0,250	-0,045
137,283	111,859	-0,372	-0,314
138,297	59,561	-0,269	-0,185
139,312	-200,000	-0,070	-0,249
140,327	-37,371	-0,190	-0,071
141,341	211,575	-0,129	-0,142
142,356	-5,538	-0,266	-0,127
143,370	190,162	-0,182	-0,191
144,385	26,060	-0,243	-0,142
145,400	-151,479	-0,184	0,009
146,414	30,939	-0,374	-0,224
147,429	37,711	-0,353	-0,218
148,443	-34,948	-0,264	-0,100
149,458	12,927	-0,299	-0,161
150,473	-196,351	-0,292	-0,001
151,487	170,924	-0,233	-0,234
152,502	46,849	-0,176	-0,114
153,516	3,716	-0,304	-0,154
154,531	21,790	-0,347	-0,197
155,546	-137,073	-0,222	0,017
156,560	357,121	-0,182	-0,254
157,575	-200,000	-0,022	-0,182
158,589	-23,150	-0,286	-0,120
159,604	0,352	-0,258	-0,128
160,619	126,629	-0,272	-0,240
161,633	266,949	-0,297	-0,364
162,648	323,116	-0,149	-0,198
163,662	-113,654	-0,143	-0,019
164,677	253,850	-0,184	-0,220
165,692	251,448	-0,130	-0,155
166,706	91,584	-0,200	-0,157
167,721	19,325	-0,332	-0,186
168,735	56,137	-0,190	-0,128
169,750	-5,699	-0,239	-0,114
170,764	66,150	-0,198	-0,140
171,779	468,045	-0,087	-0,137
172,794	-42,246	-0,193	-0,068
173,808	800,000	-0,068	-0,171
174,823	24,591	-0,343	-0,198
175,837	-47,899	-0,181	-0,061
176,852	251,097	-0,125	-0,149
177,867	42,131	-0,180	-0,114
178,881	51,401	-0,163	-0,108
179,896	23,360	-0,139	-0,080
180,910	109,035	-0,120	-0,100
181,925	-45,367	-0,198	-0,068
182,940	122,960	-0,160	-0,139
183,954	49,741	-0,243	-0,159
184,969	0,158	-0,166	-0,082
185,983	-117,425	-0,223	-0,028
186,998	800,000	-0,096	-0,227
188,013	-143,264	-0,223	-0,015
189,027	-13,742	-0,450	-0,202
190,042	-28,750	-0,395	-0,157
191,056	-46,011	-0,254	-0,087
192,071	13,232	-0,155	-0,083
193,086	105,724	-0,338	-0,278
194,100	100,574	-0,194	-0,157
195,115	-35,531	-0,280	-0,105
196,129	283,011	-0,165	-0,206
197,144	265,917	-0,171	-0,209
198,159	-97,124	-0,277	-0,050
199,173	49,014	-0,114	-0,074
200,188	159,852	-0,120	-0,117
201,202	47,712	-0,268	-0,174
202,217	103,084	-0,215	-0,175
203,232	-18,144	-0,124	-0,054
204,246	478,646	-0,123	-0,195
205,261	658,924	-0,097	-0,175
206,275	-79,419	-0,140	0,033
207,290	66,858	-0,119	-0,084
208,304	72,637	-0,138	-0,100
209,319	-108,860	-0,193	0,028
210,334	185,055	-0,242	-0,250
211,348	-7,087	-0,131	-0,061
212,363	106,743	-0,244	-0,201
213,377	185,376	-0,186	-0,192
214,392	773,413	-0,058	-0,110
215,407	47,124	-0,162	-0,105
216,421	643,106	-0,162	-0,289
217,436	259,870	-0,150	-0,180
218,450	98,507	-0,193	-0,155
219,465	136,365	-0,256	-0,232
220,480	222,998	-0,142	-0,159
221,494	110,976	-0,134	-0,112
222,509	59,870	-0,102	-0,070
223,523	-200,000	-0,096	-0,303
224,538	362,987	-0,169	-0,236
225,553	63,626	-0,201	-0,140
226,567	30,078	-0,159	-0,094
227,582	-143,698	-0,126	-0,008
228,596	123,936	-0,132	0,115
229,611	130,926	-0,064	0,057
230,626	-58,737	-0,119	-0,036
231,640	-45,863	-0,125	-0,043
232,655	-58,641	-0,207	-0,062
233,669	30,498	-0,114	-0,067
234,684	11,743	-0,166	-0,088
235,699	123,743	-0,169	-0,147
236,713	735,170	-0,143	-0,266
237,728	800,000	-0,035	-0,106
238,742	-71,870	-0,166	-0,043
239,757	24,458	-0,230	-0,131
240,772	188,973	-0,175	-0,182
241,786	183,883	-0,177	-0,182
242,801	-57,228	-0,200	-0,061
243,815	232,490	-0,135	-0,154
244,830	-200,000	-0,019	-0,143
245,844	530,448	-0,096	-0,158
246,859	-47,677	-0,232	-0,078
247,874	194,710	-0,183	-0,193
248,888	416,120	-0,184	-0,273
249,903	94,513	-0,158	-0,124
250,917	800,000	-0,078	-0,186
251,932	151,813	-0,177	-0,167
252,947	-73,229	-0,219	-0,055
253,961	-105,746	-0,182	-0,028
254,976	622,200	-0,104	-0,182
255,990	70,622	-0,217	-0,155
257,005	633,331	-0,090	-0,159
258,020	-16,249	-0,200	-0,088
259,034	418,181	-0,076	-0,112
260,049	39,965	-0,183	-0,114
261,063	-96,943	-0,193	0,035
262,078	108,228	-0,298	-0,246
263,093	36,742	-0,211	-0,129
264,107	109,330	-0,136	-0,112
265,122	200,502	-0,112	-0,119
266,136	25,093	-0,124	-0,071
267,151	-56,377	-0,269	-0,082
268,166	11,326	-0,231	-0,122
269,180	-200,000	-0,061	-0,334
270,195	800,000	-0,069	-0,176
271,209	-71,059	-0,146	0,038
272,224	-125,172	-0,150	0,016
273,239	511,855	-0,150	-0,243
274,253	800,000	-0,073	-0,176
275,268	165,967	-0,113	-0,110
276,282	800,000	-0,101	-0,276
277,297	-11,435	-0,277	-0,126
278,312	227,668	-0,147	-0,165
279,326	114,320	-0,089	-0,075
280,341	-84,906	-0,130	0,028
281,355	-200,000	-0,046	-0,168
282,370	-161,318	-0,122	-0,004
283,384	290,523	-0,130	-0,163
284,399	227,780	-0,152	-0,171
285,414	181,056	-0,186	-0,189
286,428	800,000	-0,059	-0,115
287,443	-63,057	-0,148	-0,042
288,457	23,140	-0,178	-0,101
289,472	94,296	-0,193	-0,151
290,487	-144,289	-0,185	0,012
291,501	16,168	-0,175	-0,095
292,516	-58,135	-0,159	-0,048
293,530	216,017	-0,213	-0,234
294,545	4,993	-0,119	-0,060
295,560	55,902	-0,182	-0,122
296,574	160,939	-0,149	-0,144
297,589	561,049	-0,114	-0,191
298,603	72,007	-0,244	-0,175
299,618	-114,816	-0,234	-0,030
300,633	18,194	-0,189	-0,104
301,647	19,076	-0,086	0,047
302,662	-138,391	-0,139	-0,010
303,676	-39,723	-0,129	-0,046
304,691	-200,000	-0,006	-0,209
305,706	112,358	-0,152	-0,126
306,720	141,356	-0,203	-0,186
307,735	-200,000	-0,086	-0,275
308,749	-110,413	-0,257	-0,036
309,764	36,795	-0,108	-0,066
310,779	-200,000	-0,058	-0,250
311,793	186,228	-0,201	-0,207
312,808	-93,290	-0,163	-0,031
313,822	154,153	-0,075	-0,071
314,837	618,018	-0,112	-0,194
315,852	800,000	-0,036	-0,106
316,866	-131,158	-0,118	0,011
317,881	436,836	-0,077	-0,116
318,895	148,979	-0,236	-0,220
319,910	800,000	-0,087	-0,247
320,925	516,015	-0,121	-0,196
321,939	488,618	-0,047	-0,075
322,954	800,000	-0,006	-0,015
323,968	-34,920	-0,177	-0,066
324,983	-0,662	-0,075	-0,037
325,997	449,610	-0,106	-0,161
327,012	46,493	-0,102	-0,065
328,027	-28,423	-0,158	-0,063
329,041	12,706	-0,103	-0,055
330,056	21,343	-0,173	-0,096
331,070	-105,582	-0,203	-0,031
332,085	-18,205	-0,120	0,052
333,100	117,530	-0,216	-0,183
334,114	-98,351	-0,244	-0,043
335,129	95,245	-0,132	-0,104
336,143	477,852	-0,085	-0,133
337,158	411,491	-0,049	-0,072
338,173	357,496	-0,130	-0,179
339,187	7,072	-0,113	-0,058
340,202	247,867	-0,031	0,036
341,216	800,000	-0,067	-0,198
342,231	41,259	-0,140	-0,087
343,246	-129,485	-0,132	-0,012
344,260	162,004	-0,042	-0,040
345,275	23,918	-0,146	0,083
346,289	-65,527	-0,133	0,037
347,304	800,000	-0,094	0,185
348,319	51,219	-0,204	-0,133
349,333	245,048	-0,119	-0,138
350,348	155,353	-0,160	-0,151
351,362	133,465	-0,137	-0,122
352,377	110,856	-0,142	-0,117
353,392	-17,695	-0,210	-0,090
354,406	122,418	-0,089	0,077
355,421	203,950	1309,504	1394,233
356,435	156,746	1469,490	1394,638
