DTS Sentinel unit serial number:	SN410029Multiplexer serial number:	ORYXHardware model number:	OX2-SRSoftware version number:	ORYX F/W v4,00 Oryx Data Collector v3.7.2.0data status	okinstallation	B3 Nyhavnadifferential loss correction	single-endedforward channel	channel 1reverse channel	N/Adate	2023/12/03time	16:32:30forward acquisition time	300,00reverse acquisition time	0,00gamma	499,1914k internal	0,3197k external	0,3197temperature offset calibration	1,0000default loss term (dB/km)	0,3820temperature slope calibration	1,0000multiplexer offset coefficient	1,0000multiplexer slope coefficient	1,0000fibre end	0,00T internal ref (°C)	15,30T ext. ref 1 (°C)	-0,18T ext. ref 2 (°C)	-0,20length (m)	temperature (°C)	Stokes	anti-Stokes-744,400	66,151	-0,334	-0,247
-743,385	-200,000	0,036	0,247
-742,371	-9,233	-0,288	-0,139
-741,356	-200,000	0,043	0,347
-740,342	132,830	-0,203	-0,191
-739,327	-200,000	-0,008	0,493
-738,312	206,683	-0,280	-0,317
-737,298	-200,000	0,018	0,348
-736,283	-13,035	-0,305	-0,144
-735,269	-200,000	0,043	0,336
-734,254	800,000	-0,109	-0,228
-733,239	-200,000	-0,016	0,205
-732,225	800,000	-0,077	-0,235
-731,210	-107,188	0,108	0,017
-730,196	-87,953	-0,138	0,030
-729,181	-200,000	-0,005	-0,167
-728,167	-200,000	-0,031	-0,123
-727,152	478,649	-0,018	-0,030
-726,137	800,000	-0,029	-0,081
-725,123	-200,000	-0,035	-0,137
-724,108	800,000	-0,031	-0,083
-723,094	-200,000	0,012	-0,067
-722,079	125,190	-0,091	-0,084
-721,064	-200,000	-0,003	-0,013
-720,050	164,507	-0,045	0,047
-719,035	-199,399	-0,021	0,000
-718,021	378,661	-0,084	-0,126
-717,006	155,499	-0,060	-0,060
-715,991	-200,000	-0,011	-0,044
-714,977	-6,700	0,067	-0,033
-713,962	-200,000	0,002	-0,029
-712,948	350,684	0,047	0,067
-711,933	800,000	-0,010	-0,028
-710,918	-148,287	-0,198	-0,012
-709,904	-116,440	-0,054	0,007
-708,889	203,340	-0,063	0,071
-707,875	-174,410	-0,082	-0,002
-706,860	-27,692	0,069	-0,029
-705,845	800,000	0,049	0,150
-704,831	-200,000	-0,063	0,217
-703,816	-200,000	-0,008	-0,044
-702,802	40,401	-0,037	0,024
-701,787	-107,940	-0,078	-0,012
-700,772	126,529	-0,137	-0,126
-699,758	-200,000	0,012	0,104
-698,743	-72,189	0,029	0,008
-697,729	-200,000	0,016	0,086
-696,714	175,257	-0,049	0,052
-695,699	800,000	-0,058	0,140
-694,685	-40,650	-0,120	-0,045
-693,670	366,392	-0,012	-0,017
-692,656	-200,000	0,012	0,049
-691,641	127,661	-0,114	-0,105
-690,627	800,000	-0,022	0,060
-689,612	8,131	-0,037	-0,020
-688,597	-200,000	-0,008	-0,132
-687,583	-200,000	-0,016	-0,158
-686,568	-200,000	0,037	-0,225
-685,554	144,129	-0,063	0,061
-684,539	-138,037	-0,141	0,011
-683,524	208,740	0,036	0,041
-682,510	394,854	0,052	0,079
-681,495	-76,063	-0,088	0,022
-680,481	-200,000	-0,008	-0,102
-679,466	160,570	0,110	-0,112
-678,451	-200,000	-0,019	0,106
-677,437	174,946	0,043	-0,045
-676,422	800,000	0,071	0,153
-675,408	316,119	-0,060	-0,082
-674,393	800,000	-0,058	0,149
-673,378	10,025	-0,043	-0,024
-672,364	-161,547	0,116	-0,004
-671,349	20,313	-0,044	-0,026
-670,335	-89,905	-0,108	0,023
-669,320	28,699	0,029	0,018
-668,305	321,679	0,022	0,030
-667,291	-156,708	-0,097	-0,004
-666,276	790,376	-0,039	0,079
-665,262	-28,376	-0,100	-0,042
-664,247	-200,000	0,043	-0,170
-663,232	-200,000	0,024	0,103
-662,218	-133,035	0,041	-0,004
-661,203	664,085	0,062	-0,117
-660,189	64,218	-0,059	-0,043
-659,174	-72,977	-0,123	-0,033
-658,159	-137,456	-0,078	-0,006
-657,145	-51,037	0,102	-0,035
-656,130	800,000	0,020	-0,056
-655,116	800,000	-0,012	-0,033
-654,101	-200,000	0,000	0,033
-653,086	181,659	-0,085	-0,091
-652,072	176,748	0,020	-0,021
-651,057	-37,067	-0,039	0,015
-650,043	60,764	0,053	-0,038
-649,028	159,659	-0,042	0,043
-648,014	800,000	0,023	0,052
-646,999	253,070	0,022	-0,027
-645,984	-37,669	-0,102	0,039
-644,970	-200,000	-0,004	0,066
-643,955	423,619	0,066	-0,103
-642,941	588,575	0,074	-0,133
-641,926	-75,144	-0,106	-0,027
-640,911	-200,000	0,012	0,061
-639,897	498,729	0,041	-0,069
-638,882	800,000	-0,041	-0,120
-637,868	-26,839	0,114	-0,048
-636,853	-120,838	-0,120	-0,015
-635,838	3,281	-0,162	-0,085
-634,824	-200,000	-0,012	-0,047
-633,809	50,336	0,054	0,037
-632,795	-125,612	-0,127	0,014
-631,780	574,731	0,043	0,076
-630,765	-200,000	-0,014	0,077
-629,751	-38,211	0,068	-0,026
-628,736	-90,008	-0,114	0,024
-627,722	-200,000	-0,013	0,232
-626,707	-59,131	-0,067	-0,021
-625,692	-12,863	0,070	0,033
-624,678	-80,201	0,054	-0,013
-623,663	-200,000	0,010	-0,056
-622,649	-200,000	-0,025	-0,093
-621,634	-200,000	-0,027	-0,132
-620,619	449,887	0,032	-0,052
-619,605	-102,541	0,039	-0,007
-618,590	-200,000	-0,018	0,116
-617,576	46,974	-0,034	-0,023
-616,561	156,284	-0,094	-0,094
-615,546	-200,000	-0,035	-0,130
-614,532	-200,000	-0,009	-0,047
-613,517	-200,000	-0,019	0,080
-612,503	-129,819	-0,096	-0,009
-611,488	800,000	0,032	-0,092
-610,474	800,000	0,058	0,138
-609,459	108,877	0,091	-0,079
-608,444	-84,633	-0,166	-0,038
-607,430	-36,896	-0,044	0,017
-606,415	46,029	-0,046	-0,031
-605,401	197,672	-0,099	-0,109
-604,386	-68,624	0,087	0,024
-603,371	525,637	0,028	-0,048
-602,357	371,832	0,090	-0,132
-601,342	94,049	0,062	-0,051
-600,328	-127,155	-0,070	0,007
-599,313	800,000	-0,061	-0,163
-598,298	-76,023	-0,050	0,013
-597,284	257,730	0,048	0,060
-596,269	-200,000	0,027	0,088
-595,255	3,403	-0,060	0,031
-594,240	85,428	0,105	0,084
-593,225	-129,455	-0,019	0,002
-592,211	-96,759	-0,065	-0,012
-591,196	800,000	-0,054	0,151
-590,182	-31,040	-0,012	0,005
-589,167	286,896	0,080	0,105
-588,152	800,000	0,014	0,042
-587,138	334,325	0,024	-0,034
-586,123	-121,362	-0,059	-0,007
-585,109	-79,762	-0,128	-0,031
-584,094	-80,047	0,037	-0,009
-583,079	484,521	0,040	-0,067
-582,065	137,391	-0,095	0,090
-581,050	-200,000	0,021	0,180
-580,036	800,000	-0,047	0,105
-579,021	-29,267	-0,085	-0,035
-578,006	469,049	-0,064	-0,104
-576,992	-100,980	0,087	-0,015
-575,977	178,689	-0,123	-0,131
-574,963	266,429	0,032	-0,040
-573,948	-8,240	0,062	0,030
-572,934	800,000	-0,044	-0,095
-571,919	-200,000	0,018	-0,091
-570,904	-179,886	-0,098	0,001
-569,890	278,558	-0,027	0,035
-568,875	-88,581	0,076	0,016
-567,861	202,553	0,064	-0,071
-566,846	800,000	-0,085	0,200
-565,831	-200,000	-0,021	0,083
-564,817	-8,229	-0,103	-0,050
-563,802	-13,765	0,080	-0,037
-562,788	435,308	0,068	-0,108
-561,773	330,607	0,028	0,039
-560,758	36,056	0,078	0,049
-559,744	-200,000	0,015	0,070
-558,729	-200,000	-0,006	-0,072
-557,715	531,765	-0,031	-0,053
-556,700	-47,951	-0,216	-0,075
-555,685	-24,006	0,108	-0,047
-554,671	455,640	0,036	-0,057
-553,656	-200,000	0,020	0,079
-552,642	155,799	0,040	0,040
-551,627	800,000	0,007	0,019
-550,612	-55,524	0,031	0,010
-549,598	216,602	-0,066	-0,076
-548,583	800,000	0,020	-0,055
-547,569	800,000	0,042	-0,096
-546,554	281,576	0,061	0,079
-545,539	-27,132	-0,100	0,042
-544,525	283,819	0,034	-0,045
-543,510	465,502	-0,037	-0,060
-542,496	800,000	0,022	-0,046
-541,481	367,875	0,089	-0,130
-540,466	-64,908	-0,083	0,024
-539,452	-97,037	0,092	0,017
-538,437	400,226	0,051	0,077
-537,423	-102,488	-0,014	0,002
-536,408	800,000	-0,060	-0,148
-535,393	68,324	-0,168	-0,124
-534,379	-26,656	-0,058	-0,025
-533,364	190,685	-0,031	0,034
-532,350	800,000	-0,007	-0,016
-531,335	-13,427	0,113	0,053
-530,321	800,000	-0,054	0,170
-529,306	-68,759	-0,073	-0,020
-528,291	-93,517	-0,029	-0,006
-527,277	518,115	-0,078	0,132
-526,262	-86,758	0,119	0,026
-525,248	104,862	0,074	0,063
-524,233	-200,000	-0,017	0,091
-523,218	800,000	-0,030	0,067
-522,204	800,000	-0,021	0,057
-521,189	-8,726	0,030	-0,014
-520,175	-77,620	-0,028	-0,007
-519,160	-26,702	0,098	-0,041
-518,145	-200,000	0,028	-0,105
-517,131	-200,000	0,018	-0,111
-516,116	-200,000	0,004	0,026
-515,102	-163,879	0,067	0,002
-514,087	-45,472	-0,139	0,049
-513,072	-200,000	0,002	-0,015
-512,058	11,817	0,068	0,038
-511,043	-108,935	0,036	-0,005
-510,029	123,387	0,147	-0,133
-509,014	460,379	0,020	-0,033
-507,999	8,968	-0,098	-0,053
-506,985	-127,626	0,026	0,003
-505,970	-2,504	-0,052	-0,026
-504,956	800,000	0,036	-0,081
-503,941	800,000	0,060	-0,126
-502,926	-200,000	0,024	-0,188
-501,912	196,840	-0,052	0,057
-500,897	-81,992	0,137	0,032
-499,883	111,910	-0,062	0,054
-498,868	800,000	0,009	0,020
-497,853	-148,247	-0,095	-0,006
-496,839	-107,329	-0,150	-0,024
-495,824	753,239	0,041	0,081
-494,810	238,633	0,088	-0,106
-493,795	800,000	0,025	-0,079
-492,781	-100,398	-0,147	-0,026
-491,766	229,722	0,037	0,043
-490,751	154,722	0,055	0,054
-489,737	-75,865	-0,047	-0,012
-488,722	800,000	0,042	-0,101
-487,708	-200,000	-0,008	0,061
-486,693	32,889	-0,054	-0,034
-485,678	-200,000	-0,007	0,037
-484,664	37,311	0,128	0,081
-483,649	-200,000	-0,027	-0,085
-482,635	25,193	0,086	0,051
-481,620	-37,675	0,097	-0,037
-480,605	-200,000	-0,005	-0,150
-479,591	-84,143	0,098	-0,022
-478,576	-27,534	0,072	-0,030
-477,562	-200,000	0,004	-0,024
-476,547	-200,000	0,018	-0,118
-475,532	82,670	0,047	-0,037
-474,518	-200,000	0,009	0,037
-473,503	-78,139	-0,034	0,008
-472,489	163,731	0,034	0,034
-471,474	774,944	-0,026	-0,051
-470,459	800,000	-0,009	0,022
-469,445	318,852	-0,091	-0,125
-468,430	-98,119	0,113	-0,021
-467,416	-200,000	-0,008	0,046
-466,401	50,179	0,068	0,046
-465,386	-109,812	-0,041	0,006
-464,372	163,620	0,074	0,075
-463,357	372,524	-0,080	-0,117
-462,343	84,242	-0,063	-0,050
-461,328	-40,969	0,087	-0,032
-460,313	-200,000	0,015	0,120
-459,299	80,843	0,010	-0,008
-458,284	-106,788	-0,125	0,020
-457,270	-126,817	0,142	-0,015
-456,255	70,568	-0,008	0,006
-455,241	191,300	-0,074	0,081
-454,226	132,885	0,091	0,085
-453,211	1,456	0,025	0,013
-452,197	269,838	-0,048	-0,061
-451,182	-200,000	0,010	0,156
-450,168	222,339	-0,064	0,074
-449,153	-200,000	-0,016	0,146
-448,138	-200,000	-0,002	-0,028
-447,124	-75,917	0,084	-0,021
-446,109	-56,948	-0,053	0,017
-445,095	554,870	0,037	0,063
-444,080	210,162	-0,073	0,083
-443,065	28,248	-0,055	-0,033
-442,051	179,881	0,050	-0,053
-441,036	-15,772	-0,082	-0,037
-440,022	-1,047	-0,034	0,017
-439,007	-153,179	0,090	-0,004
-437,992	-59,029	0,069	0,021
-436,978	-200,000	0,019	0,151
-435,963	97,569	-0,109	0,090
-434,949	-128,027	0,025	0,003
-433,934	68,625	-0,050	0,037
-432,919	-200,000	-0,004	0,023
-431,905	800,000	0,019	0,046
-430,890	616,110	-0,025	0,045
-429,876	101,282	-0,030	0,025
-428,861	-31,545	-0,120	0,048
-427,846	193,883	0,061	-0,066
-426,832	-80,798	0,025	-0,006
-425,817	800,000	0,029	0,064
-424,803	11,601	-0,142	-0,078
-423,788	-200,000	0,006	0,156
-422,773	-73,458	0,045	0,012
-421,759	-99,422	0,097	0,017
-420,744	212,827	0,039	0,044
-419,730	170,927	0,040	0,041
-418,715	-200,000	0,011	-0,042
-417,701	-200,000	0,001	-0,061
-416,686	1,766	-0,034	0,018
-415,671	-200,000	-0,012	0,080
-414,657	800,000	0,035	0,082
-413,642	800,000	0,020	0,051
-412,628	-200,000	0,013	-0,059
-411,613	-39,318	-0,076	0,029
-410,598	-200,000	0,019	-0,122
-409,584	-200,000	0,015	0,051
-408,569	-12,025	-0,080	0,037
-407,555	-7,014	0,067	0,032
-406,540	37,137	0,085	-0,054
-405,525	-200,000	-0,005	0,066
-404,511	207,815	0,007	-0,008
-403,496	68,804	-0,025	-0,019
-402,482	121,831	0,022	-0,019
-401,467	70,895	-0,050	-0,037
-400,452	-200,000	-0,002	0,147
-399,438	273,496	0,049	0,063
-398,423	800,000	-0,024	-0,061
-397,409	-26,543	-0,160	0,067
-396,394	-48,494	-0,027	-0,009
-395,379	-200,000	0,023	-0,142
-394,365	67,804	0,172	0,126
-393,350	74,309	-0,134	0,101
-392,336	290,365	0,033	0,043
-391,321	40,596	0,034	0,022
-390,306	92,036	0,076	0,061
-389,292	800,000	-0,038	-0,103
-388,277	800,000	-0,051	-0,160
-387,263	226,278	0,055	0,064
-386,248	396,881	0,091	0,137
-385,233	143,104	-0,063	0,060
-384,219	272,607	0,013	0,017
-383,204	122,610	-0,075	-0,067
-382,190	-157,919	-0,134	0,006
-381,175	-103,027	0,075	0,013
-380,160	329,574	0,048	-0,067
-379,146	366,639	-0,092	0,134
-378,131	-200,000	-0,024	0,108
-377,117	92,626	0,098	-0,080
-376,102	-13,439	-0,151	-0,070
-375,088	5,327	-0,068	-0,036
-374,073	-200,000	0,038	0,190
-373,058	-200,000	0,019	0,133
-372,044	800,000	-0,009	-0,018
-371,029	3,976	0,035	0,018
-370,015	-200,000	0,014	0,100
-369,000	-140,881	0,171	0,012
-367,985	-55,693	-0,040	0,013
-366,971	627,391	-0,083	-0,150
-365,956	-126,670	0,107	0,011
-364,942	486,746	-0,048	0,079
-363,927	22,764	0,082	0,048
-362,912	-137,942	0,126	0,010
-361,898	66,149	-0,074	-0,054
-360,883	409,950	-0,076	-0,116
-359,869	-200,000	-0,029	-0,143
-358,854	-200,000	0,018	-0,059
-357,839	-200,000	-0,005	-0,075
-356,825	53,497	0,082	-0,056
-355,810	117,294	0,023	-0,020
-354,796	551,810	0,074	-0,128
-353,781	-53,514	0,060	0,019
-352,766	-114,295	0,055	0,007
-351,752	489,345	0,026	0,043
-350,737	51,018	0,109	0,074
-349,723	149,138	-0,197	0,191
-348,708	114,924	0,043	-0,038
-347,693	15,303	0,053	-0,030
-346,679	800,000	0,054	-0,117
-345,664	196,748	0,059	-0,064
-344,650	-83,721	-0,035	-0,008
-343,635	-94,131	0,101	-0,020
-342,620	-65,158	0,148	-0,043
-341,606	92,939	0,050	0,040
-340,591	-153,226	0,054	-0,003
-339,577	60,176	0,140	0,099
-338,562	-200,000	-0,023	0,072
-337,548	125,136	-0,040	0,036
-336,533	-65,432	-0,135	-0,039
-335,518	-200,000	-0,013	0,066
-334,504	-10,421	0,091	0,043
-333,489	-143,913	0,039	-0,003
-332,475	-123,265	0,035	0,004
-331,460	91,444	-0,034	-0,027
-330,445	-200,000	0,028	-0,097
-329,431	800,000	0,025	0,051
-328,416	-66,381	-0,041	0,011
-327,402	309,930	-0,059	0,080
-326,387	-200,000	0,008	-0,099
-325,372	-200,000	0,005	0,050
-324,358	53,226	0,134	-0,092
-323,343	58,169	0,086	-0,060
-322,329	-200,000	-0,046	0,180
-321,314	-124,958	0,167	-0,018
-320,299	204,998	-0,084	0,094
-319,285	588,273	0,066	-0,117
-318,270	800,000	0,033	-0,076
-317,256	541,404	0,021	0,036
-316,241	107,058	-0,066	-0,056
-315,226	-127,325	0,128	-0,013
-314,212	-89,542	0,051	0,011
-313,197	-200,000	-0,052	0,200
-312,183	388,207	-0,064	-0,095
-311,168	-200,000	-0,006	-0,073
-310,153	-200,000	0,003	-0,026
-309,139	395,737	0,055	-0,083
-308,124	800,000	-0,007	0,014
-307,110	-140,034	-0,107	0,008
-306,095	114,661	-0,084	0,073
-305,080	-200,000	0,004	0,019
-304,066	-171,068	0,039	-0,001
-303,051	-200,000	-0,013	-0,114
-302,037	76,202	-0,072	-0,054
-301,022	-65,994	0,077	-0,022
-300,008	134,996	0,132	0,123
-298,993	567,704	-0,034	0,059
-297,978	296,763	-0,021	-0,027
-296,964	-200,000	0,005	0,080
-295,949	68,704	-0,064	-0,047
-294,935	762,549	-0,056	0,109
-293,920	411,551	0,006	-0,009
-292,905	241,564	0,067	0,080
-291,891	-200,000	0,012	0,049
-290,876	-61,577	0,038	0,011
-289,862	-200,000	-0,021	-0,094
-288,847	-7,763	-0,089	0,043
-287,832	-200,000	0,015	-0,129
-286,818	421,340	-0,092	-0,141
-285,803	-158,248	0,112	-0,005
-284,789	-88,691	0,061	0,013
-283,774	113,592	0,072	-0,062
-282,759	-200,000	0,022	-0,082
-281,745	-92,874	0,077	-0,015
-280,730	-35,681	-0,120	-0,046
-279,716	525,727	0,045	0,076
-278,701	-97,859	0,139	0,025
-277,686	-200,000	-0,018	0,081
-276,672	162,411	-0,114	0,115
-275,657	21,561	0,043	-0,025
-274,643	-200,000	-0,001	0,046
-273,628	-5,375	-0,142	-0,069
-272,613	-200,000	0,010	-0,128
-271,599	-59,680	0,153	0,047
-270,584	-200,000	0,003	-0,096
-269,570	494,617	0,058	-0,096
-268,555	24,309	-0,040	-0,023
-267,540	800,000	0,042	-0,120
-266,526	666,239	-0,021	0,039
-265,511	-39,531	-0,095	-0,035
-264,497	69,537	0,055	-0,040
-263,482	-90,283	-0,092	-0,019
-262,467	-22,294	0,035	0,015
-261,453	-200,000	0,004	0,043
-260,438	-114,018	-0,071	-0,010
-259,424	-145,979	-0,039	0,002
-258,409	800,000	-0,045	-0,120
-257,395	16,969	0,136	0,077
-256,380	-200,000	0,017	0,143
-255,365	150,857	-0,164	0,159
-254,351	-130,913	-0,066	-0,006
-253,336	108,075	-0,041	0,035
-252,322	-48,688	0,027	-0,009
-251,307	-200,000	0,017	-0,083
-250,292	46,597	-0,025	-0,016
-249,278	800,000	-0,052	0,150
-248,263	21,786	0,156	0,090
-247,249	56,337	-0,108	0,075
-246,234	-95,827	-0,088	0,017
-245,219	-41,609	-0,004	-0,001
-244,205	-200,000	-0,024	-0,155
-243,190	76,675	-0,059	-0,045
-242,176	-200,000	-0,024	0,082
-241,161	30,889	0,110	0,067
-240,146	127,921	-0,084	0,076
-239,132	-20,629	0,022	0,010
-238,117	800,000	-0,044	-0,086
-237,103	-200,000	-0,010	-0,076
-236,088	-200,000	0,009	-0,036
-235,073	800,000	0,010	0,022
-234,059	-2,956	-0,092	-0,046
-233,044	-9,647	-0,100	0,048
-232,030	24,711	0,029	-0,017
-231,015	289,093	0,042	0,055
-230,000	-49,271	-0,056	-0,019
-228,986	173,465	0,028	-0,028
-227,971	136,584	-0,048	0,045
-226,957	-64,442	-0,041	0,012
-225,942	1,772	0,135	-0,069
-224,927	-55,455	-0,037	0,012
-223,913	-200,000	-0,014	-0,168
-222,898	135,593	-0,128	-0,119
-221,884	-120,377	-0,063	0,008
-220,869	-200,000	0,006	0,079
-219,855	-68,749	0,178	-0,049
-218,840	-132,917	0,056	-0,005
-217,825	-200,000	0,001	-0,010
-216,811	-200,000	0,030	-0,139
-215,796	348,618	-0,055	-0,078
-214,782	-62,581	-0,025	0,007
-213,767	127,011	-0,061	-0,055
-212,752	-200,000	0,007	0,057
-211,738	-200,000	0,001	0,024
-210,723	-90,586	-0,096	0,020
-209,709	668,799	0,012	-0,021
-208,694	203,668	-0,118	-0,131
-207,679	60,954	0,141	-0,100
-206,665	-6,393	-0,070	-0,034
-205,650	-200,000	-0,002	0,061
-204,636	133,200	0,109	0,101
-203,621	-137,984	-0,107	0,008
-202,606	40,561	-0,069	0,044
-201,592	-95,844	-0,022	-0,004
-200,577	-200,000	0,005	-0,048
-199,563	88,369	0,055	-0,044
-198,548	571,542	0,076	0,133
-197,533	62,556	0,063	0,045
-196,519	552,058	0,008	0,013
-195,504	-200,000	-0,056	-0,179
-194,490	758,326	-0,064	-0,124
-193,475	-200,000	-0,001	0,182
-192,460	457,396	-0,026	0,041
-191,446	-200,000	-0,010	0,043
-190,431	480,826	0,074	0,119
-189,417	-127,389	-0,078	-0,008
-188,402	102,231	-0,116	0,096
-187,387	233,514	0,045	0,053
-186,373	800,000	-0,061	-0,125
-185,358	-155,080	-0,037	0,002
-184,344	-200,000	0,014	0,129
-183,329	237,405	-0,079	0,093
-182,315	-13,093	0,053	0,024
-181,300	136,541	0,070	0,065
-180,285	-200,000	0,004	-0,031
-179,271	-9,485	-0,048	-0,023
-178,256	281,719	-0,045	-0,058
-177,242	-200,000	0,005	-0,142
-176,227	28,385	0,062	0,037
-175,212	-200,000	-0,062	0,213
-174,198	12,727	-0,112	0,061
-173,183	-200,000	-0,003	0,046
-172,169	395,762	0,044	0,065
-171,154	-39,496	-0,022	0,008
-170,139	42,828	0,133	0,086
-169,125	6,051	0,103	-0,054
-168,110	-107,649	-0,069	0,011
-167,096	800,000	-0,026	0,054
-166,081	-200,000	0,046	0,170
-165,066	-145,082	-0,149	0,009
-164,052	-102,807	-0,056	0,009
-163,037	800,000	-0,030	0,089
-162,023	465,882	0,060	-0,095
-161,008	-118,552	0,117	-0,015
-159,993	73,585	0,037	-0,027
-158,979	-107,860	0,057	-0,009
-157,964	-200,000	-0,049	-0,157
-156,950	-200,000	0,021	-0,131
-155,935	-117,152	0,011	0,001
-154,920	-200,000	-0,009	-0,040
-153,906	-130,893	0,154	0,015
-152,891	800,000	-0,020	0,045
-151,877	-200,000	-0,001	-0,097
-150,862	-121,458	-0,147	-0,017
-149,847	-99,450	-0,156	-0,028
-148,833	-200,000	0,008	-0,043
-147,818	-138,649	0,074	-0,006
-146,804	55,172	-0,072	-0,049
-145,789	-39,333	0,060	0,022
-144,775	615,413	0,022	-0,039
-143,760	-84,291	0,006	-0,001
-142,745	-36,707	0,069	0,026
-141,731	-200,000	-0,004	0,185
-140,716	-200,000	-0,021	-0,107
-139,702	-200,000	0,012	0,107
-138,687	-10,274	-0,050	0,023
-137,672	-81,697	-0,069	0,016
-136,658	187,510	-0,064	0,068
-135,643	-39,496	-0,160	-0,059
-134,629	94,949	0,104	0,084
-133,614	-200,000	0,007	0,021
-132,599	-200,000	0,016	0,081
-131,585	-200,000	-0,050	0,000
-130,570	103,108	0,131	-0,109
-129,556	12,937	-0,114	-0,063
-128,541	13,412	-0,195	0,107
-127,526	800,000	-0,065	-0,177
-126,512	-200,000	-0,035	0,176
-125,497	151,008	-0,019	0,018
-124,483	-42,229	-0,059	-0,021
-123,468	-184,952	0,103	0,001
-122,453	-200,000	0,002	0,015
-121,439	437,545	0,120	-0,186
-120,424	-75,300	0,096	0,024
-119,410	98,754	-0,102	-0,084
-118,395	800,000	0,014	0,034
-117,380	-200,000	-0,027	0,098
-116,366	-68,418	0,068	0,019
-115,351	211,192	-0,079	-0,089
-114,337	-39,851	-0,074	-0,027
-113,322	-200,000	0,016	-0,054
-112,307	7,985	-0,011	-0,006
-111,293	-87,473	-0,011	-0,002
-110,278	-200,000	0,013	0,061
-109,264	-20,831	0,074	-0,032
-108,249	-200,000	-0,016	0,054
-107,234	800,000	0,047	0,120
-106,220	-77,570	0,052	0,013
-105,205	59,852	0,065	-0,046
-104,191	141,125	-0,106	0,100
-103,176	566,087	0,072	0,125
-102,162	66,675	-0,069	-0,049
-101,147	-121,210	-0,093	-0,011
-100,132	-89,474	-0,048	0,010
-99,118	800,000	-0,042	-0,109
-98,103	800,000	-0,008	0,018
-97,089	199,933	0,073	0,080
-96,074	615,538	0,046	-0,081
-95,059	117,549	-0,071	-0,062
-94,045	-56,099	-0,065	-0,020
-93,030	800,000	-0,035	-0,088
-92,016	-162,496	-0,115	0,004
-91,001	508,400	0,086	0,143
-89,986	800,000	0,020	0,041
-88,972	-177,422	0,130	-0,002
-87,957	-85,198	0,014	-0,003
-86,943	-84,371	-0,125	0,028
-85,928	-200,000	-0,025	0,085
-84,913	135,578	-0,106	0,098
-83,899	266,164	-0,049	0,061
-82,884	-200,000	0,023	0,110
-81,870	-200,000	-0,018	0,158
-80,855	800,000	-0,055	0,124
-79,840	-135,906	0,008	-0,001
-78,826	800,000	-0,034	-0,100
-77,811	-15,802	-0,075	0,034
-76,797	-139,611	0,161	0,012
-75,782	-73,015	-0,126	0,032
-74,767	-185,330	0,188	-0,002
-73,753	47,195	-0,123	-0,081
-72,738	-145,363	-0,056	-0,004
-71,724	800,000	-0,007	0,019
-70,709	800,000	-0,032	0,100
-69,694	-200,000	-0,006	0,073
-68,680	200,531	0,014	0,015
-67,665	-4,541	0,130	0,064
-66,651	-91,045	-0,008	-0,002
-65,636	17,300	0,024	0,014
-64,622	-113,859	-0,064	0,009
-63,607	800,000	-0,018	0,043
-62,592	800,000	-0,038	-0,095
-61,578	-4,102	-0,044	0,022
-60,563	-144,362	0,102	-0,007
-59,549	-200,000	0,046	0,177
-58,534	-63,310	-1,636	-0,474
-57,519	429,866	-1,398	-2,150
-56,505	-200,000	-0,504	-4,366
-55,490	236,665	0,936	1,100
-54,476	800,000	4,603	10,876
-53,461	-200,000	18,140	285,683
-52,446	800,000	726,397	2224,800
-51,432	555,976	1641,555	2813,253
-50,417	79,694	1663,661	1264,885
-49,403	23,140	1537,672	892,394
-48,388	17,182	1460,952	819,020
-47,373	17,971	1450,962	817,187
-46,359	17,445	1441,386	809,247
-45,344	15,426	1436,648	796,917
-44,330	15,303	1435,128	795,457
-43,315	15,373	1433,040	794,600
-42,300	15,363	1431,422	793,624
-41,286	15,426	1430,296	793,271
-40,271	15,368	1428,987	792,234
-39,257	15,353	1427,799	791,475
-38,242	15,389	1426,640	790,973
-37,227	15,394	1425,361	790,256
-36,213	15,440	1423,868	789,615
-35,198	15,384	1422,917	788,791
-34,184	15,445	1421,760	788,404
-33,169	15,360	1420,646	787,355
-32,154	15,417	1419,618	787,023
-31,140	15,450	1418,297	786,416
-30,125	15,464	1417,069	785,768
-29,111	15,470	1415,811	785,069
-28,096	15,412	1414,771	784,190
-27,082	15,371	1413,760	783,403
-26,067	15,311	1412,710	782,508
-25,052	15,404	1411,462	782,222
-24,038	15,333	1410,560	781,358
-23,023	15,307	1409,700	780,728
-22,009	15,294	1408,567	780,009
-20,994	15,256	1407,942	779,453
-19,979	15,250	1406,818	778,775
-18,965	15,236	1405,835	778,134
-17,950	15,267	1404,874	777,714
-16,936	15,232	1403,869	776,964
-15,921	15,265	1402,637	776,408
-14,906	15,216	1401,983	775,787
-13,892	15,292	1400,966	775,545
-12,877	15,229	1400,040	774,709
-11,863	15,230	1399,070	774,147
-10,848	15,188	1398,357	773,528
-9,833	15,185	1397,318	772,909
-8,819	15,185	1396,220	772,267
-7,804	15,158	1395,321	771,615
-6,790	15,139	1394,505	771,048
-5,775	15,117	1393,298	770,246
-4,760	15,146	1392,394	769,849
-3,746	15,131	1391,805	769,425
-2,731	15,132	1390,919	768,909
-1,717	15,111	1389,995	768,272
-0,702	15,136	1388,088	767,302
0,313	18,984	1307,745	740,687
1,327	35,404	707,151	438,609
2,342	54,197	124,991	85,063
3,356	3,385	16,646	8,560
4,371	5,063	3,183	1,655
5,386	10,000	0,557	0,299
6,400	800,000	-0,088	0,191
7,415	386,527	-0,205	-0,301
8,429	38,640	-0,281	-0,177
9,444	134,210	-0,341	-0,313
10,459	-11,531	-0,339	-0,157
11,473	-19,825	-0,356	-0,155
12,488	-103,347	-0,343	-0,057
13,502	140,485	-0,247	-0,231
14,517	-122,687	-0,340	-0,039
15,531	136,645	-0,345	-0,319
16,546	39,015	-0,409	-0,258
17,561	142,025	-0,303	-0,284
18,575	-157,650	-0,241	0,010
19,590	444,349	-0,173	-0,270
20,604	-81,328	-0,387	-0,089
21,619	77,565	-0,430	-0,323
22,634	4,002	-0,422	-0,217
23,648	436,383	-0,266	-0,410
24,663	186,419	-0,359	-0,378
25,677	245,365	-0,320	-0,382
26,692	-20,745	-0,367	-0,158
27,707	102,032	-0,259	-0,213
28,721	3,746	-0,446	-0,229
29,736	126,232	-0,383	-0,343
30,750	57,168	-0,464	-0,319
31,765	338,962	-0,265	-0,366
32,780	111,393	-0,366	-0,312
33,794	-42,463	-0,353	-0,127
34,809	88,425	-0,342	-0,268
35,823	44,146	-0,219	-0,141
36,838	182,971	-0,359	-0,374
37,853	125,980	-0,356	-0,318
38,867	79,648	-0,520	-0,394
39,882	102,286	-0,354	-0,292
40,896	-48,766	-0,343	-0,116
41,911	-5,050	-0,339	-0,164
42,926	127,390	-0,387	-0,347
43,940	49,046	-0,325	-0,215
44,955	40,821	-0,253	-0,161
45,969	-44,478	-0,382	-0,134
46,984	115,904	-0,346	-0,299
47,999	-47,057	-0,337	-0,115
49,013	45,225	-0,250	-0,162
50,028	55,513	-0,338	-0,230
51,042	107,858	-0,306	-0,257
52,057	-0,942	-0,403	-0,200
53,071	340,941	-0,265	-0,366
54,086	141,512	-0,238	-0,222
55,101	12,998	-0,381	-0,207
56,115	117,414	-0,383	-0,332
57,130	107,226	-0,338	-0,283
58,144	100,857	-0,333	-0,273
59,159	130,552	-0,381	-0,344
60,174	59,138	-0,301	-0,209
61,188	-19,690	-0,324	-0,141
62,203	19,323	-0,314	-0,177
63,217	166,945	-0,303	-0,303
64,232	49,876	-0,261	-0,173
65,247	151,528	-0,348	-0,334
66,261	218,546	-0,292	-0,329
67,276	-43,603	-0,359	-0,127
68,290	172,715	-0,380	-0,386
69,305	4,074	-0,437	-0,224
70,320	132,262	-0,266	-0,241
71,334	-41,903	-0,343	-0,123
72,349	129,958	-0,252	-0,227
73,363	142,659	-0,298	-0,279
74,378	45,246	-0,468	-0,303
75,393	-19,594	-0,477	-0,207
76,407	35,943	-0,262	-0,162
77,422	121,503	-0,273	-0,239
78,436	74,490	-0,246	-0,182
79,451	-14,123	-0,300	-0,136
80,466	26,396	-0,306	-0,180
81,480	-29,936	-0,233	-0,093
82,495	25,937	-0,367	-0,215
83,509	63,548	-0,347	-0,245
84,524	84,695	-0,291	-0,224
85,539	-39,453	-0,361	-0,132
86,553	-2,689	-0,342	-0,168
87,568	137,777	-0,276	-0,255
88,582	19,797	-0,294	-0,166
89,597	140,401	-0,359	-0,333
90,611	110,836	-0,222	-0,188
91,626	59,546	-0,195	-0,135
92,641	-116,551	-0,291	-0,037
93,655	-145,095	-0,263	0,017
94,670	69,289	-0,280	-0,202
95,684	130,782	-0,254	-0,229
96,699	285,229	-0,254	-0,322
97,714	389,031	-0,143	-0,208
98,728	-128,601	-0,228	-0,022
99,743	21,199	-0,317	-0,180
100,757	4,504	-0,319	-0,164
101,772	-7,638	-0,241	-0,114
102,787	153,477	-0,261	-0,251
103,801	295,302	-0,256	-0,330
104,816	181,033	-0,236	-0,243
105,830	4,647	-0,300	-0,154
106,845	-37,322	-0,263	-0,098
107,860	-53,917	-0,229	-0,073
108,874	129,373	-0,268	-0,240
109,889	32,072	-0,370	-0,223
110,903	-24,080	-0,346	-0,145
111,918	93,617	-0,260	-0,207
112,933	251,547	-0,096	-0,115
113,947	19,152	-0,292	-0,164
114,962	259,775	-0,157	-0,191
115,976	441,796	-0,201	-0,310
116,991	16,558	-0,390	-0,216
118,006	469,838	-0,154	-0,244
119,020	632,025	-0,190	-0,339
120,035	75,961	-0,214	-0,159
121,049	156,021	-0,123	-0,119
122,064	371,614	-0,187	-0,267
123,079	-23,605	-0,266	-0,111
124,093	2,906	-0,331	-0,168
125,108	164,302	-0,212	-0,209
126,122	274,491	-0,208	-0,259
127,137	181,137	-0,170	-0,175
128,151	31,386	-0,227	-0,137
129,166	90,436	-0,207	-0,162
130,181	35,505	-0,244	-0,150
131,195	142,473	-0,341	-0,317
132,210	532,805	-0,271	-0,451
133,224	-65,482	-0,395	-0,110
134,239	107,244	-0,242	-0,201
135,254	-186,288	-0,255	-0,003
136,268	332,421	-0,115	-0,156
137,283	55,911	-0,390	-0,265
138,297	327,468	-0,118	-0,159
139,312	45,119	-0,374	-0,241
140,327	-9,893	-0,288	-0,134
141,341	-129,297	-0,203	-0,019
142,356	532,244	-0,097	-0,161
143,370	103,798	-0,226	-0,185
144,385	96,653	-0,324	-0,260
145,400	456,043	-0,166	-0,258
146,414	25,957	-0,344	-0,200
147,429	-3,215	-0,216	-0,105
148,443	41,701	-0,380	-0,240
149,458	-10,488	-0,289	-0,133
150,473	-62,850	-0,272	-0,078
151,487	134,375	-0,241	-0,218
152,502	53,797	-0,200	-0,134
153,516	128,581	-0,168	-0,150
154,531	235,036	-0,282	-0,326
155,546	273,588	-0,183	-0,226
156,560	30,623	-0,250	-0,149
157,575	52,644	-0,228	-0,152
158,589	36,234	-0,225	-0,139
159,604	88,090	-0,197	-0,152
160,619	78,607	-0,362	-0,270
161,633	171,924	-0,179	-0,179
162,648	-56,846	-0,288	-0,088
163,662	312,956	-0,151	-0,199
164,677	525,203	-0,116	-0,192
165,692	114,561	-0,232	-0,197
166,706	-59,267	-0,241	-0,072
167,721	-16,620	-0,239	-0,105
168,735	-24,240	-0,307	-0,127
169,750	19,188	-0,286	-0,160
170,764	82,360	-0,211	-0,159
171,779	90,054	-0,200	-0,156
172,794	111,478	-0,233	-0,196
173,808	42,002	-0,176	-0,111
174,823	0,477	-0,299	-0,149
175,837	106,935	-0,326	-0,270
176,852	-3,607	-0,312	-0,151
177,867	800,000	-0,155	-0,326
178,881	146,664	-0,248	-0,232
179,896	-105,317	-0,157	0,025
180,910	-72,470	-0,228	-0,058
181,925	692,640	-0,095	-0,174
182,940	32,115	-0,304	-0,182
183,954	34,709	-0,247	-0,150
184,969	134,953	-0,245	-0,222
185,983	-200,000	-0,057	-0,231
186,998	19,071	-0,165	-0,092
188,013	117,312	-0,208	-0,179
189,027	46,996	-0,244	-0,158
190,042	-0,795	-0,347	-0,171
191,056	232,713	-0,213	-0,244
192,071	134,668	-0,307	-0,277
193,086	31,951	-0,224	-0,134
194,100	111,263	-0,132	-0,111
195,115	-137,688	-0,222	-0,017
196,129	10,983	-0,250	-0,133
197,144	641,370	-0,093	-0,165
198,159	-36,321	-0,374	-0,140
199,173	61,983	-0,220	-0,153
200,188	-200,000	-0,046	-0,210
201,202	75,945	-0,098	-0,072
202,217	75,480	-0,210	-0,154
203,232	111,397	-0,202	-0,170
204,246	85,734	-0,240	-0,183
205,261	-149,188	-0,194	0,011
206,275	196,148	-0,175	-0,186
207,290	800,000	-0,125	-0,259
208,304	800,000	-0,065	-0,148
209,319	75,862	-0,338	-0,249
210,334	40,995	-0,117	-0,073
211,348	173,810	-0,198	-0,199
212,363	214,808	-0,265	-0,292
213,377	16,428	-0,165	-0,090
214,392	67,496	-0,148	-0,105
215,407	178,308	-0,170	-0,173
216,421	-154,308	-0,301	-0,014
217,436	-184,212	-0,227	-0,003
218,450	156,900	-0,146	-0,140
219,465	30,802	-0,218	-0,129
220,480	327,829	-0,143	-0,191
221,494	325,609	-0,127	-0,169
222,509	-33,353	-0,229	-0,088
223,523	207,985	-0,099	-0,108
224,538	-79,219	-0,168	-0,039
225,553	-16,355	-0,233	-0,102
226,567	56,625	-0,280	-0,189
227,582	28,193	-0,165	-0,096
228,596	438,715	-0,140	-0,213
229,611	-82,651	-0,147	0,033
230,626	-43,511	-0,245	-0,085
231,640	-40,839	-0,181	-0,065
232,655	406,253	-0,215	-0,316
233,669	-44,364	-0,186	-0,064
234,684	800,000	-0,126	-0,280
235,699	25,057	-0,134	-0,077
236,713	4,703	-0,190	-0,097
237,728	-129,110	-0,287	-0,027
238,742	800,000	-0,060	-0,178
239,757	12,085	-0,289	-0,154
240,772	-26,263	-0,307	-0,125
241,786	-169,753	-0,108	-0,003
242,801	81,426	-0,169	-0,126
243,815	62,417	-0,133	-0,092
244,830	1,833	-0,138	-0,069
245,844	-200,000	-0,040	-0,125
246,859	416,233	-0,152	-0,225
247,874	179,208	-0,179	-0,182
248,888	65,649	-0,122	-0,085
249,903	112,956	-0,225	-0,189
250,917	800,000	-0,086	-0,198
251,932	12,788	-0,111	-0,059
252,947	-13,301	-0,299	-0,134
253,961	-51,471	-0,113	-0,036
254,976	-49,842	-0,225	-0,074
255,990	38,788	-0,238	-0,147
257,005	76,782	-0,183	-0,134
258,020	-26,450	-0,235	-0,095
259,034	287,316	-0,079	-0,099
260,049	48,143	-0,187	-0,121
261,063	-0,620	-0,182	-0,089
262,078	-14,249	-0,183	-0,081
263,093	31,995	-0,121	-0,072
264,107	74,567	-0,187	-0,136
265,122	-26,175	-0,216	-0,087
266,136	-122,008	-0,261	0,029
267,151	82,721	-0,145	-0,109
268,166	-113,570	-0,169	-0,023
269,180	-107,857	-0,193	-0,029
270,195	165,005	-0,312	-0,305
271,209	115,577	-0,130	-0,110
272,224	149,542	-0,105	-0,098
273,239	-121,941	-0,061	0,007
274,253	-28,284	-0,115	-0,046
275,268	10,160	-0,198	-0,104
276,282	-52,497	-0,286	-0,091
277,297	38,006	-0,155	-0,095
278,312	4,974	-0,196	-0,100
279,326	417,748	-0,102	-0,151
280,341	42,421	-0,129	-0,081
281,355	-165,219	-0,174	-0,005
282,370	74,905	-0,133	-0,097
283,384	28,678	-0,089	-0,052
284,399	427,472	-0,218	-0,326
285,414	123,118	-0,201	-0,174
286,428	537,473	-0,066	-0,108
287,443	-83,276	-0,074	0,016
288,457	-67,944	-0,132	-0,035
289,472	181,727	-0,089	-0,091
290,487	-105,327	-0,180	0,028
291,501	15,882	-0,196	-0,106
292,516	-185,066	-0,158	0,002
293,530	-3,060	-0,247	-0,119
294,545	-13,033	-0,222	-0,099
295,560	507,198	-0,097	-0,157
296,574	46,340	-0,252	-0,161
297,589	386,694	-0,133	-0,191
298,603	-40,483	-0,191	-0,068
299,618	116,169	-0,193	-0,163
300,633	14,469	-0,158	-0,085
301,647	13,894	-0,115	0,062
302,662	-63,262	-0,150	-0,042
303,676	-137,634	-0,086	-0,007
304,691	51,783	-0,143	-0,094
305,706	14,638	-0,148	-0,080
306,720	800,000	-0,097	-0,233
307,735	750,182	-0,132	-0,247
308,749	494,856	-0,100	-0,159
309,764	-18,797	-0,124	-0,053
310,779	-25,562	-0,188	-0,076
311,793	452,518	-0,108	-0,165
312,808	232,751	-0,245	-0,278
313,822	126,641	-0,214	-0,187
314,837	363,858	-0,091	-0,127
315,852	800,000	-0,065	-0,127
316,866	334,931	-0,092	0,123
317,881	83,842	-0,034	-0,025
318,895	127,232	-0,184	-0,161
319,910	234,924	-0,183	-0,208
320,925	-95,173	-0,229	-0,042
321,939	26,430	-0,123	-0,070
322,954	36,920	-0,165	-0,100
323,968	-200,000	0,016	-0,156
324,983	800,000	-0,119	-0,305
325,997	-157,024	-0,080	0,003
327,012	35,056	-0,163	-0,098
328,027	59,837	-0,132	-0,090
329,041	43,129	-0,192	-0,120
330,056	86,657	-0,259	-0,197
331,070	117,180	-0,133	-0,112
332,085	-200,000	0,016	-0,213
333,100	-21,171	-0,192	-0,081
334,114	169,151	-0,106	-0,104
335,129	-66,990	-0,249	-0,067
336,143	-168,600	-0,151	0,004
337,158	290,111	-0,062	-0,078
338,173	-54,082	-0,043	0,013
339,187	-64,927	-0,120	-0,033
340,202	183,266	-0,164	-0,167
341,216	353,706	-0,127	-0,174
342,231	208,305	-0,172	-0,185
343,246	165,990	-0,182	-0,177
344,260	220,842	-0,111	-0,122
345,275	303,299	-0,034	-0,044
346,289	-67,897	-0,149	0,040
347,304	81,026	-0,092	-0,069
348,319	226,344	-0,097	-0,108
349,333	-96,893	-0,179	0,032
350,348	22,549	-0,198	-0,111
351,362	10,004	-0,159	-0,083
352,377	-161,976	-0,172	-0,006
353,392	-99,438	-0,288	-0,049
354,406	-167,311	-0,248	-0,007
355,421	210,677	1313,834	1419,422
356,435	162,188	1474,500	1419,933
