DTS Sentinel unit serial number:	SN410029Multiplexer serial number:	ORYXHardware model number:	OX2-SRSoftware version number:	ORYX F/W v4,00 Oryx Data Collector v3.7.2.0data status	okinstallation	B3 Nyhavnadifferential loss correction	single-endedforward channel	channel 1reverse channel	N/Adate	2023/11/30time	14:37:30forward acquisition time	300,00reverse acquisition time	0,00gamma	499,1914k internal	0,3209k external	0,3209temperature offset calibration	1,0000default loss term (dB/km)	0,3820temperature slope calibration	1,0000multiplexer offset coefficient	1,0000multiplexer slope coefficient	1,0000fibre end	0,00T internal ref (°C)	11,91T ext. ref 1 (°C)	-1,98T ext. ref 2 (°C)	-2,11length (m)	temperature (°C)	Stokes	anti-Stokes-744,400	144,647	-0,125	-0,121
-743,385	-200,000	-0,042	0,149
-742,371	257,106	-0,129	-0,161
-741,356	-200,000	0,098	0,392
-740,342	-200,000	-0,063	-0,250
-739,327	-200,000	0,014	0,191
-738,312	314,914	-0,198	-0,272
-737,298	800,000	-0,047	0,127
-736,283	28,987	-0,269	-0,165
-735,269	-200,000	0,027	0,294
-734,254	800,000	-0,062	-0,171
-733,239	-146,492	-0,176	0,011
-732,225	492,338	-0,118	-0,197
-731,210	-200,000	-0,014	0,105
-730,196	-170,157	-0,081	0,002
-729,181	-170,066	-0,122	0,003
-728,167	800,000	0,006	0,013
-727,152	-200,000	-0,009	0,086
-726,137	-200,000	-0,018	-0,093
-725,123	-200,000	-0,006	0,103
-724,108	-83,609	-0,156	-0,036
-723,094	-99,706	-0,129	0,023
-722,079	800,000	-0,083	-0,197
-721,064	11,130	0,141	-0,078
-720,050	-73,686	-0,053	-0,014
-719,035	-200,000	-0,033	-0,158
-718,021	800,000	-0,027	-0,063
-717,006	-200,000	-0,051	-0,264
-715,991	15,540	-0,113	-0,064
-714,977	91,854	-0,075	-0,061
-713,962	-63,918	0,036	-0,010
-712,948	800,000	0,035	0,086
-711,933	800,000	-0,028	0,066
-710,918	140,455	0,038	0,037
-709,904	-200,000	-0,014	0,139
-708,889	-93,609	-0,036	-0,007
-707,875	-98,228	-0,182	-0,034
-706,860	156,290	-0,041	0,041
-705,845	-200,000	0,022	0,090
-704,831	-200,000	-0,016	0,059
-703,816	355,010	-0,057	-0,083
-702,802	265,020	-0,143	-0,181
-701,787	-200,000	0,028	-0,103
-700,772	21,630	-0,006	-0,004
-699,758	274,607	-0,055	-0,070
-698,743	206,771	0,091	0,103
-697,729	-200,000	0,020	0,141
-696,714	-78,758	-0,059	0,015
-695,699	800,000	0,021	-0,042
-694,685	222,468	-0,104	0,122
-693,670	35,670	-0,106	-0,067
-692,656	-143,823	0,055	-0,004
-691,641	-200,000	-0,002	0,123
-690,627	435,766	0,043	-0,068
-689,612	-45,108	-0,110	0,039
-688,597	-36,145	0,045	-0,017
-687,583	-200,000	-0,006	0,022
-686,568	23,943	-0,144	0,086
-685,554	473,392	-0,092	0,151
-684,539	129,916	-0,047	-0,043
-683,524	-152,058	0,100	-0,005
-682,510	-181,399	-0,089	0,001
-681,495	-166,127	0,064	0,002
-680,481	800,000	-0,065	-0,180
-679,466	69,653	-0,102	-0,076
-678,451	-200,000	-0,033	-0,133
-677,437	205,121	0,038	0,043
-676,422	110,415	-0,119	0,103
-675,408	-66,819	-0,094	-0,027
-674,393	157,574	-0,009	-0,009
-673,378	145,432	0,144	-0,140
-672,364	-16,018	-0,185	-0,085
-671,349	-200,000	0,008	0,082
-670,335	-200,000	-0,032	-0,103
-669,320	-10,643	0,041	0,019
-668,305	-75,278	0,101	-0,026
-667,291	-200,000	0,003	0,083
-666,276	575,245	0,040	-0,071
-665,262	-65,167	-0,151	0,044
-664,247	-155,702	-0,110	0,005
-663,232	-200,000	-0,009	0,079
-662,218	33,462	-0,110	0,069
-661,203	-200,000	0,006	0,067
-660,189	800,000	0,046	-0,106
-659,174	800,000	-0,028	-0,069
-658,159	59,058	-0,038	0,027
-657,145	-86,846	0,077	-0,017
-656,130	118,323	0,042	0,038
-655,116	43,446	-0,090	0,059
-654,101	-113,494	0,081	-0,011
-653,086	-200,000	0,027	-0,148
-652,072	-200,000	-0,020	-0,099
-651,057	44,477	-0,170	-0,113
-650,043	-67,895	-0,097	0,027
-649,028	-4,966	0,123	-0,061
-648,014	-67,728	0,104	0,029
-646,999	164,379	0,077	-0,079
-645,984	-200,000	-0,001	0,013
-644,970	149,101	-0,076	0,074
-643,955	-200,000	-0,010	-0,110
-642,941	-151,691	-0,107	0,006
-641,926	-76,930	0,105	-0,026
-640,911	163,743	0,132	0,135
-639,897	-86,534	0,107	0,024
-638,882	-30,759	-0,045	0,018
-637,868	108,060	-0,078	-0,068
-636,853	-37,873	-0,133	-0,051
-635,838	277,606	-0,066	-0,085
-634,824	451,223	-0,054	0,087
-633,809	-73,603	-0,047	-0,012
-632,795	-200,000	0,013	0,055
-631,780	28,658	0,070	-0,043
-630,765	-200,000	0,000	0,007
-629,751	-54,594	-0,071	-0,023
-628,736	-200,000	0,045	-0,193
-627,722	70,602	0,044	-0,033
-626,707	800,000	0,063	0,167
-625,692	39,960	0,071	-0,046
-624,678	392,687	-0,039	0,058
-623,663	-122,298	-0,124	0,014
-622,649	35,004	-0,035	-0,022
-621,634	-200,000	0,009	-0,060
-620,619	-200,000	0,007	-0,122
-619,605	-153,335	-0,077	0,004
-618,590	-111,122	0,065	0,009
-617,576	-77,036	0,107	0,027
-616,561	56,973	0,050	-0,035
-615,546	-200,000	0,004	0,029
-614,532	70,075	-0,030	-0,022
-613,517	-174,231	-0,045	-0,001
-612,503	-32,090	-0,116	-0,047
-611,488	-200,000	-0,009	0,087
-610,474	758,546	0,031	0,061
-609,459	-200,000	-0,004	0,107
-608,444	32,165	0,085	-0,053
-607,430	24,565	0,110	-0,066
-606,415	217,423	-0,095	0,110
-605,401	-28,528	0,119	0,049
-604,386	-11,519	-0,078	0,037
-603,371	-117,992	-0,082	-0,010
-602,357	69,766	0,077	0,057
-601,342	236,597	0,064	-0,076
-600,328	800,000	-0,016	-0,050
-599,313	-73,599	0,077	-0,020
-598,298	-26,922	0,016	0,007
-597,284	-200,000	0,045	0,161
-596,269	-28,463	0,046	0,019
-595,255	104,476	-0,087	0,073
-594,240	-30,435	-0,193	-0,079
-593,225	-36,544	-0,108	-0,042
-592,211	-67,511	0,011	0,003
-591,196	79,790	-0,030	-0,024
-590,182	-73,408	0,011	-0,003
-589,167	-200,000	0,014	0,080
-588,152	85,509	-0,047	-0,037
-587,138	269,095	-0,025	-0,031
-586,123	800,000	-0,018	0,038
-585,109	800,000	-0,031	0,073
-584,094	-112,618	0,175	0,025
-583,079	358,927	0,035	-0,051
-582,065	-72,273	0,099	-0,026
-581,050	-122,007	-0,120	0,014
-580,036	-177,712	0,024	0,000
-579,021	-200,000	0,000	-0,201
-578,006	47,861	0,089	-0,060
-576,992	-78,026	-0,077	-0,019
-575,977	-16,388	0,173	-0,079
-574,963	-200,000	0,005	0,043
-573,948	588,838	-0,060	0,108
-572,934	-18,250	0,085	-0,038
-571,919	-124,588	0,051	0,006
-570,904	100,113	0,025	-0,021
-569,890	800,000	-0,019	-0,041
-568,875	-200,000	-0,005	-0,100
-567,861	10,144	0,021	-0,012
-566,846	108,465	0,065	0,056
-565,831	-200,000	-0,006	0,088
-564,817	-200,000	-0,005	0,160
-563,802	18,399	-0,087	0,050
-562,788	84,416	-0,096	-0,076
-561,773	800,000	0,032	0,071
-560,758	267,139	0,091	0,115
-559,744	-200,000	-0,049	0,189
-558,729	-200,000	0,017	0,059
-557,715	161,759	-0,084	-0,085
-556,700	155,362	-0,066	0,065
-555,685	-200,000	0,004	-0,117
-554,671	800,000	-0,038	-0,075
-553,656	-62,382	-0,039	-0,012
-552,642	-39,887	0,078	0,029
-551,627	-200,000	0,001	0,141
-550,612	-94,669	-0,110	0,021
-549,598	67,966	-0,103	-0,076
-548,583	800,000	-0,038	0,096
-547,569	-200,000	-0,009	0,053
-546,554	471,905	-0,037	0,060
-545,539	-62,051	0,150	0,045
-544,525	-200,000	0,019	0,096
-543,510	-176,557	-0,106	0,002
-542,496	75,681	-0,091	-0,069
-541,481	-47,996	-0,116	0,040
-540,466	53,087	-0,047	-0,032
-539,452	-129,955	-0,021	-0,002
-538,437	445,968	-0,019	0,030
-537,423	64,620	-0,062	-0,045
-536,408	-200,000	0,001	-0,181
-535,393	433,305	-0,006	-0,009
-534,379	800,000	-0,007	-0,021
-533,364	22,228	-0,117	0,069
-532,350	-200,000	-0,013	-0,176
-531,335	800,000	-0,044	-0,116
-530,321	-139,051	0,109	-0,008
-529,306	174,860	0,045	0,047
-528,291	800,000	0,055	-0,148
-527,277	182,211	-0,070	0,074
-526,262	440,040	-0,006	-0,009
-525,248	193,779	-0,040	-0,043
-524,233	-28,159	0,067	-0,028
-523,218	-200,000	0,001	-0,058
-522,204	8,873	0,102	0,055
-521,189	102,768	-0,054	-0,046
-520,175	-146,093	-0,118	0,007
-519,160	-200,000	-0,028	-0,090
-518,145	204,423	-0,038	0,043
-517,131	-200,000	0,005	0,154
-516,116	233,887	0,062	0,074
-515,102	-200,000	-0,019	0,145
-514,087	312,579	-0,057	-0,077
-513,072	800,000	-0,048	-0,127
-512,058	107,291	-0,056	0,048
-511,043	144,265	-0,078	-0,075
-510,029	-115,599	-0,046	0,006
-509,014	175,329	0,090	0,094
-507,999	-47,384	0,069	-0,024
-506,985	24,588	-0,154	-0,092
-505,970	145,692	0,108	0,104
-504,956	601,121	-0,049	-0,089
-503,941	55,106	0,078	0,054
-502,926	-10,022	-0,089	-0,042
-501,912	-117,946	0,114	0,015
-500,897	-113,448	-0,057	0,008
-499,883	175,548	-0,028	-0,029
-498,868	455,985	-0,037	-0,060
-497,853	132,543	0,064	-0,059
-496,839	179,757	0,036	0,038
-495,824	96,636	0,077	-0,063
-494,810	-200,000	0,018	0,123
-493,795	800,000	-0,018	-0,057
-492,781	-200,000	0,030	0,099
-491,766	-200,000	-0,011	-0,085
-490,751	-21,197	-0,065	-0,029
-489,737	24,406	-0,059	-0,035
-488,722	-200,000	-0,017	0,137
-487,708	85,122	0,048	-0,038
-486,693	800,000	-0,006	-0,017
-485,678	-200,000	0,010	-0,069
-484,664	-200,000	-0,033	-0,114
-483,649	776,637	-0,026	-0,052
-482,635	-200,000	0,007	0,029
-481,620	10,209	-0,078	0,043
-480,605	-3,828	0,113	-0,056
-479,591	84,908	0,055	0,043
-478,576	40,422	0,051	-0,033
-477,562	-200,000	0,030	-0,109
-476,547	-104,357	-0,174	0,029
-475,532	800,000	-0,029	-0,064
-474,518	-200,000	-0,055	0,173
-473,503	-102,720	0,062	-0,011
-472,489	-128,328	0,251	-0,025
-471,474	-62,573	-0,094	-0,028
-470,459	-132,291	-0,084	-0,008
-469,445	800,000	-0,019	-0,040
-468,430	-40,713	-0,050	0,018
-467,416	141,786	-0,076	0,072
-466,401	62,243	0,044	-0,031
-465,386	-68,126	-0,042	-0,012
-464,372	-200,000	0,019	0,202
-463,357	33,614	0,128	0,080
-462,343	-78,946	-0,022	-0,005
-461,328	309,792	0,014	-0,019
-460,313	266,906	-0,070	0,088
-459,299	-200,000	0,011	0,174
-458,284	800,000	-0,023	-0,054
-457,270	40,095	-0,044	-0,028
-456,255	-200,000	-0,009	0,104
-455,241	470,101	-0,057	0,092
-454,226	45,754	0,051	-0,034
-453,211	-200,000	0,019	0,098
-452,197	800,000	0,018	0,054
-451,182	396,694	0,050	0,075
-450,168	-75,175	0,179	0,045
-449,153	-200,000	-0,014	-0,091
-448,138	201,929	-0,114	-0,126
-447,124	-200,000	-0,015	-0,137
-446,109	104,556	0,124	-0,105
-445,095	138,950	0,048	0,045
-444,080	800,000	-0,070	0,189
-443,065	-200,000	0,019	0,079
-442,051	800,000	-0,034	-0,073
-441,036	73,442	0,030	0,022
-440,022	-88,077	-0,059	0,013
-439,007	-11,373	-0,155	0,073
-437,992	-8,127	0,059	0,028
-436,978	-200,000	-0,007	0,145
-435,963	-200,000	-0,027	-0,125
-434,949	-105,563	-0,076	-0,012
-433,934	33,465	-0,023	0,014
-432,919	800,000	0,054	-0,119
-431,905	178,450	-0,147	-0,154
-430,890	-157,621	-0,022	0,001
-429,876	320,043	0,019	0,026
-428,861	782,743	-0,036	0,070
-427,846	359,157	-0,094	0,135
-426,832	-110,420	-0,121	-0,018
-425,817	-85,587	0,064	-0,014
-424,803	800,000	0,018	-0,044
-423,788	35,218	-0,036	0,022
-422,773	-96,060	-0,082	-0,015
-421,759	211,797	-0,018	-0,020
-420,744	268,270	0,105	0,132
-419,730	-200,000	0,003	-0,016
-418,715	-67,921	0,052	-0,014
-417,701	379,925	0,069	-0,101
-416,686	-98,856	-0,024	0,004
-415,671	-80,999	0,112	-0,026
-414,657	-131,937	0,101	0,009
-413,642	-115,129	-0,101	0,014
-412,628	800,000	0,034	-0,083
-411,613	800,000	-0,014	0,030
-410,598	228,357	0,106	-0,123
-409,584	-123,490	0,029	-0,003
-408,569	445,806	-0,043	-0,068
-407,555	-126,656	-0,074	0,008
-406,540	283,915	-0,031	0,040
-405,525	11,907	-0,018	-0,010
-404,511	800,000	-0,040	0,108
-403,496	54,874	0,050	-0,034
-402,482	160,885	0,110	0,110
-401,467	-110,376	-0,031	0,005
-400,452	535,501	-0,046	-0,079
-399,438	198,212	-0,075	0,082
-398,423	149,568	0,062	-0,060
-397,409	713,858	0,096	-0,183
-396,394	-92,980	-0,072	0,014
-395,379	89,722	0,056	0,045
-394,365	-32,952	0,177	0,070
-393,350	-60,056	0,088	0,027
-392,336	-54,832	-0,079	-0,025
-391,321	800,000	0,021	-0,054
-390,306	-200,000	0,006	-0,035
-389,292	132,175	-0,073	-0,067
-388,277	476,498	0,078	0,126
-387,263	-200,000	-0,034	0,111
-386,248	800,000	-0,075	0,171
-385,233	-200,000	0,053	0,000
-384,219	-200,000	0,013	0,064
-383,204	33,822	-0,080	0,049
-382,190	800,000	-0,063	-0,151
-381,175	-52,623	0,106	-0,035
-380,160	800,000	0,008	0,020
-379,146	-200,000	0,064	-0,207
-378,131	547,820	0,031	0,054
-377,117	230,651	-0,029	-0,034
-376,102	-91,088	-0,111	0,023
-375,088	133,651	-0,074	-0,068
-374,073	-200,000	0,003	-0,078
-373,058	-9,092	0,073	0,035
-372,044	406,421	0,059	0,089
-371,029	-200,000	-0,010	-0,062
-370,015	-6,141	0,076	-0,037
-369,000	-200,000	-0,021	-0,090
-367,985	800,000	0,041	-0,095
-366,971	-200,000	0,013	-0,049
-365,956	97,767	0,047	-0,038
-364,942	-200,000	-0,014	-0,174
-363,927	87,934	0,047	0,038
-362,912	-25,144	0,023	0,010
-361,898	89,528	-0,059	-0,047
-360,883	163,070	0,135	-0,136
-359,869	434,144	-0,021	-0,032
-358,854	32,206	0,145	-0,089
-357,839	-31,956	0,013	0,005
-356,825	83,121	0,035	-0,027
-355,810	-200,000	0,042	-0,137
-354,796	-131,830	0,052	0,005
-353,781	545,004	0,022	-0,038
-352,766	68,509	-0,075	0,055
-351,752	46,787	-0,129	-0,085
-350,737	169,285	0,079	-0,080
-349,723	433,629	0,085	0,132
-348,708	800,000	-0,024	-0,075
-347,693	580,999	0,050	0,087
-346,679	-93,676	0,028	0,005
-345,664	279,002	-0,035	0,045
-344,650	79,880	-0,085	0,065
-343,635	-200,000	-0,007	-0,035
-342,620	41,307	0,022	0,014
-341,606	-116,575	0,107	0,014
-340,591	279,239	0,036	0,046
-339,577	26,403	-0,042	-0,025
-338,562	-200,000	-0,009	-0,054
-337,548	124,693	0,109	0,098
-336,533	800,000	0,047	0,113
-335,518	15,511	0,075	-0,042
-334,504	-200,000	0,001	0,105
-333,489	-200,000	0,011	0,113
-332,475	-11,401	-0,062	-0,029
-331,460	-144,679	-0,094	0,006
-330,445	-200,000	0,014	-0,111
-329,431	-200,000	-0,003	0,094
-328,416	-32,393	-0,088	0,035
-327,402	800,000	0,020	0,056
-326,387	282,787	-0,062	0,080
-325,372	202,445	-0,034	0,037
-324,358	205,047	-0,032	-0,035
-323,343	156,251	0,104	-0,103
-322,329	-30,147	0,067	0,027
-321,314	-200,000	-0,003	-0,036
-320,299	800,000	0,045	0,119
-319,285	140,567	0,042	-0,039
-318,270	800,000	0,044	-0,110
-317,256	356,941	-0,035	-0,050
-316,241	-54,054	-0,117	-0,038
-315,226	509,248	-0,016	-0,026
-314,212	109,704	0,079	-0,068
-313,197	-200,000	0,011	0,095
-312,183	463,991	-0,035	0,056
-311,168	-200,000	0,003	-0,043
-310,153	-200,000	-0,013	-0,114
-309,139	-200,000	-0,002	-0,035
-308,124	-200,000	-0,020	0,083
-307,110	-200,000	0,004	0,023
-306,095	41,770	0,052	0,033
-305,080	-86,985	0,026	-0,006
-304,066	128,947	-0,116	0,106
-303,051	385,142	-0,026	-0,038
-302,037	-14,730	-0,006	-0,003
-301,022	-200,000	-0,003	-0,041
-300,008	346,759	0,095	-0,133
-298,993	-89,585	0,149	0,031
-297,978	75,013	0,065	0,048
-296,964	254,948	-0,098	-0,120
-295,949	526,661	0,043	-0,072
-294,935	800,000	-0,029	-0,074
-293,920	351,897	-0,051	0,072
-292,905	757,289	-0,025	0,049
-291,891	-200,000	-0,010	-0,048
-290,876	-121,152	-0,074	0,009
-289,862	104,996	0,039	-0,033
-288,847	-200,000	0,008	-0,071
-287,832	-1,731	0,092	-0,046
-286,818	246,028	-0,067	0,080
-285,803	-128,656	-0,024	-0,002
-284,789	-200,000	-0,008	0,086
-283,774	-200,000	-0,003	0,146
-282,759	39,145	-0,021	-0,014
-281,745	-16,556	0,045	-0,020
-280,730	-200,000	0,024	-0,161
-279,716	18,922	0,055	-0,031
-278,701	123,521	-0,093	-0,083
-277,686	-200,000	0,038	0,149
-276,672	-43,054	-0,042	-0,015
-275,657	196,184	0,072	-0,078
-274,643	122,257	-0,048	-0,043
-273,628	800,000	0,023	-0,050
-272,613	100,960	-0,005	-0,004
-271,599	-131,454	0,145	0,013
-270,584	-200,000	-0,068	0,000
-269,570	69,273	-0,011	-0,008
-268,555	226,301	-0,003	0,003
-267,540	-200,000	-0,009	0,132
-266,526	-168,967	-0,047	0,001
-265,511	-58,428	-0,087	0,027
-264,497	800,000	-0,068	0,161
-263,482	20,346	0,113	0,065
-262,467	-200,000	0,035	0,146
-261,453	-200,000	-0,008	0,063
-260,438	410,559	0,011	0,016
-259,424	-30,876	-0,010	0,004
-258,409	-156,089	-0,094	0,004
-257,395	136,936	0,062	0,058
-256,380	-200,000	-0,007	0,043
-255,365	18,070	0,096	0,054
-254,351	-92,990	-0,094	0,018
-253,336	89,243	0,161	-0,128
-252,322	-200,000	-0,020	0,082
-251,307	-200,000	-0,035	-0,143
-250,292	142,484	0,115	-0,109
-249,278	143,332	-0,071	0,067
-248,263	58,310	0,141	0,098
-247,249	-200,000	0,003	0,085
-246,234	101,938	-0,031	-0,026
-245,219	109,383	0,036	-0,030
-244,205	-56,027	0,133	-0,042
-243,190	-9,287	-0,128	0,061
-242,176	-200,000	-0,034	0,223
-241,161	-200,000	0,023	-0,074
-240,146	-12,457	0,194	0,090
-239,132	-123,286	-0,125	-0,014
-238,117	206,794	-0,033	0,036
-237,103	-69,737	-0,097	0,026
-236,088	31,047	0,085	-0,052
-235,073	157,170	0,041	-0,040
-234,059	-150,791	0,125	-0,007
-233,044	-35,859	-0,026	-0,010
-232,030	-55,419	0,016	0,005
-231,015	26,143	0,014	0,008
-230,000	-104,437	-0,043	-0,007
-228,986	294,490	-0,061	-0,079
-227,971	-200,000	0,031	-0,180
-226,957	-200,000	0,010	-0,038
-225,942	80,675	-0,082	-0,063
-224,927	800,000	-0,029	0,082
-223,913	-200,000	-0,014	-0,062
-222,898	-200,000	0,015	-0,065
-221,884	643,165	-0,052	0,095
-220,869	163,011	0,029	0,029
-219,855	-50,624	-0,106	0,035
-218,840	274,003	-0,059	0,074
-217,825	143,246	-0,020	-0,019
-216,811	-200,000	-0,013	0,074
-215,796	-200,000	0,022	-0,082
-214,782	635,170	0,011	-0,020
-213,767	25,248	0,177	0,104
-212,752	-200,000	0,056	0,185
-211,738	-200,000	0,007	0,162
-210,723	8,089	-0,033	-0,018
-209,709	-120,612	-0,111	-0,013
-208,694	-200,000	0,012	-0,110
-207,679	152,024	-0,064	0,062
-206,665	-200,000	-0,002	0,012
-205,650	365,014	-0,019	-0,027
-204,636	-128,706	0,057	-0,006
-203,621	800,000	0,034	0,094
-202,606	312,611	-0,065	-0,087
-201,592	-200,000	0,054	-0,247
-200,577	-200,000	-0,001	-0,035
-199,563	-46,768	-0,047	-0,016
-198,548	89,341	0,034	0,027
-197,533	-15,302	0,030	-0,014
-196,519	44,461	-0,034	-0,022
-195,504	197,572	-0,059	-0,065
-194,490	12,918	-0,020	0,011
-193,475	-200,000	-0,022	0,072
-192,460	146,237	-0,120	-0,115
-191,446	-200,000	0,013	0,048
-190,431	140,174	0,067	-0,062
-189,417	518,697	-0,029	0,049
-188,402	205,446	-0,019	-0,021
-187,387	147,731	-0,075	-0,072
-186,373	15,627	0,060	-0,033
-185,358	84,368	-0,037	0,028
-184,344	-14,057	-0,096	0,044
-183,329	-20,541	0,083	0,036
-182,315	256,175	0,086	0,105
-181,300	-51,102	-0,100	-0,033
-180,285	-42,713	-0,147	0,053
-179,271	31,926	-0,053	-0,032
-178,256	-24,636	0,063	0,026
-177,242	-200,000	-0,019	0,073
-176,227	800,000	-0,036	-0,092
-175,212	616,159	0,054	0,096
-174,198	-200,000	-0,000	0,096
-173,183	156,862	-0,039	-0,038
-172,169	800,000	-0,080	0,184
-171,154	-200,000	-0,006	0,112
-170,139	115,040	-0,017	-0,014
-169,125	251,365	0,062	-0,075
-168,110	-64,070	0,149	-0,043
-167,096	707,014	-0,029	-0,055
-166,081	-97,751	-0,033	0,006
-165,066	-200,000	-0,037	-0,136
-164,052	186,062	0,020	-0,021
-163,037	-200,000	0,014	0,066
-162,023	-131,364	0,068	-0,006
-161,008	800,000	-0,010	-0,023
-159,993	102,750	0,112	-0,093
-158,979	-110,011	-0,072	-0,011
-157,964	-92,551	-0,075	-0,015
-156,950	360,955	-0,100	-0,143
-155,935	-24,654	0,145	-0,061
-154,920	660,611	0,029	0,052
-153,906	142,954	0,114	0,108
-152,891	12,499	-0,061	-0,033
-151,877	-48,011	0,012	-0,004
-150,862	-200,000	-0,018	-0,116
-149,847	657,616	0,069	-0,127
-148,833	-200,000	-0,001	0,042
-147,818	11,038	0,251	0,136
-146,804	95,014	0,073	-0,059
-145,789	291,967	-0,033	0,043
-144,775	9,611	0,080	0,043
-143,760	-33,746	-0,041	-0,016
-142,745	-36,226	-0,062	-0,024
-141,731	-200,000	0,063	-0,202
-140,716	-113,752	0,073	-0,010
-139,702	-200,000	-0,012	-0,058
-138,687	-5,123	0,049	0,024
-137,672	-33,565	-0,111	-0,043
-136,658	195,993	0,058	0,063
-135,643	22,681	0,026	-0,015
-134,629	-32,136	-0,094	-0,037
-133,614	-200,000	0,014	0,085
-132,599	-200,000	0,016	0,133
-131,585	800,000	0,069	0,138
-130,570	-200,000	0,043	-0,135
-129,556	380,763	-0,090	-0,131
-128,541	-21,010	-0,083	-0,036
-127,526	-200,000	-0,002	-0,029
-126,512	541,720	-0,042	0,071
-125,497	121,374	-0,033	0,029
-124,483	-200,000	-0,018	-0,084
-123,468	-38,496	-0,078	0,029
-122,453	-166,790	-0,138	-0,004
-121,439	-119,608	-0,161	-0,019
-120,424	324,209	0,025	0,034
-119,410	800,000	-0,009	-0,024
-118,395	-200,000	-0,012	-0,111
-117,380	-168,297	0,024	0,001
-116,366	163,718	-0,068	0,067
-115,351	313,859	-0,062	0,083
-114,337	-87,983	-0,100	-0,021
-113,322	55,142	0,127	-0,087
-112,307	-200,000	-0,002	-0,111
-111,293	-200,000	-0,005	-0,016
-110,278	-43,459	-0,057	0,020
-109,264	-41,129	-0,097	0,035
-108,249	-200,000	-0,005	0,038
-107,234	800,000	0,010	-0,030
-106,220	-32,982	-0,121	-0,047
-105,205	234,215	0,137	0,160
-104,191	800,000	-0,013	0,041
-103,176	-200,000	0,003	0,030
-102,162	233,950	0,066	-0,077
-101,147	297,061	-0,020	-0,026
-100,132	-176,485	0,112	-0,002
-99,118	230,637	0,139	-0,162
-98,103	800,000	0,014	-0,041
-97,089	275,898	-0,055	-0,069
-96,074	-200,000	0,054	0,000
-95,059	7,945	-0,076	0,040
-94,045	-49,260	0,040	-0,014
-93,030	800,000	-0,046	-0,102
-92,016	598,961	0,016	0,029
-91,001	628,279	0,055	0,098
-89,986	800,000	0,100	0,236
-88,972	128,968	0,090	-0,082
-87,957	574,620	0,107	0,185
-86,943	-200,000	0,003	0,022
-85,928	-97,513	0,077	-0,014
-84,913	-192,744	-0,037	-0,000
-83,899	155,650	0,077	0,075
-82,884	32,428	0,137	0,084
-81,870	227,419	-0,082	-0,095
-80,855	800,000	0,016	0,038
-79,840	304,728	-0,074	0,097
-78,826	707,853	-0,093	-0,175
-77,811	800,000	-0,090	-0,200
-76,797	-200,000	-0,002	0,053
-75,782	-99,588	0,169	0,030
-74,767	-200,000	-0,007	0,063
-73,753	-29,068	-0,059	-0,024
-72,738	39,597	-0,082	-0,052
-71,724	-61,289	0,093	-0,027
-70,709	-200,000	-0,019	0,068
-69,694	800,000	0,018	0,047
-68,680	800,000	0,038	-0,105
-67,665	-81,583	0,063	0,015
-66,651	800,000	-0,052	0,140
-65,636	707,083	0,064	0,119
-64,622	2,213	-0,171	0,087
-63,607	-39,119	0,012	-0,004
-62,592	441,490	-0,028	0,044
-61,578	598,032	-0,012	-0,021
-60,563	73,309	-0,069	0,051
-59,549	103,525	0,109	0,091
-58,534	-33,424	-2,001	-0,778
-57,519	358,583	-1,443	-2,042
-56,505	-200,000	-0,223	-4,390
-55,490	248,948	0,944	1,131
-54,476	800,000	4,905	11,284
-53,461	-200,000	20,286	328,108
-52,446	800,000	750,631	2314,324
-51,432	550,287	1658,675	2820,567
-50,417	74,826	1666,020	1237,373
-49,403	19,802	1538,692	872,841
-48,388	13,729	1461,097	799,425
-47,373	18,735	1451,385	818,139
-46,359	16,472	1440,813	801,364
-45,344	12,011	1436,425	777,638
-44,330	11,987	1434,415	776,404
-43,315	11,945	1432,715	775,255
-42,300	11,989	1430,999	774,504
-41,286	11,988	1429,882	773,866
-40,271	11,947	1428,539	772,910
-39,257	11,945	1427,426	772,268
-38,242	12,001	1426,065	771,770
-37,227	11,975	1424,895	770,979
-36,213	11,975	1423,669	770,285
-35,198	11,993	1422,468	769,691
-34,184	12,031	1421,479	769,308
-33,169	12,005	1420,076	768,393
-32,154	12,025	1419,153	767,956
-31,140	12,039	1417,684	767,197
-30,125	12,037	1416,847	766,706
-29,111	12,017	1415,578	765,895
-28,096	11,998	1414,565	765,225
-27,082	11,969	1413,221	764,331
-26,067	11,917	1412,473	763,655
-25,052	11,951	1411,408	763,209
-24,038	11,942	1410,308	762,538
-23,023	11,930	1409,208	761,858
-22,009	11,953	1408,042	761,305
-20,994	11,924	1407,283	760,730
-19,979	11,917	1406,517	760,250
-18,965	11,925	1405,445	759,682
-17,950	11,905	1404,716	759,161
-16,936	11,919	1403,799	758,704
-15,921	11,852	1402,664	757,746
-14,906	11,864	1401,831	757,323
-13,892	11,829	1400,864	756,607
-12,877	11,832	1399,975	756,111
-11,863	11,891	1399,034	755,845
-10,848	11,836	1398,144	755,081
-9,833	11,803	1397,289	754,438
-8,819	11,718	1396,523	753,600
-7,804	11,735	1395,614	753,155
-6,790	11,745	1394,643	752,648
-5,775	11,771	1393,572	752,160
-4,760	11,739	1392,808	751,574
-3,746	11,772	1391,630	751,058
-2,731	11,742	1390,979	750,538
-1,717	11,727	1390,155	749,996
-0,702	11,736	1388,168	748,936
0,313	15,837	1303,380	721,985
1,327	32,218	697,140	423,625
2,342	50,057	121,477	80,780
3,356	3,103	16,446	8,410
4,371	9,903	3,341	1,784
5,386	-13,177	0,686	0,313
6,400	800,000	0,109	0,263
7,415	-5,024	-0,242	-0,117
8,429	205,846	-0,146	-0,160
9,444	32,519	-0,352	-0,214
10,459	320,256	-0,146	-0,196
11,473	-39,919	-0,336	-0,123
12,488	-132,868	-0,332	0,029
13,502	-66,584	-0,386	-0,107
14,517	132,692	-0,271	-0,246
15,531	25,110	-0,335	-0,195
16,546	46,846	-0,304	-0,199
17,561	127,169	-0,370	-0,330
18,575	94,165	-0,140	-0,112
19,590	73,277	-0,276	-0,203
20,604	286,327	-0,108	-0,138
21,619	129,212	-0,411	-0,370
22,634	99,629	-0,447	-0,365
23,648	228,429	-0,404	-0,465
24,663	79,112	-0,393	-0,297
25,677	131,998	-0,259	-0,235
26,692	228,749	-0,283	-0,326
27,707	69,754	-0,306	-0,222
28,721	14,213	-0,353	-0,193
29,736	92,707	-0,442	-0,351
30,750	38,499	-0,439	-0,275
31,765	131,932	-0,353	-0,320
32,780	6,111	-0,324	-0,168
33,794	172,366	-0,267	-0,271
34,809	33,860	-0,306	-0,187
35,823	-12,082	-0,484	-0,222
36,838	242,738	-0,308	-0,364
37,853	236,777	-0,344	-0,402
38,867	-2,513	-0,379	-0,186
39,882	107,854	-0,288	-0,241
40,896	151,281	-0,315	-0,302
41,911	29,519	-0,380	-0,226
42,926	49,809	-0,301	-0,199
43,940	102,177	-0,407	-0,334
44,955	-19,519	-0,299	-0,130
45,969	161,189	-0,252	-0,248
46,984	-86,866	-0,480	-0,102
47,999	11,485	-0,193	-0,103
49,013	99,477	-0,263	-0,214
50,028	82,642	-0,236	-0,180
51,042	285,749	-0,302	-0,383
52,057	34,572	-0,313	-0,192
53,071	245,420	-0,312	-0,369
54,086	432,303	-0,258	-0,394
55,101	-59,870	-0,335	-0,100
56,115	113,087	-0,292	-0,249
57,130	124,168	-0,344	-0,303
58,144	-63,212	-0,470	-0,135
59,159	180,726	-0,269	-0,278
60,174	86,327	-0,378	-0,292
61,188	134,648	-0,298	-0,272
62,203	-113,264	-0,329	-0,045
63,217	-72,928	-0,288	-0,074
64,232	48,417	-0,348	-0,229
65,247	-36,274	-0,329	-0,124
66,261	1,934	-0,438	-0,221
67,276	16,907	-0,337	-0,187
68,290	97,006	-0,292	-0,235
69,305	-71,775	-0,319	-0,083
70,320	-16,125	-0,332	-0,148
71,334	86,434	-0,283	-0,218
72,349	22,518	-0,428	-0,245
73,363	9,231	-0,385	-0,203
74,378	127,107	-0,199	-0,177
75,393	93,902	-0,282	-0,224
76,407	-20,649	-0,310	-0,133
77,422	-62,263	-0,265	-0,077
78,436	-148,245	-0,333	-0,019
79,451	-47,618	-0,261	-0,088
80,466	135,862	-0,313	-0,285
81,480	14,313	-0,299	-0,163
82,495	-68,579	-0,225	-0,061
83,509	154,488	-0,208	-0,200
84,524	-46,026	-0,196	-0,067
85,539	7,043	-0,295	-0,154
86,553	3,748	-0,319	-0,163
87,568	223,264	-0,197	-0,223
88,582	-0,120	-0,276	-0,137
89,597	-19,327	-0,329	-0,142
90,611	19,945	-0,300	-0,169
91,626	83,951	-0,189	-0,144
92,641	148,311	-0,290	-0,274
93,655	34,214	-0,234	-0,142
94,670	124,364	-0,252	-0,222
95,684	-87,271	-0,354	-0,075
96,699	-11,319	-0,298	-0,137
97,714	12,378	-0,192	-0,103
98,728	-13,946	-0,258	-0,116
99,743	-176,034	-0,204	-0,004
100,757	121,225	-0,297	-0,259
101,772	-25,674	-0,322	-0,132
102,787	-33,408	-0,311	-0,120
103,801	35,776	-0,320	-0,197
104,816	336,127	-0,117	-0,159
105,830	128,656	-0,265	-0,236
106,845	71,422	-0,215	-0,156
107,860	-6,062	-0,207	-0,098
108,874	-130,083	-0,297	-0,028
109,889	34,357	-0,285	-0,173
110,903	44,144	-0,283	-0,181
111,918	128,932	-0,230	-0,205
112,933	52,480	-0,178	-0,119
113,947	-25,941	-0,294	-0,120
114,962	-105,233	-0,113	-0,018
115,976	149,834	-0,390	-0,369
116,991	272,006	-0,166	-0,205
118,006	-55,363	-0,383	-0,119
119,020	32,172	-0,174	-0,105
120,035	463,464	-0,094	-0,148
121,049	418,011	-0,158	-0,236
122,064	5,873	-0,244	-0,125
123,079	15,779	-0,351	-0,192
124,093	14,059	-0,271	-0,147
125,108	16,883	-0,388	-0,214
126,122	241,935	-0,164	-0,192
127,137	40,275	-0,222	-0,139
128,151	-86,007	-0,109	-0,023
129,166	156,347	-0,232	-0,223
130,181	156,832	-0,153	-0,147
131,195	73,871	-0,302	-0,221
132,210	12,892	-0,399	-0,215
133,224	14,464	-0,257	-0,140
134,239	6,638	-0,288	-0,149
135,254	-87,932	-0,337	-0,070
136,268	228,463	-0,124	-0,141
137,283	58,944	-0,141	-0,096
138,297	10,005	-0,359	-0,190
139,312	132,023	-0,285	-0,256
140,327	100,546	-0,262	-0,212
141,341	-8,800	-0,250	-0,117
142,356	38,876	-0,247	-0,153
143,370	33,749	-0,332	-0,201
144,385	-29,089	-0,176	0,070
145,400	-94,735	-0,277	-0,052
146,414	40,543	-0,350	-0,219
147,429	65,800	-0,350	-0,247
148,443	103,053	-0,232	-0,190
149,458	194,208	-0,155	-0,163
150,473	95,512	-0,223	-0,177
151,487	75,151	-0,255	-0,187
152,502	83,800	-0,223	-0,170
153,516	-0,489	-0,392	-0,193
154,531	33,935	-0,324	-0,196
155,546	26,339	-0,237	-0,138
156,560	30,947	-0,089	-0,053
157,575	-143,540	-0,202	0,013
158,589	-116,097	-0,322	-0,041
159,604	-80,383	-0,325	-0,075
160,619	-18,417	-0,261	-0,113
161,633	46,214	-0,235	-0,152
162,648	123,445	-0,152	-0,133
163,662	117,472	-0,148	-0,127
164,677	-108,753	-0,097	-0,014
165,692	87,223	-0,256	-0,197
166,706	86,651	-0,231	-0,177
167,721	300,255	-0,200	-0,257
168,735	246,573	-0,128	-0,150
169,750	-58,379	-0,300	-0,090
170,764	800,000	-0,085	-0,174
171,779	141,846	-0,154	-0,142
172,794	-183,773	-0,180	-0,002
173,808	800,000	-0,085	-0,188
174,823	-89,641	-0,344	-0,070
175,837	-200,000	-0,081	-0,301
176,852	45,930	-0,249	-0,160
177,867	53,884	-0,273	-0,182
178,881	-35,225	-0,253	-0,095
179,896	237,287	-0,210	-0,242
180,910	30,592	-0,292	-0,173
181,925	113,334	-0,286	-0,241
182,940	-29,916	-0,297	-0,117
183,954	77,245	-0,255	-0,188
184,969	129,037	-0,342	-0,303
185,983	6,566	-0,180	-0,092
186,998	22,850	-0,158	-0,090
188,013	26,061	-0,184	-0,106
189,027	116,027	-0,157	-0,133
190,042	-91,381	-0,414	-0,081
191,056	178,606	-0,147	-0,149
192,071	800,000	-0,125	-0,285
193,086	470,034	-0,063	-0,098
194,100	10,341	-0,254	-0,134
195,115	271,727	-0,164	-0,201
196,129	-17,793	-0,340	-0,147
197,144	113,977	-0,201	-0,170
198,159	283,722	-0,138	-0,173
199,173	495,477	-0,169	-0,270
200,188	-70,824	-0,154	-0,040
201,202	303,600	-0,133	-0,172
202,217	-7,735	-0,199	-0,093
203,232	433,874	-0,123	-0,185
204,246	106,698	-0,235	-0,193
205,261	68,354	-0,254	-0,180
206,275	-200,000	0,003	-0,051
207,290	33,558	-0,104	-0,062
208,304	-73,161	-0,141	-0,036
209,319	-6,419	-0,228	-0,108
210,334	100,605	-0,163	-0,131
211,348	138,735	-0,205	-0,186
212,363	410,791	-0,174	-0,257
213,377	193,906	-0,225	-0,236
214,392	-54,657	-0,165	-0,051
215,407	466,795	0,076	-0,119
216,421	-16,120	-0,241	-0,106
217,436	127,110	-0,177	-0,155
218,450	113,105	-0,132	-0,111
219,465	216,734	-0,166	-0,183
220,480	86,159	-0,112	-0,086
221,494	70,310	-0,153	-0,109
222,509	10,998	-0,151	-0,080
223,523	-7,053	-0,108	-0,051
224,538	-54,466	-0,071	0,022
225,553	83,806	-0,185	-0,139
226,567	90,000	-0,171	-0,132
227,582	47,087	-0,233	-0,150
228,596	69,132	-0,137	-0,097
229,611	11,138	-0,280	-0,148
230,626	-168,813	-0,155	-0,004
231,640	242,123	-0,191	-0,222
232,655	-5,656	-0,154	-0,073
233,669	423,205	-0,160	-0,238
234,684	223,992	-0,210	-0,234
235,699	260,553	-0,127	-0,152
236,713	7,069	-0,112	-0,058
237,728	158,828	-0,239	-0,230
238,742	243,609	-0,123	-0,143
239,757	800,000	-0,053	-0,141
240,772	496,245	-0,139	-0,222
241,786	-92,028	-0,175	0,034
242,801	426,329	-0,086	-0,128
243,815	169,518	-0,171	-0,169
244,830	354,058	-0,132	-0,181
245,844	521,901	-0,043	-0,070
246,859	95,641	-0,221	-0,174
247,874	0,334	-0,300	-0,147
248,888	-31,611	-0,198	-0,076
249,903	666,651	-0,128	-0,230
250,917	-200,000	-0,051	-0,180
251,932	135,458	-0,194	-0,174
252,947	800,000	-0,070	-0,193
253,961	-25,388	-0,217	-0,088
254,976	487,773	-0,266	-0,420
255,990	748,107	-0,075	-0,140
257,005	14,369	-0,290	-0,156
258,020	107,397	-0,135	-0,111
259,034	44,767	-0,143	-0,091
260,049	434,781	-0,186	-0,279
261,063	779,051	-0,084	-0,159
262,078	35,972	-0,222	-0,134
263,093	13,205	-0,133	-0,071
264,107	183,562	-0,057	-0,058
265,122	793,171	-0,165	-0,315
266,136	621,298	-0,058	-0,101
267,151	-3,439	-0,185	-0,089
268,166	6,056	-0,256	-0,130
269,180	131,678	-0,158	-0,140
270,195	800,000	-0,077	-0,185
271,209	193,696	-0,182	-0,190
272,224	286,508	-0,144	-0,179
273,239	-157,527	-0,217	-0,009
274,253	44,075	-0,138	-0,087
275,268	-11,562	-0,283	-0,128
276,282	36,882	-0,299	-0,182
277,297	652,189	-0,142	-0,252
278,312	717,825	-0,082	-0,150
279,326	156,820	-0,080	-0,076
280,341	128,952	-0,251	-0,221
281,355	-149,289	-0,289	-0,016
282,370	171,335	-0,234	-0,232
283,384	352,337	-0,120	-0,164
284,399	212,199	-0,149	-0,162
285,414	214,852	-0,151	-0,165
286,428	96,411	-0,115	-0,091
287,443	581,180	-0,059	-0,100
288,457	140,683	-0,130	0,118
289,472	416,848	-0,099	-0,146
290,487	305,157	-0,166	-0,213
291,501	15,416	-0,197	-0,106
292,516	5,136	-0,127	-0,064
293,530	-54,205	-0,240	-0,075
294,545	-200,000	0,003	-0,064
295,560	-36,373	-0,197	-0,073
296,574	61,736	-0,224	-0,153
297,589	56,215	-0,170	-0,114
298,603	-85,510	-0,251	-0,053
299,618	102,254	-0,138	-0,111
300,633	-111,678	-0,198	-0,027
301,647	171,105	-0,141	-0,139
302,662	-8,343	-0,110	-0,051
303,676	-57,576	-0,192	-0,058
304,691	800,000	-0,046	-0,117
305,706	116,634	-0,190	-0,160
306,720	-2,380	-0,216	-0,103
307,735	-200,000	0,005	-0,136
308,749	451,050	-0,082	-0,125
309,764	-28,562	-0,169	0,067
310,779	-66,288	-0,092	-0,025
311,793	-35,896	-0,139	-0,051
312,808	-10,788	-0,224	-0,101
313,822	-6,281	-0,198	-0,092
314,837	-200,000	-0,051	-0,246
315,852	145,039	-0,172	-0,158
316,866	-27,842	0,043	-0,017
317,881	237,863	-0,099	-0,113
318,895	-33,166	-0,306	-0,116
319,910	258,407	-0,200	-0,237
320,925	-74,597	-0,207	-0,051
321,939	-7,281	-0,145	-0,067
322,954	-20,827	-0,167	-0,070
323,968	141,075	-0,158	-0,144
324,983	-151,069	-0,196	-0,010
325,997	387,538	-0,123	-0,175
327,012	34,028	-0,154	-0,092
328,027	477,593	-0,138	-0,215
329,041	244,519	-0,087	-0,101
330,056	800,000	-0,087	-0,181
331,070	130,015	-0,088	-0,077
332,085	176,771	-0,123	-0,123
333,100	133,973	-0,146	-0,129
334,114	-121,192	-0,129	-0,015
335,129	189,766	-0,176	-0,181
336,143	24,802	-0,223	-0,126
337,158	-200,000	-0,021	-0,155
338,173	76,616	-0,144	-0,104
339,187	-78,457	-0,107	0,025
340,202	-96,322	-0,129	-0,023
341,216	247,200	-0,087	0,101
342,231	-49,386	-0,246	-0,080
343,246	9,647	-0,166	-0,086
344,260	-14,061	-0,135	-0,059
345,275	125,487	-0,066	0,057
346,289	-4,917	-0,136	-0,064
347,304	26,441	-0,140	-0,080
348,319	-78,336	-0,149	0,035
349,333	-40,599	-0,124	-0,044
350,348	357,140	-0,153	-0,210
351,362	229,505	-0,177	-0,198
352,377	-9,693	-0,118	-0,054
353,392	456,635	-0,020	-0,031
354,406	589,856	-0,071	-0,121
355,421	206,484	1311,122	1398,704
356,435	158,805	1471,388	1399,197
