DTS Sentinel unit serial number:	SN410029Multiplexer serial number:	ORYXHardware model number:	OX2-SRSoftware version number:	ORYX F/W v4,00 Oryx Data Collector v3.7.2.0data status	okinstallation	B3 Nyhavnadifferential loss correction	single-endedforward channel	channel 1reverse channel	N/Adate	2023/12/04time	23:07:30forward acquisition time	300,00reverse acquisition time	0,00gamma	499,1914k internal	0,3200k external	0,3200temperature offset calibration	1,0000default loss term (dB/km)	0,3820temperature slope calibration	1,0000multiplexer offset coefficient	1,0000multiplexer slope coefficient	1,0000fibre end	0,00T internal ref (°C)	14,31T ext. ref 1 (°C)	-1,00T ext. ref 2 (°C)	-1,03length (m)	temperature (°C)	Stokes	anti-Stokes-744,400	-200,000	-0,036	-0,123
-743,385	-200,000	0,056	0,352
-742,371	97,737	-0,241	-0,201
-741,356	-200,000	-0,020	0,331
-740,342	88,438	-0,161	-0,130
-739,327	-200,000	0,003	0,283
-738,312	-28,978	-0,225	-0,093
-737,298	-200,000	0,007	0,207
-736,283	-35,760	-0,306	-0,120
-735,269	-200,000	-0,020	0,166
-734,254	49,023	-0,248	-0,169
-733,239	93,447	-0,058	0,048
-732,225	37,734	-0,179	-0,115
-731,210	376,747	0,095	0,141
-730,196	-200,000	-0,017	-0,056
-729,181	98,084	0,066	-0,055
-728,167	215,002	-0,040	0,046
-727,152	225,815	-0,038	-0,045
-726,137	77,813	-0,104	-0,081
-725,123	-200,000	-0,015	-0,113
-724,108	-200,000	0,007	-0,114
-723,094	17,402	-0,095	-0,055
-722,079	-200,000	-0,030	-0,108
-721,064	262,359	0,032	-0,041
-720,050	-90,187	0,068	-0,014
-719,035	-67,349	-0,063	0,018
-718,021	22,944	-0,127	-0,076
-717,006	437,459	-0,075	-0,119
-715,991	-195,120	-0,043	0,000
-714,977	800,000	-0,049	-0,111
-713,962	-34,521	0,115	-0,046
-712,948	40,974	0,049	-0,032
-711,933	475,516	0,030	-0,049
-710,918	6,869	0,052	0,028
-709,904	19,154	-0,121	0,071
-708,889	82,945	0,044	0,035
-707,875	27,080	0,006	-0,004
-706,860	-200,000	-0,008	0,047
-705,845	-200,000	-0,001	-0,040
-704,831	-200,000	-0,006	-0,083
-703,816	276,975	0,028	0,037
-702,802	264,401	-0,071	-0,090
-701,787	504,903	-0,055	-0,093
-700,772	-119,326	-0,110	0,014
-699,758	146,196	-0,039	0,038
-698,743	800,000	0,018	0,044
-697,729	-200,000	0,000	-0,133
-696,714	-3,356	-0,038	0,019
-695,699	396,489	-0,047	-0,071
-694,685	-58,346	-0,045	0,014
-693,670	-17,771	-0,111	0,051
-692,656	-200,000	-0,031	-0,149
-691,641	111,055	0,040	-0,035
-690,627	6,918	0,105	0,056
-689,612	800,000	0,034	-0,100
-688,597	87,102	-0,115	-0,092
-687,583	-92,484	-0,091	0,018
-686,568	800,000	-0,012	-0,032
-685,554	136,511	0,093	-0,088
-684,539	137,148	-0,127	-0,121
-683,524	800,000	0,058	-0,151
-682,510	-200,000	0,019	-0,167
-681,495	800,000	-0,033	0,097
-680,481	-95,256	-0,057	0,011
-679,466	800,000	-0,030	-0,079
-678,451	22,849	-0,007	-0,004
-677,437	800,000	0,024	-0,067
-676,422	164,194	0,106	-0,109
-675,408	-63,454	0,130	0,039
-674,393	-121,080	0,078	-0,009
-673,378	159,170	-0,154	-0,156
-672,364	-128,643	-0,020	-0,002
-671,349	-178,408	-0,164	0,003
-670,335	-67,591	0,124	-0,035
-669,320	-68,975	-0,120	0,033
-668,305	-200,000	-0,004	-0,170
-667,291	-200,000	-0,026	-0,107
-666,276	-97,867	0,061	-0,011
-665,262	157,978	0,051	-0,051
-664,247	555,562	0,014	-0,024
-663,232	800,000	0,007	0,016
-662,218	-67,425	-0,032	0,009
-661,203	96,956	-0,049	-0,040
-660,189	-166,685	-0,107	-0,003
-659,174	-113,113	-0,044	-0,006
-658,159	455,453	0,071	-0,115
-657,145	-125,306	-0,078	-0,009
-656,130	79,875	0,080	-0,062
-655,116	-86,857	0,137	-0,030
-654,101	281,382	-0,024	-0,031
-653,086	800,000	-0,051	0,108
-652,072	800,000	-0,058	0,148
-651,057	-185,334	0,041	0,000
-650,043	-200,000	0,001	-0,097
-649,028	800,000	0,052	-0,138
-648,014	46,414	0,046	0,031
-646,999	-80,751	-0,131	-0,031
-645,984	-200,000	0,001	0,038
-644,970	-200,000	-0,033	-0,119
-643,955	-200,000	-0,007	0,091
-642,941	176,268	-0,093	0,098
-641,926	-54,787	-0,018	-0,006
-640,911	-127,557	-0,191	-0,020
-639,897	800,000	0,032	0,090
-638,882	-68,550	-0,048	0,013
-637,868	678,521	0,047	-0,089
-636,853	-200,000	0,013	-0,113
-635,838	-122,989	-0,208	-0,024
-634,824	109,591	0,017	-0,015
-633,809	191,465	-0,028	0,031
-632,795	70,286	0,052	0,039
-631,780	-200,000	0,013	-0,060
-630,765	-85,028	0,033	0,007
-629,751	13,059	-0,066	-0,037
-628,736	-22,738	-0,107	-0,047
-627,722	158,858	-0,078	0,078
-626,707	58,804	0,099	0,070
-625,692	800,000	0,087	0,176
-624,678	-21,702	-0,043	0,019
-623,663	-200,000	-0,002	0,025
-622,649	67,410	0,024	-0,018
-621,634	186,703	-0,078	-0,084
-620,619	800,000	-0,013	0,037
-619,605	4,931	0,089	-0,047
-618,590	-146,141	0,048	0,003
-617,576	800,000	-0,026	0,058
-616,561	699,749	-0,021	0,041
-615,546	800,000	-0,044	-0,115
-614,532	121,274	-0,071	-0,064
-613,517	172,114	-0,107	-0,112
-612,503	597,341	0,061	-0,111
-611,488	-51,549	0,087	-0,029
-610,474	63,498	0,051	0,037
-609,459	-165,702	0,039	-0,001
-608,444	-18,888	-0,091	0,041
-607,430	641,280	0,103	-0,190
-606,415	562,533	-0,076	-0,133
-605,401	-200,000	0,002	0,055
-604,386	-200,000	0,006	0,156
-603,371	-130,708	0,145	-0,014
-602,357	800,000	0,018	-0,036
-601,342	152,234	-0,077	-0,076
-600,328	-24,659	-0,066	0,028
-599,313	98,201	-0,055	-0,046
-598,298	34,054	0,054	-0,034
-597,284	800,000	-0,058	0,117
-596,269	39,172	0,044	0,029
-595,255	136,690	-0,026	-0,025
-594,240	193,622	-0,057	-0,063
-593,225	-105,383	-0,172	-0,028
-592,211	-93,294	-0,163	0,033
-591,196	266,225	0,040	-0,051
-590,182	800,000	-0,017	0,047
-589,167	78,389	0,058	0,045
-588,152	254,812	0,035	0,044
-587,138	6,165	0,111	0,059
-586,123	-200,000	-0,020	-0,089
-585,109	-200,000	-0,015	-0,161
-584,094	410,165	-0,043	0,066
-583,079	800,000	0,041	0,104
-582,065	271,916	0,100	0,127
-581,050	426,253	0,027	0,042
-580,036	800,000	0,032	-0,099
-579,021	249,190	0,036	0,045
-578,006	-41,639	-0,157	-0,058
-576,992	-16,478	-0,092	-0,042
-575,977	-87,974	0,134	-0,029
-574,963	272,768	0,037	0,047
-573,948	-79,598	-0,103	-0,025
-572,934	-44,247	0,129	-0,047
-571,919	597,370	0,072	0,129
-570,904	592,808	-0,016	-0,029
-569,890	348,522	-0,050	-0,071
-568,875	-200,000	-0,026	-0,088
-567,861	310,397	0,026	0,035
-566,846	298,533	0,106	0,141
-565,831	587,423	-0,038	0,068
-564,817	737,746	0,027	-0,053
-563,802	223,997	0,004	-0,004
-562,788	11,330	-0,054	0,030
-561,773	538,132	-0,081	-0,139
-560,758	800,000	-0,054	-0,121
-559,744	13,543	0,091	0,051
-558,729	390,688	-0,097	0,145
-557,715	-200,000	-0,043	0,153
-556,700	-56,863	-0,072	-0,023
-555,685	-200,000	0,052	-0,213
-554,671	-200,000	-0,041	-0,147
-553,656	85,202	-0,129	0,102
-552,642	-200,000	0,023	0,091
-551,627	354,252	-0,057	0,083
-550,612	14,189	0,027	-0,015
-549,598	800,000	-0,062	-0,123
-548,583	-200,000	-0,009	0,079
-547,569	800,000	0,018	-0,052
-546,554	-200,000	0,009	0,112
-545,539	-200,000	0,003	-0,049
-544,525	121,628	-0,126	-0,113
-543,510	-200,000	0,010	-0,055
-542,496	-200,000	-0,010	0,051
-541,481	-51,423	-0,107	0,036
-540,466	-54,581	-0,038	-0,012
-539,452	-25,918	0,119	-0,050
-538,437	800,000	0,020	-0,061
-537,423	282,035	-0,085	-0,110
-536,408	230,141	-0,015	-0,017
-535,393	251,829	0,029	-0,036
-534,379	-200,000	-0,018	-0,098
-533,364	1,703	-0,081	0,042
-532,350	-200,000	-0,017	0,086
-531,335	-200,000	0,135	0,000
-530,321	-200,000	-0,005	0,032
-529,306	-200,000	-0,019	-0,097
-528,291	126,808	0,083	-0,076
-527,277	49,939	-0,069	-0,047
-526,262	800,000	0,008	0,022
-525,248	-68,200	0,121	0,034
-524,233	-200,000	0,009	-0,074
-523,218	800,000	0,047	0,139
-522,204	767,989	-0,005	-0,009
-521,189	29,715	-0,123	0,076
-520,175	-200,000	0,011	-0,087
-519,160	74,265	0,089	-0,067
-518,145	-200,000	0,002	-0,063
-517,131	-183,933	-0,065	0,001
-516,116	-200,000	0,010	0,042
-515,102	800,000	-0,033	-0,078
-514,087	-44,935	-0,097	0,035
-513,072	8,887	-0,059	0,032
-512,058	28,720	0,118	0,072
-511,043	800,000	0,054	0,154
-510,029	254,135	0,041	0,050
-509,014	190,183	-0,003	0,003
-507,999	-200,000	-0,018	0,103
-506,985	82,652	-0,063	0,049
-505,970	-35,176	-0,075	0,029
-504,956	800,000	-0,008	0,015
-503,941	-144,309	0,142	0,009
-502,926	-73,554	0,139	0,036
-501,912	694,748	0,095	0,180
-500,897	800,000	0,014	0,041
-499,883	285,742	-0,095	-0,124
-498,868	30,861	-0,057	-0,035
-497,853	-146,374	-0,087	0,005
-496,839	34,205	-0,138	-0,086
-495,824	439,659	-0,021	-0,033
-494,810	265,666	0,010	0,013
-493,795	218,685	0,087	0,101
-492,781	-200,000	-0,010	-0,031
-491,766	-138,019	-0,084	-0,007
-490,751	57,402	-0,075	0,053
-489,737	109,893	0,033	-0,028
-488,722	-200,000	0,016	0,068
-487,708	-200,000	0,015	0,098
-486,693	74,100	0,078	0,059
-485,678	-18,666	-0,137	0,061
-484,664	-133,670	0,089	0,008
-483,649	253,697	-0,136	-0,167
-482,635	-200,000	-0,025	-0,176
-481,620	12,822	0,101	-0,056
-480,605	-200,000	-0,003	0,048
-479,591	-89,163	0,093	0,020
-478,576	358,278	-0,054	-0,079
-477,562	-105,833	-0,086	-0,014
-476,547	402,397	-0,069	-0,105
-475,532	116,664	-0,043	0,038
-474,518	-126,568	-0,053	0,006
-473,503	478,675	0,042	0,068
-472,489	-42,148	0,174	-0,064
-471,474	-200,000	-0,033	-0,133
-470,459	136,368	0,127	-0,119
-469,445	800,000	-0,016	0,043
-468,430	-16,964	-0,146	-0,066
-467,416	-15,453	0,131	0,060
-466,401	-200,000	-0,008	0,061
-465,386	198,822	-0,141	0,155
-464,372	-149,835	0,082	-0,005
-463,357	70,283	-0,124	-0,092
-462,343	-200,000	-0,001	0,044
-461,328	-101,818	-0,103	0,018
-460,313	-19,390	0,085	0,038
-459,299	800,000	-0,041	0,090
-458,284	-200,000	0,034	0,134
-457,270	-94,652	0,081	-0,016
-456,255	-200,000	-0,029	-0,137
-455,241	13,517	0,179	-0,100
-454,226	80,950	0,023	-0,018
-453,211	160,275	0,025	-0,025
-452,197	-97,912	0,098	0,018
-451,182	-200,000	-0,006	0,150
-450,168	-60,519	-0,111	-0,034
-449,153	-171,078	0,121	0,003
-448,138	196,852	0,023	0,026
-447,124	444,143	-0,064	-0,102
-446,109	-45,054	-0,115	0,041
-445,095	-171,131	0,063	0,001
-444,080	-71,519	0,139	0,037
-443,065	216,962	-0,045	0,052
-442,051	198,704	0,048	-0,053
-441,036	-121,766	-0,121	0,014
-440,022	-200,000	-0,006	0,086
-439,007	-13,569	-0,107	-0,050
-437,992	-72,488	0,142	-0,037
-436,978	-200,000	-0,040	0,157
-435,963	263,221	0,046	0,058
-434,949	-105,481	-0,056	-0,009
-433,934	-200,000	-0,021	0,099
-432,919	-58,287	0,045	0,014
-431,905	-20,355	-0,089	-0,039
-430,890	-200,000	-0,003	-0,021
-429,876	565,068	0,059	0,102
-428,861	387,985	-0,047	0,071
-427,846	115,523	0,048	-0,042
-426,832	-180,513	0,069	-0,001
-425,817	-200,000	-0,000	0,017
-424,803	-200,000	0,044	-0,165
-423,788	-89,474	-0,111	0,023
-422,773	535,332	0,029	-0,049
-421,759	318,415	0,075	-0,103
-420,744	-200,000	-0,034	-0,126
-419,730	94,129	0,030	-0,024
-418,715	-200,000	-0,038	-0,211
-417,701	-50,300	-0,097	-0,033
-416,686	800,000	-0,027	-0,055
-415,671	-56,271	0,273	0,087
-414,657	291,805	0,060	0,079
-413,642	-200,000	0,021	-0,132
-412,628	18,111	-0,063	-0,036
-411,613	65,194	0,035	0,026
-410,598	-200,000	0,004	-0,056
-409,584	108,507	-0,064	0,054
-408,569	-88,471	-0,009	-0,002
-407,555	-79,394	0,163	-0,039
-406,540	340,204	0,091	-0,128
-405,525	-200,000	0,016	0,097
-404,511	-142,829	-0,031	0,002
-403,496	443,342	0,078	-0,123
-402,482	-166,524	0,025	0,001
-401,467	-200,000	0,003	0,034
-400,452	133,644	-0,012	0,011
-399,438	188,043	-0,053	0,057
-398,423	-200,000	0,016	0,168
-397,409	-75,292	0,099	0,025
-396,394	473,755	0,072	-0,117
-395,379	327,623	0,027	0,037
-394,365	-145,104	0,078	-0,005
-393,350	800,000	-0,032	0,102
-392,336	258,258	0,043	0,054
-391,321	-119,699	-0,134	0,016
-390,306	-200,000	-0,012	0,053
-389,292	58,815	0,080	-0,056
-388,277	-200,000	0,026	0,096
-387,263	-16,325	-0,107	-0,049
-386,248	292,350	-0,053	0,069
-385,233	269,884	0,023	0,030
-384,219	800,000	0,048	0,116
-383,204	481,720	0,022	-0,036
-382,190	107,500	0,093	-0,079
-381,175	33,127	-0,112	0,070
-380,160	35,543	0,131	0,082
-379,146	-86,821	0,108	0,023
-378,131	360,115	-0,045	-0,064
-377,117	800,000	0,052	0,130
-376,102	-197,018	0,077	-0,000
-375,088	-200,000	-0,012	-0,047
-374,073	-129,894	-0,099	-0,010
-373,058	800,000	-0,006	-0,020
-372,044	-200,000	-0,010	-0,041
-371,029	-45,143	0,087	0,031
-370,015	401,596	0,049	0,073
-369,000	130,623	-0,124	-0,114
-367,985	-37,320	-0,107	-0,041
-366,971	-138,966	0,089	0,007
-365,956	800,000	0,021	0,042
-364,942	-68,717	-0,069	-0,019
-363,927	-121,002	0,052	0,006
-362,912	-54,420	-0,100	0,032
-361,898	159,643	0,042	0,042
-360,883	-200,000	0,001	-0,011
-359,869	-45,870	-0,118	-0,041
-358,854	-93,787	-0,138	0,027
-357,839	-1,533	0,105	-0,053
-356,825	-185,563	0,091	-0,001
-355,810	-55,613	-0,111	0,035
-354,796	58,821	0,052	0,037
-353,781	109,671	-0,120	0,103
-352,766	76,831	0,119	0,090
-351,752	800,000	0,039	-0,085
-350,737	102,448	0,047	0,039
-349,723	800,000	0,013	0,038
-348,708	-114,962	0,079	0,011
-347,693	65,850	0,030	0,022
-346,679	696,687	-0,058	0,110
-345,664	-200,000	-0,015	-0,068
-344,650	452,124	0,082	-0,131
-343,635	444,831	-0,061	0,096
-342,620	230,624	-0,015	-0,017
-341,606	-137,605	0,135	-0,011
-340,591	-200,000	-0,017	-0,100
-339,577	-43,491	0,093	-0,034
-338,562	110,872	-0,052	0,044
-337,548	316,667	-0,026	-0,036
-336,533	800,000	0,029	0,063
-335,518	341,197	0,036	0,051
-334,504	-139,420	0,153	-0,012
-333,489	-165,801	-0,076	-0,002
-332,475	-200,000	0,008	0,083
-331,460	5,871	-0,150	-0,079
-330,445	272,078	0,029	-0,037
-329,431	800,000	0,023	0,060
-328,416	231,517	0,106	0,125
-327,402	-102,713	-0,075	-0,013
-326,387	23,835	-0,059	0,035
-325,372	36,641	-0,155	-0,098
-324,358	121,738	0,063	0,056
-323,343	-172,530	-0,094	-0,002
-322,329	-200,000	-0,001	0,081
-321,314	800,000	0,044	0,118
-320,299	350,614	-0,083	0,118
-319,285	484,521	-0,042	0,069
-318,270	463,743	0,031	0,049
-317,256	-94,533	0,070	-0,014
-316,241	-200,000	-0,002	-0,010
-315,226	-133,238	0,127	-0,011
-314,212	-27,118	-0,098	-0,041
-313,197	-200,000	-0,015	0,000
-312,183	53,680	0,090	-0,062
-311,168	-200,000	0,004	-0,016
-310,153	-97,272	-0,115	-0,021
-309,139	800,000	-0,050	0,109
-308,124	800,000	-0,037	0,074
-307,110	41,869	0,091	0,059
-306,095	-200,000	-0,018	-0,068
-305,080	-66,278	0,011	-0,003
-304,066	-83,799	0,155	-0,035
-303,051	800,000	-0,063	-0,179
-302,037	-51,917	0,045	-0,015
-301,022	-139,267	0,165	0,013
-300,008	34,346	0,011	-0,007
-298,993	446,912	0,071	0,113
-297,978	800,000	0,036	0,102
-296,964	265,491	0,092	0,115
-295,949	535,462	-0,031	0,053
-294,935	83,731	-0,022	-0,017
-293,920	198,629	0,141	0,155
-292,905	131,943	-0,049	0,045
-291,891	-64,351	0,070	0,020
-290,876	-82,358	-0,041	0,009
-289,862	-200,000	0,013	0,074
-288,847	310,767	-0,043	-0,058
-287,832	243,810	-0,020	0,025
-286,818	800,000	0,055	0,130
-285,803	747,306	-0,058	-0,113
-284,789	-200,000	0,002	0,012
-283,774	800,000	0,037	0,101
-282,759	387,890	-0,045	0,067
-281,745	43,223	-0,139	-0,090
-280,730	800,000	0,032	-0,090
-279,716	-200,000	0,002	-0,065
-278,701	-130,821	-0,093	-0,009
-277,686	-200,000	0,025	0,097
-276,672	-101,586	-0,105	-0,018
-275,657	-200,000	0,005	-0,098
-274,643	800,000	0,015	-0,035
-273,628	56,819	-0,044	-0,031
-272,613	68,109	-0,010	0,007
-271,599	186,017	0,050	0,053
-270,584	-1,518	-0,078	0,039
-269,570	100,288	0,035	-0,029
-268,555	800,000	-0,028	-0,057
-267,540	659,963	-0,037	0,068
-266,526	-62,842	-0,031	0,009
-265,511	-119,364	-0,036	0,004
-264,497	186,465	-0,009	-0,010
-263,482	174,805	0,072	-0,074
-262,467	679,378	-0,055	-0,103
-261,453	-200,000	0,017	0,084
-260,438	48,672	0,087	-0,058
-259,424	-58,054	0,057	0,018
-258,409	-0,804	0,043	0,021
-257,395	-123,929	0,190	-0,021
-256,380	130,238	0,170	0,155
-255,365	416,931	0,032	0,049
-254,351	445,243	0,020	-0,032
-253,336	-200,000	0,017	-0,093
-252,322	291,715	-0,033	-0,043
-251,307	-200,000	-0,035	-0,168
-250,292	81,728	0,088	0,068
-249,278	800,000	0,019	0,047
-248,263	800,000	-0,002	0,006
-247,249	105,059	-0,066	-0,056
-246,234	800,000	-0,032	-0,092
-245,219	-182,075	-0,090	-0,001
-244,205	-127,551	0,067	0,007
-243,190	38,688	-0,029	-0,019
-242,176	428,430	0,013	-0,021
-241,161	727,669	0,029	-0,055
-240,146	4,510	-0,138	0,072
-239,132	-97,164	0,140	-0,026
-238,117	123,679	-0,055	-0,049
-237,103	-200,000	-0,039	-0,155
-236,088	160,199	-0,011	-0,011
-235,073	800,000	0,035	0,104
-234,059	38,838	0,107	0,068
-233,044	-88,866	-0,059	0,012
-232,030	249,004	-0,043	0,052
-231,015	-63,382	-0,112	-0,033
-230,000	-200,000	0,003	-0,085
-228,986	800,000	-0,034	-0,094
-227,971	358,259	0,014	-0,020
-226,957	800,000	0,064	0,162
-225,942	800,000	0,052	-0,105
-224,927	800,000	-0,024	-0,073
-223,913	46,538	-0,053	0,035
-222,898	-92,436	-0,046	-0,009
-221,884	-200,000	-0,067	-0,242
-220,869	-41,883	-0,139	-0,051
-219,855	212,000	-0,058	-0,065
-218,840	473,126	-0,024	0,038
-217,825	291,918	0,024	0,032
-216,811	-75,068	0,081	-0,021
-215,796	-200,000	0,024	-0,141
-214,782	433,128	0,060	0,094
-213,767	287,854	-0,124	0,161
-212,752	-200,000	0,001	0,021
-211,738	-98,723	0,144	0,026
-210,723	800,000	0,045	0,115
-209,709	61,274	-0,145	-0,103
-208,694	614,336	-0,072	-0,130
-207,679	71,185	-0,048	-0,036
-206,665	800,000	0,026	-0,053
-205,650	-24,147	0,223	0,094
-204,636	434,413	-0,094	-0,145
-203,621	-3,319	-0,081	0,040
-202,606	-102,362	-0,067	-0,011
-201,592	-44,769	0,079	-0,028
-200,577	-91,231	0,052	-0,010
-199,563	-200,000	-0,004	-0,030
-198,548	20,523	-0,044	-0,025
-197,533	800,000	0,080	0,168
-196,519	-134,581	0,097	-0,008
-195,504	-52,893	0,072	-0,024
-194,490	709,900	-0,006	0,011
-193,475	-33,648	-0,142	-0,056
-192,460	112,153	0,044	0,038
-191,446	-50,032	0,053	-0,018
-190,431	266,375	-0,107	0,133
-189,417	48,944	-0,011	-0,007
-188,402	-200,000	-0,019	-0,104
-187,387	-27,821	-0,067	-0,027
-186,373	-200,000	-0,040	-0,139
-185,358	-38,167	-0,118	-0,044
-184,344	107,951	0,086	0,073
-183,329	-52,590	-0,047	0,015
-182,315	800,000	-0,029	-0,073
-181,300	-95,534	0,086	-0,016
-180,285	184,173	-0,065	-0,068
-179,271	131,776	0,009	-0,008
-178,256	67,363	-0,161	0,117
-177,242	-71,262	0,146	-0,039
-176,227	187,021	-0,110	0,117
-175,212	800,000	0,065	0,136
-174,198	800,000	-0,020	-0,046
-173,183	-200,000	-0,026	-0,141
-172,169	-33,650	-0,037	-0,014
-171,154	308,559	0,066	0,087
-170,139	-34,307	0,082	-0,032
-169,125	800,000	0,047	0,102
-168,110	-200,000	0,007	0,233
-167,096	-200,000	0,006	-0,035
-166,081	800,000	-0,044	-0,129
-165,066	-200,000	0,003	0,026
-164,052	-37,013	-0,197	-0,075
-163,037	-19,326	0,022	-0,010
-162,023	-200,000	0,007	0,072
-161,008	-25,287	0,067	-0,028
-159,993	-128,524	0,153	0,015
-158,979	-42,469	-0,086	0,031
-157,964	2,382	0,037	-0,019
-156,950	-64,388	-0,077	0,022
-155,935	-73,660	0,006	-0,001
-154,920	-61,166	0,174	0,052
-153,906	277,348	0,060	-0,077
-152,891	89,042	0,081	-0,064
-151,877	49,743	-0,180	0,120
-150,862	-41,661	0,070	0,025
-149,847	800,000	-0,019	-0,043
-148,833	-200,000	-0,021	0,136
-147,818	-71,032	-0,056	-0,015
-146,804	-143,954	0,031	0,002
-145,789	505,275	0,035	0,057
-144,775	41,036	0,053	-0,034
-143,760	-160,488	0,067	0,002
-142,745	439,809	0,028	-0,044
-141,731	-163,024	-0,112	-0,004
-140,716	-200,000	-0,008	0,057
-139,702	411,971	0,059	0,089
-138,687	-149,128	-0,081	0,005
-137,672	-53,655	0,076	-0,025
-136,658	-121,398	-0,149	-0,017
-135,643	-200,000	0,012	-0,056
-134,629	158,245	-0,059	-0,058
-133,614	157,777	-0,014	0,013
-132,599	-200,000	-0,008	0,071
-131,585	515,333	0,060	-0,101
-130,570	-200,000	-0,026	-0,101
-129,556	-200,000	-0,012	-0,153
-128,541	-124,562	0,042	-0,005
-127,526	-59,301	-0,166	-0,051
-126,512	-200,000	0,002	0,089
-125,497	800,000	0,021	0,057
-124,483	151,949	0,106	0,103
-123,468	665,032	-0,076	0,139
-122,453	-200,000	0,022	0,127
-121,439	-72,209	-0,147	-0,039
-120,424	248,266	0,061	0,074
-119,410	800,000	-0,024	0,055
-118,395	153,816	0,105	0,102
-117,380	-88,371	0,083	0,017
-116,366	621,067	-0,039	-0,070
-115,351	-200,000	0,035	-0,206
-114,337	187,355	0,057	-0,061
-113,322	71,727	-0,097	-0,072
-112,307	-200,000	-0,023	-0,127
-111,293	84,571	0,042	-0,032
-110,278	-113,111	0,222	-0,031
-109,264	-110,397	-0,082	-0,012
-108,249	-200,000	-0,004	-0,059
-107,234	-88,666	0,089	-0,019
-106,220	800,000	-0,018	0,043
-105,205	-73,302	0,096	-0,025
-104,191	196,196	-0,056	-0,061
-103,176	92,904	0,088	0,070
-102,162	-65,758	0,089	-0,025
-101,147	-200,000	-0,007	-0,101
-100,132	-200,000	0,004	-0,135
-99,118	199,468	-0,011	-0,012
-98,103	-200,000	-0,003	-0,113
-97,089	800,000	-0,029	0,078
-96,074	-68,774	0,062	-0,017
-95,059	-45,797	-0,114	0,040
-94,045	76,895	0,055	-0,041
-93,030	46,249	-0,040	0,026
-92,016	136,278	-0,080	-0,074
-91,001	-20,617	-0,024	-0,010
-89,986	-182,111	0,090	0,001
-88,972	28,155	-0,044	0,026
-87,957	152,303	-0,082	0,080
-86,943	800,000	-0,038	-0,076
-85,928	800,000	0,026	-0,066
-84,913	-21,881	-0,033	0,014
-83,899	-200,000	-0,016	-0,113
-82,884	800,000	0,019	-0,046
-81,870	-200,000	-0,026	0,126
-80,855	616,788	0,015	0,026
-79,840	-200,000	-0,017	0,157
-78,826	-191,735	0,062	-0,000
-77,811	-50,217	0,082	-0,027
-76,797	105,516	0,053	-0,045
-75,782	-200,000	0,013	-0,060
-74,767	305,548	0,039	0,052
-73,753	-39,677	0,155	-0,057
-72,738	-97,215	-0,094	0,017
-71,724	740,798	-0,055	-0,104
-70,709	-26,968	-0,135	-0,056
-69,694	-4,844	0,142	0,069
-68,680	800,000	-0,041	-0,091
-67,665	-146,430	-0,055	0,003
-66,651	-200,000	0,018	-0,114
-65,636	800,000	0,031	0,064
-64,622	-135,542	0,070	-0,006
-63,607	-103,584	-0,051	-0,008
-62,592	-3,980	0,030	0,015
-61,578	256,333	0,122	0,148
-60,563	800,000	0,016	-0,043
-59,549	-200,000	-0,011	0,073
-58,534	-31,591	-1,416	-0,561
-57,519	336,871	-1,512	-2,086
-56,505	-200,000	-0,572	-4,496
-55,490	166,562	0,917	0,921
-54,476	800,000	4,909	11,493
-53,461	-200,000	18,683	301,353
-52,446	800,000	734,333	2276,576
-51,432	563,329	1650,429	2841,256
-50,417	78,898	1669,307	1264,143
-49,403	22,265	1542,231	889,891
-48,388	16,186	1465,206	815,923
-47,373	17,755	1455,262	817,931
-46,359	16,935	1445,432	808,441
-45,344	14,397	1440,801	793,674
-44,330	14,354	1438,642	792,245
-43,315	14,326	1437,382	791,385
-42,300	14,363	1435,526	790,509
-41,286	14,428	1434,242	790,080
-40,271	14,392	1432,777	789,071
-39,257	14,342	1431,785	788,254
-38,242	14,426	1430,405	787,863
-37,227	14,451	1429,061	787,210
-36,213	14,409	1428,118	786,460
-35,198	14,451	1426,653	785,824
-34,184	14,437	1425,890	785,303
-33,169	14,409	1424,390	784,315
-32,154	14,431	1423,498	783,899
-31,140	14,431	1422,097	783,095
-30,125	14,431	1420,910	782,409
-29,111	14,405	1420,019	781,764
-28,096	14,367	1418,853	780,911
-27,082	14,343	1417,690	780,131
-26,067	14,352	1416,793	779,645
-25,052	14,299	1415,773	778,806
-24,038	14,302	1414,561	778,119
-23,023	14,296	1413,689	777,581
-22,009	14,323	1412,524	777,040
-20,994	14,334	1411,718	776,616
-19,979	14,309	1410,879	776,005
-18,965	14,306	1409,713	775,320
-17,950	14,270	1408,803	774,621
-16,936	14,320	1407,980	774,371
-15,921	14,207	1407,057	773,305
-14,906	14,193	1406,144	772,705
-13,892	14,271	1405,102	772,467
-12,877	14,250	1404,195	771,838
-11,863	14,211	1403,456	771,220
-10,848	14,200	1402,340	770,526
-9,833	14,200	1401,463	770,015
-8,819	14,150	1400,683	769,322
-7,804	14,188	1399,717	768,938
-6,790	14,126	1398,644	768,027
-5,775	14,108	1397,715	767,404
-4,760	14,162	1396,624	767,025
-3,746	14,130	1395,906	766,452
-2,731	14,125	1395,077	765,943
-1,717	14,139	1394,091	765,438
-0,702	14,086	1392,379	764,221
0,313	17,963	1310,360	737,157
1,327	34,411	705,845	435,179
2,342	52,828	124,170	83,900
3,356	-0,742	16,685	8,342
4,371	1,383	3,240	1,643
5,386	59,392	0,369	0,257
6,400	-200,000	-0,032	0,169
7,415	792,542	-0,174	-0,340
8,429	85,286	-0,253	-0,197
9,444	88,532	-0,302	-0,237
10,459	179,870	-0,170	-0,176
11,473	131,054	-0,256	-0,233
12,488	-51,101	-0,443	-0,146
13,502	73,327	-0,223	-0,165
14,517	-28,239	-0,410	-0,167
15,531	91,190	-0,264	-0,209
16,546	-34,022	-0,511	-0,198
17,561	185,356	-0,404	-0,424
18,575	329,320	-0,191	-0,261
19,590	171,231	-0,269	-0,273
20,604	19,725	-0,167	-0,095
21,619	50,458	-0,359	-0,239
22,634	119,006	-0,442	-0,386
23,648	27,121	-0,461	-0,273
24,663	82,342	-0,398	-0,305
25,677	-27,853	-0,370	-0,151
26,692	227,349	-0,347	-0,399
27,707	18,791	-0,372	-0,210
28,721	138,292	-0,353	-0,327
29,736	4,654	-0,511	-0,264
30,750	236,878	-0,295	-0,345
31,765	317,361	-0,399	-0,534
32,780	-38,769	-0,409	-0,152
33,794	137,678	-0,291	-0,269
34,809	-39,054	-0,358	-0,132
35,823	15,350	-0,258	-0,142
36,838	-45,499	-0,400	-0,139
37,853	-33,498	-0,347	-0,135
38,867	58,136	-0,393	-0,271
39,882	71,367	-0,332	-0,243
40,896	48,517	-0,312	-0,206
41,911	-32,498	-0,417	-0,163
42,926	13,956	-0,468	-0,256
43,940	36,297	-0,455	-0,282
44,955	126,587	-0,395	-0,353
45,969	-27,161	-0,419	-0,171
46,984	58,860	-0,355	-0,246
47,999	-14,287	-0,267	-0,121
49,013	-81,919	-0,304	-0,070
50,028	98,819	-0,252	-0,205
51,042	10,688	-0,443	-0,238
52,057	169,985	-0,362	-0,365
53,071	404,040	-0,233	-0,346
54,086	20,717	-0,338	-0,192
55,101	34,503	-0,325	-0,200
56,115	150,557	-0,303	-0,290
57,130	127,278	-0,277	-0,248
58,144	149,196	-0,321	-0,306
59,159	-10,281	-0,390	-0,181
60,174	28,956	-0,434	-0,259
61,188	39,025	-0,337	-0,212
62,203	51,282	-0,327	-0,218
63,217	320,707	-0,133	-0,178
64,232	139,533	-0,289	-0,268
65,247	4,727	-0,266	-0,137
66,261	57,042	-0,342	-0,234
67,276	73,863	-0,286	-0,211
68,290	72,695	-0,394	-0,289
69,305	151,254	-0,366	-0,351
70,320	94,967	-0,336	-0,269
71,334	108,035	-0,205	-0,172
72,349	113,898	-0,234	-0,200
73,363	184,971	-0,271	-0,283
74,378	40,485	-0,365	-0,231
75,393	145,266	-0,270	-0,255
76,407	-4,821	-0,402	-0,194
77,422	-7,799	-0,329	-0,156
78,436	89,375	-0,177	-0,139
79,451	65,740	-0,344	-0,245
80,466	73,329	-0,308	-0,226
81,480	8,184	-0,389	-0,205
82,495	-24,615	-0,379	-0,158
83,509	17,968	-0,250	-0,140
84,524	-12,844	-0,273	-0,124
85,539	47,255	-0,312	-0,204
86,553	-81,152	-0,353	-0,081
87,568	118,254	-0,208	-0,180
88,582	67,518	-0,300	-0,215
89,597	-116,695	-0,283	-0,036
90,611	74,150	-0,418	-0,308
91,626	17,773	-0,211	-0,117
92,641	-47,603	-0,325	-0,110
93,655	104,591	-0,156	-0,129
94,670	49,849	-0,398	-0,263
95,684	-42,715	-0,320	-0,114
96,699	52,195	-0,391	-0,261
97,714	202,913	-0,268	-0,291
98,728	161,190	-0,216	-0,212
99,743	273,292	-0,107	-0,133
100,757	8,474	-0,393	-0,207
101,772	176,537	-0,196	-0,200
102,787	159,524	-0,394	-0,385
103,801	125,097	-0,235	-0,208
104,816	-32,804	-0,315	-0,122
105,830	32,408	-0,262	-0,159
106,845	87,623	-0,287	-0,223
107,860	-25,316	-0,242	-0,100
108,874	-67,718	-0,240	-0,065
109,889	121,239	-0,240	-0,210
110,903	52,554	-0,310	-0,207
111,918	98,028	-0,185	-0,149
112,933	-7,657	-0,199	-0,094
113,947	-76,523	-0,219	-0,054
114,962	406,853	-0,232	-0,344
115,976	6,452	-0,273	-0,142
116,991	21,958	-0,342	-0,195
118,006	4,841	-0,317	-0,163
119,020	-57,564	-0,196	-0,060
120,035	-81,018	-0,244	-0,056
121,049	-10,669	-0,235	-0,108
122,064	-52,529	-0,233	-0,075
123,079	128,898	-0,293	-0,261
124,093	34,597	-0,413	-0,252
125,108	167,144	-0,289	-0,288
126,122	46,421	-0,186	-0,121
127,137	19,693	-0,179	-0,101
128,151	373,489	-0,267	-0,382
129,166	-64,857	-0,221	-0,062
130,181	-85,664	-0,331	-0,071
131,195	135,929	-0,202	-0,184
132,210	733,387	-0,198	-0,373
133,224	37,059	-0,305	-0,188
134,239	177,244	-0,230	-0,234
135,254	-154,447	-0,311	0,014
136,268	107,661	-0,170	-0,142
137,283	101,206	-0,288	-0,234
138,297	51,283	-0,325	-0,216
139,312	800,000	-0,124	-0,254
140,327	-21,154	-0,353	-0,150
141,341	331,454	-0,143	-0,193
142,356	221,758	-0,126	-0,141
143,370	-116,416	-0,169	0,022
144,385	192,855	-0,238	-0,251
145,400	240,401	-0,262	-0,306
146,414	51,472	-0,287	-0,190
147,429	-65,759	-0,232	-0,064
148,443	-76,616	-0,337	-0,082
149,458	44,371	-0,215	-0,138
150,473	71,882	-0,341	-0,248
151,487	800,000	-0,093	-0,203
152,502	57,595	-0,330	-0,225
153,516	513,808	-0,234	-0,383
154,531	27,316	-0,238	-0,139
155,546	-28,109	-0,221	-0,089
156,560	704,462	-0,191	-0,354
157,575	59,110	-0,316	-0,217
158,589	28,292	-0,214	-0,126
159,604	105,585	-0,259	-0,214
160,619	352,236	-0,271	-0,376
161,633	345,472	-0,236	-0,325
162,648	32,543	-0,228	-0,137
163,662	-24,228	-0,175	-0,073
164,677	-44,002	-0,166	-0,058
165,692	-85,715	-0,170	-0,037
166,706	148,833	-0,232	-0,218
167,721	187,419	-0,217	-0,226
168,735	350,097	-0,117	-0,161
169,750	-39,924	-0,224	-0,081
170,764	529,365	-0,110	-0,182
171,779	294,100	-0,147	-0,188
172,794	89,734	-0,346	-0,269
173,808	-73,195	-0,331	-0,084
174,823	18,721	-0,190	-0,106
175,837	626,027	-0,133	-0,235
176,852	437,457	-0,146	-0,223
177,867	737,103	-0,072	-0,136
178,881	637,865	-0,159	-0,283
179,896	800,000	-0,079	-0,195
180,910	55,632	-0,326	-0,220
181,925	-37,998	-0,402	-0,148
182,940	212,017	-0,222	-0,244
183,954	-144,347	-0,269	0,017
184,969	-53,647	-0,145	-0,046
185,983	327,267	-0,183	-0,245
186,998	-5,713	-0,328	-0,156
188,013	-29,965	-0,258	-0,102
189,027	10,661	-0,295	-0,156
190,042	-17,679	-0,175	-0,076
191,056	88,999	-0,187	-0,145
192,071	-31,886	-0,210	-0,082
193,086	800,000	-0,135	-0,274
194,100	-75,207	-0,175	-0,043
195,115	-23,057	-0,231	-0,097
196,129	-161,890	-0,235	-0,008
197,144	-18,766	-0,320	-0,138
198,159	387,193	-0,199	-0,287
199,173	161,114	-0,210	-0,204
200,188	-200,000	-0,042	-0,244
201,202	183,187	-0,156	-0,161
202,217	372,057	-0,087	-0,123
203,232	-65,992	-0,358	-0,099
204,246	48,255	-0,188	-0,122
205,261	-139,212	-0,303	0,022
206,275	171,857	-0,223	-0,223
207,290	98,726	-0,171	-0,137
208,304	72,466	-0,183	-0,132
209,319	-41,374	-0,304	-0,108
210,334	355,141	-0,161	-0,223
211,348	443,636	-0,120	-0,184
212,363	66,464	-0,290	-0,204
213,377	193,902	-0,225	-0,237
214,392	-142,284	-0,221	-0,015
215,407	-145,909	-0,295	-0,018
216,421	100,064	-0,305	-0,246
217,436	-31,817	-0,110	0,043
218,450	142,946	-0,205	-0,190
219,465	136,533	-0,197	-0,178
220,480	134,662	-0,172	-0,155
221,494	-2,275	-0,108	-0,052
222,509	-193,380	-0,162	0,001
223,523	-110,915	-0,114	0,016
224,538	12,230	-0,343	-0,183
225,553	116,031	-0,125	-0,106
226,567	301,759	-0,150	-0,193
227,582	102,855	-0,220	-0,179
228,596	-200,000	-0,083	-0,258
229,611	-77,447	-0,139	-0,033
230,626	-36,353	-0,128	-0,047
231,640	-1,083	-0,188	-0,092
232,655	248,303	-0,147	-0,172
233,669	90,897	-0,264	-0,205
234,684	352,617	-0,169	-0,234
235,699	709,330	-0,065	-0,121
236,713	13,681	-0,192	-0,103
237,728	-3,945	-0,199	-0,095
238,742	18,089	-0,206	-0,113
239,757	800,000	-0,138	-0,287
240,772	432,637	-0,108	-0,164
241,786	464,794	-0,138	-0,215
242,801	20,793	-0,199	-0,112
243,815	166,874	-0,191	-0,188
244,830	47,238	-0,234	-0,151
245,844	-140,787	-0,134	0,009
246,859	107,164	-0,157	-0,129
247,874	-64,174	-0,306	-0,086
248,888	-23,336	-0,243	-0,101
249,903	-200,000	-0,057	-0,184
250,917	262,654	-0,160	-0,193
251,932	-141,583	-0,325	0,022
252,947	169,791	-0,136	-0,135
253,961	41,391	-0,099	-0,062
254,976	223,442	-0,228	-0,255
255,990	-29,479	-0,170	-0,067
257,005	656,159	-0,131	-0,234
258,020	-95,354	-0,183	-0,034
259,034	8,569	-0,271	-0,141
260,049	-65,433	-0,226	-0,062
261,063	181,818	-0,187	-0,191
262,078	114,617	-0,094	-0,079
263,093	156,205	-0,174	-0,166
264,107	200,731	-0,203	-0,216
265,122	121,630	-0,134	-0,116
266,136	-87,935	-0,133	-0,027
267,151	268,284	-0,148	-0,180
268,166	-75,213	-0,161	-0,039
269,180	-33,870	-0,187	-0,071
270,195	-45,345	-0,211	-0,072
271,209	160,930	-0,129	-0,124
272,224	117,857	-0,159	-0,136
273,239	41,298	-0,108	-0,067
274,253	34,591	-0,051	-0,031
275,268	137,129	-0,178	-0,161
276,282	-15,045	-0,236	-0,104
277,297	4,955	-0,235	-0,119
278,312	166,696	-0,140	-0,138
279,326	-2,883	-0,194	-0,093
280,341	76,830	-0,093	-0,068
281,355	-71,837	-0,151	-0,039
282,370	-74,108	-0,204	-0,051
283,384	59,889	-0,114	-0,078
284,399	-28,219	-0,323	-0,128
285,414	-200,000	-0,075	-0,296
286,428	384,813	-0,088	-0,126
287,443	-200,000	-0,026	-0,082
288,457	59,958	-0,154	-0,105
289,472	269,691	-0,137	-0,167
290,487	-87,096	-0,240	-0,050
291,501	-167,360	-0,263	-0,007
292,516	304,025	-0,142	-0,183
293,530	239,729	-0,113	-0,130
294,545	-200,000	-0,038	-0,233
295,560	-200,000	-0,032	-0,103
296,574	-114,502	-0,222	0,029
297,589	-61,299	-0,243	-0,070
298,603	-101,306	-0,253	-0,042
299,618	-102,990	-0,136	-0,022
300,633	-200,000	-0,040	-0,221
301,647	-154,011	-0,121	0,006
302,662	64,953	-0,167	-0,116
303,676	800,000	-0,091	-0,192
304,691	-132,236	-0,139	0,012
305,706	90,382	-0,213	-0,164
306,720	56,520	-0,130	-0,087
307,735	778,956	-0,018	-0,034
308,749	51,238	-0,176	-0,115
309,764	-200,000	-0,016	-0,118
310,779	56,313	-0,119	-0,079
311,793	86,892	-0,122	-0,093
312,808	156,803	-0,124	-0,118
313,822	0,135	-0,161	-0,079
314,837	-27,305	-0,300	-0,120
315,852	524,597	-0,104	-0,170
316,866	724,283	-0,055	-0,101
317,881	57,919	-0,063	-0,043
318,895	48,975	-0,157	-0,101
319,910	-78,253	-0,222	-0,052
320,925	183,773	-0,142	-0,145
321,939	45,748	-0,165	-0,105
322,954	405,604	-0,128	-0,186
323,968	503,398	-0,151	-0,241
324,983	330,519	-0,112	-0,149
325,997	-20,295	-0,135	-0,057
327,012	-200,000	-0,059	-0,179
328,027	-7,524	-0,209	-0,097
329,041	800,000	-0,051	-0,097
330,056	-91,346	-0,155	-0,030
331,070	-105,655	-0,132	-0,020
332,085	-81,827	-0,100	0,022
333,100	-164,416	-0,102	0,003
334,114	28,980	-0,183	-0,106
335,129	295,178	-0,190	-0,240
336,143	800,000	-0,081	-0,228
337,158	-26,717	-0,194	-0,078
338,173	-143,565	-0,200	-0,013
339,187	-44,225	-0,123	0,042
340,202	481,731	-0,064	-0,100
341,216	190,327	-0,173	-0,178
342,231	172,915	-0,131	-0,130
343,246	46,346	-0,121	-0,077
344,260	65,639	-0,103	-0,072
345,275	45,120	-0,123	0,078
346,289	-29,547	-0,120	-0,047
347,304	-71,974	-0,111	0,028
348,319	592,223	-0,079	-0,135
349,333	-9,058	-0,209	-0,096
350,348	279,144	-0,179	-0,219
351,362	302,402	-0,137	-0,174
352,377	-55,300	-0,214	-0,066
353,392	800,000	-0,070	-0,200
354,406	215,841	-0,108	-0,118
355,421	208,637	1316,057	1414,527
356,435	160,541	1476,956	1415,017
