DTS Sentinel unit serial number:	SN410029Multiplexer serial number:	ORYXHardware model number:	OX2-SRSoftware version number:	ORYX F/W v4,00 Oryx Data Collector v3.7.2.0data status	okinstallation	B3 Nyhavnadifferential loss correction	single-endedforward channel	channel 1reverse channel	N/Adate	2023/12/01time	22:32:30forward acquisition time	300,00reverse acquisition time	0,00gamma	499,1914k internal	0,3196k external	0,3196temperature offset calibration	1,0000default loss term (dB/km)	0,3820temperature slope calibration	1,0000multiplexer offset coefficient	1,0000multiplexer slope coefficient	1,0000fibre end	0,00T internal ref (°C)	15,87T ext. ref 1 (°C)	0,87T ext. ref 2 (°C)	0,85length (m)	temperature (°C)	Stokes	anti-Stokes-744,400	280,452	-0,218	-0,285
-743,385	800,000	-0,118	0,301
-742,371	800,000	-0,139	-0,281
-741,356	800,000	0,141	0,309
-740,342	67,715	-0,285	-0,212
-739,327	-200,000	0,039	0,317
-738,312	73,392	-0,235	-0,179
-737,298	-200,000	-0,020	0,345
-736,283	393,611	-0,145	-0,220
-735,269	800,000	0,131	0,309
-734,254	800,000	-0,136	-0,342
-733,239	72,581	-0,131	0,099
-732,225	-200,000	-0,081	-0,300
-731,210	274,522	0,078	0,100
-730,196	566,204	-0,024	-0,043
-729,181	-200,000	-0,008	-0,104
-728,167	30,142	0,102	-0,063
-727,152	9,460	-0,124	0,068
-726,137	-1,333	-0,049	0,025
-725,123	-125,580	-0,067	0,007
-724,108	263,697	-0,121	-0,153
-723,094	-42,332	-0,123	-0,046
-722,079	-124,331	-0,116	-0,013
-721,064	-51,031	-0,067	0,023
-720,050	-200,000	-0,000	-0,155
-719,035	-200,000	-0,018	-0,149
-718,021	217,877	-0,067	-0,078
-717,006	21,527	-0,127	0,075
-715,991	-25,691	-0,072	-0,031
-714,977	109,014	-0,114	-0,099
-713,962	-200,000	0,006	-0,179
-712,948	-102,953	0,116	0,020
-711,933	-200,000	-0,013	0,085
-710,918	116,261	0,086	0,077
-709,904	772,677	0,026	-0,051
-708,889	141,907	-0,046	0,044
-707,875	-200,000	-0,018	-0,142
-706,860	-93,622	-0,073	0,015
-705,845	59,846	0,083	0,060
-704,831	-200,000	0,002	0,037
-703,816	-200,000	0,044	0,166
-702,802	80,456	0,049	0,039
-701,787	2,748	-0,103	-0,054
-700,772	-200,000	-0,025	-0,087
-699,758	202,572	-0,018	0,020
-698,743	636,267	0,105	0,195
-697,729	504,663	-0,019	0,032
-696,714	-148,350	0,155	-0,009
-695,699	-3,893	0,038	-0,019
-694,685	40,666	-0,126	0,082
-693,670	-116,435	0,156	0,021
-692,656	205,026	-0,002	-0,003
-691,641	-200,000	0,004	0,065
-690,627	123,075	0,007	0,006
-689,612	102,345	0,085	0,072
-688,597	6,477	0,086	-0,046
-687,583	665,705	0,023	-0,044
-686,568	2,718	-0,004	-0,002
-685,554	205,835	0,048	0,054
-684,539	-21,758	-0,039	0,017
-683,524	50,287	-0,061	0,042
-682,510	179,099	0,038	0,040
-681,495	-107,417	-0,193	0,030
-680,481	536,840	0,045	0,078
-679,466	120,200	0,033	-0,029
-678,451	658,707	0,070	-0,131
-677,437	81,432	-0,017	0,014
-676,422	-3,386	0,108	-0,054
-675,408	723,935	-0,086	0,166
-674,393	-200,000	0,009	0,040
-673,378	30,765	-0,052	-0,032
-672,364	381,456	-0,083	-0,124
-671,349	-200,000	0,003	-0,139
-670,335	800,000	0,029	0,060
-669,320	114,901	-0,094	0,083
-668,305	421,001	-0,044	-0,069
-667,291	-34,467	-0,103	-0,041
-666,276	9,350	0,059	-0,032
-665,262	-200,000	-0,005	-0,031
-664,247	-187,766	-0,120	-0,001
-663,232	106,390	0,035	0,030
-662,218	445,906	-0,034	0,054
-661,203	10,852	-0,031	0,017
-660,189	800,000	-0,023	-0,062
-659,174	-176,527	-0,104	-0,002
-658,159	-200,000	0,008	-0,026
-657,145	800,000	-0,035	0,104
-656,130	-182,100	-0,116	-0,002
-655,116	800,000	0,010	0,029
-654,101	11,072	0,058	0,032
-653,086	613,095	-0,052	0,096
-652,072	-200,000	-0,036	-0,225
-651,057	800,000	-0,053	-0,113
-650,043	-200,000	0,014	-0,174
-649,028	800,000	-0,047	-0,140
-648,014	-120,345	-0,059	-0,007
-646,999	-79,590	0,042	-0,010
-645,984	178,615	0,035	-0,037
-644,970	-200,000	-0,015	0,126
-643,955	298,184	-0,062	-0,083
-642,941	281,782	-0,096	-0,125
-641,926	-56,346	-0,141	-0,045
-640,911	454,834	-0,027	-0,043
-639,897	-200,000	-0,024	0,176
-638,882	800,000	-0,043	-0,113
-637,868	19,688	0,058	-0,034
-636,853	-51,764	-0,094	-0,032
-635,838	86,880	-0,009	0,007
-634,824	247,203	0,126	0,155
-633,809	245,760	-0,041	0,050
-632,795	189,732	0,042	-0,045
-631,780	-120,776	-0,123	0,015
-630,765	320,808	0,057	-0,078
-629,751	-200,000	0,005	-0,196
-628,736	173,075	0,116	-0,121
-627,722	-200,000	0,009	-0,091
-626,707	213,711	-0,083	-0,095
-625,692	11,670	0,023	-0,013
-624,678	71,495	0,046	0,034
-623,663	402,547	-0,009	0,013
-622,649	79,556	-0,056	-0,043
-621,634	276,697	-0,105	-0,136
-620,619	-142,594	-0,131	-0,009
-619,605	-200,000	-0,007	0,042
-618,590	203,259	0,040	-0,045
-617,576	-72,451	-0,031	0,008
-616,561	10,487	0,021	-0,012
-615,546	430,290	-0,088	-0,139
-614,532	185,001	0,061	-0,066
-613,517	70,877	-0,078	-0,059
-612,503	-200,000	-0,008	0,061
-611,488	23,111	0,051	-0,030
-610,474	-14,036	-0,011	-0,005
-609,459	651,259	-0,044	-0,081
-608,444	-200,000	0,016	-0,069
-607,430	552,699	-0,013	-0,023
-606,415	770,164	-0,093	-0,184
-605,401	135,158	0,130	-0,123
-604,386	123,846	-0,086	0,079
-603,371	-200,000	0,001	-0,105
-602,357	-127,515	-0,160	-0,017
-601,342	485,719	-0,022	-0,036
-600,328	-71,718	-0,225	-0,060
-599,313	-200,000	0,022	-0,165
-598,298	759,601	-0,020	-0,040
-597,284	96,825	0,111	-0,092
-596,269	-200,000	-0,000	0,014
-595,255	-14,278	0,020	0,009
-594,240	-63,110	0,143	-0,042
-593,225	-200,000	0,020	-0,075
-592,211	-200,000	-0,033	-0,123
-591,196	-200,000	0,012	0,095
-590,182	622,824	0,064	0,118
-589,167	649,052	0,014	-0,025
-588,152	288,609	-0,088	0,115
-587,138	-143,027	-0,015	-0,001
-586,123	-176,263	-0,237	-0,004
-585,109	199,524	-0,035	-0,039
-584,094	652,971	0,089	-0,166
-583,079	-142,144	0,061	0,004
-582,065	107,974	-0,099	0,086
-581,050	-200,000	-0,000	0,145
-580,036	38,988	-0,178	-0,115
-579,021	216,636	0,030	0,034
-578,006	-200,000	-0,011	-0,060
-576,992	-67,644	-0,112	-0,031
-575,977	146,908	-0,067	-0,065
-574,963	-200,000	0,014	-0,082
-573,948	770,680	0,043	0,085
-572,934	-200,000	0,010	-0,104
-571,919	-200,000	-0,025	0,134
-570,904	179,959	-0,110	-0,117
-569,890	-200,000	-0,031	-0,124
-568,875	-200,000	0,004	0,139
-567,861	800,000	0,030	0,077
-566,846	26,900	-0,042	0,025
-565,831	225,798	0,122	0,144
-564,817	154,758	-0,057	0,057
-563,802	-200,000	-0,035	-0,143
-562,788	82,246	-0,068	0,053
-561,773	800,000	0,035	0,077
-560,758	800,000	0,054	-0,110
-559,744	-200,000	-0,035	0,171
-558,729	789,147	-0,023	-0,046
-557,715	610,852	-0,109	0,199
-556,700	59,281	-0,050	-0,035
-555,685	137,909	-0,032	0,030
-554,671	428,771	0,058	0,090
-553,656	26,618	0,103	0,062
-552,642	-200,000	0,007	0,041
-551,627	67,395	0,079	-0,058
-550,612	123,693	0,032	0,029
-549,598	173,422	0,068	-0,071
-548,583	32,900	-0,083	0,052
-547,569	-102,068	0,178	0,031
-546,554	-200,000	-0,017	-0,079
-545,539	-29,779	0,111	0,046
-544,525	-130,880	-0,071	0,007
-543,510	-7,463	-0,141	-0,069
-542,496	96,830	-0,066	-0,055
-541,481	19,029	0,041	-0,024
-540,466	-88,986	-0,087	-0,018
-539,452	-71,042	0,104	0,028
-538,437	114,699	-0,068	-0,060
-537,423	-200,000	-0,014	0,067
-536,408	794,272	-0,033	0,066
-535,393	-178,750	-0,084	-0,001
-534,379	397,495	0,047	-0,072
-533,364	130,564	0,074	-0,069
-532,350	165,046	0,072	-0,073
-531,335	625,330	0,024	0,044
-530,321	-112,648	0,057	0,008
-529,306	276,258	0,031	-0,040
-528,291	-200,000	0,004	-0,116
-527,277	-176,419	0,039	-0,001
-526,262	112,933	-0,131	0,115
-525,248	339,182	-0,042	-0,060
-524,233	207,024	0,068	0,077
-523,218	800,000	-0,034	0,070
-522,204	-200,000	-0,040	0,136
-521,189	-104,544	-0,115	0,019
-520,175	-105,634	-0,088	0,014
-519,160	-34,082	0,078	0,031
-518,145	-114,456	0,080	0,011
-517,131	-25,468	0,011	-0,005
-516,116	-200,000	-0,017	0,081
-515,102	-200,000	0,003	-0,040
-514,087	246,981	-0,085	-0,104
-513,072	-200,000	-0,012	-0,125
-512,058	-99,230	0,048	-0,009
-511,043	273,874	0,064	0,082
-510,029	-38,055	0,153	0,058
-509,014	-200,000	0,008	0,180
-507,999	582,646	0,036	-0,064
-506,985	218,297	-0,081	-0,094
-505,970	-200,000	-0,047	-0,220
-504,956	-200,000	-0,035	-0,205
-503,941	-136,173	0,155	-0,013
-502,926	-59,734	0,071	0,022
-501,912	-48,348	0,105	-0,036
-500,897	619,362	-0,062	0,112
-499,883	-200,000	-0,042	0,154
-498,868	26,104	-0,089	-0,054
-497,853	-153,139	-0,086	0,004
-496,839	-162,840	0,092	0,003
-495,824	-97,121	0,164	0,031
-494,810	-200,000	0,000	0,024
-493,795	260,374	0,053	0,066
-492,781	-200,000	0,020	-0,077
-491,766	-199,219	-0,079	0,000
-490,751	7,556	0,028	-0,015
-489,737	109,866	0,130	-0,113
-488,722	99,856	0,035	-0,029
-487,708	-37,766	0,038	0,015
-486,693	-200,000	0,034	0,126
-485,678	76,625	-0,071	0,054
-484,664	89,613	0,020	0,016
-483,649	-58,872	-0,181	0,056
-482,635	87,070	0,045	-0,036
-481,620	95,540	0,075	-0,061
-480,605	-200,000	-0,037	0,138
-479,591	-124,616	0,091	-0,010
-478,576	-200,000	0,022	0,109
-477,562	-200,000	-0,013	-0,047
-476,547	-3,238	0,075	-0,037
-475,532	-177,753	-0,046	-0,001
-474,518	-200,000	-0,005	-0,036
-473,503	-200,000	0,010	0,062
-472,489	195,852	-0,051	-0,055
-471,474	-121,886	0,116	0,014
-470,459	211,586	-0,027	0,030
-469,445	-200,000	0,002	0,067
-468,430	-63,973	0,075	-0,022
-467,416	-200,000	0,040	-0,185
-466,401	800,000	0,059	0,163
-465,386	-115,963	0,104	0,014
-464,372	800,000	-0,024	0,049
-463,357	679,734	-0,060	-0,114
-462,343	-16,602	-0,041	-0,019
-461,328	-118,035	0,093	-0,012
-460,313	-130,475	0,072	-0,007
-459,299	74,278	0,109	-0,083
-458,284	73,536	0,081	-0,061
-457,270	800,000	-0,010	0,021
-456,255	-200,000	-0,028	0,151
-455,241	191,866	-0,057	0,062
-454,226	-200,000	-0,021	0,066
-453,211	-200,000	-0,027	0,092
-452,197	320,528	0,039	-0,053
-451,182	308,468	-0,009	-0,012
-450,168	800,000	0,058	-0,130
-449,153	562,109	-0,031	0,054
-448,138	800,000	0,019	-0,058
-447,124	-61,694	0,054	-0,016
-446,109	-8,852	0,127	0,061
-445,095	-132,467	-0,063	-0,006
-444,080	347,414	-0,017	0,024
-443,065	-24,460	-0,047	0,020
-442,051	-52,125	-0,218	-0,072
-441,036	-200,000	0,017	-0,061
-440,022	41,143	-0,104	0,067
-439,007	-74,967	0,026	-0,007
-437,992	-200,000	-0,010	-0,061
-436,978	21,725	0,075	0,044
-435,963	-122,902	0,113	-0,013
-434,949	-34,502	-0,075	-0,030
-433,934	192,989	0,018	-0,019
-432,919	369,483	0,033	-0,048
-431,905	-200,000	0,021	-0,170
-430,890	1,996	-0,052	-0,027
-429,876	-200,000	-0,036	0,152
-428,861	-137,572	0,109	0,009
-427,846	800,000	0,037	0,080
-426,832	-200,000	-0,026	-0,100
-425,817	28,477	-0,093	-0,057
-424,803	800,000	-0,048	0,108
-423,788	61,873	0,011	-0,008
-422,773	-144,345	0,142	0,009
-421,759	-200,000	0,027	0,109
-420,744	-200,000	0,010	0,186
-419,730	96,850	-0,211	0,173
-418,715	-88,259	-0,079	-0,017
-417,701	49,068	0,140	0,094
-416,686	-200,000	0,018	0,075
-415,671	-200,000	-0,014	-0,055
-414,657	-200,000	-0,016	0,091
-413,642	-200,000	0,012	0,161
-412,628	-12,402	0,089	-0,042
-411,613	75,427	-0,039	-0,029
-410,598	-200,000	-0,001	0,057
-409,584	-90,499	0,083	-0,017
-408,569	-200,000	0,039	0,160
-407,555	-200,000	-0,004	0,117
-406,540	-127,518	0,081	0,008
-405,525	-35,444	0,080	0,031
-404,511	-38,885	-0,191	-0,072
-403,496	483,317	0,039	0,063
-402,482	-200,000	-0,005	0,159
-401,467	9,778	-0,073	-0,040
-400,452	669,648	0,109	0,203
-399,438	-11,459	0,123	0,058
-398,423	-92,506	-0,134	-0,027
-397,409	178,114	-0,102	-0,107
-396,394	-143,223	-0,134	-0,009
-395,379	6,358	0,052	0,028
-394,365	398,679	0,062	0,093
-393,350	676,495	0,036	0,068
-392,336	-200,000	-0,015	-0,083
-391,321	800,000	-0,002	0,007
-390,306	185,446	-0,085	-0,091
-389,292	-200,000	-0,016	-0,052
-388,277	-200,000	0,022	0,187
-387,263	-200,000	-0,000	-0,046
-386,248	81,082	0,071	-0,055
-385,233	-200,000	0,012	0,133
-384,219	313,994	0,017	-0,023
-383,204	800,000	-0,042	-0,086
-382,190	668,598	0,105	-0,197
-381,175	-200,000	-0,020	-0,224
-380,160	-45,708	0,146	-0,052
-379,146	291,533	-0,046	0,060
-378,131	800,000	-0,065	0,168
-377,117	-100,515	-0,097	0,017
-376,102	-200,000	0,009	-0,097
-375,088	64,802	-0,038	0,027
-374,073	253,104	-0,026	-0,032
-373,058	-200,000	0,019	0,140
-372,044	194,317	0,123	0,135
-371,029	-200,000	-0,010	-0,087
-370,015	-200,000	-0,019	0,131
-369,000	800,000	0,076	0,219
-367,985	-132,284	-0,089	0,008
-366,971	-200,000	-0,039	-0,169
-365,956	800,000	-0,029	0,061
-364,942	-99,217	-0,063	-0,011
-363,927	800,000	-0,003	0,007
-362,912	540,296	-0,064	0,109
-361,898	-200,000	-0,005	-0,033
-360,883	64,755	-0,208	-0,151
-359,869	-50,419	0,025	-0,008
-358,854	-200,000	0,037	0,133
-357,839	800,000	0,021	0,056
-356,825	370,507	0,106	0,155
-355,810	800,000	-0,015	-0,037
-354,796	-109,194	-0,152	0,023
-353,781	206,526	-0,070	0,078
-352,766	-200,000	0,018	-0,078
-351,752	800,000	0,007	0,016
-350,737	-200,000	0,009	0,127
-349,723	-200,000	0,008	0,053
-348,708	-102,394	-0,015	0,003
-347,693	150,914	-0,059	-0,058
-346,679	113,248	0,082	-0,071
-345,664	-200,000	-0,021	-0,135
-344,650	27,171	0,040	-0,024
-343,635	800,000	0,037	0,099
-342,620	-190,580	-0,065	-0,000
-341,606	-95,351	0,077	0,015
-340,591	-40,635	-0,050	0,018
-339,577	549,618	0,026	-0,045
-338,562	-100,599	-0,127	-0,022
-337,548	-60,354	-0,087	-0,026
-336,533	-177,841	0,036	-0,001
-335,518	-10,506	0,046	0,022
-334,504	-35,690	-0,130	-0,050
-333,489	-200,000	-0,007	-0,064
-332,475	415,158	-0,056	-0,086
-331,460	109,112	0,047	0,041
-330,445	185,745	-0,065	0,069
-329,431	5,099	-0,064	-0,034
-328,416	-187,209	0,120	-0,001
-327,402	800,000	-0,012	0,035
-326,387	-200,000	-0,004	-0,072
-325,372	32,285	-0,128	0,079
-324,358	-200,000	0,014	0,140
-323,343	-200,000	-0,023	0,088
-322,329	-62,673	0,130	0,038
-321,314	-200,000	-0,002	0,177
-320,299	343,393	0,132	0,185
-319,285	-136,572	0,029	-0,002
-318,270	-42,089	0,055	-0,020
-317,256	699,509	0,019	0,036
-316,241	104,436	0,061	0,051
-315,226	56,202	-0,119	0,083
-314,212	-64,780	-0,116	-0,033
-313,197	429,099	-0,022	0,034
-312,183	-200,000	-0,018	-0,069
-311,168	800,000	-0,030	-0,067
-310,153	-200,000	-0,047	-0,190
-309,139	-64,972	0,065	-0,019
-308,124	35,375	0,053	-0,033
-307,110	-32,751	0,137	0,054
-306,095	-200,000	-0,009	0,100
-305,080	-97,349	0,143	-0,026
-304,066	95,214	-0,084	-0,068
-303,051	-200,000	-0,016	-0,130
-302,037	-200,000	-0,009	-0,114
-301,022	119,790	-0,084	0,075
-300,008	-63,439	-0,145	-0,042
-298,993	-164,900	0,121	-0,004
-297,978	800,000	0,034	0,077
-296,964	-54,454	0,084	-0,027
-295,949	456,434	0,009	-0,014
-294,935	-123,348	0,146	0,016
-293,920	211,459	-0,072	0,081
-292,905	-200,000	0,018	-0,079
-291,891	-200,000	-0,030	0,203
-290,876	138,034	0,164	0,154
-289,862	36,372	0,136	0,086
-288,847	199,591	-0,057	0,062
-287,832	-200,000	-0,011	-0,053
-286,818	-200,000	0,011	-0,046
-285,803	-200,000	-0,024	0,103
-284,789	70,593	0,081	0,060
-283,774	800,000	0,050	0,109
-282,759	-129,330	-0,080	0,008
-281,745	-200,000	-0,007	-0,041
-280,730	143,221	-0,053	-0,050
-279,716	111,659	0,019	0,017
-278,701	399,578	0,035	-0,053
-277,686	-103,039	0,061	-0,010
-276,672	-200,000	-0,002	0,029
-275,657	-112,845	0,035	0,005
-274,643	800,000	0,035	-0,070
-273,628	223,754	-0,089	-0,103
-272,613	-139,877	0,126	-0,009
-271,599	703,140	0,075	-0,141
-270,584	-73,554	-0,111	-0,029
-269,570	-200,000	-0,010	0,081
-268,555	638,446	-0,040	-0,072
-267,540	209,543	0,077	-0,087
-266,526	-57,821	-0,094	-0,029
-265,511	26,247	0,050	-0,030
-264,497	-200,000	0,018	-0,067
-263,482	374,584	0,051	0,074
-262,467	-85,645	0,093	-0,020
-261,453	-85,526	-0,041	0,009
-260,438	-3,731	0,041	0,020
-259,424	323,288	0,073	-0,100
-258,409	-200,000	0,013	-0,160
-257,395	-133,548	0,156	0,014
-256,380	-22,042	-0,095	0,041
-255,365	154,848	0,042	0,041
-254,351	-200,000	0,008	0,040
-253,336	-126,238	-0,103	-0,011
-252,322	800,000	-0,041	-0,083
-251,307	68,542	-0,139	-0,102
-250,292	-36,232	0,043	-0,016
-249,278	-200,000	0,013	0,068
-248,263	766,005	-0,036	0,071
-247,249	-163,127	0,142	-0,005
-246,234	76,174	-0,129	-0,098
-245,219	-200,000	0,004	-0,164
-244,205	12,858	0,107	-0,059
-243,190	-200,000	0,037	-0,120
-242,176	800,000	-0,069	0,166
-241,161	682,952	0,055	0,103
-240,146	-82,813	0,122	0,028
-239,132	800,000	-0,047	0,095
-238,117	-87,832	-0,094	-0,020
-237,103	-200,000	-0,036	-0,133
-236,088	800,000	-0,012	-0,029
-235,073	17,172	0,030	-0,017
-234,059	561,631	-0,063	0,109
-233,044	-200,000	-0,004	0,045
-232,030	416,445	0,086	0,132
-231,015	-74,234	-0,117	-0,030
-230,000	211,174	-0,069	0,078
-228,986	248,475	-0,069	0,083
-227,971	12,540	0,089	0,049
-226,957	-200,000	0,012	-0,115
-225,942	-32,394	-0,091	0,036
-224,927	260,911	-0,083	-0,102
-223,913	800,000	0,041	-0,087
-222,898	-200,000	-0,028	-0,163
-221,884	125,194	-0,028	0,025
-220,869	-200,000	0,006	-0,109
-219,855	-200,000	0,004	0,162
-218,840	-200,000	0,031	0,122
-217,825	-200,000	-0,033	0,125
-216,811	20,590	-0,122	0,070
-215,796	273,133	-0,080	-0,101
-214,782	800,000	0,018	0,039
-213,767	216,691	-0,082	0,093
-212,752	-37,867	0,046	0,017
-211,738	304,793	0,090	-0,120
-210,723	419,603	-0,048	-0,073
-209,709	-47,258	-0,069	-0,024
-208,694	53,155	0,089	0,061
-207,679	181,479	-0,026	0,027
-206,665	800,000	0,035	0,093
-205,650	593,227	0,036	-0,064
-204,636	-200,000	0,019	-0,125
-203,621	-200,000	0,015	0,053
-202,606	-91,360	-0,087	0,018
-201,592	13,006	-0,037	-0,020
-200,577	28,405	0,129	-0,078
-199,563	-200,000	-0,013	-0,158
-198,548	263,867	0,065	0,081
-197,533	-200,000	0,011	0,161
-196,519	-200,000	0,021	-0,079
-195,504	800,000	0,063	0,146
-194,490	-37,544	-0,054	0,020
-193,475	-91,493	-0,094	0,019
-192,460	78,195	0,180	-0,137
-191,446	-200,000	-0,010	-0,035
-190,431	-33,092	0,101	0,040
-189,417	3,807	0,069	-0,036
-188,402	-200,000	-0,004	0,101
-187,387	-200,000	-0,008	-0,069
-186,373	-200,000	-0,005	0,089
-185,358	399,674	-0,012	0,018
-184,344	598,579	0,042	0,074
-183,329	-200,000	-0,028	-0,106
-182,315	-200,000	-0,008	-0,103
-181,300	503,232	-0,026	-0,043
-180,285	-200,000	0,030	-0,107
-179,271	-50,883	-0,123	0,041
-178,256	800,000	-0,072	-0,147
-177,242	85,759	-0,073	-0,057
-176,227	165,547	-0,075	0,076
-175,212	753,305	0,047	-0,090
-174,198	8,640	-0,143	-0,076
-173,183	118,718	-0,103	0,091
-172,169	-107,133	-0,047	0,007
-171,154	268,938	-0,052	-0,065
-170,139	-21,771	0,175	0,075
-169,125	281,754	0,056	0,071
-168,110	-200,000	-0,003	-0,042
-167,096	24,117	0,008	-0,004
-166,081	-108,632	0,055	0,008
-165,066	-95,197	-0,024	0,005
-164,052	-200,000	0,022	-0,072
-163,037	-200,000	0,002	-0,103
-162,023	309,047	0,095	0,126
-161,008	-200,000	0,030	0,117
-159,993	302,271	0,060	0,080
-158,979	-200,000	-0,015	-0,061
-157,964	72,872	-0,035	-0,026
-156,950	-46,173	0,102	0,035
-155,935	192,801	0,068	-0,073
-154,920	-67,525	0,103	-0,028
-153,906	236,482	0,063	0,075
-152,891	53,040	0,158	0,107
-151,877	403,065	-0,038	0,056
-150,862	800,000	-0,080	-0,177
-149,847	93,291	0,004	0,003
-148,833	-75,161	0,019	-0,005
-147,818	-200,000	0,005	-0,081
-146,804	-42,049	-0,033	0,012
-145,789	110,469	0,091	-0,077
-144,775	800,000	-0,011	-0,030
-143,760	106,865	0,080	-0,067
-142,745	-182,296	-0,053	-0,001
-141,731	16,289	-0,094	-0,053
-140,716	-156,773	0,102	0,004
-139,702	89,830	-0,145	-0,115
-138,687	184,504	0,080	-0,084
-137,672	-200,000	0,026	-0,135
-136,658	-59,061	-0,085	0,026
-135,643	-46,523	-0,097	-0,034
-134,629	606,012	-0,078	-0,139
-133,614	-65,999	0,032	-0,009
-132,599	800,000	0,075	0,178
-131,585	718,579	0,092	0,174
-130,570	222,496	0,058	-0,067
-129,556	800,000	-0,088	-0,226
-128,541	-128,663	0,134	0,013
-127,526	37,729	-0,156	-0,098
-126,512	125,144	0,029	-0,026
-125,497	-109,164	-0,046	-0,007
-124,483	-69,756	-0,100	0,027
-123,468	267,181	0,129	0,160
-122,453	463,035	-0,051	0,082
-121,439	757,231	-0,073	-0,142
-120,424	743,817	-0,055	-0,105
-119,410	106,139	0,023	-0,019
-118,395	-200,000	-0,009	0,084
-117,380	-200,000	0,016	-0,127
-116,366	800,000	0,053	-0,113
-115,351	89,339	0,072	-0,057
-114,337	-200,000	-0,018	-0,115
-113,322	501,026	-0,048	0,079
-112,307	87,827	0,057	0,045
-111,293	800,000	-0,019	-0,055
-110,278	478,817	0,054	0,088
-109,264	800,000	0,046	0,111
-108,249	-177,341	-0,131	0,002
-107,234	36,978	-0,066	-0,041
-106,220	-52,809	-0,045	-0,015
-105,205	-44,619	-0,069	-0,024
-104,191	-91,234	0,102	-0,021
-103,176	-68,811	0,087	-0,024
-102,162	189,061	0,042	0,045
-101,147	174,658	-0,135	-0,138
-100,132	800,000	0,008	0,016
-99,118	126,417	-0,083	-0,074
-98,103	-200,000	-0,017	-0,172
-97,089	258,108	0,124	0,152
-96,074	70,397	0,046	0,033
-95,059	79,125	-0,044	-0,034
-94,045	-5,504	0,041	-0,020
-93,030	661,109	0,021	-0,039
-92,016	-29,090	-0,093	0,038
-91,001	434,854	0,039	-0,061
-89,986	-105,026	0,188	-0,030
-88,972	-21,159	0,117	0,051
-87,957	-65,089	0,158	-0,045
-86,943	11,867	-0,075	0,041
-85,928	-200,000	-0,008	-0,055
-84,913	-4,086	0,077	-0,038
-83,899	-200,000	0,007	0,116
-82,884	443,997	0,032	-0,050
-81,870	144,758	0,035	0,034
-80,855	264,581	0,065	0,080
-79,840	116,058	-0,107	-0,093
-78,826	800,000	-0,044	0,093
-77,811	-200,000	0,003	-0,055
-76,797	-18,963	0,091	-0,040
-75,782	-200,000	0,009	0,061
-74,767	39,322	0,107	-0,068
-73,753	-83,212	-0,133	-0,030
-72,738	292,509	-0,039	-0,050
-71,724	177,256	0,055	0,057
-70,709	-104,699	-0,068	-0,011
-69,694	-2,877	-0,099	-0,049
-68,680	24,189	-0,139	0,081
-67,665	43,213	0,044	0,028
-66,651	-200,000	0,008	-0,026
-65,636	-200,000	-0,010	-0,072
-64,622	-115,652	-0,041	0,005
-63,607	-5,259	-0,103	-0,050
-62,592	120,516	0,011	0,009
-61,578	543,363	0,039	0,066
-60,563	63,868	0,041	0,030
-59,549	-75,629	-0,082	0,021
-58,534	-61,521	-1,495	-0,443
-57,519	396,974	-1,558	-2,316
-56,505	-200,000	-0,448	-4,437
-55,490	125,748	0,865	0,775
-54,476	800,000	4,778	11,363
-53,461	-200,000	17,786	282,948
-52,446	800,000	720,790	2227,838
-51,432	563,392	1635,237	2818,151
-50,417	80,971	1658,753	1267,932
-49,403	23,710	1533,036	892,813
-48,388	17,742	1456,414	819,393
-47,373	18,208	1446,087	815,789
-46,359	17,823	1436,651	808,597
-45,344	15,981	1431,834	797,095
-44,330	15,922	1430,098	795,819
-43,315	15,924	1428,336	794,816
-42,300	15,959	1426,708	794,042
-41,286	15,948	1425,674	793,383
-40,271	15,971	1424,025	792,541
-39,257	15,947	1422,860	791,752
-38,242	15,980	1421,608	791,179
-37,227	16,018	1420,276	790,586
-36,213	15,982	1419,073	789,713
-35,198	15,990	1417,879	789,055
-34,184	16,019	1416,857	788,594
-33,169	15,918	1415,583	787,379
-32,154	15,973	1414,813	787,177
-31,140	16,028	1413,161	786,486
-30,125	16,050	1412,051	785,938
-29,111	15,973	1411,103	785,019
-28,096	15,931	1409,931	784,140
-27,082	15,859	1408,900	783,197
-26,067	15,914	1407,623	782,712
-25,052	15,901	1406,792	782,161
-24,038	15,871	1405,812	781,445
-23,023	15,853	1404,531	780,616
-22,009	15,851	1403,655	780,088
-20,994	15,829	1402,881	779,526
-19,979	15,865	1401,743	779,031
-18,965	15,815	1400,916	778,306
-17,950	15,850	1399,945	777,900
-16,936	15,851	1399,017	777,358
-15,921	15,844	1397,527	776,466
-14,906	15,815	1396,795	775,892
-13,892	15,819	1395,817	775,337
-12,877	15,820	1395,083	774,905
-11,863	15,828	1393,993	774,304
-10,848	15,769	1393,289	773,609
-9,833	15,755	1392,210	772,917
-8,819	15,746	1391,234	772,301
-7,804	15,680	1390,200	771,391
-6,790	15,655	1389,368	770,787
-5,775	15,688	1388,310	770,318
-4,760	15,714	1387,631	770,030
-3,746	15,725	1386,696	769,535
-2,731	15,681	1385,891	768,852
-1,717	15,685	1384,989	768,342
-0,702	15,706	1382,950	767,275
0,313	19,409	1303,629	740,381
1,327	35,703	706,347	438,910
2,342	54,552	125,247	85,400
3,356	3,686	16,516	8,511
4,371	30,321	2,905	1,754
5,386	30,845	0,537	0,325
6,400	-200,000	0,023	0,232
7,415	-66,402	-0,295	-0,083
8,429	235,166	-0,204	-0,239
9,444	-39,223	-0,317	-0,117
10,459	-17,552	-0,262	-0,116
11,473	-82,382	-0,405	-0,093
12,488	-87,029	-0,298	-0,064
13,502	106,387	-0,262	-0,220
14,517	35,956	-0,290	-0,180
15,531	283,340	-0,316	-0,403
16,546	-50,396	-0,251	-0,084
17,561	84,739	-0,307	-0,238
18,575	1,159	-0,169	-0,085
19,590	276,421	-0,194	-0,244
20,604	-50,739	-0,273	-0,090
21,619	57,156	-0,413	-0,284
22,634	330,042	-0,286	-0,390
23,648	175,372	-0,513	-0,526
24,663	106,806	-0,409	-0,343
25,677	45,831	-0,269	-0,176
26,692	371,881	-0,238	-0,343
27,707	41,134	-0,396	-0,253
28,721	79,219	-0,305	-0,230
29,736	9,564	-0,354	-0,189
30,750	66,497	-0,435	-0,312
31,765	139,026	-0,351	-0,326
32,780	-5,137	-0,497	-0,241
33,794	102,781	-0,332	-0,274
34,809	45,358	-0,321	-0,209
35,823	-28,234	-0,396	-0,161
36,838	77,287	-0,418	-0,314
37,853	298,057	-0,306	-0,398
38,867	87,583	-0,299	-0,234
39,882	18,799	-0,375	-0,211
40,896	145,833	-0,285	-0,270
41,911	16,376	-0,529	-0,294
42,926	267,924	-0,287	-0,355
43,940	-15,585	-0,377	-0,169
44,955	64,501	-0,468	-0,332
45,969	17,684	-0,430	-0,241
46,984	75,511	-0,360	-0,268
47,999	-48,995	-0,305	-0,102
49,013	-3,470	-0,287	-0,141
50,028	-66,444	-0,284	-0,079
51,042	96,534	-0,354	-0,286
52,057	84,445	-0,388	-0,299
53,071	221,176	-0,286	-0,325
54,086	169,664	-0,365	-0,368
55,101	3,027	-0,400	-0,204
56,115	291,572	-0,258	-0,332
57,130	27,237	-0,399	-0,236
58,144	221,556	-0,322	-0,365
59,159	81,296	-0,369	-0,280
60,174	3,694	-0,466	-0,239
61,188	-69,820	-0,420	-0,112
62,203	-21,769	-0,248	-0,106
63,217	69,998	-0,357	-0,260
64,232	0,666	-0,384	-0,193
65,247	126,925	-0,373	-0,333
66,261	4,425	-0,425	-0,219
67,276	128,968	-0,361	-0,324
68,290	66,445	-0,282	-0,202
69,305	97,890	-0,233	-0,189
70,320	1,321	-0,253	-0,128
71,334	12,546	-0,280	-0,152
72,349	87,521	-0,372	-0,290
73,363	221,351	-0,258	-0,292
74,378	142,808	-0,292	-0,273
75,393	111,702	-0,262	-0,223
76,407	207,141	-0,229	-0,252
77,422	24,362	-0,267	-0,155
78,436	-3,239	-0,356	-0,174
79,451	-41,631	-0,425	-0,153
80,466	132,523	-0,248	-0,225
81,480	42,764	-0,376	-0,241
82,495	79,008	-0,278	-0,209
83,509	142,871	-0,185	-0,173
84,524	13,094	-0,276	-0,150
85,539	20,402	-0,329	-0,186
86,553	-17,802	-0,332	-0,146
87,568	24,121	-0,198	-0,115
88,582	42,227	-0,283	-0,180
89,597	159,400	-0,174	-0,171
90,611	45,059	-0,239	-0,154
91,626	22,118	-0,258	-0,148
92,641	-57,061	-0,294	-0,090
93,655	11,563	-0,313	-0,168
94,670	98,197	-0,278	-0,225
95,684	151,420	-0,261	-0,250
96,699	45,118	-0,403	-0,260
97,714	3,078	-0,218	-0,111
98,728	89,878	-0,226	-0,177
99,743	60,233	-0,268	-0,186
100,757	14,470	-0,197	-0,108
101,772	-1,189	-0,354	-0,175
102,787	42,905	-0,328	-0,210
103,801	89,139	-0,322	-0,251
104,816	-122,678	-0,203	-0,023
105,830	35,399	-0,392	-0,241
106,845	146,681	-0,245	-0,231
107,860	116,002	-0,260	-0,224
108,874	104,479	-0,252	-0,208
109,889	203,799	-0,215	-0,234
110,903	-6,415	-0,250	-0,119
111,918	232,917	-0,167	-0,193
112,933	106,845	-0,194	-0,162
113,947	122,529	-0,199	-0,174
114,962	386,965	-0,177	-0,257
115,976	69,237	-0,291	-0,210
116,991	184,441	-0,198	-0,206
118,006	212,835	-0,201	-0,223
119,020	236,272	-0,295	-0,342
120,035	548,870	-0,077	-0,130
121,049	-110,947	-0,216	-0,031
122,064	-79,939	-0,162	-0,038
123,079	30,648	-0,346	-0,207
124,093	80,900	-0,283	-0,214
125,108	234,601	-0,278	-0,322
126,122	29,430	-0,296	-0,176
127,137	61,756	-0,155	-0,108
128,151	22,566	-0,227	-0,130
129,166	800,000	-0,126	-0,303
130,181	18,195	-0,208	-0,116
131,195	-97,568	-0,260	-0,047
132,210	-19,525	-0,416	-0,180
133,224	-123,630	-0,252	-0,028
134,239	-85,543	-0,257	-0,056
135,254	-31,147	-0,225	-0,088
136,268	73,302	-0,212	-0,155
137,283	85,261	-0,198	-0,152
138,297	38,648	-0,227	-0,142
139,312	-4,242	-0,381	-0,184
140,327	19,735	-0,185	-0,104
141,341	181,631	-0,129	-0,133
142,356	169,656	-0,219	-0,219
143,370	-84,928	-0,244	-0,053
144,385	74,430	-0,309	-0,227
145,400	146,924	-0,235	-0,221
146,414	-12,048	-0,220	-0,100
147,429	135,848	-0,145	-0,132
148,443	86,965	-0,300	-0,232
149,458	103,381	-0,172	-0,141
150,473	467,198	-0,174	-0,274
151,487	17,819	-0,330	-0,183
152,502	98,532	-0,263	-0,212
153,516	43,084	-0,244	-0,156
154,531	172,451	-0,286	-0,288
155,546	14,358	-0,399	-0,217
156,560	82,873	-0,197	-0,149
157,575	-83,475	-0,125	-0,028
158,589	-23,130	-0,189	-0,079
159,604	68,498	-0,218	-0,156
160,619	71,546	-0,301	-0,218
161,633	-11,776	-0,274	-0,125
162,648	252,037	-0,201	-0,240
163,662	631,058	-0,116	-0,206
164,677	267,621	-0,103	-0,126
165,692	-115,642	-0,172	-0,022
166,706	-48,279	-0,467	-0,156
167,721	126,890	-0,192	-0,170
168,735	-69,844	-0,239	-0,063
169,750	104,810	-0,138	-0,113
170,764	-96,035	-0,205	0,038
171,779	-21,805	-0,092	0,039
172,794	93,842	-0,152	-0,120
173,808	93,797	-0,234	-0,185
174,823	307,685	-0,237	-0,309
175,837	45,052	-0,334	-0,215
176,852	178,923	-0,142	-0,145
177,867	99,799	-0,217	-0,175
178,881	291,740	-0,152	-0,193
179,896	189,140	-0,185	-0,193
180,910	96,143	-0,238	-0,190
181,925	110,775	-0,296	-0,248
182,940	185,657	-0,286	-0,296
183,954	78,268	-0,248	-0,185
184,969	186,467	-0,178	-0,185
185,983	17,813	-0,268	-0,148
186,998	63,433	-0,200	-0,140
188,013	-126,979	-0,294	0,030
189,027	47,580	-0,259	-0,168
190,042	31,185	-0,342	-0,204
191,056	95,309	-0,285	-0,226
192,071	32,542	-0,140	-0,084
193,086	133,681	-0,222	-0,200
194,100	753,673	-0,053	-0,099
195,115	744,829	-0,102	-0,192
196,129	86,050	-0,268	-0,205
197,144	131,722	-0,110	-0,099
198,159	22,619	-0,146	-0,083
199,173	90,851	-0,215	-0,168
200,188	-17,543	-0,164	-0,071
201,202	270,665	-0,088	-0,108
202,217	-43,002	-0,242	-0,085
203,232	-141,981	-0,103	0,007
204,246	160,541	-0,234	-0,228
205,261	56,575	-0,239	-0,162
206,275	351,661	-0,066	-0,091
207,290	258,340	-0,120	-0,144
208,304	-126,885	-0,265	-0,027
209,319	-42,488	-0,223	-0,079
210,334	689,747	-0,124	-0,227
211,348	-5,400	-0,211	-0,100
212,363	132,902	-0,262	-0,235
213,377	137,604	-0,203	-0,185
214,392	-175,475	-0,144	0,003
215,407	-200,000	-0,012	-0,116
216,421	60,296	-0,157	-0,108
217,436	800,000	-0,068	-0,203
218,450	498,276	-0,162	-0,260
219,465	417,754	-0,149	-0,221
220,480	448,362	-0,172	-0,264
221,494	-100,438	-0,165	-0,028
222,509	-149,116	-0,257	0,014
223,523	20,775	-0,273	-0,153
224,538	-0,424	-0,158	-0,078
225,553	218,221	-0,172	-0,191
226,567	173,132	-0,279	-0,280
227,582	35,628	-0,206	-0,126
228,596	159,030	-0,249	-0,240
229,611	-154,177	-0,193	0,009
230,626	122,356	-0,155	-0,135
231,640	-97,208	-0,182	-0,033
232,655	19,318	-0,133	-0,074
233,669	9,278	-0,287	-0,150
234,684	-64,393	-0,192	-0,054
235,699	-184,519	-0,281	-0,003
236,713	661,323	-0,125	-0,224
237,728	800,000	-0,020	-0,040
238,742	-143,801	-0,218	-0,014
239,757	505,229	-0,106	-0,171
240,772	-200,000	-0,019	-0,282
241,786	800,000	-0,117	-0,229
242,801	-18,338	-0,186	-0,080
243,815	50,780	-0,132	-0,086
244,830	-200,000	-0,015	-0,210
245,844	18,245	-0,203	-0,112
246,859	104,780	-0,231	-0,189
247,874	16,746	-0,230	-0,126
248,888	151,440	-0,133	-0,125
249,903	22,919	-0,164	-0,093
250,917	147,051	-0,199	-0,186
251,932	-200,000	-0,004	-0,047
252,947	45,674	-0,071	-0,046
253,961	-72,039	-0,146	-0,037
254,976	750,226	-0,141	-0,266
255,990	52,481	-0,267	-0,176
257,005	127,915	-0,128	-0,113
258,020	-31,224	-0,303	-0,118
259,034	111,423	-0,051	-0,042
260,049	800,000	-0,063	-0,130
261,063	1,704	-0,254	-0,126
262,078	230,322	-0,236	-0,268
263,093	123,722	-0,136	-0,118
264,107	672,566	-0,181	-0,326
265,122	232,061	-0,199	-0,227
266,136	134,648	-0,093	-0,084
267,151	56,718	-0,077	-0,052
268,166	57,891	-0,157	-0,106
269,180	508,359	-0,181	-0,292
270,195	157,628	-0,163	-0,157
271,209	-15,020	-0,259	-0,115
272,224	120,566	-0,155	-0,134
273,239	-100,977	-0,087	-0,015
274,253	-67,055	-0,156	-0,042
275,268	334,002	-0,069	-0,092
276,282	401,381	-0,157	-0,229
277,297	527,688	-0,106	-0,174
278,312	-47,114	-0,195	-0,065
279,326	32,679	-0,164	-0,098
280,341	253,648	-0,136	-0,160
281,355	-200,000	-0,025	-0,090
282,370	291,913	-0,176	-0,222
283,384	47,744	-0,089	-0,057
284,399	735,026	-0,103	-0,191
285,414	143,104	-0,186	-0,171
286,428	236,901	-0,130	-0,149
287,443	-98,396	-0,128	0,022
288,457	-31,270	-0,181	-0,070
289,472	266,450	-0,119	-0,144
290,487	-22,752	-0,260	-0,108
291,501	54,610	-0,239	-0,159
292,516	386,494	-0,129	-0,185
293,530	-200,000	-0,039	-0,120
294,545	-0,884	-0,141	-0,069
295,560	-93,884	-0,093	0,018
296,574	800,000	-0,042	-0,100
297,589	64,459	-0,185	-0,129
298,603	0,435	-0,218	-0,107
299,618	110,606	-0,114	-0,094
300,633	800,000	-0,063	-0,134
301,647	119,039	-0,022	0,018
302,662	57,753	-0,118	-0,079
303,676	-89,028	-0,203	-0,041
304,691	-6,029	-0,180	-0,084
305,706	24,778	-0,276	-0,157
306,720	341,954	-0,120	-0,162
307,735	-169,940	-0,216	-0,005
308,749	-28,453	-0,207	-0,082
309,764	309,716	-0,088	-0,114
310,779	-120,819	-0,178	-0,020
311,793	457,289	-0,154	-0,237
312,808	-25,551	-0,099	-0,040
313,822	27,927	-0,145	0,084
314,837	-18,105	-0,221	-0,095
315,852	-9,036	-0,066	-0,030
316,866	-105,060	-0,231	-0,036
317,881	212,842	-0,057	-0,062
318,895	-49,670	-0,095	-0,031
319,910	800,000	-0,069	-0,207
320,925	426,558	-0,186	-0,278
321,939	-30,626	-0,156	-0,061
322,954	-10,237	-0,110	-0,050
323,968	202,448	-0,096	-0,103
324,983	30,572	-0,150	-0,088
325,997	30,135	-0,221	-0,130
327,012	-70,322	-0,218	-0,057
328,027	-82,655	-0,073	0,016
329,041	429,086	-0,125	-0,187
330,056	800,000	-0,101	-0,243
331,070	98,798	-0,117	-0,093
332,085	228,060	-0,026	-0,029
333,100	-10,624	-0,195	-0,088
334,114	-93,212	-0,167	0,032
335,129	3,314	-0,226	-0,113
336,143	-23,687	-0,237	-0,097
337,158	-126,924	-0,084	-0,008
338,173	732,590	-0,041	-0,076
339,187	276,983	0,060	0,074
340,202	-94,207	-0,032	-0,006
341,216	-12,887	-0,293	-0,131
342,231	553,476	-0,087	-0,144
343,246	800,000	-0,059	-0,173
344,260	531,807	-0,086	-0,140
345,275	-102,900	-0,187	-0,030
346,289	216,376	-0,087	-0,095
347,304	-85,931	-0,168	-0,035
348,319	800,000	-0,118	-0,251
349,333	-63,671	-0,279	-0,078
350,348	56,695	-0,204	-0,136
351,362	310,407	-0,130	-0,168
352,377	-200,000	-0,009	0,045
353,392	78,811	-0,069	-0,051
354,406	38,458	-0,066	0,041
355,421	208,423	1315,303	1414,529
356,435	160,372	1476,130	1415,061
