DTS Sentinel unit serial number:	SN410029Multiplexer serial number:	ORYXHardware model number:	OX2-SRSoftware version number:	ORYX F/W v4,00 Oryx Data Collector v3.7.2.0data status	okinstallation	B3 Nyhavnadifferential loss correction	single-endedforward channel	channel 1reverse channel	N/Adate	2023/12/03time	08:22:30forward acquisition time	300,00reverse acquisition time	0,00gamma	499,1914k internal	0,3201k external	0,3201temperature offset calibration	1,0000default loss term (dB/km)	0,3820temperature slope calibration	1,0000multiplexer offset coefficient	1,0000multiplexer slope coefficient	1,0000fibre end	0,00T internal ref (°C)	13,33T ext. ref 1 (°C)	-1,68T ext. ref 2 (°C)	-1,70length (m)	temperature (°C)	Stokes	anti-Stokes-744,400	-121,778	-0,221	-0,026
-743,385	-200,000	0,037	0,252
-742,371	168,184	-0,247	-0,255
-741,356	-200,000	0,046	0,401
-740,342	-35,314	-0,211	-0,083
-739,327	-200,000	0,104	0,404
-738,312	49,718	-0,313	-0,214
-737,298	-200,000	0,047	0,291
-736,283	-26,094	-0,269	-0,115
-735,269	-200,000	0,060	0,288
-734,254	640,109	-0,118	-0,220
-733,239	334,849	-0,091	0,129
-732,225	800,000	-0,093	-0,227
-731,210	15,982	0,101	0,058
-730,196	800,000	-0,043	-0,134
-729,181	90,001	-0,212	-0,172
-728,167	-47,516	0,085	-0,030
-727,152	8,895	0,051	0,028
-726,137	800,000	-0,040	0,081
-725,123	-200,000	0,012	-0,069
-724,108	-50,018	-0,108	-0,037
-723,094	146,336	-0,095	-0,093
-722,079	-200,000	-0,017	-0,105
-721,064	-130,566	0,080	0,008
-720,050	-170,041	-0,232	-0,006
-719,035	65,600	-0,039	-0,028
-718,021	800,000	-0,044	-0,116
-717,006	-109,591	-0,110	-0,017
-715,991	-200,000	-0,016	0,076
-714,977	20,246	-0,127	-0,074
-713,962	-113,817	0,034	-0,005
-712,948	800,000	0,042	-0,093
-711,933	109,885	0,010	0,009
-710,918	686,221	-0,094	-0,179
-709,904	52,096	-0,046	-0,031
-708,889	-58,163	-0,136	-0,043
-707,875	172,083	0,029	-0,031
-706,860	-21,334	-0,067	0,030
-705,845	-116,415	0,133	-0,018
-704,831	-36,448	0,170	0,066
-703,816	15,821	-0,007	0,004
-702,802	588,175	-0,018	-0,032
-701,787	172,183	-0,076	-0,079
-700,772	-200,000	-0,052	-0,175
-699,758	-117,370	-0,078	-0,010
-698,743	-30,982	0,055	0,023
-697,729	800,000	-0,010	0,030
-696,714	48,452	-0,066	-0,045
-695,699	800,000	0,018	-0,047
-694,685	-200,000	0,015	0,094
-693,670	26,486	-0,108	0,066
-692,656	8,778	0,049	0,027
-691,641	800,000	0,035	-0,086
-690,627	49,006	-0,036	0,025
-689,612	800,000	-0,014	-0,034
-688,597	68,549	-0,119	-0,089
-687,583	337,193	-0,082	-0,115
-686,568	703,421	-0,065	-0,126
-685,554	-110,467	-0,053	-0,008
-684,539	-200,000	0,030	-0,111
-683,524	-200,000	0,038	-0,168
-682,510	-91,274	0,053	-0,011
-681,495	800,000	-0,047	-0,143
-680,481	800,000	0,052	-0,106
-679,466	-200,000	0,013	-0,080
-678,451	800,000	-0,017	-0,054
-677,437	265,285	0,078	0,099
-676,422	31,799	-0,054	0,034
-675,408	-123,235	-0,081	-0,009
-674,393	800,000	-0,057	0,156
-673,378	220,194	0,042	-0,049
-672,364	-183,761	0,049	-0,001
-671,349	800,000	0,051	-0,124
-670,335	90,032	-0,121	0,098
-669,320	55,421	0,070	-0,049
-668,305	-117,111	0,174	-0,023
-667,291	133,267	-0,042	0,039
-666,276	666,835	-0,036	0,068
-665,262	-200,000	0,009	-0,058
-664,247	-200,000	-0,021	-0,102
-663,232	375,933	-0,071	-0,105
-662,218	146,086	0,036	0,035
-661,203	-79,612	-0,144	-0,035
-660,189	-42,370	-0,114	-0,042
-659,174	61,188	0,033	-0,024
-658,159	36,352	-0,086	-0,055
-657,145	78,605	0,076	-0,059
-656,130	148,465	0,022	-0,022
-655,116	-73,553	0,047	0,012
-654,101	48,802	-0,065	0,044
-653,086	800,000	0,054	0,115
-652,072	33,066	0,124	-0,078
-651,057	-153,028	-0,100	0,005
-650,043	-161,717	-0,222	0,008
-649,028	-200,000	-0,015	0,082
-648,014	800,000	-0,027	-0,070
-646,999	-200,000	0,011	0,083
-645,984	-69,388	-0,152	0,042
-644,970	800,000	-0,028	-0,073
-643,955	122,621	0,054	-0,049
-642,941	-69,947	-0,157	0,043
-641,926	-200,000	0,011	0,100
-640,911	-200,000	-0,005	0,082
-639,897	101,203	0,096	0,081
-638,882	-200,000	0,008	0,139
-637,868	42,709	0,071	-0,046
-636,853	-53,468	-0,119	-0,039
-635,838	-167,331	-0,082	0,002
-634,824	800,000	-0,070	0,149
-633,809	-200,000	0,035	-0,123
-632,795	704,738	0,009	0,018
-631,780	718,272	0,054	0,104
-630,765	-200,000	-0,013	0,069
-629,751	800,000	-0,005	-0,014
-628,736	-82,629	-0,195	0,045
-627,722	-200,000	-0,033	-0,112
-626,707	-200,000	-0,000	-0,106
-625,692	-200,000	-0,014	-0,094
-624,678	27,798	-0,141	0,086
-623,663	-200,000	0,006	0,092
-622,649	207,872	0,031	0,035
-621,634	800,000	-0,049	-0,154
-620,619	-156,914	-0,041	-0,002
-619,605	37,226	-0,025	-0,016
-618,590	289,435	-0,036	0,048
-617,576	800,000	0,057	0,129
-616,561	300,324	-0,040	0,053
-615,546	800,000	-0,038	-0,097
-614,532	-78,367	-0,020	-0,005
-613,517	287,222	-0,183	-0,240
-612,503	-200,000	-0,021	0,083
-611,488	-200,000	-0,003	0,044
-610,474	800,000	-0,044	0,090
-609,459	-31,567	0,144	-0,058
-608,444	-200,000	-0,006	-0,050
-607,430	-135,269	-0,069	0,006
-606,415	-200,000	-0,040	0,139
-605,401	-200,000	-0,016	0,120
-604,386	-200,000	0,034	0,127
-603,371	800,000	-0,023	0,062
-602,357	197,200	0,041	0,046
-601,342	98,585	-0,056	-0,047
-600,328	-55,250	0,104	-0,034
-599,313	-54,536	0,096	0,031
-598,298	-20,480	-0,180	-0,080
-597,284	-200,000	0,008	-0,080
-596,269	186,083	-0,009	-0,010
-595,255	202,795	-0,078	-0,088
-594,240	524,926	-0,082	-0,140
-593,225	132,323	-0,054	-0,050
-592,211	-136,317	-0,071	-0,006
-591,196	-129,420	0,130	0,013
-590,182	-177,690	-0,035	0,001
-589,167	80,644	-0,070	0,055
-588,152	-115,449	0,073	0,010
-587,138	152,716	-0,122	-0,120
-586,123	473,772	-0,061	-0,101
-585,109	-64,939	0,132	0,038
-584,094	-200,000	-0,038	-0,203
-583,079	-200,000	0,005	-0,113
-582,065	-66,914	0,097	0,027
-581,050	-22,268	-0,064	0,028
-580,036	65,332	-0,039	-0,028
-579,021	-127,431	-0,056	0,006
-578,006	-8,121	0,066	-0,032
-576,992	-48,686	-0,165	0,057
-575,977	-200,000	-0,009	0,040
-574,963	-110,922	0,061	0,009
-573,948	268,003	0,063	0,080
-572,934	-86,618	0,147	-0,032
-571,919	165,112	0,027	-0,027
-570,904	33,606	-0,112	0,070
-569,890	-200,000	-0,016	-0,068
-568,875	-200,000	0,009	-0,098
-567,861	-78,121	0,132	0,033
-566,846	-200,000	0,010	0,041
-565,831	-31,372	-0,042	0,017
-564,817	-200,000	0,031	0,103
-563,802	207,786	0,024	-0,028
-562,788	38,338	0,059	0,038
-561,773	25,276	0,083	0,049
-560,758	112,497	-0,104	0,091
-559,744	122,549	0,061	-0,055
-558,729	-200,000	-0,031	0,120
-557,715	401,421	0,037	0,056
-556,700	800,000	0,013	-0,028
-555,685	800,000	0,038	0,091
-554,671	-200,000	-0,042	-0,141
-553,656	-172,873	0,180	-0,004
-552,642	625,564	-0,091	0,167
-551,627	800,000	0,049	0,151
-550,612	800,000	-0,028	-0,065
-549,598	-82,215	0,114	-0,027
-548,583	278,183	0,051	-0,066
-547,569	329,032	-0,048	-0,067
-546,554	284,133	-0,130	0,169
-545,539	-137,371	0,081	-0,007
-544,525	-200,000	-0,012	0,050
-543,510	-200,000	-0,006	-0,035
-542,496	-143,110	-0,056	-0,004
-541,481	77,392	-0,133	-0,102
-540,466	173,917	0,062	-0,065
-539,452	-111,329	-0,053	-0,008
-538,437	249,795	0,038	0,046
-537,423	800,000	-0,025	0,080
-536,408	255,594	0,087	-0,108
-535,393	60,599	-0,084	0,060
-534,379	177,352	-0,056	-0,059
-533,364	-200,000	-0,009	0,091
-532,350	431,610	0,064	0,100
-531,335	-112,591	0,129	-0,018
-530,321	800,000	-0,072	0,180
-529,306	-200,000	0,011	0,160
-528,291	97,716	0,019	-0,016
-527,277	35,653	-0,032	-0,020
-526,262	-27,562	0,019	0,008
-525,248	-29,521	0,053	-0,022
-524,233	-109,134	0,146	0,022
-523,218	157,173	-0,073	0,073
-522,204	224,227	0,005	0,006
-521,189	-200,000	0,000	-0,084
-520,175	96,708	-0,077	-0,064
-519,160	292,473	0,049	-0,065
-518,145	-200,000	-0,003	-0,022
-517,131	800,000	0,029	-0,064
-516,116	-161,660	0,247	0,009
-515,102	256,545	-0,097	-0,121
-514,087	-72,767	-0,164	-0,043
-513,072	24,001	0,156	-0,093
-512,058	-112,979	-0,161	0,023
-511,043	477,473	0,059	0,097
-510,029	800,000	0,017	0,037
-509,014	45,383	-0,106	0,070
-507,999	-200,000	0,002	-0,022
-506,985	-200,000	0,002	0,015
-505,970	-200,000	-0,038	-0,123
-504,956	-200,000	0,032	-0,121
-503,941	50,303	0,101	-0,069
-502,926	245,631	0,095	0,116
-501,912	536,572	0,088	0,151
-500,897	-116,742	-0,012	0,002
-499,883	-130,022	0,011	0,001
-498,868	477,985	-0,039	-0,063
-497,853	761,335	-0,012	0,024
-496,839	173,878	0,074	-0,077
-495,824	179,805	0,073	0,077
-494,810	-133,505	-0,133	-0,012
-493,795	-100,310	-0,031	0,006
-492,781	-101,460	-0,155	0,027
-491,766	15,663	-0,020	-0,011
-490,751	373,972	0,018	-0,026
-489,737	-200,000	0,005	0,108
-488,722	800,000	0,062	-0,134
-487,708	-200,000	0,040	0,131
-486,693	342,783	-0,038	0,053
-485,678	800,000	0,012	0,027
-484,664	-186,585	0,081	0,001
-483,649	-200,000	-0,100	-0,000
-482,635	-61,055	0,127	-0,039
-481,620	-139,748	0,074	0,006
-480,605	150,983	-0,108	-0,106
-479,591	-113,302	0,121	-0,017
-478,576	-106,564	0,081	0,013
-477,562	-105,177	-0,069	-0,011
-476,547	311,567	0,093	-0,126
-475,532	800,000	-0,029	0,073
-474,518	-20,129	0,068	0,030
-473,503	25,192	0,121	-0,072
-472,489	-200,000	-0,044	0,177
-471,474	-200,000	0,006	0,063
-470,459	800,000	0,026	0,071
-469,445	-153,821	-0,095	-0,005
-468,430	-45,920	0,091	0,032
-467,416	129,938	-0,028	0,026
-466,401	148,577	0,094	0,091
-465,386	736,245	0,008	-0,016
-464,372	-12,801	0,074	0,035
-463,357	-200,000	-0,023	-0,112
-462,343	175,945	0,051	-0,053
-461,328	385,130	0,099	-0,147
-460,313	-200,000	-0,000	-0,003
-459,299	-200,000	-0,001	0,075
-458,284	800,000	-0,034	0,081
-457,270	-36,380	-0,091	-0,035
-456,255	42,774	-0,071	-0,047
-455,241	-11,781	-0,037	0,017
-454,226	-200,000	0,019	-0,133
-453,211	-200,000	0,012	-0,049
-452,197	-159,650	-0,062	0,002
-451,182	21,014	0,111	0,065
-450,168	541,299	0,029	-0,050
-449,153	317,193	-0,067	0,092
-448,138	-10,030	-0,074	0,035
-447,124	-200,000	0,012	0,057
-446,109	800,000	-0,031	0,091
-445,095	71,187	0,084	-0,063
-444,080	-98,800	0,093	-0,017
-443,065	259,515	-0,051	0,063
-442,051	285,514	0,101	-0,132
-441,036	800,000	-0,035	0,108
-440,022	28,736	-0,101	0,061
-439,007	-174,732	0,127	-0,003
-437,992	-147,092	0,101	-0,006
-436,978	800,000	-0,023	-0,051
-435,963	248,528	-0,141	-0,171
-434,949	-22,129	-0,134	-0,058
-433,934	68,361	0,086	0,063
-432,919	106,815	-0,039	0,034
-431,905	219,155	-0,041	0,047
-430,890	138,975	0,108	0,102
-429,876	800,000	-0,049	0,142
-428,861	-93,918	0,080	0,016
-427,846	-200,000	-0,004	-0,043
-426,832	-51,148	-0,060	0,020
-425,817	-150,808	-0,070	-0,004
-424,803	118,158	0,124	-0,110
-423,788	800,000	0,022	-0,069
-422,773	-134,347	0,045	-0,004
-421,759	25,905	-0,050	0,030
-420,744	96,253	0,038	-0,031
-419,730	-200,000	-0,027	-0,090
-418,715	-200,000	-0,003	-0,025
-417,701	4,454	-0,050	-0,026
-416,686	800,000	0,032	0,073
-415,671	-107,419	-0,109	0,017
-414,657	-200,000	0,012	0,103
-413,642	99,510	-0,063	-0,052
-412,628	122,618	0,098	-0,088
-411,613	800,000	-0,019	0,058
-410,598	-200,000	0,023	0,144
-409,584	-170,798	0,056	-0,001
-408,569	56,758	0,107	0,075
-407,555	83,033	0,058	0,045
-406,540	-200,000	0,001	0,058
-405,525	-114,141	0,082	0,011
-404,511	470,837	0,014	-0,023
-403,496	-200,000	-0,003	-0,089
-402,482	-58,070	-0,055	-0,017
-401,467	279,268	0,102	0,131
-400,452	203,328	0,087	-0,097
-399,438	-86,928	-0,101	-0,022
-398,423	800,000	0,032	0,070
-397,409	-139,980	-0,099	0,007
-396,394	-138,361	0,103	0,008
-395,379	66,995	0,098	-0,071
-394,365	800,000	0,072	0,211
-393,350	14,053	-0,044	0,024
-392,336	800,000	-0,021	0,054
-391,321	569,605	-0,008	0,014
-390,306	6,833	-0,104	-0,055
-389,292	-200,000	0,027	-0,148
-388,277	-90,361	0,069	-0,014
-387,263	151,576	0,047	0,046
-386,248	393,951	0,098	0,146
-385,233	800,000	0,045	0,092
-384,219	-126,203	-0,059	0,006
-383,204	-52,120	-0,050	0,016
-382,190	800,000	0,011	0,030
-381,175	800,000	-0,025	-0,053
-380,160	-158,294	0,041	-0,002
-379,146	-49,706	0,203	-0,069
-378,131	107,063	0,054	-0,046
-377,117	697,983	0,039	-0,075
-376,102	108,155	0,081	-0,069
-375,088	41,247	0,053	-0,034
-374,073	45,331	0,081	0,054
-373,058	-61,252	-0,072	-0,022
-372,044	800,000	-0,037	-0,086
-371,029	47,741	-0,054	-0,036
-370,015	800,000	-0,014	0,040
-369,000	-200,000	-0,001	0,048
-367,985	784,296	-0,067	-0,133
-366,971	-200,000	-0,054	-0,000
-365,956	-152,672	0,089	-0,004
-364,942	24,046	0,142	0,084
-363,927	11,145	0,014	-0,008
-362,912	-140,110	0,148	-0,011
-361,898	800,000	-0,064	-0,137
-360,883	209,874	-0,021	0,024
-359,869	749,843	-0,043	0,084
-358,854	800,000	0,043	-0,120
-357,839	48,754	-0,017	0,012
-356,825	-200,000	0,025	0,109
-355,810	40,950	-0,083	-0,053
-354,796	-74,118	-0,209	-0,054
-353,781	46,170	0,038	0,025
-352,766	-38,566	-0,140	-0,053
-351,752	17,347	0,115	0,065
-350,737	-101,376	-0,132	0,023
-349,723	197,361	0,048	-0,052
-348,708	24,478	0,190	-0,112
-347,693	68,442	-0,033	-0,024
-346,679	-200,000	-0,016	-0,119
-345,664	-97,912	-0,072	-0,013
-344,650	543,949	-0,017	-0,029
-343,635	-200,000	0,030	0,111
-342,620	800,000	-0,027	0,074
-341,606	461,243	-0,096	0,154
-340,591	28,471	0,068	-0,041
-339,577	-200,000	0,027	-0,138
-338,562	-200,000	0,034	-0,111
-337,548	88,538	0,125	-0,099
-336,533	-96,682	-0,077	0,014
-335,518	-47,928	-0,198	0,068
-334,504	79,452	-0,092	0,071
-333,489	-174,120	-0,103	-0,002
-332,475	116,922	-0,105	0,093
-331,460	-200,000	-0,006	-0,118
-330,445	110,139	0,039	0,033
-329,431	-200,000	-0,038	0,120
-328,416	800,000	-0,028	0,078
-327,402	800,000	-0,049	-0,097
-326,387	-94,390	-0,041	-0,008
-325,372	192,057	-0,048	-0,052
-324,358	-166,346	-0,104	-0,003
-323,343	-200,000	0,002	-0,161
-322,329	-200,000	-0,026	0,093
-321,314	-93,005	0,158	-0,031
-320,299	-126,493	0,167	0,018
-319,285	-25,573	-0,065	0,027
-318,270	-200,000	0,033	0,142
-317,256	86,307	-0,046	-0,036
-316,241	800,000	-0,039	-0,099
-315,226	183,665	0,066	0,070
-314,212	280,129	0,071	-0,091
-313,197	-154,427	0,013	0,001
-312,183	-200,000	0,044	0,193
-311,168	151,228	-0,045	0,043
-310,153	-173,191	-0,073	0,002
-309,139	364,327	0,083	-0,120
-308,124	-200,000	0,008	-0,106
-307,110	-45,656	0,179	0,063
-306,095	800,000	0,070	0,166
-305,080	800,000	-0,043	0,093
-304,066	-112,566	0,147	0,021
-303,051	737,376	-0,082	-0,159
-302,037	-200,000	-0,012	-0,042
-301,022	44,994	0,048	0,031
-300,008	800,000	-0,055	0,118
-298,993	800,000	-0,059	0,148
-297,978	99,118	0,175	0,145
-296,964	6,175	-0,040	0,021
-295,949	-200,000	0,017	-0,205
-294,935	-200,000	-0,003	-0,096
-293,920	-137,941	-0,072	-0,006
-292,905	7,999	-0,076	-0,041
-291,891	-33,355	0,103	0,041
-290,876	7,628	0,052	-0,028
-289,862	-8,300	0,101	-0,049
-288,847	-96,308	-0,136	-0,025
-287,832	-200,000	0,007	-0,082
-286,818	-200,000	0,039	-0,167
-285,803	-200,000	-0,020	-0,131
-284,789	246,872	0,031	0,037
-283,774	-103,468	0,100	0,017
-282,759	222,589	0,023	-0,026
-281,745	27,161	0,054	-0,032
-280,730	-150,175	-0,084	0,005
-279,716	89,386	0,074	-0,059
-278,701	389,541	0,035	0,051
-277,686	800,000	0,034	0,074
-276,672	25,180	0,070	0,041
-275,657	800,000	-0,002	0,005
-274,643	800,000	-0,030	-0,089
-273,628	-200,000	0,005	0,084
-272,613	290,843	0,047	-0,061
-271,599	-200,000	0,021	-0,080
-270,584	-200,000	0,006	0,041
-269,570	800,000	-0,016	0,047
-268,555	-130,084	0,153	-0,015
-267,540	670,738	-0,053	0,099
-266,526	-72,349	-0,134	-0,035
-265,511	-200,000	0,027	0,110
-264,497	-200,000	0,011	0,196
-263,482	324,474	-0,016	0,022
-262,467	-200,000	0,021	0,104
-261,453	148,771	0,030	-0,029
-260,438	99,276	-0,109	-0,090
-259,424	800,000	-0,020	-0,050
-258,409	800,000	0,024	-0,071
-257,395	-55,192	0,090	-0,029
-256,380	-200,000	0,027	0,085
-255,365	-32,137	0,045	0,018
-254,351	-107,695	0,080	0,012
-253,336	-40,480	-0,152	0,056
-252,322	-200,000	-0,034	-0,109
-251,307	660,180	-0,037	-0,068
-250,292	248,659	0,015	-0,019
-249,278	800,000	-0,058	-0,154
-248,263	24,455	-0,042	0,025
-247,249	-200,000	0,037	0,128
-246,234	-112,742	-0,146	0,020
-245,219	800,000	-0,028	-0,083
-244,205	-84,895	0,081	-0,018
-243,190	125,419	-0,032	-0,028
-242,176	-128,614	0,099	0,010
-241,161	742,162	0,044	-0,084
-240,146	82,792	0,063	-0,049
-239,132	800,000	0,004	-0,011
-238,117	800,000	-0,037	-0,078
-237,103	176,541	-0,034	-0,035
-236,088	-200,000	0,004	-0,079
-235,073	-73,666	0,117	-0,030
-234,059	-39,894	0,088	0,032
-233,044	800,000	0,005	-0,015
-232,030	-200,000	-0,005	-0,036
-231,015	792,274	0,065	-0,128
-230,000	543,326	-0,049	-0,084
-228,986	272,939	-0,051	-0,064
-227,971	-104,013	-0,123	0,020
-226,957	-124,057	0,136	-0,015
-225,942	26,776	0,178	0,106
-224,927	486,677	-0,075	0,122
-223,913	160,302	-0,057	0,057
-222,898	800,000	-0,007	0,013
-221,884	-111,926	-0,140	0,020
-220,869	-90,200	-0,050	-0,010
-219,855	-174,368	0,153	-0,003
-218,840	800,000	-0,027	0,059
-217,825	53,985	-0,071	0,048
-216,811	-130,371	-0,141	-0,013
-215,796	-116,518	-0,199	0,026
-214,782	286,102	-0,049	-0,063
-213,767	-200,000	0,034	0,159
-212,752	43,586	0,069	0,045
-211,738	-200,000	-0,008	0,039
-210,723	-6,816	-0,127	-0,061
-209,709	-124,577	0,019	-0,002
-208,694	122,810	-0,077	-0,069
-207,679	75,313	-0,102	-0,076
-206,665	-200,000	0,004	0,071
-205,650	731,670	-0,045	0,086
-204,636	-200,000	0,011	0,131
-203,621	11,621	-0,084	0,046
-202,606	-200,000	-0,031	-0,109
-201,592	123,929	0,080	-0,072
-200,577	-200,000	-0,031	-0,172
-199,563	-71,410	0,084	-0,022
-198,548	731,102	0,032	0,061
-197,533	-200,000	0,016	0,063
-196,519	-29,981	0,073	0,030
-195,504	324,579	0,050	-0,068
-194,490	477,200	-0,051	0,083
-193,475	195,804	-0,029	0,031
-192,460	-125,822	-0,140	-0,015
-191,446	40,547	0,104	0,066
-190,431	-200,000	-0,009	0,059
-189,417	800,000	-0,054	0,124
-188,402	-106,627	-0,040	-0,006
-187,387	-0,492	-0,095	-0,048
-186,373	149,567	-0,056	-0,054
-185,358	-183,707	-0,133	0,002
-184,344	-75,606	0,125	-0,031
-183,329	800,000	0,051	0,130
-182,315	800,000	0,048	-0,105
-181,300	-107,963	-0,100	0,015
-180,285	199,694	0,046	-0,050
-179,271	-200,000	-0,003	-0,048
-178,256	800,000	-0,047	-0,113
-177,242	-71,776	-0,014	0,004
-176,227	-128,173	0,053	-0,005
-175,212	-32,306	-0,053	-0,021
-174,198	338,882	0,055	0,076
-173,183	800,000	-0,043	-0,091
-172,169	144,134	0,042	0,040
-171,154	-45,374	0,190	-0,067
-170,139	-130,999	-0,107	0,010
-169,125	800,000	-0,030	0,088
-168,110	800,000	-0,054	0,164
-167,096	800,000	-0,059	-0,135
-166,081	40,291	-0,035	0,022
-165,066	202,349	-0,217	-0,239
-164,052	-200,000	-0,039	-0,157
-163,037	-78,125	-0,034	0,008
-162,023	-200,000	0,030	0,150
-161,008	513,428	0,048	0,081
-159,993	-86,852	-0,033	0,007
-158,979	183,926	0,101	-0,107
-157,964	11,838	-0,141	-0,077
-156,950	505,232	0,078	-0,128
-155,935	3,533	0,110	-0,057
-154,920	-156,883	-0,120	0,005
-153,906	-138,302	0,049	0,004
-152,891	-59,145	0,103	-0,031
-151,877	225,796	0,051	0,059
-150,862	-200,000	-0,018	0,080
-149,847	-15,597	-0,070	-0,032
-148,833	800,000	-0,033	0,089
-147,818	-113,394	0,092	-0,013
-146,804	-76,862	0,065	-0,016
-145,789	800,000	0,017	-0,051
-144,775	-200,000	0,046	-0,147
-143,760	-200,000	0,007	-0,144
-142,745	104,474	-0,052	0,043
-141,731	718,505	0,051	0,097
-140,716	63,340	-0,092	0,066
-139,702	800,000	0,045	0,115
-138,687	-74,939	0,138	-0,035
-137,672	-200,000	0,010	-0,103
-136,658	33,986	-0,019	-0,011
-135,643	-83,394	-0,122	-0,027
-134,629	-67,919	-0,143	0,039
-133,614	800,000	0,003	-0,009
-132,599	-19,353	0,147	0,065
-131,585	209,709	-0,014	0,015
-130,570	-200,000	-0,005	-0,171
-129,556	109,584	0,016	-0,014
-128,541	800,000	-0,046	-0,120
-127,526	-74,071	-0,021	-0,005
-126,512	-84,536	0,065	0,015
-125,497	1,751	0,123	-0,063
-124,483	-200,000	0,007	-0,058
-123,468	154,910	-0,011	0,010
-122,453	-100,209	-0,084	0,015
-121,439	101,859	-0,104	-0,086
-120,424	-136,898	0,155	0,012
-119,410	200,913	-0,068	-0,074
-118,395	270,854	-0,037	0,046
-117,380	-145,236	-0,105	0,007
-116,366	14,534	-0,085	0,047
-115,351	76,983	-0,145	0,109
-114,337	26,700	0,106	-0,063
-113,322	232,726	0,018	0,021
-112,307	800,000	0,049	-0,129
-111,293	-6,266	0,076	0,036
-110,278	78,344	0,060	-0,045
-109,264	-200,000	-0,002	0,141
-108,249	-200,000	-0,010	0,032
-107,234	800,000	-0,026	-0,057
-106,220	73,203	-0,093	-0,069
-105,205	-9,785	0,065	0,031
-104,191	573,770	-0,032	0,056
-103,176	-200,000	-0,000	0,130
-102,162	399,805	0,026	-0,039
-101,147	224,834	-0,084	-0,097
-100,132	-16,915	0,094	-0,042
-99,118	-200,000	0,008	-0,092
-98,103	67,471	-0,078	0,057
-97,089	26,993	0,061	0,036
-96,074	-44,916	-0,063	-0,022
-95,059	-200,000	-0,004	0,043
-94,045	101,298	0,093	0,077
-93,030	794,497	0,017	-0,033
-92,016	800,000	-0,050	-0,134
-91,001	-119,403	0,159	-0,019
-89,986	-77,066	-0,117	-0,029
-88,972	-86,529	0,081	0,018
-87,957	-200,000	-0,013	0,073
-86,943	-82,160	-0,078	-0,018
-85,928	800,000	-0,057	-0,130
-84,913	-166,881	-0,074	0,002
-83,899	-200,000	0,034	0,167
-82,884	-65,773	-0,057	0,016
-81,870	76,740	0,049	0,037
-80,855	-91,994	-0,187	-0,037
-79,840	165,989	0,079	0,080
-78,826	-156,806	-0,256	-0,011
-77,811	-200,000	-0,004	-0,129
-76,797	342,743	0,071	-0,098
-75,782	-200,000	0,013	-0,103
-74,767	800,000	-0,041	0,099
-73,753	-14,106	0,003	-0,002
-72,738	-81,514	-0,018	0,004
-71,724	16,888	0,082	0,046
-70,709	-129,839	0,129	-0,012
-69,694	325,632	-0,069	-0,093
-68,680	800,000	-0,056	0,163
-67,665	-45,073	0,062	-0,022
-66,651	509,157	-0,018	-0,030
-65,636	-147,329	-0,085	0,005
-64,622	166,750	-0,054	0,054
-63,607	300,496	-0,108	-0,141
-62,592	800,000	-0,044	-0,135
-61,578	-183,526	-0,141	0,002
-60,563	800,000	-0,063	0,151
-59,549	800,000	0,064	0,199
-58,534	-12,186	-1,615	-0,746
-57,519	517,097	-1,307	-2,172
-56,505	-200,000	-0,557	-4,584
-55,490	147,046	0,925	0,882
-54,476	800,000	4,995	11,462
-53,461	-200,000	19,180	320,340
-52,446	-200,000	740,686	2335,043
-51,432	573,679	1655,468	2869,832
-50,417	78,305	1671,120	1262,068
-49,403	21,309	1544,314	885,917
-48,388	15,174	1466,682	811,543
-47,373	17,938	1456,950	819,488
-46,359	16,727	1446,603	807,826
-45,344	13,446	1441,933	789,469
-44,330	13,359	1440,042	787,986
-43,315	13,406	1438,294	787,224
-42,300	13,420	1436,733	786,403
-41,286	13,443	1435,534	785,826
-40,271	13,362	1434,134	784,643
-39,257	13,357	1432,898	783,911
-38,242	13,381	1431,756	783,370
-37,227	13,410	1430,331	782,697
-36,213	13,459	1429,048	782,198
-35,198	13,417	1427,756	781,261
-34,184	13,446	1426,958	780,927
-33,169	13,394	1425,640	779,930
-32,154	13,473	1424,373	779,581
-31,140	13,466	1423,237	778,892
-30,125	13,460	1422,358	778,354
-29,111	13,466	1420,959	777,586
-28,096	13,398	1419,966	776,690
-27,082	13,344	1418,891	775,817
-26,067	13,365	1417,621	775,189
-25,052	13,359	1416,676	774,614
-24,038	13,335	1415,686	773,929
-23,023	13,340	1414,712	773,388
-22,009	13,309	1413,920	772,780
-20,994	13,317	1412,708	772,124
-19,979	13,306	1411,929	771,616
-18,965	13,278	1410,895	770,889
-17,950	13,335	1409,876	770,570
-16,936	13,317	1409,032	769,991
-15,921	13,288	1407,801	769,154
-14,906	13,302	1407,123	768,816
-13,892	13,271	1406,076	768,070
-12,877	13,253	1405,169	767,462
-11,863	13,228	1404,307	766,845
-10,848	13,274	1403,508	766,590
-9,833	13,249	1402,624	765,964
-8,819	13,226	1401,504	765,213
-7,804	13,156	1401,028	764,598
-6,790	13,156	1399,646	763,813
-5,775	13,159	1398,679	763,268
-4,760	13,152	1397,701	762,669
-3,746	13,124	1396,938	762,096
-2,731	13,143	1395,998	761,639
-1,717	13,134	1395,139	761,099
-0,702	13,155	1393,289	760,157
0,313	17,007	1310,044	732,582
1,327	33,173	703,862	430,973
2,342	51,220	123,374	82,703
3,356	3,082	16,639	8,529
4,371	0,651	3,252	1,640
5,386	93,935	0,486	0,389
6,400	-200,000	0,001	0,200
7,415	589,981	-0,141	-0,247
8,429	218,242	-0,251	-0,284
9,444	41,236	-0,407	-0,260
10,459	-57,879	-0,343	-0,105
11,473	-33,657	-0,276	-0,107
12,488	1,208	-0,236	-0,120
13,502	90,626	-0,393	-0,311
14,517	23,312	-0,289	-0,167
15,531	160,349	-0,394	-0,389
16,546	156,563	-0,313	-0,306
17,561	146,402	-0,331	-0,314
18,575	800,000	-0,091	-0,183
19,590	137,635	-0,206	-0,190
20,604	-133,839	-0,294	-0,025
21,619	76,236	-0,395	-0,295
22,634	75,650	-0,390	-0,290
23,648	-54,347	-0,558	-0,178
24,663	117,093	-0,427	-0,371
25,677	293,533	-0,331	-0,428
26,692	52,957	-0,269	-0,181
27,707	84,969	-0,450	-0,348
28,721	54,779	-0,448	-0,305
29,736	-15,841	-0,418	-0,187
30,750	69,801	-0,472	-0,343
31,765	154,741	-0,366	-0,355
32,780	73,365	-0,292	-0,215
33,794	114,507	-0,393	-0,338
34,809	151,794	-0,314	-0,302
35,823	21,035	-0,341	-0,195
36,838	103,742	-0,443	-0,367
37,853	285,936	-0,255	-0,326
38,867	262,819	-0,347	-0,425
39,882	51,597	-0,215	-0,144
40,896	68,099	-0,355	-0,256
41,911	180,996	-0,332	-0,344
42,926	25,467	-0,394	-0,230
43,940	115,908	-0,438	-0,378
44,955	386,161	-0,258	-0,377
45,969	10,997	-0,362	-0,195
46,984	27,209	-0,364	-0,215
47,999	29,493	-0,417	-0,249
49,013	64,159	-0,352	-0,249
50,028	127,446	-0,202	-0,180
51,042	344,695	-0,231	-0,320
52,057	197,233	-0,222	-0,239
53,071	124,965	-0,305	-0,271
54,086	34,603	-0,287	-0,176
55,101	-8,398	-0,430	-0,203
56,115	141,151	-0,337	-0,314
57,130	144,223	-0,285	-0,268
58,144	87,721	-0,304	-0,237
59,159	69,393	-0,374	-0,270
60,174	158,632	-0,359	-0,351
61,188	265,372	-0,297	-0,365
62,203	-126,480	-0,335	-0,035
63,217	-31,137	-0,332	-0,131
64,232	-22,141	-0,430	-0,183
65,247	-88,389	-0,405	-0,084
66,261	-13,108	-0,486	-0,222
67,276	130,184	-0,291	-0,262
68,290	86,130	-0,387	-0,299
69,305	86,585	-0,293	-0,227
70,320	484,103	-0,157	-0,251
71,334	7,046	-0,259	-0,135
72,349	126,827	-0,337	-0,300
73,363	126,941	-0,309	-0,276
74,378	163,643	-0,272	-0,270
75,393	36,638	-0,383	-0,237
76,407	134,243	-0,228	-0,208
77,422	12,509	-0,251	-0,136
78,436	-0,755	-0,337	-0,167
79,451	134,432	-0,271	-0,247
80,466	-15,022	-0,399	-0,179
81,480	67,807	-0,255	-0,183
82,495	126,247	-0,194	-0,173
83,509	167,790	-0,283	-0,283
84,524	166,477	-0,263	-0,262
85,539	141,780	-0,196	-0,182
86,553	-113,705	-0,403	-0,055
87,568	80,242	-0,289	-0,218
88,582	-17,757	-0,263	-0,115
89,597	64,970	-0,302	-0,214
90,611	-73,126	-0,359	-0,092
91,626	-146,697	-0,218	-0,013
92,641	-128,971	-0,366	-0,036
93,655	6,725	-0,345	-0,180
94,670	106,016	-0,369	-0,307
95,684	397,178	-0,179	-0,263
96,699	244,697	-0,278	-0,329
97,714	247,287	-0,266	-0,316
98,728	700,746	-0,179	-0,331
99,743	33,976	-0,207	-0,126
100,757	106,901	-0,297	-0,248
101,772	112,727	-0,269	-0,228
102,787	16,625	-0,285	-0,158
103,801	284,471	-0,177	-0,224
104,816	86,404	-0,292	-0,225
105,830	94,622	-0,204	-0,162
106,845	423,707	-0,146	-0,220
107,860	268,355	-0,089	-0,109
108,874	11,956	-0,192	-0,103
109,889	-34,330	-0,378	-0,145
110,903	67,681	-0,337	-0,241
111,918	36,386	-0,307	-0,190
112,933	-57,673	-0,180	-0,055
113,947	77,612	-0,288	-0,215
114,962	-45,403	-0,256	-0,088
115,976	-69,938	-0,182	-0,048
116,991	61,631	-0,347	-0,242
118,006	109,658	-0,297	-0,250
119,020	240,153	-0,216	-0,252
120,035	-43,867	-0,208	-0,073
121,049	-17,786	-0,352	-0,154
122,064	50,954	-0,255	-0,169
123,079	27,507	-0,341	-0,200
124,093	71,436	-0,307	-0,223
125,108	-95,402	-0,229	-0,043
126,122	18,281	-0,314	-0,175
127,137	800,000	-0,065	-0,137
128,151	-0,990	-0,191	-0,094
129,166	219,809	-0,170	-0,191
130,181	126,971	-0,305	-0,270
131,195	145,212	-0,322	-0,301
132,210	154,704	-0,309	-0,297
133,224	378,021	-0,195	-0,280
134,239	0,447	-0,277	-0,138
135,254	-97,260	-0,174	-0,031
136,268	60,467	-0,202	-0,140
137,283	143,085	-0,178	-0,166
138,297	370,752	-0,203	-0,288
139,312	130,960	-0,274	-0,246
140,327	37,294	-0,252	-0,156
141,341	-91,814	-0,116	-0,023
142,356	-109,200	-0,260	-0,038
143,370	133,386	-0,223	-0,202
144,385	800,000	-0,098	-0,271
145,400	92,241	-0,229	-0,180
146,414	104,828	-0,363	-0,299
147,429	248,939	-0,244	-0,289
148,443	185,000	-0,225	-0,233
149,458	171,496	-0,117	-0,117
150,473	489,143	-0,141	-0,225
151,487	42,954	-0,272	-0,173
152,502	-5,887	-0,341	-0,162
153,516	167,504	-0,281	-0,279
154,531	162,916	-0,232	-0,227
155,546	302,419	-0,189	-0,244
156,560	181,414	-0,214	-0,220
157,575	84,581	-0,184	-0,140
158,589	26,998	-0,209	-0,122
159,604	99,639	-0,153	-0,124
160,619	214,289	-0,170	-0,188
161,633	99,010	-0,358	-0,288
162,648	98,592	-0,225	-0,181
163,662	800,000	-0,080	-0,238
164,677	32,903	-0,136	-0,082
165,692	243,366	-0,112	-0,131
166,706	29,044	-0,247	-0,146
167,721	181,062	-0,279	-0,286
168,735	15,073	-0,281	-0,153
169,750	247,511	-0,182	-0,215
170,764	-200,000	-0,048	-0,228
171,779	266,806	-0,115	-0,141
172,794	145,577	-0,206	-0,192
173,808	134,213	-0,225	-0,203
174,823	152,031	-0,275	-0,262
175,837	132,978	-0,265	-0,239
176,852	13,076	-0,238	-0,128
177,867	48,463	-0,315	-0,205
178,881	312,151	-0,207	-0,271
179,896	377,543	-0,179	-0,255
180,910	209,388	-0,223	-0,244
181,925	73,264	-0,222	-0,161
182,940	40,744	-0,319	-0,200
183,954	90,653	-0,229	-0,179
184,969	131,135	-0,238	-0,213
185,983	71,152	-0,092	-0,066
186,998	24,531	-0,256	-0,147
188,013	-116,920	-0,233	-0,029
189,027	189,136	-0,215	-0,225
190,042	85,904	-0,381	-0,291
191,056	413,380	-0,210	-0,313
192,071	-92,552	-0,213	-0,041
193,086	141,506	-0,121	-0,112
194,100	28,724	-0,126	-0,074
195,115	90,166	-0,169	-0,131
196,129	143,628	-0,293	-0,272
197,144	-18,735	-0,234	-0,101
198,159	46,026	-0,296	-0,190
199,173	800,000	-0,106	-0,234
200,188	10,330	-0,285	-0,150
201,202	30,682	-0,213	-0,126
202,217	398,202	-0,118	-0,172
203,232	42,533	-0,240	-0,151
204,246	800,000	-0,120	-0,252
205,261	152,375	-0,344	-0,326
206,275	272,007	-0,167	-0,205
207,290	512,107	-0,150	-0,244
208,304	57,329	-0,167	-0,113
209,319	95,831	-0,079	-0,063
210,334	37,274	-0,230	-0,141
211,348	108,203	-0,138	-0,114
212,363	149,746	-0,235	-0,221
213,377	50,244	-0,315	-0,206
214,392	800,000	-0,103	-0,248
215,407	9,899	-0,195	-0,103
216,421	111,547	-0,187	-0,157
217,436	613,886	-0,091	-0,159
218,450	-69,327	-0,192	-0,051
219,465	52,139	-0,216	-0,143
220,480	129,099	-0,230	-0,204
221,494	178,559	-0,190	-0,193
222,509	800,000	0,025	0,053
223,523	-200,000	-0,210	-0,000
224,538	-142,036	-0,302	-0,021
225,553	92,628	-0,125	-0,098
226,567	258,481	-0,274	-0,328
227,582	65,295	-0,182	-0,127
228,596	800,000	-0,117	-0,253
229,611	800,000	-0,085	-0,178
230,626	-174,663	-0,154	-0,003
231,640	227,466	-0,202	-0,228
232,655	250,819	-0,232	-0,274
233,669	117,492	-0,209	-0,179
234,684	159,934	-0,198	-0,191
235,699	-4,637	-0,222	-0,106
236,713	-86,186	-0,170	-0,036
237,728	288,589	-0,073	-0,091
238,742	430,642	-0,137	-0,206
239,757	-200,000	-0,007	-0,182
240,772	-1,412	-0,251	-0,122
241,786	-19,850	-0,207	-0,088
242,801	800,000	-0,079	-0,196
243,815	62,710	-0,321	-0,222
244,830	28,261	-0,237	-0,138
245,844	-20,085	-0,253	-0,108
246,859	107,536	-0,286	-0,236
247,874	150,913	-0,258	-0,243
248,888	4,880	-0,169	-0,086
249,903	35,654	-0,207	-0,125
250,917	-99,355	-0,210	-0,036
251,932	-13,307	-0,169	-0,076
252,947	47,370	-0,190	-0,122
253,961	-49,770	-0,161	-0,053
254,976	-146,431	-0,343	0,020
255,990	-27,222	-0,188	-0,075
257,005	210,495	-0,164	-0,178
258,020	35,231	-0,169	-0,102
259,034	-81,868	-0,204	-0,046
260,049	-134,205	-0,232	0,019
261,063	-128,218	-0,221	0,022
262,078	211,810	-0,212	-0,231
263,093	53,335	-0,232	-0,153
264,107	496,266	-0,107	-0,170
265,122	30,960	-0,160	-0,095
266,136	-107,480	-0,228	0,034
267,151	242,995	-0,202	-0,235
268,166	66,287	-0,186	-0,131
269,180	-99,147	-0,227	-0,039
270,195	21,746	-0,254	-0,143
271,209	35,288	-0,252	-0,152
272,224	223,004	-0,191	-0,213
273,239	69,866	-0,181	-0,129
274,253	67,334	-0,172	-0,121
275,268	800,000	-0,084	-0,190
276,282	246,837	-0,149	-0,174
277,297	6,221	-0,267	-0,136
278,312	71,035	-0,170	-0,121
279,326	-143,998	-0,204	-0,013
280,341	-50,899	-0,166	0,054
281,355	-52,653	-0,066	-0,021
282,370	-164,924	-0,248	-0,008
283,384	-38,266	-0,061	0,022
284,399	74,581	-0,213	-0,155
285,414	-77,672	-0,159	-0,038
286,428	62,117	-0,205	-0,141
287,443	468,869	-0,198	-0,308
288,457	-200,000	-0,043	-0,216
289,472	-200,000	-0,020	-0,070
290,487	88,859	-0,233	-0,179
291,501	688,087	-0,133	-0,240
292,516	-200,000	-0,057	-0,181
293,530	-151,531	-0,210	0,011
294,545	496,695	-0,028	-0,045
295,560	254,393	-0,148	-0,174
296,574	375,928	-0,068	-0,095
297,589	398,631	-0,040	-0,058
298,603	-83,107	-0,160	-0,035
299,618	-1,491	-0,140	-0,068
300,633	530,993	-0,073	-0,119
301,647	36,452	-0,104	-0,063
302,662	76,242	-0,171	0,125
303,676	-33,485	-0,183	-0,069
304,691	-124,064	-0,208	0,022
305,706	-43,892	-0,173	-0,060
306,720	90,628	-0,094	-0,072
307,735	-37,411	-0,047	-0,017
308,749	-102,692	-0,211	0,034
309,764	-102,752	-0,127	0,021
310,779	227,688	-0,122	-0,137
311,793	212,228	-0,064	-0,070
312,808	-178,238	-0,188	-0,003
313,822	104,609	-0,136	-0,111
314,837	734,081	-0,108	-0,200
315,852	-109,844	-0,105	0,015
316,866	594,325	-0,077	-0,132
317,881	-200,000	-0,047	-0,191
318,895	166,254	-0,111	-0,109
319,910	134,090	-0,169	-0,151
320,925	146,230	-0,140	-0,129
321,939	374,400	-0,119	-0,168
322,954	-200,000	-0,008	-0,061
323,968	-200,000	0,011	0,047
324,983	-2,446	-0,070	-0,034
325,997	-70,310	-0,188	-0,049
327,012	23,174	-0,207	-0,117
328,027	68,316	-0,209	-0,147
329,041	800,000	-0,083	-0,217
330,056	2,217	-0,146	-0,072
331,070	-3,323	-0,099	-0,047
332,085	80,374	-0,094	-0,069
333,100	-116,159	-0,144	-0,018
334,114	-126,919	-0,181	-0,018
335,129	-44,955	-0,172	-0,059
336,143	-74,190	-0,273	-0,067
337,158	114,901	-0,051	0,042
338,173	306,274	-0,118	-0,151
339,187	-81,908	-0,120	0,027
340,202	-26,165	-0,141	-0,057
341,216	16,603	-0,251	-0,136
342,231	66,547	-0,156	-0,108
343,246	-64,897	-0,167	-0,046
344,260	399,687	-0,164	-0,236
345,275	86,725	-0,054	-0,041
346,289	-144,587	-0,209	0,013
347,304	800,000	-0,038	-0,094
348,319	150,669	-0,207	-0,193
349,333	215,626	-0,198	-0,216
350,348	165,397	-0,111	-0,107
351,362	30,572	-0,128	-0,075
352,377	24,278	-0,183	-0,104
353,392	-65,826	-0,084	-0,023
354,406	-24,454	-0,210	-0,085
355,421	209,592	1312,766	1413,408
356,435	161,314	1473,258	1413,895
