DTS Sentinel unit serial number:	SN410029Multiplexer serial number:	ORYXHardware model number:	OX2-SRSoftware version number:	ORYX F/W v4,00 Oryx Data Collector v3.7.2.0data status	okinstallation	B3 Nyhavnadifferential loss correction	single-endedforward channel	channel 1reverse channel	N/Adate	2023/11/30time	04:12:30forward acquisition time	300,00reverse acquisition time	0,00gamma	499,1914k internal	0,3211k external	0,3211temperature offset calibration	1,0000default loss term (dB/km)	0,3820temperature slope calibration	1,0000multiplexer offset coefficient	1,0000multiplexer slope coefficient	1,0000fibre end	0,00T internal ref (°C)	10,14T ext. ref 1 (°C)	-5,36T ext. ref 2 (°C)	-5,45length (m)	temperature (°C)	Stokes	anti-Stokes-744,400	136,356	-0,300	-0,284
-743,385	-200,000	0,048	0,348
-742,371	800,000	-0,077	-0,232
-741,356	-200,000	-0,017	0,304
-740,342	82,248	-0,215	-0,169
-739,327	-200,000	-0,068	0,305
-738,312	46,790	-0,342	-0,230
-737,298	-200,000	-0,090	0,292
-736,283	202,881	-0,207	-0,232
-735,269	-200,000	0,081	0,274
-734,254	-10,793	-0,252	-0,120
-733,239	-167,070	-0,219	-0,006
-732,225	254,960	-0,122	-0,151
-731,210	-52,176	0,063	0,021
-730,196	-31,792	0,107	-0,043
-729,181	-88,067	-0,124	-0,027
-728,167	731,286	-0,040	-0,078
-727,152	-200,000	-0,001	0,014
-726,137	800,000	0,028	0,057
-725,123	160,117	-0,079	-0,079
-724,108	300,230	-0,066	-0,089
-723,094	-200,000	0,018	-0,078
-722,079	-89,521	-0,204	-0,043
-721,064	-24,868	-0,006	0,002
-720,050	484,767	-0,030	0,050
-719,035	-52,044	-0,103	-0,034
-718,021	108,443	-0,192	-0,166
-717,006	-95,116	-0,148	-0,029
-715,991	-121,482	0,193	0,023
-714,977	-200,000	0,027	-0,135
-713,962	70,355	-0,170	-0,127
-712,948	800,000	0,017	0,048
-711,933	-107,025	-0,054	0,009
-710,918	714,910	-0,045	0,087
-709,904	800,000	0,050	-0,100
-708,889	155,840	-0,089	-0,089
-707,875	-71,067	-0,080	-0,022
-706,860	56,111	0,114	0,080
-705,845	72,012	0,015	0,011
-704,831	-200,000	0,001	0,190
-703,816	253,209	-0,040	0,049
-702,802	-88,583	-0,031	-0,007
-701,787	-13,628	-0,028	0,013
-700,772	-200,000	0,004	-0,110
-699,758	-200,000	0,018	0,075
-698,743	0,327	0,231	0,119
-697,729	73,737	-0,091	-0,069
-696,714	-200,000	-0,031	-0,146
-695,699	800,000	0,042	-0,097
-694,685	629,911	0,019	-0,035
-693,670	474,431	-0,108	-0,178
-692,656	44,448	0,127	-0,084
-691,641	-19,898	0,045	0,020
-690,627	-200,000	0,014	0,121
-689,612	208,595	-0,071	0,080
-688,597	201,359	-0,068	0,076
-687,583	-60,821	-0,030	0,009
-686,568	36,148	-0,105	-0,067
-685,554	350,645	-0,033	-0,048
-684,539	106,235	-0,114	-0,098
-683,524	-114,721	-0,055	0,007
-682,510	-200,000	0,003	0,143
-681,495	-105,077	-0,108	-0,018
-680,481	-200,000	-0,039	-0,164
-679,466	530,073	-0,043	-0,073
-678,451	329,492	-0,039	-0,055
-677,437	-200,000	-0,005	0,196
-676,422	-200,000	0,019	0,076
-675,408	800,000	-0,036	0,098
-674,393	-94,482	-0,101	0,020
-673,378	-103,356	-0,121	0,020
-672,364	-89,186	-0,161	0,034
-671,349	90,049	-0,068	0,055
-670,335	-144,537	-0,124	-0,008
-669,320	164,091	-0,145	0,147
-668,305	-200,000	0,014	0,079
-667,291	167,345	0,009	-0,009
-666,276	1,920	-0,031	0,016
-665,262	-52,784	-0,143	0,047
-664,247	800,000	-0,033	-0,097
-663,232	-200,000	-0,055	-0,208
-662,218	67,776	0,125	-0,092
-661,203	371,792	0,049	0,072
-660,189	-75,463	-0,060	0,015
-659,174	357,079	-0,022	0,033
-658,159	-133,924	-0,022	-0,002
-657,145	800,000	-0,032	-0,081
-656,130	171,227	-0,037	-0,038
-655,116	-200,000	0,015	-0,067
-654,101	217,501	0,032	0,037
-653,086	-35,813	-0,106	-0,041
-652,072	-80,716	-0,118	-0,028
-651,057	-152,819	-0,111	-0,006
-650,043	-200,000	0,009	-0,074
-649,028	227,571	-0,094	-0,110
-648,014	493,788	-0,026	-0,043
-646,999	-112,121	0,020	0,003
-645,984	800,000	0,006	-0,013
-644,970	-67,693	0,099	-0,028
-643,955	425,790	-0,057	-0,089
-642,941	58,300	0,093	0,066
-641,926	-200,000	0,004	-0,026
-640,911	-90,105	0,083	-0,017
-639,897	-126,860	0,032	0,003
-638,882	-40,693	0,108	0,040
-637,868	-17,286	-0,064	-0,029
-636,853	-197,038	-0,098	0,000
-635,838	651,763	-0,037	0,069
-634,824	800,000	-0,081	-0,165
-633,809	23,265	0,097	0,057
-632,795	-110,509	0,152	-0,023
-631,780	-54,583	-0,145	-0,047
-630,765	800,000	-0,024	-0,056
-629,751	28,379	-0,190	-0,116
-628,736	246,268	-0,022	-0,027
-627,722	-54,060	-0,054	0,018
-626,707	370,429	0,047	-0,068
-625,692	15,685	-0,121	0,068
-624,678	270,496	0,038	0,048
-623,663	32,764	-0,040	-0,025
-622,649	54,791	-0,088	-0,061
-621,634	88,326	0,064	-0,051
-620,619	-200,000	-0,045	-0,233
-619,605	-200,000	0,005	-0,021
-618,590	155,941	0,018	-0,018
-617,576	32,715	-0,043	0,027
-616,561	-200,000	0,019	-0,113
-615,546	-200,000	-0,018	-0,057
-614,532	-200,000	-0,023	-0,106
-613,517	-200,000	-0,006	-0,148
-612,503	676,826	0,015	-0,029
-611,488	342,609	0,013	0,018
-610,474	-200,000	0,041	0,136
-609,459	-200,000	-0,026	-0,112
-608,444	-111,959	0,074	0,011
-607,430	-106,835	0,027	0,004
-606,415	88,395	0,035	0,028
-605,401	800,000	-0,053	-0,128
-604,386	-200,000	-0,024	-0,161
-603,371	-57,472	-0,038	-0,012
-602,357	800,000	0,037	-0,075
-601,342	800,000	-0,035	-0,073
-600,328	-90,593	-0,165	0,034
-599,313	-169,035	0,024	-0,001
-598,298	-200,000	-0,026	-0,101
-597,284	800,000	-0,009	-0,022
-596,269	-200,000	-0,005	-0,090
-595,255	62,345	0,088	0,063
-594,240	412,493	-0,058	-0,090
-593,225	-153,825	-0,053	-0,003
-592,211	112,109	-0,039	-0,034
-591,196	-200,000	-0,017	0,131
-590,182	-200,000	-0,020	0,144
-589,167	-101,830	0,066	0,011
-588,152	59,027	-0,054	0,039
-587,138	192,738	-0,039	0,042
-586,123	800,000	-0,023	-0,065
-585,109	496,341	-0,073	-0,122
-584,094	-200,000	0,032	-0,125
-583,079	-200,000	-0,004	0,110
-582,065	800,000	0,033	0,075
-581,050	800,000	-0,060	0,136
-580,036	151,488	-0,114	0,112
-579,021	30,932	-0,011	-0,007
-578,006	-200,000	-0,015	-0,118
-576,992	329,868	-0,080	0,111
-575,977	563,921	0,012	0,021
-574,963	10,940	0,059	-0,032
-573,948	-200,000	-0,019	0,063
-572,934	39,263	0,062	-0,040
-571,919	293,373	0,002	-0,003
-570,904	-200,000	-0,005	-0,026
-569,890	192,037	-0,070	-0,076
-568,875	14,941	0,053	-0,030
-567,861	-152,470	0,102	-0,005
-566,846	25,940	0,029	0,017
-565,831	666,662	0,062	-0,116
-564,817	25,338	-0,026	0,015
-563,802	-116,655	-0,063	0,008
-562,788	-200,000	-0,022	-0,116
-561,773	-125,045	0,056	0,006
-560,758	-162,905	-0,032	0,001
-559,744	-200,000	-0,055	0,180
-558,729	-31,355	-0,055	0,022
-557,715	-200,000	0,012	-0,082
-556,700	-200,000	0,018	-0,097
-555,685	-200,000	0,008	-0,029
-554,671	177,474	-0,102	-0,107
-553,656	75,216	0,045	-0,034
-552,642	-200,000	0,000	0,084
-551,627	167,787	0,033	0,034
-550,612	289,767	-0,036	-0,047
-549,598	501,531	-0,050	-0,083
-548,583	-23,692	-0,113	0,049
-547,569	42,293	-0,098	-0,064
-546,554	-65,552	-0,114	-0,033
-545,539	-200,000	0,021	0,207
-544,525	800,000	0,032	0,084
-543,510	-200,000	-0,011	-0,076
-542,496	19,000	-0,104	0,060
-541,481	171,443	0,050	0,052
-540,466	-200,000	0,015	-0,121
-539,452	463,533	-0,030	0,048
-538,437	-134,056	0,092	-0,008
-537,423	529,569	0,021	0,035
-536,408	22,287	0,166	-0,097
-535,393	-200,000	-0,013	0,117
-534,379	-200,000	-0,018	-0,166
-533,364	800,000	-0,057	-0,115
-532,350	-61,368	0,112	0,034
-531,335	-108,937	0,088	-0,013
-530,321	740,473	-0,025	0,048
-529,306	274,947	-0,014	-0,018
-528,291	-68,747	-0,069	0,019
-527,277	570,526	-0,032	0,056
-526,262	44,172	-0,067	-0,044
-525,248	-200,000	-0,002	-0,017
-524,233	58,678	0,093	0,066
-523,218	72,570	0,134	0,100
-522,204	-10,655	0,018	-0,008
-521,189	-194,044	-0,035	-0,000
-520,175	260,249	0,019	0,024
-519,160	98,231	0,155	-0,128
-518,145	-22,678	-0,102	0,044
-517,131	800,000	0,058	-0,116
-516,116	-200,000	0,001	0,075
-515,102	-200,000	-0,005	-0,028
-514,087	455,688	-0,052	0,084
-513,072	-200,000	0,031	0,109
-512,058	-200,000	0,012	-0,040
-511,043	239,131	0,084	-0,101
-510,029	-133,507	-0,036	-0,003
-509,014	686,806	-0,028	-0,053
-507,999	-124,915	-0,082	-0,009
-506,985	-47,353	-0,088	0,030
-505,970	-200,000	-0,016	-0,069
-504,956	195,165	0,172	-0,188
-503,941	800,000	-0,041	0,103
-502,926	800,000	0,027	0,065
-501,912	-140,294	0,107	0,008
-500,897	-81,329	0,017	0,004
-499,883	-132,782	-0,111	-0,010
-498,868	-63,566	-0,025	-0,007
-497,853	9,769	-0,046	0,025
-496,839	-200,000	-0,011	0,039
-495,824	-24,064	-0,026	0,011
-494,810	271,448	0,078	0,098
-493,795	396,433	-0,072	0,109
-492,781	-31,662	-0,161	0,064
-491,766	-172,838	-0,028	-0,001
-490,751	-90,016	-0,145	-0,030
-489,737	-131,019	0,087	0,008
-488,722	-200,000	0,045	0,168
-487,708	208,556	0,073	-0,083
-486,693	-89,428	0,094	-0,020
-485,678	313,620	0,004	0,005
-484,664	-200,000	0,030	-0,210
-483,649	-40,543	0,152	0,056
-482,635	379,290	0,033	0,049
-481,620	-200,000	0,021	-0,080
-480,605	19,539	0,138	0,079
-479,591	-200,000	0,019	0,134
-478,576	446,968	-0,018	0,029
-477,562	-200,000	0,053	-0,226
-476,547	440,899	-0,011	-0,018
-475,532	177,552	-0,086	0,091
-474,518	-74,078	-0,104	0,027
-473,503	-82,990	0,122	0,028
-472,489	-200,000	-0,029	0,138
-471,474	-167,922	-0,083	0,002
-470,459	-200,000	-0,003	-0,014
-469,445	77,548	-0,061	-0,047
-468,430	275,225	-0,160	-0,203
-467,416	45,703	0,096	-0,063
-466,401	-29,335	-0,036	-0,015
-465,386	267,263	0,056	0,071
-464,372	-125,812	0,019	-0,002
-463,357	800,000	-0,018	-0,056
-462,343	-9,854	0,062	-0,029
-461,328	12,381	-0,218	-0,120
-460,313	800,000	0,033	0,068
-459,299	800,000	0,046	0,095
-458,284	343,535	0,092	-0,129
-457,270	800,000	0,050	0,105
-456,255	-78,078	-0,032	0,008
-455,241	-200,000	0,020	-0,094
-454,226	35,400	0,048	-0,030
-453,211	-95,562	-0,083	-0,016
-452,197	-33,430	0,183	0,072
-451,182	33,399	0,099	-0,061
-450,168	-169,941	-0,159	-0,004
-449,153	531,682	-0,064	-0,109
-448,138	12,140	0,047	-0,026
-447,124	-200,000	-0,007	-0,126
-446,109	101,833	0,120	-0,100
-445,095	253,153	-0,046	-0,056
-444,080	800,000	0,064	0,147
-443,065	91,958	0,061	0,049
-442,051	50,229	0,138	0,093
-441,036	90,831	0,011	-0,009
-440,022	261,755	-0,085	-0,106
-439,007	-83,532	0,076	0,017
-437,992	-200,000	-0,013	0,122
-436,978	-169,164	0,132	-0,003
-435,963	-35,862	0,053	-0,021
-434,949	65,171	-0,046	-0,033
-433,934	130,842	-0,105	-0,097
-432,919	-200,000	0,010	-0,190
-431,905	-12,197	0,168	-0,078
-430,890	-200,000	-0,015	-0,116
-429,876	51,867	-0,059	-0,040
-428,861	-200,000	-0,004	-0,093
-427,846	296,266	-0,058	-0,076
-426,832	800,000	-0,023	-0,060
-425,817	-110,888	0,122	-0,018
-424,803	-52,920	0,044	-0,014
-423,788	207,523	-0,080	0,089
-422,773	371,937	0,084	0,122
-421,759	-200,000	0,028	0,096
-420,744	488,189	0,026	0,043
-419,730	-130,316	-0,083	0,008
-418,715	-109,126	-0,060	-0,009
-417,701	598,427	0,028	0,050
-416,686	-18,930	0,152	0,067
-415,671	55,632	-0,066	0,046
-414,657	438,693	0,047	-0,073
-413,642	347,004	-0,017	0,024
-412,628	-200,000	-0,004	0,045
-411,613	254,177	-0,074	-0,091
-410,598	423,754	-0,067	-0,104
-409,584	800,000	0,064	-0,138
-408,569	-200,000	0,025	0,137
-407,555	532,661	-0,035	-0,059
-406,540	-40,552	0,211	0,078
-405,525	-200,000	-0,024	-0,123
-404,511	-200,000	0,006	0,082
-403,496	389,159	-0,077	0,114
-402,482	800,000	-0,031	0,072
-401,467	194,795	0,050	0,055
-400,452	-200,000	-0,020	0,079
-399,438	17,722	-0,051	-0,029
-398,423	-200,000	-0,009	-0,053
-397,409	179,410	-0,084	-0,088
-396,394	-200,000	-0,001	-0,004
-395,379	800,000	-0,033	0,083
-394,365	-200,000	0,015	0,062
-393,350	6,716	-0,043	-0,023
-392,336	-0,519	0,031	-0,016
-391,321	-200,000	-0,003	0,096
-390,306	63,751	-0,014	-0,010
-389,292	349,268	-0,094	-0,133
-388,277	-200,000	0,014	-0,147
-387,263	141,268	0,088	0,083
-386,248	-200,000	0,028	0,096
-385,233	-154,240	0,134	-0,006
-384,219	223,892	0,058	0,067
-383,204	110,873	-0,086	-0,074
-382,190	-28,764	-0,016	-0,007
-381,175	78,407	0,092	0,070
-380,160	581,124	0,040	0,070
-379,146	-110,894	0,152	-0,022
-378,131	69,490	-0,032	0,024
-377,117	-169,627	0,080	-0,002
-376,102	-25,307	-0,023	0,010
-375,088	53,561	0,027	-0,018
-374,073	242,727	-0,101	-0,122
-373,058	349,964	0,052	-0,073
-372,044	800,000	0,042	0,084
-371,029	-200,000	0,012	0,079
-370,015	-200,000	-0,001	-0,037
-369,000	-91,856	-0,091	0,018
-367,985	-111,052	-0,082	0,012
-366,971	-200,000	-0,010	-0,047
-365,956	-36,641	0,181	0,069
-364,942	-200,000	0,004	0,172
-363,927	-94,289	0,131	0,025
-362,912	139,465	-0,094	-0,088
-361,898	800,000	-0,032	-0,093
-360,883	256,087	-0,046	-0,056
-359,869	-200,000	0,010	-0,098
-358,854	334,588	0,040	-0,056
-357,839	-66,387	0,095	-0,027
-356,825	259,004	0,101	0,124
-355,810	-115,419	-0,118	-0,016
-354,796	49,985	-0,033	0,022
-353,781	-200,000	-0,034	-0,113
-352,766	11,500	-0,118	0,064
-351,752	-200,000	-0,012	0,141
-350,737	127,044	0,086	0,078
-349,723	800,000	-0,030	0,088
-348,708	-114,553	0,069	-0,009
-347,693	-200,000	0,003	-0,015
-346,679	-20,051	-0,070	0,031
-345,664	175,211	-0,081	0,083
-344,650	800,000	-0,030	0,090
-343,635	66,195	0,142	-0,103
-342,620	48,071	0,053	-0,036
-341,606	224,450	0,078	0,090
-340,591	-200,000	-0,013	-0,071
-339,577	-30,592	-0,083	0,033
-338,562	-102,357	0,077	0,013
-337,548	-200,000	0,004	0,069
-336,533	-200,000	0,001	0,056
-335,518	-200,000	-0,001	-0,006
-334,504	117,420	-0,078	0,068
-333,489	-133,152	-0,062	-0,005
-332,475	-97,605	-0,190	0,035
-331,460	-200,000	0,003	0,023
-330,445	-135,918	0,112	0,009
-329,431	-37,951	0,153	-0,058
-328,416	144,732	0,111	0,106
-327,402	800,000	0,063	0,141
-326,387	-145,298	-0,155	0,010
-325,372	-75,601	0,029	0,007
-324,358	46,418	-0,112	0,074
-323,343	-200,000	0,002	-0,015
-322,329	-147,729	0,064	0,004
-321,314	800,000	0,024	0,071
-320,299	-79,325	0,092	-0,022
-319,285	-118,790	-0,088	0,011
-318,270	184,789	0,023	0,024
-317,256	-14,006	0,016	-0,008
-316,241	547,795	-0,054	-0,092
-315,226	-28,869	0,068	0,028
-314,212	682,256	0,088	0,164
-313,197	-200,000	0,029	0,143
-312,183	-74,628	-0,110	0,028
-311,168	4,923	0,013	0,007
-310,153	225,772	-0,143	-0,166
-309,139	235,784	-0,033	-0,039
-308,124	123,336	-0,031	-0,028
-307,110	-200,000	-0,017	0,169
-306,095	-167,686	0,094	0,003
-305,080	-159,061	-0,099	0,004
-304,066	286,300	0,101	0,130
-303,051	-27,873	-0,134	-0,055
-302,037	-56,722	-0,097	-0,030
-301,022	134,624	0,069	0,064
-300,008	-200,000	0,014	0,153
-298,993	701,961	0,022	0,041
-297,978	134,780	-0,068	0,063
-296,964	800,000	-0,017	-0,049
-295,949	-46,018	-0,085	0,030
-294,935	-3,941	-0,025	0,012
-293,920	19,576	-0,029	0,016
-292,905	-200,000	0,016	0,124
-291,891	-200,000	-0,008	0,066
-290,876	-200,000	0,001	0,095
-289,862	-46,632	0,049	-0,017
-288,847	-129,455	0,033	0,003
-287,832	800,000	0,038	0,082
-286,818	-200,000	-0,000	-0,037
-285,803	-200,000	0,001	0,048
-284,789	-200,000	-0,003	0,048
-283,774	-23,509	0,012	0,005
-282,759	28,307	0,059	0,036
-281,745	-171,958	-0,086	0,002
-280,730	333,370	-0,066	0,091
-279,716	-78,433	-0,027	0,007
-278,701	182,710	0,075	-0,078
-277,686	-149,851	0,047	-0,003
-276,672	320,378	0,052	0,070
-275,657	-148,151	-0,192	0,011
-274,643	-200,000	-0,003	-0,157
-273,628	-200,000	0,015	-0,113
-272,613	282,861	-0,032	0,041
-271,599	272,903	-0,021	0,027
-270,584	-200,000	0,013	0,120
-269,570	800,000	0,013	0,036
-268,555	80,041	0,066	0,050
-267,540	444,162	-0,048	0,075
-266,526	-200,000	0,002	0,007
-265,511	51,227	0,184	-0,124
-264,497	-142,721	-0,049	-0,003
-263,482	-20,806	0,116	-0,051
-262,467	800,000	0,008	0,024
-261,453	800,000	-0,026	-0,052
-260,438	-9,144	0,047	0,022
-259,424	-200,000	0,004	-0,102
-258,409	-200,000	-0,022	-0,123
-257,395	-200,000	-0,028	0,131
-256,380	325,517	0,099	0,135
-255,365	723,529	0,127	0,241
-254,351	704,391	0,059	-0,110
-253,336	119,387	0,045	0,039
-252,322	197,346	0,010	-0,010
-251,307	138,072	-0,062	-0,058
-250,292	-56,842	-0,059	0,018
-249,278	53,152	0,204	0,139
-248,263	-200,000	-0,008	0,083
-247,249	-7,466	-0,160	0,077
-246,234	224,783	0,087	-0,100
-245,219	800,000	-0,039	0,096
-244,205	-140,773	-0,149	-0,011
-243,190	-74,707	-0,088	-0,022
-242,176	-31,438	0,034	0,013
-241,161	-200,000	0,030	0,159
-240,146	20,079	-0,019	-0,011
-239,132	178,040	0,049	0,051
-238,117	467,707	0,079	0,126
-237,103	7,478	-0,087	-0,046
-236,088	-200,000	0,001	-0,024
-235,073	83,861	0,060	-0,047
-234,059	-200,000	-0,000	0,043
-233,044	323,576	0,030	0,041
-232,030	334,442	0,049	-0,068
-231,015	131,934	0,011	0,010
-230,000	506,716	-0,094	-0,156
-228,986	298,517	-0,024	0,031
-227,971	-200,000	-0,013	-0,142
-226,957	262,677	-0,069	0,086
-225,942	95,235	0,081	0,066
-224,927	-200,000	-0,050	-0,165
-223,913	-108,020	-0,129	0,020
-222,898	800,000	0,085	-0,188
-221,884	-200,000	-0,005	0,068
-220,869	800,000	-0,019	0,047
-219,855	-174,777	0,128	0,003
-218,840	186,018	0,057	-0,060
-217,825	-61,326	-0,166	-0,049
-216,811	255,758	0,062	0,076
-215,796	800,000	-0,081	-0,190
-214,782	-88,552	-0,099	-0,021
-213,767	8,949	0,095	-0,051
-212,752	-124,301	-0,067	0,007
-211,738	800,000	0,052	0,145
-210,723	243,951	-0,134	0,161
-209,709	429,914	-0,053	0,082
-208,694	-124,042	-0,114	-0,013
-207,679	791,597	0,011	0,022
-206,665	800,000	0,032	-0,074
-205,650	-200,000	-0,000	0,018
-204,636	-169,473	-0,077	0,002
-203,621	800,000	0,023	0,067
-202,606	800,000	-0,014	-0,042
-201,592	-13,165	-0,163	-0,075
-200,577	-200,000	-0,116	0,000
-199,563	-200,000	-0,011	0,094
-198,548	-48,969	0,106	-0,036
-197,533	-200,000	-0,006	-0,043
-196,519	193,693	0,091	0,097
-195,504	-200,000	0,012	0,039
-194,490	-200,000	-0,008	-0,045
-193,475	-153,539	-0,100	-0,005
-192,460	-200,000	0,012	0,162
-191,446	178,882	-0,115	-0,119
-190,431	200,275	0,087	0,095
-189,417	-53,289	0,053	0,017
-188,402	800,000	-0,028	0,061
-187,387	108,995	0,052	-0,044
-186,373	-31,795	-0,065	0,026
-185,358	3,457	-0,055	0,028
-184,344	385,109	-0,033	-0,049
-183,329	171,781	0,049	0,050
-182,315	-54,614	0,085	-0,027
-181,300	-107,636	-0,122	0,019
-180,285	-18,858	0,051	0,022
-179,271	800,000	0,032	-0,084
-178,256	137,949	0,112	-0,104
-177,242	-4,479	0,068	-0,033
-176,227	800,000	0,019	0,038
-175,212	44,629	-0,025	0,016
-174,198	800,000	0,061	-0,174
-173,183	-97,579	-0,109	-0,020
-172,169	460,215	0,015	0,024
-171,154	47,768	0,061	-0,040
-170,139	-19,646	-0,085	-0,037
-169,125	-4,724	0,119	-0,058
-168,110	-200,000	-0,018	0,111
-167,096	49,717	-0,067	-0,045
-166,081	-200,000	0,029	-0,097
-165,066	-52,003	0,067	-0,022
-164,052	-200,000	0,017	0,138
-163,037	366,451	-0,099	0,142
-162,023	9,577	-0,136	0,073
-161,008	-130,426	0,145	0,014
-159,993	-200,000	-0,016	-0,111
-158,979	800,000	0,019	0,055
-157,964	800,000	-0,046	-0,094
-156,950	3,399	0,042	0,022
-155,935	-135,102	-0,038	-0,003
-154,920	6,850	0,098	-0,052
-153,906	214,434	-0,058	-0,065
-152,891	-100,070	0,150	0,026
-151,877	-200,000	0,000	-0,033
-150,862	-81,096	-0,205	0,048
-149,847	-129,935	0,113	0,011
-148,833	-156,827	0,132	0,006
-147,818	-32,794	0,123	0,048
-146,804	800,000	-0,056	0,118
-145,789	177,811	0,004	-0,004
-144,775	800,000	-0,024	0,067
-143,760	45,876	-0,038	0,025
-142,745	151,849	-0,075	0,073
-141,731	-200,000	0,002	0,065
-140,716	-72,215	0,060	-0,016
-139,702	172,339	0,079	0,081
-138,687	-152,407	-0,043	-0,002
-137,672	-200,000	-0,000	-0,069
-136,658	-200,000	0,012	-0,146
-135,643	735,514	-0,041	-0,078
-134,629	-200,000	0,044	-0,155
-133,614	-7,006	0,081	0,039
-132,599	721,704	0,091	-0,172
-131,585	-129,896	-0,043	-0,004
-130,570	-4,508	-0,079	0,039
-129,556	435,252	-0,084	-0,130
-128,541	-200,000	0,015	-0,092
-127,526	-30,595	0,044	-0,018
-126,512	-0,374	0,226	-0,113
-125,497	-200,000	0,024	0,128
-124,483	-143,956	0,130	0,009
-123,468	12,418	0,083	0,045
-122,453	411,967	0,015	-0,023
-121,439	-41,390	-0,127	0,046
-120,424	-1,206	-0,081	0,041
-119,410	-104,718	0,161	0,026
-118,395	-200,000	-0,002	0,023
-117,380	-78,365	-0,070	0,017
-116,366	752,561	0,042	0,080
-115,351	344,130	0,046	0,064
-114,337	-200,000	0,035	-0,154
-113,322	-200,000	-0,019	0,119
-112,307	-200,000	0,019	0,142
-111,293	7,292	0,052	0,027
-110,278	-200,000	-0,002	0,117
-109,264	-90,091	-0,056	0,011
-108,249	-194,122	0,234	0,001
-107,234	800,000	0,016	0,033
-106,220	35,429	-0,068	-0,042
-105,205	-200,000	0,015	-0,123
-104,191	-73,008	-0,056	-0,014
-103,176	-52,338	0,162	-0,053
-102,162	-30,415	-0,093	-0,037
-101,147	41,907	0,024	0,016
-100,132	-200,000	0,019	0,097
-99,118	-200,000	-0,026	-0,095
-98,103	-47,329	-0,076	0,026
-97,089	90,062	0,025	0,020
-96,074	620,072	0,072	0,128
-95,059	264,841	0,049	0,061
-94,045	-200,000	-0,001	-0,088
-93,030	-157,630	-0,062	-0,003
-92,016	-179,992	0,068	0,001
-91,001	800,000	0,018	0,036
-89,986	-200,000	-0,001	0,065
-88,972	44,688	0,095	0,062
-87,957	800,000	-0,026	-0,059
-86,943	242,417	-0,055	0,066
-85,928	-200,000	0,037	-0,200
-84,913	484,340	-0,062	-0,100
-83,899	40,921	0,071	0,045
-82,884	756,410	-0,053	0,102
-81,870	800,000	0,056	0,145
-80,855	515,050	-0,030	-0,050
-79,840	-9,293	-0,059	-0,028
-78,826	632,017	-0,084	-0,152
-77,811	-200,000	0,010	-0,033
-76,797	44,527	0,040	-0,026
-75,782	-18,589	0,027	-0,012
-74,767	-163,009	0,094	0,003
-73,753	315,372	0,022	0,030
-72,738	-162,155	0,093	-0,003
-71,724	-200,000	0,005	-0,036
-70,709	6,710	-0,110	0,058
-69,694	15,921	-0,089	-0,049
-68,680	114,893	-0,092	-0,079
-67,665	248,739	0,038	0,046
-66,651	-200,000	0,038	0,174
-65,636	-66,366	-0,127	-0,036
-64,622	-200,000	-0,021	0,094
-63,607	800,000	-0,035	0,075
-62,592	-30,662	0,130	-0,052
-61,578	-71,855	0,117	-0,031
-60,563	-200,000	-0,026	-0,082
-59,549	-200,000	0,003	0,096
-58,534	27,310	-2,118	-1,253
-57,519	463,230	-1,258	-1,991
-56,505	-200,000	-0,426	-4,436
-55,490	682,156	0,776	1,435
-54,476	800,000	5,080	11,349
-53,461	-200,000	21,446	341,635
-52,446	800,000	760,369	2361,923
-51,432	559,736	1663,083	2845,874
-50,417	73,546	1661,730	1226,931
-49,403	18,028	1534,985	861,227
-48,388	11,953	1458,700	789,037
-47,373	19,497	1449,675	820,329
-46,359	15,481	1438,873	795,084
-45,344	10,243	1434,892	767,912
-44,330	10,169	1432,937	766,483
-43,315	10,156	1431,192	765,456
-42,300	10,158	1429,422	764,487
-41,286	10,220	1428,163	764,080
-40,271	10,160	1427,026	763,158
-39,257	10,143	1425,846	762,413
-38,242	10,203	1424,647	762,026
-37,227	10,196	1423,439	761,318
-36,213	10,190	1422,205	760,599
-35,198	10,219	1421,044	760,083
-34,184	10,270	1420,067	759,775
-33,169	10,196	1418,624	758,619
-32,154	10,200	1417,892	758,218
-31,140	10,253	1416,414	757,650
-30,125	10,306	1415,256	757,247
-29,111	10,250	1414,358	756,474
-28,096	10,224	1412,836	755,506
-27,082	10,153	1411,918	754,656
-26,067	10,157	1410,871	754,084
-25,052	10,159	1409,855	753,519
-24,038	10,169	1409,005	753,084
-23,023	10,206	1407,784	752,572
-22,009	10,198	1406,699	751,926
-20,994	10,153	1405,858	751,234
-19,979	10,175	1405,005	750,852
-18,965	10,143	1403,883	750,075
-17,950	10,126	1403,121	749,557
-16,936	10,093	1402,593	749,093
-15,921	10,050	1401,458	748,257
-14,906	10,033	1400,472	747,619
-13,892	10,155	1399,249	747,505
-12,877	10,119	1398,489	746,902
-11,863	10,104	1397,801	746,438
-10,848	10,083	1396,780	745,761
-9,833	9,973	1396,110	744,867
-8,819	9,988	1395,227	744,434
-7,804	9,978	1394,370	743,902
-6,790	10,013	1393,143	743,378
-5,775	9,944	1392,312	742,588
-4,760	9,985	1391,240	742,176
-3,746	9,985	1390,370	741,682
-2,731	9,989	1389,264	741,082
-1,717	9,964	1388,514	740,537
-0,702	9,982	1386,752	739,650
0,313	14,078	1299,439	711,801
1,327	30,346	690,008	414,837
2,342	47,640	119,261	78,342
3,356	0,538	16,495	8,289
4,371	-0,785	3,640	1,813
5,386	-31,631	1,113	0,439
6,400	800,000	0,208	0,464
7,415	30,974	-0,264	-0,159
8,429	194,677	-0,223	-0,239
9,444	3,223	-0,402	-0,205
10,459	270,451	-0,240	-0,298
11,473	39,049	-0,312	-0,197
12,488	333,858	-0,196	-0,268
13,502	-53,056	-0,264	-0,085
14,517	21,390	-0,385	-0,220
15,531	159,713	-0,174	-0,171
16,546	17,960	-0,360	-0,201
17,561	68,562	-0,390	-0,281
18,575	-101,793	-0,242	-0,041
19,590	82,743	-0,163	-0,124
20,604	-128,713	-0,191	-0,019
21,619	344,475	-0,314	-0,435
22,634	138,422	-0,406	-0,375
23,648	331,516	-0,298	-0,406
24,663	155,268	-0,400	-0,388
25,677	73,989	-0,240	-0,177
26,692	111,730	-0,236	-0,201
27,707	-23,627	-0,425	-0,179
28,721	122,039	-0,384	-0,338
29,736	140,473	-0,394	-0,366
30,750	16,476	-0,531	-0,294
31,765	-11,020	-0,383	-0,177
32,780	-72,262	-0,313	-0,081
33,794	121,279	-0,334	-0,292
34,809	178,902	-0,198	-0,204
35,823	-11,441	-0,457	-0,211
36,838	32,140	-0,434	-0,263
37,853	-60,346	-0,433	-0,129
38,867	0,702	-0,470	-0,236
39,882	338,318	-0,256	-0,351
40,896	-42,606	-0,308	-0,109
41,911	264,055	-0,234	-0,287
42,926	-3,111	-0,390	-0,190
43,940	188,523	-0,286	-0,301
44,955	458,074	-0,250	-0,391
45,969	143,315	-0,296	-0,277
46,984	-2,026	-0,394	-0,194
47,999	121,891	-0,354	-0,310
49,013	63,480	-0,341	-0,240
50,028	-42,083	-0,272	-0,097
51,042	135,513	-0,210	-0,192
52,057	-96,377	-0,315	-0,058
53,071	190,775	-0,270	-0,286
54,086	-70,452	-0,375	-0,099
55,101	-38,764	-0,326	-0,120
56,115	9,262	-0,374	-0,198
57,130	199,644	-0,307	-0,331
58,144	12,584	-0,447	-0,241
59,159	196,323	-0,265	-0,284
60,174	30,803	-0,376	-0,226
61,188	68,422	-0,305	-0,219
62,203	33,079	-0,317	-0,192
63,217	44,503	-0,284	-0,183
64,232	-2,493	-0,337	-0,165
65,247	63,651	-0,310	-0,218
66,261	98,040	-0,332	-0,268
67,276	-0,027	-0,298	-0,148
68,290	166,422	-0,252	-0,251
69,305	74,107	-0,227	-0,167
70,320	-69,979	-0,394	-0,105
71,334	137,740	-0,299	-0,274
72,349	-53,419	-0,326	-0,104
73,363	120,121	-0,320	-0,279
74,378	64,794	-0,270	-0,191
75,393	83,057	-0,381	-0,290
76,407	40,175	-0,226	-0,142
77,422	-128,860	-0,339	0,033
78,436	99,481	-0,257	-0,208
79,451	42,912	-0,259	-0,165
80,466	62,596	-0,336	-0,235
81,480	110,294	-0,261	-0,219
82,495	121,284	-0,215	-0,188
83,509	-71,588	-0,332	-0,086
84,524	67,693	-0,302	-0,216
85,539	68,683	-0,320	-0,230
86,553	-37,529	-0,291	-0,108
87,568	105,851	-0,266	-0,220
88,582	-60,940	-0,382	-0,112
89,597	145,436	-0,179	-0,168
90,611	9,814	-0,333	-0,176
91,626	224,216	-0,234	-0,264
92,641	106,369	-0,250	-0,208
93,655	71,697	-0,245	-0,178
94,670	6,501	-0,397	-0,206
95,684	126,337	-0,343	-0,304
96,699	11,649	-0,266	-0,142
97,714	137,128	-0,253	-0,232
98,728	-38,054	-0,279	-0,103
99,743	17,088	-0,224	-0,124
100,757	-3,709	-0,251	-0,121
101,772	-56,565	-0,324	-0,100
102,787	55,431	-0,301	-0,203
103,801	52,836	-0,285	-0,190
104,816	109,508	-0,253	-0,212
105,830	-56,719	-0,400	-0,123
106,845	-90,085	-0,183	-0,037
107,860	216,327	-0,203	-0,226
108,874	85,902	-0,414	-0,318
109,889	-15,354	-0,358	-0,159
110,903	69,640	-0,263	-0,189
111,918	45,528	-0,263	-0,169
112,933	-60,223	-0,332	-0,098
113,947	-11,498	-0,302	-0,138
114,962	125,044	-0,227	-0,200
115,976	-41,941	-0,167	-0,060
116,991	425,165	-0,124	-0,187
118,006	502,820	-0,229	-0,370
119,020	-59,046	-0,167	-0,050
120,035	-72,803	-0,275	-0,070
121,049	13,404	-0,354	-0,191
122,064	597,607	-0,157	-0,272
123,079	189,937	-0,159	-0,167
124,093	236,351	-0,193	-0,223
125,108	81,133	-0,203	-0,153
126,122	-23,676	-0,188	-0,078
127,137	125,736	-0,172	-0,151
128,151	190,099	-0,129	-0,135
129,166	227,955	-0,243	-0,276
130,181	15,735	-0,259	-0,142
131,195	256,205	-0,251	-0,301
132,210	733,583	-0,139	-0,261
133,224	-11,389	-0,316	-0,145
134,239	-42,616	-0,303	-0,107
135,254	223,761	-0,180	-0,202
136,268	-88,017	-0,384	-0,080
137,283	65,543	-0,243	-0,171
138,297	182,339	-0,235	-0,242
139,312	87,015	-0,215	-0,165
140,327	41,281	-0,310	-0,195
141,341	345,995	-0,076	-0,105
142,356	-139,512	-0,286	0,021
143,370	-76,239	-0,172	-0,042
144,385	4,707	-0,256	-0,130
145,400	-49,043	-0,333	-0,110
146,414	108,838	-0,228	-0,190
147,429	147,336	-0,183	-0,172
148,443	72,992	-0,238	-0,173
149,458	86,734	-0,224	-0,172
150,473	-85,742	-0,219	-0,047
151,487	201,135	-0,145	-0,155
152,502	-16,280	-0,333	-0,147
153,516	263,373	-0,192	-0,233
154,531	179,247	-0,203	-0,207
155,546	404,979	-0,226	-0,333
156,560	12,042	-0,159	-0,085
157,575	119,110	-0,121	-0,104
158,589	-17,098	-0,289	-0,126
159,604	-55,545	-0,191	-0,059
160,619	19,239	-0,325	-0,181
161,633	452,188	-0,109	-0,169
162,648	800,000	-0,130	-0,279
163,662	-28,967	-0,189	-0,075
164,677	-60,619	-0,210	-0,062
165,692	19,178	-0,166	-0,093
166,706	41,421	-0,211	-0,132
167,721	133,436	-0,184	-0,165
168,735	138,124	-0,164	-0,150
169,750	447,645	-0,197	-0,303
170,764	-154,380	-0,256	-0,012
171,779	145,883	-0,213	-0,198
172,794	75,927	-0,214	-0,157
173,808	-6,764	-0,226	-0,106
174,823	75,088	-0,372	-0,272
175,837	159,304	-0,279	-0,270
176,852	151,771	-0,217	-0,205
177,867	800,000	-0,081	-0,226
178,881	120,573	-0,202	-0,174
179,896	314,998	-0,135	-0,177
180,910	-17,706	-0,176	-0,076
181,925	248,266	-0,200	-0,235
182,940	-59,895	-0,352	-0,104
183,954	-32,572	-0,261	-0,101
184,969	-3,910	-0,240	-0,115
185,983	256,133	-0,151	-0,181
186,998	176,858	-0,126	-0,127
188,013	92,697	-0,193	-0,151
189,027	148,488	-0,214	-0,200
190,042	176,245	-0,224	-0,226
191,056	-80,326	-0,234	-0,054
192,071	-116,250	-0,080	-0,010
193,086	-66,614	-0,240	0,066
194,100	-30,471	-0,305	-0,119
195,115	158,281	-0,151	-0,145
196,129	189,084	-0,145	-0,151
197,144	-33,693	-0,404	-0,154
198,159	-139,643	-0,228	-0,017
199,173	-121,980	-0,174	-0,020
200,188	506,026	-0,097	-0,156
201,202	298,831	-0,197	-0,252
202,217	611,630	-0,113	-0,196
203,232	378,409	-0,127	-0,181
204,246	244,179	-0,115	-0,134
205,261	-23,404	-0,325	-0,135
206,275	800,000	-0,088	-0,182
207,290	141,242	-0,218	-0,199
208,304	-171,960	-0,119	0,003
209,319	53,917	-0,276	-0,183
210,334	28,862	-0,204	-0,119
211,348	288,533	-0,125	-0,157
212,363	-33,811	-0,085	-0,032
213,377	142,859	-0,213	-0,196
214,392	-200,000	-0,066	-0,243
215,407	3,824	-0,121	-0,061
216,421	73,535	-0,225	-0,163
217,436	175,281	-0,196	-0,196
218,450	269,601	-0,080	-0,097
219,465	355,348	-0,186	-0,257
220,480	358,793	-0,123	-0,170
221,494	-47,317	-0,139	-0,046
222,509	61,676	-0,192	-0,132
223,523	52,099	-0,179	-0,118
224,538	165,566	-0,179	-0,175
225,553	146,623	-0,221	-0,206
226,567	172,864	-0,215	-0,215
227,582	238,485	-0,164	-0,189
228,596	-200,000	-0,008	-0,281
229,611	233,379	-0,197	-0,224
230,626	575,519	-0,096	-0,163
231,640	-27,386	-0,246	-0,099
232,655	-56,720	-0,166	-0,051
233,669	360,382	-0,113	-0,156
234,684	515,467	-0,088	-0,142
235,699	136,267	-0,151	-0,136
236,713	-77,175	-0,271	-0,065
237,728	-8,741	-0,239	-0,110
238,742	-200,000	0,003	-0,171
239,757	-41,390	-0,238	-0,084
240,772	-38,385	-0,238	-0,087
241,786	505,291	-0,186	-0,298
242,801	86,797	-0,148	-0,112
243,815	35,317	-0,231	-0,139
244,830	-5,584	-0,240	-0,113
245,844	-61,595	-0,133	-0,038
246,859	800,000	-0,068	-0,189
247,874	178,921	-0,247	-0,250
248,888	-120,683	-0,208	-0,024
249,903	35,847	-0,283	-0,171
250,917	39,705	-0,201	-0,124
251,932	-48,742	-0,163	-0,054
252,947	-85,283	-0,332	-0,071
253,961	488,109	-0,150	-0,237
254,976	121,441	-0,269	-0,231
255,990	271,499	-0,153	-0,186
257,005	58,142	-0,115	-0,078
258,020	-9,725	-0,188	-0,086
259,034	81,941	-0,165	-0,123
260,049	241,925	-0,113	-0,130
261,063	-5,239	-0,186	-0,088
262,078	231,225	-0,118	-0,134
263,093	72,048	-0,190	-0,136
264,107	-50,190	-0,230	-0,074
265,122	-95,041	-0,125	0,023
266,136	-100,903	-0,215	-0,036
267,151	654,123	-0,096	-0,170
268,166	-54,909	-0,175	-0,054
269,180	64,418	-0,157	-0,109
270,195	100,276	-0,188	-0,150
271,209	-82,795	-0,276	0,061
272,224	321,902	-0,071	-0,094
273,239	93,821	-0,113	-0,088
274,253	-38,166	-0,193	-0,070
275,268	800,000	-0,158	-0,312
276,282	71,350	-0,242	-0,173
277,297	108,457	-0,219	-0,180
278,312	-117,194	-0,096	-0,012
279,326	-200,000	-0,013	-0,140
280,341	-200,000	-0,039	-0,120
281,355	219,161	-0,192	-0,212
282,370	205,570	-0,167	-0,179
283,384	629,972	-0,032	-0,056
284,399	629,707	-0,118	-0,206
285,414	196,199	-0,171	-0,179
286,428	227,113	-0,144	-0,161
287,443	-66,584	-0,066	-0,018
288,457	-145,906	-0,189	0,011
289,472	800,000	-0,057	-0,152
290,487	98,152	-0,203	-0,160
291,501	-92,320	-0,186	-0,036
292,516	78,916	-0,211	-0,155
293,530	138,163	-0,135	-0,121
294,545	-81,572	-0,136	-0,031
295,560	-98,974	-0,108	0,019
296,574	-146,231	-0,231	-0,014
297,589	-47,516	-0,245	-0,082
298,603	22,167	-0,152	-0,085
299,618	800,000	-0,126	-0,244
300,633	-82,895	-0,180	0,040
301,647	-66,048	-0,119	0,033
302,662	-200,000	-0,179	-0,000
303,676	278,130	-0,090	-0,111
304,691	59,392	-0,203	-0,137
305,706	-111,934	-0,178	0,024
306,720	43,734	-0,185	-0,116
307,735	800,000	-0,064	-0,184
308,749	800,000	-0,117	-0,230
309,764	-179,856	-0,137	0,002
310,779	85,335	-0,144	-0,109
311,793	385,362	-0,089	-0,127
312,808	36,266	-0,184	-0,111
313,822	-200,000	0,018	-0,260
314,837	800,000	-0,050	-0,116
315,852	-177,536	-0,104	-0,002
316,866	304,146	-0,167	-0,213
317,881	800,000	-0,060	-0,131
318,895	200,527	-0,062	-0,065
319,910	135,065	-0,187	-0,166
320,925	-200,000	-0,036	-0,198
321,939	-54,188	-0,166	-0,051
322,954	800,000	-0,075	-0,203
323,968	-200,000	0,012	-0,054
324,983	47,709	-0,206	-0,132
325,997	150,220	-0,141	-0,131
327,012	547,388	-0,067	-0,110
328,027	721,941	-0,111	-0,203
329,041	761,108	-0,091	-0,169
330,056	255,193	-0,075	-0,089
331,070	245,401	-0,072	0,083
332,085	12,420	-0,157	-0,083
333,100	800,000	-0,063	0,156
334,114	-136,309	-0,212	-0,017
335,129	505,507	-0,092	-0,147
336,143	445,557	-0,105	-0,159
337,158	120,745	-0,139	-0,118
338,173	174,229	-0,063	-0,063
339,187	142,553	-0,183	-0,166
340,202	800,000	-0,103	-0,243
341,216	800,000	-0,107	-0,265
342,231	188,914	-0,189	-0,194
343,246	-200,000	-0,036	-0,230
344,260	800,000	-0,073	-0,221
345,275	-200,000	-0,038	-0,275
346,289	577,738	-0,045	-0,076
347,304	350,780	-0,051	-0,069
348,319	-54,679	-0,180	-0,055
349,333	-22,602	-0,222	-0,092
350,348	-21,967	-0,156	-0,064
351,362	196,221	-0,163	-0,170
352,377	-200,000	-0,013	-0,098
353,392	-84,232	-0,083	-0,018
354,406	-63,893	-0,032	0,009
355,421	208,016	1310,466	1401,805
356,435	160,046	1470,638	1402,280
