DTS Sentinel unit serial number:	SN410029Multiplexer serial number:	ORYXHardware model number:	OX2-SRSoftware version number:	ORYX F/W v4,00 Oryx Data Collector v3.7.2.0data status	okinstallation	B3 Nyhavnadifferential loss correction	single-endedforward channel	channel 1reverse channel	N/Adate	2023/12/01time	21:22:30forward acquisition time	300,00reverse acquisition time	0,00gamma	499,1914k internal	0,3196k external	0,3196temperature offset calibration	1,0000default loss term (dB/km)	0,3820temperature slope calibration	1,0000multiplexer offset coefficient	1,0000multiplexer slope coefficient	1,0000fibre end	0,00T internal ref (°C)	16,03T ext. ref 1 (°C)	1,25T ext. ref 2 (°C)	1,26length (m)	temperature (°C)	Stokes	anti-Stokes-744,400	486,653	-0,177	-0,296
-743,385	-200,000	0,001	0,311
-742,371	81,276	-0,158	-0,124
-741,356	-200,000	0,054	0,348
-740,342	-2,146	-0,167	-0,085
-739,327	-200,000	-0,043	0,309
-738,312	71,277	-0,210	-0,159
-737,298	-200,000	0,010	0,315
-736,283	129,280	-0,246	-0,229
-735,269	-200,000	0,004	0,367
-734,254	800,000	-0,147	-0,333
-733,239	-62,568	-0,145	0,044
-732,225	324,328	-0,053	-0,074
-731,210	273,331	0,099	0,128
-730,196	390,828	0,023	0,035
-729,181	-200,000	-0,041	-0,181
-728,167	76,735	0,069	0,053
-727,152	-200,000	-0,005	0,067
-726,137	32,998	-0,079	0,050
-725,123	800,000	0,045	-0,116
-724,108	418,103	0,027	-0,041
-723,094	-200,000	-0,030	-0,119
-722,079	213,773	-0,050	-0,058
-721,064	397,392	-0,069	-0,106
-720,050	-69,007	0,169	0,047
-719,035	71,088	0,145	-0,109
-718,021	-12,808	-0,080	0,038
-717,006	125,485	0,031	-0,028
-715,991	-200,000	-0,002	-0,134
-714,977	526,865	-0,037	-0,064
-713,962	-200,000	-0,001	-0,031
-712,948	272,247	-0,040	0,051
-711,933	-200,000	-0,012	0,119
-710,918	-200,000	-0,013	-0,125
-709,904	-200,000	-0,001	-0,093
-708,889	-32,586	-0,182	-0,073
-707,875	397,273	-0,069	0,105
-706,860	-62,244	0,033	0,010
-705,845	-164,136	0,113	0,004
-704,831	-200,000	0,019	0,112
-703,816	150,669	-0,045	-0,044
-702,802	626,147	0,026	-0,049
-701,787	139,459	0,016	-0,015
-700,772	-17,297	-0,008	-0,004
-699,758	-200,000	0,039	-0,146
-698,743	-162,434	0,106	-0,004
-697,729	-200,000	0,031	0,129
-696,714	354,825	-0,020	0,029
-695,699	214,815	-0,044	-0,051
-694,685	86,996	0,072	-0,058
-693,670	-72,719	-0,065	0,017
-692,656	130,543	-0,052	0,048
-691,641	-121,396	0,058	-0,007
-690,627	216,762	0,048	-0,055
-689,612	-140,847	-0,112	-0,008
-688,597	-190,253	-0,052	-0,000
-687,583	-30,538	-0,085	-0,035
-686,568	216,429	-0,100	0,116
-685,554	-200,000	-0,019	-0,099
-684,539	-66,244	-0,062	0,018
-683,524	800,000	0,020	0,051
-682,510	-46,422	0,053	0,019
-681,495	356,008	-0,047	0,069
-680,481	-114,484	-0,174	-0,024
-679,466	48,521	-0,143	-0,097
-678,451	-134,849	0,046	0,004
-677,437	-52,953	-0,095	-0,031
-676,422	-200,000	-0,016	-0,100
-675,408	-200,000	0,013	0,090
-674,393	-200,000	-0,002	-0,122
-673,378	36,412	-0,128	-0,082
-672,364	177,862	0,114	-0,121
-671,349	-72,459	-0,118	0,031
-670,335	93,611	0,062	-0,051
-669,320	-200,000	0,014	-0,118
-668,305	-200,000	0,012	0,084
-667,291	128,680	0,062	0,057
-666,276	-135,064	-0,122	0,011
-665,262	-200,000	-0,017	-0,106
-664,247	-142,618	0,035	-0,002
-663,232	16,647	-0,013	-0,008
-662,218	-109,783	0,067	-0,010
-661,203	403,327	0,046	0,070
-660,189	-23,726	-0,088	-0,038
-659,174	-152,732	-0,086	-0,004
-658,159	92,521	-0,064	-0,053
-657,145	-200,000	0,003	-0,185
-656,130	-54,575	-0,070	0,023
-655,116	29,433	-0,060	0,037
-654,101	275,130	-0,064	0,082
-653,086	-200,000	0,040	0,201
-652,072	-96,042	-0,057	-0,011
-651,057	-98,359	-0,195	0,036
-650,043	-25,716	0,103	0,044
-649,028	531,821	-0,068	-0,118
-648,014	-200,000	-0,002	-0,139
-646,999	31,029	0,087	-0,054
-645,984	498,893	0,076	-0,127
-644,970	-14,481	-0,019	-0,009
-643,955	-200,000	0,017	-0,119
-642,941	212,855	0,012	0,013
-641,926	308,702	0,057	-0,077
-640,911	800,000	0,035	0,092
-639,897	453,567	0,068	0,110
-638,882	-51,063	0,086	-0,029
-637,868	-139,264	-0,066	0,005
-636,853	800,000	-0,044	0,094
-635,838	-96,936	0,043	0,008
-634,824	-113,596	-0,047	0,007
-633,809	-200,000	0,002	-0,013
-632,795	-30,608	-0,076	-0,031
-631,780	-57,877	0,207	0,065
-630,765	333,227	0,031	0,043
-629,751	312,048	-0,018	0,025
-628,736	-200,000	0,005	0,020
-627,722	205,964	0,107	-0,121
-626,707	-184,682	-0,071	0,001
-625,692	120,559	-0,075	0,067
-624,678	16,513	0,090	0,052
-623,663	327,967	-0,016	0,022
-622,649	-200,000	-0,034	-0,188
-621,634	158,403	-0,078	-0,079
-620,619	-58,723	0,091	-0,028
-619,605	-44,636	-0,033	-0,012
-618,590	334,300	0,064	-0,090
-617,576	-77,845	0,051	0,013
-616,561	-14,308	0,046	-0,021
-615,546	517,889	0,086	0,147
-614,532	3,965	0,094	0,050
-613,517	-52,872	-0,124	0,041
-612,503	179,113	0,088	-0,094
-611,488	-127,532	0,058	-0,006
-610,474	159,839	0,041	-0,041
-609,459	38,518	-0,091	0,059
-608,444	325,881	-0,092	0,128
-607,430	675,454	-0,056	0,105
-606,415	333,751	-0,079	-0,111
-605,401	304,606	-0,023	-0,031
-604,386	-13,829	0,130	-0,061
-603,371	140,380	-0,036	0,035
-602,357	800,000	0,039	-0,098
-601,342	610,517	0,082	-0,149
-600,328	-200,000	0,005	-0,056
-599,313	-30,578	-0,089	-0,036
-598,298	-200,000	-0,020	-0,144
-597,284	394,496	0,040	-0,061
-596,269	-44,678	0,046	-0,017
-595,255	4,741	0,084	-0,045
-594,240	393,298	0,073	-0,111
-593,225	146,943	-0,102	-0,099
-592,211	-200,000	-0,001	-0,007
-591,196	296,031	-0,069	-0,092
-590,182	-88,162	0,060	0,013
-589,167	304,904	0,039	0,052
-588,152	-200,000	-0,001	0,011
-587,138	-53,730	0,145	0,048
-586,123	147,493	-0,087	-0,085
-585,109	-200,000	-0,016	-0,111
-584,094	-173,552	0,125	-0,003
-583,079	-9,849	0,010	0,005
-582,065	-176,566	0,075	-0,001
-581,050	-51,241	0,136	0,046
-580,036	-200,000	-0,014	-0,117
-579,021	-89,296	-0,043	-0,009
-578,006	-87,806	-0,116	-0,025
-576,992	100,230	-0,036	0,030
-575,977	171,941	0,079	-0,082
-574,963	800,000	0,013	0,028
-573,948	800,000	0,038	0,083
-572,934	-200,000	-0,012	0,044
-571,919	27,536	0,107	0,065
-570,904	194,487	-0,028	-0,031
-569,890	6,205	0,079	-0,043
-568,875	800,000	0,044	-0,101
-567,861	-200,000	-0,018	0,066
-566,846	-154,757	0,120	0,006
-565,831	-200,000	-0,031	-0,109
-564,817	289,644	0,053	0,069
-563,802	129,885	0,105	-0,097
-562,788	317,586	0,049	-0,067
-561,773	671,919	0,030	0,056
-560,758	-17,460	0,077	0,035
-559,744	-73,252	-0,089	-0,023
-558,729	-130,142	-0,050	0,005
-557,715	-144,841	0,077	0,005
-556,700	-45,921	-0,075	0,027
-555,685	70,214	0,087	-0,065
-554,671	-126,172	0,019	0,002
-553,656	101,078	0,028	0,024
-552,642	41,660	0,102	-0,067
-551,627	54,460	-0,105	-0,073
-550,612	186,799	0,154	-0,166
-549,598	236,811	-0,042	-0,050
-548,583	535,768	-0,061	-0,105
-547,569	-200,000	-0,032	0,163
-546,554	4,218	-0,030	0,016
-545,539	-200,000	0,028	0,093
-544,525	372,982	-0,124	0,182
-543,510	-200,000	-0,051	0,196
-542,496	-166,203	0,082	-0,002
-541,481	211,052	-0,072	-0,082
-540,466	-200,000	0,006	-0,129
-539,452	190,424	0,033	-0,036
-538,437	-15,069	-0,120	0,055
-537,423	31,467	0,020	-0,013
-536,408	-46,124	-0,086	0,030
-535,393	-200,000	0,014	-0,080
-534,379	-76,936	0,102	-0,026
-533,364	92,021	-0,079	0,064
-532,350	-200,000	0,041	0,185
-531,335	-16,281	0,166	-0,076
-530,321	90,164	-0,045	-0,036
-529,306	-134,538	-0,043	-0,004
-528,291	252,737	-0,019	0,023
-527,277	800,000	0,068	-0,141
-526,262	800,000	-0,005	-0,013
-525,248	-200,000	0,011	-0,127
-524,233	710,506	-0,048	0,092
-523,218	-200,000	-0,059	0,247
-522,204	-86,570	-0,042	-0,009
-521,189	800,000	0,056	-0,115
-520,175	26,080	0,031	-0,019
-519,160	44,638	-0,091	0,060
-518,145	-59,982	0,055	0,017
-517,131	-78,200	0,061	-0,015
-516,116	-200,000	-0,034	-0,138
-515,102	367,709	-0,069	-0,100
-514,087	-200,000	-0,009	0,051
-513,072	200,623	-0,079	0,088
-512,058	431,875	-0,034	-0,053
-511,043	-153,295	-0,123	0,006
-510,029	-67,738	0,054	0,015
-509,014	570,539	0,035	0,062
-507,999	800,000	0,013	0,037
-506,985	-109,437	-0,026	0,004
-505,970	268,947	-0,102	-0,129
-504,956	58,100	0,038	0,027
-503,941	90,196	0,039	-0,032
-502,926	800,000	-0,042	0,124
-501,912	-200,000	0,005	0,111
-500,897	93,007	0,157	0,128
-499,883	49,027	0,078	-0,053
-498,868	232,551	-0,034	0,040
-497,853	-200,000	-0,004	0,015
-496,839	800,000	0,057	0,150
-495,824	-118,324	-0,048	-0,006
-494,810	-10,816	-0,065	-0,031
-493,795	-76,670	-0,028	-0,007
-492,781	157,956	-0,059	0,059
-491,766	-134,298	0,081	-0,007
-490,751	800,000	-0,007	0,015
-489,737	-59,631	-0,027	-0,008
-488,722	-200,000	0,014	0,140
-487,708	128,029	0,096	0,088
-486,693	155,669	-0,122	0,121
-485,678	-200,000	0,021	0,165
-484,664	159,675	-0,074	0,075
-483,649	-200,000	0,027	-0,234
-482,635	-200,000	-0,003	0,121
-481,620	-92,520	0,065	0,013
-480,605	-19,588	0,121	-0,054
-479,591	800,000	0,047	-0,148
-478,576	722,514	-0,025	-0,049
-477,562	-200,000	-0,018	0,096
-476,547	80,772	-0,089	-0,069
-475,532	-200,000	-0,009	0,076
-474,518	-13,930	0,071	-0,033
-473,503	800,000	-0,054	0,129
-472,489	377,648	0,020	0,030
-471,474	-95,946	-0,092	0,018
-470,459	151,959	0,085	-0,084
-469,445	800,000	0,027	0,063
-468,430	-75,681	-0,147	0,037
-467,416	-200,000	-0,005	0,092
-466,401	-200,000	0,019	-0,138
-465,386	800,000	0,018	-0,048
-464,372	-32,649	-0,066	-0,026
-463,357	-17,700	-0,051	0,023
-462,343	-16,363	0,083	0,038
-461,328	5,479	-0,158	-0,084
-460,313	404,861	0,074	-0,113
-459,299	522,897	-0,026	0,044
-458,284	-148,766	-0,099	0,006
-457,270	178,917	0,136	0,144
-456,255	-200,000	0,008	0,048
-455,241	141,361	-0,016	0,015
-454,226	-73,004	-0,018	0,005
-453,211	-6,200	0,144	0,071
-452,197	-121,923	0,080	0,009
-451,182	-40,354	0,132	0,049
-450,168	310,130	-0,054	0,073
-449,153	502,219	0,029	0,049
-448,138	-61,236	-0,034	0,010
-447,124	-200,000	0,011	-0,073
-446,109	205,407	0,039	-0,043
-445,095	800,000	0,001	-0,002
-444,080	-200,000	0,047	0,192
-443,065	785,911	0,062	-0,123
-442,051	-65,153	-0,074	-0,021
-441,036	-75,167	-0,167	0,043
-440,022	-98,230	0,104	-0,019
-439,007	800,000	-0,041	-0,112
-437,992	-174,125	-0,056	-0,001
-436,978	336,768	-0,066	-0,092
-435,963	-200,000	0,016	-0,094
-434,949	-100,104	-0,072	-0,013
-433,934	69,798	-0,092	-0,069
-432,919	79,208	0,065	-0,050
-431,905	-200,000	0,020	0,063
-430,890	-149,223	0,080	-0,005
-429,876	77,280	0,125	0,095
-428,861	-133,438	-0,114	0,010
-427,846	-96,262	-0,020	0,004
-426,832	-200,000	-0,005	0,033
-425,817	-13,655	-0,105	0,049
-424,803	43,697	0,067	-0,044
-423,788	-159,087	-0,077	0,003
-422,773	-52,192	0,081	-0,027
-421,759	-0,792	0,075	0,038
-420,744	-200,000	-0,006	-0,054
-419,730	-22,933	-0,099	-0,043
-418,715	800,000	-0,062	-0,137
-417,701	525,407	0,050	-0,084
-416,686	-58,983	-0,103	-0,032
-415,671	155,794	-0,072	-0,072
-414,657	-33,058	-0,019	0,008
-413,642	-200,000	-0,008	0,145
-412,628	491,212	0,069	-0,114
-411,613	800,000	-0,024	-0,051
-410,598	-200,000	-0,036	-0,124
-409,584	800,000	0,048	0,116
-408,569	59,831	0,139	0,099
-407,555	-200,000	0,010	0,040
-406,540	-69,507	0,090	-0,024
-405,525	-200,000	0,017	-0,076
-404,511	-115,770	-0,081	0,011
-403,496	540,414	-0,065	-0,112
-402,482	685,989	0,094	0,178
-401,467	-200,000	0,016	0,077
-400,452	738,457	0,051	0,099
-399,438	78,157	0,055	-0,042
-398,423	48,507	0,074	-0,050
-397,409	620,034	-0,042	0,077
-396,394	-200,000	0,007	0,099
-395,379	430,640	0,070	0,109
-394,365	-91,037	0,071	0,015
-393,350	-130,529	-0,053	0,005
-392,336	-98,155	0,089	0,016
-391,321	-200,000	0,002	-0,086
-390,306	-151,125	-0,142	-0,008
-389,292	272,283	0,016	-0,020
-388,277	46,171	0,034	0,023
-387,263	546,090	0,045	0,077
-386,248	-200,000	0,034	0,157
-385,233	340,524	-0,072	0,101
-384,219	800,000	0,021	0,045
-383,204	-82,014	-0,074	0,017
-382,190	94,724	0,110	0,090
-381,175	-118,061	-0,098	-0,012
-380,160	-25,292	0,029	0,012
-379,146	-76,661	-0,129	0,032
-378,131	11,251	-0,026	0,014
-377,117	265,228	-0,051	-0,064
-376,102	311,362	-0,068	-0,092
-375,088	169,686	-0,026	-0,026
-374,073	-200,000	-0,027	-0,109
-373,058	9,582	0,125	0,068
-372,044	800,000	-0,009	0,022
-371,029	84,605	0,092	0,072
-370,015	-200,000	-0,035	-0,147
-369,000	101,339	-0,103	-0,086
-367,985	48,577	-0,047	-0,031
-366,971	71,970	0,047	-0,035
-365,956	-200,000	-0,008	0,066
-364,942	-32,410	0,194	0,077
-363,927	-52,450	-0,067	0,022
-362,912	115,275	0,012	-0,011
-361,898	-104,254	-0,127	0,021
-360,883	-75,797	-0,226	-0,057
-359,869	-200,000	-0,002	0,090
-358,854	800,000	-0,009	-0,025
-357,839	-200,000	-0,001	-0,095
-356,825	531,377	-0,043	-0,073
-355,810	-200,000	0,015	-0,088
-354,796	-103,618	-0,160	-0,027
-353,781	-200,000	0,010	-0,060
-352,766	800,000	0,057	-0,127
-351,752	-102,694	-0,051	0,009
-350,737	-200,000	-0,035	0,142
-349,723	203,608	-0,022	0,024
-348,708	-4,018	0,067	-0,033
-347,693	436,475	0,062	-0,098
-346,679	517,720	-0,018	0,031
-345,664	11,589	-0,101	0,055
-344,650	56,530	0,077	0,054
-343,635	-130,466	0,136	0,013
-342,620	21,343	0,134	0,078
-341,606	-14,192	0,062	-0,029
-340,591	187,543	-0,113	-0,121
-339,577	800,000	0,030	0,070
-338,562	-200,000	0,012	-0,116
-337,548	800,000	-0,045	0,118
-336,533	-120,598	0,212	-0,025
-335,518	-200,000	0,028	0,180
-334,504	148,067	0,104	-0,100
-333,489	800,000	0,024	0,072
-332,475	800,000	-0,046	-0,121
-331,460	800,000	-0,038	0,100
-330,445	319,268	0,055	0,075
-329,431	800,000	-0,004	0,013
-328,416	237,777	-0,045	-0,053
-327,402	-200,000	0,033	-0,119
-326,387	47,170	0,082	-0,055
-325,372	-68,089	0,097	-0,027
-324,358	-37,552	-0,052	0,020
-323,343	397,699	0,060	0,089
-322,329	-200,000	0,028	0,121
-321,314	-58,989	0,014	-0,004
-320,299	86,910	-0,050	0,040
-319,285	360,041	0,053	-0,077
-318,270	332,473	-0,088	-0,122
-317,256	-66,732	0,066	0,019
-316,241	-16,641	-0,083	-0,037
-315,226	261,990	-0,027	-0,034
-314,212	800,000	0,044	0,094
-313,197	-200,000	0,005	-0,025
-312,183	-14,321	-0,140	-0,065
-311,168	-200,000	-0,023	-0,098
-310,153	-200,000	0,005	0,025
-309,139	20,420	-0,109	0,063
-308,124	-174,804	0,156	-0,003
-307,110	92,690	-0,071	0,057
-306,095	137,337	0,115	0,108
-305,080	454,511	-0,028	0,045
-304,066	48,141	-0,037	0,025
-303,051	130,370	-0,106	-0,097
-302,037	-200,000	0,027	0,170
-301,022	-200,000	-0,040	0,138
-300,008	-130,676	0,014	0,001
-298,993	-111,810	0,156	0,022
-297,978	-200,000	-0,033	0,115
-296,964	5,966	-0,067	0,036
-295,949	74,514	-0,083	-0,062
-294,935	317,204	0,067	-0,091
-293,920	198,004	-0,089	-0,097
-292,905	-200,000	-0,003	0,113
-291,891	-69,419	-0,032	-0,009
-290,876	-122,892	0,014	0,002
-289,862	206,392	-0,131	-0,146
-288,847	140,545	0,072	0,068
-287,832	258,563	-0,117	-0,144
-286,818	84,109	-0,049	0,038
-285,803	44,017	0,057	0,038
-284,789	-70,120	0,142	0,038
-283,774	-200,000	0,041	0,173
-282,759	-80,035	0,009	0,002
-281,745	116,891	-0,203	-0,178
-280,730	800,000	0,007	-0,023
-279,716	-89,741	-0,072	-0,015
-278,701	-122,025	0,279	0,032
-277,686	-78,668	0,059	-0,014
-276,672	-49,462	-0,034	-0,011
-275,657	-200,000	-0,015	-0,116
-274,643	-200,000	0,001	-0,080
-273,628	26,110	0,126	-0,075
-272,613	-15,367	-0,025	0,011
-271,599	-200,000	-0,012	0,082
-270,584	-200,000	0,006	-0,096
-269,570	-78,660	-0,057	-0,014
-268,555	-29,671	0,120	-0,049
-267,540	30,348	-0,053	-0,032
-266,526	183,925	-0,113	-0,120
-265,511	93,713	-0,050	0,041
-264,497	-200,000	-0,002	-0,165
-263,482	-200,000	0,018	0,061
-262,467	-200,000	-0,012	-0,050
-261,453	-200,000	-0,019	-0,069
-260,438	-36,214	-0,086	0,033
-259,424	37,768	0,042	-0,027
-258,409	-52,036	0,091	0,030
-257,395	-200,000	0,036	-0,121
-256,380	52,855	-0,091	0,062
-255,365	199,525	0,067	-0,074
-254,351	-200,000	0,001	-0,015
-253,336	635,214	0,029	-0,053
-252,322	210,182	-0,061	0,068
-251,307	800,000	0,070	0,169
-250,292	-200,000	0,009	0,072
-249,278	558,558	0,092	0,159
-248,263	97,895	-0,057	0,047
-247,249	234,960	0,070	0,083
-246,234	463,629	-0,031	0,049
-245,219	356,863	-0,061	-0,087
-244,205	-106,032	-0,051	-0,008
-243,190	141,704	-0,068	0,065
-242,176	-200,000	-0,004	0,105
-241,161	543,504	-0,039	0,067
-240,146	396,954	-0,079	0,118
-239,132	-7,664	-0,106	0,051
-238,117	286,068	-0,087	-0,112
-237,103	-200,000	-0,009	0,062
-236,088	-200,000	0,033	-0,192
-235,073	88,221	0,084	-0,067
-234,059	-79,442	-0,067	0,016
-233,044	230,576	-0,076	-0,089
-232,030	-200,000	0,012	0,060
-231,015	234,965	-0,114	-0,134
-230,000	373,061	-0,031	-0,045
-228,986	-75,209	0,092	-0,023
-227,971	-200,000	0,027	0,219
-226,957	-200,000	-0,011	0,056
-225,942	102,902	-0,077	-0,064
-224,927	-102,834	0,133	-0,022
-223,913	-200,000	0,003	-0,049
-222,898	-200,000	0,009	-0,199
-221,884	54,633	-0,064	-0,044
-220,869	-42,503	0,012	0,004
-219,855	391,307	-0,033	-0,049
-218,840	213,402	0,059	-0,067
-217,825	-67,608	-0,039	0,011
-216,811	65,610	-0,041	0,030
-215,796	86,643	0,035	0,028
-214,782	313,786	0,045	0,060
-213,767	-75,297	0,162	0,041
-212,752	800,000	-0,013	0,036
-211,738	-200,000	0,020	0,169
-210,723	338,543	-0,034	0,047
-209,709	-66,614	-0,121	-0,034
-208,694	68,679	-0,014	-0,010
-207,679	545,380	-0,012	-0,021
-206,665	-118,193	0,058	0,007
-205,650	129,053	-0,050	-0,045
-204,636	-45,911	0,019	-0,007
-203,621	747,686	0,047	0,090
-202,606	402,556	-0,082	0,123
-201,592	387,397	0,019	0,028
-200,577	89,518	-0,064	-0,050
-199,563	-131,596	0,078	-0,007
-198,548	-37,936	0,185	-0,070
-197,533	-200,000	-0,016	0,124
-196,519	75,261	-0,035	-0,026
-195,504	-13,581	-0,036	0,016
-194,490	-200,000	0,001	-0,078
-193,475	24,477	0,112	-0,066
-192,460	800,000	-0,043	0,131
-191,446	-200,000	-0,015	0,146
-190,431	-84,052	0,093	0,021
-189,417	-200,000	0,023	-0,094
-188,402	129,809	0,031	0,028
-187,387	52,446	-0,053	-0,036
-186,373	-200,000	-0,017	-0,088
-185,358	81,959	-0,149	0,115
-184,344	-200,000	0,025	0,101
-183,329	190,157	-0,079	0,085
-182,315	373,686	0,029	0,042
-181,300	492,552	-0,082	-0,134
-180,285	-41,710	-0,064	0,023
-179,271	88,222	-0,118	-0,093
-178,256	800,000	0,019	0,049
-177,242	-177,361	-0,033	0,001
-176,227	-41,356	0,043	-0,016
-175,212	84,240	-0,017	0,014
-174,198	-200,000	0,011	0,076
-173,183	448,844	-0,143	-0,225
-172,169	29,860	-0,171	0,103
-171,154	800,000	-0,045	0,099
-170,139	387,326	0,071	0,104
-169,125	-40,684	-0,062	0,023
-168,110	498,760	-0,082	0,134
-167,096	-192,996	-0,117	-0,001
-166,081	-200,000	-0,035	-0,143
-165,066	38,573	-0,084	-0,053
-164,052	-20,010	-0,035	0,015
-163,037	58,537	0,103	-0,072
-162,023	-200,000	0,003	0,074
-161,008	-200,000	-0,033	0,125
-159,993	174,938	0,098	0,101
-158,979	-86,143	-0,067	0,015
-157,964	-155,885	-0,030	0,001
-156,950	343,816	-0,036	-0,051
-155,935	-3,896	-0,056	-0,028
-154,920	50,262	0,055	-0,037
-153,906	800,000	-0,047	0,114
-152,891	-200,000	0,008	-0,080
-151,877	-200,000	0,004	0,197
-150,862	-85,401	-0,136	0,030
-149,847	800,000	-0,033	0,087
-148,833	-40,975	-0,097	0,035
-147,818	800,000	-0,034	-0,085
-146,804	-69,517	0,082	-0,022
-145,789	660,994	0,048	0,088
-144,775	13,300	-0,088	0,049
-143,760	-200,000	0,002	-0,034
-142,745	654,816	-0,055	0,101
-141,731	146,376	-0,046	0,044
-140,716	160,107	-0,031	-0,031
-139,702	-136,209	0,102	-0,008
-138,687	182,312	0,115	-0,120
-137,672	-81,010	-0,041	-0,010
-136,658	800,000	0,020	-0,050
-135,643	-200,000	0,012	0,064
-134,629	-17,550	-0,116	0,052
-133,614	195,227	0,184	0,199
-132,599	12,781	-0,112	0,061
-131,585	-200,000	0,005	0,171
-130,570	318,471	-0,048	0,065
-129,556	-75,865	-0,048	-0,012
-128,541	-200,000	-0,033	-0,139
-127,526	-58,520	-0,124	-0,038
-126,512	272,043	-0,063	-0,079
-125,497	-73,372	0,172	0,044
-124,483	-116,733	-0,153	0,020
-123,468	245,332	0,061	0,073
-122,453	77,761	0,036	0,027
-121,439	-200,000	-0,052	-0,185
-120,424	-200,000	0,006	0,023
-119,410	429,798	0,016	-0,025
-118,395	-45,499	0,042	0,015
-117,380	198,176	-0,103	0,112
-116,366	438,034	-0,051	0,080
-115,351	766,270	0,018	-0,035
-114,337	-200,000	0,007	-0,080
-113,322	-200,000	0,004	0,042
-112,307	800,000	0,023	0,053
-111,293	96,909	0,090	0,073
-110,278	496,450	-0,058	0,095
-109,264	800,000	-0,021	-0,052
-108,249	206,200	0,146	-0,161
-107,234	138,758	-0,057	0,053
-106,220	375,157	-0,098	-0,142
-105,205	-200,000	0,003	-0,015
-104,191	-95,249	0,019	-0,004
-103,176	53,163	-0,048	0,033
-102,162	-200,000	0,000	-0,062
-101,147	-200,000	0,019	-0,139
-100,132	-200,000	-0,066	-0,233
-99,118	800,000	-0,012	-0,035
-98,103	-110,989	-0,039	0,006
-97,089	-44,611	-0,077	0,027
-96,074	331,683	-0,016	0,022
-95,059	800,000	0,056	0,147
-94,045	-75,763	0,090	0,022
-93,030	-200,000	0,007	0,101
-92,016	-30,562	-0,113	0,045
-91,001	236,151	0,034	0,040
-89,986	-200,000	0,043	0,193
-88,972	-200,000	0,018	0,110
-87,957	358,830	-0,016	0,022
-86,943	192,325	0,065	0,070
-85,928	127,592	-0,116	-0,104
-84,913	287,022	-0,101	0,129
-83,899	-10,381	-0,110	-0,052
-82,884	147,915	0,023	-0,022
-81,870	-43,992	-0,047	-0,017
-80,855	22,394	-0,013	0,007
-79,840	800,000	-0,038	0,075
-78,826	-33,601	-0,136	-0,053
-77,811	-200,000	-0,005	0,016
-76,797	-78,376	-0,097	0,023
-75,782	-128,495	0,162	0,016
-74,767	800,000	-0,060	0,145
-73,753	93,372	0,037	0,029
-72,738	800,000	-0,029	0,067
-71,724	-46,440	-0,074	0,026
-70,709	-200,000	-0,001	0,033
-69,694	-148,363	-0,035	-0,002
-68,680	800,000	-0,047	0,098
-67,665	95,950	0,061	0,050
-66,651	-162,493	0,014	-0,000
-65,636	79,590	-0,107	-0,081
-64,622	-200,000	-0,005	-0,066
-63,607	-200,000	0,003	-0,053
-62,592	-8,004	-0,055	-0,026
-61,578	-200,000	-0,001	-0,018
-60,563	-200,000	0,004	0,116
-59,549	-130,022	-0,122	0,012
-58,534	-107,908	-1,376	-0,210
-57,519	373,332	-1,489	-2,154
-56,505	-200,000	-0,494	-4,212
-55,490	24,847	0,984	0,577
-54,476	800,000	4,729	11,447
-53,461	-200,000	17,664	278,824
-52,446	800,000	719,601	2212,604
-51,432	558,752	1633,792	2806,241
-50,417	80,973	1657,616	1267,046
-49,403	23,840	1531,828	892,749
-48,388	17,863	1455,189	819,273
-47,373	18,265	1444,670	815,243
-46,359	17,891	1435,357	808,174
-45,344	16,178	1430,583	797,320
-44,330	16,076	1428,818	795,821
-43,315	16,078	1427,139	794,862
-42,300	16,129	1425,460	794,134
-41,286	16,137	1424,342	793,522
-40,271	16,108	1422,887	792,541
-39,257	16,075	1421,698	791,693
-38,242	16,186	1420,139	791,316
-37,227	16,183	1419,040	790,659
-36,213	16,125	1417,959	789,750
-35,198	16,085	1416,813	788,891
-34,184	16,153	1415,721	788,574
-33,169	16,102	1414,454	787,595
-32,154	16,146	1413,134	787,034
-31,140	16,126	1412,145	786,360
-30,125	16,144	1411,015	785,784
-29,111	16,169	1409,711	785,144
-28,096	16,177	1408,467	784,456
-27,082	16,082	1407,622	783,511
-26,067	16,087	1406,432	782,840
-25,052	16,100	1405,441	782,320
-24,038	16,087	1404,460	781,682
-23,023	16,063	1403,263	780,871
-22,009	16,012	1402,488	780,171
-20,994	15,996	1401,563	779,555
-19,979	15,986	1400,668	778,977
-18,965	16,006	1399,523	778,404
-17,950	16,010	1398,577	777,865
-16,936	16,039	1397,462	777,350
-15,921	16,000	1396,425	776,560
-14,906	15,980	1395,478	775,908
-13,892	15,962	1394,758	775,394
-12,877	15,946	1393,792	774,754
-11,863	15,950	1392,772	774,172
-10,848	15,944	1392,044	773,711
-9,833	15,952	1390,833	773,045
-8,819	15,895	1390,009	772,290
-7,804	15,886	1388,980	771,650
-6,790	15,805	1388,168	770,792
-5,775	15,854	1386,938	770,305
-4,760	15,891	1386,215	770,042
-3,746	15,846	1385,470	769,392
-2,731	15,837	1384,690	768,886
-1,717	15,830	1383,727	768,291
-0,702	15,820	1381,758	767,122
0,313	19,600	1302,865	740,753
1,327	35,972	706,928	439,879
2,342	55,113	125,251	85,624
3,356	2,410	16,638	8,503
4,371	-2,114	3,135	1,554
5,386	-0,259	0,384	0,193
6,400	800,000	-0,082	0,189
7,415	439,351	-0,158	-0,245
8,429	18,492	-0,220	-0,124
9,444	134,301	-0,317	-0,291
10,459	204,709	-0,289	-0,318
11,473	-50,150	-0,305	-0,102
12,488	-63,693	-0,277	-0,080
13,502	65,163	-0,407	-0,291
14,517	-56,426	-0,387	-0,121
15,531	258,743	-0,351	-0,429
16,546	59,451	-0,460	-0,320
17,561	157,182	-0,286	-0,281
18,575	26,231	-0,152	-0,090
19,590	115,225	-0,244	-0,211
20,604	-54,486	-0,258	-0,082
21,619	84,059	-0,417	-0,322
22,634	-33,723	-0,550	-0,214
23,648	114,774	-0,423	-0,365
24,663	74,421	-0,364	-0,270
25,677	128,337	-0,338	-0,304
26,692	72,367	-0,402	-0,296
27,707	148,456	-0,184	-0,176
28,721	101,450	-0,354	-0,291
29,736	90,608	-0,279	-0,221
30,750	55,322	-0,454	-0,310
31,765	71,466	-0,391	-0,286
32,780	33,096	-0,315	-0,192
33,794	134,371	-0,306	-0,280
34,809	22,239	-0,475	-0,273
35,823	19,186	-0,464	-0,262
36,838	68,771	-0,415	-0,300
37,853	68,331	-0,428	-0,310
38,867	106,002	-0,341	-0,285
39,882	48,739	-0,399	-0,264
40,896	13,389	-0,234	-0,128
41,911	-8,994	-0,325	-0,153
42,926	65,623	-0,278	-0,198
43,940	175,030	-0,325	-0,333
44,955	39,957	-0,459	-0,290
45,969	87,898	-0,325	-0,254
46,984	149,826	-0,294	-0,281
47,999	157,367	-0,298	-0,291
49,013	434,309	-0,195	-0,300
50,028	293,406	-0,242	-0,312
51,042	236,960	-0,275	-0,321
52,057	209,173	-0,308	-0,341
53,071	47,762	-0,319	-0,210
54,086	-5,304	-0,347	-0,168
55,101	0,816	-0,358	-0,180
56,115	-69,289	-0,372	-0,100
57,130	28,475	-0,384	-0,228
58,144	3,535	-0,371	-0,190
59,159	76,322	-0,413	-0,308
60,174	268,863	-0,285	-0,353
61,188	106,586	-0,329	-0,275
62,203	465,473	-0,202	-0,319
63,217	155,150	-0,206	-0,200
64,232	241,093	-0,316	-0,373
65,247	221,026	-0,311	-0,353
66,261	102,364	-0,342	-0,282
67,276	71,422	-0,321	-0,234
68,290	-6,954	-0,236	-0,112
69,305	125,642	-0,295	-0,262
70,320	-59,458	-0,471	-0,142
71,334	65,829	-0,289	-0,206
72,349	59,982	-0,336	-0,234
73,363	65,480	-0,451	-0,321
74,378	87,237	-0,333	-0,259
75,393	120,060	-0,233	-0,203
76,407	234,213	-0,254	-0,295
77,422	-32,551	-0,231	-0,090
78,436	-33,974	-0,311	-0,120
79,451	128,420	-0,340	-0,305
80,466	146,868	-0,175	-0,166
81,480	39,398	-0,315	-0,198
82,495	174,650	-0,325	-0,331
83,509	-30,807	-0,256	-0,101
84,524	244,225	-0,166	-0,197
85,539	47,374	-0,332	-0,217
86,553	568,787	-0,139	-0,238
87,568	129,515	-0,320	-0,288
88,582	17,144	-0,420	-0,233
89,597	101,474	-0,281	-0,230
90,611	57,410	-0,295	-0,202
91,626	-33,765	-0,301	-0,116
92,641	-90,285	-0,301	-0,061
93,655	64,474	-0,291	-0,206
94,670	41,718	-0,386	-0,245
95,684	-5,979	-0,392	-0,188
96,699	84,882	-0,260	-0,200
97,714	-19,979	-0,310	-0,134
98,728	-68,811	-0,242	-0,065
99,743	76,757	-0,166	-0,123
100,757	-85,127	-0,427	-0,093
101,772	268,464	-0,288	-0,355
102,787	-59,646	-0,310	-0,093
103,801	177,267	-0,311	-0,318
104,816	280,385	-0,207	-0,260
105,830	135,909	-0,207	-0,190
106,845	43,999	-0,248	-0,159
107,860	173,059	-0,244	-0,247
108,874	15,126	-0,324	-0,178
109,889	75,202	-0,376	-0,278
110,903	-30,400	-0,234	-0,093
111,918	318,199	-0,129	-0,172
112,933	99,551	-0,364	-0,296
113,947	-57,784	-0,312	-0,095
114,962	154,278	-0,175	-0,168
115,976	31,145	-0,134	-0,080
116,991	-105,760	-0,242	0,038
118,006	85,048	-0,287	-0,220
119,020	-6,966	-0,236	-0,112
120,035	50,942	-0,260	-0,172
121,049	-140,183	-0,160	0,012
122,064	62,159	-0,263	-0,184
123,079	404,937	-0,163	-0,241
124,093	51,778	-0,354	-0,236
125,108	77,494	-0,277	-0,207
126,122	42,612	-0,439	-0,279
127,137	89,701	-0,216	-0,169
128,151	226,330	-0,173	-0,196
129,166	160,908	-0,225	-0,220
130,181	86,352	-0,287	-0,221
131,195	67,965	-0,217	-0,155
132,210	-44,947	-0,353	-0,123
133,224	439,640	-0,176	-0,271
134,239	168,452	-0,211	-0,211
135,254	153,260	-0,189	-0,181
136,268	144,443	-0,116	-0,109
137,283	6,267	-0,185	-0,096
138,297	-42,666	-0,342	-0,121
139,312	317,277	-0,204	-0,270
140,327	87,096	-0,315	-0,244
141,341	376,388	-0,181	-0,260
142,356	43,655	-0,217	-0,139
143,370	-147,825	-0,186	0,011
144,385	191,376	-0,193	-0,203
145,400	77,854	-0,270	-0,201
146,414	57,338	-0,226	-0,154
147,429	45,274	-0,274	-0,176
148,443	71,993	-0,176	-0,128
149,458	9,242	-0,248	-0,131
150,473	31,872	-0,154	-0,093
151,487	60,273	-0,199	-0,137
152,502	151,393	-0,260	-0,248
153,516	149,726	-0,188	-0,178
154,531	-93,781	-0,285	-0,054
155,546	129,358	-0,215	-0,192
156,560	-66,795	-0,255	-0,070
157,575	146,641	-0,193	-0,182
158,589	-26,276	-0,295	-0,121
159,604	-41,301	-0,270	-0,097
160,619	16,824	-0,329	-0,181
161,633	285,605	-0,142	-0,179
162,648	-31,495	-0,264	-0,103
163,662	-40,341	-0,243	-0,088
164,677	218,610	-0,162	-0,181
165,692	13,919	-0,116	-0,063
166,706	-117,033	-0,233	-0,029
167,721	15,914	-0,199	-0,109
168,735	188,395	-0,258	-0,269
169,750	194,492	-0,269	-0,285
170,764	-6,199	-0,307	-0,146
171,779	33,953	-0,258	-0,156
172,794	-101,020	-0,169	0,029
173,808	372,262	-0,162	-0,230
174,823	47,517	-0,196	-0,127
175,837	43,825	-0,319	-0,204
176,852	282,528	-0,153	-0,192
177,867	-200,000	-0,018	-0,082
178,881	800,000	-0,084	-0,198
179,896	114,279	-0,333	-0,283
180,910	179,388	-0,216	-0,221
181,925	253,362	-0,108	-0,129
182,940	4,757	-0,288	-0,147
183,954	268,516	-0,161	-0,198
184,969	-138,401	-0,233	0,018
185,983	-36,340	-0,284	-0,106
186,998	-200,000	-0,044	-0,176
188,013	144,658	-0,240	-0,224
189,027	-10,456	-0,324	-0,149
190,042	211,567	-0,215	-0,236
191,056	145,824	-0,176	-0,165
192,071	61,799	-0,133	-0,092
193,086	-14,025	-0,146	0,065
194,100	27,678	-0,225	-0,132
195,115	160,544	-0,170	-0,166
196,129	-54,907	-0,352	-0,110
197,144	296,534	-0,147	-0,188
198,159	362,012	-0,203	-0,285
199,173	427,528	-0,156	-0,236
200,188	-13,804	-0,230	-0,103
201,202	386,079	-0,165	-0,238
202,217	-52,179	-0,249	-0,080
203,232	-200,000	-0,056	-0,270
204,246	145,465	-0,127	-0,119
205,261	101,905	-0,233	-0,189
206,275	41,611	-0,265	-0,166
207,290	41,985	-0,165	-0,104
208,304	41,121	-0,271	-0,170
209,319	22,878	-0,161	-0,092
210,334	-13,198	-0,172	-0,077
211,348	108,586	-0,210	-0,174
212,363	-25,619	-0,220	-0,090
213,377	199,536	-0,124	-0,132
214,392	89,347	-0,221	-0,171
215,407	266,243	-0,087	-0,105
216,421	187,808	-0,206	-0,214
217,436	152,059	-0,243	-0,230
218,450	-80,429	-0,179	-0,041
219,465	108,469	-0,274	-0,228
220,480	167,522	-0,251	-0,248
221,494	37,089	-0,271	-0,166
222,509	74,189	-0,132	-0,096
223,523	729,534	-0,105	-0,196
224,538	-1,486	-0,159	-0,078
225,553	800,000	-0,118	-0,252
226,567	53,584	-0,269	-0,179
227,582	123,979	-0,148	-0,129
228,596	32,935	-0,125	-0,075
229,611	180,085	-0,191	-0,195
230,626	76,069	-0,197	-0,144
231,640	-104,988	-0,208	0,033
232,655	355,080	-0,186	-0,257
233,669	220,230	-0,208	-0,231
234,684	141,604	-0,158	-0,146
235,699	-5,202	-0,102	-0,049
236,713	8,489	-0,164	-0,085
237,728	186,156	-0,141	-0,146
238,742	-65,071	-0,162	-0,045
239,757	-2,189	-0,169	-0,082
240,772	5,916	-0,270	-0,138
241,786	285,285	-0,070	-0,088
242,801	489,672	-0,135	-0,214
243,815	82,052	-0,157	-0,118
244,830	-15,941	-0,171	-0,075
245,844	-171,664	-0,200	0,004
246,859	-72,722	-0,157	-0,040
247,874	130,950	-0,138	-0,123
248,888	124,603	-0,212	-0,185
249,903	-49,313	-0,214	-0,070
250,917	98,556	-0,123	-0,098
251,932	-23,184	-0,135	-0,056
252,947	120,358	-0,180	0,155
253,961	-125,136	-0,107	0,011
254,976	309,741	-0,144	-0,188
255,990	99,831	-0,230	-0,184
257,005	122,815	-0,136	-0,118
258,020	-131,246	-0,171	0,015
259,034	112,509	-0,233	-0,195
260,049	222,078	-0,116	0,130
261,063	226,484	-0,121	-0,137
262,078	37,363	-0,162	-0,099
263,093	800,000	-0,151	-0,317
264,107	369,039	-0,093	-0,130
265,122	83,556	-0,158	-0,119
266,136	111,366	-0,162	-0,135
267,151	-16,615	-0,199	-0,087
268,166	-160,530	-0,201	-0,007
269,180	-200,000	-0,031	-0,147
270,195	177,615	-0,155	-0,157
271,209	357,882	-0,051	-0,071
272,224	-36,016	-0,076	-0,028
273,239	-7,815	-0,207	-0,096
274,253	13,152	-0,169	-0,090
275,268	257,300	-0,109	-0,130
276,282	306,598	-0,194	-0,250
277,297	-200,000	-0,055	-0,183
278,312	330,915	-0,093	-0,124
279,326	-200,000	-0,016	-0,101
280,341	-200,000	-0,015	-0,134
281,355	-68,405	-0,104	0,028
282,370	-122,975	-0,144	0,016
283,384	0,841	-0,214	-0,105
284,399	-7,235	-0,247	-0,115
285,414	-195,827	-0,231	0,001
286,428	-46,255	-0,142	-0,048
287,443	-49,823	0,042	-0,014
288,457	323,130	-0,091	-0,120
289,472	-175,043	-0,156	0,003
290,487	-200,000	-0,012	-0,134
291,501	127,133	-0,180	-0,157
292,516	342,532	-0,103	-0,140
293,530	105,286	-0,161	-0,131
294,545	-76,016	-0,102	-0,025
295,560	-6,435	-0,232	-0,109
296,574	27,953	-0,105	0,061
297,589	17,182	-0,156	-0,085
298,603	359,676	-0,100	-0,138
299,618	-138,673	-0,203	0,015
300,633	-156,916	-0,191	-0,008
301,647	42,741	-0,129	-0,081
302,662	72,579	-0,182	-0,131
303,676	-43,687	-0,217	-0,075
304,691	250,963	-0,134	-0,158
305,706	117,061	-0,116	-0,098
306,720	464,060	-0,081	-0,125
307,735	-31,390	-0,107	-0,041
308,749	11,371	-0,125	0,066
309,764	-200,000	-0,022	-0,099
310,779	211,289	-0,084	-0,092
311,793	-134,416	-0,082	0,007
312,808	-200,000	-0,074	-0,243
313,822	143,184	-0,160	-0,147
314,837	333,381	-0,032	-0,043
315,852	-133,930	-0,151	-0,013
316,866	-200,000	-0,040	-0,193
317,881	-200,000	-0,037	-0,114
318,895	-200,000	0,005	-0,069
319,910	55,363	-0,222	-0,148
320,925	156,428	-0,128	-0,122
321,939	73,758	-0,190	-0,137
322,954	229,513	-0,038	0,042
323,968	12,761	-0,111	0,059
324,983	408,609	0,030	0,043
325,997	-49,633	-0,104	-0,034
327,012	101,192	-0,121	-0,097
328,027	3,265	-0,070	-0,035
329,041	116,953	-0,097	-0,082
330,056	659,504	-0,045	-0,079
331,070	13,413	-0,036	-0,019
332,085	-51,666	-0,196	-0,062
333,100	656,805	-0,075	-0,134
334,114	287,056	-0,144	-0,179
335,129	478,995	-0,100	-0,156
336,143	-36,094	-0,136	-0,050
337,158	-200,000	-0,004	-0,022
338,173	-104,119	-0,198	0,031
339,187	-44,621	-0,122	0,042
340,202	-114,216	-0,244	0,032
341,216	138,777	-0,234	-0,211
342,231	568,435	-0,131	-0,220
343,246	-200,000	-0,015	-0,063
344,260	-41,178	-0,072	-0,026
345,275	-91,655	-0,151	0,029
346,289	-5,292	-0,149	-0,070
347,304	15,344	-0,175	-0,094
348,319	540,654	-0,056	-0,091
349,333	-93,408	-0,145	-0,027
350,348	55,159	-0,043	-0,029
351,362	57,692	-0,111	0,074
352,377	-31,918	-0,152	-0,058
353,392	-46,355	-0,141	0,047
354,406	30,645	-0,050	-0,029
355,421	208,948	1314,452	1415,179
356,435	160,797	1475,170	1415,704
