DTS Sentinel unit serial number:	SN410029Multiplexer serial number:	ORYXHardware model number:	OX2-SRSoftware version number:	ORYX F/W v4,00 Oryx Data Collector v3.7.2.0data status	okinstallation	B3 Nyhavnadifferential loss correction	single-endedforward channel	channel 1reverse channel	N/Adate	2023/12/02time	02:37:30forward acquisition time	300,00reverse acquisition time	0,00gamma	499,1914k internal	0,3194k external	0,3194temperature offset calibration	1,0000default loss term (dB/km)	0,3820temperature slope calibration	1,0000multiplexer offset coefficient	1,0000multiplexer slope coefficient	1,0000fibre end	0,00T internal ref (°C)	16,66T ext. ref 1 (°C)	1,84T ext. ref 2 (°C)	1,83length (m)	temperature (°C)	Stokes	anti-Stokes-744,400	667,999	-0,097	-0,183
-743,385	-200,000	-0,011	0,363
-742,371	222,306	-0,207	-0,243
-741,356	-200,000	-0,012	0,235
-740,342	275,279	-0,168	-0,217
-739,327	-200,000	0,025	0,204
-738,312	172,437	-0,224	-0,235
-737,298	-200,000	0,016	0,236
-736,283	99,314	-0,329	-0,277
-735,269	800,000	0,115	0,329
-734,254	109,802	-0,176	-0,153
-733,239	-13,009	-0,150	0,071
-732,225	626,319	-0,107	-0,197
-731,210	-55,186	0,112	0,036
-730,196	67,952	0,116	0,086
-729,181	-200,000	0,034	0,124
-728,167	-200,000	-0,003	-0,050
-727,152	55,498	-0,116	-0,082
-726,137	-121,390	-0,081	0,010
-725,123	800,000	-0,032	-0,093
-724,108	-200,000	-0,001	-0,159
-723,094	-56,841	-0,078	0,025
-722,079	273,737	0,091	-0,117
-721,064	16,452	-0,010	-0,006
-720,050	800,000	0,009	-0,017
-719,035	-92,209	0,080	0,016
-718,021	111,172	0,011	0,010
-717,006	800,000	0,037	-0,103
-715,991	-200,000	0,016	-0,064
-714,977	-122,475	-0,086	-0,010
-713,962	-17,555	-0,074	0,034
-712,948	-58,877	0,056	0,018
-711,933	800,000	0,051	-0,103
-710,918	-200,000	0,009	-0,103
-709,904	49,835	-0,068	-0,046
-708,889	324,350	-0,110	-0,153
-707,875	209,353	-0,061	-0,070
-706,860	-35,475	0,183	0,072
-705,845	459,508	-0,079	0,129
-704,831	299,704	0,088	-0,118
-703,816	426,573	-0,010	-0,016
-702,802	-81,565	-0,064	-0,015
-701,787	-126,174	-0,156	0,017
-700,772	-200,000	-0,014	-0,048
-699,758	-105,025	0,173	-0,028
-698,743	-200,000	-0,002	0,122
-697,729	-179,857	0,137	0,002
-696,714	-183,500	0,121	-0,001
-695,699	305,372	-0,121	-0,163
-694,685	108,158	-0,074	-0,065
-693,670	-101,890	-0,137	0,024
-692,656	800,000	-0,018	0,041
-691,641	-23,709	-0,035	0,015
-690,627	-169,452	0,185	-0,005
-689,612	-141,125	0,048	-0,004
-688,597	800,000	-0,053	-0,140
-687,583	41,928	-0,116	-0,076
-686,568	382,800	-0,040	-0,059
-685,554	740,644	0,023	-0,044
-684,539	-200,000	-0,014	0,049
-683,524	94,063	0,006	-0,005
-682,510	-23,071	-0,148	0,065
-681,495	97,268	0,038	0,032
-680,481	314,918	-0,128	0,176
-679,466	-200,000	0,021	-0,131
-678,451	-171,412	-0,088	0,002
-677,437	800,000	-0,006	0,018
-676,422	-106,726	0,134	-0,021
-675,408	-89,124	-0,050	0,011
-674,393	-200,000	0,002	-0,037
-673,378	-54,012	-0,147	-0,048
-672,364	-139,663	-0,014	-0,001
-671,349	121,356	0,061	-0,055
-670,335	-200,000	-0,003	0,041
-669,320	-200,000	0,003	0,042
-668,305	-133,965	0,122	0,011
-667,291	-200,000	-0,001	-0,065
-666,276	332,510	0,059	-0,084
-665,262	-41,270	-0,154	-0,057
-664,247	67,295	0,040	0,030
-663,232	44,503	0,057	-0,038
-662,218	800,000	-0,060	0,131
-661,203	-160,763	0,044	0,002
-660,189	95,879	-0,059	-0,049
-659,174	800,000	0,039	-0,080
-658,159	102,276	0,090	-0,076
-657,145	-109,480	-0,102	-0,016
-656,130	434,048	0,051	0,080
-655,116	362,856	0,061	0,089
-654,101	800,000	-0,055	0,128
-653,086	165,789	-0,058	0,059
-652,072	-200,000	0,013	-0,059
-651,057	-200,000	0,008	-0,091
-650,043	-59,633	-0,124	-0,038
-649,028	52,080	-0,155	-0,107
-648,014	-149,090	0,063	0,004
-646,999	-145,118	-0,044	-0,003
-645,984	102,612	0,040	0,034
-644,970	-59,740	-0,058	-0,018
-643,955	48,042	0,058	-0,039
-642,941	-200,000	-0,008	-0,149
-641,926	362,516	-0,045	-0,066
-640,911	422,092	0,024	-0,037
-639,897	16,008	0,034	-0,020
-638,882	-95,423	0,140	0,027
-637,868	-45,956	0,022	0,008
-636,853	-122,630	0,076	-0,009
-635,838	-21,853	0,023	-0,010
-634,824	-102,608	0,056	-0,010
-633,809	7,972	0,111	-0,060
-632,795	197,989	-0,028	0,032
-631,780	-117,877	0,047	-0,006
-630,765	104,564	-0,121	0,103
-629,751	373,012	0,027	-0,040
-628,736	800,000	-0,036	-0,082
-627,722	461,091	-0,029	-0,046
-626,707	168,377	-0,033	-0,034
-625,692	-138,475	-0,028	0,002
-624,678	13,360	-0,017	0,010
-623,663	-200,000	0,008	0,049
-622,649	248,890	-0,119	-0,147
-621,634	170,213	-0,119	-0,123
-620,619	-200,000	-0,016	0,195
-619,605	-200,000	-0,007	0,097
-618,590	-200,000	-0,017	0,074
-617,576	-75,041	0,042	-0,011
-616,561	684,845	-0,030	-0,058
-615,546	-200,000	-0,024	-0,101
-614,532	800,000	-0,039	-0,082
-613,517	-200,000	0,030	-0,113
-612,503	-200,000	-0,010	-0,133
-611,488	-44,027	-0,108	0,039
-610,474	485,119	-0,058	0,096
-609,459	337,713	0,023	0,032
-608,444	202,646	-0,096	-0,108
-607,430	395,066	-0,057	0,086
-606,415	386,459	-0,027	-0,041
-605,401	800,000	0,047	-0,098
-604,386	704,652	-0,028	-0,054
-603,371	170,496	-0,076	0,079
-602,357	800,000	-0,061	0,132
-601,342	664,314	-0,093	-0,175
-600,328	-55,102	-0,080	-0,026
-599,313	423,529	-0,062	0,097
-598,298	-83,021	0,163	0,038
-597,284	800,000	-0,024	0,060
-596,269	-43,779	0,051	-0,019
-595,255	-89,904	0,058	0,012
-594,240	-200,000	-0,001	-0,098
-593,225	100,162	-0,006	0,005
-592,211	13,026	0,116	0,065
-591,196	-200,000	-0,010	-0,082
-590,182	-200,000	0,006	-0,070
-589,167	-83,058	0,102	-0,024
-588,152	-35,990	-0,061	0,024
-587,138	2,881	0,012	-0,006
-586,123	106,932	-0,037	0,032
-585,109	225,620	0,094	-0,111
-584,094	18,533	0,113	-0,065
-583,079	800,000	-0,022	0,057
-582,065	162,228	-0,055	0,056
-581,050	-57,321	0,055	0,018
-580,036	30,005	-0,134	-0,083
-579,021	-200,000	0,018	0,077
-578,006	-155,073	-0,084	0,004
-576,992	95,853	0,069	0,057
-575,977	-200,000	0,003	0,123
-574,963	-200,000	-0,000	0,084
-573,948	-35,182	0,020	0,008
-572,934	177,103	0,017	0,018
-571,919	322,093	-0,089	-0,123
-570,904	371,921	0,019	-0,028
-569,890	-67,317	0,018	0,005
-568,875	50,107	-0,050	-0,034
-567,861	278,949	0,084	-0,109
-566,846	-200,000	0,019	0,147
-565,831	289,840	0,082	-0,108
-564,817	-122,799	-0,157	0,018
-563,802	0,085	0,071	-0,037
-562,788	-200,000	0,001	-0,100
-561,773	-9,754	-0,097	0,047
-560,758	800,000	0,073	0,165
-559,744	-200,000	-0,015	0,051
-558,729	-120,046	-0,087	0,011
-557,715	-62,965	-0,063	0,019
-556,700	574,735	-0,016	0,028
-555,685	-200,000	-0,012	-0,065
-554,671	-200,000	-0,008	0,061
-553,656	800,000	0,037	-0,096
-552,642	-50,645	0,139	-0,047
-551,627	-200,000	-0,046	-0,159
-550,612	192,418	0,060	0,065
-549,598	322,777	-0,073	0,100
-548,583	800,000	-0,010	-0,021
-547,569	240,278	-0,045	-0,055
-546,554	-200,000	0,029	0,166
-545,539	-61,527	-0,086	-0,026
-544,525	-8,053	-0,052	-0,025
-543,510	-14,375	-0,161	-0,075
-542,496	347,521	-0,013	0,019
-541,481	-200,000	0,019	-0,087
-540,466	642,072	-0,078	-0,145
-539,452	800,000	0,009	-0,027
-538,437	63,535	0,082	-0,059
-537,423	2,146	-0,053	-0,028
-536,408	-200,000	0,026	-0,096
-535,393	800,000	-0,036	-0,098
-534,379	-177,500	0,073	-0,001
-533,364	163,293	0,067	0,068
-532,350	6,931	-0,093	0,050
-531,335	-44,326	0,058	-0,021
-530,321	156,473	0,040	0,039
-529,306	-145,593	-0,072	-0,005
-528,291	-120,299	-0,061	0,007
-527,277	546,738	0,030	-0,052
-526,262	-200,000	-0,042	0,200
-525,248	-84,035	0,006	-0,001
-524,233	-200,000	0,014	0,052
-523,218	-200,000	0,053	0,312
-522,204	74,845	-0,086	0,065
-521,189	-170,703	-0,196	0,005
-520,175	668,843	0,097	-0,182
-519,160	603,622	-0,025	-0,045
-518,145	-100,130	-0,132	-0,024
-517,131	-45,027	-0,054	0,019
-516,116	-80,972	0,090	0,021
-515,102	27,031	-0,084	0,051
-514,087	800,000	-0,039	-0,106
-513,072	-82,308	-0,077	0,018
-512,058	-200,000	-0,032	-0,119
-511,043	155,720	-0,062	-0,062
-510,029	57,539	0,036	-0,026
-509,014	-122,173	-0,059	0,007
-507,999	291,901	-0,027	-0,035
-506,985	453,250	0,055	-0,088
-505,970	708,709	-0,027	-0,052
-504,956	-26,354	0,048	0,020
-503,941	15,749	-0,135	-0,077
-502,926	-189,799	0,044	0,000
-501,912	4,497	-0,134	0,071
-500,897	-200,000	0,011	0,041
-499,883	-200,000	-0,013	0,072
-498,868	-31,548	-0,187	-0,075
-497,853	87,810	-0,117	-0,093
-496,839	-200,000	-0,004	0,086
-495,824	800,000	-0,029	0,086
-494,810	-107,623	0,102	-0,016
-493,795	-148,001	0,093	-0,005
-492,781	-95,815	-0,163	-0,031
-491,766	430,175	-0,018	0,028
-490,751	-200,000	-0,002	-0,072
-489,737	-200,000	0,005	0,022
-488,722	-162,606	-0,098	-0,003
-487,708	-11,701	-0,044	0,021
-486,693	-113,427	0,057	-0,008
-485,678	-200,000	0,022	-0,069
-484,664	273,940	0,063	0,081
-483,649	-74,695	-0,132	-0,034
-482,635	-200,000	-0,023	-0,172
-481,620	11,647	0,227	0,126
-480,605	800,000	-0,030	0,080
-479,591	754,368	-0,079	0,156
-478,576	800,000	-0,024	-0,060
-477,562	-200,000	0,017	0,091
-476,547	248,539	-0,030	-0,037
-475,532	18,946	0,041	0,024
-474,518	237,034	0,093	-0,111
-473,503	121,485	0,075	-0,067
-472,489	9,065	-0,096	-0,052
-471,474	-111,015	-0,118	-0,017
-470,459	-200,000	-0,006	-0,072
-469,445	-200,000	0,026	-0,098
-468,430	-83,538	0,020	0,005
-467,416	-200,000	-0,025	0,084
-466,401	800,000	0,036	0,072
-465,386	-90,739	-0,005	0,001
-464,372	-112,271	-0,112	0,016
-463,357	-120,375	0,034	0,004
-462,343	-40,649	-0,034	-0,012
-461,328	800,000	-0,082	-0,164
-460,313	99,878	0,034	0,028
-459,299	734,705	0,038	0,074
-458,284	-200,000	-0,003	0,075
-457,270	770,316	0,110	0,217
-456,255	151,842	-0,048	-0,047
-455,241	198,708	-0,085	-0,094
-454,226	140,709	0,076	0,072
-453,211	-42,538	-0,063	-0,023
-452,197	701,454	0,031	-0,059
-451,182	-200,000	0,005	0,082
-450,168	-82,516	0,161	0,037
-449,153	-14,468	0,022	-0,010
-448,138	25,445	0,093	-0,056
-447,124	800,000	-0,046	-0,115
-446,109	800,000	0,040	0,098
-445,095	-200,000	0,005	0,023
-444,080	-65,040	0,167	0,048
-443,065	800,000	0,033	-0,092
-442,051	800,000	0,037	-0,076
-441,036	5,221	-0,041	-0,022
-440,022	-60,986	-0,137	-0,042
-439,007	-89,066	0,188	0,040
-437,992	-200,000	-0,007	0,096
-436,978	-48,050	-0,022	-0,008
-435,963	-200,000	0,014	0,049
-434,949	-54,696	-0,056	0,018
-433,934	-79,368	0,062	0,015
-432,919	246,745	0,054	-0,065
-431,905	800,000	-0,042	0,113
-430,890	237,647	0,091	-0,109
-429,876	376,669	0,089	-0,131
-428,861	800,000	0,024	0,069
-427,846	73,825	-0,104	0,079
-426,832	60,475	-0,086	-0,061
-425,817	361,201	0,071	-0,103
-424,803	604,317	0,065	-0,117
-423,788	631,652	-0,020	0,037
-422,773	619,754	-0,029	-0,052
-421,759	29,203	0,092	0,056
-420,744	255,504	-0,026	0,032
-419,730	417,991	0,049	-0,075
-418,715	222,091	0,086	-0,100
-417,701	-121,265	0,008	0,001
-416,686	-200,000	0,040	-0,173
-415,671	85,530	0,087	-0,069
-414,657	-141,049	0,023	0,002
-413,642	476,904	0,032	-0,052
-412,628	800,000	-0,037	-0,114
-411,613	-200,000	-0,005	-0,046
-410,598	213,241	-0,121	-0,138
-409,584	-200,000	-0,012	-0,066
-408,569	-34,613	0,095	0,037
-407,555	198,673	0,044	0,048
-406,540	-18,869	-0,104	-0,046
-405,525	-200,000	-0,002	-0,027
-404,511	-200,000	-0,036	-0,147
-403,496	-200,000	0,003	-0,126
-402,482	230,475	-0,067	0,079
-401,467	800,000	-0,022	-0,060
-400,452	44,097	-0,107	-0,071
-399,438	-17,404	-0,048	-0,022
-398,423	-23,987	0,066	-0,028
-397,409	-195,475	0,120	-0,001
-396,394	-105,489	0,058	0,009
-395,379	-48,351	0,036	0,012
-394,365	-200,000	-0,018	0,141
-393,350	-91,395	-0,068	-0,014
-392,336	5,893	0,097	0,051
-391,321	800,000	-0,008	-0,021
-390,306	-200,000	0,040	-0,185
-389,292	46,462	-0,053	0,035
-388,277	800,000	0,029	-0,078
-387,263	174,563	0,039	0,040
-386,248	-161,932	0,022	0,001
-385,233	-117,160	-0,039	-0,005
-384,219	800,000	-0,080	0,203
-383,204	-150,828	0,034	-0,002
-382,190	-200,000	0,013	-0,098
-381,175	28,628	0,077	-0,047
-380,160	-77,658	0,048	0,012
-379,146	100,056	0,075	-0,062
-378,131	-15,392	0,070	-0,032
-377,117	-200,000	-0,003	0,116
-376,102	-96,754	-0,055	0,010
-375,088	11,210	-0,126	-0,069
-374,073	426,294	-0,024	0,038
-373,058	423,546	0,020	0,031
-372,044	-200,000	0,005	0,096
-371,029	-200,000	-0,001	-0,041
-370,015	361,069	-0,010	0,015
-369,000	60,987	-0,069	0,049
-367,985	-200,000	0,009	0,073
-366,971	121,257	0,016	0,014
-365,956	-200,000	0,013	-0,073
-364,942	29,003	0,020	0,012
-363,927	-114,541	-0,075	-0,010
-362,912	149,751	0,039	0,038
-361,898	-115,965	-0,127	0,017
-360,883	-200,000	-0,013	0,113
-359,869	21,184	0,058	0,034
-358,854	800,000	0,013	-0,026
-357,839	800,000	-0,022	0,049
-356,825	800,000	0,031	-0,079
-355,810	559,033	-0,080	0,139
-354,796	197,290	-0,071	-0,078
-353,781	800,000	-0,017	-0,051
-352,766	251,284	-0,058	-0,071
-351,752	-200,000	-0,030	0,096
-350,737	800,000	-0,040	0,084
-349,723	50,095	0,056	0,038
-348,708	-76,440	-0,037	-0,009
-347,693	-200,000	-0,000	0,096
-346,679	-53,188	0,140	-0,046
-345,664	-200,000	-0,005	-0,019
-344,650	-200,000	-0,024	-0,130
-343,635	-41,105	0,126	0,046
-342,620	293,666	0,044	-0,058
-341,606	49,905	-0,019	0,013
-340,591	800,000	0,057	0,165
-339,577	-165,389	0,127	0,004
-338,562	-35,765	-0,111	-0,043
-337,548	58,024	0,092	0,065
-336,533	270,035	0,059	0,074
-335,518	-169,626	-0,061	0,002
-334,504	-62,454	0,059	0,018
-333,489	-200,000	0,003	0,035
-332,475	232,449	-0,045	0,053
-331,460	-200,000	0,016	0,053
-330,445	800,000	0,036	0,080
-329,431	69,466	-0,035	0,026
-328,416	223,206	0,212	-0,246
-327,402	-200,000	-0,023	-0,084
-326,387	-177,099	0,082	0,001
-325,372	66,392	-0,123	-0,090
-324,358	-200,000	0,009	-0,140
-323,343	595,614	-0,093	0,165
-322,329	-200,000	0,031	0,136
-321,314	-6,982	0,012	0,006
-320,299	-50,711	-0,097	-0,032
-319,285	662,207	0,034	-0,063
-318,270	-22,216	-0,076	-0,033
-317,256	800,000	-0,016	-0,046
-316,241	800,000	0,058	-0,129
-315,226	457,028	0,099	0,158
-314,212	87,227	-0,022	-0,017
-313,197	145,992	0,156	0,150
-312,183	87,752	-0,100	0,080
-311,168	569,293	-0,046	-0,081
-310,153	509,499	-0,041	0,068
-309,139	-200,000	0,008	-0,050
-308,124	-96,648	0,112	-0,021
-307,110	-200,000	-0,005	0,081
-306,095	-37,079	-0,092	-0,035
-305,080	800,000	-0,003	0,007
-304,066	16,732	-0,064	0,036
-303,051	-200,000	-0,027	-0,112
-302,037	-200,000	0,011	-0,098
-301,022	-45,061	0,046	0,016
-300,008	-89,204	0,049	0,010
-298,993	582,100	-0,070	0,123
-297,978	471,570	-0,090	0,146
-296,964	71,674	-0,060	-0,045
-295,949	-65,231	0,148	0,042
-294,935	161,966	-0,016	-0,016
-293,920	-38,349	-0,037	-0,014
-292,905	82,343	0,121	0,094
-291,891	-200,000	0,035	0,262
-290,876	-36,171	-0,188	0,072
-289,862	-200,000	0,022	-0,088
-288,847	160,066	0,045	0,045
-287,832	108,819	0,057	-0,049
-286,818	220,714	-0,047	-0,054
-285,803	-70,831	0,135	0,036
-284,789	-31,756	-0,104	0,041
-283,774	15,243	0,059	0,033
-282,759	800,000	0,032	0,092
-281,745	-200,000	-0,003	0,086
-280,730	-200,000	-0,008	-0,132
-279,716	-200,000	0,013	0,082
-278,701	212,129	0,043	0,048
-277,686	-78,488	-0,081	-0,020
-276,672	-75,020	0,049	-0,012
-275,657	-151,316	-0,118	0,006
-274,643	-200,000	-0,021	0,102
-273,628	-82,381	0,108	-0,025
-272,613	-28,639	-0,020	-0,008
-271,599	254,529	-0,078	0,096
-270,584	57,758	0,094	-0,066
-269,570	800,000	-0,039	0,081
-268,555	-63,705	0,102	-0,030
-267,540	241,144	-0,079	-0,095
-266,526	272,328	0,077	-0,098
-265,511	-157,591	-0,102	-0,004
-264,497	-2,434	0,062	-0,031
-263,482	495,581	0,134	0,220
-262,467	800,000	-0,010	0,021
-261,453	-200,000	0,004	-0,095
-260,438	-49,942	-0,053	-0,018
-259,424	-200,000	-0,020	-0,165
-258,409	-200,000	0,018	-0,135
-257,395	217,184	-0,061	-0,070
-256,380	-200,000	0,033	0,130
-255,365	248,006	0,073	0,089
-254,351	174,444	-0,076	-0,079
-253,336	-200,000	-0,008	0,028
-252,322	-102,906	-0,048	-0,008
-251,307	-200,000	0,005	-0,050
-250,292	-80,415	-0,035	-0,008
-249,278	700,978	0,061	0,115
-248,263	-81,348	0,130	-0,030
-247,249	612,767	0,078	0,140
-246,234	184,899	0,106	-0,112
-245,219	-200,000	-0,004	-0,039
-244,205	-200,000	-0,011	-0,149
-243,190	-58,777	-0,018	-0,006
-242,176	352,782	-0,009	0,012
-241,161	-200,000	-0,002	-0,040
-240,146	90,348	0,023	0,018
-239,132	138,227	-0,098	0,092
-238,117	45,214	-0,061	-0,040
-237,103	-114,843	0,256	-0,035
-236,088	-200,000	0,014	0,164
-235,073	800,000	0,078	0,164
-234,059	307,120	-0,084	-0,113
-233,044	284,524	-0,080	0,103
-232,030	-200,000	0,016	0,076
-231,015	800,000	0,001	0,003
-230,000	-200,000	-0,010	-0,083
-228,986	621,572	0,022	0,039
-227,971	-109,139	0,098	0,015
-226,957	-200,000	0,024	-0,089
-225,942	-26,498	0,107	0,045
-224,927	800,000	0,048	-0,123
-223,913	76,359	0,019	-0,014
-222,898	-200,000	0,012	0,055
-221,884	102,380	-0,085	0,071
-220,869	-200,000	0,002	0,040
-219,855	378,254	-0,072	0,106
-218,840	800,000	-0,055	0,117
-217,825	165,774	-0,045	-0,046
-216,811	800,000	0,022	-0,066
-215,796	-200,000	-0,007	-0,041
-214,782	389,589	0,064	-0,096
-213,767	-190,732	0,107	0,001
-212,752	382,516	0,106	0,155
-211,738	145,768	0,072	0,069
-210,723	-116,435	-0,116	0,015
-209,709	706,703	0,045	0,085
-208,694	800,000	0,025	0,053
-207,679	173,590	-0,083	-0,085
-206,665	365,730	0,102	0,147
-205,650	760,394	0,032	0,061
-204,636	800,000	-0,040	0,114
-203,621	-13,090	-0,047	-0,022
-202,606	42,482	0,136	0,088
-201,592	605,190	0,077	0,138
-200,577	-200,000	-0,013	0,063
-199,563	-15,989	-0,108	0,049
-198,548	-200,000	-0,005	0,042
-197,533	-200,000	-0,011	-0,050
-196,519	-123,337	-0,131	-0,015
-195,504	-200,000	0,006	0,051
-194,490	558,426	-0,036	0,062
-193,475	435,264	0,067	-0,104
-192,460	635,330	0,029	0,053
-191,446	800,000	-0,037	-0,105
-190,431	183,561	0,040	0,042
-189,417	22,776	-0,077	0,045
-188,402	-200,000	-0,015	0,051
-187,387	501,970	0,053	0,088
-186,373	-200,000	-0,064	-0,000
-185,358	244,552	0,013	-0,016
-184,344	65,371	0,044	-0,032
-183,329	-120,728	0,132	-0,016
-182,315	-200,000	0,010	0,036
-181,300	-200,000	0,004	-0,069
-180,285	-168,511	0,088	-0,002
-179,271	-15,088	-0,144	0,066
-178,256	365,864	0,050	-0,073
-177,242	184,034	-0,029	0,031
-176,227	-200,000	-0,012	-0,043
-175,212	128,132	0,070	0,064
-174,198	800,000	0,040	0,113
-173,183	-92,258	-0,048	-0,009
-172,169	-48,699	-0,087	-0,029
-171,154	-49,612	0,038	-0,013
-170,139	764,938	0,066	0,128
-169,125	-109,479	0,108	-0,016
-168,110	86,332	0,091	-0,072
-167,096	800,000	0,043	-0,129
-166,081	-200,000	-0,000	-0,081
-165,066	83,663	-0,091	-0,071
-164,052	800,000	0,012	-0,029
-163,037	-120,632	-0,074	0,009
-162,023	-138,132	0,043	-0,003
-161,008	-126,404	0,126	-0,013
-159,993	286,105	0,047	-0,061
-158,979	-200,000	0,019	-0,122
-157,964	264,552	-0,033	0,042
-156,950	-112,200	-0,176	0,025
-155,935	58,667	0,028	0,020
-154,920	200,649	-0,065	0,071
-153,906	-200,000	-0,012	0,194
-152,891	-200,000	-0,022	0,162
-151,877	-200,000	0,050	0,163
-150,862	-24,995	0,076	0,032
-149,847	-200,000	-0,036	-0,118
-148,833	800,000	0,023	0,047
-147,818	-70,749	0,147	-0,039
-146,804	-119,795	0,084	-0,010
-145,789	170,490	0,031	-0,032
-144,775	645,283	-0,021	-0,038
-143,760	332,571	-0,094	-0,130
-142,745	-52,394	-0,181	-0,059
-141,731	800,000	0,026	0,071
-140,716	-156,372	0,058	0,003
-139,702	-129,672	0,075	-0,007
-138,687	-200,000	-0,028	-0,094
-137,672	-200,000	-0,010	0,137
-136,658	37,990	0,029	0,018
-135,643	349,903	-0,087	-0,123
-134,629	107,826	0,086	-0,073
-133,614	132,746	0,047	0,043
-132,599	-168,660	-0,054	0,001
-131,585	-83,040	0,099	-0,023
-130,570	-89,260	-0,119	-0,025
-129,556	-200,000	-0,012	-0,042
-128,541	28,951	-0,083	-0,050
-127,526	-55,641	0,053	0,017
-126,512	-70,566	-0,157	-0,042
-125,497	123,064	0,135	0,121
-124,483	-200,000	0,007	0,070
-123,468	18,058	0,073	-0,041
-122,453	757,694	-0,028	-0,053
-121,439	-121,841	0,046	-0,005
-120,424	800,000	-0,030	0,073
-119,410	156,791	-0,003	-0,003
-118,395	-200,000	0,014	0,131
-117,380	172,298	0,125	0,127
-116,366	-200,000	0,002	0,022
-115,351	-176,118	-0,090	0,002
-114,337	-166,978	-0,181	-0,005
-113,322	-148,561	-0,031	0,002
-112,307	-200,000	-0,035	0,122
-111,293	-131,481	-0,103	-0,010
-110,278	128,202	0,093	-0,085
-109,264	-86,577	0,076	-0,016
-108,249	-174,183	-0,092	0,002
-107,234	19,682	0,111	-0,063
-106,220	-31,149	-0,076	-0,030
-105,205	-1,174	0,046	-0,023
-104,191	0,264	-0,082	0,042
-103,176	-83,798	0,070	-0,016
-102,162	519,571	-0,045	-0,076
-101,147	28,290	-0,134	-0,080
-100,132	106,718	-0,107	-0,090
-99,118	60,034	0,050	0,035
-98,103	-122,703	0,014	0,002
-97,089	271,951	-0,030	0,037
-96,074	-51,749	0,059	0,020
-95,059	-101,505	-0,084	-0,014
-94,045	-42,265	-0,026	-0,009
-93,030	-81,545	0,024	-0,005
-92,016	109,928	-0,137	0,117
-91,001	-200,000	0,031	0,150
-89,986	299,265	0,091	0,119
-88,972	84,099	-0,069	-0,054
-87,957	-200,000	0,004	0,031
-86,943	429,236	-0,054	-0,083
-85,928	357,349	-0,083	-0,117
-84,913	-101,092	0,106	-0,018
-83,899	-21,091	0,118	-0,051
-82,884	-157,336	0,043	-0,002
-81,870	253,602	-0,100	-0,122
-80,855	-200,000	0,008	0,146
-79,840	800,000	-0,056	0,134
-78,826	-200,000	-0,019	0,082
-77,811	-200,000	-0,004	-0,047
-76,797	-78,501	0,055	-0,013
-75,782	-200,000	0,012	0,083
-74,767	800,000	0,042	-0,120
-73,753	32,993	0,042	0,026
-72,738	-6,729	-0,106	-0,051
-71,724	457,161	0,020	-0,032
-70,709	-1,960	0,195	-0,097
-69,694	-88,624	-0,087	-0,018
-68,680	-200,000	-0,003	-0,122
-67,665	135,842	-0,023	0,021
-66,651	269,223	-0,019	-0,024
-65,636	-8,363	0,032	0,015
-64,622	38,964	-0,048	0,030
-63,607	-85,801	-0,079	0,017
-62,592	-200,000	-0,011	-0,052
-61,578	800,000	0,010	-0,019
-60,563	-200,000	0,015	0,065
-59,549	425,117	-0,063	0,097
-58,534	-74,310	-1,294	-0,329
-57,519	338,929	-1,565	-2,169
-56,505	-200,000	-0,471	-4,367
-55,490	60,896	0,953	0,670
-54,476	800,000	4,831	11,121
-53,461	-200,000	17,048	266,865
-52,446	800,000	713,717	2176,063
-51,432	552,250	1628,585	2785,856
-50,417	81,520	1654,783	1268,431
-49,403	24,445	1529,325	894,901
-48,388	18,486	1452,734	821,409
-47,373	18,525	1442,113	815,557
-46,359	18,317	1432,910	809,330
-45,344	16,821	1428,243	799,569
-44,330	16,698	1426,535	797,996
-43,315	16,754	1424,701	797,203
-42,300	16,764	1423,128	796,341
-41,286	16,792	1421,984	795,801
-40,271	16,767	1420,547	794,847
-39,257	16,755	1419,342	794,084
-38,242	16,786	1418,028	793,462
-37,227	16,773	1417,059	792,831
-36,213	16,775	1415,483	791,924
-35,198	16,755	1414,378	791,181
-34,184	16,713	1413,642	790,539
-33,169	16,712	1412,258	789,731
-32,154	16,742	1411,365	789,339
-31,140	16,788	1409,907	788,710
-30,125	16,826	1408,639	788,149
-29,111	16,776	1407,826	787,425
-28,096	16,772	1406,290	786,518
-27,082	16,699	1405,495	785,702
-26,067	16,718	1404,275	785,076
-25,052	16,684	1403,366	784,380
-24,038	16,721	1402,294	783,921
-23,023	16,666	1401,207	783,024
-22,009	16,633	1400,345	782,360
-20,994	16,630	1399,294	781,725
-19,979	16,651	1398,436	781,314
-18,965	16,618	1397,436	780,571
-17,950	16,599	1396,518	779,941
-16,936	16,666	1395,506	779,654
-15,921	16,554	1394,425	778,500
-14,906	16,614	1393,301	778,122
-13,892	16,643	1392,461	777,752
-12,877	16,602	1391,682	777,100
-11,863	16,583	1390,845	776,515
-10,848	16,565	1390,027	775,942
-9,833	16,613	1388,775	775,432
-8,819	16,550	1387,962	774,660
-7,804	16,507	1387,103	773,950
-6,790	16,499	1386,035	773,287
-5,775	16,481	1384,839	772,508
-4,760	16,469	1384,278	772,107
-3,746	16,501	1383,402	771,734
-2,731	16,436	1382,755	771,047
-1,717	16,476	1381,448	770,470
-0,702	16,508	1379,546	769,527
0,313	20,249	1301,737	743,377
1,327	36,708	708,096	442,577
2,342	56,171	125,948	86,576
3,356	5,922	16,485	8,624
4,371	3,823	3,120	1,610
5,386	17,513	0,490	0,275
6,400	412,304	0,032	0,049
7,415	129,921	-0,177	-0,161
8,429	400,734	-0,184	-0,274
9,444	29,640	-0,449	-0,270
10,459	94,845	-0,231	-0,186
11,473	126,422	-0,243	-0,218
12,488	127,013	-0,300	-0,269
13,502	80,215	-0,361	-0,275
14,517	-28,428	-0,349	-0,142
15,531	116,720	-0,394	-0,342
16,546	-182,646	-0,324	-0,004
17,561	26,049	-0,398	-0,235
18,575	290,086	-0,220	-0,283
19,590	109,501	-0,317	-0,268
20,604	-88,560	-0,281	-0,059
21,619	-6,412	-0,460	-0,221
22,634	9,717	-0,475	-0,254
23,648	79,006	-0,359	-0,272
24,663	-64,546	-0,350	-0,100
25,677	94,959	-0,295	-0,237
26,692	144,145	-0,349	-0,330
27,707	277,741	-0,336	-0,424
28,721	110,180	-0,346	-0,294
29,736	13,842	-0,424	-0,232
30,750	91,847	-0,279	-0,222
31,765	132,808	-0,410	-0,374
32,780	8,969	-0,385	-0,205
33,794	197,210	-0,288	-0,312
34,809	109,589	-0,369	-0,313
35,823	48,563	-0,372	-0,246
36,838	79,759	-0,426	-0,323
37,853	110,449	-0,371	-0,315
38,867	348,996	-0,296	-0,414
39,882	37,334	-0,390	-0,244
40,896	105,433	-0,280	-0,234
41,911	7,478	-0,229	-0,120
42,926	-27,156	-0,379	-0,155
43,940	-77,830	-0,396	-0,096
44,955	108,134	-0,355	-0,299
45,969	25,521	-0,422	-0,247
46,984	184,994	-0,226	-0,237
47,999	-32,370	-0,298	-0,117
49,013	113,021	-0,243	-0,208
50,028	186,642	-0,274	-0,288
51,042	393,485	-0,285	-0,420
52,057	45,915	-0,492	-0,321
53,071	75,371	-0,321	-0,239
54,086	217,730	-0,233	-0,263
55,101	161,701	-0,259	-0,256
56,115	48,253	-0,316	-0,208
57,130	95,799	-0,305	-0,246
58,144	-7,045	-0,357	-0,171
59,159	43,092	-0,352	-0,226
60,174	33,051	-0,422	-0,257
61,188	252,073	-0,254	-0,306
62,203	35,063	-0,329	-0,203
63,217	11,607	-0,329	-0,177
64,232	60,545	-0,330	-0,230
65,247	427,947	-0,233	-0,356
66,261	89,172	-0,353	-0,277
67,276	68,881	-0,426	-0,308
68,290	43,824	-0,372	-0,240
69,305	-44,187	-0,338	-0,119
70,320	-83,010	-0,291	-0,066
71,334	207,432	-0,208	-0,229
72,349	54,851	-0,337	-0,229
73,363	27,750	-0,385	-0,228
74,378	45,521	-0,405	-0,263
75,393	111,124	-0,181	-0,153
76,407	157,784	-0,258	-0,252
77,422	40,169	-0,287	-0,181
78,436	-81,048	-0,335	-0,077
79,451	65,595	-0,205	-0,146
80,466	29,755	-0,340	-0,203
81,480	123,149	-0,250	-0,220
82,495	-27,785	-0,355	-0,144
83,509	10,218	-0,214	-0,114
84,524	119,759	-0,268	-0,233
85,539	-34,866	-0,301	-0,115
86,553	60,373	-0,339	-0,236
87,568	-2,948	-0,462	-0,226
88,582	54,143	-0,274	-0,185
89,597	50,121	-0,365	-0,242
90,611	46,992	-0,307	-0,200
91,626	5,889	-0,186	-0,097
92,641	152,516	-0,255	-0,245
93,655	2,914	-0,286	-0,146
94,670	91,073	-0,220	-0,173
95,684	26,424	-0,214	-0,126
96,699	199,864	-0,275	-0,298
97,714	159,867	-0,196	-0,192
98,728	119,739	-0,312	-0,271
99,743	106,246	-0,117	-0,097
100,757	48,985	-0,341	-0,225
101,772	32,753	-0,235	-0,143
102,787	41,462	-0,210	-0,133
103,801	31,304	-0,335	-0,202
104,816	800,000	-0,087	-0,171
105,830	-160,089	-0,362	-0,014
106,845	93,043	-0,284	-0,225
107,860	107,181	-0,245	-0,204
108,874	93,511	-0,313	-0,248
109,889	18,365	-0,299	-0,167
110,903	165,316	-0,255	-0,254
111,918	-59,565	-0,359	-0,108
112,933	205,733	-0,146	-0,159
113,947	314,293	-0,213	-0,283
114,962	56,476	-0,323	-0,220
115,976	800,000	-0,194	-0,429
116,991	418,906	-0,192	-0,289
118,006	104,599	-0,351	-0,290
119,020	286,960	-0,162	-0,206
120,035	-200,000	-0,016	-0,058
121,049	-22,997	-0,210	-0,088
122,064	61,692	-0,194	-0,135
123,079	322,249	-0,142	-0,190
124,093	28,908	-0,229	-0,136
125,108	-26,301	-0,384	-0,157
126,122	-41,603	-0,138	0,049
127,137	310,923	-0,151	-0,199
128,151	38,346	-0,171	-0,106
129,166	-109,776	-0,273	-0,040
130,181	-64,612	-0,342	-0,097
131,195	83,515	-0,200	-0,153
132,210	198,124	-0,181	-0,194
133,224	31,692	-0,223	-0,134
134,239	-54,523	-0,215	-0,068
135,254	173,305	-0,193	-0,195
136,268	58,465	-0,085	-0,058
137,283	-12,577	-0,349	-0,159
138,297	26,676	-0,272	-0,159
139,312	-0,812	-0,289	-0,143
140,327	-35,167	-0,305	-0,116
141,341	131,663	-0,201	-0,181
142,356	-32,606	-0,238	-0,092
143,370	106,148	-0,221	-0,183
144,385	150,701	-0,236	-0,225
145,400	165,270	-0,262	-0,259
146,414	147,257	-0,263	-0,248
147,429	76,993	-0,285	-0,212
148,443	54,196	-0,204	-0,137
149,458	73,982	-0,227	-0,166
150,473	235,305	-0,165	-0,190
151,487	93,747	-0,168	-0,133
152,502	36,669	-0,359	-0,221
153,516	-31,840	-0,338	-0,132
154,531	10,827	-0,344	-0,183
155,546	-107,783	-0,249	-0,038
156,560	129,049	-0,265	-0,236
157,575	12,578	-0,244	-0,132
158,589	-0,927	-0,099	-0,049
159,604	86,519	-0,238	-0,183
160,619	-13,042	-0,316	-0,143
161,633	51,673	-0,325	-0,216
162,648	87,239	-0,207	-0,160
163,662	80,002	-0,255	-0,192
164,677	800,000	-0,071	-0,185
165,692	183,523	-0,150	-0,155
166,706	-200,000	-0,078	-0,241
167,721	-96,174	-0,399	-0,073
168,735	140,250	-0,244	-0,225
169,750	118,347	-0,159	-0,137
170,764	38,967	-0,056	-0,035
171,779	-123,259	-0,293	-0,032
172,794	3,224	-0,362	-0,183
173,808	436,704	-0,134	-0,205
174,823	-38,269	-0,326	-0,120
175,837	154,606	-0,202	-0,194
176,852	7,106	-0,287	-0,149
177,867	91,076	-0,151	-0,118
178,881	129,052	-0,174	-0,155
179,896	194,931	-0,241	-0,256
180,910	149,264	-0,329	-0,311
181,925	800,000	-0,094	-0,251
182,940	-33,195	-0,250	-0,096
183,954	176,117	-0,292	-0,296
184,969	83,337	-0,177	-0,135
185,983	33,870	-0,290	-0,175
186,998	295,572	-0,145	-0,186
188,013	614,139	-0,128	-0,225
189,027	258,672	-0,242	-0,291
190,042	-44,086	-0,216	-0,075
191,056	747,268	-0,144	-0,271
192,071	100,055	-0,195	-0,158
193,086	-158,090	-0,319	-0,013
194,100	-54,568	-0,236	0,074
195,115	-40,314	-0,149	-0,054
196,129	-200,000	-0,073	-0,248
197,144	87,960	-0,227	-0,175
198,159	92,722	-0,228	-0,179
199,173	220,142	-0,131	-0,147
200,188	-53,666	-0,153	-0,048
201,202	75,716	-0,115	-0,084
202,217	-168,715	-0,273	0,007
203,232	64,358	-0,239	-0,168
204,246	59,399	-0,196	-0,134
205,261	-139,925	-0,265	-0,019
206,275	-49,489	-0,169	-0,056
207,290	-200,000	-0,026	-0,122
208,304	-41,337	-0,156	0,056
209,319	108,470	-0,214	-0,178
210,334	140,111	-0,167	-0,153
211,348	194,504	-0,165	-0,174
212,363	99,088	-0,182	-0,146
213,377	666,027	-0,099	-0,178
214,392	800,000	-0,058	-0,113
215,407	357,830	-0,118	-0,165
216,421	50,696	-0,166	-0,109
217,436	-1,732	-0,210	-0,103
218,450	34,867	-0,254	-0,154
219,465	657,729	-0,154	-0,277
220,480	40,005	-0,254	-0,159
221,494	135,102	-0,166	-0,150
222,509	-48,435	-0,125	-0,042
223,523	-61,993	-0,214	-0,062
224,538	262,744	-0,170	-0,205
225,553	249,464	-0,162	-0,191
226,567	98,626	-0,200	-0,160
227,582	-83,633	-0,292	-0,064
228,596	-67,216	-0,166	-0,045
229,611	644,230	-0,030	-0,053
230,626	297,256	-0,164	-0,210
231,640	57,625	-0,259	-0,176
232,655	1,266	-0,199	-0,099
233,669	97,869	-0,167	-0,134
234,684	271,182	-0,122	-0,150
235,699	-156,289	-0,233	0,010
236,713	136,298	-0,151	-0,137
237,728	8,629	-0,274	-0,143
238,742	41,952	-0,107	-0,067
239,757	88,008	-0,193	-0,148
240,772	44,910	-0,214	-0,136
241,786	210,467	-0,201	-0,219
242,801	-23,468	-0,170	-0,070
243,815	279,490	-0,145	-0,179
244,830	143,307	-0,089	-0,083
245,844	94,013	-0,154	-0,121
246,859	190,753	-0,220	-0,229
247,874	171,506	-0,168	-0,168
248,888	31,390	-0,210	-0,125
249,903	117,104	-0,136	-0,116
250,917	-178,657	-0,158	-0,002
251,932	-79,234	-0,071	-0,016
252,947	35,601	-0,174	0,106
253,961	-117,975	-0,096	0,012
254,976	22,206	-0,175	-0,099
255,990	-19,748	-0,206	-0,088
257,005	-200,000	-0,052	-0,181
258,020	-52,272	-0,074	-0,024
259,034	4,525	-0,106	-0,054
260,049	44,291	-0,094	-0,059
261,063	-11,777	-0,127	-0,058
262,078	70,521	-0,310	-0,222
263,093	105,254	-0,263	-0,215
264,107	-145,296	-0,229	-0,014
265,122	111,767	-0,068	-0,057
266,136	-55,680	-0,112	-0,035
267,151	-112,951	-0,099	-0,013
268,166	284,235	-0,158	-0,197
269,180	-60,753	-0,168	-0,049
270,195	112,904	-0,234	-0,196
271,209	28,189	-0,232	-0,135
272,224	55,534	-0,231	-0,154
273,239	619,068	-0,077	-0,135
274,253	-55,217	-0,284	-0,088
275,268	121,804	-0,151	-0,130
276,282	140,947	-0,175	-0,160
277,297	160,274	-0,121	-0,117
278,312	35,213	-0,205	-0,124
279,326	-200,000	0,000	-0,147
280,341	82,511	-0,100	-0,075
281,355	185,382	-0,118	-0,121
282,370	800,000	-0,105	-0,206
283,384	374,438	-0,085	-0,120
284,399	336,595	-0,239	-0,322
285,414	119,462	-0,137	-0,117
286,428	166,317	-0,182	-0,178
287,443	28,462	-0,130	0,076
288,457	33,072	-0,180	-0,107
289,472	255,487	-0,143	-0,169
290,487	-8,709	-0,238	-0,110
291,501	48,749	-0,306	-0,198
292,516	-17,406	-0,185	-0,080
293,530	-73,154	-0,255	-0,064
294,545	171,028	-0,028	0,027
295,560	-137,313	-0,217	-0,017
296,574	-109,451	-0,227	0,033
297,589	15,979	-0,152	0,082
298,603	64,802	-0,198	-0,138
299,618	-200,000	-0,067	-0,294
300,633	-52,418	-0,164	-0,052
301,647	-34,732	-0,070	-0,026
302,662	-168,064	-0,124	0,003
303,676	11,924	-0,129	-0,068
304,691	164,757	-0,174	-0,170
305,706	800,000	-0,066	-0,133
306,720	649,129	-0,186	-0,331
307,735	247,623	-0,164	-0,192
308,749	-121,274	-0,106	0,012
309,764	-67,147	-0,255	0,069
310,779	124,972	-0,143	-0,124
311,793	174,011	-0,182	-0,182
312,808	-9,727	-0,177	-0,081
313,822	350,446	-0,118	-0,161
314,837	-150,500	-0,139	-0,007
315,852	712,800	-0,061	-0,112
316,866	120,998	-0,089	-0,077
317,881	-133,694	-0,031	-0,003
318,895	57,119	-0,229	-0,154
319,910	-93,049	-0,157	-0,030
320,925	-62,491	-0,201	-0,057
321,939	145,112	-0,121	-0,112
322,954	800,000	-0,016	-0,049
323,968	-44,265	-0,071	-0,024
324,983	251,330	-0,083	-0,097
325,997	-126,352	-0,173	-0,018
327,012	175,766	-0,195	-0,195
328,027	167,801	-0,153	-0,150
329,041	92,291	-0,112	-0,087
330,056	87,138	-0,052	-0,040
331,070	167,534	-0,085	0,083
332,085	45,401	-0,143	-0,091
333,100	128,174	-0,139	-0,122
334,114	140,471	-0,104	-0,094
335,129	800,000	-0,088	-0,168
336,143	-41,871	-0,175	-0,062
337,158	67,676	-0,101	-0,071
338,173	17,661	-0,113	-0,062
339,187	-32,752	-0,134	-0,051
340,202	-161,372	-0,268	-0,009
341,216	50,493	-0,153	-0,099
342,231	192,631	-0,107	-0,111
343,246	263,794	-0,148	-0,177
344,260	557,151	-0,056	-0,093
345,275	97,538	-0,071	-0,056
346,289	-117,551	-0,206	-0,025
347,304	290,737	-0,040	-0,051
348,319	221,629	-0,069	-0,077
349,333	-200,000	-0,043	-0,230
350,348	69,310	-0,122	-0,086
351,362	251,561	-0,178	-0,209
352,377	442,078	-0,091	-0,138
353,392	800,000	-0,110	-0,211
354,406	-86,698	-0,127	0,026
355,421	211,017	1313,370	1421,179
356,435	162,471	1473,975	1421,717
