DTS Sentinel unit serial number:	SN410029Multiplexer serial number:	ORYXHardware model number:	OX2-SRSoftware version number:	ORYX F/W v4,00 Oryx Data Collector v3.7.2.0data status	okinstallation	B3 Nyhavnadifferential loss correction	single-endedforward channel	channel 1reverse channel	N/Adate	2023/11/30time	05:52:30forward acquisition time	300,00reverse acquisition time	0,00gamma	499,1914k internal	0,3210k external	0,3210temperature offset calibration	1,0000default loss term (dB/km)	0,3820temperature slope calibration	1,0000multiplexer offset coefficient	1,0000multiplexer slope coefficient	1,0000fibre end	0,00T internal ref (°C)	10,27T ext. ref 1 (°C)	-4,95T ext. ref 2 (°C)	-5,05length (m)	temperature (°C)	Stokes	anti-Stokes-744,400	635,075	-0,145	-0,267
-743,385	800,000	-0,067	0,212
-742,371	399,978	-0,140	-0,214
-741,356	-200,000	0,029	0,154
-740,342	800,000	-0,060	-0,154
-739,327	-200,000	0,038	0,240
-738,312	800,000	-0,129	-0,272
-737,298	504,584	-0,152	0,256
-736,283	720,802	-0,118	-0,228
-735,269	800,000	-0,064	0,193
-734,254	203,120	-0,185	-0,207
-733,239	68,997	-0,222	0,165
-732,225	800,000	-0,127	-0,397
-731,210	421,316	0,025	0,038
-730,196	538,703	0,009	0,015
-729,181	163,635	-0,054	-0,055
-728,167	322,069	-0,096	-0,133
-727,152	-64,675	0,061	-0,018
-726,137	-200,000	-0,002	0,033
-725,123	800,000	0,025	0,066
-724,108	-127,988	-0,060	0,006
-723,094	-200,000	0,000	-0,082
-722,079	-200,000	-0,013	-0,103
-721,064	-35,590	-0,043	-0,017
-720,050	-82,953	0,088	-0,020
-719,035	293,491	-0,082	0,109
-718,021	-200,000	0,007	0,083
-717,006	-68,985	-0,099	0,027
-715,991	-111,534	-0,071	-0,010
-714,977	175,191	-0,058	-0,061
-713,962	143,845	0,102	-0,099
-712,948	-108,048	-0,092	-0,014
-711,933	-31,031	0,053	-0,021
-710,918	119,132	-0,060	0,054
-709,904	-128,792	-0,076	0,008
-708,889	-137,586	-0,059	-0,005
-707,875	800,000	-0,059	-0,125
-706,860	-200,000	0,046	-0,162
-705,845	-97,517	0,039	0,007
-704,831	404,045	-0,003	0,005
-703,816	187,033	-0,052	-0,056
-702,802	44,403	0,031	0,021
-701,787	592,567	-0,026	0,046
-700,772	228,153	-0,025	0,030
-699,758	-200,000	-0,029	0,109
-698,743	25,583	-0,016	-0,009
-697,729	45,892	-0,138	0,092
-696,714	11,379	-0,044	-0,024
-695,699	-200,000	-0,012	-0,104
-694,685	270,260	-0,048	-0,062
-693,670	-200,000	0,057	-0,212
-692,656	-200,000	0,017	-0,070
-691,641	643,144	0,006	0,012
-690,627	204,200	0,086	-0,096
-689,612	227,042	-0,104	-0,122
-688,597	62,599	-0,058	-0,042
-687,583	74,311	-0,100	-0,076
-686,568	800,000	-0,055	-0,131
-685,554	751,685	-0,065	0,127
-684,539	-96,652	0,103	0,019
-683,524	800,000	0,050	0,101
-682,510	-94,637	-0,182	0,036
-681,495	-200,000	-0,018	-0,091
-680,481	-117,610	-0,100	0,013
-679,466	339,134	0,080	-0,113
-678,451	232,195	-0,065	0,078
-677,437	135,627	-0,065	0,061
-676,422	-73,136	0,122	0,032
-675,408	219,104	-0,039	-0,045
-674,393	-114,634	0,170	0,023
-673,378	-4,500	-0,112	0,056
-672,364	-81,761	-0,208	-0,049
-671,349	-200,000	0,020	-0,114
-670,335	-200,000	0,004	-0,132
-669,320	-20,314	0,159	0,071
-668,305	800,000	0,075	0,188
-667,291	-19,542	-0,061	-0,027
-666,276	539,800	-0,055	-0,095
-665,262	-200,000	-0,006	0,029
-664,247	800,000	-0,042	-0,088
-663,232	-136,114	-0,007	0,001
-662,218	-200,000	0,000	0,159
-661,203	-200,000	0,034	-0,151
-660,189	-200,000	0,002	0,043
-659,174	-30,009	-0,062	0,025
-658,159	-7,517	-0,143	0,070
-657,145	402,670	-0,014	-0,021
-656,130	167,828	-0,035	-0,036
-655,116	135,511	0,103	0,097
-654,101	-2,803	-0,083	0,042
-653,086	-200,000	0,003	0,078
-652,072	-54,446	-0,105	0,034
-651,057	578,566	0,030	0,052
-650,043	192,010	-0,056	0,061
-649,028	-200,000	0,008	-0,100
-648,014	800,000	0,007	0,015
-646,999	0,314	0,116	-0,060
-645,984	50,043	0,014	-0,010
-644,970	719,640	0,036	-0,070
-643,955	48,140	-0,030	0,021
-642,941	23,975	-0,066	0,039
-641,926	-75,354	-0,064	0,016
-640,911	246,158	0,010	0,012
-639,897	-200,000	0,004	0,091
-638,882	-157,159	0,037	0,002
-637,868	-79,293	-0,029	0,007
-636,853	30,479	-0,084	-0,052
-635,838	800,000	-0,039	-0,104
-634,824	361,013	0,030	0,044
-633,809	26,471	0,061	-0,037
-632,795	-133,460	-0,103	0,009
-631,780	28,099	-0,054	0,033
-630,765	233,131	-0,087	0,104
-629,751	-3,304	0,031	-0,015
-628,736	36,951	-0,009	0,005
-627,722	-200,000	-0,034	0,126
-626,707	44,215	0,047	0,031
-625,692	-42,709	-0,025	0,009
-624,678	-200,000	-0,013	0,074
-623,663	-78,205	0,193	-0,048
-622,649	362,106	0,061	-0,089
-621,634	-200,000	-0,025	-0,212
-620,619	514,056	-0,078	0,131
-619,605	-90,393	0,028	0,006
-618,590	800,000	-0,013	0,029
-617,576	171,394	0,029	-0,030
-616,561	317,456	-0,066	-0,091
-615,546	-200,000	-0,043	-0,144
-614,532	-17,407	-0,096	-0,043
-613,517	48,343	-0,036	0,024
-612,503	64,507	0,094	-0,068
-611,488	-75,534	-0,093	0,024
-610,474	73,754	0,069	0,052
-609,459	800,000	0,009	-0,029
-608,444	800,000	-0,025	-0,054
-607,430	-200,000	0,017	-0,079
-606,415	45,980	-0,110	-0,073
-605,401	680,206	-0,052	-0,098
-604,386	100,598	0,019	-0,016
-603,371	-11,280	0,138	0,065
-602,357	2,013	-0,118	-0,061
-601,342	-200,000	-0,014	-0,146
-600,328	-75,589	-0,109	-0,028
-599,313	800,000	-0,037	-0,102
-598,298	-200,000	-0,016	-0,079
-597,284	473,531	0,079	0,129
-596,269	-166,293	-0,041	-0,001
-595,255	67,745	0,056	0,041
-594,240	212,852	-0,059	-0,067
-593,225	800,000	0,034	-0,103
-592,211	-84,110	-0,142	-0,032
-591,196	800,000	-0,068	0,152
-590,182	130,986	0,089	-0,082
-589,167	12,751	0,011	0,006
-588,152	-127,500	0,110	-0,011
-587,138	13,252	0,069	0,038
-586,123	243,115	-0,073	-0,089
-585,109	-200,000	-0,045	-0,144
-584,094	315,556	-0,057	-0,077
-583,079	299,150	0,087	0,116
-582,065	13,143	-0,090	0,050
-581,050	17,939	0,130	0,074
-580,036	82,973	-0,112	-0,087
-579,021	-93,759	-0,127	0,025
-578,006	-68,095	0,080	-0,022
-576,992	-200,000	-0,015	-0,077
-575,977	-0,496	-0,070	0,036
-574,963	-81,150	0,150	-0,035
-573,948	-164,696	-0,053	0,002
-572,934	315,761	-0,055	0,076
-571,919	-200,000	0,013	-0,198
-570,904	495,550	-0,071	-0,118
-569,890	776,082	-0,019	0,038
-568,875	-33,622	-0,017	-0,007
-567,861	-200,000	0,035	-0,136
-566,846	-200,000	0,008	-0,083
-565,831	115,341	0,084	0,074
-564,817	127,191	-0,121	-0,111
-563,802	223,280	-0,112	-0,131
-562,788	155,416	0,057	0,056
-561,773	-76,899	0,013	-0,003
-560,758	-200,000	0,010	-0,116
-559,744	800,000	0,053	0,118
-558,729	-200,000	0,013	0,193
-557,715	-22,235	-0,161	0,070
-556,700	-113,113	-0,146	0,021
-555,685	167,540	0,095	0,098
-554,671	-200,000	-0,000	0,014
-553,656	-200,000	0,000	0,087
-552,642	-200,000	-0,015	0,129
-551,627	32,685	-0,048	-0,030
-550,612	800,000	0,006	-0,014
-549,598	41,318	-0,070	0,045
-548,583	800,000	0,014	-0,031
-547,569	800,000	0,015	0,032
-546,554	173,389	-0,023	-0,024
-545,539	-200,000	-0,015	0,076
-544,525	800,000	-0,040	0,103
-543,510	6,003	0,014	-0,007
-542,496	228,821	-0,074	0,087
-541,481	-29,468	-0,097	-0,040
-540,466	228,177	0,071	-0,083
-539,452	192,494	0,123	-0,134
-538,437	70,798	0,085	-0,063
-537,423	13,609	0,033	0,018
-536,408	-98,385	-0,022	0,004
-535,393	-77,683	0,019	-0,005
-534,379	-85,527	-0,084	-0,019
-533,364	-7,969	-0,103	-0,050
-532,350	800,000	0,015	0,032
-531,335	-200,000	0,003	0,160
-530,321	-200,000	-0,018	0,123
-529,306	503,660	0,027	-0,045
-528,291	-30,264	0,067	0,027
-527,277	800,000	0,024	-0,056
-526,262	58,111	0,128	-0,090
-525,248	800,000	0,041	-0,100
-524,233	285,869	-0,017	0,022
-523,218	-200,000	0,021	0,091
-522,204	160,607	-0,058	0,059
-521,189	201,958	-0,014	-0,015
-520,175	18,616	-0,052	-0,030
-519,160	224,882	0,016	-0,019
-518,145	-200,000	0,022	0,115
-517,131	109,261	0,070	0,060
-516,116	-21,146	0,131	0,057
-515,102	-200,000	-0,003	0,023
-514,087	147,804	-0,055	-0,054
-513,072	120,677	-0,051	-0,045
-512,058	-34,703	-0,120	-0,047
-511,043	528,686	0,019	-0,033
-510,029	-200,000	0,010	0,183
-509,014	-31,922	0,152	0,061
-507,999	214,143	0,052	-0,059
-506,985	-121,592	-0,085	-0,010
-505,970	-124,750	-0,088	-0,010
-504,956	-45,331	0,172	0,061
-503,941	-82,205	0,080	-0,018
-502,926	-85,567	0,151	-0,034
-501,912	-200,000	-0,007	0,028
-500,897	-86,870	0,085	0,018
-499,883	78,721	-0,073	-0,056
-498,868	-200,000	0,011	0,120
-497,853	-124,254	-0,055	0,006
-496,839	452,623	-0,054	-0,085
-495,824	47,888	0,052	-0,035
-494,810	800,000	-0,061	0,166
-493,795	63,971	0,028	-0,020
-492,781	184,620	-0,126	0,134
-491,766	137,120	-0,014	0,013
-490,751	-200,000	-0,026	-0,163
-489,737	800,000	0,033	-0,086
-488,722	300,941	0,158	0,210
-487,708	236,481	0,124	0,147
-486,693	800,000	-0,020	0,043
-485,678	-200,000	0,027	-0,124
-484,664	30,058	-0,114	-0,069
-483,649	280,009	0,088	-0,113
-482,635	-200,000	0,031	-0,215
-481,620	-103,194	0,022	-0,004
-480,605	137,655	0,071	-0,066
-479,591	800,000	0,046	0,130
-478,576	-51,153	-0,177	0,059
-477,562	100,763	-0,048	-0,040
-476,547	457,537	-0,024	-0,039
-475,532	279,306	-0,047	0,060
-474,518	-200,000	0,003	-0,141
-473,503	295,216	-0,029	0,039
-472,489	254,606	-0,017	0,021
-471,474	87,687	0,034	-0,027
-470,459	317,937	-0,039	0,053
-469,445	800,000	0,037	0,075
-468,430	60,936	-0,158	0,112
-467,416	-65,460	0,064	0,018
-466,401	151,740	0,019	0,019
-465,386	219,479	0,045	-0,051
-464,372	-200,000	-0,020	0,109
-463,357	800,000	0,010	0,024
-462,343	104,403	-0,030	-0,025
-461,328	800,000	-0,016	-0,045
-460,313	-200,000	-0,005	-0,019
-459,299	167,120	-0,053	0,054
-458,284	-134,347	0,172	-0,015
-457,270	800,000	-0,032	0,083
-456,255	800,000	0,040	-0,112
-455,241	340,395	-0,051	-0,072
-454,226	-65,730	-0,088	0,025
-453,211	238,819	0,082	-0,098
-452,197	-200,000	0,026	0,088
-451,182	-200,000	0,006	0,122
-450,168	800,000	-0,080	0,185
-449,153	-200,000	-0,003	0,046
-448,138	20,205	-0,153	-0,088
-447,124	800,000	0,053	-0,138
-446,109	-38,423	0,065	-0,025
-445,095	152,357	0,063	-0,062
-444,080	503,327	-0,042	0,071
-443,065	-47,877	0,067	0,023
-442,051	800,000	0,021	0,062
-441,036	-78,733	-0,122	-0,030
-440,022	-47,910	-0,073	-0,025
-439,007	800,000	0,009	0,026
-437,992	-97,392	0,069	0,013
-436,978	-177,526	-0,082	-0,001
-435,963	91,689	-0,145	0,116
-434,949	125,087	-0,087	-0,078
-433,934	-12,808	-0,124	-0,058
-432,919	-200,000	-0,022	-0,082
-431,905	-200,000	0,021	-0,135
-430,890	162,012	0,043	0,043
-429,876	25,083	0,071	-0,042
-428,861	60,249	0,054	-0,038
-427,846	239,333	-0,136	-0,163
-426,832	51,294	-0,081	-0,055
-425,817	-65,677	0,017	0,005
-424,803	517,888	-0,026	-0,044
-423,788	800,000	-0,059	0,123
-422,773	-101,967	0,130	-0,022
-421,759	-200,000	-0,019	0,080
-420,744	-7,633	0,130	0,063
-419,730	734,052	-0,046	0,088
-418,715	231,610	-0,087	-0,103
-417,701	-200,000	-0,000	0,005
-416,686	85,373	0,078	-0,061
-415,671	800,000	-0,025	0,068
-414,657	-59,436	0,126	-0,038
-413,642	19,082	-0,106	-0,061
-412,628	448,431	-0,111	-0,175
-411,613	428,010	-0,074	-0,114
-410,598	-200,000	0,005	-0,069
-409,584	0,639	0,155	0,079
-408,569	-200,000	0,004	0,075
-407,555	-200,000	0,003	0,031
-406,540	283,927	-0,048	0,062
-405,525	800,000	0,038	-0,105
-404,511	-200,000	0,005	-0,018
-403,496	18,321	0,068	-0,039
-402,482	800,000	0,055	0,127
-401,467	800,000	-0,040	0,114
-400,452	84,066	0,123	0,096
-399,438	184,846	0,061	0,065
-398,423	-200,000	-0,012	-0,103
-397,409	204,253	0,133	-0,148
-396,394	90,663	-0,093	-0,075
-395,379	202,182	0,042	-0,046
-394,365	52,242	0,066	0,045
-393,350	101,915	0,048	0,040
-392,336	800,000	0,079	0,243
-391,321	-136,469	-0,087	0,007
-390,306	-200,000	-0,003	-0,035
-389,292	46,530	-0,026	0,017
-388,277	-200,000	-0,031	-0,147
-387,263	800,000	0,034	0,085
-386,248	-126,075	-0,112	-0,012
-385,233	-200,000	0,000	0,095
-384,219	5,355	0,104	0,055
-383,204	219,342	-0,010	0,011
-382,190	-90,662	-0,146	-0,030
-381,175	-61,921	0,063	-0,019
-380,160	-50,558	0,172	0,058
-379,146	113,080	-0,048	-0,042
-378,131	-200,000	0,007	-0,054
-377,117	188,179	-0,064	0,068
-376,102	-111,534	-0,152	-0,022
-375,088	-66,460	0,102	0,029
-374,073	-19,170	0,026	-0,012
-373,058	-17,718	0,099	0,044
-372,044	800,000	0,026	0,058
-371,029	48,368	0,054	-0,036
-370,015	-149,090	-0,055	-0,003
-369,000	76,901	-0,004	0,003
-367,985	-200,000	0,025	-0,132
-366,971	-56,457	-0,052	-0,016
-365,956	47,066	-0,125	0,083
-364,942	-200,000	0,002	0,126
-363,927	-158,893	0,089	0,004
-362,912	-200,000	-0,001	-0,004
-361,898	177,788	-0,102	-0,106
-360,883	37,588	-0,033	0,021
-359,869	-200,000	0,010	-0,049
-358,854	-97,379	0,232	-0,043
-357,839	-200,000	0,029	0,115
-356,825	-200,000	-0,011	0,116
-355,810	45,514	0,120	0,079
-354,796	-147,860	-0,054	-0,003
-353,781	-200,000	-0,029	-0,125
-352,766	208,042	-0,052	0,058
-351,752	207,113	0,034	-0,037
-350,737	281,996	0,024	0,031
-349,723	-200,000	-0,026	0,093
-348,708	800,000	0,026	0,077
-347,693	800,000	0,060	-0,120
-346,679	150,147	-0,148	-0,144
-345,664	33,452	0,092	-0,057
-344,650	32,293	-0,018	-0,011
-343,635	800,000	-0,060	0,121
-342,620	-73,067	0,083	0,022
-341,606	-200,000	-0,008	0,030
-340,591	160,832	-0,085	0,085
-339,577	-200,000	0,007	-0,024
-338,562	800,000	0,048	-0,134
-337,548	-200,000	-0,011	0,097
-336,533	82,428	0,036	0,028
-335,518	-130,207	0,153	0,015
-334,504	-94,517	0,032	-0,006
-333,489	-44,191	0,047	-0,017
-332,475	266,687	0,026	-0,032
-331,460	800,000	-0,067	-0,144
-330,445	9,933	0,027	0,014
-329,431	-200,000	-0,046	0,156
-328,416	-79,422	0,208	-0,050
-327,402	800,000	0,070	0,183
-326,387	466,234	0,045	-0,072
-325,372	185,516	-0,052	0,055
-324,358	125,242	0,018	0,016
-323,343	297,411	-0,082	0,107
-322,329	15,237	0,131	-0,073
-321,314	-84,679	0,130	-0,029
-320,299	-170,116	-0,084	-0,002
-319,285	-8,822	-0,141	0,067
-318,270	-24,830	-0,137	-0,058
-317,256	0,849	-0,066	0,034
-316,241	-200,000	-0,018	-0,230
-315,226	157,740	0,134	0,133
-314,212	19,174	0,041	0,023
-313,197	144,212	-0,020	0,019
-312,183	-103,969	-0,093	-0,015
-311,168	179,624	0,028	0,029
-310,153	497,633	0,061	-0,100
-309,139	-66,207	0,101	-0,028
-308,124	121,529	-0,037	0,033
-307,110	79,047	-0,042	0,032
-306,095	94,204	0,064	0,052
-305,080	-200,000	-0,007	-0,034
-304,066	141,372	0,073	-0,069
-303,051	118,119	0,085	-0,075
-302,037	-200,000	0,015	0,185
-301,022	-124,220	-0,127	0,014
-300,008	47,536	0,148	0,098
-298,993	-200,000	-0,020	-0,142
-297,978	-128,911	0,101	0,010
-296,964	800,000	0,034	-0,086
-295,949	-41,982	-0,113	-0,041
-294,935	-200,000	-0,006	-0,048
-293,920	800,000	0,039	0,084
-292,905	800,000	-0,061	0,124
-291,891	267,596	-0,063	0,079
-290,876	-200,000	0,004	0,084
-289,862	-9,372	-0,067	0,032
-288,847	-200,000	-0,025	0,116
-287,832	-104,758	-0,056	0,009
-286,818	-29,114	0,056	-0,023
-285,803	613,579	0,085	0,151
-284,789	800,000	0,017	0,051
-283,774	341,096	0,099	-0,138
-282,759	-200,000	-0,019	-0,155
-281,745	-57,719	-0,169	-0,053
-280,730	51,450	-0,112	-0,075
-279,716	800,000	-0,014	-0,043
-278,701	800,000	0,014	0,033
-277,686	566,435	0,088	0,152
-276,672	800,000	0,035	-0,071
-275,657	-200,000	0,011	-0,054
-274,643	103,223	0,043	0,036
-273,628	-200,000	0,000	-0,021
-272,613	16,320	0,064	-0,036
-271,599	-200,000	0,008	-0,054
-270,584	-200,000	-0,028	0,098
-269,570	800,000	-0,039	-0,084
-268,555	146,896	-0,058	-0,056
-267,540	800,000	0,060	0,133
-266,526	800,000	0,009	0,026
-265,511	-89,165	-0,104	0,022
-264,497	295,160	-0,105	-0,137
-263,482	185,209	-0,025	0,026
-262,467	800,000	0,003	-0,010
-261,453	10,914	0,120	0,065
-260,438	172,910	-0,088	-0,090
-259,424	-200,000	-0,004	0,021
-258,409	-200,000	-0,016	-0,069
-257,395	57,128	0,065	0,045
-256,380	73,531	-0,134	0,100
-255,365	-114,796	0,169	0,023
-254,351	142,131	-0,104	0,098
-253,336	-53,200	-0,056	0,018
-252,322	91,171	0,117	0,093
-251,307	238,506	-0,099	-0,117
-250,292	202,341	-0,055	-0,060
-249,278	800,000	-0,060	-0,140
-248,263	256,746	0,049	-0,059
-247,249	-200,000	0,021	0,083
-246,234	-200,000	-0,018	-0,103
-245,219	217,243	-0,112	-0,127
-244,205	800,000	0,044	-0,133
-243,190	295,350	-0,038	-0,049
-242,176	472,864	0,073	0,118
-241,161	678,310	0,032	0,060
-240,146	800,000	-0,058	0,137
-239,132	-149,938	0,127	-0,007
-238,117	-47,486	-0,134	-0,046
-237,103	-145,818	-0,129	-0,008
-236,088	721,249	-0,076	-0,145
-235,073	800,000	0,056	0,115
-234,059	-200,000	0,057	0,214
-233,044	-3,180	0,074	0,036
-232,030	-72,513	-0,066	0,017
-231,015	-87,504	0,087	0,019
-230,000	-200,000	-0,008	0,040
-228,986	487,464	-0,042	-0,068
-227,971	-18,134	0,233	0,103
-226,957	800,000	0,055	0,116
-225,942	241,822	-0,106	0,127
-224,927	622,547	0,015	-0,026
-223,913	-59,016	-0,124	0,038
-222,898	-68,649	0,143	-0,039
-221,884	-200,000	0,012	-0,163
-220,869	16,526	0,021	-0,012
-219,855	-200,000	-0,018	-0,075
-218,840	-200,000	0,018	0,126
-217,825	-200,000	-0,002	0,065
-216,811	665,017	0,057	-0,104
-215,796	227,060	0,061	0,071
-214,782	-101,015	-0,053	0,009
-213,767	-200,000	0,016	0,052
-212,752	-43,334	0,061	0,022
-211,738	46,441	-0,122	0,080
-210,723	528,906	-0,039	0,066
-209,709	90,768	-0,066	-0,052
-208,694	-0,328	0,073	-0,037
-207,679	-200,000	-0,002	-0,053
-206,665	800,000	0,042	-0,097
-205,650	-43,075	0,081	0,029
-204,636	-200,000	0,006	-0,044
-203,621	264,873	-0,059	-0,073
-202,606	800,000	0,017	-0,041
-201,592	5,898	0,038	-0,020
-200,577	589,961	0,071	-0,124
-199,563	167,948	0,067	-0,068
-198,548	-91,157	-0,077	-0,015
-197,533	138,376	0,173	0,161
-196,519	209,923	0,076	0,085
-195,504	-200,000	0,017	-0,058
-194,490	800,000	-0,048	-0,105
-193,475	272,139	0,040	0,050
-192,460	-30,683	0,040	-0,016
-191,446	-200,000	-0,006	0,152
-190,431	-75,671	0,180	-0,045
-189,417	-67,362	-0,089	0,025
-188,402	31,331	0,097	-0,059
-187,387	-200,000	0,030	-0,163
-186,373	-200,000	0,009	-0,058
-185,358	-116,652	-0,024	-0,003
-184,344	-200,000	0,007	-0,026
-183,329	-11,411	0,028	-0,013
-182,315	-200,000	0,008	0,071
-181,300	248,608	0,057	-0,068
-180,285	3,007	-0,052	-0,027
-179,271	-123,619	-0,077	0,009
-178,256	-111,701	-0,047	-0,007
-177,242	211,934	0,150	0,168
-176,227	-200,000	0,004	-0,036
-175,212	31,134	0,113	0,069
-174,198	124,815	-0,164	0,146
-173,183	-75,069	-0,118	0,030
-172,169	-200,000	0,018	0,175
-171,154	800,000	-0,047	-0,144
-170,139	547,265	-0,034	0,057
-169,125	366,241	-0,019	0,027
-168,110	-200,000	-0,012	0,059
-167,096	430,493	0,026	-0,040
-166,081	-134,437	-0,109	-0,009
-165,066	261,701	-0,012	-0,015
-164,052	258,752	0,033	-0,041
-163,037	800,000	-0,056	-0,161
-162,023	-122,238	0,143	-0,016
-161,008	-2,739	-0,106	0,052
-159,993	-200,000	0,038	0,137
-158,979	332,584	-0,057	0,078
-157,964	-20,979	-0,135	-0,058
-156,950	452,658	-0,087	-0,137
-155,935	-154,532	0,043	0,002
-154,920	-11,582	-0,052	0,024
-153,906	-115,765	-0,069	-0,009
-152,891	800,000	0,044	0,098
-151,877	272,472	-0,053	-0,066
-150,862	393,253	-0,088	-0,131
-149,847	109,156	0,062	0,052
-148,833	-89,305	0,094	0,020
-147,818	800,000	0,029	0,086
-146,804	147,655	-0,038	-0,036
-145,789	800,000	-0,030	0,077
-144,775	160,458	-0,057	0,056
-143,760	-200,000	0,027	0,100
-142,745	-200,000	-0,004	-0,128
-141,731	558,209	-0,075	0,128
-140,716	728,182	0,023	0,044
-139,702	800,000	-0,054	0,107
-138,687	-200,000	-0,017	0,076
-137,672	-200,000	-0,000	-0,101
-136,658	-200,000	-0,007	0,021
-135,643	-200,000	0,002	0,086
-134,629	497,660	0,051	0,083
-133,614	-200,000	0,020	0,186
-132,599	-200,000	0,008	0,043
-131,585	800,000	0,035	0,091
-130,570	-139,160	0,199	0,015
-129,556	518,176	0,042	0,070
-128,541	252,180	0,009	0,010
-127,526	-132,852	0,045	-0,004
-126,512	800,000	0,023	0,055
-125,497	-18,301	0,091	-0,040
-124,483	362,705	-0,069	-0,098
-123,468	-28,525	-0,110	-0,045
-122,453	-200,000	-0,009	0,040
-121,439	-200,000	0,001	0,062
-120,424	-200,000	-0,023	0,111
-119,410	343,695	-0,031	0,043
-118,395	800,000	0,036	-0,086
-117,380	800,000	0,040	0,092
-116,366	310,748	0,087	0,116
-115,351	-200,000	0,003	0,064
-114,337	800,000	-0,034	-0,094
-113,322	-153,718	-0,053	0,003
-112,307	-10,786	-0,163	0,076
-111,293	800,000	-0,026	-0,053
-110,278	-55,322	-0,063	0,020
-109,264	-200,000	0,025	0,081
-108,249	27,467	0,139	0,083
-107,234	-70,219	-0,147	-0,039
-106,220	-39,304	-0,099	-0,037
-105,205	181,878	0,089	0,093
-104,191	-43,699	0,076	-0,027
-103,176	189,602	-0,023	0,024
-102,162	-140,292	0,062	0,005
-101,147	-200,000	0,003	0,202
-100,132	-103,637	-0,170	-0,028
-99,118	-200,000	0,008	-0,039
-98,103	96,329	-0,079	0,064
-97,089	-145,575	0,020	0,001
-96,074	391,865	0,045	0,066
-95,059	-200,000	-0,000	0,086
-94,045	-73,093	-0,048	0,012
-93,030	-200,000	0,001	0,185
-92,016	-200,000	0,008	-0,051
-91,001	-13,602	-0,037	0,017
-89,986	20,023	-0,043	-0,025
-88,972	79,460	0,067	-0,051
-87,957	49,854	-0,068	0,045
-86,943	-200,000	0,026	0,087
-85,928	-49,828	-0,020	-0,007
-84,913	129,620	0,041	0,037
-83,899	89,191	-0,114	0,090
-82,884	452,235	0,058	0,091
-81,870	78,100	-0,048	-0,036
-80,855	104,489	0,068	-0,056
-79,840	800,000	-0,023	0,050
-78,826	-90,924	0,023	0,005
-77,811	800,000	0,057	-0,120
-76,797	431,609	-0,065	0,101
-75,782	-200,000	-0,021	0,097
-74,767	377,016	0,097	0,140
-73,753	-200,000	0,014	-0,060
-72,738	800,000	0,025	0,069
-71,724	263,748	-0,082	-0,102
-70,709	129,109	0,032	-0,029
-69,694	-115,507	-0,078	-0,010
-68,680	-84,334	0,063	-0,014
-67,665	469,293	0,035	0,055
-66,651	166,676	0,100	0,100
-65,636	-34,156	-0,077	-0,030
-64,622	104,849	0,104	-0,087
-63,607	-200,000	-0,042	-0,146
-62,592	-122,235	-0,184	-0,021
-61,578	-200,000	-0,054	0,180
-60,563	-200,000	0,012	0,135
-59,549	-200,000	-0,001	-0,060
-58,534	25,011	-1,976	-1,155
-57,519	619,800	-1,090	-1,942
-56,505	-200,000	-0,242	-4,372
-55,490	500,881	0,882	1,443
-54,476	800,000	5,090	11,243
-53,461	-200,000	21,002	338,220
-52,446	800,000	758,711	2350,940
-51,432	557,685	1661,572	2839,321
-50,417	73,564	1661,718	1227,114
-49,403	18,140	1535,233	862,006
-48,388	12,092	1458,564	789,703
-47,373	19,248	1449,467	819,087
-46,359	15,433	1438,941	794,962
-45,344	10,392	1434,535	768,493
-44,330	10,318	1432,697	767,128
-43,315	10,263	1431,119	765,990
-42,300	10,302	1429,187	765,109
-41,286	10,354	1427,768	764,570
-40,271	10,243	1426,930	763,561
-39,257	10,275	1425,507	762,922
-38,242	10,329	1424,467	762,588
-37,227	10,307	1423,257	761,808
-36,213	10,320	1422,111	761,228
-35,198	10,379	1420,711	760,727
-34,184	10,388	1419,883	760,295
-33,169	10,290	1418,583	759,105
-32,154	10,370	1417,519	758,886
-31,140	10,350	1416,268	758,089
-30,125	10,393	1415,403	757,797
-29,111	10,403	1414,067	757,101
-28,096	10,354	1412,882	756,205
-27,082	10,298	1411,817	755,343
-26,067	10,316	1410,566	754,726
-25,052	10,318	1409,606	754,193
-24,038	10,333	1408,541	753,662
-23,023	10,326	1407,782	753,195
-22,009	10,280	1406,858	752,455
-20,994	10,304	1405,770	751,955
-19,979	10,313	1404,742	751,420
-18,965	10,285	1403,797	750,752
-17,950	10,269	1402,909	750,174
-16,936	10,209	1402,372	749,575
-15,921	10,189	1401,495	748,983
-14,906	10,206	1400,328	748,412
-13,892	10,259	1399,076	747,957
-12,877	10,232	1398,282	747,379
-11,863	10,183	1397,603	746,758
-10,848	10,167	1396,859	746,258
-9,833	10,139	1395,980	745,629
-8,819	10,103	1395,084	744,953
-7,804	10,080	1394,120	744,300
-6,790	10,109	1392,999	743,808
-5,775	10,103	1392,218	743,332
-4,760	10,142	1391,088	742,884
-3,746	10,108	1390,168	742,202
-2,731	10,130	1389,242	741,782
-1,717	10,045	1388,492	740,958
-0,702	10,139	1386,468	740,285
0,313	14,097	1299,633	712,049
1,327	30,207	690,367	414,773
2,342	46,771	119,594	78,235
3,356	0,189	16,354	8,200
4,371	5,281	3,461	1,794
5,386	-23,196	1,112	0,470
6,400	800,000	0,241	0,595
7,415	126,849	-0,109	-0,097
8,429	3,295	-0,308	-0,157
9,444	-19,242	-0,420	-0,183
10,459	22,572	-0,169	-0,097
11,473	102,793	-0,292	-0,241
12,488	7,552	-0,333	-0,175
13,502	-95,677	-0,239	-0,045
14,517	-75,946	-0,275	-0,068
15,531	112,648	-0,312	-0,266
16,546	-18,926	-0,385	-0,168
17,561	376,367	-0,262	-0,379
18,575	60,798	-0,281	-0,196
19,590	42,446	-0,184	-0,118
20,604	396,531	-0,189	-0,279
21,619	83,774	-0,494	-0,379
22,634	66,283	-0,471	-0,337
23,648	65,657	-0,303	-0,216
24,663	48,951	-0,470	-0,310
25,677	-47,068	-0,359	-0,123
26,692	151,736	-0,417	-0,400
27,707	168,472	-0,259	-0,260
28,721	45,544	-0,342	-0,222
29,736	-49,768	-0,482	-0,160
30,750	55,081	-0,408	-0,277
31,765	77,907	-0,377	-0,282
32,780	169,728	-0,297	-0,299
33,794	47,898	-0,349	-0,229
34,809	-17,286	-0,461	-0,203
35,823	41,734	-0,250	-0,159
36,838	-26,047	-0,374	-0,154
37,853	392,323	-0,264	-0,387
38,867	34,956	-0,384	-0,236
39,882	82,501	-0,257	-0,196
40,896	-47,642	-0,322	-0,109
41,911	101,432	-0,435	-0,356
42,926	59,815	-0,395	-0,274
43,940	0,064	-0,339	-0,169
44,955	158,217	-0,275	-0,268
45,969	269,881	-0,336	-0,416
46,984	43,113	-0,345	-0,221
47,999	-60,901	-0,281	-0,083
49,013	119,720	-0,296	-0,258
50,028	-22,768	-0,366	-0,154
51,042	14,572	-0,292	-0,160
52,057	64,639	-0,253	-0,179
53,071	-15,521	-0,506	-0,226
54,086	88,318	-0,401	-0,312
55,101	142,810	-0,227	-0,212
56,115	11,537	-0,378	-0,203
57,130	26,509	-0,493	-0,289
58,144	85,491	-0,300	-0,231
59,159	111,204	-0,442	-0,374
60,174	154,307	-0,366	-0,353
61,188	50,326	-0,254	-0,168
62,203	-12,225	-0,329	-0,151
63,217	169,351	-0,232	-0,232
64,232	61,490	-0,257	-0,179
65,247	341,297	-0,317	-0,436
66,261	37,204	-0,309	-0,192
67,276	35,198	-0,370	-0,227
68,290	-9,771	-0,277	-0,129
69,305	61,773	-0,310	-0,216
70,320	72,456	-0,287	-0,209
71,334	-51,979	-0,286	-0,093
72,349	2,147	-0,305	-0,154
73,363	-86,965	-0,414	-0,088
74,378	14,021	-0,310	-0,169
75,393	42,265	-0,351	-0,223
76,407	170,329	-0,237	-0,238
77,422	22,929	-0,339	-0,194
78,436	29,875	-0,361	-0,215
79,451	-24,619	-0,323	-0,134
80,466	-1,347	-0,318	-0,157
81,480	-19,162	-0,355	-0,154
82,495	-68,926	-0,243	-0,065
83,509	515,788	-0,204	-0,336
84,524	11,389	-0,260	-0,139
85,539	55,746	-0,285	-0,193
86,553	24,825	-0,280	-0,162
87,568	-58,580	-0,380	-0,115
88,582	188,107	-0,280	-0,293
89,597	343,381	-0,272	-0,374
90,611	51,310	-0,287	-0,190
91,626	138,076	-0,170	-0,156
92,641	-50,785	-0,323	-0,106
93,655	185,646	-0,243	-0,253
94,670	222,452	-0,295	-0,333
95,684	159,929	-0,281	-0,275
96,699	6,500	-0,247	-0,128
97,714	162,623	-0,176	-0,173
98,728	110,160	-0,224	-0,188
99,743	23,491	-0,283	-0,163
100,757	124,929	-0,293	-0,258
101,772	43,472	-0,193	-0,123
102,787	6,138	-0,313	-0,162
103,801	800,000	-0,181	-0,433
104,816	216,822	-0,255	-0,284
105,830	122,634	-0,168	-0,147
106,845	254,967	-0,193	-0,232
107,860	165,488	-0,165	-0,163
108,874	-85,181	-0,198	-0,043
109,889	61,098	-0,291	-0,201
110,903	396,836	-0,225	-0,330
111,918	55,452	-0,307	-0,208
112,933	800,000	-0,141	-0,338
113,947	0,833	-0,294	-0,147
114,962	114,233	-0,255	-0,217
115,976	81,511	-0,196	-0,148
116,991	190,836	-0,203	-0,213
118,006	293,665	-0,258	-0,329
119,020	-200,000	0,004	-0,239
120,035	175,566	-0,208	-0,211
121,049	337,141	-0,180	-0,245
122,064	3,870	-0,227	-0,115
123,079	114,844	-0,210	-0,179
124,093	119,642	-0,270	-0,233
125,108	166,389	-0,275	-0,272
126,122	27,095	-0,284	-0,166
127,137	9,947	-0,230	-0,122
128,151	283,394	-0,130	-0,164
129,166	-30,084	-0,367	-0,145
130,181	55,216	-0,239	-0,161
131,195	38,693	-0,301	-0,187
132,210	41,218	-0,333	-0,209
133,224	-29,962	-0,252	-0,100
134,239	-120,013	-0,280	-0,033
135,254	350,288	-0,177	-0,244
136,268	-16,637	-0,243	-0,107
137,283	573,333	-0,127	-0,217
138,297	135,898	-0,276	-0,251
139,312	47,563	-0,296	-0,192
140,327	21,333	-0,372	-0,210
141,341	24,137	-0,266	-0,153
142,356	1,611	-0,222	-0,111
143,370	313,144	-0,249	-0,327
144,385	-13,528	-0,308	-0,139
145,400	175,177	-0,157	-0,158
146,414	152,277	-0,274	-0,261
147,429	205,756	-0,258	-0,280
148,443	370,023	-0,181	-0,256
149,458	-5,763	-0,284	-0,135
150,473	-113,343	-0,170	-0,023
151,487	20,758	-0,189	-0,106
152,502	267,440	-0,227	-0,278
153,516	19,127	-0,288	-0,160
154,531	140,879	-0,184	-0,169
155,546	132,123	-0,219	-0,197
156,560	163,370	-0,168	-0,164
157,575	-77,254	-0,284	-0,068
158,589	0,380	-0,269	-0,133
159,604	-27,431	-0,313	-0,126
160,619	-73,393	-0,266	-0,067
161,633	-55,873	-0,394	-0,122
162,648	-9,306	-0,360	-0,167
163,662	-107,300	-0,167	-0,025
164,677	-45,433	-0,117	-0,040
165,692	-8,605	-0,349	-0,162
166,706	12,400	-0,218	-0,117
167,721	292,445	-0,217	-0,276
168,735	131,156	-0,269	-0,240
169,750	37,892	-0,252	-0,155
170,764	-6,636	-0,124	-0,058
171,779	-94,778	-0,239	-0,045
172,794	-2,707	-0,149	0,072
173,808	-60,550	-0,294	-0,086
174,823	114,779	-0,198	-0,167
175,837	176,833	-0,273	-0,276
176,852	-128,839	-0,153	-0,015
177,867	26,097	-0,083	-0,048
178,881	-20,320	-0,282	-0,120
179,896	-7,394	-0,237	-0,111
180,910	30,130	-0,252	-0,149
181,925	-44,322	-0,286	-0,099
182,940	232,990	-0,260	-0,297
183,954	57,300	-0,157	-0,106
184,969	96,972	-0,118	-0,094
185,983	-59,259	-0,279	-0,083
186,998	-65,288	-0,269	-0,075
188,013	44,462	-0,285	-0,182
189,027	20,998	-0,234	-0,132
190,042	349,890	-0,150	-0,206
191,056	565,201	-0,111	-0,188
192,071	173,391	-0,139	-0,140
193,086	-52,655	-0,176	-0,056
194,100	25,452	-0,246	-0,142
195,115	576,189	-0,086	-0,146
196,129	-25,049	-0,359	-0,147
197,144	-200,000	-0,071	-0,288
198,159	0,852	-0,301	-0,149
199,173	-200,000	-0,053	-0,238
200,188	341,070	-0,180	-0,245
201,202	-41,993	-0,217	-0,076
202,217	38,146	-0,241	-0,149
203,232	52,043	-0,259	-0,171
204,246	64,210	-0,172	-0,120
205,261	434,192	-0,139	-0,209
206,275	-94,028	-0,092	-0,017
207,290	-51,566	-0,157	-0,050
208,304	366,716	-0,107	-0,150
209,319	-93,443	-0,056	-0,011
210,334	-18,278	-0,103	-0,045
211,348	165,544	-0,183	-0,179
212,363	15,218	-0,342	-0,185
213,377	222,693	-0,218	-0,243
214,392	-200,000	-0,011	-0,140
215,407	-173,570	-0,258	0,005
216,421	81,440	-0,208	-0,155
217,436	461,146	-0,149	-0,231
218,450	222,962	-0,150	-0,168
219,465	165,974	-0,192	-0,188
220,480	178,967	-0,251	-0,254
221,494	800,000	-0,053	-0,110
222,509	115,221	-0,136	-0,115
223,523	-38,218	-0,164	-0,060
224,538	304,996	-0,114	-0,147
225,553	142,553	-0,183	-0,168
226,567	408,570	-0,123	-0,181
227,582	66,390	-0,177	-0,124
228,596	5,083	-0,242	-0,123
229,611	18,433	-0,220	-0,121
230,626	-200,000	-0,038	-0,169
231,640	79,193	-0,231	-0,171
232,655	-90,880	-0,249	-0,049
233,669	66,244	-0,167	-0,117
234,684	10,006	-0,226	-0,118
235,699	106,712	-0,140	-0,115
236,713	231,880	-0,187	-0,212
237,728	-113,284	-0,226	-0,030
238,742	-25,556	-0,077	-0,031
239,757	140,285	-0,216	-0,197
240,772	85,452	-0,224	-0,170
241,786	126,772	-0,165	-0,144
242,801	340,311	-0,199	-0,268
243,815	414,714	-0,098	-0,144
244,830	-24,152	-0,215	-0,088
245,844	-113,985	-0,198	-0,026
246,859	79,669	-0,174	-0,129
247,874	83,448	-0,237	-0,178
248,888	200,710	-0,142	-0,151
249,903	-200,000	-0,064	-0,202
250,917	-93,100	-0,285	-0,054
251,932	-83,094	-0,081	-0,018
252,947	53,725	-0,239	-0,158
253,961	48,595	-0,225	-0,145
254,976	89,386	-0,269	-0,207
255,990	164,956	-0,166	-0,162
257,005	-29,255	-0,190	-0,075
258,020	-19,228	-0,269	-0,115
259,034	6,903	-0,214	-0,110
260,049	-84,831	-0,137	0,030
261,063	49,431	-0,186	-0,120
262,078	323,961	-0,139	-0,183
263,093	-75,602	-0,287	-0,070
264,107	-15,899	-0,095	-0,042
265,122	476,366	-0,076	-0,119
266,136	92,888	-0,142	-0,111
267,151	32,904	-0,198	-0,118
268,166	-105,695	-0,167	-0,026
269,180	140,433	-0,252	-0,229
270,195	481,441	-0,147	-0,230
271,209	-121,952	-0,188	0,021
272,224	473,489	-0,102	-0,160
273,239	353,697	-0,102	-0,140
274,253	670,812	-0,077	-0,139
275,268	451,061	-0,145	-0,221
276,282	302,239	-0,138	-0,176
277,297	132,230	-0,158	-0,141
278,312	134,011	-0,206	-0,183
279,326	142,526	-0,064	-0,058
280,341	800,000	-0,035	0,093
281,355	299,372	-0,080	0,102
282,370	-0,932	-0,197	-0,096
283,384	800,000	-0,102	-0,243
284,399	448,576	-0,102	-0,155
285,414	-47,671	-0,100	-0,033
286,428	-200,000	-0,017	-0,103
287,443	231,775	0,002	0,002
288,457	800,000	-0,058	0,138
289,472	401,847	-0,088	-0,128
290,487	115,719	-0,187	-0,157
291,501	-74,826	-0,239	-0,059
292,516	-136,100	-0,085	0,007
293,530	800,000	-0,042	-0,101
294,545	54,248	-0,168	-0,111
295,560	-15,808	-0,151	-0,066
296,574	-111,059	-0,133	-0,019
297,589	176,636	-0,093	-0,093
298,603	-2,102	-0,216	-0,104
299,618	498,980	-0,083	-0,132
300,633	301,136	-0,143	-0,182
301,647	-7,679	-0,118	-0,055
302,662	800,000	0,025	-0,052
303,676	800,000	-0,021	-0,054
304,691	353,076	-0,216	-0,295
305,706	-179,463	-0,095	0,001
306,720	65,384	-0,179	-0,124
307,735	-8,781	-0,138	-0,063
308,749	-200,000	-0,021	-0,154
309,764	-90,817	-0,199	0,039
310,779	120,790	-0,162	-0,139
311,793	301,924	-0,093	-0,118
312,808	574,335	-0,176	-0,297
313,822	66,389	-0,187	-0,130
314,837	625,675	-0,094	-0,164
315,852	-101,226	-0,143	-0,024
316,866	-200,000	-0,029	-0,199
317,881	31,891	-0,079	0,047
318,895	10,855	-0,175	-0,092
319,910	-86,119	-0,281	-0,059
320,925	-200,000	-0,265	0,000
321,939	458,090	-0,143	-0,219
322,954	-200,000	-0,021	-0,134
323,968	268,870	-0,109	-0,132
324,983	199,902	-0,117	-0,123
325,997	61,861	-0,139	-0,095
327,012	800,000	-0,042	-0,114
328,027	-153,772	-0,098	-0,005
329,041	-38,928	-0,254	-0,091
330,056	313,356	-0,147	-0,189
331,070	-153,286	-0,180	-0,008
332,085	164,003	-0,102	-0,098
333,100	800,000	-0,049	-0,109
334,114	116,679	-0,162	-0,136
335,129	186,493	-0,269	-0,274
336,143	255,100	-0,103	-0,121
337,158	-79,387	-0,138	-0,032
338,173	-200,000	0,010	-0,139
339,187	800,000	-0,018	-0,039
340,202	99,654	-0,128	-0,101
341,216	-62,311	-0,145	-0,041
342,231	187,808	-0,211	-0,216
343,246	148,644	-0,152	-0,140
344,260	168,123	-0,103	-0,101
345,275	800,000	-0,084	-0,174
346,289	800,000	-0,069	-0,207
347,304	84,120	-0,258	-0,193
348,319	-200,000	-0,011	-0,131
349,333	-45,301	-0,203	-0,069
350,348	260,484	-0,056	-0,067
351,362	63,298	-0,102	-0,070
352,377	61,605	-0,154	-0,105
353,392	112,964	-0,064	-0,053
354,406	800,000	-0,041	0,105
355,421	206,675	1312,419	1399,946
356,435	158,961	1472,823	1400,421
