DTS Sentinel unit serial number:	SN410029Multiplexer serial number:	ORYXHardware model number:	OX2-SRSoftware version number:	ORYX F/W v4,00 Oryx Data Collector v3.7.2.0data status	okinstallation	B3 Nyhavnadifferential loss correction	single-endedforward channel	channel 1reverse channel	N/Adate	2023/12/03time	08:12:30forward acquisition time	300,00reverse acquisition time	0,00gamma	499,1914k internal	0,3201k external	0,3201temperature offset calibration	1,0000default loss term (dB/km)	0,3820temperature slope calibration	1,0000multiplexer offset coefficient	1,0000multiplexer slope coefficient	1,0000fibre end	0,00T internal ref (°C)	13,32T ext. ref 1 (°C)	-1,67T ext. ref 2 (°C)	-1,67length (m)	temperature (°C)	Stokes	anti-Stokes-744,400	511,050	-0,144	-0,245
-743,385	-200,000	-0,052	0,343
-742,371	182,782	-0,199	-0,214
-741,356	-200,000	0,075	0,428
-740,342	-200,000	-0,008	-0,209
-739,327	-200,000	-0,074	0,306
-738,312	19,277	-0,199	-0,116
-737,298	614,670	-0,079	0,144
-736,283	143,108	-0,190	-0,184
-735,269	-200,000	0,016	0,241
-734,254	-13,973	-0,186	-0,087
-733,239	-143,571	-0,219	0,015
-732,225	800,000	-0,116	-0,236
-731,210	104,286	0,089	0,076
-730,196	-200,000	0,003	-0,011
-729,181	-200,000	0,005	-0,086
-728,167	-10,169	-0,031	0,015
-727,152	253,549	-0,033	-0,041
-726,137	-32,365	-0,146	0,059
-725,123	111,272	-0,086	-0,075
-724,108	637,597	-0,082	-0,151
-723,094	800,000	0,060	-0,158
-722,079	-82,938	-0,062	0,014
-721,064	136,973	-0,072	-0,069
-720,050	-200,000	-0,001	0,040
-719,035	140,737	0,032	0,031
-718,021	-164,449	-0,073	0,002
-717,006	-200,000	0,014	-0,154
-715,991	86,450	0,058	-0,046
-714,977	-200,000	-0,016	-0,153
-713,962	-200,000	-0,039	0,155
-712,948	679,041	-0,022	-0,041
-711,933	6,093	-0,125	-0,067
-710,918	104,982	0,052	0,044
-709,904	13,866	-0,080	0,045
-708,889	68,503	-0,080	-0,059
-707,875	800,000	0,030	-0,085
-706,860	2,452	0,138	0,072
-705,845	-48,879	-0,100	0,035
-704,831	55,411	-0,045	0,032
-703,816	329,487	-0,074	0,104
-702,802	106,713	-0,097	-0,084
-701,787	217,512	0,053	0,062
-700,772	618,215	-0,035	0,065
-699,758	18,576	-0,054	-0,031
-698,743	-123,859	-0,012	0,001
-697,729	143,631	0,108	0,105
-696,714	92,321	-0,070	0,057
-695,699	184,965	-0,058	-0,063
-694,685	235,314	-0,053	-0,064
-693,670	-200,000	-0,005	-0,183
-692,656	144,087	-0,004	0,004
-691,641	118,965	-0,075	-0,068
-690,627	453,945	0,119	0,191
-689,612	800,000	0,054	0,119
-688,597	683,113	-0,065	0,123
-687,583	407,958	-0,088	-0,135
-686,568	-55,073	-0,090	0,029
-685,554	266,807	0,064	-0,081
-684,539	-40,743	-0,043	0,016
-683,524	12,787	0,064	0,036
-682,510	-200,000	-0,022	-0,121
-681,495	247,503	-0,036	-0,044
-680,481	382,545	0,024	-0,037
-679,466	211,811	-0,143	-0,164
-678,451	-68,165	0,064	0,018
-677,437	-142,369	-0,046	-0,003
-676,422	291,567	0,029	0,039
-675,408	-200,000	-0,017	0,171
-674,393	-76,625	0,142	-0,036
-673,378	172,722	-0,048	0,050
-672,364	-200,000	0,015	-0,078
-671,349	-122,781	-0,144	0,017
-670,335	-200,000	-0,014	-0,097
-669,320	-95,637	0,088	-0,017
-668,305	800,000	-0,022	0,057
-667,291	125,638	0,005	-0,005
-666,276	81,001	-0,087	-0,068
-665,262	-200,000	0,009	0,192
-664,247	-169,787	-0,175	0,004
-663,232	18,752	-0,119	0,069
-662,218	800,000	-0,016	-0,038
-661,203	800,000	-0,026	0,076
-660,189	575,293	-0,074	-0,131
-659,174	-75,246	-0,153	-0,039
-658,159	-200,000	-0,004	-0,050
-657,145	90,198	-0,051	-0,041
-656,130	72,535	-0,155	-0,117
-655,116	131,316	0,125	0,117
-654,101	36,373	-0,020	0,013
-653,086	55,031	0,057	0,040
-652,072	-114,102	0,041	-0,006
-651,057	-59,722	-0,117	-0,036
-650,043	-107,459	-0,102	-0,016
-649,028	77,336	0,061	-0,047
-648,014	278,108	0,022	-0,029
-646,999	-200,000	-0,024	0,140
-645,984	104,888	-0,047	-0,040
-644,970	29,334	-0,098	-0,060
-643,955	172,974	-0,045	-0,047
-642,941	-63,982	-0,057	-0,017
-641,926	798,143	0,030	-0,061
-640,911	-123,939	-0,101	0,011
-639,897	-200,000	-0,020	0,110
-638,882	-164,855	-0,132	-0,004
-637,868	553,011	0,020	-0,034
-636,853	429,453	-0,050	0,079
-635,838	-17,856	-0,045	-0,021
-634,824	-91,121	0,077	0,016
-633,809	360,483	0,048	-0,070
-632,795	486,845	0,075	-0,124
-631,780	35,044	0,024	0,015
-630,765	-200,000	0,004	0,020
-629,751	323,567	0,073	-0,101
-628,736	-72,000	0,081	-0,022
-627,722	-200,000	-0,013	0,053
-626,707	800,000	0,032	0,088
-625,692	-69,519	0,080	-0,022
-624,678	-44,659	0,113	0,041
-623,663	568,897	-0,048	-0,084
-622,649	-200,000	-0,018	-0,112
-621,634	-179,145	-0,140	0,002
-620,619	800,000	-0,051	-0,140
-619,605	-169,364	0,027	0,001
-618,590	-200,000	0,003	-0,033
-617,576	116,479	-0,118	-0,105
-616,561	-129,735	-0,041	-0,004
-615,546	-65,588	-0,127	-0,037
-614,532	800,000	0,029	-0,070
-613,517	-178,842	-0,037	-0,001
-612,503	223,431	-0,028	0,032
-611,488	-89,638	0,092	0,019
-610,474	-161,797	-0,051	-0,002
-609,459	224,412	-0,065	0,077
-608,444	511,489	-0,073	-0,123
-607,430	-200,000	-0,032	-0,174
-606,415	800,000	-0,046	-0,141
-605,401	774,823	0,026	0,051
-604,386	-161,128	0,070	-0,003
-603,371	-87,113	-0,060	0,013
-602,357	-200,000	-0,023	0,080
-601,342	-114,908	0,058	-0,008
-600,328	-7,699	-0,046	0,022
-599,313	69,637	-0,050	0,037
-598,298	3,054	-0,064	-0,033
-597,284	-61,623	-0,169	-0,051
-596,269	800,000	0,024	0,058
-595,255	-76,318	-0,032	0,008
-594,240	107,421	-0,014	-0,012
-593,225	40,397	-0,085	0,055
-592,211	-200,000	0,011	-0,098
-591,196	166,376	-0,067	0,069
-590,182	281,849	0,034	-0,044
-589,167	-90,479	-0,143	-0,030
-588,152	338,846	-0,027	-0,037
-587,138	108,090	0,078	0,067
-586,123	-200,000	-0,006	-0,022
-585,109	-118,355	0,067	-0,008
-584,094	293,883	-0,052	0,069
-583,079	197,597	-0,048	0,053
-582,065	-127,705	-0,089	-0,009
-581,050	-200,000	0,001	0,036
-580,036	-200,000	0,000	0,063
-579,021	-200,000	-0,028	-0,142
-578,006	-141,664	-0,160	0,011
-576,992	186,384	-0,099	-0,107
-575,977	-199,950	-0,095	-0,000
-574,963	-160,874	0,178	0,007
-573,948	122,110	0,078	-0,070
-572,934	590,520	-0,065	0,117
-571,919	-200,000	0,046	-0,170
-570,904	-6,242	0,085	-0,042
-569,890	-200,000	-0,001	-0,108
-568,875	16,666	0,148	-0,084
-567,861	143,879	0,060	0,058
-566,846	51,326	0,055	-0,038
-565,831	-200,000	0,013	0,200
-564,817	-200,000	-0,030	0,113
-563,802	-54,222	-0,113	-0,037
-562,788	-58,581	-0,065	-0,020
-561,773	-200,000	0,010	0,065
-560,758	334,923	0,064	0,090
-559,744	-200,000	0,014	0,091
-558,729	363,489	-0,043	-0,063
-557,715	90,852	-0,150	-0,122
-556,700	-200,000	-0,003	-0,176
-555,685	58,943	0,038	0,027
-554,671	-200,000	-0,008	0,042
-553,656	-20,429	0,149	-0,066
-552,642	30,728	0,055	0,034
-551,627	-78,300	0,073	-0,018
-550,612	-200,000	0,009	-0,086
-549,598	-98,188	-0,041	-0,007
-548,583	374,940	0,067	-0,099
-547,569	800,000	0,045	-0,112
-546,554	-200,000	0,003	-0,034
-545,539	-114,534	0,057	0,008
-544,525	800,000	-0,033	0,076
-543,510	-200,000	0,031	0,144
-542,496	-200,000	-0,014	0,078
-541,481	-22,748	-0,040	0,017
-540,466	-67,981	-0,103	-0,029
-539,452	-76,115	-0,073	0,019
-538,437	-40,605	-0,021	0,008
-537,423	50,387	0,126	0,086
-536,408	-40,961	0,034	-0,013
-535,393	286,710	-0,111	-0,145
-534,379	59,786	-0,042	0,030
-533,364	640,232	-0,016	0,030
-532,350	-122,827	0,123	0,014
-531,335	3,807	0,134	0,070
-530,321	-200,000	0,006	0,065
-529,306	322,916	0,028	0,038
-528,291	209,587	-0,089	-0,100
-527,277	42,681	0,088	-0,058
-526,262	131,356	-0,101	-0,094
-525,248	51,893	-0,052	0,036
-524,233	-47,216	0,123	-0,043
-523,218	-200,000	0,019	-0,098
-522,204	563,397	-0,044	-0,077
-521,189	-103,535	-0,073	-0,012
-520,175	-200,000	0,006	-0,084
-519,160	693,860	0,046	-0,087
-518,145	-104,528	0,030	0,005
-517,131	-200,000	0,044	0,000
-516,116	-69,896	-0,046	0,013
-515,102	-62,841	-0,113	-0,033
-514,087	-200,000	-0,009	-0,074
-513,072	-6,758	-0,174	-0,085
-512,058	51,823	-0,088	-0,060
-511,043	-200,000	0,004	0,042
-510,029	-88,872	0,054	-0,011
-509,014	-200,000	-0,028	0,167
-507,999	-94,267	0,164	0,032
-506,985	-131,225	-0,033	-0,003
-505,970	205,612	0,041	-0,046
-504,956	84,131	-0,029	-0,023
-503,941	-200,000	0,055	0,000
-502,926	336,594	-0,091	0,127
-501,912	347,621	-0,060	0,086
-500,897	-177,848	0,039	-0,001
-499,883	-192,994	0,061	0,000
-498,868	-200,000	-0,007	-0,052
-497,853	306,818	-0,086	-0,116
-496,839	-200,000	0,005	-0,018
-495,824	800,000	-0,040	0,082
-494,810	609,126	0,047	0,085
-493,795	355,640	-0,019	0,028
-492,781	263,249	-0,029	-0,036
-491,766	145,488	-0,100	-0,097
-490,751	-56,688	-0,057	0,018
-489,737	800,000	-0,019	-0,047
-488,722	-20,147	-0,127	0,056
-487,708	-21,833	0,075	0,033
-486,693	415,301	0,084	0,130
-485,678	147,808	-0,062	-0,060
-484,664	-106,988	-0,118	0,019
-483,649	-52,840	-0,033	0,011
-482,635	-200,000	0,022	-0,117
-481,620	93,640	0,108	0,088
-480,605	-67,278	0,014	-0,004
-479,591	-200,000	-0,012	0,048
-478,576	800,000	0,022	-0,052
-477,562	-161,141	-0,028	0,001
-476,547	-200,000	0,014	-0,116
-475,532	66,426	0,064	-0,047
-474,518	-69,296	0,093	0,025
-473,503	800,000	0,018	0,048
-472,489	-200,000	-0,012	0,152
-471,474	-127,421	-0,040	0,004
-470,459	111,586	-0,123	0,107
-469,445	218,370	-0,075	-0,086
-468,430	800,000	0,024	-0,056
-467,416	377,166	-0,067	-0,099
-466,401	-200,000	0,012	-0,070
-465,386	800,000	0,066	0,146
-464,372	-200,000	0,003	0,019
-463,357	629,287	0,028	0,051
-462,343	-68,355	-0,047	-0,013
-461,328	-200,000	0,006	-0,046
-460,313	188,041	0,140	-0,151
-459,299	800,000	0,039	0,094
-458,284	615,923	0,049	-0,090
-457,270	-200,000	0,010	0,064
-456,255	-61,645	-0,003	0,001
-455,241	-200,000	0,029	-0,146
-454,226	-146,179	0,128	-0,008
-453,211	92,600	0,091	-0,074
-452,197	800,000	0,046	0,102
-451,182	19,092	-0,077	0,044
-450,168	71,390	0,074	0,055
-449,153	-200,000	0,009	-0,056
-448,138	49,236	-0,032	0,021
-447,124	-200,000	0,006	-0,037
-446,109	-200,000	0,004	0,032
-445,095	-200,000	0,005	0,112
-444,080	-200,000	-0,005	-0,019
-443,065	119,691	0,104	0,093
-442,051	-200,000	0,027	0,109
-441,036	-80,440	-0,112	0,027
-440,022	42,557	-0,094	0,061
-439,007	-156,455	-0,065	0,003
-437,992	298,565	0,055	0,072
-436,978	-127,184	0,122	0,013
-435,963	-200,000	-0,001	-0,007
-434,949	-200,000	-0,008	-0,080
-433,934	264,894	-0,134	-0,168
-432,919	184,867	0,034	0,037
-431,905	53,232	-0,097	-0,066
-430,890	157,603	0,018	-0,018
-429,876	85,301	-0,135	0,107
-428,861	-200,000	-0,010	-0,074
-427,846	800,000	-0,018	0,047
-426,832	-200,000	0,027	-0,176
-425,817	12,543	0,078	-0,043
-424,803	529,616	0,008	0,013
-423,788	-39,810	-0,042	0,016
-422,773	-200,000	0,021	0,097
-421,759	-53,305	-0,052	-0,017
-420,744	800,000	-0,024	0,062
-419,730	271,128	-0,087	-0,111
-418,715	109,516	-0,078	-0,067
-417,701	-200,000	0,009	-0,061
-416,686	197,188	0,099	0,109
-415,671	-200,000	-0,017	-0,103
-414,657	83,478	0,069	0,054
-413,642	800,000	0,058	-0,179
-412,628	-4,196	0,075	-0,037
-411,613	-200,000	0,007	0,028
-410,598	-200,000	0,009	-0,050
-409,584	-86,329	-0,043	0,009
-408,569	-200,000	-0,014	0,123
-407,555	-200,000	0,028	0,094
-406,540	800,000	0,036	-0,082
-405,525	-117,793	-0,074	0,009
-404,511	-55,442	-0,022	0,007
-403,496	-200,000	0,032	-0,112
-402,482	-200,000	0,000	0,050
-401,467	246,283	0,093	-0,112
-400,452	800,000	-0,078	-0,156
-399,438	-10,696	0,112	-0,053
-398,423	-43,262	0,061	0,022
-397,409	800,000	0,050	-0,140
-396,394	25,891	-0,111	-0,066
-395,379	18,883	0,138	-0,079
-394,365	-200,000	0,008	-0,183
-393,350	216,563	0,111	0,127
-392,336	-200,000	0,023	0,117
-391,321	170,825	0,055	0,056
-390,306	-98,447	-0,050	0,009
-389,292	800,000	0,040	-0,083
-388,277	56,025	0,105	0,073
-387,263	303,777	0,022	0,029
-386,248	-200,000	-0,001	-0,018
-385,233	-145,437	0,102	-0,006
-384,219	800,000	0,025	-0,078
-383,204	-72,701	-0,103	-0,027
-382,190	15,758	-0,025	0,014
-381,175	-0,790	-0,044	-0,022
-380,160	172,180	0,136	0,140
-379,146	31,686	-0,050	0,031
-378,131	104,734	-0,013	-0,011
-377,117	-52,844	-0,136	-0,045
-376,102	120,014	-0,040	-0,036
-375,088	800,000	0,056	-0,153
-374,073	-54,352	0,050	-0,016
-373,058	-200,000	0,007	0,065
-372,044	-200,000	0,017	0,093
-371,029	106,059	0,094	-0,079
-370,015	36,896	-0,078	0,050
-369,000	27,255	-0,037	0,022
-367,985	-200,000	-0,049	-0,160
-366,971	-111,322	0,067	0,010
-365,956	338,048	0,060	0,084
-364,942	-116,832	0,040	-0,005
-363,927	800,000	-0,009	0,018
-362,912	-6,884	-0,129	0,063
-361,898	-136,277	-0,056	0,005
-360,883	-200,000	-0,033	-0,106
-359,869	255,411	0,023	0,028
-358,854	19,504	0,037	0,021
-357,839	800,000	-0,059	0,183
-356,825	84,758	0,089	0,070
-355,810	-200,000	-0,043	-0,158
-354,796	84,526	0,066	-0,052
-353,781	-31,933	0,055	0,022
-352,766	440,415	-0,045	-0,071
-351,752	-200,000	0,026	-0,143
-350,737	-200,000	-0,028	-0,123
-349,723	-200,000	-0,024	0,102
-348,708	-130,076	-0,102	0,010
-347,693	-99,134	-0,054	-0,010
-346,679	-200,000	-0,017	-0,097
-345,664	6,213	-0,051	-0,027
-344,650	48,440	0,053	0,036
-343,635	-13,687	0,079	-0,037
-342,620	97,717	0,075	0,062
-341,606	-200,000	-0,018	0,078
-340,591	7,949	0,143	0,077
-339,577	800,000	0,028	0,058
-338,562	328,961	-0,082	-0,113
-337,548	52,503	-0,055	0,037
-336,533	-200,000	-0,019	0,207
-335,518	-64,706	0,113	0,033
-334,504	-200,000	-0,001	0,135
-333,489	365,786	0,049	0,071
-332,475	-114,663	-0,170	0,023
-331,460	117,757	-0,089	-0,079
-330,445	-188,139	-0,110	-0,001
-329,431	-41,153	-0,084	-0,031
-328,416	429,862	0,084	0,131
-327,402	46,587	0,093	-0,061
-326,387	762,127	-0,056	-0,109
-325,372	199,572	-0,108	-0,118
-324,358	-32,227	-0,104	-0,042
-323,343	-49,498	-0,022	-0,008
-322,329	372,265	0,076	0,111
-321,314	800,000	0,040	0,089
-320,299	800,000	0,043	0,099
-319,285	800,000	-0,057	-0,154
-318,270	-27,146	-0,098	-0,041
-317,256	-30,641	0,101	-0,041
-316,241	800,000	0,032	0,098
-315,226	520,868	-0,070	0,119
-314,212	272,120	0,113	0,142
-313,197	79,851	-0,055	-0,042
-312,183	800,000	0,046	0,118
-311,168	322,621	0,024	0,033
-310,153	-200,000	0,032	-0,109
-309,139	-184,086	-0,079	-0,001
-308,124	673,338	-0,058	-0,108
-307,110	-200,000	0,013	0,112
-306,095	418,501	-0,026	0,040
-305,080	-200,000	0,005	0,063
-304,066	167,595	-0,051	0,052
-303,051	97,524	0,045	0,037
-302,037	444,171	-0,095	-0,149
-301,022	-200,000	-0,005	0,054
-300,008	-200,000	-0,000	0,140
-298,993	696,614	0,045	0,084
-297,978	-200,000	-0,028	0,170
-296,964	-159,134	-0,111	0,004
-295,949	32,661	0,034	-0,021
-294,935	-69,073	0,138	0,038
-293,920	-200,000	-0,003	0,069
-292,905	160,979	0,101	0,100
-291,891	-200,000	-0,011	0,042
-290,876	800,000	0,025	0,074
-289,862	262,192	-0,039	-0,048
-288,847	226,300	0,057	0,066
-287,832	-135,169	-0,167	-0,014
-286,818	-36,860	0,095	0,036
-285,803	313,521	0,052	0,070
-284,789	-192,934	0,078	0,000
-283,774	-157,155	-0,172	0,007
-282,759	-69,098	-0,033	0,009
-281,745	-200,000	0,027	0,089
-280,730	-141,061	-0,073	0,005
-279,716	-200,000	0,005	0,028
-278,701	-111,255	-0,048	0,007
-277,686	-69,390	0,122	-0,033
-276,672	-35,585	-0,046	-0,018
-275,657	160,127	-0,055	0,055
-274,643	-200,000	0,016	-0,169
-273,628	208,434	-0,038	-0,042
-272,613	-89,176	-0,101	-0,021
-271,599	96,122	0,054	0,044
-270,584	183,255	0,060	0,064
-269,570	-85,807	0,116	0,025
-268,555	486,085	0,022	0,036
-267,540	-56,825	0,070	-0,022
-266,526	167,169	-0,049	-0,050
-265,511	-98,321	0,026	0,005
-264,497	800,000	-0,092	-0,273
-263,482	-90,740	0,180	-0,037
-262,467	97,060	-0,078	0,064
-261,453	-200,000	-0,023	-0,108
-260,438	-200,000	0,012	-0,095
-259,424	162,805	-0,049	-0,049
-258,409	-200,000	0,006	0,028
-257,395	78,211	0,012	0,009
-256,380	-200,000	0,006	0,067
-255,365	248,034	0,031	-0,037
-254,351	208,499	0,053	-0,060
-253,336	522,085	-0,046	-0,077
-252,322	-50,689	0,105	-0,035
-251,307	85,836	-0,083	-0,065
-250,292	8,945	0,159	-0,086
-249,278	212,148	-0,072	0,081
-248,263	-200,000	0,036	0,119
-247,249	725,280	-0,050	0,096
-246,234	800,000	-0,017	0,042
-245,219	-136,891	0,112	0,009
-244,205	179,928	-0,087	-0,091
-243,190	-200,000	-0,008	-0,025
-242,176	800,000	-0,042	0,091
-241,161	73,032	0,093	-0,069
-240,146	27,020	-0,055	0,033
-239,132	672,734	-0,007	-0,013
-238,117	466,994	0,030	-0,049
-237,103	-21,719	-0,101	0,044
-236,088	800,000	-0,058	0,155
-235,073	-72,160	0,054	0,014
-234,059	-200,000	-0,011	-0,057
-233,044	62,356	-0,125	0,089
-232,030	-101,256	-0,080	-0,014
-231,015	79,487	-0,035	0,027
-230,000	-200,000	0,009	0,035
-228,986	389,375	0,076	0,113
-227,971	-4,956	-0,055	-0,027
-226,957	-119,203	0,090	0,011
-225,942	-11,390	0,083	0,039
-224,927	244,771	-0,097	0,116
-223,913	38,231	0,120	0,076
-222,898	-170,005	-0,039	0,001
-221,884	539,861	-0,046	-0,078
-220,869	260,400	0,108	0,133
-219,855	-200,000	0,017	0,067
-218,840	800,000	-0,049	0,121
-217,825	-200,000	-0,023	0,073
-216,811	-37,082	0,086	0,033
-215,796	28,014	-0,112	0,067
-214,782	800,000	-0,028	0,071
-213,767	-200,000	0,019	0,117
-212,752	-11,250	-0,083	-0,039
-211,738	-131,239	0,129	0,012
-210,723	332,943	-0,062	0,086
-209,709	42,808	0,076	0,049
-208,694	87,560	-0,151	-0,119
-207,679	221,327	0,031	0,035
-206,665	800,000	0,044	-0,092
-205,650	-62,891	-0,018	0,005
-204,636	-166,512	0,066	0,002
-203,621	-200,000	0,006	-0,065
-202,606	123,868	0,157	0,140
-201,592	107,577	0,084	-0,071
-200,577	-113,068	-0,009	-0,001
-199,563	-200,000	-0,011	0,129
-198,548	182,456	0,116	0,122
-197,533	-115,352	0,043	-0,006
-196,519	226,790	-0,055	0,064
-195,504	800,000	0,031	0,091
-194,490	435,392	0,019	0,030
-193,475	186,003	-0,046	-0,049
-192,460	800,000	0,102	-0,227
-191,446	800,000	-0,034	0,101
-190,431	359,306	0,090	-0,128
-189,417	-111,262	-0,092	-0,013
-188,402	257,323	0,061	0,075
-187,387	90,083	-0,040	-0,032
-186,373	800,000	-0,024	-0,049
-185,358	1,712	-0,035	-0,018
-184,344	-200,000	-0,016	0,056
-183,329	800,000	0,026	0,076
-182,315	306,427	-0,026	-0,034
-181,300	231,650	-0,027	-0,031
-180,285	154,081	-0,059	-0,057
-179,271	-15,861	0,092	-0,042
-178,256	-128,658	0,079	-0,008
-177,242	500,259	0,017	0,029
-176,227	-123,528	0,106	-0,012
-175,212	-200,000	-0,006	0,025
-174,198	-200,000	-0,015	-0,122
-173,183	106,101	0,055	-0,046
-172,169	800,000	0,009	-0,021
-171,154	-11,309	-0,087	0,041
-170,139	-110,256	0,146	-0,021
-169,125	87,183	0,040	0,031
-168,110	-88,353	0,091	0,019
-167,096	681,845	0,071	0,132
-166,081	436,355	0,054	-0,084
-165,066	-200,000	0,026	-0,162
-164,052	-200,000	-0,013	0,071
-163,037	-200,000	-0,048	0,155
-162,023	58,595	0,128	0,089
-161,008	113,315	-0,029	-0,025
-159,993	-81,547	0,126	0,029
-158,979	513,649	-0,039	0,065
-157,964	-200,000	-0,002	-0,033
-156,950	-104,113	0,062	0,010
-155,935	-45,841	-0,125	0,044
-154,920	-14,089	0,069	0,032
-153,906	-60,339	-0,053	0,016
-152,891	-200,000	-0,027	-0,122
-151,877	-66,522	0,047	-0,013
-150,862	-5,212	-0,070	0,034
-149,847	-200,000	0,005	-0,114
-148,833	-31,603	-0,050	-0,020
-147,818	124,008	-0,086	0,077
-146,804	119,196	0,102	0,090
-145,789	409,989	-0,077	0,116
-144,775	-146,067	-0,064	0,004
-143,760	179,496	-0,056	-0,058
-142,745	84,546	-0,057	-0,045
-141,731	-200,000	-0,022	-0,084
-140,716	-200,000	-0,036	-0,119
-139,702	-200,000	-0,022	0,144
-138,687	14,888	0,109	-0,060
-137,672	-200,000	-0,011	0,039
-136,658	-114,396	-0,167	-0,023
-135,643	656,156	-0,038	0,069
-134,629	108,483	0,083	0,071
-133,614	-30,131	-0,082	-0,033
-132,599	84,201	0,099	0,077
-131,585	124,516	0,057	0,051
-130,570	420,506	0,082	0,125
-129,556	456,893	0,052	0,082
-128,541	92,030	-0,063	0,050
-127,526	800,000	-0,045	-0,111
-126,512	267,191	0,031	-0,038
-125,497	800,000	-0,080	0,215
-124,483	274,229	-0,136	0,171
-123,468	-200,000	-0,007	0,111
-122,453	-80,636	-0,143	0,034
-121,439	-200,000	-0,034	-0,118
-120,424	271,648	0,052	0,065
-119,410	-115,717	-0,043	0,006
-118,395	180,794	-0,081	0,085
-117,380	-200,000	-0,001	0,024
-116,366	800,000	0,032	0,068
-115,351	189,759	-0,025	-0,027
-114,337	139,595	-0,042	-0,039
-113,322	-200,000	-0,009	0,081
-112,307	800,000	0,037	0,106
-111,293	60,781	-0,059	0,042
-110,278	-127,335	0,078	-0,008
-109,264	800,000	0,085	0,253
-108,249	586,102	-0,024	-0,042
-107,234	-64,703	-0,024	0,007
-106,220	121,666	-0,053	-0,047
-105,205	800,000	0,026	0,076
-104,191	-53,991	0,132	-0,042
-103,176	-200,000	0,015	0,054
-102,162	800,000	0,025	0,050
-101,147	72,713	-0,062	-0,046
-100,132	800,000	-0,046	-0,106
-99,118	231,368	-0,086	-0,100
-98,103	-200,000	-0,043	-0,150
-97,089	800,000	0,047	0,129
-96,074	9,336	-0,081	0,043
-95,059	-200,000	-0,062	-0,198
-94,045	800,000	-0,016	0,037
-93,030	576,664	-0,088	-0,153
-92,016	15,717	-0,169	0,094
-91,001	19,902	0,143	-0,081
-89,986	29,850	-0,156	-0,094
-88,972	36,280	0,174	0,109
-87,957	-200,000	0,005	-0,151
-86,943	-200,000	0,016	-0,069
-85,928	63,973	-0,074	-0,052
-84,913	49,948	-0,096	-0,064
-83,899	236,075	-0,062	0,073
-82,884	29,849	0,073	-0,044
-81,870	800,000	0,042	-0,100
-80,855	800,000	0,030	0,076
-79,840	369,097	0,035	-0,050
-78,826	800,000	-0,013	-0,037
-77,811	-200,000	-0,007	-0,042
-76,797	-198,642	0,058	-0,000
-75,782	65,900	0,019	-0,014
-74,767	-200,000	-0,048	-0,153
-73,753	-200,000	-0,035	0,136
-72,738	-112,394	-0,077	0,011
-71,724	-200,000	-0,015	0,054
-70,709	-93,180	0,007	0,001
-69,694	50,541	0,116	-0,077
-68,680	800,000	0,049	-0,113
-67,665	800,000	-0,068	0,160
-66,651	271,033	0,050	0,063
-65,636	-200,000	0,003	-0,143
-64,622	174,633	0,075	-0,077
-63,607	288,703	0,102	-0,131
-62,592	45,755	-0,170	-0,111
-61,578	114,305	-0,012	0,010
-60,563	800,000	0,018	0,049
-59,549	-200,000	-0,005	0,136
-58,534	-6,129	-1,588	-0,765
-57,519	454,849	-1,441	-2,269
-56,505	-200,000	-0,594	-4,576
-55,490	129,006	1,155	1,044
-54,476	800,000	4,853	11,628
-53,461	-200,000	19,253	321,546
-52,446	-200,000	740,781	2336,927
-51,432	573,571	1655,709	2870,240
-50,417	78,271	1671,730	1262,443
-49,403	21,276	1544,529	885,938
-48,388	15,162	1467,008	811,723
-47,373	18,003	1457,008	819,893
-46,359	16,721	1446,931	808,042
-45,344	13,426	1442,250	789,602
-44,330	13,392	1440,297	788,339
-43,315	13,375	1438,656	787,327
-42,300	13,387	1437,010	786,456
-41,286	13,374	1435,836	785,720
-40,271	13,355	1434,419	784,820
-39,257	13,321	1433,095	783,902
-38,242	13,430	1431,671	783,610
-37,227	13,435	1430,534	782,985
-36,213	13,415	1429,190	782,119
-35,198	13,416	1428,056	781,473
-34,184	13,417	1427,422	781,103
-33,169	13,390	1425,955	780,138
-32,154	13,421	1424,702	779,568
-31,140	13,405	1423,387	778,741
-30,125	13,461	1422,418	778,446
-29,111	13,412	1421,300	777,570
-28,096	13,410	1420,121	776,888
-27,082	13,364	1419,087	776,072
-26,067	13,335	1418,077	775,352
-25,052	13,362	1416,835	774,769
-24,038	13,344	1415,815	774,099
-23,023	13,345	1414,843	773,541
-22,009	13,349	1413,813	772,965
-20,994	13,278	1413,154	772,242
-19,979	13,289	1411,968	771,613
-18,965	13,280	1411,035	771,033
-17,950	13,228	1410,451	770,436
-16,936	13,286	1409,454	770,133
-15,921	13,248	1408,114	769,195
-14,906	13,237	1407,298	768,664
-13,892	13,256	1406,215	768,132
-12,877	13,267	1405,544	767,786
-11,863	13,285	1404,340	767,183
-10,848	13,227	1403,745	766,555
-9,833	13,235	1402,754	766,022
-8,819	13,188	1402,052	765,391
-7,804	13,176	1401,023	764,739
-6,790	13,175	1400,022	764,159
-5,775	13,183	1398,944	763,580
-4,760	13,184	1397,846	762,954
-3,746	13,138	1397,053	762,276
-2,731	13,119	1396,472	761,841
-1,717	13,098	1395,558	761,217
-0,702	13,159	1393,513	760,353
0,313	16,950	1310,409	732,592
1,327	33,170	703,968	431,062
2,342	51,247	123,388	82,730
3,356	4,053	16,690	8,610
4,371	-6,881	3,363	1,611
5,386	-9,893	0,615	0,288
6,400	-200,000	-0,053	0,312
7,415	-125,179	-0,278	-0,030
8,429	13,424	-0,309	-0,169
9,444	-47,898	-0,310	-0,106
10,459	0,683	-0,326	-0,164
11,473	13,342	-0,259	-0,142
12,488	6,262	-0,262	-0,137
13,502	161,390	-0,241	-0,239
14,517	74,694	-0,321	-0,239
15,531	86,967	-0,403	-0,314
16,546	138,237	-0,296	-0,274
17,561	28,085	-0,361	-0,215
18,575	-68,357	-0,173	-0,047
19,590	73,522	-0,220	-0,162
20,604	23,319	-0,188	-0,109
21,619	45,063	-0,534	-0,347
22,634	130,340	-0,496	-0,448
23,648	52,546	-0,409	-0,275
24,663	-59,865	-0,378	-0,113
25,677	81,491	-0,302	-0,230
26,692	99,923	-0,314	-0,257
27,707	20,226	-0,373	-0,212
28,721	15,737	-0,280	-0,155
29,736	157,050	-0,351	-0,343
30,750	54,248	-0,460	-0,312
31,765	59,146	-0,496	-0,344
32,780	-19,055	-0,460	-0,201
33,794	113,679	-0,309	-0,265
34,809	13,196	-0,432	-0,235
35,823	10,756	-0,446	-0,239
36,838	-46,468	-0,321	-0,111
37,853	127,589	-0,401	-0,359
38,867	58,764	-0,336	-0,232
39,882	65,981	-0,346	-0,247
40,896	44,658	-0,342	-0,221
41,911	136,597	-0,328	-0,302
42,926	101,182	-0,393	-0,322
43,940	57,106	-0,287	-0,197
44,955	43,987	-0,393	-0,253
45,969	53,095	-0,350	-0,236
46,984	-76,147	-0,268	-0,066
47,999	197,572	-0,272	-0,293
49,013	2,415	-0,232	-0,118
50,028	-69,822	-0,411	-0,110
51,042	800,000	-0,180	-0,424
52,057	58,833	-0,359	-0,248
53,071	4,337	-0,311	-0,160
54,086	37,602	-0,306	-0,191
55,101	86,300	-0,344	-0,267
56,115	184,320	-0,207	-0,216
57,130	8,301	-0,369	-0,195
58,144	75,034	-0,478	-0,354
59,159	132,631	-0,325	-0,295
60,174	40,451	-0,474	-0,300
61,188	223,613	-0,272	-0,310
62,203	-6,959	-0,272	-0,130
63,217	11,097	-0,430	-0,231
64,232	81,063	-0,257	-0,195
65,247	28,141	-0,338	-0,200
66,261	74,023	-0,274	-0,202
67,276	-20,293	-0,317	-0,137
68,290	73,343	-0,291	-0,214
69,305	120,019	-0,376	-0,328
70,320	19,230	-0,266	-0,150
71,334	-2,925	-0,342	-0,167
72,349	90,318	-0,386	-0,303
73,363	-87,605	-0,462	-0,097
74,378	133,004	-0,318	-0,289
75,393	466,054	-0,212	-0,335
76,407	160,447	-0,235	-0,231
77,422	-32,943	-0,353	-0,137
78,436	-62,787	-0,277	-0,080
79,451	-33,872	-0,247	-0,095
80,466	62,627	-0,420	-0,295
81,480	18,766	-0,346	-0,194
82,495	-93,258	-0,437	-0,084
83,509	34,821	-0,321	-0,197
84,524	34,857	-0,236	-0,145
85,539	-18,483	-0,080	-0,035
86,553	16,054	-0,385	-0,212
87,568	189,493	-0,239	-0,252
88,582	-46,325	-0,334	-0,115
89,597	566,621	-0,177	-0,303
90,611	-92,172	-0,356	-0,070
91,626	644,251	-0,150	-0,269
92,641	212,837	-0,228	-0,252
93,655	-55,878	-0,242	-0,075
94,670	-37,343	-0,347	-0,129
95,684	169,900	-0,363	-0,365
96,699	67,756	-0,354	-0,254
97,714	-10,531	-0,386	-0,179
98,728	-29,281	-0,332	-0,133
99,743	-10,992	-0,253	-0,117
100,757	-28,454	-0,164	-0,066
101,772	15,269	-0,362	-0,198
102,787	85,147	-0,354	-0,272
103,801	139,766	-0,254	-0,234
104,816	-7,559	-0,301	-0,142
105,830	-90,905	-0,164	-0,033
106,845	-147,980	-0,178	-0,010
107,860	-50,622	-0,268	-0,088
108,874	376,678	-0,185	-0,266
109,889	58,154	-0,353	-0,242
110,903	-90,547	-0,222	-0,045
111,918	96,549	-0,244	-0,196
112,933	114,151	-0,217	-0,185
113,947	103,171	-0,295	-0,242
114,962	-43,914	-0,349	-0,122
115,976	68,161	-0,220	-0,158
116,991	158,721	-0,223	-0,217
118,006	152,655	-0,252	-0,241
119,020	171,664	-0,234	-0,236
120,035	124,862	-0,242	-0,213
121,049	235,702	-0,239	-0,277
122,064	290,183	-0,221	-0,282
123,079	84,639	-0,206	-0,158
124,093	128,816	-0,243	-0,217
125,108	104,475	-0,198	-0,163
126,122	-20,045	-0,364	-0,156
127,137	-97,439	-0,264	-0,048
128,151	149,976	-0,259	-0,246
129,166	253,740	-0,195	-0,234
130,181	-42,346	-0,280	-0,099
131,195	114,241	-0,231	-0,197
132,210	24,705	-0,219	-0,126
133,224	286,571	-0,160	-0,203
134,239	-78,367	-0,286	-0,068
135,254	-120,179	-0,229	-0,027
136,268	114,652	-0,259	-0,221
137,283	61,856	-0,146	-0,102
138,297	294,959	-0,239	-0,306
139,312	39,798	-0,326	-0,204
140,327	119,962	-0,204	-0,177
141,341	60,709	-0,294	-0,204
142,356	442,547	-0,086	-0,133
143,370	7,353	-0,207	-0,108
144,385	46,988	-0,189	-0,123
145,400	175,784	-0,279	-0,283
146,414	72,702	-0,266	-0,194
147,429	165,790	-0,147	-0,145
148,443	-34,650	-0,277	-0,105
149,458	47,862	-0,266	-0,173
150,473	123,851	-0,237	-0,208
151,487	38,268	-0,171	-0,106
152,502	11,945	-0,256	-0,137
153,516	-15,170	-0,274	-0,122
154,531	267,893	-0,320	-0,392
155,546	309,223	-0,212	-0,277
156,560	570,127	-0,172	-0,294
157,575	158,408	-0,256	-0,248
158,589	73,642	-0,249	-0,182
159,604	800,000	-0,155	-0,329
160,619	92,077	-0,300	-0,235
161,633	108,193	-0,282	-0,235
162,648	-30,744	-0,315	-0,124
163,662	73,541	-0,228	-0,166
164,677	800,000	-0,115	-0,247
165,692	260,513	-0,208	-0,251
166,706	34,151	-0,233	-0,141
167,721	142,693	-0,262	-0,243
168,735	16,248	-0,277	-0,152
169,750	65,483	-0,213	-0,150
170,764	-9,935	-0,261	-0,121
171,779	-62,947	-0,147	-0,042
172,794	430,501	-0,147	-0,222
173,808	80,860	-0,203	-0,152
174,823	127,505	-0,181	-0,160
175,837	32,188	-0,329	-0,198
176,852	70,475	-0,160	-0,115
177,867	4,637	-0,230	-0,117
178,881	280,568	-0,160	-0,200
179,896	-86,585	-0,186	-0,039
180,910	-104,896	-0,313	-0,049
181,925	324,279	-0,171	-0,228
182,940	15,263	-0,357	-0,195
183,954	-130,727	-0,238	-0,022
184,969	-29,266	-0,232	-0,092
185,983	800,000	-0,112	-0,256
186,998	7,310	-0,207	-0,108
188,013	-58,820	-0,197	-0,059
189,027	155,850	-0,159	-0,153
190,042	40,915	-0,299	-0,187
191,056	77,325	-0,138	-0,102
192,071	125,698	-0,249	-0,219
193,086	-79,016	-0,235	-0,055
194,100	42,725	-0,251	-0,159
195,115	-5,564	-0,242	-0,115
196,129	72,608	-0,261	-0,189
197,144	400,149	-0,173	-0,253
198,159	33,720	-0,264	-0,159
199,173	143,501	-0,267	-0,247
200,188	-53,356	-0,331	-0,105
201,202	-83,204	-0,117	-0,026
202,217	737,792	-0,072	-0,135
203,232	47,619	-0,087	-0,056
204,246	-39,145	-0,249	-0,091
205,261	-88,037	-0,297	-0,061
206,275	168,941	-0,124	-0,123
207,290	-85,628	-0,260	-0,056
208,304	-27,321	-0,292	-0,118
209,319	36,760	-0,154	-0,095
210,334	384,742	-0,141	-0,203
211,348	56,019	-0,170	-0,114
212,363	215,139	-0,252	-0,278
213,377	13,051	-0,168	-0,090
214,392	81,049	-0,118	-0,088
215,407	63,712	-0,073	-0,051
216,421	-28,253	-0,158	-0,063
217,436	412,763	-0,102	-0,151
218,450	13,288	-0,196	-0,105
219,465	14,882	-0,291	-0,158
220,480	104,239	-0,295	-0,241
221,494	-55,640	-0,207	-0,064
222,509	-142,271	-0,156	-0,011
223,523	-47,861	-0,301	-0,101
224,538	151,011	-0,226	-0,213
225,553	91,253	-0,224	-0,174
226,567	-2,870	-0,221	-0,107
227,582	83,342	-0,200	-0,151
228,596	-69,626	-0,210	0,055
229,611	494,726	-0,108	-0,172
230,626	97,975	-0,172	-0,137
231,640	114,164	-0,169	-0,143
232,655	22,260	-0,122	-0,069
233,669	251,190	-0,204	-0,241
234,684	-36,525	-0,219	-0,081
235,699	-56,374	-0,186	-0,057
236,713	-57,386	-0,237	-0,072
237,728	-200,000	-0,019	-0,137
238,742	4,791	-0,240	-0,122
239,757	226,805	-0,148	-0,167
240,772	569,790	-0,109	-0,184
241,786	-23,217	-0,114	-0,047
242,801	145,763	-0,153	-0,142
243,815	-77,914	-0,213	-0,051
244,830	127,702	-0,211	-0,186
245,844	19,806	-0,193	-0,107
246,859	-141,833	-0,209	-0,014
247,874	-46,749	-0,276	-0,093
248,888	226,244	-0,206	-0,232
249,903	-126,845	-0,202	0,020
250,917	271,812	-0,114	-0,139
251,932	-74,539	-0,092	-0,023
252,947	289,070	-0,154	-0,194
253,961	-15,293	-0,134	-0,059
254,976	36,521	-0,141	-0,086
255,990	695,893	-0,099	-0,180
257,005	137,440	-0,182	-0,165
258,020	-1,826	-0,245	-0,119
259,034	-133,825	-0,167	0,014
260,049	-115,707	-0,231	-0,030
261,063	240,334	-0,227	-0,262
262,078	19,386	-0,209	-0,116
263,093	81,287	-0,245	-0,183
264,107	100,953	-0,221	-0,178
265,122	-24,088	-0,105	-0,043
266,136	548,894	-0,089	-0,148
267,151	2,592	-0,164	-0,082
268,166	-46,444	-0,098	-0,033
269,180	787,912	-0,075	-0,143
270,195	-78,992	-0,218	-0,051
271,209	-128,976	-0,217	0,021
272,224	79,217	-0,225	-0,167
273,239	-200,000	-0,008	-0,061
274,253	-183,500	-0,278	0,003
275,268	-116,000	-0,024	0,003
276,282	22,898	-0,244	-0,138
277,297	69,158	-0,159	-0,113
278,312	202,905	-0,265	-0,284
279,326	103,022	-0,071	-0,058
280,341	224,450	-0,116	-0,130
281,355	-1,330	-0,187	-0,091
282,370	543,366	-0,110	-0,182
283,384	105,365	-0,162	-0,132
284,399	800,000	-0,086	-0,233
285,414	37,920	-0,151	-0,092
286,428	-185,009	-0,174	-0,002
287,443	-200,000	-0,011	0,047
288,457	588,705	-0,099	-0,169
289,472	34,615	-0,215	-0,130
290,487	350,042	-0,105	-0,143
291,501	38,335	-0,155	-0,095
292,516	292,763	-0,139	-0,176
293,530	278,481	-0,068	-0,083
294,545	103,151	-0,173	-0,139
295,560	531,139	-0,098	-0,160
296,574	57,417	-0,212	-0,143
297,589	619,689	-0,171	-0,297
298,603	-39,150	-0,251	-0,090
299,618	43,511	-0,173	-0,109
300,633	-162,875	-0,233	-0,008
301,647	15,145	-0,283	-0,152
302,662	-146,986	-0,146	0,009
303,676	-71,697	-0,126	-0,032
304,691	64,390	-0,084	-0,058
305,706	126,580	-0,154	-0,134
306,720	12,185	-0,129	-0,068
307,735	186,786	-0,083	-0,085
308,749	-200,000	-0,003	-0,082
309,764	377,602	-0,111	-0,156
310,779	39,459	-0,180	-0,111
311,793	-71,476	-0,119	0,031
312,808	188,230	-0,173	-0,179
313,822	-5,126	-0,266	-0,125
314,837	56,859	-0,127	-0,085
315,852	-193,485	-0,121	-0,001
316,866	159,890	-0,092	0,088
317,881	112,923	0,026	-0,022
318,895	800,000	0,062	-0,119
319,910	-117,479	-0,198	0,024
320,925	134,073	-0,107	-0,095
321,939	-52,482	-0,094	-0,030
322,954	126,089	-0,264	-0,229
323,968	-200,000	0,037	-0,119
324,983	-170,815	-0,056	0,001
325,997	-43,031	-0,135	-0,047
327,012	-32,171	-0,164	-0,063
328,027	21,044	-0,148	-0,083
329,041	748,569	-0,030	-0,057
330,056	-51,961	-0,219	-0,070
331,070	800,000	-0,063	-0,120
332,085	416,884	-0,098	-0,145
333,100	290,154	-0,086	-0,108
334,114	732,666	-0,123	-0,227
335,129	46,750	-0,108	-0,069
336,143	503,939	-0,044	0,071
337,158	66,205	-0,136	-0,095
338,173	-200,000	-0,021	-0,177
339,187	-39,606	-0,180	-0,064
340,202	64,734	-0,009	0,006
341,216	-92,820	-0,232	0,044
342,231	-62,053	-0,215	-0,061
343,246	478,166	-0,090	-0,140
344,260	38,547	-0,089	-0,054
345,275	248,761	-0,072	-0,084
346,289	328,985	0,006	-0,007
347,304	582,669	-0,102	-0,172
348,319	-75,061	-0,218	0,053
349,333	157,221	-0,205	-0,195
350,348	256,180	-0,172	-0,203
351,362	17,672	-0,117	0,064
352,377	-110,424	-0,095	0,013
353,392	131,437	-0,131	-0,116
354,406	67,720	-0,131	-0,092
355,421	209,893	1312,620	1414,263
356,435	161,559	1473,094	1414,753
