DTS Sentinel unit serial number:	SN410029Multiplexer serial number:	ORYXHardware model number:	OX2-SRSoftware version number:	ORYX F/W v4,00 Oryx Data Collector v3.7.2.0data status	okinstallation	B3 Nyhavnadifferential loss correction	single-endedforward channel	channel 1reverse channel	N/Adate	2023/12/01time	06:27:30forward acquisition time	300,00reverse acquisition time	0,00gamma	499,1914k internal	0,3213k external	0,3213temperature offset calibration	1,0000default loss term (dB/km)	0,3820temperature slope calibration	1,0000multiplexer offset coefficient	1,0000multiplexer slope coefficient	1,0000fibre end	0,00T internal ref (°C)	7,80T ext. ref 1 (°C)	-6,51T ext. ref 2 (°C)	-6,69length (m)	temperature (°C)	Stokes	anti-Stokes-744,400	297,237	-0,115	-0,154
-743,385	800,000	0,072	0,229
-742,371	241,828	-0,095	-0,115
-741,356	-200,000	-0,018	0,212
-740,342	78,953	-0,256	-0,199
-739,327	-200,000	-0,010	0,265
-738,312	105,484	-0,216	-0,185
-737,298	83,603	-0,190	0,150
-736,283	236,693	-0,137	-0,165
-735,269	-200,000	0,010	0,199
-734,254	394,592	-0,130	-0,197
-733,239	-90,694	-0,313	-0,065
-732,225	-200,000	-0,015	-0,129
-731,210	-200,000	0,033	0,217
-730,196	-109,951	0,038	0,006
-729,181	83,899	-0,110	-0,087
-728,167	-45,522	-0,009	0,003
-727,152	800,000	0,039	0,080
-726,137	-43,807	-0,171	0,062
-725,123	64,940	-0,067	-0,049
-724,108	-92,169	-0,005	0,001
-723,094	295,698	-0,064	0,085
-722,079	-80,005	0,084	0,020
-721,064	488,469	-0,053	-0,088
-720,050	800,000	-0,030	-0,087
-719,035	258,072	-0,063	-0,079
-718,021	23,049	-0,109	0,065
-717,006	359,111	-0,053	-0,076
-715,991	243,283	0,108	-0,131
-714,977	65,166	-0,065	-0,047
-713,962	-132,965	-0,085	-0,008
-712,948	800,000	0,035	-0,079
-711,933	-80,425	-0,131	0,031
-710,918	189,348	-0,050	-0,055
-709,904	800,000	-0,012	-0,028
-708,889	78,898	-0,110	-0,085
-707,875	-200,000	-0,031	-0,116
-706,860	118,677	0,036	0,032
-705,845	41,972	0,060	0,039
-704,831	-31,681	-0,116	-0,047
-703,816	800,000	0,028	-0,069
-702,802	800,000	0,053	-0,120
-701,787	-200,000	-0,005	-0,256
-700,772	-135,820	-0,209	0,018
-699,758	800,000	-0,016	0,050
-698,743	800,000	-0,046	0,130
-697,729	-200,000	-0,043	0,191
-696,714	-41,406	0,076	-0,028
-695,699	-91,571	-0,069	-0,014
-694,685	-46,123	-0,118	-0,042
-693,670	-200,000	-0,007	0,044
-692,656	36,593	-0,036	0,023
-691,641	800,000	-0,011	-0,027
-690,627	31,390	0,075	-0,047
-689,612	800,000	-0,023	0,052
-688,597	22,435	0,084	-0,049
-687,583	90,459	-0,195	-0,158
-686,568	-69,065	-0,223	0,062
-685,554	-34,717	0,086	0,034
-684,539	800,000	0,036	0,086
-683,524	45,160	0,043	-0,028
-682,510	285,914	-0,100	0,130
-681,495	259,874	-0,069	0,086
-680,481	800,000	-0,068	-0,166
-679,466	125,963	-0,068	-0,062
-678,451	-68,760	-0,062	0,017
-677,437	-39,990	-0,150	-0,056
-676,422	-101,550	0,190	-0,033
-675,408	-200,000	0,007	-0,083
-674,393	-200,000	-0,004	-0,067
-673,378	-200,000	-0,023	-0,109
-672,364	613,173	-0,060	-0,110
-671,349	5,804	0,061	0,032
-670,335	72,368	-0,084	-0,063
-669,320	289,198	-0,051	-0,067
-668,305	50,357	0,086	0,059
-667,291	-200,000	0,008	0,053
-666,276	800,000	-0,057	-0,179
-665,262	-200,000	-0,006	-0,079
-664,247	-200,000	-0,003	-0,078
-663,232	23,261	0,107	-0,064
-662,218	-58,002	-0,061	0,019
-661,203	62,005	0,054	-0,039
-660,189	132,769	-0,086	-0,080
-659,174	800,000	-0,050	-0,107
-658,159	208,296	-0,009	0,011
-657,145	-200,000	0,048	-0,181
-656,130	-200,000	0,006	-0,051
-655,116	-24,114	0,117	-0,050
-654,101	800,000	0,080	0,184
-653,086	-200,000	0,015	0,114
-652,072	800,000	-0,041	0,087
-651,057	247,112	-0,107	-0,131
-650,043	-61,649	0,124	0,037
-649,028	13,744	-0,026	-0,014
-648,014	-68,264	-0,056	-0,016
-646,999	800,000	0,062	-0,162
-645,984	-98,454	-0,100	0,018
-644,970	800,000	0,031	0,097
-643,955	53,778	-0,104	-0,072
-642,941	-95,239	-0,157	0,030
-641,926	4,761	0,072	-0,038
-640,911	33,049	0,064	0,040
-639,897	84,505	-0,079	0,062
-638,882	-200,000	-0,003	0,025
-637,868	-143,891	0,063	0,004
-636,853	-52,520	0,064	-0,021
-635,838	-200,000	-0,004	-0,127
-634,824	17,682	0,228	-0,131
-633,809	800,000	-0,036	-0,076
-632,795	141,676	0,078	-0,074
-631,780	106,011	0,121	-0,103
-630,765	218,480	0,113	-0,131
-629,751	746,149	0,013	-0,025
-628,736	586,400	-0,038	-0,067
-627,722	800,000	-0,031	-0,069
-626,707	213,610	-0,036	0,041
-625,692	122,101	0,084	0,075
-624,678	800,000	-0,017	0,045
-623,663	800,000	0,053	-0,157
-622,649	218,337	-0,017	0,019
-621,634	-200,000	-0,006	-0,038
-620,619	67,700	-0,104	0,077
-619,605	115,839	0,018	0,016
-618,590	-47,721	0,054	0,019
-617,576	-200,000	-0,013	-0,096
-616,561	494,401	0,072	-0,120
-615,546	-85,646	-0,107	0,024
-614,532	-34,488	-0,114	-0,045
-613,517	557,477	0,117	0,204
-612,503	-200,000	0,022	0,113
-611,488	-200,000	-0,020	-0,079
-610,474	-95,542	-0,046	-0,009
-609,459	365,654	0,016	-0,024
-608,444	-107,962	0,057	0,009
-607,430	-87,210	-0,155	-0,034
-606,415	-121,249	-0,099	0,012
-605,401	-71,066	0,069	0,018
-604,386	-65,849	0,078	0,022
-603,371	71,742	-0,054	0,041
-602,357	-34,948	-0,054	-0,021
-601,342	-84,570	0,076	0,017
-600,328	-200,000	-0,023	-0,145
-599,313	-40,617	-0,132	0,049
-598,298	-83,537	0,172	-0,039
-597,284	8,964	0,088	-0,047
-596,269	644,611	-0,045	-0,084
-595,255	-104,004	-0,068	0,011
-594,240	-200,000	-0,019	-0,223
-593,225	800,000	0,053	-0,117
-592,211	-200,000	-0,015	-0,121
-591,196	709,190	-0,083	-0,159
-590,182	-200,000	-0,012	0,077
-589,167	800,000	-0,013	-0,041
-588,152	-200,000	-0,017	-0,104
-587,138	142,130	0,050	-0,048
-586,123	230,517	0,110	-0,130
-585,109	800,000	-0,067	-0,168
-584,094	-4,153	-0,016	-0,008
-583,079	800,000	0,031	-0,086
-582,065	-5,083	-0,069	-0,034
-581,050	-62,752	0,053	-0,016
-580,036	30,430	-0,065	0,040
-579,021	-200,000	-0,028	-0,103
-578,006	301,369	0,028	-0,037
-576,992	31,282	0,083	-0,051
-575,977	303,316	-0,051	0,068
-574,963	38,215	-0,099	-0,063
-573,948	240,749	-0,070	0,085
-572,934	-200,000	-0,022	0,089
-571,919	318,120	-0,065	0,089
-570,904	-156,259	0,008	0,000
-569,890	-200,000	-0,016	0,071
-568,875	-200,000	-0,027	-0,103
-567,861	262,715	-0,037	-0,046
-566,846	86,742	0,065	0,052
-565,831	13,267	0,111	-0,061
-564,817	-11,307	-0,119	0,056
-563,802	-200,000	0,016	-0,057
-562,788	686,578	0,008	0,015
-561,773	-18,447	0,167	0,075
-560,758	-200,000	-0,008	-0,090
-559,744	399,558	0,085	-0,128
-558,729	-200,000	-0,007	0,105
-557,715	-71,775	-0,056	-0,015
-556,700	94,812	0,051	-0,041
-555,685	-200,000	-0,017	-0,055
-554,671	-26,282	0,102	-0,043
-553,656	800,000	0,021	-0,048
-552,642	-28,864	-0,101	0,041
-551,627	800,000	-0,020	-0,053
-550,612	-19,728	-0,117	0,052
-549,598	13,255	-0,044	-0,024
-548,583	-78,203	0,092	-0,023
-547,569	211,195	-0,158	-0,179
-546,554	63,084	-0,030	-0,022
-545,539	-88,334	0,188	-0,040
-544,525	-33,107	-0,083	-0,033
-543,510	-200,000	-0,021	-0,149
-542,496	589,608	0,006	0,010
-541,481	-52,324	-0,135	-0,045
-540,466	-24,740	0,026	-0,011
-539,452	165,946	0,110	-0,112
-538,437	-153,057	0,043	-0,002
-537,423	-87,436	0,048	-0,010
-536,408	79,304	-0,113	-0,087
-535,393	-200,000	0,058	-0,192
-534,379	331,847	-0,037	-0,051
-533,364	-200,000	0,020	0,102
-532,350	-126,805	-0,142	-0,015
-531,335	-200,000	0,003	-0,049
-530,321	-200,000	-0,001	0,132
-529,306	-200,000	-0,002	0,013
-528,291	3,403	-0,059	-0,031
-527,277	-93,183	-0,211	-0,042
-526,262	-200,000	-0,005	0,044
-525,248	-200,000	-0,025	-0,091
-524,233	-140,135	-0,142	-0,011
-523,218	-86,486	0,049	0,011
-522,204	-200,000	-0,006	-0,020
-521,189	-200,000	-0,043	-0,155
-520,175	226,915	-0,126	-0,147
-519,160	800,000	0,016	0,050
-518,145	-200,000	-0,000	0,048
-517,131	367,264	0,074	0,108
-516,116	205,715	-0,087	0,098
-515,102	-27,062	0,139	-0,058
-514,087	-82,265	-0,056	-0,013
-513,072	159,554	0,046	0,046
-512,058	-40,069	0,054	-0,020
-511,043	-200,000	-0,007	-0,057
-510,029	325,184	-0,100	0,138
-509,014	-77,323	0,149	0,037
-507,999	-129,950	-0,154	-0,015
-506,985	79,430	-0,088	-0,067
-505,970	180,094	-0,125	-0,132
-504,956	800,000	-0,026	-0,062
-503,941	-200,000	0,013	0,059
-502,926	32,645	-0,109	-0,068
-501,912	-119,567	0,075	-0,009
-500,897	-200,000	-0,021	-0,070
-499,883	525,252	-0,055	0,094
-498,868	624,940	-0,031	-0,056
-497,853	213,723	0,109	-0,124
-496,839	-142,777	0,155	0,011
-495,824	800,000	0,039	-0,110
-494,810	-200,000	0,032	0,137
-493,795	510,181	0,026	-0,044
-492,781	800,000	-0,032	0,087
-491,766	-200,000	-0,033	-0,136
-490,751	135,890	0,112	-0,105
-489,737	764,484	0,020	-0,039
-488,722	-200,000	0,008	0,036
-487,708	-21,661	-0,120	-0,052
-486,693	800,000	0,028	0,071
-485,678	616,329	-0,051	0,092
-484,664	344,002	-0,093	-0,131
-483,649	-51,547	0,074	-0,025
-482,635	545,576	0,070	-0,121
-481,620	25,666	0,075	0,045
-480,605	117,168	0,018	0,016
-479,591	-200,000	-0,004	0,084
-478,576	-110,711	0,020	-0,003
-477,562	-97,444	-0,034	-0,006
-476,547	-200,000	-0,005	-0,070
-475,532	800,000	-0,034	-0,076
-474,518	800,000	0,014	-0,029
-473,503	-83,989	0,072	0,016
-472,489	800,000	0,030	-0,091
-471,474	-38,701	0,070	-0,026
-470,459	-200,000	-0,004	0,065
-469,445	-62,552	0,005	-0,001
-468,430	674,101	-0,044	-0,082
-467,416	-177,736	0,222	-0,004
-466,401	-200,000	-0,013	0,140
-465,386	-200,000	-0,003	0,047
-464,372	7,842	0,065	-0,035
-463,357	-98,420	0,048	0,009
-462,343	-200,000	-0,001	-0,054
-461,328	224,488	-0,136	-0,158
-460,313	14,603	-0,038	0,021
-459,299	800,000	0,037	0,087
-458,284	-92,688	0,146	0,029
-457,270	56,762	-0,079	0,055
-456,255	62,105	0,179	-0,127
-455,241	-68,733	-0,149	0,041
-454,226	-67,623	0,069	0,019
-453,211	800,000	0,032	0,086
-452,197	191,314	-0,029	0,031
-451,182	-200,000	-0,027	0,092
-450,168	-55,899	-0,074	0,024
-449,153	-63,620	-0,108	-0,032
-448,138	-114,315	-0,063	-0,009
-447,124	-200,000	-0,017	-0,123
-446,109	243,674	0,093	-0,112
-445,095	800,000	0,002	0,007
-444,080	-74,847	0,093	0,024
-443,065	-200,000	-0,010	0,077
-442,051	76,384	0,100	-0,076
-441,036	572,173	-0,082	-0,143
-440,022	-69,019	-0,084	-0,023
-439,007	-71,108	-0,082	0,022
-437,992	-200,000	0,001	-0,056
-436,978	800,000	-0,018	-0,048
-435,963	800,000	0,026	-0,064
-434,949	-200,000	0,002	0,013
-433,934	-28,442	-0,048	0,020
-432,919	697,844	0,035	0,066
-431,905	74,241	0,044	-0,033
-430,890	-200,000	-0,025	0,110
-429,876	131,955	0,138	0,127
-428,861	-158,634	0,062	0,003
-427,846	-200,000	-0,030	-0,132
-426,832	-200,000	-0,008	-0,034
-425,817	-200,000	0,003	-0,086
-424,803	34,234	0,054	-0,034
-423,788	493,592	-0,063	0,103
-422,773	64,027	0,137	0,098
-421,759	-94,721	-0,221	0,043
-420,744	-167,084	0,071	-0,002
-419,730	131,861	0,056	0,051
-418,715	-200,000	-0,005	-0,075
-417,701	-56,309	-0,029	0,009
-416,686	-200,000	0,018	-0,059
-415,671	408,121	-0,007	-0,011
-414,657	-200,000	-0,030	0,109
-413,642	565,182	0,039	0,067
-412,628	-200,000	0,002	0,015
-411,613	-200,000	-0,009	0,036
-410,598	115,569	0,028	-0,024
-409,584	114,390	0,043	-0,037
-408,569	-158,090	0,196	-0,008
-407,555	-200,000	-0,003	0,149
-406,540	800,000	0,048	-0,108
-405,525	-70,902	-0,158	-0,042
-404,511	-200,000	0,003	-0,094
-403,496	-200,000	-0,012	-0,161
-402,482	267,899	-0,086	0,108
-401,467	-200,000	0,043	0,198
-400,452	81,192	0,085	0,066
-399,438	514,955	-0,025	-0,042
-398,423	139,097	0,089	0,084
-397,409	260,522	-0,067	0,083
-396,394	-200,000	0,009	-0,065
-395,379	800,000	0,045	-0,104
-394,365	-143,990	0,134	-0,009
-393,350	800,000	0,025	0,072
-392,336	-154,414	-0,138	0,007
-391,321	-200,000	0,020	0,153
-390,306	108,221	-0,060	0,051
-389,292	-200,000	0,003	0,029
-388,277	88,121	0,068	-0,054
-387,263	213,212	0,073	-0,083
-386,248	-19,523	0,072	0,032
-385,233	528,362	-0,044	-0,074
-384,219	-59,149	0,096	0,029
-383,204	-200,000	0,025	-0,099
-382,190	271,090	0,050	0,063
-381,175	-200,000	0,002	0,023
-380,160	364,535	0,041	-0,059
-379,146	-200,000	0,039	0,129
-378,131	51,932	0,029	0,020
-377,117	68,570	-0,062	-0,046
-376,102	-52,028	-0,025	-0,008
-375,088	-200,000	-0,030	-0,160
-374,073	800,000	0,013	0,026
-373,058	-6,773	-0,037	-0,018
-372,044	156,978	0,111	-0,110
-371,029	315,848	-0,082	0,111
-370,015	-200,000	0,011	0,045
-369,000	-200,000	0,022	0,166
-367,985	-93,106	-0,144	-0,028
-366,971	-0,669	0,032	-0,016
-365,956	-97,699	-0,141	-0,026
-364,942	128,743	-0,104	0,095
-363,927	-74,248	0,086	-0,022
-362,912	175,673	-0,068	-0,070
-361,898	157,137	-0,050	0,049
-360,883	47,199	-0,192	0,127
-359,869	-101,955	0,009	0,002
-358,854	800,000	0,012	0,034
-357,839	-200,000	0,019	-0,082
-356,825	-93,987	0,097	-0,019
-355,810	-35,220	-0,033	0,013
-354,796	-200,000	0,007	-0,061
-353,781	800,000	-0,074	0,188
-352,766	-200,000	-0,018	-0,103
-351,752	-200,000	0,019	0,063
-350,737	72,946	0,179	-0,133
-349,723	688,645	0,061	0,114
-348,708	30,919	0,069	0,042
-347,693	-200,000	0,042	-0,153
-346,679	-82,319	-0,087	-0,020
-345,664	1,769	0,053	0,027
-344,650	334,769	0,064	0,089
-343,635	800,000	-0,082	0,250
-342,620	-200,000	-0,072	0,248
-341,606	800,000	0,030	0,075
-340,591	286,286	0,052	-0,067
-339,577	800,000	-0,011	0,023
-338,562	-117,018	-0,084	0,011
-337,548	800,000	0,021	0,051
-336,533	198,124	-0,085	0,093
-335,518	-84,218	0,057	0,013
-334,504	339,757	-0,050	-0,070
-333,489	335,219	0,074	0,103
-332,475	5,291	-0,105	-0,055
-331,460	99,001	-0,092	-0,076
-330,445	-200,000	0,033	-0,147
-329,431	43,157	0,168	0,109
-328,416	-200,000	-0,015	0,083
-327,402	140,358	0,088	0,083
-326,387	-86,729	-0,124	0,027
-325,372	-74,763	-0,033	0,008
-324,358	-32,063	-0,074	0,029
-323,343	18,201	-0,158	-0,090
-322,329	180,062	0,094	0,098
-321,314	-200,000	-0,036	0,198
-320,299	-138,763	-0,100	0,008
-319,285	-163,214	0,191	0,006
-318,270	-200,000	-0,036	0,149
-317,256	800,000	-0,044	-0,090
-316,241	-65,664	-0,188	-0,053
-315,226	-200,000	0,008	0,038
-314,212	239,797	0,050	0,060
-313,197	-131,261	0,126	-0,012
-312,183	257,716	-0,027	0,033
-311,168	-200,000	0,038	-0,191
-310,153	215,360	0,086	-0,098
-309,139	-49,556	0,093	0,031
-308,124	-200,000	-0,024	0,081
-307,110	61,889	0,042	-0,030
-306,095	478,596	0,030	0,049
-305,080	14,217	0,099	0,055
-304,066	164,103	-0,013	0,013
-303,051	139,698	-0,063	-0,059
-302,037	-177,206	-0,026	-0,000
-301,022	800,000	0,033	0,075
-300,008	322,672	0,067	0,092
-298,993	60,318	0,116	0,082
-297,978	59,218	-0,050	0,035
-296,964	128,666	-0,137	0,125
-295,949	800,000	-0,059	0,141
-294,935	440,155	-0,042	0,066
-293,920	-200,000	0,017	0,084
-292,905	-200,000	0,007	0,127
-291,891	-200,000	-0,012	0,089
-290,876	-200,000	0,008	0,045
-289,862	-192,576	-0,206	-0,001
-288,847	100,613	0,111	-0,091
-287,832	27,240	0,043	-0,026
-286,818	-186,644	-0,090	0,001
-285,803	-42,436	0,036	-0,013
-284,789	800,000	-0,021	0,063
-283,774	-36,972	-0,093	0,035
-282,759	46,459	-0,137	-0,090
-281,745	-200,000	-0,011	0,059
-280,730	127,397	0,107	-0,097
-279,716	175,070	0,055	0,057
-278,701	103,440	0,022	-0,018
-277,686	800,000	-0,045	0,136
-276,672	401,103	0,071	0,106
-275,657	800,000	0,036	0,088
-274,643	-164,730	-0,159	0,005
-273,628	-114,943	0,023	-0,003
-272,613	84,297	-0,111	0,086
-271,599	800,000	-0,039	0,097
-270,584	800,000	0,041	0,090
-269,570	218,109	0,036	0,040
-268,555	-200,000	0,011	0,139
-267,540	-168,290	-0,073	-0,002
-266,526	-123,183	-0,093	0,010
-265,511	162,777	0,057	-0,057
-264,497	-200,000	-0,020	-0,096
-263,482	334,268	0,050	0,069
-262,467	433,363	0,075	0,116
-261,453	78,061	0,085	-0,065
-260,438	-23,865	-0,109	0,046
-259,424	15,534	-0,146	-0,081
-258,409	-78,562	-0,080	-0,019
-257,395	-110,847	0,052	0,008
-256,380	-200,000	0,028	-0,091
-255,365	-200,000	-0,012	-0,064
-254,351	-200,000	-0,001	-0,170
-253,336	-43,602	0,169	0,060
-252,322	-200,000	-0,010	-0,052
-251,307	683,502	0,037	-0,069
-250,292	-52,665	0,043	0,014
-249,278	800,000	0,015	0,035
-248,263	-200,000	0,019	-0,068
-247,249	-10,303	-0,128	0,060
-246,234	77,770	0,093	-0,071
-245,219	-200,000	0,052	-0,166
-244,205	184,451	-0,045	0,047
-243,190	-116,667	-0,065	0,008
-242,176	167,036	0,081	0,082
-241,161	372,958	0,029	0,042
-240,146	800,000	-0,058	0,160
-239,132	-39,658	-0,061	-0,022
-238,117	-26,420	0,055	0,023
-237,103	485,512	-0,035	0,057
-236,088	-74,660	-0,075	0,019
-235,073	-4,820	0,096	-0,047
-234,059	-44,889	0,058	-0,020
-233,044	-200,000	-0,004	0,078
-232,030	-64,609	-0,085	-0,024
-231,015	-22,597	-0,122	-0,052
-230,000	-92,251	-0,072	-0,014
-228,986	-200,000	0,028	0,089
-227,971	87,983	0,045	-0,035
-226,957	-67,907	0,078	-0,021
-225,942	-115,834	-0,099	0,013
-224,927	-28,155	0,082	-0,033
-223,913	-52,741	0,100	0,033
-222,898	-24,093	-0,149	-0,063
-221,884	-170,621	-0,071	-0,002
-220,869	-200,000	-0,004	0,045
-219,855	-200,000	0,011	0,132
-218,840	184,260	0,018	-0,018
-217,825	-60,789	0,163	0,049
-216,811	-200,000	-0,022	0,072
-215,796	669,138	-0,042	-0,078
-214,782	-171,864	0,094	0,002
-213,767	-51,195	0,021	0,007
-212,752	778,096	-0,017	0,032
-211,738	-156,908	0,165	0,007
-210,723	122,421	-0,022	0,019
-209,709	-200,000	0,017	0,055
-208,694	-150,776	-0,116	0,006
-207,679	135,130	0,035	-0,033
-206,665	81,794	-0,177	0,136
-205,650	120,103	0,101	-0,089
-204,636	435,018	0,103	0,160
-203,621	158,147	0,070	0,069
-202,606	-31,889	-0,038	0,015
-201,592	-72,877	-0,111	0,029
-200,577	-200,000	-0,001	0,021
-199,563	-3,544	0,025	0,012
-198,548	800,000	0,031	0,068
-197,533	232,884	0,109	0,128
-196,519	221,386	0,084	0,096
-195,504	-200,000	0,000	0,004
-194,490	159,036	-0,012	0,012
-193,475	-200,000	-0,026	0,083
-192,460	78,789	0,044	0,033
-191,446	-42,044	-0,077	-0,028
-190,431	646,027	-0,039	0,071
-189,417	-118,371	0,110	0,014
-188,402	-76,406	0,021	-0,005
-187,387	800,000	0,014	-0,038
-186,373	-39,708	-0,047	-0,017
-185,358	-38,017	-0,062	-0,023
-184,344	22,601	-0,047	-0,027
-183,329	262,132	0,094	0,115
-182,315	22,837	-0,119	0,069
-181,300	-113,420	-0,090	0,012
-180,285	16,866	-0,048	0,027
-179,271	-82,036	-0,026	0,006
-178,256	-200,000	-0,009	0,070
-177,242	-46,463	0,118	0,041
-176,227	-139,421	0,052	-0,004
-175,212	-102,756	0,077	0,013
-174,198	-200,000	-0,000	0,117
-173,183	242,381	-0,044	-0,053
-172,169	-66,548	0,079	-0,022
-171,154	170,613	-0,062	-0,063
-170,139	-200,000	0,017	0,134
-169,125	222,087	-0,057	0,065
-168,110	44,141	-0,102	-0,066
-167,096	-141,916	0,033	0,002
-166,081	56,683	-0,014	0,010
-165,066	-200,000	-0,026	-0,081
-164,052	228,810	0,127	0,147
-163,037	-200,000	-0,037	0,131
-162,023	-200,000	-0,011	-0,112
-161,008	800,000	-0,005	0,014
-159,993	36,704	0,069	0,043
-158,979	-200,000	-0,047	-0,210
-157,964	-24,221	-0,053	0,022
-156,950	-200,000	0,003	-0,217
-155,935	-154,425	0,137	-0,006
-154,920	795,429	0,060	0,117
-153,906	-27,670	0,115	0,047
-152,891	448,862	-0,040	-0,063
-151,877	-50,019	-0,006	0,002
-150,862	-111,296	0,092	0,013
-149,847	24,524	0,079	-0,046
-148,833	-20,336	0,170	-0,074
-147,818	589,754	0,035	0,061
-146,804	-67,029	0,072	0,020
-145,789	800,000	0,097	0,232
-144,775	275,675	-0,043	-0,054
-143,760	-200,000	-0,029	-0,133
-142,745	310,567	-0,065	0,087
-141,731	-44,442	0,064	-0,023
-140,716	-167,689	0,038	-0,001
-139,702	357,428	0,069	-0,098
-138,687	244,301	0,059	-0,071
-137,672	315,529	-0,018	-0,024
-136,658	-58,145	0,077	0,024
-135,643	-69,678	-0,034	0,009
-134,629	-200,000	0,007	-0,148
-133,614	800,000	0,020	-0,045
-132,599	361,018	0,092	0,131
-131,585	800,000	-0,059	0,130
-130,570	-37,913	-0,025	0,009
-129,556	131,695	0,032	-0,029
-128,541	800,000	-0,024	-0,074
-127,526	346,815	0,118	0,165
-126,512	356,340	0,072	0,101
-125,497	77,305	0,038	0,028
-124,483	-47,022	0,220	0,075
-123,468	800,000	0,052	0,136
-122,453	140,493	0,092	-0,086
-121,439	800,000	-0,022	-0,060
-120,424	-200,000	-0,013	-0,110
-119,410	152,903	0,058	-0,056
-118,395	54,104	0,086	-0,059
-117,380	-160,630	0,064	0,002
-116,366	591,717	-0,029	-0,050
-115,351	13,953	-0,086	-0,047
-114,337	-200,000	0,014	0,086
-113,322	-200,000	0,022	-0,080
-112,307	6,770	-0,114	-0,060
-111,293	-200,000	-0,007	-0,066
-110,278	800,000	-0,012	0,034
-109,264	800,000	-0,018	0,038
-108,249	800,000	0,054	0,146
-107,234	-200,000	-0,010	-0,033
-106,220	-200,000	0,004	-0,072
-105,205	-133,424	-0,068	0,006
-104,191	10,853	0,061	0,033
-103,176	139,139	0,029	0,027
-102,162	249,204	0,058	-0,069
-101,147	-200,000	-0,017	-0,112
-100,132	800,000	-0,056	-0,142
-99,118	-59,040	-0,057	-0,017
-98,103	-24,579	0,014	-0,006
-97,089	84,618	-0,049	0,038
-96,074	-107,992	0,100	-0,015
-95,059	97,996	0,065	-0,053
-94,045	-200,000	-0,004	0,184
-93,030	36,570	-0,040	-0,025
-92,016	153,033	0,010	0,010
-91,001	-200,000	-0,011	-0,058
-89,986	93,703	0,099	0,079
-88,972	800,000	-0,009	-0,024
-87,957	33,623	-0,077	0,047
-86,943	-37,494	-0,081	0,031
-85,928	340,482	0,076	-0,105
-84,913	200,195	-0,115	0,125
-83,899	-51,106	-0,115	0,038
-82,884	-200,000	-0,032	-0,158
-81,870	-200,000	0,013	-0,088
-80,855	531,762	0,047	0,078
-79,840	94,085	-0,034	-0,027
-78,826	-19,124	0,055	-0,024
-77,811	-0,087	0,019	-0,010
-76,797	22,644	-0,132	0,076
-75,782	-200,000	0,013	-0,152
-74,767	146,382	0,075	0,071
-73,753	153,134	0,117	-0,113
-72,738	-200,000	0,007	0,114
-71,724	800,000	0,071	0,154
-70,709	333,621	-0,017	-0,023
-69,694	-130,771	0,141	-0,013
-68,680	-65,434	-0,067	-0,019
-67,665	-23,666	0,121	-0,051
-66,651	-200,000	-0,006	0,040
-65,636	-200,000	0,004	-0,128
-64,622	-200,000	-0,015	-0,065
-63,607	-60,744	-0,034	-0,010
-62,592	800,000	0,018	-0,049
-61,578	-10,497	-0,073	-0,034
-60,563	482,655	-0,065	-0,105
-59,549	800,000	0,007	0,014
-58,534	42,883	-2,295	-1,473
-57,519	533,078	-1,056	-1,771
-56,505	-200,000	-0,499	-4,428
-55,490	518,922	0,971	1,610
-54,476	800,000	5,239	11,421
-53,461	-200,000	22,648	347,798
-52,446	800,000	758,045	2285,580
-51,432	529,391	1642,192	2745,172
-50,417	67,274	1640,338	1178,577
-49,403	15,410	1518,005	837,951
-48,388	9,636	1444,412	769,626
-47,373	19,355	1437,247	812,037
-46,359	13,244	1425,672	776,660
-45,344	7,966	1421,904	749,637
-44,330	7,929	1419,752	748,298
-43,315	7,863	1418,131	747,105
-42,300	7,922	1416,092	746,279
-41,286	7,945	1414,890	745,721
-40,271	7,907	1413,952	745,019
-39,257	7,849	1412,805	744,116
-38,242	7,922	1411,494	743,738
-37,227	7,955	1410,345	743,256
-36,213	7,896	1408,978	742,230
-35,198	7,910	1407,824	741,658
-34,184	7,922	1407,037	741,270
-33,169	7,848	1405,691	740,187
-32,154	7,892	1404,708	739,845
-31,140	7,826	1403,735	738,995
-30,125	7,917	1402,324	738,645
-29,111	7,893	1401,102	737,861
-28,096	7,867	1400,044	737,154
-27,082	7,811	1398,962	736,296
-26,067	7,803	1397,868	735,653
-25,052	7,825	1396,896	735,215
-24,038	7,863	1395,613	734,688
-23,023	7,838	1394,866	734,146
-22,009	7,806	1393,913	733,471
-20,994	7,812	1392,987	732,980
-19,979	7,820	1391,966	732,449
-18,965	7,791	1390,912	731,733
-17,950	7,736	1389,927	730,933
-16,936	7,756	1389,148	730,585
-15,921	7,721	1388,278	729,935
-14,906	7,711	1387,202	729,296
-13,892	7,761	1386,102	728,920
-12,877	7,784	1385,205	728,525
-11,863	7,678	1384,752	727,770
-10,848	7,730	1383,793	727,473
-9,833	7,686	1382,722	726,682
-8,819	7,654	1382,024	726,140
-7,804	7,665	1381,071	725,658
-6,790	7,631	1380,225	725,029
-5,775	7,644	1378,890	724,359
-4,760	7,660	1378,207	724,044
-3,746	7,663	1377,161	723,479
-2,731	7,652	1376,347	722,976
-1,717	7,684	1375,359	722,573
-0,702	7,641	1373,844	721,551
0,313	11,553	1283,807	691,981
1,327	27,106	675,539	398,705
2,342	42,352	116,010	74,191
3,356	-2,103	16,610	8,194
4,371	-4,689	3,986	1,932
5,386	18,655	1,377	0,774
6,400	800,000	0,267	0,659
7,415	-199,804	-0,226	0,001
8,429	258,009	-0,230	-0,280
9,444	103,184	-0,231	-0,191
10,459	187,935	-0,321	-0,338
11,473	62,115	-0,262	-0,184
12,488	-9,143	-0,210	-0,098
13,502	49,687	-0,272	-0,180
14,517	16,781	-0,371	-0,206
15,531	135,232	-0,350	-0,320
16,546	-66,060	-0,362	-0,101
17,561	79,010	-0,291	-0,219
18,575	-99,824	-0,165	0,029
19,590	159,789	-0,196	-0,193
20,604	-111,234	-0,323	-0,046
21,619	357,122	-0,297	-0,418
22,634	25,146	-0,496	-0,289
23,648	52,327	-0,407	-0,273
24,663	158,561	-0,335	-0,327
25,677	67,132	-0,241	-0,173
26,692	101,016	-0,292	-0,239
27,707	101,896	-0,257	-0,211
28,721	63,457	-0,336	-0,236
29,736	110,225	-0,352	-0,297
30,750	137,673	-0,404	-0,372
31,765	183,051	-0,273	-0,284
32,780	54,854	-0,346	-0,235
33,794	99,042	-0,375	-0,305
34,809	247,039	-0,255	-0,303
35,823	-95,166	-0,426	-0,080
36,838	-31,131	-0,410	-0,162
37,853	97,374	-0,409	-0,330
38,867	271,243	-0,336	-0,417
39,882	-4,793	-0,338	-0,163
40,896	-65,971	-0,464	-0,129
41,911	53,920	-0,424	-0,286
42,926	36,099	-0,362	-0,223
43,940	543,168	-0,255	-0,429
44,955	12,878	-0,268	-0,145
45,969	19,715	-0,417	-0,235
46,984	108,602	-0,291	-0,244
47,999	21,858	-0,250	-0,143
49,013	35,617	-0,268	-0,165
50,028	-26,797	-0,237	-0,097
51,042	-68,639	-0,381	-0,103
52,057	274,265	-0,217	-0,270
53,071	76,459	-0,311	-0,231
54,086	94,488	-0,255	-0,204
55,101	129,633	-0,254	-0,227
56,115	18,788	-0,288	-0,162
57,130	13,118	-0,420	-0,227
58,144	-63,319	-0,359	-0,103
59,159	58,301	-0,468	-0,322
60,174	146,176	-0,296	-0,278
61,188	90,605	-0,349	-0,274
62,203	36,782	-0,358	-0,221
63,217	74,943	-0,272	-0,201
64,232	116,705	-0,302	-0,260
65,247	-45,603	-0,342	-0,118
66,261	137,008	-0,348	-0,318
67,276	64,186	-0,311	-0,219
68,290	4,574	-0,230	-0,118
69,305	77,952	-0,237	-0,177
70,320	22,208	-0,390	-0,223
71,334	-160,140	-0,134	-0,005
72,349	-13,873	-0,326	-0,147
73,363	405,540	-0,199	-0,294
74,378	49,801	-0,286	-0,189
75,393	69,751	-0,245	-0,176
76,407	-113,365	-0,327	-0,044
77,422	605,315	-0,095	-0,167
78,436	56,065	-0,151	-0,102
79,451	17,527	-0,313	-0,174
80,466	58,859	-0,285	-0,196
81,480	140,637	-0,330	-0,305
82,495	-15,928	-0,324	-0,144
83,509	33,250	-0,279	-0,169
84,524	-71,222	-0,384	-0,100
85,539	-83,424	-0,251	-0,056
86,553	339,449	-0,203	-0,278
87,568	101,708	-0,278	-0,227
88,582	10,412	-0,361	-0,192
89,597	28,438	-0,157	-0,093
90,611	198,536	-0,333	-0,357
91,626	-79,965	-0,304	-0,071
92,641	45,318	-0,261	-0,168
93,655	41,872	-0,292	-0,185
94,670	26,670	-0,298	-0,174
95,684	85,744	-0,312	-0,239
96,699	193,492	-0,276	-0,292
97,714	321,382	-0,221	-0,294
98,728	58,095	-0,216	-0,148
99,743	-17,624	-0,305	-0,133
100,757	20,407	-0,233	-0,131
101,772	109,223	-0,246	-0,205
102,787	-38,825	-0,318	-0,117
103,801	-28,873	-0,323	-0,129
104,816	147,194	-0,169	-0,159
105,830	10,883	-0,308	-0,164
106,845	-13,810	-0,131	-0,059
107,860	125,151	-0,240	-0,212
108,874	62,816	-0,368	-0,257
109,889	800,000	-0,173	-0,335
110,903	123,273	-0,211	-0,185
111,918	123,421	-0,244	-0,213
112,933	-122,584	-0,209	-0,023
113,947	-97,006	-0,217	-0,039
114,962	544,340	-0,164	-0,274
115,976	-20,997	-0,284	-0,121
116,991	193,131	-0,260	-0,274
118,006	231,876	-0,217	-0,248
119,020	262,292	-0,192	-0,233
120,035	142,827	-0,248	-0,230
121,049	-104,757	-0,315	-0,050
122,064	233,578	-0,155	-0,179
123,079	301,786	-0,196	-0,254
124,093	150,175	-0,341	-0,323
125,108	140,526	-0,183	-0,168
126,122	186,863	-0,277	-0,288
127,137	100,052	-0,304	-0,245
128,151	-38,576	-0,252	-0,092
129,166	-40,312	-0,328	-0,118
130,181	70,640	-0,240	-0,173
131,195	-122,793	-0,189	0,021
132,210	48,080	-0,242	-0,158
133,224	147,559	-0,140	-0,131
134,239	-98,325	-0,400	-0,071
135,254	-84,461	-0,187	-0,041
136,268	152,868	-0,183	-0,175
137,283	81,691	-0,279	-0,210
138,297	24,938	-0,323	-0,186
139,312	800,000	-0,169	-0,358
140,327	102,744	-0,199	-0,162
141,341	273,459	-0,186	-0,229
142,356	230,533	-0,158	-0,180
143,370	-101,022	-0,178	-0,030
144,385	-62,990	-0,200	-0,057
145,400	22,317	-0,153	-0,087
146,414	-52,705	-0,276	-0,088
147,429	16,861	-0,366	-0,201
148,443	293,220	-0,241	-0,307
149,458	141,027	-0,241	-0,221
150,473	-77,533	-0,338	-0,081
151,487	-30,276	-0,293	-0,115
152,502	183,853	-0,103	-0,106
153,516	87,935	-0,227	-0,175
154,531	-49,535	-0,352	-0,116
155,546	102,253	-0,224	-0,182
156,560	48,946	-0,309	-0,201
157,575	8,979	-0,280	-0,147
158,589	-200,000	-0,049	-0,168
159,604	232,991	-0,188	-0,216
160,619	17,770	-0,434	-0,240
161,633	85,758	-0,317	-0,242
162,648	208,576	-0,225	-0,245
163,662	-147,418	-0,240	-0,014
164,677	-24,512	-0,246	-0,101
165,692	348,896	-0,161	-0,221
166,706	-100,202	-0,189	-0,032
167,721	3,300	-0,271	-0,137
168,735	800,000	-0,145	-0,284
169,750	68,141	-0,234	-0,166
170,764	201,907	-0,223	-0,240
171,779	-179,410	-0,266	-0,004
172,794	124,876	-0,162	-0,141
173,808	-6,323	-0,221	-0,104
174,823	1,365	-0,351	-0,174
175,837	-64,666	-0,232	-0,065
176,852	-48,362	-0,082	0,027
177,867	711,569	-0,061	-0,113
178,881	-134,457	-0,285	-0,024
179,896	-47,166	-0,133	-0,045
180,910	128,452	-0,224	-0,198
181,925	95,847	-0,292	-0,231
182,940	504,332	-0,160	-0,258
183,954	-45,685	-0,312	-0,106
184,969	91,519	-0,185	-0,144
185,983	-56,191	-0,132	-0,040
186,998	-3,362	-0,086	-0,041
188,013	48,345	-0,142	-0,092
189,027	0,716	-0,184	-0,091
190,042	76,699	-0,179	-0,132
191,056	39,367	-0,261	-0,162
192,071	655,344	-0,096	-0,172
193,086	31,727	-0,125	-0,075
194,100	89,973	-0,157	-0,122
195,115	29,703	-0,250	-0,147
196,129	90,690	-0,113	-0,088
197,144	54,636	-0,187	-0,125
198,159	-32,928	-0,252	-0,097
199,173	-200,000	-0,064	-0,282
200,188	-86,640	-0,288	-0,061
201,202	162,395	-0,213	-0,207
202,217	89,670	-0,183	-0,141
203,232	176,104	-0,208	-0,210
204,246	-111,088	-0,240	-0,034
205,261	-57,705	-0,251	-0,076
206,275	183,813	-0,233	-0,239
207,290	-81,683	-0,210	-0,047
208,304	-52,008	-0,145	-0,046
209,319	-34,451	-0,123	-0,046
210,334	14,877	-0,268	-0,145
211,348	113,585	-0,189	-0,159
212,363	75,795	-0,217	-0,158
213,377	-4,053	-0,202	-0,097
214,392	63,135	-0,039	-0,027
215,407	487,639	-0,151	-0,239
216,421	205,978	-0,084	-0,090
217,436	-71,257	-0,227	-0,059
218,450	125,625	-0,211	-0,184
219,465	-64,898	-0,170	-0,047
220,480	800,000	-0,097	-0,255
221,494	59,846	-0,269	-0,184
222,509	90,784	-0,143	-0,111
223,523	-8,930	-0,200	-0,092
224,538	-9,712	-0,101	-0,046
225,553	332,146	-0,133	-0,179
226,567	65,176	-0,256	-0,179
227,582	67,603	-0,190	-0,134
228,596	-41,473	-0,131	-0,046
229,611	-200,000	-0,057	-0,186
230,626	800,000	-0,071	-0,156
231,640	140,735	-0,192	-0,176
232,655	255,084	-0,117	-0,138
233,669	800,000	-0,103	-0,312
234,684	800,000	-0,095	-0,192
235,699	-200,000	-0,041	-0,138
236,713	-194,057	-0,102	0,001
237,728	750,955	-0,100	-0,187
238,742	131,219	-0,198	-0,175
239,757	37,493	-0,245	-0,150
240,772	184,583	-0,243	-0,249
241,786	176,131	-0,191	-0,192
242,801	508,084	-0,067	-0,108
243,815	379,342	-0,067	-0,095
244,830	226,195	-0,109	-0,122
245,844	167,256	-0,246	-0,241
246,859	-80,108	-0,133	-0,031
247,874	413,631	-0,155	-0,228
248,888	-0,423	-0,163	-0,079
249,903	397,015	-0,151	-0,218
250,917	-142,738	-0,087	0,006
251,932	128,154	-0,115	-0,101
252,947	213,668	-0,187	-0,205
253,961	-29,545	-0,252	-0,099
254,976	378,737	-0,137	-0,194
255,990	161,746	-0,192	-0,186
257,005	292,657	-0,144	-0,181
258,020	183,466	-0,081	-0,083
259,034	4,878	-0,227	-0,115
260,049	100,232	-0,190	-0,152
261,063	-159,847	-0,127	-0,005
262,078	83,647	-0,179	-0,134
263,093	-78,633	-0,343	-0,080
264,107	12,752	-0,289	-0,153
265,122	85,110	-0,160	-0,121
266,136	-44,070	-0,196	-0,067
267,151	130,048	-0,111	-0,098
268,166	-56,112	-0,096	0,029
269,180	100,272	-0,265	-0,212
270,195	50,176	-0,138	-0,090
271,209	354,500	-0,158	-0,217
272,224	-29,830	-0,137	-0,053
273,239	-113,971	-0,181	-0,024
274,253	63,994	-0,166	-0,114
275,268	396,849	-0,177	-0,255
276,282	286,497	-0,174	-0,216
277,297	264,616	-0,220	-0,264
278,312	258,391	-0,160	-0,190
279,326	532,728	-0,097	-0,159
280,341	-85,163	-0,086	-0,018
281,355	-60,024	-0,150	-0,044
282,370	-25,898	-0,231	-0,093
283,384	-200,000	-0,084	-0,268
284,399	195,338	-0,110	-0,115
285,414	1,584	-0,041	-0,020
286,428	231,627	-0,120	-0,136
287,443	-150,192	-0,188	0,010
288,457	48,420	-0,184	-0,118
289,472	-111,380	-0,228	-0,032
290,487	148,502	-0,126	-0,117
291,501	-29,814	-0,135	-0,053
292,516	66,353	-0,295	-0,206
293,530	-200,000	-0,062	-0,198
294,545	24,272	-0,197	-0,111
295,560	-59,433	-0,077	-0,022
296,574	72,425	-0,177	-0,126
297,589	200,502	-0,223	-0,236
298,603	306,835	-0,203	-0,260
299,618	478,156	-0,066	-0,104
300,633	-200,000	-0,090	-0,000
301,647	17,949	-0,118	-0,065
302,662	-64,650	-0,124	0,034
303,676	64,665	-0,135	-0,093
304,691	-38,461	-0,119	-0,043
305,706	-108,807	-0,123	0,018
306,720	517,044	-0,096	-0,155
307,735	-200,000	-0,007	-0,085
308,749	-160,726	-0,081	0,003
309,764	115,626	-0,107	-0,090
310,779	-200,000	0,040	-0,205
311,793	218,334	-0,081	-0,089
312,808	-53,097	-0,209	-0,065
313,822	98,288	-0,181	-0,143
314,837	50,055	-0,115	-0,074
315,852	-40,045	-0,124	0,044
316,866	262,327	-0,092	-0,110
317,881	-56,242	-0,151	0,046
318,895	-179,510	-0,319	-0,005
319,910	178,214	-0,202	-0,202
320,925	68,811	-0,199	-0,140
321,939	800,000	-0,108	-0,215
322,954	146,709	-0,113	0,104
323,968	-126,661	-0,184	-0,018
324,983	-4,398	-0,149	-0,070
325,997	147,468	-0,222	-0,205
327,012	429,003	-0,104	-0,155
328,027	111,967	-0,225	-0,186
329,041	-26,073	-0,077	-0,031
330,056	-37,543	-0,191	-0,069
331,070	-200,000	-0,020	-0,076
332,085	-103,796	-0,047	0,007
333,100	8,860	-0,170	-0,087
334,114	110,402	-0,172	-0,142
335,129	240,599	-0,138	-0,157
336,143	348,068	-0,099	-0,133
337,158	325,504	-0,066	-0,086
338,173	-200,000	-0,026	-0,081
339,187	-136,339	-0,186	-0,015
340,202	82,532	-0,119	0,088
341,216	-200,000	0,019	-0,178
342,231	117,937	-0,206	-0,174
343,246	359,832	-0,188	-0,258
344,260	-76,008	-0,216	-0,052
345,275	23,272	-0,231	0,130
346,289	334,424	-0,069	-0,092
347,304	-132,114	-0,121	0,011
348,319	-200,000	0,040	-0,247
349,333	-200,000	-0,040	-0,123
350,348	55,321	-0,156	-0,103
351,362	27,211	-0,143	-0,082
352,377	352,279	-0,095	-0,129
353,392	305,887	-0,061	-0,078
354,406	-200,000	-0,023	-0,091
355,421	206,717	1308,515	1394,782
356,435	158,991	1468,404	1395,210
