DTS Sentinel unit serial number:	SN410029Multiplexer serial number:	ORYXHardware model number:	OX2-SRSoftware version number:	ORYX F/W v4,00 Oryx Data Collector v3.7.2.0data status	okinstallation	B3 Nyhavnadifferential loss correction	single-endedforward channel	channel 1reverse channel	N/Adate	2023/12/02time	22:07:30forward acquisition time	300,00reverse acquisition time	0,00gamma	499,1914k internal	0,3201k external	0,3201temperature offset calibration	1,0000default loss term (dB/km)	0,3820temperature slope calibration	1,0000multiplexer offset coefficient	1,0000multiplexer slope coefficient	1,0000fibre end	0,00T internal ref (°C)	13,21T ext. ref 1 (°C)	-1,85T ext. ref 2 (°C)	-1,87length (m)	temperature (°C)	Stokes	anti-Stokes-744,400	348,536	-0,152	-0,218
-743,385	-200,000	-0,017	0,300
-742,371	93,970	-0,197	-0,162
-741,356	800,000	0,119	0,291
-740,342	231,735	-0,202	-0,241
-739,327	-200,000	0,021	0,418
-738,312	40,931	-0,217	-0,142
-737,298	-200,000	0,085	0,284
-736,283	306,798	-0,130	-0,176
-735,269	-200,000	0,052	0,343
-734,254	102,041	-0,205	-0,174
-733,239	-102,801	-0,228	0,039
-732,225	107,131	-0,286	-0,247
-731,210	450,046	0,032	0,051
-730,196	-80,998	0,086	-0,021
-729,181	136,981	-0,043	-0,041
-728,167	-200,000	-0,029	-0,098
-727,152	-200,000	0,022	0,070
-726,137	137,602	-0,060	0,057
-725,123	-136,514	-0,043	0,004
-724,108	59,113	-0,074	-0,053
-723,094	-200,000	-0,007	-0,177
-722,079	-200,000	-0,014	-0,123
-721,064	653,381	-0,040	0,075
-720,050	305,571	-0,132	0,179
-719,035	-30,797	-0,061	-0,025
-718,021	225,124	-0,131	-0,155
-717,006	713,104	0,054	-0,105
-715,991	-200,000	-0,010	-0,099
-714,977	60,667	0,048	-0,035
-713,962	366,120	0,016	-0,023
-712,948	9,467	-0,039	0,022
-711,933	-200,000	0,036	0,152
-710,918	-178,700	-0,057	-0,001
-709,904	280,324	-0,054	-0,071
-708,889	-120,367	-0,074	-0,009
-707,875	-200,000	-0,011	-0,089
-706,860	110,718	0,115	-0,101
-705,845	12,268	0,169	-0,094
-704,831	22,724	-0,018	0,010
-703,816	800,000	-0,055	0,121
-702,802	640,801	-0,037	-0,068
-701,787	-200,000	-0,023	0,076
-700,772	245,632	-0,083	-0,102
-699,758	-200,000	-0,005	-0,067
-698,743	118,465	0,030	0,027
-697,729	-200,000	0,000	-0,071
-696,714	-62,231	0,077	0,023
-695,699	84,736	-0,103	-0,082
-694,685	112,976	-0,026	-0,023
-693,670	201,522	0,106	-0,119
-692,656	-200,000	-0,013	0,127
-691,641	444,040	0,026	0,042
-690,627	203,507	0,109	-0,122
-689,612	156,152	-0,083	0,083
-688,597	143,638	-0,007	-0,007
-687,583	800,000	-0,037	-0,092
-686,568	800,000	-0,041	-0,121
-685,554	-200,000	0,030	-0,117
-684,539	-200,000	0,031	0,202
-683,524	106,656	-0,132	-0,113
-682,510	185,237	-0,040	0,043
-681,495	120,827	-0,081	0,073
-680,481	800,000	-0,044	-0,098
-679,466	-20,543	-0,113	-0,050
-678,451	-82,824	-0,091	0,021
-677,437	172,596	0,040	0,042
-676,422	143,415	0,045	0,043
-675,408	-200,000	0,006	-0,083
-674,393	24,275	-0,090	-0,054
-673,378	800,000	0,022	0,048
-672,364	800,000	0,050	0,136
-671,349	-200,000	-0,001	0,069
-670,335	637,101	-0,036	-0,066
-669,320	95,490	0,137	0,113
-668,305	128,029	-0,141	0,130
-667,291	136,928	-0,059	0,056
-666,276	-200,000	0,014	-0,140
-665,262	39,319	0,099	0,064
-664,247	-101,492	-0,115	-0,020
-663,232	87,639	-0,104	-0,084
-662,218	-133,210	-0,065	0,006
-661,203	41,374	-0,178	-0,117
-660,189	-17,000	0,115	0,052
-659,174	-200,000	-0,006	0,099
-658,159	159,755	-0,084	-0,085
-657,145	-107,320	-0,182	0,029
-656,130	-200,000	0,001	-0,047
-655,116	-28,060	0,067	-0,028
-654,101	-64,688	-0,048	0,014
-653,086	-8,788	-0,040	0,019
-652,072	699,367	0,035	-0,066
-651,057	-101,873	-0,018	-0,003
-650,043	608,420	0,036	-0,065
-649,028	-200,000	-0,034	-0,132
-648,014	-200,000	0,004	0,050
-646,999	800,000	0,037	0,096
-645,984	325,056	-0,024	-0,033
-644,970	-200,000	-0,003	-0,016
-643,955	500,323	0,045	-0,075
-642,941	431,385	-0,056	-0,088
-641,926	-161,505	0,084	-0,003
-640,911	-103,566	0,073	-0,012
-639,897	62,188	-0,139	0,100
-638,882	-112,978	-0,110	0,016
-637,868	800,000	0,046	0,130
-636,853	800,000	-0,036	0,078
-635,838	-200,000	-0,064	-0,204
-634,824	-17,909	-0,107	-0,049
-633,809	-128,164	-0,098	0,010
-632,795	126,107	0,071	0,065
-631,780	-139,676	0,046	0,004
-630,765	90,094	-0,088	0,071
-629,751	419,429	0,012	0,019
-628,736	221,884	0,055	0,064
-627,722	800,000	0,035	-0,079
-626,707	98,697	0,081	-0,068
-625,692	800,000	-0,021	0,049
-624,678	-52,021	0,053	-0,018
-623,663	-51,422	-0,044	0,015
-622,649	-57,538	0,054	-0,017
-621,634	152,694	-0,095	-0,094
-620,619	31,486	-0,045	-0,028
-619,605	-200,000	-0,060	-0,203
-618,590	-200,000	-0,002	0,116
-617,576	-150,706	0,065	-0,004
-616,561	347,119	-0,008	0,011
-615,546	30,780	-0,033	0,020
-614,532	-200,000	-0,010	0,051
-613,517	800,000	-0,027	-0,059
-612,503	68,269	0,027	0,020
-611,488	-7,068	0,119	0,058
-610,474	-52,218	-0,090	0,030
-609,459	126,516	-0,031	-0,028
-608,444	-75,721	-0,039	-0,010
-607,430	89,876	-0,084	-0,068
-606,415	800,000	0,030	-0,091
-605,401	314,184	0,029	-0,040
-604,386	-200,000	0,030	0,177
-603,371	85,541	0,078	0,062
-602,357	18,240	-0,094	-0,054
-601,342	-42,941	-0,124	-0,045
-600,328	94,057	-0,064	0,052
-599,313	63,143	-0,218	-0,158
-598,298	-49,310	-0,069	-0,024
-597,284	-30,316	0,149	-0,061
-596,269	486,399	-0,074	0,122
-595,255	145,747	0,050	0,048
-594,240	-111,312	-0,100	0,015
-593,225	800,000	-0,055	0,133
-592,211	-66,740	0,055	-0,016
-591,196	48,038	0,030	-0,021
-590,182	-31,328	-0,059	0,024
-589,167	-200,000	-0,005	0,107
-588,152	-69,003	-0,112	0,031
-587,138	800,000	-0,073	-0,177
-586,123	800,000	-0,042	-0,125
-585,109	130,203	-0,106	-0,098
-584,094	125,341	-0,084	0,077
-583,079	204,625	0,070	0,078
-582,065	-200,000	-0,022	-0,104
-581,050	712,453	0,047	0,090
-580,036	-14,010	0,062	-0,029
-579,021	800,000	-0,011	-0,032
-578,006	-22,408	-0,059	-0,026
-576,992	-146,012	0,224	-0,014
-575,977	-28,608	0,062	0,026
-574,963	-200,000	0,004	0,063
-573,948	106,959	0,102	-0,088
-572,934	-32,628	-0,103	-0,041
-571,919	-50,076	-0,067	-0,023
-570,904	50,990	-0,041	-0,028
-569,890	37,745	0,043	-0,028
-568,875	800,000	0,041	-0,115
-567,861	191,553	-0,090	-0,098
-566,846	-200,000	0,009	0,161
-565,831	54,819	0,109	0,076
-564,817	386,685	-0,074	0,110
-563,802	0,377	-0,025	0,013
-562,788	57,403	0,019	-0,013
-561,773	-200,000	0,001	0,065
-560,758	-200,000	-0,001	-0,026
-559,744	-74,904	0,098	-0,025
-558,729	582,991	0,052	0,093
-557,715	-200,000	-0,018	0,114
-556,700	800,000	-0,018	-0,053
-555,685	318,024	-0,073	-0,100
-554,671	800,000	-0,058	-0,141
-553,656	-200,000	-0,014	0,085
-552,642	-200,000	0,019	0,063
-551,627	-25,428	-0,128	0,054
-550,612	68,771	-0,092	-0,068
-549,598	800,000	-0,019	-0,045
-548,583	-115,902	-0,093	-0,012
-547,569	623,871	-0,015	0,028
-546,554	-30,067	0,098	-0,040
-545,539	-200,000	-0,035	-0,116
-544,525	-200,000	0,017	0,130
-543,510	800,000	0,014	-0,040
-542,496	-108,844	-0,080	0,012
-541,481	-200,000	-0,009	-0,111
-540,466	-200,000	-0,000	-0,213
-539,452	-111,675	-0,055	0,008
-538,437	4,260	0,039	0,021
-537,423	800,000	-0,036	0,101
-536,408	171,144	0,061	-0,063
-535,393	-90,755	0,048	0,010
-534,379	-200,000	0,003	-0,070
-533,364	-200,000	-0,007	-0,024
-532,350	-84,705	-0,051	-0,011
-531,335	-77,364	0,140	-0,035
-530,321	14,615	0,083	0,047
-529,306	-200,000	0,006	-0,020
-528,291	-58,428	-0,039	-0,012
-527,277	267,927	-0,071	-0,090
-526,262	1,273	-0,091	-0,047
-525,248	800,000	0,037	0,098
-524,233	40,382	-0,022	-0,014
-523,218	9,358	0,157	0,086
-522,204	-200,000	-0,006	-0,034
-521,189	-200,000	-0,004	0,026
-520,175	391,011	-0,051	0,077
-519,160	271,954	-0,050	-0,063
-518,145	-14,370	0,077	0,036
-517,131	306,323	0,033	-0,045
-516,116	95,566	0,043	0,035
-515,102	-115,209	0,056	0,008
-514,087	-138,723	-0,205	-0,016
-513,072	34,995	0,161	0,102
-512,058	-121,203	-0,113	-0,013
-511,043	-146,372	0,167	-0,010
-510,029	-200,000	-0,020	-0,079
-509,014	-15,151	0,106	0,049
-507,999	-45,455	-0,059	0,021
-506,985	206,940	-0,011	-0,012
-505,970	77,283	0,043	-0,033
-504,956	-118,905	0,049	-0,006
-503,941	62,834	0,038	0,027
-502,926	-200,000	0,009	0,076
-501,912	-21,482	0,116	0,051
-500,897	-154,481	-0,114	-0,005
-499,883	218,029	0,069	-0,080
-498,868	-68,415	-0,085	-0,024
-497,853	-200,000	-0,003	-0,053
-496,839	-166,709	-0,018	-0,001
-495,824	800,000	0,001	-0,002
-494,810	53,742	0,081	0,056
-493,795	-118,383	0,167	-0,021
-492,781	-200,000	0,021	0,117
-491,766	13,781	-0,031	-0,017
-490,751	756,348	0,040	-0,078
-489,737	50,699	-0,099	-0,067
-488,722	548,539	-0,079	-0,137
-487,708	-200,000	-0,018	-0,097
-486,693	-200,000	-0,019	0,144
-485,678	-71,876	0,081	-0,022
-484,664	-151,890	-0,106	0,006
-483,649	800,000	0,014	-0,045
-482,635	-2,745	-0,012	0,006
-481,620	70,513	-0,042	0,031
-480,605	116,516	0,069	0,061
-479,591	9,004	0,106	-0,057
-478,576	-200,000	-0,022	0,121
-477,562	-200,000	-0,030	0,150
-476,547	800,000	-0,026	-0,063
-475,532	58,579	0,095	-0,067
-474,518	-83,338	0,081	-0,018
-473,503	508,188	0,076	-0,128
-472,489	8,670	-0,061	0,033
-471,474	236,257	0,002	-0,003
-470,459	55,668	-0,102	0,071
-469,445	-200,000	0,025	-0,123
-468,430	-200,000	0,033	-0,205
-467,416	800,000	-0,036	-0,085
-466,401	800,000	0,076	0,163
-465,386	280,940	0,041	-0,053
-464,372	-130,003	0,132	-0,013
-463,357	-94,704	0,031	0,006
-462,343	-75,484	-0,026	-0,007
-461,328	53,114	0,030	0,021
-460,313	235,142	0,010	-0,012
-459,299	-41,130	0,145	0,054
-458,284	800,000	0,047	0,142
-457,270	-200,000	-0,020	0,085
-456,255	800,000	0,051	0,128
-455,241	202,118	0,010	-0,011
-454,226	-200,000	0,026	-0,196
-453,211	484,961	-0,027	-0,044
-452,197	213,184	0,053	0,061
-451,182	-66,032	0,112	0,032
-450,168	-41,036	-0,215	-0,079
-449,153	34,810	0,086	0,054
-448,138	202,888	-0,141	-0,156
-447,124	-26,947	-0,048	0,020
-446,109	-122,812	-0,042	-0,005
-445,095	-107,059	0,053	-0,008
-444,080	-91,830	0,004	-0,001
-443,065	108,260	-0,058	0,050
-442,051	-200,000	0,008	0,064
-441,036	82,982	-0,034	-0,027
-440,022	-86,964	0,062	-0,013
-439,007	18,321	-0,095	0,054
-437,992	496,963	0,062	-0,103
-436,978	-200,000	0,017	0,071
-435,963	105,678	-0,082	-0,070
-434,949	698,967	-0,074	0,141
-433,934	-200,000	-0,015	0,076
-432,919	-152,671	-0,042	0,002
-431,905	800,000	-0,007	-0,019
-430,890	-70,283	0,078	0,021
-429,876	-200,000	-0,028	0,110
-428,861	-200,000	-0,020	-0,083
-427,846	130,783	-0,016	-0,015
-426,832	-148,474	0,143	0,008
-425,817	327,276	0,093	-0,129
-424,803	-84,657	-0,123	-0,028
-423,788	-94,257	0,068	-0,013
-422,773	-200,000	0,001	0,147
-421,759	246,870	-0,056	0,068
-420,744	-200,000	0,013	-0,080
-419,730	636,373	-0,072	-0,132
-418,715	254,168	0,066	-0,081
-417,701	607,177	0,013	0,024
-416,686	316,344	0,060	0,082
-415,671	289,391	-0,088	0,115
-414,657	619,618	-0,063	0,114
-413,642	-85,749	-0,083	-0,018
-412,628	-28,138	-0,085	0,035
-411,613	226,561	0,079	-0,092
-410,598	800,000	0,014	0,045
-409,584	-200,000	0,001	0,161
-408,569	800,000	-0,080	-0,164
-407,555	800,000	0,042	-0,099
-406,540	2,952	-0,095	-0,049
-405,525	-200,000	0,018	-0,075
-404,511	-13,154	-0,097	0,045
-403,496	-91,113	-0,071	0,014
-402,482	800,000	-0,073	0,209
-401,467	-34,515	0,139	-0,054
-400,452	64,501	0,091	-0,066
-399,438	-200,000	0,015	0,083
-398,423	-200,000	-0,003	0,030
-397,409	-200,000	0,005	-0,052
-396,394	800,000	-0,022	-0,044
-395,379	137,813	-0,057	-0,054
-394,365	-1,299	-0,080	0,040
-393,350	13,813	0,081	0,045
-392,336	-72,146	0,045	-0,012
-391,321	239,447	-0,011	0,013
-390,306	94,852	-0,069	0,056
-389,292	244,397	0,061	-0,073
-388,277	-118,496	0,105	0,013
-387,263	-200,000	-0,003	0,030
-386,248	-200,000	-0,002	0,063
-385,233	633,189	-0,070	0,128
-384,219	800,000	-0,054	0,111
-383,204	800,000	-0,023	-0,048
-382,190	224,408	-0,059	-0,069
-381,175	165,370	-0,055	-0,055
-380,160	226,686	0,040	0,046
-379,146	325,295	0,059	0,082
-378,131	122,328	-0,050	-0,045
-377,117	-200,000	0,024	-0,080
-376,102	57,454	0,085	-0,059
-375,088	-62,917	0,111	0,033
-374,073	-65,701	-0,093	-0,027
-373,058	-200,000	0,012	-0,095
-372,044	35,069	0,143	0,090
-371,029	-200,000	-0,035	0,117
-370,015	-119,472	-0,109	0,013
-369,000	-200,000	-0,009	-0,174
-367,985	800,000	0,012	-0,026
-366,971	502,775	0,030	0,049
-365,956	88,720	0,105	0,084
-364,942	-150,351	0,155	-0,008
-363,927	388,626	0,041	-0,062
-362,912	191,272	0,020	0,022
-361,898	-102,471	-0,141	-0,024
-360,883	697,353	-0,077	-0,146
-359,869	-200,000	0,020	-0,092
-358,854	-200,000	-0,001	-0,071
-357,839	311,453	0,050	0,068
-356,825	117,322	0,062	-0,055
-355,810	69,756	0,093	0,068
-354,796	800,000	-0,049	0,127
-353,781	-200,000	-0,031	0,098
-352,766	-143,907	-0,060	0,004
-351,752	-200,000	-0,033	-0,129
-350,737	17,805	0,110	0,063
-349,723	608,467	-0,026	0,046
-348,708	800,000	0,036	0,112
-347,693	800,000	-0,041	-0,112
-346,679	-200,000	-0,008	-0,105
-345,664	-59,568	0,161	0,049
-344,650	526,873	-0,055	0,093
-343,635	-94,397	-0,037	-0,007
-342,620	-200,000	0,014	0,049
-341,606	84,834	-0,049	-0,038
-340,591	71,541	0,161	-0,120
-339,577	-144,318	0,100	0,007
-338,562	800,000	0,032	-0,071
-337,548	-200,000	-0,015	0,050
-336,533	-16,427	0,182	0,082
-335,518	-83,540	0,153	-0,035
-334,504	-200,000	0,020	0,065
-333,489	200,819	-0,058	0,064
-332,475	115,571	-0,099	-0,087
-331,460	800,000	-0,000	-0,001
-330,445	231,669	-0,149	-0,175
-329,431	800,000	0,048	-0,097
-328,416	186,183	0,082	0,087
-327,402	185,963	-0,025	0,026
-326,387	-27,858	-0,037	0,015
-325,372	157,574	0,012	0,012
-324,358	-36,315	0,024	-0,009
-323,343	-136,511	-0,072	0,006
-322,329	-200,000	0,016	-0,090
-321,314	-200,000	0,023	-0,080
-320,299	-107,132	0,070	-0,011
-319,285	87,061	0,104	0,082
-318,270	-122,972	0,046	-0,005
-317,256	-200,000	-0,001	0,004
-316,241	161,671	-0,126	-0,127
-315,226	407,863	-0,004	-0,006
-314,212	587,624	0,038	0,067
-313,197	-78,564	-0,070	0,017
-312,183	-200,000	-0,001	-0,065
-311,168	-200,000	-0,004	-0,043
-310,153	69,084	-0,138	-0,101
-309,139	239,000	0,029	-0,034
-308,124	48,720	0,055	-0,037
-307,110	-141,978	0,141	0,010
-306,095	56,074	0,105	0,073
-305,080	-200,000	0,044	0,147
-304,066	159,476	-0,090	0,089
-303,051	800,000	0,037	-0,112
-302,037	554,347	-0,041	0,071
-301,022	-67,526	-0,108	-0,030
-300,008	-200,000	0,000	0,028
-298,993	-200,000	-0,003	0,081
-297,978	739,041	-0,036	0,070
-296,964	-169,000	-0,192	0,005
-295,949	38,964	0,093	-0,059
-294,935	-35,656	0,104	-0,040
-293,920	-46,850	-0,039	0,014
-292,905	800,000	0,019	-0,042
-291,891	626,097	0,045	0,082
-290,876	-108,204	-0,078	-0,012
-289,862	135,488	-0,050	0,047
-288,847	-84,626	0,025	0,006
-287,832	-168,319	-0,216	-0,006
-286,818	-8,137	-0,073	0,035
-285,803	-59,773	-0,062	-0,019
-284,789	800,000	0,045	0,102
-283,774	209,130	-0,026	-0,029
-282,759	800,000	-0,035	-0,092
-281,745	641,853	-0,024	-0,043
-280,730	208,458	-0,138	-0,154
-279,716	-200,000	0,024	-0,126
-278,701	189,155	0,079	-0,085
-277,686	154,232	0,073	0,072
-276,672	532,422	0,077	0,131
-275,657	245,303	-0,022	0,027
-274,643	-200,000	-0,003	-0,012
-273,628	79,762	-0,026	-0,020
-272,613	-200,000	0,008	-0,129
-271,599	-7,051	-0,012	-0,006
-270,584	-109,530	0,051	0,008
-269,570	-189,457	0,146	-0,001
-268,555	212,383	0,042	-0,048
-267,540	-96,101	0,103	-0,019
-266,526	348,922	-0,076	-0,107
-265,511	776,183	0,025	0,048
-264,497	800,000	0,008	0,017
-263,482	-200,000	0,017	0,074
-262,467	30,108	-0,083	-0,050
-261,453	173,470	-0,011	-0,012
-260,438	-200,000	0,033	-0,204
-259,424	43,917	-0,065	0,042
-258,409	-40,040	0,094	0,035
-257,395	-200,000	-0,013	-0,065
-256,380	245,804	0,087	-0,105
-255,365	-151,153	0,047	0,002
-254,351	59,531	-0,150	0,105
-253,336	-178,202	-0,066	0,001
-252,322	53,116	-0,136	0,093
-251,307	122,329	0,066	-0,059
-250,292	219,799	0,065	-0,074
-249,278	-8,109	-0,037	0,018
-248,263	444,898	0,105	0,165
-247,249	-102,207	0,069	0,012
-246,234	-200,000	0,004	-0,071
-245,219	59,537	-0,084	-0,059
-244,205	-57,644	-0,111	-0,034
-243,190	-53,118	0,102	-0,033
-242,176	746,005	0,031	-0,060
-241,161	-200,000	-0,018	0,061
-240,146	-16,302	0,072	0,032
-239,132	-109,775	0,117	-0,017
-238,117	277,269	-0,032	0,040
-237,103	-200,000	0,008	-0,060
-236,088	416,971	-0,066	-0,101
-235,073	91,358	0,090	0,072
-234,059	-200,000	0,013	0,207
-233,044	-200,000	-0,009	0,032
-232,030	50,822	0,060	0,040
-231,015	-44,603	-0,072	-0,026
-230,000	-200,000	0,015	-0,158
-228,986	49,194	-0,086	-0,058
-227,971	9,644	-0,050	-0,027
-226,957	201,409	0,052	0,057
-225,942	-200,000	-0,004	0,096
-224,927	-63,802	-0,092	-0,027
-223,913	428,627	-0,018	-0,028
-222,898	-200,000	-0,001	-0,008
-221,884	442,631	0,079	0,123
-220,869	-200,000	-0,013	0,069
-219,855	-200,000	-0,021	-0,075
-218,840	-200,000	0,047	0,173
-217,825	-200,000	0,018	0,061
-216,811	535,587	-0,023	0,040
-215,796	-110,364	-0,150	0,022
-214,782	464,682	0,032	-0,051
-213,767	283,759	-0,048	0,061
-212,752	145,795	0,049	0,047
-211,738	38,855	0,151	0,096
-210,723	54,127	0,081	0,056
-209,709	-200,000	0,032	0,143
-208,694	-200,000	-0,001	0,064
-207,679	-131,912	-0,170	0,016
-206,665	130,648	0,087	0,080
-205,650	25,789	0,105	0,062
-204,636	80,148	0,017	0,013
-203,621	131,001	-0,063	-0,058
-202,606	-5,751	0,118	-0,057
-201,592	-200,000	-0,004	-0,070
-200,577	157,476	-0,029	0,028
-199,563	276,210	0,041	0,052
-198,548	3,268	-0,047	0,024
-197,533	97,105	0,192	0,156
-196,519	197,985	-0,081	0,089
-195,504	-95,108	0,072	0,014
-194,490	-83,981	0,120	0,027
-193,475	-200,000	-0,008	-0,085
-192,460	-47,057	0,013	-0,005
-191,446	-200,000	0,009	0,059
-190,431	309,872	-0,081	0,108
-189,417	-57,929	-0,056	-0,017
-188,402	-53,225	-0,137	-0,044
-187,387	-200,000	0,018	0,104
-186,373	-6,973	-0,070	-0,034
-185,358	65,322	-0,105	0,075
-184,344	-156,596	0,107	0,005
-183,329	-200,000	-0,026	0,119
-182,315	343,163	0,066	0,092
-181,300	-29,837	-0,059	0,024
-180,285	85,233	-0,088	-0,069
-179,271	168,681	0,096	-0,097
-178,256	-200,000	0,004	-0,039
-177,242	800,000	0,053	0,124
-176,227	-200,000	-0,018	-0,073
-175,212	-27,813	0,138	0,057
-174,198	-200,000	-0,025	-0,109
-173,183	-200,000	0,025	0,083
-172,169	289,050	-0,083	0,107
-171,154	2,338	0,103	0,053
-170,139	339,451	0,048	-0,067
-169,125	-6,717	-0,069	0,033
-168,110	-37,684	0,071	0,027
-167,096	11,317	-0,076	0,041
-166,081	-22,079	-0,120	0,052
-165,066	266,583	0,032	-0,040
-164,052	253,053	-0,093	-0,113
-163,037	421,741	-0,050	-0,077
-162,023	8,770	0,111	-0,059
-161,008	800,000	-0,036	0,073
-159,993	800,000	-0,009	0,029
-158,979	32,127	-0,056	0,034
-157,964	157,464	-0,132	-0,130
-156,950	16,026	-0,033	-0,018
-155,935	-200,000	-0,008	-0,062
-154,920	34,921	-0,036	0,022
-153,906	800,000	0,033	-0,066
-152,891	48,469	0,073	-0,048
-151,877	800,000	0,039	-0,116
-150,862	79,357	-0,024	0,018
-149,847	800,000	-0,031	-0,095
-148,833	22,213	0,069	-0,040
-147,818	-200,000	0,039	0,178
-146,804	-177,237	-0,160	-0,003
-145,789	800,000	-0,072	0,205
-144,775	-200,000	0,000	0,020
-143,760	60,233	-0,072	0,050
-142,745	-200,000	0,006	-0,054
-141,731	331,614	0,053	0,073
-140,716	71,077	0,011	-0,008
-139,702	283,066	-0,085	0,109
-138,687	-200,000	-0,021	-0,116
-137,672	800,000	0,029	0,063
-136,658	-173,686	-0,154	-0,003
-135,643	161,155	-0,110	0,109
-134,629	163,690	0,067	0,067
-133,614	130,441	0,082	0,075
-132,599	-99,018	-0,032	-0,006
-131,585	-200,000	0,001	-0,021
-130,570	647,126	-0,008	0,014
-129,556	800,000	0,035	-0,094
-128,541	66,009	-0,046	0,033
-127,526	-200,000	0,003	0,013
-126,512	-88,898	-0,002	0,000
-125,497	241,035	-0,090	0,106
-124,483	-200,000	-0,011	0,136
-123,468	800,000	-0,016	-0,040
-122,453	-159,275	-0,054	0,002
-121,439	-200,000	0,006	-0,045
-120,424	-85,936	-0,122	0,027
-119,410	-200,000	0,022	0,087
-118,395	171,546	0,039	-0,040
-117,380	59,287	-0,076	-0,053
-116,366	-150,803	-0,070	0,004
-115,351	800,000	0,085	-0,171
-114,337	-159,328	-0,115	-0,004
-113,322	-167,171	0,157	-0,004
-112,307	-200,000	0,009	0,039
-111,293	-200,000	-0,008	-0,053
-110,278	-200,000	-0,045	0,153
-109,264	800,000	0,009	-0,023
-108,249	-39,277	-0,108	-0,040
-107,234	189,925	-0,066	-0,070
-106,220	182,358	-0,055	0,058
-105,205	148,808	0,017	-0,016
-104,191	118,520	0,069	0,060
-103,176	-200,000	-0,024	0,082
-102,162	800,000	0,050	0,143
-101,147	182,372	0,030	0,031
-100,132	800,000	-0,028	-0,060
-99,118	74,670	0,071	-0,053
-98,103	800,000	-0,024	-0,049
-97,089	-97,448	-0,030	-0,005
-96,074	527,717	-0,089	0,149
-95,059	-200,000	0,000	-0,015
-94,045	800,000	-0,043	-0,086
-93,030	-200,000	-0,023	-0,082
-92,016	-200,000	-0,011	0,109
-91,001	800,000	-0,029	-0,073
-89,986	106,026	0,043	0,036
-88,972	800,000	0,039	0,112
-87,957	241,441	0,038	-0,045
-86,943	22,237	0,037	-0,021
-85,928	142,228	0,093	-0,088
-84,913	233,560	-0,064	-0,075
-83,899	529,463	-0,037	-0,062
-82,884	81,825	0,044	0,034
-81,870	-91,856	-0,029	-0,006
-80,855	-200,000	0,022	0,095
-79,840	34,028	-0,154	0,095
-78,826	29,387	-0,036	-0,022
-77,811	-200,000	0,010	-0,038
-76,797	238,455	0,047	0,055
-75,782	492,343	0,090	0,147
-74,767	42,468	0,137	0,088
-73,753	85,891	0,091	0,071
-72,738	-136,469	0,063	0,005
-71,724	-76,387	0,079	0,020
-70,709	-200,000	-0,003	-0,037
-69,694	-46,101	-0,061	-0,021
-68,680	-172,868	-0,091	0,002
-67,665	-15,543	0,088	0,039
-66,651	800,000	-0,060	-0,183
-65,636	-200,000	-0,013	-0,077
-64,622	143,227	-0,058	0,055
-63,607	66,708	-0,061	-0,044
-62,592	350,145	-0,036	0,051
-61,578	800,000	0,033	0,072
-60,563	-27,379	0,097	0,040
-59,549	-200,000	-0,014	0,080
-58,534	-25,153	-1,720	-0,718
-57,519	373,993	-1,374	-1,986
-56,505	-200,000	-0,414	-4,430
-55,490	179,938	1,011	1,050
-54,476	800,000	5,016	11,511
-53,461	-200,000	19,198	321,433
-52,446	-200,000	742,074	2334,917
-51,432	572,160	1656,220	2867,793
-50,417	78,037	1671,117	1260,563
-49,403	21,202	1544,216	885,226
-48,388	15,068	1466,503	810,839
-47,373	18,027	1456,882	819,790
-46,359	16,657	1446,518	807,359
-45,344	13,313	1442,007	788,789
-44,330	13,252	1440,067	787,404
-43,315	13,238	1438,295	786,335
-42,300	13,280	1436,657	785,609
-41,286	13,279	1435,207	784,779
-40,271	13,236	1434,118	783,950
-39,257	13,245	1432,697	783,183
-38,242	13,285	1431,412	782,641
-37,227	13,303	1430,258	782,064
-36,213	13,299	1428,855	781,248
-35,198	13,266	1427,968	780,574
-34,184	13,343	1426,833	780,287
-33,169	13,245	1425,642	779,140
-32,154	13,310	1424,552	778,825
-31,140	13,352	1423,161	778,232
-30,125	13,335	1422,175	777,581
-29,111	13,359	1420,800	776,909
-28,096	13,306	1419,991	776,189
-27,082	13,240	1418,817	775,204
-26,067	13,219	1417,506	774,356
-25,052	13,256	1416,422	773,909
-24,038	13,246	1415,414	773,280
-23,023	13,266	1414,296	772,730
-22,009	13,239	1413,474	772,128
-20,994	13,186	1412,825	771,491
-19,979	13,194	1411,665	770,868
-18,965	13,166	1410,953	770,316
-17,950	13,166	1409,868	769,692
-16,936	13,220	1408,860	769,363
-15,921	13,154	1407,884	768,490
-14,906	13,155	1406,923	767,940
-13,892	13,155	1405,958	767,384
-12,877	13,156	1405,054	766,867
-11,863	13,141	1404,340	766,373
-10,848	13,130	1403,121	765,626
-9,833	13,076	1402,705	765,117
-8,819	13,050	1401,721	764,429
-7,804	13,069	1400,896	764,040
-6,790	13,082	1399,756	763,446
-5,775	13,046	1398,827	762,745
-4,760	13,072	1397,570	762,147
-3,746	13,062	1396,749	761,625
-2,731	13,008	1396,115	760,995
-1,717	13,044	1394,927	760,485
-0,702	12,986	1393,395	759,350
0,313	17,021	1309,768	732,414
1,327	33,619	703,090	431,476
2,342	52,291	123,123	82,946
3,356	4,576	16,627	8,605
4,371	20,667	3,068	1,752
5,386	19,819	0,626	0,356
6,400	-200,000	0,040	0,273
7,415	-29,644	-0,311	-0,125
8,429	10,165	-0,285	-0,153
9,444	55,232	-0,381	-0,260
10,459	21,278	-0,268	-0,153
11,473	-77,755	-0,245	-0,059
12,488	25,370	-0,310	-0,182
13,502	7,909	-0,341	-0,180
14,517	-22,336	-0,280	-0,119
15,531	35,861	-0,370	-0,229
16,546	-34,971	-0,427	-0,164
17,561	143,888	-0,313	-0,295
18,575	-114,783	-0,073	-0,010
19,590	129,174	-0,330	-0,298
20,604	-62,082	-0,295	-0,086
21,619	32,248	-0,401	-0,244
22,634	251,880	-0,368	-0,444
23,648	-3,257	-0,506	-0,248
24,663	17,517	-0,395	-0,221
25,677	10,696	-0,357	-0,192
26,692	-141,804	-0,448	-0,031
27,707	-28,862	-0,296	-0,120
28,721	67,413	-0,427	-0,307
29,736	74,090	-0,420	-0,311
30,750	86,406	-0,350	-0,272
31,765	44,041	-0,486	-0,314
32,780	306,553	-0,279	-0,368
33,794	55,206	-0,302	-0,206
34,809	70,094	-0,309	-0,225
35,823	-36,772	-0,491	-0,185
36,838	28,332	-0,376	-0,223
37,853	87,181	-0,269	-0,210
38,867	51,957	-0,378	-0,254
39,882	179,226	-0,276	-0,285
40,896	164,984	-0,259	-0,258
41,911	33,205	-0,428	-0,261
42,926	137,023	-0,326	-0,300
43,940	69,510	-0,339	-0,246
44,955	528,000	-0,222	-0,371
45,969	65,400	-0,494	-0,352
46,984	78,137	-0,321	-0,241
47,999	-27,305	-0,401	-0,164
49,013	101,065	-0,382	-0,313
50,028	48,987	-0,265	-0,175
51,042	102,096	-0,345	-0,284
52,057	64,528	-0,349	-0,248
53,071	-16,009	-0,265	-0,118
54,086	392,872	-0,195	-0,286
55,101	198,302	-0,306	-0,330
56,115	59,013	-0,426	-0,295
57,130	-3,024	-0,304	-0,149
58,144	12,245	-0,440	-0,238
59,159	58,819	-0,383	-0,264
60,174	38,589	-0,285	-0,179
61,188	100,657	-0,250	-0,204
62,203	86,274	-0,279	-0,216
63,217	121,141	-0,290	-0,254
64,232	71,799	-0,334	-0,244
65,247	0,374	-0,302	-0,151
66,261	-44,450	-0,470	-0,164
67,276	215,454	-0,322	-0,359
68,290	68,466	-0,267	-0,192
69,305	266,059	-0,146	-0,180
70,320	-48,005	-0,281	-0,095
71,334	307,407	-0,157	-0,206
72,349	-53,764	-0,409	-0,130
73,363	2,770	-0,307	-0,156
74,378	20,907	-0,236	-0,134
75,393	102,778	-0,370	-0,304
76,407	-131,400	-0,306	-0,028
77,422	800,000	-0,103	-0,257
78,436	-200,000	-0,258	0,000
79,451	-34,115	-0,194	-0,075
80,466	-10,253	-0,353	-0,164
81,480	-10,031	-0,457	-0,212
82,495	-112,048	-0,264	0,037
83,509	-22,398	-0,219	-0,093
84,524	30,895	-0,275	-0,165
85,539	141,751	-0,231	-0,215
86,553	-67,276	-0,340	-0,093
87,568	-22,241	-0,369	-0,156
88,582	92,620	-0,234	-0,185
89,597	100,645	-0,234	-0,191
90,611	125,678	-0,275	-0,244
91,626	312,372	-0,234	-0,309
92,641	-127,867	-0,219	-0,022
93,655	-53,068	-0,176	-0,056
94,670	-86,939	-0,329	-0,070
95,684	243,436	-0,177	-0,209
96,699	517,943	-0,127	-0,208
97,714	275,213	-0,187	-0,234
98,728	-84,575	-0,253	-0,056
99,743	-149,278	-0,322	-0,018
100,757	95,120	-0,217	-0,173
101,772	-49,164	-0,258	-0,086
102,787	33,628	-0,332	-0,202
103,801	170,742	-0,217	-0,219
104,816	-84,375	-0,346	-0,076
105,830	-28,673	-0,303	-0,122
106,845	-61,283	-0,300	-0,088
107,860	-117,603	-0,263	0,033
108,874	79,026	-0,263	-0,197
109,889	152,220	-0,353	-0,338
110,903	-2,780	-0,260	-0,127
111,918	338,888	-0,149	-0,204
112,933	50,361	-0,234	-0,155
113,947	-141,247	-0,252	-0,018
114,962	29,168	-0,224	-0,133
115,976	-0,936	-0,298	-0,147
116,991	117,465	-0,368	-0,317
118,006	65,897	-0,332	-0,236
119,020	171,275	-0,314	-0,316
120,035	69,714	-0,215	-0,155
121,049	73,492	-0,164	-0,120
122,064	204,407	-0,226	-0,245
123,079	-9,580	-0,258	-0,120
124,093	145,747	-0,253	-0,237
125,108	-2,495	-0,217	-0,106
126,122	-13,563	-0,262	-0,118
127,137	-18,858	-0,310	-0,134
128,151	-82,023	-0,335	-0,076
129,166	-169,164	-0,270	0,007
130,181	175,932	-0,139	-0,141
131,195	-43,842	-0,230	-0,080
132,210	345,204	-0,193	-0,266
133,224	54,075	-0,242	-0,163
134,239	-37,558	-0,173	-0,064
135,254	-106,607	-0,281	-0,043
136,268	134,668	-0,240	-0,217
137,283	184,340	-0,258	-0,267
138,297	154,215	-0,218	-0,209
139,312	25,655	-0,297	-0,173
140,327	204,402	-0,235	-0,255
141,341	382,948	-0,149	-0,215
142,356	-41,145	-0,369	-0,132
143,370	51,628	-0,212	-0,140
144,385	-99,155	-0,149	-0,026
145,400	84,137	-0,238	-0,181
146,414	129,960	-0,286	-0,255
147,429	37,377	-0,255	-0,158
148,443	135,952	-0,263	-0,239
149,458	51,967	-0,303	-0,201
150,473	-12,764	-0,199	-0,090
151,487	-35,440	-0,212	-0,080
152,502	210,469	-0,237	-0,260
153,516	151,365	-0,202	-0,192
154,531	-5,292	-0,219	-0,105
155,546	85,903	-0,296	-0,227
156,560	66,198	-0,280	-0,198
157,575	-87,542	-0,290	-0,061
158,589	-24,502	-0,217	-0,090
159,604	-2,014	-0,300	-0,146
160,619	-65,715	-0,228	-0,063
161,633	153,639	-0,215	-0,206
162,648	-21,143	-0,268	-0,114
163,662	234,504	-0,136	-0,156
164,677	160,085	-0,173	-0,169
165,692	-14,168	-0,151	-0,068
166,706	45,251	-0,272	-0,175
167,721	261,095	-0,199	-0,241
168,735	38,340	-0,214	-0,132
169,750	-31,126	-0,267	-0,104
170,764	4,994	-0,264	-0,135
171,779	56,700	-0,158	-0,107
172,794	140,108	-0,173	-0,159
173,808	75,195	-0,213	-0,157
174,823	-69,046	-0,175	-0,047
175,837	-114,152	-0,240	-0,032
176,852	124,377	-0,266	-0,233
177,867	90,028	-0,304	-0,236
178,881	11,856	-0,218	-0,117
179,896	218,967	-0,251	-0,280
180,910	-55,990	-0,288	-0,089
181,925	119,075	-0,260	-0,224
182,940	110,273	-0,268	-0,224
183,954	-104,912	-0,258	-0,041
184,969	189,981	-0,196	-0,205
185,983	-13,302	-0,233	-0,105
186,998	13,755	-0,184	-0,099
188,013	-83,071	-0,278	-0,062
189,027	42,974	-0,419	-0,266
190,042	505,168	-0,215	-0,348
191,056	-73,097	-0,202	-0,051
192,071	75,689	-0,226	-0,166
193,086	195,768	-0,196	-0,207
194,100	-21,565	-0,230	-0,097
195,115	157,022	-0,127	-0,123
196,129	209,985	-0,160	-0,175
197,144	143,664	-0,224	-0,208
198,159	36,559	-0,239	-0,146
199,173	226,805	-0,188	-0,212
200,188	19,621	-0,217	-0,121
201,202	754,201	-0,064	-0,120
202,217	67,316	-0,095	-0,067
203,232	800,000	-0,100	-0,199
204,246	112,914	-0,205	-0,173
205,261	-5,876	-0,271	-0,128
206,275	-72,910	-0,299	-0,076
207,290	392,801	-0,095	-0,138
208,304	171,126	-0,131	-0,131
209,319	-6,884	-0,310	-0,146
210,334	116,661	-0,230	-0,196
211,348	69,970	-0,358	-0,256
212,363	30,378	-0,293	-0,174
213,377	697,457	-0,093	-0,170
214,392	-69,104	-0,232	-0,062
215,407	529,121	-0,112	-0,185
216,421	1,239	-0,124	-0,062
217,436	-44,286	-0,261	-0,090
218,450	-3,927	-0,147	-0,071
219,465	-29,823	-0,198	-0,078
220,480	344,723	-0,141	-0,192
221,494	-46,223	-0,203	-0,069
222,509	311,993	-0,165	-0,215
223,523	-1,690	-0,192	-0,094
224,538	-0,787	-0,194	-0,095
225,553	9,428	-0,282	-0,148
226,567	55,947	-0,256	-0,172
227,582	786,120	-0,087	-0,166
228,596	217,719	-0,131	-0,145
229,611	24,158	-0,124	-0,071
230,626	96,387	-0,224	-0,178
231,640	589,671	-0,088	-0,151
232,655	-32,185	-0,067	-0,026
233,669	255,218	-0,229	-0,272
234,684	-27,929	-0,299	-0,119
235,699	45,947	-0,170	-0,109
236,713	198,575	-0,171	-0,181
237,728	-8,418	-0,184	-0,086
238,742	-200,000	-0,040	-0,137
239,757	589,451	-0,164	-0,281
240,772	52,439	-0,232	-0,153
241,786	256,024	-0,182	-0,217
242,801	85,837	-0,151	0,115
243,815	-80,773	-0,186	0,042
244,830	-106,491	-0,161	0,025
245,844	800,000	-0,122	-0,248
246,859	97,327	-0,195	-0,155
247,874	-73,066	-0,339	-0,085
248,888	-95,807	-0,204	0,037
249,903	-85,720	-0,272	-0,058
250,917	51,070	-0,094	-0,062
251,932	93,221	-0,095	-0,075
252,947	327,130	-0,101	-0,134
253,961	-200,000	-0,044	-0,215
254,976	94,497	-0,222	-0,175
255,990	354,508	-0,161	-0,221
257,005	73,738	-0,116	-0,084
258,020	125,934	-0,130	-0,114
259,034	-48,930	-0,112	-0,037
260,049	-31,628	-0,166	-0,064
261,063	98,749	-0,161	-0,128
262,078	2,933	-0,232	-0,116
263,093	318,014	-0,205	-0,269
264,107	-126,587	-0,193	0,020
265,122	-11,571	-0,055	-0,025
266,136	72,916	-0,149	-0,107
267,151	6,066	-0,197	-0,101
268,166	-200,000	-0,059	-0,220
269,180	-35,318	-0,158	-0,059
270,195	3,179	-0,172	-0,086
271,209	-39,143	-0,237	-0,086
272,224	227,018	-0,120	-0,134
273,239	69,150	-0,026	-0,018
274,253	-113,775	-0,248	-0,033
275,268	-87,763	-0,261	-0,054
276,282	134,822	-0,172	-0,154
277,297	-89,813	-0,245	-0,049
278,312	9,675	-0,316	-0,165
279,326	11,330	-0,090	-0,047
280,341	-200,000	0,006	-0,149
281,355	8,758	-0,163	-0,085
282,370	225,874	-0,159	-0,179
283,384	-54,201	-0,323	-0,101
284,399	55,909	-0,207	-0,138
285,414	208,212	-0,210	-0,227
286,428	672,418	-0,129	-0,231
287,443	71,774	-0,186	-0,133
288,457	74,716	-0,153	-0,111
289,472	-95,082	-0,282	-0,052
290,487	31,230	-0,098	-0,058
291,501	800,000	-0,069	-0,134
292,516	-100,309	-0,236	-0,040
293,530	-198,499	-0,241	0,001
294,545	580,643	-0,103	-0,175
295,560	-134,892	-0,120	-0,010
296,574	-200,000	-0,001	-0,082
297,589	-14,643	-0,094	-0,041
298,603	651,180	-0,089	-0,157
299,618	-9,373	-0,163	-0,075
300,633	90,968	-0,246	-0,190
301,647	-142,530	-0,155	-0,010
302,662	-200,000	-0,056	-0,274
303,676	124,898	-0,075	-0,065
304,691	-61,582	-0,189	-0,054
305,706	-24,736	-0,114	-0,046
306,720	3,419	-0,114	-0,057
307,735	270,581	-0,134	-0,163
308,749	304,430	-0,035	-0,045
309,764	37,029	-0,103	-0,063
310,779	-110,477	-0,149	0,021
311,793	413,032	-0,141	-0,208
312,808	-200,000	-0,093	-0,288
313,822	359,081	-0,094	-0,130
314,837	125,905	-0,097	-0,084
315,852	267,873	-0,102	-0,123
316,866	-36,648	-0,105	0,039
317,881	-7,549	-0,063	-0,029
318,895	800,000	-0,099	-0,293
319,910	-13,357	-0,088	-0,039
320,925	406,126	-0,150	-0,218
321,939	-200,000	0,012	-0,115
322,954	327,918	-0,145	-0,192
323,968	-14,608	-0,076	0,033
324,983	683,808	-0,043	-0,078
325,997	-65,001	-0,086	0,024
327,012	-74,830	-0,134	-0,033
328,027	-103,516	-0,236	-0,038
329,041	6,998	-0,130	-0,066
330,056	-12,990	-0,146	-0,065
331,070	24,340	-0,090	-0,051
332,085	139,043	-0,188	-0,170
333,100	-73,975	-0,157	0,039
334,114	184,406	-0,192	-0,195
335,129	57,857	-0,167	-0,112
336,143	247,879	-0,139	-0,162
337,158	-112,298	-0,145	-0,020
338,173	-110,327	-0,117	0,017
339,187	-91,063	-0,140	-0,027
340,202	-31,502	-0,208	-0,080
341,216	-74,211	-0,198	-0,049
342,231	60,609	-0,146	-0,099
343,246	128,698	-0,191	-0,167
344,260	-200,000	-0,020	-0,174
345,275	800,000	-0,067	-0,182
346,289	-69,683	-0,164	-0,043
347,304	151,484	-0,111	-0,104
348,319	-43,097	-0,128	0,044
349,333	395,826	-0,040	-0,058
350,348	-49,036	-0,059	-0,019
351,362	800,000	-0,061	0,135
352,377	-68,409	-0,108	0,029
353,392	98,240	-0,179	-0,142
354,406	35,278	-0,156	-0,093
355,421	210,414	1313,580	1416,625
356,435	161,985	1474,165	1417,123
