DTS Sentinel unit serial number:	SN410029Multiplexer serial number:	ORYXHardware model number:	OX2-SRSoftware version number:	ORYX F/W v4,00 Oryx Data Collector v3.7.2.0data status	okinstallation	B3 Nyhavnadifferential loss correction	single-endedforward channel	channel 1reverse channel	N/Adate	2023/12/03time	09:07:30forward acquisition time	300,00reverse acquisition time	0,00gamma	499,1914k internal	0,3201k external	0,3201temperature offset calibration	1,0000default loss term (dB/km)	0,3820temperature slope calibration	1,0000multiplexer offset coefficient	1,0000multiplexer slope coefficient	1,0000fibre end	0,00T internal ref (°C)	13,34T ext. ref 1 (°C)	-1,64T ext. ref 2 (°C)	-1,66length (m)	temperature (°C)	Stokes	anti-Stokes-744,400	-30,315	-0,235	-0,097
-743,385	-200,000	-0,037	0,341
-742,371	149,782	-0,144	-0,142
-741,356	-200,000	0,005	0,442
-740,342	108,610	-0,213	-0,185
-739,327	800,000	0,093	0,208
-738,312	129,414	-0,223	-0,207
-737,298	-200,000	-0,030	0,289
-736,283	-15,666	-0,368	-0,170
-735,269	800,000	0,115	0,256
-734,254	-200,000	-0,081	-0,329
-733,239	-189,609	-0,129	0,001
-732,225	279,443	-0,153	-0,199
-731,210	-70,426	0,112	0,031
-730,196	-200,000	-0,005	-0,095
-729,181	5,620	-0,031	0,016
-728,167	800,000	-0,014	-0,041
-727,152	37,532	-0,104	-0,067
-726,137	154,051	0,026	-0,026
-725,123	279,014	-0,057	-0,075
-724,108	800,000	-0,028	-0,073
-723,094	127,907	-0,028	-0,026
-722,079	185,373	0,048	-0,051
-721,064	151,047	-0,049	-0,048
-720,050	-200,000	-0,021	0,075
-719,035	-75,251	0,138	-0,035
-718,021	-177,531	0,120	0,002
-717,006	800,000	0,030	-0,077
-715,991	182,201	0,028	-0,030
-714,977	-23,627	-0,100	0,043
-713,962	-138,306	-0,092	0,007
-712,948	-99,907	0,134	0,024
-711,933	265,962	-0,083	0,106
-710,918	-200,000	-0,001	0,107
-709,904	-156,634	-0,055	-0,002
-708,889	-150,020	-0,135	0,008
-707,875	-137,152	-0,068	-0,006
-706,860	122,025	-0,042	-0,038
-705,845	121,035	0,112	-0,101
-704,831	-74,723	0,119	0,031
-703,816	129,965	-0,054	0,050
-702,802	178,744	-0,158	-0,168
-701,787	800,000	0,004	-0,009
-700,772	800,000	-0,038	0,103
-699,758	395,329	0,028	0,042
-698,743	4,908	0,129	0,069
-697,729	-28,576	0,073	0,030
-696,714	-200,000	-0,029	-0,136
-695,699	-54,816	-0,075	0,024
-694,685	-8,181	-0,066	-0,032
-693,670	-134,470	-0,049	-0,004
-692,656	78,773	-0,019	-0,015
-691,641	30,283	0,116	-0,072
-690,627	426,994	-0,012	-0,019
-689,612	-137,026	0,113	0,009
-688,597	251,030	-0,018	-0,022
-687,583	-200,000	-0,012	-0,076
-686,568	-200,000	0,001	-0,082
-685,554	-200,000	0,024	0,113
-684,539	93,391	0,094	-0,077
-683,524	-200,000	-0,013	0,173
-682,510	-30,888	0,026	-0,011
-681,495	6,879	-0,072	0,039
-680,481	-200,000	-0,023	-0,097
-679,466	-7,228	-0,194	-0,095
-678,451	-200,000	0,036	-0,127
-677,437	18,397	-0,138	0,080
-676,422	-200,000	0,013	0,069
-675,408	-113,108	0,082	0,012
-674,393	119,627	0,045	0,040
-673,378	800,000	-0,048	-0,107
-672,364	-66,710	-0,050	0,014
-671,349	-48,349	-0,117	-0,041
-670,335	-109,225	0,136	-0,021
-669,320	103,017	-0,055	-0,047
-668,305	15,337	0,040	-0,023
-667,291	774,745	0,027	-0,053
-666,276	-200,000	-0,006	-0,092
-665,262	-92,268	-0,225	0,046
-664,247	-81,486	0,064	-0,015
-663,232	-200,000	-0,028	-0,118
-662,218	-57,172	0,027	-0,009
-661,203	-200,000	-0,034	0,119
-660,189	800,000	0,031	0,084
-659,174	346,921	0,097	-0,138
-658,159	-135,827	-0,111	0,009
-657,145	-19,398	-0,065	-0,029
-656,130	800,000	-0,042	0,087
-655,116	-136,126	-0,069	-0,006
-654,101	-28,097	0,105	0,044
-653,086	800,000	-0,048	0,143
-652,072	89,996	0,038	0,031
-651,057	-141,794	-0,114	0,008
-650,043	-175,162	-0,117	-0,002
-649,028	580,204	-0,104	0,185
-648,014	800,000	0,041	0,106
-646,999	-35,788	-0,028	-0,011
-645,984	189,350	0,048	0,052
-644,970	697,353	0,034	0,064
-643,955	800,000	0,010	-0,030
-642,941	-6,513	0,111	0,055
-641,926	-161,130	-0,050	-0,002
-640,911	800,000	0,028	0,064
-639,897	-20,570	0,064	0,028
-638,882	800,000	0,006	-0,013
-637,868	-200,000	0,005	0,066
-636,853	483,995	-0,011	-0,017
-635,838	-200,000	0,016	-0,191
-634,824	418,770	-0,151	-0,235
-633,809	122,696	-0,045	0,041
-632,795	-85,678	-0,051	-0,011
-631,780	-110,665	0,145	-0,021
-630,765	230,462	0,019	0,023
-629,751	331,929	0,041	0,058
-628,736	19,307	-0,085	0,049
-627,722	800,000	0,030	-0,066
-626,707	-37,528	-0,159	-0,061
-625,692	11,978	0,009	0,005
-624,678	493,876	-0,016	-0,026
-623,663	-153,189	-0,140	0,007
-622,649	-95,944	-0,068	0,013
-621,634	-200,000	-0,022	-0,089
-620,619	445,261	-0,030	-0,048
-619,605	695,087	0,025	0,047
-618,590	275,713	0,051	-0,066
-617,576	175,077	0,138	0,145
-616,561	22,699	-0,049	-0,029
-615,546	-53,203	-0,051	-0,017
-614,532	237,914	0,075	-0,090
-613,517	14,089	-0,060	-0,034
-612,503	99,023	-0,052	-0,043
-611,488	-25,324	0,108	0,046
-610,474	286,116	0,038	0,049
-609,459	800,000	-0,057	-0,135
-608,444	-200,000	0,014	-0,044
-607,430	-76,201	-0,081	-0,021
-606,415	308,156	-0,068	0,092
-605,401	-53,294	0,215	-0,071
-604,386	800,000	0,015	0,047
-603,371	-119,311	0,093	-0,012
-602,357	-2,668	0,172	-0,087
-601,342	426,405	0,086	-0,135
-600,328	-33,284	-0,118	-0,047
-599,313	428,409	-0,049	-0,078
-598,298	35,001	-0,097	0,061
-597,284	-43,900	-0,087	0,031
-596,269	-200,000	0,002	-0,126
-595,255	-200,000	0,002	-0,011
-594,240	800,000	-0,025	-0,077
-593,225	56,235	-0,056	-0,040
-592,211	-97,948	0,119	0,022
-591,196	-200,000	-0,006	-0,092
-590,182	-200,000	0,006	-0,092
-589,167	800,000	0,054	0,140
-588,152	-200,000	0,017	0,064
-587,138	800,000	0,052	-0,123
-586,123	-200,000	-0,010	-0,132
-585,109	-151,586	0,050	-0,003
-584,094	206,611	-0,069	-0,078
-583,079	43,344	-0,041	-0,027
-582,065	206,562	0,092	0,103
-581,050	156,138	0,046	0,046
-580,036	-121,836	-0,074	-0,009
-579,021	-200,000	-0,066	-0,211
-578,006	800,000	-0,091	0,198
-576,992	98,860	0,014	0,012
-575,977	96,349	0,100	0,083
-574,963	-20,521	0,086	-0,038
-573,948	-200,000	-0,062	-0,225
-572,934	-31,083	0,124	-0,050
-571,919	137,172	-0,050	0,047
-570,904	7,701	0,068	0,037
-569,890	-0,987	0,070	0,036
-568,875	800,000	-0,045	-0,113
-567,861	192,104	-0,014	0,015
-566,846	-200,000	0,004	0,100
-565,831	-172,320	-0,118	-0,003
-564,817	-200,000	0,015	0,059
-563,802	61,026	-0,128	-0,092
-562,788	575,904	0,013	-0,024
-561,773	127,202	-0,041	-0,038
-560,758	-2,569	-0,087	-0,044
-559,744	212,442	0,038	0,044
-558,729	-200,000	-0,002	-0,028
-557,715	-200,000	-0,011	0,089
-556,700	-200,000	-0,048	-0,163
-555,685	-82,709	-0,036	-0,008
-554,671	360,222	0,022	0,032
-553,656	-200,000	0,014	0,068
-552,642	800,000	0,023	0,047
-551,627	800,000	-0,030	0,089
-550,612	123,536	-0,025	-0,023
-549,598	77,919	0,074	-0,057
-548,583	-22,510	-0,037	-0,016
-547,569	52,628	0,060	-0,041
-546,554	46,974	-0,103	0,069
-545,539	800,000	-0,017	-0,035
-544,525	-11,156	0,088	0,042
-543,510	-135,702	-0,137	0,012
-542,496	168,559	-0,078	-0,080
-541,481	448,119	0,093	-0,149
-540,466	800,000	0,045	-0,091
-539,452	92,037	-0,061	0,049
-538,437	-153,901	0,129	0,006
-537,423	-9,974	-0,050	-0,024
-536,408	-200,000	0,007	-0,127
-535,393	287,898	0,045	0,059
-534,379	-80,907	-0,140	0,033
-533,364	-200,000	0,001	0,146
-532,350	800,000	0,031	-0,091
-531,335	416,362	0,113	0,174
-530,321	13,527	-0,077	-0,043
-529,306	-200,000	-0,028	-0,097
-528,291	138,945	0,075	0,071
-527,277	-200,000	0,012	-0,213
-526,262	128,398	0,039	0,035
-525,248	800,000	0,062	0,128
-524,233	800,000	0,054	0,133
-523,218	-123,852	-0,067	0,007
-522,204	-200,000	-0,016	-0,137
-521,189	262,216	0,039	-0,048
-520,175	254,420	-0,057	0,071
-519,160	126,887	0,053	-0,049
-518,145	-200,000	0,010	0,047
-517,131	-17,921	0,023	-0,010
-516,116	800,000	-0,026	0,061
-515,102	-200,000	0,013	-0,070
-514,087	-2,517	-0,040	-0,020
-513,072	29,793	-0,024	-0,015
-512,058	800,000	-0,025	-0,074
-511,043	800,000	-0,028	0,062
-510,029	-20,577	0,129	-0,057
-509,014	800,000	0,040	0,099
-507,999	800,000	-0,029	0,075
-506,985	800,000	0,055	-0,115
-505,970	800,000	0,014	0,037
-504,956	155,232	-0,088	0,087
-503,941	-26,648	-0,037	-0,015
-502,926	-200,000	0,014	0,051
-501,912	299,302	0,088	0,117
-500,897	-200,000	0,003	-0,030
-499,883	-200,000	-0,007	0,038
-498,868	-56,888	-0,177	-0,056
-497,853	94,103	0,049	0,040
-496,839	-200,000	0,008	-0,078
-495,824	-143,929	0,177	-0,012
-494,810	-69,727	-0,017	-0,005
-493,795	25,851	-0,020	0,012
-492,781	279,160	-0,068	-0,088
-491,766	41,688	-0,150	-0,097
-490,751	-137,146	-0,129	-0,010
-489,737	15,410	0,068	0,039
-488,722	-200,000	-0,005	0,077
-487,708	-156,388	-0,016	0,001
-486,693	605,217	0,021	-0,038
-485,678	-200,000	-0,030	-0,096
-484,664	258,255	-0,092	0,115
-483,649	230,760	-0,099	-0,117
-482,635	800,000	-0,054	-0,127
-481,620	-200,000	-0,004	0,054
-480,605	26,591	0,096	0,058
-479,591	-83,497	0,111	0,025
-478,576	-200,000	0,006	-0,116
-477,562	22,432	-0,015	0,009
-476,547	-5,704	0,108	-0,053
-475,532	-23,638	-0,142	-0,061
-474,518	-20,613	-0,113	0,050
-473,503	-33,353	0,058	0,023
-472,489	22,710	0,081	0,047
-471,474	-149,194	-0,170	-0,010
-470,459	120,909	0,073	-0,065
-469,445	-200,000	0,004	-0,046
-468,430	-200,000	0,000	0,066
-467,416	-48,943	0,062	0,021
-466,401	-200,000	-0,022	0,145
-465,386	194,895	0,105	0,115
-464,372	95,464	-0,020	-0,016
-463,357	182,051	-0,033	0,035
-462,343	100,337	-0,078	-0,065
-461,328	-75,072	-0,063	-0,016
-460,313	240,680	-0,083	0,099
-459,299	201,869	-0,125	-0,139
-458,284	239,044	0,029	-0,035
-457,270	-33,309	-0,251	-0,099
-456,255	13,111	-0,062	0,035
-455,241	480,476	0,040	0,066
-454,226	800,000	-0,014	0,038
-453,211	-52,308	-0,024	-0,008
-452,197	-98,761	-0,084	0,015
-451,182	-45,450	0,052	0,018
-450,168	-98,804	-0,030	0,005
-449,153	800,000	-0,030	0,075
-448,138	149,447	0,021	0,020
-447,124	800,000	0,035	-0,083
-446,109	19,748	-0,020	-0,012
-445,095	66,963	0,065	-0,047
-444,080	-200,000	0,014	0,075
-443,065	84,062	-0,175	0,137
-442,051	-62,166	-0,033	-0,010
-441,036	-200,000	-0,000	-0,014
-440,022	-45,676	0,078	-0,027
-439,007	49,907	-0,106	0,072
-437,992	-200,000	0,031	0,104
-436,978	75,289	-0,100	0,076
-435,963	-12,692	0,079	-0,037
-434,949	800,000	-0,036	-0,101
-433,934	-200,000	-0,024	-0,162
-432,919	-42,922	0,066	0,024
-431,905	148,014	-0,069	0,067
-430,890	-200,000	0,038	0,129
-429,876	-200,000	-0,023	0,110
-428,861	-91,697	0,097	-0,020
-427,846	-200,000	0,009	0,090
-426,832	44,087	-0,052	0,034
-425,817	-124,391	0,033	-0,004
-424,803	-200,000	-0,002	-0,023
-423,788	800,000	0,041	0,113
-422,773	-200,000	-0,014	0,094
-421,759	51,721	0,092	-0,062
-420,744	-2,494	0,139	0,070
-419,730	114,518	-0,119	-0,104
-418,715	800,000	-0,013	-0,028
-417,701	648,129	-0,087	-0,160
-416,686	-200,000	-0,009	-0,062
-415,671	358,675	-0,065	0,093
-414,657	-200,000	-0,012	0,093
-413,642	-2,559	-0,148	0,074
-412,628	800,000	0,036	0,099
-411,613	273,190	-0,101	-0,129
-410,598	-105,363	-0,173	0,028
-409,584	255,176	0,062	-0,076
-408,569	33,929	-0,063	-0,040
-407,555	317,148	-0,034	-0,047
-406,540	340,838	-0,066	0,093
-405,525	-29,542	-0,116	-0,047
-404,511	80,264	0,044	0,034
-403,496	-200,000	0,043	0,148
-402,482	270,978	-0,012	-0,015
-401,467	800,000	0,036	0,111
-400,452	521,544	0,071	0,120
-399,438	800,000	-0,068	0,193
-398,423	800,000	-0,020	0,062
-397,409	144,207	-0,052	0,050
-396,394	-200,000	-0,008	-0,111
-395,379	-25,607	-0,031	0,013
-394,365	141,214	0,052	0,049
-393,350	-140,932	-0,172	-0,012
-392,336	519,083	0,038	0,064
-391,321	-143,001	-0,110	-0,008
-390,306	301,359	0,044	0,058
-389,292	-26,378	0,058	0,024
-388,277	393,174	0,036	-0,054
-387,263	199,240	0,047	0,052
-386,248	-29,775	0,119	-0,048
-385,233	207,711	0,100	0,112
-384,219	-200,000	-0,013	-0,105
-383,204	591,365	-0,068	0,121
-382,190	-200,000	-0,032	-0,115
-381,175	126,999	0,036	0,032
-380,160	-19,730	0,176	0,078
-379,146	57,671	0,134	0,094
-378,131	-99,757	0,071	0,013
-377,117	-200,000	-0,003	0,063
-376,102	-3,046	-0,071	0,035
-375,088	-200,000	-0,000	0,039
-374,073	-200,000	-0,010	0,102
-373,058	135,583	-0,091	0,085
-372,044	800,000	-0,049	0,110
-371,029	-17,737	0,081	0,036
-370,015	-200,000	0,011	-0,064
-369,000	17,648	0,057	-0,032
-367,985	800,000	-0,015	0,044
-366,971	-43,213	0,101	-0,037
-365,956	-8,691	-0,015	-0,007
-364,942	-200,000	-0,015	-0,139
-363,927	327,726	0,008	0,011
-362,912	298,142	0,059	-0,078
-361,898	15,841	-0,031	-0,017
-360,883	88,890	0,101	-0,080
-359,869	-29,216	-0,119	-0,049
-358,854	759,793	0,022	0,044
-357,839	471,045	-0,009	0,014
-356,825	-200,000	0,009	0,041
-355,810	-11,974	0,056	-0,026
-354,796	-200,000	0,023	-0,108
-353,781	24,625	-0,103	-0,061
-352,766	-70,110	0,158	-0,043
-351,752	224,146	-0,023	-0,027
-350,737	99,407	0,050	0,041
-349,723	-28,564	0,092	0,038
-348,708	-200,000	-0,001	-0,030
-347,693	243,104	0,042	-0,051
-346,679	-97,359	0,033	0,006
-345,664	-138,030	-0,095	-0,007
-344,650	800,000	-0,003	0,008
-343,635	140,395	0,089	0,084
-342,620	-200,000	-0,011	0,107
-341,606	48,260	0,069	-0,046
-340,591	-200,000	0,062	0,000
-339,577	62,972	-0,086	-0,061
-338,562	-200,000	0,002	0,011
-337,548	225,631	0,027	0,031
-336,533	-78,033	0,105	-0,026
-335,518	-200,000	-0,009	0,058
-334,504	-200,000	0,021	0,156
-333,489	682,806	-0,067	0,126
-332,475	-200,000	0,002	0,033
-331,460	-9,550	-0,068	0,032
-330,445	85,357	0,113	0,088
-329,431	-200,000	0,016	-0,075
-328,416	-104,780	0,078	0,013
-327,402	235,428	-0,020	0,023
-326,387	-200,000	0,020	-0,095
-325,372	288,331	0,097	-0,126
-324,358	-105,517	-0,202	0,032
-323,343	-200,000	-0,002	-0,040
-322,329	-200,000	-0,016	0,068
-321,314	113,684	0,113	-0,099
-320,299	30,554	0,036	-0,022
-319,285	442,546	-0,075	0,118
-318,270	800,000	-0,041	0,104
-317,256	37,007	-0,072	-0,045
-316,241	-200,000	0,010	-0,055
-315,226	424,083	-0,041	-0,063
-314,212	138,986	0,095	-0,090
-313,197	-200,000	-0,008	0,089
-312,183	40,325	0,041	0,026
-311,168	-29,761	-0,065	0,026
-310,153	-36,263	-0,043	-0,016
-309,139	-200,000	-0,013	0,059
-308,124	-65,037	0,083	0,024
-307,110	-4,334	0,064	0,031
-306,095	57,292	-0,065	-0,045
-305,080	243,961	0,028	0,033
-304,066	-131,391	-0,060	-0,006
-303,051	43,919	-0,085	0,055
-302,037	384,068	0,066	-0,098
-301,022	-200,000	0,027	-0,134
-300,008	-174,170	-0,057	-0,001
-298,993	-76,835	0,131	-0,033
-297,978	359,771	0,057	0,082
-296,964	-200,000	0,013	0,080
-295,949	-200,000	0,011	-0,112
-294,935	243,676	-0,059	-0,070
-293,920	-26,048	0,082	0,034
-292,905	155,346	0,096	0,095
-291,891	-168,156	0,101	0,003
-290,876	399,034	-0,037	-0,056
-289,862	251,005	-0,041	-0,050
-288,847	-33,990	0,044	0,017
-287,832	-91,331	-0,092	0,019
-286,818	590,035	-0,059	-0,104
-285,803	800,000	-0,017	-0,049
-284,789	449,656	-0,031	-0,049
-283,774	-73,695	-0,098	0,025
-282,759	-40,936	0,078	0,029
-281,745	-200,000	-0,024	-0,211
-280,730	2,033	0,126	0,065
-279,716	298,592	-0,093	0,123
-278,701	-200,000	0,038	0,138
-277,686	284,993	0,057	-0,074
-276,672	-55,779	-0,092	0,029
-275,657	281,175	0,068	-0,088
-274,643	357,412	-0,015	0,022
-273,628	129,269	-0,109	-0,100
-272,613	148,785	0,081	-0,078
-271,599	271,739	-0,072	-0,091
-270,584	800,000	-0,018	-0,045
-269,570	206,018	0,079	0,088
-268,555	680,633	0,058	0,108
-267,540	527,651	0,033	0,057
-266,526	-200,000	0,007	-0,049
-265,511	800,000	-0,007	-0,018
-264,497	-200,000	0,006	-0,035
-263,482	-39,420	0,098	0,037
-262,467	-200,000	-0,003	-0,088
-261,453	-200,000	-0,002	-0,094
-260,438	-200,000	-0,008	-0,075
-259,424	-47,080	-0,087	-0,030
-258,409	194,039	0,041	-0,045
-257,395	182,833	-0,065	0,068
-256,380	12,097	-0,032	-0,018
-255,365	74,369	0,097	-0,073
-254,351	82,621	-0,069	0,053
-253,336	212,818	-0,043	0,048
-252,322	-84,772	-0,072	0,016
-251,307	-200,000	-0,002	0,030
-250,292	-200,000	0,056	0,184
-249,278	448,676	0,114	0,180
-248,263	-200,000	-0,009	0,036
-247,249	76,197	-0,110	-0,083
-246,234	-54,238	-0,061	0,020
-245,219	-60,563	-0,097	0,029
-244,205	-65,417	-0,148	-0,042
-243,190	-102,335	0,096	0,016
-242,176	411,427	0,072	0,110
-241,161	-200,000	0,008	-0,036
-240,146	-200,000	-0,000	0,042
-239,132	-200,000	0,030	-0,154
-238,117	364,798	-0,054	-0,077
-237,103	38,704	0,054	-0,035
-236,088	606,686	-0,038	0,068
-235,073	-11,759	0,190	0,089
-234,059	162,658	-0,042	0,042
-233,044	-200,000	-0,016	0,131
-232,030	38,872	0,073	-0,046
-231,015	-160,504	-0,062	0,002
-230,000	-69,454	-0,179	-0,049
-228,986	-19,303	0,118	0,052
-227,971	-43,624	-0,037	0,013
-226,957	544,399	0,106	-0,181
-225,942	190,570	-0,053	0,057
-224,927	13,292	-0,111	-0,061
-223,913	800,000	0,027	-0,079
-222,898	-123,454	-0,076	-0,008
-221,884	-76,772	-0,151	-0,037
-220,869	-200,000	0,004	0,129
-219,855	123,976	0,051	0,045
-218,840	716,510	0,020	-0,039
-217,825	-200,000	-0,011	-0,115
-216,811	417,932	-0,026	-0,039
-215,796	800,000	0,030	0,091
-214,782	-200,000	-0,006	-0,095
-213,767	243,622	-0,022	-0,027
-212,752	-189,688	0,086	0,001
-211,738	-95,711	-0,060	0,011
-210,723	-200,000	0,006	0,028
-209,709	288,925	0,067	-0,087
-208,694	95,058	0,068	0,055
-207,679	-99,483	-0,035	0,006
-206,665	800,000	-0,048	0,123
-205,650	-141,783	0,057	-0,004
-204,636	800,000	0,019	-0,059
-203,621	232,464	0,045	-0,053
-202,606	-149,872	-0,103	0,006
-201,592	-107,400	0,047	0,007
-200,577	713,307	-0,045	-0,086
-199,563	-73,329	0,048	0,012
-198,548	205,351	0,120	0,132
-197,533	793,039	0,016	0,032
-196,519	-79,071	0,176	-0,042
-195,504	-165,740	0,055	-0,002
-194,490	800,000	0,047	-0,097
-193,475	-78,284	-0,063	0,015
-192,460	10,514	0,034	-0,019
-191,446	-200,000	0,007	0,064
-190,431	473,660	0,033	-0,053
-189,417	-200,000	0,022	0,178
-188,402	415,240	0,047	0,072
-187,387	800,000	0,051	0,144
-186,373	79,457	-0,079	-0,060
-185,358	-200,000	0,052	-0,173
-184,344	194,026	0,099	-0,106
-183,329	187,325	-0,060	-0,064
-182,315	385,896	-0,042	-0,062
-181,300	1,109	-0,075	-0,038
-180,285	-200,000	0,019	0,060
-179,271	99,503	-0,063	-0,052
-178,256	347,214	-0,020	0,028
-177,242	544,893	-0,037	0,064
-176,227	16,930	0,187	-0,105
-175,212	478,725	0,015	-0,025
-174,198	137,025	-0,011	0,011
-173,183	800,000	-0,055	0,132
-172,169	-200,000	0,043	-0,141
-171,154	-21,328	0,091	-0,039
-170,139	348,334	0,020	0,028
-169,125	800,000	-0,045	-0,119
-168,110	-116,016	-0,069	-0,009
-167,096	104,538	0,026	-0,021
-166,081	-111,937	0,032	0,005
-165,066	-94,056	-0,016	-0,003
-164,052	138,282	0,045	0,042
-163,037	118,566	0,023	-0,020
-162,023	30,551	0,093	0,057
-161,008	739,929	0,021	0,040
-159,993	-200,000	-0,042	0,184
-158,979	-58,842	-0,029	-0,009
-157,964	464,869	-0,122	-0,195
-156,950	-200,000	-0,001	0,036
-155,935	-200,000	0,002	-0,056
-154,920	87,194	0,111	0,087
-153,906	416,664	0,093	0,142
-152,891	800,000	0,028	-0,079
-151,877	257,653	-0,072	-0,088
-150,862	-200,000	-0,005	-0,028
-149,847	194,057	0,093	-0,101
-148,833	-53,852	0,053	0,017
-147,818	185,591	0,045	-0,047
-146,804	-47,828	0,076	-0,026
-145,789	800,000	-0,039	-0,085
-144,775	-200,000	0,008	-0,148
-143,760	6,480	-0,085	-0,045
-142,745	-25,465	0,088	-0,037
-141,731	23,322	0,055	0,032
-140,716	-200,000	0,003	-0,026
-139,702	107,394	0,140	0,118
-138,687	-85,616	0,044	0,010
-137,672	-200,000	-0,039	-0,130
-136,658	-132,365	-0,093	-0,008
-135,643	-200,000	-0,020	-0,089
-134,629	80,390	0,195	-0,149
-133,614	13,748	0,080	0,044
-132,599	20,498	-0,069	0,040
-131,585	-200,000	0,005	0,023
-130,570	800,000	0,019	-0,043
-129,556	120,952	-0,098	-0,087
-128,541	-200,000	0,024	-0,133
-127,526	-200,000	0,010	0,058
-126,512	-113,107	0,085	0,012
-125,497	-67,369	-0,151	0,042
-124,483	266,500	0,091	-0,113
-123,468	800,000	-0,021	0,056
-122,453	274,059	0,031	-0,039
-121,439	-200,000	0,008	-0,032
-120,424	-59,933	-0,079	-0,024
-119,410	-200,000	-0,004	0,026
-118,395	577,638	-0,010	0,017
-117,380	-200,000	-0,017	0,084
-116,366	238,108	-0,024	0,028
-115,351	172,549	0,055	-0,056
-114,337	-128,044	-0,108	-0,011
-113,322	267,801	-0,100	-0,124
-112,307	-200,000	0,024	-0,088
-111,293	249,211	0,036	0,044
-110,278	244,432	-0,103	-0,124
-109,264	-200,000	0,013	0,081
-108,249	86,703	0,051	-0,040
-107,234	-200,000	0,006	-0,103
-106,220	-2,505	-0,099	-0,049
-105,205	-133,632	-0,046	0,004
-104,191	800,000	0,027	-0,063
-103,176	52,497	0,123	0,083
-102,162	668,286	0,050	-0,093
-101,147	-200,000	0,037	-0,160
-100,132	-104,143	0,088	0,014
-99,118	125,000	-0,071	-0,064
-98,103	61,128	0,100	-0,071
-97,089	269,988	0,052	0,064
-96,074	38,949	0,103	0,065
-95,059	-103,326	-0,064	-0,011
-94,045	-200,000	-0,034	-0,106
-93,030	-200,000	-0,005	-0,085
-92,016	158,657	-0,036	-0,036
-91,001	29,195	-0,018	0,011
-89,986	-177,493	0,097	-0,002
-88,972	252,061	0,140	0,170
-87,957	6,667	0,048	-0,025
-86,943	91,189	0,083	0,066
-85,928	-135,372	-0,080	-0,007
-84,913	-1,881	-0,219	-0,109
-83,899	367,194	0,049	0,070
-82,884	255,654	-0,083	0,101
-81,870	165,150	0,027	-0,027
-80,855	-10,929	-0,042	0,019
-79,840	620,529	-0,042	-0,075
-78,826	-200,000	-0,000	-0,197
-77,811	71,471	-0,068	-0,050
-76,797	-47,732	0,171	-0,059
-75,782	139,044	-0,046	-0,043
-74,767	12,581	0,085	0,046
-73,753	-85,076	0,068	-0,015
-72,738	-38,949	-0,080	0,030
-71,724	57,535	-0,087	0,060
-70,709	-111,869	0,007	-0,001
-69,694	800,000	-0,035	-0,085
-68,680	-169,862	0,110	0,003
-67,665	-51,809	-0,182	-0,060
-66,651	-53,211	0,054	0,018
-65,636	-123,887	-0,149	0,016
-64,622	58,217	0,097	-0,067
-63,607	-40,470	-0,129	-0,047
-62,592	-200,000	0,000	0,034
-61,578	178,713	-0,090	-0,094
-60,563	-84,249	0,017	-0,004
-59,549	-125,887	-0,241	0,025
-58,534	-1,147	-1,647	-0,822
-57,519	406,742	-1,439	-2,159
-56,505	-200,000	-0,575	-4,455
-55,490	216,874	1,029	1,162
-54,476	800,000	4,961	11,043
-53,461	-200,000	19,008	319,819
-52,446	-200,000	740,227	2335,072
-51,432	573,948	1655,528	2870,383
-50,417	78,363	1671,400	1262,533
-49,403	21,338	1544,153	885,947
-48,388	15,234	1466,503	811,709
-47,373	17,957	1456,818	819,480
-46,359	16,694	1446,758	807,730
-45,344	13,488	1442,153	789,767
-44,330	13,435	1439,943	788,268
-43,315	13,385	1438,528	787,224
-42,300	13,406	1436,659	786,269
-41,286	13,441	1435,423	785,730
-40,271	13,406	1433,924	784,710
-39,257	13,425	1432,721	784,113
-38,242	13,389	1431,605	783,298
-37,227	13,449	1430,585	782,997
-36,213	13,461	1429,028	782,170
-35,198	13,442	1427,868	781,414
-34,184	13,463	1426,929	780,967
-33,169	13,407	1425,600	779,946
-32,154	13,476	1424,252	779,504
-31,140	13,484	1423,423	779,058
-30,125	13,474	1422,053	778,228
-29,111	13,443	1420,991	777,471
-28,096	13,452	1420,043	776,961
-27,082	13,372	1418,996	775,983
-26,067	13,327	1417,858	775,114
-25,052	13,375	1416,686	774,672
-24,038	13,352	1415,857	774,077
-23,023	13,319	1414,567	773,189
-22,009	13,345	1413,684	772,798
-20,994	13,301	1412,842	772,098
-19,979	13,287	1412,087	771,590
-18,965	13,286	1411,054	770,989
-17,950	13,352	1409,830	770,600
-16,936	13,337	1408,850	769,963
-15,921	13,322	1407,699	769,233
-14,906	13,308	1407,031	768,772
-13,892	13,285	1406,244	768,204
-12,877	13,291	1405,348	767,711
-11,863	13,282	1404,358	767,099
-10,848	13,253	1403,441	766,434
-9,833	13,242	1402,604	765,894
-8,819	13,221	1401,797	765,324
-7,804	13,211	1400,766	764,687
-6,790	13,184	1399,764	763,983
-5,775	13,212	1398,675	763,486
-4,760	13,196	1397,540	762,763
-3,746	13,179	1396,935	762,324
-2,731	13,173	1396,290	761,914
-1,717	13,161	1395,170	761,216
-0,702	13,152	1393,333	760,143
0,313	16,990	1310,260	732,607
1,327	33,182	704,070	431,109
2,342	50,801	123,388	82,546
3,356	0,872	16,662	8,417
4,371	17,324	3,160	1,770
5,386	-66,493	0,427	0,119
6,400	704,901	0,105	0,197
7,415	88,365	-0,219	-0,172
8,429	87,494	-0,258	-0,202
9,444	382,189	-0,162	-0,236
10,459	29,386	-0,304	-0,182
11,473	-9,792	-0,316	-0,148
12,488	122,163	-0,254	-0,225
13,502	-41,509	-0,458	-0,166
14,517	106,565	-0,208	-0,175
15,531	-60,181	-0,457	-0,137
16,546	729,581	-0,124	-0,235
17,561	93,935	-0,356	-0,285
18,575	27,018	-0,197	-0,117
19,590	248,436	-0,209	-0,250
20,604	-88,346	-0,298	-0,062
21,619	113,865	-0,386	-0,331
22,634	373,635	-0,346	-0,498
23,648	14,332	-0,552	-0,303
24,663	174,020	-0,326	-0,333
25,677	-25,536	-0,297	-0,123
26,692	37,605	-0,339	-0,212
27,707	114,602	-0,295	-0,254
28,721	-4,436	-0,343	-0,167
29,736	-18,560	-0,425	-0,186
30,750	105,843	-0,436	-0,364
31,765	249,484	-0,326	-0,391
32,780	323,486	-0,247	-0,333
33,794	10,001	-0,428	-0,229
34,809	41,825	-0,239	-0,153
35,823	81,567	-0,270	-0,206
36,838	79,021	-0,342	-0,258
37,853	21,303	-0,563	-0,322
38,867	177,671	-0,375	-0,386
39,882	23,279	-0,322	-0,186
40,896	179,607	-0,255	-0,264
41,911	383,690	-0,148	-0,215
42,926	36,983	-0,377	-0,234
43,940	88,977	-0,365	-0,286
44,955	31,328	-0,371	-0,224
45,969	201,811	-0,280	-0,304
46,984	-13,877	-0,386	-0,175
47,999	168,120	-0,222	-0,223
49,013	197,914	-0,210	-0,227
50,028	219,404	-0,363	-0,410
51,042	190,267	-0,285	-0,302
52,057	112,621	-0,364	-0,310
53,071	53,029	-0,334	-0,225
54,086	108,796	-0,332	-0,279
55,101	143,788	-0,235	-0,220
56,115	26,114	-0,352	-0,206
57,130	121,580	-0,269	-0,236
58,144	222,174	-0,228	-0,259
59,159	22,251	-0,362	-0,207
60,174	73,767	-0,299	-0,220
61,188	268,216	-0,272	-0,337
62,203	184,465	-0,271	-0,283
63,217	25,657	-0,472	-0,276
64,232	28,748	-0,281	-0,167
65,247	14,797	-0,359	-0,197
66,261	22,921	-0,323	-0,186
67,276	-37,764	-0,498	-0,186
68,290	44,060	-0,370	-0,238
69,305	42,051	-0,385	-0,245
70,320	-18,741	-0,227	-0,099
71,334	-134,052	-0,341	-0,029
72,349	45,937	-0,375	-0,244
73,363	50,512	-0,333	-0,221
74,378	-23,666	-0,359	-0,151
75,393	87,924	-0,307	-0,239
76,407	-177,197	-0,330	-0,006
77,422	-17,841	-0,287	-0,126
78,436	264,370	-0,233	-0,286
79,451	86,977	-0,312	-0,242
80,466	-10,257	-0,295	-0,137
81,480	190,390	-0,249	-0,263
82,495	211,820	-0,207	-0,230
83,509	27,624	-0,372	-0,220
84,524	-184,939	-0,192	-0,002
85,539	-31,171	-0,359	-0,142
86,553	10,905	-0,367	-0,196
87,568	50,035	-0,331	-0,219
88,582	158,861	-0,252	-0,246
89,597	-26,984	-0,416	-0,170
90,611	353,341	-0,243	-0,340
91,626	-21,189	-0,313	-0,134
92,641	67,724	-0,177	-0,127
93,655	146,589	-0,136	-0,128
94,670	329,834	-0,306	-0,414
95,684	391,381	-0,230	-0,337
96,699	148,172	-0,288	-0,273
97,714	66,291	-0,326	-0,232
98,728	-37,215	-0,390	-0,145
99,743	120,326	-0,171	-0,149
100,757	-106,049	-0,249	-0,039
101,772	67,133	-0,332	-0,237
102,787	187,540	-0,261	-0,274
103,801	101,883	-0,199	-0,163
104,816	-17,431	-0,265	-0,116
105,830	183,546	-0,188	-0,195
106,845	-1,854	-0,158	-0,077
107,860	6,524	-0,181	-0,094
108,874	11,860	-0,256	-0,137
109,889	-1,676	-0,340	-0,167
110,903	127,395	-0,272	-0,242
111,918	71,109	-0,315	-0,229
112,933	337,754	-0,062	-0,084
113,947	-37,881	-0,315	-0,117
114,962	53,990	-0,213	-0,143
115,976	499,270	-0,214	-0,346
116,991	-7,077	-0,304	-0,144
118,006	50,074	-0,402	-0,266
119,020	19,861	-0,192	-0,108
120,035	1,319	-0,149	-0,075
121,049	-20,146	-0,224	-0,096
122,064	-15,690	-0,227	-0,101
123,079	126,339	-0,236	-0,209
124,093	-30,547	-0,301	-0,119
125,108	3,339	-0,274	-0,139
126,122	526,357	-0,187	-0,310
127,137	83,540	-0,146	-0,111
128,151	140,470	-0,165	-0,153
129,166	123,881	-0,145	-0,127
130,181	267,803	-0,182	-0,223
131,195	144,461	-0,272	-0,254
132,210	351,042	-0,240	-0,333
133,224	102,748	-0,302	-0,247
134,239	-14,253	-0,321	-0,144
135,254	522,113	-0,136	-0,225
136,268	38,317	-0,392	-0,244
137,283	12,467	-0,300	-0,161
138,297	83,261	-0,276	-0,210
139,312	150,255	-0,214	-0,203
140,327	-107,317	-0,262	-0,040
141,341	6,316	-0,131	-0,068
142,356	-31,095	-0,319	-0,125
143,370	94,350	-0,260	-0,206
144,385	110,877	-0,218	-0,183
145,400	171,225	-0,193	-0,194
146,414	394,762	-0,148	-0,217
147,429	189,909	-0,188	-0,197
148,443	161,748	-0,282	-0,276
149,458	-42,637	-0,283	-0,100
150,473	394,730	-0,142	-0,207
151,487	165,297	-0,221	-0,218
152,502	103,857	-0,194	-0,159
153,516	-1,215	-0,180	-0,089
154,531	-16,869	-0,423	-0,186
155,546	4,460	-0,347	-0,177
156,560	324,931	-0,166	-0,223
157,575	800,000	-0,097	-0,242
158,589	-156,420	-0,210	0,009
159,604	136,075	-0,181	-0,164
160,619	-49,350	-0,197	-0,065
161,633	-8,666	-0,299	-0,139
162,648	-50,174	-0,231	-0,076
163,662	166,667	-0,191	-0,189
164,677	17,378	-0,267	-0,148
165,692	-6,189	-0,311	-0,148
166,706	137,100	-0,246	-0,224
167,721	310,947	-0,153	-0,200
168,735	75,348	-0,216	-0,159
169,750	-17,751	-0,218	-0,095
170,764	15,935	-0,269	-0,147
171,779	104,268	-0,152	-0,125
172,794	112,385	-0,168	-0,142
173,808	70,206	-0,262	-0,189
174,823	30,610	-0,259	-0,154
175,837	49,583	-0,347	-0,228
176,852	108,528	-0,218	-0,181
177,867	136,058	-0,262	-0,238
178,881	141,348	-0,197	-0,182
179,896	169,237	-0,171	-0,170
180,910	7,347	-0,223	-0,116
181,925	-10,308	-0,300	-0,138
182,940	289,896	-0,230	-0,291
183,954	800,000	-0,154	-0,334
184,969	239,174	-0,208	-0,242
185,983	-6,106	-0,234	-0,111
186,998	800,000	-0,082	-0,241
188,013	-39,707	-0,263	-0,095
189,027	-103,367	-0,215	-0,035
190,042	382,744	-0,201	-0,289
191,056	103,340	-0,241	-0,197
192,071	-17,319	-0,291	-0,127
193,086	285,023	-0,116	-0,146
194,100	-69,270	-0,209	0,055
195,115	-90,092	-0,235	0,047
196,129	-6,356	-0,129	-0,061
197,144	154,794	-0,170	-0,163
198,159	-107,080	-0,319	-0,049
199,173	-17,668	-0,325	-0,141
200,188	533,502	-0,119	-0,196
201,202	36,635	-0,198	-0,121
202,217	-86,674	-0,240	-0,051
203,232	88,635	-0,256	-0,198
204,246	62,131	-0,198	-0,137
205,261	83,971	-0,136	-0,103
206,275	359,035	-0,071	-0,098
207,290	-93,530	-0,178	-0,034
208,304	800,000	-0,056	-0,128
209,319	157,117	-0,196	-0,188
210,334	105,600	-0,256	-0,210
211,348	-10,912	-0,271	-0,124
212,363	593,500	-0,157	-0,270
213,377	-136,943	-0,205	0,016
214,392	70,973	-0,137	-0,098
215,407	800,000	-0,125	-0,256
216,421	2,049	-0,168	-0,084
217,436	42,788	-0,261	-0,165
218,450	409,961	-0,153	-0,225
219,465	-79,557	-0,217	-0,050
220,480	49,062	-0,223	-0,145
221,494	168,582	-0,117	-0,116
222,509	424,637	-0,180	-0,270
223,523	726,177	-0,087	-0,161
224,538	-38,577	-0,228	-0,083
225,553	448,566	-0,146	-0,224
226,567	77,396	-0,150	-0,110
227,582	6,945	-0,198	-0,102
228,596	61,787	-0,279	-0,193
229,611	-178,279	-0,249	-0,004
230,626	-111,791	-0,157	-0,022
231,640	-29,851	-0,284	-0,112
232,655	-133,881	-0,213	0,018
233,669	-164,742	-0,221	-0,007
234,684	-24,478	-0,233	-0,096
235,699	10,554	-0,174	-0,092
236,713	-32,525	-0,309	-0,119
237,728	-3,486	-0,228	-0,110
238,742	152,909	-0,094	-0,089
239,757	120,200	-0,135	-0,116
240,772	415,339	-0,204	-0,303
241,786	223,364	-0,234	-0,262
242,801	64,159	-0,180	-0,125
243,815	346,796	-0,167	-0,228
244,830	366,133	-0,112	-0,157
245,844	800,000	-0,113	-0,243
246,859	-135,090	-0,193	0,016
247,874	133,483	-0,204	-0,182
248,888	800,000	-0,111	-0,231
249,903	800,000	-0,083	-0,191
250,917	345,058	-0,112	-0,152
251,932	101,252	-0,152	-0,122
252,947	28,325	-0,199	-0,116
253,961	93,906	-0,247	-0,194
254,976	200,043	-0,196	-0,209
255,990	198,859	-0,109	-0,116
257,005	566,454	-0,130	-0,219
258,020	24,437	-0,047	0,027
259,034	4,993	-0,051	-0,026
260,049	332,839	-0,161	-0,216
261,063	167,932	-0,178	-0,175
262,078	100,323	-0,201	-0,161
263,093	-11,874	-0,331	-0,149
264,107	-96,626	-0,238	-0,043
265,122	3,166	-0,078	-0,039
266,136	-95,015	-0,161	-0,030
267,151	63,877	-0,173	-0,120
268,166	148,898	-0,157	-0,146
269,180	402,224	-0,121	-0,177
270,195	-31,071	-0,249	-0,097
271,209	14,183	-0,106	-0,057
272,224	66,952	-0,174	-0,122
273,239	184,373	-0,115	-0,118
274,253	138,324	-0,101	-0,091
275,268	-155,681	-0,131	0,006
276,282	51,687	-0,258	-0,169
277,297	326,601	-0,206	-0,274
278,312	-94,395	-0,254	-0,047
279,326	-100,808	-0,220	-0,037
280,341	18,979	-0,198	-0,109
281,355	709,893	-0,083	-0,153
282,370	-53,224	-0,287	-0,090
283,384	295,161	-0,088	-0,111
284,399	650,530	-0,092	-0,164
285,414	800,000	-0,091	-0,236
286,428	30,298	-0,137	0,080
287,443	69,089	-0,172	-0,121
288,457	800,000	-0,067	-0,141
289,472	709,465	-0,064	-0,118
290,487	519,917	-0,160	-0,260
291,501	102,154	-0,128	-0,103
292,516	205,407	-0,170	-0,182
293,530	102,864	-0,186	-0,150
294,545	-146,832	-0,092	-0,005
295,560	37,929	-0,130	-0,079
296,574	103,552	-0,238	-0,192
297,589	102,302	-0,162	-0,130
298,603	219,975	-0,163	-0,181
299,618	-63,942	-0,183	-0,051
300,633	-6,331	-0,192	-0,090
301,647	-200,000	-0,013	-0,042
302,662	607,339	-0,021	-0,037
303,676	-5,787	-0,049	0,023
304,691	-132,855	-0,117	-0,010
305,706	-29,476	-0,179	-0,070
306,720	16,635	-0,226	-0,123
307,735	800,000	-0,084	-0,192
308,749	552,741	-0,104	-0,173
309,764	24,866	-0,092	0,052
310,779	109,717	-0,136	-0,112
311,793	5,825	-0,201	-0,102
312,808	177,933	-0,201	-0,202
313,822	46,491	-0,161	-0,103
314,837	-135,492	-0,221	-0,018
315,852	59,143	-0,189	-0,128
316,866	109,027	-0,124	-0,102
317,881	800,000	-0,069	-0,132
318,895	-118,823	-0,159	-0,019
319,910	-20,291	-0,196	-0,083
320,925	120,824	-0,163	-0,139
321,939	46,501	-0,169	-0,107
322,954	-93,090	-0,040	0,008
323,968	-86,437	-0,200	-0,042
324,983	-76,943	-0,176	-0,042
325,997	-200,000	-0,175	-0,000
327,012	-3,481	-0,222	-0,106
328,027	44,979	-0,126	-0,079
329,041	-58,533	-0,093	0,028
330,056	20,015	-0,137	-0,076
331,070	-87,530	-0,146	-0,030
332,085	249,906	-0,081	-0,094
333,100	75,700	-0,152	-0,110
334,114	170,926	-0,072	-0,071
335,129	230,059	-0,114	-0,128
336,143	-33,572	-0,130	-0,049
337,158	98,505	-0,102	-0,081
338,173	273,479	-0,098	-0,119
339,187	128,074	-0,062	0,054
340,202	-42,466	-0,191	-0,067
341,216	-200,000	-0,037	-0,257
342,231	67,542	-0,176	-0,124
343,246	-21,239	-0,142	-0,059
344,260	92,746	-0,093	-0,072
345,275	-200,000	-0,034	-0,148
346,289	298,329	-0,070	-0,089
347,304	244,266	-0,018	-0,021
348,319	-15,020	-0,236	-0,103
349,333	136,091	-0,057	-0,051
350,348	800,000	0,022	-0,060
351,362	-76,081	-0,174	-0,042
352,377	-103,463	-0,106	-0,017
353,392	-38,433	-0,076	-0,027
354,406	62,087	-0,058	-0,040
355,421	208,075	1316,186	1412,436
356,435	160,089	1477,083	1412,921
