DTS Sentinel unit serial number:	SN410029Multiplexer serial number:	ORYXHardware model number:	OX2-SRSoftware version number:	ORYX F/W v4,00 Oryx Data Collector v3.7.2.0data status	okinstallation	B3 Nyhavnadifferential loss correction	single-endedforward channel	channel 1reverse channel	N/Adate	2023/12/04time	21:27:30forward acquisition time	300,00reverse acquisition time	0,00gamma	499,1914k internal	0,3201k external	0,3201temperature offset calibration	1,0000default loss term (dB/km)	0,3820temperature slope calibration	1,0000multiplexer offset coefficient	1,0000multiplexer slope coefficient	1,0000fibre end	0,00T internal ref (°C)	14,55T ext. ref 1 (°C)	-0,26T ext. ref 2 (°C)	-0,28length (m)	temperature (°C)	Stokes	anti-Stokes-744,400	66,228	-0,238	-0,175
-743,385	-200,000	-0,046	0,426
-742,371	194,746	-0,143	-0,158
-741,356	-200,000	0,103	0,386
-740,342	77,858	-0,210	-0,162
-739,327	-200,000	-0,021	0,343
-738,312	385,889	-0,172	-0,258
-737,298	325,584	-0,121	0,168
-736,283	230,613	-0,154	-0,184
-735,269	800,000	0,083	0,208
-734,254	22,834	-0,275	-0,164
-733,239	-7,255	-0,258	0,127
-732,225	371,589	-0,156	-0,231
-731,210	-200,000	0,001	-0,090
-730,196	712,835	-0,016	0,031
-729,181	-85,070	-0,144	-0,033
-728,167	800,000	-0,039	-0,094
-727,152	-200,000	0,025	0,115
-726,137	-155,683	-0,152	-0,007
-725,123	-200,000	-0,008	-0,071
-724,108	-18,728	-0,058	-0,026
-723,094	64,317	-0,067	-0,049
-722,079	342,060	-0,120	-0,171
-721,064	160,284	0,052	-0,053
-720,050	-155,425	-0,088	-0,004
-719,035	268,723	0,057	-0,073
-718,021	-127,676	-0,047	-0,005
-717,006	-200,000	-0,007	-0,076
-715,991	-77,023	-0,071	-0,018
-714,977	110,106	-0,013	-0,012
-713,962	-98,671	0,033	0,006
-712,948	384,546	0,072	-0,109
-711,933	98,649	-0,079	-0,066
-710,918	243,481	-0,072	0,088
-709,904	19,920	-0,010	0,006
-708,889	-200,000	0,007	-0,103
-707,875	182,985	-0,063	-0,068
-706,860	800,000	-0,036	-0,115
-705,845	138,797	0,064	-0,061
-704,831	-200,000	-0,007	0,171
-703,816	7,996	-0,031	0,017
-702,802	-143,014	0,031	-0,002
-701,787	113,763	-0,038	0,033
-700,772	16,763	-0,065	0,037
-699,758	53,389	-0,102	0,071
-698,743	-47,238	0,014	-0,005
-697,729	800,000	0,057	0,125
-696,714	-200,000	-0,001	0,009
-695,699	-80,525	0,091	-0,022
-694,685	126,886	-0,074	-0,068
-693,670	-42,428	-0,082	-0,030
-692,656	-45,182	-0,054	0,019
-691,641	800,000	0,070	-0,174
-690,627	-200,000	0,010	-0,072
-689,612	-200,000	-0,011	-0,074
-688,597	-14,045	0,101	-0,047
-687,583	-200,000	0,004	-0,019
-686,568	-7,658	-0,011	-0,005
-685,554	800,000	-0,021	-0,058
-684,539	689,642	0,015	0,029
-683,524	-36,180	0,043	-0,017
-682,510	4,419	0,105	0,056
-681,495	60,195	-0,050	-0,036
-680,481	-200,000	0,030	-0,111
-679,466	271,772	-0,026	0,034
-678,451	-137,160	0,055	-0,004
-677,437	207,689	-0,017	0,019
-676,422	5,316	0,023	-0,012
-675,408	800,000	0,018	0,039
-674,393	-42,462	-0,098	-0,036
-673,378	-49,417	-0,081	0,028
-672,364	-37,205	-0,049	-0,019
-671,349	-200,000	-0,006	-0,058
-670,335	41,482	0,116	-0,076
-669,320	75,096	0,035	0,027
-668,305	611,500	-0,068	0,125
-667,291	800,000	0,029	-0,094
-666,276	661,187	0,040	-0,075
-665,262	-200,000	-0,006	-0,110
-664,247	800,000	0,035	-0,077
-663,232	-62,762	0,058	0,017
-662,218	48,161	0,104	0,071
-661,203	-151,408	-0,082	0,004
-660,189	-200,000	0,004	0,037
-659,174	-200,000	-0,000	0,024
-658,159	562,866	0,018	-0,031
-657,145	305,713	0,052	-0,071
-656,130	-89,595	-0,090	-0,019
-655,116	-200,000	0,004	-0,081
-654,101	-200,000	-0,017	0,091
-653,086	-42,447	-0,059	0,022
-652,072	-7,648	-0,103	0,050
-651,057	-154,287	0,030	-0,001
-650,043	-200,000	0,020	-0,104
-649,028	-200,000	0,012	0,041
-648,014	-200,000	-0,013	-0,099
-646,999	523,588	-0,048	0,082
-645,984	-200,000	0,016	0,082
-644,970	501,491	-0,058	-0,097
-643,955	750,864	-0,065	-0,127
-642,941	-108,254	-0,084	-0,013
-641,926	-200,000	0,039	-0,179
-640,911	31,508	0,052	-0,032
-639,897	693,551	-0,049	0,093
-638,882	141,901	-0,069	-0,066
-637,868	-200,000	0,003	-0,028
-636,853	331,662	0,125	-0,175
-635,838	276,786	-0,055	-0,071
-634,824	106,991	0,027	-0,023
-633,809	284,802	0,080	0,104
-632,795	-200,000	-0,022	0,085
-631,780	-152,461	0,050	0,003
-630,765	168,368	0,074	0,077
-629,751	59,039	-0,053	-0,038
-628,736	-138,312	-0,060	-0,005
-627,722	-200,000	-0,003	0,121
-626,707	-59,940	0,063	0,019
-625,692	11,798	-0,062	-0,035
-624,678	-200,000	0,005	0,033
-623,663	377,154	0,029	-0,043
-622,649	-200,000	0,011	-0,056
-621,634	110,318	-0,076	-0,066
-620,619	2,378	-0,111	0,058
-619,605	6,364	-0,114	-0,061
-618,590	-200,000	0,024	-0,103
-617,576	599,012	0,072	-0,129
-616,561	103,470	-0,049	-0,042
-615,546	800,000	-0,038	-0,081
-614,532	-200,000	-0,002	-0,109
-613,517	793,115	0,040	-0,080
-612,503	-200,000	-0,001	-0,106
-611,488	-28,665	-0,127	-0,053
-610,474	415,276	-0,072	-0,112
-609,459	-200,000	0,013	-0,072
-608,444	318,246	0,012	-0,016
-607,430	142,232	-0,068	-0,065
-606,415	-200,000	-0,007	-0,101
-605,401	8,982	0,077	0,042
-604,386	199,144	-0,079	0,088
-603,371	69,829	0,045	0,034
-602,357	56,886	-0,178	0,125
-601,342	189,400	-0,080	-0,087
-600,328	-200,000	0,007	-0,033
-599,313	800,000	0,040	-0,106
-598,298	-32,465	-0,120	-0,048
-597,284	-124,989	0,134	-0,015
-596,269	627,191	-0,008	0,015
-595,255	601,356	-0,048	0,086
-594,240	-103,916	-0,124	0,021
-593,225	6,428	0,031	-0,017
-592,211	595,151	-0,031	-0,056
-591,196	-41,386	0,122	-0,045
-590,182	-156,646	-0,131	-0,006
-589,167	-200,000	-0,010	-0,100
-588,152	466,974	0,035	0,057
-587,138	-200,000	-0,007	-0,063
-586,123	54,266	-0,069	-0,048
-585,109	800,000	-0,041	0,085
-584,094	260,376	0,038	0,048
-583,079	-48,377	-0,011	0,004
-582,065	-120,945	-0,148	-0,018
-581,050	235,291	0,082	-0,098
-580,036	800,000	0,047	-0,095
-579,021	800,000	-0,081	-0,235
-578,006	459,676	0,067	-0,109
-576,992	-90,345	-0,103	0,021
-575,977	486,394	0,029	-0,048
-574,963	-72,163	0,030	0,008
-573,948	-81,585	0,066	0,016
-572,934	800,000	-0,059	0,126
-571,919	475,589	0,011	-0,017
-570,904	38,935	0,043	0,028
-569,890	230,113	0,047	-0,055
-568,875	61,843	0,020	0,014
-567,861	-109,688	0,057	-0,009
-566,846	-54,791	0,084	0,027
-565,831	140,119	0,105	-0,100
-564,817	-200,000	-0,000	-0,060
-563,802	-33,840	-0,107	0,042
-562,788	630,593	0,052	-0,095
-561,773	128,658	0,064	-0,059
-560,758	32,311	0,074	0,046
-559,744	18,032	-0,062	0,036
-558,729	387,200	-0,040	0,060
-557,715	132,606	0,050	-0,047
-556,700	-105,647	-0,097	0,016
-555,685	232,887	0,057	-0,068
-554,671	5,829	0,159	0,085
-553,656	131,178	0,055	-0,051
-552,642	-99,088	0,062	0,011
-551,627	800,000	0,017	0,037
-550,612	6,067	-0,107	-0,057
-549,598	39,660	-0,057	-0,037
-548,583	88,124	-0,080	-0,064
-547,569	-200,000	0,004	-0,050
-546,554	-151,929	0,120	-0,006
-545,539	9,476	-0,050	0,027
-544,525	800,000	0,026	0,076
-543,510	-200,000	-0,027	-0,170
-542,496	3,471	0,072	-0,038
-541,481	135,208	-0,062	0,058
-540,466	-200,000	0,004	0,026
-539,452	97,217	0,035	-0,029
-538,437	-200,000	0,003	0,062
-537,423	187,812	-0,106	-0,114
-536,408	206,591	-0,100	-0,113
-535,393	306,183	0,064	0,086
-534,379	800,000	0,022	-0,060
-533,364	-30,515	-0,108	0,044
-532,350	-200,000	0,019	-0,084
-531,335	-200,000	-0,006	0,041
-530,321	589,046	0,056	0,099
-529,306	493,501	0,033	0,055
-528,291	288,223	-0,099	-0,130
-527,277	190,768	-0,058	-0,063
-526,262	-200,000	0,010	-0,118
-525,248	-154,760	-0,033	0,002
-524,233	668,498	-0,031	0,058
-523,218	149,036	0,013	-0,013
-522,204	-165,631	0,118	0,004
-521,189	-77,787	-0,126	0,031
-520,175	800,000	-0,074	-0,155
-519,160	-200,000	0,067	-0,258
-518,145	134,070	-0,021	0,020
-517,131	800,000	-0,006	0,018
-516,116	403,952	0,068	0,104
-515,102	64,698	-0,094	-0,069
-514,087	632,854	-0,026	-0,047
-513,072	291,345	-0,047	-0,062
-512,058	-200,000	0,012	-0,062
-511,043	-200,000	-0,023	-0,074
-510,029	45,114	0,116	-0,077
-509,014	-137,239	-0,059	-0,005
-507,999	-200,000	-0,007	0,030
-506,985	-200,000	-0,002	-0,035
-505,970	-59,897	-0,148	-0,045
-504,956	-32,440	0,117	0,047
-503,941	76,400	-0,073	0,056
-502,926	257,255	-0,019	0,023
-501,912	4,122	0,097	0,051
-500,897	30,949	-0,020	-0,012
-499,883	564,544	-0,036	-0,063
-498,868	346,714	-0,057	0,081
-497,853	-200,000	0,010	-0,035
-496,839	644,248	-0,050	-0,091
-495,824	-162,279	0,091	-0,003
-494,810	-200,000	-0,018	0,067
-493,795	-93,804	0,150	0,030
-492,781	-106,870	-0,207	0,033
-491,766	-49,633	-0,137	-0,047
-490,751	4,421	-0,099	0,052
-489,737	800,000	0,039	0,087
-488,722	612,467	0,043	0,077
-487,708	-200,000	0,043	0,157
-486,693	800,000	0,010	0,030
-485,678	62,590	-0,046	0,033
-484,664	-200,000	0,028	-0,127
-483,649	700,089	-0,029	-0,056
-482,635	800,000	0,020	0,058
-481,620	-162,428	-0,115	0,004
-480,605	-62,312	0,191	0,057
-479,591	84,842	0,090	0,071
-478,576	800,000	0,034	0,071
-477,562	9,953	-0,019	-0,010
-476,547	-23,534	0,109	-0,047
-475,532	100,104	0,044	0,037
-474,518	70,729	0,033	-0,025
-473,503	251,193	0,144	0,177
-472,489	-200,000	-0,020	0,068
-471,474	-200,000	0,046	-0,186
-470,459	800,000	-0,101	-0,203
-469,445	-105,606	-0,099	0,016
-468,430	301,788	-0,078	0,104
-467,416	109,006	0,023	-0,020
-466,401	191,197	-0,022	0,023
-465,386	800,000	0,043	-0,088
-464,372	-111,898	-0,017	-0,002
-463,357	474,337	-0,018	0,029
-462,343	800,000	-0,035	-0,106
-461,328	80,985	0,181	-0,140
-460,313	-67,659	-0,044	0,012
-459,299	-200,000	0,036	-0,140
-458,284	-100,378	0,137	0,024
-457,270	110,694	-0,084	-0,073
-456,255	206,938	0,100	-0,113
-455,241	-200,000	-0,024	-0,080
-454,226	210,086	-0,007	0,007
-453,211	-149,910	-0,073	-0,004
-452,197	-39,928	0,078	0,029
-451,182	-200,000	-0,016	0,124
-450,168	646,084	0,040	0,073
-449,153	-200,000	0,001	0,152
-448,138	268,846	-0,139	-0,175
-447,124	24,705	-0,057	0,034
-446,109	-200,000	0,006	-0,085
-445,095	-61,506	-0,037	0,011
-444,080	46,389	-0,084	0,056
-443,065	-200,000	0,001	0,079
-442,051	407,212	0,038	-0,058
-441,036	-58,223	0,073	-0,023
-440,022	800,000	-0,068	0,154
-439,007	555,708	0,040	-0,070
-437,992	800,000	-0,025	-0,055
-436,978	497,098	0,098	0,163
-435,963	-200,000	-0,002	0,088
-434,949	-200,000	0,001	-0,035
-433,934	178,477	-0,077	-0,081
-432,919	800,000	0,016	-0,050
-431,905	-200,000	-0,013	0,086
-430,890	265,055	-0,045	0,057
-429,876	-71,824	0,081	-0,022
-428,861	254,555	-0,053	0,065
-427,846	-200,000	0,001	-0,035
-426,832	543,987	0,047	0,081
-425,817	-200,000	-0,006	-0,029
-424,803	-200,000	-0,003	-0,054
-423,788	-200,000	-0,001	0,203
-422,773	-64,319	-0,082	0,024
-421,759	477,970	-0,083	0,135
-420,744	184,735	-0,041	-0,044
-419,730	11,824	0,140	0,077
-418,715	356,622	0,013	0,018
-417,701	800,000	-0,020	-0,062
-416,686	-12,321	0,061	-0,029
-415,671	-200,000	0,003	0,139
-414,657	-200,000	0,054	0,202
-413,642	441,064	-0,043	0,069
-412,628	221,515	0,075	0,086
-411,613	71,674	0,111	-0,082
-410,598	45,581	0,036	-0,024
-409,584	-200,000	-0,007	0,132
-408,569	-200,000	0,007	0,170
-407,555	-199,000	0,072	-0,000
-406,540	-90,043	0,021	-0,004
-405,525	-42,828	0,156	0,057
-404,511	80,267	-0,075	0,058
-403,496	332,975	-0,041	0,058
-402,482	39,917	-0,083	-0,054
-401,467	800,000	0,040	0,107
-400,452	800,000	0,028	0,062
-399,438	-22,436	-0,014	-0,006
-398,423	-200,000	-0,019	0,139
-397,409	161,331	0,104	-0,105
-396,394	-3,789	-0,128	-0,064
-395,379	-112,894	-0,110	0,015
-394,365	-18,488	0,088	0,039
-393,350	-73,988	0,050	0,013
-392,336	30,692	-0,067	0,041
-391,321	-200,000	0,012	-0,054
-390,306	800,000	-0,032	0,071
-389,292	792,482	0,027	-0,053
-388,277	-200,000	0,029	-0,114
-387,263	39,744	0,129	-0,083
-386,248	800,000	-0,005	0,014
-385,233	-108,609	0,141	-0,021
-384,219	-200,000	0,032	0,135
-383,204	-145,337	-0,111	0,007
-382,190	-200,000	-0,002	-0,052
-381,175	-200,000	-0,024	-0,107
-380,160	361,685	-0,082	-0,118
-379,146	-77,813	0,113	-0,028
-378,131	138,468	-0,048	0,045
-377,117	274,537	0,070	0,089
-376,102	-200,000	0,017	-0,083
-375,088	-200,000	-0,018	-0,196
-374,073	-200,000	0,007	0,063
-373,058	741,068	0,052	0,100
-372,044	10,625	0,087	-0,047
-371,029	-71,665	0,097	0,026
-370,015	99,180	-0,087	-0,072
-369,000	-0,184	0,030	-0,015
-367,985	-57,436	0,075	-0,024
-366,971	144,487	-0,069	-0,066
-365,956	800,000	0,014	-0,037
-364,942	-200,000	-0,016	0,068
-363,927	-200,000	0,008	0,065
-362,912	800,000	0,025	0,056
-361,898	14,816	-0,101	-0,056
-360,883	-200,000	0,020	0,068
-359,869	468,639	-0,084	0,135
-358,854	-200,000	-0,051	0,205
-357,839	-188,321	0,105	-0,001
-356,825	680,018	0,058	0,109
-355,810	-200,000	-0,004	0,111
-354,796	166,448	-0,053	-0,054
-353,781	800,000	-0,056	-0,169
-352,766	-78,702	-0,073	-0,018
-351,752	800,000	-0,042	0,114
-350,737	444,771	0,051	0,081
-349,723	647,090	0,063	0,115
-348,708	-200,000	-0,008	0,067
-347,693	-72,847	-0,110	0,029
-346,679	-16,280	-0,044	0,020
-345,664	-129,368	0,055	-0,005
-344,650	-200,000	-0,015	-0,121
-343,635	800,000	0,037	-0,081
-342,620	-69,598	0,116	0,032
-341,606	-200,000	-0,016	-0,108
-340,591	95,895	0,139	-0,114
-339,577	199,725	-0,027	-0,030
-338,562	430,456	0,053	-0,082
-337,548	53,238	0,177	0,121
-336,533	-102,992	-0,175	-0,029
-335,518	-200,000	0,004	-0,079
-334,504	-69,957	0,020	0,005
-333,489	-21,178	0,080	-0,035
-332,475	-200,000	0,015	-0,097
-331,460	-92,755	0,043	-0,009
-330,445	800,000	-0,028	-0,080
-329,431	800,000	-0,038	-0,109
-328,416	86,580	0,110	0,087
-327,402	334,956	-0,085	0,119
-326,387	309,450	0,054	0,073
-325,372	-200,000	-0,002	0,022
-324,358	-110,321	-0,083	0,012
-323,343	31,769	-0,030	0,018
-322,329	-28,489	0,073	-0,030
-321,314	94,775	0,082	0,066
-320,299	-2,496	0,038	-0,019
-319,285	88,886	-0,069	0,055
-318,270	199,779	-0,008	-0,008
-317,256	-200,000	-0,014	-0,108
-316,241	-49,480	-0,063	-0,021
-315,226	-200,000	-0,051	0,203
-314,212	-177,851	0,158	-0,003
-313,197	-200,000	0,016	-0,076
-312,183	-200,000	0,004	0,022
-311,168	5,262	-0,024	0,013
-310,153	119,346	-0,134	0,118
-309,139	50,126	0,112	0,076
-308,124	-200,000	-0,017	0,102
-307,110	36,210	-0,017	-0,011
-306,095	333,630	0,078	-0,108
-305,080	130,023	0,180	0,165
-304,066	800,000	-0,055	0,116
-303,051	-200,000	-0,008	0,131
-302,037	-200,000	0,015	0,071
-301,022	-200,000	0,011	-0,138
-300,008	74,830	0,026	0,019
-298,993	152,027	-0,106	0,103
-297,978	-58,501	0,056	0,017
-296,964	495,983	-0,076	-0,125
-295,949	-2,869	0,104	-0,052
-294,935	-35,646	-0,019	-0,008
-293,920	264,422	-0,050	0,062
-292,905	-129,806	0,079	-0,008
-291,891	800,000	0,069	0,140
-290,876	222,881	-0,098	0,113
-289,862	433,977	-0,027	-0,041
-288,847	-200,000	0,007	-0,126
-287,832	-200,000	-0,018	-0,201
-286,818	575,349	0,027	-0,048
-285,803	-200,000	0,010	0,137
-284,789	528,582	0,027	0,045
-283,774	162,925	-0,051	0,051
-282,759	-200,000	0,005	-0,112
-281,745	459,627	0,040	-0,064
-280,730	73,506	-0,051	0,038
-279,716	-38,898	-0,087	0,032
-278,701	-84,128	0,136	0,031
-277,686	-158,789	0,044	0,002
-276,672	800,000	0,023	0,065
-275,657	-200,000	0,026	0,113
-274,643	14,080	-0,057	0,032
-273,628	25,254	0,139	-0,082
-272,613	77,609	-0,121	-0,092
-271,599	313,714	0,097	-0,131
-270,584	128,583	0,053	-0,048
-269,570	215,330	-0,049	-0,055
-268,555	0,684	0,142	0,072
-267,540	-200,000	-0,001	-0,134
-266,526	54,338	-0,036	-0,025
-265,511	-121,358	-0,057	-0,007
-264,497	470,634	-0,033	0,052
-263,482	-109,306	0,092	0,014
-262,467	-200,000	0,001	0,108
-261,453	800,000	0,061	0,150
-260,438	446,626	-0,078	-0,123
-259,424	-64,685	0,088	-0,025
-258,409	-81,203	-0,035	-0,008
-257,395	800,000	0,038	-0,081
-256,380	-200,000	-0,005	-0,062
-255,365	800,000	-0,035	0,099
-254,351	-200,000	0,028	-0,204
-253,336	473,019	0,043	-0,070
-252,322	-166,435	0,046	0,001
-251,307	800,000	-0,051	-0,115
-250,292	-51,630	0,058	-0,019
-249,278	139,784	0,074	-0,070
-248,263	-56,288	0,102	0,032
-247,249	186,690	0,093	0,099
-246,234	227,304	-0,042	0,048
-245,219	144,909	-0,102	-0,097
-244,205	143,036	-0,097	0,092
-243,190	157,778	0,047	0,047
-242,176	-200,000	0,007	0,157
-241,161	-77,276	0,053	-0,013
-240,146	-34,430	0,147	-0,057
-239,132	-0,541	-0,065	0,033
-238,117	12,576	-0,050	0,028
-237,103	-200,000	-0,010	-0,033
-236,088	181,350	0,074	-0,077
-235,073	800,000	-0,020	0,045
-234,059	-200,000	0,036	0,173
-233,044	-200,000	-0,023	-0,150
-232,030	-1,735	0,038	0,019
-231,015	-54,241	-0,129	-0,041
-230,000	-200,000	0,032	-0,193
-228,986	800,000	-0,048	0,101
-227,971	-200,000	-0,004	0,038
-226,957	-200,000	-0,011	0,070
-225,942	105,780	0,098	0,083
-224,927	389,912	-0,042	0,062
-223,913	65,822	-0,024	0,017
-222,898	-200,000	0,004	-0,030
-221,884	-70,407	-0,133	-0,036
-220,869	317,667	0,119	0,162
-219,855	-200,000	-0,020	0,193
-218,840	800,000	0,058	0,124
-217,825	-13,732	0,059	0,027
-216,811	584,518	0,018	0,032
-215,796	-200,000	-0,003	0,018
-214,782	-200,000	-0,005	-0,095
-213,767	-39,197	0,034	0,013
-212,752	-89,392	0,088	0,018
-211,738	-47,093	-0,029	0,010
-210,723	-98,096	0,065	-0,012
-209,709	-82,486	-0,053	-0,012
-208,694	183,333	-0,072	-0,076
-207,679	296,295	-0,029	0,038
-206,665	-200,000	-0,001	-0,019
-205,650	-38,688	-0,173	0,065
-204,636	-200,000	0,008	0,059
-203,621	9,944	0,061	0,033
-202,606	-144,909	-0,144	-0,009
-201,592	-110,405	-0,198	0,029
-200,577	-88,739	0,121	-0,025
-199,563	90,777	-0,022	-0,018
-198,548	-1,759	-0,079	0,040
-197,533	-200,000	-0,010	0,079
-196,519	-200,000	-0,026	0,114
-195,504	92,011	-0,068	-0,054
-194,490	16,413	-0,034	0,019
-193,475	-130,228	0,133	-0,013
-192,460	373,397	-0,058	-0,085
-191,446	-200,000	0,004	-0,020
-190,431	800,000	0,010	0,021
-189,417	315,012	0,103	-0,139
-188,402	147,655	-0,096	-0,093
-187,387	8,093	-0,099	0,053
-186,373	-57,284	0,131	-0,041
-185,358	366,731	0,035	-0,050
-184,344	800,000	0,049	0,097
-183,329	-137,626	-0,024	-0,002
-182,315	800,000	0,056	0,122
-181,300	800,000	-0,033	-0,067
-180,285	-65,536	-0,137	-0,039
-179,271	-83,570	-0,025	0,006
-178,256	167,369	-0,074	0,075
-177,242	133,558	0,085	0,078
-176,227	755,862	0,046	0,089
-175,212	-200,000	0,012	-0,079
-174,198	215,013	-0,007	0,008
-173,183	78,896	-0,122	-0,093
-172,169	-200,000	0,014	0,107
-171,154	-107,394	-0,072	0,011
-170,139	-62,647	0,145	0,042
-169,125	-58,906	-0,124	0,038
-168,110	112,361	-0,103	0,088
-167,096	-44,770	-0,053	0,019
-166,081	-85,366	-0,046	-0,010
-165,066	321,663	-0,038	-0,051
-164,052	-24,201	-0,163	0,069
-163,037	800,000	0,044	0,138
-162,023	-200,000	0,068	0,242
-161,008	-200,000	0,008	0,053
-159,993	800,000	-0,012	-0,035
-158,979	-200,000	-0,001	-0,031
-157,964	359,184	-0,063	0,090
-156,950	800,000	0,047	0,114
-155,935	104,190	0,104	-0,087
-154,920	33,762	-0,043	-0,026
-153,906	389,925	-0,044	-0,065
-152,891	-26,246	0,032	0,013
-151,877	204,250	-0,069	-0,076
-150,862	-74,771	-0,067	0,017
-149,847	-80,869	0,061	-0,014
-148,833	771,515	0,059	-0,115
-147,818	-200,000	-0,025	0,095
-146,804	-200,000	-0,015	0,102
-145,789	137,761	-0,074	0,069
-144,775	40,023	-0,077	0,049
-143,760	800,000	0,026	0,071
-142,745	-200,000	-0,010	0,075
-141,731	-79,800	-0,114	0,027
-140,716	105,189	-0,045	-0,038
-139,702	-65,418	-0,051	0,014
-138,687	750,280	-0,009	-0,017
-137,672	-114,962	-0,082	-0,011
-136,658	158,155	-0,060	0,059
-135,643	-200,000	0,033	-0,129
-134,629	800,000	-0,027	0,066
-133,614	148,649	-0,027	-0,026
-132,599	645,670	0,061	-0,111
-131,585	535,953	0,002	-0,004
-130,570	-200,000	-0,003	0,081
-129,556	21,617	-0,067	0,039
-128,541	50,300	-0,045	-0,030
-127,526	800,000	-0,031	0,082
-126,512	124,866	-0,038	0,034
-125,497	578,702	0,064	0,112
-124,483	-200,000	-0,013	0,099
-123,468	31,800	-0,061	-0,037
-122,453	-200,000	0,005	-0,023
-121,439	-200,000	0,007	-0,046
-120,424	505,022	-0,031	0,052
-119,410	-105,217	0,012	-0,002
-118,395	68,558	0,012	-0,008
-117,380	800,000	0,069	0,137
-116,366	800,000	-0,011	0,033
-115,351	-168,871	-0,139	-0,004
-114,337	174,566	0,101	0,104
-113,322	-16,380	0,045	-0,020
-112,307	800,000	-0,041	0,104
-111,293	-159,324	-0,026	-0,001
-110,278	-200,000	0,020	0,064
-109,264	718,068	0,030	0,056
-108,249	122,482	-0,119	-0,106
-107,234	-106,759	-0,085	-0,013
-106,220	107,346	0,133	-0,112
-105,205	-111,402	0,087	-0,012
-104,191	-200,000	-0,009	-0,069
-103,176	-200,000	0,030	0,229
-102,162	-131,042	-0,055	-0,005
-101,147	-200,000	-0,008	-0,080
-100,132	-200,000	0,014	0,085
-99,118	-73,913	-0,088	0,023
-98,103	31,071	0,013	0,008
-97,089	0,544	0,036	-0,018
-96,074	0,124	-0,049	0,025
-95,059	134,326	-0,016	-0,015
-94,045	708,405	-0,027	0,051
-93,030	-200,000	-0,002	-0,078
-92,016	-200,000	-0,001	0,034
-91,001	162,748	-0,030	-0,029
-89,986	499,008	0,069	0,113
-88,972	-200,000	0,022	0,130
-87,957	25,848	0,105	-0,062
-86,943	-200,000	-0,007	0,141
-85,928	-200,000	0,149	0,000
-84,913	6,250	-0,032	-0,017
-83,899	800,000	-0,037	0,108
-82,884	-15,692	0,035	0,016
-81,870	108,706	-0,058	-0,049
-80,855	800,000	0,036	0,075
-79,840	-200,000	-0,005	0,121
-78,826	-147,506	-0,098	0,006
-77,811	124,489	-0,037	-0,033
-76,797	-9,997	-0,033	-0,015
-75,782	314,949	-0,072	0,097
-74,767	44,169	-0,014	0,009
-73,753	690,233	0,054	-0,100
-72,738	113,941	-0,100	-0,086
-71,724	-38,075	0,024	-0,009
-70,709	-45,875	0,119	0,042
-69,694	800,000	-0,040	-0,091
-68,680	181,185	-0,056	0,058
-67,665	-200,000	0,022	0,190
-66,651	-37,519	-0,187	0,070
-65,636	-106,219	-0,086	-0,013
-64,622	-200,000	0,005	0,019
-63,607	800,000	-0,043	-0,103
-62,592	800,000	0,060	0,130
-61,578	800,000	0,036	-0,093
-60,563	585,822	0,036	0,063
-59,549	-76,551	-0,140	0,035
-58,534	-50,178	-1,562	-0,520
-57,519	403,976	-1,370	-2,049
-56,505	-200,000	-0,621	-4,736
-55,490	146,841	0,910	0,867
-54,476	800,000	4,913	11,246
-53,461	-200,000	18,428	295,727
-52,446	800,000	730,500	2254,743
-51,432	559,642	1647,112	2827,061
-50,417	79,075	1668,009	1263,609
-49,403	22,480	1541,186	890,063
-48,388	16,435	1463,917	816,128
-47,373	17,802	1453,946	817,125
-46,359	17,080	1444,403	808,273
-45,344	14,687	1439,729	794,186
-44,330	14,598	1437,852	792,697
-43,315	14,589	1436,348	791,792
-42,300	14,630	1434,568	790,975
-41,286	14,691	1433,450	790,616
-40,271	14,618	1432,055	789,471
-39,257	14,588	1430,810	788,609
-38,242	14,677	1429,309	788,172
-37,227	14,676	1428,307	787,587
-36,213	14,646	1427,039	786,712
-35,198	14,650	1425,784	786,010
-34,184	14,690	1424,946	785,706
-33,169	14,591	1423,662	784,496
-32,154	14,684	1422,423	784,222
-31,140	14,652	1421,153	783,339
-30,125	14,706	1420,033	782,945
-29,111	14,706	1418,933	782,308
-28,096	14,608	1417,882	781,239
-27,082	14,593	1416,895	780,592
-26,067	14,614	1415,668	779,985
-25,052	14,601	1414,769	779,394
-24,038	14,524	1413,876	778,511
-23,023	14,573	1412,693	778,060
-22,009	14,513	1411,672	777,183
-20,994	14,578	1410,668	776,905
-19,979	14,545	1409,775	776,229
-18,965	14,513	1409,032	775,640
-17,950	14,521	1407,937	775,041
-16,936	14,501	1407,131	774,474
-15,921	14,468	1406,002	773,669
-14,906	14,479	1404,884	773,076
-13,892	14,515	1404,132	772,796
-12,877	14,512	1403,145	772,212
-11,863	14,501	1402,196	771,603
-10,848	14,437	1401,496	770,893
-9,833	14,461	1400,446	770,393
-8,819	14,390	1399,835	769,698
-7,804	14,440	1398,605	769,221
-6,790	14,412	1397,701	768,568
-5,775	14,379	1396,665	767,812
-4,760	14,416	1395,654	767,399
-3,746	14,372	1395,022	766,814
-2,731	14,421	1394,176	766,549
-1,717	14,337	1393,261	765,627
-0,702	14,331	1391,770	764,748
0,313	18,224	1309,864	737,748
1,327	34,525	706,549	435,718
2,342	53,420	124,384	84,248
3,356	2,508	16,673	8,514
4,371	6,552	3,254	1,706
5,386	-30,363	0,658	0,263
6,400	-200,000	-0,014	0,140
7,415	184,410	-0,089	-0,093
8,429	321,284	-0,207	-0,278
9,444	57,938	-0,358	-0,247
10,459	-43,756	-0,341	-0,121
11,473	19,394	-0,280	-0,159
12,488	91,463	-0,298	-0,236
13,502	67,177	-0,191	-0,137
14,517	44,695	-0,251	-0,163
15,531	137,535	-0,352	-0,326
16,546	18,178	-0,421	-0,236
17,561	-8,759	-0,508	-0,240
18,575	-25,537	-0,253	-0,105
19,590	95,676	-0,270	-0,218
20,604	104,895	-0,275	-0,229
21,619	17,710	-0,505	-0,283
22,634	-0,015	-0,366	-0,183
23,648	143,433	-0,374	-0,352
24,663	-0,466	-0,540	-0,270
25,677	55,171	-0,352	-0,240
26,692	-24,886	-0,451	-0,188
27,707	5,341	-0,273	-0,142
28,721	13,495	-0,411	-0,225
29,736	24,604	-0,395	-0,230
30,750	106,006	-0,410	-0,343
31,765	-3,444	-0,371	-0,182
32,780	54,213	-0,478	-0,324
33,794	1,244	-0,307	-0,155
34,809	-28,554	-0,337	-0,136
35,823	90,630	-0,296	-0,234
36,838	-10,592	-0,316	-0,147
37,853	219,980	-0,323	-0,366
38,867	55,507	-0,348	-0,237
39,882	93,670	-0,317	-0,253
40,896	152,762	-0,274	-0,265
41,911	35,961	-0,324	-0,201
42,926	79,861	-0,326	-0,247
43,940	288,236	-0,261	-0,334
44,955	89,928	-0,448	-0,352
45,969	32,169	-0,358	-0,217
46,984	58,801	-0,420	-0,291
47,999	-35,183	-0,322	-0,123
49,013	107,889	-0,291	-0,244
50,028	-22,347	-0,401	-0,171
51,042	149,362	-0,289	-0,276
52,057	31,884	-0,442	-0,267
53,071	113,384	-0,361	-0,309
54,086	208,893	-0,291	-0,321
55,101	49,460	-0,450	-0,298
56,115	48,733	-0,306	-0,202
57,130	-13,849	-0,511	-0,232
58,144	76,418	-0,362	-0,270
59,159	255,621	-0,303	-0,366
60,174	62,383	-0,335	-0,235
61,188	-15,164	-0,368	-0,165
62,203	41,483	-0,408	-0,259
63,217	201,426	-0,251	-0,273
64,232	19,088	-0,252	-0,142
65,247	72,156	-0,327	-0,239
66,261	64,411	-0,402	-0,284
67,276	-3,739	-0,365	-0,178
68,290	136,508	-0,407	-0,374
69,305	102,882	-0,328	-0,270
70,320	30,643	-0,186	-0,112
71,334	-14,742	-0,339	-0,152
72,349	103,401	-0,355	-0,293
73,363	194,347	-0,296	-0,316
74,378	-5,925	-0,334	-0,160
75,393	-11,186	-0,301	-0,139
76,407	62,328	-0,254	-0,178
77,422	73,297	-0,269	-0,198
78,436	-12,086	-0,297	-0,136
79,451	66,277	-0,315	-0,224
80,466	67,657	-0,329	-0,236
81,480	8,059	-0,284	-0,150
82,495	-11,934	-0,256	-0,118
83,509	-35,186	-0,372	-0,142
84,524	113,016	-0,294	-0,250
85,539	92,362	-0,308	-0,244
86,553	-26,684	-0,261	-0,107
87,568	5,350	-0,332	-0,171
88,582	-1,005	-0,302	-0,150
89,597	323,577	-0,184	-0,248
90,611	93,967	-0,227	-0,181
91,626	23,575	-0,263	-0,151
92,641	88,389	-0,280	-0,218
93,655	69,436	-0,284	-0,205
94,670	22,142	-0,210	-0,120
95,684	231,173	-0,302	-0,348
96,699	-0,197	-0,380	-0,189
97,714	61,286	-0,267	-0,186
98,728	206,502	-0,250	-0,274
99,743	-58,225	-0,270	-0,082
100,757	79,123	-0,168	-0,126
101,772	84,077	-0,249	-0,191
102,787	-14,643	-0,281	-0,126
103,801	99,927	-0,280	-0,228
104,816	204,492	-0,289	-0,314
105,830	140,020	-0,203	-0,187
106,845	686,671	-0,163	-0,300
107,860	134,284	-0,173	-0,158
108,874	132,320	-0,295	-0,267
109,889	179,244	-0,276	-0,284
110,903	158,691	-0,202	-0,196
111,918	-68,261	-0,319	-0,086
112,933	178,579	-0,203	-0,208
113,947	-17,932	-0,289	-0,127
114,962	95,692	-0,247	-0,197
115,976	140,335	-0,259	-0,240
116,991	15,012	-0,239	-0,131
118,006	54,902	-0,366	-0,247
119,020	84,464	-0,313	-0,240
120,035	21,835	-0,325	-0,185
121,049	8,308	-0,222	-0,117
122,064	40,935	-0,138	-0,087
123,079	249,947	-0,202	-0,240
124,093	95,015	-0,294	-0,235
125,108	150,240	-0,328	-0,312
126,122	189,008	-0,193	-0,202
127,137	-35,559	-0,204	-0,077
128,151	26,702	-0,294	-0,172
129,166	19,814	-0,258	-0,145
130,181	231,604	-0,112	-0,129
131,195	68,728	-0,295	-0,212
132,210	77,319	-0,291	-0,216
133,224	-43,493	-0,321	-0,113
134,239	199,593	-0,181	-0,194
135,254	172,057	-0,189	-0,190
136,268	185,556	-0,123	-0,127
137,283	-47,376	-0,397	-0,134
138,297	383,047	-0,185	-0,267
139,312	-8,432	-0,337	-0,158
140,327	-103,754	-0,233	-0,038
141,341	39,649	-0,250	-0,156
142,356	412,748	-0,178	-0,265
143,370	155,862	-0,192	-0,185
144,385	40,277	-0,246	-0,154
145,400	143,355	-0,237	-0,221
146,414	-14,401	-0,454	-0,203
147,429	13,844	-0,312	-0,169
148,443	-99,766	-0,255	-0,044
149,458	19,811	-0,248	-0,139
150,473	35,594	-0,249	-0,153
151,487	400,009	-0,118	-0,173
152,502	254,154	-0,234	-0,280
153,516	-10,390	-0,227	-0,105
154,531	145,863	-0,193	-0,180
155,546	-75,785	-0,231	-0,057
156,560	40,070	-0,159	-0,100
157,575	57,297	-0,191	-0,130
158,589	557,476	-0,192	-0,325
159,604	73,731	-0,261	-0,191
160,619	-23,048	-0,302	-0,127
161,633	165,423	-0,229	-0,226
162,648	-21,543	-0,291	-0,123
163,662	-81,139	-0,126	0,029
164,677	319,326	-0,213	-0,282
165,692	-33,193	-0,185	-0,071
166,706	39,135	-0,167	-0,104
167,721	29,766	-0,298	-0,177
168,735	231,092	-0,241	-0,276
169,750	60,902	-0,243	-0,168
170,764	131,192	-0,146	-0,131
171,779	526,693	-0,179	-0,294
172,794	50,369	-0,267	-0,176
173,808	257,842	-0,097	-0,116
174,823	74,395	-0,191	-0,140
175,837	181,960	-0,195	-0,200
176,852	421,384	-0,170	-0,254
177,867	-99,757	-0,348	-0,060
178,881	1,654	-0,220	-0,110
179,896	78,091	-0,251	-0,186
180,910	115,662	-0,221	-0,188
181,925	323,245	-0,201	-0,268
182,940	-145,727	-0,280	0,017
183,954	151,320	-0,234	-0,222
184,969	800,000	-0,127	-0,273
185,983	50,546	-0,297	-0,196
186,998	800,000	-0,105	-0,258
188,013	403,965	-0,135	-0,198
189,027	-76,510	-0,219	-0,053
190,042	-42,821	-0,308	-0,108
191,056	149,905	-0,227	-0,214
192,071	-200,000	-0,061	-0,319
193,086	501,088	-0,127	-0,205
194,100	23,804	-0,263	-0,150
195,115	203,285	-0,181	-0,195
196,129	-177,822	-0,221	0,004
197,144	-26,855	-0,271	-0,110
198,159	20,135	-0,225	-0,126
199,173	45,445	-0,181	-0,116
200,188	624,900	-0,126	-0,223
201,202	141,834	-0,311	-0,286
202,217	79,399	-0,218	-0,162
203,232	62,033	-0,203	-0,141
204,246	-49,431	-0,236	-0,078
205,261	109,735	-0,093	-0,078
206,275	-124,706	-0,335	-0,036
207,290	-110,637	-0,240	0,034
208,304	53,901	-0,193	-0,129
209,319	254,350	-0,180	-0,215
210,334	-77,513	-0,180	-0,043
211,348	263,111	-0,294	-0,355
212,363	168,408	-0,169	-0,168
213,377	201,001	-0,281	-0,301
214,392	-12,809	-0,148	-0,067
215,407	51,835	-0,104	-0,069
216,421	3,395	-0,170	-0,086
217,436	191,090	-0,164	-0,171
218,450	45,696	-0,285	-0,182
219,465	9,565	-0,290	-0,152
220,480	41,058	-0,168	-0,105
221,494	282,434	-0,098	-0,123
222,509	92,156	-0,140	-0,110
223,523	27,126	-0,082	-0,047
224,538	800,000	-0,054	-0,152
225,553	221,752	-0,194	-0,217
226,567	607,721	-0,162	-0,282
227,582	171,584	-0,163	-0,162
228,596	800,000	-0,115	-0,239
229,611	74,738	-0,112	-0,081
230,626	-130,585	-0,169	-0,016
231,640	-58,701	-0,210	-0,063
232,655	27,521	-0,173	-0,101
233,669	53,479	-0,239	-0,159
234,684	-200,000	0,022	-0,149
235,699	138,918	-0,153	-0,139
236,713	60,828	-0,104	0,071
237,728	650,202	-0,134	-0,238
238,742	-64,706	-0,189	-0,053
239,757	19,839	-0,326	-0,181
240,772	-80,373	-0,172	-0,039
241,786	-103,753	-0,215	-0,035
242,801	31,769	-0,194	-0,116
243,815	167,522	-0,075	-0,074
244,830	-83,746	-0,159	0,035
245,844	-126,655	-0,158	-0,016
246,859	-134,400	-0,226	-0,019
247,874	-57,694	-0,201	-0,061
248,888	35,497	-0,128	-0,078
249,903	-200,000	-0,069	-0,267
250,917	-88,999	-0,098	0,020
251,932	266,527	-0,109	-0,132
252,947	-82,853	-0,257	-0,057
253,961	-162,906	-0,263	-0,009
254,976	338,487	-0,156	-0,211
255,990	305,537	-0,174	-0,225
257,005	-47,413	-0,219	-0,073
258,020	53,844	-0,221	-0,146
259,034	-83,076	-0,227	-0,050
260,049	86,904	-0,212	-0,162
261,063	-127,102	-0,145	-0,015
262,078	400,243	-0,164	-0,238
263,093	417,563	-0,107	-0,158
264,107	51,179	-0,199	-0,130
265,122	800,000	-0,151	-0,298
266,136	0,011	-0,129	-0,064
267,151	21,256	-0,204	-0,114
268,166	-14,211	-0,181	-0,080
269,180	180,186	-0,158	-0,160
270,195	-4,573	-0,206	-0,098
271,209	25,268	-0,134	-0,077
272,224	624,344	-0,067	-0,117
273,239	133,416	-0,196	-0,175
274,253	165,558	-0,087	-0,085
275,268	113,973	-0,129	-0,108
276,282	-29,155	-0,154	-0,061
277,297	207,862	-0,184	-0,198
278,312	248,318	-0,079	-0,092
279,326	452,266	-0,117	-0,179
280,341	-158,334	-0,220	0,009
281,355	33,881	-0,129	-0,077
282,370	-125,851	-0,181	-0,019
283,384	543,224	-0,145	-0,239
284,399	176,880	-0,112	-0,113
285,414	-48,268	-0,255	-0,085
286,428	-13,230	-0,168	-0,075
287,443	41,706	-0,140	-0,087
288,457	-89,735	-0,095	0,019
289,472	-101,618	-0,267	-0,044
290,487	-11,732	-0,228	-0,103
291,501	1,336	-0,236	-0,117
292,516	212,043	-0,156	-0,169
293,530	98,192	-0,132	-0,105
294,545	-45,855	-0,118	-0,040
295,560	-157,956	-0,145	-0,006
296,574	-90,403	-0,126	-0,025
297,589	132,388	-0,162	-0,144
298,603	136,247	-0,117	-0,105
299,618	107,403	-0,178	-0,146
300,633	137,956	-0,190	-0,172
301,647	-171,370	-0,055	0,001
302,662	-148,972	-0,060	-0,003
303,676	-16,800	-0,178	-0,077
304,691	49,878	-0,033	-0,021
305,706	14,156	-0,193	-0,103
306,720	78,365	-0,179	-0,132
307,735	84,872	-0,284	-0,214
308,749	78,731	-0,011	0,008
309,764	-13,781	-0,139	0,062
310,779	-173,158	-0,081	0,002
311,793	-200,000	-0,004	-0,076
312,808	-72,381	-0,309	-0,078
313,822	-129,904	-0,238	-0,022
314,837	691,561	-0,092	-0,166
315,852	-96,851	-0,158	-0,028
316,866	3,999	-0,170	-0,085
317,881	-73,106	-0,108	-0,027
318,895	298,451	-0,108	-0,137
319,910	58,539	-0,158	-0,107
320,925	553,742	-0,084	-0,139
321,939	197,267	-0,180	-0,189
322,954	-121,051	-0,138	-0,016
323,968	-5,407	-0,172	-0,081
324,983	-20,845	-0,220	-0,093
325,997	800,000	-0,009	-0,024
327,012	5,256	-0,296	-0,150
328,027	195,252	-0,083	-0,087
329,041	390,907	-0,105	-0,151
330,056	743,693	-0,117	-0,218
331,070	-200,000	-0,079	-0,291
332,085	-163,447	-0,113	-0,004
333,100	508,142	-0,113	-0,180
334,114	-200,000	-0,025	-0,217
335,129	177,756	-0,157	-0,157
336,143	233,052	-0,028	-0,032
337,158	-63,970	-0,152	-0,042
338,173	108,874	-0,112	-0,092
339,187	-200,000	-0,000	-0,006
340,202	521,146	-0,071	0,115
341,216	23,915	-0,215	-0,121
342,231	285,137	-0,206	-0,255
343,246	317,225	-0,079	-0,103
344,260	-122,933	-0,056	0,006
345,275	-7,349	-0,140	-0,065
346,289	80,475	-0,182	0,134
347,304	-101,513	-0,147	-0,024
348,319	-180,840	-0,116	-0,002
349,333	2,318	-0,316	-0,156
350,348	211,599	-0,154	-0,166
351,362	-162,607	-0,207	0,007
352,377	-200,000	-0,036	-0,120
353,392	-180,581	-0,098	0,001
354,406	-179,704	-0,175	0,003
355,421	209,084	1316,731	1416,105
356,435	160,900	1477,724	1416,600
