DTS Sentinel unit serial number:	SN410029Multiplexer serial number:	ORYXHardware model number:	OX2-SRSoftware version number:	ORYX F/W v4,00 Oryx Data Collector v3.7.2.0data status	okinstallation	B3 Nyhavnadifferential loss correction	single-endedforward channel	channel 1reverse channel	N/Adate	2023/11/28time	21:37:30forward acquisition time	300,00reverse acquisition time	0,00gamma	499,1914k internal	0,3212k external	0,3212temperature offset calibration	1,0000default loss term (dB/km)	0,3820temperature slope calibration	1,0000multiplexer offset coefficient	1,0000multiplexer slope coefficient	1,0000fibre end	0,00T internal ref (°C)	8,37T ext. ref 1 (°C)	-6,17T ext. ref 2 (°C)	-6,31length (m)	temperature (°C)	Stokes	anti-Stokes-744,400	-200,000	0,023	-0,361
-743,385	439,163	-0,112	0,178
-742,371	146,792	-0,139	-0,135
-741,356	-200,000	0,008	0,297
-740,342	514,427	-0,173	-0,294
-739,327	-200,000	0,042	0,154
-738,312	82,924	-0,181	-0,142
-737,298	278,428	-0,084	0,109
-736,283	192,719	-0,182	-0,200
-735,269	-200,000	0,084	0,341
-734,254	527,356	-0,129	-0,221
-733,239	90,824	-0,130	0,105
-732,225	296,968	-0,076	-0,101
-731,210	-200,000	-0,025	0,168
-730,196	-139,395	-0,076	0,006
-729,181	800,000	0,037	-0,080
-728,167	6,149	-0,065	0,035
-727,152	51,870	-0,092	0,064
-726,137	800,000	-0,028	0,082
-725,123	171,228	-0,030	-0,031
-724,108	635,670	-0,064	-0,119
-723,094	37,236	-0,107	-0,069
-722,079	174,219	0,084	-0,088
-721,064	0,794	-0,075	0,039
-720,050	-11,917	-0,068	0,032
-719,035	-159,859	-0,093	0,004
-718,021	290,013	0,021	-0,028
-717,006	-200,000	-0,027	-0,112
-715,991	-119,656	-0,037	0,005
-714,977	271,679	-0,038	0,048
-713,962	15,344	-0,121	0,068
-712,948	1,973	-0,029	-0,015
-711,933	-200,000	0,015	0,147
-710,918	800,000	-0,066	0,151
-709,904	-200,000	0,001	-0,119
-708,889	-200,000	0,003	-0,076
-707,875	-200,000	-0,006	0,050
-706,860	351,908	0,019	0,028
-705,845	-27,674	-0,027	-0,011
-704,831	12,293	-0,126	0,070
-703,816	20,236	0,063	-0,036
-702,802	297,639	-0,128	-0,171
-701,787	-56,024	-0,096	0,031
-700,772	-17,106	-0,081	0,037
-699,758	-155,421	-0,068	-0,003
-698,743	-200,000	0,075	0,246
-697,729	800,000	-0,063	0,144
-696,714	-8,227	0,082	0,040
-695,699	-17,520	-0,082	-0,037
-694,685	-153,982	-0,118	0,006
-693,670	800,000	0,063	-0,130
-692,656	-200,000	0,008	-0,072
-691,641	-200,000	-0,014	0,093
-690,627	-17,040	-0,022	0,010
-689,612	-200,000	0,003	0,106
-688,597	-2,738	-0,083	0,042
-687,583	-162,194	-0,092	0,003
-686,568	-200,000	-0,037	-0,139
-685,554	153,487	0,094	-0,093
-684,539	-200,000	-0,008	-0,027
-683,524	367,502	-0,075	0,109
-682,510	248,250	0,011	0,014
-681,495	-8,888	0,022	-0,010
-680,481	-144,865	-0,138	-0,009
-679,466	0,657	-0,117	0,060
-678,451	-105,355	-0,124	-0,020
-677,437	-200,000	-0,012	0,042
-676,422	10,564	0,080	-0,044
-675,408	203,998	0,064	0,071
-674,393	-200,000	0,015	0,057
-673,378	800,000	0,019	0,051
-672,364	367,116	-0,003	-0,004
-671,349	-87,238	-0,104	-0,023
-670,335	-200,000	0,004	-0,037
-669,320	198,876	0,047	-0,052
-668,305	517,005	-0,039	0,067
-667,291	-200,000	0,006	-0,054
-666,276	-200,000	-0,043	-0,200
-665,262	-200,000	-0,010	0,038
-664,247	22,361	-0,056	-0,033
-663,232	800,000	-0,049	-0,125
-662,218	33,708	0,057	0,036
-661,203	9,911	-0,079	-0,043
-660,189	-200,000	0,025	-0,083
-659,174	-118,746	0,094	-0,012
-658,159	-23,007	-0,106	-0,046
-657,145	-158,964	-0,147	-0,006
-656,130	350,007	-0,043	-0,062
-655,116	-106,085	0,118	0,019
-654,101	-34,264	0,006	-0,002
-653,086	51,412	-0,036	-0,025
-652,072	214,666	0,042	-0,049
-651,057	-200,000	0,021	-0,181
-650,043	800,000	0,020	0,048
-649,028	287,338	-0,063	-0,082
-648,014	-200,000	-0,005	-0,034
-646,999	424,131	0,051	0,079
-645,984	-13,910	-0,138	0,064
-644,970	800,000	-0,022	-0,068
-643,955	330,193	-0,061	-0,085
-642,941	7,526	-0,082	-0,044
-641,926	175,680	0,066	-0,069
-640,911	-0,954	0,024	-0,012
-639,897	597,269	-0,023	-0,041
-638,882	334,262	0,059	0,083
-637,868	76,538	-0,027	-0,021
-636,853	800,000	-0,040	0,116
-635,838	-200,000	0,019	0,116
-634,824	800,000	0,008	-0,017
-633,809	-87,728	0,079	0,017
-632,795	-36,353	0,018	0,007
-631,780	-86,327	0,126	0,028
-630,765	128,572	-0,025	-0,023
-629,751	-149,629	0,077	0,004
-628,736	13,295	-0,022	-0,012
-627,722	796,995	-0,032	0,064
-626,707	-139,483	0,028	-0,002
-625,692	-77,265	0,090	0,022
-624,678	35,334	0,057	-0,036
-623,663	800,000	0,005	0,012
-622,649	-200,000	-0,008	0,028
-621,634	223,325	-0,114	-0,133
-620,619	207,147	-0,076	0,085
-619,605	62,754	0,123	0,088
-618,590	-88,545	0,098	-0,021
-617,576	-200,000	-0,037	0,149
-616,561	-73,480	-0,162	-0,042
-615,546	800,000	-0,075	-0,194
-614,532	-72,751	0,019	0,005
-613,517	6,335	0,080	-0,042
-612,503	-137,332	-0,136	-0,011
-611,488	-200,000	0,017	-0,064
-610,474	-1,459	-0,113	-0,057
-609,459	-200,000	-0,003	0,036
-608,444	800,000	-0,045	0,139
-607,430	-78,979	-0,153	0,037
-606,415	235,009	-0,038	0,045
-605,401	-73,041	-0,085	-0,022
-604,386	-17,564	0,040	-0,018
-603,371	-104,483	0,069	0,011
-602,357	315,259	0,054	-0,074
-601,342	-166,948	-0,085	0,002
-600,328	-109,456	0,031	0,005
-599,313	-200,000	-0,034	-0,124
-598,298	207,856	0,022	-0,025
-597,284	-141,154	0,085	0,006
-596,269	-179,446	0,111	-0,002
-595,255	800,000	0,011	0,025
-594,240	800,000	-0,011	0,030
-593,225	-200,000	0,011	-0,108
-592,211	-200,000	-0,000	-0,063
-591,196	-37,840	0,082	0,031
-590,182	119,955	-0,054	0,048
-589,167	-125,158	0,176	0,019
-588,152	-76,356	0,046	-0,012
-587,138	-150,540	0,075	0,004
-586,123	-48,355	-0,139	0,048
-585,109	245,512	0,042	-0,052
-584,094	-200,000	-0,003	-0,079
-583,079	-127,118	0,153	0,016
-582,065	-144,300	-0,065	-0,004
-581,050	409,358	0,041	-0,062
-580,036	-200,000	-0,011	-0,044
-579,021	-200,000	0,025	-0,132
-578,006	-72,212	-0,058	-0,015
-576,992	-200,000	0,024	0,082
-575,977	-200,000	0,005	-0,115
-574,963	-53,405	0,110	0,036
-573,948	-200,000	0,015	-0,082
-572,934	-200,000	-0,021	0,131
-571,919	-12,875	-0,156	0,073
-570,904	135,408	-0,063	-0,059
-569,890	87,899	0,129	-0,103
-568,875	196,937	-0,012	-0,013
-567,861	22,640	0,065	0,038
-566,846	-200,000	0,031	0,134
-565,831	-33,952	-0,079	-0,031
-564,817	592,868	-0,020	-0,035
-563,802	-77,034	-0,211	-0,052
-562,788	-200,000	-0,005	-0,118
-561,773	800,000	0,007	0,015
-560,758	207,246	0,026	-0,029
-559,744	-200,000	-0,009	0,045
-558,729	-60,444	-0,046	0,014
-557,715	-200,000	-0,034	0,119
-556,700	-200,000	0,027	-0,088
-555,685	193,490	-0,054	0,059
-554,671	-170,599	0,114	0,003
-553,656	41,085	-0,045	0,029
-552,642	327,112	-0,063	-0,087
-551,627	-200,000	-0,018	-0,071
-550,612	-121,297	-0,077	-0,009
-549,598	-59,088	-0,163	0,050
-548,583	800,000	0,041	-0,098
-547,569	146,953	-0,179	-0,173
-546,554	195,459	0,082	0,090
-545,539	-65,762	0,085	-0,024
-544,525	223,346	-0,077	-0,089
-543,510	-200,000	-0,017	-0,059
-542,496	-3,017	0,119	-0,060
-541,481	-200,000	0,009	0,064
-540,466	-93,094	-0,111	-0,022
-539,452	800,000	0,066	-0,165
-538,437	99,189	-0,153	0,127
-537,423	346,984	0,045	0,064
-536,408	800,000	-0,027	-0,059
-535,393	800,000	0,062	0,173
-534,379	428,861	-0,046	0,072
-533,364	-88,251	0,033	0,007
-532,350	-125,505	0,111	0,012
-531,335	-85,662	0,135	0,030
-530,321	84,219	0,074	-0,058
-529,306	66,479	0,085	-0,062
-528,291	-2,821	-0,187	-0,094
-527,277	-200,000	0,005	-0,056
-526,262	232,261	-0,096	-0,113
-525,248	79,885	0,019	-0,015
-524,233	-65,587	-0,011	-0,003
-523,218	307,310	-0,032	0,043
-522,204	51,546	-0,099	0,067
-521,189	-161,229	-0,017	-0,001
-520,175	392,035	-0,023	-0,035
-519,160	-200,000	0,011	0,044
-518,145	800,000	0,027	0,072
-517,131	-200,000	-0,015	-0,068
-516,116	1,265	0,092	-0,048
-515,102	-149,647	0,111	0,006
-514,087	-35,719	-0,077	0,030
-513,072	-133,091	-0,102	0,009
-512,058	624,106	-0,080	-0,145
-511,043	437,575	-0,013	0,021
-510,029	800,000	0,027	-0,074
-509,014	-200,000	-0,026	-0,131
-507,999	-40,983	0,077	0,029
-506,985	-200,000	-0,010	0,146
-505,970	-62,584	-0,085	-0,025
-504,956	714,269	0,055	-0,105
-503,941	381,180	0,028	0,041
-502,926	-200,000	0,023	-0,092
-501,912	280,795	0,032	0,041
-500,897	-126,838	-0,097	-0,010
-499,883	-105,128	0,040	-0,007
-498,868	-200,000	-0,019	-0,105
-497,853	800,000	0,027	-0,078
-496,839	58,961	-0,035	-0,025
-495,824	800,000	-0,013	0,025
-494,810	-200,000	0,004	0,157
-493,795	800,000	0,041	-0,095
-492,781	211,763	0,023	0,026
-491,766	800,000	0,025	-0,067
-490,751	265,906	0,083	-0,104
-489,737	113,745	0,055	-0,048
-488,722	-200,000	0,019	-0,076
-487,708	129,239	-0,017	0,016
-486,693	745,587	0,059	0,115
-485,678	201,664	0,021	0,023
-484,664	206,868	0,071	-0,080
-483,649	-200,000	-0,010	0,043
-482,635	800,000	0,018	0,050
-481,620	-30,764	0,082	0,033
-480,605	-200,000	-0,014	0,047
-479,591	-79,769	-0,087	-0,021
-478,576	56,403	0,034	0,023
-477,562	800,000	0,022	0,059
-476,547	148,910	-0,053	-0,051
-475,532	-200,000	0,041	-0,141
-474,518	176,653	0,028	0,029
-473,503	41,219	0,094	-0,061
-472,489	779,878	-0,046	0,092
-471,474	84,878	-0,211	0,166
-470,459	366,042	0,117	-0,170
-469,445	308,194	-0,051	0,069
-468,430	620,282	0,042	-0,076
-467,416	-29,836	-0,105	0,043
-466,401	-146,890	0,139	0,008
-465,386	-164,888	-0,178	0,006
-464,372	-200,000	-0,005	-0,026
-463,357	404,163	-0,011	0,017
-462,343	-200,000	-0,009	-0,194
-461,328	157,357	-0,013	-0,013
-460,313	-98,228	0,010	-0,002
-459,299	410,021	0,065	0,099
-458,284	-200,000	0,031	-0,132
-457,270	26,971	-0,013	-0,008
-456,255	-124,849	-0,061	0,007
-455,241	-200,000	0,026	-0,139
-454,226	-117,572	-0,165	-0,021
-453,211	-109,317	0,059	0,009
-452,197	-200,000	0,022	0,083
-451,182	-90,357	0,029	-0,006
-450,168	-57,557	-0,039	0,012
-449,153	-66,473	0,093	0,026
-448,138	-200,000	-0,009	-0,064
-447,124	543,827	0,041	-0,070
-446,109	-59,629	-0,160	-0,049
-445,095	185,377	0,051	0,055
-444,080	-117,448	0,054	-0,007
-443,065	86,217	-0,049	-0,039
-442,051	-162,368	-0,154	-0,005
-441,036	-200,000	0,046	-0,148
-440,022	66,718	-0,038	-0,028
-439,007	7,128	-0,072	0,038
-437,992	39,737	0,127	0,081
-436,978	-42,326	-0,087	0,032
-435,963	800,000	0,040	0,127
-434,949	133,779	-0,093	-0,087
-433,934	-100,738	-0,005	0,001
-432,919	-129,770	-0,050	0,005
-431,905	69,841	0,017	0,013
-430,890	-50,187	0,059	-0,020
-429,876	-118,790	-0,079	0,010
-428,861	63,866	0,132	0,095
-427,846	800,000	0,036	-0,109
-426,832	-85,364	-0,218	0,048
-425,817	434,158	-0,028	-0,043
-424,803	800,000	0,055	-0,113
-423,788	792,796	0,032	0,064
-422,773	115,560	-0,043	0,037
-421,759	-200,000	-0,004	-0,103
-420,744	656,416	0,028	0,051
-419,730	-200,000	0,024	0,000
-418,715	800,000	-0,011	0,031
-417,701	-48,885	-0,115	0,039
-416,686	-76,312	0,178	-0,045
-415,671	-200,000	0,016	-0,089
-414,657	-200,000	-0,006	0,052
-413,642	375,333	-0,059	0,087
-412,628	228,669	-0,061	0,072
-411,613	-200,000	-0,006	-0,092
-410,598	-200,000	0,007	0,041
-409,584	89,310	-0,046	0,037
-408,569	-117,955	0,009	0,001
-407,555	-200,000	-0,004	0,029
-406,540	670,671	-0,037	0,069
-405,525	395,946	0,057	-0,085
-404,511	-200,000	-0,011	0,096
-403,496	-4,008	0,033	0,016
-402,482	32,651	-0,097	0,060
-401,467	-62,543	0,049	0,015
-400,452	800,000	-0,039	0,096
-399,438	800,000	-0,016	0,037
-398,423	97,755	0,017	0,014
-397,409	492,481	-0,062	-0,102
-396,394	-145,481	0,194	0,012
-395,379	800,000	0,047	-0,098
-394,365	102,940	0,165	0,138
-393,350	-200,000	0,019	0,081
-392,336	-200,000	0,001	0,026
-391,321	-34,507	-0,185	-0,072
-390,306	125,321	0,011	-0,010
-389,292	-96,554	-0,143	0,027
-388,277	800,000	-0,019	0,050
-387,263	800,000	-0,013	0,027
-386,248	-200,000	-0,025	0,129
-385,233	-114,339	0,051	0,007
-384,219	351,431	-0,107	-0,152
-383,204	-181,931	0,170	-0,002
-382,190	538,365	0,043	0,074
-381,175	-166,445	0,070	0,002
-380,160	-181,277	0,065	-0,001
-379,146	66,623	0,108	0,078
-378,131	-5,013	0,169	0,083
-377,117	46,837	0,059	0,039
-376,102	-114,655	0,057	-0,008
-375,088	800,000	-0,025	-0,055
-374,073	-73,017	0,034	-0,009
-373,058	215,365	0,146	0,165
-372,044	375,568	-0,047	-0,069
-371,029	95,655	0,039	-0,032
-370,015	665,978	-0,021	-0,040
-369,000	-200,000	-0,033	-0,147
-367,985	-200,000	-0,022	-0,143
-366,971	315,432	0,053	0,072
-365,956	190,316	0,044	0,047
-364,942	-200,000	0,052	0,172
-363,927	-7,452	0,034	0,016
-362,912	30,907	-0,108	0,066
-361,898	463,606	0,060	-0,096
-360,883	322,839	-0,110	-0,150
-359,869	-200,000	-0,008	-0,096
-358,854	-79,023	0,161	-0,039
-357,839	197,322	0,081	0,088
-356,825	800,000	0,011	0,033
-355,810	153,304	0,044	0,043
-354,796	732,689	-0,029	0,055
-353,781	140,592	-0,078	-0,073
-352,766	-171,860	-0,071	0,002
-351,752	-36,999	-0,167	-0,064
-350,737	-200,000	-0,001	0,046
-349,723	800,000	0,059	0,128
-348,708	460,497	0,028	0,045
-347,693	800,000	-0,010	0,027
-346,679	168,607	0,037	-0,038
-345,664	-77,722	0,112	-0,027
-344,650	-30,015	0,139	0,056
-343,635	86,815	-0,045	-0,035
-342,620	800,000	-0,037	0,078
-341,606	77,354	-0,064	-0,048
-340,591	309,200	0,045	0,060
-339,577	-3,676	-0,125	-0,062
-338,562	100,046	-0,054	-0,045
-337,548	81,547	0,033	0,025
-336,533	-200,000	0,036	0,183
-335,518	406,900	0,083	0,125
-334,504	-200,000	0,006	0,176
-333,489	-200,000	-0,007	0,059
-332,475	-36,106	-0,077	-0,029
-331,460	-200,000	0,078	0,000
-330,445	-200,000	0,037	-0,139
-329,431	266,442	0,041	0,051
-328,416	800,000	0,060	0,123
-327,402	-18,533	-0,043	-0,019
-326,387	-200,000	-0,005	-0,042
-325,372	-200,000	0,005	-0,017
-324,358	-80,633	-0,189	-0,044
-323,343	-74,726	-0,042	0,011
-322,329	205,919	0,011	0,012
-321,314	800,000	0,013	0,033
-320,299	-154,935	0,202	0,009
-319,285	316,496	-0,050	-0,068
-318,270	272,130	-0,025	-0,032
-317,256	-58,545	-0,101	-0,031
-316,241	-100,953	0,075	-0,013
-315,226	142,407	0,037	0,035
-314,212	-63,600	0,296	-0,086
-313,197	261,765	0,073	0,090
-312,183	-200,000	0,015	0,145
-311,168	601,675	0,068	-0,122
-310,153	-200,000	-0,005	-0,136
-309,139	619,331	0,076	-0,136
-308,124	18,064	-0,040	0,023
-307,110	-57,285	0,083	0,026
-306,095	103,064	-0,154	0,129
-305,080	-200,000	-0,007	0,186
-304,066	-200,000	0,053	0,175
-303,051	-56,630	-0,132	-0,042
-302,037	421,510	-0,070	-0,107
-301,022	-200,000	-0,007	0,171
-300,008	-154,364	0,032	-0,002
-298,993	5,975	-0,069	-0,037
-297,978	9,566	0,151	-0,081
-296,964	-200,000	0,014	-0,091
-295,949	452,300	-0,036	-0,056
-294,935	468,621	-0,063	0,101
-293,920	546,298	-0,067	-0,114
-292,905	-12,752	-0,070	0,032
-291,891	249,919	0,103	0,124
-290,876	-59,313	0,142	0,043
-289,862	58,529	-0,102	0,071
-288,847	-69,046	-0,112	0,030
-287,832	-200,000	-0,048	-0,169
-286,818	800,000	0,059	-0,144
-285,803	129,614	0,110	0,100
-284,789	185,091	-0,006	-0,006
-283,774	-200,000	-0,034	0,115
-282,759	-200,000	0,017	0,070
-281,745	78,939	-0,069	-0,052
-280,730	290,816	-0,026	-0,033
-279,716	58,843	0,117	-0,082
-278,701	-200,000	0,004	0,106
-277,686	488,281	0,117	0,190
-276,672	744,958	0,028	-0,054
-275,657	122,751	-0,064	0,057
-274,643	-158,034	-0,228	0,009
-273,628	-6,700	0,133	-0,064
-272,613	-200,000	0,011	-0,121
-271,599	-10,199	-0,039	0,018
-270,584	383,826	0,039	0,057
-269,570	218,265	-0,089	0,101
-268,555	160,158	-0,028	-0,027
-267,540	590,547	-0,052	-0,092
-266,526	-167,559	0,052	-0,001
-265,511	-200,000	0,016	-0,055
-264,497	-31,133	-0,030	-0,012
-263,482	-200,000	0,051	0,230
-262,467	-67,588	0,020	0,006
-261,453	98,476	-0,138	0,113
-260,438	-200,000	0,023	0,080
-259,424	39,932	-0,102	-0,065
-258,409	-200,000	0,040	-0,160
-257,395	-200,000	0,009	-0,034
-256,380	-200,000	-0,013	-0,088
-255,365	800,000	0,029	-0,058
-254,351	-83,247	-0,075	0,017
-253,336	298,939	0,025	0,032
-252,322	43,222	-0,157	-0,102
-251,307	-122,960	0,089	-0,010
-250,292	-200,000	-0,038	0,184
-249,278	15,812	-0,093	-0,052
-248,263	-200,000	-0,028	0,123
-247,249	800,000	0,047	0,102
-246,234	84,569	0,070	-0,055
-245,219	460,662	0,026	0,041
-244,205	800,000	0,038	-0,085
-243,190	-156,601	0,129	-0,006
-242,176	-3,741	-0,106	0,052
-241,161	-21,694	0,141	0,061
-240,146	-133,444	-0,074	-0,007
-239,132	531,721	0,059	-0,099
-238,117	58,427	-0,062	0,043
-237,103	537,255	-0,037	-0,062
-236,088	800,000	0,031	-0,071
-235,073	-125,605	0,039	0,004
-234,059	-27,284	-0,041	0,017
-233,044	-200,000	-0,028	0,137
-232,030	-123,108	-0,053	0,006
-231,015	800,000	-0,044	-0,099
-230,000	-31,255	0,057	-0,023
-228,986	-8,765	-0,044	-0,021
-227,971	372,315	0,099	0,144
-226,957	-200,000	-0,046	0,163
-225,942	-6,421	0,069	-0,034
-224,927	800,000	0,038	-0,104
-223,913	-200,000	-0,026	-0,104
-222,898	197,275	-0,126	-0,137
-221,884	292,592	0,025	-0,032
-220,869	89,816	0,088	0,070
-219,855	-200,000	-0,010	0,125
-218,840	-200,000	0,001	0,048
-217,825	313,377	0,078	-0,105
-216,811	-200,000	0,024	-0,075
-215,796	-79,750	-0,128	-0,030
-214,782	-8,679	0,106	0,050
-213,767	-200,000	0,004	0,131
-212,752	-200,000	-0,020	0,084
-211,738	-71,273	-0,090	0,024
-210,723	39,823	0,028	-0,018
-209,709	19,454	-0,052	-0,030
-208,694	800,000	0,030	-0,061
-207,679	-2,149	-0,060	-0,030
-206,665	-200,000	0,008	0,034
-205,650	-200,000	0,000	0,007
-204,636	632,667	-0,034	-0,061
-203,621	800,000	-0,031	0,081
-202,606	420,700	0,029	0,044
-201,592	-153,488	0,107	0,005
-200,577	21,357	-0,107	-0,062
-199,563	-0,717	-0,092	0,046
-198,548	-23,354	0,070	-0,030
-197,533	479,693	0,076	0,123
-196,519	800,000	-0,045	0,113
-195,504	-200,000	-0,013	0,081
-194,490	800,000	-0,072	-0,158
-193,475	-105,419	0,016	-0,003
-192,460	573,130	-0,042	-0,073
-191,446	38,310	0,052	0,033
-190,431	422,874	0,015	0,023
-189,417	-7,466	-0,024	0,012
-188,402	-44,327	-0,203	-0,072
-187,387	-200,000	-0,012	-0,039
-186,373	176,137	-0,104	0,108
-185,358	-120,982	-0,116	-0,014
-184,344	23,919	0,077	0,045
-183,329	-69,010	-0,012	-0,003
-182,315	-200,000	-0,001	0,040
-181,300	800,000	-0,018	0,039
-180,285	80,446	-0,069	-0,052
-179,271	130,370	0,085	-0,077
-178,256	444,669	0,045	0,070
-177,242	-12,040	-0,076	-0,035
-176,227	-200,000	0,021	0,207
-175,212	-139,956	0,150	0,011
-174,198	-200,000	-0,040	-0,140
-173,183	73,162	0,069	-0,051
-172,169	723,745	-0,079	-0,150
-171,154	3,121	-0,053	0,027
-170,139	-127,361	0,096	-0,010
-169,125	-200,000	0,007	-0,021
-168,110	-200,000	-0,023	0,168
-167,096	141,151	-0,174	0,163
-166,081	-200,000	-0,004	0,052
-165,066	-101,000	-0,057	-0,010
-164,052	800,000	0,022	-0,047
-163,037	753,886	0,017	0,033
-162,023	167,794	0,094	0,095
-161,008	-200,000	0,009	0,095
-159,993	147,834	0,060	-0,058
-158,979	-200,000	-0,010	-0,062
-157,964	-200,000	0,034	-0,126
-156,950	-200,000	-0,005	-0,126
-155,935	-200,000	-0,002	-0,011
-154,920	-31,810	0,112	-0,044
-153,906	-200,000	0,002	0,087
-152,891	-146,411	0,075	-0,005
-151,877	219,154	-0,056	-0,063
-150,862	-200,000	-0,002	0,024
-149,847	-200,000	0,007	-0,055
-148,833	-40,139	0,033	-0,012
-147,818	-56,402	0,097	-0,030
-146,804	800,000	0,039	0,089
-145,789	-200,000	0,029	0,138
-144,775	800,000	-0,019	0,060
-143,760	-200,000	-0,016	0,216
-142,745	-116,066	-0,046	-0,006
-141,731	-1,269	0,064	-0,032
-140,716	465,836	0,050	-0,080
-139,702	-200,000	0,017	0,115
-138,687	800,000	0,051	-0,107
-137,672	-200,000	0,058	0,000
-136,658	428,651	0,012	-0,019
-135,643	33,160	-0,069	0,042
-134,629	-200,000	0,000	-0,068
-133,614	7,090	-0,038	-0,020
-132,599	-200,000	-0,026	0,132
-131,585	304,827	0,026	0,035
-130,570	-200,000	-0,042	-0,143
-129,556	-48,190	-0,094	-0,032
-128,541	-55,725	0,019	-0,006
-127,526	212,261	0,091	0,101
-126,512	150,760	0,048	-0,046
-125,497	-31,726	0,110	-0,043
-124,483	133,731	0,064	0,059
-123,468	331,984	0,057	0,078
-122,453	146,955	-0,053	0,050
-121,439	102,921	-0,091	0,075
-120,424	84,597	-0,035	-0,027
-119,410	-119,265	-0,085	-0,010
-118,395	-113,448	0,085	0,012
-117,380	-200,000	-0,019	0,125
-116,366	-188,606	0,067	-0,001
-115,351	198,574	0,071	-0,077
-114,337	-108,181	-0,156	0,024
-113,322	800,000	-0,028	-0,082
-112,307	109,968	0,046	0,039
-111,293	406,864	-0,021	0,031
-110,278	559,760	-0,038	0,065
-109,264	290,460	-0,053	0,069
-108,249	73,570	0,094	0,070
-107,234	43,850	0,161	-0,104
-106,220	-132,050	0,005	-0,000
-105,205	744,092	0,020	-0,038
-104,191	-118,540	0,038	0,005
-103,176	-200,000	-0,003	0,168
-102,162	800,000	0,041	0,123
-101,147	-48,302	-0,081	-0,027
-100,132	161,200	0,098	0,097
-99,118	-139,883	-0,098	0,007
-98,103	800,000	-0,044	0,134
-97,089	35,647	0,045	0,028
-96,074	106,529	-0,003	-0,003
-95,059	-200,000	0,033	0,117
-94,045	32,883	-0,079	-0,048
-93,030	-200,000	-0,019	-0,095
-92,016	-8,396	-0,138	0,065
-91,001	676,465	-0,023	-0,042
-89,986	29,368	-0,048	-0,029
-88,972	362,470	0,090	0,129
-87,957	-200,000	0,028	-0,109
-86,943	31,252	0,040	-0,024
-85,928	-200,000	-0,010	0,036
-84,913	0,282	-0,099	-0,050
-83,899	-92,143	0,051	0,010
-82,884	-92,342	-0,075	-0,015
-81,870	-84,219	0,103	-0,023
-80,855	-41,716	-0,088	0,032
-79,840	-1,501	-0,055	0,027
-78,826	800,000	0,039	0,081
-77,811	706,454	0,007	0,013
-76,797	12,034	-0,075	-0,040
-75,782	-0,058	-0,063	-0,032
-74,767	-111,780	0,138	-0,020
-73,753	-120,539	-0,106	-0,013
-72,738	26,679	0,176	0,104
-71,724	22,540	-0,026	-0,015
-70,709	133,474	-0,076	-0,070
-69,694	443,329	0,036	-0,055
-68,680	-115,869	0,052	0,007
-67,665	800,000	-0,026	0,065
-66,651	-37,201	0,028	0,010
-65,636	-61,379	-0,136	-0,040
-64,622	800,000	-0,043	-0,093
-63,607	-200,000	-0,006	-0,032
-62,592	470,866	0,051	-0,081
-61,578	226,429	0,042	-0,048
-60,563	-100,855	0,164	-0,028
-59,549	231,368	-0,092	0,107
-58,534	54,919	-2,062	-1,403
-57,519	744,043	-0,991	-1,889
-56,505	-200,000	-0,323	-4,322
-55,490	781,593	0,887	1,721
-54,476	800,000	5,084	11,134
-53,461	-200,000	22,113	342,186
-52,446	800,000	756,683	2299,623
-51,432	536,029	1646,057	2766,638
-50,417	68,612	1643,924	1188,349
-49,403	16,074	1519,567	842,431
-48,388	10,230	1444,782	772,932
-47,373	19,190	1437,106	811,446
-46,359	13,697	1425,946	779,212
-45,344	8,547	1421,719	752,544
-44,330	8,452	1419,892	751,097
-43,315	8,409	1418,188	749,965
-42,300	8,452	1416,017	748,988
-41,286	8,493	1414,986	748,608
-40,271	8,453	1413,849	747,785
-39,257	8,464	1412,619	747,159
-38,242	8,439	1411,694	746,520
-37,227	8,446	1410,555	745,922
-36,213	8,492	1409,058	745,315
-35,198	8,483	1407,716	744,535
-34,184	8,500	1406,946	744,176
-33,169	8,370	1405,743	742,902
-32,154	8,446	1404,787	742,726
-31,140	8,451	1403,541	742,058
-30,125	8,463	1402,146	741,346
-29,111	8,499	1400,861	740,809
-28,096	8,481	1399,747	740,103
-27,082	8,398	1398,748	739,163
-26,067	8,373	1397,627	738,425
-25,052	8,379	1396,583	737,870
-24,038	8,387	1395,494	737,303
-23,023	8,393	1394,727	736,897
-22,009	8,342	1393,903	736,196
-20,994	8,403	1392,790	735,862
-19,979	8,390	1391,776	735,236
-18,965	8,364	1390,649	734,489
-17,950	8,362	1389,622	733,912
-16,936	8,341	1388,976	733,441
-15,921	8,339	1387,992	732,886
-14,906	8,341	1386,981	732,331
-13,892	8,423	1385,780	732,047
-12,877	8,290	1385,365	731,185
-11,863	8,309	1384,475	730,771
-10,848	8,318	1383,552	730,298
-9,833	8,253	1382,760	729,554
-8,819	8,253	1381,722	728,976
-7,804	8,236	1380,833	728,401
-6,790	8,231	1379,748	727,774
-5,775	8,237	1378,829	727,289
-4,760	8,259	1377,800	726,820
-3,746	8,244	1376,965	726,280
-2,731	8,264	1375,957	725,811
-1,717	8,205	1375,218	725,124
-0,702	8,175	1373,636	724,125
0,313	12,308	1285,072	696,115
1,327	28,140	678,210	402,707
2,342	43,687	116,525	75,043
3,356	-0,656	16,428	8,186
4,371	-0,781	3,753	1,868
5,386	-18,674	1,234	0,540
6,400	781,123	0,308	0,598
7,415	129,000	-0,219	-0,197
8,429	-139,912	-0,231	0,017
9,444	50,111	-0,382	-0,254
10,459	95,861	-0,254	-0,204
11,473	39,298	-0,238	-0,150
12,488	-61,558	-0,213	-0,063
13,502	-46,445	-0,395	-0,136
14,517	-28,474	-0,298	-0,120
15,531	181,451	-0,325	-0,337
16,546	314,306	-0,207	-0,275
17,561	-2,472	-0,385	-0,189
18,575	-32,965	-0,205	-0,080
19,590	40,722	-0,154	-0,098
20,604	-71,446	-0,261	0,068
21,619	81,572	-0,447	-0,340
22,634	92,804	-0,464	-0,368
23,648	2,424	-0,423	-0,215
24,663	76,170	-0,463	-0,345
25,677	52,006	-0,385	-0,258
26,692	797,744	-0,176	-0,343
27,707	-37,490	-0,372	-0,139
28,721	40,091	-0,409	-0,258
29,736	188,884	-0,307	-0,324
30,750	49,531	-0,348	-0,230
31,765	54,820	-0,363	-0,246
32,780	30,838	-0,407	-0,245
33,794	24,584	-0,396	-0,230
34,809	-2,057	-0,348	-0,171
35,823	239,813	-0,316	-0,370
36,838	49,155	-0,466	-0,307
37,853	144,403	-0,322	-0,303
38,867	161,390	-0,348	-0,342
39,882	186,479	-0,293	-0,307
40,896	-14,891	-0,306	-0,137
41,911	38,079	-0,369	-0,230
42,926	209,170	-0,282	-0,311
43,940	241,982	-0,278	-0,327
44,955	213,962	-0,360	-0,400
45,969	131,693	-0,380	-0,343
46,984	146,678	-0,328	-0,310
47,999	-9,195	-0,274	-0,128
49,013	142,791	-0,200	-0,187
50,028	157,243	-0,266	-0,258
51,042	71,117	-0,323	-0,235
52,057	-54,103	-0,367	-0,116
53,071	208,594	-0,315	-0,347
54,086	-0,889	-0,298	-0,148
55,101	9,000	-0,243	-0,128
56,115	167,585	-0,240	-0,240
57,130	88,559	-0,344	-0,268
58,144	137,782	-0,294	-0,270
59,159	89,395	-0,391	-0,306
60,174	74,325	-0,473	-0,348
61,188	111,965	-0,223	-0,189
62,203	5,481	-0,223	-0,115
63,217	16,540	-0,341	-0,188
64,232	3,541	-0,320	-0,163
65,247	34,236	-0,348	-0,212
66,261	15,201	-0,447	-0,245
67,276	-73,956	-0,345	-0,087
68,290	20,603	-0,252	-0,143
69,305	-5,683	-0,238	-0,114
70,320	86,540	-0,273	-0,211
71,334	-49,295	-0,294	-0,098
72,349	-55,682	-0,187	-0,058
73,363	-10,006	-0,363	-0,168
74,378	158,401	-0,253	-0,246
75,393	-81,663	-0,519	-0,118
76,407	312,839	-0,171	-0,226
77,422	8,493	-0,143	-0,075
78,436	58,805	-0,239	-0,164
79,451	99,094	-0,296	-0,240
80,466	59,947	-0,381	-0,263
81,480	-62,159	-0,264	-0,077
82,495	249,219	-0,272	-0,323
83,509	-49,793	-0,304	-0,101
84,524	-200,000	-0,077	-0,352
85,539	43,811	-0,219	-0,140
86,553	32,025	-0,276	-0,166
87,568	84,195	-0,392	-0,300
88,582	14,508	-0,255	-0,139
89,597	138,617	-0,250	-0,230
90,611	443,923	-0,150	-0,231
91,626	4,116	-0,382	-0,195
92,641	-91,159	-0,397	-0,079
93,655	74,189	-0,197	-0,144
94,670	312,307	-0,238	-0,313
95,684	27,794	-0,358	-0,210
96,699	146,651	-0,305	-0,286
97,714	165,009	-0,323	-0,319
98,728	53,413	-0,293	-0,196
99,743	-10,414	-0,324	-0,150
100,757	10,380	-0,378	-0,200
101,772	173,678	-0,277	-0,279
102,787	-10,444	-0,296	-0,137
103,801	800,000	-0,110	-0,245
104,816	209,757	-0,208	-0,229
105,830	10,323	-0,257	-0,136
106,845	-44,617	-0,213	-0,074
107,860	82,920	-0,196	-0,149
108,874	15,458	-0,312	-0,171
109,889	232,699	-0,270	-0,311
110,903	156,895	-0,253	-0,245
111,918	-4,819	-0,335	-0,161
112,933	-57,041	-0,154	-0,047
113,947	-101,593	-0,241	-0,040
114,962	19,681	-0,299	-0,168
115,976	-120,508	-0,345	-0,040
116,991	146,634	-0,251	-0,236
118,006	33,533	-0,294	-0,178
119,020	141,582	-0,225	-0,208
120,035	80,458	-0,303	-0,227
121,049	67,425	-0,198	-0,141
122,064	118,908	-0,221	-0,191
123,079	238,988	-0,231	-0,269
124,093	48,652	-0,291	-0,190
125,108	146,397	-0,210	-0,197
126,122	-167,091	-0,186	-0,005
127,137	27,695	-0,165	-0,097
128,151	-8,429	-0,192	-0,090
129,166	-59,253	-0,317	-0,095
130,181	37,135	-0,157	-0,097
131,195	-29,473	-0,214	-0,085
132,210	800,000	-0,166	-0,326
133,224	-63,889	-0,357	-0,101
134,239	174,127	-0,151	-0,152
135,254	111,198	-0,209	-0,176
136,268	186,460	-0,271	-0,281
137,283	455,644	-0,237	-0,367
138,297	800,000	-0,178	-0,351
139,312	246,231	-0,227	-0,267
140,327	-92,570	-0,276	-0,053
141,341	58,915	-0,332	-0,227
142,356	223,643	-0,154	-0,173
143,370	60,481	-0,146	-0,101
144,385	89,584	-0,305	-0,237
145,400	181,573	-0,300	-0,308
146,414	335,386	-0,166	-0,225
147,429	607,312	-0,127	-0,222
148,443	35,275	-0,085	-0,052
149,458	-61,711	-0,147	-0,043
150,473	624,196	-0,038	-0,067
151,487	460,230	-0,172	-0,267
152,502	146,887	-0,156	-0,146
153,516	-13,283	-0,295	-0,133
154,531	441,325	-0,258	-0,395
155,546	-16,757	-0,338	-0,148
156,560	-144,268	-0,259	-0,017
157,575	-38,862	-0,175	-0,064
158,589	134,089	-0,214	-0,193
159,604	-14,185	-0,186	-0,083
160,619	15,781	-0,270	-0,147
161,633	83,839	-0,310	-0,235
162,648	195,119	-0,145	-0,153
163,662	110,217	-0,225	-0,188
164,677	118,411	-0,119	-0,102
165,692	47,532	-0,229	-0,148
166,706	136,646	-0,168	-0,152
167,721	-7,254	-0,268	-0,126
168,735	460,781	-0,198	-0,307
169,750	800,000	-0,084	-0,211
170,764	129,269	-0,198	-0,175
171,779	-85,794	-0,209	-0,045
172,794	-104,042	-0,224	-0,036
173,808	-23,866	-0,224	-0,093
174,823	-58,873	-0,271	-0,081
175,837	137,584	-0,192	-0,175
176,852	70,169	-0,193	-0,138
177,867	-200,000	-0,082	-0,262
178,881	203,583	-0,165	-0,178
179,896	159,622	-0,165	-0,160
180,910	92,432	-0,182	-0,143
181,925	76,658	-0,236	-0,173
182,940	435,750	-0,214	-0,325
183,954	63,018	-0,173	-0,120
184,969	338,440	-0,148	-0,200
185,983	111,856	-0,247	-0,207
186,998	168,088	-0,270	-0,267
188,013	121,610	-0,265	-0,229
189,027	69,327	-0,284	-0,202
190,042	192,161	-0,209	-0,219
191,056	93,911	-0,240	-0,189
192,071	800,000	-0,130	-0,287
193,086	800,000	-0,045	-0,126
194,100	-200,000	-0,056	-0,183
195,115	-200,000	-0,043	-0,148
196,129	436,557	-0,152	-0,230
197,144	85,997	-0,150	-0,115
198,159	150,353	-0,270	-0,255
199,173	14,477	-0,217	-0,117
200,188	57,555	-0,244	-0,165
201,202	435,944	-0,120	-0,181
202,217	82,326	-0,164	-0,123
203,232	-139,610	-0,088	0,006
204,246	-132,627	-0,255	0,022
205,261	276,985	-0,080	-0,099
206,275	225,766	-0,204	-0,230
207,290	491,320	-0,124	-0,197
208,304	3,243	-0,219	-0,110
209,319	-33,542	-0,123	-0,047
210,334	123,492	-0,174	-0,151
211,348	126,109	-0,146	-0,127
212,363	800,000	-0,072	-0,206
213,377	59,217	-0,210	-0,143
214,392	-98,588	-0,243	-0,042
215,407	-70,705	-0,215	-0,056
216,421	45,594	-0,127	-0,081
217,436	-78,823	-0,183	-0,043
218,450	212,981	-0,132	-0,145
219,465	74,306	-0,201	-0,146
220,480	172,574	-0,159	-0,158
221,494	-13,840	-0,162	-0,072
222,509	3,588	-0,112	-0,056
223,523	-41,803	-0,153	0,054
224,538	-174,605	-0,189	0,004
225,553	351,729	-0,204	-0,280
226,567	74,262	-0,200	-0,145
227,582	135,821	-0,082	-0,074
228,596	126,076	-0,126	-0,110
229,611	-200,000	0,004	-0,083
230,626	45,551	-0,191	-0,122
231,640	128,137	-0,159	-0,140
232,655	-42,661	-0,215	-0,075
233,669	189,606	-0,229	-0,238
234,684	0,501	-0,259	-0,128
235,699	15,528	-0,203	-0,110
236,713	-68,570	-0,217	-0,058
237,728	800,000	-0,118	-0,232
238,742	-73,726	-0,272	-0,068
239,757	-200,000	-0,054	-0,206
240,772	12,446	-0,311	-0,165
241,786	113,551	-0,158	-0,133
242,801	572,257	-0,090	-0,152
243,815	-10,414	-0,103	-0,047
244,830	461,617	-0,092	-0,142
245,844	-131,578	-0,171	-0,015
246,859	141,494	-0,179	-0,163
247,874	123,262	-0,196	-0,169
248,888	127,531	-0,154	-0,135
249,903	304,521	-0,155	-0,199
250,917	14,477	-0,086	-0,046
251,932	297,171	-0,109	-0,138
252,947	-60,263	-0,232	-0,068
253,961	1,146	-0,312	-0,154
254,976	494,171	-0,150	-0,238
255,990	800,000	-0,079	-0,221
257,005	195,177	-0,201	-0,211
258,020	-23,314	-0,156	-0,064
259,034	-24,295	-0,110	-0,045
260,049	23,767	-0,235	-0,133
261,063	-134,691	-0,279	-0,023
262,078	216,389	-0,222	-0,244
263,093	269,178	-0,194	-0,235
264,107	168,109	-0,125	-0,123
265,122	360,859	-0,112	-0,155
266,136	85,849	-0,116	-0,088
267,151	286,033	-0,098	-0,122
268,166	287,369	-0,105	-0,131
269,180	-79,010	-0,199	-0,046
270,195	-67,988	-0,137	-0,037
271,209	36,909	-0,133	-0,081
272,224	-138,596	-0,026	-0,002
273,239	182,535	-0,079	-0,080
274,253	-127,782	-0,137	-0,013
275,268	-200,000	-0,057	-0,195
276,282	714,559	-0,111	-0,203
277,297	34,664	-0,215	-0,129
278,312	87,970	-0,187	-0,143
279,326	193,029	-0,138	-0,144
280,341	-0,900	-0,138	-0,067
281,355	-93,212	-0,168	0,032
282,370	687,137	-0,130	-0,234
283,384	180,061	-0,127	-0,128
284,399	326,479	-0,195	-0,258
285,414	-130,171	-0,064	0,006
286,428	46,802	-0,141	-0,090
287,443	552,205	-0,096	-0,159
288,457	-0,808	-0,254	-0,123
289,472	-11,780	-0,106	-0,048
290,487	-65,899	-0,219	-0,060
291,501	62,499	-0,373	-0,256
292,516	122,579	-0,158	-0,136
293,530	102,828	-0,188	-0,151
294,545	-23,064	-0,072	-0,030
295,560	255,827	-0,085	-0,100
296,574	8,993	-0,165	-0,085
297,589	34,216	-0,189	-0,113
298,603	573,590	-0,048	-0,080
299,618	59,768	-0,125	-0,085
300,633	146,447	-0,172	-0,159
301,647	783,862	-0,071	-0,134
302,662	259,275	-0,127	-0,150
303,676	-95,020	-0,233	-0,043
304,691	-59,854	-0,221	-0,065
305,706	15,173	-0,106	0,057
306,720	800,000	-0,079	-0,165
307,735	-4,283	-0,121	-0,057
308,749	-15,893	-0,159	-0,069
309,764	135,241	-0,081	-0,072
310,779	-200,000	0,024	-0,076
311,793	800,000	-0,078	-0,213
312,808	34,668	-0,172	-0,103
313,822	800,000	-0,116	-0,235
314,837	800,000	-0,037	-0,089
315,852	800,000	-0,058	-0,130
316,866	-3,387	-0,117	-0,056
317,881	800,000	-0,028	0,082
318,895	-133,976	-0,129	-0,011
319,910	-40,353	-0,191	-0,068
320,925	602,162	-0,107	-0,184
321,939	153,452	-0,165	-0,155
322,954	475,990	-0,031	-0,049
323,968	-128,313	-0,227	0,022
324,983	-50,109	-0,039	-0,013
325,997	-79,764	-0,119	-0,027
327,012	150,412	-0,171	-0,160
328,027	-23,930	-0,335	-0,137
329,041	217,225	-0,187	-0,205
330,056	96,670	-0,160	-0,125
331,070	16,318	-0,036	-0,019
332,085	-200,000	-0,004	-0,164
333,100	-58,634	-0,164	-0,048
334,114	210,520	-0,139	-0,149
335,129	-35,129	-0,199	-0,074
336,143	-58,001	-0,093	0,028
337,158	67,522	-0,196	-0,137
338,173	270,893	-0,083	-0,101
339,187	-57,641	-0,202	-0,060
340,202	-51,777	-0,078	-0,025
341,216	103,011	-0,084	-0,067
342,231	158,955	-0,126	-0,120
343,246	349,528	-0,090	-0,122
344,260	-137,458	-0,062	0,005
345,275	-99,995	-0,141	-0,024
346,289	-90,463	-0,130	-0,026
347,304	-200,000	-0,011	-0,148
348,319	267,511	-0,157	-0,188
349,333	203,956	-0,183	-0,194
350,348	-36,622	-0,129	-0,047
351,362	109,760	-0,154	-0,126
352,377	432,913	-0,100	0,148
353,392	-125,525	-0,143	-0,015
354,406	417,325	-0,072	-0,106
355,421	208,173	1305,191	1396,091
356,435	160,179	1464,696	1396,567
