DTS Sentinel unit serial number:	SN410029Multiplexer serial number:	ORYXHardware model number:	OX2-SRSoftware version number:	ORYX F/W v4,00 Oryx Data Collector v3.7.2.0data status	okinstallation	B3 Nyhavnadifferential loss correction	single-endedforward channel	channel 1reverse channel	N/Adate	2023/12/03time	15:12:30forward acquisition time	300,00reverse acquisition time	0,00gamma	499,1914k internal	0,3196k external	0,3196temperature offset calibration	1,0000default loss term (dB/km)	0,3820temperature slope calibration	1,0000multiplexer offset coefficient	1,0000multiplexer slope coefficient	1,0000fibre end	0,00T internal ref (°C)	15,84T ext. ref 1 (°C)	0,58T ext. ref 2 (°C)	0,59length (m)	temperature (°C)	Stokes	anti-Stokes-744,400	403,486	-0,162	-0,250
-743,385	-200,000	-0,070	0,303
-742,371	486,791	-0,133	-0,221
-741,356	-200,000	0,087	0,383
-740,342	79,726	-0,249	-0,194
-739,327	-200,000	0,041	0,362
-738,312	460,032	-0,156	-0,254
-737,298	-200,000	0,083	0,410
-736,283	411,688	-0,179	-0,277
-735,269	-200,000	0,083	0,460
-734,254	12,838	-0,300	-0,168
-733,239	151,788	-0,198	0,197
-732,225	28,986	-0,245	-0,151
-731,210	469,099	0,085	0,140
-730,196	259,885	-0,063	-0,080
-729,181	173,634	-0,106	-0,112
-728,167	-80,122	0,059	0,014
-727,152	365,198	-0,039	-0,058
-726,137	-142,050	-0,048	-0,003
-725,123	-53,270	0,056	0,019
-724,108	73,661	-0,120	-0,092
-723,094	-200,000	0,004	-0,059
-722,079	800,000	-0,053	-0,122
-721,064	277,787	0,042	0,054
-720,050	-57,206	0,009	0,003
-719,035	-200,000	-0,001	0,108
-718,021	377,868	-0,063	-0,094
-717,006	-35,054	-0,125	-0,050
-715,991	-110,925	-0,071	-0,011
-714,977	-200,000	-0,045	-0,165
-713,962	10,425	-0,141	-0,078
-712,948	-68,976	-0,030	0,008
-711,933	-71,292	0,104	0,028
-710,918	249,063	-0,026	0,033
-709,904	800,000	0,025	-0,076
-708,889	177,959	-0,051	0,054
-707,875	-200,000	-0,006	0,027
-706,860	-105,111	-0,083	0,014
-705,845	278,316	0,045	0,058
-704,831	-200,000	-0,037	0,132
-703,816	-200,000	-0,003	0,057
-702,802	800,000	-0,033	0,081
-701,787	-16,174	-0,131	-0,060
-700,772	-25,471	-0,041	-0,017
-699,758	92,198	-0,033	-0,027
-698,743	-200,000	-0,118	0,000
-697,729	-200,000	-0,003	0,137
-696,714	21,298	-0,079	0,047
-695,699	800,000	0,040	-0,081
-694,685	33,610	0,035	-0,022
-693,670	342,298	0,076	-0,108
-692,656	-158,297	-0,090	-0,004
-691,641	-200,000	-0,004	0,021
-690,627	-28,674	0,059	0,025
-689,612	-25,885	0,067	-0,028
-688,597	148,180	-0,054	-0,053
-687,583	84,238	0,127	0,101
-686,568	-200,000	-0,006	-0,128
-685,554	206,334	0,022	-0,025
-684,539	754,402	-0,040	0,079
-683,524	-8,186	0,112	0,055
-682,510	367,694	-0,096	0,142
-681,495	-51,737	-0,099	0,033
-680,481	800,000	-0,068	-0,140
-679,466	276,443	-0,090	-0,116
-678,451	59,105	-0,057	-0,041
-677,437	800,000	0,027	-0,086
-676,422	694,072	-0,067	0,127
-675,408	36,099	0,094	-0,060
-674,393	-41,269	-0,079	-0,029
-673,378	-200,000	-0,006	-0,063
-672,364	504,703	-0,091	-0,153
-671,349	89,730	-0,102	-0,082
-670,335	800,000	-0,030	-0,078
-669,320	800,000	-0,051	-0,105
-668,305	-115,729	0,084	0,011
-667,291	306,636	0,057	-0,078
-666,276	-200,000	0,023	0,086
-665,262	-124,419	-0,012	0,001
-664,247	25,596	-0,083	0,050
-663,232	800,000	0,035	-0,100
-662,218	539,420	-0,043	-0,075
-661,203	748,336	-0,005	-0,009
-660,189	178,092	-0,049	0,052
-659,174	31,857	-0,151	0,094
-658,159	-16,608	0,025	-0,012
-657,145	-3,334	-0,137	0,069
-656,130	-117,393	-0,071	0,009
-655,116	48,361	-0,053	-0,036
-654,101	-27,949	-0,063	0,026
-653,086	-7,214	0,083	0,041
-652,072	-102,334	-0,080	0,014
-651,057	-62,609	-0,024	0,007
-650,043	800,000	-0,071	-0,183
-649,028	160,098	-0,148	0,149
-648,014	-200,000	0,029	0,114
-646,999	-200,000	-0,052	0,235
-645,984	477,584	0,016	0,026
-644,970	563,103	0,018	-0,031
-643,955	800,000	-0,056	-0,122
-642,941	65,811	-0,031	-0,023
-641,926	-3,501	-0,044	-0,022
-640,911	72,630	0,106	-0,080
-639,897	-70,418	-0,072	0,020
-638,882	289,344	-0,032	-0,042
-637,868	157,416	-0,007	0,007
-636,853	-200,000	0,017	0,066
-635,838	364,043	-0,005	-0,007
-634,824	-200,000	0,031	-0,108
-633,809	-200,000	0,013	-0,082
-632,795	-133,738	-0,053	-0,005
-631,780	-68,799	0,042	-0,012
-630,765	800,000	0,006	0,017
-629,751	-200,000	0,035	-0,137
-628,736	800,000	0,031	-0,074
-627,722	154,745	-0,062	0,062
-626,707	-39,272	0,122	0,046
-625,692	511,092	-0,078	0,132
-624,678	-22,609	-0,027	-0,012
-623,663	50,709	0,046	0,031
-622,649	800,000	-0,041	-0,092
-621,634	160,502	-0,041	-0,042
-620,619	-107,529	-0,088	0,014
-619,605	-55,365	-0,033	0,011
-618,590	-200,000	-0,042	0,222
-617,576	270,883	0,044	0,056
-616,561	88,646	0,062	0,050
-615,546	-160,676	-0,158	0,006
-614,532	-200,000	0,013	-0,061
-613,517	800,000	0,039	-0,107
-612,503	484,997	0,029	-0,048
-611,488	800,000	-0,033	0,097
-610,474	22,181	0,095	-0,056
-609,459	81,489	0,063	-0,049
-608,444	800,000	-0,047	-0,097
-607,430	-144,740	-0,087	-0,006
-606,415	283,825	-0,066	-0,086
-605,401	-200,000	-0,013	-0,072
-604,386	-167,651	0,100	0,003
-603,371	-84,272	0,025	-0,006
-602,357	800,000	-0,043	0,108
-601,342	-24,278	0,078	-0,034
-600,328	82,623	-0,116	-0,091
-599,313	24,326	-0,071	-0,043
-598,298	156,987	0,060	-0,060
-597,284	-200,000	0,007	0,103
-596,269	800,000	0,077	0,196
-595,255	800,000	-0,026	-0,077
-594,240	569,544	0,011	0,020
-593,225	-8,803	-0,095	0,046
-592,211	-200,000	-0,007	0,043
-591,196	281,223	-0,039	0,051
-590,182	-200,000	0,023	0,112
-589,167	46,183	-0,097	0,065
-588,152	701,693	-0,029	0,055
-587,138	46,321	0,084	0,056
-586,123	800,000	0,013	-0,038
-585,109	221,761	0,049	0,057
-584,094	235,197	-0,104	-0,125
-583,079	-25,384	0,098	0,042
-582,065	2,735	-0,056	0,029
-581,050	266,297	0,119	0,151
-580,036	468,099	-0,076	0,125
-579,021	-200,000	0,001	-0,120
-578,006	-200,000	-0,018	0,094
-576,992	69,947	0,103	0,077
-575,977	800,000	-0,020	0,050
-574,963	70,616	0,016	-0,012
-573,948	323,001	0,048	-0,067
-572,934	-37,388	0,056	-0,022
-571,919	179,331	0,017	0,018
-570,904	25,801	-0,095	0,057
-569,890	-200,000	0,002	-0,060
-568,875	251,465	0,064	-0,079
-567,861	48,774	0,072	0,049
-566,846	16,917	0,087	0,050
-565,831	72,417	-0,058	-0,044
-564,817	669,900	-0,071	-0,134
-563,802	267,788	-0,084	-0,107
-562,788	-39,345	-0,023	0,009
-561,773	282,857	-0,050	0,065
-560,758	46,275	0,141	0,095
-559,744	-149,314	-0,097	0,006
-558,729	-16,360	0,011	-0,005
-557,715	120,896	-0,061	0,055
-556,700	81,867	-0,057	-0,045
-555,685	-200,000	0,009	0,096
-554,671	-55,556	0,149	0,048
-553,656	70,987	-0,089	0,067
-552,642	105,096	0,145	0,124
-551,627	23,151	-0,030	-0,018
-550,612	-10,468	-0,075	-0,036
-549,598	513,230	-0,025	-0,043
-548,583	10,221	-0,074	-0,041
-547,569	331,375	0,002	0,002
-546,554	-28,021	0,069	-0,029
-545,539	179,477	0,115	0,122
-544,525	-200,000	0,031	0,157
-543,510	-10,441	-0,126	-0,060
-542,496	-150,444	0,100	-0,005
-541,481	47,334	0,100	-0,067
-540,466	612,124	0,006	0,010
-539,452	-173,602	-0,097	0,002
-538,437	-110,417	0,115	-0,017
-537,423	-100,931	-0,095	-0,017
-536,408	-58,963	-0,074	-0,023
-535,393	19,558	-0,210	-0,122
-534,379	-12,352	-0,130	0,061
-533,364	800,000	0,013	-0,030
-532,350	-26,297	0,027	-0,011
-531,335	-27,455	0,144	0,060
-530,321	295,452	-0,024	0,031
-529,306	-105,665	0,133	0,022
-528,291	-60,834	-0,173	0,053
-527,277	-101,952	0,041	-0,007
-526,262	223,136	-0,073	-0,085
-525,248	496,804	-0,033	-0,055
-524,233	58,653	0,093	-0,066
-523,218	212,864	0,048	0,055
-522,204	-9,711	-0,140	0,067
-521,189	588,758	0,046	-0,083
-520,175	90,445	-0,019	-0,015
-519,160	-15,510	0,048	-0,022
-518,145	598,084	-0,010	-0,017
-517,131	800,000	-0,023	0,064
-516,116	62,924	-0,046	0,033
-515,102	800,000	0,027	0,061
-514,087	241,022	-0,071	-0,085
-513,072	15,970	-0,109	-0,062
-512,058	232,209	-0,134	-0,159
-511,043	-133,420	0,124	0,011
-510,029	-61,622	0,112	0,034
-509,014	-200,000	-0,017	0,122
-507,999	-200,000	0,009	-0,032
-506,985	-200,000	0,021	-0,136
-505,970	-200,000	0,001	-0,018
-504,956	-51,797	-0,145	0,048
-503,941	157,865	0,115	-0,115
-502,926	-200,000	-0,021	0,069
-501,912	76,394	0,064	0,049
-500,897	409,473	0,035	0,054
-499,883	115,474	-0,071	0,063
-498,868	-200,000	0,010	-0,070
-497,853	170,199	0,032	-0,033
-496,839	-18,732	-0,078	-0,035
-495,824	-200,000	0,004	-0,047
-494,810	273,352	0,015	-0,019
-493,795	71,926	0,087	-0,065
-492,781	-200,000	0,015	-0,078
-491,766	-32,418	-0,090	-0,036
-490,751	138,898	0,052	-0,049
-489,737	-200,000	-0,014	0,136
-488,722	65,953	0,104	-0,076
-487,708	-200,000	-0,012	0,087
-486,693	-39,606	0,079	0,030
-485,678	170,279	-0,124	-0,128
-484,664	-93,514	-0,083	0,016
-483,649	67,252	-0,075	-0,055
-482,635	-17,146	-0,037	-0,017
-481,620	-123,960	0,147	0,016
-480,605	122,048	0,074	-0,067
-479,591	-200,000	-0,020	0,110
-478,576	335,917	-0,089	0,125
-477,562	-69,725	-0,069	-0,019
-476,547	75,163	0,079	-0,060
-475,532	90,313	-0,021	-0,017
-474,518	-13,859	0,089	-0,041
-473,503	225,210	0,097	0,114
-472,489	186,545	-0,103	0,111
-471,474	800,000	0,028	0,079
-470,459	-2,229	-0,053	0,027
-469,445	557,931	0,056	0,097
-468,430	-200,000	0,011	-0,081
-467,416	222,020	0,057	-0,066
-466,401	-10,875	0,062	0,029
-465,386	800,000	-0,028	0,057
-464,372	521,718	-0,029	-0,049
-463,357	189,835	-0,090	-0,098
-462,343	-12,059	-0,071	-0,033
-461,328	184,661	0,141	0,151
-460,313	101,154	-0,084	0,071
-459,299	153,550	0,083	0,082
-458,284	-79,955	0,052	-0,013
-457,270	-200,000	-0,007	-0,106
-456,255	243,749	0,094	0,114
-455,241	-200,000	-0,029	-0,115
-454,226	119,971	-0,054	0,048
-453,211	800,000	0,036	0,099
-452,197	254,348	0,142	0,175
-451,182	427,073	0,031	0,048
-450,168	-200,000	-0,007	0,158
-449,153	541,503	0,036	0,062
-448,138	216,716	-0,092	-0,106
-447,124	-200,000	-0,012	0,168
-446,109	266,279	0,101	-0,127
-445,095	-200,000	0,002	0,033
-444,080	44,306	-0,093	0,062
-443,065	-200,000	-0,013	0,113
-442,051	-2,695	0,057	-0,028
-441,036	-10,249	-0,084	0,040
-440,022	-17,191	-0,161	-0,073
-439,007	-110,491	0,188	-0,028
-437,992	88,270	0,100	-0,080
-436,978	-200,000	0,012	0,090
-435,963	-191,380	-0,062	0,000
-434,949	800,000	0,015	0,046
-433,934	800,000	-0,034	-0,076
-432,919	-14,857	-0,018	-0,008
-431,905	-200,000	-0,021	-0,144
-430,890	-155,504	0,117	0,005
-429,876	430,397	0,055	0,086
-428,861	43,266	0,044	0,029
-427,846	-200,000	-0,002	0,099
-426,832	-68,107	-0,042	0,012
-425,817	90,410	-0,059	-0,047
-424,803	1,160	0,083	0,042
-423,788	-104,860	-0,067	0,011
-422,773	95,108	0,184	0,151
-421,759	44,631	0,102	0,067
-420,744	800,000	0,066	0,177
-419,730	-164,789	0,031	0,001
-418,715	298,691	-0,053	0,070
-417,701	-89,436	0,134	-0,028
-416,686	-200,000	-0,003	0,077
-415,671	-200,000	0,000	0,102
-414,657	-200,000	0,009	-0,066
-413,642	-200,000	-0,017	-0,120
-412,628	-200,000	0,025	-0,128
-411,613	104,367	-0,087	-0,073
-410,598	-200,000	0,044	-0,190
-409,584	151,570	0,080	-0,079
-408,569	443,302	-0,076	0,120
-407,555	-200,000	-0,025	0,098
-406,540	-105,366	-0,056	-0,009
-405,525	-4,851	-0,140	0,069
-404,511	-126,511	-0,065	0,007
-403,496	-85,435	-0,195	-0,043
-402,482	-200,000	0,002	-0,010
-401,467	11,502	0,047	0,026
-400,452	-200,000	0,021	0,174
-399,438	-157,480	0,056	-0,002
-398,423	-200,000	-0,018	-0,098
-397,409	-121,193	-0,079	0,009
-396,394	-200,000	-0,046	-0,163
-395,379	800,000	0,060	-0,185
-394,365	-118,460	0,236	0,030
-393,350	103,963	0,048	0,041
-392,336	-16,755	-0,053	-0,024
-391,321	-81,566	0,126	-0,029
-390,306	293,758	-0,025	-0,033
-389,292	-200,000	0,034	-0,134
-388,277	-200,000	0,022	-0,189
-387,263	28,230	0,058	0,035
-386,248	64,427	-0,088	0,064
-385,233	20,582	0,031	0,018
-384,219	-200,000	0,001	-0,027
-383,204	547,393	-0,047	-0,081
-382,190	-43,911	0,141	-0,051
-381,175	-153,975	-0,108	-0,005
-380,160	-16,845	-0,029	-0,013
-379,146	439,013	0,063	-0,099
-378,131	800,000	-0,057	0,115
-377,117	-83,428	0,065	-0,015
-376,102	46,965	-0,038	0,026
-375,088	16,414	-0,101	0,057
-374,073	391,154	0,063	0,094
-373,058	270,397	0,089	0,112
-372,044	-200,000	0,010	0,045
-371,029	-21,606	-0,065	0,029
-370,015	-154,296	0,222	-0,011
-369,000	800,000	0,032	0,073
-367,985	160,074	0,022	0,022
-366,971	-84,163	-0,086	-0,019
-365,956	524,996	0,025	-0,042
-364,942	47,900	0,117	0,079
-363,927	-200,000	-0,013	-0,044
-362,912	-200,000	0,024	0,161
-361,898	-89,609	-0,154	0,032
-360,883	-4,839	0,020	0,010
-359,869	-108,631	-0,086	-0,013
-358,854	139,366	0,052	-0,050
-357,839	-30,677	-0,034	-0,014
-356,825	-96,236	-0,120	-0,023
-355,810	-64,461	-0,024	-0,007
-354,796	-0,379	0,013	-0,007
-353,781	22,500	-0,122	0,071
-352,766	-200,000	0,038	0,149
-351,752	139,891	-0,028	-0,027
-350,737	267,512	0,099	0,124
-349,723	-160,401	0,088	-0,003
-348,708	410,901	0,010	0,015
-347,693	-200,000	-0,010	-0,076
-346,679	483,128	-0,027	0,044
-345,664	-200,000	-0,033	0,203
-344,650	-80,671	0,063	-0,015
-343,635	724,871	0,021	-0,040
-342,620	2,686	-0,055	-0,028
-341,606	454,507	0,026	0,041
-340,591	385,635	-0,085	0,126
-339,577	62,608	0,060	-0,043
-338,562	23,724	-0,105	-0,062
-337,548	-200,000	-0,008	0,044
-336,533	-200,000	0,041	-0,134
-335,518	76,825	0,045	0,034
-334,504	136,252	0,080	-0,075
-333,489	-200,000	-0,013	-0,067
-332,475	43,809	-0,137	-0,090
-331,460	703,076	-0,016	-0,031
-330,445	-70,093	0,089	-0,024
-329,431	440,897	-0,036	0,057
-328,416	34,037	0,128	0,080
-327,402	-140,857	0,164	0,012
-326,387	-49,635	-0,116	-0,039
-325,372	170,921	-0,095	-0,098
-324,358	189,813	-0,080	-0,086
-323,343	-29,189	0,060	0,024
-322,329	-133,251	0,063	0,006
-321,314	262,470	-0,036	0,045
-320,299	-200,000	-0,003	-0,023
-319,285	174,121	-0,043	0,044
-318,270	-43,506	0,128	0,046
-317,256	-47,894	-0,134	0,046
-316,241	165,869	0,053	-0,054
-315,226	79,980	-0,059	0,045
-314,212	141,907	0,086	-0,082
-313,197	-200,000	0,010	-0,070
-312,183	-91,829	-0,088	0,018
-311,168	-158,218	0,099	-0,004
-310,153	324,895	-0,081	-0,111
-309,139	312,337	0,054	-0,073
-308,124	3,337	-0,103	-0,053
-307,110	800,000	-0,007	-0,019
-306,095	800,000	-0,020	0,049
-305,080	12,032	0,063	-0,035
-304,066	216,716	-0,076	0,087
-303,051	-200,000	0,007	-0,065
-302,037	-200,000	-0,022	-0,085
-301,022	-200,000	0,007	0,062
-300,008	59,118	0,037	-0,026
-298,993	-200,000	0,003	-0,128
-297,978	374,322	-0,062	-0,091
-296,964	3,154	-0,204	-0,106
-295,949	-200,000	0,023	-0,181
-294,935	-97,332	0,116	-0,021
-293,920	-200,000	0,022	0,120
-292,905	88,565	0,050	0,040
-291,891	-44,273	-0,015	0,006
-290,876	321,377	0,025	-0,035
-289,862	-200,000	-0,028	-0,093
-288,847	-200,000	0,025	-0,277
-287,832	-19,910	0,060	-0,027
-286,818	43,641	-0,058	0,038
-285,803	0,657	0,011	-0,005
-284,789	-200,000	0,010	0,079
-283,774	-76,427	0,045	0,011
-282,759	-200,000	0,014	-0,117
-281,745	-54,588	0,119	-0,038
-280,730	126,247	0,156	-0,141
-279,716	-200,000	-0,022	0,096
-278,701	800,000	0,011	-0,035
-277,686	800,000	-0,049	0,155
-276,672	-200,000	-0,001	-0,048
-275,657	-200,000	-0,011	0,112
-274,643	-102,918	-0,067	0,011
-273,628	47,729	0,042	0,028
-272,613	-41,924	0,030	-0,011
-271,599	-23,885	-0,079	-0,033
-270,584	800,000	0,047	0,131
-269,570	-200,000	0,026	0,120
-268,555	299,307	-0,085	-0,113
-267,540	300,695	-0,041	-0,054
-266,526	544,948	0,016	-0,028
-265,511	123,628	0,045	-0,040
-264,497	79,262	0,064	0,049
-263,482	-65,362	0,062	-0,018
-262,467	135,060	0,021	0,019
-261,453	-15,763	-0,103	-0,047
-260,438	264,131	-0,036	-0,045
-259,424	738,780	-0,033	0,064
-258,409	-200,000	0,002	0,035
-257,395	-158,646	0,032	0,001
-256,380	-88,500	-0,081	0,017
-255,365	-200,000	0,026	0,109
-254,351	-21,878	0,092	0,040
-253,336	-10,059	-0,127	-0,060
-252,322	-200,000	-0,006	0,098
-251,307	136,658	-0,053	0,050
-250,292	800,000	0,033	0,086
-249,278	56,293	0,090	0,063
-248,263	-162,337	0,046	-0,002
-247,249	74,343	-0,076	0,057
-246,234	800,000	-0,068	-0,139
-245,219	-200,000	-0,040	-0,144
-244,205	800,000	-0,031	-0,071
-243,190	-200,000	0,017	-0,079
-242,176	50,355	-0,107	0,072
-241,161	-200,000	-0,002	-0,066
-240,146	-93,239	0,075	-0,015
-239,132	-31,847	0,096	-0,038
-238,117	-141,170	-0,191	-0,014
-237,103	121,590	-0,014	-0,013
-236,088	70,810	-0,092	0,068
-235,073	386,220	0,047	-0,070
-234,059	-86,769	0,117	0,025
-233,044	288,451	0,034	-0,044
-232,030	404,964	-0,030	-0,046
-231,015	800,000	-0,074	-0,157
-230,000	800,000	-0,073	-0,152
-228,986	192,154	0,047	0,051
-227,971	-52,728	0,086	0,028
-226,957	800,000	0,046	0,142
-225,942	143,208	0,099	0,094
-224,927	364,243	0,020	-0,029
-223,913	-113,294	0,080	0,011
-222,898	-89,289	0,034	0,007
-221,884	-107,034	-0,171	-0,027
-220,869	403,205	-0,090	0,136
-219,855	-60,049	-0,036	-0,011
-218,840	269,469	-0,030	0,038
-217,825	491,364	0,031	0,052
-216,811	115,388	0,056	-0,049
-215,796	-88,189	-0,102	-0,022
-214,782	800,000	-0,048	-0,131
-213,767	800,000	0,049	-0,132
-212,752	-67,688	0,145	0,040
-211,738	-179,976	-0,114	-0,002
-210,723	800,000	0,026	-0,055
-209,709	182,233	0,066	0,070
-208,694	800,000	-0,042	-0,087
-207,679	-200,000	0,003	0,077
-206,665	-200,000	-0,003	0,080
-205,650	800,000	-0,089	-0,188
-204,636	170,306	0,046	0,047
-203,621	-16,546	-0,116	0,052
-202,606	-57,947	-0,107	-0,033
-201,592	-200,000	-0,073	-0,271
-200,577	-88,529	-0,045	0,009
-199,563	227,201	0,014	0,017
-198,548	363,084	0,030	0,043
-197,533	368,384	-0,024	-0,035
-196,519	71,708	-0,037	0,027
-195,504	-54,438	0,038	-0,012
-194,490	-111,984	-0,081	0,011
-193,475	-200,000	-0,018	-0,070
-192,460	-44,300	0,036	-0,013
-191,446	-200,000	-0,026	0,085
-190,431	537,168	0,095	0,161
-189,417	51,637	-0,075	0,051
-188,402	188,079	0,078	-0,084
-187,387	-200,000	0,010	-0,125
-186,373	75,264	0,026	0,019
-185,358	-200,000	0,031	-0,146
-184,344	328,695	0,079	-0,108
-183,329	800,000	0,047	0,141
-182,315	800,000	0,046	0,137
-181,300	-26,556	-0,092	0,038
-180,285	10,925	-0,088	-0,048
-179,271	97,119	-0,110	-0,090
-178,256	800,000	0,047	-0,094
-177,242	-200,000	0,010	-0,042
-176,227	18,952	0,118	0,067
-175,212	18,305	-0,060	-0,034
-174,198	26,815	-0,010	-0,006
-173,183	119,723	-0,022	0,019
-172,169	1,307	-0,106	0,054
-171,154	-59,981	0,014	-0,004
-170,139	-172,167	-0,130	0,003
-169,125	151,861	0,128	0,125
-168,110	95,798	0,082	0,066
-167,096	-133,365	0,024	0,002
-166,081	721,114	-0,018	-0,035
-165,066	3,081	0,062	0,032
-164,052	190,124	0,046	-0,049
-163,037	800,000	-0,022	-0,065
-162,023	250,534	0,054	0,065
-161,008	187,853	-0,062	0,066
-159,993	-65,902	0,089	-0,025
-158,979	627,380	-0,041	-0,074
-157,964	-200,000	0,052	-0,177
-156,950	267,895	-0,068	0,085
-155,935	-108,930	0,136	-0,021
-154,920	206,733	0,121	-0,134
-153,906	-200,000	-0,002	0,054
-152,891	-68,953	-0,126	-0,034
-151,877	-200,000	0,021	0,093
-150,862	800,000	0,014	0,043
-149,847	241,258	-0,073	-0,087
-148,833	-21,528	-0,031	-0,013
-147,818	-57,224	0,048	0,015
-146,804	771,092	0,067	-0,131
-145,789	800,000	0,023	-0,052
-144,775	201,074	-0,069	-0,076
-143,760	305,245	0,101	-0,134
-142,745	800,000	0,037	-0,075
-141,731	800,000	0,030	-0,063
-140,716	-200,000	-0,005	0,020
-139,702	-200,000	0,043	0,186
-138,687	28,879	-0,080	-0,048
-137,672	-200,000	-0,003	0,040
-136,658	38,572	-0,112	-0,071
-135,643	344,324	-0,086	-0,120
-134,629	-94,390	0,106	-0,020
-133,614	-137,189	0,070	-0,006
-132,599	-159,350	0,052	-0,002
-131,585	-40,959	0,113	0,041
-130,570	91,555	0,010	-0,008
-129,556	74,931	-0,114	0,085
-128,541	-79,067	-0,109	-0,026
-127,526	115,206	0,047	-0,040
-126,512	662,222	-0,052	-0,097
-125,497	-104,242	0,029	0,005
-124,483	800,000	0,043	0,126
-123,468	-31,304	-0,096	-0,038
-122,453	7,512	-0,091	-0,048
-121,439	177,808	-0,126	-0,130
-120,424	430,907	0,030	0,046
-119,410	-72,582	0,169	-0,044
-118,395	-31,945	0,123	0,049
-117,380	-200,000	0,022	-0,091
-116,366	-200,000	-0,016	-0,114
-115,351	-105,856	0,135	-0,021
-114,337	28,002	-0,060	-0,036
-113,322	135,295	-0,057	0,053
-112,307	-200,000	-0,010	0,032
-111,293	-73,040	0,054	-0,014
-110,278	800,000	0,027	-0,073
-109,264	-200,000	-0,004	0,046
-108,249	-145,272	-0,040	0,003
-107,234	800,000	0,023	0,060
-106,220	-88,636	-0,068	-0,014
-105,205	386,459	0,058	-0,086
-104,191	-200,000	-0,019	-0,096
-103,176	-80,960	-0,012	-0,003
-102,162	688,250	0,068	-0,127
-101,147	-200,000	-0,036	-0,154
-100,132	800,000	0,071	-0,173
-99,118	800,000	0,020	0,041
-98,103	673,615	-0,051	-0,094
-97,089	-200,000	0,009	-0,084
-96,074	800,000	-0,048	-0,097
-95,059	57,375	-0,052	-0,036
-94,045	234,061	-0,145	0,170
-93,030	-200,000	0,005	-0,106
-92,016	-200,000	-0,024	0,076
-91,001	-20,421	0,082	-0,036
-89,986	96,397	-0,060	0,049
-88,972	-138,324	0,073	0,006
-87,957	-36,926	-0,142	0,054
-86,943	-2,542	0,019	0,010
-85,928	-60,630	-0,068	-0,020
-84,913	1,769	-0,097	0,050
-83,899	-200,000	0,011	0,131
-82,884	126,209	0,043	-0,039
-81,870	-200,000	-0,020	-0,115
-80,855	433,204	0,062	-0,095
-79,840	-53,718	0,025	-0,008
-78,826	-200,000	-0,021	-0,107
-77,811	-80,603	-0,098	-0,023
-76,797	-200,000	-0,004	0,040
-75,782	-35,775	-0,062	-0,024
-74,767	392,435	-0,101	0,149
-73,753	535,276	0,037	0,063
-72,738	276,483	-0,052	0,065
-71,724	-200,000	-0,005	-0,035
-70,709	-200,000	0,002	0,056
-69,694	-158,780	-0,079	0,003
-68,680	-155,859	0,065	-0,003
-67,665	800,000	-0,029	0,091
-66,651	381,186	0,035	0,050
-65,636	153,363	0,022	0,021
-64,622	-200,000	-0,009	-0,144
-63,607	-9,029	0,049	0,023
-62,592	444,560	0,059	-0,092
-61,578	800,000	0,060	-0,154
-60,563	-100,712	-0,125	0,022
-59,549	31,252	-0,204	0,124
-58,534	-31,498	-1,411	-0,560
-57,519	378,401	-1,512	-2,200
-56,505	-200,000	-0,512	-4,521
-55,490	132,467	1,087	0,994
-54,476	800,000	4,560	10,722
-53,461	-200,000	17,791	284,512
-52,446	800,000	722,036	2232,618
-51,432	562,979	1636,419	2819,598
-50,417	80,942	1659,982	1268,836
-49,403	23,750	1533,897	893,594
-48,388	17,672	1457,529	819,753
-47,373	18,183	1446,936	816,220
-46,359	17,742	1437,647	808,841
-45,344	15,977	1432,826	797,697
-44,330	15,851	1431,056	796,082
-43,315	15,886	1429,280	795,227
-42,300	15,907	1427,672	794,399
-41,286	15,963	1426,430	793,946
-40,271	15,897	1425,343	792,995
-39,257	15,956	1423,663	792,309
-38,242	15,989	1422,400	791,728
-37,227	15,956	1421,365	790,966
-36,213	15,951	1420,141	790,228
-35,198	15,898	1418,967	789,293
-34,184	15,929	1417,907	788,820
-33,169	15,886	1416,794	787,965
-32,154	15,980	1415,522	787,672
-31,140	15,954	1414,323	786,850
-30,125	15,996	1413,046	786,305
-29,111	15,964	1411,945	785,511
-28,096	15,927	1410,862	784,704
-27,082	15,847	1409,973	783,803
-26,067	15,884	1408,655	783,214
-25,052	15,902	1407,782	782,782
-24,038	15,851	1406,810	781,973
-23,023	15,884	1405,668	781,462
-22,009	15,876	1404,430	780,704
-20,994	15,818	1403,848	780,079
-19,979	15,833	1402,743	779,504
-18,965	15,788	1401,834	778,759
-17,950	15,787	1401,097	778,315
-16,936	15,799	1399,958	777,704
-15,921	15,768	1398,691	776,824
-14,906	15,755	1397,742	776,207
-13,892	15,801	1396,625	775,771
-12,877	15,746	1396,046	775,162
-11,863	15,706	1394,957	774,343
-10,848	15,755	1394,068	774,044
-9,833	15,765	1393,112	773,529
-8,819	15,705	1392,066	772,642
-7,804	15,681	1391,337	772,094
-6,790	15,691	1390,220	771,489
-5,775	15,697	1389,201	770,922
-4,760	15,672	1388,380	770,319
-3,746	15,660	1387,776	769,900
-2,731	15,640	1386,779	769,223
-1,717	15,627	1385,914	768,652
-0,702	15,647	1384,051	767,679
0,313	19,407	1304,504	740,933
1,327	35,719	706,744	439,231
2,342	54,892	125,259	85,551
3,356	5,147	16,583	8,628
4,371	10,692	3,183	1,715
5,386	-73,768	0,552	0,141
6,400	165,720	-0,132	0,132
7,415	120,209	-0,223	-0,196
8,429	174,338	-0,190	-0,195
9,444	-7,637	-0,488	-0,233
10,459	-21,279	-0,281	-0,121
11,473	67,202	-0,300	-0,216
12,488	-26,040	-0,276	-0,115
13,502	37,438	-0,439	-0,275
14,517	19,311	-0,313	-0,177
15,531	44,810	-0,356	-0,231
16,546	61,851	-0,351	-0,247
17,561	34,758	-0,393	-0,243
18,575	229,610	-0,161	-0,187
19,590	127,463	-0,258	-0,232
20,604	-48,039	-0,278	-0,094
21,619	-24,962	-0,416	-0,174
22,634	70,724	-0,346	-0,253
23,648	15,571	-0,436	-0,242
24,663	99,937	-0,389	-0,319
25,677	18,296	-0,442	-0,249
26,692	-7,018	-0,434	-0,208
27,707	212,207	-0,314	-0,351
28,721	33,804	-0,324	-0,199
29,736	47,347	-0,229	-0,151
30,750	19,761	-0,343	-0,195
31,765	165,337	-0,279	-0,279
32,780	151,030	-0,367	-0,353
33,794	81,143	-0,422	-0,322
34,809	135,693	-0,413	-0,380
35,823	135,454	-0,328	-0,301
36,838	81,935	-0,348	-0,266
37,853	-2,947	-0,466	-0,229
38,867	164,049	-0,346	-0,345
39,882	60,313	-0,407	-0,284
40,896	460,893	-0,160	-0,252
41,911	4,805	-0,276	-0,143
42,926	-130,228	-0,362	-0,034
43,940	-16,231	-0,483	-0,216
44,955	201,316	-0,308	-0,335
45,969	403,728	-0,290	-0,433
46,984	35,645	-0,283	-0,175
47,999	104,963	-0,249	-0,208
49,013	118,172	-0,324	-0,282
50,028	-27,492	-0,294	-0,120
51,042	29,679	-0,376	-0,225
52,057	70,525	-0,305	-0,222
53,071	-13,713	-0,278	-0,126
54,086	89,847	-0,382	-0,301
55,101	-20,319	-0,315	-0,136
56,115	35,760	-0,354	-0,219
57,130	7,076	-0,337	-0,176
58,144	80,871	-0,291	-0,221
59,159	-0,189	-0,485	-0,243
60,174	117,221	-0,291	-0,253
61,188	2,038	-0,439	-0,223
62,203	151,587	-0,248	-0,238
63,217	-18,718	-0,335	-0,146
64,232	60,838	-0,213	-0,149
65,247	36,450	-0,376	-0,233
66,261	26,959	-0,349	-0,205
67,276	473,770	-0,164	-0,261
68,290	-62,332	-0,315	-0,092
69,305	166,057	-0,279	-0,278
70,320	70,928	-0,151	-0,110
71,334	-15,674	-0,276	-0,124
72,349	24,313	-0,404	-0,235
73,363	28,761	-0,316	-0,188
74,378	32,355	-0,350	-0,212
75,393	47,011	-0,312	-0,204
76,407	230,853	-0,202	-0,234
77,422	-91,308	-0,393	-0,078
78,436	110,992	-0,262	-0,222
79,451	29,863	-0,287	-0,172
80,466	46,097	-0,341	-0,222
81,480	149,761	-0,218	-0,208
82,495	14,833	-0,326	-0,179
83,509	147,459	-0,222	-0,210
84,524	122,828	-0,323	-0,284
85,539	84,530	-0,262	-0,202
86,553	221,271	-0,286	-0,324
87,568	800,000	-0,124	-0,248
88,582	144,530	-0,299	-0,281
89,597	12,713	-0,456	-0,247
90,611	73,838	-0,284	-0,209
91,626	46,046	-0,279	-0,182
92,641	206,655	-0,185	-0,203
93,655	-123,326	-0,210	-0,023
94,670	-123,912	-0,319	-0,035
95,684	162,823	-0,294	-0,290
96,699	92,522	-0,242	-0,192
97,714	434,476	-0,185	-0,284
98,728	37,625	-0,307	-0,191
99,743	-81,336	-0,301	-0,069
100,757	-67,889	-0,330	-0,090
101,772	193,275	-0,307	-0,327
102,787	68,783	-0,256	-0,184
103,801	79,284	-0,135	-0,101
104,816	-18,154	-0,316	-0,138
105,830	81,159	-0,242	-0,184
106,845	120,772	-0,282	-0,246
107,860	62,090	-0,268	-0,187
108,874	0,128	-0,337	-0,168
109,889	-200,000	-0,070	-0,258
110,903	335,200	-0,239	-0,326
111,918	194,286	-0,219	-0,234
112,933	-6,275	-0,353	-0,168
113,947	417,452	-0,157	-0,236
114,962	142,404	-0,176	-0,164
115,976	115,387	-0,296	-0,254
116,991	172,586	-0,260	-0,262
118,006	129,054	-0,296	-0,265
119,020	-63,955	-0,425	-0,121
120,035	-17,098	-0,284	-0,125
121,049	-30,761	-0,211	-0,083
122,064	-14,666	-0,173	-0,078
123,079	4,883	-0,253	-0,130
124,093	-24,330	-0,252	-0,105
125,108	-58,484	-0,363	-0,110
126,122	43,825	-0,222	-0,142
127,137	47,116	-0,222	-0,144
128,151	-7,888	-0,310	-0,146
129,166	185,934	-0,113	-0,118
130,181	3,685	-0,393	-0,200
131,195	207,989	-0,154	-0,169
132,210	302,080	-0,221	-0,287
133,224	-29,179	-0,270	-0,108
134,239	85,355	-0,247	-0,190
135,254	134,658	-0,096	-0,087
136,268	-82,448	-0,185	-0,042
137,283	131,542	-0,241	-0,217
138,297	88,066	-0,298	-0,231
139,312	141,899	-0,209	-0,194
140,327	27,816	-0,271	-0,160
141,341	471,657	-0,172	-0,272
142,356	71,656	-0,284	-0,206
143,370	525,632	-0,177	-0,293
144,385	19,069	-0,339	-0,190
145,400	-7,128	-0,319	-0,151
146,414	154,639	-0,188	-0,181
147,429	215,829	-0,225	-0,251
148,443	51,027	-0,139	-0,092
149,458	187,733	-0,216	-0,225
150,473	659,641	-0,148	-0,268
151,487	92,922	-0,269	-0,212
152,502	71,596	-0,233	-0,169
153,516	84,821	-0,335	-0,256
154,531	-31,434	-0,248	-0,097
155,546	5,231	-0,164	-0,084
156,560	86,020	-0,214	-0,164
157,575	-32,665	-0,246	-0,095
158,589	16,494	-0,292	-0,161
159,604	-71,909	-0,211	-0,055
160,619	236,545	-0,321	-0,371
161,633	-98,984	-0,211	0,037
162,648	37,516	-0,319	-0,197
163,662	-11,105	-0,259	-0,119
164,677	90,600	-0,259	-0,202
165,692	-61,351	-0,179	0,052
166,706	84,349	-0,234	-0,178
167,721	-65,122	-0,262	-0,073
168,735	93,852	-0,222	-0,176
169,750	227,482	-0,247	-0,281
170,764	29,807	-0,269	-0,159
171,779	15,733	-0,236	-0,129
172,794	160,376	-0,169	-0,165
173,808	55,669	-0,263	-0,177
174,823	102,891	-0,297	-0,243
175,837	281,171	-0,226	-0,284
176,852	-14,445	-0,259	-0,116
177,867	165,260	-0,234	-0,231
178,881	-200,000	-0,011	-0,295
179,896	800,000	-0,084	-0,223
180,910	-86,590	-0,176	0,037
181,925	39,274	-0,488	-0,304
182,940	132,014	-0,330	-0,297
183,954	475,586	-0,187	-0,296
184,969	115,206	-0,187	-0,159
185,983	-69,967	-0,206	-0,054
186,998	16,063	-0,058	-0,032
188,013	-59,809	-0,231	-0,069
189,027	390,195	-0,134	-0,194
190,042	9,786	-0,314	-0,166
191,056	-26,308	-0,246	-0,100
192,071	64,763	-0,229	-0,161
193,086	94,496	-0,246	-0,195
194,100	-24,145	-0,238	-0,099
195,115	163,017	-0,124	-0,121
196,129	166,170	-0,203	-0,200
197,144	274,951	-0,249	-0,308
198,159	129,232	-0,167	-0,149
199,173	99,096	-0,212	-0,170
200,188	163,206	-0,216	-0,212
201,202	-73,928	-0,318	-0,080
202,217	27,711	-0,243	-0,142
203,232	259,285	-0,210	-0,253
204,246	202,443	-0,224	-0,241
205,261	196,076	-0,214	-0,227
206,275	-53,412	-0,116	-0,037
207,290	-200,000	-0,055	-0,212
208,304	-72,505	-0,188	-0,048
209,319	49,984	-0,141	-0,092
210,334	-80,291	-0,314	-0,072
211,348	355,544	-0,192	-0,267
212,363	255,539	-0,204	-0,243
213,377	113,448	-0,128	-0,108
214,392	339,241	-0,089	-0,121
215,407	259,690	-0,146	-0,175
216,421	120,858	0,024	-0,021
217,436	615,671	-0,119	-0,208
218,450	35,803	-0,242	-0,147
219,465	141,354	-0,208	-0,192
220,480	154,308	-0,142	-0,136
221,494	53,972	-0,169	-0,113
222,509	-63,047	-0,106	-0,030
223,523	112,332	-0,133	-0,112
224,538	163,730	-0,251	-0,246
225,553	225,806	-0,164	-0,185
226,567	-36,907	-0,265	-0,098
227,582	-75,368	-0,194	-0,048
228,596	158,222	-0,218	-0,210
229,611	800,000	-0,081	-0,183
230,626	-44,540	-0,170	-0,059
231,640	212,217	-0,097	-0,106
232,655	251,393	-0,156	-0,185
233,669	191,757	-0,227	-0,237
234,684	-15,377	-0,160	-0,071
235,699	-37,463	-0,098	-0,036
236,713	54,552	-0,128	-0,085
237,728	-48,008	-0,259	-0,087
238,742	195,267	-0,083	-0,088
239,757	100,204	-0,115	-0,092
240,772	333,827	-0,136	-0,183
241,786	18,604	-0,221	-0,122
242,801	-16,173	-0,156	-0,068
243,815	39,213	-0,147	-0,091
244,830	355,139	-0,123	-0,170
245,844	97,298	-0,148	-0,118
246,859	340,808	-0,120	-0,163
247,874	-18,001	-0,163	-0,071
248,888	137,458	-0,190	-0,172
249,903	129,726	-0,176	-0,156
250,917	800,000	-0,024	0,046
251,932	-13,348	-0,215	-0,096
252,947	137,023	-0,059	-0,053
253,961	54,003	-0,190	-0,126
254,976	202,824	-0,168	-0,180
255,990	88,575	-0,254	-0,195
257,005	107,820	-0,118	-0,098
258,020	161,769	-0,210	-0,204
259,034	-16,921	-0,084	0,036
260,049	75,334	-0,123	-0,090
261,063	258,096	-0,194	-0,232
262,078	262,683	-0,121	-0,145
263,093	-200,000	-0,023	-0,113
264,107	140,188	-0,183	-0,167
265,122	-61,697	-0,247	-0,071
266,136	676,984	-0,130	-0,235
267,151	-24,342	-0,165	-0,068
268,166	150,435	-0,096	0,090
269,180	88,539	-0,100	-0,077
270,195	200,810	-0,161	-0,172
271,209	47,259	-0,159	-0,102
272,224	-108,245	-0,239	-0,035
273,239	436,969	-0,093	-0,141
274,253	-52,012	-0,233	-0,074
275,268	337,772	-0,208	-0,280
276,282	19,166	-0,304	-0,168
277,297	-200,000	-0,068	-0,227
278,312	800,000	-0,095	-0,250
279,326	-63,798	-0,028	0,008
280,341	246,151	-0,132	-0,154
281,355	-200,000	-0,017	-0,094
282,370	-112,550	-0,095	-0,013
283,384	4,403	-0,254	-0,128
284,399	172,944	-0,144	-0,144
285,414	83,385	-0,194	-0,146
286,428	175,882	-0,148	-0,149
287,443	43,383	-0,064	-0,040
288,457	-156,036	-0,196	-0,008
289,472	-18,390	-0,152	-0,065
290,487	58,745	-0,147	-0,100
291,501	507,667	-0,123	-0,199
292,516	800,000	-0,074	-0,207
293,530	-5,671	-0,156	-0,073
294,545	-138,736	-0,164	0,012
295,560	-200,000	0,005	-0,184
296,574	-200,000	-0,033	-0,156
297,589	407,157	-0,098	-0,144
298,603	34,025	-0,129	-0,077
299,618	30,709	-0,250	-0,147
300,633	378,135	-0,086	-0,122
301,647	-200,000	-0,003	0,011
302,662	561,487	-0,086	-0,145
303,676	-68,344	-0,092	0,024
304,691	78,130	-0,075	-0,055
305,706	104,683	-0,171	-0,139
306,720	15,699	-0,236	-0,128
307,735	101,634	-0,067	-0,054
308,749	312,880	-0,129	-0,168
309,764	-54,283	-0,137	-0,043
310,779	41,553	-0,207	-0,129
311,793	-104,053	-0,134	0,021
312,808	239,508	-0,157	-0,180
313,822	-121,430	-0,104	0,012
314,837	99,064	-0,200	-0,159
315,852	102,076	-0,204	-0,164
316,866	800,000	-0,027	-0,063
317,881	800,000	-0,083	-0,171
318,895	-101,924	-0,151	0,025
319,910	231,724	-0,133	-0,150
320,925	800,000	-0,059	-0,130
321,939	800,000	-0,063	-0,152
322,954	37,263	-0,110	-0,067
323,968	-4,663	-0,151	-0,072
324,983	-101,216	-0,149	-0,025
325,997	-200,000	-0,042	-0,189
327,012	-7,116	-0,251	-0,117
328,027	370,341	-0,142	-0,198
329,041	-200,000	-0,044	-0,144
330,056	123,681	-0,131	-0,113
331,070	118,564	-0,061	0,052
332,085	-116,819	-0,172	0,021
333,100	800,000	-0,044	-0,098
334,114	368,793	-0,079	-0,110
335,129	176,446	-0,205	-0,205
336,143	127,586	-0,133	-0,116
337,158	254,218	-0,095	-0,112
338,173	-200,000	-0,037	-0,178
339,187	-68,177	-0,096	-0,026
340,202	-109,863	-0,157	0,022
341,216	800,000	-0,092	-0,186
342,231	800,000	-0,064	-0,129
343,246	-40,194	-0,192	-0,068
344,260	-69,792	-0,118	0,031
345,275	-168,174	-0,119	-0,003
346,289	-133,239	-0,142	0,012
347,304	-97,544	-0,094	0,017
348,319	40,207	-0,130	-0,080
349,333	800,000	-0,030	0,059
350,348	157,209	-0,093	-0,089
351,362	8,156	-0,082	-0,042
352,377	169,950	-0,127	-0,125
353,392	-106,028	-0,145	-0,022
354,406	48,996	-0,127	0,082
355,421	208,610	1316,000	1415,969
356,435	160,520	1476,912	1416,487
