DTS Sentinel unit serial number:	SN410029Multiplexer serial number:	ORYXHardware model number:	OX2-SRSoftware version number:	ORYX F/W v4,00 Oryx Data Collector v3.7.2.0data status	okinstallation	B3 Nyhavnadifferential loss correction	single-endedforward channel	channel 1reverse channel	N/Adate	2023/11/29time	03:57:30forward acquisition time	300,00reverse acquisition time	0,00gamma	499,1914k internal	0,3211k external	0,3211temperature offset calibration	1,0000default loss term (dB/km)	0,3820temperature slope calibration	1,0000multiplexer offset coefficient	1,0000multiplexer slope coefficient	1,0000fibre end	0,00T internal ref (°C)	9,40T ext. ref 1 (°C)	-5,99T ext. ref 2 (°C)	-6,09length (m)	temperature (°C)	Stokes	anti-Stokes-744,400	189,944	-0,242	-0,264
-743,385	-200,000	0,079	0,320
-742,371	-27,236	-0,168	-0,070
-741,356	-200,000	-0,029	0,321
-740,342	183,613	-0,134	-0,144
-739,327	800,000	-0,093	0,269
-738,312	286,230	-0,174	-0,228
-737,298	-200,000	-0,018	0,311
-736,283	67,464	-0,205	-0,152
-735,269	800,000	-0,102	0,207
-734,254	116,485	-0,140	-0,124
-733,239	-83,025	-0,273	0,063
-732,225	-200,000	-0,065	-0,223
-731,210	567,161	0,105	0,185
-730,196	-200,000	-0,011	-0,075
-729,181	800,000	-0,087	0,188
-728,167	-18,318	-0,065	0,029
-727,152	-200,000	-0,003	0,051
-726,137	-200,000	-0,015	-0,078
-725,123	158,533	-0,110	-0,111
-724,108	351,182	-0,052	-0,075
-723,094	-200,000	0,000	-0,047
-722,079	422,001	-0,102	-0,158
-721,064	-200,000	-0,006	0,038
-720,050	765,991	0,040	0,080
-719,035	-200,000	-0,009	0,161
-718,021	-51,239	0,178	0,060
-717,006	-154,004	-0,189	0,009
-715,991	-65,096	-0,210	0,061
-714,977	-200,000	-0,004	-0,111
-713,962	499,904	-0,023	0,039
-712,948	-200,000	0,042	0,213
-711,933	371,576	0,133	0,197
-710,918	27,536	-0,198	-0,120
-709,904	-200,000	0,018	-0,145
-708,889	471,839	-0,030	-0,049
-707,875	305,644	-0,064	-0,086
-706,860	74,910	0,027	-0,021
-705,845	-200,000	0,008	0,062
-704,831	-200,000	0,017	0,099
-703,816	578,804	-0,100	0,177
-702,802	225,522	-0,046	-0,054
-701,787	180,844	-0,065	-0,069
-700,772	800,000	0,063	0,140
-699,758	-26,146	-0,114	-0,048
-698,743	800,000	0,055	0,112
-697,729	122,297	-0,066	0,059
-696,714	105,570	-0,084	0,072
-695,699	202,444	0,073	0,082
-694,685	-30,283	-0,098	0,040
-693,670	-200,000	0,030	-0,136
-692,656	-200,000	-0,018	-0,107
-691,641	499,962	-0,059	-0,099
-690,627	-200,000	-0,016	0,062
-689,612	-200,000	0,023	0,176
-688,597	257,798	-0,067	0,083
-687,583	-11,401	-0,033	-0,016
-686,568	129,644	0,040	0,037
-685,554	187,370	-0,005	-0,005
-684,539	-200,000	-0,006	0,101
-683,524	-155,152	0,129	-0,006
-682,510	-200,000	-0,019	0,131
-681,495	-52,402	0,112	0,037
-680,481	6,905	-0,078	-0,042
-679,466	800,000	0,040	0,115
-678,451	23,054	-0,019	-0,011
-677,437	86,857	-0,105	-0,084
-676,422	-191,619	0,077	-0,001
-675,408	-71,145	-0,062	0,017
-674,393	12,745	0,023	0,013
-673,378	328,172	-0,096	-0,133
-672,364	168,968	-0,116	-0,120
-671,349	331,095	0,060	-0,083
-670,335	-130,335	-0,100	0,010
-669,320	128,160	0,092	-0,084
-668,305	-61,893	0,086	-0,026
-667,291	231,335	0,047	0,056
-666,276	-200,000	0,008	-0,083
-665,262	-2,728	-0,017	-0,008
-664,247	800,000	0,037	-0,109
-663,232	23,057	0,073	0,043
-662,218	-27,488	0,037	-0,016
-661,203	-200,000	0,017	0,084
-660,189	-200,000	-0,018	0,087
-659,174	491,961	-0,096	-0,159
-658,159	176,033	-0,154	-0,162
-657,145	800,000	0,056	0,115
-656,130	-26,131	-0,122	0,052
-655,116	-200,000	0,042	-0,176
-654,101	-116,009	0,167	0,022
-653,086	0,236	-0,056	0,029
-652,072	-65,518	0,149	0,043
-651,057	146,339	-0,078	-0,075
-650,043	-200,000	0,033	-0,120
-649,028	-200,000	-0,002	0,069
-648,014	227,532	-0,065	0,076
-646,999	800,000	-0,042	0,113
-645,984	289,206	0,039	-0,052
-644,970	-47,578	-0,032	-0,011
-643,955	0,011	0,085	0,044
-642,941	106,104	-0,097	-0,083
-641,926	-1,852	0,154	-0,078
-640,911	800,000	0,041	0,105
-639,897	645,829	0,063	0,117
-638,882	89,892	0,005	0,004
-637,868	-164,657	-0,078	-0,002
-636,853	64,263	0,015	-0,011
-635,838	120,100	-0,047	0,042
-634,824	800,000	-0,003	0,007
-633,809	-200,000	-0,037	-0,127
-632,795	60,681	0,071	0,051
-631,780	-159,837	-0,014	-0,001
-630,765	423,953	-0,033	-0,051
-629,751	176,708	-0,063	0,066
-628,736	-200,000	0,003	0,060
-627,722	146,619	0,017	-0,016
-626,707	62,747	0,061	-0,044
-625,692	800,000	0,045	0,142
-624,678	9,574	0,121	0,066
-623,663	223,716	0,080	-0,093
-622,649	139,173	0,015	-0,014
-621,634	-9,358	-0,217	-0,104
-620,619	-153,625	-0,112	0,005
-619,605	800,000	-0,029	-0,082
-618,590	800,000	0,012	0,034
-617,576	174,212	0,095	0,099
-616,561	-86,431	0,064	-0,014
-615,546	-12,219	-0,071	-0,034
-614,532	800,000	-0,080	-0,172
-613,517	315,234	-0,047	0,064
-612,503	-200,000	-0,004	-0,063
-611,488	568,347	-0,075	-0,133
-610,474	-200,000	0,017	0,089
-609,459	284,807	-0,021	-0,027
-608,444	-144,531	-0,149	0,010
-607,430	-178,033	0,039	0,001
-606,415	-68,555	-0,165	-0,046
-605,401	-54,958	-0,139	0,045
-604,386	447,541	0,088	-0,141
-603,371	63,518	-0,118	0,085
-602,357	-55,966	-0,107	-0,034
-601,342	-78,870	-0,062	0,015
-600,328	197,483	-0,035	0,038
-599,313	-200,000	-0,017	-0,073
-598,298	-200,000	0,006	0,133
-597,284	230,329	0,069	-0,082
-596,269	-14,953	0,074	0,034
-595,255	466,951	0,009	0,014
-594,240	340,468	-0,015	-0,021
-593,225	30,397	-0,103	-0,064
-592,211	-89,439	-0,102	-0,022
-591,196	47,981	0,061	0,041
-590,182	88,975	-0,121	0,097
-589,167	-200,000	-0,005	0,206
-588,152	78,467	-0,104	-0,080
-587,138	420,600	0,010	0,015
-586,123	-84,780	-0,045	0,010
-585,109	141,804	-0,047	-0,045
-584,094	232,504	-0,094	-0,111
-583,079	288,402	0,053	-0,069
-582,065	800,000	0,070	0,161
-581,050	-60,148	-0,135	-0,041
-580,036	-162,526	0,048	-0,002
-579,021	519,464	0,068	-0,116
-578,006	443,941	0,047	-0,075
-576,992	-13,955	0,154	0,071
-575,977	400,257	0,048	-0,073
-574,963	371,684	0,047	0,068
-573,948	-108,122	-0,074	-0,011
-572,934	-80,549	-0,144	-0,034
-571,919	200,112	-0,082	0,091
-570,904	38,490	-0,032	-0,020
-569,890	-115,933	0,048	-0,006
-568,875	-200,000	0,034	0,115
-567,861	227,401	-0,042	0,050
-566,846	16,116	-0,079	0,045
-565,831	-87,746	0,030	0,007
-564,817	-200,000	-0,005	0,049
-563,802	134,057	0,072	0,067
-562,788	53,603	-0,059	0,041
-561,773	-134,430	-0,111	0,010
-560,758	800,000	-0,038	-0,084
-559,744	-80,050	0,022	-0,005
-558,729	-200,000	-0,006	0,081
-557,715	78,006	0,075	0,058
-556,700	-103,915	0,107	0,018
-555,685	800,000	0,017	0,041
-554,671	154,154	0,105	0,104
-553,656	-200,000	0,019	0,076
-552,642	43,969	0,019	0,012
-551,627	202,034	0,037	-0,041
-550,612	-200,000	0,007	-0,046
-549,598	800,000	-0,026	-0,053
-548,583	-102,662	-0,058	0,010
-547,569	202,035	-0,045	0,050
-546,554	-200,000	-0,011	0,064
-545,539	-64,543	-0,054	-0,016
-544,525	147,001	0,026	-0,025
-543,510	-6,726	-0,170	0,083
-542,496	-144,804	-0,078	0,005
-541,481	632,269	-0,083	-0,151
-540,466	800,000	-0,052	-0,153
-539,452	36,341	0,093	0,059
-538,437	-12,801	0,073	0,034
-537,423	379,365	0,099	0,146
-536,408	99,519	-0,061	0,051
-535,393	186,161	0,038	0,041
-534,379	313,169	0,030	0,041
-533,364	69,673	-0,055	0,041
-532,350	186,289	-0,016	-0,017
-531,335	-200,000	0,001	0,016
-530,321	800,000	-0,053	-0,144
-529,306	155,881	0,051	-0,050
-528,291	800,000	-0,033	-0,080
-527,277	7,589	-0,053	0,028
-526,262	110,157	-0,015	0,013
-525,248	-200,000	-0,023	0,086
-524,233	-200,000	0,013	0,048
-523,218	-118,445	-0,067	0,008
-522,204	-200,000	0,000	0,055
-521,189	199,236	-0,079	0,088
-520,175	-200,000	-0,014	-0,096
-519,160	-61,715	-0,028	-0,008
-518,145	-112,082	0,104	0,015
-517,131	800,000	-0,034	0,092
-516,116	-200,000	0,004	0,122
-515,102	-64,836	-0,100	0,029
-514,087	800,000	-0,018	-0,050
-513,072	-200,000	0,006	-0,030
-512,058	-200,000	-0,007	-0,050
-511,043	-200,000	-0,034	-0,138
-510,029	512,610	0,041	0,068
-509,014	334,697	0,028	-0,040
-507,999	-64,320	0,022	0,006
-506,985	-137,078	0,109	-0,009
-505,970	-131,122	0,049	0,005
-504,956	197,805	-0,100	-0,110
-503,941	-71,920	0,100	0,027
-502,926	238,306	0,021	-0,025
-501,912	800,000	-0,034	0,092
-500,897	45,122	0,134	0,089
-499,883	-200,000	0,021	-0,149
-498,868	112,814	-0,030	-0,026
-497,853	4,700	0,103	0,054
-496,839	-200,000	0,016	0,127
-495,824	-23,788	0,104	0,044
-494,810	-13,564	0,048	-0,022
-493,795	-200,000	0,018	0,062
-492,781	-200,000	-0,033	-0,145
-491,766	219,387	0,022	0,025
-490,751	-25,857	-0,035	0,015
-489,737	358,513	-0,065	-0,093
-488,722	411,658	0,078	0,120
-487,708	-200,000	-0,016	0,081
-486,693	766,612	-0,063	0,124
-485,678	-200,000	-0,014	0,047
-484,664	209,366	0,017	0,019
-483,649	800,000	0,005	-0,012
-482,635	92,688	0,079	0,064
-481,620	11,351	-0,051	0,028
-480,605	33,474	0,134	0,083
-479,591	800,000	-0,060	0,180
-478,576	-40,206	-0,079	-0,030
-477,562	29,049	0,041	0,025
-476,547	-135,658	-0,096	-0,008
-475,532	126,057	0,061	-0,056
-474,518	-200,000	-0,060	0,191
-473,503	517,493	0,031	0,053
-472,489	-200,000	0,011	-0,052
-471,474	250,303	-0,071	0,087
-470,459	-200,000	-0,013	0,049
-469,445	-32,761	0,068	-0,027
-468,430	-34,046	-0,150	-0,059
-467,416	176,934	-0,045	-0,047
-466,401	127,430	0,094	-0,086
-465,386	-96,510	-0,048	-0,009
-464,372	-46,958	-0,094	-0,033
-463,357	7,798	-0,116	0,062
-462,343	800,000	-0,039	-0,100
-461,328	4,983	0,098	0,052
-460,313	189,294	0,050	-0,054
-459,299	-132,430	0,120	-0,011
-458,284	-46,349	-0,012	-0,004
-457,270	-200,000	0,023	0,120
-456,255	-200,000	0,028	-0,141
-455,241	-156,179	0,044	-0,002
-454,226	-55,973	-0,142	0,045
-453,211	15,629	0,105	-0,059
-452,197	-200,000	-0,007	-0,110
-451,182	190,920	-0,072	0,077
-450,168	-31,848	0,076	-0,030
-449,153	-66,926	-0,137	-0,039
-448,138	800,000	-0,056	-0,176
-447,124	-38,506	0,093	-0,035
-446,109	75,323	-0,011	0,008
-445,095	47,442	0,130	0,086
-444,080	75,239	-0,028	0,021
-443,065	-200,000	-0,007	-0,042
-442,051	-188,474	-0,007	0,000
-441,036	-152,751	-0,058	0,003
-440,022	800,000	0,018	-0,039
-439,007	369,096	0,035	-0,051
-437,992	-107,565	0,111	-0,017
-436,978	800,000	-0,037	0,091
-435,963	800,000	0,033	0,071
-434,949	139,813	0,106	0,100
-433,934	-200,000	0,003	-0,053
-432,919	418,558	0,021	0,032
-431,905	79,198	-0,109	-0,084
-430,890	380,836	0,088	-0,129
-429,876	680,272	-0,031	0,059
-428,861	-200,000	-0,013	0,094
-427,846	800,000	-0,031	0,096
-426,832	251,174	-0,090	-0,110
-425,817	-200,000	0,003	-0,134
-424,803	-98,874	0,162	-0,029
-423,788	242,144	-0,071	-0,085
-422,773	280,320	0,054	-0,069
-421,759	118,262	-0,100	0,088
-420,744	28,415	-0,144	-0,087
-419,730	-200,000	0,017	0,114
-418,715	-200,000	-0,008	0,000
-417,701	-200,000	-0,022	-0,092
-416,686	-54,959	-0,035	0,011
-415,671	-131,517	0,092	0,009
-414,657	134,752	0,036	-0,034
-413,642	-200,000	-0,007	0,094
-412,628	100,042	0,141	-0,117
-411,613	-55,983	-0,087	0,028
-410,598	-125,047	-0,107	-0,012
-409,584	-134,422	0,065	-0,006
-408,569	180,039	0,035	-0,037
-407,555	-116,053	0,081	0,011
-406,540	121,644	0,071	-0,063
-405,525	-177,711	0,233	-0,004
-404,511	-133,267	0,073	0,006
-403,496	-9,066	0,159	-0,076
-402,482	-200,000	-0,008	0,074
-401,467	-200,000	0,002	0,053
-400,452	129,838	0,071	0,065
-399,438	71,118	0,010	-0,007
-398,423	118,531	-0,034	0,030
-397,409	-200,000	0,018	0,117
-396,394	-104,946	-0,153	0,025
-395,379	-154,215	0,060	0,003
-394,365	533,151	0,065	0,110
-393,350	800,000	-0,035	0,104
-392,336	51,051	-0,114	-0,078
-391,321	143,211	0,103	-0,098
-390,306	350,588	-0,049	-0,069
-389,292	-84,093	-0,078	-0,018
-388,277	542,292	0,072	-0,124
-387,263	-43,397	0,110	-0,040
-386,248	-127,366	-0,067	0,007
-385,233	492,904	-0,072	0,119
-384,219	322,901	-0,052	0,071
-383,204	-142,205	0,052	-0,004
-382,190	-200,000	-0,041	-0,141
-381,175	800,000	0,018	-0,056
-380,160	517,453	-0,025	0,042
-379,146	-200,000	0,030	0,098
-378,131	97,313	0,092	0,076
-377,117	31,009	-0,124	0,076
-376,102	210,595	0,095	-0,107
-375,088	800,000	0,015	-0,043
-374,073	195,297	0,056	-0,061
-373,058	-200,000	-0,041	-0,207
-372,044	-179,489	0,127	0,002
-371,029	-25,895	0,016	0,007
-370,015	-99,362	-0,054	0,010
-369,000	86,065	-0,031	0,024
-367,985	97,946	-0,146	-0,120
-366,971	65,328	-0,048	-0,035
-365,956	-200,000	-0,006	0,152
-364,942	-200,000	0,017	0,168
-363,927	-162,824	0,022	-0,001
-362,912	800,000	-0,033	0,067
-361,898	-125,481	-0,122	0,013
-360,883	765,153	-0,015	-0,029
-359,869	9,498	-0,178	-0,096
-358,854	186,830	0,091	0,097
-357,839	-37,433	0,065	0,025
-356,825	30,372	-0,075	0,046
-355,810	-108,808	0,058	-0,009
-354,796	-116,730	0,024	0,003
-353,781	-200,000	0,008	-0,152
-352,766	-49,256	-0,103	-0,035
-351,752	-48,828	-0,082	-0,028
-350,737	224,908	0,125	0,144
-349,723	278,167	0,039	0,050
-348,708	246,038	0,055	-0,066
-347,693	29,527	-0,059	0,036
-346,679	472,844	-0,067	-0,109
-345,664	-200,000	-0,016	-0,160
-344,650	66,745	-0,145	-0,105
-343,635	16,984	-0,043	0,024
-342,620	800,000	0,037	0,087
-341,606	116,664	0,085	0,074
-340,591	-200,000	-0,003	-0,046
-339,577	-114,616	0,088	0,012
-338,562	738,739	0,091	-0,176
-337,548	-54,995	0,115	-0,037
-336,533	54,902	0,107	0,073
-335,518	-200,000	-0,003	0,112
-334,504	24,713	0,085	0,050
-333,489	-200,000	-0,013	-0,080
-332,475	800,000	-0,066	-0,189
-331,460	-200,000	-0,008	-0,121
-330,445	711,786	-0,020	0,038
-329,431	189,207	0,073	-0,078
-328,416	-200,000	-0,001	-0,039
-327,402	-200,000	-0,009	0,033
-326,387	-75,566	0,022	-0,005
-325,372	111,006	-0,119	-0,102
-324,358	635,033	-0,027	0,048
-323,343	-157,744	-0,153	-0,006
-322,329	142,044	0,104	-0,099
-321,314	800,000	0,053	0,117
-320,299	-200,000	-0,022	-0,072
-319,285	800,000	-0,015	0,037
-318,270	800,000	0,034	-0,086
-317,256	-19,931	0,059	0,026
-316,241	-24,765	-0,166	0,070
-315,226	727,941	0,077	-0,146
-314,212	46,255	0,102	0,067
-313,197	-121,833	0,020	-0,002
-312,183	236,024	0,027	-0,032
-311,168	800,000	-0,039	0,094
-310,153	-200,000	0,009	0,048
-309,139	-88,608	-0,034	0,007
-308,124	800,000	-0,021	0,054
-307,110	788,666	0,033	0,066
-306,095	799,374	0,001	-0,002
-305,080	-86,844	-0,100	-0,022
-304,066	-169,141	-0,044	0,001
-303,051	-114,147	-0,008	-0,001
-302,037	85,817	-0,049	0,038
-301,022	800,000	-0,006	-0,016
-300,008	-56,192	0,061	-0,019
-298,993	122,088	0,108	0,096
-297,978	237,805	0,026	-0,031
-296,964	-50,527	-0,206	-0,069
-295,949	-200,000	-0,021	-0,129
-294,935	-200,000	0,008	-0,059
-293,920	572,603	0,016	0,028
-292,905	-72,930	0,128	-0,033
-291,891	149,697	0,136	-0,131
-290,876	-200,000	-0,006	-0,071
-289,862	-200,000	0,027	-0,179
-288,847	-200,000	-0,016	-0,055
-287,832	311,039	0,135	-0,181
-286,818	318,491	-0,037	-0,050
-285,803	-143,611	0,098	0,007
-284,789	-70,406	0,038	-0,010
-283,774	800,000	0,053	0,106
-282,759	-116,628	0,164	-0,021
-281,745	800,000	-0,016	-0,047
-280,730	-53,113	-0,091	-0,029
-279,716	206,450	0,059	0,065
-278,701	646,984	0,103	0,189
-277,686	800,000	-0,016	0,047
-276,672	163,576	0,017	0,017
-275,657	-200,000	-0,017	0,119
-274,643	-127,809	-0,143	-0,014
-273,628	-55,496	0,120	-0,038
-272,613	800,000	-0,037	-0,083
-271,599	-64,729	0,103	0,029
-270,584	800,000	0,045	0,108
-269,570	33,774	0,101	-0,063
-268,555	800,000	-0,010	0,028
-267,540	-174,027	-0,135	0,003
-266,526	-200,000	0,018	-0,172
-265,511	800,000	-0,018	0,051
-264,497	167,921	0,126	0,128
-263,482	800,000	-0,040	0,094
-262,467	120,571	-0,048	0,042
-261,453	61,261	0,048	-0,034
-260,438	173,748	-0,091	0,094
-259,424	-200,000	0,002	-0,041
-258,409	104,391	0,127	-0,106
-257,395	205,177	0,111	0,123
-256,380	800,000	-0,010	-0,025
-255,365	800,000	-0,044	0,134
-254,351	-129,085	0,150	-0,015
-253,336	104,388	-0,139	-0,117
-252,322	189,864	-0,056	-0,060
-251,307	-54,875	-0,010	0,003
-250,292	-72,246	-0,087	0,023
-249,278	51,659	0,092	0,062
-248,263	-200,000	0,024	0,106
-247,249	-200,000	0,005	-0,094
-246,234	282,307	-0,084	-0,108
-245,219	246,812	0,117	-0,141
-244,205	-200,000	0,028	-0,116
-243,190	572,621	0,040	0,069
-242,176	-86,569	0,092	0,020
-241,161	-113,202	-0,038	0,005
-240,146	-51,560	-0,067	-0,022
-239,132	51,941	-0,144	-0,097
-238,117	295,053	-0,032	-0,042
-237,103	-200,000	0,027	-0,087
-236,088	-200,000	0,013	-0,107
-235,073	-87,538	-0,022	0,005
-234,059	800,000	-0,046	0,100
-233,044	800,000	0,053	0,108
-232,030	-200,000	-0,034	0,116
-231,015	-36,768	-0,104	-0,039
-230,000	29,916	-0,114	-0,069
-228,986	-93,743	-0,102	-0,020
-227,971	118,388	0,119	0,104
-226,957	800,000	-0,036	0,095
-225,942	800,000	-0,021	0,059
-224,927	-200,000	0,007	-0,033
-223,913	800,000	-0,044	-0,132
-222,898	-200,000	0,004	-0,115
-221,884	166,489	0,047	0,047
-220,869	800,000	-0,058	0,119
-219,855	-39,794	0,090	-0,033
-218,840	-200,000	-0,057	-0,204
-217,825	800,000	-0,029	-0,079
-216,811	-68,270	0,039	0,011
-215,796	39,899	0,114	-0,073
-214,782	-16,665	-0,075	-0,034
-213,767	110,944	0,020	-0,017
-212,752	378,876	0,032	0,047
-211,738	-2,898	0,113	0,056
-210,723	80,976	-0,058	-0,044
-209,709	-107,666	-0,177	0,027
-208,694	38,305	0,130	0,082
-207,679	200,135	-0,038	0,042
-206,665	262,719	0,060	0,074
-205,650	-53,104	-0,077	0,025
-204,636	136,393	-0,143	0,132
-203,621	-200,000	0,018	0,087
-202,606	163,740	-0,078	0,078
-201,592	47,623	0,106	0,070
-200,577	-72,862	0,083	-0,022
-199,563	800,000	0,034	-0,092
-198,548	-45,196	0,083	0,029
-197,533	-200,000	0,009	0,140
-196,519	-200,000	-0,035	0,142
-195,504	-31,312	0,059	0,024
-194,490	-125,444	-0,081	-0,009
-193,475	96,648	-0,031	-0,025
-192,460	-99,799	0,078	-0,014
-191,446	183,465	0,072	0,076
-190,431	-200,000	-0,021	0,171
-189,417	-200,000	0,005	0,031
-188,402	19,611	0,069	-0,039
-187,387	-200,000	-0,024	-0,089
-186,373	-64,698	-0,089	-0,025
-185,358	-25,834	-0,085	0,035
-184,344	591,768	0,023	-0,041
-183,329	-150,893	0,088	0,005
-182,315	13,377	0,190	-0,104
-181,300	800,000	-0,027	0,067
-180,285	7,137	-0,131	-0,069
-179,271	161,066	0,102	-0,101
-178,256	70,089	0,076	0,056
-177,242	30,233	-0,141	-0,085
-176,227	-200,000	0,005	-0,020
-175,212	-104,250	0,130	-0,021
-174,198	800,000	-0,038	0,094
-173,183	70,870	-0,127	-0,093
-172,169	358,751	-0,122	-0,173
-171,154	-3,841	-0,093	-0,045
-170,139	-131,446	-0,093	-0,009
-169,125	-200,000	0,039	0,142
-168,110	-51,543	0,101	-0,033
-167,096	-113,174	-0,024	-0,003
-166,081	-134,808	0,213	-0,018
-165,066	-200,000	-0,011	-0,068
-164,052	214,130	-0,071	-0,079
-163,037	294,193	-0,071	0,092
-162,023	-166,560	0,245	0,007
-161,008	614,127	-0,029	-0,052
-159,993	122,162	-0,008	0,007
-158,979	-59,360	-0,015	0,004
-157,964	89,876	-0,033	-0,026
-156,950	-200,000	0,018	0,058
-155,935	-101,179	0,030	-0,005
-154,920	517,209	-0,009	0,015
-153,906	755,747	-0,029	-0,056
-152,891	450,920	-0,031	0,048
-151,877	-200,000	0,024	0,151
-150,862	104,754	-0,100	0,083
-149,847	76,351	-0,044	-0,033
-148,833	800,000	-0,023	0,067
-147,818	137,882	0,130	0,120
-146,804	-200,000	0,003	-0,067
-145,789	223,872	0,107	0,123
-144,775	-200,000	-0,027	-0,084
-143,760	-200,000	-0,019	-0,100
-142,745	14,212	-0,027	0,015
-141,731	-146,110	0,171	-0,011
-140,716	-19,078	0,044	0,019
-139,702	-200,000	-0,003	0,115
-138,687	34,277	0,079	-0,049
-137,672	87,614	-0,058	0,045
-136,658	-200,000	-0,006	0,053
-135,643	-108,824	0,092	-0,014
-134,629	-200,000	-0,007	0,143
-133,614	356,668	-0,086	0,122
-132,599	260,042	0,014	-0,017
-131,585	166,169	-0,060	0,060
-130,570	-200,000	-0,015	0,059
-129,556	-125,343	-0,081	0,009
-128,541	146,994	0,058	-0,056
-127,526	18,430	-0,054	0,031
-126,512	32,759	-0,108	0,066
-125,497	103,500	0,072	-0,060
-124,483	-133,170	-0,153	0,013
-123,468	-103,979	0,192	-0,031
-122,453	-200,000	0,006	0,024
-121,439	-13,252	-0,030	0,014
-120,424	47,806	-0,111	-0,073
-119,410	-7,677	0,059	-0,028
-118,395	800,000	0,033	-0,069
-117,380	67,911	0,056	0,041
-116,366	339,228	0,018	0,025
-115,351	139,975	0,074	0,069
-114,337	416,358	0,060	-0,091
-113,322	721,269	0,030	-0,056
-112,307	232,786	0,044	0,052
-111,293	-2,261	0,065	-0,032
-110,278	9,490	0,170	0,091
-109,264	-200,000	0,024	0,077
-108,249	-60,411	-0,086	0,026
-107,234	-169,875	-0,254	0,006
-106,220	800,000	0,024	0,070
-105,205	-200,000	-0,032	0,110
-104,191	800,000	0,053	0,113
-103,176	-130,470	0,046	-0,004
-102,162	-19,738	-0,123	0,054
-101,147	35,998	-0,031	-0,019
-100,132	-9,298	-0,063	0,030
-99,118	800,000	0,012	0,034
-98,103	737,145	0,044	-0,085
-97,089	-200,000	-0,009	0,108
-96,074	128,463	-0,124	0,112
-95,059	-39,477	0,035	-0,013
-94,045	-75,822	0,075	-0,019
-93,030	800,000	0,023	0,052
-92,016	43,519	-0,073	-0,047
-91,001	-101,787	0,091	-0,015
-89,986	-94,137	0,047	0,009
-88,972	-28,438	0,221	0,090
-87,957	208,280	-0,087	-0,096
-86,943	237,120	0,026	0,030
-85,928	-200,000	0,027	-0,122
-84,913	444,663	0,077	0,119
-83,899	-45,314	-0,111	0,039
-82,884	-13,773	0,127	0,058
-81,870	160,203	0,043	0,043
-80,855	-2,923	-0,091	-0,045
-79,840	-95,929	-0,057	-0,011
-78,826	-99,201	-0,139	-0,025
-77,811	-90,842	-0,069	0,014
-76,797	-91,328	-0,185	-0,037
-75,782	-87,531	0,199	0,042
-74,767	-139,725	0,062	0,005
-73,753	-118,608	-0,109	-0,013
-72,738	446,360	0,105	-0,163
-71,724	70,523	-0,113	0,082
-70,709	182,591	-0,009	-0,010
-69,694	122,786	-0,061	-0,054
-68,680	496,856	0,028	0,045
-67,665	264,936	0,104	-0,128
-66,651	48,790	0,077	-0,051
-65,636	12,482	-0,118	0,064
-64,622	304,146	-0,087	0,114
-63,607	-95,490	-0,152	-0,029
-62,592	-3,051	0,122	0,060
-61,578	-16,385	0,098	-0,044
-60,563	-98,829	0,176	-0,031
-59,549	-100,484	0,111	-0,019
-58,534	39,095	-2,073	-1,306
-57,519	558,749	-1,129	-1,931
-56,505	-200,000	-0,410	-4,346
-55,490	675,705	0,868	1,599
-54,476	800,000	5,133	11,214
-53,461	-200,000	21,611	341,379
-52,446	800,000	762,331	2334,359
-51,432	544,814	1659,723	2809,160
-50,417	71,065	1655,858	1209,938
-49,403	17,160	1529,511	853,747
-48,388	11,241	1453,512	782,771
-47,373	19,193	1445,056	816,244
-46,359	14,730	1434,037	788,823
-45,344	9,550	1429,918	761,931
-44,330	9,493	1428,186	760,706
-43,315	9,455	1426,414	759,552
-42,300	9,490	1424,473	758,653
-41,286	9,490	1423,347	758,024
-40,271	9,461	1422,150	757,218
-39,257	9,462	1421,100	756,633
-38,242	9,497	1419,868	756,117
-37,227	9,489	1418,729	755,441
-36,213	9,517	1417,573	754,925
-35,198	9,504	1416,318	754,169
-34,184	9,514	1415,373	753,682
-33,169	9,442	1414,086	752,627
-32,154	9,450	1413,156	752,141
-31,140	9,461	1411,644	751,355
-30,125	9,532	1410,598	751,104
-29,111	9,500	1409,544	750,361
-28,096	9,468	1408,338	749,541
-27,082	9,446	1406,980	748,686
-26,067	9,378	1406,289	747,971
-25,052	9,427	1405,135	747,554
-24,038	9,445	1403,969	746,992
-23,023	9,422	1403,251	746,470
-22,009	9,461	1401,958	745,937
-20,994	9,439	1401,018	745,304
-19,979	9,417	1400,249	744,761
-18,965	9,376	1399,209	743,987
-17,950	9,351	1398,311	743,367
-16,936	9,353	1397,636	742,985
-15,921	9,340	1396,666	742,382
-14,906	9,361	1395,429	741,792
-13,892	9,434	1394,512	741,612
-12,877	9,357	1393,836	740,867
-11,863	9,379	1392,978	740,483
-10,848	9,336	1392,060	739,765
-9,833	9,281	1391,090	738,969
-8,819	9,210	1390,216	738,146
-7,804	9,216	1389,488	737,756
-6,790	9,243	1388,217	737,177
-5,775	9,233	1387,371	736,652
-4,760	9,244	1386,368	736,143
-3,746	9,255	1385,451	735,675
-2,731	9,271	1384,375	735,150
-1,717	9,237	1383,528	734,515
-0,702	9,202	1382,067	733,551
0,313	13,420	1294,202	706,088
1,327	29,568	685,573	410,420
2,342	45,982	118,190	77,011
3,356	-0,687	16,532	8,240
4,371	8,088	3,634	1,918
5,386	1,609	1,096	0,555
6,400	766,318	0,329	0,634
7,415	-3,397	-0,093	-0,045
8,429	166,550	-0,219	-0,219
9,444	24,444	-0,341	-0,198
10,459	-34,479	-0,234	-0,090
11,473	64,657	-0,326	-0,232
12,488	-77,256	-0,291	-0,071
13,502	-124,082	-0,306	-0,033
14,517	189,282	-0,293	-0,310
15,531	120,869	-0,271	-0,238
16,546	41,924	-0,225	-0,144
17,561	0,548	-0,361	-0,181
18,575	33,115	-0,224	-0,137
19,590	164,338	-0,138	-0,137
20,604	40,716	-0,327	-0,207
21,619	75,540	-0,464	-0,345
22,634	69,418	-0,473	-0,343
23,648	27,968	-0,395	-0,234
24,663	106,069	-0,472	-0,393
25,677	59,615	-0,425	-0,294
26,692	140,205	-0,267	-0,248
27,707	57,791	-0,263	-0,181
28,721	-51,539	-0,450	-0,147
29,736	101,588	-0,393	-0,322
30,750	73,520	-0,447	-0,329
31,765	226,002	-0,392	-0,448
32,780	17,178	-0,486	-0,270
33,794	554,739	-0,217	-0,369
34,809	-18,576	-0,388	-0,169
35,823	17,910	-0,422	-0,236
36,838	182,183	-0,349	-0,362
37,853	85,974	-0,348	-0,269
38,867	81,236	-0,406	-0,308
39,882	54,757	-0,389	-0,263
40,896	-59,532	-0,267	-0,080
41,911	-37,814	-0,439	-0,163
42,926	144,802	-0,327	-0,307
43,940	179,318	-0,306	-0,315
44,955	187,819	-0,310	-0,325
45,969	186,965	-0,286	-0,299
46,984	96,822	-0,409	-0,329
47,999	166,090	-0,347	-0,346
49,013	35,817	-0,252	-0,155
50,028	158,979	-0,268	-0,261
51,042	16,638	-0,320	-0,177
52,057	177,335	-0,232	-0,238
53,071	-92,763	-0,327	-0,064
54,086	41,993	-0,295	-0,187
55,101	104,353	-0,361	-0,298
56,115	63,898	-0,255	-0,180
57,130	1,848	-0,394	-0,199
58,144	-38,139	-0,345	-0,128
59,159	56,573	-0,398	-0,271
60,174	-18,512	-0,477	-0,208
61,188	79,850	-0,274	-0,206
62,203	274,118	-0,200	-0,249
63,217	27,609	-0,262	-0,154
64,232	320,947	-0,155	-0,207
65,247	-26,829	-0,350	-0,143
66,261	236,448	-0,283	-0,329
67,276	-80,417	-0,275	-0,064
68,290	50,459	-0,335	-0,222
69,305	113,292	-0,289	-0,246
70,320	-62,234	-0,333	-0,097
71,334	68,570	-0,225	-0,161
72,349	-51,516	-0,393	-0,128
73,363	-101,461	-0,324	-0,055
74,378	-41,592	-0,309	-0,111
75,393	91,858	-0,330	-0,260
76,407	-96,610	-0,313	-0,057
77,422	76,821	-0,269	-0,200
78,436	179,202	-0,306	-0,314
79,451	-14,011	-0,265	-0,119
80,466	-65,910	-0,375	-0,104
81,480	-11,411	-0,311	-0,143
82,495	114,570	-0,110	-0,094
83,509	163,345	-0,204	-0,201
84,524	341,637	-0,110	-0,150
85,539	-79,316	-0,293	-0,069
86,553	-57,206	-0,248	-0,076
87,568	-61,173	-0,282	-0,083
88,582	72,394	-0,333	-0,242
89,597	113,726	-0,369	-0,313
90,611	287,949	-0,167	-0,212
91,626	258,868	-0,178	-0,216
92,641	-3,715	-0,277	-0,134
93,655	-137,209	-0,310	-0,024
94,670	-64,967	-0,379	-0,106
95,684	172,484	-0,211	-0,212
96,699	-30,059	-0,256	-0,101
97,714	63,910	-0,165	-0,116
98,728	-71,611	-0,313	-0,081
99,743	-97,809	-0,238	-0,043
100,757	29,996	-0,247	-0,147
101,772	8,675	-0,295	-0,155
102,787	-13,900	-0,253	-0,114
103,801	87,838	-0,195	-0,151
104,816	-22,861	-0,340	-0,143
105,830	-64,130	-0,303	-0,086
106,845	-115,275	-0,242	-0,032
107,860	-66,430	-0,239	-0,066
108,874	300,570	-0,226	-0,292
109,889	95,264	-0,199	-0,158
110,903	102,461	-0,111	-0,090
111,918	41,846	-0,231	-0,146
112,933	427,718	-0,099	-0,149
113,947	133,990	-0,205	-0,185
114,962	-89,336	-0,271	-0,055
115,976	-96,733	-0,305	-0,055
116,991	-57,947	-0,299	-0,091
118,006	121,617	-0,173	-0,151
119,020	-20,852	-0,381	-0,162
120,035	-40,826	-0,268	-0,096
121,049	33,817	-0,265	-0,160
122,064	216,254	-0,153	-0,170
123,079	-158,484	-0,215	-0,009
124,093	63,589	-0,181	-0,127
125,108	354,993	-0,151	-0,211
126,122	39,921	-0,240	-0,150
127,137	18,062	-0,336	-0,186
128,151	207,612	-0,129	-0,140
129,166	-15,130	-0,317	-0,141
130,181	58,660	-0,207	-0,142
131,195	73,074	-0,194	-0,142
132,210	800,000	-0,112	-0,289
133,224	10,393	-0,141	-0,075
134,239	-1,651	-0,162	-0,079
135,254	185,752	-0,082	-0,085
136,268	-126,892	-0,243	-0,025
137,283	58,676	-0,108	-0,074
138,297	-68,682	-0,309	-0,083
139,312	-27,703	-0,278	-0,112
140,327	24,160	-0,337	-0,193
141,341	36,527	-0,267	-0,164
142,356	-12,065	-0,196	-0,089
143,370	21,595	-0,199	-0,112
144,385	-51,591	-0,240	-0,078
145,400	-114,963	-0,308	-0,040
146,414	800,000	-0,147	-0,286
147,429	454,428	-0,174	-0,270
148,443	242,430	-0,161	-0,188
149,458	-21,116	-0,243	-0,103
150,473	-105,019	-0,254	-0,040
151,487	71,488	-0,235	-0,170
152,502	151,759	-0,238	-0,226
153,516	55,765	-0,163	-0,110
154,531	-39,868	-0,279	-0,101
155,546	206,668	-0,190	-0,207
156,560	48,745	-0,135	-0,088
157,575	229,602	-0,212	-0,242
158,589	-58,867	-0,317	-0,095
159,604	352,143	-0,137	-0,190
160,619	203,848	-0,223	-0,240
161,633	13,073	-0,262	-0,140
162,648	30,164	-0,148	-0,088
163,662	75,146	-0,210	-0,154
164,677	55,554	-0,315	-0,212
165,692	-160,632	-0,223	0,008
166,706	30,805	-0,269	-0,160
167,721	-65,157	-0,347	-0,097
168,735	-61,782	-0,243	-0,070
169,750	-21,187	-0,221	-0,093
170,764	70,104	-0,071	-0,051
171,779	-62,526	-0,244	-0,070
172,794	-26,543	-0,157	-0,064
173,808	62,804	-0,245	-0,170
174,823	243,901	-0,146	-0,170
175,837	41,449	-0,263	-0,165
176,852	176,122	-0,244	-0,247
177,867	-35,565	-0,207	-0,078
178,881	20,860	-0,227	-0,127
179,896	70,842	-0,195	-0,140
180,910	82,229	-0,187	-0,141
181,925	-5,943	-0,194	-0,092
182,940	-67,826	-0,174	-0,047
183,954	36,550	-0,241	-0,147
184,969	5,635	-0,174	-0,089
185,983	68,341	-0,237	-0,168
186,998	-99,220	-0,243	-0,042
188,013	149,564	-0,147	-0,138
189,027	185,861	-0,242	-0,249
190,042	70,700	-0,309	-0,222
191,056	53,072	-0,282	-0,187
192,071	230,298	-0,205	-0,233
193,086	122,870	-0,122	-0,106
194,100	-72,802	-0,273	-0,069
195,115	29,701	-0,181	-0,107
196,129	-200,000	-0,022	-0,144
197,144	467,829	-0,203	-0,317
198,159	120,222	-0,238	-0,205
199,173	-70,315	-0,264	-0,069
200,188	800,000	-0,142	-0,275
201,202	-67,960	-0,148	-0,040
202,217	229,907	-0,146	-0,166
203,232	522,666	-0,176	-0,288
204,246	91,027	-0,175	-0,136
205,261	33,499	-0,219	-0,132
206,275	-44,807	-0,183	-0,063
207,290	5,235	-0,078	-0,040
208,304	744,670	-0,080	-0,150
209,319	195,926	-0,142	-0,149
210,334	175,972	-0,189	-0,190
211,348	196,317	-0,135	-0,143
212,363	67,153	-0,100	-0,070
213,377	-55,225	-0,172	-0,053
214,392	48,718	-0,201	-0,131
215,407	-109,797	-0,084	0,012
216,421	196,645	-0,113	-0,119
217,436	-21,762	-0,240	-0,101
218,450	-7,697	-0,205	-0,096
219,465	18,119	-0,215	-0,119
220,480	-56,458	-0,142	0,043
221,494	-57,064	-0,068	-0,021
222,509	277,961	-0,147	-0,182
223,523	-144,592	-0,270	-0,017
224,538	-83,109	-0,107	-0,024
225,553	181,537	-0,163	-0,166
226,567	54,751	-0,275	-0,183
227,582	44,721	-0,228	-0,145
228,596	-28,986	-0,211	0,083
229,611	139,236	-0,132	-0,120
230,626	22,851	-0,244	-0,138
231,640	-200,000	-0,032	-0,186
232,655	51,099	-0,328	-0,215
233,669	24,540	-0,193	-0,110
234,684	60,828	-0,236	-0,161
235,699	56,027	-0,197	-0,132
236,713	35,209	-0,249	-0,151
237,728	75,131	-0,191	-0,139
238,742	66,749	-0,215	-0,151
239,757	772,371	-0,112	-0,212
240,772	202,937	-0,190	-0,203
241,786	131,924	-0,224	-0,200
242,801	653,345	-0,108	-0,191
243,815	-142,277	-0,065	-0,004
244,830	187,089	-0,124	-0,128
245,844	800,000	-0,103	-0,227
246,859	-151,500	-0,223	-0,011
247,874	-23,149	-0,181	-0,075
248,888	144,927	-0,122	-0,113
249,903	223,300	-0,134	-0,149
250,917	14,122	-0,193	-0,103
251,932	2,717	-0,143	-0,071
252,947	130,028	-0,209	-0,184
253,961	55,823	-0,247	-0,165
254,976	800,000	-0,082	-0,165
255,990	153,653	-0,249	-0,236
257,005	-3,016	-0,190	-0,091
258,020	52,782	-0,192	-0,127
259,034	5,945	-0,139	-0,071
260,049	98,966	-0,160	-0,127
261,063	586,488	-0,069	-0,117
262,078	222,302	-0,130	-0,144
263,093	135,878	-0,273	-0,245
264,107	-191,533	-0,170	0,001
265,122	446,365	-0,099	-0,150
266,136	800,000	-0,068	-0,152
267,151	37,796	-0,150	-0,091
268,166	-65,800	-0,267	0,073
269,180	43,586	-0,343	-0,216
270,195	76,804	-0,243	-0,178
271,209	-51,870	-0,111	-0,035
272,224	-99,114	-0,141	-0,024
273,239	-140,935	-0,156	0,011
274,253	800,000	-0,036	-0,102
275,268	23,425	-0,218	-0,123
276,282	125,967	-0,254	-0,221
277,297	167,496	-0,236	-0,232
278,312	-36,004	-0,105	0,039
279,326	-66,564	-0,126	-0,034
280,341	-166,883	-0,170	0,005
281,355	-86,838	-0,165	0,034
282,370	156,158	-0,170	-0,161
283,384	27,911	-0,246	-0,142
284,399	-58,115	-0,243	-0,072
285,414	373,184	-0,110	-0,154
286,428	10,563	-0,120	-0,063
287,443	120,190	-0,149	-0,127
288,457	9,966	-0,244	-0,127
289,472	-51,096	-0,230	-0,074
290,487	38,868	-0,233	-0,143
291,501	-52,273	-0,245	-0,078
292,516	800,000	-0,085	-0,199
293,530	108,328	-0,094	-0,077
294,545	757,395	-0,040	-0,075
295,560	19,810	-0,120	-0,066
296,574	-31,766	-0,193	-0,074
297,589	3,644	-0,198	-0,099
298,603	115,432	-0,174	-0,146
299,618	358,794	-0,125	-0,172
300,633	110,218	-0,215	-0,178
301,647	-60,249	-0,152	-0,044
302,662	3,382	-0,154	-0,077
303,676	150,388	-0,192	-0,179
304,691	-5,725	-0,240	-0,113
305,706	-122,112	-0,126	-0,014
306,720	-50,407	-0,231	-0,074
307,735	-4,789	-0,146	0,069
308,749	206,539	-0,154	-0,165
309,764	384,922	-0,155	-0,220
310,779	107,262	-0,158	0,129
311,793	-53,388	-0,162	0,051
312,808	-146,305	-0,103	0,006
313,822	-139,656	-0,213	-0,015
314,837	44,919	-0,182	-0,115
315,852	-62,424	-0,085	-0,024
316,866	-46,813	-0,155	-0,052
317,881	284,075	-0,093	-0,115
318,895	-90,918	-0,185	0,036
319,910	135,149	-0,196	-0,175
320,925	109,605	-0,113	-0,093
321,939	5,697	-0,215	-0,108
322,954	-98,098	-0,053	-0,009
323,968	800,000	-0,041	-0,105
324,983	0,895	-0,155	-0,076
325,997	1,036	-0,213	-0,104
327,012	-32,514	-0,136	-0,052
328,027	-14,875	0,064	-0,028
329,041	16,809	-0,138	-0,075
330,056	37,558	-0,098	0,059
331,070	7,499	-0,127	0,065
332,085	-22,609	-0,155	0,064
333,100	-102,621	-0,195	-0,032
334,114	-54,932	-0,230	-0,071
335,129	-93,450	-0,110	-0,021
336,143	-15,303	-0,116	-0,051
337,158	182,398	-0,025	0,026
338,173	800,000	-0,071	-0,164
339,187	63,112	-0,099	0,068
340,202	18,492	-0,126	-0,069
341,216	-23,311	-0,156	-0,064
342,231	73,438	-0,208	-0,149
343,246	-120,974	-0,229	-0,026
344,260	86,571	-0,121	-0,091
345,275	556,231	-0,033	-0,055
346,289	357,285	-0,080	-0,109
347,304	92,948	-0,135	-0,104
348,319	294,654	-0,069	-0,087
349,333	-200,000	-0,035	0,115
350,348	133,159	-0,166	-0,147
351,362	-155,999	-0,143	-0,006
352,377	-195,215	-0,087	0,000
353,392	-72,083	-0,178	-0,045
354,406	800,000	-0,120	-0,271
355,421	208,153	1306,214	1397,628
356,435	160,157	1465,859	1398,099
