DTS Sentinel unit serial number:	SN410029Multiplexer serial number:	ORYXHardware model number:	OX2-SRSoftware version number:	ORYX F/W v4,00 Oryx Data Collector v3.7.2.0data status	okinstallation	B3 Nyhavnadifferential loss correction	single-endedforward channel	channel 1reverse channel	N/Adate	2023/11/30time	21:17:30forward acquisition time	300,00reverse acquisition time	0,00gamma	499,1914k internal	0,3209k external	0,3209temperature offset calibration	1,0000default loss term (dB/km)	0,3820temperature slope calibration	1,0000multiplexer offset coefficient	1,0000multiplexer slope coefficient	1,0000fibre end	0,00T internal ref (°C)	10,71T ext. ref 1 (°C)	-4,64T ext. ref 2 (°C)	-4,76length (m)	temperature (°C)	Stokes	anti-Stokes-744,400	321,851	-0,167	-0,231
-743,385	-200,000	-0,076	0,378
-742,371	-4,060	-0,279	-0,140
-741,356	-200,000	0,017	0,279
-740,342	-200,000	0,039	-0,224
-739,327	-200,000	-0,061	0,269
-738,312	515,174	-0,174	-0,296
-737,298	-200,000	-0,058	0,198
-736,283	316,677	-0,209	-0,287
-735,269	-200,000	-0,032	0,217
-734,254	140,965	-0,212	-0,203
-733,239	-92,846	-0,249	0,050
-732,225	800,000	-0,073	-0,201
-731,210	510,281	0,101	0,172
-730,196	-200,000	-0,022	-0,090
-729,181	81,194	-0,203	-0,159
-728,167	-200,000	0,004	0,072
-727,152	123,144	0,061	0,055
-726,137	594,011	-0,052	0,093
-725,123	-61,825	-0,075	0,023
-724,108	526,454	-0,046	-0,079
-723,094	-91,810	-0,106	-0,022
-722,079	40,060	-0,105	-0,068
-721,064	512,734	-0,023	0,038
-720,050	800,000	0,031	-0,095
-719,035	67,168	-0,128	0,095
-718,021	-94,134	-0,079	0,016
-717,006	-89,655	-0,159	-0,034
-715,991	126,528	-0,100	-0,091
-714,977	-124,189	0,108	-0,012
-713,962	95,318	-0,094	-0,078
-712,948	-84,993	0,129	-0,029
-711,933	-200,000	-0,004	-0,108
-710,918	-200,000	-0,040	-0,148
-709,904	-38,870	0,030	-0,011
-708,889	-200,000	0,018	-0,064
-707,875	800,000	-0,068	-0,152
-706,860	-27,079	0,048	-0,020
-705,845	-79,575	0,113	0,027
-704,831	105,784	-0,051	-0,044
-703,816	-200,000	-0,012	-0,089
-702,802	179,495	0,031	-0,033
-701,787	-37,497	-0,126	-0,049
-700,772	-200,000	0,053	-0,243
-699,758	80,122	-0,087	-0,067
-698,743	800,000	0,038	-0,081
-697,729	19,463	0,108	0,063
-696,714	-200,000	0,011	0,097
-695,699	-200,000	-0,022	-0,091
-694,685	794,933	0,041	-0,082
-693,670	662,999	-0,047	-0,087
-692,656	-166,416	-0,184	0,005
-691,641	289,493	0,036	0,048
-690,627	-200,000	0,031	0,120
-689,612	84,326	-0,118	0,093
-688,597	-125,367	-0,155	0,017
-687,583	182,019	-0,111	-0,118
-686,568	800,000	0,055	-0,122
-685,554	-83,783	-0,157	-0,036
-684,539	-48,441	-0,053	0,018
-683,524	687,772	-0,046	0,087
-682,510	-156,014	0,046	-0,002
-681,495	-200,000	0,019	-0,161
-680,481	-200,000	-0,017	-0,085
-679,466	-5,127	-0,058	-0,029
-678,451	344,722	-0,070	-0,100
-677,437	-99,444	0,099	0,018
-676,422	231,300	-0,102	0,122
-675,408	800,000	0,029	0,070
-674,393	-200,000	-0,004	-0,015
-673,378	394,019	-0,063	-0,095
-672,364	-200,000	0,002	-0,098
-671,349	-200,000	0,025	-0,197
-670,335	-44,045	-0,013	-0,005
-669,320	-68,846	0,104	0,029
-668,305	-46,746	-0,027	-0,010
-667,291	-75,846	0,084	-0,021
-666,276	18,910	-0,070	0,041
-665,262	-200,000	-0,008	-0,068
-664,247	186,382	-0,080	-0,086
-663,232	-108,804	-0,135	-0,021
-662,218	-200,000	0,018	0,113
-661,203	-108,524	-0,065	0,010
-660,189	165,541	0,057	0,058
-659,174	-182,580	-0,052	0,001
-658,159	45,931	0,083	-0,056
-657,145	-200,000	-0,015	-0,095
-656,130	273,461	0,045	-0,058
-655,116	110,265	-0,016	-0,014
-654,101	-200,000	0,003	0,034
-653,086	-200,000	-0,031	-0,142
-652,072	198,476	-0,066	-0,073
-651,057	-200,000	-0,012	-0,058
-650,043	-64,499	-0,038	0,011
-649,028	-200,000	0,025	-0,088
-648,014	-200,000	-0,010	0,046
-646,999	559,707	0,053	-0,093
-645,984	-200,000	-0,008	-0,045
-644,970	116,813	0,038	-0,034
-643,955	169,201	-0,057	0,059
-642,941	-128,247	-0,105	0,011
-641,926	274,661	-0,053	-0,068
-640,911	-92,027	0,145	-0,029
-639,897	648,761	-0,043	0,079
-638,882	203,692	0,026	-0,029
-637,868	38,696	-0,080	-0,052
-636,853	32,547	0,071	0,044
-635,838	-129,977	-0,153	0,015
-634,824	-57,592	0,182	0,057
-633,809	211,939	0,077	0,087
-632,795	800,000	0,005	0,011
-631,780	-126,966	-0,050	-0,005
-630,765	790,559	0,055	0,109
-629,751	83,646	0,017	-0,014
-628,736	-65,245	-0,108	-0,031
-627,722	-78,529	-0,028	0,007
-626,707	-160,819	0,097	-0,004
-625,692	-165,129	-0,135	-0,004
-624,678	-116,361	0,090	0,012
-623,663	800,000	-0,011	0,026
-622,649	9,140	-0,055	0,030
-621,634	800,000	-0,032	0,096
-620,619	17,465	-0,155	-0,089
-619,605	89,663	0,103	0,083
-618,590	23,315	-0,050	0,030
-617,576	-200,000	-0,001	-0,152
-616,561	331,837	-0,091	-0,127
-615,546	-200,000	-0,012	-0,160
-614,532	48,078	-0,171	-0,115
-613,517	69,507	-0,020	-0,015
-612,503	179,028	0,057	0,060
-611,488	-200,000	-0,027	-0,091
-610,474	570,430	-0,079	0,139
-609,459	-200,000	-0,023	-0,112
-608,444	335,736	0,006	-0,008
-607,430	92,261	-0,126	-0,102
-606,415	-122,159	-0,064	0,007
-605,401	20,450	-0,015	-0,008
-604,386	22,524	0,085	-0,050
-603,371	-25,506	0,181	-0,077
-602,357	-107,969	-0,056	-0,009
-601,342	800,000	0,034	-0,094
-600,328	-34,902	-0,146	0,057
-599,313	800,000	-0,085	-0,181
-598,298	198,096	0,025	-0,028
-597,284	-95,998	0,111	-0,021
-596,269	-97,985	-0,173	-0,032
-595,255	606,114	0,014	-0,026
-594,240	-76,758	-0,129	-0,032
-593,225	-200,000	-0,017	-0,056
-592,211	-109,398	-0,090	0,014
-591,196	-200,000	0,000	-0,088
-590,182	320,971	-0,036	-0,049
-589,167	255,704	0,112	0,139
-588,152	-168,146	-0,050	-0,001
-587,138	16,564	-0,064	0,036
-586,123	-200,000	-0,010	-0,054
-585,109	233,513	0,042	-0,050
-584,094	-200,000	0,004	0,029
-583,079	127,694	0,018	0,016
-582,065	-200,000	0,029	0,103
-581,050	-63,202	-0,160	0,047
-580,036	-200,000	0,001	-0,005
-579,021	-56,951	-0,145	0,046
-578,006	-58,421	-0,088	0,027
-576,992	274,843	0,104	-0,134
-575,977	167,453	0,079	-0,081
-574,963	-200,000	0,020	0,110
-573,948	800,000	0,038	-0,113
-572,934	136,824	0,097	-0,091
-571,919	-200,000	-0,013	-0,061
-570,904	67,060	0,037	0,027
-569,890	39,842	-0,063	-0,041
-568,875	142,209	0,064	0,061
-567,861	-63,937	0,156	-0,046
-566,846	-200,000	0,018	0,086
-565,831	-133,903	0,033	-0,003
-564,817	800,000	0,014	0,034
-563,802	211,732	0,061	-0,069
-562,788	277,639	-0,144	-0,185
-561,773	-200,000	0,005	0,074
-560,758	-200,000	0,036	0,122
-559,744	-29,374	0,035	-0,015
-558,729	60,184	0,076	-0,054
-557,715	-200,000	-0,012	0,041
-556,700	-41,906	-0,042	0,015
-555,685	177,493	-0,036	0,037
-554,671	800,000	0,030	-0,093
-553,656	-51,210	-0,047	-0,016
-552,642	-140,139	0,040	0,003
-551,627	-183,278	0,274	0,003
-550,612	13,762	0,028	0,016
-549,598	-84,713	-0,054	-0,012
-548,583	127,265	-0,034	-0,031
-547,569	119,736	0,083	0,074
-546,554	800,000	-0,057	0,120
-545,539	-200,000	-0,012	0,076
-544,525	114,931	-0,097	0,086
-543,510	-200,000	-0,007	-0,037
-542,496	-154,769	-0,089	0,004
-541,481	-120,906	0,013	-0,002
-540,466	-62,264	-0,089	0,027
-539,452	-0,704	-0,030	0,015
-538,437	-200,000	0,017	-0,055
-537,423	57,923	0,055	0,039
-536,408	771,785	-0,027	0,054
-535,393	477,640	0,019	-0,030
-534,379	649,746	-0,048	-0,089
-533,364	-160,338	-0,065	-0,002
-532,350	14,669	-0,056	0,031
-531,335	272,490	0,040	0,051
-530,321	-112,322	-0,022	-0,003
-529,306	163,568	0,049	0,049
-528,291	449,480	-0,077	-0,122
-527,277	-78,801	-0,107	0,026
-526,262	13,894	0,100	0,056
-525,248	253,665	-0,128	-0,158
-524,233	137,866	-0,042	-0,040
-523,218	328,405	0,054	-0,075
-522,204	-160,821	-0,161	0,006
-521,189	-200,000	-0,006	-0,053
-520,175	532,966	-0,075	-0,129
-519,160	116,615	0,142	0,126
-518,145	254,250	0,040	-0,049
-517,131	-50,650	0,091	-0,031
-516,116	147,651	0,070	0,068
-515,102	-200,000	0,018	-0,127
-514,087	29,888	0,089	-0,055
-513,072	-9,411	-0,167	-0,080
-512,058	-94,065	-0,029	-0,006
-511,043	-200,000	0,015	0,119
-510,029	368,607	-0,035	0,052
-509,014	-200,000	-0,018	-0,132
-507,999	-200,000	-0,045	0,252
-506,985	374,687	0,060	0,089
-505,970	-193,232	-0,058	-0,000
-504,956	397,701	0,016	-0,024
-503,941	-3,064	0,032	0,016
-502,926	-200,000	0,004	0,017
-501,912	-152,892	0,140	0,007
-500,897	403,162	-0,047	-0,071
-499,883	800,000	0,052	0,105
-498,868	-79,787	-0,153	-0,037
-497,853	-2,201	0,038	0,019
-496,839	288,517	-0,080	-0,105
-495,824	55,470	0,128	0,089
-494,810	133,241	-0,061	0,057
-493,795	11,055	-0,039	-0,021
-492,781	105,432	0,042	-0,036
-491,766	-43,501	-0,074	-0,027
-490,751	417,441	-0,084	-0,129
-489,737	2,630	0,037	-0,019
-488,722	48,605	0,074	-0,050
-487,708	91,696	0,148	0,119
-486,693	-200,000	-0,015	0,206
-485,678	15,526	0,068	-0,038
-484,664	-29,310	-0,055	0,022
-483,649	-200,000	-0,011	-0,049
-482,635	-76,166	0,133	-0,034
-481,620	-40,615	0,073	-0,027
-480,605	-200,000	0,021	0,091
-479,591	173,476	-0,035	0,037
-478,576	92,287	-0,081	-0,066
-477,562	142,945	-0,044	-0,042
-476,547	266,611	-0,121	0,152
-475,532	463,416	0,086	-0,139
-474,518	-54,445	-0,036	0,012
-473,503	-98,016	-0,114	-0,021
-472,489	-200,000	0,031	0,105
-471,474	800,000	0,071	0,146
-470,459	-73,188	-0,162	-0,042
-469,445	85,110	-0,052	-0,041
-468,430	199,364	-0,073	-0,081
-467,416	800,000	-0,010	-0,026
-466,401	-99,948	0,131	0,023
-465,386	-47,462	-0,144	0,050
-464,372	-183,887	0,163	-0,002
-463,357	-1,913	-0,033	0,016
-462,343	-200,000	0,004	0,014
-461,328	43,803	-0,081	-0,053
-460,313	645,649	-0,016	-0,029
-459,299	-33,707	0,083	-0,033
-458,284	-90,767	0,166	0,034
-457,270	90,249	0,081	-0,065
-456,255	52,262	-0,079	-0,054
-455,241	-96,200	-0,068	-0,013
-454,226	341,105	-0,027	-0,038
-453,211	-200,000	-0,008	0,127
-452,197	113,342	0,051	0,044
-451,182	800,000	-0,025	0,062
-450,168	282,357	0,016	0,021
-449,153	159,955	-0,077	0,078
-448,138	800,000	-0,014	-0,032
-447,124	79,336	-0,043	-0,033
-446,109	-47,493	0,133	0,046
-445,095	464,308	-0,054	0,087
-444,080	800,000	-0,023	0,061
-443,065	-200,000	0,020	-0,081
-442,051	406,193	0,036	-0,055
-441,036	30,988	0,059	-0,036
-440,022	81,382	0,100	-0,078
-439,007	703,984	-0,010	0,019
-437,992	-59,348	-0,073	-0,022
-436,978	-200,000	-0,010	0,046
-435,963	51,838	0,029	0,020
-434,949	-198,805	0,121	-0,000
-433,934	344,442	0,031	-0,044
-432,919	195,906	0,010	-0,011
-431,905	800,000	0,013	0,041
-430,890	49,728	0,103	-0,070
-429,876	111,936	-0,136	0,118
-428,861	547,918	-0,029	0,050
-427,846	-200,000	-0,008	0,079
-426,832	-200,000	-0,006	0,071
-425,817	-148,987	-0,085	-0,005
-424,803	19,516	0,108	0,062
-423,788	-91,177	-0,079	-0,016
-422,773	-200,000	0,020	0,065
-421,759	800,000	-0,082	0,214
-420,744	-200,000	0,011	0,061
-419,730	37,712	0,086	-0,054
-418,715	800,000	-0,051	0,108
-417,701	-130,342	0,043	0,004
-416,686	800,000	0,038	0,104
-415,671	-89,559	0,110	0,023
-414,657	-61,905	-0,059	-0,018
-413,642	-200,000	0,037	0,161
-412,628	-86,938	0,047	0,010
-411,613	7,356	-0,124	-0,066
-410,598	221,068	0,022	0,025
-409,584	-200,000	0,006	-0,085
-408,569	375,061	0,091	-0,133
-407,555	-65,020	0,057	0,016
-406,540	411,698	0,056	0,085
-405,525	12,191	-0,055	0,030
-404,511	276,428	0,050	-0,064
-403,496	394,470	0,013	0,019
-402,482	800,000	0,051	-0,111
-401,467	315,346	0,043	0,058
-400,452	-29,383	0,087	0,036
-399,438	171,521	0,071	0,073
-398,423	15,243	-0,073	-0,041
-397,409	-200,000	-0,000	0,073
-396,394	-1,536	-0,091	-0,046
-395,379	103,534	0,076	0,064
-394,365	-200,000	0,002	0,098
-393,350	800,000	-0,010	-0,025
-392,336	131,982	0,088	0,081
-391,321	153,273	-0,107	-0,105
-390,306	-99,867	0,054	0,010
-389,292	800,000	-0,030	0,071
-388,277	-200,000	0,009	-0,083
-387,263	-200,000	0,005	-0,084
-386,248	369,215	0,048	0,069
-385,233	-200,000	-0,027	0,112
-384,219	130,953	-0,107	0,098
-383,204	-200,000	-0,001	0,044
-382,190	94,404	-0,027	0,022
-381,175	202,505	0,021	-0,023
-380,160	-88,851	0,190	0,040
-379,146	-200,000	-0,005	0,023
-378,131	424,892	0,070	0,108
-377,117	800,000	0,052	-0,116
-376,102	137,047	-0,006	0,006
-375,088	800,000	0,036	-0,085
-374,073	-22,297	0,119	-0,051
-373,058	160,934	0,104	0,104
-372,044	527,220	-0,031	0,053
-371,029	-88,780	0,097	-0,020
-370,015	-59,065	0,014	0,004
-369,000	228,758	-0,025	-0,029
-367,985	-100,810	0,134	0,023
-366,971	-2,144	0,007	0,003
-365,956	-200,000	0,041	0,172
-364,942	161,443	0,047	-0,047
-363,927	122,949	-0,022	-0,020
-362,912	357,830	-0,085	0,122
-361,898	800,000	-0,067	-0,151
-360,883	-15,071	-0,058	0,026
-359,869	-10,477	-0,117	-0,055
-358,854	800,000	0,038	0,077
-357,839	149,921	0,103	0,100
-356,825	800,000	-0,026	0,053
-355,810	-94,909	-0,074	0,014
-354,796	-200,000	0,023	-0,078
-353,781	800,000	-0,066	-0,198
-352,766	-113,006	0,054	-0,008
-351,752	-4,572	-0,039	-0,019
-350,737	-200,000	-0,014	-0,080
-349,723	144,918	0,005	-0,005
-348,708	111,573	0,059	-0,051
-347,693	-200,000	-0,021	-0,092
-346,679	800,000	-0,031	-0,075
-345,664	83,207	-0,073	0,056
-344,650	-200,000	-0,007	0,132
-343,635	327,266	0,085	-0,116
-342,620	800,000	0,036	0,096
-341,606	217,201	-0,039	0,044
-340,591	-176,368	0,162	0,003
-339,577	-45,674	0,055	0,019
-338,562	-38,729	-0,112	-0,042
-337,548	6,386	0,088	0,047
-336,533	-200,000	-0,023	0,118
-335,518	-31,517	-0,027	0,011
-334,504	800,000	0,010	-0,032
-333,489	-200,000	-0,035	-0,121
-332,475	800,000	-0,020	-0,050
-331,460	113,114	-0,091	0,079
-330,445	57,814	-0,097	0,068
-329,431	-200,000	0,002	0,042
-328,416	102,214	0,115	-0,096
-327,402	-200,000	-0,000	0,086
-326,387	-34,636	-0,100	0,039
-325,372	-45,333	0,089	0,031
-324,358	-31,098	0,089	-0,036
-323,343	593,954	-0,053	-0,094
-322,329	-200,000	0,014	0,050
-321,314	6,571	0,140	-0,074
-320,299	-0,958	0,127	-0,064
-319,285	239,317	0,050	-0,060
-318,270	63,903	-0,074	0,053
-317,256	-200,000	0,000	-0,136
-316,241	-200,000	0,006	-0,129
-315,226	-200,000	-0,003	-0,089
-314,212	-200,000	-0,027	0,153
-313,197	800,000	-0,040	-0,089
-312,183	-200,000	0,018	-0,192
-311,168	-115,808	-0,081	-0,011
-310,153	34,444	-0,051	0,032
-309,139	719,878	0,018	-0,034
-308,124	190,798	0,087	-0,093
-307,110	-200,000	0,016	0,056
-306,095	-200,000	0,005	-0,088
-305,080	-200,000	-0,011	-0,076
-304,066	-176,232	0,064	-0,001
-303,051	226,920	-0,061	-0,071
-302,037	-2,678	-0,100	-0,050
-301,022	402,923	0,072	-0,108
-300,008	66,501	-0,010	0,007
-298,993	-200,000	0,064	0,212
-297,978	205,507	0,070	0,077
-296,964	-200,000	0,003	-0,019
-295,949	234,793	0,018	-0,022
-294,935	-200,000	-0,025	-0,227
-293,920	-89,403	0,144	-0,030
-292,905	800,000	0,034	-0,071
-291,891	-200,000	-0,008	0,029
-290,876	-200,000	-0,031	0,136
-289,862	91,617	0,029	-0,023
-288,847	-52,004	-0,086	-0,028
-287,832	800,000	-0,034	0,105
-286,818	-200,000	-0,001	0,044
-285,803	404,733	0,027	-0,040
-284,789	-54,689	0,050	0,016
-283,774	-200,000	-0,002	-0,122
-282,759	-200,000	-0,014	-0,068
-281,745	266,456	-0,042	-0,052
-280,730	-19,409	0,097	0,043
-279,716	-200,000	-0,011	0,159
-278,701	800,000	-0,010	0,027
-277,686	282,679	0,033	0,042
-276,672	-113,930	0,088	0,012
-275,657	249,014	0,084	0,101
-274,643	422,766	-0,038	0,058
-273,628	86,939	-0,054	-0,043
-272,613	800,000	0,020	-0,044
-271,599	-22,158	0,071	0,030
-270,584	800,000	0,010	0,027
-269,570	800,000	-0,019	0,049
-268,555	457,396	-0,057	0,090
-267,540	46,468	-0,015	-0,010
-266,526	-24,910	-0,058	0,024
-265,511	-77,070	0,066	0,016
-264,497	800,000	-0,052	-0,110
-263,482	114,441	0,066	-0,057
-262,467	662,979	0,008	0,016
-261,453	800,000	-0,049	0,121
-260,438	222,867	0,045	0,052
-259,424	-90,661	-0,112	-0,023
-258,409	-150,612	-0,038	0,002
-257,395	49,311	0,111	-0,074
-256,380	-200,000	-0,001	-0,057
-255,365	559,147	0,082	-0,141
-254,351	104,054	-0,092	0,077
-253,336	36,387	-0,064	-0,040
-252,322	-200,000	0,007	-0,104
-251,307	-200,000	-0,005	0,041
-250,292	-200,000	0,007	0,096
-249,278	-200,000	0,010	0,079
-248,263	800,000	0,081	0,169
-247,249	-200,000	0,014	-0,084
-246,234	591,138	0,088	0,155
-245,219	295,711	0,050	-0,065
-244,205	-200,000	-0,010	-0,069
-243,190	15,519	0,027	-0,015
-242,176	-50,301	0,087	0,029
-241,161	-200,000	0,055	0,180
-240,146	-200,000	-0,013	-0,065
-239,132	28,282	-0,048	-0,029
-238,117	132,925	-0,072	0,066
-237,103	-200,000	-0,036	-0,119
-236,088	-84,103	0,040	-0,009
-235,073	-200,000	-0,011	-0,056
-234,059	-56,673	-0,072	-0,022
-233,044	800,000	-0,043	0,133
-232,030	800,000	0,043	0,113
-231,015	126,615	-0,106	0,095
-230,000	-70,406	0,070	-0,019
-228,986	688,145	-0,027	-0,050
-227,971	-200,000	0,001	0,053
-226,957	0,947	-0,053	0,027
-225,942	-73,732	-0,064	0,016
-224,927	-200,000	-0,023	0,157
-223,913	-200,000	0,004	-0,024
-222,898	-127,535	-0,152	-0,016
-221,884	4,595	-0,056	-0,029
-220,869	-200,000	0,029	0,169
-219,855	-200,000	0,033	0,192
-218,840	-142,803	-0,086	0,006
-217,825	558,094	0,035	0,061
-216,811	229,016	-0,022	-0,026
-215,796	800,000	-0,046	-0,123
-214,782	207,892	0,103	-0,114
-213,767	800,000	0,063	-0,134
-212,752	-200,000	-0,007	0,074
-211,738	345,758	0,049	-0,068
-210,723	131,552	-0,058	0,053
-209,709	16,386	0,052	0,029
-208,694	-119,611	-0,082	-0,010
-207,679	578,791	-0,042	0,074
-206,665	-200,000	0,021	-0,083
-205,650	509,510	0,021	-0,035
-204,636	15,154	0,090	0,050
-203,621	-89,858	-0,058	-0,012
-202,606	-22,235	-0,145	0,062
-201,592	702,885	0,023	-0,044
-200,577	219,114	-0,087	-0,099
-199,563	554,214	-0,030	0,051
-198,548	209,003	0,043	0,047
-197,533	590,767	-0,025	0,044
-196,519	142,659	0,092	-0,087
-195,504	302,057	-0,106	-0,139
-194,490	-150,026	-0,065	-0,004
-193,475	-19,432	-0,151	-0,066
-192,460	-115,391	-0,070	-0,009
-191,446	12,859	0,218	0,119
-190,431	-30,011	0,104	0,042
-189,417	-200,000	-0,016	0,082
-188,402	-200,000	0,003	-0,034
-187,387	-81,756	-0,121	-0,028
-186,373	-94,172	0,055	-0,011
-185,358	224,024	0,035	-0,040
-184,344	87,008	-0,030	0,023
-183,329	63,859	0,103	0,073
-182,315	-200,000	-0,004	0,022
-181,300	3,125	-0,122	0,063
-180,285	-23,807	0,107	-0,045
-179,271	-200,000	0,024	-0,075
-178,256	151,188	0,081	0,078
-177,242	-136,319	-0,058	0,005
-176,227	-200,000	-0,007	0,093
-175,212	420,647	0,021	0,032
-174,198	-200,000	0,019	-0,098
-173,183	-200,000	0,009	0,108
-172,169	-200,000	0,007	-0,042
-171,154	29,037	0,100	-0,060
-170,139	-42,748	-0,018	0,007
-169,125	499,744	-0,033	-0,055
-168,110	-1,988	-0,147	0,073
-167,096	800,000	0,039	0,086
-166,081	-83,188	-0,110	0,025
-165,066	-200,000	-0,008	-0,147
-164,052	-49,707	0,086	-0,029
-163,037	260,089	-0,039	0,048
-162,023	131,732	-0,021	-0,019
-161,008	-116,261	-0,081	0,011
-159,993	-200,000	0,022	-0,115
-158,979	-200,000	0,049	-0,177
-157,964	180,014	-0,104	-0,108
-156,950	136,015	-0,042	-0,039
-155,935	800,000	0,024	-0,055
-154,920	111,061	-0,110	0,094
-153,906	66,370	0,039	0,028
-152,891	-95,806	0,059	-0,011
-151,877	-200,000	-0,030	-0,101
-150,862	286,874	-0,128	-0,164
-149,847	162,844	-0,051	-0,051
-148,833	284,444	-0,013	-0,016
-147,818	529,867	0,088	0,147
-146,804	-93,844	-0,039	-0,008
-145,789	-200,000	-0,032	-0,163
-144,775	509,408	-0,055	-0,091
-143,760	-200,000	-0,009	-0,033
-142,745	-156,808	-0,147	-0,006
-141,731	-25,025	-0,023	0,010
-140,716	-200,000	0,006	-0,030
-139,702	800,000	0,102	0,259
-138,687	654,128	-0,062	-0,113
-137,672	800,000	-0,046	0,132
-136,658	-200,000	-0,004	-0,084
-135,643	-133,836	-0,156	0,014
-134,629	650,472	0,039	-0,070
-133,614	800,000	0,079	0,226
-132,599	-98,968	0,146	-0,026
-131,585	-43,655	0,120	0,043
-130,570	92,758	0,112	0,089
-129,556	11,503	-0,164	-0,089
-128,541	56,962	0,080	0,055
-127,526	-200,000	0,018	-0,068
-126,512	-200,000	-0,006	0,087
-125,497	-200,000	-0,020	0,138
-124,483	-200,000	-0,023	0,126
-123,468	100,071	0,109	0,089
-122,453	-46,715	-0,185	-0,064
-121,439	-11,096	0,078	-0,036
-120,424	-200,000	0,011	-0,033
-119,410	428,005	0,053	-0,081
-118,395	235,062	0,094	0,111
-117,380	-116,556	-0,122	0,016
-116,366	-200,000	0,001	-0,048
-115,351	-13,423	0,075	0,034
-114,337	-101,315	0,159	-0,027
-113,322	145,207	0,055	-0,052
-112,307	800,000	-0,064	-0,178
-111,293	-121,429	0,044	-0,005
-110,278	800,000	-0,072	0,184
-109,264	-116,210	0,174	-0,023
-108,249	618,933	-0,045	-0,080
-107,234	417,069	0,068	-0,103
-106,220	164,539	0,106	-0,106
-105,205	-46,071	0,046	0,016
-104,191	73,395	0,085	0,063
-103,176	6,219	0,037	0,019
-102,162	-200,000	-0,000	0,040
-101,147	54,808	-0,026	-0,018
-100,132	-200,000	0,006	-0,069
-99,118	-135,884	0,052	-0,004
-98,103	-110,790	-0,045	0,006
-97,089	800,000	0,050	0,141
-96,074	800,000	-0,048	0,096
-95,059	-200,000	0,018	0,077
-94,045	-111,383	0,031	-0,004
-93,030	-200,000	0,004	-0,074
-92,016	-200,000	0,006	0,080
-91,001	183,034	-0,050	-0,053
-89,986	-67,258	-0,121	-0,034
-88,972	284,322	0,040	0,051
-87,957	18,490	-0,098	0,055
-86,943	-200,000	-0,020	-0,084
-85,928	97,660	-0,064	0,052
-84,913	800,000	0,022	0,055
-83,899	800,000	0,003	-0,008
-82,884	-58,994	0,103	0,031
-81,870	431,121	-0,069	0,106
-80,855	800,000	0,039	0,096
-79,840	430,022	0,084	-0,129
-78,826	214,188	-0,023	-0,025
-77,811	163,525	-0,019	0,019
-76,797	101,710	0,174	-0,144
-75,782	800,000	0,034	0,084
-74,767	1,182	0,185	0,094
-73,753	436,506	0,067	0,103
-72,738	800,000	0,032	0,073
-71,724	92,605	-0,072	0,057
-70,709	-200,000	0,007	-0,052
-69,694	22,180	0,087	-0,050
-68,680	364,209	-0,072	0,103
-67,665	634,005	0,084	0,151
-66,651	-200,000	-0,010	-0,156
-65,636	-34,621	0,079	0,030
-64,622	129,982	-0,073	-0,066
-63,607	800,000	-0,059	-0,152
-62,592	200,315	-0,131	-0,142
-61,578	67,718	0,060	0,043
-60,563	32,176	-0,067	0,041
-59,549	-128,700	-0,073	-0,007
-58,534	18,381	-2,014	-1,133
-57,519	394,072	-1,297	-1,914
-56,505	-200,000	-0,322	-4,392
-55,490	469,302	0,809	1,288
-54,476	800,000	5,107	11,659
-53,461	-200,000	20,972	335,792
-52,446	800,000	758,476	2339,638
-51,432	553,579	1663,287	2835,432
-50,417	73,691	1665,332	1231,147
-49,403	18,535	1538,778	866,511
-48,388	12,589	1461,619	794,231
-47,373	19,331	1452,442	821,646
-46,359	15,840	1442,155	799,147
-45,344	10,819	1437,779	772,725
-44,330	10,803	1435,655	771,474
-43,315	10,748	1434,102	770,348
-42,300	10,734	1432,188	769,222
-41,286	10,720	1431,186	768,585
-40,271	10,739	1429,716	767,858
-39,257	10,727	1428,642	767,192
-38,242	10,781	1427,552	766,833
-37,227	10,800	1426,278	766,207
-36,213	10,771	1425,069	765,394
-35,198	10,825	1423,966	765,023
-34,184	10,820	1423,194	764,554
-33,169	10,773	1421,626	763,461
-32,154	10,788	1420,741	763,024
-31,140	10,791	1419,431	762,305
-30,125	10,820	1418,277	761,793
-29,111	10,842	1417,311	761,348
-28,096	10,802	1416,172	760,519
-27,082	10,755	1414,913	759,588
-26,067	10,723	1413,938	758,885
-25,052	10,788	1412,664	758,479
-24,038	10,761	1411,735	757,821
-23,023	10,698	1410,914	757,054
-22,009	10,767	1409,642	756,665
-20,994	10,759	1408,678	756,079
-19,979	10,724	1407,960	755,502
-18,965	10,705	1406,811	754,767
-17,950	10,705	1405,905	754,250
-16,936	10,752	1405,222	754,072
-15,921	10,587	1404,312	752,786
-14,906	10,625	1403,262	752,370
-13,892	10,689	1402,086	752,007
-12,877	10,652	1401,569	751,528
-11,863	10,593	1400,776	750,801
-10,848	10,617	1399,704	750,306
-9,833	10,616	1398,735	749,754
-8,819	10,570	1397,979	749,105
-7,804	10,516	1397,240	748,425
-6,790	10,557	1396,022	747,934
-5,775	10,562	1395,046	747,407
-4,760	10,563	1394,058	746,850
-3,746	10,571	1393,250	746,424
-2,731	10,537	1392,392	745,778
-1,717	10,512	1391,719	745,273
-0,702	10,515	1389,788	744,224
0,313	14,457	1302,773	715,739
1,327	30,393	693,398	417,259
2,342	47,493	120,389	79,079
3,356	1,509	16,612	8,407
4,371	-8,832	3,480	1,640
5,386	-6,001	1,017	0,489
6,400	-200,000	0,141	0,551
7,415	-9,911	-0,166	-0,078
8,429	10,702	-0,242	-0,130
9,444	-22,922	-0,246	-0,104
10,459	-41,912	-0,251	-0,090
11,473	-47,004	-0,271	-0,093
12,488	173,111	-0,270	-0,275
13,502	111,644	-0,216	-0,184
14,517	51,039	-0,309	-0,206
15,531	-48,006	-0,403	-0,137
16,546	232,793	-0,223	-0,259
17,561	61,948	-0,464	-0,326
18,575	91,982	-0,246	-0,195
19,590	-19,547	-0,258	-0,112
20,604	-87,601	-0,324	0,068
21,619	19,489	-0,416	-0,235
22,634	50,073	-0,529	-0,351
23,648	55,996	-0,471	-0,322
24,663	17,680	-0,415	-0,232
25,677	-45,693	-0,379	-0,131
26,692	50,262	-0,276	-0,183
27,707	8,151	-0,518	-0,273
28,721	151,772	-0,396	-0,381
29,736	145,154	-0,385	-0,363
30,750	49,442	-0,365	-0,241
31,765	117,813	-0,394	-0,342
32,780	114,446	-0,332	-0,284
33,794	47,659	-0,264	-0,173
34,809	23,163	-0,330	-0,190
35,823	64,653	-0,408	-0,289
36,838	33,784	-0,452	-0,276
37,853	73,396	-0,456	-0,335
38,867	4,851	-0,264	-0,136
39,882	71,226	-0,253	-0,184
40,896	137,206	-0,319	-0,294
41,911	1,215	-0,214	-0,108
42,926	15,154	-0,350	-0,192
43,940	134,574	-0,199	-0,182
44,955	12,426	-0,403	-0,218
45,969	246,506	-0,247	-0,293
46,984	173,421	-0,263	-0,267
47,999	-18,969	-0,304	-0,132
49,013	-41,980	-0,405	-0,145
50,028	73,288	-0,342	-0,251
51,042	231,475	-0,280	-0,323
52,057	157,526	-0,340	-0,331
53,071	389,208	-0,261	-0,381
54,086	342,378	-0,211	-0,291
55,101	6,284	-0,468	-0,243
56,115	-30,789	-0,348	-0,137
57,130	149,434	-0,324	-0,309
58,144	180,024	-0,389	-0,401
59,159	21,454	-0,411	-0,234
60,174	159,928	-0,346	-0,339
61,188	8,213	-0,310	-0,163
62,203	76,732	-0,317	-0,236
63,217	253,669	-0,156	-0,188
64,232	-17,534	-0,403	-0,177
65,247	152,364	-0,313	-0,300
66,261	45,706	-0,353	-0,229
67,276	14,690	-0,459	-0,251
68,290	13,454	-0,371	-0,201
69,305	71,827	-0,226	-0,165
70,320	-19,311	-0,195	-0,084
71,334	123,315	-0,196	-0,172
72,349	-75,020	-0,339	-0,084
73,363	24,111	-0,376	-0,217
74,378	6,164	-0,277	-0,143
75,393	-9,886	-0,375	-0,174
76,407	41,479	-0,301	-0,191
77,422	-16,259	-0,287	-0,127
78,436	-6,861	-0,365	-0,173
79,451	3,373	-0,389	-0,198
80,466	28,327	-0,369	-0,218
81,480	-2,377	-0,557	-0,273
82,495	-4,321	-0,341	-0,165
83,509	12,391	-0,290	-0,156
84,524	109,760	-0,201	-0,169
85,539	53,209	-0,253	-0,169
86,553	13,862	-0,331	-0,180
87,568	90,706	-0,348	-0,273
88,582	65,238	-0,366	-0,259
89,597	59,032	-0,297	-0,204
90,611	68,454	-0,288	-0,206
91,626	-34,957	-0,273	-0,104
92,641	-148,645	-0,309	-0,017
93,655	124,446	-0,262	-0,231
94,670	-15,065	-0,301	-0,134
95,684	86,636	-0,291	-0,225
96,699	33,929	-0,374	-0,227
97,714	14,366	-0,314	-0,171
98,728	91,797	-0,217	-0,171
99,743	89,664	-0,239	-0,187
100,757	52,424	-0,363	-0,242
101,772	-38,028	-0,368	-0,136
102,787	-4,323	-0,321	-0,155
103,801	358,692	-0,202	-0,283
104,816	92,077	-0,254	-0,200
105,830	129,828	-0,237	-0,212
106,845	114,475	-0,261	-0,223
107,860	43,874	-0,249	-0,159
108,874	66,811	-0,318	-0,226
109,889	169,878	-0,308	-0,308
110,903	-84,707	-0,347	-0,076
111,918	-23,411	-0,273	-0,114
112,933	-136,453	-0,234	-0,019
113,947	-19,111	-0,167	-0,072
114,962	-36,847	-0,192	0,071
115,976	-41,604	-0,318	-0,114
116,991	-22,689	-0,304	-0,128
118,006	-48,703	-0,271	-0,090
119,020	143,983	-0,268	-0,250
120,035	108,909	-0,280	-0,234
121,049	80,921	-0,321	-0,241
122,064	-33,729	-0,274	-0,105
123,079	32,413	-0,305	-0,184
124,093	-1,612	-0,363	-0,178
125,108	-3,696	-0,322	-0,156
126,122	-13,135	-0,222	-0,100
127,137	132,188	-0,301	-0,271
128,151	169,033	-0,184	-0,183
129,166	-135,691	-0,211	-0,017
130,181	33,276	-0,242	-0,146
131,195	185,394	-0,199	-0,207
132,210	197,705	-0,294	-0,314
133,224	21,375	-0,185	-0,105
134,239	290,919	-0,256	-0,326
135,254	-200,000	-0,071	-0,257
136,268	102,916	-0,216	-0,177
137,283	62,048	-0,253	-0,175
138,297	99,286	-0,230	-0,185
139,312	-11,305	-0,423	-0,194
140,327	177,840	-0,244	-0,248
141,341	145,756	-0,290	-0,271
142,356	57,603	-0,167	-0,113
143,370	-130,050	-0,198	0,019
144,385	800,000	-0,086	-0,189
145,400	119,534	-0,274	-0,236
146,414	121,534	-0,312	-0,271
147,429	230,599	-0,178	-0,203
148,443	5,236	-0,342	-0,175
149,458	206,584	-0,155	-0,168
150,473	48,756	-0,232	-0,151
151,487	1,530	-0,269	-0,134
152,502	110,293	-0,268	-0,224
153,516	539,724	-0,144	-0,239
154,531	58,514	-0,247	-0,169
155,546	97,581	-0,236	-0,189
156,560	383,507	-0,199	-0,286
157,575	-70,908	-0,197	0,051
158,589	-200,000	0,030	-0,131
159,604	-35,929	-0,208	-0,078
160,619	150,566	-0,161	-0,152
161,633	1,028	-0,219	-0,109
162,648	26,787	-0,250	-0,145
163,662	-37,943	-0,155	0,057
164,677	166,789	-0,128	-0,127
165,692	-71,348	-0,278	-0,072
166,706	670,308	-0,128	-0,232
167,721	-25,634	-0,306	-0,125
168,735	16,839	-0,269	-0,148
169,750	141,218	-0,263	-0,242
170,764	52,085	-0,249	-0,165
171,779	124,901	-0,169	-0,148
172,794	62,186	-0,248	-0,172
173,808	213,039	-0,169	-0,186
174,823	29,059	-0,277	-0,163
175,837	43,077	-0,177	-0,112
176,852	108,124	-0,270	-0,223
177,867	28,302	-0,204	-0,120
178,881	-142,715	-0,160	0,011
179,896	81,252	-0,082	0,062
180,910	49,906	-0,191	-0,125
181,925	106,374	-0,200	-0,165
182,940	53,321	-0,418	-0,278
183,954	-0,860	-0,240	-0,118
184,969	-36,160	-0,235	-0,088
185,983	-21,298	-0,091	0,039
186,998	239,430	-0,145	-0,167
188,013	-44,353	-0,344	-0,119
189,027	148,907	-0,162	-0,152
190,042	161,479	-0,159	-0,155
191,056	46,193	-0,318	-0,204
192,071	-53,797	-0,200	-0,063
193,086	84,075	-0,161	-0,122
194,100	173,622	-0,122	-0,122
195,115	93,042	-0,131	-0,102
196,129	-52,285	-0,145	-0,046
197,144	165,589	-0,244	-0,240
198,159	800,000	-0,052	-0,112
199,173	12,647	-0,199	-0,106
200,188	-74,327	-0,222	0,055
201,202	-158,398	-0,237	-0,009
202,217	189,300	-0,192	-0,200
203,232	15,433	-0,214	-0,116
204,246	397,599	-0,154	-0,224
205,261	189,382	-0,199	-0,207
206,275	13,694	-0,188	-0,101
207,290	181,558	-0,161	-0,164
208,304	123,099	-0,145	-0,126
209,319	800,000	-0,129	-0,283
210,334	-1,758	-0,370	-0,180
211,348	107,487	-0,215	-0,177
212,363	-200,000	-0,004	-0,233
213,377	-158,763	-0,205	-0,008
214,392	62,658	-0,124	-0,086
215,407	159,488	-0,134	-0,129
216,421	-14,900	-0,248	-0,110
217,436	42,000	-0,218	-0,137
218,450	36,675	-0,230	-0,140
219,465	255,027	-0,134	-0,159
220,480	201,987	-0,179	-0,192
221,494	800,000	-0,098	-0,238
222,509	400,877	-0,072	-0,105
223,523	71,749	-0,155	-0,111
224,538	1,794	-0,283	-0,141
225,553	500,599	-0,175	-0,281
226,567	289,639	-0,193	-0,242
227,582	-59,007	-0,241	-0,072
228,596	-32,393	-0,215	-0,083
229,611	173,349	-0,083	-0,082
230,626	-64,435	-0,122	-0,034
231,640	-131,871	-0,310	-0,028
232,655	64,024	-0,128	-0,089
233,669	63,713	-0,176	-0,122
234,684	106,694	-0,231	-0,190
235,699	-200,000	-0,041	-0,167
236,713	166,222	-0,118	-0,116
237,728	0,052	-0,144	-0,071
238,742	-78,136	-0,282	-0,066
239,757	9,359	-0,234	-0,122
240,772	-200,000	-0,082	-0,251
241,786	235,314	-0,197	-0,225
242,801	800,000	-0,059	-0,122
243,815	66,037	-0,137	-0,096
244,830	38,051	-0,155	-0,095
245,844	77,103	-0,203	-0,149
246,859	-200,000	-0,032	-0,146
247,874	5,221	-0,176	-0,089
248,888	131,936	-0,099	-0,088
249,903	-72,065	-0,218	-0,055
250,917	48,964	-0,214	-0,138
251,932	-116,206	-0,216	-0,027
252,947	-131,690	-0,203	0,018
253,961	-93,267	-0,212	-0,040
254,976	91,762	-0,166	-0,129
255,990	163,155	-0,194	-0,189
257,005	197,866	-0,208	-0,219
258,020	53,786	-0,216	-0,143
259,034	-100,402	-0,239	-0,040
260,049	299,251	-0,133	-0,170
261,063	-19,355	-0,248	-0,106
262,078	800,000	-0,072	-0,207
263,093	-59,000	-0,175	-0,052
264,107	90,346	-0,163	-0,126
265,122	158,146	-0,160	-0,153
266,136	123,063	-0,067	-0,058
267,151	-68,571	-0,150	0,040
268,166	800,000	-0,057	-0,154
269,180	341,077	-0,186	-0,251
270,195	272,989	-0,185	-0,226
271,209	-12,406	-0,217	-0,097
272,224	-200,000	-0,023	-0,155
273,239	800,000	-0,080	-0,181
274,253	102,698	-0,133	-0,107
275,268	143,789	-0,158	-0,145
276,282	800,000	-0,076	-0,202
277,297	-21,580	-0,167	-0,070
278,312	-126,215	-0,160	-0,016
279,326	-176,395	-0,140	0,002
280,341	173,629	-0,124	-0,123
281,355	-108,873	-0,120	-0,018
282,370	147,898	-0,190	-0,177
283,384	140,001	-0,132	-0,120
284,399	-27,268	-0,116	-0,046
285,414	24,317	-0,152	-0,087
286,428	-42,524	-0,097	-0,034
287,443	188,108	-0,117	-0,120
288,457	-22,891	-0,090	-0,037
289,472	-153,393	-0,198	-0,009
290,487	-97,607	-0,178	-0,031
291,501	-92,640	-0,262	-0,050
292,516	-44,561	-0,217	-0,074
293,530	-111,357	-0,150	-0,021
294,545	5,587	-0,088	-0,045
295,560	800,000	-0,042	0,082
296,574	193,730	-0,112	-0,117
297,589	57,199	-0,177	-0,119
298,603	-200,000	-0,042	-0,152
299,618	44,483	-0,141	-0,089
300,633	152,995	-0,092	-0,087
301,647	-8,114	-0,229	-0,106
302,662	47,014	-0,133	-0,085
303,676	-125,804	-0,284	-0,029
304,691	168,369	-0,183	-0,179
305,706	608,137	-0,140	-0,241
306,720	-29,465	-0,134	-0,052
307,735	-50,363	-0,194	-0,063
308,749	800,000	-0,062	-0,136
309,764	-129,103	-0,153	-0,015
310,779	91,571	-0,106	-0,082
311,793	26,761	-0,148	-0,085
312,808	-91,890	-0,312	-0,060
313,822	570,900	-0,061	-0,102
314,837	800,000	-0,092	-0,236
315,852	-200,000	-0,043	-0,238
316,866	-14,742	-0,072	-0,032
317,881	8,255	-0,205	-0,106
318,895	44,448	-0,215	-0,135
319,910	267,825	-0,197	-0,237
320,925	800,000	-0,073	-0,162
321,939	648,789	-0,126	-0,222
322,954	-200,000	-0,183	0,000
323,968	476,775	-0,029	-0,046
324,983	370,981	-0,082	-0,114
325,997	114,247	-0,188	-0,157
327,012	89,470	-0,207	-0,159
328,027	-145,043	-0,088	-0,005
329,041	-52,953	-0,187	-0,059
330,056	176,674	-0,108	-0,107
331,070	264,797	0,012	-0,014
332,085	-181,299	-0,038	0,001
333,100	-127,313	-0,163	0,016
334,114	-139,825	-0,172	0,012
335,129	-7,361	-0,146	-0,068
336,143	27,318	-0,131	-0,075
337,158	221,686	-0,127	0,140
338,173	-66,070	-0,115	-0,031
339,187	84,849	-0,141	-0,106
340,202	-200,000	-0,074	-0,229
341,216	416,640	-0,139	-0,204
342,231	131,019	-0,146	-0,129
343,246	458,228	-0,062	-0,095
344,260	-47,217	-0,100	-0,033
345,275	25,358	-0,087	0,049
346,289	-80,626	-0,172	-0,039
347,304	800,000	-0,070	-0,154
348,319	-165,321	-0,211	0,006
349,333	36,899	-0,188	-0,114
350,348	357,145	-0,118	-0,161
351,362	53,023	-0,125	-0,082
352,377	-124,590	-0,154	-0,016
353,392	40,270	-0,166	-0,102
354,406	-151,409	-0,105	0,005
355,421	208,016	1313,052	1405,503
356,435	160,046	1473,545	1405,987
